DTS Sentinel unit serial number:	SN413079Multiplexer serial number:	ORYXHardware model number:	OX4-SRSoftware version number:	ORYX F/W v4.00 Oryx Data Collector v3.7.2.0data status	okinstallation	princeton_trtdifferential loss correction	single-endedforward channel	channel 4reverse channel	N/Adate	2019/09/11time	07:47:11forward acquisition time	60.00reverse acquisition time	0.00gamma	496.2192k internal	0.2306k external	0.2306temperature offset calibration	0.9951default loss term (dB/km)	0.3790temperature slope calibration	1.0000multiplexer offset coefficient	1.0000multiplexer slope coefficient	1.0000fibre end	0.00T internal ref (°C)	31.64T ext. ref 1 (°C)	0.08T ext. ref 2 (°C)	28.21length (m)	temperature (°C)	Stokes	anti-Stokes-747.200	800.000	0.056	-0.161
-746.185	160.480	0.023	-0.033
-745.171	-119.150	0.132	-0.023
-744.156	800.000	-0.087	0.340
-743.142	73.093	-0.124	0.132
-742.127	277.384	0.122	0.221
-741.112	-101.046	0.377	-0.094
-740.098	-133.373	0.164	0.021
-739.083	-200.000	0.017	0.083
-738.069	800.000	-0.109	0.318
-737.054	-72.766	0.092	0.034
-736.039	-98.441	-0.356	-0.093
-735.025	-109.778	-0.299	-0.064
-734.010	800.000	-0.022	0.086
-732.996	-15.658	-0.255	0.165
-731.981	-6.265	0.075	-0.052
-730.966	800.000	0.081	0.318
-729.952	-0.981	-0.073	0.052
-728.937	800.000	0.093	-0.345
-727.923	187.060	-0.046	0.069
-726.908	-54.632	-0.306	-0.140
-725.894	800.000	-0.084	0.324
-724.879	30.506	-0.383	-0.333
-723.864	-52.565	0.438	-0.206
-722.850	-22.513	-0.380	-0.234
-721.835	19.436	-0.219	0.179
-720.821	-25.994	-0.188	0.112
-719.806	391.820	0.120	-0.252
-718.791	-40.074	-0.368	-0.195
-717.777	-70.564	0.284	-0.109
-716.762	193.008	-0.119	-0.183
-715.748	22.328	-0.231	0.192
-714.733	-130.768	0.250	-0.034
-713.718	81.594	0.148	-0.163
-712.704	64.022	-0.186	-0.190
-711.689	332.629	-0.172	-0.338
-710.675	-52.843	0.174	-0.081
-709.660	-104.678	0.244	-0.057
-708.645	800.000	-0.077	0.296
-707.631	-41.674	-0.270	-0.141
-706.616	800.000	0.093	0.379
-705.602	-121.343	-0.172	0.029
-704.587	-176.227	-0.422	-0.011
-703.572	19.606	0.243	-0.199
-702.558	348.720	0.066	-0.132
-701.543	178.374	-0.096	0.143
-700.529	-149.088	0.372	-0.030
-699.514	-200.000	0.035	0.197
-698.499	-165.130	0.249	-0.011
-697.485	800.000	0.159	-0.508
-696.470	-200.000	0.018	-0.096
-695.456	-200.000	-0.020	0.278
-694.441	800.000	0.050	0.144
-693.426	-183.560	0.070	-0.001
-692.412	800.000	0.095	-0.266
-691.397	-200.000	0.033	0.313
-690.383	-95.926	0.095	-0.026
-689.368	-200.000	0.013	-0.179
-688.354	-115.260	-0.316	-0.061
-687.339	-8.896	-0.221	0.150
-686.324	800.000	-0.085	-0.295
-685.310	-24.231	0.092	0.056
-684.295	-66.670	0.092	-0.037
-683.281	-172.798	0.350	0.011
-682.266	775.662	-0.089	-0.247
-681.251	-44.687	-0.425	-0.215
-680.237	67.694	0.097	-0.101
-679.222	53.264	-0.382	0.371
-678.208	12.632	-0.204	0.160
-677.193	-76.006	-0.144	-0.052
-676.178	319.148	-0.129	-0.249
-675.164	466.234	-0.034	-0.077
-674.149	-9.654	-0.280	0.189
-673.135	-5.318	-0.205	0.143
-672.120	127.216	-0.138	-0.177
-671.105	-127.586	0.065	0.010
-670.091	-103.342	-0.202	0.048
-669.076	690.902	0.125	0.332
-668.062	191.811	-0.063	-0.097
-667.047	154.166	0.040	-0.055
-666.032	-200.000	0.002	-0.149
-665.018	-11.367	-0.223	0.149
-664.003	800.000	-0.029	-0.095
-662.989	606.113	-0.145	-0.366
-661.974	-28.048	0.180	-0.106
-660.959	800.000	0.012	0.033
-659.945	24.981	-0.212	0.178
-658.930	52.810	0.041	0.040
-657.916	-200.000	-0.019	0.189
-656.901	-200.000	-0.006	0.198
-655.886	51.919	-0.067	-0.064
-654.872	187.483	0.201	-0.305
-653.857	-200.000	0.029	-0.152
-652.843	-27.884	0.138	0.081
-651.828	-23.083	-0.457	-0.279
-650.814	-200.000	0.024	-0.139
-649.799	-200.000	0.011	0.104
-648.784	-32.215	-0.140	0.079
-647.770	-200.000	-0.038	0.267
-646.755	97.944	0.046	-0.053
-645.741	-200.000	-0.016	-0.136
-644.726	96.524	0.031	-0.035
-643.711	-27.292	-0.248	-0.146
-642.697	28.113	0.235	-0.201
-641.682	800.000	0.061	-0.208
-640.668	29.744	-0.152	-0.132
-639.653	2.911	-0.096	-0.070
-638.638	-139.542	0.118	-0.013
-637.624	-200.000	-0.015	-0.131
-636.609	121.861	0.099	0.125
-635.595	26.583	-0.229	-0.194
-634.580	140.924	0.214	-0.286
-633.565	-117.835	0.308	-0.056
-632.551	130.740	0.346	-0.449
-631.536	-26.856	-0.095	-0.056
-630.522	-200.000	-0.042	-0.258
-629.507	527.426	0.032	0.076
-628.492	-79.630	-0.135	0.046
-627.478	323.606	0.088	-0.169
-626.463	-150.332	-0.150	0.012
-625.449	559.682	-0.033	0.080
-624.434	77.458	0.099	0.106
-623.419	-55.814	0.284	-0.129
-622.405	-79.011	-0.228	0.079
-621.390	-132.728	0.213	0.028
-620.376	-135.162	-0.413	-0.050
-619.361	800.000	0.045	-0.150
-618.346	-129.735	0.154	0.021
-617.332	226.200	-0.241	-0.396
-616.317	253.473	0.204	-0.352
-615.303	-31.242	0.137	-0.078
-614.288	-84.148	0.231	-0.074
-613.273	-11.575	-0.097	0.064
-612.259	-200.000	-0.005	-0.418
-611.244	-200.000	0.030	-0.275
-610.230	102.588	-0.069	0.082
-609.215	55.399	0.042	-0.041
-608.201	-200.000	-0.055	-0.296
-607.186	-74.195	0.185	0.068
-606.171	115.245	-0.219	-0.271
-605.157	800.000	-0.115	-0.382
-604.142	800.000	0.052	0.165
-603.128	-73.363	0.144	0.053
-602.113	-81.264	0.153	-0.051
-601.098	800.000	0.018	-0.061
-600.084	-92.876	0.038	-0.011
-599.069	-200.000	-0.014	0.109
-598.055	55.717	0.064	0.063
-597.040	-200.000	-0.069	0.396
-596.025	-200.000	-0.025	0.154
-595.011	-200.000	0.010	0.056
-593.996	-141.649	-0.138	0.014
-592.982	300.683	-0.117	-0.219
-591.967	422.483	0.130	0.283
-590.952	-20.907	0.179	0.111
-589.938	-46.380	0.019	0.010
-588.923	800.000	0.071	-0.299
-587.909	800.000	0.056	-0.176
-586.894	2.328	0.065	-0.048
-585.879	401.188	-0.115	-0.245
-584.865	800.000	0.029	-0.098
-583.850	128.169	0.317	-0.408
-582.836	-171.263	-0.278	-0.009
-581.821	37.406	0.041	-0.037
-580.806	-67.653	0.335	0.133
-579.792	3.995	-0.427	-0.316
-578.777	98.041	0.207	0.241
-577.763	-200.000	-0.002	-0.060
-576.748	52.122	0.156	-0.150
-575.733	99.724	-0.109	-0.127
-574.719	101.815	-0.253	-0.298
-573.704	95.842	0.091	0.105
-572.690	757.585	-0.052	-0.143
-571.675	386.828	0.134	-0.279
-570.661	68.916	0.085	0.089
-569.646	118.829	0.194	0.243
-568.631	120.427	-0.170	-0.214
-567.617	-200.000	0.004	-0.150
-566.602	-98.040	-0.165	-0.043
-565.588	-114.974	0.021	0.004
-564.573	800.000	0.048	-0.202
-563.558	107.912	0.050	0.060
-562.544	-157.680	-0.148	0.009
-561.529	110.997	-0.034	0.042
-560.515	-61.166	-0.191	0.081
-559.500	-200.000	-0.003	0.043
-558.485	183.821	0.133	0.198
-557.471	-128.769	0.087	0.012
-556.456	-37.679	0.302	0.162
-555.442	0.725	-0.221	0.160
-554.427	-15.039	0.281	0.182
-553.412	-3.477	0.116	-0.082
-552.398	-0.849	-0.082	0.058
-551.383	-140.240	-0.440	-0.047
-550.369	32.182	-0.111	-0.097
-549.354	-101.476	-0.274	0.067
-548.339	-35.202	-0.246	0.135
-547.325	361.086	-0.138	-0.278
-546.310	-200.000	-0.060	0.303
-545.296	53.886	-0.154	-0.149
-544.281	77.872	-0.189	-0.203
-543.266	316.792	0.104	-0.198
-542.252	800.000	-0.005	-0.021
-541.237	234.563	0.048	-0.079
-540.223	-10.955	0.383	0.255
-539.208	-59.723	0.305	-0.132
-538.193	38.454	-0.062	0.056
-537.179	-200.000	-0.010	-0.265
-536.164	306.832	-0.123	0.231
-535.150	-96.801	-0.398	-0.106
-534.135	118.300	0.057	0.071
-533.121	17.312	0.213	0.171
-532.106	-200.000	-0.007	-0.113
-531.091	178.603	0.102	0.151
-530.077	302.181	-0.120	-0.224
-529.062	800.000	0.040	0.172
-528.048	-41.248	0.129	0.067
-527.033	-58.555	0.272	0.119
-526.018	-91.154	0.187	-0.054
-525.004	-6.669	-0.077	0.053
-523.989	-92.653	0.318	-0.090
-522.975	-115.712	-0.170	-0.032
-521.960	116.414	-0.125	0.154
-520.945	8.258	0.202	-0.153
-519.931	-200.000	0.011	-0.130
-518.916	-14.304	-0.113	0.074
-517.902	139.527	-0.357	0.474
-516.887	800.000	-0.033	-0.143
-515.872	-200.000	0.036	0.433
-514.858	80.596	0.063	0.068
-513.843	-36.733	0.170	0.092
-512.829	-106.985	-0.097	-0.022
-511.814	-31.226	0.201	0.114
-510.799	676.195	-0.161	0.423
-509.785	-200.000	0.002	0.060
-508.770	-109.295	-0.125	0.027
-507.756	-154.929	0.083	0.006
-506.741	13.082	0.204	-0.159
-505.726	131.825	-0.125	-0.162
-504.712	-34.602	0.281	0.155
-503.697	143.827	0.068	0.092
-502.683	155.628	0.116	-0.161
-501.668	173.271	-0.045	0.065
-500.653	-200.000	0.055	-0.319
-499.639	233.712	0.149	-0.246
-498.624	257.304	-0.180	-0.312
-497.610	141.974	-0.090	0.120
-496.595	10.658	0.263	-0.202
-495.581	-200.000	-0.016	0.196
-494.566	247.281	-0.056	0.095
-493.551	-146.631	0.186	-0.016
-492.537	800.000	0.031	-0.120
-491.522	554.740	0.074	-0.179
-490.508	-200.000	0.030	0.243
-489.493	637.317	0.146	-0.374
-488.478	556.063	0.096	0.232
-487.464	-173.851	0.128	-0.004
-486.449	-200.000	0.022	0.106
-485.435	144.137	-0.155	0.208
-484.420	-200.000	0.006	0.104
-483.405	119.554	0.081	0.101
-482.391	-52.249	0.048	-0.023
-481.376	18.018	-0.155	0.125
-480.362	-45.875	0.214	-0.106
-479.347	-200.000	-0.031	-0.161
-478.332	576.245	0.031	-0.076
-477.318	271.922	0.054	-0.095
-476.303	-132.895	-0.124	-0.016
-475.289	380.703	-0.122	0.253
-474.274	41.628	-0.167	-0.152
-473.259	43.440	-0.183	0.169
-472.245	-200.000	0.018	-0.135
-471.230	10.576	0.072	-0.055
-470.216	800.000	-0.032	-0.090
-469.201	0.711	-0.130	-0.093
-468.186	-112.625	-0.316	0.063
-467.172	109.011	0.044	-0.053
-466.157	106.686	0.035	0.041
-465.143	-56.057	-0.250	-0.112
-464.128	-132.750	-0.084	-0.011
-463.113	75.920	-0.074	0.079
-462.099	800.000	0.106	0.312
-461.084	-16.868	-0.232	0.148
-460.070	41.686	-0.172	0.157
-459.055	-72.695	0.094	0.035
-458.040	-200.000	0.007	-0.202
-457.026	138.411	0.115	0.152
-456.011	-200.000	0.009	-0.168
-454.997	800.000	0.065	0.190
-453.982	-146.815	-0.187	-0.016
-452.968	800.000	0.052	0.197
-451.953	-200.000	0.026	-0.126
-450.938	800.000	-0.046	0.148
-449.924	184.398	0.270	0.402
-448.909	-24.582	-0.167	0.100
-447.895	800.000	-0.050	0.163
-446.880	-8.450	-0.173	0.117
-445.865	800.000	0.073	-0.236
-444.851	589.313	0.062	-0.153
-443.836	104.112	-0.267	-0.316
-442.822	178.449	-0.124	0.182
-441.807	355.235	0.115	-0.230
-440.792	85.425	0.122	-0.134
-439.778	68.096	-0.072	0.074
-438.763	-17.787	0.037	-0.024
-437.749	-37.253	0.254	0.137
-436.734	-4.126	-0.272	-0.189
-435.719	-103.258	0.219	-0.052
-434.705	75.620	-0.409	-0.434
-433.690	-200.000	0.006	0.144
-432.676	-73.168	0.261	0.096
-431.661	-47.863	-0.111	-0.054
-430.646	-107.149	-0.230	-0.051
-429.632	6.680	0.199	0.149
-428.617	-82.491	0.087	0.028
-427.603	143.654	0.160	-0.215
-426.588	-200.000	-0.045	-0.272
-425.573	-104.556	-0.093	-0.022
-424.559	37.854	-0.206	0.184
-423.544	-200.000	-0.006	-0.059
-422.530	-109.695	-0.221	-0.047
-421.515	-66.746	-0.062	-0.024
-420.500	-12.040	-0.134	-0.088
-419.486	-200.000	-0.002	0.132
-418.471	304.359	-0.113	-0.211
-417.457	97.236	-0.221	-0.255
-416.442	-125.073	0.355	-0.055
-415.428	-200.000	0.007	0.070
-414.413	172.112	-0.333	-0.481
-413.398	326.065	0.068	0.131
-412.384	45.143	-0.107	-0.099
-411.369	-68.101	0.226	-0.088
-410.355	160.804	-0.159	0.223
-409.340	800.000	0.046	-0.179
-408.325	191.841	-0.069	-0.105
-407.311	-26.895	0.283	0.166
-406.296	409.309	0.068	-0.144
-405.282	123.909	0.230	-0.290
-404.267	367.991	-0.131	-0.265
-403.252	-72.525	0.203	-0.075
-402.238	800.000	0.031	-0.101
-401.223	-132.099	-0.541	0.071
-400.209	-200.000	0.037	-0.231
-399.194	-200.000	0.022	-0.191
-398.179	361.774	0.073	0.146
-397.165	-200.000	0.036	0.162
-396.150	-45.105	0.371	0.185
-395.136	-200.000	-0.022	-0.247
-394.121	779.223	-0.161	-0.441
-393.106	-133.271	-0.071	0.009
-392.092	160.883	0.103	-0.144
-391.077	113.036	0.049	-0.059
-390.063	414.201	-0.062	-0.133
-389.048	797.549	-0.141	-0.390
-388.033	-121.456	-0.123	-0.021
-387.019	-109.999	-0.187	-0.039
-386.004	-26.830	0.370	-0.217
-384.990	-56.151	-0.387	0.173
-383.975	800.000	-0.101	0.322
-382.960	49.734	-0.175	0.166
-381.946	625.423	-0.052	0.131
-380.931	-29.025	-0.089	0.051
-379.917	166.216	0.128	-0.182
-378.902	-120.609	-0.200	0.034
-377.888	13.880	0.100	-0.078
-376.873	129.656	0.046	-0.059
-375.858	209.639	0.027	0.042
-374.844	277.241	0.099	0.177
-373.829	-32.060	-0.422	0.236
-372.815	-148.591	0.328	0.027
-371.800	368.496	0.067	0.135
-370.785	-49.292	0.107	-0.051
-369.771	-98.559	0.279	0.071
-368.756	-124.584	-0.231	0.036
-367.742	121.175	-0.179	-0.223
-366.727	-200.000	0.058	-0.270
-365.712	191.183	0.070	0.105
-364.698	-55.378	-0.176	0.079
-363.683	-96.939	-0.184	-0.048
-362.669	-155.356	0.372	-0.024
-361.654	-186.903	-0.280	0.004
-360.639	707.127	-0.023	0.060
-359.625	3.382	-0.152	0.111
-358.610	28.299	0.104	-0.088
-357.596	-116.567	0.077	-0.014
-356.581	800.000	0.050	0.156
-355.566	-200.000	0.037	-0.186
-354.552	-26.878	-0.266	0.156
-353.537	210.681	0.125	0.197
-352.523	-182.462	-0.231	0.004
-351.508	-54.839	-0.130	0.059
-350.493	-30.640	0.183	0.104
-349.479	-200.000	-0.022	-0.198
-348.464	499.690	-0.071	-0.165
-347.450	665.377	-0.079	-0.203
-346.435	-45.450	0.077	-0.038
-345.420	70.637	0.070	-0.073
-344.406	58.228	-0.056	0.055
-343.391	-71.847	-0.149	-0.056
-342.377	-200.000	-0.013	0.097
-341.362	-30.530	-0.110	-0.062
-340.348	176.351	0.192	0.279
-339.333	-200.000	-0.010	-0.101
-338.318	-200.000	0.018	0.295
-337.304	2.945	-0.121	0.088
-336.289	800.000	0.031	0.119
-335.275	144.931	0.120	0.160
-334.260	-102.011	-0.172	0.042
-333.245	355.124	0.201	-0.400
-332.231	80.056	-0.106	-0.114
-331.216	30.416	-0.172	0.147
-330.202	-200.000	0.023	0.118
-329.187	-115.611	-0.174	-0.033
-328.172	286.669	-0.129	-0.234
-327.158	117.682	-0.179	-0.221
-326.143	170.848	0.270	0.387
-325.129	-200.000	0.016	0.091
-324.114	-41.647	0.049	-0.025
-323.099	248.883	0.044	0.075
-322.085	168.009	0.075	0.107
-321.070	120.994	0.036	-0.045
-320.056	57.609	0.104	0.102
-319.041	-200.000	0.024	-0.190
-318.026	-200.000	-0.045	-0.205
-317.012	233.047	-0.254	-0.417
-315.997	-136.536	0.151	0.017
-314.983	800.000	0.121	0.334
-313.968	-166.381	0.130	0.005
-312.953	800.000	-0.044	-0.170
-311.939	250.957	-0.008	-0.014
-310.924	-200.000	-0.017	0.265
-309.910	-200.000	0.096	0.448
-308.895	-32.432	0.389	0.217
-307.880	-164.266	0.423	-0.019
-306.866	87.860	0.280	-0.310
-305.851	192.825	-0.253	-0.382
-304.837	-89.955	-0.352	-0.103
-303.822	-73.493	0.244	0.089
-302.807	1.639	0.235	0.169
-301.793	685.496	0.096	0.250
-300.778	-39.242	-0.222	-0.117
-299.764	800.000	-0.038	-0.147
-298.749	-31.705	-0.146	-0.082
-297.735	631.139	-0.116	0.294
-296.720	-200.000	-0.049	0.222
-295.705	357.358	0.111	0.221
-294.691	-85.070	-0.082	0.026
-293.676	800.000	0.051	0.167
-292.662	-200.000	-0.037	0.274
-291.647	-79.676	0.180	0.061
-290.632	33.909	-0.266	-0.232
-289.618	-124.113	-0.101	0.016
-288.603	12.208	0.173	-0.133
-287.589	19.895	-0.208	0.167
-286.574	249.165	-0.171	0.289
-285.559	-142.266	0.458	-0.045
-284.545	164.870	0.040	-0.056
-283.530	160.412	-0.061	0.085
-282.516	-149.889	0.219	0.017
-281.501	-170.566	-0.215	-0.007
-280.486	87.152	-0.211	-0.233
-279.472	100.094	0.120	0.139
-278.457	138.453	-0.151	0.197
-277.443	800.000	-0.031	0.124
-276.428	-200.000	-0.039	0.236
-275.413	99.109	0.198	0.228
-274.399	340.847	-0.066	-0.128
-273.384	-62.377	0.274	0.114
-272.370	800.000	0.057	0.216
-271.355	-200.000	0.020	0.283
-270.340	402.892	0.047	-0.098
-269.326	-200.000	0.021	-0.156
-268.311	-173.313	-0.238	-0.007
-267.297	65.915	-0.127	-0.129
-266.282	-99.441	0.124	0.031
-265.267	-9.654	-0.199	-0.133
-264.253	-91.954	0.272	-0.077
-263.238	-84.831	-0.135	0.042
-262.224	578.311	-0.067	0.163
-261.209	139.545	0.064	0.085
-260.195	-60.970	-0.298	0.126
-259.180	-95.035	-0.257	-0.069
-258.165	-58.050	0.175	-0.076
-257.151	-200.000	0.003	0.061
-256.136	-57.477	0.249	-0.109
-255.122	21.931	0.084	0.068
-254.107	50.869	0.291	0.275
-253.092	800.000	-0.058	0.208
-252.078	248.968	0.091	-0.154
-251.063	-51.731	0.111	-0.052
-250.049	20.790	0.297	-0.240
-249.034	-76.942	-0.215	-0.075
-248.019	-143.788	0.048	-0.005
-247.005	6.514	-0.200	-0.148
-245.990	-200.000	-0.045	0.421
-244.976	-143.487	-0.267	-0.025
-243.961	-59.099	0.241	0.104
-242.946	-45.930	-0.170	-0.084
-241.932	-200.000	0.021	0.228
-240.917	26.775	-0.183	0.153
-239.903	-175.849	-0.293	-0.008
-238.888	217.378	-0.254	0.403
-237.873	-200.000	-0.030	0.194
-236.859	-77.079	-0.110	-0.038
-235.844	30.857	0.080	-0.068
-234.830	153.084	-0.050	-0.069
-233.815	157.005	-0.161	0.221
-232.800	663.523	0.108	0.278
-231.786	-200.000	0.094	0.620
-230.771	-197.321	0.276	0.002
-229.757	699.044	-0.143	0.374
-228.742	-49.972	-0.117	-0.055
-227.727	-69.662	-0.301	0.115
-226.713	-56.008	-0.361	0.161
-225.698	800.000	-0.016	0.062
-224.684	-164.664	-0.044	-0.002
-223.669	-200.000	0.024	0.350
-222.655	800.000	0.017	0.065
-221.640	321.533	-0.060	0.114
-220.625	-95.812	-0.221	-0.059
-219.611	-73.820	0.466	-0.169
-218.596	106.975	0.228	0.270
-217.582	241.488	-0.070	-0.116
-216.567	-14.102	0.291	-0.187
-215.552	10.371	0.110	-0.083
-214.538	70.985	0.098	0.101
-213.523	-55.375	0.031	-0.014
-212.509	-200.000	0.020	0.613
-211.494	2.437	0.112	0.081
-210.479	-127.448	0.114	-0.016
-209.465	800.000	0.050	-0.203
-208.450	800.000	-0.021	0.064
-207.436	20.457	0.154	0.124
-206.421	112.542	-0.096	0.116
-205.406	800.000	-0.030	-0.086
-204.392	107.572	-0.186	0.220
-203.377	800.000	0.124	0.345
-202.363	800.000	-0.050	-0.184
-201.348	293.768	0.024	0.044
-200.333	-149.002	0.050	-0.004
-199.319	-126.108	-0.522	-0.078
-198.304	-76.826	0.176	-0.061
-197.290	433.334	0.069	-0.150
-196.275	164.120	-0.206	-0.289
-195.260	483.123	0.128	0.289
-194.246	104.137	0.043	0.050
-193.231	187.310	-0.231	-0.343
-192.217	-4.399	-0.144	0.099
-191.202	-50.992	0.238	-0.111
-190.187	-200.000	-0.012	0.085
-189.173	-16.915	0.264	-0.166
-188.158	-32.527	0.118	-0.066
-187.144	301.035	-0.011	-0.020
-186.129	-87.338	-0.059	0.018
-185.114	-200.000	-0.061	-0.290
-184.100	68.793	0.278	0.284
-183.085	207.889	0.124	0.193
-182.071	-94.109	-0.253	0.069
-181.056	799.608	0.104	-0.286
-180.042	-66.459	-0.269	0.106
-179.027	278.712	0.258	0.458
-178.012	116.404	-0.153	0.186
-176.998	-200.000	-0.072	0.323
-175.983	-91.922	-0.195	0.055
-174.969	17.136	-0.233	0.184
-173.954	-200.000	0.041	0.391
-172.939	166.243	-0.076	0.107
-171.925	107.791	0.130	-0.154
-170.910	33.032	0.227	0.195
-169.896	207.962	-0.092	-0.143
-168.881	370.708	0.151	-0.305
-167.866	28.228	0.318	0.267
-166.852	-200.000	0.042	0.295
-165.837	-115.312	-0.193	0.036
-164.823	268.107	0.175	-0.305
-163.808	-200.000	0.059	-0.299
-162.793	-180.311	-0.148	-0.003
-161.779	800.000	-0.025	-0.102
-160.764	119.569	0.198	-0.244
-159.750	69.072	-0.024	-0.025
-158.735	-15.752	0.212	-0.135
-157.720	682.173	0.078	-0.203
-156.706	-108.294	0.032	-0.007
-155.691	-200.000	0.009	-0.255
-154.677	-35.101	0.174	0.094
-153.662	508.304	0.068	0.157
-152.647	81.313	-0.050	0.054
-151.633	-74.986	0.087	0.031
-150.618	-200.000	-0.019	0.265
-149.604	-200.000	0.023	-0.178
-148.589	-173.119	-0.173	-0.005
-147.574	-49.448	-0.223	-0.106
-146.560	-200.000	-0.009	-0.055
-145.545	-200.000	0.073	0.386
-144.531	-103.720	-0.129	0.030
-143.516	-200.000	0.006	0.328
-142.502	680.300	-0.103	-0.266
-141.487	-155.711	0.350	-0.022
-140.472	-101.562	0.245	0.059
-139.458	-23.176	0.234	-0.140
-138.443	-144.508	-0.295	-0.027
-137.429	-200.000	0.015	0.427
-136.414	75.999	-0.228	0.239
-135.399	-200.000	-0.002	-0.168
-134.385	-138.634	0.242	-0.026
-133.370	-133.619	0.246	0.030
-132.356	310.305	0.110	-0.204
-131.341	-158.923	-0.259	0.015
-130.326	-64.754	-0.008	0.003
-129.312	-73.140	-0.083	0.030
-128.297	-164.729	0.115	-0.005
-127.283	800.000	-0.112	-0.477
-126.268	134.624	-0.302	-0.390
-125.253	75.244	0.186	-0.195
-124.239	-46.941	-0.451	0.219
-123.224	-18.333	-0.063	-0.039
-122.210	71.948	-0.187	-0.193
-121.195	19.498	0.224	0.178
