DTS Sentinel unit serial number:	SN413079Multiplexer serial number:	ORYXHardware model number:	OX4-SRSoftware version number:	ORYX F/W v4.00 Oryx Data Collector v3.7.2.0data status	okinstallation	princeton_trtdifferential loss correction	single-endedforward channel	channel 4reverse channel	N/Adate	2019/09/10time	22:59:11forward acquisition time	60.00reverse acquisition time	0.00gamma	496.2192k internal	0.2317k external	0.2317temperature offset calibration	0.9949default loss term (dB/km)	0.3790temperature slope calibration	1.0000multiplexer offset coefficient	1.0000multiplexer slope coefficient	1.0000fibre end	0.00T internal ref (°C)	30.06T ext. ref 1 (°C)	-0.32T ext. ref 2 (°C)	23.47length (m)	temperature (°C)	Stokes	anti-Stokes-747.200	-29.815	-0.213	-0.123
-746.185	-200.000	-0.074	0.361
-745.171	187.193	0.058	-0.087
-744.156	411.939	0.055	0.117
-743.142	653.220	0.141	-0.367
-742.127	800.000	-0.057	0.210
-741.112	-11.564	0.109	-0.073
-740.098	-200.000	0.005	0.240
-739.083	800.000	-0.024	0.099
-738.069	-200.000	0.001	0.319
-737.054	-200.000	-0.029	0.198
-736.039	800.000	-0.082	-0.250
-735.025	-109.175	0.279	-0.060
-734.010	513.639	-0.078	0.184
-732.996	-200.000	0.015	-0.193
-731.981	245.980	-0.187	-0.319
-730.966	-125.798	-0.449	0.069
-729.952	-200.000	0.059	-0.306
-728.937	200.033	0.250	-0.388
-727.923	125.909	0.053	-0.068
-726.908	-200.000	0.001	0.087
-725.894	-126.692	-0.284	0.043
-724.879	-105.394	-0.205	0.047
-723.864	55.960	-0.250	0.245
-722.850	44.601	0.053	-0.049
-721.835	-124.153	-0.166	-0.026
-720.821	-66.328	-0.100	-0.040
-719.806	42.205	0.079	0.073
-718.791	376.506	-0.046	0.094
-717.777	-40.709	0.061	-0.032
-716.762	105.601	-0.119	0.142
-715.748	-200.000	0.020	0.252
-714.733	-140.175	-0.110	-0.012
-713.718	420.184	0.219	-0.475
-712.704	224.921	-0.209	-0.342
-711.689	22.860	0.135	0.112
-710.675	797.578	0.064	-0.179
-709.660	302.688	-0.059	0.110
-708.645	-90.051	-0.175	-0.052
-707.631	531.736	0.197	-0.471
-706.616	-25.624	0.239	-0.142
-705.602	335.715	-0.155	-0.303
-704.587	258.028	0.090	0.156
-703.572	-44.778	-0.058	-0.029
-702.558	121.878	-0.059	0.074
-701.543	-155.068	0.497	-0.033
-700.529	-200.000	0.004	-0.052
-699.514	-200.000	-0.029	-0.301
-698.499	800.000	-0.123	-0.354
-697.485	39.229	0.246	-0.222
-696.470	800.000	0.113	-0.406
-695.456	-61.672	-0.136	0.058
-694.441	800.000	0.049	0.179
-693.426	-200.000	0.036	-0.217
-692.412	42.107	-0.313	-0.288
-691.397	-47.521	-0.319	-0.156
-690.383	85.331	0.152	0.169
-689.368	-139.517	-0.052	0.006
-688.354	-200.000	0.019	-0.277
-687.339	-15.759	-0.096	0.062
-686.324	283.624	-0.140	-0.255
-685.310	-200.000	-0.007	-0.255
-684.295	555.672	0.075	-0.182
-683.281	-200.000	-0.036	-0.182
-682.266	16.884	0.146	-0.117
-681.251	-105.171	0.450	0.104
-680.237	-34.796	-0.179	-0.099
-679.222	662.651	-0.060	-0.157
-678.208	142.954	0.095	-0.128
-677.193	-182.452	0.152	-0.003
-676.178	323.011	-0.145	-0.279
-675.164	129.352	0.264	-0.341
-674.149	-54.349	0.062	0.028
-673.135	-17.377	0.194	-0.123
-672.120	-57.687	0.052	0.023
-671.105	235.565	0.132	-0.220
-670.091	-50.349	0.146	-0.070
-669.076	549.284	0.121	-0.294
-668.062	-82.316	-0.537	-0.176
-667.047	49.597	-0.144	0.137
-666.032	474.112	-0.116	-0.264
-665.018	26.862	-0.336	-0.284
-664.003	-13.139	0.338	0.222
-662.989	1.481	0.290	-0.210
-661.974	-200.000	-0.027	-0.212
-660.959	-147.537	-0.223	-0.019
-659.945	622.654	-0.005	-0.012
-658.930	47.158	-0.246	-0.232
-657.916	-151.194	-0.118	0.009
-656.901	211.131	0.045	-0.071
-655.886	-31.103	0.145	0.082
-654.872	-31.469	-0.268	-0.152
-653.857	-174.524	0.252	0.007
-652.843	-200.000	0.023	0.331
-651.828	-43.473	0.175	-0.089
-650.814	-200.000	-0.020	-0.305
-649.799	-200.000	0.061	0.315
-648.784	-52.010	-0.074	0.035
-647.770	72.483	0.089	0.094
-646.755	-200.000	-0.004	0.262
-645.741	121.105	-0.161	0.202
-644.726	-200.000	-0.007	0.265
-643.711	69.290	-0.091	0.094
-642.697	8.373	0.070	0.053
-641.682	81.755	-0.068	0.074
-640.668	-89.960	-0.208	0.061
-639.653	-200.000	0.011	0.075
-638.638	-79.322	-0.099	-0.034
-637.624	-88.466	-0.273	-0.082
-636.609	-89.360	-0.214	0.063
-635.595	-71.583	-0.040	-0.015
-634.580	-110.615	-0.161	0.033
-633.565	-200.000	-0.011	-0.256
-632.551	368.236	0.056	0.115
-631.536	7.630	-0.060	0.045
-630.522	-111.072	-0.208	0.043
-629.507	100.798	0.173	-0.203
-628.492	-124.962	-0.528	-0.082
-627.478	402.379	0.131	0.278
-626.463	-74.870	0.148	0.053
-625.449	639.899	-0.042	0.108
-624.434	-71.876	-0.268	-0.101
-623.419	780.673	0.056	0.153
-622.405	76.688	-0.165	0.177
-621.390	-174.673	0.270	0.008
-620.376	-17.366	-0.356	0.226
-619.361	-13.861	-0.242	0.158
-618.346	-34.738	0.237	-0.131
-617.332	153.107	0.044	0.061
-616.317	33.617	-0.159	0.139
-615.303	-200.000	-0.020	0.202
-614.288	367.299	0.136	0.276
-613.273	13.099	0.179	-0.140
-612.259	435.095	-0.075	0.164
-611.244	800.000	-0.091	0.382
-610.230	260.388	0.079	-0.138
-609.215	-21.259	-0.298	0.183
-608.201	-70.968	-0.281	-0.107
-607.186	202.540	0.056	0.086
-606.171	536.776	0.029	0.069
-605.157	-200.000	-0.019	-0.134
-604.142	-31.572	-0.283	0.160
-603.128	376.829	0.095	0.194
-602.113	-103.062	-0.086	-0.020
-601.098	-39.563	-0.175	-0.092
-600.084	34.429	0.184	0.162
-599.069	800.000	-0.042	-0.119
-598.055	15.728	-0.090	0.071
-597.040	-67.947	-0.075	-0.029
-596.025	-73.527	0.153	0.056
-595.011	-156.355	0.250	0.016
-593.996	128.711	0.148	-0.189
-592.982	193.679	-0.161	-0.245
-591.967	-120.426	-0.129	0.022
-590.952	-85.289	0.163	0.051
-589.938	157.182	0.234	0.325
-588.923	120.895	-0.081	0.102
-587.909	-128.071	0.372	0.054
-586.894	-173.344	0.427	0.013
-585.879	-151.777	0.461	0.034
-584.865	-142.465	-0.041	0.004
-583.850	-156.512	0.151	0.009
-582.836	738.938	0.106	0.286
-581.821	197.720	0.189	-0.291
-580.806	286.517	-0.168	-0.306
-579.792	-7.785	0.166	0.113
-578.777	800.000	0.067	0.294
-577.763	173.068	-0.075	0.108
-576.748	90.117	0.038	-0.043
-575.733	-44.189	0.331	-0.167
-574.719	176.240	-0.191	0.279
-573.704	-200.000	-0.072	-0.331
-572.690	800.000	0.081	-0.277
-571.675	-200.000	-0.031	0.296
-570.661	662.096	0.028	0.073
-569.646	50.783	-0.047	0.044
-568.631	800.000	-0.064	-0.196
-567.617	-147.962	0.225	0.019
-566.602	800.000	0.090	0.349
-565.588	-115.813	0.134	0.025
-564.573	-7.663	0.347	-0.236
-563.558	-31.455	-0.156	0.088
-562.544	-118.359	0.121	-0.022
-561.529	188.064	-0.267	0.401
-560.515	143.963	-0.154	0.207
-559.500	15.606	-0.145	0.115
-558.485	12.836	-0.197	-0.153
-557.471	-34.062	-0.030	-0.017
-556.456	-104.088	-0.096	0.023
-555.442	-86.040	-0.041	0.013
-554.427	763.149	0.101	0.275
-553.412	474.726	-0.015	0.034
-552.398	305.870	-0.080	-0.149
-551.383	166.967	0.059	-0.084
-550.369	-97.094	-0.142	0.037
-549.354	-200.000	-0.065	-0.334
-548.339	-120.453	-0.062	-0.011
-547.325	-200.000	-0.002	0.215
-546.310	-36.498	-0.145	0.079
-545.296	5.475	-0.230	0.170
-544.281	407.071	0.088	-0.187
-543.266	-182.241	-0.206	-0.004
-542.252	-200.000	0.003	0.361
-541.237	-42.093	0.248	-0.128
-540.223	-45.241	0.233	-0.116
-539.208	-26.410	-0.172	0.101
-538.193	-0.168	0.208	0.149
-537.179	-200.000	-0.003	-0.443
-536.164	147.550	-0.101	-0.137
-535.150	-200.000	-0.050	0.348
-534.135	-152.830	-0.304	-0.022
-533.121	-15.764	-0.041	0.026
-532.106	2.647	-0.119	-0.087
-531.091	-152.856	0.200	-0.014
-530.077	-185.738	0.314	-0.005
-529.062	66.595	0.055	-0.056
-528.048	288.508	0.181	0.328
-527.033	-15.273	-0.207	0.133
-526.018	800.000	0.061	-0.187
-525.004	129.988	0.317	0.407
-523.989	-171.540	0.378	-0.013
-522.975	-200.000	0.011	-0.314
-521.960	-63.735	-0.224	-0.092
-520.945	58.244	-0.146	-0.144
-519.931	-200.000	0.027	-0.273
-518.916	-200.000	0.014	-0.062
-517.902	-18.171	0.261	0.164
-516.887	800.000	-0.067	-0.233
-515.872	-200.000	0.042	-0.363
-514.858	-125.134	0.164	-0.025
-513.843	800.000	-0.035	-0.126
-512.829	-9.455	0.124	-0.083
-511.814	-79.944	-0.332	0.112
-510.799	421.678	-0.106	-0.229
-509.785	118.403	-0.161	0.200
-508.770	-200.000	0.034	0.246
-507.756	-11.165	0.299	-0.198
-506.741	312.534	0.123	-0.232
-505.726	800.000	0.156	0.441
-504.712	-112.129	0.197	0.040
-503.697	800.000	-0.083	0.317
-502.683	51.159	0.050	0.048
-501.668	-70.150	-0.170	-0.065
-500.653	-23.601	-0.190	-0.114
-499.639	-198.144	-0.425	-0.003
-498.624	316.802	-0.090	-0.170
-497.610	800.000	-0.082	-0.280
-496.595	-200.000	-0.027	-0.126
-495.581	800.000	-0.016	0.048
-494.566	800.000	-0.043	-0.184
-493.551	-200.000	-0.009	0.073
-492.537	189.900	-0.133	0.200
-491.522	23.259	0.065	0.053
-490.508	79.034	-0.239	0.257
-489.493	-200.000	-0.004	0.162
-488.478	-183.764	0.277	0.005
-487.464	-29.923	-0.171	0.098
-486.449	8.356	-0.250	-0.189
-485.435	167.349	0.237	-0.338
-484.420	-200.000	-0.013	-0.304
-483.405	20.725	0.169	-0.137
-482.391	800.000	-0.144	-0.610
-481.376	-200.000	-0.038	-0.175
-480.362	284.441	-0.028	0.050
-479.347	-57.962	-0.134	0.059
-478.332	-35.985	0.208	0.113
-477.318	256.381	-0.058	-0.100
-476.303	-200.000	-0.018	0.561
-475.289	-200.000	-0.004	0.076
-474.274	23.972	0.431	-0.356
-473.259	-11.308	-0.269	0.177
-472.245	800.000	-0.036	-0.130
-471.230	800.000	-0.061	0.174
-470.216	310.425	0.083	-0.155
-469.201	753.125	0.084	0.228
-468.186	-78.340	-0.152	0.052
-467.172	-60.060	0.301	0.129
-466.157	543.093	-0.073	-0.175
-465.143	70.384	-0.076	0.079
-464.128	-16.498	0.015	0.010
-463.113	-200.000	0.069	-0.355
-462.099	-200.000	0.040	-0.206
-461.084	272.155	0.015	-0.027
-460.070	-43.191	0.192	0.097
-459.055	800.000	0.083	-0.244
-458.040	-20.499	0.428	-0.263
-457.026	-200.000	-0.033	0.305
-456.011	-200.000	0.033	-0.169
-454.997	-159.501	0.359	-0.020
-453.982	800.000	-0.068	-0.285
-452.968	-186.979	-0.269	0.004
-451.953	-200.000	-0.046	-0.282
-450.938	41.186	-0.131	-0.119
-449.924	381.503	-0.167	-0.343
-448.909	800.000	0.041	-0.166
-447.895	-200.000	0.014	0.289
-446.880	-200.000	-0.025	0.129
-445.865	171.848	-0.055	0.078
-444.851	166.348	0.070	0.100
-443.836	800.000	-0.043	-0.124
-442.822	4.419	0.439	-0.322
-441.807	-168.233	-0.154	-0.006
-440.792	-144.857	-0.354	-0.032
-439.778	267.886	0.139	0.244
-438.763	-113.653	-0.303	-0.059
-437.749	-115.628	0.226	0.043
-436.734	-172.084	-0.101	0.003
-435.719	33.862	-0.180	0.157
-434.705	-200.000	-0.032	0.232
-433.690	-200.000	0.005	0.090
-432.676	239.927	0.159	0.264
-431.661	-173.262	-0.398	0.012
-430.646	-92.284	-0.223	-0.063
-429.632	-16.673	-0.158	-0.100
-428.617	-93.695	0.339	-0.094
-427.603	-122.363	-0.260	-0.042
-426.588	248.218	0.115	-0.195
-425.573	-200.000	0.002	0.173
-424.559	-157.631	-0.213	-0.013
-423.544	-200.000	0.015	0.124
-422.530	-4.934	0.055	-0.038
-421.515	668.252	-0.099	-0.255
-420.500	5.825	-0.145	0.107
-419.486	88.551	-0.166	-0.184
-418.471	102.694	0.051	0.059
-417.457	-200.000	-0.014	-0.192
-416.442	-96.528	0.194	-0.051
-415.428	-114.263	-0.158	-0.031
-414.413	-30.333	0.085	-0.048
-413.398	-96.824	0.242	0.064
-412.384	241.761	-0.141	0.235
-411.369	-14.691	0.278	0.179
-410.355	-200.000	0.012	-0.146
-409.340	62.726	0.039	-0.039
-408.325	-130.422	-0.282	-0.038
-407.311	-200.000	0.270	-0.001
-406.296	-166.175	0.179	0.008
-405.282	-200.000	-0.000	-0.137
-404.267	31.916	0.143	0.123
-403.252	-98.176	-0.161	0.041
-402.238	-200.000	0.074	-0.410
-401.223	123.482	-0.057	0.071
-400.209	-200.000	0.002	0.055
-399.194	-27.128	-0.320	-0.186
-398.179	800.000	0.016	0.052
-397.165	45.404	-0.175	0.161
-396.150	356.631	-0.048	0.095
-395.136	344.578	-0.070	0.137
-394.121	-200.000	0.001	-0.016
-393.106	-200.000	0.039	-0.210
-392.092	543.729	0.079	-0.188
-391.077	78.960	0.190	-0.203
-390.063	-66.621	0.128	-0.051
-389.048	-87.334	-0.125	0.038
-388.033	-49.486	0.150	0.071
-387.019	28.758	0.080	0.068
-386.004	128.739	-0.105	0.134
-384.990	-117.718	0.302	0.054
-383.975	21.917	0.086	0.070
-382.960	123.169	-0.103	-0.129
-381.946	-200.000	-0.033	-0.156
-380.931	162.198	0.194	0.272
-379.917	418.063	-0.110	0.234
-378.902	443.359	0.062	0.135
-377.888	-84.589	0.302	-0.095
-376.873	212.997	0.098	0.155
-375.858	319.226	-0.072	0.136
-374.844	800.000	-0.089	-0.345
-373.829	-66.900	-0.147	-0.058
-372.815	-99.900	-0.203	0.051
-371.800	-200.000	-0.033	-0.204
-370.785	-79.352	0.070	0.024
-369.771	194.621	0.336	0.508
-368.756	70.545	-0.107	0.110
-367.742	421.161	0.041	-0.088
-366.727	85.302	0.088	0.097
-365.712	-24.400	-0.355	-0.211
-364.698	-156.271	0.272	0.017
-363.683	185.908	0.067	-0.099
-362.669	38.791	0.241	0.214
-361.654	-122.488	-0.094	-0.015
-360.639	-39.478	-0.161	-0.084
-359.625	-200.000	0.019	-0.087
-358.610	-200.000	-0.045	-0.363
-357.596	430.372	-0.028	0.060
-356.581	-48.638	0.101	-0.048
-355.566	-126.875	-0.253	-0.037
-354.552	6.450	-0.170	-0.126
-353.537	-179.006	0.238	0.005
-352.523	40.085	0.235	0.211
-351.508	443.462	0.124	0.272
-350.493	535.272	0.081	0.191
-349.479	-38.230	-0.279	0.147
-348.464	-200.000	0.029	-0.178
-347.450	240.783	0.150	-0.249
-346.435	2.893	-0.260	-0.188
-345.420	-24.842	0.100	-0.059
-344.406	-91.885	-0.096	0.027
-343.391	-6.806	0.085	0.058
-342.377	132.806	0.128	0.165
-341.362	800.000	-0.043	-0.141
-340.348	108.897	0.168	0.201
-339.333	-22.506	-0.163	0.098
-338.318	-98.131	0.239	-0.061
-337.304	-137.523	0.431	0.048
-336.289	120.843	-0.092	0.114
-335.275	0.815	0.276	-0.197
-334.260	800.000	0.119	-0.330
-333.245	623.483	0.079	0.198
-332.231	-192.702	-0.115	-0.001
-331.216	125.766	0.128	0.161
-330.202	-51.151	0.029	-0.014
-329.187	800.000	-0.023	0.086
-328.172	738.648	-0.164	0.439
-327.158	-43.561	-0.218	0.110
-326.143	276.159	-0.118	0.208
-325.129	800.000	0.058	-0.221
-324.114	100.426	-0.166	-0.192
-323.099	257.897	0.183	-0.314
-322.085	-92.958	-0.090	-0.025
-321.070	-200.000	-0.018	-0.259
-320.056	-200.000	0.020	0.197
-319.041	315.869	-0.060	-0.114
-318.026	74.070	0.225	0.235
-317.012	-123.137	-0.155	-0.025
-315.997	-47.460	-0.077	-0.038
-314.983	-200.000	-0.018	0.124
-313.968	41.889	-0.315	0.285
-312.953	-79.175	-0.309	-0.104
-311.939	-175.648	-0.166	-0.004
-310.924	-41.232	-0.094	0.048
-309.910	-83.777	-0.382	-0.121
-308.895	-21.653	0.089	-0.054
-307.880	-44.244	0.400	0.200
-306.866	508.049	0.038	-0.088
-305.851	4.828	-0.081	0.059
-304.837	367.408	0.047	0.094
-303.822	-200.000	0.051	0.248
-302.807	635.401	-0.109	0.274
-301.793	166.045	0.066	-0.092
-300.778	6.368	0.122	0.090
-299.764	60.696	0.045	-0.044
-298.749	4.713	-0.178	-0.130
-297.735	-31.250	-0.144	-0.081
-296.720	-3.236	0.141	-0.098
-295.705	-133.100	0.078	-0.010
-294.691	526.711	-0.072	-0.169
-293.676	-97.929	0.132	-0.034
-292.662	-27.345	-0.244	-0.142
-291.647	-96.632	-0.203	-0.053
-290.632	349.835	-0.125	0.245
-289.618	-161.401	-0.119	-0.006
-288.603	-200.000	0.074	-0.403
-287.589	800.000	0.112	0.320
-286.574	318.026	0.075	-0.141
-285.559	-106.267	0.125	0.028
-284.545	800.000	-0.071	-0.241
-283.530	-7.618	0.087	0.058
-282.516	14.847	0.154	0.120
-281.501	-200.000	-0.012	-0.263
-280.486	-89.227	-0.329	-0.096
-279.472	79.188	0.117	-0.125
-278.457	-122.303	0.085	-0.014
-277.443	800.000	0.075	0.211
-276.428	-200.000	-0.036	0.204
-275.413	8.357	-0.088	-0.066
-274.399	-200.000	-0.002	-0.189
-273.384	-200.000	0.006	0.134
-272.370	-33.840	-0.135	0.074
-271.355	17.072	-0.096	0.075
-270.340	800.000	0.076	0.262
-269.326	-200.000	-0.025	0.142
-268.311	-200.000	0.017	-0.216
-267.297	199.740	0.158	-0.241
-266.282	-79.152	0.130	-0.044
-265.267	-44.888	0.291	0.144
-264.253	99.485	0.126	-0.144
-263.238	-200.000	-0.042	-0.395
-262.224	198.346	0.158	-0.240
-261.209	-21.728	0.164	0.099
-260.195	-71.231	-0.214	-0.080
-259.180	-200.000	0.026	-0.116
-258.165	133.293	0.070	0.090
-257.151	-200.000	0.026	0.133
-256.136	-152.332	-0.434	-0.031
-255.122	-200.000	0.027	-0.202
-254.107	-113.749	0.186	0.036
-253.092	-147.333	0.276	-0.023
-252.078	721.101	-0.056	-0.149
-251.063	-57.602	0.328	0.143
-250.049	-20.937	-0.068	0.041
-249.034	151.402	-0.030	0.040
-248.019	-200.000	0.035	0.311
-247.005	-61.691	-0.168	0.070
-245.990	-8.026	0.074	0.050
-244.976	173.244	0.149	-0.214
-243.961	467.557	0.139	-0.310
-242.946	-200.000	-0.006	0.131
-241.932	-59.005	-0.165	0.071
-240.917	-200.000	0.046	0.252
-239.903	-200.000	0.011	0.066
-238.888	-200.000	-0.014	0.149
-237.873	-33.318	-0.139	-0.076
-236.859	800.000	-0.159	-0.457
-235.844	-200.000	0.039	0.172
-234.830	-185.013	-0.286	-0.004
-233.815	-200.000	-0.023	-0.324
-232.800	303.611	-0.124	-0.229
-231.786	-14.376	0.289	0.185
-230.771	-171.838	-0.269	0.009
-229.757	47.298	-0.136	-0.125
-228.742	-111.819	-0.237	0.048
-227.727	-151.795	0.204	0.015
-226.713	187.290	0.137	0.203
-225.698	280.668	0.108	-0.192
-224.684	168.217	0.145	-0.205
-223.669	-94.121	0.328	-0.089
-222.655	-200.000	0.029	0.212
-221.640	-11.752	-0.150	-0.098
-220.625	-37.816	0.097	0.051
-219.611	416.231	-0.075	0.159
-218.596	800.000	0.035	0.138
-217.582	505.323	0.089	0.204
-216.567	-66.717	0.414	-0.162
-215.552	-106.006	0.049	0.011
-214.538	-26.550	0.113	0.066
-213.523	-28.709	0.137	0.078
-212.509	-43.655	-0.340	-0.170
-211.494	-111.657	-0.258	-0.052
-210.479	66.763	-0.195	-0.196
-209.465	33.833	-0.205	-0.177
-208.450	-125.799	0.134	0.020
-207.436	-53.678	-0.038	-0.017
-206.421	-117.890	0.147	0.026
-205.406	-78.431	-0.181	-0.061
-204.392	528.190	0.060	-0.140
-203.377	-200.000	0.073	-0.328
-202.363	-200.000	0.046	0.578
-201.348	373.629	0.035	-0.070
-200.333	-200.000	-0.018	-0.393
-199.319	-133.036	0.069	-0.009
-198.304	-200.000	-0.009	-0.198
-197.290	297.465	-0.089	0.162
-196.275	-49.633	-0.228	0.107
-195.260	673.538	-0.099	-0.255
-194.246	-200.000	0.028	-0.201
-193.231	800.000	0.075	-0.209
-192.217	-200.000	-0.013	-0.082
-191.202	166.711	-0.128	-0.180
-190.187	170.425	0.100	0.142
-189.173	800.000	-0.053	0.171
-188.158	83.922	0.109	-0.117
-187.144	498.235	-0.013	-0.030
-186.129	-40.916	0.261	-0.134
-185.114	77.228	-0.080	-0.084
-184.100	-9.169	-0.124	-0.082
-183.085	122.301	0.074	0.091
-182.071	213.294	-0.151	-0.237
-181.056	-83.916	0.202	0.064
-180.042	68.515	-0.142	0.144
-179.027	800.000	0.081	-0.235
-178.012	15.761	-0.158	0.123
-176.998	-11.275	-0.130	-0.085
-175.983	800.000	0.017	-0.053
-174.969	15.751	0.131	0.102
-173.954	186.249	0.067	0.098
-172.939	800.000	0.052	-0.164
-171.925	111.699	0.134	-0.160
-170.910	341.763	-0.093	0.179
-169.896	355.967	0.118	0.232
-168.881	109.825	-0.132	0.157
-167.866	-43.953	-0.238	0.118
-166.852	21.026	-0.062	0.050
-165.837	-200.000	0.093	0.416
-164.823	105.163	0.133	0.155
-163.808	156.453	0.174	0.237
-162.793	-46.490	0.124	0.060
-161.779	-152.789	0.061	0.004
-160.764	31.855	-0.159	0.135
-159.750	112.067	0.247	-0.296
-158.735	-190.323	-0.108	-0.001
-157.720	-109.991	-0.156	-0.032
-156.706	328.028	-0.106	0.202
-155.691	-200.000	0.030	-0.143
-154.677	157.691	-0.060	-0.083
-153.662	-200.000	-0.052	-0.368
-152.647	-101.330	0.041	0.010
-151.633	404.232	0.098	-0.205
-150.618	-200.000	0.033	0.213
-149.604	-33.413	0.167	-0.091
-148.589	-10.994	-0.275	0.180
-147.574	-110.960	0.303	-0.062
-146.560	-200.000	-0.008	0.103
-145.545	-73.759	-0.189	-0.068
-144.531	-59.622	0.164	0.070
-143.516	800.000	0.034	-0.119
-142.502	37.618	-0.210	-0.185
-141.487	291.155	-0.089	-0.161
-140.472	-114.037	0.165	-0.032
-139.458	-44.592	-0.318	-0.157
-138.443	69.159	0.115	0.117
-137.429	800.000	0.014	0.041
-136.414	800.000	0.068	0.254
-135.399	193.475	0.072	0.108
-134.385	-54.246	-0.300	-0.135
-133.370	48.173	0.412	-0.381
-132.356	800.000	0.013	-0.038
-131.341	56.625	-0.194	-0.187
-130.326	-200.000	0.039	0.271
-129.312	110.623	0.045	-0.053
-128.297	-22.955	0.398	-0.237
-127.283	168.624	0.129	0.182
-126.268	81.130	0.182	-0.195
-125.253	414.292	-0.090	0.189
-124.239	-32.833	-0.337	0.185
-123.224	-30.429	0.354	-0.199
-122.210	83.161	-0.041	-0.044
