DTS Sentinel unit serial number:	SN413079Multiplexer serial number:	ORYXHardware model number:	OX4-SRSoftware version number:	ORYX F/W v4.00 Oryx Data Collector v3.7.2.0data status	okinstallation	princeton_trtdifferential loss correction	single-endedforward channel	channel 4reverse channel	N/Adate	2019/09/12time	04:47:10forward acquisition time	60.00reverse acquisition time	0.00gamma	496.2192k internal	0.2310k external	0.2310temperature offset calibration	1.0100default loss term (dB/km)	0.3790temperature slope calibration	1.0000multiplexer offset coefficient	1.0000multiplexer slope coefficient	1.0000fibre end	0.00T internal ref (°C)	31.62T ext. ref 1 (°C)	2.14T ext. ref 2 (°C)	27.31length (m)	temperature (°C)	Stokes	anti-Stokes-747.200	-179.316	0.351	-0.008
-746.185	-140.004	0.172	-0.018
-745.171	-200.000	0.031	0.367
-744.156	77.395	0.007	0.008
-743.142	69.107	0.161	-0.168
-742.127	-89.679	-0.165	0.049
-741.112	-13.201	0.255	0.169
-740.098	-54.820	0.057	-0.026
-739.083	7.039	0.084	0.064
-738.069	12.885	-0.192	0.151
-737.054	-50.790	-0.064	-0.030
-736.039	409.327	-0.028	0.060
-735.025	47.452	0.220	0.208
-734.010	-48.329	0.169	-0.083
-732.996	-53.302	-0.417	0.194
-731.981	142.639	-0.329	0.444
-730.966	800.000	-0.032	-0.111
-729.952	79.805	-0.237	-0.258
-728.937	-37.512	-0.257	0.139
-727.923	800.000	0.065	0.191
-726.908	800.000	-0.022	-0.082
-725.894	-164.704	-0.433	0.020
-724.879	144.517	-0.084	0.114
-723.864	800.000	-0.064	-0.252
-722.850	39.017	-0.048	0.043
-721.835	800.000	0.079	-0.273
-720.821	-131.569	0.089	-0.012
-719.806	-12.052	-0.470	-0.312
-718.791	10.921	0.189	-0.147
-717.777	307.556	-0.104	-0.196
-716.762	244.574	0.144	-0.245
-715.748	-148.993	-0.183	0.015
-714.733	-33.106	-0.348	-0.196
-713.718	-122.196	0.112	-0.019
-712.704	800.000	-0.074	-0.282
-711.689	10.806	0.103	-0.080
-710.675	-29.600	0.091	0.053
-709.660	302.375	0.037	0.070
-708.645	100.923	-0.136	0.160
-707.631	15.169	-0.083	0.066
-706.616	800.000	0.050	0.164
-705.602	-73.743	-0.204	0.075
-704.587	800.000	0.053	0.168
-703.572	136.514	0.120	-0.159
-702.558	-142.754	0.183	-0.018
-701.543	-25.758	-0.257	0.154
-700.529	-56.781	0.125	0.056
-699.514	-70.162	-0.149	0.057
-698.499	-200.000	-0.009	0.192
-697.485	637.444	-0.068	0.175
-696.470	61.979	-0.172	0.174
-695.456	-153.803	0.282	-0.020
-694.441	-48.870	0.222	-0.108
-693.426	-21.039	-0.237	-0.147
-692.412	48.681	0.151	0.143
-691.397	800.000	-0.083	-0.236
-690.383	800.000	0.075	-0.232
-689.368	-176.929	0.305	0.008
-688.354	413.746	0.095	-0.206
-687.339	-200.000	-0.033	0.322
-686.324	47.290	-0.113	0.107
-685.310	-59.238	0.113	0.049
-684.295	643.656	-0.100	0.258
-683.281	-200.000	0.011	-0.321
-682.266	-5.254	-0.123	-0.086
-681.251	800.000	-0.051	-0.146
-680.237	-200.000	-0.062	-0.427
-679.222	800.000	0.066	-0.215
-678.208	800.000	-0.105	-0.379
-677.193	14.758	-0.116	0.092
-676.178	-157.100	0.113	-0.007
-675.164	-54.167	0.268	-0.123
-674.149	95.913	-0.164	-0.190
-673.135	-89.042	0.274	-0.082
-672.120	75.275	0.082	-0.088
-671.105	51.426	0.177	0.170
-670.091	-105.907	0.074	0.017
-669.076	12.069	0.231	-0.180
-668.062	149.146	-0.205	-0.281
-667.047	-49.928	0.195	0.094
-666.032	-200.000	0.046	0.241
-665.018	-200.000	0.046	0.281
-664.003	103.657	0.079	-0.094
-662.989	26.037	-0.046	0.039
-661.974	-2.825	0.171	-0.121
-660.959	21.628	-0.283	-0.233
-659.945	-44.740	-0.168	-0.085
-658.930	-19.927	-0.300	-0.188
-657.916	800.000	-0.036	-0.158
-656.901	529.136	0.153	-0.366
-655.886	474.521	-0.130	0.296
-654.872	-200.000	-0.026	0.224
-653.857	-99.448	-0.120	0.031
-652.843	-25.216	0.160	-0.096
-651.828	-60.168	-0.091	0.039
-650.814	51.988	0.305	-0.294
-649.799	-200.000	0.098	0.000
-648.784	-200.000	0.013	0.256
-647.770	-37.723	-0.027	0.014
-646.755	-200.000	0.016	0.289
-645.741	472.116	0.074	-0.168
-644.726	258.829	0.075	-0.131
-643.711	-200.000	-0.053	-0.256
-642.697	-124.641	0.108	0.017
-641.682	147.505	-0.124	-0.169
-640.668	-200.000	0.060	-0.463
-639.653	-200.000	0.058	-0.377
-638.638	7.127	0.063	-0.048
-637.624	85.766	-0.141	-0.157
-636.609	29.592	-0.302	0.260
-635.595	-200.000	0.015	-0.215
-634.580	-116.385	0.164	-0.031
-633.565	-13.295	0.281	0.185
-632.551	-102.066	-0.327	-0.080
-631.536	-94.000	-0.255	0.071
-630.522	-200.000	-0.035	-0.250
-629.507	281.304	0.118	-0.213
-628.492	-168.899	-0.326	-0.012
-627.478	-157.959	0.366	-0.022
-626.463	800.000	0.054	0.200
-625.449	800.000	-0.174	-0.520
-624.434	195.623	0.183	-0.282
-623.419	12.776	0.351	-0.274
-622.405	-129.838	-0.136	-0.019
-621.390	-200.000	-0.008	-0.219
-620.376	22.104	-0.249	-0.206
-619.361	-59.614	0.134	-0.058
-618.346	-134.326	0.121	0.015
-617.332	-177.526	-0.482	-0.012
-616.317	-30.004	0.158	-0.091
-615.303	259.440	-0.009	0.016
-614.288	47.000	-0.160	-0.150
-613.273	800.000	0.044	0.130
-612.259	50.092	0.268	-0.255
-611.244	334.157	-0.301	-0.588
-610.230	-77.780	-0.305	-0.107
-609.215	-55.120	0.353	-0.160
-608.201	-140.261	0.150	-0.016
-607.186	60.813	-0.096	0.096
-606.171	-104.856	-0.083	0.019
-605.157	194.960	0.172	0.264
-604.142	800.000	0.102	0.316
-603.128	-200.000	0.017	0.318
-602.113	-130.998	-0.150	0.020
-601.098	14.730	0.137	0.108
-600.084	-200.000	0.062	-0.304
-599.069	-75.085	0.148	0.054
-598.055	152.057	-0.157	0.217
-597.040	-90.572	0.062	0.018
-596.025	-93.272	0.101	0.028
-595.011	3.772	-0.245	-0.181
-593.996	800.000	0.016	0.053
-592.982	-37.631	-0.224	-0.120
-591.967	13.133	0.277	0.217
-590.952	-200.000	-0.025	0.118
-589.938	380.768	-0.151	0.313
-588.923	86.463	-0.067	0.075
-587.909	7.885	0.199	-0.151
-586.894	800.000	0.006	-0.026
-585.879	51.896	0.115	0.110
-584.865	800.000	-0.073	0.252
-583.850	200.452	-0.142	0.221
-582.836	-200.000	-0.005	-0.093
-581.821	255.235	0.117	-0.203
-580.806	52.289	-0.065	-0.063
-579.792	91.306	0.036	-0.041
-578.777	723.234	-0.066	-0.178
-577.763	308.401	-0.134	-0.252
-576.748	-200.000	-0.060	-0.348
-575.733	-200.000	-0.046	-0.293
-574.719	-68.877	-0.179	0.070
-573.704	-200.000	-0.021	0.103
-572.690	-151.562	0.071	0.005
-571.675	-42.970	-0.107	0.055
-570.661	-62.020	0.028	-0.012
-569.646	-41.118	0.310	-0.161
-568.631	195.205	0.082	-0.125
-567.617	-75.799	-0.169	-0.060
-566.602	81.188	0.059	-0.065
-565.588	-2.500	-0.226	-0.159
-564.573	87.366	0.038	0.042
-563.558	94.750	-0.240	-0.276
-562.544	41.286	-0.140	-0.128
-561.529	608.608	-0.070	-0.177
-560.515	800.000	-0.088	-0.259
-559.500	-200.000	-0.013	-0.113
-558.485	152.705	0.050	0.069
-557.471	-200.000	0.027	-0.283
-556.456	32.461	0.246	-0.214
-555.442	282.136	0.193	-0.349
-554.427	223.642	0.152	0.248
-553.412	177.134	0.136	-0.200
-552.398	79.406	0.154	0.167
-551.383	-200.000	-0.036	0.332
-550.369	480.395	-0.149	0.340
-549.354	528.179	-0.092	0.218
-548.339	84.792	-0.083	0.091
-547.325	-150.566	-0.620	0.048
-546.310	-200.000	0.040	0.206
-545.296	63.360	0.304	0.307
-544.281	112.089	0.081	0.099
-543.266	-200.000	-0.001	-0.101
-542.252	-200.000	-0.015	0.069
-541.237	330.438	0.093	-0.181
-540.223	60.166	0.243	-0.242
-539.208	337.491	-0.147	-0.288
-538.193	800.000	0.038	0.143
-537.179	800.000	-0.121	-0.337
-536.164	-33.096	0.082	0.046
-535.150	-200.000	0.043	0.483
-534.135	-56.051	-0.079	-0.035
-533.121	-147.767	-0.234	-0.020
-532.106	-132.524	-0.419	-0.054
-531.091	-139.854	-0.412	0.044
-530.077	800.000	0.069	0.218
-529.062	-50.724	-0.165	0.078
-528.048	-52.282	-0.221	-0.103
-527.033	-200.000	0.071	-0.442
-526.018	54.352	0.138	-0.134
-525.004	-200.000	-0.015	0.184
-523.989	175.515	-0.176	-0.258
-522.975	-155.919	-0.282	0.018
-521.960	-36.591	0.066	0.036
-520.945	194.299	0.119	0.181
-519.931	-56.621	0.061	0.027
-518.916	49.442	0.128	-0.121
-517.902	800.000	-0.030	0.086
-516.887	-132.709	0.325	0.042
-515.872	800.000	0.054	-0.236
-514.858	57.408	0.124	0.122
-513.843	29.261	-0.209	-0.178
-512.829	101.600	-0.090	0.106
-511.814	123.804	0.191	-0.242
-510.799	-58.372	0.247	-0.108
-509.785	340.862	-0.043	-0.085
-508.770	800.000	-0.074	-0.280
-507.756	120.552	-0.100	-0.125
-506.741	181.441	-0.159	-0.235
-505.726	-133.938	0.216	0.027
-504.712	93.647	0.143	0.163
-503.697	-200.000	0.041	0.186
-502.683	428.991	-0.090	0.195
-501.668	-68.329	0.228	-0.089
-500.653	113.696	0.080	0.098
-499.639	375.861	-0.144	0.295
-498.624	218.265	0.081	-0.131
-497.610	13.886	0.226	0.177
-496.595	-180.359	0.139	0.003
-495.581	-183.794	-0.250	0.004
-494.566	4.953	0.238	-0.176
-493.551	800.000	-0.081	0.281
-492.537	-129.863	0.125	0.017
-491.522	324.408	-0.038	0.074
-490.508	-82.877	0.159	-0.052
-489.493	800.000	-0.063	0.175
-488.478	95.117	-0.060	-0.069
-487.464	-200.000	0.011	0.062
-486.449	86.119	0.269	-0.298
-485.435	-94.522	0.099	-0.027
-484.420	-200.000	-0.083	0.000
-483.405	-200.000	-0.031	-0.174
-482.391	61.945	0.194	-0.195
-481.376	413.307	0.092	-0.197
-480.362	-126.340	0.333	0.050
-479.347	-166.250	-0.231	-0.010
-478.332	46.740	0.110	0.103
-477.318	-200.000	-0.042	-0.307
-476.303	-200.000	-0.044	-0.296
-475.289	59.585	-0.132	0.131
-474.274	112.099	-0.046	0.056
-473.259	71.752	0.234	0.245
-472.245	459.996	0.156	-0.350
-471.230	334.332	0.118	-0.229
-470.216	-200.000	0.037	-0.201
-469.201	35.469	-0.199	-0.175
-468.186	-6.603	0.094	0.064
-467.172	-161.972	0.424	-0.022
-466.157	-102.672	-0.349	-0.084
-465.143	281.305	-0.184	0.332
-464.128	-80.901	0.265	0.088
-463.113	-100.067	0.172	-0.043
-462.099	-200.000	0.026	-0.192
-461.084	372.012	0.103	-0.210
-460.070	30.720	-0.204	0.176
-459.055	-110.192	-0.158	0.033
-458.040	-142.731	-0.202	0.020
-457.026	-200.000	-0.008	-0.197
-456.011	-200.000	0.033	0.208
-454.997	-178.258	-0.398	-0.009
-453.982	-200.000	0.049	0.232
-452.968	484.254	-0.205	-0.468
-451.953	-200.000	-0.004	-0.215
-450.938	269.192	-0.068	-0.120
-449.924	-200.000	-0.006	0.158
-448.909	-127.710	-0.312	0.045
-447.895	-200.000	0.005	-0.030
-446.880	199.456	-0.167	0.257
-445.865	800.000	0.118	0.350
-444.851	-200.000	0.008	-0.090
-443.836	233.465	-0.103	-0.171
-442.822	-113.875	-0.210	0.041
-441.807	266.905	0.026	-0.045
-440.792	620.036	-0.048	-0.122
-439.778	-44.552	-0.432	0.217
-438.763	-10.647	0.352	0.234
-437.749	-42.659	-0.153	0.078
-436.734	-200.000	0.025	0.260
-435.719	62.216	0.091	0.091
-434.705	154.208	0.148	-0.204
-433.690	37.637	0.113	0.100
-432.676	-135.612	-0.097	0.012
-431.661	-151.597	-0.295	0.022
-430.646	-200.000	0.021	0.201
-429.632	21.905	-0.319	0.261
-428.617	10.208	0.270	0.206
-427.603	-66.108	-0.235	-0.094
-426.588	-200.000	0.036	-0.396
-425.573	9.471	0.032	0.024
-424.559	-44.289	-0.296	-0.149
-423.544	-200.000	-0.008	0.128
-422.530	-108.183	-0.215	-0.047
-421.515	-200.000	-0.001	0.247
-420.500	-200.000	0.204	0.001
-419.486	-19.642	0.105	0.065
-418.471	407.756	-0.071	0.150
-417.457	620.289	0.087	0.219
-416.442	93.927	-0.174	-0.198
-415.428	31.832	0.274	-0.236
-414.413	800.000	0.116	0.355
-413.398	-62.628	0.307	0.128
-412.384	160.527	-0.259	0.362
-411.369	-200.000	0.048	-0.243
-410.355	31.420	0.269	0.232
-409.340	-200.000	-0.018	0.133
-408.325	252.372	-0.059	0.101
-407.311	-130.797	0.300	0.040
-406.296	-132.324	0.227	-0.029
-405.282	-130.103	0.225	0.031
-404.267	160.859	0.069	0.097
-403.252	-200.000	-0.047	0.347
-402.238	-83.968	-0.135	-0.043
-401.223	-73.889	-0.466	0.170
-400.209	-61.925	0.335	-0.140
-399.194	-159.109	0.051	-0.003
-398.179	65.684	0.113	0.114
-397.165	-200.000	-0.043	0.215
-396.150	389.864	0.103	-0.214
-395.136	-101.702	0.075	0.018
-394.121	-50.900	-0.175	0.082
-393.106	-34.734	-0.312	-0.171
-392.092	-162.162	-0.284	-0.014
-391.077	26.320	-0.301	-0.252
-390.063	-133.062	0.269	0.034
-389.048	-91.815	-0.395	0.112
-388.033	302.995	-0.230	0.427
-387.019	-200.000	0.001	0.488
-386.004	-127.375	-0.069	-0.010
-384.990	-83.418	0.235	-0.075
-383.975	186.602	-0.172	-0.256
-382.960	95.360	-0.227	0.259
-381.946	127.534	0.134	0.170
-380.931	39.666	0.312	-0.280
-379.917	78.605	0.073	0.078
-378.902	-34.686	-0.053	0.029
-377.888	-163.715	-0.227	-0.011
-376.873	-12.089	0.294	0.193
-375.858	-200.000	0.007	0.218
-374.844	-61.253	0.209	0.088
-373.829	742.910	0.046	-0.123
-372.815	47.461	0.087	0.081
-371.800	-115.125	-0.138	-0.026
-370.785	-200.000	0.007	-0.132
-369.771	269.649	-0.151	-0.266
-368.756	29.753	0.119	0.101
-367.742	93.004	-0.292	-0.330
-366.727	-200.000	0.057	-0.314
-365.712	-45.340	0.296	0.147
-364.698	800.000	0.025	-0.082
-363.683	-68.471	0.187	0.073
-362.669	-71.765	0.435	0.162
-361.654	-102.194	0.431	0.104
-360.639	481.282	-0.071	-0.162
-359.625	-158.890	-0.343	0.020
-358.610	87.719	-0.117	-0.129
-357.596	3.411	-0.292	-0.212
-356.581	-41.850	-0.306	-0.157
-355.566	800.000	0.085	0.282
-354.552	241.244	0.101	0.168
-353.537	-34.829	0.078	-0.043
-352.523	-200.000	0.042	-0.253
-351.508	-200.000	-0.002	0.036
-350.493	800.000	-0.121	0.383
-349.479	-53.657	0.174	-0.079
-348.464	87.301	-0.301	-0.333
-347.450	-15.619	0.114	-0.073
-346.435	146.353	-0.251	0.337
-345.420	800.000	-0.064	-0.195
-344.406	113.746	0.131	-0.160
-343.391	104.983	0.265	0.312
-342.377	800.000	-0.067	-0.190
-341.362	222.972	-0.208	0.335
-340.348	-200.000	-0.005	-0.372
-339.333	-200.000	-0.056	-0.257
-338.318	-149.330	-0.217	0.017
-337.304	48.271	-0.085	0.079
-336.289	21.344	-0.038	0.031
-335.275	82.836	-0.057	-0.062
-334.260	-200.000	0.044	-0.268
-333.245	-200.000	-0.005	0.176
-332.231	651.552	0.102	0.260
-331.216	-200.000	-0.004	0.193
-330.202	-12.370	-0.324	-0.212
-329.187	244.352	-0.059	0.099
-328.172	-63.633	0.058	0.024
-327.158	256.084	0.167	-0.286
-326.143	38.446	-0.199	-0.177
-325.129	-139.939	0.144	-0.015
-324.114	800.000	0.064	0.277
-323.099	-132.809	-0.307	-0.039
-322.085	-0.124	0.240	0.170
-321.070	-11.699	-0.040	-0.026
-320.056	61.003	0.038	0.038
-319.041	-112.196	-0.121	0.024
-318.026	44.125	-0.144	0.132
-317.012	-75.473	0.154	-0.055
-315.997	-25.137	0.171	0.101
-314.983	-142.875	0.142	0.014
-313.968	-99.699	0.258	0.065
-312.953	277.328	0.047	-0.083
-311.939	-200.000	0.027	0.153
-310.924	90.354	0.071	-0.079
-309.910	-200.000	-0.016	-0.407
-308.895	52.074	0.087	0.083
-307.880	11.906	-0.045	-0.035
-306.866	-63.972	0.130	-0.053
-305.851	-200.000	-0.002	-0.166
-304.837	-151.879	-0.416	-0.030
-303.822	-200.000	0.058	0.340
-302.807	-200.000	-0.056	0.290
-301.793	-200.000	0.001	0.197
-300.778	-7.462	-0.106	-0.072
-299.764	-200.000	-0.031	0.347
-298.749	336.866	0.048	0.094
-297.735	95.382	-0.257	0.292
-296.720	350.914	-0.030	-0.058
-295.705	-89.759	-0.443	0.130
-294.691	-200.000	0.057	-0.530
-293.676	-200.000	-0.008	-0.319
-292.662	206.422	0.066	0.102
-291.647	800.000	-0.041	0.155
-290.632	800.000	-0.036	0.150
-289.618	-102.089	0.347	-0.084
-288.603	-7.910	-0.290	-0.195
-287.589	-174.600	0.097	0.003
-286.574	410.552	-0.196	0.414
-285.559	-137.768	-0.193	-0.022
-284.545	85.121	-0.303	0.331
-283.530	234.733	0.144	-0.237
-282.516	12.518	-0.117	0.090
-281.501	800.000	-0.027	-0.099
-280.486	-172.758	0.030	-0.001
-279.472	0.072	0.095	0.068
-278.457	549.390	-0.064	-0.153
-277.443	-200.000	-0.022	0.189
-276.428	-200.000	-0.026	0.256
-275.413	-200.000	0.021	0.109
-274.399	124.379	0.151	-0.189
-273.384	-133.111	0.047	0.006
-272.370	-33.056	0.250	-0.138
-271.355	800.000	-0.096	-0.287
-270.340	-200.000	-0.014	0.342
-269.326	-11.556	0.192	0.126
-268.311	800.000	0.058	0.226
-267.297	-75.607	0.128	-0.045
-266.282	-94.593	-0.048	0.013
-265.267	-200.000	-0.018	0.132
-264.253	678.607	0.142	0.368
-263.238	-53.931	-0.114	-0.052
-262.224	399.337	0.076	0.159
-261.209	800.000	-0.076	0.316
-260.195	-61.587	0.051	-0.021
-259.180	303.354	0.152	0.280
-258.165	24.068	-0.174	0.143
-257.151	-70.719	0.089	-0.033
-256.136	-91.584	0.563	0.160
-255.122	797.797	-0.107	-0.294
-254.107	-200.000	-0.009	-0.156
-253.092	7.422	-0.062	-0.046
-252.078	-197.382	-0.076	-0.000
-251.063	-200.000	-0.111	-0.542
-250.049	-200.000	0.033	-0.443
-249.034	-200.000	-0.002	-0.028
-248.019	94.547	-0.222	0.252
-247.005	-101.876	0.211	0.051
-245.990	161.972	-0.288	-0.402
-244.976	260.817	-0.014	-0.025
-243.961	-55.512	-0.279	0.125
-242.946	-86.518	0.251	-0.077
-241.932	-53.263	0.250	0.114
-240.917	-200.000	0.022	-0.301
-239.903	-7.000	0.174	0.118
-238.888	-47.165	0.238	0.115
-237.873	800.000	-0.054	-0.158
-236.859	800.000	0.072	-0.234
-235.844	516.634	-0.033	-0.077
-234.830	-200.000	0.016	0.171
-233.815	-170.243	0.172	0.006
-232.800	-27.602	0.079	-0.045
-231.786	-200.000	-0.003	-0.249
-230.771	-61.912	0.023	0.009
-229.757	112.570	-0.232	0.280
-228.742	-139.708	0.238	0.025
-227.727	21.459	0.142	0.115
-226.713	88.658	-0.126	-0.139
-225.698	-83.984	0.310	-0.098
-224.684	-200.000	-0.107	-0.607
-223.669	-200.000	-0.031	-0.161
-222.655	-102.849	0.087	-0.021
-221.640	800.000	-0.088	-0.347
-220.625	-142.204	0.242	0.024
-219.611	-59.419	-0.112	-0.048
-218.596	800.000	-0.066	0.235
-217.582	-145.870	0.364	0.032
-216.567	-200.000	-0.033	0.177
-215.552	-148.638	0.133	0.011
-214.538	-88.842	0.312	0.092
-213.523	635.086	-0.112	0.283
-212.509	69.400	-0.202	0.207
-211.494	800.000	-0.033	0.120
-210.479	800.000	0.064	-0.258
-209.465	-159.440	0.046	-0.003
-208.450	61.448	0.152	0.150
-207.436	469.888	0.109	0.244
-206.421	114.439	0.049	-0.059
-205.406	-200.000	0.031	-0.160
-204.392	-200.000	-0.022	0.133
-203.377	96.651	0.224	0.255
-202.363	800.000	-0.044	-0.172
-201.348	158.099	-0.145	0.200
-200.333	96.821	0.117	0.133
-199.319	-200.000	-0.052	0.256
-198.304	230.738	-0.162	0.264
-197.290	-14.985	0.175	-0.112
-196.275	-200.000	0.042	-0.214
-195.260	5.719	-0.214	0.157
-194.246	759.886	0.023	-0.063
-193.231	-200.000	0.019	0.215
-192.217	-156.894	0.194	0.012
-191.202	-72.288	-0.059	0.022
-190.187	-48.691	-0.191	-0.091
-189.173	800.000	0.053	0.187
-188.158	800.000	-0.104	0.415
-187.144	-200.000	-0.016	0.305
-186.129	34.024	0.105	-0.091
-185.114	-106.417	0.285	-0.063
-184.100	-143.354	0.235	0.022
-183.085	4.094	0.318	-0.231
-182.071	422.472	-0.110	-0.235
-181.056	225.677	-0.098	0.158
-180.042	-85.622	0.064	0.020
-179.027	-19.172	0.119	0.073
-178.012	151.796	0.128	0.173
-176.998	53.823	0.117	-0.112
-175.983	-200.000	-0.085	0.461
-174.969	72.688	-0.094	0.097
-173.954	800.000	-0.063	-0.178
-172.939	-16.586	-0.134	-0.084
-171.925	168.024	0.181	0.256
-170.910	-200.000	0.034	-0.158
-169.896	800.000	-0.065	0.215
-168.881	-140.765	-0.321	0.033
-167.866	-71.153	-0.367	-0.137
-166.852	9.242	0.223	-0.167
-165.837	265.836	-0.091	-0.157
-164.823	800.000	-0.039	0.142
-163.808	280.222	-0.051	0.091
-162.793	-123.476	-0.282	0.045
-161.779	-8.566	-0.321	0.214
-160.764	800.000	0.072	-0.210
-159.750	-60.548	-0.059	0.025
-158.735	-200.000	-0.013	0.069
-157.720	-0.044	-0.040	-0.029
-156.706	-82.729	0.088	-0.028
-155.691	800.000	-0.057	0.209
-154.677	-103.516	0.354	0.083
-153.662	530.285	0.021	0.048
-152.647	800.000	-0.071	-0.216
-151.633	148.305	0.153	0.205
-150.618	-200.000	0.003	-0.114
-149.604	-108.565	-0.209	-0.045
-148.589	190.505	0.160	0.238
-147.574	-36.308	-0.164	-0.088
-146.560	425.450	-0.135	-0.289
-145.545	-92.248	0.116	0.033
-144.531	-127.689	0.226	-0.032
-143.516	-157.657	-0.335	0.020
-142.502	-200.000	0.043	0.213
-141.487	67.733	0.113	-0.114
-140.472	166.439	-0.139	-0.195
-139.458	-75.812	-0.056	0.020
-138.443	-111.407	0.285	-0.058
-137.429	-84.025	-0.164	0.052
-136.414	-200.000	0.000	0.147
-135.399	-200.000	-0.023	0.132
-134.385	-200.000	0.080	0.419
-133.370	329.868	0.202	0.385
-132.356	800.000	-0.110	-0.340
-131.341	199.054	0.212	0.322
-130.326	-200.000	-0.020	0.277
-129.312	800.000	-0.109	-0.369
-128.297	76.537	0.185	-0.195
-127.283	139.208	0.104	0.135
-126.268	800.000	-0.126	0.407
-125.253	-200.000	-0.030	-0.224
-124.239	-200.000	-0.012	0.217
-123.224	-55.164	0.108	0.048
-122.210	2.482	0.153	-0.110
-121.195	-200.000	0.051	-0.280
-120.180	39.915	0.033	0.029
