DTS Sentinel unit serial number:	SN413079Multiplexer serial number:	ORYXHardware model number:	OX4-SRSoftware version number:	ORYX F/W v4.00 Oryx Data Collector v3.7.2.0data status	okinstallation	princeton_trtdifferential loss correction	single-endedforward channel	channel 4reverse channel	N/Adate	2019/09/11time	09:19:11forward acquisition time	60.00reverse acquisition time	0.00gamma	496.2192k internal	0.2299k external	0.2299temperature offset calibration	0.9974default loss term (dB/km)	0.3790temperature slope calibration	1.0000multiplexer offset coefficient	1.0000multiplexer slope coefficient	1.0000fibre end	0.00T internal ref (°C)	34.44T ext. ref 1 (°C)	0.13T ext. ref 2 (°C)	31.29length (m)	temperature (°C)	Stokes	anti-Stokes-747.200	-73.864	0.440	0.163
-746.185	22.884	-0.221	0.185
-745.171	-177.340	-0.183	0.005
-744.156	-200.000	-0.007	-0.096
-743.142	21.999	-0.223	-0.186
-742.127	-200.000	0.382	0.001
-741.112	-200.000	0.000	0.117
-740.098	-165.377	-0.152	-0.007
-739.083	-63.781	-0.067	-0.028
-738.069	-153.770	-0.051	0.004
-737.054	-200.000	0.006	0.204
-736.039	-41.812	-0.371	-0.194
-735.025	-101.541	-0.051	-0.013
-734.010	-173.158	-0.260	-0.008
-732.996	62.164	-0.163	-0.166
-731.981	101.153	0.168	0.200
-730.966	26.585	-0.130	-0.111
-729.952	205.433	-0.156	-0.248
-728.937	-200.000	0.003	-0.149
-727.923	500.198	-0.079	0.186
-726.908	800.000	0.058	-0.186
-725.894	-17.835	-0.184	-0.118
-724.879	-200.000	-0.052	0.336
-723.864	-25.289	-0.204	-0.123
-722.850	-64.772	-0.187	-0.077
-721.835	44.189	-0.207	-0.194
-720.821	156.029	-0.156	-0.219
-719.806	-90.745	-0.036	-0.011
-718.791	-51.145	0.129	0.061
-717.777	800.000	-0.063	0.265
-716.762	-131.789	0.320	0.043
-715.748	11.435	0.350	0.274
-714.733	-50.730	-0.138	-0.066
-713.718	-109.666	-0.196	-0.042
-712.704	-32.080	-0.348	0.199
-711.689	15.510	-0.056	-0.045
-710.675	800.000	-0.094	0.281
-709.660	-200.000	-0.027	0.228
-708.645	-146.543	0.417	-0.037
-707.631	-24.217	0.232	0.141
-706.616	-200.000	-0.080	-0.410
-705.602	-160.125	-0.120	-0.007
-704.587	103.298	0.106	0.126
-703.572	-7.099	0.027	0.019
-702.558	-173.395	0.164	0.005
-701.543	25.998	-0.228	0.194
-700.529	-66.507	0.182	-0.074
-699.514	800.000	-0.084	0.306
-698.499	800.000	0.028	0.080
-697.485	-8.794	0.189	0.129
-696.470	115.214	0.024	-0.030
-695.456	-200.000	-0.031	-0.234
-694.441	215.100	0.188	-0.304
-693.426	-161.996	-0.142	0.007
-692.412	730.995	0.133	-0.361
-691.397	494.142	-0.143	-0.335
-690.383	-200.000	0.004	-0.249
-689.368	800.000	0.091	-0.379
-688.354	-31.323	0.107	-0.061
-687.339	37.368	0.172	-0.156
-686.324	144.995	0.143	-0.195
-685.310	-55.573	0.114	0.052
-684.295	60.073	-0.103	-0.104
-683.281	-180.877	0.063	-0.001
-682.266	226.300	-0.258	-0.426
-681.251	-184.696	-0.143	-0.002
-680.237	-87.335	-0.172	0.053
-679.222	59.699	0.128	-0.128
-678.208	-200.000	0.039	0.405
-677.193	-200.000	-0.026	0.322
-676.178	-151.323	-0.197	0.015
-675.164	800.000	0.152	-0.495
-674.149	-200.000	-0.037	0.249
-673.135	-200.000	0.038	0.504
-672.120	-85.101	0.061	0.020
-671.105	-166.822	-0.471	0.020
-670.091	-77.176	0.163	0.058
-669.076	101.131	-0.142	-0.169
-668.062	800.000	0.076	-0.275
-667.047	-200.000	0.007	0.266
-666.032	-200.000	-0.061	0.320
-665.018	-110.551	0.271	0.057
-664.003	235.279	-0.128	-0.216
-662.989	800.000	-0.076	0.254
-661.974	-125.710	-0.199	0.031
-660.959	-200.000	-0.005	-0.059
-659.945	-157.268	0.364	-0.022
-658.930	61.937	-0.150	-0.152
-657.916	54.438	0.194	0.190
-656.901	-146.624	-0.150	0.013
-655.886	-200.000	-0.079	-0.472
-654.872	-23.859	0.075	0.045
-653.857	-200.000	-0.006	-0.059
-652.843	-200.000	0.044	-0.234
-651.828	148.336	0.103	-0.142
-650.814	398.826	-0.143	0.304
-649.799	383.470	0.103	-0.216
-648.784	-200.000	-0.031	0.153
-647.770	22.880	0.104	0.086
-646.755	87.639	0.186	0.210
-645.741	350.365	-0.087	0.176
-644.726	-65.920	0.098	-0.040
-643.711	51.746	-0.174	-0.168
-642.697	-67.117	-0.132	-0.053
-641.682	-192.697	-0.206	-0.002
-640.668	132.038	0.147	0.193
-639.653	-200.000	0.014	-0.255
-638.638	800.000	0.041	-0.147
-637.624	-200.000	-0.007	0.268
-636.609	-32.745	-0.172	-0.097
-635.595	-97.258	-0.043	-0.011
-634.580	-200.000	0.010	0.238
-633.565	-200.000	-0.038	0.275
-632.551	-167.536	-0.293	0.012
-631.536	714.799	-0.072	-0.194
-630.522	-111.967	0.177	0.036
-629.507	248.646	-0.052	0.089
-628.492	-124.717	0.164	-0.026
-627.478	412.526	0.126	0.273
-626.463	-136.189	0.202	0.024
-625.449	69.190	0.095	-0.099
-624.434	101.842	0.073	0.087
-623.419	800.000	-0.052	0.172
-622.405	800.000	0.018	0.059
-621.390	-128.125	0.168	0.024
-620.376	223.233	-0.103	-0.169
-619.361	325.083	0.070	0.136
-618.346	-200.000	-0.001	0.044
-617.332	318.160	0.189	0.363
-616.317	-114.494	-0.343	-0.067
-615.303	-109.087	-0.172	-0.037
-614.288	234.010	0.032	0.054
-613.273	102.192	0.293	-0.348
-612.259	92.999	-0.245	-0.281
-611.244	63.600	-0.158	0.161
-610.230	-38.249	-0.374	0.201
-609.215	-38.772	-0.244	0.131
-608.201	-12.322	-0.119	0.079
-607.186	-26.790	-0.108	-0.064
-606.171	-200.000	0.039	-0.411
-605.157	338.748	0.024	0.047
-604.142	-51.465	-0.389	-0.185
-603.128	-200.000	0.022	-0.375
-602.113	-28.226	-0.322	0.189
-601.098	140.460	-0.230	-0.309
-600.084	-115.384	-0.295	-0.056
-599.069	800.000	-0.079	-0.238
-598.055	-150.453	-0.163	-0.013
-597.040	-83.171	0.227	0.074
-596.025	-44.444	0.263	-0.134
-595.011	188.017	0.070	0.106
-593.996	383.834	0.040	0.085
-592.982	466.147	-0.041	-0.094
-591.967	-200.000	0.003	0.016
-590.952	177.529	0.102	0.150
-589.938	149.404	0.059	-0.082
-588.923	-109.213	0.255	0.055
-587.909	362.528	0.106	-0.216
-586.894	-109.409	0.036	0.008
-585.879	99.676	0.231	0.271
-584.865	113.506	0.127	0.157
-583.850	-106.479	-0.221	-0.050
-582.836	246.416	-0.147	0.251
-581.821	-46.969	-0.437	-0.216
-580.806	484.013	0.018	-0.043
-579.792	800.000	0.058	-0.167
-578.777	218.616	0.208	0.337
-577.763	-86.164	-0.319	0.100
-576.748	-200.000	-0.016	0.111
-575.733	13.481	0.206	-0.162
-574.719	-23.857	0.158	-0.096
-573.704	-13.251	-0.285	-0.188
-572.690	571.843	0.117	0.288
-571.675	-13.163	-0.041	-0.027
-570.661	586.989	-0.121	-0.301
-569.646	90.349	-0.292	0.332
-568.631	127.357	-0.039	-0.050
-567.617	-200.000	0.005	-0.075
-566.602	800.000	-0.032	0.130
-565.588	-5.361	0.250	0.174
-564.573	328.001	-0.033	-0.064
-563.558	233.931	-0.147	-0.245
-562.544	211.030	0.106	-0.170
-561.529	800.000	-0.040	-0.177
-560.515	-67.047	-0.220	-0.088
-559.500	-8.278	0.123	0.084
-558.485	-200.000	-0.050	-0.384
-557.471	10.718	0.418	0.323
-556.456	-111.259	-0.309	0.064
-555.442	116.425	-0.182	-0.226
-554.427	-49.669	-0.338	0.163
-553.412	278.882	-0.087	0.158
-552.398	-165.451	0.097	0.004
-551.383	-23.093	-0.302	0.184
-550.369	-200.000	0.059	0.324
-549.354	-200.000	0.031	-0.359
-548.339	228.282	-0.191	-0.314
-547.325	-51.910	0.058	0.027
-546.310	-141.491	-0.243	-0.025
-545.296	-1.611	-0.132	0.095
-544.281	800.000	-0.070	0.289
-543.266	168.092	-0.085	-0.122
-542.252	-155.133	-0.307	-0.020
-541.237	-48.472	-0.249	-0.121
-540.223	408.905	0.110	-0.236
-539.208	-200.000	-0.025	-0.178
-538.193	136.015	-0.106	-0.139
-537.179	-133.127	0.103	0.013
-536.164	397.249	-0.057	-0.121
-535.150	-200.000	0.049	0.266
-534.135	-142.134	-0.452	-0.045
-533.121	-200.000	0.004	-0.243
-532.106	259.655	0.068	-0.119
-531.091	-171.776	-0.354	0.012
-530.077	272.621	-0.088	0.156
-529.062	26.354	-0.094	-0.080
-528.048	-32.502	0.092	0.052
-527.033	800.000	-0.053	-0.228
-526.018	-200.000	-0.012	-0.057
-525.004	-105.264	-0.236	-0.055
-523.989	244.111	-0.194	0.329
-522.975	800.000	0.042	-0.120
-521.960	-191.758	-0.282	-0.003
-520.945	541.384	0.037	-0.089
-519.931	800.000	0.033	-0.112
-518.916	-200.000	0.015	-0.081
-517.902	-50.736	0.147	-0.070
-516.887	-10.735	0.207	-0.138
-515.872	60.381	0.227	-0.228
-514.858	264.646	0.160	-0.283
-513.843	-16.261	0.231	0.149
-512.829	531.076	0.078	0.186
-511.814	159.500	0.203	0.285
-510.799	384.146	-0.069	0.143
-509.785	-179.811	-0.416	-0.009
-508.770	-16.903	0.281	-0.180
-507.756	-16.047	0.127	-0.082
-506.741	106.150	0.130	-0.155
-505.726	-117.122	0.046	-0.008
-504.712	57.096	-0.219	0.216
-503.697	-172.530	0.348	0.011
-502.683	339.466	0.082	-0.161
-501.668	648.432	0.040	0.104
-500.653	11.106	0.121	-0.094
-499.639	-152.261	0.276	-0.020
-498.624	-200.000	-0.003	0.267
-497.610	23.829	-0.073	-0.061
-496.595	-151.030	0.171	-0.013
-495.581	279.352	-0.152	-0.274
-494.566	-200.000	0.026	-0.153
-493.551	-92.389	-0.268	0.076
-492.537	800.000	-0.019	-0.069
-491.522	518.337	-0.047	-0.112
-490.508	-122.530	-0.257	0.042
-489.493	118.727	0.125	0.156
-488.478	217.690	-0.076	-0.122
-487.464	-96.597	0.287	-0.076
-486.449	147.596	0.134	-0.183
-485.435	106.813	-0.243	0.291
-484.420	-12.123	0.193	-0.128
-483.405	800.000	0.065	-0.237
-482.391	-56.527	0.019	-0.009
-481.376	-133.756	0.141	0.018
-480.362	-200.000	-0.074	-0.459
-479.347	-15.566	0.123	0.079
-478.332	96.980	-0.184	0.213
-477.318	-200.000	0.023	0.490
-476.303	-55.391	-0.172	0.078
-475.289	179.223	0.129	-0.190
-474.274	173.623	-0.089	-0.130
-473.259	-200.000	0.029	0.186
-472.245	800.000	0.019	0.066
-471.230	192.142	-0.143	0.218
-470.216	30.331	0.160	0.138
-469.201	337.634	0.080	0.156
-468.186	-54.987	-0.324	0.147
-467.172	-106.000	0.377	0.086
-466.157	81.402	-0.107	-0.117
-465.143	-91.279	0.075	0.022
-464.128	-200.000	-0.005	0.104
-463.113	17.502	-0.077	-0.062
-462.099	-200.000	-0.013	0.161
-461.084	-200.000	0.034	0.391
-460.070	95.484	0.191	-0.220
-459.055	800.000	-0.013	-0.046
-458.040	-7.409	0.124	0.084
-457.026	800.000	0.072	-0.228
-456.011	382.704	-0.066	0.137
-454.997	440.238	0.184	-0.405
-453.982	-74.444	0.024	0.009
-452.968	227.241	-0.189	-0.310
-451.953	800.000	-0.070	-0.217
-450.938	-200.000	0.013	-0.147
-449.924	800.000	0.056	-0.227
-448.909	-200.000	0.059	0.329
-447.895	1.839	-0.080	0.058
-446.880	800.000	0.137	0.487
-445.865	-47.647	-0.096	0.047
-444.851	129.548	0.082	-0.106
-443.836	323.437	-0.078	-0.150
-442.822	-200.000	0.006	0.100
-441.807	-103.410	0.169	-0.040
-440.792	-142.795	0.133	0.013
-439.778	-142.329	0.151	0.015
-438.763	352.429	0.099	0.198
-437.749	110.337	-0.151	0.183
-436.734	-200.000	-0.010	0.082
-435.719	800.000	-0.059	0.206
-434.705	-200.000	-0.021	0.096
-433.690	82.701	0.172	-0.189
-432.676	800.000	0.089	-0.319
-431.661	85.594	-0.020	0.022
-430.646	-75.219	-0.325	-0.117
-429.632	386.070	0.143	-0.298
-428.617	-24.431	0.164	-0.098
-427.603	718.496	-0.167	-0.448
-426.588	122.828	-0.151	0.190
-425.573	-200.000	0.033	0.358
-424.559	126.083	-0.256	0.326
-423.544	-95.561	-0.227	-0.061
-422.530	-151.841	0.281	0.021
-421.515	-53.774	0.169	-0.078
-420.500	-200.000	0.013	-0.202
-419.486	14.141	-0.264	-0.207
-418.471	-79.807	0.169	0.057
-417.457	-106.841	-0.333	-0.074
-416.442	451.382	0.113	0.252
-415.428	106.635	-0.055	0.066
-414.413	321.981	-0.173	0.332
-413.398	-200.000	-0.028	0.263
-412.384	-181.642	-0.160	0.003
-411.369	-72.092	0.024	0.009
-410.355	-90.366	0.247	0.072
-409.340	-199.998	0.096	0.000
-408.325	8.661	-0.223	-0.170
-407.311	286.033	0.103	-0.187
-406.296	-35.968	-0.281	-0.153
-405.282	800.000	0.108	-0.385
-404.267	-200.000	0.030	0.516
-403.252	12.978	-0.072	-0.056
-402.238	-80.311	-0.204	0.069
-401.223	280.363	0.053	0.096
-400.209	-86.638	0.110	-0.034
-399.194	-200.000	-0.003	-0.046
-398.179	-200.000	0.007	-0.245
-397.165	-3.279	0.148	-0.104
-396.150	296.003	-0.121	0.224
-395.136	97.514	-0.069	0.080
-394.121	-92.420	0.140	0.040
-393.106	317.305	0.099	0.189
-392.092	125.898	0.139	0.177
-391.077	-22.232	0.155	0.095
-390.063	800.000	-0.094	0.375
-389.048	800.000	0.062	0.217
-388.033	-119.652	-0.419	0.073
-387.019	-33.990	-0.072	0.040
-386.004	67.833	-0.074	-0.076
-384.990	-73.064	-0.288	-0.106
-383.975	-53.762	0.356	-0.163
-382.960	-200.000	0.036	0.286
-381.946	-69.964	0.407	0.156
-380.931	-87.729	0.366	0.111
-379.917	-145.062	-0.496	0.045
-378.902	-131.346	0.256	-0.034
-377.888	229.890	-0.033	-0.054
-376.873	800.000	-0.090	0.311
-375.858	800.000	-0.022	0.075
-374.844	363.297	-0.128	0.259
-373.829	800.000	0.073	-0.283
-372.815	-200.000	-0.019	-0.372
-371.800	-164.426	-0.333	-0.015
-370.785	-121.486	-0.032	-0.005
-369.771	-163.536	0.271	-0.013
-368.756	15.146	0.328	0.259
-367.742	208.076	0.046	-0.072
-366.727	97.920	0.167	-0.193
-365.712	-170.815	-0.357	0.012
-364.698	-200.000	-0.015	0.267
-363.683	389.688	-0.196	-0.408
-362.669	-138.676	0.238	0.026
-361.654	-200.000	0.005	-0.279
-360.639	-0.115	-0.042	0.030
-359.625	79.337	-0.151	0.163
-358.610	800.000	-0.079	-0.240
-357.596	-200.000	-0.017	-0.217
-356.581	37.305	0.205	0.182
-355.566	-37.631	-0.161	-0.086
-354.552	-200.000	0.009	-0.079
-353.537	-117.014	-0.070	-0.013
-352.523	-168.589	0.175	0.007
-351.508	-111.372	0.188	-0.039
-350.493	113.278	0.138	0.168
-349.479	-200.000	0.008	-0.299
-348.464	-124.585	-0.384	0.060
-347.450	44.455	-0.325	0.300
-346.435	-92.650	-0.202	0.057
-345.420	-155.760	0.674	-0.043
-344.406	-200.000	-0.051	-0.427
-343.391	-200.000	0.004	-0.233
-342.377	322.040	0.032	0.061
-341.362	-22.371	-0.147	0.090
-340.348	-73.638	-0.101	0.037
-339.333	124.012	-0.095	0.120
-338.318	131.477	0.226	0.292
-337.304	-56.783	0.098	-0.043
-336.289	-36.783	0.277	-0.149
-335.275	-200.000	0.070	-0.384
-334.260	159.890	0.066	-0.093
-333.245	286.629	-0.041	-0.074
-332.231	-52.454	-0.143	-0.066
-331.216	-200.000	0.042	-0.188
-330.202	198.702	0.125	-0.192
-329.187	-200.000	-0.017	-0.136
-328.172	-94.588	0.267	-0.073
-327.158	333.303	-0.021	-0.040
-326.143	-155.590	0.175	0.011
-325.129	29.604	0.158	-0.135
-324.114	-77.520	-0.113	0.039
-323.099	800.000	-0.053	-0.172
-322.085	-7.984	0.179	-0.121
-321.070	-79.901	0.375	-0.126
-320.056	-70.271	0.423	0.161
-319.041	91.633	0.195	0.220
-318.026	-200.000	-0.022	0.118
-317.012	-200.000	0.033	-0.251
-315.997	32.010	-0.276	-0.239
-314.983	783.898	-0.117	-0.321
-313.968	-200.000	0.013	0.063
-312.953	-114.238	-0.087	-0.017
-311.939	267.213	-0.132	-0.231
-310.924	284.127	-0.028	-0.051
-309.910	189.526	0.132	0.199
-308.895	281.471	0.108	-0.194
-307.880	-50.672	-0.093	-0.044
-306.866	499.021	-0.134	-0.309
-305.851	800.000	0.084	0.305
-304.837	-77.358	-0.208	-0.073
-303.822	-122.865	-0.110	0.018
-302.807	800.000	0.051	-0.166
-301.793	238.287	-0.202	0.337
-300.778	-29.715	0.245	0.140
-299.764	-92.322	0.422	0.119
-298.749	-157.389	0.206	0.012
-297.735	-98.224	0.598	-0.154
-296.720	-111.910	-0.246	-0.050
-295.705	-14.503	-0.343	0.221
-294.691	-87.794	-0.276	0.084
-293.676	800.000	-0.054	0.187
-292.662	-86.702	-0.208	0.064
-291.647	-80.949	-0.174	-0.058
-290.632	-146.670	-0.135	0.012
-289.618	31.278	0.165	-0.142
-288.603	120.951	0.127	-0.158
-287.589	-195.893	-0.171	0.001
-286.574	800.000	0.078	0.252
-285.559	-9.102	-0.164	-0.110
-284.545	53.355	0.221	-0.212
-283.530	-175.948	0.246	0.007
-282.516	-105.919	0.330	-0.075
-281.501	800.000	-0.075	0.285
-280.486	629.533	-0.074	-0.186
-279.472	-183.642	-0.231	-0.004
-278.457	46.635	0.212	0.197
-277.443	279.828	-0.167	-0.298
-276.428	-8.363	0.232	-0.156
-275.413	384.319	0.047	0.097
-274.399	-50.375	0.192	0.091
-273.384	388.439	0.031	0.064
-272.370	-200.000	-0.024	0.246
-271.355	-127.690	0.305	0.044
-270.340	-200.000	0.076	-0.496
-269.326	-200.000	0.015	-0.160
-268.311	-37.898	0.252	-0.134
-267.297	-117.708	0.128	0.023
-266.282	-61.411	0.242	-0.102
-265.267	175.285	-0.089	0.129
-264.253	800.000	0.049	0.206
-263.238	554.386	0.081	0.196
-262.224	-164.155	-0.186	0.009
-261.209	-34.231	0.341	0.188
-260.195	59.849	-0.271	0.268
-259.180	800.000	-0.046	0.190
-258.165	-28.603	0.556	0.320
-257.151	33.426	0.094	0.082
-256.136	-54.473	-0.169	0.077
-255.122	-12.202	-0.202	0.132
-254.107	250.764	-0.114	-0.194
-253.092	-26.590	-0.099	-0.058
-252.078	-200.000	-0.008	-0.120
-251.063	-179.396	0.624	-0.014
-250.049	-5.158	0.204	-0.140
-249.034	783.820	-0.096	0.262
-248.019	-154.154	0.350	0.024
-247.005	-46.288	-0.315	-0.155
-245.990	281.814	0.133	-0.238
-244.976	161.790	-0.072	-0.100
-243.961	-96.994	-0.233	-0.061
-242.946	-200.000	-0.027	-0.244
-241.932	-107.476	0.245	0.054
-240.917	-200.000	-0.023	-0.265
-239.903	232.030	-0.115	-0.189
-238.888	-200.000	0.024	-0.167
-237.873	-136.408	0.042	-0.005
-236.859	-51.432	0.306	0.143
-235.844	-78.994	0.132	-0.045
-234.830	464.458	-0.060	0.133
-233.815	175.383	0.127	-0.185
-232.800	13.688	0.463	-0.360
-231.786	-49.923	-0.268	-0.127
-230.771	99.526	-0.161	0.187
-229.757	388.205	-0.183	0.379
-228.742	-78.133	-0.393	-0.135
-227.727	-150.518	-0.316	0.024
-226.713	24.661	-0.318	-0.263
-225.698	140.908	0.196	0.259
-224.684	364.892	0.104	0.210
-223.669	-114.342	-0.266	-0.051
-222.655	44.070	0.317	0.290
-221.640	-200.000	0.014	0.352
-220.625	-200.000	-0.013	0.178
-219.611	-57.781	-0.509	-0.223
-218.596	552.454	-0.089	-0.214
-217.582	348.870	0.232	-0.458
-216.567	-200.000	0.053	-0.391
-215.552	-49.370	0.081	0.039
-214.538	145.983	0.016	-0.021
-213.523	-142.368	-0.334	-0.033
-212.509	90.187	-0.124	0.138
-211.494	-52.077	0.193	0.089
-210.479	-77.440	-0.064	0.022
-209.465	-200.000	0.025	0.229
-208.450	-60.161	0.361	-0.154
-207.436	136.047	0.192	-0.250
-206.421	-200.000	-0.008	0.037
-205.406	-200.000	-0.070	0.321
-204.392	-182.888	-0.349	0.006
-203.377	49.657	0.263	0.248
-202.363	42.598	-0.126	0.114
-201.348	-119.850	-0.179	0.031
-200.333	206.596	0.222	0.345
-199.319	800.000	-0.072	-0.302
-198.304	6.998	0.109	-0.081
-197.290	645.318	-0.099	0.254
-196.275	-200.000	-0.053	0.277
-195.260	800.000	-0.065	-0.266
-194.246	761.369	0.089	-0.242
-193.231	-200.000	0.006	-0.138
-192.217	36.992	-0.157	-0.139
-191.202	-25.862	0.079	0.046
-190.187	500.018	0.140	0.321
-189.173	62.917	-0.167	0.167
-188.158	42.357	0.066	0.060
-187.144	-63.285	-0.276	0.114
-186.129	-113.319	0.131	0.026
-185.114	233.173	-0.175	0.288
-184.100	-151.253	0.211	0.016
-183.085	19.152	0.186	0.149
-182.071	-159.203	0.300	-0.017
-181.056	413.641	-0.138	0.292
-180.042	800.000	0.025	-0.105
-179.027	127.099	-0.193	0.244
-178.012	46.444	-0.120	-0.112
-176.998	-182.525	-0.211	0.004
-175.983	-30.889	-0.194	0.110
-174.969	-200.000	-0.032	-0.315
-173.954	-53.378	0.027	0.012
-172.939	-200.000	0.026	0.150
-171.925	52.794	0.119	0.113
-170.910	800.000	0.088	-0.283
-169.896	72.837	-0.234	0.244
-168.881	-74.080	0.161	0.058
-167.866	-200.000	-0.017	0.206
-166.852	-128.607	-0.458	-0.065
-165.837	77.719	-0.135	0.144
-164.823	173.930	0.179	-0.258
-163.808	-169.062	0.290	-0.011
-162.793	-13.848	-0.137	-0.088
-161.779	146.129	0.115	0.154
-160.764	-119.407	0.203	-0.035
-159.750	-200.000	0.024	-0.177
-158.735	800.000	0.100	0.420
-157.720	800.000	0.092	0.271
-156.706	132.268	0.105	0.135
-155.691	-149.261	-0.204	0.016
-154.677	28.461	0.261	-0.220
-153.662	205.017	-0.086	0.133
-152.647	-200.000	-0.002	0.112
-151.633	197.890	0.089	0.136
-150.618	-104.080	-0.564	-0.131
-149.604	-200.000	-0.038	0.223
-148.589	-51.899	0.027	-0.013
-147.574	189.500	-0.021	0.032
-146.560	619.899	-0.085	-0.212
-145.545	800.000	0.090	-0.303
-144.531	-148.653	-0.431	0.035
-143.516	-200.000	-0.005	-0.122
-142.502	466.774	-0.185	-0.414
-141.487	800.000	0.085	0.293
-140.472	-200.000	0.022	0.232
-139.458	186.043	-0.073	0.108
-138.443	145.448	0.055	-0.074
-137.429	-122.141	0.165	-0.027
-136.414	-35.388	-0.307	-0.166
-135.399	533.236	-0.068	-0.160
-134.385	9.599	0.335	-0.253
-133.370	106.849	0.273	0.323
-132.356	-152.950	0.249	-0.017
-131.341	596.192	-0.021	-0.052
-130.326	-200.000	-0.014	-0.206
-129.312	-200.000	0.002	0.025
-128.297	-34.411	-0.216	-0.118
-127.283	-52.789	-0.455	-0.209
-126.268	354.833	0.128	0.253
-125.253	423.504	0.015	0.032
-124.239	-68.831	-0.146	-0.056
-123.224	-105.049	-0.255	0.058
