DTS Sentinel unit serial number:	SN413079Multiplexer serial number:	ORYXHardware model number:	OX4-SRSoftware version number:	ORYX F/W v4.00 Oryx Data Collector v3.7.2.0data status	okinstallation	princeton_trtdifferential loss correction	single-endedforward channel	channel 4reverse channel	N/Adate	2019/09/11time	12:27:11forward acquisition time	60.00reverse acquisition time	0.00gamma	496.2192k internal	0.2286k external	0.2286temperature offset calibration	0.9963default loss term (dB/km)	0.3790temperature slope calibration	1.0000multiplexer offset coefficient	1.0000multiplexer slope coefficient	1.0000fibre end	0.00T internal ref (°C)	40.37T ext. ref 1 (°C)	0.19T ext. ref 2 (°C)	38.42length (m)	temperature (°C)	Stokes	anti-Stokes-747.200	251.196	-0.097	-0.170
-746.185	531.996	-0.067	0.162
-745.171	49.102	0.172	0.166
-744.156	179.940	-0.158	0.238
-743.142	239.431	0.063	-0.108
-742.127	800.000	0.090	0.289
-741.112	-145.185	-0.136	0.013
-740.098	167.175	-0.071	0.104
-739.083	800.000	0.113	0.338
-738.069	-152.563	0.193	0.014
-737.054	-92.046	0.122	0.035
-736.039	-111.915	-0.362	-0.075
-735.025	-200.000	-0.017	-0.177
-734.010	-81.550	-0.303	-0.102
-732.996	88.484	0.083	0.095
-731.981	227.155	-0.121	0.202
-730.966	800.000	-0.060	-0.206
-729.952	-200.000	-0.004	0.083
-728.937	65.458	0.170	0.176
-727.923	92.846	-0.182	0.211
-726.908	-200.000	0.055	-0.293
-725.894	-79.812	-0.210	0.073
-724.879	-88.594	0.225	0.069
-723.864	-200.000	-0.009	0.123
-722.850	110.003	0.193	-0.237
-721.835	370.010	0.063	0.130
-720.821	-130.943	-0.239	-0.033
-719.806	800.000	-0.177	-0.517
-718.791	-132.179	-0.304	0.040
-717.777	-113.626	-0.314	-0.063
-716.762	-200.000	-0.002	0.047
-715.748	110.382	0.212	-0.262
-714.733	-53.615	-0.191	0.090
-713.718	-130.101	-0.254	-0.036
-712.704	-200.000	-0.076	-0.460
-711.689	-157.190	-0.140	-0.009
-710.675	35.765	-0.245	-0.220
-709.660	800.000	0.156	-0.697
-708.645	-81.634	0.288	0.097
-707.631	489.645	-0.108	-0.252
-706.616	-89.405	-0.045	0.014
-705.602	-113.374	-0.204	0.041
-704.587	-75.529	-0.245	-0.089
-703.572	-135.268	-0.268	-0.033
-702.558	10.233	0.007	-0.006
-701.543	195.426	-0.106	0.166
-700.529	800.000	0.051	-0.198
-699.514	-17.721	0.190	-0.122
-698.499	800.000	-0.056	-0.172
-697.485	-200.000	0.020	-0.150
-696.470	-89.125	-0.387	-0.117
-695.456	83.347	-0.171	0.191
-694.441	800.000	0.040	0.172
-693.426	-93.689	-0.424	-0.120
-692.412	-200.000	0.021	-0.129
-691.397	-99.633	-0.196	0.050
-690.383	91.577	0.166	0.192
-689.368	222.752	0.210	0.347
-688.354	34.183	0.084	0.075
-687.339	-200.000	-0.015	-0.091
-686.324	-143.467	0.150	0.015
-685.310	-143.526	0.236	0.023
-684.295	-31.342	0.140	0.080
-683.281	118.759	-0.107	0.135
-682.266	-120.975	-0.469	0.081
-681.251	-184.238	0.304	-0.005
-680.237	50.822	-0.334	-0.324
-679.222	-97.290	0.229	0.061
-678.208	262.366	-0.049	0.088
-677.193	631.181	-0.053	-0.138
-676.178	-104.963	-0.299	0.070
-675.164	21.999	-0.137	-0.114
-674.149	-45.904	0.110	0.055
-673.135	-89.727	0.125	-0.037
-672.120	277.222	-0.194	0.354
-671.105	27.923	0.225	0.194
-670.091	123.337	-0.260	-0.333
-669.076	800.000	-0.085	-0.334
-668.062	131.007	-0.112	-0.148
-667.047	800.000	-0.038	-0.110
-666.032	209.688	-0.255	0.408
-665.018	-4.430	-0.174	0.123
-664.003	-135.491	-0.172	0.021
-662.989	-200.000	-0.000	-0.065
-661.974	800.000	0.035	-0.144
-660.959	-180.746	-0.223	0.005
-659.945	-34.616	-0.223	-0.125
-658.930	154.831	0.126	0.177
-657.916	-143.876	-0.300	0.029
-656.901	72.335	-0.117	-0.124
-655.886	64.753	-0.101	0.105
-654.872	-129.991	-0.281	-0.039
-653.857	-51.801	0.291	0.138
-652.843	219.101	-0.107	0.175
-651.828	-83.580	0.158	0.052
-650.814	20.929	-0.260	-0.216
-649.799	126.298	0.192	-0.249
-648.784	87.213	0.137	-0.155
-647.770	150.217	0.061	-0.085
-646.755	-38.229	-0.077	0.042
-645.741	800.000	-0.040	-0.152
-644.726	-108.398	0.043	0.010
-643.711	-32.655	-0.118	0.067
-642.697	-45.925	-0.141	-0.071
-641.682	56.284	-0.048	0.048
-640.668	166.515	0.062	0.090
-639.653	8.130	-0.106	0.081
-638.638	-200.000	-0.035	-0.211
-637.624	-81.397	-0.155	-0.052
-636.609	800.000	-0.101	-0.343
-635.595	-49.644	0.144	-0.070
-634.580	259.513	0.075	0.132
-633.565	99.106	0.214	-0.252
-632.551	797.982	-0.018	-0.051
-631.536	800.000	0.022	0.069
-630.522	-71.255	-0.186	-0.071
-629.507	531.568	-0.115	-0.278
-628.492	544.206	-0.064	0.157
-627.478	-50.959	-0.125	0.060
-626.463	212.692	-0.103	-0.166
-625.449	-169.388	-0.114	-0.004
-624.434	319.971	0.112	-0.217
-623.419	2.427	0.075	0.055
-622.405	800.000	-0.092	0.289
-621.390	4.787	-0.079	0.059
-620.376	62.789	-0.100	-0.103
-619.361	95.944	0.144	-0.168
-618.346	800.000	-0.050	0.177
-617.332	4.672	0.161	-0.120
-616.317	-63.376	-0.095	0.040
-615.303	-160.006	-0.061	-0.003
-614.288	-40.888	-0.337	-0.178
-613.273	-57.407	-0.126	-0.057
-612.259	-200.000	0.209	0.000
-611.244	-82.959	-0.037	0.012
-610.230	-0.001	-0.262	-0.191
-609.215	36.932	-0.197	-0.178
-608.201	-120.046	0.265	0.046
-607.186	-200.000	0.034	-0.171
-606.171	-151.377	-0.182	0.014
-605.157	800.000	-0.109	0.361
-604.142	313.879	-0.152	0.293
-603.128	-200.000	-0.046	-0.211
-602.113	98.298	0.163	0.192
-601.098	-145.008	0.166	0.015
-600.084	-48.429	0.330	0.162
-599.069	-34.839	-0.276	-0.154
-598.055	36.813	-0.066	-0.059
-597.040	800.000	-0.021	0.061
-596.025	800.000	-0.077	0.227
-595.011	-76.377	0.037	-0.013
-593.996	-55.106	0.312	-0.143
-592.982	356.799	0.150	-0.304
-591.967	724.011	-0.133	0.361
-590.952	-59.602	0.345	0.151
-589.938	115.135	0.062	-0.077
-588.923	211.975	0.184	-0.296
-587.909	-80.763	0.330	-0.112
-586.894	153.720	-0.130	0.182
-585.879	800.000	0.142	0.401
-584.865	-200.000	0.060	-0.322
-583.850	4.975	-0.102	0.077
-582.836	-99.637	-0.175	0.045
-581.821	-200.000	0.007	-0.203
-580.806	-102.238	0.223	-0.055
-579.792	800.000	-0.020	-0.086
-578.777	-152.587	0.309	-0.023
-577.763	660.614	-0.074	-0.195
-576.748	-130.587	-0.449	-0.062
-575.733	664.413	-0.123	0.325
-574.719	94.540	0.160	-0.186
-573.704	567.325	0.060	-0.149
-572.690	-91.903	0.480	-0.139
-571.675	135.304	-0.218	-0.289
-570.661	-200.000	0.049	-0.468
-569.646	-43.394	0.053	0.027
-568.631	-104.790	-0.220	-0.051
-567.617	-32.377	0.173	-0.099
-566.602	56.839	0.052	0.051
-565.588	-200.000	0.023	-0.205
-564.573	-200.000	-0.110	0.590
-563.558	-65.275	0.083	0.034
-562.544	50.702	0.166	0.160
-561.529	65.535	-0.284	0.293
-560.515	120.693	-0.044	0.056
-559.500	800.000	0.030	-0.130
-558.485	220.775	0.089	-0.145
-557.471	-24.545	0.268	0.162
-556.456	-200.000	-0.017	-0.085
-555.442	282.659	-0.066	-0.120
-554.427	493.477	0.084	-0.196
-553.412	-113.812	0.391	-0.078
-552.398	25.953	-0.100	0.085
-551.383	-118.264	-0.177	-0.032
-550.369	-146.478	-0.058	-0.005
-549.354	387.809	0.108	0.228
-548.339	-154.646	0.109	-0.007
-547.325	278.833	0.154	-0.280
-546.310	-43.493	0.283	-0.146
-545.296	-200.000	0.012	0.074
-544.281	74.545	0.083	0.089
-543.266	-200.000	-0.015	-0.292
-542.252	-69.942	0.226	0.088
-541.237	-88.495	-0.100	-0.030
-540.223	800.000	0.043	-0.187
-539.208	-99.238	0.421	0.108
-538.193	800.000	-0.130	0.472
-537.179	-107.220	-0.590	0.132
-536.164	1.688	-0.253	0.186
-535.150	-119.308	0.300	-0.053
-534.135	-200.000	-0.074	0.485
-533.121	-200.000	0.045	-0.213
-532.106	-107.729	-0.218	0.048
-531.091	495.693	0.042	0.098
-530.077	-33.111	-0.234	0.132
-529.062	800.000	-0.042	0.175
-528.048	61.176	0.159	0.161
-527.033	-56.432	-0.137	0.062
-526.018	-200.000	0.019	-0.325
-525.004	-97.250	0.121	0.032
-523.989	244.825	-0.078	0.133
-522.975	-134.733	0.145	-0.018
-521.960	339.258	0.086	0.171
-520.945	72.748	0.083	-0.089
-519.931	800.000	0.076	-0.235
-518.916	-117.554	0.247	0.045
-517.902	-200.000	0.034	-0.248
-516.887	53.710	-0.135	-0.132
-515.872	368.908	-0.125	0.257
-514.858	-200.000	-0.016	-0.171
-513.843	-54.524	-0.166	0.076
-512.829	267.702	0.113	-0.201
-511.814	-200.000	-0.003	-0.065
-510.799	800.000	0.151	0.460
-509.785	-16.992	0.175	0.112
-508.770	800.000	0.054	-0.218
-507.756	140.047	-0.139	-0.186
-506.741	45.660	-0.264	0.248
-505.726	35.749	-0.173	0.155
-504.712	-200.000	-0.002	-0.139
-503.697	-98.122	0.129	-0.034
-502.683	-50.240	0.144	0.069
-501.668	-58.060	0.128	0.057
-500.653	311.162	-0.050	0.095
-499.639	-59.231	0.257	-0.113
-498.624	97.021	-0.139	-0.163
-497.610	-27.744	-0.200	-0.118
-496.595	447.296	-0.125	-0.279
-495.581	-64.530	-0.343	0.141
-494.566	-80.474	-0.184	-0.062
-493.551	-102.084	0.314	-0.077
-492.537	-29.114	-0.371	0.216
-491.522	312.339	0.028	0.053
-490.508	109.892	-0.101	-0.123
-489.493	243.220	-0.078	-0.132
-488.478	0.610	0.320	0.232
-487.464	6.806	-0.196	-0.148
-486.449	20.896	-0.073	0.060
-485.435	133.981	0.140	-0.184
-484.420	-45.051	0.187	0.095
-483.405	18.705	0.312	0.254
-482.391	-18.858	-0.225	-0.142
-481.376	-106.044	0.265	-0.061
-480.362	35.046	0.232	0.206
-479.347	-51.058	-0.190	0.090
-478.332	-200.000	-0.030	-0.146
-477.318	-200.000	0.018	0.084
-476.303	-53.813	0.435	-0.201
-475.289	73.191	-0.191	-0.203
-474.274	-36.939	0.026	0.014
-473.259	660.388	0.121	0.316
-472.245	800.000	0.042	0.170
-471.230	-101.135	-0.051	0.013
-470.216	-17.560	0.384	0.245
-469.201	97.113	-0.282	-0.328
-468.186	280.663	0.144	0.261
-467.172	-52.994	0.118	0.055
-466.157	737.259	0.105	0.287
-465.143	800.000	-0.034	0.095
-464.128	-15.741	-0.018	0.012
-463.113	-9.320	-0.215	0.146
-462.099	-91.316	-0.207	0.060
-461.084	63.972	0.277	-0.283
-460.070	380.309	0.119	-0.247
-459.055	-148.396	-0.089	-0.007
-458.040	-117.458	0.143	0.026
-457.026	67.689	-0.135	-0.140
-456.011	-1.213	-0.106	-0.076
-454.997	-184.088	0.132	0.002
-453.982	-141.786	-0.100	-0.010
-452.968	-10.330	0.345	-0.232
-451.953	800.000	-0.092	-0.296
-450.938	-192.340	-0.402	-0.004
-449.924	-2.236	0.283	0.202
-448.909	-87.713	0.112	-0.034
-447.895	-164.739	-0.407	0.019
-446.880	151.669	0.067	0.092
-445.865	-200.000	0.046	-0.238
-444.851	-180.212	-0.147	0.003
-443.836	-136.554	0.096	-0.011
-442.822	1.917	-0.364	-0.266
-441.807	-107.090	-0.210	0.047
-440.792	119.859	0.080	-0.101
-439.778	196.528	0.044	0.069
-438.763	147.535	0.146	-0.200
-437.749	-134.888	-0.293	-0.036
-436.734	23.775	-0.270	0.225
-435.719	-134.403	0.247	-0.031
-434.705	-200.000	-0.023	0.165
-433.690	255.543	-0.227	0.394
-432.676	-200.000	-0.002	-0.181
-431.661	-144.962	-0.076	-0.007
-430.646	800.000	-0.094	-0.336
-429.632	-200.000	-0.017	-0.126
-428.617	-27.854	0.230	0.135
-427.603	37.034	0.232	0.208
-426.588	184.698	-0.087	-0.131
-425.573	800.000	0.032	0.130
-424.559	-200.000	0.014	-0.155
-423.544	125.149	-0.188	-0.240
-422.530	-28.295	-0.119	0.070
-421.515	-34.455	0.324	0.180
-420.500	79.704	-0.180	-0.195
-419.486	77.007	0.304	0.328
-418.471	371.559	0.113	0.232
-417.457	303.155	-0.088	0.164
-416.442	-18.700	0.261	-0.165
-415.428	800.000	-0.131	-0.484
-414.413	114.864	0.218	0.270
-413.398	72.451	0.206	-0.217
-412.384	4.362	-0.171	0.127
-411.369	-200.000	0.053	0.238
-410.355	689.572	0.056	0.147
-409.340	-200.000	0.046	-0.269
-408.325	-50.468	-0.105	0.050
-407.311	18.134	-0.172	-0.139
-406.296	800.000	-0.111	0.342
-405.282	27.661	-0.181	-0.155
-404.267	90.868	-0.347	-0.394
-403.252	192.206	-0.174	0.266
-402.238	9.727	-0.282	0.217
-401.223	-45.803	0.162	-0.081
-400.209	-200.000	0.014	0.136
-399.194	-21.140	-0.290	-0.180
-398.179	-180.507	-0.426	0.009
-397.165	208.178	0.226	0.357
-396.150	-200.000	-0.036	0.437
-395.136	-79.233	-0.030	0.010
-394.121	438.698	0.187	-0.413
-393.106	-19.152	-0.090	-0.057
-392.092	800.000	0.025	-0.086
-391.077	207.110	-0.060	-0.095
-390.063	205.637	0.028	-0.044
-389.048	66.406	0.087	-0.090
-388.033	-104.090	0.298	-0.070
-387.019	16.120	-0.221	0.176
-386.004	94.547	0.271	-0.312
-384.990	-142.331	0.025	-0.002
-383.975	138.984	-0.172	-0.229
-382.960	-129.286	0.108	-0.015
-381.946	465.517	-0.029	0.065
-380.931	-11.867	0.095	0.063
-379.917	-200.000	-0.014	0.348
-378.902	174.732	0.199	0.292
-377.888	-4.090	-0.245	-0.172
-376.873	595.033	-0.084	-0.209
-375.858	-90.680	0.368	0.107
-374.844	-0.806	0.276	0.198
-373.829	-24.476	0.052	0.032
-372.815	194.535	-0.051	0.079
-371.800	-186.557	0.352	0.005
-370.785	132.207	0.111	0.145
-369.771	555.220	0.073	-0.177
-368.756	-13.467	0.169	0.111
-367.742	50.457	0.216	-0.206
-366.727	-200.000	-0.005	0.105
-365.712	56.304	0.285	-0.280
-364.698	-131.404	0.121	-0.016
-363.683	82.025	-0.158	0.173
-362.669	-128.604	-0.363	0.052
-361.654	-79.040	-0.138	0.047
-360.639	800.000	0.031	-0.122
-359.625	-131.117	0.070	0.009
-358.610	-81.595	-0.125	0.041
-357.596	-13.161	0.100	0.066
-356.581	-2.261	0.364	0.258
-355.566	62.809	-0.263	0.266
-354.552	263.363	0.156	-0.275
-353.537	-200.000	-0.013	0.182
-352.523	-156.357	0.147	-0.009
-351.508	144.066	0.109	-0.147
-350.493	-23.075	0.119	0.072
-349.479	-200.000	-0.001	-0.104
-348.464	142.913	0.164	-0.221
-347.450	-13.425	-0.254	-0.167
-346.435	800.000	-0.084	-0.241
-345.420	707.103	-0.130	0.346
-344.406	-56.867	-0.232	-0.103
-343.391	-43.111	-0.185	0.095
-342.377	128.842	-0.028	-0.036
-341.362	146.574	-0.102	0.139
-340.348	-6.237	-0.247	0.171
-339.333	336.464	0.138	-0.272
-338.318	103.602	-0.079	-0.093
-337.304	-89.387	-0.220	-0.066
-336.289	11.553	0.280	0.217
-335.275	-190.077	0.117	-0.001
-334.260	800.000	0.133	0.438
-333.245	3.133	-0.200	0.147
-332.231	-121.731	0.172	-0.029
-331.216	97.863	0.152	0.177
-330.202	206.596	0.088	0.138
-329.187	-200.000	0.027	0.178
-328.172	-159.399	-0.380	0.021
-327.158	0.211	-0.399	-0.288
-326.143	-91.090	-0.295	-0.086
-325.129	-132.358	-0.201	-0.026
-324.114	-200.000	-0.014	-0.085
-323.099	338.480	0.192	0.377
-322.085	29.401	0.248	-0.212
-321.070	-108.968	0.300	0.065
-320.056	-200.000	-0.033	-0.165
-319.041	-60.822	0.264	0.113
-318.026	-200.000	-0.002	-0.436
-317.012	-108.983	0.450	-0.097
-315.997	-97.719	0.275	-0.072
-314.983	-59.568	0.458	0.198
-313.968	161.982	-0.074	-0.105
-312.953	463.978	-0.054	-0.122
-311.939	-54.046	-0.406	0.186
-310.924	256.641	0.082	0.143
-309.910	-99.709	-0.097	-0.025
-308.895	800.000	0.004	0.018
-307.880	35.253	0.113	-0.100
-306.866	-134.796	0.067	-0.008
-305.851	147.540	-0.124	0.168
-304.837	88.081	-0.170	0.191
-303.822	-200.000	0.061	0.281
-302.807	-122.829	-0.186	0.030
-301.793	289.941	0.138	-0.252
-300.778	-75.317	-0.147	-0.053
-299.764	105.005	0.049	0.058
-298.749	150.125	0.030	-0.041
-297.735	-122.394	-0.065	-0.011
-296.720	405.926	-0.074	0.157
-295.705	-77.458	0.161	-0.056
-294.691	179.655	-0.103	-0.151
-293.676	-54.070	-0.170	0.078
-292.662	476.872	0.157	0.358
-291.647	-70.879	0.256	-0.097
-290.632	-173.102	0.158	0.005
-289.618	83.308	0.104	-0.114
-288.603	-78.617	-0.155	-0.054
-287.589	592.113	-0.100	0.249
-286.574	225.284	-0.016	0.027
-285.559	217.065	-0.019	0.030
-284.545	-97.408	-0.184	0.048
-283.530	-200.000	0.013	-0.457
-282.516	-106.459	-0.297	0.067
-281.501	73.501	-0.097	0.103
-280.486	-55.393	-0.193	-0.087
-279.472	-89.781	-0.421	0.124
-278.457	-200.000	-0.021	0.323
-277.443	800.000	-0.077	-0.239
-276.428	193.479	0.130	-0.199
-275.413	-200.000	-0.066	0.401
-274.399	-72.849	-0.258	0.096
-273.384	-109.318	-0.180	-0.039
-272.370	28.476	-0.094	0.080
-271.355	-200.000	0.005	0.119
-270.340	-97.468	-0.349	0.091
-269.326	-5.003	0.160	-0.111
-268.311	-82.127	0.160	0.053
-267.297	-138.679	-0.217	0.024
-266.282	-200.000	0.006	-0.110
-265.267	203.177	-0.068	-0.106
-264.253	266.269	-0.095	-0.166
-263.238	800.000	0.029	0.093
-262.224	800.000	0.148	0.445
-261.209	-200.000	0.011	0.125
-260.195	800.000	0.041	0.176
-259.180	800.000	-0.042	0.136
-258.165	-200.000	-0.008	-0.278
-257.151	-102.800	0.201	-0.048
-256.136	-124.793	0.313	-0.049
-255.122	-200.000	-0.014	-0.137
-254.107	800.000	0.086	0.331
-253.092	-17.381	0.314	0.199
-252.078	40.830	0.117	-0.107
-251.063	-25.844	-0.251	-0.149
-250.049	197.291	-0.159	0.244
-249.034	31.489	0.358	0.310
-248.019	-200.000	0.033	-0.353
-247.005	-69.997	-0.220	0.084
-245.990	-200.000	-0.018	-0.090
-244.976	-23.776	0.259	0.156
-243.961	-200.000	0.006	0.043
-242.946	130.595	-0.093	0.120
-241.932	188.964	-0.054	-0.082
-240.917	8.052	-0.248	-0.188
-239.903	-104.969	0.084	-0.019
-238.888	11.193	0.088	-0.068
-237.873	337.638	0.073	-0.142
-236.859	-200.000	-0.055	-0.247
-235.844	-149.783	0.081	0.006
-234.830	191.374	0.030	0.045
-233.815	-83.320	0.145	-0.047
-232.800	513.962	-0.086	0.201
-231.786	-140.303	0.087	-0.009
-230.771	-136.157	-0.173	0.020
-229.757	-30.142	-0.244	0.140
-228.742	-162.787	0.158	0.008
-227.727	-34.690	-0.434	-0.239
-226.713	-143.765	-0.191	-0.018
-225.698	-128.023	0.118	-0.017
-224.684	-200.000	-0.056	-0.251
-223.669	-97.296	0.075	0.020
-222.655	381.779	0.072	-0.149
-221.640	-137.762	0.357	0.040
-220.625	-75.061	-0.340	-0.122
-219.611	-200.000	0.012	-0.117
-218.596	-27.143	-0.107	0.063
-217.582	-24.028	0.163	0.098
-216.567	146.577	-0.086	-0.116
-215.552	700.259	-0.100	-0.265
-214.538	-60.386	0.321	0.137
-213.523	-200.000	-0.018	0.290
-212.509	640.507	-0.097	-0.247
-211.494	299.473	0.112	0.207
-210.479	-159.294	0.307	-0.017
-209.465	-114.057	-0.149	0.029
-208.450	44.130	-0.312	0.287
-207.436	-2.766	-0.127	0.089
-206.421	128.124	-0.233	-0.297
-205.406	-46.944	0.086	0.042
-204.392	33.954	-0.175	0.153
-203.377	-200.000	0.053	-0.330
-202.363	-49.149	0.131	-0.063
-201.348	-66.428	-0.153	0.061
-200.333	53.158	0.126	-0.121
-199.319	314.015	-0.065	-0.122
-198.304	171.535	-0.115	0.165
-197.290	-200.000	0.028	-0.483
-196.275	89.674	0.157	-0.176
-195.260	-104.519	-0.160	-0.037
-194.246	187.691	-0.091	-0.137
-193.231	335.395	-0.053	-0.102
-192.217	382.440	-0.042	0.087
-191.202	-136.224	-0.075	0.009
-190.187	-99.979	-0.199	0.050
-189.173	92.051	0.153	0.173
-188.158	3.547	-0.288	0.211
-187.144	-32.537	-0.104	-0.058
-186.129	800.000	-0.051	0.156
-185.114	-200.000	-0.018	0.205
-184.100	28.620	0.043	0.037
-183.085	-132.545	-0.223	0.029
-182.071	800.000	0.136	0.390
-181.056	155.400	-0.060	0.083
-180.042	800.000	-0.092	0.342
-179.027	-115.966	0.075	0.014
-178.012	-36.459	0.041	-0.022
-176.998	85.632	-0.188	0.208
-175.983	-200.000	0.021	-0.115
-174.969	116.964	0.157	0.193
-173.954	-89.947	-0.101	-0.029
-172.939	-129.800	0.183	0.025
-171.925	122.548	-0.202	-0.253
-170.910	-200.000	-0.016	-0.414
-169.896	-200.000	-0.010	-0.219
-168.881	-200.000	-0.015	0.073
-167.866	-200.000	0.064	0.295
-166.852	800.000	0.086	-0.249
-165.837	44.320	0.095	0.087
-164.823	183.405	-0.135	0.200
-163.808	-200.000	-0.048	-0.263
-162.793	17.731	-0.116	0.092
-161.779	151.377	0.117	-0.159
-160.764	-200.000	-0.049	0.343
-159.750	148.733	-0.066	-0.090
-158.735	-102.375	0.028	0.007
-157.720	203.655	0.159	-0.246
-156.706	502.927	0.191	0.443
-155.691	-200.000	0.027	-0.132
-154.677	-59.883	0.423	0.181
-153.662	528.083	-0.049	-0.116
-152.647	452.497	0.074	-0.164
-151.633	714.894	0.047	-0.125
-150.618	-200.000	0.047	-0.246
-149.604	22.108	-0.199	-0.163
-148.589	-200.000	-0.011	-0.223
-147.574	-34.692	-0.240	-0.132
-146.560	298.501	0.252	0.465
-145.545	378.930	0.084	0.172
-144.531	5.861	0.247	0.184
-143.516	-200.000	-0.013	-0.265
-142.502	351.992	-0.049	-0.098
-141.487	261.095	-0.077	-0.134
-140.472	-28.113	-0.021	0.012
-139.458	95.366	-0.305	0.348
-138.443	592.250	-0.088	-0.218
-137.429	800.000	0.022	0.085
-136.414	6.821	0.155	-0.116
-135.399	-200.000	-0.058	-0.264
-134.385	-200.000	-0.040	0.268
-133.370	149.157	0.250	-0.338
-132.356	-24.917	-0.172	0.102
-131.341	215.473	0.179	-0.285
-130.326	256.897	-0.082	-0.142
-129.312	322.576	0.141	-0.269
-128.297	-13.873	-0.018	-0.012
-127.283	173.600	0.112	0.161
-126.268	-65.943	-0.332	0.133
-125.253	238.434	-0.040	-0.066
-124.239	-34.614	0.051	-0.028
-123.224	-151.718	-0.126	-0.009
-122.210	669.656	0.068	0.176
-121.195	-90.402	0.227	0.066
