DTS Sentinel unit serial number:	SN413079Multiplexer serial number:	ORYXHardware model number:	OX4-SRSoftware version number:	ORYX F/W v4.00 Oryx Data Collector v3.7.2.0data status	okinstallation	princeton_trtdifferential loss correction	single-endedforward channel	channel 4reverse channel	N/Adate	2019/09/11time	14:39:10forward acquisition time	60.00reverse acquisition time	0.00gamma	496.2192k internal	0.2280k external	0.2280temperature offset calibration	1.0010default loss term (dB/km)	0.3790temperature slope calibration	1.0000multiplexer offset coefficient	1.0000multiplexer slope coefficient	1.0000fibre end	0.00T internal ref (°C)	42.31T ext. ref 1 (°C)	0.92T ext. ref 2 (°C)	37.58length (m)	temperature (°C)	Stokes	anti-Stokes-747.200	-36.590	-0.279	-0.154
-746.185	-45.673	-0.212	0.108
-745.171	-200.000	-0.069	0.620
-744.156	-149.605	-0.285	0.023
-743.142	478.371	0.087	0.204
-742.127	198.193	0.152	0.239
-741.112	84.407	0.186	-0.209
-740.098	800.000	0.078	0.316
-739.083	20.545	-0.377	0.314
-738.069	185.381	-0.082	-0.125
-737.054	-94.907	0.278	-0.077
-736.039	-200.000	-0.006	0.291
-735.025	-84.236	0.036	-0.012
-734.010	111.578	0.025	0.031
-732.996	-111.341	-0.119	0.025
-731.981	-41.840	-0.216	-0.114
-730.966	13.340	0.251	0.200
-729.952	-34.898	-0.185	-0.104
-728.937	-13.984	-0.106	0.071
-727.923	-67.146	-0.181	0.073
-726.908	-123.047	-0.183	-0.030
-725.894	-34.124	-0.243	-0.138
-724.879	-200.000	-0.018	-0.211
-723.864	543.407	0.077	-0.189
-722.850	-101.114	-0.241	0.061
-721.835	441.397	-0.133	0.299
-720.821	363.857	0.087	0.181
-719.806	702.393	-0.140	-0.378
-718.791	89.077	-0.283	-0.324
-717.777	800.000	0.034	-0.110
-716.762	800.000	0.027	-0.079
-715.748	9.450	-0.186	0.145
-714.733	171.322	-0.174	0.257
-713.718	263.721	0.087	-0.156
-712.704	78.597	-0.126	0.138
-711.689	429.474	0.047	0.105
-710.675	-43.668	0.090	-0.047
-709.660	-16.466	-0.272	-0.177
-708.645	-200.000	0.030	0.196
-707.631	66.040	0.241	-0.251
-706.616	34.378	-0.077	0.069
-705.602	21.716	0.265	0.222
-704.587	-200.000	-0.015	-0.183
-703.572	-200.000	-0.056	0.466
-702.558	125.141	0.109	0.141
-701.543	17.181	-0.175	0.143
-700.529	-160.420	-0.203	-0.011
-699.514	-36.269	0.181	-0.100
-698.499	-61.671	-0.301	-0.130
-697.485	81.049	0.065	0.072
-696.470	255.316	0.112	0.198
-695.456	-116.016	-0.238	0.045
-694.441	14.708	-0.150	0.120
-693.426	426.218	-0.006	0.014
-692.412	800.000	-0.102	0.361
-691.397	111.876	-0.154	-0.191
-690.383	25.441	-0.117	0.100
-689.368	-97.836	-0.151	-0.040
-688.354	148.228	0.135	0.187
-687.339	-200.000	-0.169	-0.000
-686.324	-160.217	0.342	0.019
-685.310	-82.469	-0.148	-0.049
-684.295	-118.004	-0.343	-0.063
-683.281	187.435	0.136	-0.208
-682.266	-200.000	0.044	0.231
-681.251	103.508	0.062	-0.075
-680.237	-200.000	-0.024	0.340
-679.222	-106.933	0.074	-0.017
-678.208	311.908	-0.203	-0.391
-677.193	132.395	-0.168	0.222
-676.178	258.820	0.120	0.213
-675.164	-200.000	0.014	-0.196
-674.149	800.000	0.100	0.295
-673.135	-43.300	0.235	0.122
-672.120	800.000	0.019	0.072
-671.105	32.188	-0.162	-0.143
-670.091	-200.000	0.019	-0.096
-669.076	-28.467	-0.234	-0.139
-668.062	-18.501	-0.336	0.215
-667.047	-187.690	-0.622	-0.008
-666.032	-159.909	0.112	0.006
-665.018	-17.575	-0.296	-0.191
-664.003	-151.187	0.138	-0.011
-662.989	180.342	0.148	0.222
-661.974	243.432	0.070	-0.120
-660.959	800.000	-0.038	-0.118
-659.945	-150.854	0.216	0.017
-658.930	-200.000	0.015	-0.278
-657.916	-28.708	0.262	-0.155
-656.901	-11.629	-0.300	-0.202
-655.886	-15.656	-0.092	0.060
-654.872	-50.112	0.135	0.066
-653.857	-148.563	0.217	-0.018
-652.843	197.705	0.126	-0.198
-651.828	560.000	-0.059	0.146
-650.814	-50.823	0.217	0.104
-649.799	-5.173	0.093	-0.065
-648.784	-200.000	0.007	-0.198
-647.770	-93.144	-0.323	0.092
-646.755	-200.000	0.041	0.198
-645.741	-200.000	-0.043	-0.204
-644.726	62.707	-0.203	-0.208
-643.711	-159.129	0.171	-0.010
-642.697	-150.704	-0.160	0.012
-641.682	-20.341	-0.156	-0.098
-640.668	-98.728	-0.186	-0.049
-639.653	-118.582	-0.116	0.021
-638.638	34.721	0.132	-0.118
-637.624	-46.191	0.119	-0.060
-636.609	139.422	0.290	-0.391
-635.595	491.419	-0.036	-0.084
-634.580	-167.079	-0.127	-0.005
-633.565	37.687	-0.080	-0.073
-632.551	-200.000	-0.102	0.565
-631.536	-98.173	-0.089	-0.023
-630.522	310.927	-0.103	-0.198
-629.507	62.129	-0.095	-0.097
-628.492	-101.586	-0.369	-0.092
-627.478	63.483	0.112	0.115
-626.463	-102.363	0.126	0.031
-625.449	-105.995	0.196	-0.045
-624.434	-4.990	-0.303	0.214
-623.419	24.726	-0.321	0.272
-622.405	167.061	0.058	-0.084
-621.390	293.865	0.095	-0.177
-620.376	114.283	0.089	0.111
-619.361	-200.000	-0.028	-0.210
-618.346	-33.524	0.150	-0.085
-617.332	-1.659	-0.280	-0.202
-616.317	114.665	-0.029	0.036
-615.303	71.524	-0.210	0.223
-614.288	-0.279	0.150	-0.109
-613.273	64.508	0.025	-0.026
-612.259	-32.341	-0.232	0.133
-611.244	411.100	-0.097	0.211
-610.230	-182.810	0.039	-0.001
-609.215	-175.577	-0.194	0.005
-608.201	145.018	0.042	-0.057
-607.186	-58.753	-0.311	-0.138
-606.171	-109.011	-0.302	0.066
-605.157	-37.234	0.183	-0.100
-604.142	38.568	0.016	0.015
-603.128	261.253	0.051	0.090
-602.113	-200.000	-0.060	-0.403
-601.098	778.036	-0.080	-0.225
-600.084	-139.790	-0.168	-0.018
-599.069	800.000	0.019	-0.074
-598.055	-108.043	0.116	0.026
-597.040	-63.303	0.056	-0.024
-596.025	-46.160	-0.285	-0.144
-595.011	-52.551	0.332	-0.157
-593.996	-55.266	0.111	0.051
-592.982	-200.000	-0.036	0.348
-591.967	800.000	-0.023	0.078
-590.952	68.643	-0.185	0.194
-589.938	187.851	0.160	0.245
-588.923	164.770	0.073	-0.105
-587.909	46.207	0.098	-0.093
-586.894	275.479	-0.097	-0.176
-585.879	-37.741	0.227	-0.123
-584.865	46.147	-0.109	-0.104
-583.850	313.957	-0.111	0.214
-582.836	-195.202	-0.224	-0.002
-581.821	-139.971	0.161	0.017
-580.806	410.131	-0.055	0.119
-579.792	-127.654	-0.151	-0.022
-578.777	169.020	-0.227	0.331
-577.763	-200.000	0.215	-0.001
-576.748	0.857	-0.098	0.072
-575.733	-78.803	-0.246	0.086
-574.719	-22.088	-0.189	0.117
-573.704	148.145	0.070	0.097
-572.690	-14.149	-0.137	-0.090
-571.675	-28.841	-0.198	-0.116
-570.661	-175.454	-0.179	-0.005
-569.646	-51.589	-0.231	0.110
-568.631	-2.150	-0.115	0.083
-567.617	-113.178	-0.251	0.051
-566.602	-200.000	-0.017	0.120
-565.588	22.101	-0.186	-0.155
-564.573	-200.000	-0.022	-0.149
-563.558	215.618	-0.225	-0.365
-562.544	-19.526	-0.187	0.119
-561.529	4.458	-0.117	-0.087
-560.515	-74.930	0.295	-0.108
-559.500	48.881	0.114	-0.109
-558.485	-96.593	0.358	-0.096
-557.471	-94.079	0.342	-0.096
-556.456	-123.593	0.292	-0.047
-555.442	-30.635	0.216	-0.125
-554.427	-200.000	-0.011	-0.077
-553.412	309.170	-0.111	-0.211
-552.398	-200.000	0.007	0.056
-551.383	-81.743	-0.223	0.075
-550.369	-64.573	0.097	-0.040
-549.354	-21.647	0.107	0.067
-548.339	-200.000	-0.047	-0.317
-547.325	368.623	0.143	0.296
-546.310	-131.844	0.109	0.015
-545.296	92.778	-0.075	0.087
-544.281	-130.998	-0.280	-0.038
-543.266	-83.390	0.214	0.070
-542.252	-19.194	0.045	-0.028
-541.237	-33.266	0.297	-0.168
-540.223	-153.940	0.195	-0.014
-539.208	-135.355	-0.050	-0.006
-538.193	-79.896	-0.188	0.065
-537.179	-200.000	-0.009	0.205
-536.164	-88.629	-0.361	0.110
-535.150	351.380	0.070	-0.142
-534.135	97.123	0.022	0.025
-533.121	-58.709	0.132	0.058
-532.106	-79.363	0.186	0.064
-531.091	285.116	-0.079	0.144
-530.077	312.100	-0.174	-0.333
-529.062	-96.470	-0.172	-0.046
-528.048	-138.158	0.067	0.008
-527.033	-59.572	0.160	0.070
-526.018	205.868	-0.108	0.172
-525.004	54.714	0.284	0.279
-523.989	217.855	-0.124	-0.202
-522.975	-88.901	-0.275	-0.083
-521.960	800.000	0.061	-0.199
-520.945	485.040	-0.089	-0.208
-519.931	800.000	0.063	-0.194
-518.916	-150.043	0.414	-0.033
-517.902	68.829	0.117	-0.122
-516.887	-28.017	0.085	0.050
-515.872	800.000	0.025	-0.080
-514.858	88.866	-0.062	-0.070
-513.843	231.758	-0.194	-0.324
-512.829	-200.000	-0.019	0.262
-511.814	-200.000	-0.044	-0.293
-510.799	-0.459	-0.256	-0.186
-509.785	800.000	-0.151	-0.498
-508.770	-200.000	-0.007	-0.123
-507.756	-81.598	-0.070	0.023
-506.741	-36.119	-0.203	0.112
-505.726	-28.967	-0.231	-0.135
-504.712	71.482	0.141	0.149
-503.697	-88.266	0.055	-0.017
-502.683	253.936	-0.062	-0.107
-501.668	800.000	0.056	0.224
-500.653	99.928	0.344	-0.407
-499.639	-25.164	0.274	-0.165
-498.624	-103.314	0.147	0.035
-497.610	-200.000	0.018	-0.280
-496.595	1.907	-0.202	-0.149
-495.581	-121.814	0.396	0.067
-494.566	-200.000	0.033	-0.302
-493.551	-67.823	0.161	0.064
-492.537	-56.789	0.291	0.131
-491.522	10.359	-0.097	0.075
-490.508	-18.185	0.385	0.245
-489.493	800.000	0.044	-0.161
-488.478	-135.727	-0.157	-0.019
-487.464	26.090	0.019	-0.017
-486.449	-155.168	0.080	0.005
-485.435	303.622	0.112	0.211
-484.420	-29.799	0.141	0.082
-483.405	206.780	0.164	0.260
-482.391	-137.456	0.128	-0.015
-481.376	6.878	-0.200	-0.152
-480.362	-96.511	-0.292	-0.078
-479.347	21.271	-0.159	0.131
-478.332	-200.000	-0.025	0.125
-477.318	-106.962	-0.274	-0.062
-476.303	202.107	0.063	-0.099
-475.289	-200.000	-0.001	-0.017
-474.274	-154.654	-0.158	0.011
-473.259	237.595	0.086	-0.145
-472.245	18.360	-0.140	-0.114
-471.230	363.523	0.131	-0.269
-470.216	-153.805	-0.140	-0.010
-469.201	-6.278	0.088	-0.061
-468.186	-5.563	0.074	-0.052
-467.172	-200.000	0.031	0.500
-466.157	24.751	-0.014	0.012
-465.143	-147.914	0.170	-0.014
-464.128	-71.089	0.389	0.149
-463.113	-103.238	-0.066	-0.016
-462.099	-200.000	-0.009	0.248
-461.084	24.201	0.067	0.056
-460.070	-200.000	0.086	0.512
-459.055	800.000	0.064	0.203
-458.040	-200.000	0.026	0.210
-457.026	128.502	-0.254	-0.330
-456.011	44.704	-0.084	-0.079
-454.997	-200.000	0.051	-0.263
-453.982	800.000	0.040	-0.158
-452.968	349.933	-0.048	-0.096
-451.953	-123.397	0.108	0.017
-450.938	132.187	0.072	0.094
-449.924	-165.765	0.283	-0.012
-448.909	-36.703	0.325	0.178
-447.895	-85.899	0.083	-0.026
-446.880	-200.000	-0.017	0.275
-445.865	-200.000	0.056	-0.271
-444.851	-200.000	-0.030	0.163
-443.836	118.273	0.187	0.235
-442.822	-127.447	0.208	-0.031
-441.807	-123.534	-0.204	0.033
-440.792	-200.000	0.012	0.333
-439.778	52.008	0.343	-0.332
-438.763	-5.492	0.229	-0.160
-437.749	-109.286	-0.166	-0.036
-436.734	-49.422	0.321	0.156
-435.719	25.572	0.165	0.140
-434.705	40.970	0.025	-0.023
-433.690	127.823	-0.164	-0.212
-432.676	22.182	0.310	-0.257
-431.661	73.177	-0.034	-0.036
-430.646	438.498	-0.118	-0.261
-429.632	515.749	-0.146	0.346
-428.617	63.633	-0.207	0.211
-427.603	-143.662	0.287	-0.028
-426.588	30.856	0.270	0.235
-425.573	1.015	-0.209	0.153
-424.559	18.997	0.059	0.048
-423.544	-108.488	-0.175	0.038
-422.530	373.311	0.053	0.109
-421.515	-111.409	-0.273	0.056
-420.500	-200.000	0.018	0.094
-419.486	52.798	-0.045	-0.043
-418.471	100.743	-0.095	-0.112
-417.457	64.596	0.234	0.240
-416.442	-200.000	0.023	0.301
-415.428	83.299	-0.261	0.289
-414.413	146.933	-0.162	-0.221
-413.398	-195.966	-0.223	-0.002
-412.384	49.593	-0.284	0.272
-411.369	530.452	0.062	-0.150
-410.355	423.625	0.065	-0.141
-409.340	126.420	-0.249	-0.320
-408.325	-43.291	0.203	-0.104
-407.311	7.306	0.127	0.096
-406.296	7.556	0.120	0.091
-405.282	-170.970	-0.215	0.007
-404.267	-200.000	0.002	-0.060
-403.252	-46.505	0.388	0.194
-402.238	-44.030	0.036	-0.019
-401.223	-200.000	0.028	0.136
-400.209	-200.000	-0.023	-0.121
-399.194	342.159	-0.117	-0.233
-398.179	56.615	0.293	0.289
-397.165	56.398	0.199	-0.197
-396.150	-105.958	0.348	-0.080
-395.136	-13.097	-0.271	-0.179
-394.121	-200.000	0.004	-0.084
-393.106	-175.901	-0.256	-0.007
-392.092	138.461	-0.027	0.035
-391.077	800.000	-0.073	-0.272
-390.063	-21.983	-0.381	0.235
-389.048	49.123	0.135	0.129
-388.033	428.784	-0.036	0.079
-387.019	-131.578	-0.248	-0.033
-386.004	-200.000	0.012	0.314
-384.990	427.957	0.091	0.199
-383.975	-123.171	0.177	0.029
-382.960	6.630	-0.166	0.125
-381.946	-200.000	-0.027	0.210
-380.931	-119.982	-0.170	-0.030
-379.917	800.000	-0.100	0.430
-378.902	-93.197	0.138	0.039
-377.888	1.767	0.078	0.057
-376.873	-11.660	0.249	-0.166
-375.858	-200.000	-0.030	-0.192
-374.844	641.049	-0.056	0.146
-373.829	-39.611	0.039	0.021
-372.815	-200.000	0.013	0.107
-371.800	-128.997	-0.152	-0.022
-370.785	381.886	-0.187	-0.389
-369.771	162.131	0.090	-0.128
-368.756	-200.000	-0.014	-0.130
-367.742	800.000	0.117	-0.354
-366.727	-200.000	0.007	-0.042
-365.712	473.407	-0.117	-0.268
-364.698	800.000	-0.045	-0.172
-363.683	-24.629	-0.188	-0.113
-362.669	-200.000	-0.017	0.146
-361.654	128.785	0.146	-0.189
-360.639	386.667	-0.152	0.318
-359.625	156.868	0.218	0.305
-358.610	795.234	-0.087	0.244
-357.596	-43.674	-0.263	0.135
-356.581	-13.465	0.230	-0.151
-355.566	800.000	-0.075	0.215
-354.552	-200.000	-0.019	0.230
-353.537	-200.000	0.021	0.221
-352.523	-173.791	-0.232	0.007
-351.508	140.460	0.041	-0.055
-350.493	-16.946	-0.129	0.083
-349.479	800.000	-0.052	-0.204
-348.464	-93.334	-0.192	0.054
-347.450	210.777	0.040	-0.063
-346.435	-167.240	0.290	0.012
-345.420	47.332	0.241	-0.228
-344.406	-63.485	0.099	0.041
-343.391	156.120	-0.177	0.248
-342.377	0.550	0.130	-0.094
-341.362	-108.100	0.386	-0.085
-340.348	-200.000	0.049	0.316
-339.333	-200.000	-0.053	-0.409
-338.318	14.013	-0.259	-0.204
-337.304	403.015	0.089	-0.189
-336.289	-200.000	0.057	-0.394
-335.275	-200.000	0.015	-0.128
-334.260	-62.610	0.278	-0.117
-333.245	174.714	-0.054	0.079
-332.231	394.428	0.056	-0.119
-331.216	-200.000	-0.002	0.107
-330.202	237.359	-0.039	-0.065
-329.187	-135.352	-0.362	-0.044
-328.172	-200.000	-0.015	0.094
-327.158	-200.000	0.070	-0.396
-326.143	-138.841	0.408	0.045
-325.129	-38.844	0.210	0.112
-324.114	-45.230	0.126	0.063
-323.099	-24.011	-0.111	0.067
-322.085	97.735	0.142	-0.166
-321.070	-72.411	0.450	-0.169
-320.056	-200.000	-0.016	0.372
-319.041	-144.023	0.242	0.023
-318.026	-28.368	-0.136	-0.079
-317.012	-200.000	0.007	-0.054
-315.997	800.000	-0.070	0.259
-314.983	337.353	0.091	0.179
-313.968	-35.344	0.196	0.108
-312.953	-40.694	-0.042	0.022
-311.939	29.935	-0.323	-0.279
-310.924	-99.274	0.057	-0.014
-309.910	-83.550	0.148	-0.048
-308.895	-117.799	-0.195	-0.035
-307.880	-84.100	0.138	-0.044
-306.866	110.831	-0.136	0.166
-305.851	-196.549	-0.069	0.000
-304.837	188.853	-0.093	0.140
-303.822	-22.878	-0.163	0.100
-302.807	-18.096	-0.107	0.068
-301.793	-144.583	0.122	-0.011
-300.778	427.106	-0.042	0.091
-299.764	-156.816	0.188	-0.012
-298.749	800.000	-0.069	0.228
-297.735	79.414	-0.155	0.169
-296.720	40.823	-0.029	-0.026
-295.705	-81.771	-0.128	0.043
-294.691	651.277	-0.093	0.241
-293.676	-200.000	-0.002	0.083
-292.662	-44.607	-0.185	0.094
-291.647	-200.000	0.038	-0.235
-290.632	7.488	-0.117	-0.088
-289.618	209.366	-0.179	-0.284
-288.603	-39.337	0.331	-0.175
-287.589	-7.910	0.206	-0.141
-286.574	38.660	-0.165	0.149
-285.559	401.780	0.072	0.153
-284.545	800.000	0.017	-0.049
-283.530	-26.027	-0.074	0.044
-282.516	365.664	0.128	0.262
-281.501	62.860	-0.150	-0.152
-280.486	-170.187	0.065	-0.002
-279.472	-166.073	0.103	-0.004
-278.457	-101.994	-0.427	0.104
-277.443	-200.000	-0.034	0.265
-276.428	689.883	-0.108	-0.286
-275.413	-147.480	-0.112	-0.010
-274.399	-111.014	0.139	-0.029
-273.384	-20.745	0.084	0.052
-272.370	-200.000	-0.031	-0.368
-271.355	84.191	-0.035	-0.038
-270.340	-200.000	0.005	0.131
-269.326	-22.496	-0.151	0.092
-268.311	101.201	-0.210	-0.247
-267.297	-116.688	0.287	-0.053
-266.282	-200.000	-0.005	0.120
-265.267	64.289	0.072	-0.074
-264.253	-200.000	0.046	0.292
-263.238	46.764	0.231	0.217
-262.224	800.000	-0.062	-0.218
-261.209	508.548	-0.068	0.159
-260.195	96.927	-0.137	0.158
-259.180	-142.876	-0.098	0.010
-258.165	185.445	-0.150	0.224
-257.151	-138.832	-0.160	0.018
-256.136	-151.658	0.019	0.001
-255.122	129.777	0.257	0.332
-254.107	-177.479	-0.082	-0.002
-253.092	-200.000	0.026	0.131
-252.078	-104.841	0.194	0.045
-251.063	18.612	0.177	-0.143
-250.049	-14.553	0.199	0.129
-249.034	140.626	-0.216	0.287
-248.019	-200.000	-0.033	-0.466
-247.005	649.464	0.165	0.427
-245.990	800.000	-0.120	0.394
-244.976	-200.000	0.011	0.323
-243.961	-147.700	0.099	0.008
-242.946	-200.000	0.036	-0.173
-241.932	-52.424	-0.349	-0.163
-240.917	55.661	0.163	-0.159
-239.903	-200.000	-0.017	0.115
-238.888	800.000	0.087	0.319
-237.873	166.897	0.056	-0.080
-236.859	-72.295	-0.427	0.160
-235.844	-100.603	0.088	0.022
-234.830	260.038	-0.084	0.147
-233.815	800.000	0.014	0.058
-232.800	147.169	0.143	-0.194
-231.786	-154.831	-0.286	-0.019
-230.771	-16.628	0.237	0.151
-229.757	-200.000	0.019	-0.125
-228.742	326.127	0.122	-0.236
-227.727	800.000	0.077	-0.287
-226.713	-90.739	0.177	0.052
-225.698	800.000	0.097	-0.300
-224.684	36.207	-0.039	0.035
-223.669	149.797	-0.167	-0.228
-222.655	50.873	0.171	-0.164
-221.640	388.047	-0.102	0.212
-220.625	-49.866	-0.340	0.163
-219.611	-106.476	-0.193	0.043
-218.596	15.205	-0.161	-0.127
-217.582	-60.024	0.194	-0.083
-216.567	-86.653	0.391	-0.121
-215.552	166.296	-0.105	0.150
-214.538	800.000	0.088	0.271
-213.523	65.960	0.293	0.299
-212.509	15.427	0.041	0.033
-211.494	800.000	0.095	0.278
-210.479	-77.910	0.137	0.048
-209.465	155.140	-0.063	-0.087
-208.450	100.211	-0.143	0.167
-207.436	58.849	0.057	-0.057
-206.421	-92.562	-0.109	0.031
-205.406	606.526	-0.041	0.102
-204.392	335.788	0.137	-0.268
-203.377	89.155	0.191	-0.214
-202.363	-32.428	-0.149	0.084
-201.348	-34.424	0.033	0.018
-200.333	-200.000	-0.003	0.020
-199.319	107.993	-0.079	0.095
-198.304	82.258	-0.153	-0.167
-197.290	0.192	0.514	0.369
-196.275	-171.621	0.333	-0.011
-195.260	266.823	0.039	0.068
-194.246	137.936	-0.282	-0.372
-193.231	-200.000	-0.022	-0.139
-192.217	800.000	-0.022	-0.095
-191.202	353.725	0.089	0.178
-190.187	-98.068	-0.081	0.021
-189.173	-104.006	0.378	0.089
-188.158	800.000	0.039	-0.162
-187.144	-150.277	-0.187	0.015
-186.129	-16.084	-0.111	-0.071
-185.114	347.012	0.065	-0.130
-184.100	-65.183	-0.316	0.128
-183.085	-200.000	0.018	0.568
-182.071	800.000	0.098	-0.289
-181.056	234.770	-0.153	-0.255
-180.042	131.850	-0.030	-0.039
-179.027	-67.203	0.205	-0.081
-178.012	-33.209	0.266	-0.148
-176.998	181.171	-0.107	-0.158
-175.983	86.507	0.111	-0.123
-174.969	777.696	0.024	-0.067
-173.954	120.300	-0.202	-0.253
-172.939	-29.436	0.238	0.137
-171.925	6.980	-0.073	-0.055
-170.910	800.000	-0.028	-0.095
-169.896	19.398	0.156	0.126
-168.881	-3.244	0.096	0.067
-167.866	-106.676	0.079	-0.018
-166.852	-200.000	0.013	0.121
-165.837	-147.861	-0.277	0.023
-164.823	-200.000	-0.005	0.335
-163.808	-26.265	0.135	0.080
-162.793	-39.994	-0.212	-0.111
-161.779	-200.000	0.079	-0.391
-160.764	-200.000	0.058	-0.295
-159.750	233.622	0.150	0.248
-158.735	483.318	0.123	0.281
-157.720	800.000	0.043	-0.162
-156.706	-32.534	-0.208	-0.117
-155.691	800.000	-0.016	-0.056
-154.677	600.842	-0.048	0.119
-153.662	54.785	-0.066	0.064
-152.647	-200.000	-0.021	0.376
-151.633	-148.872	-0.422	-0.034
-150.618	-55.519	-0.151	0.068
-149.604	-9.269	0.240	0.161
-148.589	92.601	-0.142	0.161
-147.574	18.998	-0.025	0.020
-146.560	-53.662	-0.285	0.131
-145.545	-72.467	0.332	0.123
-144.531	800.000	-0.103	0.338
-143.516	4.880	0.240	0.177
-142.502	388.666	-0.140	-0.291
-141.487	-200.000	-0.004	-0.268
-140.472	103.880	-0.116	-0.137
-139.458	-14.655	0.148	-0.096
-138.443	481.056	-0.109	0.249
-137.429	349.035	-0.170	-0.337
-136.414	-139.923	-0.049	0.005
-135.399	-193.499	0.379	0.003
-134.385	1.747	0.165	-0.119
-133.370	158.541	-0.260	0.363
-132.356	61.748	0.112	-0.112
-131.341	-23.787	0.256	-0.154
-130.326	800.000	0.030	0.087
-129.312	486.591	-0.051	0.116
-128.297	-136.890	-0.133	-0.015
-127.283	-200.000	0.057	0.271
-126.268	35.678	0.230	0.203
-125.253	-117.842	-0.253	-0.046
-124.239	34.865	-0.237	-0.208
-123.224	-114.761	-0.092	-0.018
-122.210	-44.978	0.361	0.180
-121.195	-91.276	-0.076	0.022
