DTS Sentinel unit serial number:	SN413079Multiplexer serial number:	ORYXHardware model number:	OX4-SRSoftware version number:	ORYX F/W v4.00 Oryx Data Collector v3.7.2.0data status	okinstallation	princeton_trtdifferential loss correction	single-endedforward channel	channel 4reverse channel	N/Adate	2019/09/11time	09:07:10forward acquisition time	60.00reverse acquisition time	0.00gamma	496.2192k internal	0.2300k external	0.2300temperature offset calibration	0.9970default loss term (dB/km)	0.3790temperature slope calibration	1.0000multiplexer offset coefficient	1.0000multiplexer slope coefficient	1.0000fibre end	0.00T internal ref (°C)	34.25T ext. ref 1 (°C)	0.10T ext. ref 2 (°C)	30.08length (m)	temperature (°C)	Stokes	anti-Stokes-747.200	60.408	0.118	-0.119
-746.185	800.000	0.044	0.148
-745.171	-152.164	0.189	0.014
-744.156	-60.361	-0.194	0.084
-743.142	291.158	-0.090	0.167
-742.127	436.375	0.065	-0.145
-741.112	84.869	0.239	-0.267
-740.098	82.629	-0.247	-0.273
-739.083	-6.191	0.076	0.053
-738.069	131.857	-0.258	0.338
-737.054	-59.167	-0.193	0.085
-736.039	800.000	-0.050	0.150
-735.025	-91.862	0.295	-0.085
-734.010	3.986	-0.148	0.110
-732.996	-88.453	-0.231	-0.070
-731.981	-93.901	-0.268	0.075
-730.966	83.336	0.100	-0.111
-729.952	-168.344	-0.469	-0.018
-728.937	11.699	-0.135	-0.106
-727.923	-200.000	-0.004	0.053
-726.908	-96.953	-0.049	0.013
-725.894	29.343	0.120	0.104
-724.879	-32.262	0.303	-0.173
-723.864	800.000	-0.044	0.126
-722.850	-37.520	0.220	-0.119
-721.835	-185.518	-0.333	0.005
-720.821	-200.000	-0.016	0.181
-719.806	-198.380	-0.157	-0.001
-718.791	215.865	-0.168	0.272
-717.777	-200.000	-0.008	-0.072
-716.762	261.056	0.107	-0.188
-715.748	-39.932	-0.102	0.054
-714.733	-87.021	0.276	-0.086
-713.718	40.507	-0.124	-0.114
-712.704	-200.000	0.021	-0.179
-711.689	195.550	-0.151	0.233
-710.675	-84.245	-0.223	0.072
-709.660	77.320	-0.245	0.266
-708.645	-11.804	0.171	0.115
-707.631	-34.538	0.142	-0.079
-706.616	800.000	0.030	-0.127
-705.602	-200.000	-0.016	0.131
-704.587	-55.647	-0.212	-0.096
-703.572	-200.000	-0.028	-0.139
-702.558	-67.727	-0.419	0.167
-701.543	-200.000	-0.001	0.113
-700.529	141.299	-0.128	0.173
-699.514	92.320	0.326	0.374
-698.499	-200.000	0.072	0.326
-697.485	-45.998	-0.198	-0.099
-696.470	140.716	-0.138	0.186
-695.456	138.287	0.154	0.205
-694.441	-80.523	-0.406	-0.138
-693.426	800.000	-0.084	-0.289
-692.412	-40.623	0.240	0.127
-691.397	364.676	0.089	-0.183
-690.383	-25.279	-0.268	0.162
-689.368	4.022	0.132	-0.098
-688.354	-142.805	-0.146	0.014
-687.339	800.000	0.061	0.234
-686.324	-200.000	-0.025	0.204
-685.310	800.000	0.015	0.043
-684.295	-44.660	0.029	-0.015
-683.281	-77.379	0.180	-0.064
-682.266	-19.217	-0.480	-0.304
-681.251	-77.224	0.096	0.034
-680.237	162.946	0.064	-0.091
-679.222	265.839	0.060	-0.106
-678.208	-157.106	-0.140	-0.009
-677.193	-107.450	0.208	0.046
-676.178	-200.000	0.024	-0.162
-675.164	-83.606	0.159	-0.052
-674.149	-200.000	-0.003	-0.080
-673.135	-199.323	-0.061	-0.000
-672.120	205.616	0.057	0.089
-671.105	17.358	0.158	-0.127
-670.091	43.058	0.255	-0.237
-669.076	-200.000	0.007	-0.097
-668.062	-128.795	-0.242	0.035
-667.047	34.188	0.021	-0.018
-666.032	101.059	0.123	-0.145
-665.018	-200.000	0.044	-0.264
-664.003	6.985	-0.167	0.127
-662.989	-97.860	0.211	0.055
-661.974	-20.160	-0.113	0.071
-660.959	87.172	-0.067	0.075
-659.945	800.000	-0.042	-0.144
-658.930	-88.171	-0.189	0.057
-657.916	88.616	0.243	-0.274
-656.901	-166.697	0.254	-0.011
-655.886	-54.837	-0.151	0.069
-654.872	-100.340	-0.175	0.044
-653.857	28.471	0.137	-0.118
-652.843	-82.882	0.269	-0.088
-651.828	-80.632	-0.133	-0.045
-650.814	-73.007	-0.138	0.052
-649.799	-52.210	-0.253	-0.119
-648.784	368.739	-0.116	-0.238
-647.770	268.358	0.168	-0.299
-646.755	91.170	-0.127	-0.145
-645.741	-23.681	-0.197	-0.120
-644.726	-121.201	0.101	-0.017
-643.711	-131.323	0.116	-0.016
-642.697	-118.447	-0.080	0.014
-641.682	-79.317	0.164	-0.056
-640.668	-142.504	-0.615	0.061
-639.653	33.023	-0.086	-0.076
-638.638	-151.243	0.068	0.005
-637.624	34.034	-0.116	0.102
-636.609	437.608	0.057	0.127
-635.595	-200.000	-0.024	-0.426
-634.580	139.153	0.059	-0.079
-633.565	-135.331	0.297	0.036
-632.551	80.485	-0.226	0.247
-631.536	35.410	0.194	-0.172
-630.522	800.000	0.076	-0.302
-629.507	-30.298	0.148	-0.085
-628.492	648.526	0.063	0.162
-627.478	-27.181	0.189	0.112
-626.463	-104.775	-0.268	-0.063
-625.449	-150.082	-0.467	-0.037
-624.434	-116.281	0.234	-0.044
-623.419	189.160	0.045	-0.069
-622.405	-200.000	0.069	-0.322
-621.390	-104.308	-0.427	-0.100
-620.376	77.862	-0.194	-0.210
-619.361	94.677	0.228	0.263
-618.346	-115.436	-0.163	0.031
-617.332	-171.826	0.096	0.003
-616.317	49.482	0.264	-0.252
-615.303	-200.000	0.061	0.361
-614.288	520.873	0.113	0.270
-613.273	-200.000	0.033	-0.460
-612.259	92.385	0.070	0.080
-611.244	-200.000	-0.042	-0.282
-610.230	146.787	-0.301	0.411
-609.215	-36.322	-0.415	-0.227
-608.201	3.880	0.178	0.132
-607.186	-139.726	0.237	-0.026
-606.171	40.787	-0.111	-0.102
-605.157	243.195	0.058	-0.099
-604.142	177.319	0.118	0.175
-603.128	-200.000	-0.018	-0.093
-602.113	546.950	-0.134	0.326
-601.098	12.177	0.073	0.057
-600.084	-46.726	-0.253	-0.126
-599.069	96.012	0.261	-0.303
-598.055	-80.232	-0.224	0.076
-597.040	-119.623	0.055	0.010
-596.025	-51.094	0.171	0.081
-595.011	-84.751	-0.372	0.119
-593.996	-50.906	0.165	-0.079
-592.982	800.000	0.016	0.060
-591.967	-157.577	0.290	0.018
-590.952	364.295	-0.124	-0.252
-589.938	193.464	-0.047	0.072
-588.923	-53.559	-0.113	-0.052
-587.909	-5.284	-0.239	-0.167
-586.894	-126.171	-0.338	-0.051
-585.879	800.000	-0.086	-0.278
-584.865	-37.859	0.139	-0.075
-583.850	279.480	0.104	0.189
-582.836	-200.000	-0.031	0.217
-581.821	-86.693	-0.059	0.018
-580.806	515.766	-0.152	0.359
-579.792	124.806	0.431	0.550
-578.777	6.180	-0.436	0.328
-577.763	-200.000	-0.027	0.120
-576.748	212.857	-0.127	-0.203
-575.733	502.153	-0.014	0.032
-574.719	-200.000	0.006	-0.083
-573.704	253.293	-0.180	-0.311
-572.690	-200.000	-0.048	-0.295
-571.675	21.418	0.179	-0.147
-570.661	-200.000	0.035	0.159
-569.646	29.619	0.100	-0.086
-568.631	-28.129	0.110	-0.064
-567.617	-200.000	0.013	-0.090
-566.602	0.835	-0.413	0.300
-565.588	-164.849	-0.156	0.007
-564.573	99.410	-0.125	-0.146
-563.558	406.462	-0.074	0.158
-562.544	18.098	-0.057	0.046
-561.529	-16.821	0.070	-0.045
-560.515	-83.830	-0.296	0.096
-559.500	-200.000	-0.007	0.186
-558.485	116.109	-0.165	-0.205
-557.471	83.090	-0.038	-0.042
-556.456	114.635	0.078	-0.097
-555.442	-43.733	0.333	-0.170
-554.427	123.454	-0.024	-0.031
-553.412	-128.405	0.288	-0.041
-552.398	135.780	-0.246	-0.324
-551.383	-93.199	0.042	0.012
-550.369	67.432	0.240	0.248
-549.354	11.101	0.097	-0.075
-548.339	-108.524	-0.160	0.035
-547.325	-200.000	0.021	-0.117
-546.310	-60.333	-0.221	0.095
-545.296	-101.378	0.115	-0.028
-544.281	-16.089	-0.057	0.037
-543.266	270.842	0.140	-0.249
-542.252	217.334	-0.103	-0.166
-541.237	-15.652	-0.097	0.063
-540.223	171.342	-0.198	0.288
-539.208	49.910	0.250	0.239
-538.193	800.000	-0.141	0.400
-537.179	217.974	0.043	0.069
-536.164	-200.000	0.017	-0.226
-535.150	24.070	-0.099	-0.082
-534.135	800.000	0.076	0.326
-533.121	194.794	0.058	-0.089
-532.106	-34.641	-0.145	0.080
-531.091	-200.000	-0.003	-0.124
-530.077	97.431	0.090	0.104
-529.062	-114.816	-0.064	0.012
-528.048	-90.335	-0.312	-0.092
-527.033	-54.411	0.094	-0.043
-526.018	-200.000	0.025	-0.247
-525.004	24.543	-0.367	0.307
-523.989	400.089	0.239	-0.507
-522.975	133.866	0.030	0.039
-521.960	-91.984	-0.102	0.029
-520.945	-11.238	0.063	0.042
-519.931	-200.000	0.052	0.333
-518.916	34.484	0.109	-0.096
-517.902	150.862	-0.266	-0.366
-516.887	558.865	0.036	0.088
-515.872	-200.000	0.008	0.098
-514.858	341.952	-0.159	-0.315
-513.843	-45.174	0.102	0.051
-512.829	-66.108	-0.381	-0.153
-511.814	-57.250	0.238	-0.106
-510.799	114.829	-0.058	-0.072
-509.785	800.000	0.091	0.255
-508.770	-36.844	-0.297	-0.161
-507.756	88.351	0.080	-0.089
-506.741	60.929	-0.215	0.215
-505.726	-28.355	-0.292	-0.170
-504.712	-64.071	-0.251	0.104
-503.697	399.698	-0.108	0.230
-502.683	-200.000	0.021	-0.375
-501.668	100.476	-0.207	0.242
-500.653	443.369	-0.200	0.443
-499.639	-51.973	0.285	0.134
-498.624	51.539	0.027	0.026
-497.610	13.560	0.164	0.128
-496.595	460.188	0.245	-0.552
-495.581	-90.637	-0.082	-0.024
-494.566	-200.000	0.024	-0.168
-493.551	-89.252	-0.055	-0.017
-492.537	16.472	0.064	-0.051
-491.522	139.043	0.253	-0.336
-490.508	-118.053	0.245	0.044
-489.493	-118.642	0.264	-0.047
-488.478	598.607	-0.094	0.236
-487.464	-19.204	-0.207	0.129
-486.449	-0.223	-0.018	-0.013
-485.435	-12.526	0.320	0.211
-484.420	-200.000	-0.009	0.172
-483.405	-58.895	-0.077	0.034
-482.391	-200.000	0.080	0.394
-481.376	-112.752	0.258	-0.052
-480.362	118.941	0.321	0.400
-479.347	444.905	0.051	0.114
-478.332	-200.000	0.010	0.169
-477.318	145.777	0.036	0.049
-476.303	-165.042	0.248	-0.011
-475.289	98.670	0.224	-0.261
-474.274	-185.688	0.232	0.004
-473.259	-158.724	0.224	0.013
-472.245	-200.000	-0.001	-0.118
-471.230	191.247	0.159	0.242
-470.216	16.162	0.248	0.197
-469.201	42.127	-0.230	-0.210
-468.186	195.679	0.136	0.209
-467.172	9.575	0.178	-0.136
-466.157	-200.000	0.001	-0.339
-465.143	282.257	0.115	-0.208
-464.128	19.027	0.267	-0.216
-463.113	15.804	-0.204	-0.162
-462.099	-22.477	-0.092	0.056
-461.084	128.483	-0.113	-0.145
-460.070	-92.146	-0.074	-0.021
-459.055	-48.112	-0.193	0.094
-458.040	800.000	-0.056	0.231
-457.026	-93.230	-0.307	-0.086
-456.011	63.600	-0.116	0.118
-454.997	800.000	0.018	-0.053
-453.982	790.548	-0.126	0.349
-452.968	-70.951	-0.099	0.038
-451.953	136.640	0.161	-0.212
-450.938	-83.002	-0.117	0.038
-449.924	-200.000	-0.031	0.181
-448.909	50.719	-0.094	0.089
-447.895	467.845	-0.049	0.110
-446.880	33.199	-0.049	0.043
-445.865	58.949	-0.142	0.141
-444.851	-101.590	0.311	0.076
-443.836	1.807	-0.093	-0.067
-442.822	-200.000	0.003	0.286
-441.807	583.483	-0.104	0.258
-440.792	-200.000	-0.041	-0.254
-439.778	133.101	-0.196	0.256
-438.763	16.421	0.317	0.252
-437.749	-200.000	-0.009	-0.046
-436.734	800.000	-0.047	0.148
-435.719	-61.922	0.343	0.145
-434.705	275.676	0.040	-0.071
-433.690	352.783	-0.250	-0.500
-432.676	-200.000	-0.034	0.286
-431.661	165.461	-0.146	-0.209
-430.646	-99.773	0.133	0.034
-429.632	189.102	0.087	-0.131
-428.617	-189.744	-0.290	-0.003
-427.603	178.926	-0.209	-0.308
-426.588	237.837	-0.034	-0.057
-425.573	-200.000	-0.002	-0.205
-424.559	48.524	-0.068	0.064
-423.544	-146.208	-0.172	0.015
-422.530	800.000	0.057	-0.198
-421.515	19.172	0.109	-0.088
-420.500	71.824	0.210	0.219
-419.486	108.169	0.178	-0.214
-418.471	212.884	0.188	-0.299
-417.457	-91.270	-0.102	-0.030
-416.442	187.574	0.123	0.186
-415.428	121.781	-0.198	-0.248
-414.413	-153.422	-0.234	0.016
-413.398	536.707	0.195	0.465
-412.384	95.505	0.156	0.179
-411.369	128.795	0.102	-0.130
-410.355	-74.687	0.224	0.081
-409.340	-81.636	-0.151	-0.050
-408.325	144.217	0.052	0.069
-407.311	235.079	-0.158	0.262
-406.296	-21.263	0.173	-0.107
-405.282	-72.363	-0.274	-0.102
-404.267	-200.000	-0.046	-0.401
-403.252	-108.812	-0.429	0.092
-402.238	636.433	-0.076	0.194
-401.223	38.930	0.086	-0.078
-400.209	-43.298	-0.096	0.049
-399.194	-200.000	0.014	0.129
-398.179	238.294	0.030	-0.050
-397.165	-50.959	-0.190	0.090
-396.150	20.489	-0.067	-0.054
-395.136	800.000	-0.084	-0.327
-394.121	62.649	-0.185	-0.186
-393.106	408.588	-0.056	0.119
-392.092	100.730	-0.137	0.160
-391.077	-162.195	0.068	-0.003
-390.063	-50.838	0.134	0.063
-389.048	157.276	0.038	-0.053
-388.033	25.204	-0.255	-0.213
-387.019	416.712	0.072	0.154
-386.004	-138.962	-0.109	-0.012
-384.990	-200.000	-0.001	-0.104
-383.975	-200.000	0.001	0.117
-382.960	225.747	0.174	-0.284
-381.946	-47.411	0.135	-0.066
-380.931	-123.138	0.222	-0.036
-379.917	-167.995	-0.017	-0.001
-378.902	-200.000	0.001	0.126
-377.888	-200.000	0.006	0.136
-376.873	-200.000	0.028	0.149
-375.858	158.574	0.172	0.240
-374.844	-13.442	-0.089	0.058
-373.829	-2.181	-0.071	-0.050
-372.815	-79.780	0.298	-0.101
-371.800	427.551	-0.080	-0.173
-370.785	-51.120	-0.270	-0.127
-369.771	263.842	0.177	0.309
-368.756	-3.025	0.147	-0.103
-367.742	-42.668	0.376	-0.192
-366.727	-143.261	0.363	-0.035
-365.712	-127.878	0.173	-0.025
-364.698	-121.927	-0.334	0.055
-363.683	-200.000	-0.007	0.182
-362.669	221.848	0.057	0.092
-361.654	800.000	0.013	0.044
-360.639	-200.000	-0.032	-0.227
-359.625	-14.303	-0.174	-0.113
-358.610	44.207	-0.170	-0.157
-357.596	9.951	-0.151	0.115
-356.581	-85.453	0.178	0.056
-355.566	800.000	-0.011	-0.047
-354.552	35.277	0.165	-0.145
-353.537	135.222	-0.202	-0.263
-352.523	252.694	0.115	-0.197
-351.508	-200.000	-0.063	-0.328
-350.493	-3.831	0.268	-0.187
-349.479	-200.000	-0.126	-0.584
-348.464	18.922	0.039	-0.031
-347.450	262.039	0.035	-0.061
-346.435	40.694	0.151	0.136
-345.420	-200.000	0.023	0.263
-344.406	107.288	0.248	0.296
-343.391	-200.000	-0.005	0.027
-342.377	-200.000	0.051	0.362
-341.362	-50.314	0.052	0.025
-340.348	9.389	0.057	-0.043
-339.333	-200.000	-0.050	0.238
-338.318	-129.239	0.197	0.028
-337.304	724.258	-0.060	-0.161
-336.289	-182.370	0.336	-0.006
-335.275	-142.257	-0.168	0.017
-334.260	140.750	0.196	0.260
-333.245	-71.123	-0.157	0.059
-332.231	-200.000	0.041	0.279
-331.216	252.182	0.067	0.115
-330.202	-56.205	-0.398	0.178
-329.187	-129.960	0.142	0.019
-328.172	90.808	-0.111	-0.125
-327.158	800.000	0.067	0.195
-326.143	-72.563	0.050	-0.019
-325.129	-58.663	0.431	0.187
-324.114	-200.000	-0.024	0.480
-323.099	-27.845	-0.180	0.105
-322.085	-200.000	0.016	0.085
-321.070	67.085	-0.061	0.063
-320.056	29.658	0.134	-0.114
-319.041	95.432	-0.164	0.188
-318.026	-200.000	-0.008	0.045
-317.012	-200.000	0.025	-0.201
-315.997	173.478	-0.117	-0.169
-314.983	293.829	0.155	-0.284
-313.968	122.035	-0.144	-0.181
-312.953	800.000	0.033	-0.094
-311.939	-144.254	-0.333	0.031
-310.924	800.000	-0.151	-0.486
-309.910	55.625	-0.196	-0.190
-308.895	800.000	0.054	0.173
-307.880	659.736	0.092	0.238
-306.866	490.133	-0.100	0.230
-305.851	-160.461	-0.195	0.010
-304.837	-163.993	-0.186	0.009
-303.822	67.915	0.390	0.400
-302.807	-58.144	-0.255	-0.112
-301.793	-200.000	-0.007	0.119
-300.778	554.837	0.149	0.358
-299.764	37.959	-0.134	0.119
-298.749	97.470	-0.270	-0.310
-297.735	-27.086	0.157	0.092
-296.720	800.000	0.066	0.189
-295.705	346.349	0.035	-0.068
-294.691	148.963	0.147	-0.199
-293.676	-143.386	-0.272	0.026
-292.662	-87.925	-0.210	-0.063
-291.647	-76.064	-0.165	0.059
-290.632	-200.000	0.015	0.321
-289.618	-65.403	-0.226	0.091
-288.603	-3.887	-0.080	0.055
-287.589	-131.707	0.234	-0.031
-286.574	-200.000	0.021	-0.138
-285.559	-200.000	0.027	-0.257
-284.545	-151.929	-0.159	0.012
-283.530	95.707	-0.065	0.074
-282.516	800.000	0.049	-0.173
-281.501	-146.624	-0.322	0.028
-280.486	-111.201	0.172	-0.035
-279.472	-22.902	0.199	0.120
-278.457	257.222	0.035	0.060
-277.443	-200.000	0.052	-0.235
-276.428	311.020	0.028	-0.052
-275.413	-200.000	-0.017	0.076
-274.399	-90.444	0.197	0.057
-273.384	20.197	-0.220	-0.178
-272.370	118.825	-0.225	0.279
-271.355	-22.790	0.466	0.281
-270.340	-35.071	-0.181	-0.099
-269.326	49.124	0.152	-0.143
-268.311	390.815	-0.084	0.175
-267.297	13.701	-0.120	0.094
-266.282	800.000	-0.082	0.227
-265.267	146.341	-0.067	0.090
-264.253	-84.599	0.115	0.036
-263.238	-200.000	-0.031	0.291
-262.224	228.015	-0.143	0.233
-261.209	6.821	-0.100	0.075
-260.195	3.484	-0.054	-0.039
-259.180	197.324	0.178	-0.271
-258.165	573.339	0.038	0.093
-257.151	675.807	0.109	-0.284
-256.136	-7.693	0.221	-0.150
-255.122	-200.000	0.016	-0.131
-254.107	216.006	0.202	0.321
-253.092	209.199	-0.147	-0.231
-252.078	-200.000	-0.006	-0.049
-251.063	18.101	0.082	0.065
-250.049	-200.000	-0.026	-0.198
-249.034	800.000	-0.109	-0.387
-248.019	288.095	0.167	0.302
-247.005	-63.091	0.241	0.100
-245.990	-40.233	0.328	-0.171
-244.976	-200.000	-0.017	-0.191
-243.961	-132.853	0.343	-0.044
-242.946	800.000	-0.058	0.205
-241.932	-134.645	-0.089	-0.011
-240.917	-200.000	-0.024	-0.378
-239.903	578.317	0.096	-0.234
-238.888	208.038	-0.107	-0.168
-237.873	800.000	0.048	-0.138
-236.859	-200.000	-0.008	0.123
-235.844	418.730	-0.059	-0.126
-234.830	-155.983	0.287	0.018
-233.815	-94.579	0.126	-0.034
-232.800	602.691	0.065	-0.163
-231.786	-8.983	-0.089	0.060
-230.771	-4.267	0.244	0.169
-229.757	789.712	-0.044	0.121
-228.742	800.000	0.087	-0.270
-227.727	67.569	0.112	-0.114
-226.713	800.000	0.069	-0.270
-225.698	-115.459	-0.133	-0.025
-224.684	-70.287	0.358	-0.136
-223.669	-96.071	-0.271	-0.072
-222.655	46.973	-0.186	-0.173
-221.640	-200.000	0.004	0.067
-220.625	83.739	0.222	-0.242
-219.611	55.881	-0.214	0.208
-218.596	137.371	-0.147	0.192
-217.582	-60.455	0.256	-0.109
-216.567	2.894	-0.054	0.039
-215.552	177.300	0.053	0.077
-214.538	-99.608	-0.222	0.056
-213.523	-63.303	-0.206	0.085
-212.509	-71.568	0.037	-0.014
-211.494	354.851	-0.161	-0.319
-210.479	-200.000	0.008	-0.195
-209.465	-11.536	0.244	-0.160
-208.450	419.932	-0.016	0.034
-207.436	-11.976	0.192	0.126
-206.421	800.000	-0.019	0.062
-205.406	-99.283	-0.225	0.057
-204.392	-92.004	-0.253	0.071
-203.377	129.316	0.075	0.096
-202.363	-170.264	-0.079	0.003
-201.348	29.030	0.228	0.193
-200.333	-27.657	-0.229	0.132
-199.319	540.834	-0.077	0.184
-198.304	-182.347	-0.442	-0.008
-197.290	-108.113	0.034	-0.007
-196.275	800.000	-0.068	-0.188
-195.260	-50.271	0.349	0.165
-194.246	-111.603	0.044	0.009
-193.231	197.793	0.109	0.166
-192.217	-78.373	-0.233	0.080
-191.202	800.000	-0.096	0.298
-190.187	-200.000	0.034	-0.207
-189.173	30.133	0.149	-0.127
-188.158	800.000	0.048	0.206
-187.144	-128.259	0.268	0.038
-186.129	63.224	0.200	-0.200
-185.114	800.000	0.023	-0.094
-184.100	-67.919	-0.112	0.044
-183.085	-108.414	0.351	0.075
-182.071	-114.201	0.142	-0.027
-181.056	208.877	-0.093	0.145
-180.042	231.974	0.110	-0.180
-179.027	-6.392	0.320	-0.218
-178.012	-200.000	0.043	0.315
-176.998	-139.377	0.066	0.007
-175.983	-93.658	-0.204	-0.056
-174.969	-200.000	0.018	-0.167
-173.954	208.579	-0.111	-0.173
-172.939	557.536	0.032	-0.077
-171.925	-81.583	0.165	0.054
-170.910	62.003	-0.096	-0.095
-169.896	800.000	0.103	0.302
-168.881	-75.064	0.069	0.025
-167.866	142.462	0.108	-0.143
-166.852	-2.489	-0.079	-0.055
-165.837	-17.486	-0.109	-0.068
-164.823	-121.668	0.326	0.054
-163.808	-200.000	0.009	0.217
-162.793	800.000	0.068	0.192
-161.779	-70.026	-0.236	0.090
-160.764	177.522	0.160	0.232
-159.750	182.292	0.110	0.161
-158.735	34.166	0.116	0.101
-157.720	22.668	-0.125	-0.102
-156.706	-106.596	-0.137	0.030
-155.691	800.000	0.009	0.033
-154.677	20.605	-0.103	-0.083
-153.662	-6.374	0.201	0.137
-152.647	-3.771	0.017	0.012
-151.633	98.237	0.050	0.057
-150.618	-105.094	0.092	-0.021
-149.604	-0.230	-0.137	-0.097
-148.589	-131.344	-0.141	0.019
-147.574	-118.021	0.028	-0.005
-146.560	-105.323	0.138	-0.031
-145.545	389.484	0.170	-0.352
-144.531	333.790	-0.173	0.334
-143.516	-57.039	0.298	0.131
-142.502	24.196	0.223	0.183
-141.487	-105.060	-0.220	0.050
-140.472	-200.000	0.012	0.091
-139.458	432.573	-0.067	-0.144
-138.443	254.028	0.102	-0.174
-137.429	800.000	-0.051	-0.149
-136.414	101.207	0.056	0.064
-135.399	-100.543	-0.166	0.041
-134.385	-200.000	-0.029	0.170
-133.370	48.855	0.138	-0.129
-132.356	641.697	0.039	-0.098
-131.341	-170.306	-0.198	0.007
-130.326	-200.000	0.031	0.182
-129.312	-200.000	0.011	0.184
-128.297	800.000	0.038	0.122
-127.283	-200.000	0.019	-0.336
-126.268	-83.004	-0.241	-0.077
-125.253	-1.743	0.175	0.123
-124.239	-29.440	-0.056	0.032
-123.224	-14.362	0.221	0.142
-122.210	676.226	0.065	0.169
-121.195	-95.219	-0.210	0.056
-120.180	292.349	-0.114	0.208
-119.166	110.850	0.162	0.195
