DTS Sentinel unit serial number:	SN413079Multiplexer serial number:	ORYXHardware model number:	OX4-SRSoftware version number:	ORYX F/W v4.00 Oryx Data Collector v3.7.2.0data status	okinstallation	princeton_trtdifferential loss correction	single-endedforward channel	channel 4reverse channel	N/Adate	2019/09/11time	06:35:11forward acquisition time	60.00reverse acquisition time	0.00gamma	496.2192k internal	0.2314k external	0.2314temperature offset calibration	0.9947default loss term (dB/km)	0.3790temperature slope calibration	1.0000multiplexer offset coefficient	1.0000multiplexer slope coefficient	1.0000fibre end	0.00T internal ref (°C)	29.69T ext. ref 1 (°C)	-0.13T ext. ref 2 (°C)	24.34length (m)	temperature (°C)	Stokes	anti-Stokes-747.200	177.984	0.327	0.484
-746.185	198.632	0.169	0.262
-745.171	800.000	-0.016	0.069
-744.156	-200.000	0.030	0.349
-743.142	-95.284	-0.051	0.014
-742.127	-200.000	-0.008	0.094
-741.112	-65.330	0.100	0.041
-740.098	800.000	-0.073	0.299
-739.083	15.721	0.286	-0.228
-738.069	800.000	0.054	0.209
-737.054	-134.155	0.153	0.019
-736.039	12.870	-0.199	0.156
-735.025	-50.274	0.219	0.105
-734.010	252.920	-0.177	-0.307
-732.996	-200.000	0.055	-0.259
-731.981	124.667	-0.100	-0.128
-730.966	-90.228	0.106	0.031
-729.952	-29.628	0.028	0.016
-728.937	-200.000	0.037	0.229
-727.923	-184.014	0.217	0.004
-726.908	-8.923	-0.237	-0.160
-725.894	-116.709	0.250	-0.046
-724.879	-28.726	-0.219	-0.128
-723.864	-200.000	0.039	-0.246
-722.850	-57.089	0.169	-0.075
-721.835	800.000	-0.037	0.129
-720.821	-200.000	-0.034	-0.279
-719.806	2.844	-0.320	-0.236
-718.791	800.000	-0.038	-0.150
-717.777	-121.812	-0.271	0.045
-716.762	-102.733	0.180	-0.043
-715.748	7.140	0.229	-0.173
-714.733	151.483	0.113	-0.155
-713.718	-200.000	0.009	0.174
-712.704	385.073	-0.061	-0.127
-711.689	-118.431	0.306	-0.055
-710.675	754.053	0.022	0.061
-709.660	-166.373	-0.160	0.007
-708.645	800.000	0.034	-0.099
-707.631	-18.378	0.213	-0.135
-706.616	78.964	-0.327	0.354
-705.602	-200.000	0.050	0.328
-704.587	490.170	-0.095	-0.221
-703.572	240.157	-0.120	-0.202
-702.558	108.760	0.107	0.130
-701.543	-200.000	0.059	0.359
-700.529	244.687	0.148	-0.251
-699.514	-35.398	0.189	-0.104
-698.499	-200.000	0.008	-0.131
-697.485	800.000	-0.052	-0.196
-696.470	-72.419	-0.162	0.060
-695.456	74.763	0.134	0.143
-694.441	268.097	0.099	-0.176
-693.426	-42.863	0.065	-0.034
-692.412	30.382	-0.217	-0.187
-691.397	-35.424	-0.103	0.056
-690.383	-113.027	-0.153	-0.031
-689.368	-10.314	0.283	-0.190
-688.354	19.317	-0.207	-0.169
-687.339	-94.143	-0.179	-0.050
-686.324	91.523	0.128	-0.146
-685.310	-200.000	0.030	-0.409
-684.295	236.524	-0.117	0.195
-683.281	345.261	-0.049	-0.097
-682.266	189.768	-0.204	-0.309
-681.251	800.000	-0.046	-0.171
-680.237	-200.000	-0.025	-0.221
-679.222	-200.000	-0.002	-0.181
-678.208	8.996	0.116	-0.089
-677.193	800.000	0.081	-0.319
-676.178	-47.445	-0.038	-0.019
-675.164	-161.903	-0.177	-0.009
-674.149	-200.000	-0.013	-0.066
-673.135	-200.000	-0.010	-0.197
-672.120	189.984	-0.124	0.188
-671.105	800.000	0.136	0.443
-670.091	-151.239	0.233	0.018
-669.076	293.099	-0.117	-0.216
-668.062	-141.685	0.089	0.009
-667.047	292.238	-0.070	-0.128
-666.032	-200.000	0.025	0.242
-665.018	170.841	-0.174	0.252
-664.003	-200.000	-0.086	-0.478
-662.989	-89.848	0.187	-0.055
-661.974	-105.279	-0.121	-0.028
-660.959	-200.000	0.027	-0.186
-659.945	-68.591	-0.245	-0.096
-658.930	144.000	0.089	0.120
-657.916	-26.609	0.149	0.088
-656.901	10.153	-0.213	-0.163
-655.886	800.000	0.053	0.227
-654.872	-80.463	-0.186	0.063
-653.857	-101.765	-0.288	0.071
-652.843	46.610	-0.211	-0.198
-651.828	-20.415	0.083	0.051
-650.814	-9.843	-0.025	-0.017
-649.799	-84.468	-0.276	-0.088
-648.784	14.231	-0.081	0.064
-647.770	-136.763	-0.190	0.022
-646.755	-90.006	-0.099	0.029
-645.741	29.206	-0.254	-0.218
-644.726	406.820	-0.039	0.084
-643.711	-200.000	0.051	-0.329
-642.697	-27.757	0.105	0.062
-641.682	-78.406	0.246	-0.085
-640.668	262.330	-0.183	0.320
-639.653	21.082	0.256	-0.209
-638.638	800.000	-0.009	-0.031
-637.624	-88.435	-0.383	-0.115
-636.609	184.638	-0.135	-0.202
-635.595	-52.687	-0.343	0.160
-634.580	-200.000	-0.039	0.410
-633.565	800.000	-0.110	0.392
-632.551	280.508	-0.138	0.249
-631.536	-200.000	0.016	-0.106
-630.522	-200.000	0.034	-0.269
-629.507	-200.000	-0.018	0.136
-628.492	142.214	0.118	0.157
-627.478	-183.590	0.096	-0.002
-626.463	-62.121	-0.241	0.101
-625.449	-73.776	-0.128	-0.047
-624.434	-115.195	0.338	0.064
-623.419	-200.000	-0.002	-0.129
-622.405	-118.792	-0.334	-0.059
-621.390	800.000	0.047	0.140
-620.376	22.892	0.172	0.142
-619.361	800.000	-0.054	-0.159
-618.346	-87.272	-0.246	0.075
-617.332	800.000	-0.057	0.228
-616.317	-87.035	0.132	0.040
-615.303	-112.206	0.214	0.043
-614.288	-200.000	0.049	-0.296
-613.273	-26.413	-0.407	-0.241
-612.259	74.099	-0.302	0.320
-611.244	-200.000	0.008	-0.183
-610.230	-83.837	0.339	-0.109
-609.215	-86.322	-0.167	-0.052
-608.201	67.707	-0.060	-0.062
-607.186	-65.203	-0.242	0.098
-606.171	-200.000	0.004	0.087
-605.157	800.000	-0.065	-0.280
-604.142	-93.229	0.236	-0.066
-603.128	-200.000	0.015	0.131
-602.113	-64.732	0.254	0.104
-601.098	-150.984	-0.097	0.007
-600.084	99.014	-0.109	-0.127
-599.069	800.000	-0.051	-0.157
-598.055	-200.000	0.017	0.097
-597.040	-200.000	-0.052	0.472
-596.025	-31.690	-0.063	-0.035
-595.011	-200.000	-0.012	-0.211
-593.996	-96.655	-0.126	0.033
-592.982	-200.000	0.018	0.221
-591.967	-179.091	0.262	0.006
-590.952	414.101	0.052	0.111
-589.938	-200.000	-0.009	0.356
-588.923	-27.660	0.150	-0.088
-587.909	30.499	-0.342	0.295
-586.894	247.125	-0.128	-0.217
-585.879	-33.656	-0.253	-0.140
-584.865	-200.000	-0.035	-0.167
-583.850	-200.000	-0.037	-0.377
-582.836	-91.266	-0.144	0.042
-581.821	-200.000	0.030	-0.213
-580.806	-67.235	0.186	-0.074
-579.792	800.000	-0.077	0.215
-578.777	-200.000	-0.078	0.422
-577.763	-160.456	0.160	-0.009
-576.748	-120.026	-0.297	-0.051
-575.733	-158.638	0.151	0.009
-574.719	-200.000	0.019	-0.167
-573.704	139.070	-0.052	0.068
-572.690	-200.000	-0.025	-0.262
-571.675	-200.000	-0.083	0.558
-570.661	178.372	-0.118	-0.173
-569.646	18.916	0.242	-0.195
-568.631	398.215	-0.135	-0.284
-567.617	288.562	0.191	-0.347
-566.602	800.000	0.064	0.182
-565.588	-200.000	-0.028	-0.218
-564.573	-38.745	0.195	0.103
-563.558	-61.852	0.374	-0.157
-562.544	42.610	-0.103	-0.095
-561.529	312.867	-0.237	-0.449
-560.515	15.067	-0.185	0.146
-559.500	120.932	-0.048	-0.061
-558.485	-200.000	-0.000	0.151
-557.471	-93.479	0.142	-0.040
-556.456	800.000	0.055	-0.167
-555.442	720.560	0.205	0.549
-554.427	-115.421	0.187	-0.035
-553.412	402.189	0.036	-0.077
-552.398	761.414	-0.079	-0.216
-551.383	-160.521	0.166	-0.009
-550.369	259.036	-0.038	-0.066
-549.354	292.746	-0.101	-0.184
-548.339	800.000	-0.108	0.458
-547.325	89.543	0.165	-0.186
-546.310	800.000	-0.025	0.081
-545.296	-81.199	0.206	-0.068
-544.281	-36.780	0.232	-0.125
-543.266	800.000	0.089	-0.268
-542.252	-157.750	-0.096	0.006
-541.237	800.000	0.124	-0.353
-540.223	19.669	0.061	-0.050
-539.208	161.251	0.134	0.188
-538.193	800.000	0.081	0.269
-537.179	-38.373	-0.330	-0.176
-536.164	-96.240	-0.300	-0.080
-535.150	-33.850	-0.299	-0.166
-534.135	209.716	-0.130	-0.205
-533.121	457.871	-0.105	0.234
-532.106	-180.467	0.123	-0.003
-531.091	117.453	0.093	-0.115
-530.077	-87.011	-0.461	-0.141
-529.062	-200.000	0.014	-0.208
-528.048	193.591	0.081	0.123
-527.033	800.000	-0.089	0.283
-526.018	-168.531	0.212	0.008
-525.004	244.723	-0.122	0.205
-523.989	-200.000	-0.003	-0.318
-522.975	796.748	0.150	-0.416
-521.960	-200.000	-0.002	-0.053
-520.945	410.244	-0.033	0.071
-519.931	-200.000	-0.024	-0.304
-518.916	13.270	0.187	-0.146
-517.902	800.000	-0.044	0.161
-516.887	127.024	-0.162	-0.206
-515.872	444.503	0.093	-0.204
-514.858	-198.802	0.244	-0.001
-513.843	415.427	0.175	-0.375
-512.829	-33.013	0.251	0.140
-511.814	-200.000	0.063	0.519
-510.799	237.708	0.183	0.304
-509.785	-132.921	-0.088	0.011
-508.770	133.020	0.272	0.353
-507.756	-93.926	0.284	0.078
-506.741	16.134	-0.203	0.161
-505.726	1.230	-0.233	0.168
-504.712	-130.236	0.377	-0.051
-503.697	-12.049	0.095	0.062
-502.683	514.722	0.114	0.267
-501.668	-115.363	-0.177	-0.034
-500.653	-31.090	0.032	0.018
-499.639	-131.760	0.144	0.019
-498.624	65.436	0.121	-0.123
-497.610	-200.000	-0.034	-0.266
-496.595	86.262	-0.246	-0.272
-495.581	-200.000	0.022	-0.237
-494.566	670.834	0.126	-0.327
-493.551	-200.000	0.009	-0.131
-492.537	514.621	-0.116	-0.271
-491.522	-90.859	0.341	0.098
-490.508	-200.000	0.001	-0.105
-489.493	-112.988	-0.357	-0.071
-488.478	165.718	-0.086	0.121
-487.464	-133.522	0.161	0.020
-486.449	-121.705	0.156	-0.026
-485.435	-114.851	0.209	0.040
-484.420	430.158	-0.059	-0.129
-483.405	-110.573	-0.104	0.022
-482.391	344.312	-0.106	0.210
-481.376	68.923	0.187	0.193
-480.362	44.362	-0.164	0.151
-479.347	-200.000	-0.558	-0.002
-478.332	14.461	0.147	-0.115
-477.318	100.144	-0.063	0.073
-476.303	-7.321	-0.091	-0.062
-475.289	395.805	0.138	0.288
-474.274	-27.961	0.028	0.016
-473.259	-68.944	-0.236	-0.091
-472.245	-78.424	-0.227	-0.078
-471.230	-18.108	-0.111	0.070
-470.216	800.000	-0.049	0.150
-469.201	-200.000	-0.078	0.398
-468.186	333.203	-0.079	0.153
-467.172	448.538	0.226	0.499
-466.157	-77.734	-0.168	0.058
-465.143	-23.324	-0.340	-0.205
-464.128	-100.393	-0.202	-0.050
-463.113	-200.000	0.065	0.406
-462.099	800.000	-0.077	-0.242
-461.084	-73.452	0.236	-0.086
-460.070	-6.911	-0.136	-0.092
-459.055	289.157	-0.215	0.390
-458.040	-15.971	-0.100	-0.064
-457.026	-39.483	0.198	0.104
-456.011	-165.177	-0.117	0.005
-454.997	182.411	0.173	-0.255
-453.982	-82.695	-0.190	-0.062
-452.968	14.436	-0.127	-0.099
-451.953	32.345	-0.228	0.197
-450.938	178.199	0.040	0.058
-449.924	318.992	0.039	0.074
-448.909	4.713	-0.158	-0.116
-447.895	-140.059	-0.139	0.015
-446.880	-35.367	-0.094	-0.051
-445.865	257.193	-0.054	0.094
-444.851	-200.000	0.022	-0.210
-443.836	-67.239	-0.400	-0.158
-442.822	-154.549	-0.274	0.018
-441.807	529.784	-0.066	0.156
-440.792	-200.000	0.012	-0.409
-439.778	-113.763	0.202	-0.039
-438.763	-106.051	0.118	0.027
-437.749	-143.794	0.323	-0.031
-436.734	800.000	-0.056	-0.158
-435.719	-67.435	-0.052	-0.021
-434.705	-200.000	-0.016	-0.197
-433.690	800.000	-0.037	-0.101
-432.676	27.642	-0.119	0.100
-431.661	-152.047	0.287	0.021
-430.646	255.169	-0.116	-0.199
-429.632	-89.749	0.432	-0.127
-428.617	800.000	-0.112	0.407
-427.603	-100.205	-0.290	0.072
-426.588	-200.000	0.022	0.185
-425.573	-200.000	0.055	0.307
-424.559	800.000	0.035	-0.116
-423.544	-74.212	0.135	-0.049
-422.530	-136.233	0.039	0.005
-421.515	-12.295	-0.163	-0.107
-420.500	2.438	0.360	-0.261
-419.486	-37.486	-0.112	-0.060
-418.471	800.000	-0.064	-0.211
-417.457	-3.136	0.179	0.125
-416.442	73.616	-0.081	-0.085
-415.428	-64.655	-0.320	0.130
-414.413	-80.148	0.090	-0.030
-413.398	288.056	0.149	-0.270
-412.384	-200.000	-0.068	0.335
-411.369	-200.000	-0.106	-0.678
-410.355	22.772	-0.113	0.093
-409.340	26.872	-0.160	0.134
-408.325	439.609	0.124	0.270
-407.311	315.642	-0.020	-0.039
-406.296	-76.939	-0.097	0.034
-405.282	-145.281	-0.370	0.033
-404.267	-69.786	0.032	-0.012
-403.252	153.789	0.209	-0.286
-402.238	-69.699	-0.093	0.036
-401.223	27.886	-0.174	0.146
-400.209	-200.000	0.032	-0.332
-399.194	800.000	0.098	0.309
-398.179	-12.677	0.203	0.132
-397.165	-200.000	0.012	0.164
-396.150	200.073	0.117	0.180
-395.136	800.000	-0.006	-0.023
-394.121	-200.000	0.007	-0.203
-393.106	-20.094	-0.236	-0.145
-392.092	288.502	0.234	-0.424
-391.077	-110.464	0.167	-0.035
-390.063	-68.760	0.275	-0.106
-389.048	176.806	0.129	-0.187
-388.033	88.443	-0.195	0.216
-387.019	379.376	0.113	-0.230
-386.004	-157.280	-0.417	-0.025
-384.990	-87.407	0.179	0.054
-383.975	-200.000	0.014	-0.128
-382.960	-34.991	-0.041	0.022
-381.946	-74.139	-0.418	-0.151
-380.931	800.000	-0.029	-0.097
-379.917	-127.821	0.222	-0.032
-378.902	-200.000	0.006	-0.153
-377.888	423.211	0.084	0.181
-376.873	-25.524	-0.081	-0.048
-375.858	86.208	-0.128	-0.140
-374.844	800.000	-0.051	-0.169
-373.829	-200.000	-0.061	-0.468
-372.815	79.359	0.106	-0.114
-371.800	265.611	-0.140	0.245
-370.785	-100.207	0.175	0.043
-369.771	92.733	-0.127	-0.143
-368.756	-200.000	0.005	-0.397
-367.742	-62.957	0.415	-0.171
-366.727	-26.716	-0.187	0.109
-365.712	-54.197	0.025	0.011
-364.698	-11.672	0.198	0.130
-363.683	-166.448	-0.006	0.000
-362.669	-9.685	0.105	0.070
-361.654	-9.251	0.061	0.041
-360.639	-200.000	-0.012	-0.262
-359.625	-59.544	0.275	-0.118
-358.610	-200.000	-0.022	-0.130
-357.596	-121.575	0.168	-0.028
-356.581	235.071	0.175	0.289
-355.566	800.000	-0.021	0.075
-354.552	-200.000	-0.001	0.090
-353.537	-136.947	-0.257	-0.029
-352.523	800.000	-0.108	0.406
-351.508	-54.836	0.112	0.050
-350.493	800.000	-0.028	-0.085
-349.479	61.834	0.216	0.215
-348.464	75.962	0.173	0.182
-347.450	-13.280	0.063	0.041
-346.435	-200.000	0.001	0.219
-345.420	-9.349	0.030	0.020
-344.406	-200.000	0.060	-0.393
-343.391	-77.989	-0.088	-0.030
-342.377	388.859	0.081	-0.166
-341.362	58.834	-0.069	0.068
-340.348	91.465	0.069	-0.077
-339.333	54.124	0.261	-0.251
-338.318	471.002	-0.142	-0.320
-337.304	3.850	-0.170	-0.124
-336.289	-90.518	0.266	0.077
-335.275	-181.482	-0.082	0.002
-334.260	2.202	0.120	-0.086
-333.245	314.137	-0.038	-0.071
-332.231	169.567	-0.152	-0.217
-331.216	-5.322	0.082	0.056
-330.202	-183.037	0.233	0.004
-329.187	800.000	0.043	-0.167
-328.172	18.636	0.123	0.098
-327.158	530.787	-0.125	0.295
-326.143	-127.499	-0.046	-0.007
-325.129	45.646	-0.270	-0.249
-324.114	330.814	-0.122	0.234
-323.099	-34.955	0.263	-0.143
-322.085	160.799	-0.159	-0.221
-321.070	-3.400	0.094	-0.065
-320.056	-200.000	-0.021	0.260
-319.041	209.280	0.154	-0.240
-318.026	-200.000	0.011	0.152
-317.012	-200.000	0.056	-0.259
-315.997	-84.008	-0.301	-0.095
-314.983	-86.775	0.492	0.150
-313.968	-23.144	0.333	0.200
-312.953	-59.267	-0.305	-0.131
-311.939	747.758	0.066	-0.177
-310.924	612.545	-0.038	0.095
-309.910	-91.434	0.113	-0.032
-308.895	-200.000	-0.023	0.112
-307.880	-127.473	-0.058	-0.008
-306.866	-200.000	-0.022	-0.130
-305.851	188.524	-0.063	-0.094
-304.837	800.000	0.077	0.236
-303.822	-123.901	-0.185	-0.029
-302.807	800.000	0.052	-0.154
-301.793	-200.000	-0.020	0.170
-300.778	541.956	-0.089	-0.211
-299.764	48.019	-0.199	-0.186
-298.749	800.000	0.084	0.358
-297.735	-100.233	-0.173	0.043
-296.720	-78.109	0.342	0.117
-295.705	121.366	0.067	-0.083
-294.691	800.000	0.081	-0.232
-293.676	800.000	0.071	-0.211
-292.662	-132.880	-0.145	-0.018
-291.647	-94.999	-0.292	0.079
-290.632	-46.331	0.145	0.071
-289.618	83.321	0.139	-0.150
-288.603	800.000	-0.022	-0.085
-287.589	276.062	0.100	0.177
-286.574	466.217	-0.106	0.236
-285.559	-129.295	-0.463	-0.064
-284.545	-49.913	0.386	0.183
-283.530	744.664	0.160	-0.428
-282.516	133.210	-0.059	0.075
-281.501	219.096	-0.081	0.129
-280.486	101.198	0.093	-0.108
-279.472	-35.771	0.349	0.188
-278.457	78.095	0.452	0.480
-277.443	-121.570	0.375	-0.062
-276.428	800.000	0.143	0.497
-275.413	53.526	-0.120	-0.115
-274.399	-200.000	-0.017	-0.333
-273.384	-112.298	-0.053	-0.011
-272.370	-131.188	0.335	-0.044
-271.355	-132.546	0.376	-0.048
-270.340	800.000	-0.038	0.137
-269.326	-28.954	0.217	-0.124
-268.311	-200.000	-0.049	-0.225
-267.297	-121.576	-0.213	-0.035
-266.282	63.565	0.147	0.147
-265.267	-200.000	0.005	0.213
-264.253	-51.855	0.028	-0.013
-263.238	393.261	-0.174	0.360
-262.224	62.789	-0.283	-0.282
-261.209	-200.000	0.028	-0.149
-260.195	593.177	0.112	-0.275
-259.180	146.148	-0.133	-0.177
-258.165	757.871	0.082	-0.222
-257.151	-200.000	-0.053	-0.356
-256.136	89.687	-0.022	0.024
-255.122	-200.000	-0.020	0.484
-254.107	47.496	0.170	0.157
-253.092	-60.355	-0.096	0.040
-252.078	532.951	0.109	0.258
-251.063	-82.909	-0.204	0.065
-250.049	-117.830	0.072	0.013
-249.034	316.275	-0.173	-0.325
-248.019	11.394	-0.269	0.205
-247.005	241.602	0.127	-0.210
-245.990	66.620	0.161	-0.162
-244.976	-200.000	-0.046	0.271
-243.961	79.243	0.113	0.120
-242.946	-40.901	-0.154	-0.079
-241.932	374.945	-0.128	-0.259
-240.917	-156.620	-0.243	0.015
-239.903	-145.225	0.104	-0.009
-238.888	132.957	0.141	0.181
-237.873	-102.438	-0.132	-0.031
-236.859	221.932	0.044	0.070
-235.844	-200.000	0.000	0.124
-234.830	152.245	-0.172	0.234
-233.815	800.000	0.024	-0.100
-232.800	800.000	0.077	-0.311
-231.786	-200.000	0.019	0.170
-230.771	-101.795	-0.451	0.109
-229.757	-17.222	-0.253	0.159
-228.742	33.373	0.159	0.137
-227.727	217.307	-0.220	0.349
-226.713	127.563	-0.128	0.162
-225.698	166.008	0.101	0.142
-224.684	-200.000	0.008	-0.117
-223.669	312.470	-0.150	0.280
-222.655	-200.000	-0.006	0.126
-221.640	132.171	0.210	-0.269
-220.625	800.000	0.092	0.258
-219.611	800.000	0.071	0.254
-218.596	390.068	-0.066	0.135
-217.582	-75.760	0.199	0.070
-216.567	128.178	0.170	0.215
-215.552	-115.793	-0.419	0.078
-214.538	-200.000	0.016	-0.176
-213.523	-101.196	-0.159	-0.039
-212.509	97.544	-0.149	0.170
-211.494	129.413	-0.250	0.316
-210.479	-188.315	0.097	-0.001
-209.465	-121.531	0.128	0.021
-208.450	196.540	-0.111	0.167
-207.436	85.939	-0.130	-0.142
-206.421	610.294	-0.055	-0.137
-205.406	-156.183	0.345	-0.022
-204.392	143.565	-0.138	0.182
-203.377	35.557	0.140	-0.122
-202.363	-200.000	-0.001	0.118
-201.348	-4.397	-0.198	0.136
-200.333	-18.438	-0.202	0.125
-199.319	-144.946	0.126	0.011
-198.304	27.102	-0.090	0.075
-197.290	-30.975	-0.131	-0.074
-196.275	-200.000	0.025	0.206
-195.260	800.000	0.061	-0.258
-194.246	129.244	-0.061	0.077
-193.231	-117.585	-0.090	0.016
-192.217	42.607	-0.087	-0.078
-191.202	457.170	0.091	0.200
-190.187	20.617	0.151	-0.121
-189.173	154.407	-0.087	-0.118
-188.158	-46.905	0.343	0.166
-187.144	-151.743	-0.421	-0.031
-186.129	-20.547	0.317	-0.193
-185.114	-200.000	0.001	-0.027
-184.100	-87.832	0.051	-0.015
-183.085	222.495	0.135	-0.216
-182.071	266.244	-0.066	0.114
-181.056	800.000	-0.064	0.201
-180.042	-26.728	-0.176	-0.102
-179.027	1.405	0.342	0.243
-178.012	-141.641	0.274	-0.027
-176.998	-182.693	-0.405	-0.007
-175.983	-68.238	-0.154	0.059
-174.969	-174.601	0.064	-0.002
-173.954	-27.092	0.129	-0.075
-172.939	-159.338	0.299	0.017
-171.925	15.260	0.174	-0.136
-170.910	68.659	0.166	-0.169
-169.896	15.482	0.495	0.385
-168.881	-200.000	0.038	0.290
-167.866	-131.469	-0.197	0.026
-166.852	800.000	-0.080	0.252
-165.837	-77.458	-0.251	0.086
-164.823	-139.146	0.465	-0.050
-163.808	-48.208	-0.116	0.056
-162.793	673.036	0.065	0.168
-161.779	-112.852	0.357	0.070
-160.764	46.193	0.225	0.206
-159.750	184.567	-0.156	0.228
-158.735	800.000	0.048	0.187
-157.720	147.209	0.257	0.342
-156.706	92.473	-0.039	0.044
-155.691	221.206	0.195	-0.310
-154.677	-122.152	-0.175	0.028
-153.662	376.381	0.031	0.064
-152.647	-97.919	0.261	-0.067
-151.633	-54.369	-0.202	-0.091
-150.618	419.601	-0.165	-0.350
-149.604	-120.915	0.134	0.022
-148.589	-56.909	0.210	-0.092
-147.574	-171.844	-0.398	0.013
-146.560	800.000	0.092	-0.394
-145.545	-87.980	-0.227	-0.068
-144.531	-200.000	0.013	0.092
-143.516	-53.580	0.106	0.048
-142.502	-5.797	-0.130	0.088
-141.487	-95.216	0.211	-0.056
-140.472	-54.263	-0.157	0.071
-139.458	50.895	-0.348	-0.327
-138.443	583.221	0.098	-0.238
-137.429	97.079	0.152	0.173
-136.414	18.352	0.152	-0.120
-135.399	600.743	0.063	0.156
-134.385	428.132	0.064	-0.136
-133.370	-131.074	-0.044	-0.006
-132.356	189.914	-0.191	0.284
-131.341	-200.000	0.026	0.194
-130.326	-26.991	-0.298	-0.172
-129.312	-110.637	-0.188	0.038
-128.297	-85.167	-0.262	0.081
-127.283	59.635	-0.159	-0.155
-126.268	26.310	0.116	-0.096
-125.253	-200.000	0.026	0.313
-124.239	111.550	-0.196	0.234
-123.224	508.147	0.086	-0.197
-122.210	94.313	-0.129	-0.145
