DTS Sentinel unit serial number:	SN413079Multiplexer serial number:	ORYXHardware model number:	OX4-SRSoftware version number:	ORYX F/W v4.00 Oryx Data Collector v3.7.2.0data status	okinstallation	princeton_trtdifferential loss correction	single-endedforward channel	channel 4reverse channel	N/Adate	2019/09/11time	00:19:11forward acquisition time	60.00reverse acquisition time	0.00gamma	496.2192k internal	0.2318k external	0.2318temperature offset calibration	0.9949default loss term (dB/km)	0.3790temperature slope calibration	1.0000multiplexer offset coefficient	1.0000multiplexer slope coefficient	1.0000fibre end	0.00T internal ref (°C)	29.31T ext. ref 1 (°C)	-0.31T ext. ref 2 (°C)	22.78length (m)	temperature (°C)	Stokes	anti-Stokes-747.200	-88.329	0.184	0.056
-746.185	74.271	-0.145	-0.154
-745.171	-63.442	-0.124	0.052
-744.156	187.972	0.104	0.157
-743.142	-158.636	-0.253	-0.015
-742.127	-15.534	0.047	0.031
-741.112	-200.000	0.006	-0.058
-740.098	-74.127	-0.176	-0.065
-739.083	-157.883	-0.363	0.022
-738.069	-200.000	0.045	0.250
-737.054	-131.384	0.108	-0.014
-736.039	95.636	-0.036	-0.042
-735.025	40.921	-0.049	-0.044
-734.010	-200.000	0.002	0.297
-732.996	-57.713	-0.177	0.078
-731.981	416.967	0.054	-0.116
-730.966	175.734	-0.060	0.088
-729.952	-121.701	0.276	-0.046
-728.937	-180.962	-0.438	-0.009
-727.923	-200.000	-0.012	0.166
-726.908	-75.653	0.062	-0.022
-725.894	800.000	0.019	0.072
-724.879	350.688	-0.161	0.323
-723.864	222.479	-0.103	0.168
-722.850	-164.694	0.416	-0.019
-721.835	48.419	0.102	-0.097
-720.821	12.650	-0.237	-0.185
-719.806	-200.000	-0.011	-0.237
-718.791	149.217	0.101	0.138
-717.777	-48.129	-0.328	0.160
-716.762	79.196	0.247	-0.267
-715.748	434.103	-0.093	-0.205
-714.733	-147.814	0.135	0.011
-713.718	505.193	0.167	-0.390
-712.704	-168.643	-0.208	0.008
-711.689	-114.206	0.106	0.021
-710.675	-200.000	-0.026	-0.123
-709.660	789.032	-0.055	-0.152
-708.645	508.533	0.111	0.261
-707.631	-155.821	0.119	0.008
-706.616	-178.048	-0.218	-0.005
-705.602	11.231	-0.070	0.054
-704.587	8.302	-0.308	0.234
-703.572	-200.000	-0.020	-0.108
-702.558	-76.363	0.370	-0.132
-701.543	800.000	-0.058	0.222
-700.529	482.196	0.086	-0.196
-699.514	-107.612	-0.307	-0.068
-698.499	102.234	0.172	-0.204
-697.485	754.808	0.124	-0.340
-696.470	-95.729	-0.023	-0.006
-695.456	181.181	0.132	-0.197
-694.441	297.562	0.236	-0.439
-693.426	77.845	0.132	-0.143
-692.412	800.000	-0.013	-0.052
-691.397	-143.410	-0.393	-0.038
-690.383	653.550	-0.086	0.223
-689.368	277.106	-0.065	-0.117
-688.354	40.894	-0.052	0.047
-687.339	2.031	-0.191	0.139
-686.324	261.263	-0.041	-0.072
-685.310	-32.491	0.155	0.087
-684.295	603.867	-0.099	-0.250
-683.281	-131.540	-0.190	0.025
-682.266	-129.032	0.469	-0.066
-681.251	83.906	-0.147	0.162
-680.237	-69.870	0.346	0.133
-679.222	623.383	0.101	-0.256
-678.208	-163.947	0.179	0.008
-677.193	-200.000	-0.301	-0.000
-676.178	-178.890	0.238	0.005
-675.164	459.059	-0.079	0.178
-674.149	104.659	0.070	0.083
-673.135	96.399	-0.224	0.259
-672.120	-7.096	0.280	0.192
-671.105	-175.032	-0.143	-0.004
-670.091	24.689	-0.055	0.046
-669.076	235.758	-0.122	0.203
-668.062	800.000	0.046	-0.162
-667.047	306.362	0.128	0.241
-666.032	188.694	-0.123	-0.186
-665.018	440.915	-0.169	0.374
-664.003	-200.000	-0.007	0.356
-662.989	538.834	0.128	-0.308
-661.974	544.839	-0.077	-0.185
-660.959	-25.731	-0.144	0.086
-659.945	-200.000	0.009	-0.226
-658.930	730.323	-0.097	-0.263
-657.916	705.414	0.033	-0.087
-656.901	-113.619	0.051	-0.010
-655.886	370.186	0.044	0.091
-654.872	-200.000	0.009	-0.146
-653.857	-13.281	0.112	-0.073
-652.843	-200.000	-0.062	-0.310
-651.828	128.337	-0.078	-0.100
-650.814	312.276	0.053	-0.100
-649.799	-187.297	0.193	0.003
-648.784	-97.934	0.202	-0.053
-647.770	-200.000	0.033	-0.268
-646.755	-9.863	-0.360	-0.242
-645.741	800.000	0.036	0.102
-644.726	-67.185	-0.523	0.208
-643.711	-69.713	-0.207	-0.080
-642.697	-200.000	-0.039	0.210
-641.682	-77.860	-0.111	-0.039
-640.668	16.977	-0.322	-0.257
-639.653	-4.739	-0.059	-0.041
-638.638	-200.000	0.009	0.064
-637.624	800.000	0.068	-0.248
-636.609	123.466	-0.101	0.127
-635.595	-60.772	-0.183	-0.078
-634.580	118.749	-0.163	-0.203
-633.565	37.426	-0.333	0.297
-632.551	-200.000	-0.003	0.185
-631.536	800.000	0.049	-0.199
-630.522	93.747	0.071	-0.081
-629.507	-61.067	-0.071	0.030
-628.492	61.804	0.060	-0.061
-627.478	504.789	-0.029	0.068
-626.463	55.325	0.336	-0.327
-625.449	-137.395	0.178	0.020
-624.434	55.556	-0.159	-0.155
-623.419	-200.000	-0.025	0.280
-622.405	800.000	0.108	-0.450
-621.390	-20.591	0.223	-0.138
-620.376	-200.000	0.040	-0.331
-619.361	-29.736	-0.291	0.167
-618.346	-137.034	0.378	-0.044
-617.332	-57.517	-0.264	-0.117
-616.317	-54.142	-0.271	-0.124
-615.303	-10.883	-0.071	0.047
-614.288	473.235	0.031	-0.071
-613.273	156.153	-0.211	-0.293
-612.259	433.861	0.056	-0.123
-611.244	162.056	-0.098	-0.138
-610.230	12.212	-0.202	0.157
-609.215	-143.237	0.177	0.017
-608.201	-200.000	-0.051	-0.353
-607.186	287.672	0.070	0.128
-606.171	64.456	0.148	-0.151
-605.157	800.000	-0.034	0.120
-604.142	5.228	-0.186	0.138
-603.128	194.346	0.062	0.094
-602.113	-155.979	0.100	0.006
-601.098	102.948	0.251	0.296
-600.084	-200.000	0.013	-0.114
-599.069	-200.000	0.001	0.029
-598.055	-200.000	0.013	-0.177
-597.040	-200.000	-0.019	-0.123
-596.025	-10.150	-0.362	0.242
-595.011	119.285	0.089	0.110
-593.996	-82.176	0.105	-0.035
-592.982	337.528	-0.107	0.209
-591.967	-147.684	-0.381	-0.032
-590.952	89.474	0.093	0.104
-589.938	326.442	-0.050	0.097
-588.923	80.655	-0.111	0.120
-587.909	391.633	0.051	-0.106
-586.894	180.643	0.088	-0.130
-585.879	174.462	-0.083	-0.121
-584.865	10.820	0.207	-0.159
-583.850	40.697	0.211	0.192
-582.836	-10.151	-0.193	0.129
-581.821	133.618	0.131	-0.171
-580.806	755.106	-0.100	-0.272
-579.792	-107.658	0.160	0.035
-578.777	242.483	-0.103	-0.173
-577.763	-60.316	0.158	0.067
-576.748	351.408	0.055	-0.110
-575.733	-200.000	-0.027	0.155
-574.719	-9.222	-0.424	-0.285
-573.704	-200.000	0.021	0.096
-572.690	366.247	0.149	-0.302
-571.675	614.594	-0.057	-0.143
-570.661	-200.000	0.081	0.466
-569.646	147.613	-0.118	0.159
-568.631	-161.618	0.086	0.004
-567.617	38.790	-0.126	-0.113
-566.602	-63.027	0.196	-0.081
-565.588	-187.465	0.340	0.005
-564.573	-31.594	0.525	-0.296
-563.558	-1.138	-0.286	-0.203
-562.544	-191.386	0.236	-0.002
-561.529	-24.850	-0.336	-0.200
-560.515	-200.000	-0.078	0.368
-559.500	-60.209	0.085	-0.036
-558.485	693.119	-0.050	-0.132
-557.471	73.822	-0.130	-0.137
-556.456	-117.274	-0.319	-0.058
-555.442	119.195	0.041	-0.050
-554.427	800.000	-0.092	-0.293
-553.412	800.000	-0.105	0.381
-552.398	77.665	-0.166	0.177
-551.383	-152.309	0.329	-0.024
-550.369	800.000	-0.088	0.285
-549.354	-200.000	0.042	-0.396
-548.339	759.695	-0.019	-0.052
-547.325	-200.000	-0.033	-0.304
-546.310	40.000	-0.272	-0.246
-545.296	-129.347	-0.548	0.076
-544.281	-25.628	-0.146	-0.087
-543.266	-156.489	-0.377	0.024
-542.252	-62.049	-0.105	0.044
-541.237	-128.093	-0.164	-0.024
-540.223	94.420	0.172	-0.196
-539.208	41.016	0.166	0.151
-538.193	219.651	-0.179	-0.287
-537.179	514.868	-0.123	-0.289
-536.164	-200.000	0.043	-0.301
-535.150	-151.946	-0.368	0.027
-534.135	244.344	0.127	-0.214
-533.121	-200.000	-0.027	-0.345
-532.106	-38.145	0.316	-0.168
-531.091	800.000	-0.123	-0.408
-530.077	-22.255	-0.072	0.044
-529.062	334.150	-0.159	-0.309
-528.048	-89.404	0.300	0.088
-527.033	343.789	-0.186	0.365
-526.018	-62.089	-0.084	-0.035
-525.004	322.121	0.158	-0.301
-523.989	-147.569	0.112	0.009
-522.975	-117.853	0.281	0.051
-521.960	-86.365	-0.261	-0.081
-520.945	-118.516	-0.674	-0.120
-519.931	800.000	-0.116	0.369
-518.916	-92.804	0.200	0.056
-517.902	102.406	0.102	0.119
-516.887	-200.000	0.009	0.159
-515.872	-123.716	-0.539	-0.086
-514.858	-20.576	-0.201	-0.124
-513.843	-158.420	0.094	0.005
-512.829	-112.135	-0.094	-0.019
-511.814	-200.000	-0.014	0.515
-510.799	420.369	0.055	0.119
-509.785	-89.075	-0.323	0.096
-508.770	117.880	0.060	-0.074
-507.756	139.265	-0.091	-0.120
-506.741	-200.000	-0.014	-0.104
-505.726	-26.491	-0.269	-0.158
-504.712	-48.690	-0.156	0.075
-503.697	467.224	-0.093	0.209
-502.683	-29.638	0.363	-0.208
-501.668	-200.000	-0.003	-0.132
-500.653	800.000	0.059	-0.256
-499.639	408.866	-0.116	-0.247
-498.624	-29.467	0.162	-0.093
-497.610	128.060	-0.155	-0.198
-496.595	264.436	-0.142	0.248
-495.581	273.043	0.219	-0.387
-494.566	-84.772	-0.189	-0.059
-493.551	-99.429	-0.142	-0.036
-492.537	136.959	-0.050	-0.066
-491.522	-38.487	-0.093	-0.050
-490.508	800.000	0.057	-0.218
-489.493	331.168	0.048	0.092
-488.478	75.436	0.163	0.172
-487.464	800.000	0.067	0.276
-486.449	-33.726	0.159	-0.088
-485.435	-139.319	-0.216	0.023
-484.420	520.214	0.060	-0.141
-483.405	-131.921	0.226	-0.030
-482.391	-44.564	-0.170	-0.085
-481.376	-7.055	0.232	-0.158
-480.362	203.534	-0.218	-0.338
-479.347	108.312	-0.087	0.104
-478.332	137.839	0.220	0.289
-477.318	-2.826	0.135	-0.094
-476.303	-23.146	-0.161	-0.097
-475.289	-193.385	0.149	0.001
-474.274	398.771	0.076	0.159
-473.259	117.770	0.030	-0.038
-472.245	-19.168	0.080	0.050
-471.230	-56.624	0.104	0.046
-470.216	94.823	-0.187	0.213
-469.201	-98.825	-0.289	0.073
-468.186	-200.000	0.029	-0.256
-467.172	-200.000	-0.013	-0.193
-466.157	-143.068	0.342	0.033
-465.143	72.933	0.090	-0.094
-464.128	-113.458	-0.131	0.026
-463.113	-200.000	-0.021	-0.209
-462.099	-200.000	-0.052	0.337
-461.084	800.000	-0.085	0.322
-460.070	299.551	0.093	0.171
-459.055	-200.000	0.035	0.209
-458.040	800.000	0.035	-0.106
-457.026	800.000	-0.036	0.111
-456.011	-140.168	0.089	0.009
-454.997	38.052	-0.059	0.053
-453.982	-13.483	0.134	0.087
-452.968	-142.692	-0.025	0.002
-451.953	-80.810	-0.078	0.026
-450.938	-43.305	0.206	0.104
-449.924	733.171	0.043	0.115
-448.909	-200.000	-0.001	-0.151
-447.895	301.514	0.105	0.194
-446.880	-67.537	-0.111	0.044
-445.865	-1.023	-0.195	-0.138
-444.851	-200.000	0.004	0.155
-443.836	-113.447	0.280	0.055
-442.822	-200.000	-0.021	0.236
-441.807	65.433	-0.094	-0.095
-440.792	-47.550	-0.336	-0.163
-439.778	-96.823	0.195	0.051
-438.763	168.141	-0.080	0.114
-437.749	-200.000	-0.032	0.399
-436.734	-178.767	-0.369	0.008
-435.719	-39.363	-0.132	-0.069
-434.705	-200.000	0.053	-0.267
-433.690	503.179	-0.106	-0.244
-432.676	419.687	-0.121	-0.259
-431.661	66.170	-0.045	0.045
-430.646	-142.604	-0.059	-0.006
-429.632	-135.363	-0.035	0.004
-428.617	-96.052	-0.288	-0.077
-427.603	-200.000	0.003	-0.020
-426.588	800.000	0.036	0.133
-425.573	46.498	0.198	0.183
-424.559	-112.952	-0.277	-0.055
-423.544	-200.000	0.004	0.224
-422.530	545.038	-0.059	0.142
-421.515	-170.851	0.429	-0.015
-420.500	303.414	0.268	-0.496
-419.486	-200.000	0.022	0.105
-418.471	86.867	0.057	-0.063
-417.457	800.000	-0.085	0.253
-416.442	-72.561	-0.238	0.088
-415.428	-20.241	0.154	-0.095
-414.413	-60.578	0.246	0.104
-413.398	-47.239	0.255	-0.124
-412.384	-84.067	-0.276	0.088
-411.369	-171.518	-0.161	-0.005
-410.355	-40.123	0.405	-0.211
-409.340	-200.000	-0.022	-0.210
-408.325	613.287	-0.109	-0.273
-407.311	-200.000	-0.016	-0.157
-406.296	139.899	0.052	-0.068
-405.282	58.362	0.078	0.077
-404.267	448.164	0.080	0.177
-403.252	800.000	-0.049	-0.181
-402.238	177.705	-0.229	-0.333
-401.223	62.100	0.131	-0.130
-400.209	-146.861	-0.127	0.011
-399.194	300.201	0.047	-0.086
-398.179	437.671	0.164	0.358
-397.165	57.060	0.189	0.184
-396.150	101.605	-0.147	-0.171
-395.136	756.064	-0.018	-0.048
-394.121	58.374	0.151	-0.148
-393.106	-200.000	-0.003	0.186
-392.092	401.116	0.109	0.228
-391.077	88.967	0.231	0.257
-390.063	252.282	-0.068	-0.116
-389.048	571.507	-0.008	-0.020
-388.033	-71.581	0.156	0.058
-387.019	196.784	-0.111	-0.169
-386.004	800.000	0.127	-0.477
-384.990	108.777	-0.047	0.056
-383.975	44.526	0.047	0.044
-382.960	-39.426	0.203	-0.106
-381.946	722.144	0.065	-0.173
-380.931	662.385	-0.108	0.279
-379.917	-31.617	0.159	-0.089
-378.902	-200.000	0.009	-0.265
-377.888	-37.053	0.086	-0.046
-376.873	-76.218	0.167	-0.059
-375.858	-88.125	-0.180	0.054
-374.844	-66.994	0.314	-0.124
-373.829	-67.817	0.227	-0.089
-372.815	-86.169	0.045	-0.014
-371.800	412.387	-0.208	0.441
-370.785	-33.162	0.187	-0.104
-369.771	800.000	-0.100	-0.294
-368.756	-88.123	0.195	0.058
-367.742	-200.000	-0.008	-0.295
-366.727	-132.242	0.367	-0.047
-365.712	-121.961	-0.239	0.039
-364.698	800.000	-0.023	0.090
-363.683	-169.946	0.242	-0.009
-362.669	-155.655	-0.155	-0.010
-361.654	-200.000	-0.010	0.107
-360.639	36.592	-0.076	0.067
-359.625	-99.198	-0.240	-0.060
-358.610	-200.000	0.044	0.452
-357.596	800.000	0.101	0.322
-356.581	-200.000	0.027	0.387
-355.566	56.654	-0.149	0.144
-354.552	147.949	0.162	0.218
-353.537	-200.000	0.021	0.131
-352.523	559.502	0.091	-0.220
-351.508	800.000	-0.111	0.339
-350.493	-148.818	0.289	-0.023
-349.479	800.000	0.051	-0.201
-348.464	52.911	0.107	-0.102
-347.450	-95.192	-0.196	0.053
-346.435	-137.263	-0.230	-0.026
-345.420	-200.000	0.003	0.044
-344.406	-28.633	0.315	-0.181
-343.391	146.987	0.068	-0.090
-342.377	543.505	-0.066	-0.158
-341.362	800.000	-0.105	0.406
-340.348	-30.787	0.171	0.096
-339.333	82.923	-0.304	0.330
-338.318	129.172	-0.120	0.152
-337.304	-178.456	-0.172	0.004
-336.289	-18.926	0.234	-0.145
-335.275	11.349	-0.152	-0.116
-334.260	-200.000	0.006	-0.377
-333.245	-111.214	-0.209	-0.043
-332.231	619.745	-0.095	-0.238
-331.216	131.779	0.062	0.079
-330.202	310.430	0.127	0.238
-329.187	250.183	-0.085	0.143
-328.172	-94.725	0.320	0.086
-327.158	73.941	-0.117	0.122
-326.143	-38.779	-0.159	-0.083
-325.129	-103.527	-0.322	0.075
-324.114	-71.992	0.085	-0.032
-323.099	50.619	-0.240	-0.226
-322.085	-32.064	-0.212	-0.118
-321.070	490.468	0.097	-0.222
-320.056	25.957	-0.289	0.240
-319.041	-200.000	-0.007	0.294
-318.026	800.000	-0.140	0.420
-317.012	88.422	0.131	0.145
-315.997	333.682	0.148	0.284
-314.983	78.080	0.132	-0.140
-313.968	95.706	-0.119	-0.135
-312.953	-144.397	-0.070	0.006
-311.939	224.347	0.061	0.099
-310.924	-126.686	-0.201	-0.030
-309.910	-8.032	0.226	0.152
-308.895	-4.777	-0.240	0.164
-307.880	685.907	0.025	0.065
-306.866	800.000	-0.112	0.402
-305.851	150.080	-0.112	0.151
-304.837	-82.388	0.104	0.034
-303.822	35.305	-0.061	0.053
-302.807	-54.143	-0.146	-0.066
-301.793	-19.691	0.297	-0.183
-300.778	175.458	0.113	0.163
-299.764	-200.000	-0.038	0.202
-298.749	-200.000	0.018	-0.079
-297.735	800.000	0.074	-0.308
-296.720	-149.151	0.131	-0.010
-295.705	-200.000	0.003	0.040
-294.691	-144.711	0.141	-0.013
-293.676	619.394	0.091	-0.228
-292.662	-150.215	0.292	0.023
-291.647	-192.480	-0.433	-0.004
-290.632	-122.024	0.170	0.028
-289.618	-200.000	0.019	-0.157
-288.603	411.187	-0.057	-0.119
-287.589	239.797	0.071	0.117
-286.574	800.000	-0.068	0.218
-285.559	-41.913	-0.054	-0.027
-284.545	-18.435	0.152	0.094
-283.530	-114.716	0.298	-0.057
-282.516	-179.333	0.235	0.005
-281.501	-31.552	-0.474	0.265
-280.486	-126.436	0.242	-0.036
-279.472	270.862	0.111	-0.194
-278.457	-5.026	0.151	0.103
-277.443	308.698	-0.035	-0.064
-276.428	292.612	-0.032	-0.057
-275.413	-200.000	-0.015	0.243
-274.399	-109.332	-0.111	-0.023
-273.384	234.547	0.027	0.045
-272.370	34.801	0.231	0.200
-271.355	-200.000	0.021	-0.182
-270.340	-8.572	-0.028	-0.019
-269.326	-92.339	0.172	-0.048
-268.311	-40.271	-0.175	0.090
-267.297	800.000	0.105	0.321
-266.282	493.356	-0.043	0.099
-265.267	800.000	0.058	-0.249
-264.253	2.453	-0.097	0.070
-263.238	-96.763	-0.209	-0.055
-262.224	100.262	0.100	0.115
-261.209	180.142	0.154	-0.224
-260.195	74.256	-0.076	0.079
-259.180	125.753	0.311	0.390
-258.165	121.733	-0.082	-0.101
-257.151	-142.111	-0.438	-0.043
-256.136	800.000	-0.119	-0.454
-255.122	240.712	-0.168	-0.279
-254.107	43.314	0.317	-0.288
-253.092	330.588	0.024	0.047
-252.078	-136.936	0.171	-0.019
-251.063	-54.016	-0.527	0.238
-250.049	-72.020	0.206	0.076
-249.034	262.715	0.080	0.138
-248.019	440.001	-0.032	0.069
-247.005	-26.540	-0.136	0.079
-245.990	91.469	0.053	0.059
-244.976	80.295	0.152	0.163
-243.961	-102.730	-0.155	0.037
-242.946	800.000	-0.048	0.152
-241.932	64.550	0.272	-0.272
-240.917	800.000	0.051	0.160
-239.903	-174.308	-0.262	0.008
-238.888	-200.000	0.015	0.218
-237.873	-200.000	-0.009	-0.250
-236.859	58.767	-0.268	-0.262
-235.844	255.004	0.188	0.320
-234.830	79.970	-0.323	-0.344
-233.815	41.927	0.138	-0.124
-232.800	-149.838	-0.316	0.025
-231.786	-104.682	0.201	-0.046
-230.771	-89.357	0.024	-0.007
-229.757	-98.949	0.078	0.020
-228.742	28.321	-0.128	0.107
-227.727	-200.000	0.012	0.053
-226.713	-8.304	0.025	0.017
-225.698	800.000	0.074	-0.246
-224.684	21.868	0.099	-0.080
-223.669	-14.409	0.507	-0.324
-222.655	235.330	0.080	-0.131
-221.640	-90.922	-0.228	-0.065
-220.625	664.381	0.091	0.232
-219.611	-90.290	-0.220	-0.063
-218.596	241.591	-0.183	0.303
-217.582	214.407	0.171	0.268
-216.567	-200.000	0.047	0.462
-215.552	97.128	-0.103	-0.117
-214.538	23.735	0.239	0.195
-213.523	45.137	-0.099	0.091
-212.509	-200.000	-0.009	-0.298
-211.494	-16.890	0.186	0.116
-210.479	160.381	0.141	-0.195
-209.465	-185.037	0.274	0.004
-208.450	686.737	0.105	-0.273
-207.436	167.326	0.113	0.159
-206.421	12.463	-0.069	-0.052
-205.406	-200.000	-0.012	0.104
-204.392	-59.424	0.096	0.041
-203.377	-133.645	0.213	0.026
-202.363	393.662	0.086	0.178
-201.348	-101.977	-0.136	-0.032
-200.333	-84.394	-0.278	0.087
-199.319	-48.352	0.359	0.171
-198.304	158.777	-0.189	0.261
-197.290	250.213	-0.085	-0.143
-196.275	4.724	0.258	-0.188
-195.260	-124.204	-0.122	0.019
-194.246	-47.284	0.214	0.103
-193.231	-200.000	-0.014	-0.144
-192.217	441.967	-0.068	-0.148
-191.202	-113.742	0.197	0.038
-190.187	-143.092	-0.403	0.039
-189.173	-93.226	0.191	0.052
-188.158	-152.791	0.095	-0.007
-187.144	-29.061	0.239	0.136
-186.129	-108.274	-0.249	0.053
-185.114	74.527	0.122	-0.127
-184.100	-131.402	0.097	-0.013
-183.085	85.552	0.073	0.080
-182.071	-130.148	-0.170	0.023
-181.056	54.071	0.227	-0.216
-180.042	-147.806	0.136	0.011
-179.027	-89.752	0.253	-0.073
-178.012	10.317	0.420	0.316
-176.998	464.790	-0.085	0.188
-175.983	40.554	0.168	0.150
-174.969	56.507	-0.159	0.153
-173.954	-200.000	0.015	0.287
-172.939	-132.375	0.276	0.035
-171.925	103.996	-0.084	-0.098
-170.910	4.110	0.372	-0.269
-169.896	800.000	-0.014	-0.060
-168.881	529.207	0.098	0.229
-167.866	-200.000	-0.039	0.201
-166.852	404.033	0.133	0.277
-165.837	-183.857	-0.036	-0.001
-164.823	-122.778	-0.165	0.026
-163.808	90.110	0.178	0.197
-162.793	324.016	-0.119	0.225
-161.779	-68.114	0.156	-0.060
-160.764	32.757	-0.222	-0.190
-159.750	506.250	0.144	0.331
-158.735	-139.856	0.447	0.047
-157.720	527.684	-0.008	-0.019
-156.706	259.868	0.075	0.128
-155.691	-63.156	0.290	0.118
-154.677	-200.000	0.024	0.293
-153.662	800.000	-0.114	0.357
-152.647	-200.000	0.023	0.144
-151.633	-57.961	-0.213	0.092
-150.618	658.549	0.109	-0.278
-149.604	-64.669	0.159	0.064
-148.589	-60.694	-0.143	-0.060
-147.574	-200.000	-0.055	-0.291
-146.560	155.898	-0.128	0.175
-145.545	59.805	-0.046	0.045
-144.531	800.000	-0.055	0.158
-143.516	-200.000	0.049	0.400
-142.502	-200.000	-0.002	0.159
-141.487	84.863	-0.301	-0.326
-140.472	-154.400	0.282	-0.019
-139.458	5.738	-0.201	0.147
-138.443	18.406	-0.074	0.058
-137.429	-9.334	0.120	0.079
-136.414	-200.000	0.088	0.460
-135.399	25.066	-0.034	-0.028
-134.385	-60.697	0.197	0.083
-133.370	45.681	0.027	0.025
-132.356	-161.909	0.313	0.016
-131.341	736.429	-0.102	0.269
-130.326	-157.665	0.114	-0.007
-129.312	-127.936	0.242	0.034
-128.297	104.811	-0.198	0.231
-127.283	151.675	-0.139	0.186
-126.268	-52.106	-0.153	-0.070
-125.253	-187.114	0.043	0.001
-124.239	-200.000	-0.008	0.070
-123.224	-6.444	-0.254	0.171
-122.210	800.000	0.067	-0.273
-121.195	-72.555	-0.213	0.078
