DTS Sentinel unit serial number:	SN413079Multiplexer serial number:	ORYXHardware model number:	OX4-SRSoftware version number:	ORYX F/W v4.00 Oryx Data Collector v3.7.2.0data status	okinstallation	princeton_trtdifferential loss correction	single-endedforward channel	channel 4reverse channel	N/Adate	2019/09/10time	23:39:10forward acquisition time	60.00reverse acquisition time	0.00gamma	496.2192k internal	0.2317k external	0.2317temperature offset calibration	0.9947default loss term (dB/km)	0.3790temperature slope calibration	1.0000multiplexer offset coefficient	1.0000multiplexer slope coefficient	1.0000fibre end	0.00T internal ref (°C)	29.62T ext. ref 1 (°C)	-0.33T ext. ref 2 (°C)	22.97length (m)	temperature (°C)	Stokes	anti-Stokes-747.200	2.038	-0.342	0.250
-746.185	112.828	0.190	-0.233
-745.171	0.548	0.109	-0.079
-744.156	-15.999	-0.129	-0.083
-743.142	-200.000	0.046	-0.263
-742.127	-200.000	0.056	-0.384
-741.112	485.764	-0.088	-0.203
-740.098	159.223	-0.139	0.195
-739.083	136.130	0.080	0.106
-738.069	800.000	0.025	-0.072
-737.054	-6.718	-0.285	0.196
-736.039	-200.000	-0.008	-0.122
-735.025	-90.301	0.187	0.055
-734.010	-52.117	-0.233	0.110
-732.996	-200.000	0.012	0.059
-731.981	-200.000	-0.038	-0.199
-730.966	-97.847	0.074	0.019
-729.952	800.000	-0.049	-0.212
-728.937	-69.154	0.140	-0.055
-727.923	-42.901	-0.337	-0.173
-726.908	800.000	-0.064	-0.263
-725.894	74.829	-0.109	0.116
-724.879	-52.873	-0.489	-0.228
-723.864	800.000	-0.034	-0.131
-722.850	800.000	-0.163	-0.583
-721.835	376.154	0.258	-0.532
-720.821	-113.835	-0.300	-0.059
-719.806	179.142	-0.097	0.144
-718.791	390.877	-0.084	-0.176
-717.777	-95.388	-0.243	-0.066
-716.762	800.000	-0.054	-0.219
-715.748	-200.000	-0.278	0.000
-714.733	-200.000	-0.004	0.183
-713.718	-166.110	-0.053	-0.002
-712.704	-200.000	0.025	-0.242
-711.689	-126.561	0.252	0.038
-710.675	-200.000	0.059	0.317
-709.660	-200.000	-0.019	0.155
-708.645	-200.000	0.026	-0.224
-707.631	3.905	0.090	-0.066
-706.616	-77.296	0.216	0.076
-705.602	-14.792	-0.328	0.213
-704.587	800.000	-0.116	-0.394
-703.572	-113.666	0.350	-0.069
-702.558	-24.971	0.455	0.273
-701.543	188.365	0.154	-0.233
-700.529	52.448	0.094	-0.091
-699.514	-200.000	0.064	-0.413
-698.499	-161.744	0.156	-0.008
-697.485	-15.251	0.096	-0.062
-696.470	-88.101	0.259	0.078
-695.456	-200.000	-0.005	-0.184
-694.441	800.000	0.119	-0.341
-693.426	-73.453	0.305	-0.113
-692.412	-20.789	-0.241	-0.149
-691.397	800.000	0.018	0.069
-690.383	-14.477	0.127	-0.083
-689.368	-200.000	-0.016	-0.097
-688.354	-155.288	-0.239	-0.016
-687.339	800.000	-0.113	0.401
-686.324	-200.000	-0.010	0.390
-685.310	261.436	-0.160	0.280
-684.295	-38.506	-0.196	0.105
-683.281	800.000	-0.074	-0.269
-682.266	-117.935	-0.144	-0.026
-681.251	-98.465	0.060	-0.016
-680.237	-79.763	0.380	-0.129
-679.222	136.555	-0.172	-0.227
-678.208	800.000	0.009	0.034
-677.193	-200.000	-0.028	-0.233
-676.178	6.020	0.118	0.088
-675.164	518.088	0.062	-0.147
-674.149	-99.825	0.237	0.060
-673.135	800.000	-0.042	-0.158
-672.120	-4.817	0.100	-0.069
-671.105	2.715	-0.154	-0.113
-670.091	-200.000	-0.025	-0.229
-669.076	219.460	-0.164	-0.265
-668.062	-102.213	0.335	0.081
-667.047	260.184	-0.182	-0.317
-666.032	-200.000	-0.014	0.215
-665.018	-154.412	-0.289	-0.020
-664.003	-200.000	-0.026	0.159
-662.989	134.182	0.089	-0.116
-661.974	231.732	0.136	-0.225
-660.959	-68.948	0.213	0.083
-659.945	-84.671	-0.204	0.065
-658.930	191.712	0.164	-0.250
-657.916	6.737	0.267	0.201
-656.901	473.824	-0.132	0.300
-655.886	18.881	0.196	0.159
-654.872	-73.500	-0.351	0.129
-653.857	800.000	0.068	0.268
-652.843	141.375	-0.081	0.109
-651.828	-52.424	0.284	-0.133
-650.814	-200.000	0.018	0.339
-649.799	-200.000	-0.037	-0.169
-648.784	-53.663	-0.237	-0.109
-647.770	-115.135	0.307	-0.059
-646.755	616.503	-0.068	-0.173
-645.741	-200.000	-0.032	-0.211
-644.726	-62.275	-0.122	-0.051
-643.711	169.414	-0.110	0.158
-642.697	194.984	-0.080	-0.122
-641.682	113.546	-0.123	0.151
-640.668	16.814	0.158	-0.126
-639.653	-87.261	-0.127	0.039
-638.638	-65.682	0.242	-0.098
-637.624	42.323	0.104	-0.095
-636.609	-22.502	-0.104	0.064
-635.595	516.558	0.019	0.045
-634.580	-23.444	0.023	-0.014
-633.565	241.242	0.170	0.286
-632.551	-119.241	0.050	0.009
-631.536	-133.731	-0.342	0.043
-630.522	-200.000	0.034	-0.450
-629.507	-95.306	-0.038	0.010
-628.492	-0.859	-0.069	0.049
-627.478	-75.882	0.188	-0.067
-626.463	46.918	0.279	0.261
-625.449	111.658	-0.077	-0.093
-624.434	-96.114	-0.072	-0.019
-623.419	800.000	-0.007	-0.027
-622.405	-190.665	0.162	0.002
-621.390	-15.152	-0.123	-0.079
-620.376	-139.250	-0.060	-0.007
-619.361	-68.897	-0.268	-0.104
-618.346	34.680	-0.221	-0.194
-617.332	18.260	-0.156	0.126
-616.317	-102.060	-0.313	-0.076
-615.303	98.328	-0.069	-0.080
-614.288	319.896	-0.086	-0.165
-613.273	-111.339	-0.235	-0.048
-612.259	-52.396	0.094	-0.044
-611.244	-41.106	-0.200	0.104
-610.230	-200.000	0.043	-0.344
-609.215	-68.953	-0.110	0.043
-608.201	243.430	-0.201	0.339
-607.186	491.575	-0.113	-0.261
-606.171	750.053	-0.064	-0.173
-605.157	-84.321	0.074	-0.024
-604.142	-200.000	-0.001	-0.062
-603.128	-135.522	-0.197	-0.024
-602.113	-42.568	0.226	-0.116
-601.098	-11.717	0.085	0.056
-600.084	-140.761	0.241	-0.025
-599.069	-200.000	0.014	0.146
-598.055	-127.429	0.218	0.032
-597.040	-53.592	-0.162	0.075
-596.025	93.496	-0.153	0.174
-595.011	133.303	0.177	0.230
-593.996	-200.000	0.020	0.385
-592.982	-144.943	-0.514	0.047
-591.967	-200.000	0.042	0.471
-590.952	103.733	-0.359	-0.424
-589.938	69.536	0.083	0.086
-588.923	-119.838	-0.230	0.040
-587.909	75.894	0.099	-0.106
-586.894	-29.153	0.092	-0.053
-585.879	301.538	0.048	-0.089
-584.865	800.000	-0.085	0.321
-583.850	57.525	-0.180	-0.177
-582.836	-68.594	0.054	0.021
-581.821	-12.086	0.100	-0.066
-580.806	-105.472	-0.278	-0.064
-579.792	89.051	-0.321	0.359
-578.777	-97.743	-0.146	0.038
-577.763	357.968	0.059	0.119
-576.748	-200.000	0.002	-0.295
-575.733	338.166	-0.100	0.195
-574.719	461.636	-0.144	0.322
-573.704	-120.373	-0.243	-0.042
-572.690	152.762	-0.029	0.040
-571.675	17.075	0.297	-0.237
-570.661	107.629	0.209	-0.250
-569.646	233.718	0.161	-0.267
-568.631	392.847	0.014	0.030
-567.617	14.314	0.161	0.126
-566.602	265.064	0.186	0.326
-565.588	-77.258	0.045	0.016
-564.573	-11.360	0.400	-0.265
-563.558	-128.878	0.472	0.067
-562.544	-200.000	-0.025	0.133
-561.529	12.580	0.212	0.164
-560.515	-18.045	0.220	0.139
-559.500	800.000	0.008	0.023
-558.485	184.150	-0.161	0.240
-557.471	-165.266	0.461	0.020
-556.456	-44.268	0.177	0.089
-555.442	571.655	-0.054	-0.132
-554.427	71.702	0.125	-0.131
-553.412	-147.967	0.122	0.010
-552.398	-29.178	-0.069	-0.040
-551.383	800.000	0.126	-0.405
-550.369	800.000	0.046	0.200
-549.354	94.912	-0.103	-0.118
-548.339	-85.253	-0.186	0.058
-547.325	375.779	0.061	0.124
-546.310	-29.773	0.208	-0.119
-545.296	-200.000	0.058	-0.327
-544.281	-200.000	-0.005	-0.241
-543.266	19.817	-0.145	0.118
-542.252	-99.272	0.185	-0.047
-541.237	-121.460	0.137	0.023
-540.223	-2.462	-0.203	0.143
-539.208	229.772	0.176	0.289
-538.193	-200.000	0.023	0.114
-537.179	-74.032	-0.250	-0.091
-536.164	-145.139	0.192	-0.018
-535.150	382.507	0.091	-0.188
-534.135	-200.000	0.041	-0.373
-533.121	-162.833	0.328	-0.016
-532.106	-200.000	-0.023	0.380
-531.091	-200.000	0.023	0.194
-530.077	-53.270	0.405	-0.186
-529.062	-67.153	-0.270	-0.107
-528.048	800.000	0.038	-0.154
-527.033	800.000	-0.083	-0.288
-526.018	-200.000	-0.039	-0.229
-525.004	160.166	-0.179	-0.251
-523.989	-200.000	-0.004	-0.047
-522.975	-25.518	0.295	0.175
-521.960	-200.000	0.049	0.239
-520.945	-25.005	0.344	-0.205
-519.931	65.650	0.128	0.130
-518.916	-200.000	-0.015	-0.132
-517.902	139.300	-0.097	-0.129
-516.887	-200.000	0.012	0.075
-515.872	-42.177	0.153	-0.078
-514.858	120.659	-0.229	-0.285
-513.843	-92.925	-0.186	-0.052
-512.829	-140.347	-0.425	0.045
-511.814	-24.632	0.250	-0.149
-510.799	-33.921	-0.195	-0.108
-509.785	4.198	-0.093	-0.069
-508.770	127.107	-0.120	0.152
-507.756	800.000	0.097	0.321
-506.741	-122.705	-0.342	0.056
-505.726	70.494	-0.357	-0.370
-504.712	-200.000	0.301	0.001
-503.697	-131.479	-0.302	0.040
-502.683	-200.000	0.015	-0.167
-501.668	-23.310	-0.114	0.069
-500.653	-10.338	-0.070	0.047
-499.639	-53.868	-0.290	-0.132
-498.624	800.000	-0.122	-0.443
-497.610	-200.000	-0.040	-0.332
-496.595	-57.289	0.089	0.039
-495.581	-11.814	0.031	0.020
-494.566	-200.000	-0.042	-0.236
-493.551	176.377	-0.151	-0.220
-492.537	183.372	0.094	0.139
-491.522	19.572	0.189	-0.153
-490.508	-200.000	0.057	0.272
-489.493	29.162	0.088	0.075
-488.478	761.257	0.147	0.400
-487.464	-62.090	-0.137	0.057
-486.449	314.917	0.096	0.181
-485.435	-62.972	-0.517	0.214
-484.420	-24.472	0.183	0.110
-483.405	-36.010	0.138	-0.075
-482.391	304.190	0.072	-0.134
-481.376	-32.304	0.330	0.185
-480.362	-138.654	-0.423	0.046
-479.347	157.438	0.073	0.102
-478.332	75.406	-0.311	-0.329
-477.318	800.000	0.065	-0.198
-476.303	39.054	-0.075	-0.067
-475.289	-20.037	0.230	0.142
-474.274	-153.355	-0.101	0.007
-473.259	-89.303	-0.173	-0.051
-472.245	297.525	-0.063	0.115
-471.230	-84.824	0.321	0.101
-470.216	-148.533	-0.082	-0.007
-469.201	-200.000	-0.040	0.211
-468.186	-72.110	-0.114	-0.042
-467.172	-127.152	0.283	-0.042
-466.157	246.711	-0.083	0.141
-465.143	-14.012	-0.384	0.248
-464.128	800.000	-0.128	0.409
-463.113	10.529	0.248	0.189
-462.099	-111.314	-0.163	-0.033
-461.084	-43.763	-0.149	-0.075
-460.070	11.664	-0.149	0.115
-459.055	800.000	0.140	-0.420
-458.040	-200.000	-0.025	-0.142
-457.026	-137.417	-0.212	-0.024
-456.011	-200.000	-0.038	0.327
-454.997	-61.715	0.072	-0.030
-453.982	443.701	0.125	-0.274
-452.968	-73.385	-0.074	0.027
-451.953	-85.542	0.277	-0.086
-450.938	-2.325	-0.357	0.251
-449.924	-51.325	0.308	0.144
-448.909	-111.170	0.273	-0.056
-447.895	-10.121	0.075	-0.050
-446.880	-200.000	0.010	-0.113
-445.865	334.946	0.128	0.249
-444.851	135.932	-0.187	-0.244
-443.836	480.939	0.019	0.043
-442.822	-61.732	-0.264	0.111
-441.807	80.761	-0.219	-0.236
-440.792	19.790	0.219	-0.176
-439.778	-200.000	-0.000	0.205
-438.763	48.325	0.100	0.093
-437.749	272.121	0.164	-0.289
-436.734	336.336	0.110	0.214
-435.719	479.235	-0.119	-0.271
-434.705	-200.000	-0.018	0.414
-433.690	-101.946	-0.091	-0.022
-432.676	-200.000	-0.059	0.303
-431.661	-200.000	0.010	-0.157
-430.646	-137.553	-0.298	0.034
-429.632	90.312	0.132	0.147
-428.617	-200.000	-0.047	0.453
-427.603	-163.890	0.263	0.012
-426.588	-60.164	0.211	0.090
-425.573	-200.000	-0.045	-0.216
-424.559	37.786	-0.218	-0.194
-423.544	-7.002	0.089	-0.060
-422.530	381.811	0.129	0.265
-421.515	-113.646	0.238	0.046
-420.500	-135.901	-0.461	0.054
-419.486	-83.467	0.224	-0.072
-418.471	-22.501	-0.148	0.089
-417.457	121.236	0.247	0.308
-416.442	243.355	0.037	-0.063
-415.428	-200.000	-0.002	-0.012
-414.413	-45.622	0.039	0.019
-413.398	-4.514	-0.155	0.107
-412.384	357.687	0.048	-0.096
-411.369	43.997	-0.049	0.045
-410.355	130.222	0.086	-0.110
-409.340	388.981	-0.105	0.217
-408.325	800.000	0.032	0.126
-407.311	21.705	-0.119	0.097
-406.296	-141.675	-0.239	-0.024
-405.282	-200.000	-0.036	-0.190
-404.267	247.647	0.198	-0.334
-403.252	-80.349	0.208	0.069
-402.238	542.642	-0.063	0.150
-401.223	186.821	0.066	0.098
-400.209	800.000	-0.063	0.256
-399.194	-119.504	0.144	0.025
-398.179	180.426	0.210	-0.308
-397.165	149.576	0.061	-0.083
-396.150	-95.753	0.169	0.045
-395.136	179.523	0.136	0.199
-394.121	-96.516	-0.228	0.060
-393.106	-106.643	0.354	0.079
-392.092	138.106	-0.234	0.306
-391.077	427.452	-0.139	-0.301
-390.063	-64.955	0.447	-0.180
-389.048	-7.383	-0.138	0.093
-388.033	-40.856	-0.141	-0.073
-387.019	-191.461	-0.328	-0.003
-386.004	-105.011	0.157	0.036
-384.990	-101.765	0.251	-0.061
-383.975	-200.000	0.015	0.289
-382.960	800.000	-0.053	0.163
-381.946	-115.394	-0.364	-0.069
-380.931	-63.453	0.063	0.026
-379.917	-200.000	0.016	-0.116
-378.902	-200.000	0.062	0.436
-377.888	-103.086	-0.338	0.080
-376.873	-51.997	-0.140	-0.065
-375.858	-65.268	0.316	0.127
-374.844	515.166	0.075	0.175
-373.829	-67.003	-0.125	0.049
-372.815	800.000	0.055	-0.234
-371.800	-8.710	0.285	0.191
-370.785	-142.459	0.227	-0.022
-369.771	179.509	0.167	-0.244
-368.756	37.700	-0.199	0.176
-367.742	-44.624	0.424	0.211
-366.727	152.513	-0.129	0.176
-365.712	-29.917	0.254	-0.144
-364.698	-60.454	-0.123	-0.052
-363.683	-131.702	-0.199	-0.026
-362.669	-130.171	0.271	-0.037
-361.654	-144.979	-0.322	0.029
-360.639	140.797	-0.213	-0.281
-359.625	-200.000	0.032	-0.485
-358.610	-73.069	-0.274	-0.100
-357.596	-75.715	0.237	-0.084
-356.581	-34.840	-0.207	-0.113
-355.566	78.167	0.082	0.087
-354.552	159.283	-0.093	-0.129
-353.537	-40.065	-0.128	0.067
-352.523	231.874	0.099	0.162
-351.508	-131.969	0.120	0.016
-350.493	800.000	0.077	0.232
-349.479	-149.214	0.526	0.042
-348.464	633.612	-0.149	0.377
-347.450	296.563	0.061	0.111
-346.435	-200.000	0.006	0.109
-345.420	91.606	-0.127	-0.143
-344.406	-103.780	-0.418	0.097
-343.391	204.803	0.233	0.360
-342.377	800.000	-0.057	0.230
-341.362	608.129	-0.069	-0.172
-340.348	-126.771	0.167	-0.025
-339.333	147.125	0.167	0.224
-338.318	428.583	-0.057	0.124
-337.304	246.716	0.140	0.236
-336.289	-200.000	0.021	-0.408
-335.275	1.632	0.380	-0.272
-334.260	-188.145	-0.143	-0.002
-333.245	356.144	0.190	0.378
-332.231	14.104	-0.274	-0.213
-331.216	-19.121	0.206	0.127
-330.202	-28.423	0.171	0.098
-329.187	-154.542	-0.287	0.019
-328.172	23.827	-0.180	0.147
-327.158	82.331	-0.098	-0.106
-326.143	-191.211	-0.199	0.002
-325.129	800.000	-0.008	-0.024
-324.114	-64.676	0.421	0.170
-323.099	-200.000	0.026	-0.196
-322.085	335.879	-0.221	-0.427
-321.070	-43.997	0.264	-0.132
-320.056	-81.436	-0.264	-0.086
-319.041	-200.000	0.019	-0.433
-318.026	123.555	-0.098	-0.122
-317.012	-188.446	0.058	0.001
-315.997	430.624	-0.173	0.372
-314.983	-116.117	-0.328	-0.061
-313.968	336.400	0.167	0.323
-312.953	-200.000	0.005	-0.068
-311.939	-200.000	0.023	0.174
-310.924	800.000	-0.051	0.199
-309.910	-200.000	-0.042	-0.255
-308.895	-200.000	-0.044	0.287
-307.880	-95.372	-0.127	0.034
-306.866	317.205	-0.130	-0.245
-305.851	800.000	-0.188	0.626
-304.837	391.688	-0.112	-0.232
-303.822	-138.822	-0.396	0.043
-302.807	321.699	-0.025	-0.047
-301.793	-129.404	0.169	-0.023
-300.778	111.221	-0.165	-0.198
-299.764	-56.923	-0.178	-0.078
-298.749	-28.953	-0.146	-0.083
-297.735	480.989	0.035	0.079
-296.720	-70.029	0.068	0.026
-295.705	104.005	0.234	0.273
-294.691	-105.358	-0.404	0.091
-293.676	185.839	-0.065	0.096
-292.662	-0.496	0.316	0.223
-291.647	-200.000	-0.009	0.330
-290.632	151.739	-0.130	0.176
-289.618	329.718	-0.079	-0.152
-288.603	-115.169	0.079	-0.015
-287.589	-200.000	-0.015	-0.288
-286.574	-153.923	0.107	0.007
-285.559	14.974	0.214	-0.167
-284.545	-21.418	-0.131	0.080
-283.530	65.091	0.138	0.138
-282.516	-200.000	0.023	0.126
-281.501	-129.211	-0.215	0.030
-280.486	74.183	0.268	-0.280
-279.472	-73.281	-0.183	-0.067
-278.457	-15.549	-0.066	0.042
-277.443	-114.910	-0.085	-0.016
-276.428	130.072	-0.109	-0.139
-275.413	562.138	-0.038	0.092
-274.399	-200.000	-0.280	-0.000
-273.384	2.294	0.059	0.043
-272.370	-49.688	0.223	0.105
-271.355	138.815	-0.056	-0.073
-270.340	-125.213	-0.195	0.030
-269.326	-14.723	0.306	0.195
-268.311	26.250	-0.090	0.074
-267.297	800.000	-0.079	-0.217
-266.282	800.000	-0.089	0.263
-265.267	103.051	0.193	-0.225
-264.253	-122.889	0.143	0.023
-263.238	-90.366	-0.133	-0.038
-262.224	-84.870	0.130	-0.041
-261.209	-81.118	0.062	0.020
-260.195	-45.119	0.109	0.054
-259.180	-200.000	0.011	-0.238
-258.165	-97.298	-0.297	-0.077
-257.151	597.146	0.044	0.108
-256.136	-200.000	0.004	-0.054
-255.122	234.887	-0.207	0.339
-254.107	20.393	-0.111	0.089
-253.092	800.000	0.025	-0.087
-252.078	84.122	-0.004	0.004
-251.063	8.515	0.212	0.158
-250.049	415.625	-0.048	-0.102
-249.034	-101.078	-0.221	-0.054
-248.019	-200.000	-0.112	-0.000
-247.005	-117.952	-0.185	-0.033
-245.990	69.756	-0.054	-0.056
-244.976	-158.199	0.126	-0.007
-243.961	-200.000	-0.026	-0.306
-242.946	-200.000	0.029	0.127
-241.932	256.167	-0.188	-0.321
-240.917	-179.436	-0.138	-0.003
-239.903	145.911	-0.101	-0.135
-238.888	-144.741	0.082	0.008
-237.873	-134.445	0.171	0.021
-236.859	81.485	0.068	0.073
-235.844	-200.000	-0.020	0.108
-234.830	136.947	-0.159	0.207
-233.815	142.785	0.136	0.180
-232.800	437.839	0.167	-0.361
-231.786	-200.000	0.023	-0.153
-230.771	800.000	-0.064	-0.175
-229.757	800.000	-0.093	-0.257
-228.742	-200.000	-0.022	-0.384
-227.727	-200.000	-0.010	0.050
-226.713	-116.034	-0.512	0.095
-225.698	-131.826	0.103	-0.013
-224.684	239.505	-0.121	0.199
-223.669	85.999	0.141	-0.154
-222.655	-200.000	-0.029	-0.143
-221.640	-97.381	0.108	-0.028
-220.625	-19.263	-0.140	0.086
-219.611	31.156	0.045	0.039
-218.596	-200.000	0.046	-0.365
-217.582	-76.511	-0.199	-0.069
-216.567	-84.411	0.070	0.022
-215.552	537.281	0.143	-0.336
-214.538	58.323	0.138	0.134
-213.523	-91.254	0.532	0.151
-212.509	-200.000	0.005	0.249
-211.494	-67.810	0.065	0.025
-210.479	44.819	0.109	0.100
-209.465	-72.262	0.036	0.013
-208.450	-200.000	0.095	0.453
-207.436	-50.814	0.255	0.119
-206.421	-200.000	0.031	-0.256
-205.406	-26.997	0.279	0.162
-204.392	-56.665	-0.116	-0.051
-203.377	-200.000	-0.006	0.097
-202.363	236.377	0.122	-0.201
-201.348	-84.212	0.408	-0.128
-200.333	2.985	0.283	-0.204
-199.319	-90.442	0.179	-0.051
-198.304	737.483	0.059	-0.157
-197.290	-110.287	-0.398	0.082
-196.275	-129.181	0.282	-0.039
-195.260	-200.000	-0.033	-0.330
-194.246	-86.006	0.230	-0.070
-193.231	404.490	0.076	0.158
-192.217	-44.469	0.434	0.215
-191.202	-200.000	0.016	-0.242
-190.187	-200.000	0.015	-0.184
-189.173	-111.432	-0.165	-0.033
-188.158	32.491	-0.098	0.084
-187.144	-88.979	0.105	-0.031
-186.129	-200.000	-0.046	0.255
-185.114	-41.817	-0.026	-0.013
-184.100	-194.581	-0.326	-0.003
-183.085	-160.284	0.283	-0.015
-182.071	-136.936	0.277	-0.031
-181.056	66.411	0.106	-0.107
-180.042	800.000	-0.045	-0.180
-179.027	-200.000	-0.038	0.224
-178.012	-139.455	-0.210	-0.022
-176.998	-20.386	0.015	0.009
-175.983	376.774	-0.314	-0.634
-174.969	-90.707	-0.159	-0.046
-173.954	-200.000	-0.029	-0.282
-172.939	9.993	0.034	0.026
-171.925	-86.524	-0.158	0.048
-170.910	-97.484	0.231	0.060
-169.896	800.000	-0.045	-0.150
-168.881	158.744	0.144	-0.198
-167.866	-54.679	0.254	0.114
-166.852	800.000	-0.012	-0.037
-165.837	-36.475	-0.290	-0.154
-164.823	-181.776	-0.235	-0.004
-163.808	5.971	0.139	0.102
-162.793	-55.202	0.099	-0.044
-161.779	334.636	0.148	0.283
-160.764	312.884	-0.201	0.373
-159.750	19.867	0.350	0.279
-158.735	-27.609	-0.105	-0.060
-157.720	-200.000	-0.018	0.129
-156.706	-98.816	0.090	-0.023
-155.691	-126.354	0.231	-0.034
-154.677	352.598	-0.057	-0.113
-153.662	117.756	0.126	-0.154
-152.647	-200.000	-0.002	0.064
-151.633	7.734	-0.228	0.169
-150.618	454.451	0.200	0.439
-149.604	153.390	0.202	-0.274
-148.589	-31.968	-0.163	0.090
-147.574	-40.997	-0.177	-0.090
-146.560	-200.000	-0.001	0.098
-145.545	39.145	-0.181	0.160
-144.531	73.472	0.099	-0.102
-143.516	327.217	0.183	0.346
-142.502	-109.384	0.240	0.050
-141.487	800.000	-0.071	-0.242
-140.472	-100.404	-0.181	0.044
-139.458	-89.728	0.146	-0.042
-138.443	162.261	0.113	-0.156
-137.429	425.409	-0.094	0.201
-136.414	-200.000	0.018	-0.200
-135.399	167.918	0.284	-0.400
-134.385	-75.145	-0.246	-0.087
-133.370	-200.000	-0.001	0.100
-132.356	107.568	-0.124	-0.146
-131.341	-81.048	0.125	-0.041
-130.326	-200.000	-0.017	-0.111
-129.312	219.897	0.125	0.199
-128.297	187.906	-0.112	0.165
-127.283	205.025	-0.114	0.174
-126.268	-200.000	-0.023	-0.152
-125.253	97.008	0.349	0.395
-124.239	800.000	0.064	0.202
-123.224	-114.892	0.329	-0.062
-122.210	30.816	-0.296	0.250
