DTS Sentinel unit serial number:	SN413079Multiplexer serial number:	ORYXHardware model number:	OX4-SRSoftware version number:	ORYX F/W v4.00 Oryx Data Collector v3.7.2.0data status	okinstallation	princeton_trtdifferential loss correction	single-endedforward channel	channel 4reverse channel	N/Adate	2019/09/11time	11:31:11forward acquisition time	60.00reverse acquisition time	0.00gamma	496.2192k internal	0.2290k external	0.2290temperature offset calibration	0.9972default loss term (dB/km)	0.3790temperature slope calibration	1.0000multiplexer offset coefficient	1.0000multiplexer slope coefficient	1.0000fibre end	0.00T internal ref (°C)	38.06T ext. ref 1 (°C)	0.18T ext. ref 2 (°C)	35.89length (m)	temperature (°C)	Stokes	anti-Stokes-747.200	156.081	0.126	0.178
-746.185	-200.000	0.026	0.137
-745.171	-200.000	0.010	0.103
-744.156	-170.216	0.273	0.010
-743.142	800.000	0.059	-0.247
-742.127	156.649	-0.071	0.101
-741.112	-177.274	-0.046	0.001
-740.098	24.492	-0.269	0.228
-739.083	800.000	0.068	0.260
-738.069	-108.706	0.327	-0.072
-737.054	-200.000	0.021	0.122
-736.039	-114.985	-0.249	0.049
-735.025	-200.000	0.000	0.119
-734.010	-81.837	-0.207	-0.069
-732.996	800.000	-0.019	0.075
-731.981	-86.426	-0.120	-0.038
-730.966	64.164	0.086	0.088
-729.952	-119.168	-0.287	-0.051
-728.937	-200.000	0.231	-0.001
-727.923	-63.097	-0.203	-0.086
-726.908	65.425	-0.267	-0.276
-725.894	-34.188	-0.196	-0.110
-724.879	-96.306	0.090	0.024
-723.864	-200.000	0.011	0.116
-722.850	-200.000	0.009	-0.141
-721.835	-1.162	0.129	-0.094
-720.821	251.058	0.226	-0.394
-719.806	75.285	0.027	0.029
-718.791	-200.000	0.020	-0.520
-717.777	-73.896	0.180	-0.067
-716.762	250.047	0.105	0.183
-715.748	-149.977	0.103	0.008
-714.733	-200.000	-0.033	-0.168
-713.718	-18.913	0.149	0.095
-712.704	-148.655	-0.308	0.026
-711.689	-142.341	-0.083	0.008
-710.675	-49.869	0.270	-0.131
-709.660	-200.000	-0.017	0.185
-708.645	236.390	-0.233	-0.394
-707.631	555.083	0.044	-0.109
-706.616	-200.000	0.026	-0.175
-705.602	-146.762	0.254	-0.022
-704.587	74.954	-0.221	-0.239
-703.572	-0.133	0.102	0.074
-702.558	25.991	-0.151	0.129
-701.543	-33.647	-0.273	-0.154
-700.529	32.506	-0.242	0.214
-699.514	102.446	-0.157	0.188
-698.499	-39.588	0.021	-0.011
-697.485	-67.918	-0.136	0.054
-696.470	-125.629	0.080	0.012
-695.456	-200.000	-0.030	0.297
-694.441	173.446	0.118	0.173
-693.426	800.000	0.019	0.057
-692.412	433.609	-0.054	0.119
-691.397	-63.889	0.179	0.075
-690.383	459.369	-0.120	-0.272
-689.368	788.904	-0.112	-0.314
-688.354	413.665	0.134	-0.292
-687.339	25.387	-0.063	-0.053
-686.324	27.244	0.073	0.062
-685.310	-200.000	0.013	0.129
-684.295	-200.000	0.000	-0.324
-683.281	133.780	0.132	-0.174
-682.266	523.728	0.056	-0.134
-681.251	-146.312	-0.262	-0.023
-680.237	179.935	-0.177	0.266
-679.222	-125.064	0.240	0.038
-678.208	-56.218	0.213	0.097
-677.193	-54.083	0.233	0.108
-676.178	35.330	-0.344	-0.309
-675.164	-112.165	0.123	0.025
-674.149	-6.045	0.152	-0.106
-673.135	-179.104	0.217	-0.005
-672.120	-200.000	0.037	0.242
-671.105	-200.000	0.057	-0.475
-670.091	-45.101	-0.021	0.011
-669.076	800.000	0.084	0.245
-668.062	-6.193	-0.139	-0.097
-667.047	16.436	0.044	-0.035
-666.032	-200.000	0.011	0.151
-665.018	-139.667	-0.502	0.055
-664.003	271.210	-0.088	-0.159
-662.989	800.000	-0.086	-0.245
-661.974	13.835	0.141	-0.112
-660.959	-22.123	0.237	-0.147
-659.945	-7.648	-0.225	-0.155
-658.930	-200.000	0.056	-0.335
-657.916	-113.519	-0.295	0.059
-656.901	120.680	0.310	-0.393
-655.886	251.355	-0.109	-0.189
-654.872	-153.414	-0.198	0.014
-653.857	-3.856	-0.461	0.327
-652.843	-200.000	-0.033	0.371
-651.828	-2.502	0.323	-0.231
-650.814	-200.000	0.021	0.209
-649.799	-58.011	0.183	0.081
-648.784	800.000	-0.060	-0.240
-647.770	31.233	-0.170	0.149
-646.755	800.000	-0.082	-0.267
-645.741	-139.644	0.170	0.019
-644.726	-200.000	-0.012	0.252
-643.711	517.299	0.152	-0.364
-642.697	800.000	-0.079	-0.288
-641.682	-82.213	0.458	0.152
-640.668	-200.000	-0.046	-0.231
-639.653	-161.839	0.154	0.008
-638.638	-94.248	0.064	0.018
-637.624	-63.549	-0.222	0.093
-636.609	800.000	0.050	-0.219
-635.595	99.983	0.132	0.156
-634.580	754.143	-0.032	-0.089
-633.565	334.269	0.102	-0.201
-632.551	261.642	-0.122	0.215
-631.536	28.247	0.446	0.384
-630.522	81.077	0.161	-0.177
-629.507	-30.096	0.172	0.100
-628.492	-166.912	0.243	0.010
-627.478	-20.087	0.174	-0.110
-626.463	-37.154	-0.260	-0.142
-625.449	-143.463	-0.235	-0.023
-624.434	19.248	0.226	0.185
-623.419	-115.711	0.362	-0.069
-622.405	-102.764	-0.077	0.019
-621.390	-87.231	0.125	-0.039
-620.376	-200.000	-0.006	0.324
-619.361	-82.984	0.059	0.019
-618.346	1.782	0.123	-0.090
-617.332	55.228	-0.058	0.058
-616.317	-200.000	0.003	0.230
-615.303	-46.017	-0.219	0.110
-614.288	227.831	0.074	-0.123
-613.273	-28.211	0.183	-0.108
-612.259	534.905	-0.076	-0.183
-611.244	-200.000	-0.066	0.319
-610.230	-145.385	0.328	0.030
-609.215	-116.923	-0.153	-0.028
-608.201	-46.918	-0.145	0.072
-607.186	185.704	0.107	-0.162
-606.171	-200.000	0.057	-0.296
-605.157	-200.000	-0.030	-0.242
-604.142	50.862	0.074	-0.072
-603.128	800.000	-0.053	0.210
-602.113	119.394	-0.142	0.179
-601.098	-141.370	-0.153	0.016
-600.084	453.048	0.056	-0.127
-599.069	-200.000	-0.037	-0.215
-598.055	285.847	0.108	-0.199
-597.040	319.824	-0.036	-0.069
-596.025	800.000	-0.069	0.286
-595.011	29.080	0.072	0.063
-593.996	800.000	-0.034	-0.116
-592.982	291.953	-0.172	-0.319
-591.967	171.584	-0.051	-0.075
-590.952	-107.527	-0.321	0.072
-589.938	203.043	-0.110	-0.174
-588.923	47.970	-0.118	0.112
-587.909	210.862	0.028	0.045
-586.894	-34.241	0.197	0.110
-585.879	108.353	-0.167	0.202
-584.865	408.479	-0.239	-0.514
-583.850	-118.942	-0.398	0.071
-582.836	233.875	0.209	0.350
-581.821	-200.000	-0.003	-0.054
-580.806	-200.000	0.025	-0.294
-579.792	-193.496	0.262	0.002
-578.777	-200.000	0.026	-0.190
-577.763	31.811	-0.146	-0.128
-576.748	-148.858	-0.200	-0.016
-575.733	496.624	-0.065	0.152
-574.719	-80.666	-0.205	-0.069
-573.704	-200.000	-0.017	0.104
-572.690	-200.000	-0.483	-0.001
-571.675	-34.703	-0.300	-0.167
-570.661	519.772	-0.051	0.121
-569.646	-24.133	-0.412	-0.250
-568.631	800.000	0.118	-0.469
-567.617	-130.097	-0.262	0.036
-566.602	-110.469	0.228	-0.048
-565.588	-129.664	0.185	0.026
-564.573	-28.903	0.065	0.038
-563.558	-200.000	0.059	-0.320
-562.544	-200.000	-0.108	0.000
-561.529	21.110	-0.216	0.178
-560.515	-68.398	0.185	0.073
-559.500	-0.798	-0.180	0.130
-558.485	30.506	0.070	-0.060
-557.471	221.799	0.179	0.293
-556.456	-75.341	0.251	0.091
-555.442	-55.943	0.235	0.107
-554.427	-30.105	-0.159	-0.092
-553.412	8.744	-0.139	0.107
-552.398	-200.000	-0.008	-0.335
-551.383	-65.155	-0.225	-0.092
-550.369	-200.000	0.020	0.113
-549.354	145.249	-0.139	0.189
-548.339	-200.000	0.048	-0.370
-547.325	32.054	0.099	0.086
-546.310	-22.789	-0.194	0.119
-545.296	-91.609	-0.006	-0.002
-544.281	-145.878	-0.414	0.037
-543.266	-162.038	0.317	0.016
-542.252	-200.000	-0.009	-0.074
-541.237	-159.368	0.338	-0.019
-540.223	-108.663	-0.174	-0.038
-539.208	-200.000	-0.022	0.242
-538.193	249.250	0.028	0.048
-537.179	26.061	-0.309	0.262
-536.164	-132.876	-0.255	0.033
-535.150	-150.708	-0.103	0.008
-534.135	378.103	0.056	0.116
-533.121	-200.000	0.009	0.057
-532.106	155.828	-0.067	-0.094
-531.091	-126.856	0.181	0.027
-530.077	76.673	-0.250	-0.269
-529.062	-139.965	0.234	0.025
-528.048	-20.670	0.130	0.081
-527.033	-61.629	0.310	-0.132
-526.018	-71.977	-0.211	-0.080
-525.004	-21.487	0.043	-0.027
-523.989	147.647	-0.161	0.220
-522.975	169.763	-0.137	-0.199
-521.960	242.428	-0.075	0.127
-520.945	62.447	0.069	0.070
-519.931	440.240	-0.103	-0.228
-518.916	34.145	0.202	-0.179
-517.902	-140.600	-0.286	-0.030
-516.887	-122.080	0.467	-0.078
-515.872	421.499	-0.021	-0.045
-514.858	-39.021	0.280	0.149
-513.843	81.630	-0.182	-0.199
-512.829	171.406	-0.108	0.158
-511.814	-6.847	0.047	-0.033
-510.799	-200.000	0.016	-0.146
-509.785	84.420	-0.124	-0.138
-508.770	291.939	-0.127	-0.236
-507.756	-148.339	-0.130	-0.011
-506.741	-18.592	-0.306	-0.194
-505.726	-134.555	0.235	-0.029
-504.712	-65.930	0.390	0.158
-503.697	800.000	-0.013	0.043
-502.683	-92.875	0.149	-0.042
-501.668	-42.393	0.255	-0.132
-500.653	800.000	-0.075	-0.329
-499.639	-200.000	-0.063	-0.348
-498.624	-200.000	-0.014	-0.130
-497.610	-200.000	-0.009	0.057
-496.595	243.410	-0.218	-0.371
-495.581	-200.000	0.054	-0.248
-494.566	-200.000	-0.048	0.265
-493.551	-106.850	-0.294	-0.066
-492.537	-200.000	0.062	0.396
-491.522	82.713	0.312	0.343
-490.508	101.222	-0.153	0.181
-489.493	-97.089	0.203	-0.054
-488.478	293.051	0.109	-0.202
-487.464	800.000	-0.070	-0.266
-486.449	201.468	-0.296	-0.462
-485.435	-97.328	0.079	0.021
-484.420	32.429	0.275	0.241
-483.405	-162.660	-0.110	0.005
-482.391	800.000	-0.078	0.230
-481.376	-200.000	-0.046	0.233
-480.362	148.265	0.059	0.081
-479.347	-47.206	-0.297	0.147
-478.332	210.859	-0.102	0.163
-477.318	148.637	0.106	-0.145
-476.303	201.565	0.219	-0.342
-475.289	501.879	-0.048	-0.113
-474.274	240.943	0.075	0.127
-473.259	42.126	-0.163	0.150
-472.245	800.000	-0.061	-0.196
-471.230	-49.568	0.116	-0.056
-470.216	-149.286	-0.175	-0.014
-469.201	-169.611	0.499	0.018
-468.186	-44.996	0.083	-0.042
-467.172	200.262	0.123	0.191
-466.157	144.110	-0.173	0.234
-465.143	-168.275	-0.250	-0.010
-464.128	321.515	-0.211	-0.407
-463.113	-200.000	-0.005	-0.269
-462.099	68.241	-0.333	-0.345
-461.084	-80.988	-0.167	-0.056
-460.070	125.392	0.255	-0.325
-459.055	148.687	-0.087	0.118
-458.040	-120.563	0.457	-0.078
-457.026	-113.879	0.336	0.066
-456.011	-200.000	-0.028	0.339
-454.997	-61.589	-0.298	-0.127
-453.982	-200.000	0.009	0.122
-452.968	-76.912	-0.120	0.043
-451.953	-188.399	-0.262	-0.003
-450.938	292.500	-0.094	-0.174
-449.924	-43.338	-0.202	0.104
-448.909	93.011	-0.053	0.060
-447.895	-105.594	0.381	-0.087
-446.880	800.000	0.012	-0.047
-445.865	-200.000	-0.020	0.285
-444.851	51.881	0.137	0.132
-443.836	-52.267	-0.421	-0.198
-442.822	-200.000	-0.013	-0.095
-441.807	800.000	-0.035	0.119
-440.792	390.888	0.127	-0.267
-439.778	-200.000	-0.095	0.488
-438.763	108.521	-0.099	-0.120
-437.749	142.225	-0.074	0.099
-436.734	-52.162	-0.257	-0.121
-435.719	89.551	-0.221	-0.250
-434.705	152.063	0.091	-0.126
-433.690	-97.152	0.141	-0.037
-432.676	402.455	-0.131	0.279
-431.661	636.612	-0.151	-0.389
-430.646	800.000	-0.037	0.157
-429.632	-146.514	-0.263	-0.023
-428.617	-53.990	-0.222	0.102
-427.603	750.405	-0.055	-0.151
-426.588	-43.248	0.066	-0.034
-425.573	-200.000	-0.086	0.403
-424.559	-60.731	0.095	0.041
-423.544	-44.989	-0.325	-0.164
-422.530	358.296	-0.028	-0.057
-421.515	203.091	-0.248	-0.388
-420.500	-200.000	0.027	-0.158
-419.486	800.000	-0.010	0.033
-418.471	-57.060	-0.311	0.139
-417.457	-28.921	-0.255	0.148
-416.442	348.004	-0.140	0.279
-415.428	43.060	0.347	0.320
-414.413	176.688	-0.065	0.096
-413.398	93.409	0.236	0.270
-412.384	-71.955	-0.110	-0.042
-411.369	129.968	0.114	-0.147
-410.355	-133.489	-0.178	-0.023
-409.340	-67.523	0.144	-0.057
-408.325	372.946	0.146	0.300
-407.311	-50.440	-0.098	-0.047
-406.296	-134.503	-0.345	0.043
-405.282	-7.153	0.097	-0.067
-404.267	-155.486	0.159	-0.010
-403.252	-144.243	0.128	-0.012
-402.238	62.579	0.098	-0.099
-401.223	726.398	0.043	0.116
-400.209	-200.000	-0.008	0.036
-399.194	522.688	0.057	-0.136
-398.179	50.319	-0.229	-0.218
-397.165	800.000	0.094	-0.310
-396.150	-42.026	0.126	0.065
-395.136	196.960	0.011	0.018
-394.121	-92.883	0.204	0.058
-393.106	-54.808	0.321	0.146
-392.092	-17.561	-0.347	0.220
-391.077	179.840	0.104	0.154
-390.063	514.810	0.043	-0.102
-389.048	-200.000	-0.008	-0.129
-388.033	800.000	-0.046	-0.175
-387.019	-58.973	-0.213	-0.093
-386.004	52.946	0.147	0.142
-384.990	-200.000	0.032	0.177
-383.975	176.999	0.217	-0.319
-382.960	-116.557	-0.492	-0.092
-381.946	-200.000	-0.032	0.328
-380.931	161.320	0.056	0.080
-379.917	-67.766	0.282	-0.111
-378.902	800.000	-0.028	0.094
-377.888	800.000	0.094	-0.303
-376.873	199.699	0.052	0.080
-375.858	-200.000	-0.015	-0.278
-374.844	102.710	-0.213	-0.252
-373.829	-31.132	0.039	0.022
-372.815	-77.021	0.069	-0.024
-371.800	94.818	0.331	0.380
-370.785	740.848	0.109	-0.296
-369.771	-4.052	0.035	-0.025
-368.756	-200.000	0.039	0.364
-367.742	-200.000	0.033	0.164
-366.727	-81.763	-0.230	0.076
-365.712	184.797	-0.085	0.127
-364.698	510.476	-0.142	-0.333
-363.683	330.848	-0.033	0.064
-362.669	-200.000	-0.020	-0.111
-361.654	-200.000	-0.010	-0.113
-360.639	185.838	0.323	0.485
-359.625	-2.975	0.202	0.143
-358.610	99.130	0.147	-0.171
-357.596	-119.181	0.241	0.042
-356.581	-200.000	-0.011	0.226
-355.566	-14.045	0.069	-0.045
-354.552	34.824	-0.122	-0.108
-353.537	-147.681	-0.292	-0.025
-352.523	-200.000	0.024	0.195
-351.508	62.227	0.353	0.355
-350.493	199.767	0.061	-0.094
-349.479	63.592	-0.147	-0.149
-348.464	79.255	-0.028	-0.030
-347.450	-58.747	0.126	0.055
-346.435	-7.320	-0.087	0.060
-345.420	-200.000	0.041	-0.253
-344.406	-62.149	0.354	0.149
-343.391	188.296	-0.181	-0.272
-342.377	10.958	0.160	0.124
-341.362	-200.000	-0.005	0.104
-340.348	-74.540	0.183	0.066
-339.333	35.728	-0.087	-0.077
-338.318	162.984	-0.156	-0.220
-337.304	468.685	0.129	-0.293
-336.289	800.000	-0.015	-0.060
-335.275	-15.590	0.278	-0.179
-334.260	-133.032	0.274	-0.035
-333.245	-136.847	-0.106	0.012
-332.231	536.291	0.043	-0.102
-331.216	-149.998	0.319	-0.025
-330.202	156.401	-0.109	0.152
-329.187	525.713	0.113	-0.269
-328.172	-106.923	-0.229	0.051
-327.158	800.000	-0.074	-0.284
-326.143	-200.000	0.002	-0.208
-325.129	22.860	0.190	0.157
-324.114	-14.510	0.194	-0.126
-323.099	-119.118	-0.224	-0.039
-322.085	-200.000	0.001	0.057
-321.070	-44.478	0.307	-0.155
-320.056	91.644	0.139	0.158
-319.041	199.040	-0.183	0.282
-318.026	-60.810	-0.133	-0.057
-317.012	-200.000	0.015	0.095
-315.997	396.543	-0.032	-0.067
-314.983	140.890	0.066	0.088
-313.968	39.906	0.041	-0.037
-312.953	-200.000	-0.023	0.231
-311.939	20.793	0.150	0.122
-310.924	-172.045	0.137	-0.004
-309.910	38.588	-0.113	0.101
-308.895	-91.900	0.292	0.083
-307.880	-17.127	0.205	-0.130
-306.866	-200.000	-0.027	-0.304
-305.851	-174.125	0.335	0.010
-304.837	34.842	-0.288	-0.254
-303.822	494.551	-0.115	-0.267
-302.807	-79.450	-0.162	0.055
-301.793	-44.833	0.419	0.210
-300.778	799.298	-0.042	0.116
-299.764	-126.516	-0.206	-0.031
-298.749	475.710	0.016	0.037
-297.735	-200.000	0.047	0.256
-296.720	433.063	0.120	0.262
-295.705	628.201	0.042	0.107
-294.691	17.131	-0.045	0.036
-293.676	54.250	-0.012	0.012
-292.662	80.245	0.085	-0.092
-291.647	158.322	0.155	-0.216
-290.632	800.000	-0.080	-0.327
-289.618	60.631	-0.130	-0.129
-288.603	-58.178	-0.163	-0.071
-287.589	-200.000	-0.042	0.337
-286.574	71.015	-0.147	0.153
-285.559	223.242	-0.225	-0.365
-284.545	-161.854	-0.346	-0.018
-283.530	207.268	0.142	-0.222
-282.516	624.351	-0.034	0.087
-281.501	-200.000	0.049	-0.420
-280.486	-32.603	0.143	-0.080
-279.472	8.508	0.205	0.155
-278.457	800.000	-0.098	0.294
-277.443	-40.434	-0.086	0.045
-276.428	472.700	-0.135	0.305
-275.413	-110.961	0.059	-0.012
-274.399	-127.107	0.033	-0.005
-273.384	-200.000	0.012	0.102
-272.370	110.023	-0.212	0.256
-271.355	-200.000	-0.121	0.001
-270.340	19.235	-0.157	0.127
-269.326	-98.097	-0.448	0.116
-268.311	-200.000	0.029	0.132
-267.297	800.000	0.106	0.378
-266.282	-93.950	-0.047	0.013
-265.267	4.875	0.238	-0.176
-264.253	-200.000	0.003	-0.057
-263.238	232.200	0.006	0.010
-262.224	800.000	-0.146	0.494
-261.209	800.000	-0.052	0.197
-260.195	-8.776	0.201	0.135
-259.180	770.309	-0.051	0.140
-258.165	575.755	0.119	0.292
-257.151	40.443	-0.146	-0.132
-256.136	-200.000	-0.003	-0.121
-255.122	97.311	0.133	0.153
-254.107	-121.662	0.541	0.090
-253.092	221.484	0.102	-0.164
-252.078	-113.220	-0.125	-0.025
-251.063	23.615	0.391	-0.324
-250.049	143.719	0.138	0.185
-249.034	14.880	0.213	0.167
-248.019	3.638	-0.217	0.159
-247.005	-200.000	0.027	-0.142
-245.990	-200.000	-0.036	0.267
-244.976	-200.000	0.062	0.282
-243.961	-196.993	0.431	0.003
-242.946	-85.588	0.201	0.063
-241.932	-167.864	0.146	0.006
-240.917	-200.000	0.004	0.095
-239.903	-45.882	-0.223	0.111
-238.888	168.536	0.180	-0.257
-237.873	-117.487	-0.330	0.060
-236.859	41.775	-0.296	0.270
-235.844	-200.000	0.049	0.330
-234.830	254.220	-0.106	0.182
-233.815	247.537	0.065	0.110
-232.800	27.187	-0.182	-0.153
-231.786	-134.043	-0.075	0.009
-230.771	22.240	-0.183	0.150
-229.757	286.913	-0.076	0.138
-228.742	-13.470	-0.291	0.189
-227.727	-122.092	-0.128	-0.021
-226.713	-112.188	0.316	0.064
-225.698	-94.598	-0.271	0.074
-224.684	-50.726	-0.194	0.092
-223.669	800.000	0.096	-0.275
-222.655	181.122	-0.236	-0.348
-221.640	-12.705	-0.197	0.129
-220.625	8.902	0.058	-0.044
-219.611	334.753	0.081	0.158
-218.596	262.030	-0.235	0.409
-217.582	227.926	0.132	-0.216
-216.567	-27.578	-0.053	0.031
-215.552	800.000	-0.067	0.275
-214.538	-200.000	0.014	0.118
-213.523	-153.681	0.184	0.013
-212.509	-19.564	-0.192	-0.119
-211.494	-47.839	0.275	-0.133
-210.479	-67.621	0.143	-0.056
-209.465	800.000	0.020	-0.055
-208.450	-200.000	0.007	-0.060
-207.436	-163.830	-0.297	0.014
-206.421	239.807	-0.120	-0.200
-205.406	-57.209	0.068	0.030
-204.392	-4.851	-0.157	-0.108
-203.377	690.604	0.080	-0.209
-202.363	-153.087	-0.312	0.022
-201.348	550.185	-0.143	0.344
-200.333	457.976	-0.048	0.107
-199.319	-187.664	0.258	-0.003
-198.304	192.407	-0.061	0.092
-197.290	378.060	0.069	-0.141
-196.275	74.235	0.130	-0.137
-195.260	-81.241	0.129	-0.043
-194.246	-183.196	0.105	-0.002
-193.231	-200.000	-0.039	-0.205
-192.217	287.214	-0.035	0.064
-191.202	800.000	0.045	0.141
-190.187	800.000	0.207	-0.654
-189.173	-18.534	0.264	-0.165
-188.158	-200.000	0.015	-0.172
-187.144	215.976	-0.176	-0.280
-186.129	12.733	0.212	0.164
-185.114	-200.000	0.005	0.324
-184.100	34.191	0.322	0.281
-183.085	700.662	-0.113	-0.298
-182.071	-54.911	-0.422	0.191
-181.056	-32.113	0.227	0.127
-180.042	-92.076	0.326	0.092
-179.027	-200.000	-0.030	0.216
-178.012	491.714	0.014	0.032
-176.998	195.363	-0.091	-0.138
-175.983	800.000	-0.046	-0.145
-174.969	-200.000	0.010	-0.300
-173.954	-127.638	0.097	0.014
-172.939	53.451	0.088	0.085
-171.925	-128.825	-0.054	-0.008
-170.910	10.429	0.218	-0.166
-169.896	-94.741	-0.162	-0.044
-168.881	-200.000	0.004	0.252
-167.866	800.000	0.081	-0.227
-166.852	-47.085	-0.259	0.127
-165.837	-33.882	0.167	0.092
-164.823	-167.401	0.335	0.013
-163.808	-112.683	0.224	0.045
-162.793	-2.841	0.442	0.309
-161.779	-200.000	0.068	0.424
-160.764	800.000	-0.078	-0.320
-159.750	236.460	-0.149	0.247
-158.735	-16.446	0.147	0.093
-157.720	356.777	-0.113	0.226
-156.706	800.000	-0.116	-0.378
-155.691	167.733	0.014	0.020
-154.677	307.505	-0.110	0.205
-153.662	-130.153	-0.228	-0.031
-152.647	241.292	-0.026	0.044
-151.633	126.710	0.122	0.154
-150.618	-7.920	-0.207	-0.139
-149.604	260.415	0.217	0.376
-148.589	-108.697	-0.285	-0.061
-147.574	47.631	-0.153	-0.143
-146.560	800.000	0.048	0.182
-145.545	-37.523	-0.143	0.076
-144.531	-200.000	0.003	0.045
-143.516	-90.696	0.126	0.036
-142.502	250.082	-0.037	0.063
-141.487	-200.000	0.026	0.162
-140.472	123.371	0.212	-0.266
-139.458	146.167	0.207	-0.278
-138.443	502.848	0.113	0.261
-137.429	51.537	-0.269	-0.256
-136.414	339.004	0.069	0.134
-135.399	240.384	0.041	-0.068
-134.385	800.000	0.075	-0.239
-133.370	-200.000	0.058	0.262
-132.356	453.450	0.090	-0.200
-131.341	352.135	0.108	-0.214
-130.326	-101.278	0.481	-0.118
-129.312	-200.000	0.020	-0.380
-128.297	-150.454	0.245	0.019
-127.283	671.296	0.043	0.111
-126.268	800.000	0.038	0.113
-125.253	800.000	-0.070	-0.220
-124.239	130.165	0.133	-0.170
-123.224	800.000	0.006	0.024
-122.210	84.801	0.275	0.301
-121.195	24.494	-0.144	-0.119
