DTS Sentinel unit serial number:	SN413079Multiplexer serial number:	ORYXHardware model number:	OX4-SRSoftware version number:	ORYX F/W v4.00 Oryx Data Collector v3.7.2.0data status	okinstallation	princeton_trtdifferential loss correction	single-endedforward channel	channel 4reverse channel	N/Adate	2019/09/12time	05:15:10forward acquisition time	60.00reverse acquisition time	0.00gamma	496.2192k internal	0.2309k external	0.2309temperature offset calibration	1.0066default loss term (dB/km)	0.3790temperature slope calibration	1.0000multiplexer offset coefficient	1.0000multiplexer slope coefficient	1.0000fibre end	0.00T internal ref (°C)	31.83T ext. ref 1 (°C)	1.63T ext. ref 2 (°C)	27.32length (m)	temperature (°C)	Stokes	anti-Stokes-747.200	-9.353	0.110	0.074
-746.185	-114.543	0.378	0.074
-745.171	-200.000	0.029	0.146
-744.156	96.540	0.207	0.241
-743.142	-200.000	0.006	-0.256
-742.127	-200.000	-0.034	0.159
-741.112	58.324	-0.196	0.195
-740.098	-193.272	0.491	0.004
-739.083	221.412	0.259	0.423
-738.069	46.279	-0.294	0.277
-737.054	43.293	-0.114	-0.106
-736.039	-59.503	-0.394	-0.172
-735.025	-115.692	0.526	-0.100
-734.010	-151.705	0.140	0.010
-732.996	800.000	0.070	0.204
-731.981	-200.000	0.009	-0.113
-730.966	342.704	-0.056	0.112
-729.952	-46.479	0.206	0.103
-728.937	76.811	-0.107	0.115
-727.923	-163.429	-0.085	0.004
-726.908	-109.888	0.324	0.069
-725.894	385.714	0.077	-0.162
-724.879	-27.336	-0.239	0.142
-723.864	-143.127	-0.151	-0.015
-722.850	-200.000	-0.001	0.024
-721.835	-105.971	0.133	-0.030
-720.821	179.814	0.138	0.205
-719.806	-48.342	0.307	0.150
-718.791	-200.000	-0.018	0.202
-717.777	80.593	-0.291	-0.318
-716.762	-200.000	-0.027	0.194
-715.748	-125.179	-0.239	-0.037
-714.733	66.550	0.252	0.260
-713.718	287.999	-0.100	-0.184
-712.704	-200.000	-0.009	-0.054
-711.689	-27.626	0.200	-0.118
-710.675	-200.000	0.018	-0.237
-709.660	436.758	-0.014	0.032
-708.645	-200.000	0.001	0.052
-707.631	31.786	-0.138	-0.121
-706.616	-36.908	-0.149	-0.081
-705.602	44.775	-0.252	0.235
-704.587	-197.657	-0.290	-0.002
-703.572	-200.000	-0.022	0.422
-702.558	-200.000	0.031	0.170
-701.543	744.039	0.020	-0.055
-700.529	22.726	-0.130	0.108
-699.514	-200.000	-0.048	0.397
-698.499	-0.401	0.082	-0.059
-697.485	327.938	0.096	-0.187
-696.470	-15.006	-0.369	-0.240
-695.456	800.000	-0.066	-0.200
-694.441	-106.686	0.201	-0.045
-693.426	-77.248	-0.149	0.053
-692.412	8.454	0.015	0.012
-691.397	55.709	-0.112	-0.110
-690.383	-95.835	0.296	-0.080
-689.368	77.437	-0.105	0.114
-688.354	800.000	0.049	-0.162
-687.339	-97.044	0.325	-0.086
-686.324	800.000	-0.042	-0.176
-685.310	-58.841	-0.260	0.114
-684.295	-171.955	-0.382	0.013
-683.281	-31.802	-0.334	0.190
-682.266	-46.047	0.123	0.061
-681.251	-200.000	-0.048	-0.289
-680.237	-200.000	0.010	-0.220
-679.222	185.344	-0.284	-0.428
-678.208	184.532	-0.218	-0.328
-677.193	-196.540	0.443	-0.003
-676.178	-65.382	-0.030	0.012
-675.164	-36.379	-0.489	0.267
-674.149	-82.271	-0.075	0.025
-673.135	44.177	0.076	-0.070
-672.120	38.890	0.039	-0.036
-671.105	-87.941	-0.025	-0.007
-670.091	88.842	-0.153	-0.173
-669.076	213.658	-0.166	0.266
-668.062	-23.401	0.096	0.058
-667.047	150.936	-0.054	-0.074
-666.032	-115.536	0.286	-0.055
-665.018	-34.025	-0.271	0.151
-664.003	128.268	0.138	0.178
-662.989	800.000	-0.120	-0.356
-661.974	-200.000	-0.011	-0.080
-660.959	-117.755	0.149	0.027
-659.945	-200.000	0.001	0.098
-658.930	800.000	-0.048	-0.187
-657.916	184.501	0.052	-0.079
-656.901	-57.740	-0.032	-0.014
-655.886	77.066	0.258	-0.277
-654.872	95.021	-0.247	-0.285
-653.857	-53.248	0.192	-0.089
-652.843	676.418	-0.156	-0.410
-651.828	132.391	0.129	0.168
-650.814	333.834	-0.053	-0.103
-649.799	-102.211	-0.369	-0.090
-648.784	108.600	0.287	0.347
-647.770	169.479	-0.061	0.088
-646.755	80.400	-0.242	-0.264
-645.741	158.301	-0.052	0.073
-644.726	-200.000	0.026	-0.218
-643.711	-127.653	-0.244	-0.036
-642.697	-200.000	-0.028	0.178
-641.682	293.655	-0.164	-0.303
-640.668	-160.242	-0.367	0.020
-639.653	-200.000	-0.013	0.129
-638.638	-146.674	0.366	-0.032
-637.624	-178.108	-0.267	-0.006
-636.609	-190.394	0.290	0.003
-635.595	-134.541	0.498	-0.062
-634.580	10.010	-0.358	-0.275
-633.565	800.000	-0.010	0.036
-632.551	-200.000	-0.005	0.174
-631.536	219.500	-0.016	-0.027
-630.522	17.652	0.115	0.093
-629.507	30.611	-0.025	0.022
-628.492	16.275	-0.061	-0.049
-627.478	-200.000	-0.013	-0.211
-626.463	800.000	0.044	0.138
-625.449	800.000	-0.136	0.419
-624.434	800.000	0.086	-0.312
-623.419	-200.000	-0.032	-0.240
-622.405	-169.972	0.350	-0.013
-621.390	-200.000	-0.012	0.103
-620.376	-125.665	-0.263	0.040
-619.361	156.030	0.125	0.174
-618.346	-200.000	-0.004	0.386
-617.332	-200.000	0.026	0.154
-616.317	178.045	0.158	0.233
-615.303	800.000	0.085	0.283
-614.288	800.000	-0.079	-0.242
-613.273	-40.359	-0.209	0.110
-612.259	458.324	0.040	-0.091
-611.244	-148.343	-0.248	-0.021
-610.230	136.062	0.125	-0.165
-609.215	-166.131	-0.179	0.008
-608.201	189.629	0.064	-0.096
-607.186	-34.781	-0.253	-0.140
-606.171	35.478	-0.181	-0.161
-605.157	187.009	-0.031	0.047
-604.142	200.004	0.152	0.236
-603.128	669.528	0.069	-0.180
-602.113	-43.583	0.191	-0.097
-601.098	-145.228	0.190	-0.017
-600.084	-110.041	0.250	0.053
-599.069	84.615	-0.127	0.141
-598.055	-43.304	-0.264	0.135
-597.040	101.415	0.045	-0.053
-596.025	-47.350	-0.220	-0.108
-595.011	-25.480	-0.232	0.138
-593.996	18.741	0.170	-0.137
-592.982	-77.435	-0.139	0.049
-591.967	-160.074	-0.395	-0.022
-590.952	-200.000	-0.026	-0.333
-589.938	-116.351	-0.322	0.060
-588.923	-200.000	0.008	-0.144
-587.909	-117.295	0.294	-0.054
-586.894	-200.000	-0.009	0.124
-585.879	-67.199	-0.117	0.046
-584.865	-76.138	-0.170	0.061
-583.850	166.364	0.103	0.147
-582.836	-200.000	0.017	-0.125
-581.821	70.747	-0.321	-0.336
-580.806	-50.579	0.142	-0.067
-579.792	156.919	0.241	-0.337
-578.777	-103.073	0.293	-0.070
-577.763	-46.976	0.089	0.044
-576.748	800.000	0.080	-0.228
-575.733	-111.780	-0.149	-0.030
-574.719	196.434	-0.209	-0.321
-573.704	252.740	-0.072	0.124
-572.690	-156.326	-0.089	-0.006
-571.675	539.894	-0.145	-0.349
-570.661	195.352	0.199	0.305
-569.646	-51.132	-0.067	0.032
-568.631	-12.905	0.311	-0.204
-567.617	-9.844	0.246	0.165
-566.602	68.917	0.202	-0.210
-565.588	263.010	-0.110	-0.193
-564.573	51.352	-0.198	0.190
-563.558	133.605	-0.180	-0.234
-562.544	496.383	0.036	-0.083
-561.529	13.292	-0.182	0.142
-560.515	-186.610	0.178	-0.003
-559.500	-133.334	0.159	-0.020
-558.485	-10.395	0.114	0.076
-557.471	-57.054	-0.127	-0.057
-556.456	-28.767	-0.368	-0.214
-555.442	-200.000	0.020	-0.302
-554.427	800.000	0.076	0.235
-553.412	-96.267	0.225	-0.060
-552.398	419.039	-0.171	-0.369
-551.383	-36.727	-0.173	-0.094
-550.369	-143.312	0.204	0.020
-549.354	-54.402	-0.228	-0.104
-548.339	800.000	-0.059	0.170
-547.325	-49.239	0.080	-0.038
-546.310	204.575	0.224	0.351
-545.296	123.368	-0.081	0.103
-544.281	87.014	-0.123	-0.137
-543.266	398.358	-0.191	-0.402
-542.252	-79.761	-0.128	-0.043
-541.237	-43.976	-0.091	-0.046
-540.223	13.922	0.085	0.067
-539.208	-13.403	-0.366	0.239
-538.193	-55.985	0.053	-0.024
-537.179	101.780	-0.144	0.170
-536.164	106.971	-0.202	0.242
-535.150	-123.781	0.145	0.023
-534.135	-59.842	-0.204	0.088
-533.121	22.148	-0.264	-0.217
-532.106	-92.135	-0.112	-0.032
-531.091	800.000	0.060	0.253
-530.077	800.000	-0.036	-0.106
-529.062	-200.000	-0.006	0.113
-528.048	65.874	0.164	-0.168
-527.033	800.000	-0.045	0.157
-526.018	-129.810	0.379	-0.053
-525.004	-200.000	-0.004	0.257
-523.989	114.156	0.113	-0.139
-522.975	-7.907	-0.035	-0.024
-521.960	200.039	0.130	0.201
-520.945	4.745	-0.165	-0.122
-519.931	-200.000	-0.032	-0.182
-518.916	-137.897	0.207	-0.023
-517.902	-127.500	0.372	-0.054
-516.887	-200.000	0.081	0.425
-515.872	393.500	0.119	0.249
-514.858	92.338	0.336	0.381
-513.843	-118.267	0.136	0.024
-512.829	800.000	0.025	-0.103
-511.814	-54.848	0.172	0.078
-510.799	-44.298	0.333	0.168
-509.785	-160.600	-0.096	0.005
-508.770	486.061	-0.115	0.265
-507.756	-103.682	0.302	0.071
-506.741	390.400	0.033	0.069
-505.726	664.513	0.027	-0.070
-504.712	-128.300	0.088	0.013
-503.697	-113.514	0.124	-0.024
-502.683	-85.554	0.190	0.060
-501.668	480.662	0.122	-0.278
-500.653	-79.507	0.160	-0.054
-499.639	800.000	-0.114	0.328
-498.624	14.973	-0.206	-0.162
-497.610	-111.802	0.097	0.020
-496.595	800.000	-0.080	-0.278
-495.581	209.142	0.092	-0.145
-494.566	400.802	-0.084	0.178
-493.551	800.000	0.059	-0.186
-492.537	-6.979	0.249	-0.170
-491.522	-177.599	0.146	-0.004
-490.508	-32.040	-0.383	0.216
-489.493	-85.449	0.310	-0.097
-488.478	-78.705	-0.572	-0.196
-487.464	-105.016	0.352	0.081
-486.449	-123.180	0.430	0.069
-485.435	-200.000	-0.025	0.162
-484.420	-56.201	-0.243	-0.109
-483.405	109.780	-0.030	0.036
-482.391	251.232	-0.151	-0.258
-481.376	-97.275	-0.337	-0.089
-480.362	-200.000	0.036	-0.206
-479.347	-200.000	0.015	-0.327
-478.332	154.324	-0.080	-0.111
-477.318	-109.490	0.073	-0.015
-476.303	246.185	0.156	0.264
-475.289	174.502	0.080	0.116
-474.274	-200.000	0.020	0.091
-473.259	46.505	-0.242	-0.225
-472.245	800.000	0.045	-0.154
-471.230	800.000	-0.085	-0.319
-470.216	394.365	0.081	-0.169
-469.201	47.993	-0.249	0.234
-468.186	-80.656	0.011	0.004
-467.172	-7.592	-0.302	0.205
-466.157	26.994	-0.205	-0.173
-465.143	382.590	-0.050	0.104
-464.128	800.000	0.058	0.166
-463.113	324.637	0.244	0.469
-462.099	800.000	0.073	0.272
-461.084	-107.977	-0.096	0.021
-460.070	276.272	-0.057	0.103
-459.055	53.573	0.325	0.313
-458.040	-71.395	0.209	0.079
-457.026	336.479	-0.076	-0.148
-456.011	-154.132	-0.125	-0.009
-454.997	800.000	0.073	-0.223
-453.982	451.557	0.034	0.076
-452.968	-64.392	-0.222	-0.091
-451.953	-200.000	0.040	-0.253
-450.938	800.000	-0.056	-0.169
-449.924	312.568	-0.020	0.038
-448.909	-144.782	0.122	0.011
-447.895	-95.652	0.136	-0.037
-446.880	800.000	0.120	-0.401
-445.865	-121.090	0.187	0.032
-444.851	611.452	0.145	0.363
-443.836	-29.362	-0.233	0.134
-442.822	92.115	-0.111	-0.126
-441.807	-200.000	-0.048	0.297
-440.792	-146.920	-0.450	-0.039
-439.778	48.729	0.091	0.086
-438.763	81.697	0.130	-0.141
-437.749	-2.528	-0.129	-0.091
-436.734	800.000	-0.084	-0.255
-435.719	-17.125	-0.258	0.164
-434.705	-23.856	0.211	0.127
-433.690	8.300	-0.118	-0.089
-432.676	-54.907	-0.196	0.089
-431.661	280.157	-0.149	-0.268
-430.646	-200.000	0.011	0.161
-429.632	-200.000	-0.042	0.225
-428.617	-151.896	-0.078	0.006
-427.603	-26.592	0.148	0.087
-426.588	189.500	0.121	-0.182
-425.573	-200.000	-0.047	0.253
-424.559	-131.723	0.279	-0.037
-423.544	262.021	-0.145	0.252
-422.530	-51.728	0.196	0.092
-421.515	188.770	0.122	0.184
-420.500	189.411	0.200	-0.301
-419.486	-58.021	0.154	0.068
-418.471	-177.176	0.444	0.011
-417.457	-106.166	-0.229	-0.052
-416.442	35.018	0.264	-0.232
-415.428	-200.000	0.023	0.171
-414.413	112.158	-0.113	-0.137
-413.398	-200.000	0.015	0.219
-412.384	800.000	0.098	0.273
-411.369	800.000	0.070	-0.197
-410.355	-185.121	0.292	0.005
-409.340	800.000	-0.062	-0.175
-408.325	121.361	0.183	-0.228
-407.311	21.350	0.135	0.110
-406.296	314.111	0.048	-0.091
-405.282	800.000	-0.028	0.093
-404.267	-49.448	0.164	0.079
-403.252	-200.000	0.033	-0.271
-402.238	13.231	-0.049	-0.038
-401.223	-191.779	-0.369	0.004
-400.209	-42.203	-0.171	-0.088
-399.194	143.697	-0.023	-0.031
-398.179	-126.892	0.308	-0.046
-397.165	-125.636	0.229	-0.035
-396.150	120.255	-0.196	-0.244
-395.136	-50.127	-0.419	0.199
-394.121	-45.310	-0.148	0.074
-393.106	112.884	0.072	0.087
-392.092	-75.182	0.238	0.085
-391.077	-26.353	-0.239	-0.140
-390.063	20.205	-0.080	-0.064
-389.048	10.243	-0.046	-0.035
-388.033	95.216	0.116	0.132
-387.019	-115.186	-0.175	-0.033
-386.004	696.105	-0.089	-0.235
-384.990	800.000	0.030	-0.104
-383.975	-200.000	-0.007	-0.039
-382.960	177.878	0.113	-0.165
-381.946	291.488	-0.056	0.102
-380.931	-144.505	0.110	0.010
-379.917	172.050	-0.049	0.070
-378.902	800.000	0.089	-0.280
-377.888	-200.000	0.011	0.187
-376.873	-200.000	0.008	-0.166
-375.858	580.541	-0.205	-0.504
-374.844	-200.000	-0.008	0.109
-373.829	-96.472	0.094	0.025
-372.815	63.155	0.351	0.352
-371.800	72.201	0.185	0.193
-370.785	45.038	0.296	0.273
-369.771	434.796	-0.147	-0.319
-368.756	75.510	-0.124	-0.131
-367.742	-68.232	-0.199	-0.078
-366.727	-200.000	0.011	0.174
-365.712	-20.045	-0.288	0.178
-364.698	-129.156	0.315	-0.044
-363.683	-200.000	-0.027	0.210
-362.669	-200.000	-0.001	0.081
-361.654	123.309	-0.159	0.199
-360.639	-84.837	0.405	-0.128
-359.625	33.176	-0.083	0.072
-358.610	-122.802	-0.104	-0.017
-357.596	-92.315	0.469	-0.132
-356.581	-33.866	-0.158	-0.087
-355.566	26.868	0.096	-0.080
-354.552	800.000	-0.111	-0.469
-353.537	-157.575	-0.151	0.009
-352.523	-83.379	0.289	0.093
-351.508	-156.713	0.075	-0.005
-350.493	94.879	0.062	0.071
-349.479	800.000	0.032	0.118
-348.464	-200.000	-0.004	0.037
-347.450	-200.000	-0.053	0.288
-346.435	-119.925	-0.065	0.011
-345.420	433.087	-0.047	-0.101
-344.406	-108.459	0.213	-0.046
-343.391	-150.175	0.193	-0.015
-342.377	800.000	-0.013	-0.041
-341.362	-137.966	0.143	0.016
-340.348	-128.327	-0.029	-0.004
-339.333	23.643	0.101	-0.083
-338.318	-171.209	0.170	0.006
-337.304	-200.000	-0.067	-0.297
-336.289	709.041	-0.090	0.239
-335.275	282.036	0.211	0.379
-334.260	156.501	0.044	-0.061
-333.245	4.707	-0.133	-0.097
-332.231	-200.000	-0.005	-0.211
-331.216	291.876	-0.202	-0.367
-330.202	-88.355	-0.196	0.058
-329.187	83.901	-0.344	0.376
-328.172	-200.000	0.008	-0.256
-327.158	-30.250	-0.160	-0.091
-326.143	231.998	0.157	0.258
-325.129	-28.535	0.070	0.041
-324.114	-73.711	0.196	-0.071
-323.099	403.853	-0.079	0.166
-322.085	800.000	-0.067	0.230
-321.070	-200.000	-0.016	0.191
-320.056	-200.000	0.018	0.208
-319.041	800.000	-0.173	-0.579
-318.026	236.103	0.127	-0.210
-317.012	-97.717	0.148	0.038
-315.997	-143.763	0.251	-0.024
-314.983	-200.000	-0.014	-0.221
-313.968	-125.650	0.191	-0.029
-312.953	-19.386	-0.265	0.164
-311.939	-200.000	-0.047	-0.262
-310.924	171.897	-0.249	-0.357
-309.910	49.909	0.067	-0.063
-308.895	-123.711	0.457	0.072
-307.880	-69.832	-0.058	-0.022
-306.866	-167.178	-0.136	-0.006
-305.851	-5.615	0.080	-0.054
-304.837	-59.662	-0.050	-0.021
-303.822	-86.678	0.134	0.041
-302.807	800.000	-0.024	-0.090
-301.793	-101.701	0.240	-0.058
-300.778	-200.000	-0.054	0.255
-299.764	-138.442	0.119	0.013
-298.749	-24.666	0.054	-0.032
-297.735	240.414	-0.121	-0.202
-296.720	230.135	-0.076	0.124
-295.705	306.275	-0.051	-0.094
-294.691	156.819	-0.117	-0.162
-293.676	-200.000	-0.008	-0.069
-292.662	-16.156	-0.176	0.112
-291.647	800.000	-0.070	0.253
-290.632	110.464	0.016	-0.019
-289.618	800.000	-0.019	-0.077
-288.603	-41.606	-0.256	0.131
-287.589	-72.067	-0.111	-0.041
-286.574	293.799	-0.068	0.124
-285.559	25.645	0.182	-0.151
-284.545	-50.649	0.169	-0.079
-283.530	-97.926	-0.234	0.060
-282.516	-157.944	-0.141	-0.008
-281.501	-30.758	-0.104	0.059
-280.486	69.916	-0.259	0.266
-279.472	-103.673	-0.247	0.058
-278.457	800.000	-0.080	-0.237
-277.443	-200.000	0.000	0.014
-276.428	8.449	-0.239	0.180
-275.413	95.490	0.188	0.214
-274.399	-97.980	-0.075	0.019
-273.384	635.306	-0.090	-0.228
-272.370	42.416	0.336	0.305
-271.355	237.567	-0.180	-0.298
-270.340	541.283	0.088	-0.210
-269.326	51.982	0.231	0.219
-268.311	239.752	0.061	-0.101
-267.297	-66.888	0.254	0.100
-266.282	-136.866	-0.141	-0.016
-265.267	800.000	-0.021	0.085
-264.253	-200.000	0.004	-0.299
-263.238	365.243	-0.095	-0.190
-262.224	-200.000	-0.030	0.180
-261.209	219.365	0.199	0.317
-260.195	120.438	0.118	0.147
-259.180	93.734	0.064	-0.072
-258.165	-144.636	0.339	-0.031
-257.151	-200.000	0.000	0.029
-256.136	273.041	0.115	0.203
-255.122	-200.000	0.017	0.167
-254.107	-200.000	-0.032	-0.193
-253.092	57.371	0.166	0.161
-252.078	13.905	0.208	0.161
-251.063	342.469	0.169	-0.330
-250.049	295.022	-0.189	-0.345
-249.034	204.449	0.062	0.096
-248.019	-17.829	0.098	-0.061
-247.005	-26.175	-0.147	-0.086
-245.990	-79.013	-0.158	0.054
-244.976	499.774	0.126	-0.290
-243.961	-48.392	0.108	-0.052
-242.946	800.000	-0.072	-0.293
-241.932	-125.355	-0.173	0.026
-240.917	143.383	0.235	0.312
-239.903	-152.911	-0.444	0.031
-238.888	344.496	-0.104	-0.203
-237.873	-78.505	0.136	-0.046
-236.859	161.183	-0.121	-0.169
-235.844	-45.972	0.116	0.057
-234.830	800.000	0.068	0.197
-233.815	-200.000	0.065	0.537
-232.800	-143.708	-0.112	-0.011
-231.786	24.440	-0.064	-0.053
-230.771	-19.595	-0.186	-0.115
-229.757	772.432	0.037	-0.100
-228.742	-200.000	-0.010	-0.161
-227.727	-5.120	0.315	-0.216
-226.713	800.000	-0.017	0.050
-225.698	33.004	0.122	-0.105
-224.684	-127.666	-0.332	0.048
-223.669	236.792	-0.239	0.394
-222.655	-200.000	0.007	0.165
-221.640	47.879	-0.267	-0.249
-220.625	-83.235	0.166	-0.053
-219.611	229.605	0.086	-0.139
-218.596	-68.637	0.175	0.067
-217.582	-120.346	-0.396	0.067
-216.567	-200.000	0.033	-0.200
-215.552	300.300	-0.078	0.143
-214.538	-25.597	0.168	0.099
-213.523	-182.548	-0.129	0.002
-212.509	-200.000	0.072	0.374
-211.494	165.145	-0.226	0.317
-210.479	47.189	-0.211	0.196
-209.465	154.087	0.121	0.165
-208.450	-131.843	-0.454	-0.059
-207.436	101.464	-0.184	-0.213
-206.421	153.083	0.075	0.102
-205.406	-116.512	-0.263	0.048
-204.392	36.960	-0.191	0.168
-203.377	-200.000	-0.040	0.202
-202.363	800.000	0.068	0.229
-201.348	197.780	-0.055	0.084
-200.333	800.000	0.061	-0.226
-199.319	258.553	0.017	0.028
-198.304	-68.780	0.059	0.023
-197.290	-200.000	-0.021	0.172
-196.275	19.787	-0.299	0.239
-195.260	-52.673	0.409	-0.188
-194.246	83.414	0.160	-0.173
-193.231	-57.895	-0.056	0.024
-192.217	334.401	-0.066	0.128
-191.202	-200.000	-0.001	0.181
-190.187	-135.634	-0.298	0.035
-189.173	-84.300	-0.200	-0.063
-188.158	-200.000	0.003	0.033
-187.144	-59.822	-0.224	0.095
-186.129	-200.000	0.096	-0.453
-185.114	19.176	0.310	0.248
-184.100	800.000	-0.050	0.174
-183.085	44.579	0.102	0.093
-182.071	800.000	0.042	0.138
-181.056	800.000	0.068	0.269
-180.042	800.000	-0.076	-0.279
-179.027	800.000	0.094	0.301
-178.012	-24.316	-0.151	0.090
-176.998	82.059	-0.083	0.089
-175.983	108.129	0.243	-0.288
-174.969	800.000	0.026	0.104
-173.954	47.574	-0.046	0.043
-172.939	-70.129	-0.137	0.052
-171.925	-6.471	-0.180	0.122
-170.910	-46.127	0.430	-0.210
-169.896	-27.046	0.276	-0.160
-168.881	-48.711	-0.126	0.060
-167.866	800.000	0.069	0.192
-166.852	757.212	-0.055	0.148
-165.837	115.855	0.423	0.514
-164.823	-200.000	0.007	-0.503
-163.808	-56.833	-0.341	-0.150
-162.793	45.260	0.198	-0.181
-161.779	-107.035	-0.270	-0.059
-160.764	111.193	-0.179	-0.214
-159.750	55.200	0.305	-0.293
-158.735	602.330	0.093	-0.231
-157.720	-150.020	-0.325	0.025
-156.706	13.977	0.332	0.257
-155.691	422.090	-0.040	-0.085
-154.677	800.000	-0.115	0.383
-153.662	32.640	0.271	0.233
-152.647	-106.938	-0.113	-0.025
-151.633	-61.377	0.147	-0.062
-150.618	-100.858	0.426	0.104
-149.604	-136.012	0.102	0.012
-148.589	-50.849	-0.174	0.081
-147.574	-49.230	0.077	-0.036
-146.560	800.000	-0.075	0.268
-145.545	-92.210	0.327	-0.092
-144.531	35.824	-0.146	-0.128
-143.516	29.059	0.230	-0.194
-142.502	-200.000	-0.023	0.105
-141.487	219.250	0.185	-0.294
-140.472	-104.796	0.168	0.038
-139.458	-200.000	0.050	0.279
-138.443	270.116	-0.074	0.129
-137.429	190.509	0.228	-0.340
-136.414	-24.037	-0.130	0.077
-135.399	-1.619	-0.107	0.075
-134.385	140.476	-0.127	-0.166
-133.370	-110.808	-0.081	0.017
-132.356	-140.515	0.210	-0.022
-131.341	533.863	-0.101	0.238
-130.326	-140.608	-0.172	-0.018
-129.312	117.820	0.148	-0.181
-128.297	276.318	0.143	0.252
-127.283	-115.520	-0.260	-0.049
-126.268	222.330	0.204	0.326
-125.253	-200.000	-0.018	0.200
-124.239	216.785	-0.118	0.186
-123.224	-200.000	-0.031	-0.146
-122.210	-65.349	0.161	0.064
