DTS Sentinel unit serial number:	SN413079Multiplexer serial number:	ORYXHardware model number:	OX4-SRSoftware version number:	ORYX F/W v4.00 Oryx Data Collector v3.7.2.0data status	okinstallation	princeton_trtdifferential loss correction	single-endedforward channel	channel 4reverse channel	N/Adate	2019/09/10time	20:59:11forward acquisition time	60.00reverse acquisition time	0.00gamma	496.2192k internal	0.2312k external	0.2312temperature offset calibration	0.9945default loss term (dB/km)	0.3790temperature slope calibration	1.0000multiplexer offset coefficient	1.0000multiplexer slope coefficient	1.0000fibre end	0.00T internal ref (°C)	31.62T ext. ref 1 (°C)	-0.32T ext. ref 2 (°C)	24.87length (m)	temperature (°C)	Stokes	anti-Stokes-747.200	-200.000	0.060	0.550
-746.185	-200.000	0.007	0.412
-745.171	-7.165	0.349	0.240
-744.156	-200.000	0.027	0.357
-743.142	-95.555	0.041	0.011
-742.127	-7.178	0.166	0.114
-741.112	368.246	-0.098	-0.201
-740.098	0.288	0.240	0.174
-739.083	5.507	0.180	-0.135
-738.069	12.646	0.065	-0.051
-737.054	-200.000	0.033	0.209
-736.039	-39.649	-0.350	-0.186
-735.025	533.278	0.026	0.063
-734.010	800.000	-0.145	-0.422
-732.996	35.022	-0.177	-0.157
-731.981	217.429	-0.152	0.245
-730.966	64.963	-0.287	0.294
-729.952	40.666	-0.025	-0.023
-728.937	-200.000	0.009	-0.175
-727.923	715.105	0.158	-0.426
-726.908	-200.000	-0.086	-0.524
-725.894	-117.030	-0.438	0.081
-724.879	-152.022	-0.144	0.011
-723.864	47.935	-0.178	-0.169
-722.850	312.888	-0.141	0.268
-721.835	44.325	-0.219	0.203
-720.821	14.278	-0.067	0.053
-719.806	255.550	0.085	0.148
-718.791	85.266	-0.193	-0.215
-717.777	429.240	0.087	0.190
-716.762	-70.197	-0.464	-0.179
-715.748	-66.534	0.219	0.088
-714.733	-176.749	-0.031	-0.001
-713.718	-200.000	0.041	0.204
-712.704	-200.000	0.028	0.137
-711.689	-90.598	-0.229	0.067
-710.675	2.152	-0.045	0.033
-709.660	-42.354	-0.177	-0.092
-708.645	-138.824	0.142	-0.016
-707.631	522.778	0.134	-0.319
-706.616	665.482	-0.068	0.178
-705.602	4.205	-0.114	-0.085
-704.587	-91.717	-0.182	0.053
-703.572	79.446	0.222	-0.241
-702.558	749.483	-0.070	0.191
-701.543	800.000	-0.041	-0.177
-700.529	89.029	0.160	0.180
-699.514	800.000	-0.132	0.372
-698.499	220.143	0.106	0.172
-697.485	-70.377	-0.186	0.071
-696.470	27.733	0.125	0.107
-695.456	-80.439	-0.093	0.031
-694.441	-94.386	-0.278	-0.077
-693.426	-184.879	-0.125	0.002
-692.412	-200.000	0.054	-0.414
-691.397	800.000	0.126	-0.355
-690.383	-157.264	-0.231	-0.014
-689.368	140.863	-0.036	0.048
-688.354	-101.736	0.171	0.042
-687.339	37.824	-0.051	0.046
-686.324	80.133	0.160	0.174
-685.310	186.154	-0.091	0.138
-684.295	5.237	-0.426	-0.318
-683.281	48.016	-0.037	-0.035
-682.266	-142.753	-0.325	0.032
-681.251	-200.000	-0.000	-0.252
-680.237	800.000	0.021	-0.069
-679.222	-21.969	-0.175	-0.107
-678.208	-43.095	-0.185	0.095
-677.193	-52.728	-0.165	-0.077
-676.178	102.934	-0.232	-0.275
-675.164	-200.000	-0.030	0.214
-674.149	41.242	-0.161	-0.147
-673.135	210.951	-0.152	0.242
-672.120	-140.347	0.293	0.031
-671.105	-94.120	-0.206	-0.057
-670.091	403.139	-0.071	0.151
-669.076	-101.932	0.353	-0.086
-668.062	-64.947	0.159	-0.065
-667.047	176.731	-0.197	-0.289
-666.032	-78.282	0.104	-0.036
-665.018	-100.207	0.252	-0.063
-664.003	-134.279	-0.225	-0.028
-662.989	48.506	-0.216	0.204
-661.974	-2.987	0.169	-0.119
-660.959	-200.000	-0.047	-0.405
-659.945	-200.000	-0.001	0.177
-658.930	800.000	0.040	0.179
-657.916	-4.077	-0.184	0.129
-656.901	90.653	-0.149	0.169
-655.886	-69.182	-0.035	0.014
-654.872	800.000	0.036	-0.123
-653.857	530.542	-0.080	-0.191
-652.843	56.563	-0.228	0.224
-651.828	800.000	0.022	0.093
-650.814	115.814	-0.283	-0.350
-649.799	255.060	0.066	-0.115
-648.784	-200.000	-0.022	0.156
-647.770	-200.000	0.017	-0.100
-646.755	800.000	-0.059	-0.217
-645.741	214.874	0.131	-0.210
-644.726	-123.242	0.107	0.017
-643.711	-200.000	0.008	0.179
-642.697	-23.094	0.060	-0.037
-641.682	-28.579	-0.368	0.214
-640.668	-129.555	0.178	0.025
-639.653	617.607	0.092	-0.234
-638.638	81.732	0.071	0.077
-637.624	-24.107	0.035	-0.021
-636.609	20.440	0.110	-0.089
-635.595	-17.060	0.166	-0.106
-634.580	-134.974	0.065	0.008
-633.565	-75.870	-0.366	-0.131
-632.551	57.061	0.191	-0.188
-631.536	16.355	-0.303	-0.242
-630.522	-200.000	0.017	-0.166
-629.507	-121.761	0.276	0.046
-628.492	-173.176	0.103	0.003
-627.478	-200.000	0.001	0.156
-626.463	-200.000	0.026	-0.247
-625.449	-93.057	0.262	0.074
-624.434	-59.942	0.084	0.036
-623.419	771.570	0.104	-0.286
-622.405	-200.000	0.048	-0.238
-621.390	102.983	-0.324	0.383
-620.376	11.623	0.195	-0.151
-619.361	-164.028	-0.378	-0.018
-618.346	-200.000	0.060	-0.273
-617.332	800.000	0.090	-0.357
-616.317	189.258	0.031	-0.046
-615.303	-200.000	-0.018	-0.156
-614.288	96.481	0.239	-0.276
-613.273	-50.391	0.283	-0.135
-612.259	-84.306	-0.130	0.042
-611.244	54.175	-0.208	0.202
-610.230	-163.452	-0.335	-0.016
-609.215	-97.432	0.297	0.078
-608.201	-142.003	0.206	-0.021
-607.186	-55.658	0.185	-0.084
-606.171	218.019	0.277	0.446
-605.157	-200.000	-0.005	0.245
-604.142	-141.097	0.143	0.015
-603.128	-116.204	-0.312	0.058
-602.113	-200.000	-0.035	-0.249
-601.098	-147.081	-0.083	-0.007
-600.084	-98.711	0.183	-0.047
-599.069	-180.382	0.130	-0.003
-598.055	-3.219	0.273	0.192
-597.040	-113.515	0.174	0.034
-596.025	-200.000	-0.005	0.058
-595.011	-102.282	0.425	0.103
-593.996	174.107	-0.270	0.394
-592.982	176.930	0.195	-0.286
-591.967	216.593	-0.101	-0.163
-590.952	-166.166	0.068	0.003
-589.938	-164.518	-0.292	-0.013
-588.923	48.011	-0.115	-0.108
-587.909	125.982	-0.102	-0.130
-586.894	-200.000	-0.025	-0.223
-585.879	-19.548	-0.201	0.126
-584.865	-97.334	-0.390	-0.103
-583.850	124.478	0.231	0.293
-582.836	67.049	0.176	-0.181
-581.821	329.149	-0.116	0.225
-580.806	-167.244	-0.268	0.011
-579.792	42.888	-0.091	-0.083
-578.777	580.380	-0.062	-0.152
-577.763	-200.000	0.017	-0.129
-576.748	48.416	0.217	0.205
-575.733	-105.758	-0.428	-0.098
-574.719	-85.098	-0.274	-0.086
-573.704	6.606	0.196	0.147
-572.690	-11.517	-0.270	-0.179
-571.675	-28.253	-0.180	-0.105
-570.661	347.129	0.252	0.499
-569.646	800.000	0.076	0.224
-568.631	-12.047	-0.103	-0.068
-567.617	-24.528	-0.205	0.123
-566.602	659.810	-0.105	0.271
-565.588	-37.861	0.158	-0.084
-564.573	-200.000	0.083	-0.000
-563.558	401.436	-0.053	0.113
-562.544	46.844	-0.231	0.216
-561.529	-28.560	0.116	0.068
-560.515	-42.411	0.262	-0.135
-559.500	-200.000	-0.003	0.055
-558.485	48.554	0.294	-0.277
-557.471	-4.834	-0.031	0.022
-556.456	-200.000	-0.026	0.147
-555.442	-46.997	0.208	-0.102
-554.427	-118.559	-0.310	0.055
-553.412	385.806	0.003	0.007
-552.398	-92.154	-0.217	-0.062
-551.383	38.411	-0.307	-0.275
-550.369	-113.473	-0.149	-0.029
-549.354	95.248	-0.072	-0.082
-548.339	800.000	-0.051	-0.202
-547.325	-200.000	-0.027	0.141
-546.310	26.968	0.174	-0.147
-545.296	280.068	-0.083	-0.149
-544.281	800.000	0.042	0.121
-543.266	800.000	-0.079	0.333
-542.252	-45.177	0.068	0.034
-541.237	192.975	-0.154	-0.235
-540.223	-200.000	-0.033	0.297
-539.208	415.486	0.101	-0.216
-538.193	-200.000	0.003	0.036
-537.179	-5.735	0.162	-0.111
-536.164	-200.000	-0.003	-0.113
-535.150	-160.573	-0.206	0.011
-534.135	-54.422	0.152	0.069
-533.121	11.569	0.133	0.102
-532.106	-200.000	0.031	-0.327
-531.091	-93.548	-0.162	0.045
-530.077	-19.184	-0.194	0.121
-529.062	-32.125	-0.250	0.141
-528.048	60.865	0.102	-0.102
-527.033	-116.437	0.271	-0.050
-526.018	-200.000	-0.001	0.199
-525.004	54.953	0.136	0.132
-523.989	84.586	0.188	0.206
-522.975	-61.834	-0.051	-0.021
-521.960	-98.044	0.122	-0.031
-520.945	-200.000	-0.004	-0.078
-519.931	800.000	-0.081	-0.353
-518.916	557.929	0.114	-0.276
-517.902	1.586	0.111	0.081
-516.887	147.685	0.052	-0.070
-515.872	-102.838	-0.165	-0.039
-514.858	-131.029	-0.231	-0.031
-513.843	-42.024	-0.197	0.101
-512.829	-159.736	0.338	-0.019
-511.814	-200.000	-0.032	0.144
-510.799	56.780	-0.341	0.334
-509.785	-68.539	-0.184	0.072
-508.770	-200.000	0.023	0.172
-507.756	-150.359	-0.010	-0.001
-506.741	454.420	0.126	0.281
-505.726	-22.066	0.297	-0.181
-504.712	800.000	0.037	0.147
-503.697	187.345	0.165	-0.247
-502.683	-200.000	0.004	0.244
-501.668	348.571	0.145	0.286
-500.653	-9.047	-0.225	-0.152
-499.639	76.806	0.162	0.173
-498.624	-9.376	-0.071	-0.047
-497.610	-30.906	-0.136	0.077
-496.595	11.376	0.164	-0.127
-495.581	-104.594	-0.440	0.102
-494.566	208.918	-0.128	0.201
-493.551	59.786	0.166	0.165
-492.537	46.289	0.214	0.199
-491.522	-200.000	-0.019	0.126
-490.508	-103.816	-0.251	-0.059
-489.493	396.938	-0.064	0.134
-488.478	-132.839	0.347	0.044
-487.464	800.000	0.049	-0.188
-486.449	1.919	-0.156	-0.113
-485.435	-200.000	0.077	0.392
-484.420	800.000	-0.022	0.065
-483.405	56.784	-0.104	0.101
-482.391	-107.562	0.107	-0.023
-481.376	71.948	-0.248	0.259
-480.362	312.873	0.076	-0.144
-479.347	800.000	-0.069	-0.249
-478.332	36.615	-0.232	0.206
-477.318	-200.000	0.000	-0.242
-476.303	-72.906	0.440	0.163
-475.289	-148.887	-0.178	0.014
-474.274	73.655	-0.374	0.393
-473.259	4.369	0.233	-0.171
-472.245	-200.000	-0.033	-0.364
-471.230	160.091	0.081	-0.113
-470.216	-47.384	-0.380	0.186
-469.201	-200.000	0.034	0.316
-468.186	55.182	0.306	-0.296
-467.172	-91.085	-0.043	-0.013
-466.157	-200.000	0.027	-0.290
-465.143	-200.000	-0.015	0.075
-464.128	-115.744	-0.184	-0.035
-463.113	-133.299	-0.126	-0.016
-462.099	39.698	0.073	-0.066
-461.084	21.753	0.135	-0.110
-460.070	49.980	0.068	0.064
-459.055	-200.000	0.084	0.371
-458.040	8.913	-0.195	0.147
-457.026	-200.000	0.075	0.384
-456.011	62.684	-0.073	0.073
-454.997	-178.651	0.370	0.009
-453.982	737.603	-0.108	0.290
-452.968	512.827	-0.092	-0.216
-451.953	31.389	0.155	0.133
-450.938	800.000	-0.020	0.066
-449.924	-30.809	-0.162	0.092
-448.909	48.105	0.215	-0.202
-447.895	-200.000	-0.046	0.315
-446.880	507.709	0.127	-0.297
-445.865	-152.849	-0.314	-0.022
-444.851	800.000	-0.055	0.171
-443.836	-124.216	-0.444	-0.070
-442.822	278.107	-0.064	0.114
-441.807	31.440	-0.134	0.116
-440.792	-116.748	0.232	-0.043
-439.778	800.000	0.027	0.113
-438.763	93.268	-0.062	-0.071
-437.749	-59.040	-0.051	-0.022
-436.734	-19.439	0.124	0.077
-435.719	-54.557	-0.102	0.046
-434.705	-18.216	0.206	0.129
-433.690	-154.797	0.109	0.007
-432.676	64.350	0.149	-0.150
-431.661	800.000	-0.120	-0.401
-430.646	28.052	-0.033	-0.028
-429.632	186.627	0.264	0.394
-428.617	-200.000	0.067	0.324
-427.603	-99.510	-0.316	0.080
-426.588	-74.783	0.256	-0.092
-425.573	168.564	-0.063	0.089
-424.559	119.057	0.144	0.178
-423.544	50.413	-0.170	-0.161
-422.530	-79.184	0.085	-0.029
-421.515	-78.322	-0.323	-0.111
-420.500	-200.000	-0.010	0.195
-419.486	-94.674	-0.428	-0.117
-418.471	48.588	0.130	-0.122
-417.457	338.981	0.180	0.351
-416.442	-29.497	0.202	0.116
-415.428	-200.000	0.003	-0.034
-414.413	130.574	-0.172	0.221
-413.398	8.967	0.112	0.085
-412.384	-8.538	-0.315	0.212
-411.369	-58.912	0.309	-0.134
-410.355	-200.000	0.002	-0.165
-409.340	-157.562	-0.337	-0.020
-408.325	124.948	0.174	0.219
-407.311	63.756	0.169	0.170
-406.296	-37.813	0.075	-0.040
-405.282	-129.544	0.135	-0.019
-404.267	2.340	-0.166	-0.120
-403.252	-56.968	-0.246	-0.109
-402.238	341.539	0.094	-0.184
-401.223	-200.000	0.039	-0.302
-400.209	-72.790	0.175	0.065
-399.194	-39.201	-0.143	0.075
-398.179	13.623	0.246	0.191
-397.165	648.714	0.036	0.093
-396.150	-103.422	-0.169	-0.040
-395.136	-43.589	-0.106	0.054
-394.121	-54.889	-0.309	-0.139
-393.106	-200.000	0.009	0.135
-392.092	-200.000	-0.014	-0.213
-391.077	-9.953	0.140	-0.093
-390.063	367.380	0.258	-0.522
-389.048	-79.792	0.351	-0.118
-388.033	-200.000	0.055	-0.439
-387.019	-92.523	0.161	-0.045
-386.004	309.421	0.150	0.281
-384.990	13.552	-0.298	0.231
-383.975	-200.000	-0.016	0.265
-382.960	364.432	-0.074	-0.149
-381.946	-200.000	0.029	0.252
-380.931	43.448	-0.217	-0.198
-379.917	-200.000	-0.026	-0.169
-378.902	-200.000	0.080	0.372
-377.888	-28.807	0.207	0.119
-376.873	-138.042	0.081	0.009
-375.858	144.965	0.156	-0.209
-374.844	122.913	-0.061	0.076
-373.829	29.307	-0.131	0.112
-372.815	-161.542	-0.244	0.013
-371.800	-200.000	0.021	0.114
-370.785	-54.529	0.180	-0.082
-369.771	800.000	0.035	-0.100
-368.756	-164.717	0.186	-0.008
-367.742	26.840	-0.435	0.364
-366.727	-142.473	-0.115	-0.011
-365.712	270.567	0.060	0.106
-364.698	800.000	0.026	-0.082
-363.683	42.043	-0.265	-0.240
-362.669	-8.410	0.143	-0.096
-361.654	800.000	0.036	0.148
-360.639	184.008	-0.203	-0.300
-359.625	-200.000	0.093	-0.465
-358.610	-2.328	0.109	-0.077
-357.596	-200.000	-0.006	-0.253
-356.581	556.342	0.100	-0.240
-355.566	-200.000	-0.005	0.084
-354.552	-200.000	-0.064	-0.308
-353.537	-126.454	-0.026	0.004
-352.523	-23.994	-0.140	-0.084
-351.508	-8.013	0.112	0.076
-350.493	-16.786	-0.283	0.179
-349.479	-76.649	0.263	-0.092
-348.464	-135.199	-0.225	-0.027
-347.450	381.605	-0.067	-0.138
-346.435	-149.709	0.297	0.023
-345.420	-200.000	0.002	0.042
-344.406	-200.000	-0.038	0.536
-343.391	-200.000	-0.063	0.403
-342.377	-200.000	0.069	-0.352
-341.362	-104.204	0.193	0.045
-340.348	97.704	0.151	0.173
-339.333	-200.000	-0.001	-0.069
-338.318	-3.573	-0.247	0.172
-337.304	544.654	-0.160	0.383
-336.289	47.263	0.233	0.217
-335.275	800.000	-0.082	0.235
-334.260	88.892	0.109	-0.121
-333.245	537.210	-0.126	0.298
-332.231	-200.000	-0.084	0.426
-331.216	-29.357	-0.053	0.030
-330.202	-78.441	0.252	-0.086
-329.187	-200.000	0.007	-0.300
-328.172	73.851	0.256	-0.268
-327.158	-34.462	0.063	-0.034
-326.143	271.186	0.091	-0.159
-325.129	-200.000	0.013	0.111
-324.114	2.462	-0.254	-0.184
-323.099	-67.759	-0.368	0.144
-322.085	-61.292	-0.266	0.112
-321.070	42.111	-0.114	0.104
-320.056	800.000	0.098	0.308
-319.041	98.537	-0.085	-0.098
-318.026	-1.992	0.184	0.129
-317.012	-200.000	0.068	0.497
-315.997	353.036	0.116	-0.230
-314.983	800.000	-0.034	0.120
-313.968	-16.949	0.209	0.131
-312.953	17.870	0.052	-0.041
-311.939	-200.000	0.017	-0.342
-310.924	-88.900	0.304	-0.090
-309.910	-200.000	-0.019	-0.115
-308.895	17.483	-0.416	-0.329
-307.880	-200.000	-0.003	0.197
-306.866	83.908	-0.063	0.068
-305.851	-200.000	-0.065	0.337
-304.837	144.174	0.126	0.168
-303.822	-152.146	-0.157	0.011
-302.807	-143.406	0.231	0.022
-301.793	212.385	0.197	-0.310
-300.778	-0.306	-0.167	-0.118
-299.764	800.000	0.046	-0.128
-298.749	539.358	-0.105	-0.249
-297.735	-200.000	0.010	-0.084
-296.720	-118.205	-0.213	0.038
-295.705	800.000	0.121	-0.398
-294.691	-22.710	-0.317	0.191
-293.676	521.477	0.131	0.307
-292.662	800.000	-0.032	-0.128
-291.647	800.000	-0.083	0.336
-290.632	-93.333	0.021	-0.006
-289.618	80.125	-0.147	0.158
-288.603	-40.055	0.376	0.195
-287.589	-200.000	0.000	-0.055
-286.574	251.008	-0.201	0.341
-285.559	-44.681	0.244	-0.121
-284.545	235.106	-0.063	-0.103
-283.530	37.240	-0.117	-0.103
-282.516	153.716	-0.042	-0.057
-281.501	274.054	0.172	-0.302
-280.486	-82.453	-0.322	-0.104
-279.472	97.893	-0.102	0.117
-278.457	747.190	0.017	0.047
-277.443	-141.228	-0.105	0.011
-276.428	-200.000	0.021	-0.100
-275.413	-4.390	0.055	0.038
-274.399	51.909	-0.211	0.200
-273.384	-200.000	-0.011	-0.199
-272.370	-200.000	-0.030	0.151
-271.355	280.833	0.153	-0.273
-270.340	-31.294	-0.134	-0.075
-269.326	437.677	-0.099	0.215
-268.311	-25.097	0.167	0.099
-267.297	466.847	-0.105	-0.235
-266.282	-200.000	0.017	-0.384
-265.267	800.000	-0.027	-0.083
-264.253	10.911	0.130	-0.099
-263.238	-45.879	0.061	-0.030
-262.224	66.154	-0.215	-0.218
-261.209	46.921	-0.218	-0.202
-260.195	-96.406	0.105	0.028
-259.180	-200.000	-0.015	0.257
-258.165	682.687	-0.134	-0.349
-257.151	441.326	-0.068	0.148
-256.136	153.060	-0.173	-0.235
-255.122	102.185	0.104	0.120
-254.107	-200.000	0.027	0.183
-253.092	-200.000	-0.017	0.401
-252.078	446.119	-0.064	-0.141
-251.063	-171.773	0.125	-0.004
-250.049	716.265	-0.035	0.093
-249.034	-147.344	0.222	0.019
-248.019	-148.108	-0.215	-0.018
-247.005	-151.462	-0.139	-0.010
-245.990	16.849	-0.070	0.055
-244.976	-46.850	0.149	-0.072
-243.961	-135.341	-0.107	0.013
-242.946	-74.286	0.400	0.144
-241.932	-86.186	0.187	-0.057
-240.917	-75.920	-0.180	0.064
-239.903	635.112	-0.142	-0.358
-238.888	466.427	-0.140	-0.312
-237.873	-47.299	0.147	-0.071
-236.859	39.362	-0.176	0.156
-235.844	67.549	-0.205	0.208
-234.830	-93.987	0.133	-0.036
-233.815	-155.772	-0.458	-0.029
-232.800	-34.256	-0.229	0.125
-231.786	197.250	0.194	0.295
-230.771	800.000	-0.052	-0.159
-229.757	308.254	-0.109	-0.201
-228.742	318.477	0.142	0.268
-227.727	-132.482	-0.077	-0.010
-226.713	-19.348	0.130	0.080
-225.698	102.070	-0.024	-0.028
-224.684	-62.019	0.296	0.123
-223.669	87.254	-0.107	-0.117
-222.655	-114.279	-0.160	-0.031
-221.640	178.859	0.083	0.121
-220.625	-146.327	-0.154	-0.013
-219.611	80.182	0.140	-0.150
-218.596	265.257	-0.102	-0.176
-217.582	557.531	-0.036	0.087
-216.567	59.556	0.128	0.126
-215.552	-144.044	0.336	-0.031
-214.538	189.428	0.104	-0.155
-213.523	800.000	-0.101	-0.431
-212.509	481.135	-0.062	0.141
-211.494	-54.719	0.141	-0.063
-210.479	16.134	-0.087	-0.068
-209.465	-98.098	0.096	-0.025
-208.450	225.807	0.100	0.161
-207.436	-67.243	0.191	0.075
-206.421	-100.625	-0.049	-0.012
-205.406	355.646	0.094	-0.185
-204.392	307.107	0.150	-0.278
-203.377	105.740	0.184	0.216
-202.363	-200.000	0.020	0.223
-201.348	-162.154	0.154	0.008
-200.333	-200.000	0.029	-0.291
-199.319	33.880	-0.219	-0.190
-198.304	-13.489	0.281	-0.181
-197.290	2.361	0.249	-0.179
-196.275	1.401	-0.249	-0.178
-195.260	-87.434	-0.165	-0.050
-194.246	-26.488	-0.230	-0.134
-193.231	-200.000	0.015	-0.118
-192.217	-200.000	0.013	-0.093
-191.202	-200.000	0.015	-0.134
-190.187	53.152	-0.242	-0.230
-189.173	354.274	0.190	-0.376
-188.158	800.000	0.077	-0.243
-187.144	-153.345	0.123	0.009
-186.129	800.000	0.057	0.178
-185.114	376.341	-0.123	-0.248
-184.100	-200.000	-0.032	0.147
-183.085	-62.776	0.102	-0.042
-182.071	-20.533	0.082	-0.050
-181.056	-200.000	-0.085	-0.373
-180.042	-20.200	0.176	0.108
-179.027	-200.000	-0.012	0.232
-178.012	-70.453	0.175	0.066
-176.998	-200.000	-0.050	0.477
-175.983	-96.542	0.076	0.020
-174.969	158.737	-0.131	0.181
-173.954	-200.000	-0.073	-0.386
-172.939	-200.000	0.013	0.284
-171.925	-91.073	-0.191	-0.054
-170.910	-31.461	0.076	0.042
-169.896	199.153	0.311	-0.473
-168.881	275.640	0.096	-0.169
-167.866	309.367	0.092	-0.170
-166.852	-200.000	0.009	0.227
-165.837	-78.200	-0.328	-0.112
-164.823	-53.976	0.288	-0.130
-163.808	-118.237	0.151	0.027
-162.793	-188.556	-0.366	-0.005
-161.779	103.011	0.379	0.441
-160.764	169.659	-0.103	0.146
-159.750	251.872	-0.100	0.169
-158.735	320.146	0.171	0.321
-157.720	333.786	0.057	0.109
-156.706	800.000	-0.020	-0.076
-155.691	-63.392	-0.187	0.076
-154.677	800.000	0.011	0.039
-153.662	-200.000	-0.003	0.041
-152.647	800.000	-0.073	-0.212
-151.633	-72.222	0.380	0.140
-150.618	60.510	-0.206	-0.203
-149.604	-90.471	0.282	0.081
-148.589	74.826	-0.080	-0.083
-147.574	509.208	0.166	0.383
-146.560	135.581	-0.178	0.230
-145.545	147.178	0.130	-0.173
-144.531	-200.000	-0.015	-0.371
-143.516	800.000	0.010	0.036
-142.502	-157.815	-0.039	0.002
-141.487	-200.000	0.010	-0.101
-140.472	-18.090	0.137	-0.085
-139.458	139.827	-0.135	-0.176
-138.443	-31.584	0.092	0.051
-137.429	-200.000	0.021	-0.166
-136.414	-191.157	-0.325	-0.003
-135.399	-200.000	0.015	-0.312
-134.385	800.000	-0.065	-0.237
-133.370	32.748	0.134	-0.115
-132.356	-10.371	-0.393	-0.258
-131.341	-57.303	-0.081	0.035
-130.326	-196.288	0.121	0.001
-129.312	-6.330	0.195	0.132
-128.297	-125.469	-0.353	-0.053
-127.283	397.508	-0.083	-0.171
-126.268	338.727	0.105	-0.202
-125.253	410.811	0.121	-0.253
-124.239	495.618	0.019	0.042
-123.224	800.000	-0.021	0.068
-122.210	295.369	0.149	-0.270
-121.195	-104.481	-0.185	-0.042
