DTS Sentinel unit serial number:	SN413079Multiplexer serial number:	ORYXHardware model number:	OX4-SRSoftware version number:	ORYX F/W v4.00 Oryx Data Collector v3.7.2.0data status	okinstallation	princeton_trtdifferential loss correction	single-endedforward channel	channel 4reverse channel	N/Adate	2019/09/11time	13:43:11forward acquisition time	60.00reverse acquisition time	0.00gamma	496.2192k internal	0.2283k external	0.2283temperature offset calibration	1.0003default loss term (dB/km)	0.3790temperature slope calibration	1.0000multiplexer offset coefficient	1.0000multiplexer slope coefficient	1.0000fibre end	0.00T internal ref (°C)	41.94T ext. ref 1 (°C)	0.84T ext. ref 2 (°C)	36.85length (m)	temperature (°C)	Stokes	anti-Stokes-747.200	-67.326	-0.262	-0.106
-746.185	-200.000	0.009	-0.270
-745.171	274.824	0.083	-0.151
-744.156	411.648	0.227	0.495
-743.142	-98.560	0.084	-0.022
-742.127	246.839	-0.003	0.006
-741.112	228.192	0.061	0.103
-740.098	781.108	0.077	-0.217
-739.083	738.150	0.094	-0.258
-738.069	-30.119	0.228	0.133
-737.054	256.611	-0.123	-0.218
-736.039	42.640	-0.284	-0.266
-735.025	-200.000	0.028	-0.458
-734.010	43.030	-0.232	0.217
-732.996	48.519	-0.188	0.181
-731.981	-89.242	-0.358	-0.109
-730.966	106.391	-0.158	0.192
-729.952	-200.000	0.016	0.166
-728.937	-200.000	-0.017	-0.186
-727.923	-200.000	0.015	-0.196
-726.908	-52.944	-0.152	0.072
-725.894	-176.667	-0.146	0.004
-724.879	-200.000	0.048	-0.243
-723.864	518.954	-0.101	-0.242
-722.850	-68.361	0.221	-0.088
-721.835	800.000	-0.071	-0.211
-720.821	-3.545	0.222	-0.159
-719.806	-200.000	0.002	0.267
-718.791	8.141	0.027	-0.021
-717.777	61.756	0.063	0.064
-716.762	-3.486	0.168	-0.120
-715.748	256.781	0.105	-0.185
-714.733	86.649	0.055	0.062
-713.718	800.000	-0.089	-0.320
-712.704	-51.665	-0.237	-0.113
-711.689	544.530	0.038	0.094
-710.675	-64.077	-0.520	-0.218
-709.660	-200.000	-0.037	-0.310
-708.645	-200.000	-0.022	0.114
-707.631	-65.118	0.066	-0.027
-706.616	-84.842	-0.171	0.055
-705.602	26.069	0.310	-0.266
-704.587	-152.749	0.243	0.018
-703.572	165.052	-0.057	-0.082
-702.558	640.482	0.086	0.225
-701.543	42.102	0.139	-0.129
-700.529	-94.784	-0.091	0.025
-699.514	-63.368	0.119	-0.050
-698.499	-154.656	-0.177	-0.012
-697.485	-150.337	-0.118	-0.009
-696.470	-1.807	-0.046	0.033
-695.456	64.341	-0.338	0.349
-694.441	227.204	-0.174	-0.290
-693.426	-98.584	0.287	-0.075
-692.412	-200.000	-0.003	0.140
-691.397	630.338	0.026	-0.067
-690.383	368.842	-0.033	-0.068
-689.368	-125.007	0.381	-0.060
-688.354	-20.688	-0.174	-0.110
-687.339	-200.000	-0.019	-0.266
-686.324	-25.431	0.159	-0.097
-685.310	800.000	0.086	-0.326
-684.295	-124.774	0.178	-0.028
-683.281	44.634	0.075	-0.071
-682.266	39.571	-0.289	-0.265
-681.251	-200.000	0.005	-0.407
-680.237	195.999	0.096	-0.150
-679.222	-200.000	-0.008	-0.144
-678.208	148.747	0.144	-0.199
-677.193	-2.673	0.082	-0.059
-676.178	101.205	-0.193	-0.231
-675.164	-62.821	-0.251	0.107
-674.149	432.976	-0.133	-0.297
-673.135	152.371	0.047	0.065
-672.120	800.000	0.027	-0.103
-671.105	-200.000	-0.006	0.103
-670.091	-123.235	0.207	-0.034
-669.076	-76.759	-0.225	0.081
-668.062	800.000	0.001	-0.005
-667.047	-200.000	-0.025	0.252
-666.032	-120.547	-0.328	-0.057
-665.018	-127.938	-0.364	0.054
-664.003	800.000	0.070	-0.301
-662.989	-136.888	0.378	-0.044
-661.974	-149.288	-0.088	0.007
-660.959	-102.723	0.312	-0.076
-659.945	800.000	-0.059	-0.233
-658.930	254.871	0.050	-0.087
-657.916	-200.000	0.001	-0.149
-656.901	46.574	0.315	-0.299
-655.886	185.055	-0.178	-0.271
-654.872	227.962	0.145	0.242
-653.857	-78.155	-0.230	-0.081
-652.843	-134.047	-0.182	0.023
-651.828	153.305	-0.117	0.163
-650.814	161.449	0.354	0.508
-649.799	50.684	0.129	0.125
-648.784	77.873	-0.071	-0.077
-647.770	5.678	-0.128	-0.097
-646.755	0.159	-0.115	0.084
-645.741	-95.920	0.151	0.041
-644.726	-178.492	0.230	0.005
-643.711	-200.000	0.016	0.256
-642.697	119.598	0.166	-0.210
-641.682	205.895	0.103	-0.164
-640.668	-200.000	0.005	-0.189
-639.653	800.000	-0.116	-0.461
-638.638	-200.000	0.041	0.252
-637.624	-88.810	0.112	-0.034
-636.609	219.062	-0.083	0.135
-635.595	-14.015	0.080	-0.053
-634.580	-4.279	0.100	-0.071
-633.565	173.694	0.244	-0.360
-632.551	800.000	-0.110	-0.370
-631.536	54.386	-0.100	0.099
-630.522	800.000	-0.050	-0.166
-629.507	222.086	-0.165	-0.272
-628.492	99.870	-0.081	-0.096
-627.478	-26.831	0.105	0.063
-626.463	384.854	-0.076	-0.161
-625.449	439.292	-0.033	-0.073
-624.434	460.732	0.100	-0.228
-623.419	286.860	0.102	0.189
-622.405	3.091	-0.131	-0.098
-621.390	-200.000	0.004	-0.129
-620.376	-87.006	0.118	0.037
-619.361	25.492	0.175	-0.148
-618.346	-200.000	0.006	0.074
-617.332	-116.602	0.157	-0.030
-616.317	-200.000	0.000	-0.088
-615.303	-81.888	0.188	-0.063
-614.288	97.522	0.089	0.104
-613.273	-129.813	-0.058	-0.008
-612.259	189.955	-0.259	-0.397
-611.244	800.000	-0.064	-0.193
-610.230	-106.991	0.139	-0.031
-609.215	-88.345	-0.238	-0.073
-608.201	201.948	-0.059	0.094
-607.186	65.512	-0.052	0.053
-606.171	-152.845	-0.229	-0.017
-605.157	4.911	-0.239	-0.179
-604.142	656.536	-0.062	-0.163
-603.128	3.706	-0.181	0.135
-602.113	-104.519	0.093	-0.022
-601.098	-40.488	0.270	0.143
-600.084	119.345	-0.255	0.323
-599.069	69.454	0.143	0.150
-598.055	-96.122	0.396	0.107
-597.040	-200.000	0.233	-0.001
-596.025	-200.000	0.007	0.202
-595.011	-145.633	-0.203	-0.019
-593.996	53.440	0.184	-0.180
-592.982	555.627	0.076	0.187
-591.967	85.833	-0.157	0.177
-590.952	-29.745	0.101	0.059
-589.938	-200.000	0.013	0.089
-588.923	101.816	-0.046	0.054
-587.909	348.070	-0.100	-0.202
-586.894	800.000	-0.085	-0.294
-585.879	-39.641	0.327	-0.175
-584.865	-200.000	0.034	-0.259
-583.850	2.520	0.326	0.241
-582.836	-86.118	-0.073	0.023
-581.821	-72.555	-0.130	0.049
-580.806	122.040	-0.229	0.291
-579.792	-39.251	0.346	-0.185
-578.777	-139.413	-0.155	-0.017
-577.763	-200.000	-0.073	0.486
-576.748	75.471	-0.013	-0.014
-575.733	-97.645	0.200	0.053
-574.719	224.189	-0.085	-0.140
-573.704	-75.409	0.231	0.084
-572.690	-134.848	0.352	-0.044
-571.675	-11.587	-0.275	-0.185
-570.661	-69.431	-0.028	0.011
-569.646	-200.000	0.036	-0.181
-568.631	107.210	-0.118	-0.143
-567.617	-83.384	0.321	0.105
-566.602	-138.416	-0.239	-0.027
-565.588	-136.754	-0.279	0.033
-564.573	-96.649	-0.067	-0.018
-563.558	-23.360	-0.147	0.090
-562.544	800.000	0.111	-0.348
-561.529	-200.000	0.000	-0.130
-560.515	-200.000	-0.018	0.230
-559.500	28.626	0.283	0.245
-558.485	-58.685	0.375	0.166
-557.471	-187.279	0.130	-0.002
-556.456	-198.293	0.265	0.002
-555.442	-80.714	0.068	-0.023
-554.427	-200.000	-0.017	-0.279
-553.412	-54.790	-0.232	-0.107
-552.398	800.000	-0.029	-0.099
-551.383	800.000	0.038	-0.136
-550.369	-125.091	0.246	0.039
-549.354	22.260	-0.148	-0.124
-548.339	85.627	0.285	0.319
-547.325	-7.078	-0.152	0.105
-546.310	-82.793	0.267	-0.088
-545.296	338.688	0.132	0.262
-544.281	-103.826	-0.432	0.103
-543.266	-200.000	-0.062	-0.347
-542.252	4.579	-0.190	-0.142
-541.237	-95.703	-0.033	-0.009
-540.223	-128.674	-0.307	-0.044
-539.208	-97.735	-0.197	0.052
-538.193	211.967	0.184	0.295
-537.179	-104.415	-0.068	-0.016
-536.164	-104.665	0.119	-0.028
-535.150	245.528	0.079	0.136
-534.135	-143.658	-0.406	-0.039
-533.121	-200.000	-0.051	-0.305
-532.106	-105.867	-0.177	0.041
-531.091	800.000	0.032	0.099
-530.077	-95.416	-0.078	0.021
-529.062	34.788	0.310	0.276
-528.048	-112.028	-0.245	0.050
-527.033	-200.000	0.038	-0.214
-526.018	-200.000	-0.017	0.178
-525.004	-2.090	0.185	-0.132
-523.989	-1.355	-0.155	-0.111
-522.975	-200.000	0.008	0.057
-521.960	-95.032	0.270	-0.074
-520.945	391.701	0.050	-0.106
-519.931	-200.000	0.012	0.065
-518.916	142.990	-0.126	-0.171
-517.902	214.250	0.132	-0.213
-516.887	-144.207	-0.265	-0.025
-515.872	-111.481	-0.330	0.068
-514.858	-200.000	-0.013	-0.072
-513.843	104.798	-0.184	0.221
-512.829	-105.436	0.160	-0.037
-511.814	-79.606	0.432	-0.148
-510.799	154.431	0.166	0.233
-509.785	230.327	0.090	0.151
-508.770	800.000	0.041	0.123
-507.756	-129.449	-0.094	-0.013
-506.741	81.161	0.057	0.063
-505.726	-200.000	0.004	0.194
-504.712	-12.345	-0.372	0.248
-503.697	-200.000	-0.037	-0.251
-502.683	104.335	0.073	-0.088
-501.668	0.591	0.120	-0.088
-500.653	594.121	-0.026	0.065
-499.639	-87.567	0.133	-0.041
-498.624	-200.000	0.035	-0.267
-497.610	-122.235	-0.099	-0.017
-496.595	-93.556	-0.485	-0.136
-495.581	-129.954	-0.290	-0.040
-494.566	-183.364	0.224	0.004
-493.551	-112.793	-0.206	-0.042
-492.537	499.002	-0.072	0.169
-491.522	-124.160	-0.116	-0.019
-490.508	-174.822	-0.206	0.006
-489.493	344.764	-0.069	0.138
-488.478	74.676	-0.260	-0.278
-487.464	800.000	0.115	0.371
-486.449	-14.629	-0.202	0.132
-485.435	-81.151	-0.140	0.047
-484.420	63.567	-0.039	-0.040
-483.405	-200.000	-0.039	0.227
-482.391	134.438	-0.031	-0.041
-481.376	800.000	0.062	-0.199
-480.362	203.411	0.027	-0.043
-479.347	-18.493	0.090	-0.057
-478.332	-200.000	0.011	0.310
-477.318	800.000	-0.037	-0.138
-476.303	-15.777	-0.219	-0.142
-475.289	-166.780	-0.309	-0.013
-474.274	1.525	0.068	-0.050
-473.259	-200.000	0.014	0.148
-472.245	-163.361	0.351	0.017
-471.230	-31.443	0.123	-0.070
-470.216	481.169	-0.060	0.138
-469.201	-156.050	-0.169	-0.011
-468.186	720.003	0.052	0.142
-467.172	-200.000	-0.051	0.398
-466.157	800.000	0.070	0.223
-465.143	800.000	-0.117	0.348
-464.128	11.782	-0.007	-0.005
-463.113	199.837	-0.157	-0.244
-462.099	-200.000	0.078	-0.372
-461.084	732.973	-0.028	0.076
-460.070	-24.955	0.218	-0.132
-459.055	289.867	-0.052	-0.096
-458.040	290.450	-0.132	-0.243
-457.026	614.458	0.160	-0.407
-456.011	102.667	0.168	0.200
-454.997	32.156	0.150	0.131
-453.982	-200.000	-0.006	0.286
-452.968	24.255	0.179	0.150
-451.953	25.124	-0.151	-0.127
-450.938	-200.000	0.031	0.150
-449.924	172.823	0.140	-0.205
-448.909	113.574	0.152	0.188
-447.895	800.000	-0.059	-0.230
-446.880	800.000	0.052	-0.167
-445.865	31.250	0.290	-0.253
-444.851	162.359	0.128	0.183
-443.836	800.000	-0.105	0.329
-442.822	735.377	0.079	-0.215
-441.807	116.240	-0.047	0.058
-440.792	-200.000	-0.048	0.272
-439.778	-134.488	0.287	0.036
-438.763	-18.202	-0.092	0.058
-437.749	-108.477	-0.480	-0.105
-436.734	800.000	-0.044	0.142
-435.719	178.079	-0.075	0.111
-434.705	-47.549	-0.136	-0.067
-433.690	715.089	-0.135	0.364
-432.676	-62.091	0.344	0.146
-431.661	-157.359	0.121	0.007
-430.646	-200.000	-0.006	0.158
-429.632	-116.059	0.325	-0.061
-428.617	32.919	-0.254	0.224
-427.603	800.000	0.024	-0.074
-426.588	-178.123	0.152	0.004
-425.573	-126.874	-0.103	0.015
-424.559	-66.788	-0.023	-0.009
-423.544	132.502	-0.160	0.209
-422.530	-63.872	-0.230	0.095
-421.515	748.803	0.048	-0.131
-420.500	329.302	0.038	-0.074
-419.486	-164.536	0.253	0.012
-418.471	153.277	0.130	-0.180
-417.457	-148.787	-0.360	0.030
-416.442	-17.906	-0.412	-0.262
-415.428	-43.327	0.268	0.138
-414.413	198.433	-0.222	0.344
-413.398	118.390	-0.186	0.233
-412.384	-59.997	-0.459	-0.199
-411.369	-200.000	-0.004	0.046
-410.355	-26.197	0.076	0.045
-409.340	-26.230	0.368	0.219
-408.325	-47.353	0.131	0.064
-407.311	-115.434	0.119	-0.023
-406.296	67.958	-0.111	-0.115
-405.282	-200.000	-0.005	0.077
-404.267	45.119	0.228	-0.213
-403.252	-200.000	0.024	-0.232
-402.238	-19.336	0.123	0.078
-401.223	-200.000	0.010	0.092
-400.209	358.898	-0.111	-0.224
-399.194	27.882	0.180	0.154
-398.179	-30.086	0.364	-0.210
-397.165	63.044	0.104	-0.106
-396.150	-118.627	0.383	0.069
-395.136	158.958	-0.186	0.263
-394.121	-200.000	0.038	0.206
-393.106	-68.633	-0.033	-0.013
-392.092	800.000	0.104	0.437
-391.077	-95.752	0.320	-0.087
-390.063	227.728	-0.157	0.260
-389.048	-200.000	-0.017	0.122
-388.033	113.102	0.152	0.187
-387.019	115.375	-0.106	0.131
-386.004	-200.000	-0.076	0.358
-384.990	7.575	-0.183	0.139
-383.975	179.966	-0.166	-0.247
-382.960	-200.000	-0.136	-0.000
-381.946	448.690	-0.091	-0.204
-380.931	-200.000	0.015	0.423
-379.917	26.194	-0.172	0.145
-378.902	29.826	-0.237	-0.205
-377.888	-116.144	-0.059	0.011
-376.873	-106.224	0.145	0.033
-375.858	-28.334	0.220	0.129
-374.844	99.952	-0.232	-0.273
-373.829	-200.000	-0.008	0.042
-372.815	54.527	0.257	0.251
-371.800	48.451	-0.069	0.065
-370.785	800.000	0.128	-0.465
-369.771	-200.000	-0.026	-0.417
-368.756	-200.000	-0.081	-0.386
-367.742	800.000	-0.118	-0.381
-366.727	-50.470	0.201	-0.096
-365.712	-66.795	0.468	-0.188
-364.698	-53.324	-0.299	0.139
-363.683	-10.410	0.104	-0.070
-362.669	800.000	-0.083	-0.295
-361.654	-86.591	0.201	0.062
-360.639	333.363	0.111	0.216
-359.625	-200.000	-0.023	0.127
-358.610	-200.000	0.053	-0.355
-357.596	800.000	0.035	-0.107
-356.581	-103.073	-0.138	0.033
-355.566	-100.622	-0.079	0.020
-354.552	-11.140	0.117	-0.078
-353.537	-9.370	-0.209	0.141
-352.523	800.000	-0.064	0.210
-351.508	-92.514	-0.074	0.021
-350.493	-71.819	-0.011	0.004
-349.479	69.363	-0.201	-0.209
-348.464	82.050	0.128	0.140
-347.450	133.453	0.076	-0.100
-346.435	-200.000	0.045	-0.273
-345.420	-47.000	-0.290	0.143
-344.406	-119.295	0.106	0.019
-343.391	40.475	0.251	0.229
-342.377	-200.000	-0.039	-0.381
-341.362	-77.735	-0.289	0.101
-340.348	42.408	-0.202	-0.186
-339.333	800.000	-0.069	0.289
-338.318	-174.633	-0.282	0.008
-337.304	28.030	-0.063	-0.053
-336.289	510.119	0.154	-0.362
-335.275	26.845	0.259	-0.220
-334.260	8.154	0.085	0.064
-333.245	-152.312	0.212	-0.015
-332.231	800.000	-0.034	-0.122
-331.216	61.848	-0.083	0.084
-330.202	15.348	-0.190	0.150
-329.187	-38.668	0.319	-0.170
-328.172	800.000	-0.106	0.305
-327.158	392.413	-0.181	0.381
-326.143	800.000	-0.152	0.428
-325.129	151.785	0.105	-0.144
-324.114	800.000	-0.033	-0.115
-323.099	-200.000	0.027	0.271
-322.085	-9.240	0.130	-0.088
-321.070	216.494	-0.017	-0.027
-320.056	-200.000	0.014	-0.212
-319.041	-161.535	0.192	-0.010
-318.026	-1.759	0.172	0.122
-317.012	45.596	0.031	-0.029
-315.997	568.810	-0.102	-0.250
-314.983	800.000	0.055	0.188
-313.968	-136.138	-0.180	-0.021
-312.953	316.794	0.227	0.434
-311.939	-173.442	-0.140	0.004
-310.924	-200.000	0.002	-0.187
-309.910	-93.016	-0.079	-0.022
-308.895	-200.000	-0.031	-0.161
-307.880	800.000	0.069	-0.203
-306.866	-200.000	0.107	0.478
-305.851	68.740	0.281	-0.291
-304.837	-57.030	-0.172	-0.077
-303.822	-200.000	0.011	0.371
-302.807	-34.156	-0.327	0.181
-301.793	800.000	0.032	-0.115
-300.778	13.907	0.037	-0.029
-299.764	-67.226	-0.247	-0.098
-298.749	303.185	-0.078	-0.147
-297.735	-30.962	0.064	0.036
-296.720	800.000	0.099	-0.371
-295.705	-17.809	0.355	-0.225
-294.691	47.827	-0.067	-0.064
-293.676	-183.231	-0.166	0.003
-292.662	10.354	0.366	0.281
-291.647	374.965	-0.111	-0.229
-290.632	800.000	-0.080	-0.329
-289.618	21.950	-0.231	0.190
-288.603	-117.109	-0.203	-0.037
-287.589	105.088	0.160	0.191
-286.574	430.445	0.042	0.092
-285.559	657.996	-0.087	0.225
-284.545	6.985	-0.046	0.035
-283.530	72.162	-0.280	0.295
-282.516	-90.925	0.271	-0.079
-281.501	-56.800	0.147	-0.066
-280.486	-69.437	-0.102	-0.039
-279.472	635.667	-0.023	-0.060
-278.457	-151.486	-0.100	0.007
-277.443	800.000	0.079	-0.253
-276.428	134.779	0.184	0.240
-275.413	782.081	0.066	0.181
-274.399	109.114	0.152	-0.184
-273.384	288.426	0.099	-0.181
-272.370	390.922	0.034	-0.071
-271.355	-200.000	0.035	-0.227
-270.340	6.963	0.306	-0.230
-269.326	8.111	0.125	0.095
-268.311	262.419	-0.128	-0.223
-267.297	800.000	-0.066	0.184
-266.282	-67.217	-0.223	0.089
-265.267	-4.630	0.147	0.102
-264.253	115.756	0.119	-0.147
-263.238	29.683	0.344	-0.295
-262.224	800.000	0.063	0.224
-261.209	-175.671	0.202	-0.005
-260.195	-200.000	0.058	0.362
-259.180	-90.161	0.282	-0.083
-258.165	376.744	-0.079	-0.163
-257.151	-55.736	-0.223	-0.101
-256.136	-96.013	-0.473	-0.127
-255.122	311.164	-0.063	0.120
-254.107	25.551	-0.153	0.129
-253.092	59.509	-0.041	0.040
-252.078	-200.000	0.004	0.398
-251.063	474.272	0.140	0.317
-250.049	-200.000	0.011	0.081
-249.034	800.000	0.067	-0.206
-248.019	1.274	0.067	-0.048
-247.005	-75.992	-0.443	0.158
-245.990	-200.000	0.036	-0.187
-244.976	143.552	-0.218	-0.293
-243.961	-110.339	-0.187	0.039
-242.946	38.724	-0.223	0.201
-241.932	46.003	-0.187	-0.174
-240.917	-200.000	0.009	0.361
-239.903	-88.165	-0.283	-0.086
-238.888	-117.530	-0.186	0.034
-237.873	48.913	-0.185	-0.175
-236.859	-86.668	-0.272	-0.084
-235.844	-83.504	0.172	0.055
-234.830	141.249	-0.082	-0.109
-233.815	-6.146	0.125	-0.086
-232.800	93.923	0.265	0.303
-231.786	217.709	0.041	-0.066
-230.771	-93.934	0.317	-0.088
-229.757	800.000	-0.011	0.043
-228.742	18.058	-0.167	-0.134
-227.727	563.728	0.117	-0.285
-226.713	-186.641	0.259	0.004
-225.698	-73.873	0.108	0.040
-224.684	-200.000	-0.008	0.123
-223.669	99.613	0.261	0.305
-222.655	800.000	0.061	0.247
-221.640	800.000	-0.057	-0.176
-220.625	-87.371	0.109	-0.033
-219.611	182.649	-0.180	0.267
-218.596	25.344	-0.084	0.070
-217.582	-200.000	-0.036	0.275
-216.567	271.052	-0.068	0.120
-215.552	-14.487	-0.125	0.081
-214.538	800.000	-0.040	0.164
-213.523	-152.945	-0.074	0.005
-212.509	-121.699	0.290	-0.048
-211.494	800.000	0.078	-0.273
-210.479	-78.187	-0.223	0.077
-209.465	-87.479	0.242	-0.074
-208.450	-200.000	-0.018	0.123
-207.436	524.507	-0.065	0.154
-206.421	-94.439	0.199	-0.055
-205.406	175.761	0.089	-0.130
-204.392	208.550	0.118	-0.185
-203.377	800.000	-0.016	-0.067
-202.363	800.000	-0.119	0.341
-201.348	-31.852	0.266	0.150
-200.333	2.238	0.209	0.152
-199.319	43.974	-0.291	0.269
-198.304	-168.519	-0.624	0.024
-197.290	-36.279	0.163	-0.088
-196.275	270.695	0.107	-0.189
-195.260	238.127	0.118	0.197
-194.246	230.578	-0.027	-0.044
-193.231	513.441	0.084	-0.198
-192.217	-200.000	-0.030	0.178
-191.202	44.142	-0.074	-0.069
-190.187	-200.000	0.013	0.191
-189.173	194.691	0.048	-0.073
-188.158	206.119	0.232	-0.363
-187.144	-105.151	-0.173	-0.040
-186.129	800.000	-0.059	0.202
-185.114	-200.000	0.050	-0.225
-184.100	-200.000	0.004	-0.288
-183.085	261.203	0.236	-0.410
-182.071	103.476	0.247	-0.292
-181.056	-200.000	-0.006	-0.208
-180.042	375.042	0.107	0.220
-179.027	233.490	0.123	0.203
-178.012	-200.000	0.023	0.251
-176.998	112.036	0.064	0.077
-175.983	115.280	-0.217	0.266
-174.969	659.896	0.070	-0.181
-173.954	-67.237	0.315	0.125
-172.939	59.889	-0.192	0.191
-171.925	-57.234	-0.392	-0.174
-170.910	15.194	0.123	0.097
-169.896	418.551	-0.076	-0.163
-168.881	-200.000	0.041	-0.271
-167.866	-78.259	-0.278	0.096
-166.852	-18.682	-0.218	-0.137
-165.837	-11.467	-0.140	0.093
-164.823	-24.729	-0.176	0.105
-163.808	526.637	0.116	0.275
-162.793	-28.559	-0.208	-0.120
-161.779	174.518	0.139	-0.202
-160.764	101.718	-0.069	0.081
-159.750	-100.240	0.077	-0.019
-158.735	-157.574	0.423	0.025
-157.720	-200.000	-0.011	-0.098
-156.706	1.047	0.184	0.132
-155.691	776.234	-0.065	0.179
-154.677	34.709	-0.097	-0.085
-153.662	194.311	0.104	-0.159
-152.647	37.816	-0.229	-0.204
-151.633	-97.225	-0.359	0.094
-150.618	23.231	0.221	0.182
-149.604	-64.659	0.152	0.062
-148.589	-9.635	-0.272	0.182
-147.574	-9.674	0.163	-0.109
-146.560	-102.295	0.292	0.070
-145.545	-91.230	0.061	0.018
-144.531	-11.449	-0.076	-0.050
-143.516	180.071	0.157	0.231
-142.502	-73.388	0.278	0.102
-141.487	-79.580	0.311	0.105
-140.472	89.081	0.020	-0.022
-139.458	-75.488	-0.359	-0.128
-138.443	27.964	0.017	-0.015
-137.429	-99.950	0.207	0.052
-136.414	-169.298	-0.182	-0.007
-135.399	273.774	-0.093	0.165
-134.385	800.000	0.096	0.295
-133.370	-86.463	0.178	0.055
-132.356	62.328	-0.184	-0.184
-131.341	-76.299	0.160	-0.056
-130.326	195.926	0.053	0.080
-129.312	-76.552	-0.177	-0.062
-128.297	713.952	-0.147	-0.390
-127.283	188.693	0.079	-0.119
-126.268	339.926	0.134	-0.263
-125.253	-65.520	-0.339	0.136
-124.239	-75.875	0.242	0.086
-123.224	-200.000	0.034	-0.158
-122.210	-145.617	-0.055	-0.005
-121.195	800.000	-0.108	0.307
