DTS Sentinel unit serial number:	SN413079Multiplexer serial number:	ORYXHardware model number:	OX4-SRSoftware version number:	ORYX F/W v4.00 Oryx Data Collector v3.7.2.0data status	okinstallation	princeton_trtdifferential loss correction	single-endedforward channel	channel 4reverse channel	N/Adate	2019/09/11time	12:23:10forward acquisition time	60.00reverse acquisition time	0.00gamma	496.2192k internal	0.2287k external	0.2287temperature offset calibration	0.9966default loss term (dB/km)	0.3790temperature slope calibration	1.0000multiplexer offset coefficient	1.0000multiplexer slope coefficient	1.0000fibre end	0.00T internal ref (°C)	40.20T ext. ref 1 (°C)	0.22T ext. ref 2 (°C)	38.34length (m)	temperature (°C)	Stokes	anti-Stokes-747.200	-14.544	-0.098	-0.065
-746.185	-100.855	-0.323	-0.082
-745.171	550.127	-0.086	0.213
-744.156	-155.551	-0.132	-0.009
-743.142	-1.541	-0.152	-0.110
-742.127	-87.357	-0.063	0.019
-741.112	-168.356	0.318	-0.013
-740.098	-200.000	-0.057	0.432
-739.083	174.455	-0.195	0.290
-738.069	-200.000	-0.078	0.366
-737.054	224.365	-0.089	-0.148
-736.039	-85.390	0.069	-0.022
-735.025	-42.165	0.222	-0.117
-734.010	63.799	-0.078	-0.081
-732.996	-200.000	-0.051	0.261
-731.981	653.687	-0.086	-0.225
-730.966	105.290	0.118	0.143
-729.952	458.836	-0.115	0.262
-728.937	-200.000	0.016	0.199
-727.923	148.742	-0.261	-0.361
-726.908	-102.524	-0.261	0.064
-725.894	-200.000	-0.051	-0.270
-724.879	644.089	-0.123	-0.322
-723.864	-200.000	0.013	0.138
-722.850	800.000	-0.050	0.193
-721.835	-107.021	-0.073	0.016
-720.821	-77.097	0.065	-0.023
-719.806	-171.280	0.255	0.009
-718.791	336.386	0.035	-0.070
-717.777	59.669	0.101	-0.102
-716.762	-151.159	-0.192	-0.015
-715.748	-15.317	-0.239	0.157
-714.733	-55.967	-0.138	-0.063
-713.718	150.559	0.106	-0.147
-712.704	98.328	0.133	-0.158
-711.689	6.193	0.244	0.185
-710.675	-150.997	0.202	-0.016
-709.660	-103.007	-0.380	0.092
-708.645	-168.782	-0.140	0.005
-707.631	138.666	-0.101	0.135
-706.616	800.000	0.088	0.314
-705.602	211.232	0.133	-0.214
-704.587	-88.919	0.432	0.131
-703.572	12.770	-0.283	-0.224
-702.558	117.575	0.200	-0.252
-701.543	-98.705	0.166	0.043
-700.529	800.000	-0.012	-0.035
-699.514	-30.452	0.111	0.065
-698.499	-69.249	-0.257	-0.101
-697.485	-88.791	-0.230	-0.070
-696.470	8.997	0.303	0.234
-695.456	-99.371	0.139	0.036
-694.441	800.000	0.042	-0.122
-693.426	-121.349	-0.252	-0.043
-692.412	-121.703	-0.138	-0.023
-691.397	-200.000	-0.020	0.104
-690.383	2.465	0.122	-0.090
-689.368	333.982	-0.057	0.113
-688.354	85.764	0.073	-0.082
-687.339	-200.000	0.016	-0.171
-686.324	-103.538	-0.318	0.077
-685.310	-98.767	-0.213	0.056
-684.295	-154.840	-0.264	-0.018
-683.281	-200.000	-0.012	-0.105
-682.266	-140.004	0.182	-0.020
-681.251	36.366	0.070	0.063
-680.237	-59.150	-0.296	-0.131
-679.222	-59.848	-0.299	0.131
-678.208	-110.161	-0.379	-0.081
-677.193	43.222	0.120	-0.112
-676.178	-152.355	-0.085	0.006
-675.164	-86.300	-0.213	0.067
-674.149	-90.397	-0.324	-0.096
-673.135	55.427	-0.284	-0.281
-672.120	-184.490	-0.289	0.005
-671.105	-200.000	0.046	-0.331
-670.091	-200.000	-0.020	-0.142
-669.076	-168.638	-0.115	0.004
-668.062	-81.559	0.197	-0.066
-667.047	5.415	-0.100	-0.076
-666.032	516.549	0.057	0.136
-665.018	58.682	-0.261	-0.262
-664.003	707.886	-0.080	-0.216
-662.989	-167.485	-0.200	0.008
-661.974	-200.000	0.043	0.276
-660.959	-200.000	-0.010	-0.133
-659.945	-200.000	-0.028	0.172
-658.930	464.928	0.139	-0.318
-657.916	-200.000	-0.002	0.212
-656.901	-88.695	-0.186	-0.057
-655.886	800.000	0.043	0.147
-654.872	14.098	0.055	0.043
-653.857	-87.261	-0.401	-0.125
-652.843	-180.338	0.478	-0.010
-651.828	-132.010	0.159	0.021
-650.814	58.383	-0.226	-0.227
-649.799	-200.000	0.001	-0.149
-648.784	84.711	-0.131	0.147
-647.770	11.162	-0.076	-0.059
-646.755	-151.435	0.113	-0.009
-645.741	314.850	-0.161	0.309
-644.726	-56.280	0.259	-0.118
-643.711	-52.480	-0.114	0.054
-642.697	181.438	0.119	-0.179
-641.682	136.656	0.103	0.137
-640.668	-200.000	-0.025	-0.457
-639.653	25.801	-0.302	-0.257
-638.638	14.586	0.134	0.107
-637.624	800.000	-0.020	0.067
-636.609	84.909	0.171	0.191
-635.595	743.997	0.127	0.350
-634.580	215.727	0.107	-0.174
-633.565	27.617	-0.080	-0.069
-632.551	55.217	-0.138	0.137
-631.536	61.696	0.074	0.076
-630.522	800.000	0.079	0.261
-629.507	800.000	0.107	0.361
-628.492	435.980	0.138	0.307
-627.478	800.000	0.036	-0.122
-626.463	-100.897	-0.316	-0.079
-625.449	-164.543	0.142	-0.007
-624.434	42.005	0.104	-0.096
-623.419	668.227	-0.071	0.187
-622.405	71.611	-0.111	0.118
-621.390	62.607	0.011	-0.011
-620.376	408.560	-0.134	0.289
-619.361	-8.830	-0.210	0.144
-618.346	773.350	-0.078	-0.217
-617.332	800.000	-0.054	0.194
-616.317	-70.235	-0.120	-0.046
-615.303	800.000	0.072	0.263
-614.288	118.624	-0.165	0.208
-613.273	77.839	0.264	-0.288
-612.259	-200.000	0.007	0.311
-611.244	-71.337	-0.066	0.025
-610.230	-200.000	0.017	-0.119
-609.215	237.653	-0.206	0.348
-608.201	165.349	0.062	-0.089
-607.186	546.035	0.068	0.166
-606.171	-31.201	0.282	0.162
-605.157	-39.858	-0.185	0.098
-604.142	800.000	0.144	-0.485
-603.128	5.902	-0.149	-0.113
-602.113	286.785	0.249	0.459
-601.098	73.644	-0.137	-0.146
-600.084	-27.313	-0.476	-0.283
-599.069	102.694	0.079	0.094
-598.055	209.463	-0.089	0.143
-597.040	-96.990	-0.236	0.063
-596.025	-42.343	-0.189	0.098
-595.011	800.000	0.057	-0.164
-593.996	-35.815	-0.189	0.105
-592.982	-4.001	-0.181	-0.128
-591.967	-49.680	-0.091	0.044
-590.952	-39.011	-0.248	-0.133
-589.938	473.192	0.113	-0.260
-588.923	-56.461	0.279	0.126
-587.909	-200.000	-0.054	0.340
-586.894	-80.310	0.175	-0.060
-585.879	-200.000	-0.000	0.375
-584.865	225.124	-0.158	-0.261
-583.850	-200.000	-0.023	-0.165
-582.836	-81.197	0.268	-0.090
-581.821	-7.106	0.273	-0.189
-580.806	-45.324	-0.227	-0.115
-579.792	-32.988	-0.069	-0.039
-578.777	-136.997	-0.077	0.009
-577.763	800.000	0.013	-0.048
-576.748	225.843	-0.169	0.278
-575.733	85.813	0.124	0.139
-574.719	-200.000	0.034	-0.240
-573.704	361.510	-0.179	-0.367
-572.690	-74.562	-0.092	-0.034
-571.675	-200.000	-0.073	0.350
-570.661	800.000	-0.030	0.133
-569.646	800.000	0.050	0.142
-568.631	-137.900	-0.334	-0.038
-567.617	37.740	0.046	-0.041
-566.602	-200.000	0.016	0.220
-565.588	43.508	-0.021	0.019
-564.573	800.000	-0.151	-0.507
-563.558	421.355	0.038	0.084
-562.544	106.298	-0.093	0.113
-561.529	-170.222	0.181	-0.006
-560.515	659.268	0.027	0.070
-559.500	-37.184	-0.168	0.091
-558.485	-27.280	-0.050	0.030
-557.471	-107.312	0.137	0.031
-556.456	140.625	0.086	0.115
-555.442	-200.000	-0.033	0.309
-554.427	-146.441	-0.113	-0.010
-553.412	52.932	0.318	-0.310
-552.398	635.584	0.122	-0.316
-551.383	108.893	0.172	-0.210
-550.369	-200.000	0.056	-0.264
-549.354	-8.665	-0.240	0.164
-548.339	800.000	0.056	0.174
-547.325	800.000	-0.077	-0.331
-546.310	-35.340	-0.279	-0.155
-545.296	324.363	-0.161	-0.313
-544.281	233.298	0.163	0.273
-543.266	-200.000	0.033	0.169
-542.252	206.947	-0.212	-0.337
-541.237	110.633	-0.256	-0.313
-540.223	681.259	0.037	-0.099
-539.208	-90.746	0.184	0.054
-538.193	142.369	-0.252	-0.340
-537.179	-194.749	0.053	-0.000
-536.164	-81.245	-0.164	-0.055
-535.150	141.283	-0.103	-0.138
-534.135	-200.000	-0.023	-0.227
-533.121	552.465	-0.130	0.317
-532.106	22.265	-0.309	-0.257
-531.091	-35.436	-0.312	0.173
-530.077	-86.244	0.319	0.100
-529.062	-91.305	-0.177	0.051
-528.048	-200.000	0.008	-0.104
-527.033	-200.000	0.057	0.364
-526.018	-78.368	-0.225	-0.078
-525.004	-54.734	0.221	-0.102
-523.989	-200.000	0.002	-0.125
-522.975	22.615	-0.198	-0.165
-521.960	-132.403	-0.205	-0.027
-520.945	17.032	0.204	-0.165
-519.931	25.123	0.286	0.241
-518.916	682.203	-0.067	0.177
-517.902	-68.883	-0.316	-0.124
-516.887	-200.000	-0.002	0.164
-515.872	-117.443	0.050	0.009
-514.858	-200.000	-0.009	0.218
-513.843	-200.000	-0.062	0.292
-512.829	243.082	0.170	0.290
-511.814	800.000	0.062	-0.243
-510.799	-92.032	-0.307	0.088
-509.785	800.000	-0.059	0.206
-508.770	287.616	0.108	0.198
-507.756	-200.000	0.051	0.298
-506.741	-8.845	0.279	-0.190
-505.726	-200.000	0.037	-0.176
-504.712	85.472	0.233	-0.260
-503.697	490.920	-0.112	-0.261
-502.683	118.136	-0.266	-0.333
-501.668	-115.113	-0.101	0.019
-500.653	-200.000	0.178	-0.001
-499.639	-2.685	-0.187	0.133
-498.624	-200.000	-0.028	-0.184
-497.610	-200.000	0.007	-0.103
-496.595	-33.879	0.196	-0.110
-495.581	322.731	0.066	-0.127
-494.566	-24.163	0.209	-0.127
-493.551	-103.725	-0.329	-0.078
-492.537	133.771	0.143	-0.189
-491.522	-114.518	0.331	-0.065
-490.508	-134.049	0.119	0.015
-489.493	-200.000	-0.001	0.429
-488.478	-44.496	0.065	0.033
-487.464	429.645	-0.127	-0.279
-486.449	-200.000	-0.029	-0.438
-485.435	152.579	0.094	-0.130
-484.420	-67.630	0.273	-0.108
-483.405	64.285	0.194	-0.199
-482.391	-66.447	-0.283	0.114
-481.376	60.425	0.329	-0.331
-480.362	138.774	0.237	0.316
-479.347	-95.638	-0.287	0.078
-478.332	20.310	-0.077	-0.063
-477.318	105.289	-0.071	0.085
-476.303	266.874	-0.102	0.181
-475.289	754.057	0.068	-0.187
-474.274	-200.000	-0.093	0.572
-473.259	800.000	0.096	0.294
-472.245	167.987	0.030	0.043
-471.230	-157.312	-0.252	0.015
-470.216	-69.569	-0.192	0.075
-469.201	-27.570	0.397	-0.234
-468.186	416.333	-0.107	-0.232
-467.172	-15.897	0.216	0.140
-466.157	-41.047	-0.213	-0.112
-465.143	-138.435	0.430	0.048
-464.128	-88.369	0.250	0.076
-463.113	-200.000	0.018	-0.284
-462.099	800.000	0.042	0.135
-461.084	-111.281	0.287	-0.060
-460.070	69.477	-0.190	-0.198
-459.055	-52.846	-0.143	0.067
-458.040	-107.911	0.313	0.069
-457.026	-74.957	0.253	-0.092
-456.011	464.297	0.077	-0.174
-454.997	-200.000	0.014	0.206
-453.982	-185.263	0.313	0.005
-452.968	350.997	0.075	-0.151
-451.953	202.595	0.142	-0.223
-450.938	19.199	-0.249	-0.203
-449.924	73.062	0.096	0.102
-448.909	-158.722	-0.129	0.007
-447.895	800.000	-0.052	0.215
-446.880	-200.000	-0.019	0.242
-445.865	-128.796	0.333	-0.048
-444.851	94.682	0.086	-0.099
-443.836	92.566	-0.185	0.211
-442.822	-118.987	0.201	0.036
-441.807	27.115	0.102	-0.087
-440.792	80.020	0.029	-0.032
-439.778	54.964	0.142	0.139
-438.763	800.000	-0.057	0.178
-437.749	-39.181	-0.280	0.149
-436.734	800.000	0.082	-0.238
-435.719	-93.949	-0.161	0.045
-434.705	395.776	-0.074	0.156
-433.690	-144.874	0.128	-0.012
-432.676	-200.000	-0.026	-0.389
-431.661	-7.136	-0.290	-0.200
-430.646	74.423	-0.085	0.091
-429.632	-35.684	0.118	-0.065
-428.617	800.000	0.102	-0.338
-427.603	22.850	-0.155	-0.128
-426.588	-200.000	-0.008	-0.204
-425.573	800.000	-0.040	0.150
-424.559	-131.269	-0.137	0.018
-423.544	-70.458	0.109	0.042
-422.530	521.574	0.078	0.184
-421.515	800.000	0.012	0.037
-420.500	240.160	-0.008	-0.014
-419.486	-76.607	0.179	-0.064
-418.471	73.956	-0.131	0.140
-417.457	28.866	0.111	-0.096
-416.442	-117.570	0.403	-0.074
-415.428	131.166	-0.043	0.056
-414.413	-137.168	-0.319	-0.037
-413.398	-102.086	-0.142	0.035
-412.384	-200.000	-0.054	-0.260
-411.369	171.982	0.200	0.291
-410.355	121.672	0.121	-0.153
-409.340	-165.688	0.075	0.003
-408.325	169.034	-0.080	-0.115
-407.311	-155.824	-0.103	-0.007
-406.296	-97.165	-0.079	0.021
-405.282	-111.573	0.305	0.063
-404.267	41.577	0.368	0.337
-403.252	54.132	-0.164	-0.160
-402.238	-41.883	-0.219	0.114
-401.223	-200.000	0.047	-0.265
-400.209	-82.348	0.374	-0.123
-399.194	800.000	-0.041	-0.133
-398.179	-111.755	0.260	0.053
-397.165	148.718	-0.137	0.187
-396.150	-90.507	0.144	-0.042
-395.136	-14.244	0.217	-0.142
-394.121	-64.083	-0.448	0.185
-393.106	260.698	0.069	-0.120
-392.092	119.295	-0.125	-0.156
-391.077	-114.241	-0.168	0.033
-390.063	308.334	0.060	-0.114
-389.048	-200.000	-0.003	0.069
-388.033	-43.999	0.262	0.133
-387.019	286.067	-0.053	0.097
-386.004	-48.769	0.184	-0.089
-384.990	-200.000	0.025	-0.404
-383.975	-75.494	-0.090	0.032
-382.960	-200.000	0.060	0.349
-381.946	134.679	0.218	0.286
-380.931	-58.428	-0.367	0.161
-379.917	-200.000	-0.010	0.100
-378.902	-200.000	0.004	-0.036
-377.888	-61.578	-0.221	0.094
-376.873	-114.420	0.402	-0.078
-375.858	800.000	0.086	0.280
-374.844	-72.724	0.134	0.050
-373.829	19.150	0.092	0.075
-372.815	-200.000	-0.389	-0.000
-371.800	800.000	0.134	-0.478
-370.785	72.072	-0.170	-0.179
-369.771	-25.892	-0.151	-0.090
-368.756	235.733	-0.070	0.118
-367.742	-68.583	0.066	0.026
-366.727	-59.486	-0.368	-0.160
-365.712	-72.470	-0.251	0.094
-364.698	-200.000	-0.020	0.237
-363.683	-200.000	0.012	0.135
-362.669	-68.013	-0.371	-0.146
-361.654	200.588	0.043	0.066
-360.639	78.371	0.199	-0.215
-359.625	123.340	0.271	0.344
-358.610	571.701	0.089	0.220
-357.596	-200.000	-0.013	0.069
-356.581	800.000	0.166	-0.466
-355.566	-160.715	0.402	0.022
-354.552	800.000	-0.063	0.235
-353.537	-46.906	0.180	-0.089
-352.523	-200.000	-0.036	0.210
-351.508	800.000	0.021	-0.090
-350.493	4.844	0.090	-0.067
-349.479	593.994	0.162	0.404
-348.464	265.246	-0.097	-0.171
-347.450	-123.407	0.167	0.027
-346.435	-106.728	-0.163	-0.037
-345.420	-9.606	-0.142	0.096
-344.406	-73.117	-0.323	0.120
-343.391	-162.495	0.093	0.005
-342.377	-87.048	0.122	-0.038
-341.362	-196.819	0.055	0.000
-340.348	38.594	-0.346	0.312
-339.333	622.951	0.062	0.156
-338.318	-148.479	0.245	-0.020
-337.304	-102.161	0.174	0.042
-336.289	39.288	0.259	0.234
-335.275	69.229	-0.017	0.018
-334.260	171.916	0.134	-0.194
-333.245	-36.544	0.084	-0.046
-332.231	302.225	-0.137	-0.256
-331.216	319.611	-0.113	-0.215
-330.202	-0.206	0.154	-0.110
-329.187	22.882	-0.079	-0.065
-328.172	-95.609	-0.158	-0.043
-327.158	413.737	0.099	-0.213
-326.143	19.656	0.340	0.276
-325.129	-27.230	0.147	0.086
-324.114	-35.220	-0.104	0.057
-323.099	-47.938	-0.126	-0.062
-322.085	224.294	0.155	0.252
-321.070	-92.088	-0.231	-0.066
-320.056	7.381	0.262	0.197
-319.041	-61.123	-0.196	-0.083
-318.026	-78.503	0.307	-0.106
-317.012	-150.773	0.378	0.029
-315.997	2.729	0.204	0.150
-314.983	-71.690	0.182	0.069
-313.968	-86.409	0.212	-0.066
-312.953	-5.591	-0.138	0.096
-311.939	-200.000	0.054	-0.356
-310.924	33.251	0.059	-0.051
-309.910	-200.000	-0.015	-0.107
-308.895	274.981	0.088	0.158
-307.880	-80.097	0.117	0.040
-306.866	-120.674	-0.395	0.067
-305.851	-24.271	0.057	-0.034
-304.837	-10.724	-0.107	-0.072
-303.822	-111.463	0.104	0.021
-302.807	-200.000	-0.005	0.068
-301.793	-200.000	0.025	0.206
-300.778	-48.395	-0.068	0.033
-299.764	-167.214	0.175	0.007
-298.749	260.534	0.049	-0.086
-297.735	45.709	-0.108	0.100
-296.720	-16.250	0.124	-0.079
-295.705	-52.909	0.080	-0.037
-294.691	800.000	-0.095	-0.338
-293.676	-200.000	-0.502	-0.001
-292.662	9.128	0.349	0.266
-291.647	357.792	-0.009	0.017
-290.632	468.635	0.131	-0.296
-289.618	-200.000	0.012	-0.222
-288.603	-46.054	0.180	0.089
-287.589	-22.486	-0.218	-0.133
-286.574	-46.671	0.130	0.064
-285.559	-2.608	0.049	-0.034
-284.545	800.000	0.102	-0.350
-283.530	-18.001	-0.213	0.134
-282.516	800.000	-0.014	0.051
-281.501	800.000	0.053	0.222
-280.486	104.865	0.161	0.192
-279.472	12.512	0.118	0.091
-278.457	800.000	-0.045	0.167
-277.443	-28.148	-0.167	-0.097
-276.428	51.148	-0.199	-0.190
-275.413	800.000	0.082	-0.256
-274.399	61.223	0.360	-0.360
-273.384	-48.681	-0.294	-0.142
-272.370	800.000	0.122	0.361
-271.355	-200.000	-0.024	-0.319
-270.340	-93.629	-0.129	-0.036
-269.326	-155.247	-0.189	-0.012
-268.311	-200.000	-0.070	0.324
-267.297	-167.007	0.079	-0.003
-266.282	-134.148	-0.154	0.019
-265.267	742.041	-0.111	-0.300
-264.253	215.264	0.122	-0.195
-263.238	-93.706	-0.406	-0.113
-262.224	-17.537	0.108	-0.068
-261.209	-200.000	-0.001	-0.045
-260.195	112.004	0.057	0.070
-259.180	96.796	0.136	-0.157
-258.165	-179.136	0.102	0.002
-257.151	-200.000	-0.010	-0.218
-256.136	150.309	0.185	-0.253
-255.122	-6.621	0.087	-0.060
-254.107	-15.890	0.154	-0.099
-253.092	-147.110	0.298	0.026
-252.078	-200.000	-0.032	-0.183
-251.063	651.866	0.052	0.134
-250.049	-73.008	0.129	0.048
-249.034	366.046	-0.231	0.469
-248.019	-118.231	-0.082	-0.015
-247.005	800.000	0.010	0.033
-245.990	-174.912	-0.181	0.005
-244.976	405.501	0.076	-0.161
-243.961	48.461	-0.163	0.154
-242.946	355.322	-0.068	0.136
-241.932	389.701	0.091	0.191
-240.917	800.000	0.029	0.109
-239.903	-129.220	-0.132	-0.018
-238.888	-128.793	-0.523	-0.074
-237.873	360.315	-0.082	0.164
-236.859	-200.000	-0.051	-0.266
-235.844	-200.000	-0.021	-0.186
-234.830	-33.845	-0.049	-0.027
-233.815	-162.089	-0.289	0.015
-232.800	128.665	-0.095	0.122
-231.786	15.383	-0.125	0.098
-230.771	113.532	0.095	0.116
-229.757	56.335	-0.081	-0.079
-228.742	-97.332	-0.195	0.051
-227.727	800.000	0.052	-0.158
-226.713	-10.944	0.052	0.034
-225.698	137.479	0.169	0.223
-224.684	-129.458	0.173	-0.024
-223.669	-112.421	-0.114	-0.023
-222.655	182.773	-0.173	0.256
-221.640	-85.535	-0.501	-0.157
-220.625	800.000	-0.139	-0.497
-219.611	610.119	0.120	0.300
-218.596	-200.000	0.034	-0.240
-217.582	-94.014	0.223	-0.062
-216.567	-47.579	0.401	0.196
-215.552	-33.307	-0.265	-0.147
-214.538	-127.831	0.327	0.047
-213.523	-89.993	-0.299	0.088
-212.509	-200.000	-0.009	0.111
-211.494	-200.000	-0.018	0.129
-210.479	310.045	0.146	0.275
-209.465	-68.761	-0.159	-0.062
-208.450	765.862	-0.017	-0.047
-207.436	190.873	0.191	0.289
-206.421	800.000	-0.075	-0.279
-205.406	-134.993	-0.296	-0.036
-204.392	-146.534	-0.261	-0.023
-203.377	-14.430	-0.213	0.138
-202.363	-103.192	0.218	-0.052
-201.348	-30.410	-0.187	-0.107
-200.333	30.300	0.273	-0.234
-199.319	-200.000	0.015	0.175
-198.304	125.121	-0.070	0.089
-197.290	-122.107	0.223	-0.037
-196.275	-61.927	0.170	0.071
-195.260	120.775	0.114	-0.143
-194.246	8.916	0.086	-0.065
-193.231	-200.000	0.014	0.169
-192.217	-135.384	-0.189	0.023
-191.202	-121.647	0.224	0.037
-190.187	-63.907	0.111	-0.045
-189.173	309.308	-0.143	-0.269
-188.158	260.830	0.031	0.053
-187.144	158.901	0.064	-0.089
-186.129	-55.430	-0.338	-0.152
-185.114	-75.830	0.219	0.078
-184.100	-182.994	-0.324	0.006
-183.085	214.379	-0.062	-0.098
-182.071	-123.557	0.428	0.068
-181.056	-17.591	-0.061	-0.039
-180.042	-100.184	0.138	0.034
-179.027	65.148	0.161	0.163
-178.012	136.606	-0.144	-0.189
-176.998	47.980	-0.144	0.135
-175.983	-139.430	0.114	-0.012
-174.969	-200.000	-0.009	-0.081
-173.954	-104.324	-0.321	0.075
-172.939	-124.760	-0.105	-0.016
-171.925	26.954	-0.231	0.195
-170.910	-71.362	-0.387	-0.146
-169.896	-126.247	0.018	0.003
-168.881	-200.000	-0.004	0.140
-167.866	153.133	0.201	0.276
-166.852	-71.821	0.211	-0.079
-165.837	-158.135	-0.528	0.031
-164.823	-200.000	-0.025	-0.131
-163.808	514.266	-0.045	-0.106
-162.793	800.000	-0.096	0.420
-161.779	-36.039	0.010	-0.005
-160.764	-200.000	-0.027	0.235
-159.750	-87.400	0.259	0.079
-158.735	202.923	0.251	0.389
-157.720	-112.123	0.109	-0.022
-156.706	7.439	0.055	-0.041
-155.691	-74.579	-0.234	-0.084
-154.677	-146.035	0.302	0.027
-153.662	-83.439	-0.066	-0.021
-152.647	58.794	-0.135	0.133
-151.633	-93.638	-0.138	-0.038
-150.618	261.970	-0.164	-0.285
-149.604	210.810	0.064	0.100
-148.589	-8.556	0.123	0.083
-147.574	-70.867	-0.147	-0.056
-146.560	-198.162	-0.315	0.002
-145.545	131.765	0.021	-0.027
-144.531	22.513	0.171	-0.140
-143.516	800.000	0.046	0.134
-142.502	-200.000	-0.024	0.118
-141.487	594.852	-0.068	0.169
-140.472	-200.000	-0.034	0.317
-139.458	-195.271	0.194	-0.001
-138.443	-67.278	0.324	0.128
-137.429	-200.000	-0.008	0.107
-136.414	-123.341	-0.036	-0.006
-135.399	-200.000	0.049	-0.326
-134.385	-81.443	-0.594	-0.196
-133.370	-158.162	-0.129	0.008
-132.356	406.197	-0.038	0.081
-131.341	-200.000	0.003	0.088
-130.326	132.899	-0.084	-0.108
-129.312	-200.000	0.039	0.243
-128.297	-200.000	0.000	-0.209
-127.283	246.239	0.091	0.154
-126.268	10.342	-0.319	-0.243
-125.253	-86.042	-0.126	-0.039
-124.239	-132.626	0.226	0.029
-123.224	180.505	0.233	-0.343
-122.210	-200.000	-0.003	0.165
