DTS Sentinel unit serial number:	SN413079Multiplexer serial number:	ORYXHardware model number:	OX4-SRSoftware version number:	ORYX F/W v4.00 Oryx Data Collector v3.7.2.0data status	okinstallation	princeton_trtdifferential loss correction	single-endedforward channel	channel 4reverse channel	N/Adate	2019/09/11time	00:07:10forward acquisition time	60.00reverse acquisition time	0.00gamma	496.2192k internal	0.2318k external	0.2318temperature offset calibration	0.9948default loss term (dB/km)	0.3790temperature slope calibration	1.0000multiplexer offset coefficient	1.0000multiplexer slope coefficient	1.0000fibre end	0.00T internal ref (°C)	29.37T ext. ref 1 (°C)	-0.31T ext. ref 2 (°C)	22.84length (m)	temperature (°C)	Stokes	anti-Stokes-747.200	-44.355	0.288	-0.146
-746.185	-141.192	-0.297	-0.031
-745.171	800.000	0.106	-0.346
-744.156	-96.220	0.010	0.003
-743.142	-66.657	0.166	-0.067
-742.127	-140.242	-0.262	-0.028
-741.112	-26.024	-0.217	0.129
-740.098	139.657	0.187	0.249
-739.083	800.000	0.006	0.020
-738.069	-79.252	-0.119	-0.041
-737.054	193.459	-0.093	-0.143
-736.039	752.207	-0.017	-0.047
-735.025	482.403	0.162	0.372
-734.010	-7.068	-0.233	-0.160
-732.996	-50.154	-0.310	-0.148
-731.981	-12.445	-0.150	0.099
-730.966	-109.590	-0.101	0.022
-729.952	30.978	0.129	0.112
-728.937	-182.657	-0.408	0.008
-727.923	285.976	0.098	0.178
-726.908	-107.759	-0.121	-0.027
-725.894	-68.158	0.206	-0.081
-724.879	36.917	-0.260	-0.233
-723.864	389.094	-0.069	0.145
-722.850	-200.000	0.047	-0.328
-721.835	26.962	-0.252	-0.213
-720.821	169.914	0.029	-0.042
-719.806	-200.000	0.006	0.036
-718.791	197.598	-0.016	0.024
-717.777	170.914	-0.222	-0.322
-716.762	758.971	-0.118	0.324
-715.748	-200.000	-0.057	-0.297
-714.733	-200.000	0.066	0.322
-713.718	433.239	-0.107	-0.234
-712.704	35.246	-0.166	0.147
-711.689	-16.078	-0.087	-0.056
-710.675	57.537	-0.209	-0.206
-709.660	-108.742	0.265	-0.057
-708.645	-112.381	-0.047	0.010
-707.631	136.796	-0.074	0.097
-706.616	-200.000	0.015	0.275
-705.602	-175.664	-0.116	0.003
-704.587	276.426	0.153	0.276
-703.572	-150.350	0.030	-0.002
-702.558	-71.072	-0.209	-0.080
-701.543	-54.546	0.260	-0.119
-700.529	103.601	-0.257	-0.305
-699.514	-61.024	-0.204	-0.087
-698.499	-200.000	0.001	-0.101
-697.485	189.078	-0.134	-0.203
-696.470	282.005	0.047	-0.086
-695.456	-22.882	-0.089	0.054
-694.441	-80.501	-0.162	-0.055
-693.426	43.766	0.170	0.157
-692.412	-119.973	-0.118	0.020
-691.397	-2.453	-0.183	-0.129
-690.383	219.865	-0.118	-0.191
-689.368	-200.000	0.036	0.420
-688.354	146.556	-0.022	0.030
-687.339	-200.000	0.001	0.110
-686.324	-89.566	-0.417	-0.124
-685.310	-90.811	-0.301	-0.088
-684.295	-38.239	0.207	-0.111
-683.281	-105.983	0.088	0.020
-682.266	-54.554	-0.240	-0.110
-681.251	383.598	-0.032	-0.065
-680.237	-146.815	-0.299	0.026
-679.222	-200.000	0.024	-0.393
-678.208	-59.566	0.339	-0.147
-677.193	-97.155	0.099	-0.026
-676.178	-20.057	-0.215	0.134
-675.164	-200.000	-0.021	0.129
-674.149	-30.585	0.110	-0.063
-673.135	573.219	-0.129	-0.317
-672.120	-200.000	-0.009	-0.142
-671.105	-200.000	0.046	-0.452
-670.091	-13.267	-0.221	-0.145
-669.076	-75.839	-0.158	0.057
-668.062	-200.000	0.023	0.432
-667.047	71.683	0.162	-0.170
-666.032	-138.319	-0.397	0.044
-665.018	-5.848	0.137	-0.095
-664.003	365.567	-0.164	0.333
-662.989	226.188	-0.177	-0.289
-661.974	272.058	-0.146	0.260
-660.959	-98.701	-0.141	0.036
-659.945	450.610	0.010	-0.021
-658.930	50.216	0.144	-0.137
-657.916	-0.178	-0.292	0.210
-656.901	-99.146	0.319	-0.081
-655.886	-200.000	0.088	-0.487
-654.872	-200.000	-0.017	-0.311
-653.857	-97.071	-0.269	-0.071
-652.843	-77.658	-0.140	0.049
-651.828	43.833	-0.138	0.127
-650.814	800.000	0.048	0.169
-649.799	-117.109	0.030	0.005
-648.784	427.257	-0.075	-0.163
-647.770	-82.486	0.142	-0.046
-646.755	55.311	-0.089	-0.087
-645.741	-88.073	-0.205	0.062
-644.726	-200.000	0.001	0.172
-643.711	73.982	-0.067	0.071
-642.697	-6.486	0.191	0.132
-641.682	-200.000	-0.002	-0.053
-640.668	800.000	0.051	0.157
-639.653	800.000	-0.145	-0.432
-638.638	-169.231	0.285	-0.011
-637.624	246.649	0.078	0.133
-636.609	-200.000	-0.011	0.294
-635.595	-151.007	0.339	0.026
-634.580	-130.224	-0.194	-0.027
-633.565	262.440	-0.114	0.198
-632.551	-110.591	0.074	-0.016
-631.536	545.088	-0.118	0.284
-630.522	-163.274	0.168	-0.008
-629.507	800.000	-0.112	-0.473
-628.492	-123.848	0.428	0.068
-627.478	45.370	-0.325	0.302
-626.463	126.757	-0.034	0.043
-625.449	126.761	0.148	0.189
-624.434	306.146	0.076	-0.142
-623.419	-147.985	0.348	0.029
-622.405	-130.798	0.534	-0.072
-621.390	-124.586	-0.103	0.016
-620.376	164.053	0.082	0.116
-619.361	-122.550	0.195	-0.032
-618.346	-200.000	-0.078	-0.362
-617.332	-78.933	-0.255	0.088
-616.317	-124.932	-0.324	0.050
-615.303	-200.000	-0.010	-0.102
-614.288	-10.103	-0.315	-0.211
-613.273	231.709	0.151	0.249
-612.259	-142.607	0.120	-0.012
-611.244	57.004	-0.162	-0.159
-610.230	-19.122	-0.080	-0.050
-609.215	-43.214	-0.111	0.057
-608.201	-200.000	0.010	-0.064
-607.186	-61.460	-0.120	0.051
-606.171	604.016	-0.073	0.184
-605.157	-62.152	0.090	0.038
-604.142	-127.222	-0.268	0.039
-603.128	-142.995	-0.284	-0.028
-602.113	800.000	0.177	-0.510
-601.098	-200.000	0.011	-0.225
-600.084	-83.680	-0.210	-0.067
-599.069	800.000	-0.089	0.367
-598.055	800.000	-0.104	0.330
-597.040	-154.561	-0.176	0.012
-596.025	-145.826	-0.198	-0.018
-595.011	48.029	-0.218	-0.205
-593.996	-200.000	0.074	0.493
-592.982	800.000	-0.124	-0.368
-591.967	57.638	0.044	-0.044
-590.952	-136.212	-0.029	-0.003
-589.938	-75.518	0.193	-0.069
-588.923	-46.408	-0.237	-0.117
-587.909	-78.087	0.055	-0.019
-586.894	-200.000	0.017	0.402
-585.879	-147.487	-0.107	0.009
-584.865	168.793	0.069	-0.099
-583.850	-55.586	-0.216	-0.097
-582.836	-71.751	0.202	-0.076
-581.821	-32.802	-0.088	0.049
-580.806	332.417	-0.142	0.276
-579.792	-63.810	0.234	0.096
-578.777	-66.413	0.161	-0.065
-577.763	800.000	0.041	-0.127
-576.748	41.949	-0.296	0.270
-575.733	474.412	0.133	-0.303
-574.719	-128.729	0.226	-0.032
-573.704	538.451	0.089	-0.214
-572.690	-84.174	-0.166	-0.053
-571.675	-200.000	-0.061	0.290
-570.661	-200.000	0.027	-0.336
-569.646	-97.840	-0.060	-0.016
-568.631	800.000	-0.113	0.323
-567.617	-200.000	-0.005	-0.050
-566.602	292.837	-0.127	-0.232
-565.588	35.452	-0.123	-0.109
-564.573	-179.874	-0.280	0.006
-563.558	211.974	0.091	-0.144
-562.544	-200.000	-0.003	-0.221
-561.529	-200.000	-0.002	-0.224
-560.515	-116.319	0.071	0.013
-559.500	544.321	0.070	-0.167
-558.485	-129.403	-0.114	0.016
-557.471	61.084	0.239	-0.239
-556.456	-200.000	-0.048	0.258
-555.442	-35.954	0.091	0.049
-554.427	800.000	-0.091	0.367
-553.412	-116.716	-0.372	-0.069
-552.398	2.226	-0.212	0.154
-551.383	267.259	0.005	0.009
-550.369	-178.134	0.052	-0.001
-549.354	-80.844	0.291	-0.097
-548.339	-77.615	-0.477	-0.166
-547.325	-39.171	-0.218	-0.115
-546.310	800.000	0.098	-0.289
-545.296	800.000	-0.166	-0.486
-544.281	800.000	0.065	0.222
-543.266	174.026	-0.080	-0.116
-542.252	3.174	-0.211	0.154
-541.237	5.669	0.323	0.240
-540.223	-200.000	0.012	-0.076
-539.208	-38.625	-0.327	-0.174
-538.193	761.139	-0.117	0.318
-537.179	124.785	0.070	-0.089
-536.164	319.089	0.066	0.126
-535.150	2.023	-0.172	-0.124
-534.135	-161.913	0.401	-0.020
-533.121	-9.921	0.175	-0.117
-532.106	800.000	-0.075	-0.235
-531.091	247.646	-0.068	-0.115
-530.077	153.336	-0.164	0.225
-529.062	-6.917	0.148	-0.101
-528.048	800.000	-0.058	0.203
-527.033	-56.966	0.093	0.041
-526.018	128.427	0.126	-0.161
-525.004	-96.872	0.390	0.103
-523.989	78.672	-0.091	-0.097
-522.975	-200.000	0.038	-0.289
-521.960	581.386	0.134	-0.329
-520.945	55.672	0.026	-0.025
-519.931	96.254	0.317	0.364
-518.916	714.690	0.024	-0.065
-517.902	46.775	-0.210	-0.196
-516.887	36.665	-0.140	-0.124
-515.872	72.520	0.087	-0.091
-514.858	-200.000	0.028	0.254
-513.843	-63.597	-0.017	-0.007
-512.829	187.186	0.080	0.119
-511.814	22.245	-0.306	-0.251
-510.799	-50.003	-0.232	0.111
-509.785	-200.000	-0.012	-0.138
-508.770	549.719	0.094	0.227
-507.756	-200.000	0.023	0.146
-506.741	-93.629	-0.155	0.043
-505.726	258.953	0.119	0.206
-504.712	454.846	-0.128	-0.285
-503.697	-117.535	-0.271	-0.049
-502.683	6.262	-0.273	0.203
-501.668	-36.470	0.039	0.021
-500.653	-91.523	0.134	-0.038
-499.639	-162.090	0.095	-0.005
-498.624	8.167	0.201	0.151
-497.610	77.898	0.099	-0.106
-496.595	127.811	0.092	-0.117
-495.581	266.014	0.157	-0.275
-494.566	-200.000	0.038	0.179
-493.551	-200.000	-0.041	-0.190
-492.537	-86.307	-0.309	0.095
-491.522	-78.746	-0.098	0.034
-490.508	-52.371	-0.119	0.055
-489.493	198.072	-0.054	0.083
-488.478	4.713	0.359	-0.264
-487.464	249.360	-0.193	0.328
-486.449	-134.495	-0.040	0.005
-485.435	540.953	0.054	0.129
-484.420	-138.634	0.133	-0.015
-483.405	-100.920	-0.079	-0.019
-482.391	151.355	-0.239	0.327
-481.376	209.261	0.057	0.089
-480.362	701.495	0.050	0.132
-479.347	798.558	0.140	-0.386
-478.332	-41.497	-0.461	0.237
-477.318	2.435	0.334	-0.242
-476.303	-172.179	0.462	0.015
-475.289	19.485	0.347	0.279
-474.274	70.409	0.093	-0.096
-473.259	-6.483	0.281	-0.192
-472.245	-40.729	0.085	-0.044
-471.230	590.273	-0.055	-0.136
-470.216	119.355	-0.104	0.129
-469.201	-69.067	-0.217	-0.084
-468.186	-149.186	0.180	0.014
-467.172	-200.000	-0.020	0.117
-466.157	237.451	-0.188	0.312
-465.143	19.577	-0.203	-0.164
-464.128	-200.000	-0.038	-0.527
-463.113	-41.390	-0.125	-0.064
-462.099	-153.652	0.233	0.016
-461.084	-118.525	-0.380	0.067
-460.070	-16.617	-0.350	-0.222
-459.055	-129.986	0.343	-0.047
-458.040	276.267	0.119	-0.211
-457.026	-166.830	-0.149	-0.006
-456.011	800.000	0.070	-0.226
-454.997	235.976	0.209	0.346
-453.982	-160.624	0.310	0.017
-452.968	-139.159	-0.179	-0.019
-451.953	52.631	-0.185	0.177
-450.938	778.626	-0.034	-0.093
-449.924	-200.000	-0.047	-0.287
-448.909	-98.927	-0.081	0.021
-447.895	61.980	-0.114	0.114
-446.880	10.662	0.095	-0.073
-445.865	-200.000	0.015	-0.093
-444.851	-127.491	0.200	-0.029
-443.836	202.729	-0.179	-0.277
-442.822	-200.000	0.028	0.182
-441.807	-200.000	0.011	0.236
-440.792	-156.527	-0.313	-0.019
-439.778	79.684	-0.115	-0.123
-438.763	-162.871	-0.236	-0.011
-437.749	275.071	-0.092	-0.163
-436.734	-73.353	-0.172	-0.063
-435.719	-200.000	0.017	0.349
-434.705	155.336	-0.094	0.129
-433.690	800.000	0.124	0.381
-432.676	800.000	0.059	-0.174
-431.661	288.309	-0.039	0.070
-430.646	800.000	0.042	0.117
-429.632	800.000	-0.033	0.094
-428.617	-115.233	-0.245	0.046
-427.603	231.164	-0.077	-0.127
-426.588	227.709	-0.077	-0.126
-425.573	196.382	0.152	-0.231
-424.559	-200.000	-0.012	0.182
-423.544	226.024	0.037	0.060
-422.530	-200.000	0.012	0.094
-421.515	14.541	0.156	0.122
-420.500	-42.456	0.138	0.070
-419.486	800.000	0.072	-0.290
-418.471	97.544	0.054	-0.062
-417.457	40.526	0.058	-0.052
-416.442	23.321	-0.097	-0.080
-415.428	800.000	-0.112	0.382
-414.413	185.024	-0.101	-0.150
-413.398	13.712	-0.144	-0.112
-412.384	-200.000	0.080	-0.459
-411.369	-200.000	-0.001	-0.039
-410.355	-130.193	-0.486	-0.066
-409.340	-129.637	-0.210	-0.029
-408.325	-23.769	0.133	0.080
-407.311	-200.000	-0.056	0.307
-406.296	800.000	0.026	-0.081
-405.282	-169.269	0.224	-0.008
-404.267	310.333	0.048	-0.090
-403.252	-99.431	-0.243	-0.061
-402.238	-200.000	0.024	0.152
-401.223	349.670	-0.073	-0.143
-400.209	301.031	-0.149	-0.275
-399.194	-163.179	-0.316	0.015
-398.179	-75.068	-0.123	-0.044
-397.165	-99.624	-0.286	0.072
-396.150	131.064	-0.116	0.148
-395.136	-200.000	-0.006	-0.034
-394.121	-50.271	0.302	-0.143
-393.106	235.016	-0.025	-0.041
-392.092	-128.319	0.355	-0.050
-391.077	-200.000	-0.041	0.277
-390.063	800.000	0.066	-0.254
-389.048	800.000	0.024	-0.087
-388.033	316.108	0.116	-0.218
-387.019	-3.323	-0.361	-0.251
-386.004	-30.438	-0.148	0.084
-384.990	-86.504	-0.473	0.145
-383.975	-200.000	-0.030	0.222
-382.960	-64.588	-0.355	0.144
-381.946	800.000	0.146	0.429
-380.931	16.806	0.087	-0.068
-379.917	28.755	0.119	-0.100
-378.902	641.277	0.032	-0.081
-377.888	-125.791	-0.209	0.032
-376.873	36.931	-0.054	0.048
-375.858	800.000	0.032	0.099
-374.844	205.614	0.055	0.085
-373.829	-80.123	-0.277	-0.093
-372.815	103.009	-0.200	0.234
-371.800	-200.000	0.002	0.071
-370.785	-200.000	0.001	0.079
-369.771	-34.323	0.156	-0.085
-368.756	256.224	-0.095	-0.162
-367.742	-101.305	-0.347	-0.084
-366.727	22.788	0.127	0.103
-365.712	-121.107	-0.083	-0.014
-364.698	-200.000	-0.028	0.296
-363.683	79.367	-0.111	0.119
-362.669	59.213	0.261	0.256
-361.654	-200.000	-0.012	0.168
-360.639	800.000	0.103	-0.356
-359.625	590.932	0.067	-0.165
-358.610	-200.000	-0.017	-0.393
-357.596	37.169	0.060	0.053
-356.581	216.948	-0.030	-0.047
-355.566	154.512	-0.109	0.149
-354.552	-93.138	0.292	-0.081
-353.537	34.503	0.048	0.042
-352.523	-200.000	0.017	-0.312
-351.508	-65.150	-0.200	0.080
-350.493	104.650	0.070	0.083
-349.479	-74.419	0.442	-0.159
-348.464	-200.000	0.007	0.229
-347.450	276.687	-0.085	0.151
-346.435	34.036	0.150	0.130
-345.420	-108.753	-0.282	0.060
-344.406	-200.000	-0.001	0.015
-343.391	796.697	0.160	-0.440
-342.377	-68.545	0.120	0.046
-341.362	-188.599	0.161	-0.002
-340.348	-21.824	0.153	-0.093
-339.333	82.536	-0.176	0.190
-338.318	-13.224	-0.133	-0.086
-337.304	-183.820	0.278	0.005
-336.289	800.000	0.052	0.213
-335.275	-50.316	-0.115	0.054
-334.260	-68.321	0.053	-0.020
-333.245	-107.593	-0.245	0.053
-332.231	-78.370	-0.310	0.106
-331.216	-41.423	-0.123	-0.063
-330.202	153.821	-0.271	-0.370
-329.187	136.940	0.199	-0.259
-328.172	105.566	0.136	0.160
-327.158	-200.000	0.023	-0.163
-326.143	222.621	-0.163	0.262
-325.129	-200.000	-0.032	-0.226
-324.114	-139.210	0.166	0.018
-323.099	-9.744	-0.242	0.160
-322.085	264.606	-0.280	-0.485
-321.070	186.830	0.028	-0.042
-320.056	496.867	0.203	-0.466
-319.041	-114.609	0.340	-0.065
-318.026	732.410	0.105	-0.280
-317.012	-200.000	0.007	-0.385
-315.997	800.000	0.059	0.232
-314.983	-43.998	-0.224	0.112
-313.968	215.532	-0.207	0.326
-312.953	237.158	0.090	-0.148
-311.939	101.248	0.099	0.115
-310.924	-200.000	0.003	-0.097
-309.910	-100.555	-0.314	-0.077
-308.895	27.884	-0.129	-0.108
-307.880	-200.000	-0.016	-0.160
-306.866	-110.333	-0.173	0.036
-305.851	-106.692	-0.234	-0.052
-304.837	26.458	0.184	-0.153
-303.822	-169.967	0.373	0.013
-302.807	800.000	0.034	0.095
-301.793	37.268	0.178	0.156
-300.778	800.000	-0.095	0.262
-299.764	100.630	-0.104	-0.120
-298.749	-179.723	0.073	0.002
-297.735	-29.315	0.129	-0.073
-296.720	-84.636	0.135	0.042
-295.705	-50.525	-0.246	0.116
-294.691	48.760	0.092	0.086
-293.676	13.248	-0.217	0.167
-292.662	800.000	0.068	-0.242
-291.647	38.322	0.234	0.207
-290.632	-102.607	-0.180	0.043
-289.618	-200.000	0.007	0.223
-288.603	-200.000	-0.014	-0.261
-287.589	-70.102	0.499	0.189
-286.574	209.571	-0.139	0.216
-285.559	800.000	0.128	0.461
-284.545	-200.000	0.020	0.113
-283.530	-0.792	-0.025	0.018
-282.516	800.000	-0.035	0.147
-281.501	-81.479	0.185	0.061
-280.486	276.207	0.186	-0.328
-279.472	-132.686	0.410	-0.052
-278.457	-39.936	-0.250	-0.130
-277.443	-112.776	0.151	0.030
-276.428	-10.505	0.206	0.136
-275.413	-200.000	-0.006	0.150
-274.399	-200.000	0.035	-0.193
-273.384	800.000	0.043	0.131
-272.370	119.147	-0.045	-0.055
-271.355	-140.570	0.229	0.024
-270.340	696.752	-0.138	-0.360
-269.326	530.675	-0.065	-0.152
-268.311	-200.000	0.001	-0.030
-267.297	-69.853	0.098	0.037
-266.282	173.249	-0.159	-0.227
-265.267	-131.211	-0.158	-0.021
-264.253	176.475	-0.064	0.092
-263.238	33.700	-0.187	0.162
-262.224	-75.367	0.168	-0.060
-261.209	496.032	-0.104	0.238
-260.195	105.944	0.257	0.302
-259.180	-200.000	0.016	-0.218
-258.165	-69.047	0.121	-0.046
-257.151	274.359	-0.028	-0.049
-256.136	-17.490	0.168	0.105
-255.122	-59.155	0.077	0.033
-254.107	800.000	0.097	0.273
-253.092	-200.000	0.014	-0.256
-252.078	183.613	0.158	-0.233
-251.063	115.996	-0.104	-0.126
-250.049	415.118	0.087	0.185
-249.034	16.766	-0.143	0.112
-248.019	606.833	0.076	0.188
-247.005	66.586	0.080	-0.080
-245.990	-15.927	-0.043	-0.027
-244.976	25.211	-0.113	0.093
-243.961	-200.000	-0.011	-0.106
-242.946	-167.344	0.102	0.004
-241.932	-96.261	-0.389	0.102
-240.917	-54.658	0.178	0.080
-239.903	0.240	0.201	-0.142
-238.888	335.468	0.052	0.100
-237.873	-127.163	0.304	-0.044
-236.859	-66.811	0.083	-0.033
-235.844	334.790	0.111	-0.214
-234.830	-200.000	0.027	-0.186
-233.815	-40.549	0.111	-0.057
-232.800	-51.231	0.070	-0.032
-231.786	-200.000	-0.055	0.238
-230.771	-165.976	0.117	0.005
-229.757	-117.986	0.298	-0.053
-228.742	179.800	-0.093	0.135
-227.727	24.227	0.216	0.177
-226.713	-21.677	-0.054	0.032
-225.698	-200.000	0.003	0.198
-224.684	-47.077	0.294	0.143
-223.669	774.520	-0.055	-0.149
-222.655	582.449	-0.086	0.209
-221.640	-200.000	0.033	0.204
-220.625	4.762	-0.078	0.057
-219.611	6.037	0.221	-0.163
-218.596	800.000	-0.085	-0.357
-217.582	-142.685	-0.203	-0.020
-216.567	800.000	-0.078	0.247
-215.552	-102.779	-0.229	-0.054
-214.538	800.000	-0.085	0.359
-213.523	189.623	-0.117	-0.174
-212.509	-200.000	0.001	-0.084
-211.494	-142.332	0.073	-0.007
-210.479	-110.529	0.150	0.031
-209.465	-65.865	0.129	0.051
-208.450	46.096	0.045	0.042
-207.436	-168.635	0.253	-0.010
-206.421	-88.538	-0.040	-0.012
-205.406	-200.000	0.021	0.107
-204.392	-200.000	-0.000	-0.226
-203.377	152.943	0.158	0.215
-202.363	118.380	-0.101	0.124
-201.348	-200.000	-0.010	-0.120
-200.333	54.709	0.274	-0.262
-199.319	800.000	-0.010	0.030
-198.304	-74.474	0.382	-0.136
-197.290	-136.457	0.283	0.033
-196.275	-9.964	0.089	-0.059
-195.260	61.998	0.116	0.114
-194.246	800.000	0.060	0.214
-193.231	-200.000	0.012	0.067
-192.217	294.217	-0.049	0.088
-191.202	-200.000	0.046	0.340
-190.187	-15.697	-0.142	-0.090
-189.173	33.159	0.090	0.077
-188.158	-122.271	0.150	0.024
-187.144	-0.538	0.085	0.060
-186.129	13.447	-0.088	-0.067
-185.114	119.510	0.127	0.155
-184.100	-4.894	0.182	-0.124
-183.085	292.406	-0.032	0.057
-182.071	-200.000	0.064	0.301
-181.056	130.024	0.201	0.255
-180.042	-170.745	0.345	0.012
-179.027	-63.568	0.176	0.072
-178.012	37.977	0.139	-0.122
-176.998	-2.472	0.067	-0.046
-175.983	72.501	-0.231	-0.238
-174.969	86.902	-0.195	-0.214
-173.954	-200.000	-0.024	0.127
-172.939	-32.952	0.201	-0.110
-171.925	69.660	-0.098	-0.100
-170.910	274.941	0.237	-0.416
-169.896	51.453	-0.069	-0.065
-168.881	800.000	0.026	0.084
-167.866	-66.698	-0.229	-0.090
-166.852	27.537	0.118	0.099
-165.837	-108.761	-0.328	0.069
-164.823	91.456	0.195	0.217
-163.808	-200.000	-0.014	-0.158
-162.793	353.197	-0.143	0.281
-161.779	-69.218	-0.183	-0.070
-160.764	800.000	-0.104	0.310
-159.750	179.491	-0.159	0.230
-158.735	-16.055	-0.099	-0.062
-157.720	-200.000	-0.045	0.409
-156.706	800.000	0.043	0.173
-155.691	-200.000	-0.063	0.302
-154.677	-171.056	0.299	0.010
-153.662	-33.409	-0.078	-0.043
-152.647	41.753	0.175	-0.156
-151.633	-58.697	0.049	-0.021
-150.618	-47.789	0.143	0.069
-149.604	-108.569	0.167	0.035
-148.589	8.398	-0.419	0.312
-147.574	-200.000	0.035	0.313
-146.560	-200.000	-0.042	0.206
-145.545	20.247	0.329	0.262
-144.531	232.218	-0.094	0.152
-143.516	-200.000	0.005	-0.068
-142.502	-131.298	-0.289	0.038
-141.487	9.707	-0.140	0.105
-140.472	220.966	-0.201	-0.319
-139.458	800.000	0.081	0.281
-138.443	5.541	-0.084	0.061
-137.429	101.543	-0.201	-0.232
-136.414	127.754	0.114	0.143
-135.399	71.905	0.186	-0.191
-134.385	398.876	0.139	0.287
-133.370	-199.345	-0.245	-0.001
-132.356	-200.000	0.050	0.252
-131.341	75.500	0.140	0.146
-130.326	84.126	0.048	-0.052
-129.312	619.094	0.042	0.103
-128.297	87.460	0.206	-0.225
-127.283	139.727	0.062	0.081
-126.268	1.367	0.218	0.155
-125.253	-97.450	-0.139	0.036
-124.239	-21.179	0.188	-0.113
-123.224	-136.000	0.255	-0.030
-122.210	-43.471	-0.130	-0.065
-121.195	-43.951	0.814	0.404
