DTS Sentinel unit serial number:	SN413079Multiplexer serial number:	ORYXHardware model number:	OX4-SRSoftware version number:	ORYX F/W v4.00 Oryx Data Collector v3.7.2.0data status	okinstallation	princeton_trtdifferential loss correction	single-endedforward channel	channel 4reverse channel	N/Adate	2019/09/11time	08:11:11forward acquisition time	60.00reverse acquisition time	0.00gamma	496.2192k internal	0.2305k external	0.2305temperature offset calibration	1.0607default loss term (dB/km)	0.3790temperature slope calibration	1.0000multiplexer offset coefficient	1.0000multiplexer slope coefficient	1.0000fibre end	0.00T internal ref (°C)	32.44T ext. ref 1 (°C)	9.64T ext. ref 2 (°C)	29.02length (m)	temperature (°C)	Stokes	anti-Stokes-747.200	366.762	-0.140	0.287
-746.185	222.078	0.231	0.379
-745.171	371.262	0.073	0.150
-744.156	160.564	-0.168	0.239
-743.142	83.026	-0.072	0.079
-742.127	-2.551	0.159	0.113
-741.112	24.825	-0.149	-0.125
-740.098	172.080	0.206	0.301
-739.083	-94.585	-0.226	0.063
-738.069	-200.000	0.051	0.450
-737.054	-67.573	0.216	-0.086
-736.039	-110.735	-0.226	0.047
-735.025	-193.363	0.083	-0.001
-734.010	190.756	-0.256	-0.391
-732.996	8.538	-0.100	-0.077
-731.981	-138.056	-0.190	0.022
-730.966	-102.956	-0.062	-0.015
-729.952	-105.377	-0.334	0.077
-728.937	-102.693	-0.257	0.062
-727.923	199.803	-0.028	-0.044
-726.908	-49.760	0.150	-0.072
-725.894	370.230	-0.076	-0.158
-724.879	-200.000	-0.025	-0.311
-723.864	15.994	0.189	-0.152
-722.850	-119.451	-0.351	-0.062
-721.835	42.001	0.207	0.191
-720.821	677.931	0.008	0.020
-719.806	213.764	-0.047	0.076
-718.791	-47.120	-0.167	-0.083
-717.777	-22.937	-0.170	0.104
-716.762	173.580	0.165	-0.242
-715.748	-93.738	-0.310	-0.087
-714.733	-200.000	0.053	-0.258
-713.718	-200.000	0.004	0.099
-712.704	24.222	-0.091	-0.076
-711.689	696.465	-0.144	-0.384
-710.675	-62.698	-0.278	-0.117
-709.660	-66.149	-0.306	-0.124
-708.645	-200.000	-0.055	-0.312
-707.631	788.424	-0.078	-0.218
-706.616	79.558	-0.221	-0.241
-705.602	-160.278	-0.028	0.002
-704.587	-65.503	-0.352	-0.144
-703.572	63.827	0.075	-0.077
-702.558	-200.000	0.010	-0.126
-701.543	622.840	0.101	-0.259
-700.529	78.350	-0.080	-0.087
-699.514	102.427	-0.043	0.051
-698.499	-200.000	-0.002	-0.343
-697.485	291.284	-0.106	0.195
-696.470	-36.434	0.155	0.085
-695.456	-112.299	0.049	0.010
-694.441	-200.000	-0.061	-0.414
-693.426	140.059	-0.087	-0.116
-692.412	-109.035	0.100	-0.022
-691.397	38.811	0.016	-0.015
-690.383	81.313	-0.231	0.254
-689.368	800.000	-0.037	0.135
-688.354	194.157	0.094	0.145
-687.339	-200.000	0.027	-0.244
-686.324	335.270	-0.068	-0.133
-685.310	400.882	-0.048	-0.102
-684.295	35.478	-0.377	0.336
-683.281	102.818	0.195	-0.232
-682.266	-41.987	-0.249	-0.129
-681.251	288.863	0.042	0.077
-680.237	-52.182	-0.031	0.015
-679.222	209.953	-0.076	-0.120
-678.208	800.000	0.097	-0.290
-677.193	-200.000	0.017	0.145
-676.178	-200.000	-0.080	-0.452
-675.164	800.000	-0.108	-0.369
-674.149	696.343	-0.087	-0.232
-673.135	105.127	0.171	-0.205
-672.120	-59.001	-0.313	0.137
-671.105	-64.067	-0.196	-0.081
-670.091	352.044	-0.020	0.041
-669.076	-200.000	0.029	-0.245
-668.062	-110.119	-0.394	-0.083
-667.047	265.197	0.195	-0.345
-666.032	-45.091	-0.399	-0.201
-665.018	116.783	-0.165	-0.206
-664.003	-27.624	0.122	-0.072
-662.989	-146.686	0.275	-0.024
-661.974	-38.174	0.233	-0.126
-660.959	333.120	-0.086	-0.168
-659.945	-100.303	-0.269	0.068
-658.930	800.000	-0.030	0.118
-657.916	-48.881	-0.147	-0.071
-656.901	-200.000	-0.002	-0.036
-655.886	-51.319	-0.251	-0.119
-654.872	18.308	-0.107	-0.086
-653.857	91.177	0.072	0.082
-652.843	-59.377	0.034	-0.015
-651.828	102.798	-0.085	0.101
-650.814	-200.000	0.021	-0.247
-649.799	301.949	0.044	0.083
-648.784	676.052	0.034	-0.090
-647.770	-34.255	-0.415	-0.231
-646.755	-200.000	-0.051	-0.422
-645.741	30.130	0.278	-0.241
-644.726	6.637	-0.084	-0.064
-643.711	377.296	-0.084	-0.174
-642.697	800.000	0.166	-0.491
-641.682	-30.391	-0.050	-0.029
-640.668	92.742	-0.198	0.226
-639.653	382.257	-0.114	-0.237
-638.638	749.152	-0.063	-0.171
-637.624	-60.057	-0.211	0.091
-636.609	-62.135	0.201	0.085
-635.595	65.819	0.106	-0.109
-634.580	-88.268	0.248	0.075
-633.565	-200.000	0.024	0.290
-632.551	35.408	-0.112	-0.100
-631.536	-136.345	0.340	-0.040
-630.522	-108.416	0.158	0.035
-629.507	-200.000	-0.027	0.392
-628.492	-140.087	0.150	0.016
-627.478	656.806	-0.094	-0.246
-626.463	110.134	0.236	-0.288
-625.449	-46.019	-0.248	0.124
-624.434	481.644	0.076	-0.175
-623.419	-37.183	-0.118	0.064
-622.405	-200.000	-0.057	-0.266
-621.390	111.254	0.158	0.193
-620.376	-29.406	-0.280	0.162
-619.361	240.501	0.062	0.105
-618.346	800.000	-0.083	-0.240
-617.332	72.392	-0.214	-0.225
-616.317	412.443	0.032	0.069
-615.303	800.000	-0.051	-0.165
-614.288	332.391	0.140	-0.273
-613.273	800.000	-0.041	0.175
-612.259	157.482	-0.049	0.069
-611.244	-7.625	0.127	-0.087
-610.230	9.403	-0.084	0.064
-609.215	-72.344	-0.140	-0.053
-608.201	137.890	0.222	0.295
-607.186	-50.411	-0.266	-0.127
-606.171	150.257	-0.081	-0.111
-605.157	-11.866	0.163	0.108
-604.142	-30.196	-0.186	0.107
-603.128	-200.000	-0.035	0.234
-602.113	266.005	0.074	0.130
-601.098	-24.095	0.211	0.128
-600.084	470.561	0.119	-0.272
-599.069	257.518	0.138	0.240
-598.055	-169.846	0.315	0.011
-597.040	3.802	-0.343	0.254
-596.025	-46.552	-0.261	0.130
-595.011	185.049	0.159	-0.239
-593.996	-65.136	-0.194	-0.079
-592.982	-81.113	-0.274	-0.092
-591.967	-102.919	-0.137	0.033
-590.952	112.726	-0.099	-0.121
-589.938	80.163	-0.089	-0.097
-588.923	800.000	0.034	0.103
-587.909	-189.821	-0.449	-0.005
-586.894	-107.725	0.049	-0.011
-585.879	-0.574	0.284	-0.204
-584.865	-60.387	-0.134	-0.058
-583.850	-72.304	-0.240	0.090
-582.836	-89.220	-0.047	-0.014
-581.821	24.977	0.366	-0.307
-580.806	48.230	0.060	-0.056
-579.792	-200.000	-0.099	0.459
-578.777	-168.054	-0.647	0.026
-577.763	-50.476	0.050	-0.024
-576.748	448.880	0.041	-0.091
-575.733	-200.000	0.014	0.233
-574.719	130.055	-0.121	-0.157
-573.704	74.296	-0.216	-0.229
-572.690	22.689	0.080	0.066
-571.675	-200.000	-0.031	-0.317
-570.661	800.000	-0.076	-0.230
-569.646	9.167	-0.252	-0.192
-568.631	800.000	-0.020	0.079
-567.617	-123.548	0.268	0.043
-566.602	-33.568	0.299	0.167
-565.588	71.679	0.050	0.053
-564.573	-48.617	0.330	-0.160
-563.558	-200.000	-0.021	0.248
-562.544	-138.763	0.210	0.023
-561.529	-200.000	-0.014	-0.158
-560.515	-200.000	-0.020	-0.123
-559.500	-56.478	-0.125	0.056
-558.485	47.825	0.075	0.071
-557.471	-200.000	-0.021	0.271
-556.456	338.827	0.133	-0.262
-555.442	-24.162	-0.170	0.102
-554.427	-132.716	-0.296	0.038
-553.412	-178.631	0.199	0.005
-552.398	70.542	0.084	0.088
-551.383	-93.908	0.235	-0.065
-550.369	229.619	0.072	0.119
-549.354	-55.470	0.084	-0.038
-548.339	111.084	0.148	-0.180
-547.325	-144.139	0.184	0.017
-546.310	41.839	-0.080	0.073
-545.296	8.622	-0.056	-0.043
-544.281	-104.892	-0.080	-0.019
-543.266	-200.000	0.039	-0.181
-542.252	46.972	-0.102	0.096
-541.237	174.524	0.044	-0.065
-540.223	318.960	-0.044	0.084
-539.208	13.701	-0.294	-0.231
-538.193	213.335	-0.020	0.031
-537.179	-107.580	-0.347	0.077
-536.164	-47.496	0.287	0.141
-535.150	-200.000	-0.036	0.190
-534.135	92.886	-0.092	-0.105
-533.121	-156.226	0.142	-0.009
-532.106	800.000	0.061	-0.185
-531.091	-124.877	0.298	0.046
-530.077	184.642	-0.015	0.023
-529.062	452.625	0.100	0.224
-528.048	-200.000	-0.035	0.275
-527.033	800.000	-0.045	-0.134
-526.018	800.000	0.031	-0.097
-525.004	-166.831	-0.365	0.015
-523.989	800.000	-0.112	-0.381
-522.975	277.792	-0.267	-0.480
-521.960	-200.000	0.037	-0.167
-520.945	78.006	0.076	0.082
-519.931	103.356	-0.040	-0.048
-518.916	245.003	0.085	-0.144
-517.902	-113.100	0.078	0.016
-516.887	146.141	0.233	-0.315
-515.872	74.206	-0.260	0.276
-514.858	14.359	0.101	-0.079
-513.843	123.364	0.190	-0.240
-512.829	435.449	-0.088	0.194
-511.814	-200.000	-0.006	0.107
-510.799	-200.000	-0.002	0.028
-509.785	174.755	-0.116	0.169
-508.770	-200.000	0.026	-0.124
-507.756	-151.853	-0.058	-0.004
-506.741	116.044	0.254	0.314
-505.726	48.775	0.256	0.242
-504.712	-66.504	0.107	-0.043
-503.697	-44.826	0.261	0.131
-502.683	-79.648	-0.155	0.053
-501.668	-56.696	-0.404	-0.180
-500.653	-26.509	0.163	0.096
-499.639	-33.630	0.227	-0.126
-498.624	-63.691	0.094	-0.039
-497.610	597.765	-0.089	0.221
-496.595	800.000	-0.064	-0.237
-495.581	7.200	0.173	-0.130
-494.566	-47.705	-0.345	0.168
-493.551	-65.441	0.261	0.106
-492.537	-108.632	0.054	0.012
-491.522	374.825	0.227	0.465
-490.508	-81.995	-0.259	-0.085
-489.493	800.000	0.062	-0.262
-488.478	228.935	-0.095	0.157
-487.464	102.753	0.128	0.151
-486.449	-7.851	0.097	-0.066
-485.435	352.162	0.089	0.179
-484.420	34.899	-0.042	0.037
-483.405	800.000	0.043	0.122
-482.391	485.613	0.042	-0.096
-481.376	-103.393	-0.242	0.058
-480.362	800.000	-0.085	0.292
-479.347	5.456	-0.234	0.174
-478.332	-139.448	-0.317	-0.034
-477.318	800.000	-0.081	0.283
-476.303	65.706	0.287	0.292
-475.289	800.000	0.027	-0.091
-474.274	226.876	0.175	0.285
-473.259	-200.000	-0.005	-0.388
-472.245	-136.337	-0.230	0.027
-471.230	-94.305	-0.278	0.076
-470.216	-106.149	-0.127	0.029
-469.201	52.449	-0.138	-0.132
-468.186	216.394	-0.059	-0.094
-467.172	396.362	0.087	-0.182
-466.157	201.717	-0.094	0.146
-465.143	188.945	-0.161	0.242
-464.128	-118.986	-0.211	0.037
-463.113	67.899	-0.054	0.056
-462.099	-74.721	0.144	0.052
-461.084	-89.316	0.060	0.018
-460.070	-200.000	-0.060	-0.373
-459.055	9.206	-0.225	-0.171
-458.040	57.011	-0.199	0.195
-457.026	-200.000	-0.010	0.120
-456.011	-43.854	-0.368	0.186
-454.997	282.030	0.150	0.270
-453.982	-70.308	-0.190	-0.073
-452.968	-40.091	-0.243	0.127
-451.953	590.707	0.104	0.258
-450.938	-55.638	-0.115	-0.052
-449.924	-200.000	-0.051	0.289
-448.909	-74.874	0.224	0.081
-447.895	562.236	-0.073	-0.177
-446.880	-30.268	0.165	-0.094
-445.865	-6.253	-0.213	0.146
-444.851	-200.000	-0.022	-0.112
-443.836	-176.536	0.171	-0.004
-442.822	323.553	-0.096	0.183
-441.807	-57.532	-0.254	0.112
-440.792	49.230	-0.090	-0.085
-439.778	-200.000	0.053	0.276
-438.763	-200.000	0.006	-0.176
-437.749	-200.000	0.051	-0.331
-436.734	-54.076	0.149	-0.068
-435.719	-200.000	-0.007	-0.084
-434.705	-200.000	0.023	-0.237
-433.690	-33.979	-0.129	0.071
-432.676	4.092	-0.164	-0.121
-431.661	-71.952	0.172	0.064
-430.646	-200.000	-0.003	-0.205
-429.632	-200.000	0.004	0.150
-428.617	99.574	-0.081	-0.094
-427.603	-103.449	0.118	-0.028
-426.588	-132.572	0.102	0.013
-425.573	23.324	-0.284	0.235
-424.559	-61.257	0.147	0.062
-423.544	570.363	0.094	0.229
-422.530	126.150	-0.205	0.261
-421.515	-200.000	0.012	-0.286
-420.500	-30.372	-0.336	0.192
-419.486	119.516	-0.101	-0.125
-418.471	126.010	0.153	-0.195
-417.457	-200.000	-0.012	0.067
-416.442	800.000	-0.029	0.090
-415.428	584.148	0.101	-0.248
-414.413	-119.116	-0.077	0.013
-413.398	775.876	-0.055	-0.150
-412.384	-38.150	-0.176	0.094
-411.369	98.215	-0.070	-0.081
-410.355	800.000	0.079	-0.259
-409.340	-41.342	-0.143	0.074
-408.325	117.532	-0.236	-0.292
-407.311	-28.843	0.156	-0.090
-406.296	246.830	0.081	0.138
-405.282	557.135	-0.099	0.239
-404.267	20.256	0.069	-0.056
-403.252	-200.000	0.002	0.390
-402.238	-96.209	0.282	-0.075
-401.223	800.000	-0.058	-0.163
-400.209	-200.000	-0.025	-0.250
-399.194	-139.635	-0.241	-0.026
-398.179	115.911	0.055	-0.067
-397.165	-18.615	-0.088	-0.055
-396.150	395.899	0.059	-0.123
-395.136	-43.944	-0.166	0.084
-394.121	-200.000	0.003	-0.203
-393.106	-47.256	0.191	-0.093
-392.092	-42.015	0.071	-0.036
-391.077	-200.000	0.016	-0.212
-390.063	-200.000	0.101	0.485
-389.048	98.446	-0.214	-0.247
-388.033	800.000	0.053	0.148
-387.019	289.203	-0.142	0.258
-386.004	-200.000	-0.010	-0.207
-384.990	69.905	0.117	-0.121
-383.975	-164.201	0.151	0.007
-382.960	-4.910	-0.192	0.133
-381.946	-200.000	-0.029	0.134
-380.931	-40.531	0.308	0.161
-379.917	-200.000	-0.051	-0.229
-378.902	57.525	0.145	-0.142
-377.888	-0.294	-0.067	-0.048
-376.873	-60.780	0.321	-0.136
-375.858	146.845	-0.284	0.382
-374.844	-200.000	-0.027	-0.143
-373.829	-98.145	0.207	-0.053
-372.815	800.000	0.046	0.143
-371.800	-101.870	0.156	0.038
-370.785	40.521	-0.151	0.137
-369.771	115.684	0.197	-0.241
-368.756	123.242	0.182	0.229
-367.742	-20.648	0.182	-0.112
-366.727	-102.867	0.062	0.015
-365.712	129.875	-0.110	0.141
-364.698	-155.902	-0.168	0.011
-363.683	800.000	0.042	0.145
-362.669	-186.829	0.051	-0.001
-361.654	800.000	0.106	-0.394
-360.639	60.880	-0.183	-0.182
-359.625	49.041	-0.259	0.244
-358.610	-36.377	-0.088	0.047
-357.596	-165.141	-0.401	-0.018
-356.581	-169.014	0.376	-0.014
-355.566	168.577	-0.077	0.110
-354.552	30.423	0.279	-0.239
-353.537	-200.000	-0.008	-0.141
-352.523	327.124	-0.156	-0.299
-351.508	109.795	0.085	-0.103
-350.493	601.696	0.128	0.319
-349.479	-115.460	-0.185	-0.035
-348.464	800.000	0.063	0.183
-347.450	-200.000	0.048	-0.551
-346.435	2.067	-0.164	0.119
-345.420	-149.654	-0.165	-0.013
-344.406	379.919	0.180	-0.369
-343.391	258.483	-0.111	0.192
-342.377	20.998	0.193	-0.157
-341.362	12.424	0.115	-0.089
-340.348	-52.426	0.273	-0.126
-339.333	102.482	-0.131	-0.153
-338.318	-200.000	-0.043	0.469
-337.304	-90.296	-0.309	0.090
-336.289	329.187	-0.127	-0.244
-335.275	58.379	-0.070	-0.068
-334.260	150.137	-0.119	-0.162
-333.245	-75.365	0.076	0.027
-332.231	-200.000	-0.036	0.282
-331.216	-200.000	0.000	-0.062
-330.202	-35.034	0.110	-0.060
-329.187	-47.834	0.186	-0.090
-328.172	520.444	-0.125	-0.294
-327.158	-33.848	-0.215	-0.119
-326.143	215.072	-0.174	-0.276
-325.129	800.000	0.140	-0.534
-324.114	167.029	-0.119	-0.170
-323.099	-1.501	0.129	0.091
-322.085	325.597	0.149	-0.285
-321.070	234.794	-0.074	0.122
-320.056	-200.000	0.037	0.294
-319.041	-200.000	-0.015	-0.113
-318.026	-29.951	-0.129	0.073
-317.012	80.900	-0.236	-0.255
-315.997	565.670	0.051	0.124
-314.983	-200.000	0.024	0.293
-313.968	102.520	-0.250	0.293
-312.953	-185.494	-0.058	-0.001
-311.939	44.723	-0.071	-0.065
-310.924	-81.587	0.298	0.098
-309.910	466.011	0.152	-0.339
-308.895	327.928	0.110	-0.211
-307.880	-196.163	0.281	0.002
-306.866	50.577	0.209	-0.198
-305.851	800.000	-0.069	0.234
-304.837	88.801	0.098	-0.109
-303.822	-200.000	0.072	0.366
-302.807	-200.000	0.010	0.208
-301.793	25.388	-0.298	0.248
-300.778	90.068	0.111	-0.124
-299.764	800.000	0.050	-0.164
-298.749	-140.506	0.399	-0.042
-297.735	167.315	0.086	-0.123
-296.720	61.964	0.031	-0.031
-295.705	254.917	0.168	0.287
-294.691	800.000	0.033	0.130
-293.676	-141.298	0.313	-0.032
-292.662	114.918	0.301	0.368
-291.647	282.045	-0.174	0.312
-290.632	-166.269	-0.098	-0.004
-289.618	-92.602	0.230	0.064
-288.603	7.982	0.138	0.104
-287.589	7.770	-0.164	0.123
-286.574	-18.214	-0.092	0.057
-285.559	-103.618	0.274	0.064
-284.545	-94.775	0.337	0.091
-283.530	-52.260	0.294	0.136
-282.516	100.544	0.057	-0.066
-281.501	800.000	0.022	0.082
-280.486	62.051	-0.175	0.174
-279.472	-30.623	-0.218	0.123
-278.457	103.300	-0.052	-0.061
-277.443	565.329	-0.110	-0.265
-276.428	45.027	-0.198	0.182
-275.413	800.000	0.123	-0.441
-274.399	-200.000	-0.002	0.174
-273.384	-113.447	-0.126	0.025
-272.370	800.000	0.083	0.259
-271.355	119.181	-0.135	0.167
-270.340	-91.485	0.223	0.063
-269.326	-114.094	-0.079	-0.015
-268.311	-200.000	-0.040	0.190
-267.297	54.875	-0.182	-0.175
-266.282	59.189	0.121	0.119
-265.267	0.842	0.269	-0.192
-264.253	-154.037	0.275	-0.019
-263.238	-200.000	-0.049	0.279
-262.224	-200.000	-0.010	-0.210
-261.209	360.329	0.166	0.332
-260.195	-200.000	0.191	0.000
-259.180	-42.231	0.586	-0.299
-258.165	349.886	0.132	0.261
-257.151	40.597	0.290	-0.261
-256.136	-200.000	0.035	0.434
-255.122	-60.903	-0.203	-0.086
-254.107	331.780	0.075	-0.144
-253.092	7.208	0.137	-0.102
-252.078	-200.000	-0.012	-0.138
-251.063	-97.581	-0.238	0.062
-250.049	-148.494	0.218	0.018
-249.034	-87.671	-0.162	-0.049
-248.019	-200.000	0.081	0.448
-247.005	153.742	0.137	0.188
-245.990	-200.000	0.014	-0.070
-244.976	800.000	-0.060	-0.184
-243.961	739.063	0.081	-0.216
-242.946	-66.957	0.310	-0.122
-241.932	-75.936	0.170	-0.060
-240.917	-200.000	-0.014	-0.481
-239.903	-36.988	-0.241	-0.129
-238.888	611.093	0.053	-0.131
-237.873	-200.000	0.031	-0.152
-236.859	20.454	-0.031	-0.025
-235.844	54.521	0.053	-0.051
-234.830	98.223	0.096	0.110
-233.815	-200.000	-0.096	0.440
-232.800	800.000	0.079	-0.303
-231.786	133.144	-0.078	0.101
-230.771	9.070	-0.232	-0.175
-229.757	502.390	0.137	0.316
-228.742	21.304	-0.244	0.198
-227.727	-63.719	-0.113	-0.046
-226.713	-200.000	-0.027	-0.315
-225.698	41.360	0.037	0.034
-224.684	291.710	0.138	0.250
-223.669	234.721	-0.052	0.086
-222.655	800.000	-0.006	0.020
-221.640	-152.789	0.063	-0.004
-220.625	259.670	-0.195	0.336
-219.611	800.000	-0.024	0.101
-218.596	-50.502	-0.170	-0.080
-217.582	-59.722	0.132	-0.056
-216.567	-200.000	0.009	0.203
-215.552	151.308	-0.105	0.142
-214.538	-157.734	-0.121	0.007
-213.523	-200.000	0.015	0.146
-212.509	41.257	0.150	0.135
-211.494	-97.275	0.173	0.045
-210.479	-200.000	0.034	-0.232
-209.465	715.320	0.012	-0.031
-208.450	102.573	-0.236	0.275
-207.436	-49.938	0.151	-0.072
-206.421	336.221	0.064	-0.124
-205.406	-200.000	0.025	-0.156
-204.392	-117.175	0.412	0.075
-203.377	4.413	-0.214	0.156
-202.363	84.463	-0.182	0.198
-201.348	-111.359	-0.042	-0.009
-200.333	123.771	0.105	0.132
-199.319	-55.873	-0.220	0.098
-198.304	-76.819	-0.353	0.123
-197.290	37.911	-0.035	-0.031
-196.275	-91.210	0.293	-0.084
-195.260	-131.087	-0.316	-0.042
-194.246	-115.341	0.313	-0.059
-193.231	-55.730	0.290	-0.129
-192.217	29.793	-0.170	-0.144
-191.202	-97.072	-0.065	-0.017
-190.187	213.440	0.132	-0.208
-189.173	-200.000	0.020	0.294
-188.158	-66.519	-0.245	0.097
-187.144	109.672	0.154	0.184
-186.129	349.930	0.132	0.259
-185.114	-90.612	-0.124	-0.036
-184.100	-108.647	0.156	0.033
-183.085	-200.000	0.080	-0.360
-182.071	-4.411	0.314	0.216
-181.056	-200.000	-0.030	-0.279
-180.042	23.721	-0.263	-0.216
-179.027	800.000	0.014	0.060
-178.012	-4.825	-0.156	-0.107
-176.998	-21.031	0.221	-0.134
-175.983	78.247	-0.154	-0.164
-174.969	-200.000	-0.002	0.032
-173.954	800.000	0.036	0.147
-172.939	800.000	0.043	-0.146
-171.925	800.000	0.079	-0.232
-170.910	29.489	0.157	-0.133
-169.896	800.000	0.047	0.199
-168.881	424.860	-0.096	-0.205
-167.866	-101.107	-0.111	0.027
-166.852	-80.960	-0.192	0.063
-165.837	300.403	0.136	0.249
-164.823	-87.725	0.118	0.035
-163.808	-58.197	0.246	0.107
-162.793	283.087	0.077	-0.138
-161.779	52.034	-0.129	0.122
-160.764	-158.287	-0.348	-0.020
-159.750	800.000	-0.026	-0.075
-158.735	-117.742	0.140	-0.025
-157.720	170.846	0.139	0.198
-156.706	-78.810	-0.254	-0.086
-155.691	5.114	0.252	0.185
-154.677	408.840	-0.074	0.156
-153.662	379.261	-0.149	0.303
-152.647	-143.221	-0.464	0.044
-151.633	27.333	0.091	-0.076
-150.618	-46.862	-0.205	0.100
-149.604	363.426	0.037	-0.074
-148.589	-5.123	-0.149	-0.102
-147.574	-200.000	0.020	0.349
-146.560	800.000	-0.055	0.200
-145.545	549.647	-0.057	0.137
-144.531	-122.052	-0.303	-0.050
-143.516	-200.000	0.005	-0.193
-142.502	-115.321	0.086	0.016
-141.487	35.886	0.276	0.241
-140.472	-200.000	0.004	-0.293
-139.458	800.000	-0.051	0.217
-138.443	120.697	0.109	0.134
-137.429	800.000	0.021	-0.062
-136.414	-10.779	-0.176	-0.115
-135.399	-12.492	-0.191	-0.124
-134.385	-39.947	-0.119	-0.062
-133.370	-109.947	0.229	0.048
-132.356	581.937	0.085	-0.207
-131.341	-200.000	-0.083	-0.383
-130.326	800.000	0.014	0.061
-129.312	306.174	-0.175	-0.323
-128.297	-79.116	-0.206	0.069
-127.283	33.343	-0.398	0.343
-126.268	-38.044	0.107	-0.056
-125.253	-200.000	0.016	0.101
-124.239	128.931	-0.264	-0.334
-123.224	204.827	-0.141	-0.218
-122.210	417.732	0.087	-0.185
-121.195	-200.000	-0.016	0.167
