DTS Sentinel unit serial number:	SN413079Multiplexer serial number:	ORYXHardware model number:	OX4-SRSoftware version number:	ORYX F/W v4.00 Oryx Data Collector v3.7.2.0data status	okinstallation	princeton_trtdifferential loss correction	single-endedforward channel	channel 4reverse channel	N/Adate	2019/09/10time	18:15:11forward acquisition time	60.00reverse acquisition time	0.00gamma	496.2192k internal	0.2299k external	0.2299temperature offset calibration	0.9946default loss term (dB/km)	0.3790temperature slope calibration	1.0000multiplexer offset coefficient	1.0000multiplexer slope coefficient	1.0000fibre end	0.00T internal ref (°C)	36.55T ext. ref 1 (°C)	-0.33T ext. ref 2 (°C)	28.59length (m)	temperature (°C)	Stokes	anti-Stokes-747.200	139.988	0.057	-0.076
-746.185	-49.347	0.227	-0.110
-745.171	-106.762	0.301	0.068
-744.156	-76.043	-0.117	-0.042
-743.142	-68.502	0.192	-0.076
-742.127	228.412	-0.214	0.356
-741.112	-200.000	-0.004	0.034
-740.098	-16.340	0.142	0.092
-739.083	493.149	0.019	-0.045
-738.069	-200.000	0.002	0.049
-737.054	-117.773	-0.307	0.056
-736.039	-98.812	-0.204	-0.053
-735.025	-200.000	-0.028	0.184
-734.010	-85.038	-0.156	-0.050
-732.996	-81.694	-0.223	0.075
-731.981	365.083	0.157	0.322
-730.966	-43.245	-0.088	0.045
-729.952	12.658	0.107	-0.084
-728.937	-200.000	-0.053	-0.452
-727.923	-200.000	-0.021	-0.260
-726.908	-200.000	-0.004	0.493
-725.894	89.652	-0.210	-0.239
-724.879	-127.366	0.197	-0.029
-723.864	-200.000	0.012	-0.055
-722.850	-200.000	-0.015	-0.267
-721.835	-99.764	-0.179	0.046
-720.821	-190.426	-0.163	-0.002
-719.806	66.191	-0.270	-0.279
-718.791	800.000	-0.018	-0.078
-717.777	-59.716	-0.383	-0.167
-716.762	136.936	-0.176	0.235
-715.748	7.950	-0.314	-0.240
-714.733	-76.796	-0.279	-0.099
-713.718	325.610	-0.061	0.119
-712.704	43.513	-0.147	0.137
-711.689	303.318	-0.198	-0.374
-710.675	19.391	-0.346	-0.283
-709.660	-141.924	-0.157	-0.016
-708.645	-152.211	0.077	-0.006
-707.631	-200.000	0.061	-0.366
-706.616	800.000	0.061	-0.175
-705.602	38.823	0.259	-0.236
-704.587	-33.793	-0.364	-0.204
-703.572	-72.692	0.204	-0.077
-702.558	800.000	0.049	-0.214
-701.543	-200.000	-0.012	-0.074
-700.529	-119.090	0.188	-0.034
-699.514	-110.801	0.330	0.069
-698.499	114.355	0.104	-0.129
-697.485	-123.170	-0.269	-0.044
-696.470	2.145	0.488	-0.359
-695.456	-149.867	-0.170	0.014
-694.441	-200.000	0.012	-0.101
-693.426	-102.797	-0.376	0.091
-692.412	587.675	0.088	0.220
-691.397	800.000	-0.020	-0.078
-690.383	-200.000	-0.016	-0.105
-689.368	800.000	-0.038	-0.112
-688.354	800.000	0.044	-0.135
-687.339	-29.007	0.129	-0.076
-686.324	-134.750	0.043	-0.005
-685.310	34.488	-0.089	-0.079
-684.295	65.995	0.062	-0.064
-683.281	101.154	-0.059	0.070
-682.266	800.000	-0.065	0.202
-681.251	74.007	0.213	-0.228
-680.237	305.531	-0.094	0.177
-679.222	134.859	-0.110	0.145
-678.208	-24.555	0.090	0.054
-677.193	115.819	0.208	-0.259
-676.178	11.405	0.171	-0.133
-675.164	407.890	0.161	0.346
-674.149	71.148	-0.176	0.186
-673.135	317.759	0.066	-0.127
-672.120	-129.357	-0.224	-0.032
-671.105	-142.014	0.418	-0.042
-670.091	800.000	-0.109	0.373
-669.076	-4.951	0.191	-0.134
-668.062	-200.000	0.006	-0.383
-667.047	191.191	0.125	0.191
-666.032	-76.745	0.248	0.088
-665.018	-7.677	-0.093	0.064
-664.003	-78.817	0.092	0.032
-662.989	800.000	0.084	0.309
-661.974	49.517	-0.191	0.183
-660.959	198.478	-0.195	0.304
-659.945	-79.531	0.214	0.074
-658.930	-141.894	0.185	0.019
-657.916	800.000	0.075	0.248
-656.901	800.000	-0.033	-0.117
-655.886	752.193	0.098	-0.270
-654.872	-200.000	-0.001	0.032
-653.857	-200.000	0.009	-0.421
-652.843	800.000	0.074	-0.266
-651.828	634.159	-0.014	-0.036
-650.814	-55.192	-0.255	0.117
-649.799	94.118	0.051	-0.059
-648.784	-200.000	0.029	-0.241
-647.770	-144.981	0.083	-0.008
-646.755	91.040	0.133	-0.152
-645.741	46.262	-0.240	0.226
-644.726	31.531	0.118	0.103
-643.711	-111.627	0.007	-0.001
-642.697	179.671	-0.093	0.139
-641.682	475.986	0.014	-0.033
-640.668	135.110	-0.139	-0.183
-639.653	-37.669	0.172	-0.093
-638.638	86.257	-0.137	0.154
-637.624	-94.073	0.148	-0.041
-636.609	-107.776	-0.339	0.075
-635.595	-56.749	-0.212	-0.095
-634.580	800.000	0.027	-0.114
-633.565	-47.134	-0.244	0.121
-632.551	800.000	-0.068	0.280
-631.536	800.000	-0.108	0.374
-630.522	389.239	0.113	0.238
-629.507	-3.303	-0.149	-0.105
-628.492	-200.000	-0.012	0.372
-627.478	-30.624	-0.112	-0.065
-626.463	-200.000	-0.032	-0.220
-625.449	-112.326	-0.179	0.036
-624.434	321.522	-0.132	-0.255
-623.419	-87.985	0.147	0.045
-622.405	69.854	-0.234	-0.245
-621.390	-200.000	0.013	0.303
-620.376	800.000	0.053	-0.149
-619.361	20.222	0.161	0.132
-618.346	-200.000	-0.037	0.221
-617.332	800.000	0.059	-0.248
-616.317	25.875	0.312	-0.264
-615.303	-84.566	0.177	-0.057
-614.288	418.329	-0.055	-0.120
-613.273	294.026	-0.116	-0.215
-612.259	-77.504	0.295	-0.104
-611.244	-91.635	0.300	-0.087
-610.230	-109.254	0.376	-0.081
-609.215	-28.838	-0.122	-0.071
-608.201	115.575	-0.168	0.208
-607.186	-134.459	-0.196	-0.024
-606.171	192.213	-0.114	0.175
-605.157	-95.269	-0.088	-0.024
-604.142	-75.604	-0.323	-0.117
-603.128	800.000	-0.156	-0.505
-602.113	-74.328	-0.115	0.042
-601.098	800.000	-0.051	-0.171
-600.084	-98.716	-0.240	-0.062
-599.069	-1.998	0.044	0.032
-598.055	-108.182	0.259	-0.057
-597.040	800.000	-0.083	-0.251
-596.025	-146.612	-0.139	0.012
-595.011	-115.307	0.051	0.010
-593.996	198.200	0.124	-0.192
-592.982	179.553	0.171	-0.253
-591.967	-26.064	0.098	0.059
-590.952	-76.747	0.145	-0.051
-589.938	-200.000	-0.018	-0.125
-588.923	-107.319	0.013	0.003
-587.909	155.459	-0.138	-0.193
-586.894	-45.220	0.161	0.081
-585.879	-200.000	0.046	0.214
-584.865	-57.460	0.036	0.016
-583.850	147.285	0.115	-0.156
-582.836	-40.322	-0.313	0.165
-581.821	-73.001	0.361	0.134
-580.806	-200.000	-0.009	-0.044
-579.792	-200.000	-0.009	-0.236
-578.777	612.491	-0.078	-0.199
-577.763	-200.000	-0.028	-0.219
-576.748	667.195	-0.069	-0.182
-575.733	304.958	-0.064	-0.120
-574.719	152.548	-0.107	-0.148
-573.704	377.436	0.058	-0.120
-572.690	-107.581	-0.268	-0.059
-571.675	66.859	0.105	-0.109
-570.661	-200.000	-0.051	0.380
-569.646	56.980	-0.298	0.295
-568.631	308.050	-0.122	-0.231
-567.617	-200.000	0.031	-0.286
-566.602	-10.076	-0.265	-0.178
-565.588	-39.354	0.263	0.140
-564.573	87.448	-0.037	-0.042
-563.558	-170.621	0.234	0.008
-562.544	202.698	-0.172	-0.269
-561.529	407.119	-0.037	0.080
-560.515	-168.517	-0.394	0.015
-559.500	-200.000	-0.010	-0.256
-558.485	800.000	-0.025	-0.092
-557.471	-200.000	0.011	0.167
-556.456	-144.993	-0.212	-0.020
-555.442	100.813	-0.286	0.337
-554.427	-200.000	-0.031	0.152
-553.412	-66.611	0.038	-0.015
-552.398	-110.256	0.357	0.075
-551.383	-139.075	0.139	-0.015
-550.369	800.000	0.054	-0.196
-549.354	327.355	0.098	0.190
-548.339	-128.116	-0.462	0.067
-547.325	-200.000	0.038	0.242
-546.310	54.123	0.215	0.209
-545.296	0.805	-0.070	-0.051
-544.281	-200.000	0.015	0.206
-543.266	31.314	-0.156	-0.136
-542.252	-153.661	0.061	0.004
-541.237	45.053	0.135	0.126
-540.223	339.879	0.096	-0.190
-539.208	-173.915	0.037	0.001
-538.193	95.857	0.064	0.074
-537.179	-149.306	-0.041	0.003
-536.164	-86.550	0.186	-0.058
-535.150	506.379	0.039	-0.092
-534.135	57.839	0.040	0.039
-533.121	97.243	0.168	0.195
-532.106	-200.000	-0.031	0.278
-531.091	-159.658	0.099	0.006
-530.077	482.089	-0.108	0.248
-529.062	-147.528	-0.371	-0.032
-528.048	-200.000	0.011	0.400
-527.033	230.205	-0.135	0.223
-526.018	611.770	0.158	0.400
-525.004	176.307	-0.145	0.213
-523.989	390.535	-0.135	0.283
-522.975	59.954	0.068	-0.068
-521.960	-200.000	0.007	-0.181
-520.945	463.937	0.112	-0.253
-519.931	-200.000	-0.003	0.070
-518.916	800.000	-0.151	-0.471
-517.902	205.592	0.010	-0.016
-516.887	414.261	0.110	0.237
-515.872	-191.311	-0.074	-0.001
-514.858	-56.201	-0.176	-0.079
-513.843	-200.000	-0.007	0.129
-512.829	377.882	0.052	0.107
-511.814	365.576	-0.112	-0.228
-510.799	-76.368	-0.269	-0.096
-509.785	-52.998	0.110	0.051
-508.770	-15.605	0.207	-0.133
-507.756	-116.531	-0.284	0.053
-506.741	-130.337	0.191	-0.026
-505.726	-200.000	0.002	0.210
-504.712	-33.673	-0.285	-0.159
-503.697	-69.061	0.181	0.070
-502.683	384.473	-0.143	-0.297
-501.668	-167.358	0.065	0.003
-500.653	-84.359	0.186	-0.059
-499.639	147.489	-0.182	-0.248
-498.624	15.466	-0.289	-0.230
-497.610	-33.985	0.136	-0.076
-496.595	-124.263	0.256	0.040
-495.581	48.785	0.096	0.091
-494.566	-20.751	-0.295	-0.183
-493.551	253.887	-0.122	-0.210
-492.537	155.858	0.221	0.308
-491.522	-120.127	0.241	-0.042
-490.508	229.073	0.026	-0.043
-489.493	216.895	0.138	0.222
-488.478	-157.287	0.099	-0.006
-487.464	800.000	0.074	0.228
-486.449	87.965	0.074	-0.083
-485.435	287.962	0.139	0.254
-484.420	-10.584	0.061	0.041
-483.405	407.160	0.140	-0.299
-482.391	-200.000	-0.024	0.122
-481.376	419.718	-0.128	0.276
-480.362	-3.300	0.096	0.067
-479.347	22.803	0.231	0.191
-478.332	-12.854	0.281	0.185
-477.318	702.993	-0.127	0.338
-476.303	-37.881	0.184	-0.099
-475.289	80.066	0.043	-0.046
-474.274	-46.284	-0.356	-0.177
-473.259	20.134	0.101	-0.082
-472.245	-200.000	0.013	0.088
-471.230	219.448	0.153	-0.247
-470.216	352.514	0.090	-0.180
-469.201	161.443	-0.161	-0.227
-468.186	435.035	-0.062	0.136
-467.172	800.000	-0.071	0.201
-466.157	-200.000	-0.251	0.001
-465.143	429.866	0.131	0.286
-464.128	-4.406	0.229	-0.159
-463.113	243.662	0.063	-0.106
-462.099	516.557	0.084	-0.198
-461.084	133.684	0.087	-0.113
-460.070	-155.162	0.246	0.016
-459.055	-29.552	0.166	-0.095
-458.040	-59.031	-0.263	-0.114
-457.026	-44.104	-0.190	-0.096
-456.011	-200.000	0.064	0.375
-454.997	-72.313	0.339	-0.127
-453.982	-200.000	0.020	-0.116
-452.968	67.115	-0.009	-0.009
-451.953	-86.005	0.075	0.023
-450.938	444.284	0.098	-0.218
-449.924	-200.000	-0.044	-0.219
-448.909	88.078	-0.053	-0.060
-447.895	114.244	-0.058	-0.072
-446.880	-15.287	0.395	0.255
-445.865	-200.000	0.022	-0.351
-444.851	67.167	0.055	0.056
-443.836	10.373	-0.124	-0.095
-442.822	-28.490	0.076	-0.044
-441.807	-86.839	0.146	0.045
-440.792	-200.000	0.011	0.298
-439.778	800.000	0.064	0.198
-438.763	-0.209	0.048	0.034
-437.749	-69.083	-0.197	0.077
-436.734	800.000	-0.046	0.161
-435.719	-169.244	-0.082	-0.003
-434.705	800.000	-0.048	-0.189
-433.690	115.722	0.094	-0.116
-432.676	496.332	0.034	0.078
-431.661	-65.623	-0.231	0.093
-430.646	291.545	-0.030	0.055
-429.632	41.033	0.187	-0.170
-428.617	-22.030	0.285	0.175
-427.603	250.760	0.064	0.110
-426.588	800.000	-0.086	0.290
-425.573	800.000	-0.045	-0.139
-424.559	-200.000	-0.066	0.304
-423.544	-200.000	0.034	-0.165
-422.530	-123.395	0.109	0.017
-421.515	-65.475	0.320	0.129
-420.500	-34.790	0.147	-0.081
-419.486	229.705	-0.047	0.078
-418.471	4.993	-0.135	0.100
-417.457	-63.796	-0.099	0.041
-416.442	25.530	-0.219	0.183
-415.428	-200.000	0.000	0.015
-414.413	-137.016	-0.226	-0.026
-413.398	800.000	0.076	-0.268
-412.384	6.419	0.292	-0.219
-411.369	139.993	0.145	0.192
-410.355	-80.427	-0.282	-0.095
-409.340	48.675	0.094	0.089
-408.325	800.000	-0.062	-0.207
-407.311	-166.518	-0.189	0.008
-406.296	82.830	0.299	-0.327
-405.282	72.124	-0.087	0.091
-404.267	-71.323	-0.211	-0.080
-403.252	-200.000	0.005	0.105
-402.238	774.080	-0.091	-0.250
-401.223	219.052	-0.142	-0.229
-400.209	-89.184	0.122	-0.036
-399.194	136.186	-0.205	-0.268
-398.179	259.722	-0.146	0.253
-397.165	161.476	-0.142	-0.200
-396.150	5.055	0.268	-0.199
-395.136	203.320	-0.210	-0.326
-394.121	800.000	0.069	0.216
-393.106	34.330	-0.243	0.214
-392.092	-200.000	-0.030	0.249
-391.077	80.796	-0.220	0.239
-390.063	714.378	-0.184	0.491
-389.048	-14.258	0.160	0.104
-388.033	214.885	0.052	-0.083
-387.019	-105.376	-0.270	-0.062
-386.004	50.386	0.069	0.065
-384.990	800.000	0.014	0.046
-383.975	-200.000	0.029	0.154
-382.960	52.737	-0.315	0.303
-381.946	404.031	0.106	0.226
-380.931	-67.541	-0.056	-0.022
-379.917	-200.000	-0.057	-0.269
-378.902	-200.000	-0.024	0.239
-377.888	-41.209	-0.308	0.160
-376.873	153.077	-0.038	-0.052
-375.858	16.040	-0.109	0.087
-374.844	29.542	-0.163	-0.139
-373.829	78.694	-0.192	-0.206
-372.815	45.279	0.185	-0.172
-371.800	455.634	0.023	-0.052
-370.785	105.312	0.113	-0.134
-369.771	121.595	-0.115	0.144
-368.756	228.073	-0.105	0.173
-367.742	92.065	-0.102	0.116
-366.727	-109.178	0.127	0.027
-365.712	132.902	-0.089	0.115
-364.698	-80.441	-0.385	-0.129
-363.683	-200.000	0.051	-0.361
-362.669	-2.629	0.172	0.121
-361.654	-200.000	0.033	-0.176
-360.639	-5.696	-0.168	0.116
-359.625	-200.000	-0.023	0.170
-358.610	-146.610	0.351	0.031
-357.596	-15.164	-0.144	-0.092
-356.581	167.290	-0.098	-0.140
-355.566	604.530	-0.122	0.305
-354.552	20.036	0.058	0.047
-353.537	-200.000	0.018	-0.186
-352.523	-96.686	-0.312	-0.082
-351.508	-61.308	-0.336	0.142
-350.493	-29.443	0.166	0.095
-349.479	-65.283	0.146	0.059
-348.464	-200.000	-0.009	-0.190
-347.450	76.840	0.154	-0.164
-346.435	59.285	-0.149	0.148
-345.420	-56.870	-0.149	0.066
-344.406	-42.550	-0.152	-0.078
-343.391	-200.000	-0.003	-0.098
-342.377	126.344	0.154	-0.195
-341.362	-200.000	-0.011	-0.197
-340.348	2.597	-0.296	0.216
-339.333	159.355	0.177	0.248
-338.318	-200.000	0.015	-0.113
-337.304	115.572	-0.083	-0.102
-336.289	-96.493	-0.367	-0.097
-335.275	-55.409	-0.251	-0.113
-334.260	-200.000	0.045	0.256
-333.245	51.690	0.200	0.191
-332.231	-109.334	0.273	0.058
-331.216	800.000	-0.104	-0.444
-330.202	252.173	0.145	0.249
-329.187	416.264	0.064	-0.137
-328.172	96.107	0.106	-0.122
-327.158	-117.433	0.088	0.016
-326.143	110.509	-0.132	0.160
-325.129	-200.000	-0.068	-0.341
-324.114	-185.838	0.421	0.006
-323.099	-10.230	-0.251	-0.167
-322.085	800.000	0.045	-0.127
-321.070	-151.814	-0.173	0.013
-320.056	62.787	0.135	0.135
-319.041	800.000	-0.049	0.194
-318.026	800.000	-0.137	0.441
-317.012	-165.718	-0.143	0.006
-315.997	-38.723	-0.144	-0.076
-314.983	-120.413	0.332	-0.057
-313.968	91.762	-0.151	0.170
-312.953	57.787	-0.147	-0.144
-311.939	-200.000	-0.034	-0.184
-310.924	95.078	-0.021	0.024
-309.910	172.346	-0.072	0.104
-308.895	205.782	-0.076	0.118
-307.880	794.438	0.045	0.124
-306.866	-71.469	0.350	0.131
-305.851	164.419	0.031	-0.043
-304.837	-46.663	-0.249	0.122
-303.822	-200.000	0.015	0.105
-302.807	47.663	0.091	0.086
-301.793	-200.000	-0.002	0.440
-300.778	128.418	-0.171	0.218
-299.764	-14.377	0.303	-0.195
-298.749	800.000	0.059	-0.168
-297.735	12.595	0.121	-0.094
-296.720	-200.000	0.058	-0.257
-295.705	-200.000	0.029	-0.177
-294.691	-192.220	0.215	0.002
-293.676	-68.803	-0.128	-0.050
-292.662	800.000	-0.106	0.327
-291.647	-78.614	-0.114	-0.039
-290.632	155.807	0.161	0.222
-289.618	50.000	-0.128	0.121
-288.603	-18.541	-0.287	0.179
-287.589	74.126	0.320	0.337
-286.574	194.081	-0.073	0.111
-285.559	-73.194	0.041	-0.015
-284.545	-99.460	0.333	-0.084
-283.530	-200.000	0.001	-0.016
-282.516	30.260	0.177	0.152
-281.501	391.617	-0.114	0.236
-280.486	-76.830	-0.072	-0.025
-279.472	-30.082	-0.095	0.054
-278.457	-200.000	-0.001	0.024
-277.443	-116.518	-0.302	0.056
-276.428	800.000	-0.030	0.109
-275.413	-157.880	0.262	0.016
-274.399	55.792	-0.110	-0.107
-273.384	19.864	-0.247	0.199
-272.370	-37.019	0.209	0.112
-271.355	-200.000	-0.005	-0.110
-270.340	-72.273	-0.140	-0.052
-269.326	-12.055	0.182	-0.120
-268.311	-4.805	-0.166	0.115
-267.297	-200.000	0.008	-0.060
-266.282	-200.000	-0.023	0.276
-265.267	197.567	0.222	0.340
-264.253	-32.145	-0.061	0.034
-263.238	-18.666	-0.131	0.082
-262.224	-25.667	-0.015	-0.009
-261.209	-125.667	-0.132	-0.020
-260.195	227.684	-0.113	-0.184
-259.180	167.856	-0.122	0.174
-258.165	728.243	0.141	0.377
-257.151	155.727	0.090	0.124
-256.136	30.436	0.196	0.168
-255.122	750.495	-0.074	0.200
-254.107	-50.823	0.334	0.157
-253.092	800.000	-0.021	-0.090
-252.078	1.569	0.231	0.166
-251.063	-43.729	0.242	0.122
-250.049	-148.397	0.159	-0.013
-249.034	800.000	-0.063	-0.179
-248.019	-26.951	0.074	0.043
-247.005	-123.349	-0.148	-0.024
-245.990	53.444	0.245	0.235
-244.976	-200.000	0.027	0.176
-243.961	800.000	-0.023	0.096
-242.946	-9.834	0.148	-0.099
-241.932	597.452	0.117	0.289
-240.917	-132.223	0.272	0.035
-239.903	-200.000	-0.033	-0.237
-238.888	33.162	0.350	-0.303
-237.873	77.485	0.022	-0.024
-236.859	117.277	-0.126	0.154
-235.844	87.997	0.178	-0.197
-234.830	29.550	-0.048	-0.041
-233.815	634.267	-0.187	-0.473
-232.800	-200.000	-0.029	0.180
-231.786	534.909	-0.050	-0.120
-230.771	-200.000	-0.054	0.372
-229.757	-200.000	0.012	0.559
-228.742	-131.341	0.209	0.028
-227.727	800.000	0.056	-0.202
-226.713	800.000	-0.092	-0.392
-225.698	-124.333	0.170	0.027
-224.684	330.870	-0.080	0.155
-223.669	37.961	-0.152	0.135
-222.655	550.094	0.115	0.275
-221.640	33.173	0.165	-0.143
-220.625	106.474	-0.128	0.151
-219.611	7.086	-0.376	0.280
-218.596	-146.802	0.314	0.027
-217.582	51.708	0.179	-0.170
-216.567	62.495	0.150	0.150
-215.552	-167.577	-0.377	-0.015
-214.538	27.566	-0.228	-0.192
-213.523	800.000	-0.127	-0.431
-212.509	-200.000	0.001	-0.157
-211.494	421.944	-0.111	-0.238
-210.479	-185.237	0.119	0.002
-209.465	-200.000	0.041	0.181
-208.450	-160.200	0.218	0.012
-207.436	715.711	0.108	-0.286
-206.421	-64.202	-0.293	-0.119
-205.406	175.484	-0.178	0.258
-204.392	197.088	0.219	0.333
-203.377	-200.000	-0.045	-0.200
-202.363	-200.000	-0.039	-0.273
-201.348	141.660	0.026	-0.034
-200.333	-200.000	0.023	0.434
-199.319	133.365	0.176	0.227
-198.304	-64.283	0.120	0.049
-197.290	-30.891	0.044	-0.025
-196.275	341.807	0.051	-0.100
-195.260	109.050	0.191	-0.228
-194.246	800.000	0.103	-0.373
-193.231	800.000	-0.107	-0.413
-192.217	44.310	0.330	-0.302
-191.202	800.000	-0.069	-0.215
-190.187	492.830	-0.017	-0.038
-189.173	27.555	-0.156	-0.131
-188.158	82.358	0.039	-0.042
-187.144	-98.349	0.014	-0.004
-186.129	-200.000	0.017	-0.077
-185.114	800.000	-0.024	-0.101
-184.100	-20.653	-0.055	0.034
-183.085	-200.000	-0.027	-0.127
-182.071	-200.000	-0.016	0.131
-181.056	-138.023	0.023	-0.003
-180.042	74.172	0.275	-0.288
-179.027	371.992	-0.163	-0.330
-178.012	-200.000	-0.011	0.338
-176.998	37.048	0.092	-0.081
-175.983	-200.000	0.030	-0.180
-174.969	-94.258	0.184	0.050
-173.954	-83.447	-0.309	-0.099
-172.939	-200.000	-0.028	0.197
-171.925	-79.469	0.130	0.044
-170.910	-105.274	0.514	-0.117
-169.896	-83.061	-0.304	0.098
-168.881	138.824	0.329	-0.431
-167.866	-200.000	-0.024	-0.213
-166.852	31.041	-0.222	-0.190
-165.837	38.856	0.206	-0.184
-164.823	-26.011	0.268	-0.157
-163.808	-83.094	0.047	0.015
-162.793	244.766	-0.119	-0.200
-161.779	-107.532	0.199	0.043
-160.764	39.614	0.225	0.202
-159.750	247.369	-0.198	0.333
-158.735	-200.000	0.003	0.177
-157.720	39.393	-0.083	0.074
-156.706	-118.944	0.064	0.011
-155.691	82.524	-0.150	-0.162
-154.677	-79.634	-0.248	0.083
-153.662	-120.615	0.163	-0.028
-152.647	-200.000	-0.049	-0.368
-151.633	348.990	0.084	-0.164
-150.618	800.000	-0.090	-0.284
-149.604	85.372	0.186	0.204
-148.589	-115.932	0.175	0.032
-147.574	-55.796	-0.163	0.073
-146.560	356.648	0.023	0.045
-145.545	-200.000	0.011	-0.128
-144.531	214.443	-0.084	0.133
-143.516	-137.981	0.122	-0.014
-142.502	76.328	-0.151	-0.159
-141.487	467.485	0.056	0.125
-140.472	115.122	0.164	-0.200
-139.458	800.000	-0.038	0.127
-138.443	-170.503	0.354	0.012
-137.429	191.296	-0.200	-0.300
-136.414	-72.763	0.069	-0.025
-135.399	53.865	0.161	-0.154
-134.385	-58.949	-0.282	0.121
-133.370	150.003	-0.171	0.231
-132.356	45.794	-0.301	0.277
-131.341	71.222	-0.261	-0.270
-130.326	-142.715	-0.087	0.008
-129.312	25.522	-0.053	0.044
-128.297	432.829	0.092	-0.200
-127.283	-200.000	-0.021	-0.182
-126.268	800.000	-0.012	-0.035
-125.253	-200.000	-0.011	-0.108
-124.239	-40.260	0.228	-0.118
-123.224	-20.328	-0.191	-0.117
-122.210	800.000	0.011	-0.043
-121.195	521.469	0.088	0.205
