DTS Sentinel unit serial number:	SN413079Multiplexer serial number:	ORYXHardware model number:	OX4-SRSoftware version number:	ORYX F/W v4.00 Oryx Data Collector v3.7.2.0data status	okinstallation	princeton_trtdifferential loss correction	single-endedforward channel	channel 4reverse channel	N/Adate	2019/09/11time	11:15:10forward acquisition time	60.00reverse acquisition time	0.00gamma	496.2192k internal	0.2292k external	0.2292temperature offset calibration	0.9969default loss term (dB/km)	0.3790temperature slope calibration	1.0000multiplexer offset coefficient	1.0000multiplexer slope coefficient	1.0000fibre end	0.00T internal ref (°C)	37.61T ext. ref 1 (°C)	0.19T ext. ref 2 (°C)	34.05length (m)	temperature (°C)	Stokes	anti-Stokes-747.200	208.111	0.184	0.294
-746.185	461.685	0.020	0.047
-745.171	-123.099	0.437	0.072
-744.156	72.564	-0.238	0.254
-743.142	305.185	0.229	0.435
-742.127	351.505	-0.118	0.239
-741.112	77.425	0.059	0.065
-740.098	249.546	0.044	0.076
-739.083	81.933	-0.276	-0.306
-738.069	-117.296	-0.400	0.074
-737.054	800.000	0.042	0.130
-736.039	-56.304	-0.432	-0.196
-735.025	-142.892	0.382	0.038
-734.010	-107.731	-0.233	-0.052
-732.996	-96.955	0.306	0.082
-731.981	130.927	-0.289	0.380
-730.966	-200.000	-0.042	0.202
-729.952	-121.852	-0.111	-0.019
-728.937	-85.013	-0.186	-0.059
-727.923	-110.850	-0.221	-0.047
-726.908	-27.667	-0.356	-0.211
-725.894	613.513	0.109	-0.280
-724.879	-200.000	0.073	-0.346
-723.864	-35.784	-0.216	-0.120
-722.850	800.000	0.090	-0.268
-721.835	28.307	-0.045	-0.039
-720.821	-43.700	-0.096	-0.049
-719.806	-25.502	0.091	0.055
-718.791	99.370	-0.197	0.233
-717.777	800.000	0.058	0.168
-716.762	-48.202	0.061	-0.030
-715.748	-157.888	-0.268	0.016
-714.733	-200.000	-0.054	0.330
-713.718	299.589	0.219	0.413
-712.704	279.596	-0.037	0.068
-711.689	27.248	-0.179	0.154
-710.675	50.583	-0.149	0.144
-709.660	50.068	0.058	-0.056
-708.645	9.159	0.058	0.044
-707.631	25.474	-0.194	0.165
-706.616	-200.000	-0.004	-0.069
-705.602	-114.397	-0.378	-0.074
-704.587	92.421	0.354	-0.408
-703.572	-200.000	-0.022	-0.174
-702.558	-200.000	-0.001	0.179
-701.543	84.672	0.088	-0.098
-700.529	-200.000	0.390	0.002
-699.514	-200.000	0.057	0.270
-698.499	619.560	0.045	-0.116
-697.485	-200.000	0.001	-0.335
-696.470	581.045	0.126	-0.315
-695.456	46.206	-0.235	0.222
-694.441	38.248	-0.158	-0.144
-693.426	115.881	-0.100	0.125
-692.412	301.977	-0.085	0.161
-691.397	-133.828	0.210	-0.027
-690.383	-200.000	-0.035	-0.322
-689.368	95.607	0.134	0.157
-688.354	-128.117	-0.243	0.036
-687.339	-104.738	-0.166	0.039
-686.324	-4.778	-0.223	0.157
-685.310	166.398	0.130	-0.188
-684.295	-47.059	-0.139	-0.069
-683.281	234.966	-0.070	-0.119
-682.266	71.239	0.068	-0.073
-681.251	18.028	-0.072	-0.059
-680.237	168.999	-0.147	0.214
-679.222	438.339	-0.176	0.393
-678.208	-13.600	-0.042	-0.028
-677.193	-200.000	-0.025	0.141
-676.178	-33.655	-0.094	-0.053
-675.164	-82.057	-0.063	-0.021
-674.149	129.445	0.181	0.236
-673.135	-166.697	-0.176	0.007
-672.120	83.360	-0.102	-0.113
-671.105	-121.580	-0.211	0.036
-670.091	-67.775	0.347	-0.138
-669.076	10.132	0.109	0.084
-668.062	-200.000	-0.023	0.131
-667.047	-200.000	-0.034	-0.152
-666.032	-67.274	0.265	-0.106
-665.018	255.862	-0.013	0.022
-664.003	-27.265	-0.346	-0.206
-662.989	18.168	0.053	0.043
-661.974	800.000	0.028	-0.086
-660.959	-200.000	-0.016	-0.119
-659.945	-200.000	-0.031	0.155
-658.930	-200.000	-0.005	0.116
-657.916	162.836	-0.141	0.201
-656.901	400.475	0.089	-0.190
-655.886	97.773	0.104	-0.122
-654.872	800.000	0.087	0.251
-653.857	6.445	-0.252	-0.191
-652.843	-200.000	-0.218	-0.001
-651.828	-200.000	0.020	0.099
-650.814	-157.858	0.241	0.015
-649.799	24.361	-0.227	0.192
-648.784	-200.000	-0.012	0.305
-647.770	-137.086	0.086	0.010
-646.755	-46.672	-0.222	0.111
-645.741	-75.815	-0.200	0.072
-644.726	-22.894	-0.283	0.174
-643.711	-172.981	0.356	0.011
-642.697	178.554	0.050	-0.075
-641.682	800.000	0.055	-0.203
-640.668	221.464	0.131	-0.215
-639.653	72.127	-0.069	-0.073
-638.638	201.587	-0.038	-0.059
-637.624	-79.695	-0.191	0.066
-636.609	-200.000	-0.074	0.334
-635.595	-143.848	0.338	-0.033
-634.580	-98.360	0.521	0.136
-633.565	800.000	0.154	0.658
-632.551	-200.000	0.003	0.061
-631.536	44.246	-0.022	-0.020
-630.522	48.491	0.122	0.116
-629.507	-200.000	0.038	-0.316
-628.492	-200.000	-0.016	-0.127
-627.478	81.466	0.179	0.197
-626.463	-53.247	0.398	0.186
-625.449	170.480	-0.033	0.048
-624.434	34.998	0.164	0.146
-623.419	103.946	0.112	-0.134
-622.405	81.644	-0.198	-0.218
-621.390	-60.730	0.338	-0.146
-620.376	89.037	-0.231	-0.262
-619.361	475.864	-0.160	0.368
-618.346	597.780	0.105	-0.266
-617.332	12.498	-0.269	0.212
-616.317	58.448	-0.164	0.164
-615.303	5.548	-0.161	-0.121
-614.288	72.047	0.408	-0.432
-613.273	274.410	0.213	-0.384
-612.259	62.902	0.114	0.117
-611.244	241.850	-0.020	0.035
-610.230	800.000	0.089	0.280
-609.215	-200.000	0.002	0.014
-608.201	80.648	-0.112	-0.123
-607.186	-125.886	-0.478	0.073
-606.171	-136.345	0.262	0.031
-605.157	152.042	-0.196	0.272
-604.142	-200.000	-0.013	-0.196
-603.128	800.000	-0.074	-0.230
-602.113	399.902	-0.044	0.094
-601.098	-200.000	0.055	0.313
-600.084	-67.265	0.075	0.030
-599.069	-95.786	0.297	-0.081
-598.055	-98.998	-0.284	0.073
-597.040	-49.025	0.188	0.092
-596.025	-6.571	0.172	0.119
-595.011	-200.000	-0.044	-0.261
-593.996	22.393	0.069	0.057
-592.982	13.280	0.163	0.128
-591.967	75.308	-0.085	0.091
-590.952	355.680	-0.082	-0.165
-589.938	381.663	-0.133	-0.279
-588.923	-200.000	-0.010	-0.279
-587.909	121.802	0.166	-0.210
-586.894	11.967	-0.119	-0.093
-585.879	-29.411	0.017	-0.010
-584.865	65.499	0.033	0.034
-583.850	-2.540	0.201	-0.143
-582.836	-200.000	0.048	-0.326
-581.821	17.012	0.179	0.144
-580.806	-52.643	-0.364	-0.171
-579.792	-153.105	0.275	0.020
-578.777	160.050	0.102	-0.145
-577.763	260.922	-0.127	-0.224
-576.748	-200.000	0.031	-0.174
-575.733	-166.561	-0.340	0.014
-574.719	177.580	-0.212	0.314
-573.704	800.000	-0.072	-0.302
-572.690	158.808	-0.040	0.056
-571.675	-177.447	0.224	-0.006
-570.661	-150.531	-0.260	0.020
-569.646	184.030	-0.168	0.252
-568.631	-110.188	0.249	-0.053
-567.617	-13.338	-0.353	-0.233
-566.602	268.140	-0.106	-0.189
-565.588	-3.931	0.105	0.074
-564.573	-86.176	-0.336	0.105
-563.558	-61.155	-0.243	-0.104
-562.544	-102.670	0.196	0.048
-561.529	-74.368	-0.173	0.064
-560.515	-7.974	0.169	-0.116
-559.500	-86.024	-0.192	-0.060
-558.485	63.466	0.058	0.059
-557.471	-125.184	0.389	0.061
-556.456	25.521	-0.206	-0.174
-555.442	291.608	0.072	-0.133
-554.427	-44.878	-0.246	-0.125
-553.412	51.562	0.206	-0.199
-552.398	441.475	0.041	-0.092
-551.383	-16.011	-0.333	0.215
-550.369	-85.301	0.292	-0.093
-549.354	452.326	0.025	0.055
-548.339	500.872	-0.056	-0.131
-547.325	40.948	-0.310	0.284
-546.310	800.000	0.051	0.178
-545.296	-36.195	0.214	-0.117
-544.281	-89.260	-0.108	0.032
-543.266	800.000	-0.056	0.183
-542.252	68.116	0.084	-0.087
-541.237	39.208	-0.161	-0.146
-540.223	800.000	-0.108	-0.419
-539.208	-200.000	-0.009	0.052
-538.193	-200.000	-0.028	0.135
-537.179	528.586	0.123	0.295
-536.164	800.000	-0.087	-0.292
-535.150	474.935	0.060	0.136
-534.135	161.548	-0.248	-0.352
-533.121	-56.289	0.085	0.038
-532.106	-200.000	0.020	0.240
-531.091	151.164	-0.067	-0.093
-530.077	68.816	0.165	0.172
-529.062	800.000	0.032	-0.138
-528.048	-200.000	-0.003	-0.093
-527.033	800.000	-0.033	0.108
-526.018	-102.011	-0.368	0.090
-525.004	800.000	-0.030	-0.128
-523.989	-29.009	-0.226	-0.131
-522.975	-200.000	0.004	0.198
-521.960	-11.381	-0.237	0.159
-520.945	431.178	-0.076	-0.167
-519.931	66.636	0.054	0.056
-518.916	-109.862	-0.363	-0.077
-517.902	-55.324	-0.204	-0.093
-516.887	-43.128	0.132	-0.068
-515.872	97.587	0.118	-0.138
-514.858	-200.000	-0.007	-0.050
-513.843	44.892	-0.072	0.067
-512.829	-55.985	-0.273	0.123
-511.814	155.161	0.113	-0.157
-510.799	260.630	0.113	0.197
-509.785	800.000	-0.044	0.187
-508.770	612.831	0.158	-0.400
-507.756	-200.000	-0.006	-0.146
-506.741	-176.475	-0.061	-0.002
-505.726	-166.248	-0.250	-0.011
-504.712	-44.739	0.373	0.189
-503.697	110.126	0.048	0.059
-502.683	-200.000	-0.002	-0.178
-501.668	21.147	0.158	-0.130
-500.653	704.261	0.078	0.208
-499.639	32.115	0.186	0.163
-498.624	156.358	-0.210	0.293
-497.610	-200.000	-0.006	0.065
-496.595	74.430	-0.069	-0.074
-495.581	55.098	-0.080	0.079
-494.566	800.000	-0.057	-0.173
-493.551	-200.000	-0.053	-0.309
-492.537	156.307	-0.181	0.253
-491.522	-200.000	-0.058	0.301
-490.508	-77.140	-0.099	0.035
-489.493	-44.210	-0.040	0.021
-488.478	226.331	-0.060	0.099
-487.464	378.526	-0.099	-0.204
-486.449	-200.000	0.003	-0.082
-485.435	-200.000	-0.067	-0.313
-484.420	-200.000	-0.037	-0.241
-483.405	-79.026	0.231	0.080
-482.391	510.531	-0.039	-0.091
-481.376	-200.000	0.023	-0.418
-480.362	800.000	-0.123	-0.473
-479.347	-152.033	-0.248	-0.018
-478.332	668.829	0.062	-0.163
-477.318	-200.000	-0.008	0.072
-476.303	125.267	0.289	0.369
-475.289	-163.629	0.163	0.008
-474.274	157.029	0.063	-0.088
-473.259	387.795	-0.076	-0.160
-472.245	225.414	-0.245	-0.402
-471.230	800.000	-0.036	0.116
-470.216	800.000	0.042	-0.135
-469.201	726.623	0.160	0.431
-468.186	-37.693	-0.570	-0.307
-467.172	616.366	-0.071	-0.179
-466.157	-200.000	0.019	0.448
-465.143	800.000	0.050	0.153
-464.128	-26.593	0.079	-0.047
-463.113	800.000	-0.107	0.404
-462.099	27.514	0.033	-0.028
-461.084	-42.893	-0.132	-0.068
-460.070	497.811	-0.124	-0.288
-459.055	-91.277	-0.348	0.101
-458.040	-200.000	-0.014	0.229
-457.026	-200.000	-0.028	0.170
-456.011	-16.360	0.161	-0.103
-454.997	-200.000	0.038	0.243
-453.982	270.839	-0.164	0.293
-452.968	-34.589	-0.042	-0.023
-451.953	76.983	0.267	-0.287
-450.938	-114.860	-0.379	0.073
-449.924	800.000	0.024	-0.099
-448.909	-200.000	0.008	0.072
-447.895	-200.000	0.058	0.267
-446.880	-123.084	-0.380	-0.062
-445.865	-100.435	0.230	-0.058
-444.851	161.167	0.029	0.041
-443.836	302.920	0.107	-0.200
-442.822	-200.000	-0.019	-0.119
-441.807	-200.000	0.026	-0.325
-440.792	116.892	-0.123	0.152
-439.778	184.370	-0.119	-0.178
-438.763	-89.218	0.150	-0.045
-437.749	-100.237	0.247	0.062
-436.734	637.779	-0.048	0.123
-435.719	98.559	-0.119	-0.139
-434.705	-111.224	0.501	-0.104
-433.690	-60.278	0.119	-0.051
-432.676	-82.963	0.082	-0.027
-431.661	14.593	0.203	0.160
-430.646	38.447	0.124	-0.112
-429.632	232.296	0.069	-0.115
-428.617	501.773	0.132	-0.307
-427.603	56.597	0.241	-0.237
-426.588	800.000	-0.062	0.201
-425.573	-29.096	-0.247	0.143
-424.559	-131.558	0.181	0.024
-423.544	244.494	-0.096	-0.163
-422.530	240.133	-0.156	0.262
-421.515	-200.000	0.004	-0.236
-420.500	115.636	-0.102	0.126
-419.486	158.895	0.103	0.145
-418.471	-41.817	0.176	0.091
-417.457	132.896	0.100	0.131
-416.442	-200.000	0.025	0.200
-415.428	-72.077	-0.100	0.037
-414.413	39.558	0.074	0.067
-413.398	-80.068	-0.086	0.029
-412.384	-47.862	-0.209	0.102
-411.369	92.658	0.171	0.195
-410.355	-137.735	-0.168	0.019
-409.340	-200.000	-0.003	-0.030
-408.325	66.689	0.347	0.357
-407.311	-200.000	-0.047	0.226
-406.296	32.900	-0.138	-0.120
-405.282	-88.364	0.095	-0.029
-404.267	-100.501	-0.131	-0.033
-403.252	-81.846	0.108	0.036
-402.238	-142.845	0.218	-0.021
-401.223	111.663	-0.314	0.383
-400.209	130.809	0.139	-0.180
-399.194	-200.000	-0.058	-0.340
-398.179	800.000	0.020	-0.083
-397.165	-200.000	0.041	0.206
-396.150	39.885	-0.220	0.200
-395.136	-56.323	-0.213	-0.096
-394.121	-16.600	0.109	0.069
-393.106	-200.000	0.001	0.237
-392.092	800.000	-0.096	-0.341
-391.077	234.860	0.147	0.244
-390.063	21.958	-0.139	0.115
-389.048	800.000	-0.014	0.055
-388.033	-179.650	0.144	-0.003
-387.019	306.552	0.116	-0.217
-386.004	16.852	-0.462	0.369
-384.990	324.275	0.134	0.258
-383.975	70.025	0.167	0.174
-382.960	115.726	0.108	-0.134
-381.946	800.000	0.064	-0.180
-380.931	-200.000	0.064	-0.284
-379.917	-200.000	-0.006	0.089
-378.902	-38.351	0.137	0.073
-377.888	-83.832	0.316	-0.102
-376.873	-200.000	-0.044	0.263
-375.858	172.336	0.128	0.186
-374.844	419.381	-0.039	0.084
-373.829	-124.794	0.240	0.037
-372.815	-130.908	0.196	0.026
-371.800	800.000	0.043	0.119
-370.785	-79.247	0.444	0.152
-369.771	-129.129	-0.224	-0.032
-368.756	-10.955	-0.258	-0.172
-367.742	235.533	-0.130	0.216
-366.727	-32.474	-0.233	0.131
-365.712	-50.921	-0.314	0.149
-364.698	-200.000	0.047	0.271
-363.683	-200.000	0.049	0.366
-362.669	800.000	0.060	0.263
-361.654	-154.893	-0.295	-0.020
-360.639	-175.924	-0.352	-0.009
-359.625	198.600	-0.189	-0.291
-358.610	-131.752	0.084	0.011
-357.596	-200.000	-0.016	-0.174
-356.581	-200.000	-0.029	-0.131
-355.566	-137.392	0.181	-0.021
-354.552	-158.450	0.173	0.010
-353.537	-130.921	0.116	-0.016
-352.523	82.309	-0.086	-0.095
-351.508	87.298	-0.272	-0.303
-350.493	129.734	-0.117	0.151
-349.479	76.761	0.183	0.196
-348.464	40.578	0.042	-0.038
-347.450	-93.427	-0.168	0.047
-346.435	-95.737	-0.097	-0.026
-345.420	-71.921	0.171	-0.064
-344.406	-79.480	-0.164	-0.056
-343.391	-200.000	0.030	-0.437
-342.377	-135.705	-0.327	-0.039
-341.362	-72.015	0.154	-0.058
-340.348	-102.733	0.162	-0.039
-339.333	-49.799	0.103	0.049
-338.318	-147.958	-0.200	0.017
-337.304	101.524	0.120	-0.140
-336.289	42.379	0.132	-0.121
-335.275	-111.370	-0.316	-0.065
-334.260	800.000	0.016	-0.052
-333.245	-21.464	0.293	0.180
-332.231	-19.172	0.070	-0.044
-331.216	800.000	-0.035	-0.152
-330.202	-200.000	-0.004	-0.047
-329.187	84.010	0.239	-0.262
-328.172	-200.000	-0.012	0.156
-327.158	-183.263	-0.165	0.003
-326.143	-71.822	0.156	-0.058
-325.129	24.238	-0.129	0.107
-324.114	-39.039	0.302	0.160
-323.099	97.835	0.212	0.245
-322.085	351.573	-0.115	0.229
-321.070	575.935	-0.050	0.123
-320.056	364.307	0.152	-0.307
-319.041	-44.877	-0.251	0.126
-318.026	47.447	-0.115	0.108
-317.012	-40.459	-0.159	-0.083
-315.997	-23.826	0.110	-0.066
-314.983	259.427	0.045	0.078
-313.968	261.866	0.036	-0.063
-312.953	-200.000	0.009	0.305
-311.939	-44.612	-0.142	0.071
-310.924	800.000	-0.029	0.091
-309.910	-12.872	-0.183	0.120
-308.895	-33.844	0.416	0.230
-307.880	65.315	-0.097	-0.098
-306.866	-138.576	0.425	-0.047
-305.851	800.000	-0.103	-0.312
-304.837	-66.917	-0.107	0.043
-303.822	-200.000	-0.031	0.207
-302.807	18.746	0.306	0.246
-301.793	-134.415	0.104	-0.013
-300.778	-51.674	0.178	0.084
-299.764	800.000	-0.073	-0.212
-298.749	-158.786	0.262	0.015
-297.735	-122.946	-0.240	-0.039
-296.720	-15.300	0.149	0.096
-295.705	75.307	0.133	0.141
-294.691	-200.000	-0.029	0.268
-293.676	-133.394	0.208	0.026
-292.662	493.671	0.171	-0.394
-291.647	395.047	0.008	-0.017
-290.632	-110.329	-0.109	0.023
-289.618	122.636	-0.073	-0.092
-288.603	-63.373	-0.287	-0.119
-287.589	-84.819	-0.398	-0.126
-286.574	-200.000	-0.065	0.456
-285.559	-157.559	0.345	0.021
-284.545	280.803	-0.135	0.243
-283.530	168.465	0.062	0.089
-282.516	-200.000	-0.011	-0.227
-281.501	-147.116	-0.242	0.021
-280.486	-25.815	-0.127	0.075
-279.472	5.957	0.245	0.183
-278.457	18.808	0.159	0.128
-277.443	45.224	-0.197	-0.182
-276.428	477.187	-0.085	-0.192
-275.413	-190.261	0.398	-0.004
-274.399	-94.031	-0.084	-0.023
-273.384	125.176	-0.012	-0.015
-272.370	-200.000	-0.014	-0.153
-271.355	-38.817	0.100	0.053
-270.340	-179.343	0.189	-0.004
-269.326	70.087	-0.183	-0.189
-268.311	664.135	-0.019	0.050
-267.297	-34.588	-0.109	-0.060
-266.282	379.300	0.051	0.104
-265.267	800.000	0.058	0.163
-264.253	-88.396	0.203	0.061
-263.238	-200.000	0.032	0.144
-262.224	-200.000	-0.015	-0.295
-261.209	31.511	-0.099	-0.086
-260.195	800.000	0.052	-0.180
-259.180	-200.000	0.014	0.175
-258.165	41.501	-0.134	-0.122
-257.151	248.254	-0.086	0.146
-256.136	-52.533	0.246	-0.114
-255.122	94.951	0.115	-0.132
-254.107	-79.942	0.315	-0.106
-253.092	20.530	-0.277	0.225
-252.078	-154.370	0.212	-0.014
-251.063	-50.623	0.025	-0.012
-250.049	-130.030	0.364	0.050
-249.034	-24.113	-0.214	0.128
-248.019	58.824	-0.159	-0.157
-247.005	-83.544	-0.413	0.133
-245.990	157.086	-0.151	0.210
-244.976	-200.000	0.075	-0.404
-243.961	-200.000	0.062	-0.494
-242.946	102.665	0.278	-0.326
-241.932	-45.400	-0.317	-0.158
-240.917	-133.239	0.190	0.024
-239.903	0.589	-0.078	-0.056
-238.888	-113.020	-0.222	0.044
-237.873	98.384	0.075	0.086
-236.859	138.204	-0.070	-0.092
-235.844	-66.584	0.315	-0.125
-234.830	561.708	-0.169	0.410
-233.815	546.387	-0.153	0.366
-232.800	491.034	0.184	-0.424
-231.786	-165.509	0.256	0.011
-230.771	-114.875	0.080	-0.015
-229.757	30.068	-0.100	-0.086
-228.742	-135.370	0.097	-0.012
-227.727	256.650	-0.110	-0.189
-226.713	-74.806	0.111	0.040
-225.698	800.000	0.024	0.102
-224.684	20.505	-0.077	-0.063
-223.669	-90.127	0.337	0.098
-222.655	16.213	0.071	-0.056
-221.640	-200.000	-0.068	0.387
-220.625	578.109	-0.178	0.436
-219.611	-200.000	-0.030	-0.206
-218.596	-4.521	-0.141	0.098
-217.582	-155.198	0.228	0.015
-216.567	800.000	0.082	-0.241
-215.552	-200.000	-0.014	-0.131
-214.538	800.000	0.031	0.090
-213.523	-200.000	0.036	0.196
-212.509	-146.181	-0.110	0.010
-211.494	-61.988	0.196	-0.082
-210.479	-90.296	0.376	0.110
-209.465	-128.976	0.370	0.052
-208.450	562.853	-0.128	0.311
-207.436	-146.230	-0.053	-0.005
-206.421	-200.000	-0.012	-0.152
-205.406	-21.856	-0.151	-0.092
-204.392	162.088	0.201	0.282
-203.377	-24.883	-0.077	0.046
-202.363	-69.145	-0.146	0.056
-201.348	-200.000	0.045	-0.271
-200.333	-105.668	0.155	-0.035
-199.319	-101.890	-0.172	-0.042
-198.304	-200.000	-0.046	-0.307
-197.290	-21.601	-0.198	-0.121
-196.275	27.682	0.136	-0.115
-195.260	294.978	-0.069	-0.127
-194.246	-200.000	-0.046	-0.300
-193.231	505.638	-0.154	0.358
-192.217	-143.532	0.073	-0.007
-191.202	-170.728	-0.187	0.006
-190.187	-200.000	-0.011	0.096
-189.173	-125.907	0.204	-0.031
-188.158	-84.557	-0.123	0.039
-187.144	187.819	0.102	-0.153
-186.129	-73.091	0.031	0.011
-185.114	800.000	0.057	-0.236
-184.100	202.068	-0.136	0.209
-183.085	-108.452	0.154	0.033
-182.071	204.591	0.074	-0.115
-181.056	-139.634	0.256	-0.027
-180.042	32.057	-0.143	-0.124
-179.027	-20.311	-0.130	-0.080
-178.012	-115.443	0.414	0.078
-176.998	-67.152	0.082	-0.032
-175.983	-200.000	-0.022	-0.217
-174.969	194.122	0.020	-0.030
-173.954	185.324	0.075	0.111
-172.939	54.606	-0.137	-0.132
-171.925	-200.000	-0.017	0.078
-170.910	-31.283	0.038	-0.021
-169.896	294.574	0.218	0.399
-168.881	-200.000	0.003	0.116
-167.866	68.021	-0.090	-0.092
-166.852	738.642	-0.033	-0.089
-165.837	386.558	-0.111	0.230
-164.823	800.000	0.025	0.077
-163.808	295.160	-0.191	-0.349
-162.793	38.956	0.158	-0.141
-161.779	-32.861	0.076	0.042
-160.764	-43.232	-0.169	0.086
-159.750	-111.893	-0.139	-0.028
-158.735	56.672	-0.197	0.191
-157.720	-36.335	0.047	-0.025
-156.706	-127.021	-0.208	-0.031
-155.691	423.037	0.045	0.096
-154.677	62.272	0.060	-0.060
-153.662	393.879	-0.055	0.115
-152.647	-200.000	0.007	0.082
-151.633	-23.825	-0.218	-0.130
-150.618	-101.284	-0.283	-0.069
-149.604	78.572	-0.029	-0.031
-148.589	-200.000	-0.018	-0.147
-147.574	-29.925	0.270	-0.154
-146.560	-23.255	-0.221	-0.133
-145.545	-200.000	0.023	0.212
-144.531	-14.433	0.294	0.189
-143.516	-200.000	0.026	0.230
-142.502	-99.338	0.294	0.074
-141.487	332.872	0.219	-0.422
-140.472	-38.297	0.284	-0.150
-139.458	-160.033	0.402	-0.022
-138.443	66.901	0.178	-0.181
-137.429	326.160	-0.100	0.191
-136.414	-61.864	-0.136	0.057
-135.399	410.175	0.061	-0.129
-134.385	-109.676	0.255	0.054
-133.370	-115.672	-0.386	0.072
-132.356	374.634	0.136	-0.276
-131.341	-39.394	-0.208	0.109
-130.326	-43.576	0.095	0.048
-129.312	113.179	0.042	-0.051
-128.297	473.383	-0.071	-0.160
-127.283	-67.447	0.075	-0.029
-126.268	-2.218	0.115	0.080
-125.253	244.216	0.086	0.144
-124.239	243.675	0.025	0.042
-123.224	-14.096	0.078	-0.051
-122.210	-25.505	0.216	-0.128
-121.195	-200.000	0.001	-0.080
