DTS Sentinel unit serial number:	SN413079Multiplexer serial number:	ORYXHardware model number:	OX4-SRSoftware version number:	ORYX F/W v4.00 Oryx Data Collector v3.7.2.0data status	okinstallation	princeton_trtdifferential loss correction	single-endedforward channel	channel 4reverse channel	N/Adate	2019/09/11time	20:19:11forward acquisition time	60.00reverse acquisition time	0.00gamma	496.2192k internal	0.2302k external	0.2302temperature offset calibration	1.0053default loss term (dB/km)	0.3790temperature slope calibration	1.0000multiplexer offset coefficient	1.0000multiplexer slope coefficient	1.0000fibre end	0.00T internal ref (°C)	38.00T ext. ref 1 (°C)	1.45T ext. ref 2 (°C)	31.42length (m)	temperature (°C)	Stokes	anti-Stokes-747.200	647.643	-0.072	0.187
-746.185	-110.097	-0.365	0.078
-745.171	266.447	0.126	-0.224
-744.156	-200.000	0.030	0.364
-743.142	-25.430	-0.234	-0.141
-742.127	-168.665	-0.275	0.011
-741.112	198.403	0.139	0.217
-740.098	57.006	0.251	0.249
-739.083	-74.021	0.112	-0.041
-738.069	-200.000	0.047	0.220
-737.054	22.841	-0.326	0.272
-736.039	-200.000	-0.014	0.192
-735.025	-53.582	0.246	-0.115
-734.010	800.000	-0.097	-0.421
-732.996	3.176	-0.458	-0.339
-731.981	291.919	0.233	-0.432
-730.966	47.242	-0.270	0.256
-729.952	51.640	-0.029	0.028
-728.937	82.617	0.195	0.216
-727.923	-21.615	-0.209	-0.130
-726.908	273.083	0.173	-0.311
-725.894	192.311	0.235	-0.361
-724.879	-77.287	0.168	0.060
-723.864	-200.000	-0.057	-0.308
-722.850	-13.873	-0.205	0.135
-721.835	48.436	0.145	0.138
-720.821	260.738	0.171	0.301
-719.806	33.564	-0.032	0.029
-718.791	800.000	-0.018	-0.072
-717.777	199.851	-0.107	0.167
-716.762	-17.311	-0.209	0.134
-715.748	104.158	-0.257	-0.308
-714.733	-109.751	0.170	-0.036
-713.718	-58.713	0.102	0.045
-712.704	800.000	-0.021	0.079
-711.689	17.139	-0.235	0.189
-710.675	235.015	-0.047	0.079
-709.660	-155.097	-0.318	0.021
-708.645	-200.000	-0.001	0.257
-707.631	-14.060	-0.302	-0.199
-706.616	593.346	0.073	-0.184
-705.602	-73.275	0.153	0.057
-704.587	174.998	-0.252	-0.372
-703.572	722.170	0.069	-0.186
-702.558	-200.000	-0.071	-0.357
-701.543	-6.084	0.149	-0.104
-700.529	182.576	-0.112	0.169
-699.514	-27.524	0.169	-0.100
-698.499	-135.227	0.120	-0.015
-697.485	177.991	-0.147	-0.218
-696.470	487.996	-0.049	-0.114
-695.456	140.946	-0.115	-0.154
-694.441	3.082	0.123	0.091
-693.426	-108.979	0.525	0.114
-692.412	-200.000	-0.018	0.188
-691.397	-64.545	-0.171	-0.070
-690.383	-124.026	0.178	-0.028
-689.368	-23.521	-0.120	0.073
-688.354	800.000	-0.121	0.368
-687.339	96.507	0.157	-0.183
-686.324	313.988	0.158	0.303
-685.310	50.549	0.208	0.200
-684.295	-200.000	-0.047	-0.289
-683.281	-137.638	-0.215	-0.025
-682.266	321.799	-0.126	-0.244
-681.251	62.800	-0.173	0.176
-680.237	-26.823	-0.233	0.139
-679.222	-73.967	0.196	0.072
-678.208	-91.502	-0.307	-0.089
-677.193	42.260	0.177	0.164
-676.178	120.718	0.097	0.123
-675.164	275.064	0.197	-0.355
-674.149	50.301	-0.157	-0.150
-673.135	-109.730	-0.309	-0.066
-672.120	-126.910	-0.167	-0.025
-671.105	425.863	0.038	-0.082
-670.091	236.616	0.171	-0.288
-669.076	-121.316	-0.118	0.020
-668.062	-28.818	-0.203	-0.118
-667.047	-200.000	0.003	-0.156
-666.032	16.099	-0.253	0.202
-665.018	22.877	-0.080	0.067
-664.003	-200.000	0.020	0.469
-662.989	-10.734	-0.470	-0.316
-661.974	-178.709	0.230	0.005
-660.959	-143.407	-0.090	-0.009
-659.945	-4.203	-0.337	-0.237
-658.930	8.838	-0.155	0.118
-657.916	-42.222	0.160	0.083
-656.901	-43.800	0.243	-0.124
-655.886	-46.656	-0.111	0.055
-654.872	-89.995	0.280	0.083
-653.857	270.660	0.112	-0.201
-652.843	-13.628	0.285	-0.187
-651.828	-89.856	0.183	0.054
-650.814	-87.407	0.095	-0.029
-649.799	800.000	0.020	-0.071
-648.784	120.819	0.090	0.113
-647.770	-104.941	0.105	-0.024
-646.755	-27.415	-0.254	-0.150
-645.741	-200.000	-0.055	-0.252
-644.726	-148.252	0.265	0.022
-643.711	73.685	0.109	0.116
-642.697	-66.783	0.283	-0.114
-641.682	800.000	0.124	0.430
-640.668	341.995	-0.104	-0.207
-639.653	389.233	-0.060	0.126
-638.638	-68.760	0.060	0.024
-637.624	47.905	-0.057	-0.054
-636.609	800.000	0.028	-0.110
-635.595	-200.000	-0.039	-0.442
-634.580	-0.644	-0.149	-0.107
-633.565	-21.758	0.059	0.036
-632.551	171.152	-0.138	-0.200
-631.536	-89.942	-0.152	-0.045
-630.522	36.941	-0.164	-0.147
-629.507	150.022	0.031	-0.043
-628.492	-200.000	-0.052	0.350
-627.478	-22.597	0.459	0.281
-626.463	-132.266	-0.130	-0.017
-625.449	5.223	-0.110	0.082
-624.434	103.124	0.096	0.114
-623.419	15.787	0.206	-0.164
-622.405	50.537	0.153	-0.147
-621.390	-78.402	0.050	-0.017
-620.376	-22.912	0.327	0.200
-619.361	-200.000	0.001	-0.250
-618.346	219.099	0.140	-0.227
-617.332	-200.000	0.042	-0.278
-616.317	158.952	-0.253	-0.357
-615.303	800.000	-0.070	0.219
-614.288	-85.914	-0.265	0.083
-613.273	128.233	0.203	-0.262
-612.259	315.354	0.011	0.021
-611.244	-3.265	0.262	0.185
-610.230	-122.584	-0.425	-0.070
-609.215	-115.402	-0.230	0.044
-608.201	-200.000	0.039	0.276
-607.186	329.042	0.208	-0.406
-606.171	-200.000	0.006	-0.065
-605.157	456.798	0.131	-0.295
-604.142	-200.000	0.052	-0.284
-603.128	-35.856	0.155	0.085
-602.113	225.027	-0.047	0.076
-601.098	-44.519	0.343	-0.174
-600.084	436.295	0.050	-0.111
-599.069	-200.000	0.020	0.270
-598.055	-127.031	-0.367	0.055
-597.040	-200.000	-0.005	-0.185
-596.025	424.474	-0.027	-0.058
-595.011	-115.842	-0.146	-0.028
-593.996	-79.581	0.164	-0.056
-592.982	97.892	-0.226	-0.263
-591.967	46.041	-0.283	-0.265
-590.952	61.682	0.241	-0.243
-589.938	230.523	0.147	-0.243
-588.923	-132.530	0.133	0.017
-587.909	-21.291	0.203	-0.126
-586.894	-12.546	-0.309	-0.204
-585.879	73.504	-0.086	0.091
-584.865	-123.390	-0.346	-0.056
-583.850	753.675	0.059	-0.161
-582.836	800.000	0.050	0.155
-581.821	-52.803	0.079	-0.037
-580.806	-200.000	0.014	-0.095
-579.792	92.548	-0.156	-0.178
-578.777	231.810	0.069	-0.114
-577.763	777.055	-0.043	-0.120
-576.748	8.323	-0.213	-0.162
-575.733	-200.000	-0.007	0.184
-574.719	-135.333	0.135	-0.016
-573.704	102.985	0.083	-0.098
-572.690	137.272	-0.247	0.327
-571.675	-164.538	-0.218	0.010
-570.661	12.056	0.194	-0.151
-569.646	-52.470	-0.336	0.157
-568.631	10.821	0.082	-0.063
-567.617	-50.050	0.214	0.102
-566.602	9.234	-0.227	-0.174
-565.588	-29.449	0.131	0.076
-564.573	800.000	-0.074	0.252
-563.558	230.976	0.107	-0.178
-562.544	-190.907	0.099	0.001
-561.529	397.495	-0.044	-0.094
-560.515	-200.000	0.059	-0.388
-559.500	-200.000	0.005	-0.232
-558.485	-47.558	0.038	-0.019
-557.471	59.209	0.185	-0.184
-556.456	-200.000	0.000	-0.006
-555.442	-50.432	0.181	-0.086
-554.427	126.417	0.086	0.110
-553.412	-200.000	0.050	0.223
-552.398	79.098	-0.088	0.095
-551.383	800.000	0.038	-0.132
-550.369	162.682	0.075	0.106
-549.354	800.000	-0.179	0.607
-548.339	587.003	-0.032	0.079
-547.325	145.258	-0.201	-0.273
-546.310	-200.000	0.008	-0.303
-545.296	-83.690	-0.130	0.042
-544.281	-200.000	0.008	0.148
-543.266	-52.370	0.241	0.113
-542.252	-200.000	-0.031	-0.435
-541.237	-200.000	0.067	-0.331
-540.223	110.795	0.081	-0.099
-539.208	120.559	-0.236	0.297
-538.193	133.014	0.012	0.015
-537.179	-68.462	-0.019	0.007
-536.164	116.982	0.150	-0.187
-535.150	800.000	0.017	-0.071
-534.135	156.799	-0.313	0.438
-533.121	-200.000	0.019	-0.107
-532.106	800.000	0.031	0.130
-531.091	61.059	0.207	0.208
-530.077	238.173	-0.192	-0.323
-529.062	-200.000	-0.023	-0.146
-528.048	-200.000	-0.022	-0.104
-527.033	7.697	-0.115	-0.087
-526.018	306.406	-0.104	0.195
-525.004	800.000	-0.160	-0.475
-523.989	470.949	0.166	-0.376
-522.975	-200.000	-0.024	-0.208
-521.960	315.352	-0.165	0.314
-520.945	-200.000	-0.026	-0.211
-519.931	-200.000	0.020	0.148
-518.916	-200.000	0.023	0.226
-517.902	217.926	0.031	0.050
-516.887	-200.000	0.074	-0.393
-515.872	-200.000	0.024	-0.175
-514.858	-200.000	0.044	-0.460
-513.843	-118.625	-0.155	-0.028
-512.829	34.275	0.256	-0.226
-511.814	-200.000	-0.052	0.265
-510.799	519.241	-0.174	0.411
-509.785	112.389	0.059	0.073
-508.770	761.697	-0.087	-0.239
-507.756	2.160	0.235	0.171
-506.741	251.843	0.193	0.332
-505.726	-67.525	-0.129	0.051
-504.712	181.345	0.213	-0.316
-503.697	83.818	0.109	0.120
-502.683	-91.647	-0.462	-0.133
-501.668	-132.823	-0.171	-0.022
-500.653	-200.000	0.051	0.332
-499.639	-26.567	0.375	0.222
-498.624	172.061	0.157	0.228
-497.610	-114.036	-0.389	0.076
-496.595	8.416	0.068	-0.051
-495.581	656.301	0.113	0.294
-494.566	800.000	0.043	0.181
-493.551	55.568	-0.195	-0.191
-492.537	800.000	0.081	0.272
-491.522	-21.227	-0.051	-0.032
-490.508	-142.093	-0.251	0.025
-489.493	139.855	-0.066	0.088
-488.478	317.188	-0.014	0.027
-487.464	-157.075	0.015	0.001
-486.449	800.000	0.028	-0.109
-485.435	800.000	-0.032	-0.118
-484.420	595.268	-0.096	-0.240
-483.405	87.247	0.205	0.229
-482.391	800.000	0.107	0.358
-481.376	-112.420	-0.317	-0.064
-480.362	-90.636	0.282	0.082
-479.347	-156.091	-0.449	0.029
-478.332	10.970	-0.175	-0.135
-477.318	-132.240	0.105	0.014
-476.303	800.000	-0.059	-0.195
-475.289	-134.552	-0.206	-0.025
-474.274	-150.699	-0.100	0.008
-473.259	-85.231	0.293	0.092
-472.245	-200.000	0.003	-0.167
-471.230	171.221	-0.103	-0.149
-470.216	-19.493	-0.115	-0.072
-469.201	-31.541	0.246	-0.139
-468.186	-200.000	0.004	0.093
-467.172	-100.797	-0.600	-0.149
-466.157	235.958	-0.161	0.268
-465.143	93.126	-0.214	0.244
-464.128	287.513	0.080	0.146
-463.113	54.558	0.199	0.193
-462.099	-200.000	0.008	-0.159
-461.084	800.000	0.033	0.092
-460.070	800.000	-0.119	0.452
-459.055	116.794	0.176	0.217
-458.040	139.900	0.148	0.197
-457.026	198.637	-0.114	-0.176
-456.011	-97.287	0.197	-0.052
-454.997	-47.706	0.232	-0.114
-453.982	-200.000	-0.039	0.248
-452.968	-7.214	0.076	-0.052
-451.953	800.000	0.037	0.145
-450.938	-94.010	-0.099	-0.027
-449.924	-126.041	-0.325	-0.049
-448.909	160.822	0.035	0.049
-447.895	-41.999	-0.143	0.074
-446.880	-27.723	0.311	0.182
-445.865	317.022	-0.206	-0.392
-444.851	-74.079	-0.226	0.082
-443.836	-200.000	0.011	-0.143
-442.822	-28.376	-0.317	-0.184
-441.807	-102.510	-0.101	-0.024
-440.792	270.796	-0.053	0.094
-439.778	-163.621	0.294	-0.014
-438.763	-94.454	-0.171	0.047
-437.749	800.000	-0.013	0.044
-436.734	-178.826	0.214	0.005
-435.719	82.001	0.065	0.070
-434.705	-98.937	0.082	-0.021
-433.690	-125.386	0.106	-0.016
-432.676	-200.000	-0.023	-0.207
-431.661	33.192	-0.169	-0.148
-430.646	-200.000	0.002	-0.124
-429.632	140.739	0.145	-0.193
-428.617	114.714	-0.192	0.236
-427.603	192.932	0.159	-0.242
-426.588	31.927	0.084	0.073
-425.573	-21.915	0.073	0.045
-424.559	167.966	0.073	-0.104
-423.544	-127.828	-0.193	-0.028
-422.530	752.613	-0.075	0.205
-421.515	-47.114	-0.133	-0.065
-420.500	-130.761	0.335	0.045
-419.486	174.975	-0.117	-0.171
-418.471	-114.442	-0.087	0.017
-417.457	-155.260	0.212	0.014
-416.442	800.000	0.054	-0.228
-415.428	144.037	-0.109	0.146
-414.413	359.148	-0.074	0.148
-413.398	213.666	-0.128	-0.204
-412.384	-92.691	0.202	0.057
-411.369	514.995	0.004	0.009
-410.355	-42.086	-0.131	-0.068
-409.340	-105.775	0.316	0.072
-408.325	-168.537	0.061	-0.002
-407.311	-200.000	-0.003	-0.184
-406.296	-148.854	-0.180	-0.015
-405.282	-155.139	-0.214	0.014
-404.267	-81.561	0.374	0.124
-403.252	-94.292	-0.203	0.056
-402.238	800.000	0.030	0.121
-401.223	-75.883	0.156	0.056
-400.209	11.230	-0.135	0.104
-399.194	-12.449	-0.183	-0.120
-398.179	534.304	0.050	-0.119
-397.165	21.827	0.250	0.205
-396.150	406.282	-0.024	0.050
-395.136	491.329	-0.079	0.182
-394.121	-60.590	0.213	-0.091
-393.106	-33.787	-0.202	-0.112
-392.092	-142.534	0.196	0.019
-391.077	800.000	-0.106	0.306
-390.063	-115.637	0.096	0.018
-389.048	-58.961	0.174	-0.076
-388.033	-45.788	-0.280	-0.139
-387.019	551.181	-0.052	-0.125
-386.004	-56.502	-0.191	0.085
-384.990	-200.000	0.003	-0.019
-383.975	156.666	-0.177	0.245
-382.960	-72.771	0.233	0.086
-381.946	-17.704	0.218	-0.137
-380.931	-88.564	-0.396	-0.119
-379.917	800.000	0.035	-0.115
-378.902	-46.851	0.031	-0.015
-377.888	16.927	-0.134	-0.107
-376.873	148.705	0.327	0.444
-375.858	-115.626	0.322	0.061
-374.844	-116.868	0.364	0.067
-373.829	284.544	0.082	0.148
-372.815	84.430	0.070	0.077
-371.800	380.208	-0.179	0.369
-370.785	-72.352	-0.222	0.082
-369.771	-135.680	-0.162	-0.019
-368.756	-110.629	-0.205	-0.043
-367.742	800.000	0.150	0.557
-366.727	346.231	-0.147	0.290
-365.712	-122.802	0.187	-0.030
-364.698	-196.823	0.286	0.002
-363.683	-2.988	-0.096	0.067
-362.669	-200.000	-0.015	-0.179
-361.654	39.896	-0.069	0.062
-360.639	-174.101	-0.173	-0.005
-359.625	-29.014	-0.097	-0.056
-358.610	476.270	-0.150	0.341
-357.596	0.456	0.272	0.195
-356.581	642.315	0.010	0.025
-355.566	-200.000	-0.044	0.248
-354.552	-48.828	-0.073	-0.035
-353.537	-24.526	-0.124	0.074
-352.523	160.975	0.105	0.148
-351.508	-26.099	0.349	0.206
-350.493	725.666	-0.085	0.228
-349.479	-32.571	0.203	-0.114
-348.464	-200.000	-0.018	0.170
-347.450	-200.000	-0.018	0.165
-346.435	-45.530	0.335	-0.166
-345.420	32.101	-0.170	-0.147
-344.406	235.188	-0.074	-0.123
-343.391	159.607	-0.106	-0.148
-342.377	-169.234	-0.437	-0.016
-341.362	325.990	-0.138	0.266
-340.348	-200.000	-0.029	-0.350
-339.333	800.000	-0.070	-0.251
-338.318	-51.459	0.155	-0.073
-337.304	-200.000	-0.000	-0.046
-336.289	184.331	0.102	0.151
-335.275	-200.000	-0.033	-0.355
-334.260	-3.422	-0.154	-0.108
-333.245	194.319	0.067	-0.102
-332.231	17.141	-0.045	-0.035
-331.216	-101.194	0.022	0.005
-330.202	97.612	-0.077	0.088
-329.187	303.112	0.027	0.051
-328.172	-200.000	0.067	0.329
-327.158	121.200	-0.033	0.041
-326.143	-200.000	0.047	-0.404
-325.129	-138.707	0.241	-0.026
-324.114	476.605	0.100	0.227
-323.099	-59.717	-0.204	0.088
-322.085	775.243	0.015	0.041
-321.070	-139.253	0.418	0.045
-320.056	213.609	-0.122	0.193
-319.041	209.663	-0.043	0.068
-318.026	247.856	0.102	-0.173
-317.012	-8.017	0.260	0.176
-315.997	56.622	-0.210	0.205
-314.983	-200.000	-0.031	-0.327
-313.968	-46.342	-0.250	-0.123
-312.953	-58.247	-0.111	0.049
-311.939	145.690	0.221	-0.297
-310.924	566.799	-0.201	0.489
-309.910	-67.696	0.251	0.098
-308.895	127.851	0.172	-0.219
-307.880	190.756	0.130	0.196
-306.866	800.000	0.148	-0.425
-305.851	-57.417	-0.349	0.154
-304.837	-50.972	0.454	-0.214
-303.822	117.564	-0.135	-0.166
-302.807	109.514	0.139	-0.167
-301.793	86.342	0.427	-0.472
-300.778	75.334	-0.150	0.159
-299.764	340.712	-0.135	-0.264
-298.749	-200.000	-0.031	-0.173
-297.735	-28.251	0.371	-0.215
-296.720	168.876	0.124	0.177
-295.705	-88.254	-0.411	0.123
-294.691	189.845	0.081	0.122
-293.676	52.374	0.214	0.205
-292.662	-80.720	-0.160	0.053
-291.647	-189.942	0.431	0.005
-290.632	-9.902	-0.274	0.183
-289.618	-35.034	-0.129	0.070
-288.603	329.121	-0.095	0.183
-287.589	-77.078	0.336	-0.117
-286.574	71.513	-0.050	0.052
-285.559	710.592	0.056	-0.148
-284.545	45.808	-0.295	-0.273
-283.530	-125.008	-0.204	-0.031
-282.516	-118.906	0.200	0.035
-281.501	-200.000	0.001	-0.090
-280.486	-58.460	0.460	0.200
-279.472	-99.773	0.298	0.075
-278.457	468.604	-0.109	-0.244
-277.443	-200.000	0.022	0.107
-276.428	45.675	-0.192	0.178
-275.413	48.825	-0.191	-0.179
-274.399	-45.992	0.184	-0.091
-273.384	377.052	-0.197	0.402
-272.370	-48.200	-0.293	0.141
-271.355	623.783	0.127	0.319
-270.340	-200.000	0.005	0.021
-269.326	-200.000	-0.003	0.202
-268.311	-72.485	0.239	-0.088
-267.297	-10.178	-0.048	0.032
-266.282	-123.600	-0.413	0.066
-265.267	-189.565	-0.291	0.003
-264.253	-200.000	-0.036	-0.399
-263.238	800.000	0.044	-0.148
-262.224	123.853	-0.215	0.270
-261.209	362.238	0.098	0.197
-260.195	-138.558	0.224	0.025
-259.180	355.949	-0.156	-0.310
-258.165	-0.634	0.111	0.079
-257.151	530.619	0.155	0.366
-256.136	165.555	-0.182	0.258
-255.122	-32.684	-0.182	-0.101
-254.107	800.000	0.034	-0.133
-253.092	-200.000	0.009	0.354
-252.078	-200.000	-0.046	-0.319
-251.063	188.268	-0.131	0.196
-250.049	146.374	-0.110	-0.148
-249.034	-80.060	-0.294	0.099
-248.019	311.690	-0.154	-0.288
-247.005	800.000	-0.015	-0.063
-245.990	119.808	-0.077	-0.095
-244.976	-41.700	-0.116	0.060
-243.961	-30.263	0.031	-0.018
-242.946	-77.799	0.184	-0.064
-241.932	-200.000	0.028	-0.179
-240.917	-45.303	-0.025	-0.012
-239.903	-200.000	-0.017	0.329
-238.888	-180.312	-0.119	0.002
-237.873	-129.138	-0.201	0.028
-236.859	114.606	-0.125	0.152
-235.844	-21.580	0.178	0.109
-234.830	93.200	-0.194	0.219
-233.815	800.000	-0.042	-0.156
-232.800	-162.076	0.249	-0.012
-231.786	-26.660	0.245	-0.143
-230.771	800.000	0.069	-0.292
-229.757	78.711	-0.146	0.156
-228.742	-129.073	0.136	0.019
-227.727	179.765	0.097	0.142
-226.713	223.244	-0.132	-0.213
-225.698	-18.755	-0.124	-0.077
-224.684	-40.466	0.200	-0.104
-223.669	186.547	0.033	-0.048
-222.655	-35.158	-0.135	0.073
-221.640	-200.000	-0.043	0.196
-220.625	-6.872	0.134	-0.091
-219.611	761.686	0.024	-0.064
-218.596	97.026	-0.030	-0.034
-217.582	100.149	0.156	-0.180
-216.567	3.094	0.306	0.222
-215.552	-200.000	-0.040	-0.270
-214.538	-143.237	0.324	0.031
-213.523	-200.000	-0.049	0.344
-212.509	148.390	-0.144	0.194
-211.494	-200.000	0.032	-0.173
-210.479	800.000	-0.048	-0.144
-209.465	-200.000	0.075	0.353
-208.450	800.000	0.068	-0.256
-207.436	-106.681	0.232	-0.051
-206.421	-120.986	0.058	0.010
-205.406	46.424	0.096	-0.089
-204.392	-200.000	-0.035	0.206
-203.377	-121.606	-0.328	-0.054
-202.363	-171.794	-0.219	-0.007
-201.348	-132.472	-0.247	0.032
-200.333	61.820	0.045	-0.045
-199.319	-200.000	0.039	-0.365
-198.304	-26.503	0.245	-0.143
-197.290	481.130	-0.049	-0.111
-196.275	486.689	0.004	0.009
-195.260	3.656	-0.100	0.073
-194.246	387.613	0.106	0.218
-193.231	-200.000	-0.046	-0.287
-192.217	104.848	0.138	0.162
-191.202	140.997	-0.092	-0.122
-190.187	704.819	-0.026	0.067
-189.173	526.525	-0.083	0.194
-188.158	-146.989	0.127	-0.011
-187.144	424.471	0.131	-0.281
-186.129	-200.000	-0.030	-0.262
-185.114	-200.000	0.002	0.217
-184.100	14.811	0.014	0.011
-183.085	692.720	-0.069	0.180
-182.071	800.000	0.075	0.221
-181.056	285.689	0.076	0.136
-180.042	-200.000	0.002	0.300
-179.027	76.383	-0.244	0.258
-178.012	365.707	0.084	-0.169
-176.998	252.792	-0.064	0.109
-175.983	-44.396	0.280	0.140
-174.969	137.719	0.106	-0.138
-173.954	71.202	-0.037	-0.038
-172.939	-4.348	0.166	-0.115
-171.925	-76.112	0.089	-0.031
-170.910	542.673	-0.118	0.281
-169.896	-200.000	-0.007	-0.054
-168.881	-200.000	-0.001	0.006
-167.866	17.255	0.158	0.125
-166.852	462.847	-0.099	-0.219
-165.837	-36.889	0.212	-0.113
-164.823	36.181	-0.170	-0.149
-163.808	128.000	-0.067	-0.085
-162.793	-91.529	0.099	0.028
-161.779	-110.758	-0.187	0.038
-160.764	233.029	-0.064	0.105
-159.750	-134.088	-0.203	-0.025
-158.735	238.482	-0.102	0.168
-157.720	-122.060	-0.254	-0.042
-156.706	-200.000	-0.033	-0.154
-155.691	-200.000	0.028	0.429
-154.677	132.600	0.105	0.135
-153.662	-121.912	0.267	0.044
-152.647	33.544	0.113	0.098
-151.633	-200.000	0.069	0.435
-150.618	-200.000	0.025	0.250
-149.604	83.561	0.070	-0.076
-148.589	-168.012	-0.289	-0.011
-147.574	180.025	0.166	-0.243
-146.560	393.023	0.193	0.400
-145.545	-200.000	0.031	-0.284
-144.531	-200.000	0.010	0.043
-143.516	-200.000	0.023	0.156
-142.502	-200.000	0.039	0.187
-141.487	220.180	0.142	0.226
-140.472	102.326	0.156	0.182
-139.458	-50.413	0.061	0.029
-138.443	-200.000	-0.045	-0.252
-137.429	-200.000	0.003	-0.067
-136.414	458.643	-0.071	0.156
-135.399	800.000	0.106	-0.303
-134.385	695.151	0.057	0.149
-133.370	68.048	-0.133	-0.135
-132.356	775.796	0.058	-0.159
-131.341	-173.996	0.250	-0.007
-130.326	-95.952	0.097	-0.026
-129.312	-15.395	-0.366	0.233
-128.297	137.062	-0.257	-0.334
-127.283	132.136	-0.187	-0.239
-126.268	-130.558	-0.363	0.049
-125.253	800.000	0.064	0.222
-124.239	-200.000	0.008	0.242
-123.224	-12.098	0.124	-0.081
-122.210	68.373	-0.201	-0.205
-121.195	16.318	0.313	0.246
