DTS Sentinel unit serial number:	SN413079Multiplexer serial number:	ORYXHardware model number:	OX4-SRSoftware version number:	ORYX F/W v4.00 Oryx Data Collector v3.7.2.0data status	okinstallation	princeton_trtdifferential loss correction	single-endedforward channel	channel 4reverse channel	N/Adate	2019/09/10time	22:07:10forward acquisition time	60.00reverse acquisition time	0.00gamma	496.2192k internal	0.2315k external	0.2315temperature offset calibration	0.9946default loss term (dB/km)	0.3790temperature slope calibration	1.0000multiplexer offset coefficient	1.0000multiplexer slope coefficient	1.0000fibre end	0.00T internal ref (°C)	30.62T ext. ref 1 (°C)	-0.32T ext. ref 2 (°C)	23.97length (m)	temperature (°C)	Stokes	anti-Stokes-747.200	800.000	0.104	0.419
-746.185	-123.641	-0.105	0.017
-745.171	-200.000	0.053	-0.369
-744.156	23.730	-0.185	0.154
-743.142	-98.521	0.034	-0.009
-742.127	-200.000	-0.036	0.221
-741.112	404.338	-0.050	0.107
-740.098	-56.527	-0.310	0.139
-739.083	87.056	-0.226	0.253
-738.069	800.000	0.082	0.272
-737.054	30.689	-0.211	0.183
-736.039	255.663	-0.117	-0.204
-735.025	141.619	0.261	-0.350
-734.010	-94.152	-0.138	-0.038
-732.996	-200.000	-0.162	-0.779
-731.981	-7.869	0.201	0.138
-730.966	-130.021	-0.111	-0.015
-729.952	640.862	0.063	-0.162
-728.937	327.236	-0.100	-0.195
-727.923	-200.000	-0.009	-0.116
-726.908	21.407	-0.234	0.192
-725.894	-200.000	0.005	-0.115
-724.879	-123.207	-0.132	-0.021
-723.864	-200.000	0.012	0.335
-722.850	-166.369	-0.131	-0.006
-721.835	55.757	0.062	-0.060
-720.821	158.678	0.108	-0.152
-719.806	-92.114	-0.285	0.082
-718.791	-48.290	-0.446	-0.218
-717.777	590.491	0.056	-0.139
-716.762	-80.211	0.212	-0.072
-715.748	274.415	0.099	-0.177
-714.733	-40.889	-0.309	0.162
-713.718	-123.208	0.335	0.054
-712.704	335.390	-0.068	-0.133
-711.689	-123.963	-0.229	-0.036
-710.675	-200.000	-0.003	0.107
-709.660	-86.066	0.647	0.202
-708.645	-200.000	0.037	-0.166
-707.631	410.124	0.111	0.237
-706.616	-73.471	-0.316	0.117
-705.602	78.315	0.120	-0.130
-704.587	439.926	-0.126	-0.278
-703.572	-60.935	-0.279	-0.119
-702.558	-200.000	0.021	-0.217
-701.543	-26.391	0.279	-0.166
-700.529	-200.000	0.010	-0.176
-699.514	240.738	-0.116	-0.197
-698.499	14.214	0.170	0.134
-697.485	-200.000	-0.015	0.335
-696.470	-60.559	-0.316	-0.136
-695.456	800.000	-0.045	0.138
-694.441	-200.000	0.054	-0.376
-693.426	800.000	-0.031	-0.129
-692.412	431.319	-0.073	-0.159
-691.397	-124.494	-0.041	0.006
-690.383	-200.000	-0.002	-0.147
-689.368	-48.648	-0.401	-0.195
-688.354	-200.000	0.011	-0.172
-687.339	723.039	0.058	0.156
-686.324	-200.000	0.021	-0.125
-685.310	-66.163	-0.218	-0.088
-684.295	800.000	-0.035	0.148
-683.281	225.343	0.178	0.292
-682.266	-200.000	-0.038	-0.179
-681.251	-34.922	-0.053	-0.029
-680.237	800.000	-0.093	0.345
-679.222	89.741	0.173	-0.196
-678.208	-120.174	0.103	-0.018
-677.193	-41.259	0.182	0.095
-676.178	-200.000	-0.032	-0.375
-675.164	6.761	-0.417	-0.314
-674.149	61.054	-0.156	0.157
-673.135	-54.715	0.237	0.108
-672.120	800.000	0.031	-0.136
-671.105	-54.984	-0.072	0.033
-670.091	800.000	-0.015	-0.044
-669.076	-121.377	0.096	0.016
-668.062	800.000	0.115	-0.400
-667.047	-91.632	0.208	0.060
-666.032	679.542	0.086	-0.226
-665.018	-126.818	0.214	0.032
-664.003	-23.731	-0.215	-0.130
-662.989	800.000	-0.028	0.116
-661.974	-45.327	-0.349	-0.175
-660.959	-146.664	0.134	0.012
-659.945	-74.525	0.137	-0.050
-658.930	-49.058	0.139	0.067
-657.916	-117.017	0.097	-0.018
-656.901	-200.000	0.036	-0.183
-655.886	424.000	0.015	-0.033
-654.872	-27.573	-0.295	0.173
-653.857	-115.734	-0.145	0.027
-652.843	139.933	-0.100	-0.133
-651.828	416.507	0.089	-0.193
-650.814	194.747	0.145	-0.223
-649.799	30.287	0.341	-0.294
-648.784	-58.075	0.068	-0.030
-647.770	-53.389	0.101	-0.047
-646.755	233.252	-0.185	-0.308
-645.741	-200.000	0.011	0.155
-644.726	55.539	0.117	-0.114
-643.711	-200.000	-0.002	-0.022
-642.697	-57.115	-0.077	0.034
-641.682	-111.447	-0.372	0.076
-640.668	-137.090	0.225	0.026
-639.653	-200.000	0.001	-0.110
-638.638	-130.948	0.147	-0.020
-637.624	-138.080	0.298	0.033
-636.609	-200.000	0.026	0.229
-635.595	737.611	-0.135	-0.365
-634.580	230.652	0.136	-0.225
-633.565	-200.000	-0.017	-0.097
-632.551	-44.153	0.416	0.211
-631.536	800.000	0.053	-0.198
-630.522	494.084	0.095	-0.220
-629.507	800.000	0.014	-0.045
-628.492	527.796	-0.050	0.118
-627.478	-95.472	0.415	-0.112
-626.463	-156.372	0.223	-0.014
-625.449	104.229	-0.327	0.388
-624.434	-2.385	0.301	0.213
-623.419	-33.715	-0.247	0.137
-622.405	1.703	0.240	-0.174
-621.390	175.009	-0.189	0.277
-620.376	800.000	-0.050	0.206
-619.361	477.303	0.050	-0.115
-618.346	249.560	0.054	-0.093
-617.332	98.190	-0.235	-0.273
-616.317	800.000	0.068	-0.211
-615.303	-200.000	-0.093	-0.735
-614.288	-68.679	-0.369	0.144
-613.273	73.395	0.130	-0.137
-612.259	800.000	-0.023	-0.070
-611.244	710.949	-0.067	0.179
-610.230	119.568	0.145	-0.181
-609.215	264.286	-0.090	-0.158
-608.201	14.549	-0.229	0.181
-607.186	363.561	-0.032	0.065
-606.171	144.040	0.143	-0.193
-605.157	-46.748	-0.103	0.051
-604.142	339.466	-0.159	0.312
-603.128	93.994	-0.134	0.153
-602.113	-28.915	-0.270	-0.157
-601.098	-42.507	-0.431	-0.221
-600.084	127.849	0.051	-0.065
-599.069	159.784	0.120	-0.168
-598.055	-200.000	0.005	-0.096
-597.040	-100.957	-0.293	-0.073
-596.025	-38.594	-0.220	-0.117
-595.011	-162.209	0.348	0.018
-593.996	-200.000	-0.009	0.202
-592.982	-121.171	0.273	-0.046
-591.967	-200.000	0.036	-0.185
-590.952	174.784	-0.041	-0.060
-589.938	-45.889	0.186	-0.092
-588.923	-57.677	0.169	0.075
-587.909	34.217	-0.199	0.175
-586.894	800.000	-0.042	0.128
-585.879	281.820	-0.040	-0.073
-584.865	-200.000	0.006	0.442
-583.850	-64.045	0.300	-0.123
-582.836	291.594	-0.070	0.129
-581.821	384.988	0.051	0.106
-580.806	-80.084	-0.232	0.078
-579.792	-200.000	-0.021	0.250
-578.777	68.607	-0.089	-0.092
-577.763	64.005	-0.098	-0.099
-576.748	800.000	-0.067	0.199
-575.733	-91.877	-0.118	0.034
-574.719	90.895	-0.137	-0.154
-573.704	77.718	-0.145	0.155
-572.690	-109.502	0.206	-0.044
-571.675	-164.169	0.277	-0.013
-570.661	-104.579	-0.127	-0.029
-569.646	573.283	-0.098	-0.241
-568.631	124.931	-0.076	-0.097
-567.617	-200.000	-0.042	0.221
-566.602	-112.512	-0.141	0.028
-565.588	-200.000	0.024	-0.249
-564.573	181.327	-0.217	0.321
-563.558	217.777	-0.230	-0.369
-562.544	-21.735	-0.162	0.100
-561.529	-200.000	0.050	-0.261
-560.515	-123.701	-0.257	-0.041
-559.500	-97.601	0.274	-0.072
-558.485	-6.592	0.108	-0.074
-557.471	188.111	0.191	0.287
-556.456	-70.076	-0.161	-0.061
-555.442	-200.000	-0.069	-0.327
-554.427	437.072	0.149	-0.328
-553.412	178.684	-0.095	-0.140
-552.398	-33.644	0.086	-0.048
-551.383	800.000	0.076	0.261
-550.369	107.453	0.111	0.133
-549.354	321.669	0.069	-0.132
-548.339	23.626	0.223	-0.184
-547.325	165.858	0.148	-0.211
-546.310	-118.659	0.275	-0.049
-545.296	-200.000	-0.025	0.223
-544.281	411.447	0.144	-0.307
-543.266	800.000	-0.055	-0.234
-542.252	-123.515	-0.238	-0.038
-541.237	-129.096	-0.224	-0.032
-540.223	199.057	0.209	-0.322
-539.208	-200.000	0.051	0.238
-538.193	-70.073	0.021	-0.008
-537.179	-76.698	-0.132	-0.047
-536.164	191.155	0.124	0.188
-535.150	-88.360	0.199	0.060
-534.135	52.847	0.300	-0.289
-533.121	180.495	-0.203	0.299
-532.106	-170.259	0.149	-0.005
-531.091	-84.041	-0.282	0.090
-530.077	-128.965	0.140	0.020
-529.062	567.251	-0.023	-0.057
-528.048	800.000	-0.109	0.365
-527.033	18.414	0.061	0.049
-526.018	-27.684	0.278	0.162
-525.004	-74.681	0.159	-0.057
-523.989	-21.076	0.045	-0.028
-522.975	461.734	-0.129	-0.289
-521.960	139.677	0.080	0.106
-520.945	38.613	-0.084	-0.075
-519.931	-45.185	-0.303	0.151
-518.916	9.297	0.209	-0.159
-517.902	-139.724	0.120	0.013
-516.887	-94.224	0.178	0.049
-515.872	178.300	-0.302	-0.443
-514.858	-113.118	0.149	-0.030
-513.843	361.664	-0.080	0.162
-512.829	201.978	-0.183	-0.283
-511.814	-162.843	0.056	-0.003
-510.799	-158.555	0.159	0.009
-509.785	123.416	-0.290	-0.365
-508.770	328.896	-0.084	0.162
-507.756	-157.766	0.389	0.023
-506.741	70.185	-0.033	-0.035
-505.726	-70.181	-0.193	-0.074
-504.712	21.942	0.246	0.202
-503.697	800.000	-0.032	-0.120
-502.683	521.120	-0.009	-0.021
-501.668	90.066	0.121	-0.136
-500.653	800.000	0.062	-0.208
-499.639	-200.000	-0.010	-0.070
-498.624	-82.563	-0.226	0.074
-497.610	-200.000	-0.055	-0.264
-496.595	63.330	0.145	-0.146
-495.581	-105.568	-0.357	-0.081
-494.566	-79.986	-0.136	-0.046
-493.551	-200.000	0.001	-0.260
-492.537	161.380	-0.196	-0.275
-491.522	800.000	-0.052	0.172
-490.508	-117.884	0.088	-0.016
-489.493	-133.117	0.088	0.011
-488.478	35.858	-0.230	-0.203
-487.464	-128.355	0.165	0.024
-486.449	182.092	0.034	-0.050
-485.435	12.861	-0.171	0.133
-484.420	424.653	0.106	0.228
-483.405	-200.000	0.017	0.280
-482.391	-92.735	-0.152	0.043
-481.376	-29.415	0.175	0.101
-480.362	-200.000	0.039	-0.524
-479.347	-200.000	0.067	-0.322
-478.332	165.639	0.066	0.094
-477.318	-200.000	-0.002	0.131
-476.303	133.032	0.062	0.080
-475.289	643.802	-0.074	0.188
-474.274	-200.000	-0.048	-0.395
-473.259	4.810	-0.084	-0.062
-472.245	-113.018	0.269	0.053
-471.230	275.370	-0.085	0.151
-470.216	-36.827	-0.138	-0.074
-469.201	-22.399	0.261	-0.159
-468.186	16.493	0.049	0.039
-467.172	163.335	0.232	-0.326
-466.157	-200.000	0.016	-0.171
-465.143	-41.289	0.074	0.038
-464.128	222.852	-0.092	0.149
-463.113	-200.000	-0.072	0.374
-462.099	55.626	-0.167	-0.162
-461.084	-148.817	-0.183	0.015
-460.070	580.297	-0.091	-0.224
-459.055	179.127	0.164	-0.240
-458.040	92.649	-0.167	0.189
-457.026	-7.097	0.220	0.150
-456.011	752.440	0.076	-0.205
-454.997	189.572	0.144	-0.217
-453.982	240.206	-0.089	0.149
-452.968	800.000	0.060	-0.243
-451.953	-200.000	0.044	0.205
-450.938	-79.798	0.154	0.052
-449.924	-92.544	-0.297	-0.083
-448.909	800.000	0.072	-0.222
-447.895	-200.000	-0.053	0.249
-446.880	-147.310	0.229	0.019
-445.865	-200.000	-0.006	-0.056
-444.851	354.714	0.134	0.267
-443.836	407.595	-0.098	-0.208
-442.822	33.928	-0.240	0.210
-441.807	502.658	0.116	-0.269
-440.792	-200.000	-0.009	-0.193
-439.778	-44.515	0.095	-0.047
-438.763	122.282	0.133	-0.166
-437.749	-93.820	0.029	0.008
-436.734	613.843	0.141	-0.353
-435.719	98.510	0.202	-0.233
-434.705	101.613	0.067	0.078
-433.690	-153.802	0.279	0.019
-432.676	169.136	-0.181	-0.259
-431.661	34.948	-0.137	-0.120
-430.646	-69.224	0.456	0.176
-429.632	-10.594	0.057	-0.038
-428.617	25.304	-0.013	-0.010
-427.603	-77.282	-0.169	-0.059
-426.588	800.000	0.039	-0.151
-425.573	-68.516	-0.214	0.083
-424.559	-156.865	0.136	0.008
-423.544	268.093	-0.163	0.286
-422.530	-9.317	-0.205	-0.137
-421.515	25.451	0.080	0.066
-420.500	-200.000	-0.013	0.089
-419.486	800.000	0.051	-0.147
-418.471	-61.631	-0.204	0.085
-417.457	184.374	-0.083	0.123
-416.442	-93.172	-0.121	-0.034
-415.428	116.903	-0.142	-0.174
-414.413	164.994	-0.080	-0.113
-413.398	-59.404	-0.349	0.150
-412.384	800.000	-0.084	-0.235
-411.369	324.126	0.074	-0.142
-410.355	-17.372	0.181	0.114
-409.340	78.882	0.319	0.341
-408.325	226.276	0.052	0.085
-407.311	-198.627	0.084	0.000
-406.296	520.288	-0.051	0.121
-405.282	-200.000	-0.020	0.199
-404.267	-70.197	0.326	0.124
-403.252	147.648	0.259	-0.349
-402.238	-134.545	-0.168	-0.021
-401.223	279.069	0.045	-0.081
-400.209	500.995	0.058	0.133
-399.194	116.265	0.093	-0.114
-398.179	-73.661	-0.131	-0.048
-397.165	57.629	0.186	0.181
-396.150	-200.000	0.006	0.278
-395.136	-137.599	0.250	0.028
-394.121	1.878	-0.220	-0.159
-393.106	-59.801	-0.196	-0.084
-392.092	202.644	-0.135	-0.209
-391.077	38.725	0.142	0.127
-390.063	-129.031	0.251	-0.035
-389.048	10.697	-0.153	0.117
-388.033	180.419	0.075	-0.111
-387.019	19.202	-0.111	0.089
-386.004	195.277	0.092	0.139
-384.990	40.861	0.186	0.168
-383.975	-98.491	-0.405	0.104
-382.960	180.583	0.136	0.200
-381.946	-70.784	-0.086	0.033
-380.931	-200.000	0.022	0.154
-379.917	80.837	-0.167	0.180
-378.902	-167.346	-0.346	-0.014
-377.888	-200.000	0.000	-0.093
-376.873	-10.894	0.281	0.186
-375.858	-129.904	0.179	0.025
-374.844	-115.735	-0.112	0.021
-373.829	800.000	0.078	-0.244
-372.815	146.949	0.196	0.264
-371.800	-69.555	0.122	-0.047
-370.785	-117.729	-0.316	0.057
-369.771	25.468	0.055	-0.045
-368.756	-134.256	-0.114	0.014
-367.742	-132.782	-0.311	0.040
-366.727	800.000	-0.020	0.075
-365.712	41.341	-0.264	0.239
-364.698	800.000	-0.007	0.024
-363.683	229.181	-0.150	-0.244
-362.669	53.394	-0.105	0.101
-361.654	-55.373	-0.170	0.076
-360.639	800.000	-0.054	-0.217
-359.625	-200.000	-0.005	-0.117
-358.610	-38.189	-0.101	0.053
-357.596	21.037	0.169	0.137
-356.581	-200.000	0.002	0.314
-355.566	-70.614	-0.170	-0.064
-354.552	54.402	0.145	-0.139
-353.537	-40.421	-0.209	-0.108
-352.523	-50.214	-0.434	-0.205
-351.508	65.390	-0.281	0.284
-350.493	55.428	-0.049	0.047
-349.479	-6.209	-0.244	-0.166
-348.464	135.057	0.073	0.095
-347.450	-200.000	0.028	-0.310
-346.435	-200.000	-0.034	-0.379
-345.420	-78.915	0.182	-0.062
-344.406	-92.228	-0.130	0.036
-343.391	-200.000	-0.024	-0.242
-342.377	61.111	-0.311	-0.308
-341.362	-157.092	-0.240	0.015
-340.348	131.408	-0.191	0.245
-339.333	-47.336	0.109	0.053
-338.318	-37.388	-0.263	-0.140
-337.304	67.242	0.047	-0.048
-336.289	-136.979	-0.319	0.036
-335.275	800.000	-0.046	-0.162
-334.260	23.067	-0.103	0.084
-333.245	800.000	0.050	0.211
-332.231	-12.309	0.326	-0.213
-331.216	-25.247	0.103	-0.061
-330.202	-200.000	-0.021	-0.183
-329.187	800.000	-0.114	-0.328
-328.172	40.974	0.176	-0.159
-327.158	-200.000	0.028	0.133
-326.143	-111.504	0.203	0.041
-325.129	-191.388	-0.141	-0.001
-324.114	599.589	0.092	0.227
-323.099	780.485	-0.035	0.095
-322.085	423.333	0.073	-0.156
-321.070	208.539	0.138	0.216
-320.056	-100.235	0.377	-0.093
-319.041	-91.441	-0.297	-0.085
-318.026	336.358	-0.098	-0.190
-317.012	-200.000	-0.007	-0.113
-315.997	-7.247	0.283	0.192
-314.983	166.320	-0.284	0.401
-313.968	-200.000	0.029	0.206
-312.953	-30.907	-0.319	0.179
-311.939	427.204	-0.149	0.319
-310.924	77.824	0.132	0.141
-309.910	26.533	0.190	-0.159
-308.895	-6.702	-0.019	0.013
-307.880	-15.118	-0.179	-0.114
-306.866	277.117	0.039	0.069
-305.851	80.421	-0.234	0.251
-304.837	-200.000	-0.009	0.233
-303.822	360.252	-0.145	0.289
-302.807	-21.308	0.289	0.176
-301.793	-155.622	-0.412	-0.026
-300.778	-167.772	0.089	-0.003
-299.764	-6.494	-0.259	-0.176
-298.749	153.635	-0.193	0.264
-297.735	162.310	0.271	0.378
-296.720	39.822	0.150	-0.134
-295.705	70.117	-0.287	-0.295
-294.691	482.593	-0.053	0.121
-293.676	215.840	0.142	-0.224
-292.662	800.000	0.092	0.293
-291.647	-152.615	0.188	0.013
-290.632	115.397	0.218	0.265
-289.618	167.452	0.056	0.079
-288.603	-182.153	-0.084	-0.002
-287.589	327.068	-0.147	0.280
-286.574	800.000	0.100	0.325
-285.559	101.762	-0.068	-0.079
-284.545	56.137	-0.077	0.075
-283.530	-111.909	-0.171	0.034
-282.516	-91.748	0.075	-0.021
-281.501	195.973	-0.186	0.281
-280.486	-200.000	-0.041	0.303
-279.472	229.500	-0.143	0.232
-278.457	-85.551	-0.093	0.029
-277.443	69.686	-0.103	0.106
-276.428	800.000	-0.024	-0.104
-275.413	95.405	-0.061	0.070
-274.399	-42.124	-0.090	0.046
-273.384	103.663	0.208	0.243
-272.370	-200.000	-0.321	-0.000
-271.355	-200.000	-0.021	-0.216
-270.340	-13.551	0.239	0.154
-269.326	800.000	-0.043	0.185
-268.311	-200.000	0.018	-0.104
-267.297	-63.271	-0.455	-0.186
-266.282	-47.175	0.142	-0.069
-265.267	-117.346	0.048	-0.009
-264.253	55.096	0.048	0.047
-263.238	800.000	0.033	0.097
-262.224	278.152	0.217	0.385
-261.209	-33.524	0.247	0.136
-260.195	-154.986	0.248	0.016
-259.180	126.020	0.167	-0.210
-258.165	-52.960	0.140	0.064
-257.151	-81.885	-0.132	-0.043
-256.136	-116.893	-0.084	-0.015
-255.122	-21.285	-0.058	-0.035
-254.107	-41.654	-0.209	-0.107
-253.092	-104.105	0.136	-0.031
-252.078	-139.509	-0.066	-0.007
-251.063	-200.000	-0.028	-0.241
-250.049	-122.770	-0.092	-0.015
-249.034	36.158	-0.122	-0.107
-248.019	-75.912	0.170	-0.060
-247.005	640.947	0.057	0.145
-245.990	155.313	0.083	0.113
-244.976	68.246	-0.118	-0.120
-243.961	-99.674	0.137	-0.034
-242.946	-200.000	-0.005	0.128
-241.932	-123.694	0.153	-0.024
-240.917	-115.204	0.151	0.028
-239.903	800.000	-0.046	0.184
-238.888	-61.395	-0.419	0.175
-237.873	400.790	-0.087	-0.181
-236.859	-133.208	-0.164	0.021
-235.844	-200.000	0.004	-0.132
-234.830	-200.000	0.005	-0.087
-233.815	800.000	-0.049	0.207
-232.800	-51.774	0.133	-0.061
-231.786	-200.000	0.025	0.364
-230.771	175.751	-0.055	0.080
-229.757	-12.032	0.236	0.153
-228.742	-50.480	-0.293	-0.137
-227.727	-108.944	0.406	-0.086
-226.713	102.280	0.234	0.272
-225.698	205.719	0.119	0.184
-224.684	272.289	0.227	0.398
-223.669	-5.142	0.095	-0.065
-222.655	-170.796	0.418	0.014
-221.640	800.000	-0.062	-0.191
-220.625	89.124	0.153	-0.169
-219.611	491.016	0.027	-0.061
-218.596	435.480	-0.073	0.157
-217.582	-40.439	0.295	0.152
-216.567	-200.000	0.008	0.075
-215.552	284.642	-0.068	0.122
-214.538	-162.504	0.256	-0.013
-213.523	-47.345	-0.238	0.115
-212.509	-13.502	-0.132	-0.085
-211.494	-176.190	0.253	0.007
-210.479	-43.586	0.084	0.042
-209.465	618.479	0.100	0.249
-208.450	296.478	0.096	0.175
-207.436	111.615	0.042	-0.050
-206.421	57.984	-0.108	-0.105
-205.406	-200.000	0.002	-0.291
-204.392	328.602	-0.135	-0.256
-203.377	-157.657	-0.134	0.008
-202.363	70.179	0.257	0.263
-201.348	-24.929	0.284	0.167
-200.333	144.865	0.140	-0.186
-199.319	237.109	0.107	0.176
-198.304	170.527	0.163	0.232
-197.290	-86.873	0.152	0.046
-196.275	800.000	-0.206	0.583
-195.260	38.869	0.217	-0.192
-194.246	800.000	0.026	-0.081
-193.231	87.535	-0.261	0.286
-192.217	-156.215	-0.471	0.029
-191.202	293.918	0.072	0.131
-190.187	-41.194	0.158	0.081
-189.173	447.365	0.085	0.185
-188.158	148.675	0.039	-0.053
-187.144	793.506	-0.067	-0.182
-186.129	-200.000	0.016	0.248
-185.114	-48.417	-0.281	0.134
-184.100	-165.234	0.311	-0.014
-183.085	590.030	-0.035	-0.086
-182.071	-200.000	-0.008	0.176
-181.056	333.586	-0.112	0.215
-180.042	3.870	0.210	0.152
-179.027	800.000	0.078	-0.264
-178.012	-200.000	-0.028	0.154
-176.998	-71.555	-0.364	-0.135
-175.983	-30.273	-0.237	-0.133
-174.969	-92.751	0.342	0.095
-173.954	30.383	0.436	0.369
-172.939	422.542	0.031	0.067
-171.925	152.856	0.167	-0.226
-170.910	-200.000	0.014	-0.143
-169.896	-161.870	0.262	-0.013
-168.881	-102.355	-0.223	-0.053
-167.866	-66.263	-0.145	0.057
-166.852	-200.000	-0.025	0.206
-165.837	-200.000	0.056	-0.356
-164.823	-51.939	-0.219	0.101
-163.808	10.925	-0.356	0.270
-162.793	-200.000	0.086	-0.529
-161.779	78.535	0.233	-0.247
-160.764	-89.129	0.145	-0.042
-159.750	206.116	0.037	0.058
-158.735	408.837	0.037	0.078
-157.720	-200.000	0.032	-0.186
-156.706	-78.679	-0.261	0.088
-155.691	-200.000	-0.045	-0.418
-154.677	-200.000	-0.002	-0.220
-153.662	-126.939	0.120	-0.017
-152.647	-39.881	-0.160	0.083
-151.633	-200.000	-0.024	0.278
-150.618	-15.257	-0.060	0.038
-149.604	-78.123	0.167	-0.057
-148.589	91.773	0.413	0.460
-147.574	433.502	0.062	0.132
-146.560	-124.345	-0.294	-0.045
-145.545	-200.000	-0.009	0.236
-144.531	-105.300	0.065	0.015
-143.516	-134.549	-0.365	-0.044
-142.502	-72.372	-0.340	-0.124
-141.487	-61.029	-0.072	-0.030
-140.472	582.065	0.155	-0.377
-139.458	425.833	-0.093	0.199
-138.443	241.416	-0.036	-0.059
-137.429	-79.610	0.075	-0.025
-136.414	-147.594	0.300	0.025
-135.399	-47.095	0.113	0.054
-134.385	63.242	0.082	-0.082
-133.370	-70.634	-0.433	-0.162
-132.356	312.250	-0.070	0.130
-131.341	-31.401	0.178	0.099
-130.326	187.068	0.195	-0.288
-129.312	-200.000	0.006	0.120
-128.297	-119.476	0.280	-0.048
-127.283	-7.699	-0.117	-0.078
-126.268	-158.775	-0.239	0.014
-125.253	-181.731	0.142	0.003
-124.239	-130.554	-0.299	-0.040
-123.224	-50.274	0.191	0.089
-122.210	151.522	-0.056	0.075
