DTS Sentinel unit serial number:	SN413079Multiplexer serial number:	ORYXHardware model number:	OX4-SRSoftware version number:	ORYX F/W v4.00 Oryx Data Collector v3.7.2.0data status	okinstallation	princeton_trtdifferential loss correction	single-endedforward channel	channel 4reverse channel	N/Adate	2019/09/11time	03:51:11forward acquisition time	60.00reverse acquisition time	0.00gamma	496.2192k internal	0.2316k external	0.2316temperature offset calibration	0.9942default loss term (dB/km)	0.3790temperature slope calibration	1.0000multiplexer offset coefficient	1.0000multiplexer slope coefficient	1.0000fibre end	0.00T internal ref (°C)	29.56T ext. ref 1 (°C)	-0.29T ext. ref 2 (°C)	23.74length (m)	temperature (°C)	Stokes	anti-Stokes-747.200	800.000	0.055	0.203
-746.185	-129.742	-0.205	-0.029
-745.171	800.000	-0.062	0.185
-744.156	452.534	0.174	0.391
-743.142	570.144	-0.049	-0.120
-742.127	-65.685	-0.113	-0.046
-741.112	-157.013	-0.142	-0.009
-740.098	-38.034	0.088	0.047
-739.083	1.296	-0.358	0.261
-738.069	271.737	0.189	0.337
-737.054	-53.737	-0.195	0.090
-736.039	-148.664	-0.137	0.011
-735.025	-73.575	0.238	-0.088
-734.010	-121.976	-0.343	-0.057
-732.996	-121.630	-0.125	-0.021
-731.981	-47.467	0.146	-0.072
-730.966	-161.204	0.329	-0.017
-729.952	800.000	0.061	0.189
-728.937	-117.393	0.214	0.039
-727.923	-200.000	-0.009	-0.158
-726.908	-55.985	0.069	0.031
-725.894	492.421	0.059	-0.137
-724.879	68.360	-0.224	0.232
-723.864	-132.853	0.129	0.017
-722.850	60.081	-0.229	-0.229
-721.835	-0.951	0.105	0.075
-720.821	781.571	0.052	-0.145
-719.806	-90.624	-0.104	0.030
-718.791	64.551	-0.196	-0.200
-717.777	182.215	-0.075	0.112
-716.762	-200.000	-0.019	-0.135
-715.748	29.173	0.157	0.135
-714.733	-40.178	-0.072	0.038
-713.718	800.000	0.026	0.074
-712.704	-83.346	-0.288	-0.093
-711.689	800.000	-0.067	0.223
-710.675	800.000	0.031	-0.106
-709.660	-200.000	0.004	0.055
-708.645	-25.523	-0.263	-0.157
-707.631	800.000	-0.124	-0.354
-706.616	-4.980	-0.156	-0.109
-705.602	88.239	0.108	-0.122
-704.587	-200.000	-0.009	0.389
-703.572	-113.758	0.219	0.043
-702.558	48.347	0.121	-0.115
-701.543	59.329	0.205	0.204
-700.529	-98.322	-0.152	-0.039
-699.514	140.284	-0.067	0.090
-698.499	-125.294	-0.381	-0.059
-697.485	60.598	-0.091	0.091
-696.470	-104.713	-0.239	-0.056
-695.456	-82.420	0.112	0.037
-694.441	413.663	0.051	0.111
-693.426	-120.734	0.378	-0.065
-692.412	229.844	0.154	-0.254
-691.397	404.893	-0.147	0.314
-690.383	-141.790	-0.182	-0.018
-689.368	-66.293	0.019	-0.008
-688.354	180.150	-0.098	0.146
-687.339	-159.723	0.194	0.011
-686.324	800.000	-0.069	0.210
-685.310	84.792	-0.162	-0.179
-684.295	-54.402	-0.208	-0.095
-683.281	-200.000	-0.048	-0.213
-682.266	800.000	0.056	-0.221
-681.251	-74.905	-0.261	0.094
-680.237	-200.000	-0.087	-0.400
-679.222	-42.068	0.193	-0.100
-678.208	11.622	-0.207	0.161
-677.193	576.851	0.145	0.358
-676.178	-121.347	-0.121	-0.020
-675.164	-93.601	0.495	-0.138
-674.149	62.550	-0.259	-0.262
-673.135	-200.000	-0.018	0.182
-672.120	277.838	-0.046	-0.083
-671.105	273.282	0.091	0.163
-670.091	274.958	-0.018	0.031
-669.076	-77.205	0.171	-0.060
-668.062	-108.469	0.079	-0.017
-667.047	-172.106	-0.364	0.012
-666.032	-200.000	-0.057	-0.299
-665.018	157.377	0.192	-0.269
-664.003	-145.046	0.219	-0.020
-662.989	88.582	0.120	0.134
-661.974	309.527	-0.132	-0.249
-660.959	3.137	-0.400	-0.294
-659.945	42.687	0.188	0.173
-658.930	-144.557	-0.161	0.015
-657.916	-174.711	0.341	0.010
-656.901	800.000	-0.059	0.178
-655.886	-20.783	-0.305	-0.189
-654.872	-40.077	-0.037	-0.019
-653.857	-161.734	-0.300	-0.015
-652.843	364.842	0.197	0.400
-651.828	-36.747	-0.371	-0.201
-650.814	59.623	0.104	0.104
-649.799	117.192	-0.064	0.080
-648.784	-200.000	-0.013	0.080
-647.770	-45.111	-0.232	-0.117
-646.755	-100.342	0.065	-0.016
-645.741	34.520	0.349	0.307
-644.726	100.256	-0.049	-0.057
-643.711	800.000	-0.095	0.289
-642.697	30.937	-0.281	-0.243
-641.682	-197.341	0.136	0.001
-640.668	-171.359	-0.277	0.009
-639.653	-3.330	-0.356	0.250
-638.638	-200.000	0.003	-0.168
-637.624	146.513	-0.232	-0.314
-636.609	-17.387	0.215	0.137
-635.595	-152.470	0.335	0.024
-634.580	203.666	0.009	-0.014
-633.565	-200.000	-0.089	-0.410
-632.551	-6.391	0.105	0.072
-631.536	239.458	0.114	0.192
-630.522	-119.904	-0.174	-0.030
-629.507	19.778	-0.038	-0.031
-628.492	-150.809	-0.226	-0.017
-627.478	-200.000	0.011	-0.159
-626.463	-47.785	0.125	0.061
-625.449	-78.455	-0.200	-0.069
-624.434	25.340	-0.238	-0.200
-623.419	55.496	-0.109	0.106
-622.405	800.000	-0.041	-0.145
-621.390	72.730	0.120	-0.127
-620.376	282.928	0.049	0.089
-619.361	-200.000	0.038	-0.204
-618.346	66.798	0.181	0.185
-617.332	-77.193	0.055	-0.019
-616.317	0.484	0.287	-0.207
-615.303	-22.434	0.192	-0.117
-614.288	331.996	0.036	-0.070
-613.273	103.053	-0.254	0.300
-612.259	-31.957	-0.277	-0.157
-611.244	220.117	-0.064	-0.103
-610.230	800.000	-0.030	-0.112
-609.215	19.550	0.432	-0.350
-608.201	-50.355	-0.065	-0.031
-607.186	115.887	-0.214	-0.264
-606.171	800.000	0.012	0.052
-605.157	610.973	0.106	-0.267
-604.142	-153.333	-0.344	0.024
-603.128	800.000	0.075	0.262
-602.113	176.962	0.155	0.227
-601.098	-200.000	0.067	-0.326
-600.084	-102.215	-0.093	0.023
-599.069	-39.834	-0.100	0.052
-598.055	-59.864	0.536	-0.231
-597.040	-200.000	0.086	0.396
-596.025	256.404	0.307	0.531
-595.011	59.808	0.170	-0.169
-593.996	-200.000	-0.006	0.292
-592.982	273.068	-0.104	-0.184
-591.967	289.405	0.046	0.085
-590.952	369.693	0.124	-0.253
-589.938	514.217	-0.120	-0.281
-588.923	-83.053	0.337	0.109
-587.909	800.000	-0.076	-0.294
-586.894	-16.367	0.147	0.094
-585.879	-90.221	-0.221	-0.065
-584.865	-141.960	-0.259	0.026
-583.850	-117.234	-0.381	0.070
-582.836	28.714	0.263	0.224
-581.821	-200.000	-0.036	-0.263
-580.806	228.963	0.143	-0.235
-579.792	-200.000	0.011	0.062
-578.777	107.037	0.142	0.170
-577.763	-40.427	0.223	0.117
-576.748	107.679	-0.125	0.150
-575.733	-200.000	0.011	-0.199
-574.719	-3.018	-0.304	0.214
-573.704	-200.000	0.060	-0.386
-572.690	-58.448	-0.186	0.081
-571.675	-200.000	0.004	0.473
-570.661	-200.000	-0.046	-0.315
-569.646	-200.000	0.054	-0.342
-568.631	-132.619	0.163	0.021
-567.617	-83.314	-0.345	0.111
-566.602	-200.000	-0.024	0.187
-565.588	-200.000	-0.046	0.320
-564.573	291.110	0.082	0.150
-563.558	-163.735	-0.047	-0.002
-562.544	-200.000	-0.062	0.501
-561.529	-29.923	0.185	-0.106
-560.515	286.939	0.178	-0.323
-559.500	-129.014	0.084	0.012
-558.485	297.238	0.044	0.081
-557.471	-200.000	0.027	0.172
-556.456	105.530	-0.252	0.299
-555.442	45.210	0.198	-0.184
-554.427	-200.000	0.050	-0.331
-553.412	-200.000	0.041	-0.266
-552.398	-13.597	-0.081	0.053
-551.383	-14.069	0.028	0.018
-550.369	-56.518	-0.274	0.122
-549.354	-21.595	0.029	-0.018
-548.339	-158.462	0.420	0.024
-547.325	800.000	0.085	0.247
-546.310	88.260	-0.079	-0.088
-545.296	205.001	-0.070	-0.109
-544.281	-54.121	0.156	0.071
-543.266	57.844	0.083	-0.081
-542.252	-200.000	-0.080	-0.364
-541.237	-168.115	-0.292	-0.011
-540.223	330.706	0.054	-0.104
-539.208	53.638	-0.159	0.153
-538.193	330.490	-0.086	-0.167
-537.179	-47.839	0.113	-0.055
-536.164	-64.132	0.136	0.056
-535.150	213.171	0.112	0.178
-534.135	195.739	0.025	0.039
-533.121	89.205	-0.159	-0.178
-532.106	195.754	-0.210	-0.321
-531.091	185.362	0.084	-0.125
-530.077	50.389	-0.139	-0.132
-529.062	121.157	-0.283	0.354
-528.048	-117.926	0.085	0.015
-527.033	468.736	-0.219	-0.493
-526.018	312.323	-0.010	-0.018
-525.004	72.688	-0.098	-0.103
-523.989	-79.882	0.350	-0.118
-522.975	-123.872	0.153	0.024
-521.960	-44.245	0.179	-0.090
-520.945	-152.356	-0.174	-0.013
-519.931	800.000	0.110	0.343
-518.916	732.510	0.187	0.503
-517.902	236.368	0.124	-0.206
-516.887	-78.592	-0.168	0.058
-515.872	356.941	-0.129	-0.257
-514.858	-200.000	-0.066	-0.310
-513.843	-57.076	0.398	-0.176
-512.829	-77.919	0.147	-0.051
-511.814	-200.000	0.037	0.183
-510.799	144.000	-0.215	-0.288
-509.785	-44.615	0.405	-0.203
-508.770	800.000	0.117	0.343
-507.756	-200.000	-0.043	-0.224
-506.741	-200.000	0.039	-0.217
-505.726	-200.000	0.010	-0.282
-504.712	359.001	-0.076	-0.153
-503.697	-200.000	0.066	0.320
-502.683	-79.454	-0.353	-0.120
-501.668	-107.655	0.133	-0.029
-500.653	-144.353	-0.189	0.018
-499.639	51.300	0.105	-0.100
-498.624	87.293	-0.035	-0.039
-497.610	-200.000	0.003	0.654
-496.595	493.488	-0.063	-0.145
-495.581	-60.928	-0.090	0.038
-494.566	-200.000	-0.011	0.398
-493.551	23.981	0.120	-0.099
-492.537	23.051	0.117	0.096
-491.522	-1.146	-0.319	-0.226
-490.508	1.674	-0.172	0.124
-489.493	-12.889	-0.077	-0.050
-488.478	-86.707	-0.423	0.130
-487.464	-68.186	0.311	-0.121
-486.449	-86.794	-0.262	0.080
-485.435	800.000	0.060	0.251
-484.420	-145.651	0.314	-0.028
-483.405	-46.958	0.030	0.015
-482.391	4.641	0.281	-0.207
-481.376	177.273	-0.055	-0.080
-480.362	24.887	-0.147	0.123
-479.347	222.330	-0.148	-0.239
-478.332	-11.954	-0.373	-0.245
-477.318	-25.405	0.074	0.044
-476.303	-47.608	-0.127	0.062
-475.289	800.000	0.051	-0.210
-474.274	-112.576	-0.097	0.019
-473.259	-83.668	0.312	0.100
-472.245	-157.244	0.429	-0.026
-471.230	288.298	-0.176	-0.319
-470.216	445.017	-0.129	-0.283
-469.201	800.000	0.042	0.129
-468.186	-38.793	-0.120	0.063
-467.172	213.128	0.158	0.250
-466.157	-168.685	-0.296	-0.011
-465.143	407.875	0.183	-0.388
-464.128	-200.000	-0.016	-0.093
-463.113	-123.149	-0.092	0.015
-462.099	-200.000	0.041	-0.210
-461.084	-49.372	0.058	0.028
-460.070	-200.000	-0.015	0.171
-459.055	800.000	0.088	0.332
-458.040	772.336	0.140	0.383
-457.026	158.589	0.132	0.184
-456.011	-101.045	-0.132	0.032
-454.997	2.663	0.067	-0.049
-453.982	-77.357	0.043	-0.015
-452.968	48.168	0.180	0.169
-451.953	-200.000	-0.019	-0.120
-450.938	-166.787	-0.248	-0.010
-449.924	-44.431	0.102	-0.051
-448.909	283.926	0.234	-0.422
-447.895	163.362	0.071	-0.100
-446.880	92.844	0.234	0.265
-445.865	268.998	0.140	-0.247
-444.851	-9.235	-0.329	-0.220
-443.836	800.000	0.043	0.128
-442.822	-92.699	-0.347	-0.097
-441.807	330.508	0.062	0.120
-440.792	2.245	0.158	0.115
-439.778	159.108	-0.039	-0.054
-438.763	800.000	-0.031	0.116
-437.749	-9.566	-0.125	0.084
-436.734	44.109	0.021	0.020
-435.719	191.759	-0.117	0.177
-434.705	-104.829	-0.157	-0.036
-433.690	598.257	-0.135	0.335
-432.676	16.960	0.098	-0.078
-431.661	-60.185	0.208	0.089
-430.646	-74.748	-0.336	-0.121
-429.632	-174.727	-0.304	0.009
-428.617	-200.000	-0.002	-0.198
-427.603	66.125	-0.029	-0.029
-426.588	-148.560	-0.189	-0.015
-425.573	624.668	0.081	0.203
-424.559	-200.000	0.102	-0.452
-423.544	-13.120	-0.048	-0.031
-422.530	34.736	0.195	-0.170
-421.515	546.347	0.071	0.169
-420.500	800.000	0.115	0.431
-419.486	-15.951	-0.265	-0.169
-418.471	296.877	-0.040	0.074
-417.457	800.000	0.076	-0.326
-416.442	496.705	0.166	0.382
-415.428	39.193	0.068	-0.061
-414.413	367.842	-0.125	-0.254
-413.398	-43.139	0.163	-0.083
-412.384	71.020	0.212	0.220
-411.369	95.653	0.196	0.224
-410.355	800.000	-0.100	-0.322
-409.340	759.558	0.020	-0.053
-408.325	-128.598	0.078	0.011
-407.311	-74.652	0.416	-0.150
-406.296	38.127	0.097	0.086
-405.282	-119.969	-0.319	-0.055
-404.267	100.621	0.093	0.108
-403.252	-15.168	-0.256	-0.164
-402.238	-74.273	-0.212	0.077
-401.223	-200.000	-0.047	-0.234
-400.209	800.000	-0.023	0.076
-399.194	243.803	-0.053	-0.088
-398.179	-200.000	-0.005	0.036
-397.165	83.152	-0.171	0.186
-396.150	115.002	0.259	0.316
-395.136	-107.257	0.433	-0.095
-394.121	-60.331	0.062	0.026
-393.106	294.906	-0.124	0.227
-392.092	-130.271	0.282	-0.038
-391.077	141.939	0.292	-0.386
-390.063	39.061	0.094	0.084
-389.048	312.095	-0.066	0.124
-388.033	48.150	0.061	0.057
-387.019	76.434	0.063	-0.066
-386.004	449.883	-0.159	0.351
-384.990	-52.112	0.186	0.086
-383.975	427.658	-0.090	-0.193
-382.960	162.337	-0.092	0.129
-381.946	-87.428	-0.314	0.095
-380.931	-161.616	0.116	0.006
-379.917	-200.000	0.026	-0.260
-378.902	-200.000	-0.051	0.246
-377.888	-200.000	-0.030	-0.177
-376.873	-76.212	0.114	-0.040
-375.858	800.000	0.076	0.296
-374.844	197.177	-0.064	0.098
-373.829	52.713	-0.185	-0.177
-372.815	800.000	0.071	0.267
-371.800	327.966	-0.091	-0.175
-370.785	800.000	0.039	-0.128
-369.771	-109.627	0.685	0.144
-368.756	-105.374	0.123	-0.028
-367.742	535.057	-0.094	0.224
-366.727	8.385	0.284	0.213
-365.712	-137.796	-0.182	-0.020
-364.698	-126.074	0.308	0.046
-363.683	-91.503	-0.327	0.093
-362.669	107.036	-0.135	-0.160
-361.654	121.582	-0.087	-0.109
-360.639	115.587	0.141	0.172
-359.625	-73.506	-0.087	0.032
-358.610	800.000	-0.068	0.208
-357.596	448.065	-0.019	-0.042
-356.581	47.074	0.091	0.085
-355.566	-15.860	-0.194	0.123
-354.552	471.632	-0.034	0.076
-353.537	68.234	-0.189	-0.193
-352.523	276.516	-0.152	-0.269
-351.508	164.992	0.159	-0.225
-350.493	618.784	-0.091	0.227
-349.479	-128.251	0.371	0.053
-348.464	179.876	0.063	-0.092
-347.450	-76.836	-0.265	0.093
-346.435	34.070	0.079	-0.069
-345.420	224.666	-0.112	-0.181
-344.406	-8.845	0.119	-0.080
-343.391	49.553	-0.344	0.323
-342.377	491.926	-0.119	0.272
-341.362	-112.519	-0.218	-0.043
-340.348	-6.064	-0.253	-0.173
-339.333	348.414	-0.115	0.226
-338.318	-200.000	0.002	-0.106
-337.304	25.291	-0.197	-0.163
-336.289	71.762	-0.135	0.139
-335.275	-200.000	0.066	0.297
-334.260	-16.899	-0.099	0.063
-333.245	340.200	0.128	-0.248
-332.231	-38.593	-0.220	0.116
-331.216	65.417	0.297	-0.300
-330.202	-7.346	0.135	-0.091
-329.187	-66.935	-0.089	-0.035
-328.172	555.328	-0.147	-0.354
-327.158	410.562	-0.183	0.386
-326.143	21.259	0.044	0.035
-325.129	-48.484	-0.142	-0.068
-324.114	-115.104	-0.167	0.032
-323.099	290.551	0.105	0.189
-322.085	13.480	-0.233	-0.180
-321.070	42.600	0.095	-0.086
-320.056	155.508	-0.216	0.297
-319.041	112.242	0.204	0.246
-318.026	41.290	-0.188	0.170
-317.012	548.725	-0.225	0.537
-315.997	182.472	0.118	-0.174
-314.983	103.311	0.167	-0.195
-313.968	52.562	0.080	-0.076
-312.953	113.506	-0.245	-0.296
-311.939	-79.231	-0.242	-0.082
-310.924	-11.033	-0.292	0.192
-309.910	-200.000	-0.057	0.261
-308.895	-26.353	-0.167	0.098
-307.880	355.755	-0.033	-0.066
-306.866	70.355	0.209	0.215
-305.851	-200.000	-0.018	0.089
-304.837	-32.643	0.211	0.117
-303.822	-112.103	-0.139	0.028
-302.807	351.147	0.114	0.225
-301.793	-9.754	-0.206	0.137
-300.778	212.380	-0.110	0.172
-299.764	-39.254	-0.043	0.022
-298.749	-104.225	-0.273	-0.063
-297.735	-200.000	0.058	-0.291
-296.720	800.000	-0.008	0.032
-295.705	146.431	-0.073	-0.097
-294.691	249.221	-0.118	0.200
-293.676	-200.000	-0.022	-0.135
-292.662	-116.438	-0.193	0.036
-291.647	-114.624	0.150	-0.029
-290.632	576.843	-0.026	-0.062
-289.618	-133.906	-0.018	0.002
-288.603	-150.170	0.212	-0.016
-287.589	-200.000	0.017	0.109
-286.574	465.661	-0.121	0.269
-285.559	800.000	0.094	-0.386
-284.545	-15.914	-0.072	0.045
-283.530	-77.761	-0.080	0.028
-282.516	254.352	0.018	-0.031
-281.501	34.244	0.166	0.144
-280.486	178.012	0.155	-0.225
-279.472	147.558	0.132	-0.177
-278.457	-136.690	0.161	0.019
-277.443	57.334	-0.139	-0.135
-276.428	-19.086	-0.052	0.032
-275.413	391.928	-0.025	0.051
-274.399	11.985	-0.329	0.252
-273.384	247.812	-0.194	0.327
-272.370	314.724	-0.156	0.292
-271.355	190.566	0.145	-0.216
-270.340	220.390	-0.121	0.192
-269.326	-43.563	0.241	0.121
-268.311	658.419	-0.176	0.451
-267.297	545.096	-0.156	-0.370
-266.282	90.011	-0.136	-0.151
-265.267	-200.000	-0.025	0.247
-264.253	-200.000	0.005	0.211
-263.238	-82.041	0.173	-0.056
-262.224	-19.213	0.134	0.083
-261.209	-110.554	0.128	-0.026
-260.195	-200.000	0.016	-0.180
-259.180	14.342	0.133	0.103
-258.165	-13.166	-0.330	-0.213
-257.151	21.723	0.144	0.117
-256.136	81.522	0.337	-0.362
-255.122	-200.000	-0.002	0.064
-254.107	128.817	-0.198	-0.251
-253.092	51.949	0.183	0.173
-252.078	-200.000	-0.030	-0.192
-251.063	-144.622	0.128	-0.012
-250.049	-200.000	-0.045	-0.206
-249.034	-68.231	0.159	0.061
-248.019	800.000	-0.075	-0.278
-247.005	-35.216	-0.086	0.046
-245.990	410.033	-0.090	-0.191
-244.976	364.619	0.076	-0.152
-243.961	-77.757	-0.191	0.065
-242.946	800.000	0.095	-0.267
-241.932	-168.269	0.042	0.002
-240.917	800.000	0.077	0.314
-239.903	138.650	-0.193	-0.251
-238.888	152.314	-0.224	-0.304
-237.873	38.820	0.225	-0.200
-236.859	-15.594	0.248	0.157
-235.844	-200.000	0.013	-0.114
-234.830	-156.093	0.068	-0.004
-233.815	-119.098	-0.072	0.013
-232.800	-30.311	0.311	0.175
-231.786	194.380	0.100	-0.150
-230.771	-87.570	-0.355	-0.106
-229.757	-200.000	0.005	0.507
-228.742	17.613	0.130	-0.102
-227.727	101.652	-0.096	0.112
-226.713	90.523	-0.084	0.093
-225.698	59.008	0.187	-0.182
-224.684	-49.890	0.127	-0.060
-223.669	137.423	0.134	0.174
-222.655	85.075	0.112	0.122
-221.640	420.773	-0.030	-0.063
-220.625	116.035	-0.180	0.219
-219.611	111.308	0.082	0.098
-218.596	102.644	0.178	0.207
-217.582	212.908	-0.085	0.133
-216.567	-200.000	0.002	0.049
-215.552	-95.589	0.276	-0.073
-214.538	20.158	0.264	0.212
-213.523	-80.610	-0.147	-0.049
-212.509	17.525	0.281	-0.222
-211.494	800.000	-0.112	0.370
-210.479	-10.056	-0.221	0.146
-209.465	16.000	-0.093	0.073
-208.450	762.072	0.106	-0.287
-207.436	800.000	0.057	0.187
-206.421	-200.000	0.049	-0.423
-205.406	718.634	-0.170	-0.448
-204.392	-36.880	0.106	-0.056
-203.377	-40.337	0.136	0.070
-202.363	-91.710	0.103	0.029
-201.348	83.864	0.075	-0.081
-200.333	-87.256	0.258	-0.078
-199.319	91.801	0.177	0.197
-198.304	49.906	-0.156	-0.146
-197.290	-195.670	-0.140	0.001
-196.275	-75.055	0.074	0.026
-195.260	-179.262	-0.277	-0.006
-194.246	-200.000	0.072	0.374
-193.231	-20.286	-0.167	0.102
-192.217	-38.886	-0.331	-0.173
-191.202	-200.000	-0.006	-0.161
-190.187	-23.687	0.202	-0.120
-189.173	91.555	-0.108	-0.120
-188.158	-85.472	-0.295	0.091
-187.144	253.731	0.213	-0.360
-186.129	-140.437	-0.289	0.030
-185.114	59.888	0.322	0.315
-184.100	-200.000	0.025	0.199
-183.085	343.361	0.101	0.196
-182.071	-92.512	0.337	-0.094
-181.056	-200.000	-0.028	-0.288
-180.042	-155.528	-0.053	0.003
-179.027	51.342	0.074	-0.070
-178.012	-200.000	0.004	-0.181
-176.998	-200.000	-0.010	0.202
-175.983	-130.009	0.297	-0.040
-174.969	-200.000	0.072	0.410
-173.954	-58.288	0.034	0.015
-172.939	-200.000	0.014	0.079
-171.925	69.055	0.163	0.166
-170.910	151.585	-0.047	-0.063
-169.896	-106.619	0.222	-0.049
-168.881	-11.016	0.252	-0.165
-167.866	445.588	0.131	0.286
-166.852	800.000	-0.037	-0.143
-165.837	11.100	-0.192	0.146
-164.823	-77.179	-0.145	-0.050
-163.808	-116.985	0.290	0.052
-162.793	169.931	-0.068	0.097
-161.779	-200.000	0.019	-0.154
-160.764	401.811	-0.160	-0.333
-159.750	-200.000	0.015	-0.078
-158.735	-82.654	-0.066	0.021
-157.720	-96.913	-0.256	0.067
-156.706	-115.381	-0.133	0.025
-155.691	96.050	0.159	-0.180
-154.677	63.943	-0.145	0.144
-153.662	-16.171	0.217	0.136
-152.647	-200.000	-0.021	-0.175
-151.633	-200.000	0.008	0.368
-150.618	800.000	0.041	0.131
-149.604	323.894	-0.144	0.272
-148.589	-200.000	-0.071	0.392
-147.574	195.489	-0.158	-0.238
-146.560	-200.000	0.024	-0.231
-145.545	-200.000	0.057	0.404
-144.531	-94.826	-0.253	0.068
-143.516	225.240	0.036	0.058
-142.502	-194.340	-0.293	0.002
-141.487	484.661	-0.090	-0.204
-140.472	-200.000	-0.009	0.140
-139.458	800.000	-0.082	-0.293
-138.443	244.651	-0.091	0.151
-137.429	-200.000	0.023	0.134
-136.414	-200.000	-0.014	0.132
-135.399	-96.334	0.130	-0.034
-134.385	-200.000	-0.003	0.110
-133.370	-200.000	-0.029	-0.148
-132.356	110.525	0.148	-0.176
-131.341	114.256	0.065	0.079
-130.326	-0.495	-0.118	0.083
-129.312	-96.320	0.148	-0.039
-128.297	-8.175	0.247	-0.165
-127.283	-17.029	0.081	0.050
-126.268	-16.230	-0.282	0.177
-125.253	29.650	-0.144	-0.121
-124.239	800.000	0.145	-0.413
-123.224	-99.568	-0.339	-0.084
-122.210	4.534	0.341	0.247
-121.195	127.057	-0.286	0.358
-120.180	15.104	-0.259	-0.200
