DTS Sentinel unit serial number:	SN413079Multiplexer serial number:	ORYXHardware model number:	OX4-SRSoftware version number:	ORYX F/W v4.00 Oryx Data Collector v3.7.2.0data status	okinstallation	princeton_trtdifferential loss correction	single-endedforward channel	channel 4reverse channel	N/Adate	2019/09/10time	18:31:10forward acquisition time	60.00reverse acquisition time	0.00gamma	496.2192k internal	0.2301k external	0.2301temperature offset calibration	0.9945default loss term (dB/km)	0.3790temperature slope calibration	1.0000multiplexer offset coefficient	1.0000multiplexer slope coefficient	1.0000fibre end	0.00T internal ref (°C)	35.83T ext. ref 1 (°C)	-0.32T ext. ref 2 (°C)	27.92length (m)	temperature (°C)	Stokes	anti-Stokes-747.200	-11.062	-0.429	-0.289
-746.185	-27.893	-0.180	0.106
-745.171	800.000	-0.028	-0.123
-744.156	199.246	-0.111	0.173
-743.142	800.000	-0.032	0.134
-742.127	-114.078	0.283	-0.056
-741.112	-200.000	-0.029	-0.170
-740.098	-120.481	-0.361	-0.062
-739.083	-28.810	-0.057	0.033
-738.069	44.398	-0.233	0.218
-737.054	68.478	0.155	-0.162
-736.039	800.000	-0.125	-0.386
-735.025	-115.489	0.563	0.108
-734.010	800.000	-0.077	-0.280
-732.996	-20.518	-0.290	-0.182
-731.981	201.989	0.052	-0.082
-730.966	800.000	0.153	-0.466
-729.952	-200.000	0.015	-0.109
-728.937	394.065	0.024	-0.051
-727.923	-76.501	-0.457	0.164
-726.908	-70.626	0.256	-0.099
-725.894	-86.486	0.115	-0.036
-724.879	-200.000	-0.015	0.440
-723.864	189.342	-0.250	0.382
-722.850	92.350	0.198	-0.227
-721.835	329.115	0.110	0.216
-720.821	-17.095	0.165	-0.106
-719.806	-111.256	0.216	-0.045
-718.791	-173.836	0.268	-0.008
-717.777	800.000	-0.023	-0.068
-716.762	-132.616	-0.280	-0.037
-715.748	-73.183	0.237	-0.088
-714.733	237.086	0.143	-0.241
-713.718	-103.108	-0.325	-0.078
-712.704	-65.119	-0.022	-0.009
-711.689	-65.510	0.295	0.121
-710.675	-61.930	-0.346	-0.147
-709.660	29.273	-0.219	-0.189
-708.645	-99.955	0.175	0.045
-707.631	131.329	0.147	-0.193
-706.616	452.335	-0.072	-0.162
-705.602	88.187	-0.043	0.049
-704.587	-200.000	-0.021	0.274
-703.572	-137.963	0.072	-0.008
-702.558	134.834	-0.120	-0.158
-701.543	6.693	0.151	-0.115
-700.529	-102.655	0.263	-0.064
-699.514	-117.830	-0.136	0.025
-698.499	800.000	-0.038	-0.134
-697.485	157.100	0.192	-0.270
-696.470	-99.575	-0.188	-0.048
-695.456	-200.000	0.007	-0.120
-694.441	-200.000	-0.002	-0.254
-693.426	-108.300	0.184	-0.041
-692.412	-86.396	-0.084	0.026
-691.397	-40.013	-0.124	0.066
-690.383	50.244	-0.356	-0.342
-689.368	244.996	-0.086	-0.148
-688.354	-71.720	0.193	0.073
-687.339	-9.317	-0.137	0.093
-686.324	217.595	-0.061	-0.099
-685.310	-135.695	0.208	-0.025
-684.295	-200.000	-0.011	0.089
-683.281	800.000	0.173	-0.577
-682.266	-182.024	-0.164	0.003
-681.251	-114.130	-0.266	-0.052
-680.237	-1.710	0.032	-0.023
-679.222	-17.874	-0.303	0.193
-678.208	46.148	-0.197	-0.186
-677.193	-199.202	-0.069	0.000
-676.178	631.248	0.060	0.154
-675.164	489.011	0.026	0.061
-674.149	6.691	0.228	0.173
-673.135	227.274	0.104	-0.172
-672.120	164.734	0.108	0.155
-671.105	145.454	-0.131	-0.179
-670.091	-121.240	-0.254	-0.043
-669.076	29.999	-0.151	0.131
-668.062	103.775	-0.153	-0.182
-667.047	-77.664	0.217	0.076
-666.032	-134.863	-0.252	-0.031
-665.018	-38.177	0.104	0.056
-664.003	-70.718	-0.086	-0.033
-662.989	-29.228	0.194	0.113
-661.974	-126.219	-0.243	0.037
-660.959	734.630	0.136	-0.369
-659.945	513.860	-0.134	-0.318
-658.930	-200.000	-0.007	-0.221
-657.916	-100.166	-0.287	-0.073
-656.901	268.615	-0.077	0.137
-655.886	176.803	-0.062	0.092
-654.872	81.834	-0.099	-0.108
-653.857	-139.231	0.074	-0.008
-652.843	103.707	-0.273	-0.326
-651.828	800.000	-0.150	-0.505
-650.814	800.000	-0.040	0.125
-649.799	63.053	-0.141	0.144
-648.784	783.916	-0.038	0.106
-647.770	-33.870	-0.159	-0.089
-646.755	-87.344	-0.221	0.068
-645.741	106.876	-0.070	-0.084
-644.726	-84.641	0.073	0.023
-643.711	-141.353	-0.218	0.022
-642.697	-200.000	-0.041	-0.189
-641.682	114.713	-0.146	-0.180
-640.668	800.000	0.066	0.225
-639.653	625.465	0.029	-0.073
-638.638	507.768	-0.077	-0.182
-637.624	381.375	0.068	0.141
-636.609	-48.785	-0.167	0.081
-635.595	163.527	-0.101	-0.144
-634.580	469.836	-0.046	0.106
-633.565	-60.690	0.224	-0.096
-632.551	18.934	-0.096	-0.078
-631.536	800.000	-0.084	-0.302
-630.522	-85.006	-0.368	-0.117
-629.507	141.288	0.201	0.270
-628.492	166.576	0.141	0.202
-627.478	-200.000	0.015	-0.196
-626.463	-200.000	-0.001	0.222
-625.449	-69.206	0.165	0.065
-624.434	-81.817	-0.309	-0.103
-623.419	88.315	0.134	-0.151
-622.405	-11.765	0.110	-0.073
-621.390	484.675	-0.079	0.182
-620.376	-46.184	0.163	0.081
-619.361	13.649	-0.238	-0.187
-618.346	376.526	0.178	-0.369
-617.332	22.230	-0.119	-0.098
-616.317	-111.746	-0.203	-0.042
-615.303	152.561	-0.057	0.079
-614.288	800.000	-0.033	0.110
-613.273	122.022	-0.251	0.318
-612.259	-118.435	-0.225	0.041
-611.244	-17.380	-0.322	-0.206
-610.230	800.000	-0.027	-0.077
-609.215	-2.950	-0.135	-0.095
-608.201	-82.304	0.286	-0.094
-607.186	-35.471	-0.168	-0.093
-606.171	314.363	-0.149	0.285
-605.157	800.000	0.110	-0.381
-604.142	-58.983	-0.236	0.104
-603.128	-64.011	0.220	0.091
-602.113	90.950	-0.116	0.132
-601.098	-90.493	-0.152	0.045
-600.084	-171.673	-0.264	0.009
-599.069	-106.506	-0.390	0.088
-598.055	-200.000	0.024	-0.112
-597.040	233.162	-0.150	-0.250
-596.025	-118.460	0.141	0.025
-595.011	283.845	-0.194	0.353
-593.996	92.041	-0.239	-0.272
-592.982	-91.274	-0.296	-0.086
-591.967	9.417	0.105	0.080
-590.952	-200.000	0.040	-0.521
-589.938	440.575	0.102	-0.225
-588.923	-18.377	0.180	-0.114
-587.909	800.000	-0.058	-0.198
-586.894	-159.557	0.492	-0.028
-585.879	639.360	0.093	0.240
-584.865	-83.363	-0.206	-0.067
-583.850	-116.309	-0.412	-0.077
-582.836	-95.119	0.160	0.044
-581.821	451.211	-0.135	0.301
-580.806	25.925	0.063	0.053
-579.792	-58.407	-0.129	0.057
-578.777	388.789	0.088	0.184
-577.763	-38.230	0.194	0.104
-576.748	6.948	0.056	0.042
-575.733	594.012	0.110	0.276
-574.719	800.000	-0.042	0.119
-573.704	800.000	0.096	0.358
-572.690	89.644	-0.060	-0.068
-571.675	-89.971	0.170	0.050
-570.661	-177.097	-0.297	-0.008
-569.646	384.988	0.061	0.127
-568.631	607.458	0.100	0.253
-567.617	107.866	0.116	0.140
-566.602	499.099	0.103	-0.239
-565.588	800.000	-0.147	-0.424
-564.573	107.523	-0.178	0.215
-563.558	-120.648	0.376	-0.064
-562.544	91.769	-0.241	0.274
-561.529	27.417	0.225	-0.191
-560.515	-200.000	0.003	-0.271
-559.500	10.726	-0.175	-0.135
-558.485	416.061	0.093	0.200
-557.471	-200.000	0.005	-0.185
-556.456	-200.000	0.073	-0.466
-555.442	172.178	-0.088	0.129
-554.427	36.272	-0.049	0.043
-553.412	39.594	-0.077	0.070
-552.398	120.662	-0.218	-0.274
-551.383	67.421	0.195	-0.201
-550.369	-200.000	0.037	-0.306
-549.354	-93.985	0.045	-0.012
-548.339	-119.734	-0.054	0.009
-547.325	104.529	-0.241	-0.287
-546.310	771.247	0.130	-0.359
-545.296	-16.586	-0.178	0.114
-544.281	-89.453	-0.302	0.090
-543.266	-114.942	-0.213	-0.041
-542.252	-69.387	-0.215	0.084
-541.237	-73.109	-0.434	-0.161
-540.223	292.385	-0.026	-0.048
-539.208	-7.199	-0.103	0.070
-538.193	800.000	0.080	0.268
-537.179	255.118	0.071	-0.124
-536.164	-56.405	-0.186	0.084
-535.150	107.300	-0.093	0.112
-534.135	185.407	0.073	0.109
-533.121	283.228	-0.090	0.164
-532.106	121.131	-0.044	-0.055
-531.091	99.810	0.247	0.289
-530.077	800.000	0.086	0.243
-529.062	-200.000	0.008	0.065
-528.048	62.644	-0.091	0.092
-527.033	224.710	0.097	0.158
-526.018	101.051	-0.270	0.318
-525.004	-200.000	0.029	0.210
-523.989	-81.367	-0.225	-0.075
-522.975	800.000	-0.028	0.098
-521.960	265.882	-0.172	-0.304
-520.945	23.988	0.216	0.180
-519.931	186.948	-0.027	-0.041
-518.916	-47.256	-0.134	-0.066
-517.902	800.000	0.039	0.130
-516.887	-6.130	-0.166	0.115
-515.872	131.570	0.329	0.427
-514.858	132.413	0.138	-0.180
-513.843	800.000	0.101	-0.286
-512.829	800.000	0.081	-0.293
-511.814	-48.919	-0.091	-0.044
-510.799	-142.735	-0.393	-0.039
-509.785	-124.569	-0.136	0.021
-508.770	64.056	-0.088	-0.089
-507.756	114.076	0.245	0.301
-506.741	-200.000	0.045	-0.302
-505.726	390.666	0.021	0.044
-504.712	-200.000	0.026	0.222
-503.697	-116.655	-0.138	0.026
-502.683	-200.000	-0.007	0.088
-501.668	-7.708	0.259	-0.177
-500.653	-26.950	-0.201	0.119
-499.639	-200.000	0.004	0.292
-498.624	40.213	-0.165	-0.150
-497.610	79.307	0.171	-0.185
-496.595	-200.000	0.006	0.219
-495.581	-118.078	-0.410	0.074
-494.566	-117.546	0.363	-0.066
-493.551	-114.684	-0.040	-0.008
-492.537	336.416	-0.052	-0.103
-491.522	46.564	0.207	0.194
-490.508	-122.141	0.185	0.031
-489.493	-143.216	-0.158	-0.015
-488.478	-79.357	-0.290	-0.099
-487.464	743.132	0.100	-0.273
-486.449	-155.839	-0.321	0.021
-485.435	162.720	-0.167	-0.237
-484.420	800.000	-0.053	0.227
-483.405	47.558	0.093	-0.087
-482.391	30.504	-0.303	-0.262
-481.376	83.659	-0.201	0.221
-480.362	-64.412	0.096	-0.039
-479.347	71.503	0.106	-0.111
-478.332	-200.000	-0.016	0.124
-477.318	20.407	0.225	0.184
-476.303	-119.251	-0.069	-0.012
-475.289	222.867	0.090	-0.147
-474.274	-49.852	0.150	-0.072
-473.259	-0.348	-0.186	-0.133
-472.245	-119.212	-0.280	-0.049
-471.230	-113.331	0.211	-0.042
-470.216	-6.876	0.187	-0.128
-469.201	27.430	0.252	0.214
-468.186	-200.000	-0.030	-0.184
-467.172	52.493	-0.025	0.025
-466.157	146.003	0.090	-0.121
-465.143	122.981	0.198	0.250
-464.128	800.000	0.091	0.303
-463.113	82.370	0.079	-0.087
-462.099	-200.000	0.056	-0.350
-461.084	-153.174	-0.125	-0.009
-460.070	104.237	-0.134	-0.159
-459.055	619.823	0.093	-0.236
-458.040	-121.839	0.379	0.063
-457.026	-110.800	0.163	0.034
-456.011	66.140	-0.226	0.232
-454.997	-145.284	0.122	0.011
-453.982	101.415	0.263	-0.309
-452.968	155.688	0.113	0.157
-451.953	535.898	0.055	-0.132
-450.938	583.534	0.030	0.073
-449.924	7.576	0.260	-0.196
-448.909	733.180	0.041	-0.110
-447.895	-200.000	-0.033	-0.165
-446.880	-200.000	-0.035	-0.252
-445.865	-145.781	0.354	-0.032
-444.851	-80.860	0.165	0.055
-443.836	13.881	-0.111	-0.087
-442.822	-76.399	-0.397	-0.141
-441.807	-102.706	-0.135	0.032
-440.792	264.687	-0.118	-0.207
-439.778	-16.703	0.065	-0.041
-438.763	34.368	0.185	-0.163
-437.749	557.268	0.154	-0.375
-436.734	-69.375	-0.422	0.163
-435.719	-50.499	-0.281	0.134
-434.705	115.144	-0.141	-0.174
-433.690	-70.858	0.291	-0.110
-432.676	272.547	0.101	-0.180
-431.661	-94.713	0.196	-0.054
-430.646	133.378	0.037	-0.048
-429.632	70.761	-0.197	0.206
-428.617	279.418	-0.066	-0.118
-427.603	432.672	-0.213	-0.466
-426.588	-183.102	0.363	-0.006
-425.573	-14.041	0.251	-0.163
-424.559	-200.000	-0.064	-0.283
-423.544	-200.000	-0.089	0.000
-422.530	8.445	0.335	0.254
-421.515	-146.336	0.011	0.001
-420.500	165.677	0.056	0.080
-419.486	-64.481	0.242	0.099
-418.471	-17.127	-0.109	0.069
-417.457	143.366	0.328	0.440
-416.442	-89.405	0.156	-0.046
-415.428	130.330	0.090	-0.116
-414.413	-200.000	0.046	-0.245
-413.398	-23.661	-0.120	0.073
-412.384	57.741	-0.175	0.172
-411.369	-57.001	0.038	-0.017
-410.355	-145.385	-0.310	-0.028
-409.340	-31.864	0.268	0.151
-408.325	-136.976	0.317	0.037
-407.311	-184.185	-0.325	0.005
-406.296	71.398	-0.165	0.173
-405.282	-102.021	0.463	-0.112
-404.267	-26.909	0.014	-0.008
-403.252	86.412	-0.080	0.089
-402.238	165.988	-0.084	0.120
-401.223	800.000	0.113	0.398
-400.209	-200.000	-0.030	0.164
-399.194	67.091	-0.350	0.359
-398.179	67.405	0.063	-0.065
-397.165	206.343	-0.121	-0.189
-396.150	800.000	-0.035	0.130
-395.136	-56.754	0.267	-0.119
-394.121	499.004	-0.127	-0.293
-393.106	-200.000	0.059	-0.412
-392.092	-200.000	0.002	-0.015
-391.077	800.000	0.062	-0.258
-390.063	-200.000	-0.005	-0.206
-389.048	-54.894	0.264	-0.120
-388.033	-136.947	0.168	0.019
-387.019	216.765	-0.187	-0.299
-386.004	-50.531	0.275	0.130
-384.990	-7.750	-0.343	0.233
-383.975	-164.839	0.268	-0.012
-382.960	-19.596	0.266	0.166
-381.946	11.329	0.132	-0.101
-380.931	800.000	0.076	-0.223
-379.917	800.000	-0.113	-0.392
-378.902	9.520	-0.244	0.185
-377.888	313.222	0.078	0.148
-376.873	129.435	0.126	-0.162
-375.858	-65.934	-0.219	0.088
-374.844	-200.000	0.010	-0.114
-373.829	67.239	-0.134	0.138
-372.815	-63.538	-0.188	-0.077
-371.800	-9.652	0.117	-0.078
-370.785	242.376	0.051	0.085
-369.771	-125.768	-0.041	0.006
-368.756	-200.000	0.020	0.182
-367.742	-61.947	-0.096	-0.040
-366.727	-92.929	-0.230	0.065
-365.712	800.000	-0.105	0.303
-364.698	0.013	-0.264	0.189
-363.683	98.638	0.262	-0.303
-362.669	-13.741	0.187	-0.121
-361.654	-200.000	-0.009	0.103
-360.639	543.189	-0.094	0.225
-359.625	800.000	-0.092	0.304
-358.610	800.000	0.054	0.161
-357.596	-145.780	0.110	-0.010
-356.581	160.850	0.125	-0.175
-355.566	800.000	0.041	0.172
-354.552	127.721	0.260	0.332
-353.537	800.000	0.084	0.243
-352.523	-72.878	-0.289	-0.107
-351.508	-142.189	0.336	0.033
-350.493	-61.800	0.165	0.069
-349.479	-152.735	0.318	0.023
-348.464	429.337	0.134	-0.292
-347.450	-57.138	-0.260	-0.115
-346.435	-200.000	0.032	0.191
-345.420	-170.291	0.259	-0.009
-344.406	-53.294	0.272	-0.125
-343.391	-200.000	-0.007	-0.098
-342.377	26.207	0.299	0.250
-341.362	319.982	0.157	0.299
-340.348	-92.485	0.174	0.049
-339.333	-143.975	-0.177	-0.017
-338.318	-185.899	0.175	0.003
-337.304	788.878	-0.030	0.082
-336.289	-134.045	-0.075	0.009
-335.275	800.000	0.066	0.257
-334.260	-27.684	0.290	-0.169
-333.245	-32.068	0.291	-0.163
-332.231	3.888	0.211	0.155
-331.216	219.334	-0.105	0.168
-330.202	800.000	0.090	0.334
-329.187	-70.991	0.194	-0.073
-328.172	-200.000	-0.032	-0.199
-327.158	800.000	0.058	0.245
-326.143	529.436	-0.166	-0.394
-325.129	800.000	0.077	-0.271
-324.114	800.000	0.088	-0.298
-323.099	28.236	-0.016	-0.013
-322.085	-44.089	0.220	0.111
-321.070	-200.000	-0.022	-0.395
-320.056	-200.000	0.068	-0.313
-319.041	-78.305	-0.432	-0.149
-318.026	36.526	-0.181	-0.160
-317.012	-184.829	0.338	0.005
-315.997	800.000	-0.014	0.061
-314.983	-118.044	-0.386	-0.069
-313.968	-150.441	0.084	-0.006
-312.953	-200.000	0.047	0.271
-311.939	-200.000	0.020	-0.212
-310.924	239.599	0.196	-0.327
-309.910	-200.000	-0.033	0.176
-308.895	790.458	0.104	0.286
-307.880	-200.000	-0.011	-0.072
-306.866	-121.088	0.136	-0.023
-305.851	-151.468	-0.135	0.010
-304.837	-200.000	0.004	-0.047
-303.822	-3.343	0.201	-0.140
-302.807	237.809	-0.135	-0.224
-301.793	80.774	0.129	0.140
-300.778	-200.000	0.039	0.310
-299.764	-90.943	-0.291	0.084
-298.749	-121.047	0.243	0.041
-297.735	194.710	0.126	0.191
-296.720	1.807	-0.156	-0.113
-295.705	-72.919	-0.196	-0.072
-294.691	300.369	-0.100	0.184
-293.676	-200.000	-0.014	0.120
-292.662	32.868	-0.069	-0.060
-291.647	800.000	-0.061	-0.244
-290.632	42.314	0.203	-0.185
-289.618	411.064	-0.038	-0.080
-288.603	-200.000	0.073	-0.000
-287.589	-86.840	0.460	-0.141
-286.574	321.627	-0.091	-0.172
-285.559	-200.000	-0.046	0.300
-284.545	333.881	-0.122	0.235
-283.530	9.301	-0.179	-0.135
-282.516	800.000	-0.008	-0.024
-281.501	97.796	0.110	-0.126
-280.486	65.693	-0.225	-0.229
-279.472	-128.478	-0.280	0.040
-278.457	602.584	0.030	-0.075
-277.443	673.935	0.036	0.094
-276.428	-195.686	0.402	-0.003
-275.413	-56.494	-0.099	0.044
-274.399	-38.798	0.147	0.078
-273.384	800.000	-0.074	0.206
-272.370	-7.002	-0.405	0.275
-271.355	-200.000	0.030	0.410
-270.340	-182.003	0.428	-0.008
-269.326	205.046	0.058	-0.090
-268.311	-65.575	-0.253	-0.102
-267.297	75.243	0.038	-0.040
-266.282	111.724	0.094	-0.114
-265.267	382.335	0.055	0.113
-264.253	-200.000	-0.008	-0.059
-263.238	-200.000	0.028	-0.123
-262.224	-3.289	0.090	0.062
-261.209	101.615	-0.204	-0.238
-260.195	260.610	0.096	-0.166
-259.180	-82.536	-0.102	0.033
-258.165	302.970	-0.134	-0.247
-257.151	-146.141	0.122	-0.011
-256.136	-67.207	0.328	-0.129
-255.122	-166.992	-0.096	-0.004
-254.107	13.265	-0.272	0.211
-253.092	-154.665	0.269	0.018
-252.078	83.259	-0.083	0.090
-251.063	43.465	0.340	-0.311
-250.049	-5.113	-0.337	-0.232
-249.034	-45.246	0.139	0.069
-248.019	-21.359	-0.138	0.084
-247.005	-21.369	0.283	0.173
-245.990	-200.000	0.032	0.159
-244.976	394.581	-0.046	-0.095
-243.961	-116.403	0.281	-0.052
-242.946	720.570	-0.121	0.321
-241.932	800.000	-0.085	0.263
-240.917	230.019	0.043	0.071
-239.903	-17.766	0.057	0.035
-238.888	412.738	-0.099	0.209
-237.873	48.671	0.206	0.193
-236.859	395.058	-0.118	0.245
-235.844	-200.000	-0.018	0.266
-234.830	800.000	-0.082	-0.253
-233.815	284.065	-0.167	0.300
-232.800	-200.000	-0.006	-0.130
-231.786	-92.757	0.248	-0.069
-230.771	13.891	-0.124	-0.096
-229.757	800.000	0.050	-0.207
-228.742	-99.581	-0.251	-0.063
-227.727	-112.308	0.143	-0.029
-226.713	-93.173	0.091	0.025
-225.698	-107.494	-0.367	-0.080
-224.684	65.154	-0.236	0.239
-223.669	141.196	-0.037	-0.049
-222.655	-71.158	-0.135	0.051
-221.640	273.232	-0.145	-0.256
-220.625	800.000	0.032	-0.112
-219.611	-12.893	-0.153	-0.099
-218.596	-41.039	-0.218	0.112
-217.582	-38.416	0.502	0.265
-216.567	-200.000	-0.055	0.428
-215.552	548.473	-0.211	0.504
-214.538	454.283	0.067	0.148
-213.523	-158.343	-0.318	-0.018
-212.509	2.532	-0.236	-0.171
-211.494	-8.335	0.327	0.220
-210.479	626.472	0.053	-0.133
-209.465	66.177	-0.075	-0.076
-208.450	-102.050	0.152	0.037
-207.436	337.047	0.059	-0.115
-206.421	-83.992	-0.238	-0.076
-205.406	800.000	-0.066	-0.253
-204.392	33.732	0.137	-0.119
-203.377	-43.257	0.286	0.145
-202.363	380.023	0.077	0.158
-201.348	-86.478	0.144	0.044
-200.333	713.009	-0.135	0.357
-199.319	-80.499	-0.367	-0.122
-198.304	-38.125	-0.334	-0.177
-197.290	15.646	0.107	0.084
-196.275	284.732	0.151	-0.271
-195.260	-200.000	-0.013	0.110
-194.246	134.079	-0.114	0.148
-193.231	-200.000	0.005	0.219
-192.217	198.396	-0.091	0.140
-191.202	-200.000	-0.014	-0.076
-190.187	9.034	-0.116	-0.088
-189.173	-123.791	0.224	0.035
-188.158	800.000	0.043	-0.168
-187.144	202.003	0.136	0.209
-186.129	68.967	0.037	0.038
-185.114	800.000	-0.161	0.449
-184.100	-200.000	0.012	-0.055
-183.085	655.508	0.085	-0.218
-182.071	-83.623	0.148	0.047
-181.056	-86.932	0.261	0.079
-180.042	-200.000	0.022	0.377
-179.027	-93.398	0.078	-0.021
-178.012	-87.440	-0.184	-0.056
-176.998	130.926	0.373	0.478
-175.983	-95.538	-0.137	-0.037
-174.969	-91.399	-0.179	-0.051
-173.954	800.000	-0.054	-0.184
-172.939	-76.549	0.258	0.090
-171.925	-88.037	0.196	0.059
-170.910	113.672	-0.302	-0.365
-169.896	-49.208	0.278	-0.133
-168.881	100.442	-0.029	0.033
-167.866	10.212	0.014	-0.011
-166.852	-131.174	-0.287	0.038
-165.837	91.632	0.161	0.181
-164.823	221.760	-0.081	0.130
-163.808	255.916	-0.053	0.090
-162.793	-140.122	0.125	-0.013
-161.779	-96.630	0.482	-0.127
-160.764	-179.421	0.117	0.003
-159.750	-97.347	0.291	-0.076
-158.735	-62.468	-0.079	-0.033
-157.720	180.317	-0.084	0.123
-156.706	-6.143	-0.086	0.059
-155.691	-22.743	-0.293	0.176
-154.677	98.655	0.039	-0.045
-153.662	21.467	-0.144	0.117
-152.647	35.926	-0.235	-0.206
-151.633	-94.693	0.176	0.048
-150.618	-200.000	0.002	0.014
-149.604	-85.215	-0.114	-0.035
-148.589	-200.000	-0.018	-0.085
-147.574	29.402	0.152	-0.128
-146.560	-200.000	-0.024	0.186
-145.545	-75.695	-0.151	0.053
-144.531	21.936	0.108	-0.088
-143.516	-46.022	0.209	-0.102
-142.502	-24.434	0.185	-0.110
-141.487	348.070	-0.165	0.324
-140.472	-3.360	0.188	0.130
-139.458	188.137	-0.084	-0.125
-138.443	68.780	0.215	-0.220
-137.429	315.359	0.081	0.152
-136.414	-200.000	-0.030	0.204
-135.399	659.041	-0.079	0.203
-134.385	800.000	0.090	-0.254
-133.370	76.345	-0.192	-0.202
-132.356	-200.000	-0.007	0.127
-131.341	476.895	0.107	0.241
-130.326	-12.079	0.194	0.126
-129.312	-200.000	0.019	0.123
-128.297	-53.212	-0.172	-0.079
-127.283	-200.000	-0.002	-0.022
-126.268	401.706	-0.014	-0.028
-125.253	-23.716	0.145	0.087
-124.239	196.077	-0.150	0.227
-123.224	-106.120	0.130	0.029
-122.210	-18.793	0.076	0.047
-121.195	161.932	0.096	0.134
