DTS Sentinel unit serial number:	SN413079Multiplexer serial number:	ORYXHardware model number:	OX4-SRSoftware version number:	ORYX F/W v4.00 Oryx Data Collector v3.7.2.0data status	okinstallation	princeton_trtdifferential loss correction	single-endedforward channel	channel 4reverse channel	N/Adate	2019/09/11time	21:47:10forward acquisition time	60.00reverse acquisition time	0.00gamma	496.2192k internal	0.2306k external	0.2306temperature offset calibration	1.0063default loss term (dB/km)	0.3790temperature slope calibration	1.0000multiplexer offset coefficient	1.0000multiplexer slope coefficient	1.0000fibre end	0.00T internal ref (°C)	35.75T ext. ref 1 (°C)	1.65T ext. ref 2 (°C)	30.02length (m)	temperature (°C)	Stokes	anti-Stokes-747.200	-87.156	-0.222	-0.069
-746.185	-123.400	-0.172	0.028
-745.171	800.000	0.061	-0.176
-744.156	-168.715	-0.297	0.011
-743.142	-200.000	-0.015	-0.079
-742.127	772.490	0.175	0.486
-741.112	157.802	-0.112	-0.158
-740.098	129.863	0.166	0.216
-739.083	-72.783	-0.250	-0.094
-738.069	-45.159	0.074	-0.038
-737.054	-32.694	-0.166	-0.094
-736.039	78.476	-0.041	-0.045
-735.025	415.067	0.048	0.104
-734.010	-78.125	0.112	-0.039
-732.996	-155.059	0.183	0.012
-731.981	139.618	-0.181	-0.242
-730.966	487.689	0.064	-0.148
-729.952	418.363	-0.077	0.168
-728.937	-109.869	-0.079	-0.017
-727.923	0.230	-0.143	-0.104
-726.908	232.002	0.019	-0.032
-725.894	-56.954	-0.127	-0.057
-724.879	-85.806	-0.143	-0.045
-723.864	-50.682	0.092	-0.044
-722.850	800.000	-0.022	0.063
-721.835	800.000	-0.012	-0.034
-720.821	59.381	-0.126	0.127
-719.806	182.362	0.050	0.075
-718.791	458.335	0.213	0.482
-717.777	-50.655	-0.159	0.076
-716.762	150.487	0.033	-0.046
-715.748	-71.852	-0.065	-0.025
-714.733	-24.597	-0.167	0.101
-713.718	-70.547	-0.326	0.125
-712.704	355.646	0.072	-0.146
-711.689	17.212	0.058	-0.046
-710.675	601.425	0.104	-0.262
-709.660	65.921	0.083	0.086
-708.645	-21.316	0.191	-0.118
-707.631	136.264	0.252	-0.334
-706.616	-200.000	0.001	-0.189
-705.602	57.017	-0.122	-0.121
-704.587	95.448	-0.164	-0.190
-703.572	800.000	-0.086	0.294
-702.558	739.019	-0.086	-0.234
-701.543	-70.347	0.376	-0.145
-700.529	-25.694	0.232	0.139
-699.514	44.181	-0.030	0.028
-698.499	156.999	0.202	0.283
-697.485	-44.366	0.109	-0.055
-696.470	172.493	0.146	-0.214
-695.456	49.659	0.065	0.062
-694.441	375.828	0.135	0.280
-693.426	-42.735	-0.119	0.062
-692.412	-133.379	0.577	0.074
-691.397	52.370	-0.160	0.155
-690.383	8.988	-0.349	0.268
-689.368	-13.784	0.200	-0.131
-688.354	19.870	-0.261	-0.214
-687.339	-200.000	-0.007	-0.179
-686.324	800.000	-0.057	0.191
-685.310	49.637	0.206	0.197
-684.295	160.735	-0.111	0.157
-683.281	800.000	0.065	0.204
-682.266	-1.058	-0.265	-0.190
-681.251	362.408	0.047	-0.095
-680.237	5.143	-0.255	0.190
-679.222	-60.159	0.201	0.087
-678.208	-130.742	0.093	0.013
-677.193	-76.588	0.102	0.036
-676.178	-200.000	-0.006	-0.102
-675.164	49.291	-0.248	0.236
-674.149	43.292	-0.201	0.187
-673.135	-200.000	-0.016	-0.306
-672.120	800.000	-0.022	-0.092
-671.105	172.109	0.228	-0.332
-670.091	-200.000	-0.002	-0.159
-669.076	-200.000	0.016	-0.145
-668.062	-200.000	0.028	-0.156
-667.047	-97.409	0.086	0.023
-666.032	40.043	-0.292	-0.266
-665.018	516.543	-0.219	-0.519
-664.003	193.032	0.085	-0.130
-662.989	-86.470	-0.285	-0.089
-661.974	1.811	-0.093	-0.068
-660.959	29.827	0.290	0.250
-659.945	-60.775	0.329	-0.141
-658.930	122.213	-0.169	-0.214
-657.916	-70.120	0.139	-0.053
-656.901	-166.302	0.309	0.013
-655.886	-6.804	-0.319	-0.220
-654.872	-149.728	0.054	-0.004
-653.857	142.628	0.023	0.031
-652.843	-200.000	0.053	-0.382
-651.828	800.000	-0.089	-0.262
-650.814	117.980	0.298	-0.372
-649.799	800.000	0.067	-0.205
-648.784	800.000	-0.056	0.174
-647.770	-154.619	-0.548	-0.037
-646.755	-91.112	-0.159	0.046
-645.741	-12.827	0.076	-0.050
-644.726	-47.824	-0.165	-0.081
-643.711	-41.781	-0.348	0.181
-642.697	800.000	0.059	0.196
-641.682	-116.326	-0.331	0.062
-640.668	-10.852	-0.081	0.054
-639.653	800.000	-0.034	0.144
-638.638	140.528	-0.222	0.297
-637.624	8.407	0.074	-0.056
-636.609	-93.359	-0.471	-0.132
-635.595	182.353	0.317	0.474
-634.580	-43.850	-0.248	-0.126
-633.565	-186.222	-0.247	-0.004
-632.551	-200.000	-0.011	-0.192
-631.536	-200.000	-0.043	0.251
-630.522	175.248	-0.164	-0.241
-629.507	73.112	-0.061	0.065
-628.492	279.680	0.281	-0.508
-627.478	-200.000	0.038	-0.169
-626.463	-103.069	-0.303	-0.073
-625.449	558.791	0.128	-0.313
-624.434	800.000	-0.028	-0.085
-623.419	52.018	0.206	-0.199
-622.405	-200.000	-0.006	0.347
-621.390	109.914	-0.173	-0.210
-620.376	523.550	-0.121	0.287
-619.361	28.704	-0.180	0.155
-618.346	-67.711	-0.215	0.085
-617.332	-200.000	0.001	0.185
-616.317	32.879	0.185	-0.162
-615.303	-6.048	0.090	-0.062
-614.288	-200.000	-0.015	0.238
-613.273	26.517	0.241	0.204
-612.259	73.795	-0.138	-0.147
-611.244	451.677	-0.046	0.102
-610.230	12.409	0.426	-0.332
-609.215	15.592	0.078	-0.062
-608.201	205.662	0.141	0.222
-607.186	-88.185	-0.024	0.007
-606.171	-34.783	-0.130	-0.072
-605.157	-200.000	-0.004	-0.067
-604.142	516.610	0.086	-0.204
-603.128	13.560	0.069	0.054
-602.113	-64.727	0.188	-0.077
-601.098	-75.098	-0.142	0.052
-600.084	-200.000	0.006	-0.384
-599.069	-41.072	0.100	-0.052
-598.055	-46.325	-0.110	-0.055
-597.040	176.777	-0.068	-0.100
-596.025	800.000	0.013	-0.041
-595.011	465.850	0.137	0.311
-593.996	-200.000	-0.025	0.146
-592.982	-200.000	-0.006	0.193
-591.967	-132.637	-0.191	-0.025
-590.952	486.817	0.068	-0.157
-589.938	-129.080	0.352	-0.050
-588.923	289.806	0.068	0.124
-587.909	-82.279	-0.204	-0.067
-586.894	772.539	-0.038	0.106
-585.879	121.857	-0.033	-0.041
-584.865	232.482	0.019	-0.032
-583.850	-89.492	0.395	-0.118
-582.836	800.000	-0.062	-0.267
-581.821	-200.000	0.000	-0.069
-580.806	73.123	0.187	-0.198
-579.792	-200.000	-0.039	-0.306
-578.777	-200.000	0.001	-0.085
-577.763	29.578	-0.084	0.073
-576.748	-0.334	-0.064	0.046
-575.733	415.450	-0.069	0.148
-574.719	136.309	-0.098	0.129
-573.704	444.974	0.088	-0.195
-572.690	201.335	-0.155	0.242
-571.675	481.095	-0.061	0.141
-570.661	800.000	-0.082	0.355
-569.646	-200.000	0.011	-0.221
-568.631	-200.000	-0.020	-0.116
-567.617	-200.000	-0.023	0.389
-566.602	-22.396	-0.142	0.087
-565.588	6.127	-0.278	-0.208
-564.573	-24.061	-0.255	0.154
-563.558	800.000	-0.083	-0.267
-562.544	-11.874	0.134	0.089
-561.529	457.226	-0.124	0.279
-560.515	-200.000	-0.029	-0.262
-559.500	26.872	0.118	-0.100
-558.485	-200.000	-0.017	-0.142
-557.471	-89.822	-0.097	-0.029
-556.456	-200.000	-0.007	-0.136
-555.442	-104.500	-0.077	-0.018
-554.427	-200.000	0.040	0.463
-553.412	85.932	-0.087	0.097
-552.398	227.086	0.118	0.193
-551.383	-16.224	0.144	-0.092
-550.369	-42.457	-0.079	0.041
-549.354	-200.000	-0.039	-0.213
-548.339	13.020	0.199	0.156
-547.325	-100.030	0.051	0.013
-546.310	-54.097	0.299	0.137
-545.296	-200.000	-0.013	-0.142
-544.281	-200.000	-0.034	-0.223
-543.266	-200.000	0.014	-0.169
-542.252	-123.969	0.161	-0.026
-541.237	74.825	0.104	0.111
-540.223	-102.287	-0.092	-0.022
-539.208	2.108	0.121	0.089
-538.193	-68.503	0.404	-0.158
-537.179	-31.777	0.249	-0.141
-536.164	800.000	0.051	-0.205
-535.150	-200.000	-0.014	0.065
-534.135	140.007	-0.068	-0.091
-533.121	-111.551	-0.296	0.061
-532.106	142.764	-0.091	-0.122
-531.091	-200.000	0.042	-0.262
-530.077	800.000	-0.034	0.150
-529.062	-200.000	-0.017	-0.208
-528.048	-61.897	0.225	-0.095
-527.033	-127.335	-0.303	-0.045
-526.018	-153.031	0.339	-0.024
-525.004	183.411	0.160	0.238
-523.989	348.115	0.129	-0.256
-522.975	30.477	0.191	-0.164
-521.960	-101.098	-0.140	-0.034
-520.945	320.232	0.059	0.114
-519.931	176.224	-0.182	-0.266
-518.916	-200.000	0.010	0.144
-517.902	-5.016	0.134	-0.093
-516.887	20.544	0.161	-0.131
-515.872	-200.000	-0.037	-0.246
-514.858	520.899	0.173	-0.409
-513.843	13.994	0.187	0.147
-512.829	138.320	0.112	0.148
-511.814	-46.464	0.170	-0.084
-510.799	800.000	-0.061	0.245
-509.785	351.426	-0.170	0.338
-508.770	-23.672	0.169	-0.102
-507.756	-117.004	-0.083	0.015
-506.741	-200.000	-0.046	0.226
-505.726	331.629	0.167	-0.326
-504.712	800.000	-0.034	-0.096
-503.697	-200.000	0.009	-0.143
-502.683	160.777	-0.021	-0.030
-501.668	-61.317	0.040	0.017
-500.653	800.000	-0.032	-0.099
-499.639	500.701	-0.185	0.429
-498.624	-51.550	-0.114	0.054
-497.610	67.514	0.184	0.189
-496.595	-146.289	-0.238	-0.021
-495.581	-200.000	0.022	-0.301
-494.566	50.272	0.160	0.152
-493.551	800.000	0.017	0.053
-492.537	-148.813	0.267	-0.022
-491.522	800.000	0.138	0.419
-490.508	-200.000	-0.015	-0.083
-489.493	-9.379	0.239	0.161
-488.478	-34.897	0.204	0.112
-487.464	78.414	0.415	-0.447
-486.449	-95.915	0.059	-0.016
-485.435	149.110	-0.060	0.082
-484.420	29.112	-0.042	-0.036
-483.405	-116.033	-0.339	0.064
-482.391	156.359	0.062	-0.087
-481.376	-14.464	0.048	0.031
-480.362	-38.125	0.219	0.117
-479.347	521.427	-0.094	0.223
-478.332	-200.000	0.025	0.335
-477.318	800.000	-0.013	-0.038
-476.303	215.021	-0.098	0.157
-475.289	-11.203	-0.031	0.020
-474.274	-34.261	-0.065	-0.036
-473.259	-200.000	-0.021	0.132
-472.245	-52.107	0.052	0.024
-471.230	-139.221	-0.122	-0.013
-470.216	479.714	0.086	0.197
-469.201	-88.895	0.058	-0.017
-468.186	136.079	0.207	-0.272
-467.172	136.162	0.085	0.111
-466.157	-75.302	-0.270	0.097
-465.143	-200.000	0.250	-0.001
-464.128	-23.158	0.225	-0.137
-463.113	233.681	0.074	-0.122
-462.099	-200.000	0.019	-0.174
-461.084	800.000	-0.052	0.148
-460.070	62.695	-0.098	-0.099
-459.055	384.127	0.022	0.046
-458.040	-181.711	-0.282	-0.005
-457.026	39.112	0.074	0.067
-456.011	800.000	0.052	-0.158
-454.997	12.904	-0.281	-0.219
-453.982	-28.990	0.124	-0.072
-452.968	-200.000	0.013	0.251
-451.953	-150.171	0.297	0.023
-450.938	-200.000	-0.031	-0.248
-449.924	27.157	0.153	0.129
-448.909	370.996	-0.030	0.062
-447.895	-200.000	0.021	-0.180
-446.880	-142.973	0.320	0.031
-445.865	442.885	0.082	0.180
-444.851	7.291	-0.144	-0.108
-443.836	800.000	-0.081	-0.308
-442.822	-200.000	0.062	-0.314
-441.807	800.000	-0.030	0.098
-440.792	-127.095	-0.375	0.055
-439.778	-72.720	-0.132	0.049
-438.763	-64.162	0.149	-0.061
-437.749	-76.873	-0.232	0.082
-436.734	546.526	0.172	0.413
-435.719	58.780	0.133	0.131
-434.705	-113.163	-0.256	-0.051
-433.690	300.542	-0.094	-0.173
-432.676	38.182	0.034	0.031
-431.661	-200.000	0.061	0.295
-430.646	458.936	-0.184	-0.411
-429.632	763.989	0.037	0.100
-428.617	-25.398	0.223	-0.132
-427.603	47.764	-0.186	0.174
-426.588	445.693	0.111	0.244
-425.573	161.916	-0.116	-0.163
-424.559	-39.210	-0.119	0.063
-423.544	-63.411	-0.217	0.090
-422.530	-134.196	-0.233	-0.029
-421.515	-200.000	0.039	0.182
-420.500	-200.000	-0.038	0.204
-419.486	109.821	0.075	0.090
-418.471	-132.100	0.108	-0.014
-417.457	-176.913	0.268	-0.007
-416.442	-42.570	-0.331	-0.170
-415.428	-200.000	0.027	0.131
-414.413	20.935	-0.321	0.262
-413.398	146.231	-0.089	-0.120
-412.384	-115.700	0.109	-0.021
-411.369	269.153	-0.095	-0.167
-410.355	631.098	-0.112	0.285
-409.340	-23.193	0.119	0.072
-408.325	34.302	-0.016	-0.014
-407.311	346.774	-0.128	-0.254
-406.296	-140.110	-0.196	0.021
-405.282	668.395	-0.039	-0.102
-404.267	504.176	0.124	0.289
-403.252	-49.914	-0.129	-0.061
-402.238	-63.198	0.316	-0.131
-401.223	564.107	0.046	0.112
-400.209	260.926	0.148	-0.257
-399.194	-20.457	-0.074	0.046
-398.179	-7.947	-0.082	-0.055
-397.165	31.454	0.161	-0.139
-396.150	-69.837	-0.374	0.143
-395.136	-167.954	-0.184	-0.007
-394.121	-200.000	0.040	-0.375
-393.106	326.949	0.023	0.045
-392.092	-200.000	0.015	-0.088
-391.077	-68.671	0.403	0.156
-390.063	-122.773	0.148	0.024
-389.048	-72.937	-0.212	-0.078
-388.033	-76.580	0.198	0.070
-387.019	495.128	0.110	0.253
-386.004	173.691	-0.051	0.073
-384.990	-82.033	-0.213	0.070
-383.975	-35.050	-0.147	-0.080
-382.960	30.108	0.089	0.077
-381.946	108.856	-0.265	0.317
-380.931	-200.000	-0.002	0.172
-379.917	800.000	0.034	0.135
-378.902	-200.000	-0.061	-0.340
-377.888	-200.000	-0.035	0.288
-376.873	-92.926	0.266	-0.075
-375.858	-82.665	0.340	-0.110
-374.844	800.000	-0.121	0.438
-373.829	8.990	-0.294	0.223
-372.815	462.370	-0.095	-0.212
-371.800	91.879	0.170	-0.191
-370.785	-126.654	0.266	-0.040
-369.771	-200.000	0.001	-0.269
-368.756	503.348	0.045	0.105
-367.742	-104.990	0.131	0.030
-366.727	9.639	0.100	0.076
-365.712	-179.334	-0.204	0.005
-364.698	10.940	-0.108	0.083
-363.683	800.000	-0.032	-0.142
-362.669	13.910	-0.185	0.144
-361.654	-137.131	0.155	0.018
-360.639	-56.180	0.233	-0.104
-359.625	48.658	0.084	0.079
-358.610	800.000	-0.123	-0.388
-357.596	183.944	-0.209	-0.310
-356.581	-20.417	-0.219	0.135
-355.566	-200.000	0.002	-0.188
-354.552	771.527	0.086	0.236
-353.537	800.000	0.046	-0.134
-352.523	-138.149	0.181	0.020
-351.508	501.787	0.087	-0.201
-350.493	800.000	0.027	0.087
-349.479	380.143	0.055	-0.113
-348.464	34.710	-0.243	0.213
-347.450	800.000	0.049	0.196
-346.435	-136.459	-0.323	-0.038
-345.420	-61.216	-0.239	0.101
-344.406	-200.000	-0.005	-0.189
-343.391	800.000	0.059	0.196
-342.377	-18.611	-0.131	-0.082
-341.362	-19.043	0.334	-0.208
-340.348	16.060	-0.103	-0.082
-339.333	494.135	-0.081	-0.186
-338.318	13.758	0.356	0.277
-337.304	33.427	-0.075	-0.065
-336.289	800.000	0.029	-0.096
-335.275	3.981	-0.247	0.181
-334.260	-200.000	-0.016	-0.094
-333.245	-101.192	-0.124	0.030
-332.231	36.528	0.113	0.100
-331.216	-125.241	-0.052	0.008
-330.202	-200.000	-0.000	-0.098
-329.187	-56.191	-0.262	0.117
-328.172	39.596	0.065	-0.059
-327.158	-23.314	0.235	-0.141
-326.143	-110.096	0.164	-0.034
-325.129	-136.107	0.396	-0.046
-324.114	-116.699	0.185	-0.034
-323.099	-4.715	0.145	-0.100
-322.085	-200.000	-0.041	-0.202
-321.070	177.290	-0.100	0.145
-320.056	-200.000	-0.039	0.231
-319.041	-45.521	0.201	0.100
-318.026	122.443	0.239	-0.299
-317.012	-84.806	-0.094	-0.029
-315.997	-200.000	0.014	0.194
-314.983	-22.072	0.255	0.155
-313.968	56.891	0.171	-0.167
-312.953	-100.814	0.183	-0.045
-311.939	585.922	-0.066	-0.162
-310.924	133.124	-0.068	0.087
-309.910	-123.208	0.363	-0.058
-308.895	-25.612	0.012	-0.007
-307.880	-72.665	-0.217	0.080
-306.866	-98.311	-0.455	-0.117
-305.851	-200.000	-0.057	0.256
-304.837	800.000	-0.060	-0.218
-303.822	-9.292	-0.153	0.102
-302.807	800.000	-0.089	0.330
-301.793	-23.122	0.125	-0.075
-300.778	-70.690	0.094	-0.036
-299.764	800.000	0.080	-0.226
-298.749	-200.000	-0.054	-0.250
-297.735	-21.037	0.028	0.017
-296.720	279.923	0.058	-0.104
-295.705	-72.029	0.236	0.088
-294.691	225.492	0.031	0.050
-293.676	21.886	-0.245	-0.199
-292.662	515.531	-0.091	-0.212
-291.647	-200.000	0.061	0.526
-290.632	-173.573	-0.220	0.007
-289.618	-109.417	0.076	-0.016
-288.603	-134.534	0.064	0.008
-287.589	-200.000	-0.035	-0.213
-286.574	-151.089	-0.040	-0.003
-285.559	-200.000	-0.039	0.182
-284.545	-120.642	0.451	0.076
-283.530	800.000	-0.041	-0.174
-282.516	187.501	-0.225	0.336
-281.501	56.808	0.198	0.193
-280.486	45.377	-0.267	0.246
-279.472	53.803	-0.092	-0.088
-278.457	90.108	-0.168	0.188
-277.443	-155.893	0.084	-0.005
-276.428	93.578	0.045	-0.051
-275.413	79.874	-0.210	-0.226
-274.399	208.078	-0.098	0.153
-273.384	760.773	0.030	0.082
-272.370	55.471	0.224	0.217
-271.355	-200.000	0.020	-0.105
-270.340	48.244	-0.013	0.012
-269.326	-49.384	0.153	0.073
-268.311	800.000	-0.012	-0.045
-267.297	-72.678	0.131	-0.048
-266.282	-144.665	0.062	-0.006
-265.267	-111.850	0.167	-0.034
-264.253	-29.955	0.037	0.021
-263.238	-6.318	0.164	-0.112
-262.224	64.650	-0.094	-0.094
-261.209	-200.000	0.023	-0.162
-260.195	-143.852	0.297	-0.028
-259.180	-40.155	-0.158	0.082
-258.165	-200.000	-0.044	-0.338
-257.151	111.113	0.071	-0.085
-256.136	-110.161	0.322	-0.067
-255.122	66.772	0.234	0.238
-254.107	800.000	0.069	-0.206
-253.092	-200.000	-0.027	-0.180
-252.078	-200.000	-0.011	0.093
-251.063	-80.315	0.275	0.092
-250.049	-55.985	0.132	-0.059
-249.034	-33.291	0.246	0.136
-248.019	17.530	-0.194	0.154
-247.005	800.000	-0.122	-0.359
-245.990	-127.826	0.240	0.034
-244.976	141.973	-0.225	-0.298
-243.961	-89.126	-0.212	-0.063
-242.946	-121.688	0.085	0.014
-241.932	134.857	0.286	-0.370
-240.917	800.000	-0.013	0.046
-239.903	-200.000	0.026	0.271
-238.888	143.278	0.077	0.102
-237.873	21.892	-0.111	0.090
-236.859	-68.220	0.211	-0.082
-235.844	-29.448	-0.217	0.124
-234.830	800.000	-0.085	0.263
-233.815	643.727	0.120	-0.305
-232.800	-200.000	0.018	0.329
-231.786	-137.696	-0.351	0.039
-230.771	-200.000	0.022	-0.220
-229.757	-200.000	-0.003	0.092
-228.742	800.000	0.064	-0.264
-227.727	-200.000	0.009	0.104
-226.713	-200.000	-0.021	0.426
-225.698	800.000	0.039	-0.123
-224.684	-47.889	-0.331	0.160
-223.669	-69.585	0.308	-0.117
-222.655	-200.000	0.015	-0.258
-221.640	-106.264	-0.263	-0.059
-220.625	-140.101	-0.095	-0.010
-219.611	-152.694	0.035	-0.002
-218.596	800.000	-0.051	0.162
-217.582	-183.210	-0.351	-0.006
-216.567	-33.489	0.022	0.012
-215.552	-68.593	-0.112	-0.043
-214.538	21.544	-0.051	0.041
-213.523	-0.504	0.137	-0.097
-212.509	-200.000	0.017	0.311
-211.494	289.820	0.209	-0.378
-210.479	425.170	0.038	-0.082
-209.465	800.000	0.093	0.360
-208.450	-41.125	0.089	0.046
-207.436	461.394	0.070	0.156
-206.421	-15.103	-0.254	-0.162
-205.406	494.919	0.087	-0.198
-204.392	-114.675	-0.049	-0.009
-203.377	-43.881	0.405	-0.203
-202.363	205.181	0.074	-0.114
-201.348	-89.433	-0.265	-0.078
-200.333	213.359	-0.155	0.243
-199.319	-200.000	-0.007	0.193
-198.304	-91.291	0.240	-0.068
-197.290	800.000	0.043	-0.128
-196.275	-43.273	0.270	0.136
-195.260	304.610	0.033	-0.062
-194.246	800.000	-0.091	0.341
-193.231	800.000	0.024	0.103
-192.217	512.834	-0.052	0.121
-191.202	-4.905	0.071	-0.049
-190.187	-200.000	0.001	0.231
-189.173	146.159	-0.077	-0.102
-188.158	775.834	-0.104	-0.282
-187.144	-200.000	-0.041	-0.432
-186.129	-200.000	0.028	0.357
-185.114	800.000	-0.074	0.273
-184.100	800.000	0.026	0.100
-183.085	71.334	0.053	-0.055
-182.071	10.434	-0.247	-0.187
-181.056	209.438	-0.079	-0.123
-180.042	-200.000	-0.049	-0.442
-179.027	-200.000	0.029	-0.139
-178.012	551.974	-0.125	-0.299
-176.998	-31.577	-0.032	-0.018
-175.983	490.262	-0.102	0.233
-174.969	-200.000	-0.005	-0.111
-173.954	36.171	-0.254	-0.223
-172.939	102.071	-0.189	0.220
-171.925	-159.195	-0.158	-0.009
-170.910	65.122	-0.064	0.064
-169.896	-200.000	0.004	0.392
-168.881	211.715	-0.077	-0.120
-167.866	-116.961	-0.096	0.018
-166.852	-110.776	-0.116	0.024
-165.837	-200.000	-0.063	-0.285
-164.823	-36.094	0.175	0.094
-163.808	136.087	0.040	0.052
-162.793	-200.000	0.015	0.072
-161.779	116.835	-0.086	-0.105
-160.764	760.360	-0.085	-0.229
-159.750	61.744	0.210	0.208
-158.735	-200.000	0.015	0.098
-157.720	533.576	-0.184	0.434
-156.706	800.000	0.025	0.085
-155.691	560.299	-0.100	0.240
-154.677	-19.245	-0.177	-0.109
-153.662	-200.000	-0.008	0.400
-152.647	96.341	-0.201	0.229
-151.633	163.377	-0.082	-0.114
-150.618	198.200	-0.221	0.336
-149.604	-200.000	0.016	-0.129
-148.589	-71.154	0.171	-0.064
-147.574	-54.819	0.305	-0.137
-146.560	44.874	-0.102	0.093
-145.545	70.679	0.344	0.354
-144.531	-80.179	0.198	-0.066
-143.516	73.290	-0.124	-0.128
-142.502	196.989	0.085	0.128
-141.487	-146.260	0.180	0.016
-140.472	-200.000	-0.001	0.017
-139.458	-72.413	0.278	0.102
-138.443	-64.828	0.334	0.134
-137.429	115.591	-0.169	-0.205
-136.414	800.000	0.075	-0.244
-135.399	-78.967	0.192	0.065
-134.385	-80.281	-0.164	0.054
-133.370	15.322	-0.142	-0.110
-132.356	-200.000	0.013	0.115
-131.341	475.547	-0.061	0.137
-130.326	-27.987	-0.219	-0.126
-129.312	-44.866	0.305	-0.151
-128.297	-200.000	0.014	0.204
-127.283	15.726	0.274	-0.214
-126.268	43.718	-0.143	-0.130
-125.253	-71.372	-0.439	0.163
-124.239	800.000	0.048	0.141
-123.224	-200.000	-0.035	0.239
-122.210	-178.251	-0.302	0.007
-121.195	168.385	-0.183	-0.258
