DTS Sentinel unit serial number:	SN413079Multiplexer serial number:	ORYXHardware model number:	OX4-SRSoftware version number:	ORYX F/W v4.00 Oryx Data Collector v3.7.2.0data status	okinstallation	princeton_trtdifferential loss correction	single-endedforward channel	channel 4reverse channel	N/Adate	2019/09/10time	19:11:11forward acquisition time	60.00reverse acquisition time	0.00gamma	496.2192k internal	0.2307k external	0.2307temperature offset calibration	0.9945default loss term (dB/km)	0.3790temperature slope calibration	1.0000multiplexer offset coefficient	1.0000multiplexer slope coefficient	1.0000fibre end	0.00T internal ref (°C)	34.12T ext. ref 1 (°C)	-0.35T ext. ref 2 (°C)	26.47length (m)	temperature (°C)	Stokes	anti-Stokes-747.200	-123.995	0.115	0.018
-746.185	16.231	-0.144	-0.115
-745.171	-200.000	-0.046	-0.243
-744.156	91.584	-0.091	0.104
-743.142	77.504	-0.095	0.103
-742.127	-7.886	-0.077	0.053
-741.112	-200.000	-0.023	0.206
-740.098	-90.472	-0.283	0.083
-739.083	59.368	0.122	0.122
-738.069	-118.037	-0.276	-0.050
-737.054	222.589	0.255	0.417
-736.039	-125.587	-0.260	-0.040
-735.025	-33.204	0.192	0.108
-734.010	360.038	0.092	0.187
-732.996	-163.176	-0.130	-0.006
-731.981	-136.553	0.239	0.028
-730.966	-27.147	-0.229	0.135
-729.952	319.289	0.071	0.136
-728.937	65.407	-0.293	0.301
-727.923	-2.094	0.055	-0.039
-726.908	127.921	0.157	-0.203
-725.894	157.851	-0.115	0.163
-724.879	19.726	-0.274	-0.224
-723.864	93.510	0.186	-0.214
-722.850	292.249	-0.083	0.153
-721.835	7.925	-0.076	0.058
-720.821	-139.807	-0.270	-0.029
-719.806	428.778	-0.108	-0.238
-718.791	250.056	0.073	-0.126
-717.777	-14.133	-0.103	0.067
-716.762	-200.000	0.048	0.291
-715.748	370.612	-0.103	0.212
-714.733	-200.000	0.073	0.340
-713.718	-99.753	-0.310	-0.079
-712.704	172.689	-0.206	-0.301
-711.689	-200.000	0.032	-0.439
-710.675	-163.687	0.201	-0.010
-709.660	-83.900	0.049	-0.016
-708.645	-63.831	0.462	-0.192
-707.631	800.000	-0.063	0.219
-706.616	36.215	0.066	0.059
-705.602	130.418	0.153	-0.199
-704.587	167.313	-0.027	0.040
-703.572	-127.408	0.045	0.007
-702.558	-28.169	-0.027	0.016
-701.543	-200.000	0.060	-0.381
-700.529	-36.797	0.256	0.140
-699.514	-103.355	0.232	0.055
-698.499	-94.634	-0.361	-0.100
-697.485	126.692	0.206	-0.265
-696.470	214.770	-0.208	-0.334
-695.456	146.408	-0.088	-0.120
-694.441	-200.000	0.007	-0.376
-693.426	78.715	-0.100	-0.108
-692.412	-84.034	-0.113	0.036
-691.397	-1.977	0.118	-0.084
-690.383	-118.414	-0.105	0.019
-689.368	94.320	0.159	0.184
-688.354	-86.879	0.141	-0.044
-687.339	278.670	0.075	0.136
-686.324	-200.000	-0.049	0.220
-685.310	81.078	0.147	0.161
-684.295	-200.000	-0.012	-0.267
-683.281	75.071	0.160	-0.171
-682.266	34.727	-0.243	-0.216
-681.251	102.018	0.014	-0.017
-680.237	101.848	-0.156	-0.184
-679.222	199.455	-0.076	0.118
-678.208	26.869	0.104	-0.088
-677.193	-58.424	-0.261	-0.115
-676.178	221.443	-0.125	-0.204
-675.164	-90.972	-0.053	0.016
-674.149	367.913	-0.050	-0.102
-673.135	16.288	-0.069	-0.056
-672.120	76.900	-0.162	-0.174
-671.105	-107.264	0.314	0.070
-670.091	-50.358	-0.382	0.183
-669.076	-157.144	-0.149	-0.009
-668.062	-23.285	0.273	0.166
-667.047	-200.000	0.010	0.080
-666.032	-145.178	0.282	-0.026
-665.018	800.000	-0.079	-0.314
-664.003	-88.098	-0.320	-0.097
-662.989	-200.000	-0.007	0.151
-661.974	155.772	-0.132	0.185
-660.959	71.993	0.047	-0.050
-659.945	174.827	0.019	-0.028
-658.930	135.976	-0.029	-0.038
-657.916	346.410	-0.195	-0.389
-656.901	-200.000	0.036	-0.449
-655.886	70.738	0.104	0.109
-654.872	27.879	-0.181	0.155
-653.857	497.862	0.054	-0.125
-652.843	-28.032	-0.435	-0.255
-651.828	-123.409	-0.084	0.014
-650.814	800.000	-0.071	0.223
-649.799	-17.271	0.115	-0.074
-648.784	-59.091	-0.264	-0.115
-647.770	-65.797	-0.124	-0.050
-646.755	160.480	0.032	0.045
-645.741	-14.075	0.039	0.025
-644.726	-71.868	0.116	0.044
-643.711	-41.914	0.165	0.086
-642.697	-60.913	0.133	0.057
-641.682	28.861	0.203	0.174
-640.668	-116.383	-0.300	0.056
-639.653	-34.349	0.201	0.112
-638.638	96.887	0.291	-0.338
-637.624	-127.057	-0.143	0.021
-636.609	-160.974	0.395	-0.021
-635.595	-98.566	-0.177	0.046
-634.580	31.128	-0.132	-0.114
-633.565	800.000	-0.043	-0.182
-632.551	-200.000	0.029	-0.248
-631.536	1.093	-0.225	0.163
-630.522	-200.000	0.011	0.074
-629.507	163.102	-0.088	-0.125
-628.492	728.657	-0.088	0.237
-627.478	785.382	0.057	-0.158
-626.463	332.651	0.083	-0.162
-625.449	-88.210	-0.078	0.024
-624.434	92.694	0.295	-0.337
-623.419	-164.690	-0.536	0.024
-622.405	86.687	0.086	-0.096
-621.390	728.794	-0.049	0.133
-620.376	-17.227	-0.374	0.238
-619.361	95.048	-0.191	-0.220
-618.346	-112.274	-0.333	0.068
-617.332	13.063	0.164	-0.128
-616.317	-66.057	0.177	-0.071
-615.303	116.750	-0.070	-0.087
-614.288	-108.001	0.244	0.054
-613.273	-110.655	0.274	-0.057
-612.259	-107.469	-0.125	-0.028
-611.244	-200.000	-0.010	0.080
-610.230	480.920	-0.069	0.159
-609.215	-46.627	0.252	0.125
-608.201	-200.000	-0.007	0.173
-607.186	-13.210	0.270	0.177
-606.171	-81.871	-0.112	0.037
-605.157	71.597	0.244	0.257
-604.142	800.000	0.086	-0.244
-603.128	220.118	-0.101	-0.164
-602.113	157.433	-0.169	-0.236
-601.098	-72.978	-0.264	0.098
-600.084	-200.000	0.046	0.258
-599.069	-9.726	-0.122	0.082
-598.055	403.834	0.077	-0.164
-597.040	200.820	0.222	-0.345
-596.025	-178.173	-0.192	-0.005
-595.011	10.934	0.160	-0.124
-593.996	296.249	-0.133	0.247
-592.982	-103.208	-0.236	-0.056
-591.967	201.179	-0.109	-0.169
-590.952	-155.323	-0.181	0.012
-589.938	-117.652	0.068	-0.012
-588.923	-66.696	-0.186	0.074
-587.909	-103.945	-0.073	-0.017
-586.894	-42.309	-0.308	-0.159
-585.879	-59.491	-0.178	0.077
-584.865	-105.300	0.089	0.020
-583.850	-133.469	-0.292	-0.037
-582.836	-200.000	-0.028	0.227
-581.821	-200.000	-0.012	0.109
-580.806	288.494	-0.021	0.039
-579.792	-53.008	0.374	0.174
-578.777	23.542	0.168	0.139
-577.763	65.111	0.175	0.179
-576.748	-109.760	-0.362	-0.077
-575.733	800.000	-0.065	0.218
-574.719	116.425	0.157	0.194
-573.704	364.076	0.053	0.107
-572.690	-119.388	0.089	0.016
-571.675	416.008	0.028	0.061
-570.661	-200.000	-0.035	0.260
-569.646	44.885	-0.290	0.269
-568.631	12.841	-0.127	-0.099
-567.617	-121.848	-0.304	-0.051
-566.602	359.794	0.061	-0.124
-565.588	-31.422	0.011	-0.006
-564.573	-53.534	-0.033	0.015
-563.558	-200.000	0.032	-0.161
-562.544	112.714	-0.186	0.227
-561.529	800.000	0.105	0.375
-560.515	-200.000	-0.033	0.153
-559.500	344.540	-0.056	-0.111
-558.485	93.652	-0.099	0.113
-557.471	93.537	0.046	0.053
-556.456	-200.000	-0.024	0.127
-555.442	800.000	0.020	0.084
-554.427	221.618	0.066	-0.107
-553.412	-71.294	0.173	-0.066
-552.398	144.637	-0.248	-0.334
-551.383	-200.000	0.068	0.443
-550.369	-200.000	-0.010	0.083
-549.354	148.363	-0.192	-0.262
-548.339	-119.722	0.229	-0.040
-547.325	-44.269	-0.206	-0.104
-546.310	-91.046	0.342	0.099
-545.296	-171.931	0.306	-0.010
-544.281	-11.828	0.199	-0.132
-543.266	575.487	-0.083	-0.205
-542.252	-106.698	0.454	0.102
-541.237	-131.414	0.055	0.007
-540.223	-122.828	0.023	-0.004
-539.208	80.613	0.112	0.122
-538.193	545.232	-0.097	0.233
-537.179	116.673	-0.149	-0.185
-536.164	-94.538	-0.325	-0.089
-535.150	-100.130	0.380	-0.095
-534.135	800.000	0.033	-0.139
-533.121	199.037	-0.157	-0.242
-532.106	800.000	0.082	-0.347
-531.091	59.768	-0.021	-0.021
-530.077	800.000	-0.098	0.348
-529.062	800.000	-0.049	-0.179
-528.048	52.462	0.189	-0.182
-527.033	95.313	-0.078	-0.090
-526.018	431.087	0.176	0.384
-525.004	30.734	0.181	0.156
-523.989	-163.167	0.134	-0.007
-522.975	-111.230	0.160	0.033
-521.960	270.147	-0.037	0.065
-520.945	-122.244	-0.252	0.042
-519.931	307.674	0.023	-0.043
-518.916	-95.554	0.173	0.047
-517.902	154.088	-0.068	-0.094
-516.887	74.855	-0.015	-0.016
-515.872	-200.000	-0.381	0.000
-514.858	-25.157	0.182	-0.109
-513.843	88.417	0.055	0.062
-512.829	-200.000	-0.038	-0.175
-511.814	672.371	0.028	-0.072
-510.799	96.757	-0.027	-0.031
-509.785	375.113	-0.215	-0.441
-508.770	39.852	-0.032	0.029
-507.756	-200.000	0.063	0.741
-506.741	-160.963	0.362	0.019
-505.726	282.581	-0.088	-0.160
-504.712	470.408	-0.125	-0.284
-503.697	-200.000	-0.004	-0.128
-502.683	505.477	-0.123	0.286
-501.668	800.000	-0.042	-0.118
-500.653	-200.000	-0.002	0.146
-499.639	79.588	0.281	0.304
-498.624	39.858	-0.278	0.251
-497.610	31.184	-0.128	0.110
-496.595	-200.000	0.022	-0.378
-495.581	-200.000	0.016	-0.080
-494.566	9.737	0.069	0.052
-493.551	-12.163	-0.293	0.193
-492.537	-200.000	-0.009	-0.042
-491.522	-200.000	-0.035	0.204
-490.508	-200.000	0.029	0.135
-489.493	-93.687	0.114	0.032
-488.478	-200.000	-0.010	0.103
-487.464	605.784	-0.050	-0.126
-486.449	435.206	-0.065	-0.142
-485.435	505.237	0.082	0.191
-484.420	-61.887	0.180	-0.076
-483.405	349.035	-0.084	-0.167
-482.391	-142.210	0.287	0.029
-481.376	169.436	-0.207	0.298
-480.362	-182.909	0.157	0.003
-479.347	-75.711	0.186	0.066
-478.332	-94.887	-0.094	0.026
-477.318	-19.316	-0.157	-0.098
-476.303	-125.721	0.200	-0.030
-475.289	800.000	0.079	0.314
-474.274	78.962	0.172	-0.185
-473.259	-130.244	-0.107	0.015
-472.245	-3.112	0.133	-0.093
-471.230	-3.600	-0.250	-0.175
-470.216	30.628	0.170	-0.146
-469.201	-145.895	0.268	0.024
-468.186	326.830	0.064	-0.123
-467.172	57.285	0.105	-0.103
-466.157	-172.578	0.379	0.012
-465.143	335.402	0.043	-0.085
-464.128	-76.982	0.265	0.093
-463.113	-86.834	-0.336	-0.103
-462.099	-70.140	0.024	0.009
-461.084	-10.372	0.328	0.219
-460.070	324.970	-0.065	0.124
-459.055	-200.000	-0.060	0.282
-458.040	257.638	-0.017	-0.030
-457.026	-72.834	-0.396	-0.146
-456.011	-40.822	-0.147	0.077
-454.997	-83.513	0.023	0.007
-453.982	-162.239	-0.091	-0.005
-452.968	-25.123	-0.157	-0.093
-451.953	-200.000	0.064	0.319
-450.938	-200.000	0.023	-0.162
-449.924	-63.370	-0.208	0.086
-448.909	25.386	-0.151	-0.126
-447.895	-200.000	-0.026	-0.149
-446.880	-60.811	-0.230	0.098
-445.865	451.537	-0.087	-0.194
-444.851	-7.637	0.197	-0.134
-443.836	-155.037	-0.312	-0.021
-442.822	-30.877	-0.281	-0.160
-441.807	-182.403	-0.360	0.007
-440.792	85.227	-0.241	-0.266
-439.778	114.206	-0.159	0.194
-438.763	-103.408	-0.283	0.067
-437.749	-69.485	0.201	0.078
-436.734	-73.608	0.465	0.170
-435.719	273.666	-0.192	0.340
-434.705	800.000	-0.139	-0.496
-433.690	49.832	-0.172	0.163
-432.676	159.404	-0.026	0.037
-431.661	165.091	0.116	0.164
-430.646	-26.864	-0.166	-0.097
-429.632	-84.845	-0.399	0.126
-428.617	466.414	0.069	0.154
-427.603	-23.103	-0.308	-0.187
-426.588	324.664	0.030	-0.058
-425.573	-26.446	0.105	0.062
-424.559	375.761	0.134	0.275
-423.544	616.838	0.072	0.181
-422.530	-130.519	-0.171	-0.023
-421.515	46.109	-0.411	-0.383
-420.500	292.611	-0.070	0.128
-419.486	-45.809	0.077	0.038
-418.471	-88.197	-0.030	0.009
-417.457	237.333	-0.104	0.173
-416.442	16.861	0.248	-0.197
-415.428	-200.000	0.007	0.107
-414.413	-68.209	-0.474	0.185
-413.398	-200.000	-0.013	-0.186
-412.384	-200.000	0.010	-0.234
-411.369	-116.584	0.047	-0.009
-410.355	-200.000	-0.047	0.454
-409.340	800.000	-0.066	-0.187
-408.325	-200.000	-0.066	0.363
-407.311	445.843	0.140	0.308
-406.296	713.595	-0.089	-0.237
-405.282	742.780	0.104	-0.281
-404.267	-73.886	0.213	-0.078
-403.252	-37.307	0.278	0.149
-402.238	25.177	-0.119	-0.099
-401.223	-200.000	0.004	0.043
-400.209	800.000	-0.087	-0.317
-399.194	-0.653	-0.144	0.102
-398.179	-200.000	0.002	-0.138
-397.165	79.083	-0.196	0.211
-396.150	-200.000	0.002	0.114
-395.136	-25.606	0.100	0.059
-394.121	75.000	-0.125	0.132
-393.106	-194.349	-0.497	0.004
-392.092	326.784	0.121	-0.232
-391.077	270.500	-0.028	-0.050
-390.063	-109.556	0.366	-0.078
-389.048	-86.104	0.230	-0.071
-388.033	-74.576	-0.166	0.060
-387.019	254.182	0.223	-0.382
-386.004	-156.278	0.049	-0.003
-384.990	800.000	0.015	0.050
-383.975	-184.830	0.017	-0.000
-382.960	72.594	0.077	0.080
-381.946	-20.000	0.172	0.106
-380.931	496.129	-0.049	0.112
-379.917	800.000	-0.017	0.075
-378.902	800.000	-0.050	0.141
-377.888	182.727	-0.181	0.268
-376.873	-7.888	0.099	-0.067
-375.858	-32.930	-0.030	0.017
-374.844	-62.668	0.188	-0.078
-373.829	244.552	-0.089	0.150
-372.815	156.030	0.057	0.078
-371.800	4.991	-0.033	0.025
-370.785	-200.000	-0.027	-0.277
-369.771	279.940	0.168	-0.301
-368.756	-18.153	-0.121	-0.076
-367.742	-200.000	0.005	-0.251
-366.727	800.000	0.131	0.395
-365.712	205.161	-0.065	-0.102
-364.698	-18.126	0.090	0.056
-363.683	-71.276	0.284	-0.107
-362.669	230.037	-0.095	-0.155
-361.654	-155.675	0.217	0.014
-360.639	-110.985	-0.067	0.014
-359.625	75.129	-0.034	-0.035
-358.610	238.964	-0.169	-0.281
-357.596	-11.032	-0.137	-0.091
-356.581	-8.615	0.125	-0.084
-355.566	-90.192	-0.111	0.032
-354.552	62.451	0.187	-0.187
-353.537	-138.530	0.159	0.018
-352.523	-89.719	-0.286	-0.084
-351.508	162.746	0.076	-0.106
-350.493	326.400	0.070	-0.135
-349.479	-111.409	0.223	-0.046
-348.464	177.573	0.027	0.040
-347.450	-200.000	-0.003	0.123
-346.435	19.781	0.123	0.099
-345.420	-116.907	-0.309	0.057
-344.406	-200.000	-0.014	-0.133
-343.391	-200.000	0.006	0.162
-342.377	57.304	0.073	0.072
-341.362	-52.469	0.025	0.012
-340.348	-159.786	-0.353	0.019
-339.333	-170.530	0.303	0.011
-338.318	-117.602	-0.383	-0.069
-337.304	622.860	-0.158	-0.398
-336.289	-106.160	-0.129	-0.029
-335.275	-200.000	-0.042	0.315
-334.260	246.204	-0.099	-0.168
-333.245	-59.848	-0.029	-0.013
-332.231	578.371	0.104	0.255
-331.216	-110.028	0.334	0.070
-330.202	-37.769	0.126	-0.067
-329.187	29.267	-0.165	-0.140
-328.172	33.276	-0.114	0.099
-327.158	-5.904	-0.177	-0.121
-326.143	-29.472	0.038	0.022
-325.129	-118.448	0.348	0.062
-324.114	-200.000	-0.004	0.026
-323.099	354.971	-0.155	0.307
-322.085	250.029	-0.076	0.130
-321.070	-63.922	0.033	-0.013
-320.056	-159.561	-0.275	0.015
-319.041	-53.312	0.214	0.098
-318.026	-71.522	-0.229	-0.086
-317.012	-200.000	-0.010	-0.116
-315.997	-91.092	-0.081	-0.023
-314.983	-69.480	-0.075	-0.029
-313.968	636.678	-0.099	0.251
-312.953	-46.150	-0.183	0.090
-311.939	-200.000	-0.024	0.285
-310.924	-25.692	-0.159	0.094
-309.910	-98.012	0.034	-0.009
-308.895	-0.343	0.072	0.051
-307.880	-65.137	-0.200	-0.080
-306.866	454.808	0.086	0.190
-305.851	-200.000	-0.001	0.194
-304.837	224.708	-0.177	-0.286
-303.822	168.484	0.229	-0.327
-302.807	33.572	0.070	-0.061
-301.793	85.583	-0.127	-0.140
-300.778	-21.356	-0.260	-0.159
-299.764	296.228	0.067	0.122
-298.749	62.795	-0.051	0.051
-297.735	-70.872	0.278	0.105
-296.720	800.000	-0.094	0.281
-295.705	78.757	-0.156	-0.167
-294.691	-120.271	-0.196	-0.033
-293.676	-16.374	0.367	0.232
-292.662	-8.720	0.276	-0.185
-291.647	14.245	-0.173	0.135
-290.632	800.000	0.142	-0.460
-289.618	133.102	0.200	0.257
-288.603	800.000	0.018	0.067
-287.589	-145.442	0.170	-0.015
-286.574	-200.000	0.081	0.434
-285.559	42.847	-0.286	0.261
-284.545	-200.000	-0.017	0.182
-283.530	800.000	0.133	-0.390
-282.516	-70.283	0.098	-0.037
-281.501	-54.058	0.147	0.067
-280.486	-120.832	0.185	-0.031
-279.472	88.768	-0.113	-0.126
-278.457	-40.893	-0.316	-0.163
-277.443	33.173	-0.272	-0.235
-276.428	220.030	0.086	0.138
-275.413	-200.000	-0.048	0.382
-274.399	-200.000	-0.039	0.213
-273.384	-47.593	-0.210	0.102
-272.370	-75.408	0.170	-0.060
-271.355	793.623	-0.078	-0.215
-270.340	261.780	-0.101	0.175
-269.326	32.342	0.069	0.059
-268.311	47.419	0.076	-0.071
-267.297	800.000	0.099	-0.278
-266.282	-19.175	0.295	-0.183
-265.267	46.742	0.131	0.121
-264.253	286.524	0.128	-0.231
-263.238	156.402	0.230	-0.317
-262.224	651.599	0.070	0.179
-261.209	683.123	0.058	-0.150
-260.195	-150.417	-0.339	0.026
-259.180	32.853	0.048	0.042
-258.165	-127.964	0.142	0.020
-257.151	-49.978	-0.202	0.096
-256.136	800.000	-0.108	-0.424
-255.122	-65.602	-0.100	0.040
-254.107	51.522	0.134	-0.127
-253.092	1.901	0.216	0.156
-252.078	21.144	-0.160	0.129
-251.063	-74.186	0.135	-0.049
-250.049	340.163	-0.068	-0.131
-249.034	-200.000	-0.023	-0.112
-248.019	102.395	-0.287	0.335
-247.005	-91.276	-0.343	0.098
-245.990	14.678	0.308	-0.240
-244.976	-83.704	0.461	0.147
-243.961	-177.328	-0.073	0.002
-242.946	230.398	-0.149	0.244
-241.932	-146.561	0.128	-0.011
-240.917	250.527	0.079	0.133
-239.903	-92.960	-0.071	-0.020
-238.888	-137.635	-0.324	0.036
-237.873	-100.218	-0.131	0.032
-236.859	-50.924	0.107	-0.050
-235.844	424.385	-0.073	-0.157
-234.830	-116.408	-0.053	-0.010
-233.815	800.000	-0.044	-0.124
-232.800	527.117	0.063	-0.149
-231.786	175.480	0.150	-0.217
-230.771	-48.551	-0.235	0.112
-229.757	-41.086	0.253	-0.130
-228.742	-94.526	-0.054	0.015
-227.727	-14.194	0.263	0.169
-226.713	55.305	0.162	-0.156
-225.698	-103.384	0.256	0.060
-224.684	748.081	-0.034	0.092
-223.669	-28.359	-0.259	-0.149
-222.655	-25.490	-0.118	0.069
-221.640	-63.554	0.299	-0.122
-220.625	800.000	-0.084	-0.255
-219.611	-108.016	0.407	0.088
-218.596	305.549	-0.101	-0.187
-217.582	-200.000	0.042	-0.216
-216.567	5.755	0.158	-0.116
-215.552	366.336	-0.045	0.090
-214.538	388.075	-0.093	0.192
-213.523	-37.288	0.039	-0.021
-212.509	-131.310	0.285	-0.038
-211.494	135.594	-0.276	0.358
-210.479	8.158	-0.100	0.074
-209.465	-139.640	0.150	0.016
-208.450	-75.510	0.216	0.077
-207.436	407.264	-0.022	0.047
-206.421	-143.781	-0.148	0.014
-205.406	-96.847	-0.214	0.056
-204.392	-120.430	0.277	0.047
-203.377	-64.624	0.183	-0.074
-202.363	-48.735	0.181	-0.086
-201.348	123.912	-0.159	0.199
-200.333	464.744	-0.049	0.109
-199.319	-84.348	0.135	-0.042
-198.304	-140.423	0.340	0.035
-197.290	-122.747	0.115	-0.019
-196.275	-200.000	-0.005	-0.103
-195.260	-200.000	-0.005	-0.122
-194.246	249.810	-0.036	-0.061
-193.231	-5.016	-0.184	-0.126
-192.217	-24.971	-0.246	-0.145
-191.202	-69.150	-0.092	0.035
-190.187	-32.470	0.233	-0.129
-189.173	-22.440	0.112	-0.068
-188.158	126.365	0.189	-0.238
-187.144	-142.197	0.135	-0.013
-186.129	800.000	0.083	0.234
-185.114	340.956	-0.150	-0.291
-184.100	-85.389	0.358	-0.111
-183.085	-200.000	0.007	-0.059
-182.071	-200.000	-0.031	-0.136
-181.056	645.681	-0.038	-0.097
-180.042	-58.096	-0.137	-0.060
-179.027	-100.869	0.159	0.039
-178.012	723.324	0.145	-0.385
-176.998	44.074	0.156	0.142
-175.983	-42.325	0.363	0.184
-174.969	-200.000	0.009	-0.433
-173.954	183.119	-0.111	-0.162
-172.939	800.000	0.102	0.348
-171.925	-200.000	-0.001	-0.193
-170.910	-150.148	0.040	-0.003
-169.896	707.317	0.046	0.120
-168.881	174.142	0.175	0.252
-167.866	-33.604	0.058	-0.032
-166.852	228.347	-0.141	0.229
-165.837	-131.344	0.203	0.027
-164.823	-22.053	0.390	0.235
-163.808	181.871	-0.028	-0.041
-162.793	49.790	0.181	-0.169
-161.779	-200.000	0.040	0.272
-160.764	-127.208	-0.076	-0.011
-159.750	141.386	-0.177	0.233
-158.735	405.757	-0.103	-0.217
-157.720	-200.000	-0.010	-0.221
-156.706	-136.543	0.094	-0.011
-155.691	132.561	0.112	-0.143
-154.677	769.457	-0.013	0.036
-153.662	-83.903	-0.198	0.063
-152.647	-200.000	-0.017	-0.227
-151.633	150.621	-0.102	0.138
-150.618	3.867	0.075	0.054
-149.604	372.115	0.044	0.089
-148.589	-115.662	-0.559	0.104
-147.574	-200.000	0.000	-0.135
-146.560	-93.422	0.294	-0.081
-145.545	-161.908	-0.020	-0.001
-144.531	800.000	-0.083	-0.293
-143.516	800.000	0.045	-0.168
-142.502	735.210	-0.125	0.332
-141.487	800.000	0.075	-0.243
-140.472	11.010	-0.270	-0.205
-139.458	-10.069	0.323	-0.213
-138.443	55.164	-0.086	-0.083
-137.429	101.328	-0.143	-0.166
-136.414	-34.075	0.294	-0.160
-135.399	363.215	-0.113	0.226
-134.385	-200.000	0.042	-0.411
-133.370	152.914	0.143	0.194
-132.356	-19.537	0.158	0.097
-131.341	-200.000	-0.401	0.002
-130.326	-70.194	-0.068	0.026
-129.312	220.149	0.145	-0.231
-128.297	-200.000	-0.016	0.121
-127.283	-147.783	0.096	-0.008
-126.268	-135.568	0.234	0.028
-125.253	-24.312	-0.163	0.097
-124.239	-155.903	-0.414	0.026
-123.224	-74.716	-0.237	-0.085
-122.210	74.847	0.170	0.177
-121.195	257.710	-0.080	0.136
