DTS Sentinel unit serial number:	SN413079Multiplexer serial number:	ORYXHardware model number:	OX4-SRSoftware version number:	ORYX F/W v4.00 Oryx Data Collector v3.7.2.0data status	okinstallation	princeton_trtdifferential loss correction	single-endedforward channel	channel 4reverse channel	N/Adate	2019/09/11time	12:51:11forward acquisition time	60.00reverse acquisition time	0.00gamma	496.2192k internal	0.2284k external	0.2284temperature offset calibration	0.9966default loss term (dB/km)	0.3790temperature slope calibration	1.0000multiplexer offset coefficient	1.0000multiplexer slope coefficient	1.0000fibre end	0.00T internal ref (°C)	41.25T ext. ref 1 (°C)	0.25T ext. ref 2 (°C)	38.61length (m)	temperature (°C)	Stokes	anti-Stokes-747.200	800.000	0.127	-0.485
-746.185	800.000	0.081	-0.233
-745.171	-200.000	0.013	-0.206
-744.156	-156.323	-0.096	0.006
-743.142	122.065	0.073	0.094
-742.127	77.747	0.256	0.280
-741.112	-136.735	-0.455	-0.054
-740.098	-48.158	0.067	0.033
-739.083	-140.330	0.371	-0.040
-738.069	102.004	-0.178	0.213
-737.054	-1.726	0.187	-0.135
-736.039	45.254	-0.307	-0.290
-735.025	-70.893	0.186	-0.072
-734.010	17.924	0.374	-0.306
-732.996	-84.087	-0.193	-0.063
-731.981	481.956	0.066	-0.154
-730.966	-0.969	-0.152	-0.110
-729.952	99.307	-0.038	-0.045
-728.937	50.176	-0.205	-0.199
-727.923	257.962	-0.068	0.120
-726.908	1.629	-0.213	0.158
-725.894	-13.972	-0.276	0.183
-724.879	-143.966	-0.067	-0.006
-723.864	800.000	0.052	-0.213
-722.850	800.000	0.012	0.039
-721.835	-197.170	-0.352	0.002
-720.821	354.957	-0.180	-0.368
-719.806	312.109	-0.039	0.076
-718.791	-15.982	-0.298	-0.194
-717.777	62.929	0.216	-0.222
-716.762	-64.702	-0.229	-0.095
-715.748	3.587	-0.172	-0.129
-714.733	-200.000	0.013	0.119
-713.718	487.168	-0.251	0.589
-712.704	-153.178	-0.189	-0.014
-711.689	-150.641	-0.228	-0.018
-710.675	28.417	0.123	0.106
-709.660	354.928	-0.086	-0.175
-708.645	800.000	0.067	-0.202
-707.631	-19.534	0.232	-0.147
-706.616	-200.000	0.061	-0.281
-705.602	-200.000	-0.023	0.160
-704.587	121.105	0.099	-0.126
-703.572	-200.000	0.036	-0.223
-702.558	800.000	-0.014	0.062
-701.543	328.664	0.036	-0.072
-700.529	-108.760	0.115	-0.025
-699.514	144.441	0.077	0.106
-698.499	95.338	-0.177	0.207
-697.485	614.891	-0.200	0.514
-696.470	52.885	-0.300	-0.295
-695.456	87.552	0.216	-0.245
-694.441	800.000	0.060	-0.236
-693.426	-80.262	0.200	0.069
-692.412	62.943	-0.119	0.123
-691.397	256.642	-0.224	-0.394
-690.383	612.680	-0.057	-0.147
-689.368	-137.014	0.179	0.021
-688.354	-4.981	-0.221	-0.156
-687.339	-101.632	0.196	-0.049
-686.324	-200.000	-0.001	-0.076
-685.310	-200.000	-0.039	0.237
-684.295	-200.000	-0.016	-0.120
-683.281	800.000	-0.043	-0.131
-682.266	800.000	0.096	0.423
-681.251	-75.287	-0.305	0.111
-680.237	-105.742	-0.169	-0.039
-679.222	211.293	0.049	0.079
-678.208	-67.677	-0.262	0.105
-677.193	148.789	-0.251	-0.348
-676.178	-200.000	-0.099	0.000
-675.164	-17.548	-0.293	0.189
-674.149	-50.040	0.310	0.151
-673.135	-200.000	0.008	-0.263
-672.120	87.276	0.097	-0.110
-671.105	199.600	-0.201	-0.316
-670.091	161.809	0.221	-0.317
-669.076	83.698	-0.085	-0.095
-668.062	-200.000	-0.051	-0.312
-667.047	800.000	0.095	-0.369
-666.032	280.098	0.109	-0.200
-665.018	7.363	-0.229	-0.175
-664.003	-200.000	0.007	-0.106
-662.989	183.822	0.083	0.126
-661.974	-12.478	0.189	0.127
-660.959	-77.833	0.163	0.058
-659.945	7.418	0.072	0.055
-658.930	800.000	0.014	0.048
-657.916	-51.582	0.142	0.068
-656.901	-200.000	-0.009	-0.174
-655.886	-67.561	0.271	0.109
-654.872	-189.856	-0.352	0.004
-653.857	-113.345	-0.167	0.034
-652.843	197.939	-0.172	0.268
-651.828	232.082	-0.081	0.137
-650.814	-100.214	0.238	0.061
-649.799	71.296	0.108	0.115
-648.784	28.998	-0.026	0.023
-647.770	11.554	-0.140	-0.110
-646.755	-15.125	0.470	0.308
-645.741	-68.088	0.075	0.030
-644.726	-200.000	-0.013	-0.078
-643.711	-200.000	-0.072	0.357
-642.697	49.354	-0.116	0.112
-641.682	476.963	0.220	-0.509
-640.668	354.475	-0.198	0.402
-639.653	-200.000	-0.018	0.258
-638.638	58.863	-0.118	0.118
-637.624	-143.965	-0.281	-0.027
-636.609	-95.421	-0.147	0.040
-635.595	-121.656	0.279	0.047
-634.580	-0.154	-0.035	-0.025
-633.565	348.835	0.065	-0.130
-632.551	22.782	-0.054	0.045
-631.536	-141.060	-0.232	-0.024
-630.522	-200.000	-0.046	-0.222
-629.507	-200.000	0.008	-0.167
-628.492	720.973	-0.043	0.118
-627.478	800.000	0.106	0.396
-626.463	262.016	0.015	0.027
-625.449	83.357	-0.080	-0.090
-624.434	169.678	0.183	0.267
-623.419	-119.532	-0.287	-0.051
-622.405	126.401	0.068	0.089
-621.390	-30.225	0.089	-0.052
-620.376	-102.997	0.372	0.090
-619.361	-57.161	0.303	0.136
-618.346	800.000	-0.052	0.227
-617.332	-92.456	-0.035	-0.010
-616.317	800.000	-0.021	0.089
-615.303	-16.634	-0.214	0.139
-614.288	379.031	-0.204	0.427
-613.273	-153.562	0.210	0.015
-612.259	-84.393	-0.282	0.091
-611.244	800.000	0.073	-0.288
-610.230	-200.000	-0.024	0.324
-609.215	-200.000	-0.024	0.169
-608.201	-30.794	-0.217	0.125
-607.186	436.737	0.078	0.174
-606.171	456.117	-0.123	-0.278
-605.157	-34.010	0.131	0.073
-604.142	-200.000	0.000	0.067
-603.128	287.982	-0.121	0.224
-602.113	-200.000	-0.016	0.158
-601.098	205.657	0.135	-0.214
-600.084	190.036	-0.059	-0.090
-599.069	-200.000	0.013	-0.085
-598.055	-200.000	0.029	-0.320
-597.040	800.000	0.127	-0.502
-596.025	-61.227	-0.100	0.043
-595.011	-198.405	0.451	-0.003
-593.996	116.329	-0.137	0.171
-592.982	7.755	-0.149	0.114
-591.967	-150.536	-0.399	-0.031
-590.952	800.000	-0.106	0.317
-589.938	-8.631	-0.078	0.053
-588.923	23.625	-0.065	-0.055
-587.909	164.062	-0.166	-0.238
-586.894	106.798	0.035	0.043
-585.879	-75.199	0.502	0.183
-584.865	-87.157	-0.242	-0.075
-583.850	-55.642	-0.086	0.039
-582.836	800.000	-0.070	0.240
-581.821	-194.070	-0.183	-0.002
-580.806	49.295	0.246	0.236
-579.792	142.363	-0.202	-0.273
-578.777	62.627	-0.037	0.038
-577.763	519.538	-0.147	-0.351
-576.748	-98.094	-0.130	0.034
-575.733	32.138	0.185	-0.163
-574.719	-200.000	0.025	0.198
-573.704	50.100	-0.188	0.181
-572.690	-81.812	-0.393	0.131
-571.675	478.028	-0.188	0.434
-570.661	-189.157	-0.124	0.002
-569.646	51.251	-0.129	0.125
-568.631	100.857	-0.182	0.216
-567.617	-99.835	0.324	0.083
-566.602	-33.451	0.147	-0.083
-565.588	-42.356	-0.295	0.153
-564.573	280.733	0.150	-0.273
-563.558	-176.909	0.095	0.002
-562.544	-128.563	-0.157	-0.023
-561.529	800.000	-0.052	-0.147
-560.515	-36.732	0.220	0.121
-559.500	800.000	-0.027	0.091
-558.485	77.070	0.125	0.135
-557.471	-200.000	-0.030	-0.371
-556.456	800.000	0.083	-0.251
-555.442	503.879	0.128	-0.302
-554.427	123.837	0.149	0.190
-553.412	-180.233	0.280	-0.006
-552.398	85.435	-0.267	-0.299
-551.383	-20.372	-0.117	-0.073
-550.369	76.373	-0.233	-0.251
-549.354	502.247	-0.034	-0.081
-548.339	800.000	-0.130	-0.544
-547.325	800.000	0.003	0.009
-546.310	789.349	-0.052	-0.146
-545.296	353.431	-0.137	0.278
-544.281	10.304	0.078	0.060
-543.266	77.826	-0.226	0.246
-542.252	-125.106	-0.233	0.036
-541.237	182.001	0.113	0.169
-540.223	-31.543	-0.243	0.139
-539.208	-140.358	-0.271	-0.029
-538.193	-200.000	0.004	-0.570
-537.179	42.038	-0.092	0.085
-536.164	-19.841	-0.116	-0.073
-535.150	480.005	-0.050	-0.116
-534.135	108.097	-0.106	0.128
-533.121	-111.529	-0.301	-0.062
-532.106	486.863	0.047	0.109
-531.091	-103.181	-0.432	-0.104
-530.077	241.535	0.067	-0.113
-529.062	-200.000	-0.051	0.314
-528.048	-200.000	-0.075	-0.358
-527.033	439.908	0.183	0.406
-526.018	-137.485	-0.368	0.042
-525.004	96.086	0.069	0.081
-523.989	206.265	-0.169	-0.268
-522.975	-84.442	0.131	-0.042
-521.960	550.176	-0.078	-0.190
-520.945	147.130	-0.163	-0.224
-519.931	142.475	0.123	0.166
-518.916	48.070	0.146	-0.139
-517.902	-59.484	0.094	0.041
-516.887	464.243	0.077	0.176
-515.872	12.103	0.204	-0.160
-514.858	-70.221	-0.354	-0.137
-513.843	-51.649	-0.296	0.140
-512.829	356.020	-0.106	0.215
-511.814	-111.636	-0.283	0.058
-510.799	-101.920	0.211	-0.052
-509.785	0.813	0.064	0.047
-508.770	-68.080	-0.323	0.128
-507.756	-200.000	-0.035	0.235
-506.741	-200.000	0.059	0.416
-505.726	610.940	0.173	-0.441
-504.712	68.066	0.084	-0.087
-503.697	-200.000	-0.051	0.467
-502.683	800.000	0.056	-0.207
-501.668	765.588	0.098	0.270
-500.653	-44.737	-0.048	0.024
-499.639	153.763	0.055	-0.076
-498.624	-84.672	-0.132	0.042
-497.610	-200.000	0.007	-0.487
-496.595	-200.000	-0.001	-0.222
-495.581	-38.620	0.319	-0.172
-494.566	800.000	-0.113	-0.340
-493.551	-200.000	-0.028	-0.142
-492.537	-157.443	-0.248	0.015
-491.522	-150.564	0.270	-0.021
-490.508	-200.000	-0.055	-0.459
-489.493	99.502	-0.166	-0.195
-488.478	-200.000	-0.000	-0.103
-487.464	-82.599	0.192	0.063
-486.449	-200.000	-0.012	-0.101
-485.435	-116.173	0.164	-0.031
-484.420	-200.000	0.014	0.268
-483.405	-200.000	-0.039	0.238
-482.391	-60.168	-0.339	-0.147
-481.376	-200.000	0.029	-0.310
-480.362	-200.000	0.023	-0.267
-479.347	347.064	0.093	-0.187
-478.332	383.632	-0.071	-0.148
-477.318	-83.338	0.299	0.098
-476.303	-30.823	0.211	0.121
-475.289	-200.000	0.083	0.369
-474.274	-75.982	0.288	0.104
-473.259	-74.206	-0.129	0.047
-472.245	-200.000	-0.028	-0.303
-471.230	-9.026	-0.066	0.045
-470.216	-119.957	-0.255	0.045
-469.201	558.465	0.082	0.202
-468.186	-86.423	-0.229	-0.072
-467.172	317.210	-0.120	0.231
-466.157	-99.244	0.232	-0.059
-465.143	-161.866	-0.156	0.008
-464.128	102.969	-0.068	-0.081
-463.113	-96.018	0.150	-0.041
-462.099	95.790	0.126	-0.146
-461.084	800.000	0.058	-0.185
-460.070	-200.000	0.043	-0.284
-459.055	-69.032	-0.426	-0.167
-458.040	62.493	-0.203	-0.206
-457.026	800.000	0.009	-0.040
-456.011	-108.097	0.249	-0.055
-454.997	137.657	-0.167	0.222
-453.982	-200.000	0.011	-0.095
-452.968	-79.761	0.111	0.038
-451.953	118.765	0.052	-0.065
-450.938	-31.057	-0.010	-0.006
-449.924	-200.000	0.124	-0.000
-448.909	-200.000	0.049	0.254
-447.895	-136.881	0.247	-0.029
-446.880	204.459	0.167	0.263
-445.865	729.686	-0.073	-0.197
-444.851	115.480	-0.197	-0.244
-443.836	303.011	-0.100	-0.188
-442.822	-112.242	-0.047	0.010
-441.807	228.506	0.080	-0.132
-440.792	800.000	-0.040	-0.138
-439.778	-141.168	0.091	0.009
-438.763	-81.778	0.108	-0.036
-437.749	-200.000	-0.057	0.396
-436.734	-96.687	0.342	0.091
-435.719	108.482	-0.133	0.161
-434.705	-34.279	0.130	0.073
-433.690	800.000	0.134	0.424
-432.676	-123.686	-0.368	-0.059
-431.661	-200.000	-0.081	0.536
-430.646	-58.214	0.335	0.148
-429.632	378.003	-0.129	-0.267
-428.617	-200.000	-0.060	-0.354
-427.603	-24.113	-0.142	0.086
-426.588	-46.990	0.218	-0.108
-425.573	529.175	-0.015	0.036
-424.559	-120.536	-0.159	0.027
-423.544	288.681	0.211	0.388
-422.530	62.268	-0.085	0.086
-421.515	-23.653	0.138	-0.084
-420.500	114.084	-0.200	0.246
-419.486	-12.848	0.298	0.197
-418.471	-147.165	-0.212	-0.018
-417.457	25.114	0.096	-0.081
-416.442	800.000	0.153	-0.552
-415.428	-200.000	0.030	-0.221
-414.413	-96.892	-0.374	-0.099
-413.398	800.000	0.113	-0.335
-412.384	62.446	-0.129	0.130
-411.369	-100.596	0.141	-0.035
-410.355	-58.770	0.141	-0.062
-409.340	-103.352	0.228	0.054
-408.325	59.476	0.027	-0.027
-407.311	-62.646	-0.340	-0.143
-406.296	70.309	-0.160	0.167
-405.282	-23.116	-0.339	-0.207
-404.267	-131.356	0.273	0.037
-403.252	591.979	-0.068	0.171
-402.238	-173.435	0.257	0.008
-401.223	31.922	-0.244	-0.213
-400.209	350.597	-0.094	-0.189
-399.194	-50.952	0.169	0.080
-398.179	177.849	0.331	0.490
-397.165	-200.000	-0.027	0.300
-396.150	-200.000	-0.005	-0.047
-395.136	41.839	0.188	0.173
-394.121	502.606	0.137	-0.322
-393.106	5.336	0.289	-0.216
-392.092	210.344	0.204	-0.324
-391.077	56.940	0.155	0.153
-390.063	-200.000	-0.059	0.391
-389.048	-200.000	0.063	-0.341
-388.033	156.049	-0.161	-0.225
-387.019	-200.000	0.030	0.264
-386.004	-28.343	0.204	-0.120
-384.990	-123.629	0.187	-0.030
-383.975	551.963	0.113	0.275
-382.960	355.109	0.111	0.224
-381.946	-5.928	0.114	-0.079
-380.931	656.027	0.074	0.193
-379.917	-131.621	-0.092	-0.012
-378.902	-141.821	-0.155	-0.016
-377.888	208.114	0.017	0.026
-376.873	6.520	0.327	-0.246
-375.858	-96.416	-0.283	0.076
-374.844	59.609	0.140	0.139
-373.829	800.000	-0.040	0.172
-372.815	-32.599	-0.209	0.118
-371.800	-63.910	0.207	0.086
-370.785	-61.069	0.103	-0.044
-369.771	347.896	-0.057	0.114
-368.756	-81.096	-0.219	0.073
-367.742	738.418	-0.078	-0.211
-366.727	210.377	0.028	-0.044
-365.712	-90.089	-0.323	0.095
-364.698	28.674	0.280	0.240
-363.683	-169.538	-0.217	0.008
-362.669	5.494	-0.132	0.098
-361.654	-200.000	-0.065	0.540
-360.639	-152.151	0.312	0.023
-359.625	271.154	0.046	-0.082
-358.610	-35.311	0.042	0.023
-357.596	-114.273	-0.096	-0.019
-356.581	-34.516	-0.179	-0.099
-355.566	800.000	-0.062	-0.229
-354.552	-200.000	-0.013	0.135
-353.537	-178.010	0.245	-0.006
-352.523	-19.417	0.092	0.058
-351.508	259.566	-0.134	0.234
-350.493	-69.160	-0.223	-0.087
-349.479	73.537	-0.200	-0.211
-348.464	304.653	-0.121	-0.227
-347.450	-152.728	0.222	-0.016
-346.435	-17.472	0.236	0.150
-345.420	69.712	-0.105	0.110
-344.406	-167.982	0.174	-0.007
-343.391	-109.688	-0.262	0.056
-342.377	-107.916	-0.299	0.066
-341.362	534.210	-0.043	-0.102
-340.348	-94.922	0.285	-0.078
-339.333	-153.598	-0.206	0.014
-338.318	-200.000	-0.019	0.118
-337.304	-200.000	-0.069	0.345
-336.289	-95.702	-0.259	0.070
-335.275	-39.730	0.211	0.111
-334.260	135.707	-0.240	-0.316
-333.245	165.676	-0.205	0.293
-332.231	-0.390	-0.061	-0.044
-331.216	-198.209	0.247	-0.001
-330.202	-200.000	-0.063	0.347
-329.187	531.956	-0.042	0.101
-328.172	144.815	0.110	0.149
-327.158	547.278	-0.065	-0.157
-326.143	206.826	-0.125	0.196
-325.129	-73.302	-0.157	0.058
-324.114	800.000	-0.078	-0.285
-323.099	363.642	0.011	0.022
-322.085	-200.000	0.008	-0.314
-321.070	-82.260	-0.301	-0.099
-320.056	-200.000	-0.032	0.256
-319.041	676.961	-0.063	-0.165
-318.026	-59.895	0.191	-0.082
-317.012	102.302	-0.162	0.191
-315.997	68.967	0.214	-0.222
-314.983	408.009	-0.017	0.037
-313.968	-200.000	-0.005	-0.084
-312.953	-54.843	-0.145	-0.066
-311.939	-44.109	-0.196	-0.099
-310.924	-200.000	0.036	0.205
-309.910	-6.230	-0.105	0.072
-308.895	36.664	-0.137	-0.123
-307.880	-71.744	0.368	0.139
-306.866	-200.000	-0.040	0.000
-305.851	-71.504	0.163	-0.062
-304.837	800.000	-0.042	0.165
-303.822	83.661	0.218	0.240
-302.807	-69.467	-0.289	0.112
-301.793	-171.545	-0.219	0.007
-300.778	273.417	-0.283	-0.505
-299.764	-91.103	0.128	-0.037
-298.749	800.000	-0.071	-0.251
-297.735	550.988	0.108	0.262
-296.720	800.000	-0.050	-0.156
-295.705	-138.537	-0.224	-0.025
-294.691	-104.791	0.114	0.027
-293.676	800.000	0.079	0.222
-292.662	-200.000	-0.005	0.053
-291.647	307.930	-0.221	-0.415
-290.632	-200.000	-0.042	0.253
-289.618	-19.823	-0.461	-0.287
-288.603	-141.408	0.323	0.033
-287.589	149.144	0.083	-0.113
-286.574	317.550	-0.107	0.204
-285.559	-146.516	0.287	-0.025
-284.545	-200.000	0.023	-0.124
-283.530	-60.139	-0.168	0.072
-282.516	202.883	0.047	0.074
-281.501	-23.728	-0.486	-0.294
-280.486	-200.000	-0.000	-0.278
-279.472	-58.980	0.224	0.098
-278.457	-95.752	0.265	0.071
-277.443	-42.161	-0.074	-0.038
-276.428	-136.038	-0.214	-0.025
-275.413	-200.000	-0.007	-0.148
-274.399	-126.460	0.165	-0.025
-273.384	783.785	0.078	0.214
-272.370	-96.213	0.114	0.030
-271.355	-68.554	0.302	-0.118
-270.340	800.000	-0.105	-0.343
-269.326	25.577	0.290	-0.243
-268.311	3.255	0.201	0.148
-267.297	152.392	0.213	-0.294
-266.282	-13.679	-0.198	-0.129
-265.267	-200.000	-0.054	0.284
-264.253	79.471	-0.208	0.224
-263.238	64.167	-0.105	-0.106
-262.224	234.978	0.143	0.238
-261.209	132.845	-0.020	-0.026
-260.195	331.907	0.034	0.067
-259.180	-157.853	0.391	-0.023
-258.165	789.556	-0.030	-0.082
-257.151	78.161	0.331	0.356
-256.136	-8.307	0.045	0.031
-255.122	532.441	0.100	0.238
-254.107	-200.000	-0.016	0.163
-253.092	411.263	-0.075	0.161
-252.078	68.541	-0.103	0.106
-251.063	12.211	0.233	-0.181
-250.049	525.011	-0.007	0.016
-249.034	8.314	0.255	-0.193
-248.019	20.704	-0.310	-0.253
-247.005	-19.529	-0.219	-0.136
-245.990	-66.042	0.147	-0.059
-244.976	-90.753	0.113	-0.033
-243.961	-200.000	-0.002	0.160
-242.946	280.869	0.054	0.097
-241.932	-35.384	0.257	-0.141
-240.917	-200.000	0.048	-0.374
-239.903	-24.300	-0.170	0.102
-238.888	-77.041	-0.410	-0.144
-237.873	151.395	-0.096	-0.131
-236.859	-84.679	-0.387	-0.123
-235.844	-47.270	-0.368	-0.180
-234.830	-200.000	0.001	0.081
-233.815	185.680	-0.084	-0.126
-232.800	-200.000	0.017	-0.228
-231.786	-200.000	0.018	0.330
-230.771	11.553	0.206	0.159
-229.757	-123.820	0.287	0.046
-228.742	-174.115	-0.265	0.008
-227.727	5.175	-0.253	0.188
-226.713	-200.000	0.030	-0.226
-225.698	716.956	0.099	-0.266
-224.684	-170.490	-0.100	0.003
-223.669	0.088	0.021	-0.015
-222.655	27.151	0.083	0.070
-221.640	-37.799	0.095	-0.051
-220.625	174.833	-0.250	0.364
-219.611	-6.832	-0.235	-0.161
-218.596	133.142	-0.062	0.081
-217.582	-27.454	0.243	0.142
-216.567	367.984	0.114	-0.232
-215.552	-29.926	0.326	-0.187
-214.538	-92.880	-0.161	0.045
-213.523	-3.833	0.057	0.040
-212.509	-24.968	0.182	0.109
-211.494	143.056	0.059	0.079
-210.479	8.390	-0.076	-0.057
-209.465	-137.893	0.154	0.017
-208.450	378.455	-0.059	-0.121
-207.436	50.940	-0.079	0.075
-206.421	113.388	0.245	-0.299
-205.406	-1.052	0.177	0.126
-204.392	-122.005	0.226	0.037
-203.377	800.000	-0.051	-0.156
-202.363	440.042	0.091	-0.201
-201.348	-156.364	0.275	-0.017
-200.333	-162.654	-0.239	0.012
-199.319	800.000	0.115	0.360
-198.304	-200.000	-0.013	0.347
-197.290	-146.137	0.174	0.015
-196.275	337.633	-0.056	-0.109
-195.260	800.000	-0.123	0.346
-194.246	-159.876	-0.227	0.013
-193.231	-107.267	0.153	-0.034
-192.217	-149.669	0.143	-0.011
-191.202	87.206	0.151	-0.168
-190.187	-200.000	0.048	0.473
-189.173	161.337	-0.151	-0.212
-188.158	217.137	0.125	-0.200
-187.144	649.905	-0.111	0.286
-186.129	-48.966	-0.209	-0.101
-185.114	800.000	-0.027	-0.092
-184.100	800.000	-0.146	-0.442
-183.085	167.270	-0.081	-0.115
-182.071	800.000	0.036	-0.150
-181.056	-2.578	0.190	0.134
-180.042	800.000	0.082	-0.300
-179.027	-186.519	0.319	-0.005
-178.012	123.706	0.215	0.271
-176.998	77.728	0.015	-0.016
-175.983	-124.388	0.278	0.043
-174.969	220.977	-0.179	-0.289
-173.954	3.345	-0.158	0.116
-172.939	-39.672	0.319	-0.167
-171.925	-200.000	-0.032	-0.163
-170.910	393.578	0.055	-0.116
-169.896	559.685	-0.050	-0.120
-168.881	-59.898	0.503	0.216
-167.866	215.917	0.187	-0.299
-166.852	-85.915	0.245	0.076
-165.837	209.074	0.150	0.236
-164.823	-105.520	0.162	-0.037
-163.808	-3.967	0.133	0.093
-162.793	12.148	0.205	-0.159
-161.779	-192.640	0.295	-0.003
-160.764	-200.000	0.007	0.206
-159.750	53.815	0.343	0.331
-158.735	89.441	0.147	-0.165
-157.720	167.178	0.136	0.194
-156.706	21.060	0.141	-0.114
-155.691	-200.000	0.037	-0.198
-154.677	-200.000	0.059	0.390
-153.662	30.632	-0.119	-0.102
-152.647	-25.143	-0.415	-0.247
-151.633	-85.251	0.254	-0.080
-150.618	0.595	-0.229	-0.165
-149.604	16.520	0.351	0.278
-148.589	-95.028	0.023	-0.006
-147.574	3.607	0.076	-0.056
-146.560	-133.559	0.248	0.031
-145.545	-81.595	0.307	-0.101
-144.531	800.000	0.040	0.114
-143.516	-200.000	-0.002	0.132
-142.502	-32.982	0.118	0.066
-141.487	156.824	0.146	0.202
-140.472	-40.855	0.144	0.075
-139.458	-200.000	-0.000	-0.140
-138.443	-129.483	-0.060	0.008
-137.429	28.477	-0.238	-0.202
-136.414	129.064	0.171	0.218
-135.399	-122.885	0.107	0.017
-134.385	-155.230	-0.127	0.008
-133.370	-200.000	0.002	0.047
-132.356	-200.000	-0.005	0.151
-131.341	700.652	-0.086	0.226
-130.326	54.215	-0.022	-0.021
-129.312	39.301	-0.169	-0.152
-128.297	141.351	0.091	-0.121
-127.283	-200.000	-0.012	0.103
-126.268	16.351	0.078	-0.062
-125.253	-200.000	-0.001	-0.062
-124.239	800.000	0.103	-0.305
-123.224	-51.069	0.120	-0.056
-122.210	-48.875	0.110	0.053
-121.195	-200.000	0.032	0.253
