DTS Sentinel unit serial number:	SN413079Multiplexer serial number:	ORYXHardware model number:	OX4-SRSoftware version number:	ORYX F/W v4.00 Oryx Data Collector v3.7.2.0data status	okinstallation	princeton_trtdifferential loss correction	single-endedforward channel	channel 4reverse channel	N/Adate	2019/09/11time	02:31:10forward acquisition time	60.00reverse acquisition time	0.00gamma	496.2192k internal	0.2317k external	0.2317temperature offset calibration	0.9946default loss term (dB/km)	0.3790temperature slope calibration	1.0000multiplexer offset coefficient	1.0000multiplexer slope coefficient	1.0000fibre end	0.00T internal ref (°C)	29.25T ext. ref 1 (°C)	-0.29T ext. ref 2 (°C)	23.48length (m)	temperature (°C)	Stokes	anti-Stokes-747.200	339.173	0.066	0.129
-746.185	-134.986	0.162	0.020
-745.171	498.201	-0.084	0.196
-744.156	800.000	-0.067	0.255
-743.142	482.618	-0.091	0.209
-742.127	126.920	-0.171	0.220
-741.112	-99.943	0.405	0.102
-740.098	-200.000	0.001	0.211
-739.083	-200.000	0.006	-0.144
-738.069	434.278	-0.082	0.179
-737.054	352.469	0.079	-0.158
-736.039	-63.080	-0.281	0.117
-735.025	-14.112	0.091	0.060
-734.010	-22.004	-0.036	-0.022
-732.996	-200.000	0.014	-0.354
-731.981	451.769	0.054	-0.121
-730.966	-200.000	-0.066	-0.438
-729.952	58.813	0.099	0.098
-728.937	7.894	0.242	0.183
-727.923	259.821	-0.095	0.165
-726.908	32.551	-0.150	0.132
-725.894	50.456	-0.225	0.215
-724.879	-164.946	-0.370	-0.017
-723.864	800.000	-0.102	0.400
-722.850	-200.000	0.017	0.242
-721.835	-55.208	-0.070	-0.032
-720.821	-46.144	-0.311	-0.155
-719.806	-18.677	-0.193	-0.121
-718.791	9.245	-0.409	-0.313
-717.777	-147.577	-0.164	-0.014
-716.762	-3.915	0.080	-0.056
-715.748	140.574	0.131	0.175
-714.733	-83.156	0.293	-0.095
-713.718	-12.850	0.120	0.079
-712.704	366.964	0.111	-0.226
-711.689	-200.000	-0.035	-0.495
-710.675	-88.333	-0.301	-0.091
-709.660	-68.496	-0.182	0.071
-708.645	-3.496	-0.143	-0.101
-707.631	800.000	-0.065	0.207
-706.616	-14.976	-0.171	-0.111
-705.602	-55.961	-0.169	-0.076
-704.587	373.185	-0.167	-0.343
-703.572	251.366	-0.179	0.308
-702.558	147.608	-0.111	-0.152
-701.543	10.373	-0.084	0.065
-700.529	686.358	0.068	-0.179
-699.514	-115.178	0.187	0.036
-698.499	-23.433	-0.552	-0.335
-697.485	-0.267	0.021	-0.015
-696.470	-200.000	-0.033	-0.485
-695.456	442.119	-0.091	-0.201
-694.441	-106.629	0.203	-0.046
-693.426	74.423	-0.142	0.150
-692.412	-12.581	0.089	-0.058
-691.397	113.933	0.119	-0.147
-690.383	80.365	0.111	-0.121
-689.368	-200.000	0.012	-0.137
-688.354	288.607	-0.086	-0.158
-687.339	171.567	-0.072	0.104
-686.324	-61.904	-0.070	0.030
-685.310	172.878	-0.087	0.127
-684.295	241.611	0.165	0.278
-683.281	-9.155	-0.084	0.056
-682.266	743.428	0.052	-0.140
-681.251	34.864	0.116	0.102
-680.237	41.346	-0.087	-0.080
-679.222	155.138	-0.147	-0.205
-678.208	-200.000	0.009	0.170
-677.193	170.701	0.063	-0.091
-676.178	-200.000	-0.015	-0.145
-675.164	-127.125	-0.134	-0.020
-674.149	-58.769	-0.416	-0.182
-673.135	-200.000	0.010	-0.112
-672.120	42.695	-0.235	-0.216
-671.105	800.000	-0.064	0.217
-670.091	-196.144	-0.225	-0.002
-669.076	-36.723	0.074	-0.040
-668.062	194.314	-0.094	-0.144
-667.047	-92.411	-0.241	-0.068
-666.032	564.871	-0.181	-0.442
-665.018	-188.277	0.213	-0.003
-664.003	-147.028	0.279	-0.024
-662.989	10.986	0.183	-0.141
-661.974	96.622	-0.298	-0.345
-660.959	800.000	0.037	-0.102
-659.945	52.898	-0.225	-0.218
-658.930	-103.240	0.257	-0.061
-657.916	110.240	-0.157	0.191
-656.901	436.211	0.043	0.094
-655.886	-84.427	0.229	-0.073
-654.872	-110.710	-0.248	0.052
-653.857	-58.291	0.137	-0.060
-652.843	-200.000	-0.054	0.332
-651.828	-53.809	0.321	0.148
-650.814	121.937	0.126	0.159
-649.799	-72.498	-0.223	-0.083
-648.784	-55.505	-0.308	0.139
-647.770	800.000	-0.080	-0.230
-646.755	-200.000	-0.060	0.309
-645.741	5.327	-0.187	-0.139
-644.726	-186.575	0.038	0.001
-643.711	-72.111	-0.254	0.095
-642.697	-136.207	0.331	-0.039
-641.682	800.000	0.098	0.393
-640.668	-49.347	-0.280	0.135
-639.653	-60.249	-0.334	-0.143
-638.638	-78.113	-0.271	-0.094
-637.624	41.223	0.060	0.055
-636.609	22.039	-0.421	-0.346
-635.595	291.606	0.145	-0.266
-634.580	-200.000	0.036	0.255
-633.565	-200.000	-0.038	0.350
-632.551	23.521	-0.296	0.245
-631.536	104.784	-0.214	-0.254
-630.522	-9.624	0.261	-0.175
-629.507	-6.045	0.061	-0.042
-628.492	-189.603	-0.110	0.001
-627.478	269.989	-0.165	0.291
-626.463	330.612	-0.102	-0.199
-625.449	-200.000	0.004	0.083
-624.434	15.705	0.176	-0.139
-623.419	-90.791	-0.167	0.049
-622.405	-67.827	0.286	0.112
-621.390	53.778	-0.055	-0.054
-620.376	416.103	-0.025	-0.054
-619.361	-46.092	0.294	-0.146
-618.346	70.807	0.066	0.069
-617.332	-122.393	-0.374	-0.061
-616.317	53.904	0.101	0.097
-615.303	-70.627	-0.273	-0.104
-614.288	-37.925	0.242	-0.130
-613.273	800.000	0.050	-0.164
-612.259	711.089	-0.129	-0.345
-611.244	-47.776	-0.088	0.043
-610.230	-85.524	-0.413	-0.129
-609.215	309.326	0.085	-0.160
-608.201	26.575	-0.176	0.148
-607.186	-57.076	-0.319	-0.142
-606.171	-200.000	-0.019	-0.091
-605.157	800.000	-0.069	-0.199
-604.142	-200.000	0.106	-0.510
-603.128	-64.073	0.393	0.161
-602.113	384.676	0.110	-0.229
-601.098	130.037	-0.177	-0.228
-600.084	-178.278	-0.260	-0.006
-599.069	800.000	-0.086	-0.288
-598.055	9.802	-0.177	-0.135
-597.040	800.000	0.113	0.376
-596.025	2.588	-0.213	-0.155
-595.011	-80.435	0.074	0.025
-593.996	-74.072	-0.409	0.149
-592.982	-200.000	-0.014	0.090
-591.967	520.691	0.136	-0.320
-590.952	-39.701	0.040	-0.021
-589.938	800.000	0.070	0.285
-588.923	-29.919	0.059	-0.034
-587.909	-43.559	-0.116	-0.059
-586.894	-17.148	0.222	0.141
-585.879	-136.512	-0.210	0.025
-584.865	800.000	-0.017	-0.048
-583.850	158.372	0.055	0.076
-582.836	-56.839	0.154	0.069
-581.821	636.384	0.230	0.587
-580.806	247.941	-0.087	0.148
-579.792	-106.800	-0.202	0.045
-578.777	-85.026	-0.373	-0.117
-577.763	-200.000	0.005	0.028
-576.748	-200.000	-0.019	-0.301
-575.733	42.114	0.225	0.205
-574.719	-78.393	0.241	-0.083
-573.704	-200.000	-0.080	0.394
-572.690	-142.899	0.037	0.004
-571.675	101.726	-0.113	0.132
-570.661	-115.104	-0.267	-0.051
-569.646	19.382	0.224	-0.181
-568.631	257.468	-0.127	0.219
-567.617	-30.312	0.048	-0.028
-566.602	-96.062	0.236	0.063
-565.588	748.148	0.018	-0.048
-564.573	211.739	-0.095	0.150
-563.558	-145.758	0.114	0.010
-562.544	800.000	0.031	-0.116
-561.529	62.251	0.206	0.207
-560.515	406.912	-0.019	-0.041
-559.500	177.322	0.129	-0.189
-558.485	163.457	0.119	-0.168
-557.471	-74.309	-0.174	-0.063
-556.456	52.189	0.176	0.169
-555.442	181.670	-0.032	-0.047
-554.427	-117.489	0.161	0.029
-553.412	-95.428	0.063	-0.017
-552.398	69.786	-0.045	-0.047
-551.383	-200.000	0.008	0.144
-550.369	-9.537	0.123	-0.083
-549.354	532.428	-0.056	0.133
-548.339	8.271	0.105	0.079
-547.325	-84.394	0.171	0.054
-546.310	-200.000	0.031	-0.321
-545.296	26.377	0.058	-0.049
-544.281	800.000	-0.067	-0.232
-543.266	800.000	0.081	0.225
-542.252	-200.000	0.007	-0.304
-541.237	-200.000	-0.039	0.289
-540.223	111.343	-0.232	-0.280
-539.208	289.958	-0.159	-0.290
-538.193	-166.566	-0.126	-0.005
-537.179	-74.934	0.109	-0.039
-536.164	94.194	0.211	0.241
-535.150	103.925	-0.034	-0.040
-534.135	-9.883	0.308	0.206
-533.121	-200.000	0.005	0.078
-532.106	-82.785	-0.235	-0.076
-531.091	266.366	-0.059	-0.103
-530.077	98.022	0.086	0.099
-529.062	325.181	0.107	0.205
-528.048	-18.698	0.320	-0.200
-527.033	651.020	0.088	-0.227
-526.018	-144.321	0.340	0.032
-525.004	-200.000	0.000	-0.014
-523.989	281.073	-0.044	0.079
-522.975	161.089	-0.033	-0.046
-521.960	-90.497	-0.262	0.076
-520.945	800.000	0.096	0.294
-519.931	25.352	-0.458	0.382
-518.916	542.076	-0.093	-0.224
-517.902	-50.707	0.072	-0.034
-516.887	-71.991	0.253	-0.094
-515.872	129.669	0.138	0.177
-514.858	101.459	0.243	0.284
-513.843	163.637	-0.228	-0.322
-512.829	372.434	-0.045	0.092
-511.814	800.000	0.079	0.297
-510.799	423.564	0.041	-0.089
-509.785	580.672	-0.160	-0.392
-508.770	5.163	0.023	-0.017
-507.756	-200.000	-0.031	-0.276
-506.741	434.511	-0.051	0.111
-505.726	581.189	-0.021	-0.051
-504.712	-126.460	0.060	-0.009
-503.697	-92.895	-0.018	-0.005
-502.683	-128.130	-0.398	-0.057
-501.668	-200.000	-0.038	0.173
-500.653	433.220	-0.094	0.204
-499.639	-200.000	-0.032	0.379
-498.624	-139.428	-0.066	0.007
-497.610	-43.506	0.121	-0.061
-496.595	-40.856	-0.436	0.226
-495.581	-44.276	0.191	0.096
-494.566	-121.106	0.178	-0.030
-493.551	-16.913	-0.099	0.063
-492.537	-96.164	0.253	-0.067
-491.522	-190.758	-0.297	0.003
-490.508	-117.738	-0.193	0.035
-489.493	-200.000	0.035	-0.257
-488.478	-52.818	0.064	-0.029
-487.464	-12.987	-0.086	-0.056
-486.449	484.587	-0.106	-0.242
-485.435	181.898	-0.194	-0.287
-484.420	190.794	-0.055	-0.083
-483.405	-200.000	-0.019	-0.194
-482.391	42.003	-0.281	0.255
-481.376	800.000	-0.110	0.403
-480.362	75.438	0.060	0.063
-479.347	473.226	0.049	0.110
-478.332	-200.000	0.013	-0.579
-477.318	48.375	0.204	-0.191
-476.303	266.169	-0.185	-0.323
-475.289	-172.682	0.442	-0.014
-474.274	148.938	0.033	0.045
-473.259	800.000	0.022	0.075
-472.245	-132.069	-0.055	0.007
-471.230	-73.129	0.233	-0.086
-470.216	-155.840	0.062	0.004
-469.201	-200.000	-0.001	0.250
-468.186	-8.213	-0.096	0.065
-467.172	794.022	-0.021	0.059
-466.157	659.503	-0.093	0.239
-465.143	460.879	0.059	0.133
-464.128	-95.112	0.249	0.067
-463.113	595.861	0.057	-0.142
-462.099	-55.106	-0.135	0.061
-461.084	18.207	0.295	0.235
-460.070	173.360	-0.161	-0.232
-459.055	800.000	-0.039	0.143
-458.040	800.000	-0.062	0.244
-457.026	298.179	-0.065	0.120
-456.011	800.000	-0.117	0.349
-454.997	67.119	-0.131	-0.134
-453.982	-66.088	-0.253	-0.101
-452.968	-9.657	0.243	-0.162
-451.953	-53.387	-0.154	0.071
-450.938	-2.825	0.262	-0.183
-449.924	64.609	0.053	0.053
-448.909	-200.000	0.031	0.234
-447.895	800.000	-0.020	0.080
-446.880	624.589	0.051	0.129
-445.865	282.596	-0.330	0.592
-444.851	6.815	-0.092	-0.069
-443.836	100.492	-0.187	0.217
-442.822	753.296	0.145	-0.393
-441.807	-200.000	-0.019	-0.133
-440.792	107.062	0.085	-0.100
-439.778	491.706	-0.027	0.061
-438.763	-157.578	-0.073	-0.004
-437.749	99.760	-0.003	0.003
-436.734	515.024	0.045	-0.106
-435.719	-163.380	-0.120	0.006
-434.705	-16.977	0.147	-0.093
-433.690	87.605	0.041	-0.046
-432.676	37.322	-0.094	-0.083
-431.661	-37.764	0.120	-0.064
-430.646	800.000	0.083	0.251
-429.632	108.338	0.305	0.364
-428.617	13.990	-0.059	0.046
-427.603	-20.123	0.292	-0.180
-426.588	-143.527	-0.267	-0.025
-425.573	68.945	0.133	0.136
-424.559	155.094	-0.070	0.096
-423.544	-62.507	0.189	-0.078
-422.530	-101.192	0.111	-0.027
-421.515	5.663	-0.265	0.196
-420.500	348.035	0.180	0.354
-419.486	-49.276	0.117	-0.056
-418.471	430.552	-0.066	-0.143
-417.457	800.000	0.077	-0.242
-416.442	502.314	-0.013	-0.031
-415.428	95.831	0.190	-0.217
-414.413	-146.774	0.339	-0.029
-413.398	800.000	-0.072	0.278
-412.384	457.836	-0.056	0.123
-411.369	-200.000	-0.032	-0.347
-410.355	303.461	0.077	0.142
-409.340	800.000	0.051	0.171
-408.325	-49.205	-0.106	0.050
-407.311	-99.661	0.228	-0.057
-406.296	-200.000	0.015	0.322
-405.282	-200.000	-0.007	-0.040
-404.267	-89.801	0.069	-0.020
-403.252	520.552	-0.072	0.169
-402.238	-200.000	0.051	-0.463
-401.223	-200.000	-0.000	0.167
-400.209	681.726	-0.037	0.095
-399.194	343.765	0.096	0.187
-398.179	-200.000	0.011	0.125
-397.165	1.860	0.217	-0.156
-396.150	800.000	0.131	0.477
-395.136	200.679	0.129	-0.198
-394.121	219.572	0.199	-0.318
-393.106	800.000	0.018	0.052
-392.092	-122.234	0.112	0.018
-391.077	-128.930	0.117	0.016
-390.063	-100.891	-0.033	-0.008
-389.048	179.829	-0.210	0.306
-388.033	-9.417	-0.138	0.092
-387.019	-200.000	-0.029	0.319
-386.004	-200.000	-0.046	0.415
-384.990	29.222	-0.081	0.068
-383.975	-112.651	0.350	-0.070
-382.960	-178.948	0.103	0.002
-381.946	-90.540	-0.265	-0.077
-380.931	128.638	-0.158	-0.200
-379.917	301.778	-0.227	-0.419
-378.902	165.896	-0.137	0.194
-377.888	38.407	-0.079	-0.070
-376.873	30.980	0.126	0.108
-375.858	-44.887	0.258	0.128
-374.844	800.000	-0.093	-0.276
-373.829	122.682	0.043	-0.054
-372.815	29.937	-0.047	-0.040
-371.800	-68.380	-0.161	-0.062
-370.785	-106.409	-0.254	0.057
-369.771	-14.583	0.191	0.122
-368.756	-200.000	0.008	-0.395
-367.742	-200.000	0.027	-0.235
-366.727	-200.000	-0.093	-0.520
-365.712	800.000	-0.067	-0.256
-364.698	-200.000	0.030	-0.156
-363.683	-146.266	-0.116	0.010
-362.669	-200.000	0.020	-0.237
-361.654	-133.400	0.149	0.019
-360.639	-200.000	-0.010	0.202
-359.625	6.961	-0.014	-0.011
-358.610	-200.000	-0.001	0.230
-357.596	-78.479	-0.153	-0.052
-356.581	-200.000	0.037	-0.476
-355.566	-200.000	-0.035	-0.156
-354.552	320.342	-0.111	-0.210
-353.537	-152.927	-0.258	-0.018
-352.523	559.537	-0.147	-0.353
-351.508	-50.413	-0.400	0.188
-350.493	-113.264	-0.160	0.031
-349.479	235.588	-0.057	-0.094
-348.464	47.563	-0.076	0.070
-347.450	377.531	0.076	0.154
-346.435	-137.099	0.132	-0.015
-345.420	-68.881	0.348	-0.134
-344.406	213.289	-0.100	-0.157
-343.391	-50.602	-0.074	-0.035
-342.377	165.576	-0.162	0.229
-341.362	409.878	0.132	0.278
-340.348	-200.000	-0.019	0.144
-339.333	-97.346	-0.263	-0.068
-338.318	-108.048	-0.212	0.046
-337.304	420.971	0.029	0.063
-336.289	36.361	-0.280	-0.246
-335.275	-200.000	0.042	0.233
-334.260	89.177	-0.204	-0.226
-333.245	6.836	-0.039	-0.029
-332.231	-87.845	0.271	-0.081
-331.216	-200.000	0.007	-0.111
-330.202	-129.226	0.311	0.043
-329.187	800.000	0.084	-0.337
-328.172	328.135	0.159	-0.304
-327.158	-200.000	-0.003	0.365
-326.143	-110.686	0.246	0.051
-325.129	800.000	-0.114	-0.428
-324.114	13.629	0.216	-0.167
-323.099	-58.684	-0.306	0.132
-322.085	11.813	0.096	0.074
-321.070	-90.353	0.156	0.045
-320.056	25.902	0.176	0.146
-319.041	330.972	-0.042	-0.080
-318.026	-127.554	0.220	-0.032
-317.012	-50.894	0.160	0.075
-315.997	91.479	-0.025	0.028
-314.983	-101.710	0.109	-0.026
-313.968	-10.451	-0.239	-0.157
-312.953	-200.000	0.018	0.194
-311.939	-37.863	-0.329	-0.174
-310.924	5.624	0.097	0.072
-309.910	84.649	-0.280	0.305
-308.895	800.000	0.084	0.328
-307.880	93.508	-0.304	-0.343
-306.866	-200.000	-0.019	0.104
-305.851	-158.997	0.096	0.005
-304.837	76.904	-0.385	0.406
-303.822	155.638	-0.022	-0.031
-302.807	800.000	-0.016	-0.059
-301.793	20.306	-0.191	-0.154
-300.778	217.318	0.054	-0.085
-299.764	-200.000	0.002	-0.125
-298.749	800.000	-0.016	0.049
-297.735	555.767	0.135	0.324
-296.720	-144.518	0.098	-0.009
-295.705	397.101	0.049	0.101
-294.691	-32.757	-0.164	0.091
-293.676	-38.927	0.167	0.088
-292.662	-131.875	-0.290	0.038
-291.647	72.431	0.158	0.164
-290.632	-149.635	0.190	0.015
-289.618	-200.000	0.073	-0.351
-288.603	-23.868	-0.306	-0.182
-287.589	-104.623	-0.190	-0.044
-286.574	29.118	0.104	0.088
-285.559	-63.673	0.191	-0.078
-284.545	-44.044	-0.339	-0.169
-283.530	31.451	-0.067	-0.058
-282.516	-200.000	0.099	-0.459
-281.501	-48.768	0.315	0.150
-280.486	-200.000	0.017	0.107
-279.472	-116.823	0.574	0.105
-278.457	-166.817	-0.397	-0.016
-277.443	-101.666	-0.348	0.084
-276.428	-165.245	0.114	-0.005
-275.413	238.198	-0.083	-0.138
-274.399	112.094	0.262	0.314
-273.384	-128.020	0.302	-0.043
-272.370	74.536	0.193	-0.201
-271.355	-55.920	-0.254	-0.113
-270.340	-108.049	0.286	0.062
-269.326	800.000	-0.049	0.178
-268.311	-200.000	0.066	-0.347
-267.297	36.107	-0.147	-0.129
-266.282	-166.977	-0.028	-0.001
-265.267	-91.843	0.391	0.110
-264.253	-200.000	0.004	-0.032
-263.238	386.929	0.053	0.109
-262.224	182.548	0.191	0.279
-261.209	141.007	-0.194	-0.255
-260.195	-200.000	-0.026	-0.142
-259.180	-200.000	0.010	0.196
-258.165	-116.248	0.127	-0.023
-257.151	-186.263	0.137	-0.002
-256.136	-200.000	-0.043	-0.245
-255.122	52.804	-0.097	-0.093
-254.107	112.866	-0.079	-0.096
-253.092	-182.939	0.470	-0.008
-252.078	-200.000	0.025	-0.195
-251.063	800.000	0.054	-0.184
-250.049	-122.478	-0.317	0.051
-249.034	-33.574	0.139	-0.076
-248.019	301.934	0.214	0.392
-247.005	-109.906	0.109	0.023
-245.990	-12.838	0.153	-0.099
-244.976	184.707	0.122	-0.179
-243.961	168.620	-0.116	0.164
-242.946	21.009	0.286	0.230
-241.932	-46.920	-0.141	-0.069
-240.917	-106.507	0.180	0.040
-239.903	800.000	-0.036	0.154
-238.888	-17.651	-0.210	-0.131
-237.873	107.013	-0.183	-0.216
-236.859	-200.000	0.054	-0.237
-235.844	341.189	0.094	-0.182
-234.830	155.892	0.202	-0.276
-233.815	47.096	-0.116	-0.107
-232.800	-99.528	-0.065	0.016
-231.786	800.000	0.060	0.239
-230.771	-91.401	0.117	-0.033
-229.757	30.783	0.070	-0.060
-228.742	49.666	-0.066	-0.062
-227.727	800.000	-0.100	0.330
-226.713	45.095	0.148	0.135
-225.698	-200.000	-0.088	-0.392
-224.684	-200.000	-0.002	-0.154
-223.669	564.858	-0.116	-0.280
-222.655	114.632	0.249	0.301
-221.640	609.619	-0.044	-0.109
-220.625	800.000	0.180	0.495
-219.611	800.000	-0.107	0.375
-218.596	614.447	0.107	-0.266
-217.582	376.267	0.052	-0.104
-216.567	-22.498	0.162	-0.097
-215.552	70.815	0.178	0.183
-214.538	149.741	0.109	0.147
-213.523	376.620	-0.139	0.281
-212.509	800.000	-0.059	0.225
-211.494	-147.086	-0.171	-0.014
-210.479	-60.344	-0.356	-0.150
-209.465	349.987	0.057	-0.111
-208.450	156.261	0.114	-0.156
-207.436	-148.774	0.231	0.019
-206.421	-200.000	0.046	0.261
-205.406	134.416	0.162	0.208
-204.392	-122.141	-0.196	-0.032
-203.377	800.000	0.083	0.254
-202.363	-158.328	-0.302	0.017
-201.348	-200.000	-0.039	0.266
-200.333	800.000	0.096	0.315
-199.319	-200.000	0.027	0.370
-198.304	-79.348	-0.079	-0.027
-197.290	-200.000	0.019	0.196
-196.275	-173.011	-0.152	-0.005
-195.260	240.253	0.133	-0.220
-194.246	271.711	0.216	0.376
-193.231	-200.000	0.012	0.068
-192.217	19.323	-0.164	0.130
-191.202	40.470	0.142	-0.127
-190.187	-99.606	-0.145	0.036
-189.173	800.000	0.048	0.158
-188.158	739.229	0.039	-0.104
-187.144	39.853	0.156	-0.139
-186.129	3.957	0.078	-0.057
-185.114	-200.000	0.003	0.308
-184.100	23.987	-0.163	0.134
-183.085	-142.524	-0.145	0.014
-182.071	17.883	0.122	0.096
-181.056	-200.000	0.173	-0.000
-180.042	673.464	-0.026	0.068
-179.027	102.407	-0.225	-0.260
-178.012	215.889	0.061	0.096
-176.998	30.068	0.220	-0.186
-175.983	-200.000	0.025	0.273
-174.969	120.910	-0.094	-0.116
-173.954	115.071	-0.181	-0.219
-172.939	375.055	-0.049	0.099
-171.925	-31.644	0.141	0.078
-170.910	110.270	0.112	-0.133
-169.896	43.459	-0.133	-0.120
-168.881	800.000	-0.065	-0.255
-167.866	126.486	0.223	-0.279
-166.852	165.050	-0.093	0.130
-165.837	317.966	0.074	-0.139
-164.823	800.000	-0.011	0.034
-163.808	-104.059	-0.192	-0.044
-162.793	16.311	0.121	0.094
-161.779	-83.665	-0.102	0.032
-160.764	800.000	0.010	-0.040
-159.750	-27.161	-0.254	-0.147
-158.735	42.893	0.262	-0.236
-157.720	79.494	0.107	0.113
-156.706	43.033	-0.201	0.181
-155.691	455.199	0.026	-0.058
-154.677	-69.080	0.176	-0.067
-153.662	-157.964	0.555	-0.032
-152.647	35.650	-0.219	0.190
-151.633	-151.988	0.188	0.014
-150.618	17.784	-0.181	-0.143
-149.604	74.804	-0.064	-0.067
-148.589	-200.000	-0.043	0.235
-147.574	268.211	-0.125	0.217
-146.560	226.287	0.333	-0.534
-145.545	-15.440	-0.217	-0.137
-144.531	-137.966	0.288	-0.032
-143.516	-200.000	-0.046	0.213
-142.502	-91.292	0.204	-0.058
-141.487	-23.602	0.030	0.018
-140.472	224.378	0.111	0.177
-139.458	800.000	-0.182	0.561
-138.443	80.285	0.119	-0.127
-137.429	190.407	0.069	0.103
-136.414	50.329	-0.086	-0.080
-135.399	-200.000	-0.011	0.293
-134.385	-93.807	0.193	0.053
-133.370	-200.000	0.024	0.268
-132.356	310.905	-0.144	0.267
-131.341	-200.000	0.027	0.194
-130.326	-5.339	-0.026	-0.018
-129.312	-5.070	0.106	0.072
-128.297	-146.860	0.344	-0.029
-127.283	-113.583	-0.155	-0.030
-126.268	177.046	-0.179	-0.258
-125.253	-77.120	0.217	-0.075
-124.239	-112.862	-0.210	-0.041
-123.224	-102.827	0.394	-0.093
-122.210	376.888	-0.252	-0.509
-121.195	-179.749	0.204	-0.004
