DTS Sentinel unit serial number:	SN413079Multiplexer serial number:	ORYXHardware model number:	OX4-SRSoftware version number:	ORYX F/W v4.00 Oryx Data Collector v3.7.2.0data status	okinstallation	princeton_trtdifferential loss correction	single-endedforward channel	channel 4reverse channel	N/Adate	2019/09/11time	04:11:11forward acquisition time	60.00reverse acquisition time	0.00gamma	496.2192k internal	0.2316k external	0.2316temperature offset calibration	0.9944default loss term (dB/km)	0.3790temperature slope calibration	1.0000multiplexer offset coefficient	1.0000multiplexer slope coefficient	1.0000fibre end	0.00T internal ref (°C)	29.56T ext. ref 1 (°C)	-0.29T ext. ref 2 (°C)	23.44length (m)	temperature (°C)	Stokes	anti-Stokes-747.200	-40.389	-0.071	-0.037
-746.185	-153.319	-0.170	-0.012
-745.171	12.830	-0.114	0.089
-744.156	126.575	-0.229	0.294
-743.142	-37.417	0.086	0.047
-742.127	445.408	0.158	0.351
-741.112	70.425	0.182	0.190
-740.098	554.738	0.047	-0.116
-739.083	36.195	-0.133	-0.119
-738.069	-12.536	-0.222	0.147
-737.054	-200.000	0.028	-0.171
-736.039	-18.646	-0.360	-0.227
-735.025	-20.140	0.284	0.177
-734.010	-92.907	-0.352	0.100
-732.996	800.000	-0.082	-0.306
-731.981	-200.000	0.018	-0.154
-730.966	-200.000	0.026	-0.125
-729.952	-183.358	0.329	0.006
-728.937	-28.761	0.240	-0.140
-727.923	439.107	-0.119	-0.264
-726.908	-200.000	-0.009	0.091
-725.894	11.854	0.084	0.065
-724.879	-75.018	-0.530	-0.192
-723.864	420.957	0.074	-0.161
-722.850	-88.245	-0.309	0.094
-721.835	800.000	-0.034	0.105
-720.821	112.728	0.154	-0.188
-719.806	182.532	-0.267	-0.399
-718.791	768.022	-0.120	-0.331
-717.777	-200.000	-0.297	-0.000
-716.762	-16.467	0.086	-0.055
-715.748	-23.775	0.110	-0.067
-714.733	23.805	-0.101	-0.084
-713.718	103.533	0.128	0.152
-712.704	-124.466	-0.216	-0.034
-711.689	-200.000	0.030	-0.272
-710.675	155.025	0.257	-0.357
-709.660	387.499	0.047	-0.098
-708.645	-200.000	0.001	0.082
-707.631	800.000	0.081	0.352
-706.616	358.527	-0.227	0.458
-705.602	77.026	0.102	-0.110
-704.587	112.273	-0.013	-0.016
-703.572	257.220	0.169	-0.293
-702.558	-200.000	0.018	-0.084
-701.543	331.949	-0.071	0.139
-700.529	-2.998	0.112	-0.079
-699.514	-200.000	-0.007	-0.138
-698.499	800.000	-0.043	-0.163
-697.485	-4.166	0.225	-0.158
-696.470	373.384	-0.109	0.224
-695.456	-200.000	-0.008	0.129
-694.441	-200.000	0.016	-0.159
-693.426	800.000	0.103	0.301
-692.412	554.829	-0.072	-0.174
-691.397	8.088	-0.150	0.114
-690.383	-19.191	0.217	-0.136
-689.368	264.985	-0.212	-0.374
-688.354	246.827	0.021	0.035
-687.339	-200.000	-0.040	0.259
-686.324	147.282	-0.122	-0.166
-685.310	-120.912	0.263	-0.045
-684.295	35.503	-0.116	0.103
-683.281	-42.487	-0.193	0.100
-682.266	151.116	-0.221	-0.304
-681.251	-118.919	-0.040	-0.007
-680.237	-185.728	-0.125	0.002
-679.222	166.093	-0.191	-0.273
-678.208	-41.366	-0.367	0.191
-677.193	380.246	-0.136	0.282
-676.178	-142.901	-0.224	-0.022
-675.164	-69.365	0.196	-0.076
-674.149	-158.431	-0.050	0.003
-673.135	-200.000	-0.002	0.174
-672.120	-83.545	-0.236	-0.076
-671.105	368.693	0.179	-0.365
-670.091	-146.096	0.267	-0.024
-669.076	-144.668	0.075	-0.007
-668.062	30.070	-0.164	-0.141
-667.047	781.453	-0.058	-0.161
-666.032	-66.520	-0.264	-0.106
-665.018	223.454	0.150	-0.244
-664.003	800.000	0.021	0.077
-662.989	184.903	0.114	-0.171
-661.974	800.000	-0.129	-0.371
-660.959	355.334	-0.128	0.256
-659.945	-200.000	0.019	0.112
-658.930	-25.558	-0.218	0.130
-657.916	-133.621	0.097	-0.012
-656.901	-18.472	0.118	0.074
-655.886	-200.000	-0.014	0.320
-654.872	138.708	0.074	0.098
-653.857	-84.420	-0.293	-0.093
-652.843	562.645	-0.044	-0.107
-651.828	-36.613	-0.207	0.112
-650.814	-4.366	0.041	-0.028
-649.799	468.092	0.087	0.198
-648.784	-72.445	-0.183	0.068
-647.770	3.028	-0.090	-0.066
-646.755	126.921	-0.093	0.118
-645.741	-25.604	0.231	-0.138
-644.726	-59.478	-0.183	0.079
-643.711	-100.339	-0.228	0.057
-642.697	-200.000	-0.001	0.207
-641.682	311.750	0.075	0.142
-640.668	394.560	-0.203	0.427
-639.653	-71.078	-0.160	-0.061
-638.638	-200.000	0.051	-0.244
-637.624	-141.453	-0.251	-0.026
-636.609	93.643	-0.271	-0.310
-635.595	330.846	-0.046	0.088
-634.580	-200.000	0.015	0.173
-633.565	-102.823	-0.125	0.030
-632.551	118.082	0.056	0.070
-631.536	-57.875	-0.111	0.049
-630.522	-172.895	-0.141	-0.004
-629.507	-200.000	0.017	0.236
-628.492	-35.856	0.200	0.109
-627.478	-6.606	0.252	-0.173
-626.463	800.000	-0.070	0.240
-625.449	800.000	-0.020	0.079
-624.434	65.533	-0.096	0.098
-623.419	223.238	-0.234	-0.380
-622.405	-61.280	0.171	-0.073
-621.390	-100.662	-0.118	0.029
-620.376	530.582	-0.026	0.062
-619.361	-200.000	0.024	-0.254
-618.346	71.452	0.317	0.332
-617.332	155.113	-0.266	-0.369
-616.317	-200.000	0.007	-0.039
-615.303	18.343	-0.077	-0.062
-614.288	-131.382	-0.169	-0.023
-613.273	-100.207	-0.173	-0.043
-612.259	-65.673	0.134	0.054
-611.244	-16.223	-0.243	-0.156
-610.230	-200.000	0.007	0.144
-609.215	486.813	0.110	0.253
-608.201	-146.095	-0.210	-0.019
-607.186	44.565	0.018	-0.016
-606.171	106.147	-0.103	-0.123
-605.157	-15.824	-0.047	-0.030
-604.142	-200.000	0.049	-0.000
-603.128	800.000	-0.059	0.234
-602.113	-200.000	-0.009	-0.186
-601.098	-35.991	0.089	-0.048
-600.084	-96.420	-0.385	-0.102
-599.069	-37.390	0.147	-0.079
-598.055	-37.756	-0.194	0.104
-597.040	-40.529	-0.306	-0.160
-596.025	-200.000	0.016	-0.293
-595.011	-200.000	0.004	-0.278
-593.996	37.569	-0.107	0.095
-592.982	-9.580	0.187	-0.125
-591.967	201.691	-0.058	-0.090
-590.952	8.793	-0.025	0.019
-589.938	-200.000	-0.018	-0.253
-588.923	-200.000	0.033	-0.182
-587.909	175.683	0.112	-0.163
-586.894	-102.410	0.503	0.121
-585.879	148.867	-0.030	0.041
-584.865	43.170	-0.002	0.002
-583.850	-192.886	0.355	-0.003
-582.836	-128.567	-0.186	0.027
-581.821	800.000	-0.036	0.124
-580.806	138.095	0.028	0.037
-579.792	393.838	0.087	0.183
-578.777	-89.490	-0.072	-0.021
-577.763	86.223	0.144	-0.160
-576.748	77.725	-0.120	-0.128
-575.733	800.000	-0.028	0.097
-574.719	-160.895	0.189	0.010
-573.704	345.622	0.090	0.177
-572.690	129.554	-0.277	-0.357
-571.675	386.226	0.224	-0.465
-570.661	-92.907	-0.291	0.082
-569.646	-176.676	-0.241	-0.006
-568.631	488.281	0.045	-0.103
-567.617	167.697	0.106	-0.152
-566.602	156.729	0.200	0.277
-565.588	791.782	-0.043	-0.120
-564.573	312.868	-0.121	0.228
-563.558	-200.000	0.006	-0.123
-562.544	-136.607	-0.143	-0.017
-561.529	-27.505	-0.031	0.018
-560.515	800.000	-0.066	-0.232
-559.500	-52.401	-0.275	-0.128
-558.485	-165.413	-0.380	0.017
-557.471	-200.000	0.011	0.114
-556.456	222.049	0.201	0.325
-555.442	17.958	-0.137	0.110
-554.427	-129.745	0.320	0.044
-553.412	-200.000	-0.053	0.319
-552.398	-200.000	-0.022	0.120
-551.383	-175.857	0.498	0.013
-550.369	-88.507	-0.361	0.108
-549.354	152.403	0.174	-0.239
-548.339	-32.365	-0.192	-0.108
-547.325	-200.000	0.010	-0.369
-546.310	14.730	0.120	-0.094
-545.296	-200.000	-0.021	-0.311
-544.281	-188.468	-0.163	0.002
-543.266	800.000	-0.046	0.196
-542.252	-134.965	0.241	-0.029
-541.237	-109.885	-0.420	0.089
-540.223	40.144	0.120	-0.108
-539.208	77.132	0.042	-0.045
-538.193	102.998	-0.222	0.262
-537.179	-200.000	0.007	-0.133
-536.164	-200.000	-0.011	-0.297
-535.150	-33.904	0.054	0.030
-534.135	-200.000	-0.082	0.417
-533.121	73.645	-0.166	-0.175
-532.106	-100.228	-0.111	0.028
-531.091	-200.000	-0.045	-0.216
-530.077	449.766	0.082	0.181
-529.062	-200.000	-0.017	0.087
-528.048	-142.770	0.050	0.005
-527.033	-200.000	-0.010	-0.166
-526.018	771.393	0.038	-0.103
-525.004	29.654	0.197	-0.168
-523.989	-93.282	-0.123	-0.034
-522.975	-89.634	0.125	0.037
-521.960	-200.000	-0.028	0.147
-520.945	-200.000	-0.001	0.020
-519.931	35.562	-0.073	0.064
-518.916	-45.977	0.230	-0.114
-517.902	799.987	-0.087	-0.242
-516.887	-115.753	-0.364	0.069
-515.872	-56.695	0.281	0.125
-514.858	-200.000	0.004	-0.453
-513.843	5.841	0.022	-0.016
-512.829	-32.447	0.030	0.017
-511.814	-125.676	0.314	0.048
-510.799	253.537	0.277	0.474
-509.785	-179.121	0.239	-0.005
-508.770	-105.161	0.231	-0.053
-507.756	-200.000	0.016	-0.072
-506.741	800.000	-0.073	0.302
-505.726	-117.250	0.304	-0.055
-504.712	117.898	0.093	0.115
-503.697	159.705	0.180	0.251
-502.683	72.093	-0.161	0.168
-501.668	800.000	0.057	-0.202
-500.653	-54.068	0.090	-0.041
-499.639	54.694	-0.433	-0.419
-498.624	54.649	0.106	0.103
-497.610	-96.045	0.187	0.050
-496.595	-200.000	-0.023	0.135
-495.581	-135.840	-0.280	0.033
-494.566	373.730	0.048	0.098
-493.551	-88.473	0.390	0.117
-492.537	-67.562	0.172	-0.068
-491.522	418.771	-0.017	-0.038
-490.508	557.627	0.080	0.193
-489.493	-52.279	-0.140	0.065
-488.478	-200.000	-0.014	-0.112
-487.464	-111.604	-0.209	0.043
-486.449	139.263	0.153	0.201
-485.435	36.082	0.134	-0.118
-484.420	242.367	0.033	-0.056
-483.405	345.290	-0.080	0.157
-482.391	-131.602	0.249	-0.033
-481.376	-17.072	0.299	0.189
-480.362	-200.000	0.008	0.072
-479.347	65.804	0.148	-0.150
-478.332	-200.000	-0.052	-0.236
-477.318	-200.000	-0.048	-0.237
-476.303	-49.497	0.568	-0.272
-475.289	150.652	-0.136	0.185
-474.274	-42.891	-0.144	0.073
-473.259	-187.282	-0.242	-0.003
-472.245	0.662	-0.035	0.025
-471.230	151.981	0.064	0.087
-470.216	348.181	-0.094	0.186
-469.201	-96.872	0.736	0.194
-468.186	-112.460	-0.434	0.087
-467.172	-96.853	0.070	-0.018
-466.157	-113.854	-0.528	-0.103
-465.143	800.000	-0.068	0.296
-464.128	-15.594	-0.063	-0.040
-463.113	-70.880	-0.081	-0.031
-462.099	-124.010	0.388	0.061
-461.084	800.000	-0.188	0.621
-460.070	-200.000	0.004	0.288
-459.055	-39.710	0.391	-0.205
-458.040	136.411	0.127	-0.166
-457.026	224.918	-0.241	-0.391
-456.011	-38.085	-0.252	0.134
-454.997	165.912	-0.067	0.095
-453.982	161.303	0.116	-0.162
-452.968	-200.000	0.065	-0.292
-451.953	202.211	0.112	-0.174
-450.938	-9.768	-0.097	-0.065
-449.924	-200.000	0.018	0.155
-448.909	246.735	-0.189	-0.319
-447.895	-130.623	-0.302	0.041
-446.880	52.131	-0.035	-0.034
-445.865	318.598	-0.099	-0.187
-444.851	-200.000	0.020	0.252
-443.836	800.000	-0.049	0.163
-442.822	800.000	-0.074	0.225
-441.807	197.308	-0.087	-0.133
-440.792	198.819	0.163	0.250
-439.778	108.723	0.205	0.246
-438.763	117.049	-0.087	-0.106
-437.749	-200.000	-0.011	-0.078
-436.734	-112.089	-0.168	0.034
-435.719	233.858	0.070	-0.116
-434.705	28.189	-0.217	-0.183
-433.690	-200.000	0.006	-0.206
-432.676	-177.660	0.270	-0.007
-431.661	-2.567	-0.216	-0.152
-430.646	-200.000	0.059	-0.499
-429.632	212.831	0.034	-0.054
-428.617	44.627	0.050	0.046
-427.603	217.562	0.135	-0.215
-426.588	-200.000	-0.004	0.423
-425.573	-16.448	0.316	-0.201
-424.559	-49.980	-0.182	-0.086
-423.544	-159.280	-0.132	-0.007
-422.530	800.000	0.058	0.201
-421.515	-200.000	-0.005	-0.110
-420.500	-77.274	0.345	0.120
-419.486	-133.790	0.345	0.043
-418.471	633.124	0.111	-0.281
-417.457	434.532	0.067	-0.145
-416.442	56.229	0.293	0.285
-415.428	-200.000	-0.078	0.416
-414.413	295.956	-0.256	-0.470
-413.398	4.985	0.237	0.174
-412.384	-134.203	-0.101	0.012
-411.369	21.702	-0.099	-0.080
-410.355	-63.112	0.225	-0.093
-409.340	219.423	-0.135	-0.217
-408.325	-51.394	0.083	-0.039
-407.311	126.190	-0.047	0.059
-406.296	-165.051	0.071	-0.003
-405.282	-58.760	0.270	-0.117
-404.267	-146.837	-0.319	-0.027
-403.252	-200.000	0.081	0.362
-402.238	-1.619	0.201	0.141
-401.223	14.715	-0.229	0.179
-400.209	647.844	-0.147	-0.377
-399.194	34.230	-0.227	-0.198
-398.179	-200.000	-0.023	-0.141
-397.165	-134.304	-0.136	-0.017
-396.150	320.419	-0.059	0.111
-395.136	18.918	-0.155	0.124
-394.121	-32.256	0.151	-0.084
-393.106	-156.215	0.257	-0.016
-392.092	595.837	-0.063	0.156
-391.077	312.403	-0.168	-0.316
-390.063	-130.702	-0.350	-0.047
-389.048	-167.275	-0.176	-0.007
-388.033	9.660	0.234	-0.177
-387.019	-71.867	-0.296	-0.110
-386.004	208.844	-0.004	0.006
-384.990	-200.000	0.010	-0.456
-383.975	-15.266	-0.255	0.163
-382.960	-17.644	-0.215	0.135
-381.946	11.531	0.199	0.152
-380.931	105.385	0.128	0.152
-379.917	-43.282	-0.118	0.060
-378.902	12.927	0.205	-0.158
-377.888	124.724	0.126	-0.158
-376.873	4.433	-0.166	0.122
-375.858	-200.000	0.019	0.231
-374.844	-200.000	0.013	-0.168
-373.829	64.338	0.073	0.073
-372.815	-50.819	-0.095	-0.045
-371.800	-137.796	-0.357	0.040
-370.785	-200.000	0.003	-0.110
-369.771	-93.440	0.299	0.083
-368.756	-158.301	0.464	-0.027
-367.742	-119.173	0.289	-0.050
-366.727	-200.000	0.005	0.185
-365.712	-200.000	0.041	0.215
-364.698	166.385	0.010	-0.014
-363.683	-93.414	-0.238	-0.066
-362.669	102.553	0.182	0.213
-361.654	-200.000	-0.025	-0.279
-360.639	-43.734	0.078	0.039
-359.625	170.324	-0.060	-0.085
-358.610	800.000	0.063	0.231
-357.596	-94.769	-0.134	0.036
-356.581	26.248	-0.197	-0.164
-355.566	800.000	-0.038	0.138
-354.552	446.990	-0.102	-0.223
-353.537	332.119	-0.122	0.236
-352.523	-200.000	-0.032	0.407
-351.508	171.180	0.014	0.021
-350.493	-200.000	0.023	0.109
-349.479	800.000	0.106	-0.355
-348.464	-62.645	0.112	-0.047
-347.450	-127.278	0.027	0.004
-346.435	56.477	-0.187	-0.181
-345.420	-136.650	-0.193	-0.022
-344.406	-88.703	0.266	0.079
-343.391	-67.276	0.421	0.165
-342.377	-43.263	-0.236	-0.119
-341.362	142.193	-0.202	0.268
-340.348	67.587	0.054	0.055
-339.333	-200.000	0.011	-0.054
-338.318	-118.600	-0.104	0.018
-337.304	511.936	-0.015	-0.035
-336.289	-86.923	0.096	-0.029
-335.275	443.785	0.057	-0.125
-334.260	36.818	-0.183	0.161
-333.245	-58.186	0.179	0.078
-332.231	-141.248	-0.403	0.041
-331.216	-130.521	0.139	-0.019
-330.202	800.000	-0.016	-0.065
-329.187	-79.477	0.270	-0.091
-328.172	63.260	-0.089	0.089
-327.158	0.750	-0.158	0.113
-326.143	-117.334	0.437	0.079
-325.129	327.827	-0.038	0.072
-324.114	656.780	0.087	-0.223
-323.099	-62.665	0.236	-0.097
-322.085	576.072	0.015	-0.036
-321.070	30.447	0.080	-0.068
-320.056	-72.829	-0.148	-0.054
-319.041	-36.086	0.094	-0.050
-318.026	-158.338	-0.238	0.014
-317.012	20.252	-0.281	-0.226
-315.997	-36.548	0.258	-0.138
-314.983	-115.500	-0.361	0.068
-313.968	53.626	-0.216	-0.206
-312.953	676.962	-0.019	-0.050
-311.939	800.000	0.033	-0.134
-310.924	-103.033	-0.110	-0.026
-309.910	9.812	-0.031	0.023
-308.895	12.855	0.204	0.157
-307.880	98.863	-0.086	0.098
-306.866	-35.545	0.461	0.249
-305.851	56.497	-0.304	0.294
-304.837	-44.475	-0.067	-0.034
-303.822	-71.437	-0.362	-0.135
-302.807	-18.604	-0.304	-0.189
-301.793	116.139	0.158	-0.192
-300.778	800.000	-0.035	-0.121
-299.764	343.784	-0.057	-0.111
-298.749	26.009	-0.114	-0.095
-297.735	428.519	0.141	-0.303
-296.720	623.629	0.083	-0.209
-295.705	667.654	0.094	0.241
-294.691	-200.000	0.015	-0.410
-293.676	800.000	0.044	0.162
-292.662	136.915	-0.118	0.154
-291.647	800.000	0.070	0.251
-290.632	-200.000	0.010	-0.444
-289.618	800.000	-0.034	0.133
-288.603	-200.000	0.008	-0.262
-287.589	101.955	0.195	-0.227
-286.574	-91.153	-0.227	-0.065
-285.559	-53.869	-0.485	0.220
-284.545	0.369	-0.060	-0.043
-283.530	-71.344	-0.201	0.075
-282.516	97.460	0.313	0.358
-281.501	5.604	0.215	0.158
-280.486	-200.000	0.037	0.235
-279.472	-54.567	0.330	0.148
-278.457	-149.615	0.293	-0.023
-277.443	-200.000	0.075	0.482
-276.428	211.874	-0.200	0.313
-275.413	800.000	-0.105	0.371
-274.399	-59.750	-0.391	0.167
-273.384	800.000	-0.049	0.203
-272.370	800.000	0.103	0.299
-271.355	-102.242	0.363	-0.087
-270.340	361.041	-0.127	0.254
-269.326	-92.750	0.097	0.027
-268.311	-5.836	0.312	0.212
-267.297	54.962	0.094	0.090
-266.282	18.685	0.220	-0.175
-265.267	-20.755	-0.173	-0.105
-264.253	800.000	-0.052	-0.185
-263.238	55.135	0.108	-0.104
-262.224	-61.585	-0.152	-0.063
-261.209	38.089	0.057	-0.051
-260.195	-134.523	0.135	0.016
-259.180	-200.000	-0.022	0.161
-258.165	-119.638	-0.259	0.045
-257.151	-34.949	0.460	0.249
-256.136	-134.428	0.450	0.055
-255.122	-137.124	-0.177	0.020
-254.107	-169.535	-0.134	0.005
-253.092	-106.626	0.299	-0.066
-252.078	-79.402	-0.244	0.082
-251.063	-73.012	0.329	0.120
-250.049	268.471	0.060	-0.105
-249.034	52.155	-0.319	-0.303
-248.019	-20.292	0.148	0.091
-247.005	351.247	-0.095	-0.188
-245.990	-200.000	0.003	-0.054
-244.976	-181.222	0.435	-0.009
-243.961	-134.453	-0.284	0.035
-242.946	-136.540	-0.252	-0.029
-241.932	-200.000	0.006	0.030
-240.917	-32.736	0.116	-0.064
-239.903	267.515	-0.068	-0.118
-238.888	132.580	0.237	0.304
-237.873	167.556	0.174	0.245
-236.859	220.001	-0.123	-0.196
-235.844	800.000	-0.056	0.221
-234.830	190.069	0.200	0.298
-233.815	34.065	0.251	0.217
-232.800	-76.427	0.112	0.039
-231.786	-86.358	-0.107	-0.033
-230.771	800.000	0.134	0.432
-229.757	-56.769	0.155	0.068
-228.742	-112.685	-0.526	-0.104
-227.727	117.688	0.070	-0.085
-226.713	-82.050	0.264	0.086
-225.698	522.247	0.169	0.393
-224.684	60.286	-0.220	0.216
-223.669	103.550	0.150	0.174
-222.655	800.000	-0.079	-0.221
-221.640	-11.809	-0.102	0.067
-220.625	-167.106	0.242	-0.010
-219.611	800.000	0.031	-0.116
-218.596	-78.218	-0.293	-0.100
-217.582	800.000	0.038	0.124
-216.567	37.338	0.062	-0.055
-215.552	293.707	0.136	-0.247
-214.538	-200.000	0.003	-0.040
-213.523	46.188	-0.305	-0.280
-212.509	240.436	-0.150	-0.247
-211.494	211.012	0.145	-0.226
-210.479	92.038	0.063	-0.070
-209.465	107.086	0.064	0.076
-208.450	-200.000	-0.048	-0.360
-207.436	584.901	-0.149	0.363
-206.421	399.875	-0.070	-0.145
-205.406	-47.596	-0.019	-0.009
-204.392	15.656	-0.117	0.091
-203.377	-155.769	0.301	0.019
-202.363	-90.048	0.120	0.035
-201.348	48.583	0.101	0.094
-200.333	-182.690	0.204	-0.004
-199.319	-200.000	-0.069	-0.488
-198.304	-66.548	-0.176	0.069
-197.290	800.000	0.021	-0.079
-196.275	6.867	0.041	-0.030
-195.260	-83.863	-0.135	0.043
-194.246	-170.835	0.149	0.005
-193.231	-14.189	-0.153	-0.098
-192.217	239.415	-0.047	-0.077
-191.202	148.094	0.179	0.239
-190.187	-55.185	0.307	0.137
-189.173	4.089	0.030	0.022
-188.158	-77.046	0.040	0.014
-187.144	-200.000	-0.014	-0.143
-186.129	-95.610	-0.173	0.046
-185.114	46.466	-0.154	-0.142
-184.100	-200.000	-0.035	-0.186
-183.085	-41.683	0.455	-0.232
-182.071	-135.943	-0.038	-0.004
-181.056	253.019	-0.090	-0.152
-180.042	-13.791	-0.403	-0.258
-179.027	-170.673	-0.295	-0.010
-178.012	249.574	0.157	-0.264
-176.998	69.571	-0.236	0.240
-175.983	-112.570	0.306	0.060
-174.969	36.277	-0.104	-0.091
-173.954	-200.000	-0.012	-0.177
-172.939	-116.739	0.156	0.028
-171.925	441.834	-0.135	-0.293
-170.910	36.960	-0.106	0.093
-169.896	72.691	-0.156	0.161
-168.881	-200.000	0.005	0.244
-167.866	90.350	-0.024	0.027
-166.852	-36.283	0.049	-0.026
-165.837	31.988	0.330	0.282
-164.823	546.453	-0.053	0.126
-163.808	122.191	-0.110	-0.136
-162.793	-42.728	-0.232	0.117
-161.779	-200.000	-0.029	0.226
-160.764	-52.887	-0.151	0.069
-159.750	-200.000	-0.018	0.089
-158.735	309.803	0.079	-0.146
-157.720	144.976	-0.076	-0.101
-156.706	-171.930	-0.073	0.002
-155.691	-53.175	0.112	-0.051
-154.677	-67.343	0.297	0.115
-153.662	363.752	-0.079	0.156
-152.647	64.070	0.243	-0.242
-151.633	-5.978	-0.210	0.142
-150.618	-200.000	0.018	0.321
-149.604	102.632	0.127	0.148
-148.589	249.874	-0.056	0.093
-147.574	89.630	-0.158	-0.174
-146.560	84.213	-0.158	-0.171
-145.545	-11.332	0.380	0.247
-144.531	-200.000	-0.043	0.261
-143.516	-200.000	-0.011	-0.052
-142.502	124.281	-0.045	-0.056
-141.487	-200.000	0.004	-0.021
-140.472	27.849	-0.081	0.068
-139.458	89.571	0.056	-0.062
-138.443	-24.777	-0.118	0.070
-137.429	54.672	0.066	-0.063
-136.414	30.057	0.321	0.271
-135.399	-134.273	-0.308	0.038
-134.385	521.921	0.064	-0.148
-133.370	-25.845	0.290	0.169
-132.356	800.000	-0.093	0.261
-131.341	-200.000	-0.027	-0.285
-130.326	-41.412	-0.188	-0.096
-129.312	444.320	-0.053	-0.114
-128.297	-120.471	0.133	-0.022
-127.283	-81.724	0.159	-0.052
-126.268	91.961	-0.072	0.080
-125.253	182.281	-0.168	-0.245
-124.239	800.000	-0.028	-0.086
-123.224	-10.381	0.108	-0.071
-122.210	0.620	-0.227	0.161
