DTS Sentinel unit serial number:	SN413079Multiplexer serial number:	ORYXHardware model number:	OX4-SRSoftware version number:	ORYX F/W v4.00 Oryx Data Collector v3.7.2.0data status	okinstallation	princeton_trtdifferential loss correction	single-endedforward channel	channel 4reverse channel	N/Adate	2019/09/10time	17:15:10forward acquisition time	60.00reverse acquisition time	0.00gamma	496.2192k internal	0.2296k external	0.2296temperature offset calibration	0.9937default loss term (dB/km)	0.3790temperature slope calibration	1.0000multiplexer offset coefficient	1.0000multiplexer slope coefficient	1.0000fibre end	0.00T internal ref (°C)	37.62T ext. ref 1 (°C)	-0.35T ext. ref 2 (°C)	32.12length (m)	temperature (°C)	Stokes	anti-Stokes-747.200	-49.914	-0.031	-0.015
-746.185	-117.977	0.238	-0.044
-745.171	800.000	0.063	0.215
-744.156	423.215	0.220	0.482
-743.142	267.830	0.102	0.183
-742.127	800.000	-0.021	0.061
-741.112	-123.958	-0.166	-0.027
-740.098	356.263	0.051	-0.103
-739.083	228.305	-0.186	-0.309
-738.069	-80.373	0.287	-0.098
-737.054	-129.839	-0.181	0.025
-736.039	-74.372	-0.085	-0.031
-735.025	594.450	-0.144	0.363
-734.010	-200.000	0.033	-0.204
-732.996	-21.802	-0.268	0.167
-731.981	-164.583	0.141	-0.007
-730.966	-33.444	0.243	0.137
-729.952	-128.531	-0.596	-0.086
-728.937	537.938	0.149	-0.362
-727.923	269.129	0.090	-0.161
-726.908	446.724	-0.073	-0.163
-725.894	-90.111	0.060	0.018
-724.879	36.499	-0.225	-0.203
-723.864	-200.000	0.007	-0.189
-722.850	112.330	0.112	0.139
-721.835	-147.406	0.381	0.033
-720.821	261.195	-0.168	0.297
-719.806	-200.000	0.087	-0.000
-718.791	70.670	-0.097	-0.102
-717.777	-120.171	-0.382	-0.067
-716.762	-53.073	-0.165	-0.077
-715.748	219.711	-0.183	0.299
-714.733	-155.751	0.522	-0.034
-713.718	-83.191	0.267	-0.088
-712.704	800.000	-0.043	-0.136
-711.689	-43.147	0.174	0.090
-710.675	-200.000	0.020	-0.093
-709.660	-159.437	0.237	-0.013
-708.645	3.809	0.199	0.148
-707.631	-200.000	0.023	-0.373
-706.616	-170.440	-0.470	0.017
-705.602	131.172	-0.142	0.186
-704.587	800.000	-0.044	-0.132
-703.572	-83.980	0.183	0.059
-702.558	-85.762	-0.164	0.052
-701.543	0.174	0.226	-0.165
-700.529	27.563	-0.161	-0.139
-699.514	-18.958	-0.091	0.058
-698.499	-30.318	-0.131	0.076
-697.485	-119.022	0.451	0.081
-696.470	-121.276	-0.346	-0.059
-695.456	-142.864	0.323	-0.032
-694.441	-119.155	-0.347	-0.062
-693.426	220.837	-0.101	-0.165
-692.412	-66.512	0.312	-0.126
-691.397	216.752	-0.177	-0.288
-690.383	-136.509	-0.080	-0.009
-689.368	-137.169	-0.054	-0.006
-688.354	13.760	-0.079	-0.063
-687.339	-200.000	0.014	0.345
-686.324	-200.000	0.046	-0.222
-685.310	-15.747	0.099	0.065
-684.295	-200.000	0.021	0.109
-683.281	60.264	0.175	-0.177
-682.266	-174.649	-0.148	-0.004
-681.251	247.638	0.062	-0.107
-680.237	-200.000	-0.024	-0.190
-679.222	-65.551	0.084	-0.034
-678.208	-84.280	0.249	-0.080
-677.193	800.000	-0.071	0.211
-676.178	-90.059	0.104	-0.031
-675.164	800.000	-0.089	-0.359
-674.149	455.147	0.072	0.162
-673.135	399.128	-0.137	-0.291
-672.120	469.272	-0.022	0.050
-671.105	58.367	0.264	-0.264
-670.091	-130.785	0.229	-0.031
-669.076	-200.000	-0.043	-0.201
-668.062	-200.000	-0.034	0.339
-667.047	39.178	0.186	-0.169
-666.032	-13.820	-0.138	0.091
-665.018	81.983	-0.051	-0.057
-664.003	150.415	-0.219	0.303
-662.989	-120.159	0.351	0.061
-661.974	-129.970	0.120	0.017
-660.959	179.675	-0.011	-0.017
-659.945	-52.291	-0.087	0.041
-658.930	90.195	0.069	-0.079
-657.916	423.149	-0.019	-0.041
-656.901	-108.847	0.168	0.036
-655.886	-148.880	-0.112	-0.009
-654.872	44.624	0.076	0.072
-653.857	15.728	-0.144	-0.115
-652.843	-200.000	0.025	-0.137
-651.828	-200.000	-0.000	0.051
-650.814	-149.028	0.063	-0.005
-649.799	106.705	0.056	0.068
-648.784	-168.071	0.403	-0.016
-647.770	151.064	-0.160	-0.222
-646.755	-148.847	0.106	-0.009
-645.741	-123.075	-0.305	0.050
-644.726	-69.111	0.191	-0.075
-643.711	800.000	-0.017	0.067
-642.697	-123.743	-0.021	0.003
-641.682	-98.647	0.245	-0.064
-640.668	635.985	0.081	0.209
-639.653	432.233	-0.055	-0.121
-638.638	108.458	0.216	0.262
-637.624	-163.499	-0.165	-0.008
-636.609	-200.000	-0.027	0.155
-635.595	-21.556	-0.243	-0.151
-634.580	286.377	-0.203	0.372
-633.565	-22.075	-0.216	0.134
-632.551	45.361	-0.143	-0.134
-631.536	6.055	-0.133	0.100
-630.522	432.737	0.065	0.144
-629.507	278.953	0.006	-0.011
-628.492	-200.000	-0.018	0.099
-627.478	48.678	-0.129	-0.123
-626.463	181.854	0.094	-0.141
-625.449	-75.251	0.034	0.012
-624.434	-122.770	0.074	0.012
-623.419	-144.142	-0.043	-0.004
-622.405	-200.000	0.008	-0.209
-621.390	-9.070	-0.099	0.067
-620.376	-190.527	-0.149	0.002
-619.361	-40.482	-0.177	0.093
-618.346	-132.916	-0.160	-0.021
-617.332	10.070	-0.088	0.068
-616.317	-16.243	-0.085	-0.055
-615.303	-159.465	0.183	-0.010
-614.288	39.858	0.025	0.023
-613.273	13.382	-0.199	0.157
-612.259	384.777	0.107	-0.225
-611.244	-101.790	-0.392	0.096
-610.230	-59.050	0.022	0.009
-609.215	661.639	0.103	-0.269
-608.201	79.246	-0.166	-0.180
-607.186	21.613	-0.086	0.071
-606.171	-0.365	-0.212	0.153
-605.157	-200.000	0.013	-0.212
-604.142	-200.000	0.013	-0.222
-603.128	800.000	-0.064	-0.210
-602.113	-200.000	-0.043	0.207
-601.098	217.358	-0.140	0.226
-600.084	-91.082	-0.101	-0.029
-599.069	-200.000	-0.044	-0.285
-598.055	-200.000	0.028	0.170
-597.040	-172.599	-0.255	0.008
-596.025	-153.556	-0.120	0.008
-595.011	316.006	0.206	0.395
-593.996	-97.528	-0.435	0.115
-592.982	800.000	0.102	-0.310
-591.967	-144.049	0.194	-0.019
-590.952	-144.544	0.507	-0.048
-589.938	168.133	0.109	-0.158
-588.923	-200.000	-0.034	0.266
-587.909	800.000	-0.044	0.154
-586.894	-142.770	-0.346	-0.034
-585.879	393.764	-0.079	-0.166
-584.865	-3.164	-0.168	-0.119
-583.850	-199.194	0.136	-0.001
-582.836	44.095	-0.157	0.146
-581.821	-119.060	-0.311	0.055
-580.806	58.005	0.180	-0.179
-579.792	800.000	-0.041	-0.173
-578.777	-82.215	0.342	0.113
-577.763	-192.443	0.311	-0.003
-576.748	74.051	0.252	-0.268
-575.733	-200.000	-0.031	-0.305
-574.719	-108.212	-0.282	-0.062
-573.704	86.060	0.269	-0.300
-572.690	441.865	-0.099	-0.220
-571.675	-120.537	-0.358	0.062
-570.661	-84.776	-0.098	0.031
-569.646	-102.099	0.333	0.081
-568.631	-69.511	-0.194	0.075
-567.617	800.000	-0.051	0.163
-566.602	1.397	0.140	-0.102
-565.588	800.000	0.088	0.280
-564.573	-64.948	-0.223	0.091
-563.558	800.000	-0.086	0.307
-562.544	800.000	-0.079	0.266
-561.529	303.835	-0.105	0.197
-560.515	800.000	0.083	-0.318
-559.500	-159.118	-0.458	-0.026
-558.485	636.464	0.131	0.338
-557.471	800.000	-0.092	-0.273
-556.456	-5.286	0.292	-0.203
-555.442	-128.208	-0.185	-0.027
-554.427	260.178	-0.184	-0.322
-553.412	-31.631	-0.269	0.153
-552.398	-147.291	-0.198	0.017
-551.383	72.222	-0.216	-0.228
-550.369	15.660	0.137	0.109
-549.354	374.798	-0.141	-0.291
-548.339	-200.000	0.013	-0.170
-547.325	71.440	-0.104	-0.109
-546.310	800.000	0.055	0.227
-545.296	28.856	0.164	-0.141
-544.281	-200.000	-0.037	-0.193
-543.266	77.275	0.040	0.043
-542.252	800.000	-0.091	-0.397
-541.237	-200.000	-0.008	-0.098
-540.223	289.546	0.130	0.240
-539.208	-60.428	-0.161	-0.070
-538.193	-34.183	0.089	-0.049
-537.179	-142.353	-0.316	-0.032
-536.164	-200.000	0.023	0.154
-535.150	-200.000	0.003	0.264
-534.135	-112.257	-0.176	-0.036
-533.121	-81.027	0.248	0.083
-532.106	592.893	0.089	-0.222
-531.091	-200.000	0.015	-0.337
-530.077	-35.805	-0.271	-0.149
-529.062	800.000	-0.085	-0.282
-528.048	-177.874	-0.043	0.001
-527.033	171.740	-0.264	-0.385
-526.018	-3.811	0.186	0.131
-525.004	-144.522	-0.397	0.037
-523.989	-6.464	-0.052	-0.036
-522.975	-200.000	-0.068	-0.318
-521.960	-79.864	0.120	-0.041
-520.945	-29.465	0.224	0.130
-519.931	800.000	-0.013	0.037
-518.916	-159.079	-0.202	-0.012
-517.902	-32.116	0.076	-0.043
-516.887	9.394	-0.020	0.016
-515.872	591.921	0.112	0.280
-514.858	61.438	-0.271	0.273
-513.843	87.220	0.154	-0.172
-512.829	-69.403	0.142	-0.055
-511.814	-12.544	0.164	-0.108
-510.799	82.362	-0.087	0.096
-509.785	-200.000	0.037	-0.166
-508.770	113.810	-0.244	-0.300
-507.756	91.842	0.214	0.244
-506.741	-200.000	-0.006	-0.121
-505.726	-138.339	-0.137	0.015
-504.712	-200.000	0.015	0.188
-503.697	6.585	0.083	0.063
-502.683	122.533	0.209	0.265
-501.668	-170.722	-0.056	0.002
-500.653	-167.061	-0.197	-0.008
-499.639	-200.000	0.028	-0.413
-498.624	-200.000	-0.027	-0.286
-497.610	-200.000	-0.025	0.151
-496.595	30.275	-0.132	0.114
-495.581	-200.000	0.021	-0.216
-494.566	800.000	0.022	0.090
-493.551	-27.222	0.238	0.140
-492.537	101.075	0.208	-0.245
-491.522	-120.830	-0.129	0.022
-490.508	-63.324	0.162	0.067
-489.493	-43.303	-0.136	-0.069
-488.478	178.984	0.269	-0.398
-487.464	1.548	-0.129	0.094
-486.449	70.463	0.181	0.189
-485.435	-48.272	0.359	0.175
-484.420	73.819	0.429	0.455
-483.405	-42.526	0.086	-0.044
-482.391	-81.303	-0.132	-0.044
-481.376	800.000	0.017	0.058
-480.362	-76.054	-0.281	0.101
-479.347	-200.000	-0.026	0.205
-478.332	57.445	0.254	0.251
-477.318	800.000	-0.045	0.129
-476.303	-200.000	0.047	-0.223
-475.289	-200.000	0.017	-0.173
-474.274	679.919	0.174	-0.459
-473.259	46.016	-0.153	0.143
-472.245	-57.197	-0.212	0.094
-471.230	-200.000	0.076	0.351
-470.216	45.709	-0.118	0.110
-469.201	-200.000	-0.001	0.278
-468.186	800.000	0.047	0.176
-467.172	-200.000	0.008	0.095
-466.157	57.895	-0.153	0.152
-465.143	-58.235	-0.079	0.035
-464.128	-107.885	0.329	0.072
-463.113	-200.000	0.003	0.255
-462.099	224.411	0.124	-0.202
-461.084	-73.639	-0.036	-0.013
-460.070	800.000	0.064	-0.264
-459.055	-200.000	0.003	-0.061
-458.040	-200.000	0.041	-0.372
-457.026	305.413	-0.010	-0.019
-456.011	109.528	0.109	-0.132
-454.997	19.352	-0.076	-0.062
-453.982	-166.963	-0.512	-0.021
-452.968	-200.000	0.000	0.421
-451.953	213.472	0.143	-0.229
-450.938	355.241	-0.131	-0.263
-449.924	302.817	0.060	-0.113
-448.909	108.182	-0.103	-0.124
-447.895	43.721	-0.346	-0.320
-446.880	-23.013	-0.355	-0.216
-445.865	-88.844	-0.197	0.059
-444.851	315.701	0.071	0.136
-443.836	-200.000	-0.003	0.142
-442.822	-22.981	-0.087	0.053
-441.807	50.262	0.174	-0.166
-440.792	702.349	0.036	0.095
-439.778	800.000	-0.057	-0.201
-438.763	-100.612	0.026	0.006
-437.749	44.964	-0.158	0.147
-436.734	7.160	-0.217	0.164
-435.719	124.760	0.161	0.205
-434.705	402.247	-0.090	0.190
-433.690	-94.870	-0.025	-0.007
-432.676	516.362	-0.107	-0.253
-431.661	394.352	0.083	0.176
-430.646	800.000	-0.098	-0.303
-429.632	800.000	0.051	-0.185
-428.617	158.722	0.207	-0.290
-427.603	-200.000	-0.001	0.016
-426.588	644.236	0.096	-0.247
-425.573	-11.410	-0.283	-0.188
-424.559	162.428	0.269	-0.381
-423.544	-38.904	0.263	0.140
-422.530	-200.000	-0.080	0.378
-421.515	-106.218	-0.186	-0.042
-420.500	800.000	-0.051	0.200
-419.486	39.190	-0.145	0.131
-418.471	-162.449	0.318	0.016
-417.457	-90.295	0.470	-0.138
-416.442	-163.046	-0.231	0.011
-415.428	29.252	-0.026	-0.022
-414.413	-102.550	-0.462	0.111
-413.398	256.536	0.101	0.174
-412.384	95.028	0.037	-0.043
-411.369	96.901	0.233	0.269
-410.355	306.998	0.170	0.319
-409.340	191.854	-0.204	-0.310
-408.325	-147.027	0.255	-0.022
-407.311	678.991	-0.040	0.105
-406.296	417.491	-0.104	-0.225
-405.282	800.000	-0.045	0.199
-404.267	-150.988	0.287	0.022
-403.252	-107.080	-0.144	-0.032
-402.238	-34.402	0.073	-0.040
-401.223	340.432	0.032	0.062
-400.209	347.251	-0.134	0.267
-399.194	-2.212	-0.314	0.222
-398.179	-200.000	0.045	-0.215
-397.165	-200.000	0.011	0.203
-396.150	-6.381	-0.088	-0.061
-395.136	-200.000	-0.054	-0.241
-394.121	-200.000	-0.039	-0.218
-393.106	-19.476	-0.221	-0.138
-392.092	284.702	0.112	0.204
-391.077	131.687	0.115	0.149
-390.063	401.331	-0.153	-0.323
-389.048	-83.611	0.208	-0.067
-388.033	-40.244	-0.335	-0.176
-387.019	12.058	-0.210	-0.163
-386.004	39.164	0.087	-0.079
-384.990	-200.000	-0.011	0.064
-383.975	-200.000	0.040	0.349
-382.960	7.210	0.331	0.249
-381.946	84.832	0.379	0.418
-380.931	458.639	0.194	0.435
-379.917	-200.000	-0.020	-0.149
-378.902	-200.000	-0.047	0.246
-377.888	-200.000	0.027	-0.139
-376.873	-200.000	0.007	-0.152
-375.858	-58.075	0.356	0.157
-374.844	-200.000	0.016	0.263
-373.829	388.070	-0.118	0.246
-372.815	-200.000	0.018	0.281
-371.800	15.531	0.179	0.141
-370.785	90.245	-0.039	0.044
-369.771	-200.000	0.025	-0.146
-368.756	407.980	0.127	0.271
-367.742	-114.919	-0.092	0.018
-366.727	693.867	0.065	-0.172
-365.712	-81.027	-0.191	0.064
-364.698	-175.460	-0.081	-0.002
-363.683	-56.198	0.086	0.039
-362.669	-102.645	0.255	-0.061
-361.654	-200.000	-0.174	-0.001
-360.639	800.000	0.028	-0.116
-359.625	-164.534	0.166	0.008
-358.610	3.355	-0.193	-0.141
-357.596	261.662	0.136	-0.237
-356.581	-200.000	0.057	0.286
-355.566	-200.000	0.035	0.168
-354.552	-169.268	0.203	-0.008
-353.537	800.000	0.024	-0.075
-352.523	235.220	0.063	0.105
-351.508	324.277	0.173	0.333
-350.493	-135.756	0.167	-0.020
-349.479	-200.000	-0.004	-0.621
-348.464	8.069	0.015	-0.011
-347.450	69.671	-0.100	-0.103
-346.435	-126.798	0.239	-0.035
-345.420	-110.672	0.257	0.053
-344.406	-39.544	-0.382	-0.201
-343.391	126.379	0.174	-0.222
-342.377	-200.000	0.001	-0.270
-341.362	-7.831	-0.065	-0.044
-340.348	-200.000	-0.024	-0.210
-339.333	-48.386	-0.170	-0.082
-338.318	-200.000	0.003	0.156
-337.304	800.000	0.064	0.228
-336.289	-0.784	-0.191	-0.136
-335.275	42.145	-0.059	-0.054
-334.260	-6.672	-0.152	-0.104
-333.245	800.000	0.046	-0.149
-332.231	465.450	-0.102	-0.229
-331.216	-148.363	-0.207	0.017
-330.202	115.468	0.137	0.169
-329.187	-41.421	0.143	-0.074
-328.172	-120.907	-0.514	0.087
-327.158	-158.369	0.114	-0.007
-326.143	-24.505	0.156	0.094
-325.129	50.794	0.188	0.179
-324.114	800.000	0.180	0.529
-323.099	800.000	-0.037	0.123
-322.085	256.566	0.137	-0.237
-321.070	368.132	0.138	-0.280
-320.056	-81.770	0.268	-0.088
-319.041	800.000	-0.071	0.278
-318.026	123.265	-0.039	0.049
-317.012	297.400	-0.137	-0.252
-315.997	-114.996	0.244	0.047
-314.983	-135.240	-0.489	-0.059
-313.968	-144.151	0.498	0.047
-312.953	800.000	-0.073	-0.262
-311.939	49.713	-0.242	-0.229
-310.924	25.996	-0.144	0.121
-309.910	567.506	-0.081	0.198
-308.895	800.000	-0.093	-0.273
-307.880	85.381	0.081	-0.089
-306.866	113.130	0.055	0.066
-305.851	34.232	-0.164	0.144
-304.837	601.037	-0.158	0.394
-303.822	259.959	-0.056	-0.097
-302.807	-43.246	0.162	0.083
-301.793	-32.907	0.300	0.167
-300.778	-200.000	0.024	0.130
-299.764	-55.607	0.081	0.036
-298.749	201.557	0.058	0.089
-297.735	315.776	-0.107	-0.203
-296.720	-33.596	0.427	0.237
-295.705	-81.413	-0.174	-0.058
-294.691	-112.192	0.251	-0.051
-293.676	63.555	0.154	0.156
-292.662	-135.897	0.492	0.058
-291.647	-200.000	-0.053	0.252
-290.632	-200.000	-0.021	0.099
-289.618	800.000	0.078	-0.298
-288.603	-82.790	0.163	-0.053
-287.589	-109.471	0.126	-0.027
-286.574	150.178	0.188	-0.256
-285.559	178.613	-0.284	-0.417
-284.545	84.270	0.081	-0.089
-283.530	296.561	0.111	0.205
-282.516	-146.606	0.075	-0.007
-281.501	-200.000	0.239	0.001
-280.486	-166.490	-0.181	0.008
-279.472	-134.304	0.157	-0.019
-278.457	-163.675	0.342	0.016
-277.443	198.368	0.142	-0.219
-276.428	-76.883	0.237	-0.083
-275.413	-200.000	0.048	0.300
-274.399	-94.934	-0.085	0.023
-273.384	-7.879	0.312	-0.211
-272.370	-200.000	0.011	0.114
-271.355	8.742	0.241	-0.182
-270.340	-200.000	-0.007	0.632
-269.326	-46.504	0.132	0.065
-268.311	-34.007	-0.004	0.002
-267.297	800.000	0.035	0.111
-266.282	800.000	-0.009	0.026
-265.267	29.838	0.211	0.180
-264.253	-139.023	0.244	0.027
-263.238	720.189	-0.065	0.173
-262.224	-200.000	0.011	-0.200
-261.209	800.000	-0.041	-0.122
-260.195	-108.614	0.238	0.051
-259.180	-146.963	-0.400	0.034
-258.165	785.648	0.059	0.163
-257.151	-200.000	0.058	0.369
-256.136	-200.000	-0.043	0.227
-255.122	134.458	-0.192	0.249
-254.107	68.743	0.201	0.207
-253.092	37.618	-0.138	0.123
-252.078	-32.659	-0.104	0.058
-251.063	44.024	0.128	-0.117
-250.049	23.938	-0.133	-0.110
-249.034	-33.868	-0.212	-0.117
-248.019	-77.832	-0.143	0.050
-247.005	800.000	0.101	0.293
-245.990	-200.000	-0.039	-0.270
-244.976	-68.650	-0.207	-0.080
-243.961	47.362	-0.197	0.184
-242.946	109.006	-0.220	-0.263
-241.932	800.000	0.030	-0.115
-240.917	-30.479	0.309	-0.176
-239.903	21.010	-0.129	0.105
-238.888	800.000	-0.067	0.227
-237.873	54.419	-0.276	0.267
-236.859	-126.803	0.428	0.063
-235.844	-93.360	-0.351	0.097
-234.830	-119.640	-0.311	0.054
-233.815	-50.142	0.141	-0.067
-232.800	257.176	0.044	0.076
-231.786	-24.595	-0.061	0.036
-230.771	-1.781	-0.148	0.105
-229.757	800.000	0.019	0.068
-228.742	-200.000	-0.055	-0.247
-227.727	9.943	0.186	-0.142
-226.713	-36.290	-0.168	-0.091
-225.698	800.000	-0.149	0.457
-224.684	-98.784	-0.047	0.012
-223.669	62.725	0.118	-0.118
-222.655	-200.000	0.017	-0.085
-221.640	-103.635	0.232	0.054
-220.625	-200.000	-0.006	-0.147
-219.611	-175.196	-0.145	0.004
-218.596	377.784	-0.041	0.084
-217.582	-26.343	0.052	-0.030
-216.567	159.529	-0.075	0.105
-215.552	72.806	0.123	0.128
-214.538	-200.000	0.033	-0.157
-213.523	-84.510	-0.485	-0.153
-212.509	800.000	-0.092	-0.291
-211.494	37.279	0.163	-0.145
-210.479	6.057	-0.102	-0.076
-209.465	-200.000	-0.005	0.386
-208.450	-158.212	-0.086	0.005
-207.436	-27.887	0.333	0.193
-206.421	62.578	0.058	-0.058
-205.406	-41.772	-0.110	0.057
-204.392	-200.000	-0.047	0.232
-203.377	-83.057	0.246	-0.079
-202.363	5.532	0.095	0.070
-201.348	253.842	0.071	-0.121
-200.333	-28.759	0.176	0.101
-199.319	71.697	-0.523	-0.544
-198.304	-72.866	-0.164	-0.060
-197.290	80.728	-0.041	-0.044
-196.275	-131.303	0.214	0.028
-195.260	245.759	-0.120	-0.202
-194.246	-55.523	0.257	0.115
-193.231	-93.870	-0.156	0.043
-192.217	378.346	0.084	0.173
-191.202	3.143	0.228	-0.166
-190.187	-16.705	0.099	-0.063
-189.173	12.245	0.070	0.054
-188.158	-6.011	-0.072	-0.049
-187.144	-34.602	0.202	-0.111
-186.129	-125.684	-0.050	0.008
-185.114	-200.000	0.028	-0.167
-184.100	800.000	0.078	-0.231
-183.085	-200.000	0.051	-0.240
-182.071	-200.000	0.034	-0.296
-181.056	193.250	-0.049	0.074
-180.042	-13.292	0.238	0.154
-179.027	-51.020	-0.199	0.093
-178.012	183.685	0.044	-0.065
-176.998	-61.249	0.136	0.057
-175.983	-200.000	0.012	0.152
-174.969	200.114	-0.098	0.150
-173.954	-78.070	-0.161	0.055
-172.939	-99.892	0.182	-0.045
-171.925	-30.921	0.055	-0.031
-170.910	137.288	-0.190	0.248
-169.896	-163.413	0.234	0.011
-168.881	-15.561	-0.104	-0.066
-167.866	-200.000	-0.051	-0.275
-166.852	-200.000	0.016	-0.096
-165.837	474.058	-0.053	0.120
-164.823	-89.125	-0.122	-0.036
-163.808	-17.136	-0.192	0.121
-162.793	138.751	0.127	-0.167
-161.779	138.644	0.050	0.065
-160.764	250.843	-0.117	0.198
-159.750	-17.753	-0.260	0.163
-158.735	800.000	0.033	-0.116
-157.720	-52.900	0.247	0.114
-156.706	49.576	-0.137	-0.129
-155.691	-200.000	-0.001	-0.145
-154.677	-105.371	0.278	-0.063
-153.662	-200.000	-0.007	0.234
-152.647	800.000	-0.043	-0.123
-151.633	-93.002	0.226	0.063
-150.618	-59.300	0.075	0.032
-149.604	-200.000	0.029	-0.146
-148.589	-200.000	-0.011	-0.215
-147.574	131.755	-0.042	-0.054
-146.560	199.865	0.039	0.059
-145.545	-159.064	-0.165	0.009
-144.531	-166.002	0.233	-0.010
-143.516	145.706	0.081	-0.109
-142.502	-28.552	0.076	0.044
-141.487	8.328	-0.276	-0.207
-140.472	-187.273	-0.185	-0.003
-139.458	-117.997	0.473	-0.084
-138.443	800.000	-0.055	0.217
-137.429	-93.585	0.046	0.013
-136.414	-200.000	-0.000	0.010
-135.399	254.966	0.124	0.212
-134.385	418.302	0.171	-0.364
-133.370	-200.000	-0.016	0.296
-132.356	800.000	-0.122	0.459
-131.341	800.000	-0.068	0.208
-130.326	62.018	0.053	-0.053
-129.312	-200.000	-0.009	-0.262
-128.297	-130.185	0.266	-0.036
-127.283	800.000	0.037	-0.139
-126.268	447.480	0.068	0.149
-125.253	-200.000	-0.013	-0.076
-124.239	9.214	0.295	0.222
-123.224	130.541	-0.166	0.212
-122.210	-74.862	0.244	-0.087
