DTS Sentinel unit serial number:	SN413079Multiplexer serial number:	ORYXHardware model number:	OX4-SRSoftware version number:	ORYX F/W v4.00 Oryx Data Collector v3.7.2.0data status	okinstallation	princeton_trtdifferential loss correction	single-endedforward channel	channel 4reverse channel	N/Adate	2019/09/11time	20:27:11forward acquisition time	60.00reverse acquisition time	0.00gamma	496.2192k internal	0.2303k external	0.2303temperature offset calibration	1.0055default loss term (dB/km)	0.3790temperature slope calibration	1.0000multiplexer offset coefficient	1.0000multiplexer slope coefficient	1.0000fibre end	0.00T internal ref (°C)	37.75T ext. ref 1 (°C)	1.48T ext. ref 2 (°C)	31.44length (m)	temperature (°C)	Stokes	anti-Stokes-747.200	-96.078	0.295	0.080
-746.185	800.000	0.076	0.285
-745.171	755.656	0.039	0.108
-744.156	-200.000	-0.096	0.533
-743.142	-88.137	-0.265	-0.081
-742.127	-94.851	-0.236	-0.065
-741.112	431.823	0.071	0.158
-740.098	563.810	0.155	0.381
-739.083	800.000	0.106	0.366
-738.069	138.962	-0.201	0.270
-737.054	-200.000	0.016	0.193
-736.039	14.856	-0.059	-0.047
-735.025	15.829	0.246	-0.197
-734.010	-49.085	-0.178	-0.087
-732.996	-42.156	-0.154	0.080
-731.981	-109.480	-0.171	-0.037
-730.966	120.216	-0.227	0.287
-729.952	800.000	0.014	0.063
-728.937	210.982	-0.135	-0.216
-727.923	-50.583	0.469	-0.225
-726.908	-200.000	0.004	-0.246
-725.894	-155.541	0.125	0.008
-724.879	-69.740	-0.414	-0.161
-723.864	275.373	-0.138	0.250
-722.850	-200.000	0.025	0.212
-721.835	149.833	-0.328	-0.453
-720.821	57.858	-0.369	0.368
-719.806	-26.515	-0.292	0.174
-718.791	800.000	-0.090	-0.346
-717.777	-11.410	-0.207	0.139
-716.762	-200.000	0.015	-0.125
-715.748	-161.156	0.220	-0.012
-714.733	800.000	-0.057	0.234
-713.718	-200.000	-0.031	-0.257
-712.704	83.038	-0.134	-0.148
-711.689	36.978	0.254	0.228
-710.675	-200.000	-0.012	0.128
-709.660	-200.000	0.010	-0.107
-708.645	106.714	0.110	0.133
-707.631	-154.870	0.155	0.010
-706.616	-200.000	-0.024	-0.250
-705.602	461.528	-0.154	-0.350
-704.587	-106.463	-0.238	-0.054
-703.572	-8.088	-0.263	0.180
-702.558	324.564	0.168	-0.327
-701.543	10.389	-0.193	-0.149
-700.529	800.000	-0.019	0.070
-699.514	-200.000	-0.005	-0.098
-698.499	17.372	0.344	0.278
-697.485	-11.421	0.195	-0.130
-696.470	197.157	-0.138	0.215
-695.456	32.125	-0.131	-0.115
-694.441	-200.000	0.034	0.155
-693.426	-200.000	0.003	-0.197
-692.412	133.478	0.099	-0.130
-691.397	-93.045	0.105	0.030
-690.383	-71.384	0.080	-0.031
-689.368	176.945	0.105	0.155
-688.354	-89.702	-0.394	-0.117
-687.339	-200.000	-0.008	-0.056
-686.324	-200.000	-0.028	-0.243
-685.310	255.547	0.053	0.092
-684.295	179.758	0.185	0.276
-683.281	86.317	0.244	0.274
-682.266	-16.520	0.169	0.109
-681.251	204.320	0.090	0.142
-680.237	800.000	-0.119	0.353
-679.222	774.962	0.053	-0.146
-678.208	290.931	-0.058	0.107
-677.193	-65.945	0.279	0.113
-676.178	34.432	0.057	-0.050
-675.164	-152.838	-0.176	0.013
-674.149	-113.363	0.554	0.111
-673.135	-68.867	-0.144	0.056
-672.120	-134.643	0.101	0.012
-671.105	149.042	-0.121	-0.167
-670.091	-200.000	0.050	-0.421
-669.076	169.067	-0.088	-0.128
-668.062	-1.406	-0.064	0.046
-667.047	-15.436	0.472	0.306
-666.032	74.668	-0.200	-0.214
-665.018	59.447	0.186	0.186
-664.003	190.274	0.154	0.236
-662.989	-200.000	-0.031	-0.221
-661.974	-132.703	-0.482	-0.063
-660.959	176.405	0.026	0.038
-659.945	-200.000	-0.032	0.175
-658.930	-70.215	0.045	-0.017
-657.916	-24.438	-0.125	0.076
-656.901	-200.000	0.006	0.168
-655.886	-89.771	-0.118	-0.035
-654.872	-163.010	0.155	0.008
-653.857	55.935	0.191	0.188
-652.843	347.247	0.115	0.230
-651.828	-96.534	-0.104	-0.028
-650.814	51.505	0.211	-0.204
-649.799	-65.004	0.120	0.049
-648.784	800.000	-0.083	-0.236
-647.770	-84.132	0.065	0.021
-646.755	-70.848	-0.176	-0.067
-645.741	-31.068	0.213	-0.122
-644.726	446.587	0.062	-0.138
-643.711	-118.578	0.304	0.055
-642.697	32.423	-0.205	0.180
-641.682	800.000	-0.119	0.349
-640.668	363.219	-0.144	0.293
-639.653	43.272	-0.159	0.148
-638.638	32.989	0.108	0.095
-637.624	-29.044	0.319	0.186
-636.609	42.478	-0.133	-0.123
-635.595	116.325	-0.049	0.061
-634.580	108.686	-0.154	0.186
-633.565	-42.657	-0.163	-0.084
-632.551	2.157	0.223	-0.163
-631.536	230.253	0.142	-0.235
-630.522	800.000	-0.079	-0.222
-629.507	60.414	-0.319	-0.320
-628.492	-57.486	-0.235	0.104
-627.478	-143.000	0.256	-0.025
-626.463	-152.267	0.530	-0.039
-625.449	800.000	-0.111	-0.378
-624.434	-112.673	0.296	-0.060
-623.419	-200.000	-0.044	0.219
-622.405	534.101	0.075	-0.181
-621.390	16.808	-0.281	-0.226
-620.376	114.391	0.226	-0.279
-619.361	216.952	-0.136	0.219
-618.346	256.362	-0.051	0.089
-617.332	800.000	0.072	0.215
-616.317	221.637	-0.136	-0.222
-615.303	-101.853	-0.079	0.019
-614.288	-82.920	0.397	0.130
-613.273	-200.000	-0.064	0.301
-612.259	197.941	-0.178	-0.276
-611.244	40.369	0.117	-0.107
-610.230	-6.272	0.191	0.132
-609.215	-200.000	0.001	0.084
-608.201	185.069	0.047	-0.071
-607.186	-170.123	0.030	-0.001
-606.171	68.709	-0.233	-0.243
-605.157	478.227	-0.063	-0.144
-604.142	-137.942	0.140	0.016
-603.128	-30.645	-0.162	0.093
-602.113	-137.737	-0.201	0.023
-601.098	800.000	-0.027	0.110
-600.084	-24.980	-0.105	0.063
-599.069	-157.399	0.117	-0.007
-598.055	800.000	-0.103	-0.293
-597.040	800.000	0.028	0.095
-596.025	-102.699	-0.073	0.018
-595.011	646.688	-0.088	-0.228
-593.996	399.872	-0.128	0.272
-592.982	-200.000	-0.027	0.317
-591.967	159.232	0.064	-0.090
-590.952	0.601	0.174	0.126
-589.938	800.000	-0.044	0.146
-588.923	-89.456	0.225	-0.067
-587.909	362.385	-0.121	0.247
-586.894	115.682	-0.199	0.247
-585.879	76.382	-0.195	0.209
-584.865	-114.551	0.154	0.030
-583.850	-105.703	-0.209	0.048
-582.836	800.000	-0.067	0.219
-581.821	-123.692	0.083	0.013
-580.806	-52.566	-0.339	-0.158
-579.792	24.345	0.118	-0.099
-578.777	-64.470	0.144	-0.059
-577.763	73.402	0.168	0.178
-576.748	599.975	-0.176	-0.442
-575.733	-200.000	-0.009	0.143
-574.719	-144.900	-0.220	-0.020
-573.704	-38.262	-0.267	-0.143
-572.690	800.000	-0.066	0.276
-571.675	-81.411	0.189	0.063
-570.661	-192.601	-0.288	-0.003
-569.646	166.030	-0.152	0.218
-568.631	12.234	0.255	0.199
-567.617	-200.000	0.034	0.162
-566.602	-200.000	-0.057	0.408
-565.588	-62.304	0.229	-0.096
-564.573	800.000	0.081	-0.271
-563.558	-101.312	-0.381	0.094
-562.544	-10.596	-0.137	0.091
-561.529	472.513	-0.047	0.106
-560.515	-59.717	-0.100	0.043
-559.500	11.284	0.222	-0.172
-558.485	-5.917	-0.332	0.230
-557.471	800.000	-0.032	-0.131
-556.456	-60.885	0.123	0.053
-555.442	800.000	-0.055	0.174
-554.427	-185.587	-0.357	0.005
-553.412	-200.000	-0.020	0.332
-552.398	63.012	0.231	0.234
-551.383	-181.143	-0.366	-0.007
-550.369	-66.306	0.360	-0.145
-549.354	-200.000	0.020	0.245
-548.339	550.200	-0.083	0.202
-547.325	800.000	-0.033	-0.141
-546.310	-106.785	0.295	-0.066
-545.296	234.602	-0.188	0.313
-544.281	132.369	0.036	-0.046
-543.266	-9.253	-0.189	-0.127
-542.252	-118.670	0.311	-0.055
-541.237	507.506	0.064	-0.151
-540.223	262.878	0.124	-0.218
-539.208	-2.208	-0.207	-0.146
-538.193	-200.000	0.004	0.084
-537.179	-200.000	-0.018	-0.142
-536.164	-164.134	-0.187	0.009
-535.150	800.000	0.017	-0.054
-534.135	-59.365	0.318	0.138
-533.121	448.861	-0.145	-0.323
-532.106	-200.000	-0.002	-0.020
-531.091	-166.000	-0.140	-0.006
-530.077	800.000	-0.053	-0.214
-529.062	-99.187	0.288	0.074
-528.048	-135.312	0.456	0.055
-527.033	51.080	-0.302	-0.289
-526.018	-106.925	-0.130	0.029
-525.004	-200.000	0.005	-0.024
-523.989	-124.674	0.103	0.016
-522.975	425.966	-0.193	0.420
-521.960	-200.000	-0.037	0.273
-520.945	-42.937	-0.186	0.095
-519.931	-200.000	-0.022	-0.122
-518.916	800.000	0.057	-0.188
-517.902	-49.583	-0.077	0.037
-516.887	-76.201	-0.178	-0.063
-515.872	-200.000	0.041	0.195
-514.858	-155.196	0.125	-0.008
-513.843	-50.340	-0.157	-0.075
-512.829	-200.000	0.012	-0.408
-511.814	338.516	0.120	0.236
-510.799	597.327	-0.041	0.102
-509.785	-200.000	-0.267	0.000
-508.770	15.856	0.136	0.108
-507.756	-28.953	0.019	0.011
-506.741	16.952	-0.159	-0.127
-505.726	413.267	0.008	0.018
-504.712	-200.000	0.027	-0.297
-503.697	-39.485	-0.251	-0.133
-502.683	58.740	0.164	-0.163
-501.668	-119.043	0.071	-0.012
-500.653	-200.000	0.038	0.328
-499.639	-200.000	-0.015	-0.098
-498.624	124.451	-0.175	-0.222
-497.610	-9.313	0.145	0.098
-496.595	800.000	-0.097	0.295
-495.581	177.053	-0.038	0.056
-494.566	-105.236	-0.247	0.057
-493.551	-200.000	0.127	0.670
-492.537	-200.000	-0.030	0.221
-491.522	-101.721	0.215	-0.053
-490.508	-107.885	-0.327	0.072
-489.493	800.000	-0.023	-0.080
-488.478	-97.827	-0.155	-0.040
-487.464	800.000	-0.112	0.365
-486.449	800.000	0.061	0.193
-485.435	-89.233	-0.240	-0.071
-484.420	-105.599	-0.266	-0.061
-483.405	-200.000	-0.017	-0.106
-482.391	16.580	0.188	-0.149
-481.376	28.014	0.248	-0.211
-480.362	467.384	-0.052	-0.118
-479.347	-169.999	0.383	0.014
-478.332	-100.238	0.084	0.021
-477.318	-84.678	0.212	-0.067
-476.303	-200.000	-0.070	-0.453
-475.289	47.353	-0.140	-0.132
-474.274	-85.009	-0.285	-0.090
-473.259	350.597	0.175	-0.348
-472.245	800.000	0.050	-0.154
-471.230	617.573	0.114	-0.289
-470.216	-200.000	0.007	-0.236
-469.201	800.000	-0.050	-0.176
-468.186	-160.804	0.265	0.014
-467.172	180.586	-0.209	0.310
-466.157	-16.669	-0.334	0.213
-465.143	-96.603	-0.030	0.008
-464.128	176.366	0.061	0.089
-463.113	357.361	-0.084	0.168
-462.099	152.034	0.134	0.184
-461.084	19.017	0.090	0.073
-460.070	38.892	0.087	-0.078
-459.055	-3.687	-0.052	-0.037
-458.040	417.450	0.110	0.236
-457.026	-145.636	0.258	0.023
-456.011	684.320	-0.069	-0.181
-454.997	-200.000	0.008	0.382
-453.982	-14.893	0.106	-0.069
-452.968	-143.861	-0.139	0.013
-451.953	201.857	0.004	0.006
-450.938	-121.854	0.318	-0.053
-449.924	800.000	-0.035	-0.115
-448.909	227.194	-0.134	0.219
-447.895	356.383	0.030	0.060
-446.880	-105.193	-0.339	0.078
-445.865	108.836	0.116	-0.139
-444.851	46.862	0.173	0.162
-443.836	800.000	0.060	0.193
-442.822	-70.888	0.240	-0.091
-441.807	-168.257	0.093	0.004
-440.792	-93.157	0.495	-0.139
-439.778	102.498	-0.101	0.119
-438.763	124.228	0.120	-0.152
-437.749	-142.201	0.122	-0.012
-436.734	-28.152	0.167	-0.097
-435.719	-200.000	0.070	0.463
-434.705	180.845	-0.166	0.245
-433.690	800.000	-0.020	-0.068
-432.676	479.190	0.120	-0.275
-431.661	-200.000	-0.010	0.105
-430.646	-200.000	-0.043	-0.317
-429.632	46.296	-0.218	0.203
-428.617	-200.000	-0.051	-0.459
-427.603	227.922	-0.029	-0.047
-426.588	800.000	-0.056	-0.196
-425.573	-95.027	0.467	-0.127
-424.559	-200.000	-0.028	0.144
-423.544	126.881	-0.083	0.106
-422.530	-200.000	0.016	0.158
-421.515	77.953	-0.183	0.196
-420.500	-200.000	0.010	-0.314
-419.486	-11.268	0.213	0.141
-418.471	565.104	-0.073	0.178
-417.457	-200.000	-0.164	0.000
-416.442	800.000	0.079	0.229
-415.428	-129.160	-0.138	0.019
-414.413	36.074	-0.097	-0.086
-413.398	800.000	-0.204	-0.591
-412.384	173.870	-0.097	-0.141
-411.369	-200.000	-0.007	-0.254
-410.355	411.723	-0.101	-0.216
-409.340	-184.311	0.204	-0.003
-408.325	-3.919	-0.029	-0.020
-407.311	-62.547	0.149	-0.062
-406.296	24.573	-0.197	-0.164
-405.282	800.000	0.011	-0.042
-404.267	-65.613	-0.283	0.114
-403.252	36.574	0.392	-0.348
-402.238	-160.242	-0.087	0.005
-401.223	-79.758	-0.202	-0.068
-400.209	-91.317	-0.122	0.035
-399.194	626.706	0.078	-0.197
-398.179	190.040	-0.084	0.126
-397.165	176.574	-0.126	0.184
-396.150	95.433	0.086	-0.099
-395.136	-95.229	-0.255	0.069
-394.121	800.000	-0.022	-0.088
-393.106	800.000	0.062	0.212
-392.092	49.549	0.090	0.085
-391.077	-10.942	0.142	-0.094
-390.063	-94.550	0.455	-0.125
-389.048	244.201	-0.143	0.241
-388.033	-132.620	0.100	-0.013
-387.019	-200.000	-0.008	0.415
-386.004	-33.106	-0.138	0.077
-384.990	-146.937	0.108	-0.009
-383.975	-71.892	-0.135	-0.051
-382.960	397.111	-0.178	-0.373
-381.946	-159.361	-0.251	0.014
-380.931	-200.000	0.035	0.416
-379.917	-15.227	-0.204	0.131
-378.902	295.035	0.180	-0.330
-377.888	733.820	-0.012	-0.033
-376.873	-125.521	0.277	0.042
-375.858	-113.476	0.203	-0.040
-374.844	711.962	0.224	-0.595
-373.829	-200.000	0.004	-0.060
-372.815	-200.000	-0.030	-0.146
-371.800	152.191	0.016	0.022
-370.785	40.540	0.105	-0.095
-369.771	35.599	0.288	-0.254
-368.756	376.979	-0.154	0.315
-367.742	71.266	0.152	0.159
-366.727	348.786	0.067	0.133
-365.712	-42.134	0.150	-0.077
-364.698	80.919	0.051	-0.055
-363.683	89.958	0.155	-0.174
-362.669	-200.000	0.023	0.145
-361.654	28.364	-0.051	-0.044
-360.639	433.312	0.126	0.274
-359.625	339.476	-0.099	-0.193
-358.610	-200.000	-0.034	0.157
-357.596	152.614	0.074	0.101
-356.581	425.201	0.046	0.100
-355.566	56.530	0.207	0.202
-354.552	155.093	0.115	0.159
-353.537	-44.155	-0.022	0.011
-352.523	782.325	0.050	-0.138
-351.508	-200.000	-0.024	-0.121
-350.493	-36.366	-0.225	-0.122
-349.479	-65.890	-0.341	-0.137
-348.464	84.713	-0.129	-0.142
-347.450	212.517	0.109	-0.172
-346.435	77.793	0.199	0.213
-345.420	-200.000	0.124	0.001
-344.406	61.084	0.330	-0.329
-343.391	-200.000	0.020	-0.140
-342.377	201.410	-0.171	-0.264
-341.362	-200.000	-0.013	0.139
-340.348	-200.000	-0.043	0.285
-339.333	-167.622	-0.275	0.011
-338.318	-200.000	-0.066	-0.321
-337.304	-40.454	0.096	-0.050
-336.289	-78.757	-0.084	0.029
-335.275	-31.028	-0.124	-0.070
-334.260	-104.466	-0.237	0.055
-333.245	374.201	-0.090	-0.184
-332.231	132.444	-0.168	-0.217
-331.216	-52.187	-0.203	0.095
-330.202	-200.000	-0.016	0.142
-329.187	525.466	0.045	-0.107
-328.172	-64.295	0.161	-0.066
-327.158	800.000	0.060	-0.236
-326.143	-76.679	0.181	0.064
-325.129	-120.190	0.116	0.020
-324.114	-77.289	0.269	-0.094
-323.099	-72.553	-0.152	-0.056
-322.085	-19.490	0.137	-0.085
-321.070	-143.198	-0.334	0.032
-320.056	294.097	-0.126	-0.232
-319.041	-200.000	0.012	-0.259
-318.026	-200.000	0.010	0.281
-317.012	-65.645	0.399	-0.160
-315.997	-200.000	0.014	-0.101
-314.983	-200.000	-0.024	-0.184
-313.968	42.661	0.064	0.058
-312.953	226.484	0.021	0.034
-311.939	30.311	0.137	-0.117
-310.924	-105.391	-0.111	-0.025
-309.910	415.013	-0.147	0.313
-308.895	800.000	-0.058	-0.244
-307.880	89.300	-0.047	-0.052
-306.866	428.896	-0.058	-0.125
-305.851	18.286	0.416	-0.332
-304.837	-200.000	0.018	-0.244
-303.822	-16.408	0.118	0.075
-302.807	-200.000	0.009	-0.065
-301.793	-27.068	-0.372	-0.217
-300.778	-46.974	-0.165	-0.081
-299.764	242.514	-0.277	0.465
-298.749	60.217	0.068	0.068
-297.735	5.096	0.169	0.124
-296.720	-42.378	0.096	-0.049
-295.705	499.037	-0.059	-0.137
-294.691	-147.361	-0.201	-0.017
-293.676	25.629	0.057	-0.048
-292.662	617.648	-0.118	-0.296
-291.647	800.000	-0.068	-0.197
-290.632	-80.622	-0.379	0.126
-289.618	520.397	0.040	0.094
-288.603	-113.153	0.122	0.024
-287.589	-183.095	-0.223	-0.004
-286.574	60.373	-0.131	-0.130
-285.559	167.444	0.093	0.133
-284.545	218.733	0.094	0.151
-283.530	168.604	-0.131	-0.186
-282.516	-47.711	-0.166	0.080
-281.501	98.100	-0.054	-0.063
-280.486	-117.750	-0.053	-0.010
-279.472	-200.000	-0.029	0.329
-278.457	-53.994	0.148	0.067
-277.443	-67.269	-0.224	0.088
-276.428	-200.000	-0.004	0.264
-275.413	-200.000	-0.039	0.193
-274.399	432.007	0.047	-0.102
-273.384	-135.820	0.126	-0.015
-272.370	800.000	0.089	0.261
-271.355	-200.000	-0.029	-0.307
-270.340	-200.000	0.037	-0.362
-269.326	246.158	-0.101	0.171
-268.311	800.000	-0.109	-0.460
-267.297	11.986	0.121	0.093
-266.282	-185.316	-0.146	-0.002
-265.267	-133.938	-0.297	0.037
-264.253	800.000	-0.018	-0.064
-263.238	366.507	0.046	0.094
-262.224	292.775	-0.106	0.193
-261.209	-115.326	-0.126	-0.024
-260.195	-54.500	-0.225	-0.102
-259.180	-190.127	0.236	-0.003
-258.165	-95.596	-0.173	0.046
-257.151	6.525	-0.224	-0.167
-256.136	-81.654	-0.221	0.072
-255.122	-200.000	0.017	-0.087
-254.107	-52.715	0.474	0.219
-253.092	-186.739	0.388	-0.005
-252.078	-112.791	-0.483	0.096
-251.063	-151.988	0.083	-0.006
-250.049	223.122	0.220	0.354
-249.034	-200.000	0.000	-0.101
-248.019	215.046	-0.067	0.106
-247.005	228.610	-0.068	-0.111
-245.990	152.300	0.090	0.122
-244.976	-200.000	0.067	0.488
-243.961	223.062	0.215	0.346
-242.946	-47.287	0.454	-0.221
-241.932	-41.510	0.157	0.081
-240.917	-189.270	-0.172	-0.002
-239.903	-97.357	0.102	0.027
-238.888	-88.382	0.378	0.113
-237.873	115.916	-0.265	-0.324
-236.859	-200.000	-0.002	-0.164
-235.844	-152.100	-0.120	0.009
-234.830	-93.264	0.164	-0.045
-233.815	112.710	-0.153	0.185
-232.800	-142.049	-0.111	0.011
-231.786	56.737	0.168	0.164
-230.771	80.970	-0.171	0.184
-229.757	17.506	0.122	-0.097
-228.742	-37.813	0.463	0.246
-227.727	-94.894	0.285	-0.077
-226.713	51.048	-0.132	-0.125
-225.698	-10.319	0.379	0.251
-224.684	10.649	-0.082	-0.062
-223.669	275.286	0.009	0.016
-222.655	-56.439	-0.187	0.083
-221.640	-41.768	0.287	0.147
-220.625	800.000	-0.031	0.134
-219.611	-155.859	-0.084	-0.005
-218.596	34.742	-0.285	-0.249
-217.582	-200.000	-0.011	-0.238
-216.567	380.130	0.124	0.253
-215.552	247.847	-0.101	-0.170
-214.538	25.367	0.168	-0.140
-213.523	-11.575	-0.082	-0.054
-212.509	9.407	-0.268	-0.202
-211.494	800.000	0.053	-0.194
-210.479	-109.618	0.044	-0.009
-209.465	800.000	-0.050	0.149
-208.450	140.841	-0.066	-0.087
-207.436	800.000	0.132	0.400
-206.421	585.034	0.134	-0.328
-205.406	-125.526	-0.228	0.035
-204.392	-44.434	0.267	-0.133
-203.377	-200.000	0.016	0.111
-202.363	-151.270	-0.364	-0.027
-201.348	198.682	-0.190	-0.290
-200.333	-32.628	0.405	-0.225
-199.319	504.099	0.021	-0.049
-198.304	-4.844	0.364	0.250
-197.290	-128.330	-0.451	0.064
-196.275	-200.000	0.014	0.077
-195.260	-26.121	-0.365	-0.214
-194.246	228.890	0.181	0.294
-193.231	-104.509	0.286	0.066
-192.217	-9.105	0.112	-0.075
-191.202	800.000	0.051	-0.168
-190.187	-200.000	0.069	-0.334
-189.173	-200.000	0.006	-0.099
-188.158	72.892	0.279	0.290
-187.144	730.129	-0.042	0.112
-186.129	342.189	-0.049	0.096
-185.114	-200.000	0.024	0.167
-184.100	-20.468	0.269	0.165
-183.085	-200.000	0.027	0.202
-182.071	150.225	0.107	0.145
-181.056	-76.130	-0.214	-0.075
-180.042	-200.000	-0.003	-0.078
-179.027	43.031	0.146	0.133
-178.012	-200.000	0.010	0.274
-176.998	-11.538	0.138	0.091
-175.983	676.289	-0.112	-0.289
-174.969	168.866	-0.074	-0.105
-173.954	67.894	-0.084	-0.086
-172.939	-113.345	-0.087	-0.017
-171.925	154.437	0.115	0.157
-170.910	32.923	0.064	-0.055
-169.896	345.207	-0.049	-0.095
-168.881	-61.892	0.229	-0.095
-167.866	-92.405	-0.343	0.096
-166.852	4.556	0.229	-0.167
-165.837	98.360	0.265	-0.304
-164.823	-75.069	-0.195	-0.070
-163.808	303.018	-0.106	0.196
-162.793	140.006	0.201	0.264
-161.779	-200.000	0.025	0.115
-160.764	-18.800	0.253	0.157
-159.750	-115.631	0.162	0.030
-158.735	-75.023	0.175	-0.063
-157.720	-72.873	0.033	-0.012
-156.706	364.376	-0.120	0.240
-155.691	800.000	-0.166	0.492
-154.677	-118.822	-0.315	-0.055
-153.662	-200.000	0.025	0.313
-152.647	3.686	-0.141	-0.102
-151.633	650.557	0.044	-0.113
-150.618	86.711	-0.338	0.371
-149.604	-84.752	0.343	0.108
-148.589	6.803	-0.118	0.087
-147.574	-50.469	0.462	0.217
-146.560	-156.687	0.307	-0.019
-145.545	-32.572	0.192	-0.106
-144.531	21.418	0.464	0.376
-143.516	-200.000	-0.001	0.146
-142.502	-41.327	-0.303	0.155
-141.487	-151.339	0.129	0.010
-140.472	261.869	0.162	0.280
-139.458	102.618	0.151	0.176
-138.443	-43.398	0.138	0.069
-137.429	-200.000	-0.058	-0.375
-136.414	-24.073	0.170	-0.101
-135.399	-111.297	0.180	-0.037
-134.385	-126.871	0.180	-0.026
-133.370	-186.426	-0.184	-0.003
-132.356	-30.924	0.192	-0.108
-131.341	755.686	-0.102	-0.274
-130.326	-144.930	0.261	0.024
-129.312	526.065	0.043	0.100
-128.297	-200.000	0.031	0.368
-127.283	-148.744	-0.067	0.005
-126.268	-57.797	-0.240	-0.105
-125.253	201.516	0.269	-0.412
-124.239	406.408	0.083	-0.174
-123.224	158.735	0.170	-0.235
-122.210	-200.000	0.034	0.462
