DTS Sentinel unit serial number:	SN413079Multiplexer serial number:	ORYXHardware model number:	OX4-SRSoftware version number:	ORYX F/W v4.00 Oryx Data Collector v3.7.2.0data status	okinstallation	princeton_trtdifferential loss correction	single-endedforward channel	channel 4reverse channel	N/Adate	2019/09/10time	20:19:11forward acquisition time	60.00reverse acquisition time	0.00gamma	496.2192k internal	0.2312k external	0.2312temperature offset calibration	0.9948default loss term (dB/km)	0.3790temperature slope calibration	1.0000multiplexer offset coefficient	1.0000multiplexer slope coefficient	1.0000fibre end	0.00T internal ref (°C)	32.22T ext. ref 1 (°C)	-0.30T ext. ref 2 (°C)	25.23length (m)	temperature (°C)	Stokes	anti-Stokes-747.200	99.619	0.106	-0.124
-746.185	406.479	-0.122	0.262
-745.171	-33.045	0.224	-0.126
-744.156	-61.958	0.206	0.087
-743.142	-118.785	-0.234	0.042
-742.127	800.000	-0.081	0.304
-741.112	-19.863	-0.141	0.088
-740.098	-200.000	-0.053	0.534
-739.083	800.000	0.101	0.418
-738.069	790.003	-0.122	0.340
-737.054	-136.199	-0.418	0.050
-736.039	-200.000	-0.237	-0.001
-735.025	17.102	0.210	0.169
-734.010	65.184	0.091	-0.093
-732.996	-93.671	-0.167	-0.047
-731.981	78.123	0.208	-0.225
-730.966	379.591	0.061	-0.128
-729.952	35.827	-0.176	0.157
-728.937	273.513	-0.159	-0.285
-727.923	193.570	-0.167	0.257
-726.908	185.501	-0.167	-0.251
-725.894	-200.000	0.043	0.237
-724.879	-200.000	0.002	0.060
-723.864	451.737	0.120	-0.268
-722.850	-17.549	-0.303	0.193
-721.835	800.000	-0.031	-0.102
-720.821	-109.568	-0.210	-0.045
-719.806	397.770	-0.037	-0.079
-718.791	-200.000	-0.005	-0.131
-717.777	-35.744	0.064	-0.035
-716.762	-200.000	-0.028	0.237
-715.748	5.969	-0.198	0.148
-714.733	-112.458	-0.111	-0.022
-713.718	-113.995	0.285	-0.056
-712.704	-200.000	0.022	-0.127
-711.689	-200.000	0.016	-0.181
-710.675	800.000	-0.076	-0.231
-709.660	-81.212	-0.458	-0.153
-708.645	168.322	-0.093	-0.134
-707.631	184.737	-0.076	-0.114
-706.616	88.802	-0.184	0.207
-705.602	497.424	0.078	-0.182
-704.587	10.769	0.083	0.064
-703.572	-138.426	-0.199	0.022
-702.558	-6.244	0.243	0.168
-701.543	800.000	0.065	-0.204
-700.529	299.177	-0.062	0.116
-699.514	-200.000	0.029	-0.235
-698.499	123.886	0.106	0.135
-697.485	35.734	-0.188	-0.167
-696.470	93.256	0.093	0.106
-695.456	-135.318	0.162	-0.020
-694.441	508.543	-0.079	0.186
-693.426	-123.526	0.031	0.005
-692.412	-71.499	0.128	0.049
-691.397	-159.907	0.153	0.008
-690.383	-200.000	0.017	0.122
-689.368	800.000	0.063	-0.188
-688.354	98.696	0.059	-0.068
-687.339	476.231	0.102	-0.233
-686.324	-100.467	-0.036	0.009
-685.310	-200.000	0.018	0.165
-684.295	422.994	-0.085	0.186
-683.281	-200.000	0.022	0.261
-682.266	-200.000	-0.047	0.222
-681.251	-200.000	-0.000	0.065
-680.237	-79.187	-0.171	-0.059
-679.222	-39.171	-0.359	-0.191
-678.208	-65.203	-0.275	0.112
-677.193	31.528	0.159	0.138
-676.178	377.471	-0.061	-0.125
-675.164	-200.000	0.003	-0.148
-674.149	96.505	0.176	-0.204
-673.135	22.020	0.080	-0.066
-672.120	800.000	-0.044	-0.155
-671.105	-200.000	0.029	0.345
-670.091	-200.000	0.010	-0.061
-669.076	-61.718	-0.194	0.082
-668.062	83.560	0.224	-0.247
-667.047	296.820	0.101	0.188
-666.032	-11.332	0.241	-0.161
-665.018	-100.475	0.053	0.013
-664.003	-142.757	0.297	-0.029
-662.989	196.713	0.066	-0.101
-661.974	-98.976	-0.155	-0.040
-660.959	-123.396	-0.261	-0.042
-659.945	43.127	-0.238	0.219
-658.930	341.523	0.037	-0.072
-657.916	-160.476	-0.262	-0.014
-656.901	-52.837	-0.088	0.041
-655.886	-81.935	0.234	-0.077
-654.872	-37.924	-0.154	0.083
-653.857	-19.182	-0.324	0.203
-652.843	-78.841	-0.222	0.077
-651.828	-64.389	0.238	0.098
-650.814	-119.844	-0.177	-0.031
-649.799	-140.505	-0.215	-0.023
-648.784	44.133	0.244	0.227
-647.770	-184.934	0.226	0.004
-646.755	93.790	-0.206	0.236
-645.741	-200.000	0.060	0.407
-644.726	60.510	-0.149	-0.149
-643.711	370.741	0.193	-0.396
-642.697	179.277	-0.094	-0.139
-641.682	301.475	0.050	-0.093
-640.668	233.481	-0.046	-0.076
-639.653	-32.884	-0.038	-0.021
-638.638	-97.433	0.283	0.074
-637.624	67.450	-0.284	0.293
-636.609	-200.000	-0.024	0.218
-635.595	174.438	-0.193	-0.282
-634.580	-132.151	0.182	0.024
-633.565	-98.584	-0.410	0.106
-632.551	203.692	0.179	0.279
-631.536	-200.000	0.028	-0.238
-630.522	-129.469	0.371	-0.052
-629.507	-59.754	-0.272	0.118
-628.492	-109.644	0.064	0.014
-627.478	715.889	-0.193	-0.516
-626.463	-54.384	-0.098	0.045
-625.449	-54.840	0.174	0.079
-624.434	800.000	0.043	0.173
-623.419	-200.000	0.062	0.384
-622.405	-153.224	-0.088	-0.006
-621.390	554.454	-0.109	0.265
-620.376	-200.000	-0.018	0.233
-619.361	55.292	-0.206	0.202
-618.346	422.736	0.049	0.106
-617.332	800.000	-0.066	-0.274
-616.317	18.620	-0.104	0.084
-615.303	800.000	-0.077	-0.329
-614.288	-40.759	-0.109	0.057
-613.273	90.153	0.129	0.146
-612.259	800.000	-0.078	0.314
-611.244	800.000	-0.026	-0.078
-610.230	150.308	-0.234	-0.321
-609.215	-200.000	-0.016	0.203
-608.201	-200.000	-0.040	0.309
-607.186	-181.864	0.197	-0.004
-606.171	800.000	0.038	-0.105
-605.157	489.040	0.112	-0.258
-604.142	117.287	0.290	0.360
-603.128	55.779	0.147	-0.144
-602.113	13.832	0.077	0.061
-601.098	508.020	0.047	0.110
-600.084	166.289	0.098	0.140
-599.069	307.636	-0.153	0.288
-598.055	-200.000	-0.021	0.000
-597.040	41.168	-0.158	-0.144
-596.025	-136.225	-0.189	0.022
-595.011	780.112	-0.073	0.201
-593.996	-158.711	-0.389	-0.023
-592.982	119.760	0.157	-0.197
-591.967	134.303	0.200	-0.262
-590.952	-65.091	0.054	-0.022
-589.938	-200.000	0.005	-0.261
-588.923	-17.531	0.054	-0.034
-587.909	120.297	0.196	-0.245
-586.894	220.042	-0.102	-0.165
-585.879	-200.000	-0.014	-0.105
-584.865	-153.580	-0.309	0.022
-583.850	144.082	0.102	-0.137
-582.836	-73.710	-0.307	0.113
-581.821	47.639	0.146	-0.138
-580.806	-111.228	0.200	-0.041
-579.792	-41.041	0.200	-0.104
-578.777	-187.823	-0.221	-0.003
-577.763	50.129	-0.143	0.136
-576.748	-200.000	0.013	-0.243
-575.733	138.545	-0.038	-0.050
-574.719	-200.000	-0.012	-0.182
-573.704	-11.791	0.212	0.140
-572.690	800.000	0.080	-0.259
-571.675	800.000	0.023	0.069
-570.661	-95.474	0.263	-0.071
-569.646	128.647	-0.181	-0.233
-568.631	800.000	0.029	-0.128
-567.617	484.746	0.079	-0.182
-566.602	-130.810	-0.311	0.042
-565.588	738.782	0.063	0.170
-564.573	-62.480	-0.278	0.116
-563.558	-200.000	0.008	-0.042
-562.544	-157.348	0.128	0.008
-561.529	-200.000	0.091	-0.413
-560.515	800.000	-0.027	0.112
-559.500	-44.726	0.139	-0.070
-558.485	63.874	-0.089	0.090
-557.471	-200.000	0.052	-0.268
-556.456	-70.226	-0.199	-0.076
-555.442	36.909	0.174	0.155
-554.427	280.526	-0.104	0.187
-553.412	-200.000	0.030	-0.205
-552.398	-200.000	0.031	0.160
-551.383	-72.456	-0.137	0.051
-550.369	-116.990	-0.204	-0.038
-549.354	207.726	0.127	0.199
-548.339	224.913	-0.134	-0.218
-547.325	104.387	-0.182	-0.215
-546.310	-140.385	0.363	-0.038
-545.296	-200.000	0.052	-0.231
-544.281	145.161	-0.060	0.080
-543.266	-87.594	-0.276	-0.084
-542.252	53.437	0.015	-0.015
-541.237	-47.693	-0.155	0.075
-540.223	-132.087	0.043	0.006
-539.208	47.577	0.192	0.180
-538.193	8.004	0.231	0.175
-537.179	86.713	0.156	0.174
-536.164	-19.952	-0.445	-0.276
-535.150	342.376	0.157	0.309
-534.135	-118.423	0.229	-0.041
-533.121	-90.605	-0.265	-0.077
-532.106	-200.000	0.018	-0.165
-531.091	14.459	0.022	-0.018
-530.077	155.134	-0.131	-0.181
-529.062	-200.000	-0.005	-0.334
-528.048	800.000	-0.033	-0.119
-527.033	-93.385	-0.219	0.061
-526.018	-96.549	-0.189	-0.050
-525.004	-200.000	0.016	-0.121
-523.989	411.215	-0.080	-0.171
-522.975	46.969	0.124	0.116
-521.960	-2.464	0.185	0.130
-520.945	-52.319	0.095	-0.044
-519.931	800.000	0.124	-0.387
-518.916	-53.300	-0.180	-0.083
-517.902	-96.706	0.195	0.051
-516.887	-21.018	0.049	0.030
-515.872	-200.000	0.005	-0.142
-514.858	-58.726	-0.173	-0.075
-513.843	-200.000	0.047	0.221
-512.829	210.694	-0.198	-0.313
-511.814	5.130	0.124	0.092
-510.799	315.413	0.138	-0.262
-509.785	144.097	0.040	0.053
-508.770	-28.606	-0.307	0.178
-507.756	40.191	-0.246	-0.223
-506.741	-200.000	0.036	0.275
-505.726	-139.024	0.304	0.033
-504.712	69.374	0.019	-0.020
-503.697	179.666	-0.032	0.046
-502.683	-12.250	-0.184	-0.121
-501.668	-63.307	-0.295	-0.122
-500.653	-131.093	-0.107	-0.014
-499.639	11.284	0.405	0.312
-498.624	-148.971	0.257	0.021
-497.610	-42.930	-0.137	0.070
-496.595	148.725	-0.128	0.174
-495.581	49.092	0.190	-0.179
-494.566	-114.097	-0.347	-0.068
-493.551	-162.860	0.265	-0.013
-492.537	400.955	0.108	-0.228
-491.522	187.589	0.049	-0.073
-490.508	-200.000	-0.005	0.410
-489.493	-83.375	0.085	-0.028
-488.478	23.104	0.164	0.135
-487.464	-200.000	0.058	-0.335
-486.449	800.000	0.061	-0.180
-485.435	-200.000	0.014	0.133
-484.420	-14.618	0.304	0.196
-483.405	-200.000	0.008	0.297
-482.391	-200.000	0.018	-0.192
-481.376	-152.420	-0.166	-0.012
-480.362	-200.000	0.030	-0.171
-479.347	-33.829	0.054	-0.030
-478.332	-38.961	-0.045	0.024
-477.318	638.771	-0.034	0.087
-476.303	800.000	0.129	-0.463
-475.289	198.607	-0.121	0.186
-474.274	-200.000	-0.031	0.278
-473.259	83.903	-0.182	-0.199
-472.245	91.892	-0.150	-0.169
-471.230	188.748	-0.095	0.143
-470.216	54.645	0.053	-0.052
-469.201	-14.534	0.020	-0.013
-468.186	-200.000	-0.040	-0.270
-467.172	-22.668	0.256	-0.156
-466.157	452.245	-0.116	-0.258
-465.143	-52.127	-0.088	-0.041
-464.128	149.710	0.164	-0.223
-463.113	800.000	-0.036	-0.140
-462.099	-24.792	-0.165	-0.099
-461.084	-130.566	0.276	0.037
-460.070	50.549	0.104	-0.099
-459.055	230.296	-0.139	0.228
-458.040	-200.000	0.049	0.247
-457.026	13.850	0.218	0.170
-456.011	-200.000	-0.024	-0.128
-454.997	43.618	0.203	-0.186
-453.982	-43.987	0.264	-0.133
-452.968	-200.000	0.002	0.039
-451.953	221.410	-0.131	-0.211
-450.938	-113.034	-0.099	0.020
-449.924	-117.149	-0.169	-0.031
-448.909	1.426	-0.403	-0.291
-447.895	112.361	0.242	-0.293
-446.880	419.148	-0.012	-0.026
-445.865	-80.031	0.264	-0.089
-444.851	-10.543	0.009	-0.006
-443.836	-24.890	-0.158	0.094
-442.822	800.000	0.087	-0.256
-441.807	32.406	0.216	-0.187
-440.792	102.229	-0.052	0.061
-439.778	-74.033	-0.165	-0.060
-438.763	289.421	-0.089	0.163
-437.749	-200.000	0.049	0.317
-436.734	3.095	-0.176	-0.128
-435.719	46.444	-0.078	-0.073
-434.705	-200.000	-0.037	-0.311
-433.690	85.417	0.059	0.065
-432.676	-200.000	-0.010	-0.086
-431.661	231.152	-0.165	-0.271
-430.646	-200.000	-0.008	-0.143
-429.632	-200.000	0.031	0.352
-428.617	33.969	-0.069	0.061
-427.603	7.836	0.107	0.081
-426.588	-119.798	0.317	-0.055
-425.573	-99.966	-0.237	0.059
-424.559	80.185	0.037	-0.040
-423.544	195.841	-0.126	0.192
-422.530	-23.397	0.061	0.037
-421.515	-124.248	-0.187	-0.029
-420.500	-85.085	0.394	0.124
-419.486	41.111	-0.174	0.158
-418.471	453.121	-0.164	0.363
-417.457	3.288	-0.137	0.100
-416.442	-200.000	-0.006	0.321
-415.428	-22.595	-0.086	0.052
-414.413	800.000	-0.020	-0.085
-413.398	214.093	0.139	0.220
-412.384	161.957	0.188	0.264
-411.369	527.684	0.064	0.151
-410.355	800.000	0.120	-0.377
-409.340	187.116	0.156	0.232
-408.325	22.715	0.270	0.222
-407.311	-59.389	0.352	-0.152
-406.296	-71.503	-0.199	-0.075
-405.282	-114.600	-0.152	0.029
-404.267	-155.088	0.422	-0.028
-403.252	-200.000	-0.030	-0.143
-402.238	120.514	0.165	0.206
-401.223	67.130	0.133	-0.136
-400.209	521.095	-0.106	-0.249
-399.194	-79.090	-0.035	0.012
-398.179	140.999	-0.170	0.225
-397.165	23.462	0.164	-0.135
-396.150	-77.891	-0.277	-0.096
-395.136	-200.000	-0.011	-0.093
-394.121	-200.000	0.017	-0.240
-393.106	683.849	-0.116	0.302
-392.092	-180.159	-0.348	-0.007
-391.077	488.336	-0.231	-0.528
-390.063	-104.306	0.250	-0.058
-389.048	486.391	0.071	0.162
-388.033	-47.364	0.253	0.123
-387.019	-125.159	-0.149	-0.023
-386.004	-68.978	-0.028	-0.011
-384.990	-182.517	-0.437	0.008
-383.975	800.000	-0.064	0.196
-382.960	-156.095	0.316	-0.020
-381.946	273.468	-0.039	0.069
-380.931	-200.000	-0.011	0.102
-379.917	-45.272	-0.184	0.091
-378.902	800.000	-0.133	-0.374
-377.888	-200.000	0.032	0.262
-376.873	-200.000	0.033	-0.181
-375.858	73.391	0.058	-0.061
-374.844	88.456	0.125	0.139
-373.829	511.409	0.030	0.070
-372.815	-200.000	0.010	0.075
-371.800	192.814	0.239	-0.361
-370.785	-48.905	-0.342	0.164
-369.771	-103.477	0.193	-0.045
-368.756	57.237	-0.126	0.123
-367.742	256.668	0.058	-0.099
-366.727	-65.733	0.384	0.154
-365.712	-24.305	-0.222	0.132
-364.698	-160.070	0.204	-0.011
-363.683	-52.236	0.089	-0.041
-362.669	-200.000	0.058	0.273
-361.654	240.915	-0.140	0.234
-360.639	-18.834	0.204	-0.127
-359.625	-79.718	-0.175	0.059
-358.610	-104.098	-0.369	0.086
-357.596	-87.896	-0.142	-0.043
-356.581	24.329	0.101	0.084
-355.566	-35.726	0.057	-0.031
-354.552	-32.438	-0.068	-0.038
-353.537	131.985	-0.046	-0.059
-352.523	-101.275	0.107	-0.026
-351.508	-200.000	0.014	-0.228
-350.493	208.664	-0.133	-0.207
-349.479	-200.000	-0.004	0.148
-348.464	800.000	-0.089	-0.330
-347.450	791.744	0.114	-0.312
-346.435	-76.229	0.210	0.074
-345.420	-200.000	-0.028	0.352
-344.406	800.000	0.022	-0.092
-343.391	297.723	0.017	0.031
-342.377	-12.245	-0.238	0.156
-341.362	-38.830	-0.396	0.208
-340.348	28.548	0.127	0.107
-339.333	800.000	0.105	-0.325
-338.318	-119.122	0.167	-0.029
-337.304	800.000	-0.079	0.290
-336.289	-200.000	0.014	-0.182
-335.275	-200.000	0.018	0.208
-334.260	22.193	-0.139	0.113
-333.245	800.000	0.172	-0.506
-332.231	596.265	0.094	-0.231
-331.216	10.213	0.264	-0.201
-330.202	530.433	0.106	0.250
-329.187	150.690	-0.172	-0.233
-328.172	-200.000	0.013	-0.113
-327.158	195.480	0.117	0.177
-326.143	800.000	0.041	0.144
-325.129	61.533	0.210	0.209
-324.114	328.644	0.144	-0.275
-323.099	117.206	-0.196	0.241
-322.085	-200.000	0.022	0.172
-321.070	52.083	0.059	-0.056
-320.056	-200.000	-0.021	-0.099
-319.041	328.201	0.098	-0.189
-318.026	800.000	0.089	0.254
-317.012	-67.741	-0.024	0.010
-315.997	800.000	-0.106	-0.309
-314.983	93.949	0.180	-0.203
-313.968	16.407	-0.220	0.173
-312.953	800.000	-0.047	-0.138
-311.939	-42.825	-0.051	-0.026
-310.924	800.000	0.039	0.152
-309.910	186.656	0.063	-0.094
-308.895	-100.480	-0.197	0.049
-307.880	-3.264	0.218	-0.152
-306.866	800.000	0.062	-0.185
-305.851	31.554	0.003	-0.002
-304.837	-108.274	-0.178	0.038
-303.822	800.000	-0.084	0.281
-302.807	186.130	-0.138	0.205
-301.793	-11.635	-0.199	0.131
-300.778	800.000	0.125	0.408
-299.764	800.000	0.028	0.094
-298.749	-126.777	0.269	-0.040
-297.735	157.126	-0.060	-0.083
-296.720	-107.975	-0.047	-0.010
-295.705	-200.000	-0.015	0.190
-294.691	-28.506	0.100	-0.058
-293.676	287.196	0.083	0.150
-292.662	-192.010	-0.421	0.004
-291.647	-141.516	-0.168	0.017
-290.632	-200.000	0.010	0.408
-289.618	17.336	-0.007	-0.006
-288.603	-200.000	0.014	0.096
-287.589	-166.436	0.113	-0.005
-286.574	-15.409	-0.117	0.075
-285.559	800.000	0.042	-0.127
-284.545	90.563	0.063	-0.071
-283.530	-182.382	-0.178	0.003
-282.516	11.201	-0.097	0.074
-281.501	36.577	0.041	-0.036
-280.486	-95.421	0.246	-0.066
-279.472	-200.000	0.015	0.346
-278.457	-77.079	0.166	-0.058
-277.443	55.117	-0.330	0.318
-276.428	-13.717	-0.175	-0.113
-275.413	105.222	-0.169	-0.199
-274.399	-35.693	0.267	0.144
-273.384	0.697	-0.131	-0.094
-272.370	538.794	-0.087	-0.206
-271.355	694.039	-0.012	-0.031
-270.340	78.484	-0.043	0.045
-269.326	258.096	-0.011	0.019
-268.311	208.421	-0.170	-0.265
-267.297	-120.710	0.331	-0.056
-266.282	800.000	0.017	0.060
-265.267	-118.162	0.100	0.018
-264.253	172.041	-0.139	0.199
-263.238	-200.000	0.033	0.213
-262.224	-200.000	0.034	-0.210
-261.209	800.000	-0.049	-0.205
-260.195	-200.000	0.037	0.191
-259.180	-200.000	-0.018	-0.132
-258.165	-73.669	0.126	-0.046
-257.151	-3.499	0.277	0.192
-256.136	325.584	-0.215	0.409
-255.122	800.000	0.009	0.028
-254.107	-89.132	0.211	-0.062
-253.092	501.550	0.032	0.073
-252.078	229.129	0.261	0.423
-251.063	-94.689	-0.044	-0.012
-250.049	-200.000	0.026	-0.251
-249.034	-200.000	0.089	-0.478
-248.019	123.250	-0.021	-0.027
-247.005	-43.803	0.023	-0.011
-245.990	110.638	0.335	-0.401
-244.976	-200.000	-0.025	-0.108
-243.961	28.999	-0.145	-0.122
-242.946	-127.293	-0.070	-0.010
-241.932	-102.081	0.219	0.053
-240.917	-46.227	0.139	-0.068
-239.903	800.000	0.069	-0.237
-238.888	7.408	-0.201	-0.150
-237.873	-156.434	-0.195	-0.012
-236.859	-129.517	0.148	0.020
-235.844	430.499	0.054	-0.117
-234.830	89.856	0.063	0.070
-233.815	325.996	0.109	-0.208
-232.800	-10.173	0.112	-0.074
-231.786	-152.732	0.139	0.010
-230.771	-75.916	-0.566	0.199
-229.757	9.664	0.310	-0.234
-228.742	-21.687	0.100	0.061
-227.727	-4.347	0.220	-0.151
-226.713	430.519	0.132	0.284
-225.698	800.000	-0.083	0.256
-224.684	-200.000	-0.021	-0.158
-223.669	248.675	-0.221	0.372
-222.655	338.007	-0.041	0.080
-221.640	-200.000	0.022	0.117
-220.625	800.000	0.108	0.322
-219.611	243.686	0.237	0.395
-218.596	89.636	-0.006	0.007
-217.582	90.311	0.110	0.122
-216.567	149.201	-0.130	-0.175
-215.552	38.909	0.041	0.036
-214.538	-200.000	-0.030	0.201
-213.523	800.000	-0.019	0.062
-212.509	-31.173	0.374	0.210
-211.494	-155.419	0.045	-0.003
-210.479	-200.000	0.016	-0.201
-209.465	-63.143	-0.141	-0.058
-208.450	260.906	-0.088	0.151
-207.436	283.839	0.040	-0.072
-206.421	-158.330	0.135	-0.008
-205.406	79.314	-0.108	0.115
-204.392	800.000	0.025	-0.099
-203.377	-200.000	0.005	-0.218
-202.363	753.374	-0.059	-0.158
-201.348	349.149	-0.047	0.092
-200.333	800.000	-0.031	0.088
-199.319	-111.749	-0.102	0.021
-198.304	-156.703	-0.186	0.011
-197.290	438.957	-0.120	0.261
-196.275	-137.784	0.112	0.012
-195.260	-200.000	0.081	-0.518
-194.246	-126.098	0.080	-0.012
-193.231	24.153	-0.156	-0.128
-192.217	264.333	-0.229	0.396
-191.202	-60.294	-0.207	-0.088
-190.187	119.028	-0.126	-0.154
-189.173	31.243	-0.222	-0.189
-188.158	-101.804	0.028	0.007
-187.144	583.216	-0.179	0.436
-186.129	-200.000	-0.019	0.348
-185.114	-126.477	-0.180	0.027
-184.100	16.866	-0.135	0.106
-183.085	26.468	0.037	0.031
-182.071	124.053	-0.051	0.063
-181.056	-171.916	0.466	-0.015
-180.042	160.470	0.199	0.275
-179.027	73.819	-0.068	0.070
-178.012	-107.953	-0.042	0.009
-176.998	59.051	0.181	0.177
-175.983	13.459	-0.309	-0.238
-174.969	800.000	-0.040	0.153
-173.954	800.000	-0.060	0.242
-172.939	800.000	0.051	0.191
-171.925	-46.822	0.232	-0.113
-170.910	47.068	0.333	0.308
-169.896	800.000	0.062	-0.243
-168.881	51.773	0.174	-0.164
-167.866	10.810	-0.232	-0.175
-166.852	-121.993	-0.464	0.076
-165.837	-127.605	-0.192	-0.028
-164.823	201.593	-0.143	-0.219
-163.808	-200.000	0.058	0.000
-162.793	55.146	0.269	0.258
-161.779	112.041	-0.232	-0.277
-160.764	-200.000	-0.050	0.320
-159.750	250.320	0.051	-0.086
-158.735	53.444	-0.234	-0.222
-157.720	-116.782	0.259	0.047
-156.706	-28.378	0.098	0.056
-155.691	-200.000	0.042	0.224
-154.677	425.453	-0.152	0.324
-153.662	194.247	0.175	0.263
-152.647	800.000	-0.047	-0.191
-151.633	286.976	-0.037	-0.067
-150.618	-41.262	0.279	-0.143
-149.604	-200.000	-0.008	0.059
-148.589	-59.111	0.241	0.103
-147.574	-95.671	-0.219	0.058
-146.560	275.192	0.083	-0.146
-145.545	-167.964	-0.221	-0.009
-144.531	-122.314	-0.193	0.031
-143.516	-78.689	0.249	-0.084
-142.502	-200.000	0.022	0.529
-141.487	800.000	-0.039	0.143
-140.472	314.006	0.082	0.154
-139.458	27.172	0.068	-0.057
-138.443	31.550	-0.304	0.259
-137.429	40.295	-0.061	-0.055
-136.414	-125.096	0.118	-0.018
-135.399	-137.361	-0.031	-0.004
-134.385	310.915	-0.068	0.127
-133.370	-135.765	0.372	-0.044
-132.356	160.483	0.145	-0.201
-131.341	212.584	0.093	0.145
-130.326	47.571	-0.219	0.203
-129.312	-26.979	0.267	0.154
-128.297	61.650	-0.206	0.203
-127.283	-101.136	-0.141	-0.034
-126.268	181.568	0.109	0.159
-125.253	-200.000	0.037	0.250
-124.239	468.833	-0.116	-0.258
-123.224	-122.572	-0.215	-0.035
-122.210	-118.276	0.204	-0.036
-121.195	70.529	-0.107	0.110
