DTS Sentinel unit serial number:	SN413079Multiplexer serial number:	ORYXHardware model number:	OX4-SRSoftware version number:	ORYX F/W v4.00 Oryx Data Collector v3.7.2.0data status	okinstallation	princeton_trtdifferential loss correction	single-endedforward channel	channel 4reverse channel	N/Adate	2019/09/11time	12:15:11forward acquisition time	60.00reverse acquisition time	0.00gamma	496.2192k internal	0.2288k external	0.2288temperature offset calibration	0.9965default loss term (dB/km)	0.3790temperature slope calibration	1.0000multiplexer offset coefficient	1.0000multiplexer slope coefficient	1.0000fibre end	0.00T internal ref (°C)	39.87T ext. ref 1 (°C)	0.19T ext. ref 2 (°C)	38.06length (m)	temperature (°C)	Stokes	anti-Stokes-747.200	-115.946	0.183	0.035
-746.185	272.374	0.137	0.248
-745.171	381.847	0.156	0.329
-744.156	-200.000	0.043	0.355
-743.142	94.117	0.191	0.223
-742.127	600.343	-0.077	0.196
-741.112	800.000	-0.012	0.048
-740.098	240.944	0.158	0.270
-739.083	-63.069	-0.147	0.062
-738.069	-200.000	-0.028	0.374
-737.054	127.274	-0.181	0.236
-736.039	-200.000	-0.361	0.001
-735.025	519.505	0.033	0.079
-734.010	215.646	-0.198	-0.322
-732.996	-30.467	-0.283	-0.165
-731.981	-200.000	-0.006	-0.039
-730.966	-200.000	0.000	0.122
-729.952	43.701	0.057	-0.053
-728.937	16.135	-0.255	-0.206
-727.923	-26.158	0.407	-0.245
-726.908	-200.000	-0.014	-0.318
-725.894	800.000	-0.030	-0.090
-724.879	800.000	0.013	-0.051
-723.864	-135.635	-0.311	0.038
-722.850	204.783	-0.181	-0.288
-721.835	-95.890	-0.360	0.098
-720.821	161.983	-0.322	-0.462
-719.806	62.172	-0.180	0.184
-718.791	158.488	0.050	-0.072
-717.777	-121.177	-0.139	0.024
-716.762	800.000	0.036	-0.156
-715.748	-200.000	-0.029	0.262
-714.733	-88.712	-0.268	-0.082
-713.718	117.112	-0.208	-0.261
-712.704	-23.859	0.245	-0.150
-711.689	-11.118	-0.053	-0.036
-710.675	22.265	0.059	0.049
-709.660	-105.589	0.106	-0.025
-708.645	800.000	0.104	-0.449
-707.631	-55.349	0.471	-0.216
-706.616	-2.737	0.085	-0.061
-705.602	-120.902	-0.155	0.027
-704.587	268.361	0.144	-0.258
-703.572	187.757	-0.250	-0.381
-702.558	423.315	0.095	0.209
-701.543	-3.716	0.208	0.148
-700.529	24.479	0.088	0.075
-699.514	-86.046	0.361	0.114
-698.499	800.000	0.103	-0.332
-697.485	-132.778	-0.095	0.012
-696.470	681.933	-0.169	-0.452
-695.456	-126.872	-0.073	-0.011
-694.441	-68.107	0.364	-0.145
-693.426	800.000	-0.059	-0.198
-692.412	297.730	0.091	0.172
-691.397	437.572	-0.139	0.310
-690.383	136.699	-0.127	0.170
-689.368	-200.000	0.008	-0.204
-688.354	-56.990	0.118	-0.053
-687.339	800.000	-0.087	0.266
-686.324	-200.000	-0.029	0.282
-685.310	186.726	-0.109	-0.167
-684.295	100.335	-0.228	-0.271
-683.281	-8.820	-0.099	-0.068
-682.266	159.916	-0.013	-0.018
-681.251	32.101	-0.206	-0.182
-680.237	283.017	-0.102	-0.187
-679.222	-33.689	0.059	-0.033
-678.208	61.281	-0.355	-0.361
-677.193	-94.863	0.067	-0.019
-676.178	-200.000	-0.011	0.118
-675.164	143.472	-0.056	-0.076
-674.149	545.881	0.068	-0.167
-673.135	149.794	-0.057	0.080
-672.120	470.069	-0.091	-0.210
-671.105	-118.865	-0.458	-0.082
-670.091	267.251	0.066	-0.118
-669.076	275.616	0.079	0.143
-668.062	96.391	-0.284	0.333
-667.047	-120.540	-0.141	0.025
-666.032	-156.743	-0.047	-0.003
-665.018	-41.811	-0.090	-0.047
-664.003	207.261	-0.127	-0.203
-662.989	-200.000	0.015	-0.187
-661.974	-35.431	-0.133	0.074
-660.959	660.103	0.037	0.097
-659.945	-76.741	0.056	-0.020
-658.930	-117.835	-0.220	0.040
-657.916	64.106	-0.126	-0.130
-656.901	-60.509	-0.131	-0.057
-655.886	42.378	0.094	0.087
-654.872	22.364	-0.070	-0.059
-653.857	792.421	0.078	-0.218
-652.843	778.776	0.094	0.261
-651.828	781.747	-0.076	0.214
-650.814	-15.570	-0.219	-0.143
-649.799	144.761	-0.143	0.195
-648.784	15.914	-0.295	0.237
-647.770	-11.531	-0.277	0.186
-646.755	-111.431	0.050	-0.010
-645.741	800.000	0.048	0.152
-644.726	637.559	0.187	-0.485
-643.711	800.000	0.087	-0.338
-642.697	-200.000	0.020	0.288
-641.682	-200.000	-0.017	-0.088
-640.668	346.920	0.070	0.141
-639.653	-79.818	-0.281	-0.097
-638.638	-8.415	-0.260	0.178
-637.624	12.608	0.120	0.095
-636.609	-170.652	0.337	0.012
-635.595	90.669	-0.254	-0.290
-634.580	34.751	-0.315	-0.282
-633.565	-132.709	-0.168	-0.022
-632.551	-23.601	-0.045	-0.028
-631.536	-135.759	-0.285	-0.034
-630.522	-175.808	-0.062	0.002
-629.507	-61.949	0.259	0.111
-628.492	-18.752	0.193	-0.123
-627.478	-68.389	0.217	-0.086
-626.463	675.502	0.063	0.166
-625.449	29.017	-0.202	0.175
-624.434	134.620	-0.181	-0.240
-623.419	356.082	0.088	0.178
-622.405	-167.482	0.103	0.004
-621.390	-113.882	-0.179	-0.035
-620.376	270.582	-0.080	-0.144
-619.361	116.392	-0.283	-0.353
-618.346	311.092	-0.182	-0.348
-617.332	196.346	0.086	0.133
-616.317	-17.688	-0.255	0.164
-615.303	-166.867	-0.158	0.007
-614.288	-53.903	0.447	0.208
-613.273	-200.000	0.023	0.568
-612.259	-46.659	-0.180	-0.090
-611.244	-77.259	-0.319	0.113
-610.230	62.665	-0.334	0.341
-609.215	-55.372	0.151	0.069
-608.201	-129.976	-0.530	-0.074
-607.186	160.669	-0.062	-0.089
-606.171	73.939	0.134	-0.144
-605.157	800.000	0.085	0.300
-604.142	-86.025	-0.363	-0.115
-603.128	-85.603	0.107	-0.034
-602.113	98.541	0.069	-0.082
-601.098	-200.000	-0.028	0.198
-600.084	-15.443	0.111	0.073
-599.069	300.946	0.134	-0.252
-598.055	565.034	-0.053	-0.130
-597.040	-51.966	-0.079	-0.037
-596.025	-69.720	0.165	0.064
-595.011	-200.000	0.001	-0.152
-593.996	-15.135	0.052	-0.034
-592.982	-77.635	0.130	-0.046
-591.967	-200.000	-0.531	0.003
-590.952	-70.316	0.271	-0.105
-589.938	800.000	-0.040	-0.142
-588.923	-83.517	-0.128	-0.042
-587.909	-146.619	-0.033	-0.003
-586.894	-10.507	-0.067	-0.045
-585.879	52.201	0.009	-0.009
-584.865	-118.423	0.121	0.022
-583.850	-162.221	-0.342	-0.017
-582.836	-116.925	0.310	-0.058
-581.821	-200.000	-0.010	0.071
-580.806	800.000	0.037	0.105
-579.792	181.041	0.132	0.197
-578.777	-101.970	-0.371	0.091
-577.763	137.726	-0.062	-0.082
-576.748	402.914	0.089	-0.191
-575.733	-9.412	0.373	-0.254
-574.719	179.372	0.129	0.192
-573.704	-123.802	-0.186	-0.030
-572.690	-57.779	-0.118	0.053
-571.675	-200.000	0.003	0.021
-570.661	-112.896	0.410	0.083
-569.646	-124.166	0.207	0.033
-568.631	374.948	-0.003	0.006
-567.617	47.917	-0.071	0.068
-566.602	6.377	0.273	0.207
-565.588	35.855	-0.171	0.153
-564.573	529.754	-0.119	-0.287
-563.558	81.490	-0.046	0.051
-562.544	-139.724	0.256	-0.028
-561.529	-13.735	0.357	0.235
-560.515	75.372	-0.259	0.278
-559.500	133.577	0.072	0.095
-558.485	87.853	0.151	0.171
-557.471	-95.537	0.104	0.028
-556.456	-200.000	-0.031	-0.250
-555.442	-170.653	0.141	-0.005
-554.427	-135.461	0.375	-0.046
-553.412	-104.084	0.167	-0.040
-552.398	-200.000	-0.014	-0.096
-551.383	-20.657	-0.234	0.146
-550.369	-110.367	0.252	-0.053
-549.354	-37.648	0.166	0.090
-548.339	726.597	-0.145	-0.393
-547.325	-67.355	0.386	0.154
-546.310	102.171	0.211	0.250
-545.296	-76.218	0.174	-0.062
-544.281	9.219	-0.153	-0.117
-543.266	307.911	0.135	-0.256
-542.252	-39.994	-0.063	-0.034
-541.237	-136.051	-0.150	-0.018
-540.223	27.329	0.131	0.112
-539.208	-83.999	0.285	-0.092
-538.193	-136.543	-0.372	0.044
-537.179	-70.591	-0.235	-0.090
-536.164	204.171	0.011	0.017
-535.150	141.772	-0.093	-0.125
-534.135	-110.827	0.366	-0.077
-533.121	-135.395	-0.098	0.012
-532.106	-168.559	0.115	-0.004
-531.091	121.459	-0.048	-0.060
-530.077	-200.000	-0.007	0.390
-529.062	-113.218	0.114	0.023
-528.048	-200.000	-0.004	-0.031
-527.033	-200.000	0.010	-0.370
-526.018	800.000	0.051	0.149
-525.004	318.072	0.106	-0.204
-523.989	-164.269	-0.104	0.005
-522.975	-59.186	0.142	0.062
-521.960	-12.693	0.092	0.061
-520.945	-200.000	-0.027	-0.248
-519.931	531.015	-0.125	0.301
-518.916	800.000	-0.096	-0.335
-517.902	28.455	-0.179	-0.154
-516.887	-153.396	-0.192	-0.014
-515.872	-65.883	0.071	0.029
-514.858	-98.403	0.312	0.081
-513.843	-159.594	0.237	-0.013
-512.829	-200.000	-0.010	-0.237
-511.814	-200.000	0.037	-0.193
-510.799	100.327	-0.145	-0.171
-509.785	-23.237	-0.212	-0.130
-508.770	800.000	0.081	0.361
-507.756	54.571	0.313	-0.307
-506.741	132.004	-0.097	0.126
-505.726	-200.000	-0.004	-0.150
-504.712	-200.000	-0.038	-0.256
-503.697	337.771	0.100	-0.198
-502.683	107.396	0.044	0.053
-501.668	800.000	0.016	-0.047
-500.653	46.203	0.188	-0.176
-499.639	-200.000	0.020	-0.121
-498.624	360.810	0.069	-0.141
-497.610	122.459	0.129	-0.164
-496.595	-17.180	0.262	0.168
-495.581	195.810	-0.180	0.279
-494.566	-128.875	-0.283	-0.040
-493.551	45.168	0.131	-0.123
-492.537	32.210	0.287	-0.251
-491.522	-13.191	0.119	-0.078
-490.508	271.907	0.217	0.389
-489.493	25.928	-0.182	-0.154
-488.478	-64.376	-0.309	0.128
-487.464	211.411	-0.118	0.189
-486.449	115.149	0.206	0.256
-485.435	-79.426	-0.278	0.096
-484.420	-200.000	-0.013	0.098
-483.405	-31.724	-0.226	0.128
-482.391	-146.307	-0.181	0.016
-481.376	100.648	0.143	0.169
-480.362	454.880	-0.187	0.421
-479.347	247.432	0.160	0.275
-478.332	270.571	-0.088	0.158
-477.318	-87.075	0.235	-0.073
-476.303	-117.774	0.361	-0.066
-475.289	-26.125	0.213	-0.127
-474.274	320.393	0.022	-0.043
-473.259	-200.000	0.005	-0.262
-472.245	-200.000	0.038	0.237
-471.230	3.620	-0.307	-0.227
-470.216	-200.000	0.037	0.247
-469.201	-128.935	-0.177	-0.025
-468.186	800.000	-0.037	0.119
-467.172	-161.360	-0.241	-0.013
-466.157	90.807	0.193	-0.220
-465.143	49.435	-0.164	0.156
-464.128	350.844	-0.046	0.093
-463.113	-58.619	-0.110	0.048
-462.099	-200.000	-0.055	-0.418
-461.084	800.000	0.030	-0.108
-460.070	-50.045	0.210	-0.101
-459.055	300.411	-0.106	0.198
-458.040	-93.002	-0.319	0.090
-457.026	210.690	0.137	0.218
-456.011	24.487	0.066	-0.055
-454.997	186.861	0.127	0.191
-453.982	-34.848	0.061	0.034
-452.968	-78.517	0.121	0.042
-451.953	-24.622	-0.120	0.072
-450.938	296.235	-0.154	0.286
-449.924	-85.731	-0.049	0.015
-448.909	250.363	-0.138	0.238
-447.895	-60.936	0.101	0.043
-446.880	800.000	-0.080	-0.262
-445.865	279.672	0.140	0.253
-444.851	800.000	-0.051	-0.203
-443.836	-200.000	-0.036	0.268
-442.822	-74.403	0.036	0.013
-441.807	-130.948	-0.382	0.052
-440.792	-200.000	0.007	-0.184
-439.778	-200.000	0.015	0.072
-438.763	280.295	-0.124	-0.225
-437.749	10.105	0.144	0.111
-436.734	-20.930	-0.190	-0.118
-435.719	-62.566	0.097	0.041
-434.705	-170.201	-0.310	0.011
-433.690	-200.000	-0.001	-0.027
-432.676	32.128	0.255	-0.223
-431.661	-200.000	-0.014	0.333
-430.646	-156.409	-0.346	0.022
-429.632	-200.000	-0.006	-0.059
-428.617	-110.107	0.314	0.066
-427.603	-115.059	0.333	0.064
-426.588	-200.000	0.000	0.123
-425.573	-200.000	0.052	-0.310
-424.559	398.618	0.036	0.076
-423.544	-200.000	-0.022	0.176
-422.530	-36.232	-0.207	-0.113
-421.515	38.800	-0.187	-0.169
-420.500	-131.178	-0.161	0.022
-419.486	-94.158	-0.047	0.013
-418.471	-200.000	0.025	0.178
-417.457	123.325	-0.265	-0.336
-416.442	39.030	0.022	0.020
-415.428	-22.697	-0.262	0.160
-414.413	-127.210	0.229	-0.034
-413.398	-138.305	0.198	0.022
-412.384	186.455	0.079	0.119
-411.369	-185.509	0.179	-0.003
-410.355	-200.000	0.045	0.257
-409.340	-200.000	0.032	0.248
-408.325	430.356	0.108	0.236
-407.311	133.041	0.137	0.179
-406.296	-0.652	-0.354	0.254
-405.282	-106.447	-0.199	0.045
-404.267	263.082	0.074	-0.130
-403.252	800.000	-0.053	-0.203
-402.238	800.000	0.031	0.128
-401.223	-200.000	0.008	-0.076
-400.209	-200.000	-0.088	-0.436
-399.194	578.647	-0.069	0.171
-398.179	-200.000	0.040	-0.207
-397.165	-41.290	-0.257	0.134
-396.150	390.557	-0.082	0.172
-395.136	164.494	-0.159	-0.226
-394.121	-200.000	0.024	0.166
-393.106	-18.492	0.183	-0.116
-392.092	-65.775	0.147	-0.059
-391.077	-200.000	0.070	0.318
-390.063	180.725	-0.079	-0.117
-389.048	-200.000	0.019	-0.334
-388.033	800.000	0.062	-0.175
-387.019	-200.000	-0.064	0.294
-386.004	-29.301	0.045	-0.026
-384.990	216.299	0.090	0.145
-383.975	800.000	0.060	-0.170
-382.960	800.000	-0.042	0.126
-381.946	-57.040	0.418	-0.186
-380.931	99.038	-0.222	0.259
-379.917	-20.256	0.250	0.156
-378.902	23.797	0.159	-0.132
-377.888	-158.649	0.135	0.008
-376.873	-66.306	-0.293	0.118
-375.858	241.682	-0.087	0.147
-374.844	800.000	-0.007	-0.026
-373.829	229.351	0.147	-0.242
-372.815	-200.000	-0.002	0.012
-371.800	-200.000	-0.013	0.108
-370.785	-16.791	0.322	-0.206
-369.771	800.000	-0.015	-0.042
-368.756	164.184	-0.224	-0.319
-367.742	161.087	-0.024	-0.035
-366.727	-46.855	0.157	0.077
-365.712	186.469	0.110	-0.166
-364.698	-200.000	-0.013	0.304
-363.683	-108.128	0.080	0.018
-362.669	146.483	-0.046	-0.063
-361.654	-200.000	-0.101	-0.502
-360.639	-121.688	-0.142	-0.024
-359.625	116.977	-0.097	-0.121
-358.610	-77.361	0.431	0.151
-357.596	239.587	-0.039	0.066
-356.581	800.000	0.032	0.091
-355.566	105.402	-0.186	-0.222
-354.552	0.435	-0.171	-0.123
-353.537	800.000	-0.097	0.313
-352.523	72.786	0.064	-0.067
-351.508	122.040	0.106	0.133
-350.493	-19.003	0.258	-0.162
-349.479	800.000	0.040	-0.126
-348.464	800.000	-0.011	0.036
-347.450	651.893	0.056	0.144
-346.435	-200.000	-0.071	0.428
-345.420	497.218	0.181	0.420
-344.406	-200.000	-0.048	0.000
-343.391	800.000	-0.130	-0.381
-342.377	-159.691	-0.174	-0.010
-341.362	-200.000	-0.001	-0.161
-340.348	-161.795	0.131	0.007
-339.333	-200.000	-0.003	-0.088
-338.318	81.007	-0.239	0.260
-337.304	356.406	-0.247	0.497
-336.289	-86.087	0.132	0.041
-335.275	335.741	0.069	0.135
-334.260	800.000	-0.086	0.329
-333.245	13.331	-0.423	-0.331
-332.231	25.584	-0.281	0.236
-331.216	-101.156	0.061	-0.015
-330.202	266.368	0.089	-0.157
-329.187	-200.000	-0.001	0.019
-328.172	200.780	0.200	0.310
-327.158	84.405	0.213	-0.235
-326.143	9.738	-0.356	-0.272
-325.129	-140.242	-0.230	0.024
-324.114	-200.000	-0.039	-0.211
-323.099	416.586	0.116	-0.250
-322.085	-63.564	0.083	-0.034
-321.070	-200.000	-0.073	0.372
-320.056	-118.592	-0.151	0.027
-319.041	-70.447	-0.239	-0.091
-318.026	75.478	-0.015	0.016
-317.012	-1.319	-0.133	-0.095
-315.997	800.000	-0.059	-0.207
-314.983	-138.214	-0.325	0.036
-313.968	800.000	0.086	-0.241
-312.953	-83.219	0.082	0.027
-311.939	800.000	0.034	0.099
-310.924	-18.712	0.218	0.137
-309.910	-89.395	0.317	-0.094
-308.895	12.427	-0.151	0.118
-307.880	27.417	0.077	0.065
-306.866	-200.000	0.019	-0.095
-305.851	-200.000	0.010	-0.087
-304.837	97.553	-0.080	-0.092
-303.822	-200.000	-0.055	-0.285
-302.807	-85.665	0.086	-0.027
-301.793	13.940	-0.028	0.022
-300.778	-164.862	-0.093	-0.004
-299.764	-70.672	-0.258	0.098
-298.749	-170.868	-0.254	-0.009
-297.735	800.000	-0.053	0.154
-296.720	-84.128	0.140	0.045
-295.705	-134.190	0.140	0.017
-294.691	800.000	-0.078	0.268
-293.676	144.254	0.097	0.130
-292.662	783.964	0.098	0.270
-291.647	-200.000	0.044	0.315
-290.632	-117.110	-0.224	0.041
-289.618	800.000	0.036	-0.113
-288.603	-40.366	0.162	-0.085
-287.589	-200.000	0.028	-0.400
-286.574	84.816	-0.168	-0.185
-285.559	-77.017	-0.115	0.041
-284.545	37.964	-0.137	-0.123
-283.530	711.550	0.037	-0.099
-282.516	-200.000	-0.000	0.068
-281.501	58.935	0.131	-0.130
-280.486	-130.377	-0.256	0.035
-279.472	-200.000	0.048	-0.416
-278.457	77.554	0.131	-0.140
-277.443	29.690	0.167	0.143
-276.428	-200.000	-0.005	-0.040
-275.413	-62.249	-0.186	-0.078
-274.399	5.499	-0.123	0.091
-273.384	-9.073	0.163	-0.110
-272.370	44.561	-0.153	0.142
-271.355	322.376	-0.151	-0.290
-270.340	-16.099	-0.291	-0.186
-269.326	-200.000	-0.039	-0.291
-268.311	23.023	-0.067	0.056
-267.297	139.565	0.048	0.064
-266.282	73.876	0.120	0.127
-265.267	8.132	-0.392	-0.296
-264.253	12.961	-0.146	-0.113
-263.238	28.895	0.274	-0.233
-262.224	-2.598	-0.176	-0.124
-261.209	-62.980	0.261	-0.108
-260.195	-94.785	0.158	-0.043
-259.180	-87.862	0.371	0.112
-258.165	800.000	0.132	0.540
-257.151	800.000	0.138	0.397
-256.136	273.812	-0.100	0.179
-255.122	237.300	-0.022	-0.036
-254.107	-43.449	0.277	-0.141
-253.092	63.311	-0.151	0.153
-252.078	-126.860	-0.177	-0.026
-251.063	231.476	0.080	0.132
-250.049	206.951	-0.024	-0.038
-249.034	364.966	0.018	-0.036
-248.019	-47.441	-0.152	0.074
-247.005	800.000	-0.085	0.244
-245.990	-200.000	-0.038	-0.226
-244.976	-29.693	-0.266	-0.153
-243.961	-29.249	-0.060	0.035
-242.946	-57.808	-0.029	0.013
-241.932	368.727	0.294	-0.597
-240.917	188.879	-0.149	-0.224
-239.903	-79.752	0.175	0.059
-238.888	147.087	-0.070	-0.094
-237.873	-170.759	0.433	-0.015
-236.859	-153.032	-0.209	-0.015
-235.844	0.072	-0.189	-0.136
-234.830	800.000	0.082	0.308
-233.815	24.682	0.178	0.148
-232.800	299.866	0.050	0.093
-231.786	-85.501	0.409	0.128
-230.771	127.511	-0.022	-0.029
-229.757	194.393	0.034	-0.052
-228.742	-124.773	0.288	-0.045
-227.727	-5.013	0.090	0.062
-226.713	199.368	0.124	0.191
-225.698	-8.085	0.202	-0.137
-224.684	-200.000	0.022	0.324
-223.669	-200.000	-0.032	0.356
-222.655	-107.485	-0.113	-0.025
-221.640	-46.349	0.099	-0.049
-220.625	13.313	-0.334	-0.260
-219.611	-64.441	0.199	-0.081
-218.596	-200.000	-0.008	0.417
-217.582	15.329	0.125	-0.098
-216.567	800.000	-0.059	-0.239
-215.552	-82.763	0.182	0.059
-214.538	-125.226	0.355	-0.055
-213.523	29.606	-0.066	0.056
-212.509	-200.000	-0.010	-0.063
-211.494	-64.499	-0.162	-0.066
-210.479	-148.061	-0.140	-0.012
-209.465	-200.000	0.006	0.361
-208.450	-200.000	0.003	-0.080
-207.436	-4.672	0.236	0.164
-206.421	-24.782	0.175	-0.104
-205.406	-79.120	0.128	-0.044
-204.392	58.020	-0.240	0.236
-203.377	-200.000	-0.006	-0.051
-202.363	-200.000	-0.014	0.125
-201.348	-28.991	0.130	-0.075
-200.333	-76.166	0.209	-0.074
-199.319	-124.877	0.300	0.047
-198.304	-200.000	-0.044	0.240
-197.290	-2.663	0.195	-0.137
-196.275	-80.819	0.053	0.018
-195.260	800.000	-0.087	-0.329
-194.246	-96.058	0.207	-0.055
-193.231	512.738	-0.052	-0.123
-192.217	233.212	0.120	-0.197
-191.202	273.295	0.072	-0.127
-190.187	33.365	-0.083	0.072
-189.173	-88.975	-0.128	-0.038
-188.158	-74.240	-0.144	-0.052
-187.144	-100.550	-0.362	-0.090
-186.129	51.789	-0.168	0.160
-185.114	-41.260	0.131	-0.068
-184.100	-7.149	0.177	0.120
-183.085	261.963	-0.034	-0.059
-182.071	-45.402	0.175	-0.087
-181.056	266.946	0.053	0.093
-180.042	-30.408	-0.005	-0.003
-179.027	-165.509	0.091	0.004
-178.012	73.275	-0.050	0.053
-176.998	-200.000	0.007	-0.158
-175.983	-200.000	0.006	-0.346
-174.969	800.000	0.059	-0.210
-173.954	-151.225	0.215	-0.016
-172.939	115.356	-0.088	0.108
-171.925	-200.000	0.023	-0.114
-170.910	-85.437	0.044	0.014
-169.896	-60.734	-0.360	0.153
-168.881	494.986	0.103	0.238
-167.866	800.000	0.101	-0.285
-166.852	377.376	-0.090	0.185
-165.837	264.000	-0.147	-0.256
-164.823	-200.000	-0.039	0.306
-163.808	13.426	-0.119	-0.093
-162.793	-32.723	0.374	0.209
-161.779	-86.040	0.150	0.047
-160.764	-87.399	-0.339	-0.103
-159.750	800.000	-0.064	0.184
-158.735	-57.673	0.132	-0.058
-157.720	262.019	0.010	0.018
-156.706	-200.000	-0.029	-0.184
-155.691	314.425	0.072	0.137
-154.677	90.006	-0.323	0.362
-153.662	-5.910	0.175	-0.120
-152.647	-154.795	-0.145	0.010
-151.633	524.514	-0.116	-0.274
-150.618	105.675	0.293	-0.347
-149.604	89.050	0.094	0.105
-148.589	104.193	-0.210	0.247
-147.574	-117.255	-0.075	0.014
-146.560	-6.157	-0.065	0.044
-145.545	-24.966	-0.152	-0.090
-144.531	-18.431	0.230	-0.144
-143.516	-143.450	0.185	-0.018
-142.502	421.985	-0.081	0.174
-141.487	-56.593	0.064	0.028
-140.472	458.668	0.101	-0.226
-139.458	668.856	-0.127	-0.328
-138.443	-81.595	0.460	-0.151
-137.429	562.009	0.030	0.073
-136.414	180.207	0.012	-0.018
-135.399	-90.464	-0.277	0.080
-134.385	31.395	0.213	0.183
-133.370	-91.728	-0.111	0.032
-132.356	-44.815	0.024	0.012
-131.341	-154.996	0.342	-0.022
-130.326	96.566	0.052	0.059
-129.312	407.498	-0.096	-0.204
-128.297	-91.464	0.353	0.101
-127.283	227.677	-0.092	-0.151
-126.268	800.000	-0.147	-0.426
-125.253	114.557	0.058	0.071
-124.239	68.004	0.148	0.151
-123.224	-200.000	0.009	0.240
-122.210	800.000	0.009	0.033
-121.195	63.317	0.147	-0.147
