DTS Sentinel unit serial number:	SN413079Multiplexer serial number:	ORYXHardware model number:	OX4-SRSoftware version number:	ORYX F/W v4.00 Oryx Data Collector v3.7.2.0data status	okinstallation	princeton_trtdifferential loss correction	single-endedforward channel	channel 4reverse channel	N/Adate	2019/09/11time	06:23:10forward acquisition time	60.00reverse acquisition time	0.00gamma	496.2192k internal	0.2315k external	0.2315temperature offset calibration	0.9942default loss term (dB/km)	0.3790temperature slope calibration	1.0000multiplexer offset coefficient	1.0000multiplexer slope coefficient	1.0000fibre end	0.00T internal ref (°C)	29.56T ext. ref 1 (°C)	-0.21T ext. ref 2 (°C)	24.05length (m)	temperature (°C)	Stokes	anti-Stokes-747.200	29.097	0.110	-0.094
-746.185	-200.000	-0.005	0.436
-745.171	-133.077	0.209	0.027
-744.156	800.000	-0.011	0.037
-743.142	-151.578	-0.144	-0.011
-742.127	-200.000	-0.020	0.437
-741.112	-200.000	-0.024	0.255
-740.098	-99.515	0.143	0.037
-739.083	-172.516	0.110	-0.004
-738.069	86.552	-0.291	-0.325
-737.054	629.719	-0.096	0.247
-736.039	18.540	-0.365	0.295
-735.025	87.872	0.284	0.319
-734.010	-200.000	0.027	-0.181
-732.996	264.170	-0.036	-0.064
-731.981	199.890	-0.046	-0.071
-730.966	362.042	-0.128	0.260
-729.952	-76.127	0.143	-0.051
-728.937	-200.000	-0.010	-0.129
-727.923	138.217	0.020	-0.027
-726.908	-48.093	-0.214	0.105
-725.894	124.276	0.133	0.169
-724.879	800.000	0.069	-0.201
-723.864	-200.000	0.006	-0.216
-722.850	-14.107	-0.200	0.131
-721.835	-177.603	-0.345	0.008
-720.821	241.671	-0.127	-0.215
-719.806	800.000	0.125	-0.442
-718.791	652.471	-0.088	-0.229
-717.777	519.343	0.116	-0.276
-716.762	189.560	-0.165	0.250
-715.748	255.840	0.136	-0.236
-714.733	449.549	0.137	0.305
-713.718	-84.479	-0.134	0.043
-712.704	107.929	0.217	0.262
-711.689	51.220	-0.328	-0.315
-710.675	-97.039	-0.229	0.061
-709.660	-200.000	-0.000	0.233
-708.645	142.061	-0.194	0.260
-707.631	-76.458	-0.117	-0.041
-706.616	-49.578	0.241	0.116
-705.602	800.000	-0.035	0.109
-704.587	-200.000	0.011	-0.201
-703.572	-91.619	0.415	0.120
-702.558	164.679	-0.048	-0.069
-701.543	45.120	-0.082	-0.077
-700.529	75.282	-0.236	-0.252
-699.514	-64.386	-0.233	-0.096
-698.499	-54.551	0.279	0.128
-697.485	299.966	0.089	0.166
-696.470	-200.000	-0.014	0.303
-695.456	-58.178	-0.090	-0.040
-694.441	-58.570	0.075	-0.033
-693.426	-200.000	0.014	-0.234
-692.412	-12.690	-0.116	0.077
-691.397	314.432	-0.047	0.089
-690.383	360.014	0.174	-0.351
-689.368	-200.000	-0.009	-0.172
-688.354	-125.416	0.127	0.020
-687.339	800.000	0.069	0.216
-686.324	501.340	0.040	0.093
-685.310	-95.198	-0.231	0.063
-684.295	-78.327	-0.255	0.089
-683.281	800.000	-0.031	-0.103
-682.266	6.329	0.180	-0.135
-681.251	34.501	0.060	-0.053
-680.237	-48.670	-0.072	0.035
-679.222	-16.184	0.082	0.053
-678.208	-153.012	-0.145	-0.010
-677.193	16.414	-0.107	0.085
-676.178	-50.507	0.223	-0.106
-675.164	-135.697	0.086	0.010
-674.149	-200.000	-0.038	-0.184
-673.135	-200.000	0.022	0.413
-672.120	604.619	-0.076	-0.192
-671.105	800.000	-0.095	0.301
-670.091	-200.000	-0.014	0.220
-669.076	-200.000	-0.015	0.166
-668.062	-21.470	-0.226	0.139
-667.047	442.104	0.054	0.120
-666.032	800.000	0.046	0.183
-665.018	28.529	-0.023	0.020
-664.003	358.346	0.065	-0.131
-662.989	497.228	-0.089	0.206
-661.974	800.000	0.097	0.355
-660.959	378.310	-0.106	-0.219
-659.945	800.000	-0.025	-0.105
-658.930	24.777	0.233	-0.195
-657.916	800.000	-0.047	-0.152
-656.901	-53.127	0.228	0.106
-655.886	-12.571	-0.277	0.183
-654.872	-169.343	0.234	-0.009
-653.857	-58.911	-0.253	-0.110
-652.843	-30.866	0.104	0.059
-651.828	-136.229	0.272	0.032
-650.814	-20.237	0.139	0.086
-649.799	66.909	-0.257	0.264
-648.784	-100.512	-0.335	-0.084
-647.770	84.437	0.219	-0.242
-646.755	54.549	-0.178	-0.174
-645.741	-109.619	-0.221	-0.047
-644.726	800.000	-0.133	0.490
-643.711	-200.000	0.044	0.252
-642.697	-99.822	0.344	0.087
-641.682	11.598	0.085	-0.066
-640.668	-31.608	0.203	-0.115
-639.653	-88.543	0.450	0.135
-638.638	11.654	-0.130	-0.100
-637.624	719.200	-0.081	0.218
-636.609	236.013	0.029	0.048
-635.595	368.054	0.070	-0.143
-634.580	-76.238	0.106	0.038
-633.565	207.970	0.026	-0.041
-632.551	-55.219	0.342	0.155
-631.536	-68.669	0.253	0.099
-630.522	34.045	0.091	0.080
-629.507	-200.000	-0.017	0.217
-628.492	-12.334	-0.383	0.253
-627.478	54.714	0.178	0.174
-626.463	227.960	-0.086	-0.140
-625.449	-200.000	0.010	0.050
-624.434	-33.764	-0.064	0.036
-623.419	699.953	-0.073	-0.194
-622.405	48.985	-0.164	-0.155
-621.390	-150.312	-0.111	0.009
-620.376	109.478	-0.201	-0.243
-619.361	-22.463	-0.116	0.071
-618.346	33.813	-0.180	0.158
-617.332	-104.843	-0.195	0.045
-616.317	-115.074	0.311	-0.060
-615.303	180.647	0.077	0.114
-614.288	-23.293	-0.136	-0.083
-613.273	426.923	-0.159	0.347
-612.259	-76.876	-0.353	0.124
-611.244	78.149	0.185	0.199
-610.230	211.354	-0.233	0.370
-609.215	226.901	0.183	0.300
-608.201	-46.132	-0.174	0.086
-607.186	-200.000	-0.077	-0.368
-606.171	800.000	-0.136	-0.440
-605.157	-99.090	0.389	-0.099
-604.142	800.000	0.037	-0.131
-603.128	55.452	0.172	0.167
-602.113	116.177	0.195	-0.240
-601.098	-19.333	-0.224	-0.140
-600.084	408.537	0.149	-0.318
-599.069	-108.061	0.184	0.040
-598.055	-106.376	0.040	0.009
-597.040	-118.550	-0.277	0.049
-596.025	-32.215	0.225	0.127
-595.011	87.146	-0.066	0.074
-593.996	-24.215	0.088	-0.053
-592.982	-50.164	0.168	0.080
-591.967	-49.317	-0.150	-0.072
-590.952	-200.000	-0.004	-0.072
-589.938	-157.314	0.144	0.009
-588.923	442.026	-0.069	-0.152
-587.909	-106.766	0.335	0.075
-586.894	800.000	0.092	-0.323
-585.879	-29.995	-0.210	-0.121
-584.865	-5.320	0.090	0.062
-583.850	-128.191	-0.052	-0.008
-582.836	26.517	-0.067	-0.057
-581.821	-200.000	-0.011	0.078
-580.806	229.225	-0.117	-0.192
-579.792	-23.431	0.192	-0.116
-578.777	120.473	-0.135	-0.169
-577.763	-83.788	0.487	-0.156
-576.748	257.070	0.073	-0.127
-575.733	87.126	-0.128	0.142
-574.719	61.391	0.093	0.094
-573.704	157.869	-0.106	0.148
-572.690	457.100	-0.151	-0.338
-571.675	90.663	0.215	0.242
-570.661	-177.501	0.059	-0.001
-569.646	-0.012	-0.255	-0.183
-568.631	-0.577	-0.196	-0.140
-567.617	-200.000	-0.078	-0.488
-566.602	-124.043	-0.048	0.008
-565.588	800.000	0.035	0.125
-564.573	185.233	-0.082	-0.123
-563.558	58.262	0.208	-0.205
-562.544	-174.839	0.226	0.006
-561.529	-151.374	-0.301	0.023
-560.515	583.309	0.041	-0.100
-559.500	-200.000	0.015	-0.167
-558.485	474.255	-0.183	-0.416
-557.471	399.305	0.062	0.130
-556.456	87.079	-0.366	0.407
-555.442	-200.000	0.069	-0.314
-554.427	513.591	0.081	-0.190
-553.412	-200.000	0.016	0.175
-552.398	199.183	0.041	-0.063
-551.383	-62.578	0.204	-0.085
-550.369	697.495	-0.054	-0.143
-549.354	-158.074	0.455	0.027
-548.339	161.276	-0.125	0.176
-547.325	-92.980	0.320	-0.090
-546.310	-3.091	-0.329	-0.231
-545.296	-75.028	0.234	-0.084
-544.281	-200.000	-0.036	-0.237
-543.266	-82.715	-0.532	-0.173
-542.252	-15.460	-0.153	-0.099
-541.237	-139.337	0.163	-0.018
-540.223	96.851	0.170	-0.196
-539.208	-117.575	-0.231	0.042
-538.193	-49.196	-0.112	-0.054
-537.179	100.261	-0.150	-0.175
-536.164	79.944	0.096	-0.104
-535.150	-44.130	0.064	0.032
-534.135	1.961	0.276	0.200
-533.121	-92.275	0.098	-0.028
-532.106	228.105	-0.054	-0.088
-531.091	-200.000	-0.090	-0.439
-530.077	168.088	-0.054	0.077
-529.062	134.850	0.059	0.077
-528.048	38.309	0.127	-0.113
-527.033	37.669	-0.174	-0.155
-526.018	-14.832	-0.170	0.110
-525.004	-200.000	0.006	0.124
-523.989	146.373	0.101	0.137
-522.975	-68.135	-0.281	-0.110
-521.960	766.152	0.022	0.061
-520.945	-32.491	0.243	-0.136
-519.931	-113.917	-0.192	-0.037
-518.916	123.667	0.106	0.133
-517.902	-76.252	-0.311	-0.110
-516.887	28.066	0.208	-0.176
-515.872	-200.000	0.040	-0.193
-514.858	-200.000	-0.033	0.253
-513.843	-200.000	0.007	-0.125
-512.829	-200.000	0.111	-0.517
-511.814	56.535	0.207	0.202
-510.799	658.632	0.075	0.193
-509.785	20.276	0.123	0.099
-508.770	-44.970	0.236	0.118
-507.756	498.725	-0.111	-0.257
-506.741	-126.025	0.182	-0.028
-505.726	-122.889	0.364	0.059
-504.712	-200.000	-0.366	-0.002
-503.697	23.111	-0.175	0.144
-502.683	-67.164	-0.156	-0.062
-501.668	473.107	-0.082	-0.186
-500.653	-200.000	0.011	-0.255
-499.639	673.825	-0.046	0.120
-498.624	18.350	-0.050	-0.040
-497.610	166.868	0.060	-0.085
-496.595	467.720	0.036	-0.081
-495.581	-6.775	-0.149	0.101
-494.566	121.779	0.172	0.215
-493.551	17.586	0.245	-0.195
-492.537	136.350	0.155	0.203
-491.522	-63.113	0.340	-0.141
-490.508	-33.257	-0.075	-0.042
-489.493	-200.000	0.031	-0.137
-488.478	-149.278	-0.225	-0.018
-487.464	-6.122	-0.097	0.066
-486.449	397.481	0.070	-0.147
-485.435	-119.970	0.209	0.036
-484.420	800.000	-0.134	-0.525
-483.405	-200.000	0.022	-0.097
-482.391	438.599	0.049	0.108
-481.376	800.000	-0.145	0.457
-480.362	-149.618	-0.098	0.008
-479.347	11.381	-0.268	-0.206
-478.332	149.658	0.071	-0.097
-477.318	-100.677	-0.449	-0.111
-476.303	682.362	-0.138	0.362
-475.289	-67.425	0.070	0.028
-474.274	272.839	0.110	0.195
-473.259	-130.441	-0.096	0.013
-472.245	495.339	-0.048	0.111
-471.230	89.612	0.197	0.220
-470.216	-200.000	0.035	0.263
-469.201	-91.361	0.039	0.011
-468.186	-45.701	0.248	-0.123
-467.172	-177.829	-0.167	0.004
-466.157	63.624	-0.026	0.026
-465.143	-200.000	0.009	0.113
-464.128	-55.904	-0.115	-0.052
-463.113	-150.602	0.466	-0.036
-462.099	36.401	-0.177	-0.156
-461.084	63.344	0.217	-0.218
-460.070	800.000	0.029	-0.081
-459.055	-136.502	0.385	0.045
-458.040	-119.151	0.145	0.025
-457.026	-45.797	-0.239	0.118
-456.011	800.000	-0.089	0.309
-454.997	593.155	-0.117	0.290
-453.982	-12.272	0.097	-0.064
-452.968	38.740	0.197	-0.177
-451.953	217.245	-0.148	-0.237
-450.938	-200.000	0.005	-0.194
-449.924	34.217	-0.110	-0.096
-448.909	-200.000	-0.006	-0.254
-447.895	-119.127	-0.105	0.018
-446.880	384.531	-0.075	0.156
-445.865	-125.519	0.145	0.022
-444.851	-200.000	-0.048	-0.427
-443.836	3.270	0.035	-0.025
-442.822	140.594	-0.168	-0.222
-441.807	-52.113	-0.134	-0.063
-440.792	800.000	0.104	-0.297
-439.778	-73.413	-0.146	-0.053
-438.763	111.402	0.183	0.221
-437.749	98.309	0.314	0.363
-436.734	435.125	-0.025	0.054
-435.719	150.568	0.050	-0.068
-434.705	-200.000	-0.002	-0.162
-433.690	-15.677	-0.039	-0.025
-432.676	-112.614	0.382	0.076
-431.661	800.000	0.063	-0.195
-430.646	249.465	-0.050	-0.085
-429.632	-200.000	-0.037	-0.294
-428.617	800.000	0.038	-0.144
-427.603	-41.844	-0.085	-0.044
-426.588	200.023	-0.246	0.378
-425.573	-200.000	0.069	-0.332
-424.559	120.188	-0.273	-0.339
-423.544	-30.738	0.168	0.095
-422.530	249.197	0.017	0.029
-421.515	45.499	0.096	-0.088
-420.500	-61.312	-0.099	0.042
-419.486	354.022	-0.071	0.141
-418.471	-78.910	0.334	0.114
-417.457	-200.000	0.059	0.336
-416.442	-44.240	-0.247	-0.124
-415.428	-85.501	0.259	-0.081
-414.413	67.834	0.153	0.156
-413.398	95.256	-0.195	-0.222
-412.384	152.201	-0.093	0.126
-411.369	385.236	0.133	-0.274
-410.355	-60.948	0.081	0.034
-409.340	-54.919	0.356	-0.161
-408.325	41.845	-0.343	-0.311
-407.311	-200.000	0.004	-0.051
-406.296	-200.000	0.057	-0.255
-405.282	336.270	0.108	0.211
-404.267	70.686	-0.165	0.171
-403.252	-200.000	0.285	0.000
-402.238	-200.000	0.000	-0.183
-401.223	-48.462	0.048	0.023
-400.209	20.751	0.292	-0.236
-399.194	74.213	-0.331	0.347
-398.179	57.826	0.161	-0.158
-397.165	800.000	-0.060	-0.177
-396.150	2.635	-0.167	-0.121
-395.136	-75.730	0.174	0.062
-394.121	-200.000	-0.027	-0.214
-393.106	-103.388	0.382	0.090
-392.092	217.023	-0.167	0.265
-391.077	-137.513	-0.355	0.040
-390.063	-193.728	0.173	-0.001
-389.048	-200.000	0.002	-0.029
-388.033	800.000	0.031	0.118
-387.019	-22.503	-0.119	-0.072
-386.004	260.981	0.057	-0.099
-384.990	370.412	0.094	0.189
-383.975	-10.714	0.321	0.212
-382.960	-168.248	-0.183	-0.007
-381.946	-118.233	-0.076	0.014
-380.931	62.188	-0.337	-0.336
-379.917	-200.000	0.044	-0.196
-378.902	122.949	-0.083	0.104
-377.888	328.841	-0.075	-0.144
-376.873	180.444	-0.233	0.342
-375.858	-120.479	0.369	-0.063
-374.844	-51.152	-0.332	-0.155
-373.829	-200.000	0.010	-0.179
-372.815	-200.000	-0.005	-0.167
-371.800	-200.000	0.019	0.231
-370.785	-200.000	0.012	0.146
-369.771	800.000	0.082	-0.293
-368.756	455.140	-0.210	0.465
-367.742	-200.000	0.004	-0.048
-366.727	-163.951	-0.129	0.006
-365.712	54.757	-0.014	-0.013
-364.698	-123.104	0.057	0.009
-363.683	211.933	0.108	0.170
-362.669	539.237	-0.116	0.276
-361.654	-41.454	0.167	-0.086
-360.639	800.000	0.052	-0.160
-359.625	-87.693	0.260	-0.078
-358.610	374.586	0.014	-0.028
-357.596	800.000	0.030	-0.107
-356.581	-118.987	-0.149	0.026
-355.566	12.821	-0.161	0.125
-354.552	136.484	-0.103	-0.134
-353.537	-200.000	-0.003	-0.183
-352.523	800.000	-0.027	-0.098
-351.508	-129.857	0.125	-0.017
-350.493	255.322	0.097	0.165
-349.479	-22.940	-0.099	0.060
-348.464	-41.853	0.342	-0.175
-347.450	272.584	0.101	-0.177
-346.435	-200.000	-0.018	0.190
-345.420	13.757	-0.134	0.104
-344.406	147.994	0.236	-0.317
-343.391	60.547	0.143	0.141
-342.377	-89.510	0.255	-0.075
-341.362	-64.597	-0.193	0.078
-340.348	365.826	0.203	-0.409
-339.333	800.000	-0.119	0.506
-338.318	800.000	0.082	0.354
-337.304	207.029	0.149	0.232
-336.289	365.095	0.104	0.209
-335.275	-161.252	-0.404	0.021
-334.260	24.481	-0.107	0.089
-333.245	-110.896	-0.577	0.118
-332.231	800.000	-0.006	-0.023
-331.216	800.000	0.030	0.090
-330.202	20.209	0.118	0.095
-329.187	142.519	0.095	-0.126
-328.172	-51.516	0.446	-0.208
-327.158	-22.414	-0.191	0.115
-326.143	-73.170	-0.193	0.070
-325.129	214.056	-0.140	0.221
-324.114	-143.354	-0.169	-0.016
-323.099	-200.000	0.048	-0.258
-322.085	-139.612	0.142	-0.015
-321.070	396.842	0.120	-0.250
-320.056	-192.159	-0.363	0.003
-319.041	-200.000	0.020	0.158
-318.026	800.000	-0.049	-0.148
-317.012	-44.478	-0.336	-0.167
-315.997	7.173	0.185	0.138
-314.983	-85.907	0.367	-0.113
-313.968	800.000	0.025	0.081
-312.953	-200.000	0.011	-0.204
-311.939	-26.791	0.135	-0.079
-310.924	-200.000	0.029	0.144
-309.910	-108.805	-0.339	0.072
-308.895	-134.395	-0.171	-0.021
-307.880	-200.000	0.001	0.071
-306.866	800.000	0.026	-0.111
-305.851	-105.273	-0.235	0.053
-304.837	-108.307	-0.488	-0.105
-303.822	-200.000	0.010	-0.134
-302.807	-103.408	-0.262	-0.061
-301.793	789.441	0.076	0.207
-300.778	-200.000	-0.004	0.078
-299.764	55.094	0.181	-0.174
-298.749	5.537	0.032	-0.023
-297.735	-91.962	0.052	-0.015
-296.720	-28.106	0.078	-0.045
-295.705	-200.000	0.034	-0.249
-294.691	800.000	-0.120	-0.380
-293.676	289.303	-0.207	0.374
-292.662	-97.033	0.267	-0.070
-291.647	-79.304	0.116	0.039
-290.632	495.591	0.130	0.298
-289.618	152.384	0.036	-0.049
-288.603	-200.000	0.001	-0.065
-287.589	75.403	-0.254	0.266
-286.574	-29.299	-0.237	0.135
-285.559	141.953	0.040	0.053
-284.545	-130.044	0.309	-0.042
-283.530	41.662	0.255	0.230
-282.516	457.569	-0.058	-0.128
-281.501	428.681	-0.046	-0.098
-280.486	53.117	0.147	-0.140
-279.472	653.840	0.065	-0.166
-278.457	329.865	0.067	-0.128
-277.443	-37.353	-0.145	0.077
-276.428	-69.786	-0.321	-0.122
-275.413	23.433	-0.168	-0.138
-274.399	800.000	0.057	0.178
-273.384	45.230	-0.073	0.067
-272.370	-120.717	0.112	-0.019
-271.355	-115.249	0.314	-0.059
-270.340	-164.906	-0.286	-0.013
-269.326	21.570	-0.091	-0.074
-268.311	-96.917	-0.035	0.009
-267.297	161.721	-0.191	0.265
-266.282	249.903	0.135	0.228
-265.267	35.860	0.051	0.045
-264.253	-200.000	-0.041	-0.246
-263.238	-100.551	-0.221	0.054
-262.224	-200.000	0.011	0.281
-261.209	259.033	-0.120	-0.206
-260.195	-128.534	-0.179	0.025
-259.180	437.596	-0.081	0.176
-258.165	150.980	-0.129	0.175
-257.151	139.938	-0.228	0.299
-256.136	-144.308	0.234	0.022
-255.122	42.156	-0.233	-0.210
-254.107	800.000	-0.062	0.193
-253.092	-200.000	-0.041	-0.352
-252.078	110.507	0.088	0.105
-251.063	560.107	0.029	-0.069
-250.049	-154.142	0.383	0.026
-249.034	-200.000	-0.029	0.163
-248.019	253.515	0.198	0.337
-247.005	-100.420	0.219	0.054
-245.990	-123.964	0.138	0.022
-244.976	-39.276	0.388	0.203
-243.961	800.000	0.103	0.307
-242.946	232.988	0.222	0.363
-241.932	16.619	-0.124	0.097
-240.917	-200.000	0.049	0.287
-239.903	-200.000	-0.003	-0.135
-238.888	-19.853	-0.314	-0.193
-237.873	-200.000	0.008	0.130
-236.859	380.313	-0.089	-0.182
-235.844	800.000	-0.065	0.276
-234.830	-200.000	0.010	-0.226
-233.815	800.000	-0.085	0.351
-232.800	-2.413	0.485	0.338
-231.786	800.000	0.073	0.204
-230.771	-121.665	-0.271	0.045
-229.757	13.868	0.187	-0.144
-228.742	36.695	-0.322	0.283
-227.727	-200.000	-0.018	0.102
-226.713	16.284	-0.097	0.076
-225.698	59.347	0.044	0.043
-224.684	-200.000	0.014	0.069
-223.669	3.749	0.105	0.076
-222.655	-200.000	-0.019	-0.090
-221.640	245.802	-0.083	-0.139
-220.625	-53.593	0.089	0.040
-219.611	344.039	-0.054	0.106
-218.596	34.467	0.117	-0.101
-217.582	-24.837	-0.141	0.083
-216.567	800.000	-0.064	0.246
-215.552	-21.740	0.242	0.146
-214.538	-64.424	-0.150	-0.060
-213.523	800.000	0.078	0.238
-212.509	10.944	0.210	-0.159
-211.494	112.442	-0.071	0.085
-210.479	375.273	-0.008	-0.017
-209.465	3.149	-0.283	0.204
-208.450	42.426	0.229	-0.207
-207.436	800.000	0.078	0.244
-206.421	-116.821	-0.076	0.014
-205.406	71.421	-0.222	0.229
-204.392	-87.929	-0.119	0.035
-203.377	261.111	-0.190	-0.326
-202.363	-20.319	0.240	0.146
-201.348	-77.598	-0.336	-0.116
-200.333	64.735	0.103	0.103
-199.319	527.923	0.032	-0.075
-198.304	-152.362	-0.213	-0.015
-197.290	-47.446	-0.422	0.204
-196.275	-150.216	0.101	0.008
-195.260	-3.632	0.170	-0.117
-194.246	65.934	-0.184	0.185
-193.231	-200.000	0.130	0.617
-192.217	169.677	0.072	0.102
-191.202	-60.844	0.288	0.121
-190.187	-12.056	-0.266	0.173
-189.173	151.312	0.105	0.142
-188.158	240.911	-0.177	0.293
-187.144	113.442	0.103	-0.124
-186.129	-128.883	0.308	-0.043
-185.114	-87.474	0.069	0.021
-184.100	74.465	0.091	-0.095
-183.085	5.475	-0.203	-0.148
-182.071	-102.625	-0.149	0.035
-181.056	317.481	0.141	-0.265
-180.042	-82.909	0.175	-0.056
-179.027	-164.891	0.061	0.003
-178.012	-200.000	-0.010	-0.209
-176.998	145.010	-0.301	-0.399
-175.983	-45.876	0.180	0.088
-174.969	-23.587	0.181	0.107
-173.954	-124.408	-0.363	0.056
-172.939	178.228	-0.147	0.213
-171.925	66.165	-0.214	-0.215
-170.910	-200.000	0.014	0.103
-169.896	-81.358	-0.053	-0.017
-168.881	-177.921	0.120	0.003
-167.866	-200.000	0.028	0.157
-166.852	-200.000	-0.019	0.090
-165.837	-103.683	0.220	0.051
-164.823	120.077	-0.186	0.228
-163.808	61.623	-0.058	-0.057
-162.793	-145.043	0.080	-0.007
-161.779	153.010	-0.042	0.057
-160.764	-200.000	0.038	-0.198
-159.750	110.898	0.158	0.188
-158.735	-182.986	0.217	-0.004
-157.720	-200.000	0.016	0.337
-156.706	-40.586	-0.081	0.041
-155.691	57.528	-0.178	0.172
-154.677	800.000	0.001	0.005
-153.662	99.690	-0.180	-0.206
-152.647	98.026	-0.138	-0.157
-151.633	-82.617	0.165	-0.053
-150.618	-200.000	0.001	-0.010
-149.604	300.115	0.052	-0.094
-148.589	-79.773	0.092	-0.031
-147.574	800.000	-0.012	0.039
-146.560	-64.357	-0.124	-0.050
-145.545	-184.504	0.347	-0.006
-144.531	-129.636	0.322	0.044
-143.516	-191.398	0.276	-0.003
-142.502	1.441	-0.164	-0.117
-141.487	800.000	0.050	0.184
-140.472	620.332	0.126	-0.312
-139.458	-200.000	0.068	0.360
-138.443	210.991	0.184	0.286
-137.429	792.657	-0.075	-0.203
-136.414	330.041	-0.130	-0.248
-135.399	-133.489	-0.123	0.015
-134.385	800.000	-0.040	-0.151
-133.370	-120.720	-0.182	-0.030
-132.356	800.000	-0.019	0.066
-131.341	-104.677	0.321	0.073
-130.326	-50.353	0.210	0.098
-129.312	-200.000	0.011	-0.399
-128.297	9.988	0.192	-0.144
-127.283	523.868	0.035	0.081
-126.268	10.051	-0.012	-0.009
-125.253	747.816	0.057	-0.152
-124.239	-87.319	-0.184	0.055
-123.224	-200.000	0.007	0.097
-122.210	228.931	-0.090	0.145
-121.195	179.519	0.179	-0.259
-120.180	648.777	0.046	-0.117
