DTS Sentinel unit serial number:	SN413079Multiplexer serial number:	ORYXHardware model number:	OX4-SRSoftware version number:	ORYX F/W v4.00 Oryx Data Collector v3.7.2.0data status	okinstallation	princeton_trtdifferential loss correction	single-endedforward channel	channel 4reverse channel	N/Adate	2019/09/10time	17:19:10forward acquisition time	60.00reverse acquisition time	0.00gamma	496.2192k internal	0.2296k external	0.2296temperature offset calibration	0.9942default loss term (dB/km)	0.3790temperature slope calibration	1.0000multiplexer offset coefficient	1.0000multiplexer slope coefficient	1.0000fibre end	0.00T internal ref (°C)	37.64T ext. ref 1 (°C)	-0.33T ext. ref 2 (°C)	32.06length (m)	temperature (°C)	Stokes	anti-Stokes-747.200	545.830	0.078	-0.190
-746.185	-200.000	-0.092	0.442
-745.171	102.118	-0.091	-0.109
-744.156	297.442	-0.072	0.136
-743.142	136.517	0.153	-0.205
-742.127	-200.000	-0.016	-0.113
-741.112	-200.000	-0.032	0.175
-740.098	59.241	-0.234	0.236
-739.083	56.710	-0.313	0.312
-738.069	137.336	0.298	0.398
-737.054	-7.076	-0.136	0.094
-736.039	289.269	0.036	-0.066
-735.025	291.018	-0.083	-0.154
-734.010	108.786	-0.211	0.258
-732.996	-97.667	-0.304	-0.080
-731.981	9.227	0.181	-0.140
-730.966	156.993	-0.242	-0.342
-729.952	-150.407	-0.274	-0.022
-728.937	62.856	-0.128	-0.131
-727.923	208.396	-0.100	-0.160
-726.908	-107.603	-0.207	-0.046
-725.894	86.066	-0.055	0.061
-724.879	-64.237	0.349	0.145
-723.864	-5.201	-0.271	-0.190
-722.850	-200.000	0.000	0.105
-721.835	341.822	0.197	-0.394
-720.821	-42.121	0.113	-0.059
-719.806	800.000	-0.025	-0.098
-718.791	226.924	0.034	-0.056
-717.777	-200.000	-0.019	0.207
-716.762	-44.545	-0.211	-0.108
-715.748	-38.515	-0.266	0.144
-714.733	-194.649	0.099	0.001
-713.718	-56.494	-0.169	0.076
-712.704	-81.583	-0.195	-0.065
-711.689	-11.708	0.181	0.122
-710.675	737.646	-0.026	-0.072
-709.660	-200.000	-0.021	0.202
-708.645	-200.000	0.029	-0.194
-707.631	-61.489	0.170	-0.073
-706.616	429.639	-0.096	-0.212
-705.602	-83.721	0.174	-0.057
-704.587	403.221	-0.072	0.154
-703.572	525.353	-0.046	0.110
-702.558	132.667	0.079	-0.104
-701.543	-87.925	-0.348	0.107
-700.529	-148.089	0.234	0.020
-699.514	-27.590	0.157	-0.093
-698.499	-79.949	0.194	-0.067
-697.485	-104.318	-0.260	-0.062
-696.470	-137.926	-0.203	0.023
-695.456	202.853	-0.057	0.090
-694.441	-200.000	-0.005	-0.158
-693.426	-120.471	0.139	0.024
-692.412	-200.000	-0.035	0.211
-691.397	34.725	-0.105	-0.094
-690.383	-28.379	-0.122	0.072
-689.368	72.990	0.171	0.183
-688.354	-78.171	0.119	0.042
-687.339	-14.143	0.210	0.138
-686.324	14.621	0.081	0.064
-685.310	453.867	-0.028	0.063
-684.295	-200.000	0.004	0.101
-683.281	470.333	-0.100	0.229
-682.266	168.022	0.203	-0.295
-681.251	-74.087	-0.162	-0.060
-680.237	-200.000	-0.019	-0.318
-679.222	-154.959	0.036	-0.002
-678.208	-132.347	-0.140	0.018
-677.193	-200.000	0.002	-0.374
-676.178	-28.256	0.442	-0.260
-675.164	-145.324	-0.218	-0.020
-674.149	-200.000	-0.029	-0.134
-673.135	177.536	0.287	-0.426
-672.120	45.781	0.204	-0.193
-671.105	7.711	-0.123	-0.094
-670.091	-200.000	-0.003	0.378
-669.076	-113.490	-0.032	0.006
-668.062	64.142	0.241	0.247
-667.047	120.997	-0.084	-0.107
-666.032	-200.000	0.000	-0.001
-665.018	-81.640	-0.120	-0.040
-664.003	-183.495	-0.247	0.004
-662.989	-3.912	0.241	-0.171
-661.974	484.943	0.104	0.242
-660.959	-101.404	0.215	0.053
-659.945	-200.000	-0.024	-0.227
-658.930	-51.717	0.250	-0.119
-657.916	-52.847	-0.272	0.128
-656.901	90.441	-0.224	-0.255
-655.886	-200.000	-0.028	-0.337
-654.872	-4.199	0.234	-0.165
-653.857	-121.163	-0.170	-0.029
-652.843	90.647	-0.201	0.229
-651.828	800.000	0.039	0.158
-650.814	-200.000	-0.032	-0.153
-649.799	381.180	-0.089	-0.187
-648.784	-85.795	-0.209	0.066
-647.770	499.206	0.161	-0.378
-646.755	10.468	0.168	-0.130
-645.741	-200.000	-0.007	0.110
-644.726	800.000	-0.047	-0.146
-643.711	-200.000	0.011	-0.296
-642.697	155.076	-0.169	0.236
-641.682	-200.000	-0.002	0.146
-640.668	-200.000	-0.020	0.299
-639.653	315.834	-0.116	0.222
-638.638	48.119	0.102	0.097
-637.624	-35.271	-0.318	-0.176
-636.609	-113.262	0.261	0.052
-635.595	165.487	0.009	-0.013
-634.580	174.529	-0.143	0.211
-633.565	134.684	-0.022	0.029
-632.551	-192.038	-0.050	-0.000
-631.536	48.384	-0.261	0.248
-630.522	100.181	0.198	0.234
-629.507	64.861	-0.187	-0.192
-628.492	-200.000	0.047	0.269
-627.478	305.257	0.076	0.144
-626.463	135.729	-0.137	0.182
-625.449	265.572	-0.120	-0.213
-624.434	14.436	-0.249	0.198
-623.419	-200.000	0.016	0.253
-622.405	121.692	-0.071	-0.091
-621.390	-200.000	0.020	0.202
-620.376	800.000	0.069	0.207
-619.361	-136.080	-0.140	0.017
-618.346	-11.369	-0.266	-0.178
-617.332	487.425	0.051	-0.118
-616.317	351.865	0.149	-0.301
-615.303	-136.453	-0.331	-0.039
-614.288	800.000	-0.036	-0.115
-613.273	179.018	0.091	0.135
-612.259	-44.249	-0.170	0.087
-611.244	18.576	-0.201	0.163
-610.230	495.804	0.129	-0.302
-609.215	-159.949	0.057	0.003
-608.201	800.000	-0.047	0.154
-607.186	-136.762	-0.296	-0.035
-606.171	330.922	0.099	-0.195
-605.157	-200.000	-0.035	-0.197
-604.142	800.000	0.073	-0.222
-603.128	2.405	0.198	0.146
-602.113	-200.000	0.017	0.313
-601.098	-41.577	0.092	-0.048
-600.084	300.906	0.108	-0.203
-599.069	-21.136	0.089	0.055
-598.055	1.781	0.254	-0.186
-597.040	-36.976	0.078	-0.042
-596.025	-130.060	-0.210	-0.029
-595.011	-47.489	-0.423	-0.209
-593.996	-60.912	-0.191	0.082
-592.982	11.905	0.130	0.101
-591.967	-77.769	-0.336	0.118
-590.952	-104.731	-0.202	-0.047
-589.938	-178.429	0.199	0.005
-588.923	95.246	-0.029	-0.034
-587.909	800.000	0.028	-0.078
-586.894	126.654	0.082	-0.106
-585.879	-103.065	0.185	-0.045
-584.865	-155.270	-0.230	0.015
-583.850	-200.000	0.005	-0.066
-582.836	-150.895	-0.126	0.010
-581.821	-80.764	0.342	0.115
-580.806	-33.550	-0.195	0.109
-579.792	-45.331	0.183	-0.092
-578.777	153.488	0.244	-0.339
-577.763	-197.742	-0.199	-0.001
-576.748	192.448	0.101	-0.155
-575.733	-21.326	-0.329	-0.204
-574.719	-200.000	-0.026	0.131
-573.704	-200.000	-0.000	-0.108
-572.690	-120.064	0.034	0.006
-571.675	-200.000	-0.032	-0.214
-570.661	349.222	0.078	-0.156
-569.646	-200.000	0.027	-0.200
-568.631	-89.335	0.229	0.069
-567.617	113.455	-0.216	0.266
-566.602	-97.544	0.214	-0.056
-565.588	128.426	0.146	0.189
-564.573	-200.000	0.050	0.251
-563.558	9.063	-0.100	0.076
-562.544	365.203	-0.069	-0.141
-561.529	121.905	-0.231	-0.292
-560.515	-200.000	-0.019	-0.101
-559.500	-52.181	-0.034	-0.016
-558.485	-200.000	0.002	-0.217
-557.471	-200.000	-0.029	0.135
-556.456	-127.961	0.185	-0.027
-555.442	-32.869	-0.352	0.199
-554.427	-200.000	0.061	-0.399
-553.412	113.562	-0.127	0.157
-552.398	-115.662	0.266	-0.051
-551.383	77.513	0.092	-0.099
-550.369	-92.435	0.349	-0.100
-549.354	235.661	0.044	0.074
-548.339	-200.000	0.040	-0.244
-547.325	-66.092	-0.062	-0.025
-546.310	-136.342	-0.048	0.006
-545.296	-24.223	-0.300	-0.182
-544.281	800.000	-0.119	-0.433
-543.266	36.087	-0.093	0.083
-542.252	-90.741	0.130	0.038
-541.237	-200.000	0.054	-0.324
-540.223	-83.276	-0.226	0.074
-539.208	-200.000	-0.038	0.236
-538.193	-144.174	0.110	-0.010
-537.179	-200.000	-0.005	0.120
-536.164	800.000	-0.104	-0.343
-535.150	800.000	-0.031	0.129
-534.135	151.341	-0.017	-0.024
-533.121	-188.151	0.100	0.001
-532.106	251.774	-0.032	-0.056
-531.091	296.985	0.161	-0.300
-530.077	30.100	0.211	0.183
-529.062	112.620	0.139	-0.170
-528.048	-132.740	0.407	-0.053
-527.033	88.309	-0.177	0.200
-526.018	151.920	0.063	0.088
-525.004	-74.388	0.379	0.139
-523.989	-200.000	-0.001	0.299
-522.975	-136.835	-0.322	-0.038
-521.960	-36.901	-0.046	0.025
-520.945	-200.000	0.111	-0.563
-519.931	319.558	0.070	0.135
-518.916	355.571	0.049	-0.100
-517.902	-131.379	-0.060	-0.008
-516.887	-61.544	-0.219	-0.093
-515.872	800.000	0.031	-0.122
-514.858	654.288	-0.047	0.123
-513.843	-11.198	-0.202	-0.135
-512.829	-52.146	0.141	-0.066
-511.814	-68.908	-0.357	0.140
-510.799	-151.808	0.223	0.017
-509.785	-14.589	0.207	0.135
-508.770	-102.236	0.156	0.038
-507.756	235.152	0.131	0.218
-506.741	-142.922	-0.100	-0.010
-505.726	-13.980	-0.117	0.077
-504.712	-92.433	-0.178	-0.051
-503.697	-73.750	0.308	0.113
-502.683	76.302	-0.208	-0.223
-501.668	413.447	-0.111	0.240
-500.653	-200.000	-0.044	0.201
-499.639	-157.181	0.165	0.010
-498.624	149.395	0.048	-0.065
-497.610	800.000	0.074	0.224
-496.595	-105.223	-0.288	-0.066
-495.581	800.000	0.027	0.102
-494.566	73.107	0.131	-0.139
-493.551	7.133	-0.264	-0.200
-492.537	-60.051	-0.320	-0.138
-491.522	72.609	-0.084	0.089
-490.508	469.502	-0.016	-0.037
-489.493	91.221	-0.099	-0.113
-488.478	23.334	0.110	-0.091
-487.464	-139.056	-0.130	0.014
-486.449	-4.056	0.348	-0.244
-485.435	-67.298	0.536	0.213
-484.420	85.840	0.134	0.149
-483.405	800.000	0.135	0.399
-482.391	-21.759	-0.214	0.132
-481.376	-181.266	-0.225	0.005
-480.362	-14.447	0.204	0.133
-479.347	148.654	-0.186	0.254
-478.332	59.376	0.240	-0.239
-477.318	-200.000	-0.001	0.333
-476.303	211.580	0.061	0.097
-475.289	-124.547	-0.519	-0.081
-474.274	-24.203	0.140	0.085
-473.259	-102.502	0.204	-0.049
-472.245	-163.235	0.114	-0.006
-471.230	173.888	-0.120	-0.175
-470.216	83.358	-0.283	0.312
-469.201	20.276	-0.234	-0.191
-468.186	117.046	-0.036	-0.044
-467.172	-95.333	-0.215	-0.058
-466.157	-144.326	-0.275	0.026
-465.143	-62.333	-0.215	-0.090
-464.128	502.143	0.176	0.412
-463.113	120.105	0.083	0.104
-462.099	44.884	0.229	-0.213
-461.084	96.572	0.058	-0.067
-460.070	800.000	-0.065	-0.211
-459.055	-116.163	0.010	-0.002
-458.040	44.999	-0.129	0.120
-457.026	-30.623	0.132	0.075
-456.011	16.297	-0.117	0.093
-454.997	800.000	-0.048	-0.198
-453.982	-116.279	-0.266	0.050
-452.968	-76.060	-0.028	0.010
-451.953	-200.000	0.009	-0.445
-450.938	-3.094	-0.146	-0.103
-449.924	318.469	-0.082	-0.156
-448.909	-9.296	0.199	0.134
-447.895	-200.000	-0.019	0.092
-446.880	3.185	0.235	-0.172
-445.865	328.990	-0.047	-0.092
-444.851	-31.739	-0.354	0.200
-443.836	-54.658	0.121	-0.055
-442.822	218.224	0.137	-0.221
-441.807	-53.095	0.237	0.110
-440.792	219.156	0.124	-0.200
-439.778	-59.698	0.347	-0.150
-438.763	-67.606	0.159	0.063
-437.749	-200.000	0.053	0.570
-436.734	49.396	-0.211	0.201
-435.719	17.613	0.149	-0.119
-434.705	708.428	0.120	-0.321
-433.690	-57.901	-0.180	0.079
-432.676	-109.493	-0.074	0.016
-431.661	260.160	0.154	-0.268
-430.646	-123.712	-0.234	-0.037
-429.632	-200.000	-0.009	-0.410
-428.617	800.000	-0.057	0.188
-427.603	125.393	0.138	0.175
-426.588	-66.723	0.040	-0.016
-425.573	-200.000	0.008	-0.132
-424.559	-33.342	0.143	-0.080
-423.544	-200.000	0.006	-0.044
-422.530	194.226	-0.146	0.223
-421.515	-161.466	-0.237	-0.012
-420.500	225.303	0.069	0.112
-419.486	-200.000	-0.013	-0.132
-418.471	-70.277	-0.138	0.053
-417.457	-107.369	-0.286	0.063
-416.442	-19.996	0.231	0.144
-415.428	250.573	-0.125	-0.215
-414.413	30.469	0.031	-0.027
-413.398	-99.120	-0.376	-0.096
-412.384	-104.851	0.071	0.016
-411.369	437.922	-0.042	-0.092
-410.355	342.623	0.081	-0.160
-409.340	800.000	0.071	-0.228
-408.325	142.074	-0.240	-0.321
-407.311	4.242	0.040	0.029
-406.296	42.065	0.082	-0.075
-405.282	-10.456	0.189	0.126
-404.267	140.423	-0.371	0.494
-403.252	197.739	-0.168	0.258
-402.238	136.924	0.156	0.206
-401.223	-78.117	-0.254	-0.088
-400.209	10.070	-0.173	-0.133
-399.194	438.427	-0.134	0.295
-398.179	-66.694	-0.440	0.176
-397.165	800.000	0.058	0.244
-396.150	80.652	0.018	-0.019
-395.136	-85.264	-0.254	0.080
-394.121	-200.000	-0.016	0.329
-393.106	-33.536	0.094	0.053
-392.092	-200.000	0.010	0.223
-391.077	-144.712	0.092	-0.008
-390.063	-134.972	-0.248	-0.030
-389.048	193.540	-0.043	-0.066
-388.033	-126.740	-0.329	0.049
-387.019	84.591	0.107	-0.118
-386.004	482.777	-0.103	0.236
-384.990	36.650	-0.232	0.206
-383.975	-58.176	-0.226	0.099
-382.960	84.876	-0.083	-0.092
-381.946	-79.044	0.116	-0.040
-380.931	-141.600	-0.400	-0.041
-379.917	-200.000	0.014	-0.091
-378.902	335.078	-0.086	-0.168
-377.888	-110.077	-0.223	0.047
-376.873	272.884	0.192	0.342
-375.858	-200.000	0.021	0.269
-374.844	632.082	-0.039	-0.098
-373.829	8.265	-0.008	-0.006
-372.815	277.131	-0.102	0.183
-371.800	-43.576	-0.335	0.170
-370.785	-120.864	0.270	-0.046
-369.771	-118.599	0.222	-0.040
-368.756	800.000	0.106	-0.313
-367.742	-71.918	-0.300	-0.112
-366.727	403.751	0.136	0.288
-365.712	357.978	0.011	0.022
-364.698	-200.000	-0.058	-0.338
-363.683	1.173	0.306	-0.221
-362.669	-200.000	0.034	0.259
-361.654	263.342	0.098	0.172
-360.639	-200.000	-0.048	-0.273
-359.625	144.842	0.218	-0.293
-358.610	-200.000	0.012	0.143
-357.596	55.418	-0.373	-0.363
-356.581	49.110	-0.133	-0.126
-355.566	-84.269	-0.343	-0.109
-354.552	-200.000	0.002	0.154
-353.537	2.686	-0.036	0.026
-352.523	-22.032	-0.122	-0.075
-351.508	-122.642	-0.335	-0.055
-350.493	610.686	-0.090	0.227
-349.479	298.272	-0.066	-0.122
-348.464	116.812	0.118	0.145
-347.450	-182.510	-0.334	-0.006
-346.435	173.209	0.114	-0.166
-345.420	274.725	0.136	0.243
-344.406	-21.795	-0.093	0.057
-343.391	800.000	-0.031	-0.092
-342.377	138.303	-0.135	-0.178
-341.362	188.184	-0.090	-0.135
-340.348	-40.994	-0.184	0.096
-339.333	-74.027	0.138	0.050
-338.318	-59.393	0.247	0.107
-337.304	95.070	-0.284	-0.325
-336.289	-200.000	0.036	-0.259
-335.275	-200.000	-0.003	-0.146
-334.260	-12.394	0.243	0.159
-333.245	29.516	0.233	-0.199
-332.231	-200.000	-0.006	-0.029
-331.216	-154.281	0.215	0.015
-330.202	-63.103	-0.153	0.064
-329.187	21.367	0.062	0.050
-328.172	236.850	-0.189	0.314
-327.158	-102.599	0.220	-0.053
-326.143	-144.203	0.246	0.023
-325.129	129.558	0.179	-0.230
-324.114	-25.102	0.196	0.117
-323.099	-3.948	0.456	-0.318
-322.085	800.000	0.129	-0.371
-321.070	800.000	-0.136	-0.432
-320.056	60.962	-0.186	0.186
-319.041	-67.422	0.121	-0.048
-318.026	800.000	-0.016	0.049
-317.012	11.176	-0.038	0.029
-315.997	-59.389	0.201	0.087
-314.983	-71.477	0.298	-0.112
-313.968	800.000	0.079	0.265
-312.953	-200.000	0.013	-0.290
-311.939	800.000	0.041	0.168
-310.924	15.478	0.361	0.285
-309.910	158.691	0.147	-0.205
-308.895	27.102	-0.150	0.126
-307.880	-34.421	0.173	0.095
-306.866	-200.000	0.036	0.281
-305.851	-116.359	0.035	-0.006
-304.837	91.910	0.189	-0.214
-303.822	162.874	-0.044	-0.062
-302.807	-48.155	-0.168	0.081
-301.793	-83.450	0.073	-0.023
-300.778	158.963	0.241	0.336
-299.764	-200.000	-0.041	0.311
-298.749	151.882	-0.188	0.257
-297.735	142.431	0.081	-0.108
-296.720	-85.043	0.223	-0.070
-295.705	132.222	0.197	-0.255
-294.691	221.418	0.093	0.150
-293.676	-156.032	0.460	-0.029
-292.662	800.000	0.057	-0.230
-291.647	-200.000	-0.018	-0.156
-290.632	25.147	-0.235	0.196
-289.618	-131.066	0.242	-0.032
-288.603	200.891	0.204	0.315
-287.589	-39.680	0.063	0.033
-286.574	478.818	0.020	-0.046
-285.559	125.156	0.127	0.161
-284.545	8.665	-0.143	-0.108
-283.530	-108.122	-0.103	0.022
-282.516	-200.000	0.022	0.220
-281.501	-29.515	0.387	-0.222
-280.486	-200.000	0.006	-0.040
-279.472	347.576	0.150	0.296
-278.457	800.000	0.017	-0.050
-277.443	800.000	-0.071	-0.204
-276.428	-85.293	-0.263	0.082
-275.413	-200.000	-0.030	-0.215
-274.399	-88.546	-0.172	0.051
-273.384	506.437	-0.041	0.095
-272.370	-200.000	0.015	0.085
-271.355	800.000	-0.174	0.511
-270.340	-40.000	0.170	0.089
-269.326	176.896	-0.032	-0.046
-268.311	609.822	0.160	0.402
-267.297	549.608	0.055	-0.133
-266.282	8.333	-0.389	-0.293
-265.267	-200.000	0.004	-0.080
-264.253	-90.596	0.063	-0.018
-263.238	-200.000	-0.035	-0.155
-262.224	35.341	-0.164	0.144
-261.209	727.061	0.040	0.107
-260.195	-67.979	0.236	-0.092
-259.180	-70.694	-0.174	-0.066
-258.165	-107.643	0.192	-0.042
-257.151	262.103	0.068	0.119
-256.136	9.158	-0.051	-0.039
-255.122	563.683	-0.138	0.336
-254.107	800.000	-0.035	-0.101
-253.092	145.679	-0.162	-0.218
-252.078	114.082	0.164	0.200
-251.063	-138.017	-0.346	-0.039
-250.049	-200.000	0.039	-0.178
-249.034	-75.646	-0.076	-0.027
-248.019	-200.000	0.015	0.077
-247.005	-36.246	0.077	0.042
-245.990	345.511	0.053	-0.104
-244.976	-70.706	0.134	-0.051
-243.961	-191.521	-0.330	0.003
-242.946	33.514	-0.182	0.159
-241.932	748.581	0.047	-0.128
-240.917	165.269	0.220	-0.312
-239.903	478.998	0.045	-0.101
-238.888	-70.936	0.050	-0.019
-237.873	-138.423	0.136	0.015
-236.859	296.326	-0.098	0.181
-235.844	-44.983	0.126	-0.063
-234.830	-175.318	0.319	-0.009
-233.815	390.976	-0.123	0.257
-232.800	-88.297	0.116	0.035
-231.786	183.155	0.063	-0.094
-230.771	-85.019	-0.104	0.033
-229.757	800.000	0.033	0.137
-228.742	-200.000	-0.026	0.242
-227.727	79.884	-0.126	0.136
-226.713	-86.786	0.094	0.029
-225.698	624.338	-0.159	0.403
-224.684	800.000	-0.127	0.358
-223.669	-61.225	-0.157	-0.066
-222.655	800.000	-0.138	-0.443
-221.640	-16.915	0.257	-0.162
-220.625	22.614	-0.232	-0.190
-219.611	72.974	0.219	0.229
-218.596	-126.431	-0.124	-0.018
-217.582	-200.000	0.001	-0.103
-216.567	-124.301	0.208	-0.033
-215.552	800.000	0.084	0.261
-214.538	343.585	0.111	-0.218
-213.523	39.589	0.074	0.066
-212.509	192.013	-0.077	-0.117
-211.494	-145.960	-0.236	0.021
-210.479	-23.411	0.150	-0.090
-209.465	106.273	0.065	0.077
-208.450	-47.978	0.170	0.082
-207.436	29.502	0.287	0.245
-206.421	800.000	0.049	0.155
-205.406	19.682	0.294	-0.237
-204.392	-63.724	0.296	0.121
-203.377	98.140	-0.079	0.091
-202.363	-104.439	-0.082	0.019
-201.348	-1.079	0.079	-0.056
-200.333	-129.065	-0.007	-0.001
-199.319	92.075	0.277	0.312
-198.304	-47.433	0.188	-0.092
-197.290	92.468	0.013	0.014
-196.275	28.092	0.011	-0.009
-195.260	-200.000	0.027	-0.134
-194.246	-68.443	-0.311	-0.121
-193.231	-200.000	0.021	-0.174
-192.217	-145.483	-0.062	-0.006
-191.202	800.000	-0.052	-0.182
-190.187	-85.631	0.343	0.107
-189.173	-200.000	0.067	-0.337
-188.158	-158.813	-0.097	-0.006
-187.144	30.191	0.139	-0.119
-186.129	-173.810	0.463	0.014
-185.114	-200.000	-0.042	-0.192
-184.100	-42.889	-0.188	-0.095
-183.085	127.914	0.236	0.300
-182.071	-182.353	-0.186	-0.003
-181.056	-149.555	-0.156	0.012
-180.042	-200.000	-0.027	0.168
-179.027	-200.000	0.008	-0.109
-178.012	-108.210	0.224	0.048
-176.998	60.900	0.017	0.016
-175.983	-23.023	-0.197	-0.119
-174.969	-78.799	0.089	-0.030
-173.954	30.756	-0.151	0.129
-172.939	119.150	0.183	-0.226
-171.925	-105.605	-0.083	-0.019
-170.910	-9.400	-0.352	0.235
-169.896	-168.511	-0.317	0.012
-168.881	800.000	-0.046	-0.130
-167.866	-83.498	0.190	0.061
-166.852	-170.232	0.322	-0.011
-165.837	8.373	0.226	-0.169
-164.823	61.442	0.293	0.291
-163.808	-25.817	-0.133	-0.078
-162.793	-76.346	0.133	-0.047
-161.779	340.947	0.056	-0.110
-160.764	-200.000	0.040	-0.193
-159.750	-9.901	0.227	0.151
-158.735	242.160	0.028	-0.047
-157.720	800.000	-0.049	0.182
-156.706	-200.000	-0.012	0.127
-155.691	199.049	0.019	-0.029
-154.677	204.630	0.043	-0.067
-153.662	430.204	-0.091	-0.198
-152.647	-21.112	0.109	0.066
-151.633	539.580	0.147	0.350
-150.618	-178.624	-0.048	0.001
-149.604	621.336	-0.039	0.098
-148.589	-143.805	0.108	-0.010
-147.574	516.420	-0.039	0.091
-146.560	551.044	0.081	-0.193
-145.545	152.965	-0.096	-0.132
-144.531	-10.129	-0.072	0.048
-143.516	64.197	-0.053	0.054
-142.502	356.879	0.057	-0.114
-141.487	-65.288	0.056	0.023
-140.472	-43.214	0.354	0.179
-139.458	-200.000	0.030	0.299
-138.443	-200.000	-0.002	0.112
-137.429	-200.000	-0.010	-0.062
-136.414	-55.101	-0.044	0.020
-135.399	256.756	-0.119	-0.203
-134.385	295.730	0.040	0.073
-133.370	-28.059	0.464	0.268
-132.356	307.212	-0.095	0.176
-131.341	-48.916	0.423	0.202
-130.326	353.107	0.215	-0.426
-129.312	-93.158	-0.121	-0.034
-128.297	-200.000	-0.010	0.313
-127.283	27.167	-0.054	0.045
-126.268	-123.523	-0.156	-0.025
-125.253	343.676	0.110	0.215
-124.239	-60.131	0.098	0.042
-123.224	-173.207	-0.254	-0.008
-122.210	-0.983	0.118	-0.083
