DTS Sentinel unit serial number:	SN413079Multiplexer serial number:	ORYXHardware model number:	OX4-SRSoftware version number:	ORYX F/W v4.00 Oryx Data Collector v3.7.2.0data status	okinstallation	princeton_trtdifferential loss correction	single-endedforward channel	channel 4reverse channel	N/Adate	2019/09/10time	15:39:11forward acquisition time	60.00reverse acquisition time	0.00gamma	496.2192k internal	0.2293k external	0.2293temperature offset calibration	0.9940default loss term (dB/km)	0.3790temperature slope calibration	1.0000multiplexer offset coefficient	1.0000multiplexer slope coefficient	1.0000fibre end	0.00T internal ref (°C)	38.00T ext. ref 1 (°C)	-0.28T ext. ref 2 (°C)	31.54length (m)	temperature (°C)	Stokes	anti-Stokes-747.200	134.222	-0.121	0.160
-746.185	-45.937	0.211	-0.107
-745.171	800.000	0.031	0.090
-744.156	-91.725	0.342	-0.100
-743.142	-49.824	-0.263	0.128
-742.127	-61.751	-0.345	0.148
-741.112	800.000	-0.078	0.306
-740.098	-173.605	-0.137	-0.004
-739.083	-200.000	0.029	-0.156
-738.069	-149.579	0.099	0.008
-737.054	522.173	0.121	0.290
-736.039	-72.902	0.260	0.098
-735.025	246.423	0.108	0.186
-734.010	-30.885	-0.203	-0.117
-732.996	800.000	-0.088	-0.266
-731.981	758.400	0.011	-0.030
-730.966	-200.000	-0.076	0.511
-729.952	-171.150	-0.280	-0.010
-728.937	-154.188	-0.370	0.026
-727.923	146.805	-0.109	-0.149
-726.908	800.000	-0.092	-0.410
-725.894	800.000	-0.038	-0.162
-724.879	319.896	0.054	-0.105
-723.864	-93.877	0.312	-0.088
-722.850	-139.722	-0.149	0.016
-721.835	236.461	-0.105	0.177
-720.821	759.960	-0.072	-0.201
-719.806	-119.834	-0.238	-0.042
-718.791	-29.752	-0.292	-0.170
-717.777	-134.681	0.416	0.052
-716.762	673.042	-0.106	-0.280
-715.748	800.000	0.124	-0.363
-714.733	153.269	-0.099	0.138
-713.718	-200.000	-0.024	0.165
-712.704	17.821	-0.276	-0.224
-711.689	218.344	0.066	-0.107
-710.675	225.301	0.146	0.241
-709.660	800.000	0.030	0.099
-708.645	-130.631	-0.226	-0.031
-707.631	800.000	0.073	0.225
-706.616	-163.714	-0.263	0.013
-705.602	-99.969	-0.323	-0.082
-704.587	800.000	-0.111	0.415
-703.572	-61.899	-0.096	-0.041
-702.558	97.821	0.148	-0.174
-701.543	-14.083	0.181	0.119
-700.529	-200.000	-0.013	0.128
-699.514	-13.901	0.301	-0.199
-698.499	51.631	0.181	-0.176
-697.485	214.462	-0.152	0.246
-696.470	0.879	-0.340	0.249
-695.456	-59.866	-0.127	0.056
-694.441	-109.363	-0.382	0.082
-693.426	11.038	-0.086	-0.067
-692.412	236.426	-0.106	0.178
-691.397	463.245	0.137	0.313
-690.383	-124.944	0.217	-0.034
-689.368	-161.534	-0.265	0.014
-688.354	59.417	0.074	0.075
-687.339	-200.000	0.046	-0.273
-686.324	-14.732	-0.235	-0.154
-685.310	735.583	-0.070	-0.192
-684.295	355.355	0.093	-0.189
-683.281	380.666	0.039	0.082
-682.266	-43.913	0.191	0.098
-681.251	114.324	0.146	-0.182
-680.237	-81.338	-0.168	-0.057
-679.222	-200.000	-0.010	0.095
-678.208	-165.493	0.109	-0.005
-677.193	-200.000	0.038	-0.213
-676.178	259.620	-0.125	-0.220
-675.164	-31.479	0.105	-0.060
-674.149	-162.870	0.255	0.013
-673.135	-200.000	0.060	-0.338
-672.120	414.256	0.144	-0.312
-671.105	14.990	-0.326	0.260
-670.091	33.089	0.121	-0.107
-669.076	22.904	0.089	0.074
-668.062	152.042	0.070	0.097
-667.047	-200.000	-0.033	-0.300
-666.032	258.823	-0.150	-0.264
-665.018	-82.070	-0.137	-0.046
-664.003	-131.462	-0.278	0.037
-662.989	-27.213	-0.097	0.057
-661.974	170.633	0.070	0.103
-660.959	-200.000	-0.020	0.323
-659.945	65.485	-0.283	-0.292
-658.930	-137.326	0.224	0.026
-657.916	800.000	-0.038	-0.156
-656.901	-166.888	-0.406	0.017
-655.886	274.035	-0.174	-0.314
-654.872	800.000	-0.060	0.173
-653.857	-200.000	0.019	-0.236
-652.843	-163.927	-0.101	-0.005
-651.828	-155.918	0.039	0.003
-650.814	800.000	0.053	0.215
-649.799	-93.105	-0.175	-0.050
-648.784	67.046	0.143	-0.149
-647.770	99.763	-0.125	-0.148
-646.755	-15.768	0.274	-0.178
-645.741	134.585	-0.115	0.152
-644.726	800.000	0.068	-0.233
-643.711	-18.704	-0.084	0.053
-642.697	800.000	-0.023	-0.070
-641.682	-160.443	0.276	-0.015
-640.668	456.225	-0.029	-0.065
-639.653	-200.000	0.006	0.103
-638.638	-51.723	0.198	0.094
-637.624	-200.000	0.041	-0.000
-636.609	800.000	-0.089	0.290
-635.595	164.065	-0.090	0.130
-634.580	-69.231	-0.245	-0.096
-633.565	517.087	0.104	0.247
-632.551	115.770	-0.107	-0.133
-631.536	-200.000	0.030	0.307
-630.522	-54.722	-0.344	0.158
-629.507	800.000	0.039	-0.156
-628.492	14.144	0.187	0.148
-627.478	-64.873	-0.382	-0.157
-626.463	-200.000	-0.052	-0.268
-625.449	246.260	0.131	0.225
-624.434	68.797	0.143	0.150
-623.419	-200.000	-0.052	-0.608
-622.405	775.268	-0.019	-0.052
-621.390	800.000	0.068	0.206
-620.376	-79.189	0.298	-0.103
-619.361	800.000	0.036	-0.123
-618.346	-200.000	-0.057	-0.407
-617.332	-165.024	-0.387	0.018
-616.317	-58.582	0.218	0.096
-615.303	50.202	0.090	-0.087
-614.288	179.467	0.034	-0.050
-613.273	-200.000	0.001	-0.188
-612.259	-129.594	-0.390	-0.055
-611.244	-91.023	0.081	-0.024
-610.230	38.781	0.205	0.186
-609.215	-116.992	0.343	-0.064
-608.201	1.089	-0.186	0.136
-607.186	-22.822	0.287	-0.176
-606.171	134.806	0.116	0.153
-605.157	800.000	0.044	-0.164
-604.142	-120.591	-0.486	-0.084
-603.128	22.710	-0.107	-0.090
-602.113	10.153	-0.049	0.038
-601.098	-200.000	-0.017	0.197
-600.084	-200.000	-0.060	0.292
-599.069	252.215	-0.197	0.342
-598.055	-129.516	0.281	-0.040
-597.040	-67.037	0.166	-0.067
-596.025	163.754	0.074	-0.106
-595.011	69.869	-0.160	0.167
-593.996	-94.767	0.237	-0.065
-592.982	-200.000	-0.130	-0.601
-591.967	800.000	-0.137	-0.438
-590.952	-200.000	-0.092	-0.663
-589.938	-18.901	-0.132	-0.083
-588.923	-200.000	-0.003	-0.039
-587.909	-200.000	-0.029	-0.386
-586.894	77.837	-0.298	-0.323
-585.879	195.134	0.259	-0.400
-584.865	-102.798	-0.565	0.137
-583.850	-74.158	-0.078	-0.029
-582.836	264.008	-0.043	0.076
-581.821	-2.623	-0.109	0.077
-580.806	-104.402	0.107	0.025
-579.792	211.408	0.099	-0.158
-578.777	427.748	0.010	0.023
-577.763	433.332	0.040	0.088
-576.748	-81.463	0.250	-0.084
-575.733	222.096	-0.066	0.108
-574.719	83.926	0.163	0.180
-573.704	800.000	-0.057	0.185
-572.690	-112.496	0.375	0.076
-571.675	230.198	0.185	-0.307
-570.661	-200.000	0.034	0.370
-569.646	-19.651	-0.164	-0.103
-568.631	-88.193	0.101	0.031
-567.617	-119.282	-0.253	0.045
-566.602	49.735	0.210	-0.201
-565.588	-77.264	0.165	0.058
-564.573	-6.842	0.095	0.066
-563.558	158.178	0.235	0.331
-562.544	493.660	0.113	0.262
-561.529	-200.000	0.187	0.000
-560.515	269.001	-0.063	-0.112
-559.500	-200.000	0.049	0.229
-558.485	-95.437	-0.433	-0.118
-557.471	-200.000	0.018	-0.093
-556.456	-26.470	-0.148	0.088
-555.442	-97.464	0.098	0.026
-554.427	20.846	-0.065	-0.054
-553.412	20.156	-0.121	-0.099
-552.398	184.148	-0.156	0.234
-551.383	-0.950	-0.142	-0.102
-550.369	88.029	0.099	0.111
-549.354	29.423	-0.212	0.183
-548.339	800.000	-0.077	0.290
-547.325	114.377	0.118	-0.145
-546.310	-200.000	-0.009	0.173
-545.296	-15.397	-0.410	-0.266
-544.281	19.277	0.269	0.220
-543.266	800.000	-0.010	-0.031
-542.252	800.000	-0.032	0.128
-541.237	-125.989	0.399	-0.061
-540.223	-200.000	-0.040	-0.399
-539.208	-94.293	0.306	0.085
-538.193	121.559	0.220	0.278
-537.179	324.057	0.160	-0.309
-536.164	-200.000	0.005	-0.435
-535.150	-72.889	-0.339	-0.127
-534.135	-200.000	0.012	0.147
-533.121	383.859	0.070	0.145
-532.106	-9.507	-0.133	0.090
-531.091	-156.427	-0.121	0.008
-530.077	-106.110	0.338	-0.077
-529.062	-33.466	-0.224	0.126
-528.048	-97.140	-0.074	-0.020
-527.033	20.499	-0.068	-0.056
-526.018	-200.000	-0.029	0.205
-525.004	-107.006	-0.187	0.042
-523.989	-185.707	-0.211	-0.003
-522.975	-10.905	-0.341	-0.228
-521.960	361.681	-0.077	-0.156
-520.945	27.519	-0.133	-0.113
-519.931	319.772	0.052	0.099
-518.916	-200.000	-0.060	-0.403
-517.902	-131.811	-0.119	0.016
-516.887	213.705	0.059	0.095
-515.872	-142.587	-0.246	-0.024
-514.858	-40.757	-0.367	0.193
-513.843	16.254	0.057	-0.045
-512.829	187.390	-0.113	-0.170
-511.814	405.239	0.142	0.304
-510.799	69.691	0.145	0.152
-509.785	59.057	-0.294	0.293
-508.770	-75.883	0.283	-0.102
-507.756	693.947	0.142	-0.377
-506.741	-135.624	-0.379	0.046
-505.726	348.542	0.052	0.104
-504.712	-122.416	-0.289	-0.048
-503.697	82.321	-0.125	0.137
-502.683	-200.000	-0.016	-0.355
-501.668	324.711	-0.142	0.274
-500.653	220.129	-0.206	0.335
-499.639	-102.930	0.143	0.034
-498.624	10.143	-0.116	0.089
-497.610	-23.586	0.433	0.263
-496.595	800.000	-0.044	-0.123
-495.581	800.000	0.142	-0.600
-494.566	0.059	-0.079	0.057
-493.551	87.866	0.116	-0.131
-492.537	201.877	-0.143	-0.223
-491.522	-200.000	0.025	0.167
-490.508	33.631	-0.217	0.191
-489.493	-84.782	-0.233	0.074
-488.478	-105.324	0.444	0.102
-487.464	-184.527	0.219	0.004
-486.449	-200.000	-0.201	0.001
-485.435	174.442	0.182	-0.266
-484.420	574.061	-0.053	-0.130
-483.405	-200.000	0.071	-0.371
-482.391	98.008	0.134	-0.156
-481.376	-200.000	0.010	0.112
-480.362	-29.119	-0.186	-0.108
-479.347	-28.727	0.080	-0.047
-478.332	-126.196	-0.283	-0.043
-477.318	-200.000	0.010	0.067
-476.303	-105.848	0.122	-0.028
-475.289	27.611	0.255	0.218
-474.274	241.273	-0.087	-0.148
-473.259	115.580	-0.207	-0.257
-472.245	-200.000	-0.018	-0.131
-471.230	-115.136	-0.235	0.045
-470.216	-88.714	0.275	0.083
-469.201	31.843	0.047	0.041
-468.186	355.867	0.047	0.095
-467.172	-120.741	0.449	0.077
-466.157	-34.864	0.195	0.108
-465.143	-69.969	0.249	0.096
-464.128	732.108	-0.085	-0.230
-463.113	-101.791	-0.307	0.075
-462.099	-144.405	0.316	-0.030
-461.084	-200.000	0.022	0.384
-460.070	800.000	-0.121	0.358
-459.055	207.864	0.022	-0.035
-458.040	233.713	0.179	-0.299
-457.026	-121.863	0.055	0.009
-456.011	-10.543	0.105	-0.070
-454.997	-78.491	-0.325	-0.113
-453.982	-200.000	0.002	-0.039
-452.968	-65.417	0.312	-0.127
-451.953	189.937	0.027	-0.041
-450.938	-178.502	0.157	-0.004
-449.924	54.141	0.146	-0.142
-448.909	292.261	0.112	-0.206
-447.895	92.088	-0.215	-0.245
-446.880	-200.000	0.011	0.188
-445.865	-200.000	0.009	-0.173
-444.851	176.382	0.233	-0.342
-443.836	-200.000	-0.048	0.312
-442.822	-96.414	-0.375	-0.100
-441.807	800.000	-0.024	-0.095
-440.792	-33.543	-0.110	0.062
-439.778	344.051	0.120	0.238
-438.763	-39.002	0.102	0.054
-437.749	73.261	-0.128	-0.135
-436.734	-68.992	0.196	0.076
-435.719	187.435	0.192	0.290
-434.705	64.568	-0.209	0.213
-433.690	-62.546	0.118	-0.049
-432.676	-78.338	-0.056	0.019
-431.661	800.000	0.089	-0.345
-430.646	-14.906	-0.250	0.162
-429.632	-200.000	0.026	-0.243
-428.617	-200.000	0.072	-0.373
-427.603	99.670	0.196	0.230
-426.588	-200.000	0.031	0.387
-425.573	-45.783	0.231	0.115
-424.559	267.912	0.126	0.222
-423.544	-50.888	-0.330	-0.157
-422.530	-137.405	-0.110	-0.013
-421.515	-200.000	-0.008	-0.078
-420.500	-92.968	-0.120	-0.034
-419.486	114.293	-0.210	-0.258
-418.471	199.620	0.081	-0.125
-417.457	800.000	-0.044	-0.122
-416.442	-200.000	-0.002	-0.073
-415.428	29.594	0.178	0.153
-414.413	-46.898	0.103	-0.051
-413.398	215.754	-0.089	-0.142
-412.384	-135.987	-0.306	-0.036
-411.369	64.328	0.217	0.221
-410.355	-146.589	0.200	0.018
-409.340	138.183	-0.117	-0.155
-408.325	-121.981	-0.284	-0.047
-407.311	60.134	-0.094	0.094
-406.296	-45.481	-0.237	-0.119
-405.282	-200.000	-0.010	-0.269
-404.267	-116.495	0.191	-0.036
-403.252	190.268	-0.175	0.266
-402.238	77.712	0.315	-0.338
-401.223	-200.000	0.050	0.433
-400.209	698.849	0.047	0.124
-399.194	258.931	0.054	0.095
-398.179	-52.850	-0.334	0.155
-397.165	-200.000	0.017	0.095
-396.150	-193.684	0.074	0.001
-395.136	-200.000	0.006	0.211
-394.121	-117.707	0.166	-0.030
-393.106	562.713	0.071	-0.173
-392.092	-33.240	-0.175	-0.098
-391.077	252.017	0.156	0.267
-390.063	22.645	-0.156	-0.129
-389.048	-84.133	-0.042	-0.013
-388.033	-200.000	-0.006	0.043
-387.019	-200.000	0.021	-0.132
-386.004	58.759	-0.216	-0.214
-384.990	-151.402	-0.136	0.010
-383.975	299.676	-0.207	-0.385
-382.960	219.975	0.080	-0.129
-381.946	-15.929	-0.320	0.205
-380.931	-65.930	-0.486	0.196
-379.917	356.863	-0.158	0.318
-378.902	-131.710	0.099	-0.013
-377.888	-6.533	-0.346	0.237
-376.873	27.254	-0.083	0.070
-375.858	615.502	0.072	-0.182
-374.844	93.861	0.174	0.199
-373.829	313.398	-0.231	-0.439
-372.815	483.529	0.042	-0.097
-371.800	771.079	-0.114	0.313
-370.785	-75.763	0.374	0.134
-369.771	-200.000	0.009	0.373
-368.756	-200.000	-0.054	0.243
-367.742	-90.142	-0.257	-0.075
-366.727	54.015	-0.032	-0.031
-365.712	165.695	-0.142	0.202
-364.698	-200.000	-0.006	0.234
-363.683	190.722	0.081	-0.123
-362.669	-52.734	0.206	0.096
-361.654	0.404	-0.184	-0.133
-360.639	681.765	0.056	0.147
-359.625	8.101	-0.105	0.079
-358.610	53.293	0.064	-0.061
-357.596	-126.012	-0.075	-0.011
-356.581	-123.626	-0.272	-0.043
-355.566	800.000	-0.135	-0.396
-354.552	800.000	-0.028	-0.081
-353.537	368.063	-0.055	-0.112
-352.523	-21.690	-0.124	-0.076
-351.508	465.951	-0.092	-0.209
-350.493	-200.000	-0.016	-0.251
-349.479	161.010	-0.072	-0.101
-348.464	136.925	-0.168	-0.221
-347.450	800.000	-0.036	-0.155
-346.435	742.961	-0.190	0.513
-345.420	-92.515	0.219	0.062
-344.406	379.058	-0.044	-0.091
-343.391	57.753	0.104	-0.103
-342.377	276.978	-0.148	-0.266
-341.362	178.786	-0.177	-0.260
-340.348	16.528	-0.068	0.054
-339.333	30.269	0.147	0.126
-338.318	-200.000	-0.008	-0.170
-337.304	379.167	-0.103	0.213
-336.289	-151.373	-0.195	0.015
-335.275	-200.000	0.016	0.240
-334.260	-83.451	0.286	0.092
-333.245	59.395	0.139	-0.137
-332.231	378.798	-0.084	-0.174
-331.216	45.322	-0.067	0.062
-330.202	88.460	-0.175	0.196
-329.187	-200.000	0.001	-0.069
-328.172	-179.962	-0.154	-0.003
-327.158	800.000	-0.044	0.152
-326.143	88.886	0.073	0.081
-325.129	-37.069	0.054	0.029
-324.114	-159.194	0.163	-0.009
-323.099	-200.000	-0.007	-0.220
-322.085	168.105	-0.084	0.121
-321.070	-2.120	-0.283	0.200
-320.056	-200.000	0.035	0.505
-319.041	-179.238	0.330	-0.007
-318.026	-200.000	-0.010	0.117
-317.012	-89.243	0.318	0.095
-315.997	-200.000	-0.005	-0.145
-314.983	800.000	0.064	-0.239
-313.968	-42.393	0.149	-0.076
-312.953	800.000	0.031	0.131
-311.939	119.362	-0.121	0.151
-310.924	-139.752	0.364	0.039
-309.910	-200.000	-0.008	0.040
-308.895	-66.649	-0.125	0.050
-307.880	-131.986	0.270	-0.035
-306.866	237.793	0.154	0.256
-305.851	-78.480	-0.308	-0.106
-304.837	-50.660	-0.355	0.168
-303.822	132.738	0.125	0.162
-302.807	-132.714	-0.164	0.021
-301.793	-200.000	0.312	0.001
-300.778	648.759	-0.058	0.149
-299.764	48.213	0.051	0.048
-298.749	-200.000	0.069	-0.390
-297.735	229.847	-0.116	-0.190
-296.720	-53.322	0.174	0.080
-295.705	800.000	0.005	0.021
-294.691	-97.595	0.311	-0.081
-293.676	343.299	-0.049	0.096
-292.662	-200.000	-0.007	0.161
-291.647	-186.873	0.368	0.005
-290.632	-200.000	0.021	-0.187
-289.618	-127.715	-0.279	-0.041
-288.603	141.155	0.144	-0.192
-287.589	235.601	-0.042	0.070
-286.574	29.030	-0.150	-0.128
-285.559	243.217	0.105	0.177
-284.545	189.654	0.160	-0.241
-283.530	1.240	-0.096	-0.069
-282.516	-191.493	0.195	0.002
-281.501	-200.000	0.019	-0.094
-280.486	-200.000	0.042	0.278
-279.472	-86.951	0.089	0.027
-278.457	-128.952	-0.228	-0.032
-277.443	-200.000	-0.057	0.443
-276.428	800.000	0.059	0.246
-275.413	168.278	-0.113	0.161
-274.399	-200.000	-0.011	-0.062
-273.384	90.098	0.225	-0.253
-272.370	191.367	0.034	-0.052
-271.355	-43.179	0.125	-0.064
-270.340	453.612	-0.073	-0.162
-269.326	123.616	0.095	-0.120
-268.311	149.453	0.079	-0.107
-267.297	-2.652	-0.137	-0.097
-266.282	453.898	-0.029	0.065
-265.267	800.000	0.072	-0.272
-264.253	53.983	0.223	-0.216
-263.238	-94.808	0.115	-0.031
-262.224	-135.063	0.360	-0.044
-261.209	13.228	0.068	0.053
-260.195	-200.000	0.056	0.293
-259.180	155.820	0.065	-0.090
-258.165	-200.000	-0.017	-0.175
-257.151	-7.443	-0.129	0.087
-256.136	-200.000	-0.006	-0.079
-255.122	31.391	-0.117	0.101
-254.107	-113.745	0.332	0.065
-253.092	9.087	-0.105	-0.079
-252.078	464.998	-0.030	0.066
-251.063	-200.000	-0.067	-0.325
-250.049	-200.000	0.064	-0.472
-249.034	769.057	-0.067	-0.183
-248.019	238.741	-0.046	-0.077
-247.005	352.060	0.101	0.200
-245.990	-200.000	-0.020	-0.258
-244.976	240.255	-0.113	0.189
-243.961	-36.603	0.305	-0.164
-242.946	-200.000	0.048	0.571
-241.932	70.459	0.120	0.124
-240.917	-200.000	0.022	-0.300
-239.903	-38.262	-0.127	-0.067
-238.888	800.000	-0.073	0.285
-237.873	643.817	0.095	0.243
-236.859	-136.372	0.104	0.012
-235.844	-72.247	0.213	-0.079
-234.830	10.854	0.426	0.326
-233.815	-129.268	-0.250	0.035
-232.800	7.896	-0.318	0.239
-231.786	-160.529	0.102	-0.005
-230.771	176.388	0.083	0.121
-229.757	177.459	0.215	0.314
-228.742	33.676	0.311	0.271
-227.727	224.719	0.040	0.065
-226.713	92.199	-0.129	-0.145
-225.698	-174.310	-0.124	0.004
-224.684	16.320	-0.225	0.178
-223.669	51.499	0.125	0.119
-222.655	552.888	0.090	-0.218
-221.640	800.000	0.013	-0.039
-220.625	-200.000	-0.041	0.283
-219.611	-148.701	0.253	-0.021
-218.596	0.263	-0.062	0.044
-217.582	-83.644	0.195	-0.063
-216.567	99.413	0.168	0.194
-215.552	451.158	0.091	0.201
-214.538	-200.000	-0.001	0.114
-213.523	201.289	-0.124	-0.192
-212.509	-127.942	-0.097	0.014
-211.494	-31.278	-0.241	0.136
-210.479	366.139	-0.152	-0.306
-209.465	-63.018	-0.121	-0.050
-208.450	-95.864	0.302	-0.081
-207.436	-187.147	0.214	-0.003
-206.421	5.358	0.167	-0.123
-205.406	-62.701	-0.152	0.063
-204.392	-20.773	0.208	0.128
-203.377	-68.783	0.253	0.098
-202.363	-200.000	-0.037	0.298
-201.348	-25.335	-0.188	0.111
-200.333	-200.000	0.035	0.189
-199.319	62.651	0.129	0.129
-198.304	-200.000	0.035	-0.310
-197.290	351.667	0.168	0.332
-196.275	800.000	0.050	0.174
-195.260	183.949	0.090	0.133
-194.246	-97.899	-0.057	0.015
-193.231	-73.469	-0.240	0.088
-192.217	800.000	0.090	0.293
-191.202	-61.910	0.088	0.037
-190.187	271.469	-0.100	-0.175
-189.173	-104.214	0.195	0.045
-188.158	118.087	0.096	-0.118
-187.144	-22.279	0.087	-0.053
-186.129	-160.208	0.231	-0.012
-185.114	-118.516	0.083	0.015
-184.100	-84.797	-0.108	0.034
-183.085	-165.132	-0.521	-0.023
-182.071	-200.000	-0.045	0.218
-181.056	800.000	0.065	-0.200
-180.042	-200.000	-0.003	0.065
-179.027	-200.000	-0.008	0.067
-178.012	84.133	-0.109	0.120
-176.998	113.709	-0.088	0.107
-175.983	-118.070	-0.153	-0.027
-174.969	7.007	-0.166	0.124
-173.954	433.549	0.037	0.080
-172.939	-9.570	0.137	0.091
-171.925	105.957	-0.093	-0.110
-170.910	43.875	-0.112	0.103
-169.896	177.813	0.040	-0.059
-168.881	-19.579	-0.197	-0.122
-167.866	103.084	-0.154	-0.180
-166.852	-200.000	-0.008	0.079
-165.837	800.000	0.065	0.209
-164.823	-76.829	0.095	-0.033
-163.808	415.029	-0.090	-0.192
-162.793	217.102	-0.100	-0.159
-161.779	334.660	0.163	-0.316
-160.764	-40.732	-0.164	-0.085
-159.750	163.236	0.098	-0.138
-158.735	144.604	0.064	-0.086
-157.720	787.317	0.118	0.323
-156.706	16.411	-0.131	-0.103
-155.691	-41.178	0.185	0.095
-154.677	37.760	-0.065	0.058
-153.662	109.325	0.164	-0.197
-152.647	157.822	-0.103	0.142
-151.633	25.438	0.167	0.139
-150.618	79.568	0.120	0.129
-149.604	-72.435	-0.198	-0.073
-148.589	15.574	0.154	0.121
-147.574	-200.000	-0.033	0.303
-146.560	-76.537	0.156	0.055
-145.545	-200.000	-0.031	-0.230
-144.531	28.331	0.090	-0.076
-143.516	800.000	0.080	0.271
-142.502	-200.000	0.041	0.212
-141.487	-74.750	-0.155	0.056
-140.472	-200.000	0.019	-0.136
-139.458	-200.000	0.032	0.191
-138.443	307.268	0.185	0.344
-137.429	774.734	0.075	0.204
-136.414	-200.000	-0.031	-0.355
-135.399	14.708	-0.316	-0.247
-134.385	93.374	0.274	0.310
-133.370	-200.000	0.056	0.490
-132.356	789.405	0.042	-0.114
-131.341	-82.151	-0.156	-0.051
-130.326	-154.419	0.148	-0.010
-129.312	-168.976	0.170	0.006
-128.297	800.000	-0.109	-0.308
-127.283	339.110	-0.098	0.192
-126.268	-200.000	0.025	0.228
-125.253	-39.817	-0.426	0.222
-124.239	-17.658	0.221	-0.139
-123.224	206.595	0.096	-0.150
-122.210	-170.285	-0.252	-0.009
-121.195	-164.022	0.121	0.006
