DTS Sentinel unit serial number:	SN413079Multiplexer serial number:	ORYXHardware model number:	OX4-SRSoftware version number:	ORYX F/W v4.00 Oryx Data Collector v3.7.2.0data status	okinstallation	princeton_trtdifferential loss correction	single-endedforward channel	channel 4reverse channel	N/Adate	2019/09/10time	18:03:11forward acquisition time	60.00reverse acquisition time	0.00gamma	496.2192k internal	0.2298k external	0.2298temperature offset calibration	0.9946default loss term (dB/km)	0.3790temperature slope calibration	1.0000multiplexer offset coefficient	1.0000multiplexer slope coefficient	1.0000fibre end	0.00T internal ref (°C)	37.02T ext. ref 1 (°C)	-0.28T ext. ref 2 (°C)	29.48length (m)	temperature (°C)	Stokes	anti-Stokes-747.200	6.266	0.237	0.180
-746.185	150.948	0.134	0.187
-745.171	132.035	0.151	-0.198
-744.156	-26.954	0.132	0.079
-743.142	800.000	-0.093	0.273
-742.127	-200.000	0.002	0.447
-741.112	-200.000	-0.011	-0.074
-740.098	-99.435	-0.426	0.109
-739.083	56.580	-0.122	-0.121
-738.069	86.360	0.205	-0.231
-737.054	11.995	0.232	0.182
-736.039	52.947	-0.337	-0.329
-735.025	-152.028	0.235	-0.017
-734.010	-37.173	-0.237	-0.129
-732.996	-131.455	0.123	0.017
-731.981	375.015	0.083	0.173
-730.966	-88.667	0.307	0.093
-729.952	800.000	0.074	0.237
-728.937	-1.538	-0.136	-0.098
-727.923	610.451	0.123	-0.314
-726.908	-200.000	0.051	0.263
-725.894	-200.000	-0.020	-0.176
-724.879	91.870	0.097	-0.112
-723.864	-69.752	-0.259	-0.101
-722.850	-103.727	-0.344	0.082
-721.835	-108.850	0.077	-0.017
-720.821	-181.368	0.351	0.007
-719.806	6.622	-0.157	-0.119
-718.791	490.879	0.039	-0.090
-717.777	-200.000	-0.014	-0.071
-716.762	-38.622	-0.050	-0.027
-715.748	-200.000	-0.026	0.399
-714.733	-75.611	-0.282	0.102
-713.718	-140.629	-0.207	-0.022
-712.704	-8.423	0.155	-0.107
-711.689	-153.931	0.227	-0.016
-710.675	-187.244	0.424	-0.006
-709.660	219.694	0.173	-0.282
-708.645	-200.000	-0.089	-0.574
-707.631	-200.000	0.007	-0.256
-706.616	-177.926	-0.174	-0.004
-705.602	67.290	0.319	0.331
-704.587	-200.000	0.031	-0.219
-703.572	-86.247	0.344	-0.108
-702.558	11.574	-0.237	0.185
-701.543	-123.225	0.244	0.040
-700.529	-155.484	0.278	0.018
-699.514	137.158	0.072	-0.096
-698.499	660.904	-0.048	0.125
-697.485	12.951	-0.145	0.114
-696.470	230.223	-0.157	-0.262
-695.456	41.271	-0.160	0.147
-694.441	258.715	-0.200	-0.352
-693.426	-16.897	-0.238	-0.153
-692.412	-200.000	-0.027	0.129
-691.397	-97.425	-0.421	-0.112
-690.383	-200.000	-0.002	0.055
-689.368	279.802	0.032	0.058
-688.354	245.835	-0.165	0.283
-687.339	101.326	0.130	-0.155
-686.324	-13.346	0.314	0.208
-685.310	312.623	-0.264	-0.506
-684.295	-20.468	0.215	0.134
-683.281	-60.386	-0.175	-0.076
-682.266	-62.916	-0.173	-0.073
-681.251	-200.000	-0.020	-0.246
-680.237	-34.332	-0.164	0.091
-679.222	258.840	0.094	-0.165
-678.208	-56.877	0.032	-0.014
-677.193	137.716	-0.095	-0.126
-676.178	-61.580	-0.051	-0.022
-675.164	-31.229	-0.164	-0.094
-674.149	800.000	0.006	-0.019
-673.135	-187.697	-0.105	0.001
-672.120	-200.000	-0.001	0.055
-671.105	-200.000	-0.017	0.089
-670.091	-68.533	-0.285	-0.112
-669.076	-200.000	0.033	0.187
-668.062	321.433	-0.132	-0.256
-667.047	-200.000	-0.017	-0.115
-666.032	-200.000	0.004	-0.381
-665.018	800.000	-0.037	0.119
-664.003	66.836	-0.104	-0.108
-662.989	172.545	0.117	0.172
-661.974	359.697	-0.203	0.413
-660.959	55.880	-0.097	0.096
-659.945	-53.126	-0.222	0.104
-658.930	800.000	-0.087	0.257
-657.916	-61.897	-0.334	0.142
-656.901	-3.149	0.136	-0.096
-655.886	-173.673	-0.315	-0.010
-654.872	800.000	-0.118	-0.363
-653.857	-99.734	-0.289	0.074
-652.843	283.359	-0.133	-0.243
-651.828	83.567	-0.080	0.089
-650.814	171.486	0.030	0.043
-649.799	-68.749	-0.140	-0.055
-648.784	264.054	0.134	-0.236
-647.770	-49.973	-0.316	-0.153
-646.755	172.053	0.257	0.376
-645.741	774.919	0.161	0.446
-644.726	-75.509	-0.254	0.092
-643.711	-104.781	0.171	-0.040
-642.697	800.000	-0.123	-0.445
-641.682	288.617	0.096	0.177
-640.668	-25.561	-0.282	0.169
-639.653	-144.034	-0.164	0.016
-638.638	-125.209	0.087	-0.014
-637.624	-65.761	-0.307	-0.125
-636.609	58.801	0.072	-0.072
-635.595	99.338	0.177	-0.208
-634.580	-200.000	0.027	0.194
-633.565	197.693	-0.189	-0.294
-632.551	-7.531	-0.285	0.196
-631.536	800.000	-0.095	-0.345
-630.522	502.862	0.066	0.155
-629.507	290.000	0.033	0.060
-628.492	-28.101	-0.260	0.153
-627.478	-48.814	-0.235	0.115
-626.463	23.187	-0.211	-0.176
-625.449	-109.586	-0.126	-0.027
-624.434	-106.457	0.087	0.020
-623.419	-66.116	-0.168	0.068
-622.405	211.570	0.058	-0.093
-621.390	-200.000	0.022	0.405
-620.376	496.330	0.033	0.078
-619.361	-85.270	-0.164	0.052
-618.346	-200.000	0.021	-0.131
-617.332	-5.557	-0.246	-0.172
-616.317	-50.825	-0.349	-0.167
-615.303	-73.403	0.164	0.061
-614.288	-137.708	0.064	-0.007
-613.273	390.654	-0.067	0.142
-612.259	-200.000	-0.005	0.128
-611.244	-167.471	0.218	-0.009
-610.230	-55.344	-0.137	-0.062
-609.215	800.000	0.157	-0.480
-608.201	3.997	0.110	0.082
-607.186	-8.631	0.068	0.047
-606.171	188.144	0.107	0.162
-605.157	-116.015	-0.228	0.043
-604.142	339.466	-0.104	0.207
-603.128	-197.420	0.080	0.001
-602.113	-170.683	-0.188	0.007
-601.098	348.103	0.124	-0.249
-600.084	-112.719	0.140	0.028
-599.069	591.163	0.065	-0.164
-598.055	-89.462	-0.320	0.096
-597.040	-117.520	0.442	-0.081
-596.025	-200.000	0.056	-0.421
-595.011	-200.000	-0.071	-0.372
-593.996	543.648	-0.036	-0.086
-592.982	-15.775	0.127	0.082
-591.967	800.000	-0.048	0.191
-590.952	-141.862	0.138	-0.014
-589.938	82.698	0.159	-0.175
-588.923	800.000	-0.091	-0.367
-587.909	114.530	0.221	0.273
-586.894	800.000	0.010	-0.038
-585.879	-200.000	0.010	-0.101
-584.865	-79.891	-0.243	0.083
-583.850	-71.756	0.353	0.133
-582.836	9.764	-0.051	-0.039
-581.821	44.045	0.160	0.149
-580.806	-21.386	0.152	-0.094
-579.792	-177.470	0.069	0.002
-578.777	784.104	0.107	0.297
-577.763	717.017	0.057	-0.154
-576.748	800.000	0.034	-0.149
-575.733	796.312	-0.195	-0.544
-574.719	-136.058	-0.279	0.033
-573.704	43.639	-0.186	0.173
-572.690	-200.000	0.028	0.132
-571.675	800.000	0.046	0.152
-570.661	-200.000	0.028	0.200
-569.646	-200.000	0.026	0.194
-568.631	247.651	-0.063	0.108
-567.617	800.000	0.080	-0.229
-566.602	536.394	-0.113	-0.272
-565.588	-47.971	-0.202	-0.099
-564.573	-25.149	0.036	-0.022
-563.558	93.313	-0.255	-0.293
-562.544	110.509	0.134	-0.163
-561.529	-46.904	-0.213	-0.106
-560.515	377.411	0.118	0.245
-559.500	-200.000	-0.036	0.322
-558.485	17.982	0.073	-0.059
-557.471	800.000	-0.049	0.146
-556.456	-189.673	0.043	0.001
-555.442	-93.020	0.156	0.044
-554.427	-200.000	-0.010	0.352
-553.412	-55.326	0.097	0.044
-552.398	-171.892	-0.232	-0.008
-551.383	-34.974	-0.063	-0.035
-550.369	120.058	0.102	-0.128
-549.354	-39.055	-0.054	-0.029
-548.339	326.551	-0.180	-0.350
-547.325	-60.122	0.034	-0.015
-546.310	-200.000	-0.011	0.075
-545.296	-46.023	-0.124	-0.062
-544.281	753.717	0.067	0.184
-543.266	45.369	-0.158	-0.148
-542.252	-101.645	0.340	0.084
-541.237	37.107	0.255	-0.228
-540.223	-5.098	0.152	-0.106
-539.208	-77.826	0.080	0.028
-538.193	-34.174	-0.345	-0.192
-537.179	-106.967	-0.077	-0.017
-536.164	800.000	-0.028	-0.107
-535.150	-50.853	0.214	0.102
-534.135	165.747	0.120	0.172
-533.121	277.901	0.263	-0.474
-532.106	-87.220	-0.274	-0.084
-531.091	-89.512	-0.458	-0.136
-530.077	-101.304	-0.203	0.050
-529.062	96.340	0.380	0.440
-528.048	-23.020	0.299	0.183
-527.033	272.719	0.201	-0.359
-526.018	49.276	-0.277	0.264
-525.004	22.019	-0.111	0.092
-523.989	-80.245	0.215	-0.073
-522.975	800.000	-0.093	-0.363
-521.960	-200.000	-0.035	-0.221
-520.945	221.810	0.122	-0.199
-519.931	4.191	-0.257	-0.190
-518.916	99.445	0.225	0.263
-517.902	15.547	0.204	-0.162
-516.887	-6.280	-0.098	0.067
-515.872	1.587	-0.184	0.134
-514.858	-30.851	0.244	0.139
-513.843	-180.722	0.593	-0.012
-512.829	-76.792	-0.110	-0.039
-511.814	237.474	-0.070	-0.118
-510.799	-200.000	-0.024	-0.186
-509.785	343.326	0.147	-0.291
-508.770	6.175	-0.307	-0.231
-507.756	-84.954	-0.192	0.061
-506.741	-200.000	-0.022	-0.405
-505.726	800.000	0.050	-0.208
-504.712	-79.772	-0.168	-0.057
-503.697	111.637	0.113	-0.138
-502.683	800.000	-0.024	-0.087
-501.668	-19.824	-0.151	-0.095
-500.653	800.000	-0.051	0.148
-499.639	-28.317	-0.156	-0.091
-498.624	-30.922	0.017	-0.010
-497.610	-41.417	0.163	0.085
-496.595	800.000	0.111	0.317
-495.581	236.945	-0.060	0.101
-494.566	142.310	0.039	0.052
-493.551	-200.000	-0.027	0.173
-492.537	-134.653	-0.249	0.031
-491.522	-200.000	0.002	0.019
-490.508	-200.000	-0.063	-0.370
-489.493	307.765	-0.106	0.200
-488.478	-97.335	-0.439	-0.116
-487.464	-143.775	-0.279	0.027
-486.449	-152.664	0.209	-0.015
-485.435	-167.270	-0.281	0.011
-484.420	93.375	0.119	-0.137
-483.405	-30.589	0.167	-0.096
-482.391	97.210	0.182	0.211
-481.376	-86.844	0.250	-0.077
-480.362	224.245	0.169	-0.276
-479.347	-10.757	-0.215	-0.144
-478.332	800.000	0.150	0.421
-477.318	-93.397	-0.282	-0.079
-476.303	-200.000	-0.021	0.122
-475.289	-79.127	-0.239	0.082
-474.274	57.892	0.177	0.175
-473.259	-200.000	0.036	-0.161
-472.245	141.190	-0.238	-0.318
-471.230	4.378	-0.177	-0.131
-470.216	-100.426	0.197	-0.049
-469.201	177.634	0.069	-0.101
-468.186	-200.000	-0.022	-0.131
-467.172	352.497	0.068	0.136
-466.157	86.870	0.045	0.050
-465.143	-141.492	-0.408	0.042
-464.128	-110.287	-0.100	0.021
-463.113	28.091	-0.205	0.174
-462.099	-144.871	-0.155	-0.014
-461.084	-6.293	0.174	0.120
-460.070	800.000	-0.088	0.356
-459.055	9.388	-0.265	-0.203
-458.040	29.519	0.284	-0.244
-457.026	-200.000	0.025	0.117
-456.011	654.685	-0.084	-0.217
-454.997	358.403	-0.139	-0.280
-453.982	787.381	-0.104	-0.287
-452.968	-200.000	-0.063	0.368
-451.953	240.550	0.100	-0.169
-450.938	-41.539	-0.022	0.011
-449.924	-95.668	0.271	-0.073
-448.909	147.093	-0.210	-0.285
-447.895	-114.380	-0.070	0.014
-446.880	-35.915	0.080	-0.044
-445.865	800.000	0.033	-0.143
-444.851	-44.043	-0.113	0.057
-443.836	555.298	-0.044	-0.107
-442.822	284.063	0.070	0.128
-441.807	-54.279	-0.039	0.018
-440.792	182.796	-0.117	-0.174
-439.778	172.831	-0.125	0.182
-438.763	-200.000	0.005	0.131
-437.749	-75.860	0.071	-0.025
-436.734	-200.000	-0.047	-0.351
-435.719	-68.766	-0.152	0.059
-434.705	282.838	0.033	0.060
-433.690	51.887	-0.092	0.088
-432.676	-31.845	0.293	-0.165
-431.661	139.288	-0.104	-0.138
-430.646	124.253	0.229	-0.291
-429.632	-68.630	-0.142	0.056
-428.617	177.863	0.075	-0.111
-427.603	-24.258	0.078	0.047
-426.588	600.899	-0.031	-0.077
-425.573	-168.816	-0.264	-0.010
-424.559	160.333	0.180	-0.253
-423.544	-200.000	-0.028	-0.161
-422.530	321.611	0.119	-0.229
-421.515	-77.306	0.079	0.028
-420.500	535.893	-0.140	0.335
-419.486	25.333	-0.161	-0.135
-418.471	-74.545	-0.389	0.141
-417.457	250.800	-0.023	0.039
-416.442	-27.737	-0.062	0.036
-415.428	-85.490	-0.141	-0.044
-414.413	49.773	0.220	0.209
-413.398	-31.599	0.372	0.211
-412.384	-81.724	-0.090	0.030
-411.369	-154.468	0.223	0.015
-410.355	-99.323	-0.276	0.070
-409.340	56.588	-0.171	0.167
-408.325	-200.000	0.004	0.137
-407.311	800.000	0.093	0.361
-406.296	-200.000	0.047	-0.329
-405.282	-130.456	-0.152	0.021
-404.267	-200.000	0.013	0.083
-403.252	800.000	-0.097	-0.335
-402.238	-85.551	-0.210	-0.066
-401.223	23.238	0.157	-0.130
-400.209	-120.072	0.036	0.006
-399.194	-58.880	-0.123	-0.054
-398.179	-84.477	-0.144	-0.046
-397.165	800.000	0.067	0.188
-396.150	-200.000	0.024	0.400
-395.136	-45.639	0.173	0.086
-394.121	422.679	0.172	0.373
-393.106	-105.051	-0.145	-0.033
-392.092	-200.000	-0.015	-0.204
-391.077	-61.198	0.376	-0.160
-390.063	-115.685	0.151	-0.028
-389.048	-200.000	0.023	0.173
-388.033	409.480	-0.023	0.050
-387.019	215.683	0.101	-0.162
-386.004	-200.000	0.255	-0.001
-384.990	138.697	-0.078	-0.103
-383.975	-106.209	0.131	-0.029
-382.960	54.137	0.242	-0.234
-381.946	227.221	-0.026	0.043
-380.931	79.619	-0.150	0.162
-379.917	-77.232	-0.093	0.033
-378.902	-200.000	-0.005	-0.096
-377.888	800.000	0.012	-0.033
-376.873	761.547	0.039	-0.107
-375.858	15.940	-0.238	-0.188
-374.844	37.904	-0.095	0.085
-373.829	70.592	0.359	-0.373
-372.815	-162.579	0.259	-0.013
-371.800	-161.636	0.413	0.021
-370.785	-200.000	-0.033	0.235
-369.771	-108.200	-0.369	0.080
-368.756	800.000	0.041	-0.124
-367.742	58.916	-0.108	0.107
-366.727	-200.000	-0.001	0.123
-365.712	-146.606	0.122	-0.011
-364.698	-200.000	0.060	0.343
-363.683	581.814	-0.128	-0.315
-362.669	84.888	-0.227	-0.250
-361.654	143.174	0.024	0.032
-360.639	800.000	0.084	0.255
-359.625	-200.000	0.036	0.287
-358.610	-100.555	0.259	-0.064
-357.596	-12.323	0.207	-0.136
-356.581	166.992	-0.082	-0.116
-355.566	-146.686	0.287	0.025
-354.552	16.935	0.167	0.133
-353.537	-120.052	-0.145	-0.025
-352.523	2.427	-0.065	-0.047
-351.508	-25.563	0.109	0.064
-350.493	-1.302	0.060	0.043
-349.479	800.000	0.017	-0.051
-348.464	-7.115	-0.132	0.090
-347.450	-79.548	0.514	0.174
-346.435	79.155	0.045	0.049
-345.420	-128.378	-0.656	-0.094
-344.406	-40.156	-0.332	-0.174
-343.391	-13.416	-0.211	0.138
-342.377	-27.929	0.155	-0.090
-341.362	530.206	0.055	-0.131
-340.348	511.315	0.032	0.075
-339.333	739.416	0.031	-0.083
-338.318	-200.000	-0.040	-0.249
-337.304	34.608	-0.048	-0.042
-336.289	13.284	0.127	0.099
-335.275	119.438	-0.089	0.111
-334.260	12.738	0.253	-0.196
-333.245	-200.000	0.030	0.223
-332.231	418.236	-0.066	0.141
-331.216	800.000	0.062	0.218
-330.202	5.034	-0.078	0.058
-329.187	-200.000	0.005	0.396
-328.172	-74.966	0.325	-0.117
-327.158	-200.000	0.013	0.194
-326.143	-3.182	-0.074	0.052
-325.129	99.605	0.280	-0.326
-324.114	8.801	0.099	0.075
-323.099	-3.518	0.181	0.126
-322.085	-86.328	-0.304	-0.094
-321.070	20.771	-0.196	-0.160
-320.056	-200.000	0.020	-0.354
-319.041	-200.000	-0.036	0.162
-318.026	800.000	0.112	0.362
-317.012	-200.000	-0.056	0.292
-315.997	-200.000	0.038	0.176
-314.983	-7.850	-0.041	-0.028
-313.968	-35.525	-0.064	0.035
-312.953	-17.283	0.191	-0.121
-311.939	-200.000	0.016	0.159
-310.924	-63.380	-0.106	0.044
-309.910	-200.000	-0.011	-0.191
-308.895	-66.211	0.231	-0.092
-307.880	-200.000	-0.004	-0.246
-306.866	-200.000	-0.008	0.137
-305.851	8.872	0.033	0.025
-304.837	-140.042	-0.259	0.027
-303.822	72.070	0.135	0.141
-302.807	369.685	-0.083	0.169
-301.793	236.911	0.066	0.110
-300.778	-165.839	-0.132	0.006
-299.764	-200.000	-0.045	0.206
-298.749	79.978	0.419	0.452
-297.735	-143.294	0.084	0.008
-296.720	240.248	-0.165	-0.276
-295.705	-125.143	0.056	-0.009
-294.691	-9.338	0.136	-0.091
-293.676	237.274	0.064	0.106
-292.662	154.189	-0.151	-0.208
-291.647	-200.000	0.026	-0.276
-290.632	27.222	-0.187	0.158
-289.618	-200.000	0.020	0.238
-288.603	-50.807	-0.189	-0.089
-287.589	128.499	0.049	0.063
-286.574	348.848	-0.057	0.113
-285.559	-200.000	-0.031	0.171
-284.545	161.802	-0.119	-0.167
-283.530	-9.645	-0.194	-0.130
-282.516	-101.034	0.082	0.020
-281.501	-109.351	-0.341	0.073
-280.486	-200.000	0.018	0.238
-279.472	-81.772	0.183	0.060
-278.457	800.000	-0.065	0.210
-277.443	193.208	-0.061	-0.092
-276.428	-40.514	0.117	0.061
-275.413	-200.000	-0.026	0.305
-274.399	-200.000	-0.003	0.032
-273.384	265.807	-0.165	0.288
-272.370	-85.036	0.148	0.046
-271.355	800.000	0.098	-0.321
-270.340	583.469	-0.077	-0.190
-269.326	-200.000	-0.036	-0.175
-268.311	-37.644	0.287	0.153
-267.297	182.085	-0.153	0.227
-266.282	148.953	0.127	-0.172
-265.267	-200.000	0.002	-0.060
-264.253	-26.280	0.162	0.095
-263.238	-53.880	-0.146	-0.067
-262.224	-149.996	-0.265	0.021
-261.209	-146.910	-0.261	0.022
-260.195	-135.732	0.129	0.015
-259.180	607.764	0.057	0.142
-258.165	318.221	-0.149	-0.283
-257.151	-119.293	0.159	0.028
-256.136	-104.102	0.433	0.101
-255.122	5.940	-0.252	-0.187
-254.107	555.533	-0.072	-0.174
-253.092	-51.664	-0.182	0.085
-252.078	-200.000	-0.005	0.068
-251.063	-50.524	0.445	-0.210
-250.049	44.164	-0.098	0.090
-249.034	800.000	0.071	0.271
-248.019	-200.000	0.014	-0.219
-247.005	245.800	-0.061	-0.103
-245.990	481.988	0.088	0.201
-244.976	-74.726	0.212	-0.076
-243.961	-200.000	-0.002	-0.226
-242.946	190.248	0.090	0.135
-241.932	-145.403	-0.276	-0.025
-240.917	-183.984	0.252	0.004
-239.903	132.688	0.192	-0.249
-238.888	295.040	0.080	-0.146
-237.873	800.000	0.068	-0.255
-236.859	-136.084	0.338	0.040
-235.844	106.097	0.172	-0.204
-234.830	81.809	0.092	-0.099
-233.815	-71.111	0.176	-0.066
-232.800	-120.623	0.214	-0.036
-231.786	71.438	0.160	-0.166
-230.771	-62.923	0.431	0.178
-229.757	729.901	0.052	-0.139
-228.742	-49.697	-0.264	0.126
-227.727	-2.300	0.364	-0.255
-226.713	-200.000	-0.061	0.358
-225.698	-128.955	-0.155	-0.022
-224.684	24.894	0.229	-0.190
-223.669	-137.138	0.313	0.036
-222.655	83.157	0.155	0.168
-221.640	-6.476	-0.045	0.030
-220.625	-67.673	0.177	0.069
-219.611	800.000	0.010	0.039
-218.596	125.749	-0.230	-0.291
-217.582	179.489	-0.048	0.070
-216.567	-56.943	-0.093	-0.041
-215.552	-60.319	0.523	-0.223
-214.538	-27.006	0.252	-0.147
-213.523	97.305	0.254	0.291
-212.509	168.460	-0.216	0.308
-211.494	-77.354	-0.180	-0.063
-210.479	-51.252	-0.336	-0.157
-209.465	466.366	0.148	0.330
-208.450	-200.000	0.049	-0.328
-207.436	36.934	0.078	-0.069
-206.421	-200.000	0.027	0.121
-205.406	-112.901	0.041	-0.008
-204.392	586.462	-0.060	-0.148
-203.377	135.839	0.240	-0.312
-202.363	-84.501	-0.341	0.108
-201.348	-90.083	0.291	-0.085
-200.333	156.071	-0.123	0.169
-199.319	-200.000	-0.046	0.239
-198.304	-200.000	0.060	0.310
-197.290	-93.068	-0.045	-0.012
-196.275	800.000	0.041	0.170
-195.260	171.792	0.142	0.203
-194.246	6.957	0.020	0.015
-193.231	800.000	-0.115	0.330
-192.217	63.694	-0.020	-0.020
-191.202	-139.571	0.285	0.030
-190.187	273.135	0.108	-0.190
-189.173	-71.876	0.343	0.127
-188.158	-106.219	-0.255	0.057
-187.144	-32.506	0.137	-0.076
-186.129	14.950	-0.229	0.179
-185.114	39.389	-0.097	0.087
-184.100	-42.017	0.242	-0.124
-183.085	800.000	-0.057	0.158
-182.071	-38.413	0.133	0.070
-181.056	800.000	-0.053	0.150
-180.042	-200.000	-0.011	0.139
-179.027	-200.000	0.062	-0.295
-178.012	-1.133	0.110	0.078
-176.998	800.000	-0.097	0.351
-175.983	-84.746	-0.182	0.057
-174.969	-106.615	-0.189	-0.042
-173.954	-65.480	0.208	0.083
-172.939	-26.001	-0.300	0.176
-171.925	800.000	-0.089	-0.305
-170.910	-200.000	0.033	0.173
-169.896	303.789	0.063	0.117
-168.881	-9.515	-0.294	0.196
-167.866	70.700	-0.177	0.183
-166.852	-200.000	-0.039	0.293
-165.837	-114.464	0.085	0.016
-164.823	-115.965	-0.123	-0.023
-163.808	82.266	-0.181	0.196
-162.793	-102.482	-0.169	-0.040
-161.779	102.099	-0.153	-0.178
-160.764	500.351	-0.047	0.108
-159.750	-2.477	-0.171	0.120
-158.735	136.759	-0.163	0.213
-157.720	800.000	-0.115	0.414
-156.706	-200.000	0.014	0.089
-155.691	369.276	0.059	-0.119
-154.677	139.831	-0.195	0.257
-153.662	-125.362	0.087	0.013
-152.647	-92.892	0.026	0.007
-151.633	800.000	-0.060	-0.237
-150.618	-99.858	0.221	-0.055
-149.604	-96.106	-0.082	-0.022
-148.589	80.808	-0.020	-0.022
-147.574	-76.031	0.135	-0.048
-146.560	44.181	0.133	0.122
-145.545	800.000	-0.024	-0.096
-144.531	-78.493	0.110	-0.037
-143.516	132.528	-0.217	-0.279
-142.502	-116.240	-0.383	-0.071
-141.487	-103.224	0.214	0.050
-140.472	-15.028	0.388	0.248
-139.458	800.000	0.069	0.258
-138.443	443.959	0.091	0.198
-137.429	16.604	0.350	-0.276
-136.414	-192.370	-0.244	0.002
-135.399	800.000	0.042	-0.125
-134.385	-73.389	0.192	0.070
-133.370	-200.000	0.065	0.368
-132.356	0.459	-0.067	0.048
-131.341	-200.000	-0.009	-0.164
-130.326	306.937	0.127	0.236
-129.312	396.059	-0.158	-0.328
-128.297	28.193	-0.253	-0.213
-127.283	800.000	-0.042	-0.164
-126.268	-200.000	0.015	0.078
-125.253	-65.022	-0.239	-0.096
-124.239	800.000	0.035	-0.133
-123.224	-121.189	-0.033	-0.006
-122.210	349.836	-0.180	0.355
-121.195	800.000	0.075	0.316
