DTS Sentinel unit serial number:	SN413079Multiplexer serial number:	ORYXHardware model number:	OX4-SRSoftware version number:	ORYX F/W v4.00 Oryx Data Collector v3.7.2.0data status	okinstallation	princeton_trtdifferential loss correction	single-endedforward channel	channel 4reverse channel	N/Adate	2019/09/11time	17:47:11forward acquisition time	60.00reverse acquisition time	0.00gamma	496.2192k internal	0.2274k external	0.2274temperature offset calibration	1.0023default loss term (dB/km)	0.3790temperature slope calibration	1.0000multiplexer offset coefficient	1.0000multiplexer slope coefficient	1.0000fibre end	0.00T internal ref (°C)	43.94T ext. ref 1 (°C)	1.11T ext. ref 2 (°C)	39.29length (m)	temperature (°C)	Stokes	anti-Stokes-747.200	3.787	0.154	-0.116
-746.185	-200.000	0.014	-0.065
-745.171	-72.009	-0.110	0.042
-744.156	-5.452	0.175	-0.124
-743.142	-200.000	0.001	-0.212
-742.127	-11.065	0.259	0.177
-741.112	-200.000	-0.027	-0.237
-740.098	11.383	0.251	0.198
-739.083	-158.404	-0.049	-0.003
-738.069	-104.573	0.160	0.038
-737.054	240.177	0.158	-0.271
-736.039	0.840	-0.173	0.128
-735.025	762.941	-0.092	-0.256
-734.010	8.358	-0.231	-0.179
-732.996	-137.832	-0.335	-0.039
-731.981	499.639	-0.138	-0.329
-730.966	375.829	-0.111	-0.233
-729.952	173.141	0.229	0.340
-728.937	187.341	0.190	-0.292
-727.923	133.959	-0.214	0.285
-726.908	-42.260	-0.491	-0.258
-725.894	21.361	-0.267	0.223
-724.879	-200.000	-0.012	0.122
-723.864	-55.628	-0.196	-0.090
-722.850	-200.000	0.008	-0.265
-721.835	46.748	0.149	-0.143
-720.821	800.000	-0.024	0.095
-719.806	358.400	0.087	0.178
-718.791	505.393	-0.148	-0.354
-717.777	-7.473	0.037	-0.026
-716.762	9.200	0.184	-0.143
-715.748	-200.000	0.053	-0.310
-714.733	-115.805	0.184	-0.036
-713.718	184.056	-0.170	-0.260
-712.704	-200.000	-0.033	-0.196
-711.689	-200.000	-0.035	0.197
-710.675	-200.000	-0.534	-0.001
-709.660	261.765	0.084	-0.150
-708.645	124.260	-0.126	0.163
-707.631	111.313	-0.113	0.140
-706.616	662.594	0.112	-0.299
-705.602	800.000	-0.064	-0.208
-704.587	-200.000	0.012	0.085
-703.572	-200.000	-0.007	0.087
-702.558	-107.658	0.303	0.068
-701.543	177.366	0.183	0.275
-700.529	115.818	0.242	-0.305
-699.514	-111.031	0.047	-0.010
-698.499	395.492	-0.038	-0.082
-697.485	70.715	-0.245	-0.261
-696.470	-200.000	-0.057	-0.268
-695.456	79.418	-0.089	-0.098
-694.441	377.981	0.168	-0.354
-693.426	800.000	-0.049	-0.176
-692.412	-200.000	-0.003	-0.030
-691.397	-74.451	0.274	0.102
-690.383	98.327	-0.042	-0.049
-689.368	-200.000	-0.039	-0.235
-688.354	-200.000	-0.071	-0.453
-687.339	90.636	0.089	0.102
-686.324	-79.262	0.307	-0.107
-685.310	-1.024	0.081	0.059
-684.295	-87.964	0.207	0.064
-683.281	77.007	0.159	-0.174
-682.266	800.000	-0.094	-0.318
-681.251	-137.997	0.289	-0.033
-680.237	-167.847	0.317	-0.013
-679.222	-200.000	-0.021	-0.163
-678.208	800.000	0.124	0.409
-677.193	-200.000	0.026	0.142
-676.178	-16.757	-0.149	0.097
-675.164	61.537	-0.173	-0.177
-674.149	-187.698	0.456	-0.006
-673.135	-74.628	0.264	-0.098
-672.120	412.897	0.145	-0.317
-671.105	-7.457	0.212	-0.147
-670.091	800.000	0.077	-0.240
-669.076	176.942	-0.052	0.078
-668.062	800.000	0.044	-0.159
-667.047	-200.000	0.002	-0.078
-666.032	32.118	-0.244	0.216
-665.018	73.843	-0.040	0.043
-664.003	-200.000	-0.049	-0.574
-662.989	-200.000	-0.039	-0.463
-661.974	179.510	0.145	-0.219
-660.959	47.251	-0.155	-0.149
-659.945	451.072	-0.059	-0.133
-658.930	-200.000	0.049	-0.288
-657.916	10.865	0.273	-0.214
-656.901	-164.134	-0.152	-0.007
-655.886	71.795	0.112	-0.120
-654.872	256.830	0.126	-0.223
-653.857	568.507	0.056	-0.139
-652.843	135.314	-0.146	0.195
-651.828	-128.315	0.138	-0.020
-650.814	-128.687	0.106	-0.015
-649.799	543.553	0.053	-0.130
-648.784	165.268	-0.201	0.292
-647.770	-200.000	0.029	-0.310
-646.755	-37.329	-0.153	0.084
-645.741	770.611	0.085	-0.238
-644.726	-4.156	0.083	0.059
-643.711	-200.000	0.002	0.326
-642.697	213.741	0.040	-0.065
-641.682	-19.118	0.154	-0.098
-640.668	39.655	-0.210	-0.194
-639.653	-72.869	0.249	0.094
-638.638	647.830	0.027	0.071
-637.624	48.089	0.061	0.059
-636.609	-116.917	0.201	0.038
-635.595	23.101	0.277	0.233
-634.580	-122.587	-0.240	0.040
-633.565	286.902	-0.035	0.066
-632.551	3.467	0.185	0.138
-631.536	-200.000	-0.050	0.418
-630.522	800.000	0.112	-0.358
-629.507	-11.574	-0.263	-0.178
-628.492	-200.000	-0.032	-0.279
-627.478	-200.000	0.015	-0.204
-626.463	-100.468	-0.324	-0.082
-625.449	-101.470	0.288	0.072
-624.434	139.344	0.132	0.179
-623.419	160.570	0.167	-0.239
-622.405	-108.850	-0.091	0.020
-621.390	-76.863	0.118	0.042
-620.376	-120.795	-0.178	-0.031
-619.361	167.281	0.069	-0.101
-618.346	-17.860	-0.217	0.140
-617.332	-200.000	0.032	0.233
-616.317	-127.032	0.317	-0.048
-615.303	-200.000	-0.002	0.194
-614.288	-200.000	-0.015	-0.193
-613.273	219.319	0.079	-0.130
-612.259	-200.000	-0.033	-0.198
-611.244	82.155	-0.145	0.161
-610.230	-200.000	0.001	-0.009
-609.215	-200.000	0.036	-0.308
-608.201	220.612	-0.183	-0.302
-607.186	-4.680	-0.058	-0.041
-606.171	-200.000	0.019	0.195
-605.157	800.000	-0.054	0.232
-604.142	-99.515	-0.208	0.054
-603.128	72.597	0.090	0.097
-602.113	-97.631	0.146	-0.039
-601.098	-80.026	-0.381	-0.131
-600.084	459.449	-0.093	-0.212
-599.069	800.000	0.023	0.069
-598.055	-7.482	0.391	-0.272
-597.040	-63.592	-0.223	-0.094
-596.025	150.176	-0.182	0.253
-595.011	-190.894	0.065	-0.001
-593.996	159.158	0.010	-0.015
-592.982	-200.000	0.036	0.289
-591.967	-117.248	-0.160	-0.030
-590.952	-200.000	0.029	0.156
-589.938	209.197	-0.168	0.270
-588.923	-124.203	-0.201	0.032
-587.909	800.000	-0.016	0.067
-586.894	-1.017	-0.190	-0.138
-585.879	-19.564	-0.030	-0.019
-584.865	-62.750	-0.140	0.059
-583.850	-200.000	-0.010	-0.093
-582.836	-200.000	0.001	0.156
-581.821	-191.998	0.175	-0.002
-580.806	-200.000	-0.008	-0.152
-579.792	7.231	-0.235	-0.180
-578.777	41.744	-0.081	-0.075
-577.763	147.553	0.044	0.061
-576.748	-146.229	0.294	0.026
-575.733	-200.000	-0.005	-0.248
-574.719	800.000	0.011	0.032
-573.704	-51.248	-0.267	0.128
-572.690	411.832	-0.020	-0.044
-571.675	-200.000	0.038	0.437
-570.661	164.294	-0.072	-0.104
-569.646	260.908	-0.072	-0.128
-568.631	211.733	-0.109	-0.176
-567.617	-200.000	-0.012	-0.100
-566.602	-41.557	0.280	-0.147
-565.588	151.550	0.107	0.149
-564.573	-100.009	-0.356	0.091
-563.558	-114.453	0.170	0.034
-562.544	-129.257	-0.276	0.039
-561.529	800.000	-0.044	0.151
-560.515	-200.000	0.050	0.303
-559.500	135.094	0.072	0.095
-558.485	-6.841	0.366	0.255
-557.471	800.000	0.081	-0.236
-556.456	-27.813	0.165	0.098
-555.442	113.755	0.065	0.081
-554.427	-125.622	-0.199	0.031
-553.412	-6.887	0.112	-0.078
-552.398	146.432	-0.153	-0.211
-551.383	339.374	-0.064	-0.127
-550.369	-200.000	0.010	0.159
-549.354	48.503	0.115	-0.111
-548.339	349.650	0.050	-0.102
-547.325	2.450	-0.144	0.107
-546.310	-200.000	-0.026	-0.309
-545.296	-200.000	-0.003	-0.017
-544.281	-6.099	0.064	0.045
-543.266	800.000	-0.086	0.315
-542.252	-117.663	0.211	0.039
-541.237	-97.070	0.193	0.052
-540.223	-11.384	0.178	-0.120
-539.208	800.000	0.020	-0.085
-538.193	-16.128	0.225	-0.146
-537.179	-131.694	0.096	-0.013
-536.164	47.981	-0.360	-0.344
-535.150	166.631	-0.152	0.221
-534.135	-16.764	-0.088	-0.057
-533.121	171.380	-0.296	-0.435
-532.106	-117.227	0.057	-0.011
-531.091	-200.000	-0.014	-0.076
-530.077	12.891	0.087	-0.069
-529.062	-58.337	-0.263	-0.117
-528.048	-200.000	-0.006	-0.094
-527.033	800.000	0.141	0.416
-526.018	-33.184	0.185	0.105
-525.004	58.571	-0.234	-0.235
-523.989	800.000	-0.088	0.267
-522.975	136.524	0.109	-0.145
-521.960	-200.000	0.015	-0.288
-520.945	-53.118	0.207	-0.097
-519.931	-23.912	0.124	0.076
-518.916	30.864	0.093	-0.081
-517.902	-120.246	-0.297	0.052
-516.887	-200.000	-0.040	-0.209
-515.872	115.986	0.114	-0.142
-514.858	182.646	0.014	-0.021
-513.843	-145.277	0.101	0.009
-512.829	28.773	0.184	0.159
-511.814	2.773	-0.207	-0.154
-510.799	-200.000	0.039	-0.193
-509.785	-5.484	0.266	0.187
-508.770	-64.964	0.374	-0.155
-507.756	-200.000	-0.051	-0.347
-506.741	-52.935	-0.032	-0.015
-505.726	42.259	-0.103	-0.096
-504.712	409.818	0.106	-0.230
-503.697	-72.891	0.110	0.041
-502.683	-28.297	-0.213	0.126
-501.668	-141.011	0.339	-0.036
-500.653	-130.245	-0.057	0.008
-499.639	-200.000	0.030	-0.202
-498.624	33.646	-0.107	-0.095
-497.610	-128.165	0.385	-0.056
-496.595	-68.044	0.047	-0.019
-495.581	17.833	0.038	0.031
-494.566	233.295	0.167	0.280
-493.551	31.336	-0.194	-0.170
-492.537	-60.035	-0.240	0.105
-491.522	-107.373	-0.172	0.039
-490.508	45.720	-0.095	0.090
-489.493	-200.000	0.029	-0.284
-488.478	390.468	0.081	-0.171
-487.464	-38.977	0.112	-0.060
-486.449	84.273	-0.075	0.084
-485.435	-56.353	-0.045	-0.020
-484.420	-183.368	0.331	-0.006
-483.405	-114.537	-0.237	-0.046
-482.391	-70.968	0.184	0.071
-481.376	299.160	-0.023	-0.044
-480.362	111.078	0.035	0.043
-479.347	-200.000	-0.061	-0.318
-478.332	-82.447	-0.117	-0.039
-477.318	-200.000	0.011	0.055
-476.303	277.809	0.118	0.214
-475.289	140.967	0.051	-0.069
-474.274	461.925	0.108	0.245
-473.259	-28.776	0.081	-0.047
-472.245	-174.859	-0.370	-0.011
-471.230	-105.596	0.208	0.048
-470.216	350.178	-0.100	0.202
-469.201	-87.076	0.294	0.091
-468.186	-91.475	0.245	0.071
-467.172	-86.644	0.087	0.027
-466.157	800.000	0.037	-0.160
-465.143	143.292	-0.089	0.121
-464.128	-56.646	0.274	0.124
-463.113	-56.110	-0.136	0.062
-462.099	151.913	-0.162	-0.225
-461.084	149.288	0.059	-0.081
-460.070	-162.325	0.139	-0.007
-459.055	100.784	0.218	0.258
-458.040	-51.086	0.107	0.051
-457.026	560.174	0.141	-0.348
-456.011	-50.418	0.069	0.033
-454.997	372.769	0.140	0.291
-453.982	800.000	0.098	0.378
-452.968	140.288	-0.102	0.137
-451.953	-200.000	-0.001	0.247
-450.938	-110.758	0.133	0.028
-449.924	27.493	-0.245	-0.210
-448.909	734.102	-0.084	-0.228
-447.895	800.000	0.020	-0.058
-446.880	-87.644	0.155	0.048
-445.865	-106.140	0.131	0.030
-444.851	-32.884	-0.211	-0.120
-443.836	-45.208	-0.058	-0.029
-442.822	32.026	0.177	-0.156
-441.807	-88.337	0.389	-0.119
-440.792	800.000	-0.060	-0.263
-439.778	-73.966	-0.197	0.073
-438.763	-174.985	0.262	0.007
-437.749	-17.576	0.271	-0.174
-436.734	-200.000	-0.004	0.161
-435.719	234.220	0.042	0.070
-434.705	-200.000	0.020	0.163
-433.690	304.492	0.125	-0.236
-432.676	86.061	0.312	-0.350
-431.661	-4.748	0.285	-0.200
-430.646	-200.000	-0.005	0.053
-429.632	-159.464	-0.160	0.009
-428.617	800.000	0.092	0.301
-427.603	-142.713	0.567	-0.056
-426.588	9.748	-0.340	0.262
-425.573	203.834	0.105	0.166
-424.559	37.105	0.038	-0.034
-423.544	-103.488	-0.570	0.137
-422.530	-200.000	0.004	-0.216
-421.515	-200.000	0.024	-0.166
-420.500	-200.000	-0.038	0.172
-419.486	-200.000	0.036	0.296
-418.471	201.915	-0.018	0.029
-417.457	-66.671	0.330	0.133
-416.442	29.270	-0.117	-0.101
-415.428	326.177	-0.098	0.192
-414.413	-163.336	-0.239	0.012
-413.398	-35.759	0.169	0.093
-412.384	-73.969	0.333	-0.123
-411.369	156.708	0.179	0.251
-410.355	243.456	0.185	0.315
-409.340	13.021	0.037	0.029
-408.325	-41.805	-0.127	0.066
-407.311	84.802	0.243	0.271
-406.296	5.919	-0.134	0.101
-405.282	-200.000	-0.012	-0.151
-404.267	-162.592	-0.327	-0.016
-403.252	-90.435	-0.162	0.048
-402.238	-148.683	0.135	0.011
-401.223	-200.000	0.027	0.407
-400.209	262.334	-0.079	0.139
-399.194	-54.522	0.133	0.061
-398.179	-200.000	-0.046	-0.329
-397.165	-200.000	0.002	0.093
-396.150	-6.344	-0.372	-0.258
-395.136	-70.316	-0.272	0.105
-394.121	-76.683	-0.226	-0.081
-393.106	-128.532	0.382	0.055
-392.092	25.877	0.238	0.202
-391.077	-81.715	-0.187	0.062
-390.063	-92.164	-0.173	-0.050
-389.048	-96.341	0.110	-0.030
-388.033	13.116	0.024	-0.019
-387.019	-18.391	-0.123	-0.078
-386.004	180.118	-0.048	0.071
-384.990	-65.661	0.170	-0.069
-383.975	-86.438	0.326	0.102
-382.960	-126.431	0.298	0.045
-381.946	-54.259	-0.140	-0.064
-380.931	-174.282	-0.381	-0.011
-379.917	-99.631	-0.243	-0.062
-378.902	784.901	-0.109	0.305
-377.888	-200.000	0.013	0.471
-376.873	174.425	-0.056	0.082
-375.858	131.754	-0.026	-0.034
-374.844	-58.856	0.207	0.091
-373.829	-200.000	-0.082	-0.488
-372.815	223.974	-0.139	0.228
-371.800	-69.152	-0.233	-0.091
-370.785	-200.000	-0.005	0.039
-369.771	-2.389	0.064	-0.046
-368.756	-39.292	-0.155	0.083
-367.742	20.145	-0.391	-0.320
-366.727	-12.046	-0.204	-0.136
-365.712	-33.393	-0.079	-0.044
-364.698	48.388	-0.126	0.120
-363.683	-82.707	0.362	-0.119
-362.669	159.006	0.091	-0.128
-361.654	464.557	-0.056	0.127
-360.639	-114.177	-0.216	-0.042
-359.625	671.470	0.140	0.367
-358.610	-65.600	-0.206	-0.084
-357.596	-60.412	-0.181	-0.078
-356.581	-100.605	0.208	-0.052
-355.566	400.271	0.075	0.160
-354.552	800.000	-0.090	0.259
-353.537	800.000	0.029	0.103
-352.523	-104.947	0.266	0.062
-351.508	-142.261	0.112	-0.011
-350.493	604.103	-0.023	0.059
-349.479	-14.387	-0.210	0.138
-348.464	47.644	0.085	-0.080
-347.450	214.928	0.078	0.125
-346.435	-150.382	-0.221	-0.017
-345.420	-100.195	0.300	0.076
-344.406	-58.053	0.362	-0.160
-343.391	800.000	0.050	-0.184
-342.377	-200.000	0.049	0.248
-341.362	-76.937	0.077	-0.027
-340.348	-200.000	-0.028	0.233
-339.333	-200.000	0.023	-0.182
-338.318	-113.472	-0.212	0.042
-337.304	60.004	-0.187	0.188
-336.289	491.727	0.034	0.078
-335.275	18.989	0.129	0.105
-334.260	550.499	-0.075	-0.182
-333.245	127.547	0.118	-0.152
-332.231	98.321	0.224	0.261
-331.216	-5.697	0.198	-0.138
-330.202	-182.361	-0.120	0.002
-329.187	22.170	-0.320	-0.266
-328.172	247.732	-0.083	-0.142
-327.158	66.089	0.167	0.172
-326.143	-122.299	0.115	-0.019
-325.129	198.889	-0.158	0.246
-324.114	677.196	-0.089	0.234
-323.099	5.371	-0.228	0.171
-322.085	-45.429	0.169	0.085
-321.070	206.643	-0.070	-0.111
-320.056	-61.002	0.016	0.007
-319.041	-46.460	0.231	-0.115
-318.026	-153.734	-0.303	0.021
-317.012	-112.688	0.234	-0.047
-315.997	596.807	0.032	0.079
-314.983	248.549	0.092	-0.159
-313.968	-90.944	-0.259	-0.076
-312.953	-47.834	-0.611	0.300
-311.939	-47.523	-0.071	-0.035
-310.924	-15.490	0.209	0.135
-309.910	-200.000	0.026	-0.217
-308.895	-44.464	0.088	-0.045
-307.880	-122.199	-0.253	-0.042
-306.866	181.851	0.035	0.052
-305.851	-107.500	-0.080	0.018
-304.837	205.176	0.079	0.125
-303.822	-200.000	0.014	-0.145
-302.807	-91.585	0.355	0.103
-301.793	-200.000	0.004	0.030
-300.778	-154.689	-0.175	-0.012
-299.764	125.377	0.018	-0.022
-298.749	-106.153	0.034	-0.008
-297.735	-200.000	0.023	-0.150
-296.720	-85.683	0.143	0.045
-295.705	-110.870	-0.144	-0.030
-294.691	800.000	-0.055	-0.207
-293.676	51.190	0.148	0.143
-292.662	30.085	-0.034	0.029
-291.647	648.119	-0.061	-0.159
-290.632	521.065	-0.038	-0.090
-289.618	228.212	-0.089	-0.148
-288.603	-89.415	-0.131	0.039
-287.589	393.215	0.133	-0.281
-286.574	800.000	0.090	0.260
-285.559	-37.480	0.080	0.043
-284.545	-25.171	-0.251	0.151
-283.530	-200.000	-0.050	0.312
-282.516	-113.454	-0.337	-0.067
-281.501	247.852	-0.086	-0.147
-280.486	258.261	-0.114	0.199
-279.472	226.086	-0.144	-0.236
-278.457	-90.708	-0.045	0.013
-277.443	-126.669	0.097	-0.014
-276.428	32.985	-0.326	-0.286
-275.413	-156.695	0.074	0.005
-274.399	-185.487	-0.099	0.002
-273.384	-119.931	0.351	-0.061
-272.370	-200.000	-0.013	-0.192
-271.355	356.336	-0.069	-0.139
-270.340	-200.000	-0.012	0.321
-269.326	210.390	0.055	0.087
-268.311	-139.195	0.236	-0.026
-267.297	-55.444	0.203	0.092
-266.282	107.453	-0.049	-0.059
-265.267	-200.000	-0.039	-0.415
-264.253	5.049	0.173	-0.129
-263.238	-200.000	0.020	-0.096
-262.224	800.000	0.056	0.183
-261.209	-91.196	0.266	-0.077
-260.195	95.097	-0.095	-0.110
-259.180	55.730	0.108	-0.106
-258.165	142.964	0.089	0.120
-257.151	-71.994	-0.364	0.137
-256.136	-200.000	0.010	0.170
-255.122	-200.000	-0.023	-0.306
-254.107	-0.495	-0.067	0.048
-253.092	-164.991	0.134	-0.006
-252.078	367.438	-0.193	0.395
-251.063	362.730	0.063	-0.128
-250.049	129.035	0.243	0.313
-249.034	-6.986	0.211	0.145
-248.019	-113.451	-0.066	-0.013
-247.005	-79.739	-0.216	0.074
-245.990	-36.621	0.128	0.070
-244.976	375.964	0.162	-0.334
-243.961	723.517	-0.025	0.068
-242.946	-88.199	0.239	0.072
-241.932	-166.913	0.319	0.013
-240.917	-200.000	0.037	0.237
-239.903	-30.717	0.182	0.104
-238.888	658.974	-0.023	0.060
-237.873	-200.000	-0.038	0.197
-236.859	453.328	-0.074	0.167
-235.844	-200.000	0.009	0.089
-234.830	-67.834	-0.330	-0.130
-233.815	500.507	-0.084	0.197
-232.800	-104.572	0.343	-0.080
-231.786	253.544	0.156	-0.269
-230.771	-168.184	0.124	-0.005
-229.757	28.033	0.136	-0.116
-228.742	36.218	-0.101	-0.090
-227.727	-108.741	-0.326	-0.071
-226.713	-200.000	0.005	-0.167
-225.698	-109.308	-0.094	0.020
-224.684	-133.388	0.048	0.006
-223.669	271.832	0.076	-0.136
-222.655	800.000	-0.033	-0.127
-221.640	-200.000	0.005	-0.149
-220.625	-41.142	0.120	0.062
-219.611	-200.000	-0.005	-0.152
-218.596	32.610	-0.055	-0.048
-217.582	174.896	0.044	0.065
-216.567	0.723	-0.183	0.132
-215.552	-50.249	0.070	0.034
-214.538	-100.750	-0.218	0.054
-213.523	-22.814	-0.199	0.121
-212.509	377.874	0.080	-0.165
-211.494	800.000	0.045	0.186
-210.479	-200.000	0.038	-0.352
-209.465	209.429	-0.083	0.131
-208.450	-142.175	0.119	0.012
-207.436	-129.426	0.090	0.013
-206.421	60.143	0.203	-0.203
-205.406	-160.156	0.404	0.022
-204.392	336.554	0.099	0.194
-203.377	-59.507	-0.155	-0.067
-202.363	-42.214	-0.244	-0.126
-201.348	800.000	-0.115	0.370
-200.333	-14.287	0.100	0.065
-199.319	-118.781	-0.169	-0.030
-198.304	-200.000	0.004	0.094
-197.290	-165.172	-0.221	-0.010
-196.275	644.069	0.024	-0.061
-195.260	-168.527	0.205	0.008
-194.246	54.823	-0.058	0.057
-193.231	711.770	0.040	0.106
-192.217	228.085	0.161	0.265
-191.202	-111.972	-0.227	-0.046
-190.187	299.185	0.086	0.160
-189.173	-40.975	-0.178	0.093
-188.158	800.000	0.149	-0.419
-187.144	44.562	0.193	0.179
-186.129	-200.000	-0.059	0.269
-185.114	-70.992	-0.322	0.122
-184.100	-56.720	0.015	0.007
-183.085	-42.831	-0.164	0.084
-182.071	-10.720	-0.030	-0.020
-181.056	494.288	0.166	-0.385
-180.042	-87.831	-0.230	0.070
-179.027	569.522	-0.115	-0.283
-178.012	-57.013	-0.371	-0.165
-176.998	-0.157	-0.077	-0.055
-175.983	-153.266	-0.188	0.013
-174.969	-11.825	0.169	0.112
-173.954	-18.066	-0.259	0.164
-172.939	34.903	0.120	-0.106
-171.925	190.461	-0.232	0.351
-170.910	-116.234	-0.103	-0.019
-169.896	158.047	0.216	-0.302
-168.881	122.990	0.077	-0.098
-167.866	-111.737	-0.208	0.043
-166.852	-127.735	-0.430	0.063
-165.837	-200.000	0.008	-0.353
-164.823	126.116	-0.058	0.074
-163.808	-16.542	0.109	0.070
-162.793	142.768	0.272	-0.365
-161.779	-59.668	0.247	-0.107
-160.764	-76.281	0.046	-0.016
-159.750	-200.000	-0.162	0.000
-158.735	0.092	-0.217	-0.156
-157.720	800.000	0.097	0.356
-156.706	-179.347	0.151	-0.003
-155.691	295.221	-0.168	-0.310
-154.677	-123.669	-0.277	0.044
-153.662	1.970	-0.318	-0.232
-152.647	221.775	-0.070	-0.114
-151.633	-162.949	-0.384	-0.019
-150.618	20.229	-0.296	0.241
-149.604	-112.168	0.360	0.073
-148.589	-160.902	0.431	0.023
-147.574	649.344	-0.064	0.165
-146.560	119.468	0.113	-0.140
-145.545	-200.000	0.033	-0.234
-144.531	800.000	-0.076	-0.299
-143.516	-111.642	0.118	0.024
-142.502	113.875	-0.147	-0.180
-141.487	-114.660	-0.247	-0.048
-140.472	-200.000	-0.003	0.049
-139.458	272.823	0.116	-0.207
-138.443	51.362	-0.139	-0.133
-137.429	-48.778	0.260	-0.126
-136.414	-34.337	0.224	0.124
-135.399	-200.000	0.003	0.111
-134.385	-94.424	0.101	0.028
-133.370	-124.830	-0.237	-0.037
-132.356	-11.794	-0.163	0.107
-131.341	244.211	-0.134	-0.227
-130.326	-24.731	0.253	0.152
-129.312	311.870	0.067	0.126
-128.297	52.685	0.382	0.367
-127.283	505.109	0.061	0.143
-126.268	-200.000	-0.018	-0.254
-125.253	73.276	-0.162	-0.171
-124.239	-18.558	0.335	0.210
-123.224	-55.867	0.282	0.127
-122.210	76.260	0.106	-0.113
