DTS Sentinel unit serial number:	SN413079Multiplexer serial number:	ORYXHardware model number:	OX4-SRSoftware version number:	ORYX F/W v4.00 Oryx Data Collector v3.7.2.0data status	okinstallation	princeton_trtdifferential loss correction	single-endedforward channel	channel 4reverse channel	N/Adate	2019/09/11time	09:35:10forward acquisition time	60.00reverse acquisition time	0.00gamma	496.2192k internal	0.2298k external	0.2298temperature offset calibration	0.9974default loss term (dB/km)	0.3790temperature slope calibration	1.0000multiplexer offset coefficient	1.0000multiplexer slope coefficient	1.0000fibre end	0.00T internal ref (°C)	34.78T ext. ref 1 (°C)	0.13T ext. ref 2 (°C)	30.89length (m)	temperature (°C)	Stokes	anti-Stokes-747.200	-200.000	-0.010	-0.336
-746.185	800.000	0.059	0.230
-745.171	-94.781	-0.102	0.028
-744.156	-18.936	0.254	-0.161
-743.142	189.123	0.037	0.057
-742.127	-200.000	0.003	0.346
-741.112	-56.097	0.427	0.194
-740.098	800.000	0.059	0.180
-739.083	-14.229	0.048	0.032
-738.069	-200.000	-0.033	0.197
-737.054	46.310	-0.158	-0.150
-736.039	751.994	-0.168	-0.464
-735.025	364.464	0.058	-0.118
-734.010	684.560	0.079	-0.211
-732.996	800.000	0.037	-0.112
-731.981	-154.085	-0.153	0.011
-730.966	255.449	0.046	-0.080
-729.952	240.841	0.204	-0.348
-728.937	-70.534	-0.258	0.100
-727.923	501.663	-0.038	-0.090
-726.908	-200.000	-0.023	-0.232
-725.894	447.545	-0.031	0.069
-724.879	-92.239	-0.294	-0.085
-723.864	-200.000	0.019	-0.157
-722.850	-200.000	0.030	-0.460
-721.835	-24.026	0.210	-0.128
-720.821	800.000	0.045	-0.150
-719.806	-200.000	-0.034	-0.191
-718.791	-101.649	-0.085	-0.021
-717.777	-120.997	0.257	0.044
-716.762	-200.000	-0.021	0.155
-715.748	-5.934	-0.291	0.203
-714.733	26.935	0.388	-0.332
-713.718	359.951	-0.146	-0.299
-712.704	223.157	-0.016	-0.026
-711.689	800.000	-0.029	-0.123
-710.675	-80.272	0.190	-0.065
-709.660	104.017	0.069	-0.082
-708.645	94.453	0.126	0.146
-707.631	210.476	-0.082	0.131
-706.616	-200.000	-0.017	0.131
-705.602	114.028	0.066	0.082
-704.587	25.625	0.333	0.282
-703.572	110.180	0.076	0.092
-702.558	75.608	0.310	0.334
-701.543	398.346	-0.019	0.041
-700.529	216.769	0.130	-0.211
-699.514	-200.000	0.002	-0.392
-698.499	-90.191	-0.175	0.052
-697.485	22.673	0.238	-0.199
-696.470	26.518	0.150	-0.128
-695.456	-159.397	0.264	-0.015
-694.441	250.988	-0.131	0.227
-693.426	364.669	0.171	-0.350
-692.412	594.003	-0.106	-0.266
-691.397	-200.000	-0.037	-0.214
-690.383	153.575	-0.135	-0.189
-689.368	766.074	-0.080	-0.222
-688.354	114.704	0.033	0.041
-687.339	39.912	0.064	-0.059
-686.324	-200.000	-0.005	-0.095
-685.310	-66.728	0.352	0.142
-684.295	-200.000	0.031	0.363
-683.281	-18.226	0.276	-0.176
-682.266	340.252	0.097	-0.192
-681.251	-135.281	-0.563	-0.069
-680.237	-200.000	0.029	-0.223
-679.222	112.631	0.100	0.123
-678.208	-124.862	0.330	-0.052
-677.193	-31.848	-0.286	0.163
-676.178	-76.406	-0.219	0.078
-675.164	15.546	0.044	-0.035
-674.149	800.000	0.065	-0.194
-673.135	-45.604	0.087	0.044
-672.120	330.129	-0.066	0.130
-671.105	-154.295	0.172	0.012
-670.091	-19.003	-0.117	-0.074
-669.076	-190.833	0.089	-0.001
-668.062	-181.397	0.062	-0.001
-667.047	154.121	0.117	-0.164
-666.032	-97.427	-0.225	0.060
-665.018	-137.887	-0.059	-0.007
-664.003	56.619	0.076	-0.075
-662.989	259.885	0.173	0.305
-661.974	-120.287	0.370	-0.064
-660.959	-200.000	0.036	-0.198
-659.945	-73.317	-0.486	-0.181
-658.930	-200.000	0.022	-0.179
-657.916	-200.000	-0.015	0.363
-656.901	-200.000	0.025	0.145
-655.886	-41.795	0.240	-0.125
-654.872	-200.000	-0.003	-0.228
-653.857	81.893	0.042	-0.047
-652.843	800.000	-0.075	-0.279
-651.828	-17.780	-0.052	-0.033
-650.814	-115.487	0.231	-0.044
-649.799	250.407	-0.152	-0.263
-648.784	115.987	-0.071	0.089
-647.770	268.876	0.150	-0.267
-646.755	232.850	0.184	-0.308
-645.741	278.163	0.027	0.048
-644.726	800.000	0.063	0.203
-643.711	-15.657	-0.180	0.117
-642.697	-68.370	-0.142	-0.056
-641.682	-166.375	-0.235	0.010
-640.668	800.000	-0.086	-0.274
-639.653	-58.163	0.166	0.074
-638.638	-200.000	0.003	-0.109
-637.624	-82.025	0.129	0.043
-636.609	-53.939	-0.233	0.108
-635.595	-55.957	0.261	0.119
-634.580	-44.490	-0.288	0.147
-633.565	14.552	-0.241	0.191
-632.551	47.705	-0.090	0.085
-631.536	800.000	-0.043	-0.153
-630.522	592.687	0.068	0.170
-629.507	-6.830	0.058	-0.040
-628.492	-200.000	0.044	0.333
-627.478	-121.858	-0.158	-0.026
-626.463	-171.222	-0.219	-0.007
-625.449	107.812	-0.019	0.023
-624.434	-184.876	0.225	-0.004
-623.419	-173.230	-0.352	0.011
-622.405	375.289	0.128	-0.265
-621.390	-36.411	0.215	-0.118
-620.376	-45.352	0.191	0.096
-619.361	-46.299	-0.374	-0.187
-618.346	131.579	-0.142	-0.185
-617.332	256.689	0.114	-0.199
-616.317	307.114	0.067	0.126
-615.303	739.003	0.054	0.148
-614.288	423.407	-0.077	-0.168
-613.273	-71.888	-0.617	-0.233
-612.259	553.925	0.097	0.237
-611.244	-200.000	-0.015	-0.099
-610.230	800.000	0.052	-0.193
-609.215	-200.000	-0.040	0.219
-608.201	-144.947	0.191	0.018
-607.186	-200.000	-0.035	0.227
-606.171	569.029	-0.038	0.094
-605.157	-26.467	-0.301	0.179
-604.142	-200.000	0.001	-0.061
-603.128	-17.502	-0.015	-0.010
-602.113	-120.095	0.330	-0.057
-601.098	346.886	0.166	0.331
-600.084	243.184	-0.139	0.237
-599.069	132.565	0.105	-0.137
-598.055	-24.738	0.239	-0.144
-597.040	373.296	0.094	-0.194
-596.025	-200.000	0.002	-0.045
-595.011	-200.000	0.014	-0.163
-593.996	195.518	-0.123	0.190
-592.982	43.370	-0.086	0.080
-591.967	-200.000	0.016	0.092
-590.952	-200.000	-0.057	0.288
-589.938	202.106	-0.053	0.084
-588.923	800.000	-0.177	-0.532
-587.909	-14.357	0.319	-0.208
-586.894	-8.325	-0.041	-0.028
-585.879	-200.000	-0.046	-0.222
-584.865	-200.000	0.029	0.250
-583.850	444.517	-0.140	0.312
-582.836	-17.060	-0.154	-0.098
-581.821	332.772	0.116	-0.228
-580.806	-200.000	-0.001	-0.314
-579.792	28.582	-0.130	-0.112
-578.777	-200.000	-0.063	-0.372
-577.763	-200.000	0.029	-0.256
-576.748	157.941	0.010	-0.014
-575.733	800.000	-0.045	-0.155
-574.719	-200.000	0.022	0.212
-573.704	9.682	0.078	-0.060
-572.690	800.000	0.087	0.326
-571.675	54.292	0.351	-0.342
-570.661	135.886	0.222	0.294
-569.646	-73.701	0.274	-0.101
-568.631	-200.000	-0.041	-0.346
-567.617	-93.564	-0.117	0.033
-566.602	87.219	0.127	0.142
-565.588	-51.451	0.109	-0.052
-564.573	-117.251	-0.224	-0.041
-563.558	-200.000	0.007	0.112
-562.544	322.352	0.158	0.305
-561.529	228.919	-0.147	0.242
-560.515	-122.692	-0.300	0.049
-559.500	-137.096	-0.085	0.010
-558.485	120.926	-0.040	0.051
-557.471	-200.000	-0.205	-0.000
-556.456	-22.565	0.136	-0.083
-555.442	85.049	0.101	-0.113
-554.427	43.179	0.202	-0.187
-553.412	182.935	0.151	0.226
-552.398	-25.598	-0.237	-0.142
-551.383	275.209	0.124	0.223
-550.369	-165.156	-0.196	-0.009
-549.354	116.772	0.080	0.100
-548.339	506.219	0.122	-0.287
-547.325	43.504	-0.119	0.110
-546.310	0.679	0.273	-0.198
-545.296	106.512	-0.185	0.223
-544.281	-25.872	0.111	-0.066
-543.266	9.151	0.149	0.114
-542.252	800.000	-0.073	-0.276
-541.237	740.038	-0.032	-0.087
-540.223	-128.869	-0.042	0.006
-539.208	-94.529	0.063	0.017
-538.193	800.000	-0.112	0.372
-537.179	-146.962	-0.326	-0.028
-536.164	189.096	0.189	-0.286
-535.150	-114.716	0.121	-0.023
-534.135	104.520	0.124	-0.148
-533.121	-200.000	0.024	0.247
-532.106	-102.350	-0.315	-0.076
-531.091	278.685	0.124	0.224
-530.077	-80.023	-0.047	-0.016
-529.062	-200.000	-0.038	-0.410
-528.048	100.768	0.090	0.106
-527.033	182.329	0.126	0.189
-526.018	158.482	-0.180	0.252
-525.004	-200.000	0.054	-0.330
-523.989	-200.000	0.004	0.144
-522.975	-83.978	-0.183	-0.059
-521.960	-127.287	0.338	-0.050
-520.945	-30.116	-0.119	-0.068
-519.931	-140.697	0.107	0.011
-518.916	113.363	0.107	0.132
-517.902	-71.803	0.109	-0.041
-516.887	252.954	0.087	-0.150
-515.872	-86.808	0.236	0.073
-514.858	482.823	0.157	-0.362
-513.843	132.397	0.025	0.033
-512.829	-21.233	0.092	0.057
-511.814	239.665	0.142	-0.240
-510.799	-200.000	-0.031	-0.303
-509.785	-200.000	0.026	-0.471
-508.770	-80.813	-0.377	-0.127
-507.756	203.396	-0.117	-0.183
-506.741	-22.858	-0.041	-0.025
-505.726	96.465	0.083	0.096
-504.712	139.378	-0.137	-0.183
-503.697	-200.000	-0.020	0.125
-502.683	-5.551	-0.157	0.109
-501.668	-54.759	-0.155	0.071
-500.653	-200.000	-0.038	0.251
-499.639	186.855	0.098	-0.147
-498.624	-160.009	0.149	-0.008
-497.610	-200.000	0.024	-0.171
-496.595	-41.333	0.041	-0.021
-495.581	-132.281	-0.270	0.035
-494.566	422.732	-0.110	-0.239
-493.551	294.902	-0.068	0.126
-492.537	800.000	0.054	0.218
-491.522	-8.362	0.254	0.173
-490.508	-146.176	-0.264	-0.023
-489.493	800.000	-0.094	-0.279
-488.478	187.906	-0.084	0.127
-487.464	-23.736	-0.326	-0.197
-486.449	-163.460	0.060	-0.003
-485.435	80.042	-0.260	0.282
-484.420	656.761	0.085	-0.220
-483.405	115.582	-0.168	0.207
-482.391	391.021	0.053	0.111
-481.376	485.122	-0.054	-0.124
-480.362	406.195	-0.026	-0.055
-479.347	-19.378	-0.236	-0.148
-478.332	31.723	-0.183	-0.159
-477.318	-200.000	0.001	-0.099
-476.303	-55.641	0.094	0.042
-475.289	12.781	0.141	-0.110
-474.274	24.197	0.128	0.107
-473.259	-200.000	-0.028	-0.258
-472.245	-176.029	0.125	0.003
-471.230	33.144	-0.201	0.176
-470.216	-155.846	-0.287	0.018
-469.201	800.000	0.129	0.365
-468.186	-20.111	-0.304	-0.189
-467.172	-132.449	0.577	0.075
-466.157	-13.499	0.059	-0.038
-465.143	-93.465	0.067	-0.019
-464.128	12.598	0.068	-0.053
-463.113	185.798	0.063	0.095
-462.099	-64.484	-0.136	0.056
-461.084	-200.000	0.018	0.222
-460.070	-122.067	-0.176	0.029
-459.055	-73.834	-0.300	-0.110
-458.040	-158.767	0.171	0.010
-457.026	13.414	0.200	0.156
-456.011	-81.055	0.125	-0.042
-454.997	-115.467	-0.284	0.054
-453.982	-37.542	0.198	-0.107
-452.968	-44.717	0.140	-0.071
-451.953	-31.063	0.092	-0.053
-450.938	-131.429	-0.191	-0.026
-449.924	-200.000	-0.027	-0.304
-448.909	-117.113	0.051	-0.009
-447.895	-59.951	-0.302	0.130
-446.880	131.985	-0.070	0.091
-445.865	800.000	0.021	0.085
-444.851	51.849	0.051	0.049
-443.836	800.000	-0.021	0.084
-442.822	800.000	0.057	0.216
-441.807	423.080	0.147	-0.319
-440.792	-132.836	-0.202	-0.026
-439.778	-200.000	-0.029	-0.349
-438.763	-120.845	0.264	0.045
-437.749	-63.976	-0.524	0.216
-436.734	269.261	0.067	-0.119
-435.719	-44.022	-0.112	0.057
-434.705	82.231	-0.273	0.298
-433.690	800.000	0.098	0.291
-432.676	800.000	-0.070	0.236
-431.661	-131.974	-0.563	-0.074
-430.646	116.534	0.121	-0.150
-429.632	-200.000	0.133	-0.000
-428.617	75.587	0.073	-0.078
-427.603	800.000	-0.064	0.199
-426.588	-124.546	-0.176	-0.028
-425.573	-200.000	0.003	-0.056
-424.559	144.956	0.108	-0.146
-423.544	271.184	-0.073	-0.130
-422.530	-101.987	0.240	0.059
-421.515	49.373	-0.138	0.131
-420.500	-193.014	0.143	0.001
-419.486	-25.731	0.306	0.182
-418.471	715.923	-0.109	0.292
-417.457	387.801	-0.124	-0.259
-416.442	-200.000	-0.032	-0.295
-415.428	233.006	-0.060	0.099
-414.413	-132.080	0.298	0.039
-413.398	-200.000	0.024	0.235
-412.384	-200.000	-0.036	-0.210
-411.369	27.590	0.366	-0.310
-410.355	-78.504	0.135	0.047
-409.340	-23.109	-0.183	0.111
-408.325	-145.447	-0.277	0.025
-407.311	473.237	0.089	0.202
-406.296	416.989	-0.094	-0.202
-405.282	33.662	-0.275	0.241
-404.267	-0.930	0.168	-0.120
-403.252	-51.638	-0.105	0.049
-402.238	800.000	-0.094	0.374
-401.223	158.079	-0.146	-0.204
-400.209	-64.179	0.306	-0.126
-399.194	800.000	-0.095	-0.290
-398.179	210.441	0.185	-0.293
-397.165	-31.653	0.072	-0.041
-396.150	202.012	-0.320	0.497
-395.136	-38.909	0.207	-0.110
-394.121	-153.157	0.182	0.013
-393.106	-157.563	0.181	0.011
-392.092	800.000	0.046	0.150
-391.077	758.896	-0.153	0.417
-390.063	-114.944	-0.139	-0.027
-389.048	19.468	-0.059	-0.048
-388.033	-28.789	0.194	0.112
-387.019	800.000	-0.041	0.158
-386.004	-116.664	-0.086	0.016
-384.990	91.224	0.048	-0.054
-383.975	-69.207	0.378	0.146
-382.960	11.448	-0.181	-0.140
-381.946	-32.089	-0.109	-0.061
-380.931	531.207	0.006	-0.015
-379.917	-26.896	0.111	0.065
-378.902	-48.690	-0.070	-0.034
-377.888	-13.964	-0.313	-0.203
-376.873	416.979	0.128	-0.276
-375.858	328.555	0.129	-0.249
-374.844	380.359	-0.103	0.212
-373.829	-145.552	-0.269	0.024
-372.815	120.331	0.107	0.134
-371.800	6.832	-0.136	0.102
-370.785	-27.851	-0.057	-0.033
-369.771	-86.594	-0.196	-0.061
-368.756	333.205	-0.228	-0.444
-367.742	-127.524	0.059	-0.009
-366.727	-30.584	0.261	-0.149
-365.712	13.361	-0.142	-0.111
-364.698	-200.000	0.005	-0.313
-363.683	145.795	-0.045	-0.061
-362.669	325.788	-0.090	0.174
-361.654	-200.000	-0.010	0.058
-360.639	-52.296	0.219	-0.102
-359.625	-49.283	-0.080	0.039
-358.610	-71.689	0.198	-0.074
-357.596	208.541	-0.043	0.067
-356.581	115.534	0.038	-0.046
-355.566	36.995	0.062	-0.055
-354.552	-200.000	-0.007	-0.085
-353.537	800.000	0.017	-0.055
-352.523	-200.000	-0.001	0.380
-351.508	197.105	-0.057	0.088
-350.493	800.000	-0.077	0.268
-349.479	800.000	-0.062	0.181
-348.464	-119.723	0.107	0.019
-347.450	800.000	0.107	0.340
-346.435	326.019	0.014	0.027
-345.420	102.345	-0.137	0.161
-344.406	-200.000	-0.015	-0.204
-343.391	-200.000	0.002	-0.044
-342.377	300.027	-0.123	-0.228
-341.362	-125.680	0.334	0.051
-340.348	800.000	-0.073	-0.204
-339.333	-38.727	-0.068	0.036
-338.318	-114.809	0.270	-0.052
-337.304	-117.383	0.322	0.059
-336.289	703.787	-0.077	-0.203
-335.275	-75.818	-0.074	-0.026
-334.260	-65.101	0.080	-0.033
-333.245	800.000	-0.128	0.451
-332.231	-200.000	-0.100	0.521
-331.216	-200.000	-0.024	-0.126
-330.202	43.836	0.261	0.240
-329.187	-73.794	-0.135	0.049
-328.172	800.000	0.072	-0.206
-327.158	800.000	0.044	0.187
-326.143	-58.442	-0.167	0.073
-325.129	-200.000	-0.025	0.269
-324.114	-111.124	-0.381	-0.078
-323.099	800.000	0.180	-0.515
-322.085	398.336	-0.080	-0.169
-321.070	256.915	0.022	-0.037
-320.056	181.878	-0.289	-0.427
-319.041	272.935	-0.031	-0.055
-318.026	84.088	0.103	0.113
-317.012	-127.097	0.057	0.008
-315.997	117.130	-0.105	0.130
-314.983	32.429	-0.349	0.302
-313.968	-200.000	0.040	0.229
-312.953	167.754	0.061	-0.088
-311.939	7.140	0.120	-0.090
-310.924	-185.373	-0.493	-0.008
-309.910	-24.439	-0.089	-0.053
-308.895	-200.000	-0.000	-0.050
-307.880	-110.105	0.314	0.066
-306.866	-200.000	-0.013	-0.112
-305.851	233.210	-0.162	-0.268
-304.837	800.000	0.112	0.328
-303.822	-174.308	-0.156	-0.005
-302.807	-200.000	-0.056	-0.307
-301.793	-200.000	0.019	0.376
-300.778	7.732	0.365	-0.274
-299.764	-147.875	-0.270	0.023
-298.749	39.225	0.241	-0.216
-297.735	364.735	-0.145	-0.294
-296.720	-65.583	0.220	0.088
-295.705	-200.000	-0.007	0.117
-294.691	-65.276	-0.067	-0.027
-293.676	107.274	-0.091	0.108
-292.662	-200.000	-0.012	-0.261
-291.647	-115.359	-0.220	-0.042
-290.632	57.681	0.243	0.239
-289.618	-12.389	0.353	-0.231
-288.603	168.342	-0.167	0.239
-287.589	-200.000	-0.034	0.290
-286.574	-122.252	0.068	-0.011
-285.559	-37.431	-0.150	0.080
-284.545	-131.764	0.330	-0.043
-283.530	309.803	0.096	-0.180
-282.516	-91.514	0.189	-0.054
-281.501	101.378	0.272	-0.318
-280.486	-115.336	-0.273	-0.052
-279.472	54.867	-0.070	0.067
-278.457	347.410	-0.037	-0.073
-277.443	13.504	0.380	-0.295
-276.428	13.716	0.060	-0.046
-275.413	22.406	-0.070	0.057
-274.399	-54.131	-0.156	-0.071
-273.384	227.154	0.027	-0.044
-272.370	4.681	0.141	-0.104
-271.355	800.000	-0.081	-0.234
-270.340	800.000	-0.028	0.082
-269.326	800.000	0.050	-0.204
-268.311	113.195	0.044	-0.054
-267.297	-105.616	-0.113	0.026
-266.282	147.844	-0.081	0.109
-265.267	-79.747	-0.165	0.056
-264.253	-40.472	0.259	0.135
-263.238	-53.515	-0.267	-0.123
-262.224	-200.000	-0.017	0.111
-261.209	338.446	-0.187	0.366
-260.195	309.279	-0.129	0.242
-259.180	66.456	0.130	-0.133
-258.165	-200.000	0.009	0.130
-257.151	-53.199	-0.313	0.144
-256.136	-200.000	-0.006	0.049
-255.122	111.633	0.185	0.224
-254.107	-125.589	0.327	0.050
-253.092	237.889	0.155	-0.258
-252.078	-83.796	-0.130	-0.042
-251.063	-80.501	0.178	0.060
-250.049	214.371	0.042	0.067
-249.034	-105.547	0.235	-0.053
-248.019	-41.783	-0.175	0.090
-247.005	-200.000	-0.002	-0.265
-245.990	800.000	-0.049	-0.137
-244.976	-69.676	0.312	0.120
-243.961	-155.756	0.157	0.010
-242.946	-200.000	0.053	0.296
-241.932	-200.000	-0.059	0.313
-240.917	-200.000	0.046	-0.237
-239.903	-132.880	-0.330	0.042
-238.888	-141.644	0.302	0.030
-237.873	-148.060	0.074	0.006
-236.859	-1.403	-0.045	-0.032
-235.844	-130.806	0.501	0.067
-234.830	-200.000	-0.005	0.340
-233.815	-149.470	-0.066	-0.005
-232.800	-9.883	0.088	-0.058
-231.786	89.410	-0.072	0.080
-230.771	-200.000	0.013	-0.083
-229.757	570.700	0.054	-0.133
-228.742	-17.268	0.151	0.095
-227.727	-200.000	-0.007	-0.083
-226.713	-200.000	-0.004	0.084
-225.698	164.052	-0.148	0.209
-224.684	-200.000	-0.033	-0.349
-223.669	-105.861	0.219	0.049
-222.655	618.408	0.030	-0.075
-221.640	10.378	0.120	-0.091
-220.625	-147.070	0.319	0.027
-219.611	-71.249	-0.290	-0.109
-218.596	-200.000	-0.077	0.487
-217.582	-200.000	-0.024	0.124
-216.567	800.000	0.040	0.157
-215.552	413.956	0.223	-0.474
-214.538	-28.126	0.250	0.144
-213.523	-192.190	0.104	0.001
-212.509	800.000	-0.038	0.111
-211.494	34.350	-0.069	0.060
-210.479	-200.000	-0.029	-0.353
-209.465	118.499	-0.042	0.052
-208.450	74.849	-0.101	0.106
-207.436	-200.000	-0.025	-0.216
-206.421	-150.543	-0.249	-0.019
-205.406	-155.312	0.120	0.008
-204.392	519.620	0.026	-0.061
-203.377	28.563	0.065	-0.055
-202.363	-7.499	-0.213	0.144
-201.348	800.000	-0.073	-0.293
-200.333	73.047	-0.169	0.177
-199.319	-11.966	0.292	0.192
-198.304	732.980	0.106	0.283
-197.290	185.934	-0.151	-0.224
-196.275	800.000	0.033	-0.119
-195.260	261.274	0.012	0.022
-194.246	252.503	-0.113	0.192
-193.231	-172.344	0.157	0.005
-192.217	37.366	-0.074	0.066
-191.202	160.564	-0.199	-0.278
-190.187	314.869	0.069	0.129
-189.173	-156.643	-0.195	-0.012
-188.158	-117.169	-0.090	-0.016
-187.144	165.029	0.159	-0.225
-186.129	800.000	0.023	-0.065
-185.114	-200.000	-0.010	0.122
-184.100	117.723	0.150	-0.185
-183.085	-112.047	0.192	0.039
-182.071	33.207	0.387	0.335
-181.056	706.700	0.088	-0.231
-180.042	249.489	0.057	0.096
-179.027	14.566	-0.127	0.099
-178.012	-200.000	0.017	0.148
-176.998	59.077	-0.038	-0.038
-175.983	100.999	-0.060	0.069
-174.969	304.421	-0.081	0.149
-173.954	235.220	-0.050	0.083
-172.939	-97.208	0.121	-0.032
-171.925	795.610	0.039	0.107
-170.910	-149.051	0.374	0.030
-169.896	37.879	-0.232	-0.206
-168.881	-200.000	0.008	0.095
-167.866	800.000	-0.112	0.318
-166.852	-113.290	0.084	0.017
-165.837	153.192	0.041	-0.056
-164.823	57.673	-0.044	0.043
-163.808	-187.836	0.393	0.005
-162.793	-200.000	0.045	0.217
-161.779	31.658	-0.162	0.139
-160.764	206.801	0.060	0.094
-159.750	-5.516	-0.337	0.231
-158.735	-50.530	0.161	0.076
-157.720	-53.078	0.381	0.175
-156.706	17.000	-0.293	0.232
-155.691	-119.082	0.327	-0.057
-154.677	-110.606	-0.219	0.045
-153.662	-12.635	0.044	0.029
-152.647	-200.000	-0.057	-0.314
-151.633	-200.000	0.011	0.056
-150.618	-200.000	0.006	-0.080
-149.604	800.000	0.020	-0.064
-148.589	-22.434	0.455	0.275
-147.574	45.512	0.203	-0.187
-146.560	27.426	0.116	-0.097
-145.545	31.362	-0.140	0.120
-144.531	63.851	-0.308	0.309
-143.516	127.587	-0.079	-0.100
-142.502	-200.000	0.000	-0.165
-141.487	184.791	-0.173	-0.256
-140.472	498.475	-0.136	0.313
-139.458	-168.045	-0.090	0.003
-138.443	-51.959	-0.328	-0.152
-137.429	402.349	-0.067	0.140
-136.414	631.529	0.059	0.149
-135.399	182.808	0.140	-0.206
-134.385	9.422	-0.268	-0.203
-133.370	800.000	0.036	-0.110
-132.356	-77.498	-0.207	0.072
-131.341	-60.362	0.114	-0.048
-130.326	-200.000	-0.072	0.471
-129.312	-36.030	-0.215	-0.116
-128.297	-114.529	0.518	0.099
-127.283	291.159	-0.173	0.314
-126.268	-57.451	-0.294	0.129
-125.253	183.085	-0.128	-0.189
-124.239	797.598	-0.065	0.180
-123.224	-17.890	-0.135	0.084
-122.210	800.000	0.020	0.054
