DTS Sentinel unit serial number:	SN413079Multiplexer serial number:	ORYXHardware model number:	OX4-SRSoftware version number:	ORYX F/W v4.00 Oryx Data Collector v3.7.2.0data status	okinstallation	princeton_trtdifferential loss correction	single-endedforward channel	channel 4reverse channel	N/Adate	2019/09/11time	14:15:11forward acquisition time	60.00reverse acquisition time	0.00gamma	496.2192k internal	0.2282k external	0.2282temperature offset calibration	1.0006default loss term (dB/km)	0.3790temperature slope calibration	1.0000multiplexer offset coefficient	1.0000multiplexer slope coefficient	1.0000fibre end	0.00T internal ref (°C)	41.94T ext. ref 1 (°C)	0.87T ext. ref 2 (°C)	37.81length (m)	temperature (°C)	Stokes	anti-Stokes-747.200	800.000	0.072	0.232
-746.185	461.632	0.105	0.240
-745.171	-200.000	0.028	-0.149
-744.156	-28.746	-0.147	-0.087
-743.142	479.460	0.060	0.140
-742.127	537.363	0.137	0.335
-741.112	365.765	-0.012	0.026
-740.098	-47.261	0.069	0.035
-739.083	-96.381	-0.273	-0.074
-738.069	101.110	0.107	0.128
-737.054	185.309	-0.142	-0.216
-736.039	198.400	-0.213	0.335
-735.025	-67.377	0.091	0.037
-734.010	115.514	-0.283	-0.356
-732.996	-124.055	-0.041	-0.007
-731.981	-72.535	-0.141	0.053
-730.966	-200.000	0.013	0.198
-729.952	-114.093	-0.335	-0.067
-728.937	252.115	-0.186	-0.325
-727.923	125.871	-0.094	-0.122
-726.908	-200.000	-0.037	0.387
-725.894	58.263	-0.180	0.182
-724.879	-200.000	-0.002	0.222
-723.864	-26.383	-0.087	-0.052
-722.850	-200.000	-0.014	0.240
-721.835	-0.779	-0.173	0.126
-720.821	36.298	-0.165	-0.149
-719.806	-200.000	-0.063	-0.315
-718.791	-47.605	0.154	0.077
-717.777	-65.098	0.246	-0.102
-716.762	427.729	-0.175	-0.387
-715.748	-102.366	0.137	-0.034
-714.733	8.133	0.060	-0.046
-713.718	-62.492	0.280	0.120
-712.704	92.300	0.247	-0.286
-711.689	800.000	0.100	-0.311
-710.675	-126.554	-0.417	0.064
-709.660	800.000	0.093	-0.336
-708.645	-12.899	0.022	-0.015
-707.631	-200.000	0.002	-0.071
-706.616	-2.841	-0.145	-0.104
-705.602	-37.962	-0.101	0.055
-704.587	-65.644	-0.178	0.073
-703.572	38.362	0.164	-0.150
-702.558	-200.000	0.033	0.221
-701.543	-106.208	-0.310	0.071
-700.529	715.017	0.043	0.116
-699.514	-37.291	-0.168	0.092
-698.499	-178.529	-0.102	-0.002
-697.485	800.000	-0.052	0.194
-696.470	-200.000	-0.006	0.031
-695.456	-143.544	0.280	-0.027
-694.441	-138.722	0.285	0.032
-693.426	67.477	-0.277	0.290
-692.412	11.897	-0.228	0.179
-691.397	-71.176	0.027	0.010
-690.383	-200.000	0.002	0.312
-689.368	31.614	-0.222	0.196
-688.354	-27.194	0.387	0.231
-687.339	211.707	-0.117	0.190
-686.324	-200.000	0.036	-0.300
-685.310	-130.558	0.251	0.035
-684.295	10.377	-0.091	0.071
-683.281	-140.827	0.037	-0.004
-682.266	65.705	-0.113	0.118
-681.251	-200.000	-0.001	0.356
-680.237	-200.000	-0.021	0.120
-679.222	-23.673	-0.093	-0.057
-678.208	359.297	0.036	0.074
-677.193	-80.413	-0.154	-0.053
-676.178	-192.239	-0.313	0.003
-675.164	164.876	-0.237	-0.343
-674.149	-200.000	0.051	0.282
-673.135	-126.886	0.009	-0.001
-672.120	-52.600	0.107	-0.051
-671.105	302.000	0.064	0.121
-670.091	800.000	0.076	-0.292
-669.076	-54.810	-0.169	0.078
-668.062	79.356	0.130	-0.143
-667.047	-53.535	0.422	0.198
-666.032	-111.179	-0.197	0.041
-665.018	-23.541	0.114	-0.070
-664.003	-74.865	-0.286	-0.105
-662.989	-57.533	-0.099	-0.045
-661.974	-200.000	-0.011	-0.104
-660.959	75.828	-0.151	0.163
-659.945	-142.376	-0.215	0.022
-658.930	-92.227	0.214	-0.062
-657.916	-200.000	0.017	-0.109
-656.901	-10.834	0.170	0.115
-655.886	-123.718	0.239	0.039
-654.872	309.055	-0.053	-0.102
-653.857	-200.000	-0.015	0.110
-652.843	-2.749	0.142	0.102
-651.828	800.000	0.033	-0.125
-650.814	-128.307	-0.105	0.015
-649.799	270.692	0.112	-0.201
-648.784	-104.010	0.189	0.045
-647.770	-67.859	-0.337	-0.135
-646.755	-58.251	0.234	0.104
-645.741	-72.775	0.170	0.064
-644.726	249.690	0.133	0.232
-643.711	545.045	0.115	-0.282
-642.697	41.473	0.198	-0.183
-641.682	30.636	0.154	-0.135
-640.668	-200.000	-0.041	-0.310
-639.653	800.000	-0.023	0.071
-638.638	39.509	-0.051	-0.046
-637.624	95.363	-0.212	-0.247
-636.609	800.000	0.032	-0.093
-635.595	-2.969	-0.219	0.156
-634.580	-200.000	-0.083	-0.508
-633.565	33.726	-0.285	0.254
-632.551	-66.922	-0.344	0.139
-631.536	334.273	-0.159	0.315
-630.522	197.333	-0.034	-0.054
-629.507	126.247	-0.131	-0.170
-628.492	-141.076	-0.226	-0.024
-627.478	-51.524	0.184	0.088
-626.463	-135.932	0.132	-0.016
-625.449	800.000	0.057	0.180
-624.434	-10.624	0.139	0.094
-623.419	29.538	-0.240	-0.209
-622.405	800.000	0.107	-0.409
-621.390	-59.252	0.246	0.108
-620.376	-1.357	0.091	0.065
-619.361	305.699	-0.064	-0.122
-618.346	66.492	0.216	0.224
-617.332	567.861	-0.018	0.046
-616.317	-200.000	-0.067	-0.386
-615.303	-168.279	-0.246	0.010
-614.288	208.004	0.177	-0.283
-613.273	99.208	-0.171	-0.202
-612.259	-151.357	0.413	-0.031
-611.244	800.000	0.057	0.184
-610.230	800.000	0.018	0.077
-609.215	-123.701	-0.447	-0.072
-608.201	800.000	-0.007	0.029
-607.186	-200.000	0.000	-0.233
-606.171	800.000	-0.025	0.089
-605.157	155.527	-0.118	0.165
-604.142	-86.222	-0.314	-0.099
-603.128	-200.000	0.058	0.277
-602.113	-200.000	-0.019	0.151
-601.098	135.004	0.148	-0.196
-600.084	-200.000	0.073	-0.384
-599.069	-171.764	0.157	0.005
-598.055	-164.798	-0.275	0.013
-597.040	800.000	0.097	-0.336
-596.025	-178.495	-0.409	0.010
-595.011	-200.000	0.068	0.395
-593.996	-15.551	0.316	0.206
-592.982	45.830	-0.324	0.306
-591.967	62.645	0.228	-0.233
-590.952	58.068	-0.241	-0.242
-589.938	480.064	-0.138	-0.319
-588.923	-200.000	0.045	-0.306
-587.909	800.000	0.111	-0.443
-586.894	-31.359	0.192	-0.110
-585.879	-200.000	0.009	-0.085
-584.865	700.610	0.060	-0.162
-583.850	103.538	0.054	-0.064
-582.836	-71.116	0.117	-0.045
-581.821	-200.000	-0.004	-0.146
-580.806	282.267	-0.003	0.005
-579.792	82.051	0.147	0.163
-578.777	12.618	0.259	0.204
-577.763	-176.430	0.356	-0.009
-576.748	208.059	0.145	-0.232
-575.733	277.836	0.076	0.138
-574.719	20.451	0.149	-0.123
-573.704	-200.000	0.009	0.085
-572.690	-200.000	-0.019	-0.184
-571.675	15.146	-0.351	-0.281
-570.661	-26.477	0.265	0.159
-569.646	194.080	-0.098	-0.151
-568.631	155.509	-0.077	-0.108
-567.617	15.746	-0.202	0.162
-566.602	-11.201	-0.089	0.060
-565.588	-77.211	-0.289	0.103
-564.573	3.092	-0.216	0.160
-563.558	422.221	0.168	-0.368
-562.544	-200.000	0.073	-0.366
-561.529	553.177	0.099	-0.242
-560.515	-200.000	0.003	0.148
-559.500	272.013	0.004	0.008
-558.485	-200.000	-0.006	-0.270
-557.471	-16.838	-0.131	-0.084
-556.456	34.333	-0.087	0.077
-555.442	-192.873	-0.247	0.002
-554.427	19.384	0.185	-0.152
-553.412	53.641	0.098	-0.096
-552.398	-90.773	-0.343	-0.101
-551.383	-79.134	0.363	-0.126
-550.369	-200.000	-0.035	0.165
-549.354	-155.714	0.019	0.001
-548.339	800.000	0.040	-0.122
-547.325	34.303	0.226	0.201
-546.310	-128.722	-0.149	0.021
-545.296	-200.000	-0.030	-0.252
-544.281	-166.389	0.154	0.007
-543.266	-200.000	0.012	0.257
-542.252	800.000	-0.070	-0.309
-541.237	-154.025	0.108	0.007
-540.223	-37.786	-0.162	0.088
-539.208	11.293	0.175	0.137
-538.193	-62.696	-0.195	0.083
-537.179	-158.249	-0.240	0.014
-536.164	800.000	0.065	-0.220
-535.150	-19.876	-0.132	-0.083
-534.135	-200.000	0.018	0.176
-533.121	-41.850	0.081	-0.042
-532.106	638.992	0.073	0.189
-531.091	519.995	-0.262	0.627
-530.077	-181.860	-0.119	0.002
-529.062	-200.000	-0.017	-0.209
-528.048	-101.860	-0.142	0.035
-527.033	800.000	0.056	0.239
-526.018	136.950	-0.113	0.151
-525.004	-78.143	-0.179	0.063
-523.989	-102.324	-0.315	0.077
-522.975	-200.000	0.236	0.000
-521.960	-200.000	0.011	-0.178
-520.945	-98.670	-0.601	0.156
-519.931	572.767	-0.094	0.234
-518.916	800.000	-0.091	-0.310
-517.902	-200.000	0.023	-0.259
-516.887	337.754	0.146	0.289
-515.872	-129.789	0.286	0.040
-514.858	-86.535	-0.051	0.016
-513.843	800.000	0.027	0.080
-512.829	800.000	-0.059	-0.181
-511.814	50.847	-0.049	-0.047
-510.799	587.483	-0.144	0.360
-509.785	-200.000	0.024	0.256
-508.770	364.248	-0.006	0.012
-507.756	177.507	-0.179	-0.266
-506.741	20.302	0.052	0.043
-505.726	-198.546	-0.119	0.001
-504.712	5.111	-0.189	0.142
-503.697	17.479	0.339	0.274
-502.683	-124.718	0.194	-0.031
-501.668	-8.325	-0.164	0.112
-500.653	34.037	0.047	-0.042
-499.639	129.965	0.071	0.093
-498.624	25.981	-0.306	-0.260
-497.610	-200.000	-0.006	-0.285
-496.595	-146.596	-0.113	0.010
-495.581	800.000	0.077	0.293
-494.566	0.249	0.234	0.170
-493.551	-200.000	-0.024	0.223
-492.537	800.000	0.056	0.179
-491.522	-200.000	0.030	0.316
-490.508	800.000	-0.027	0.108
-489.493	365.349	-0.102	-0.210
-488.478	-200.000	0.023	-0.108
-487.464	362.708	0.099	-0.202
-486.449	-200.000	0.027	-0.283
-485.435	16.211	0.172	-0.138
-484.420	-8.633	-0.191	0.130
-483.405	-198.616	-0.139	-0.001
-482.391	-200.000	0.048	-0.323
-481.376	545.201	-0.118	-0.287
-480.362	251.362	-0.138	0.238
-479.347	800.000	0.031	0.139
-478.332	358.629	0.141	0.286
-477.318	340.064	-0.097	0.192
-476.303	321.558	-0.100	-0.194
-475.289	800.000	-0.112	-0.391
-474.274	-45.097	-0.266	-0.135
-473.259	401.940	-0.154	-0.329
-472.245	800.000	-0.050	0.163
-471.230	290.417	0.116	0.215
-470.216	-127.058	0.066	0.010
-469.201	574.662	-0.092	-0.228
-468.186	122.851	0.194	0.247
-467.172	1.487	-0.295	-0.216
-466.157	-91.165	-0.226	0.066
-465.143	-50.296	0.271	-0.130
-464.128	444.710	0.032	0.071
-463.113	115.517	0.219	0.272
-462.099	283.683	-0.116	0.212
-461.084	-89.126	0.069	-0.021
-460.070	-37.727	-0.228	-0.124
-459.055	-200.000	-0.005	0.108
-458.040	-200.000	0.028	0.214
-457.026	-200.000	0.002	-0.011
-456.011	645.581	0.039	0.100
-454.997	177.873	0.240	0.355
-453.982	800.000	0.068	-0.240
-452.968	-100.430	-0.392	0.099
-451.953	800.000	-0.093	-0.262
-450.938	77.522	0.359	0.389
-449.924	800.000	0.119	-0.381
-448.909	-200.000	-0.024	0.227
-447.895	101.721	0.163	0.194
-446.880	-200.000	-0.012	-0.143
-445.865	-80.270	-0.264	-0.090
-444.851	20.108	-0.089	-0.073
-443.836	-161.261	-0.349	0.018
-442.822	-200.000	0.048	-0.284
-441.807	2.614	0.124	0.091
-440.792	71.930	-0.130	0.137
-439.778	-43.413	0.309	-0.159
-438.763	-200.000	0.010	-0.472
-437.749	-101.332	0.266	0.066
-436.734	622.460	0.156	0.400
-435.719	18.847	-0.214	-0.174
-434.705	-200.000	-0.028	0.538
-433.690	-183.497	0.426	-0.007
-432.676	2.013	-0.210	0.154
-431.661	33.795	-0.330	-0.291
-430.646	-200.000	0.048	-0.231
-429.632	-200.000	0.018	0.080
-428.617	181.396	-0.183	0.273
-427.603	14.751	-0.073	-0.058
-426.588	-123.811	0.238	0.038
-425.573	800.000	0.042	0.182
-424.559	-200.000	-0.011	0.198
-423.544	-179.772	0.315	-0.007
-422.530	-70.347	0.245	0.094
-421.515	-30.847	0.043	-0.025
-420.500	8.021	0.374	-0.285
-419.486	-200.000	-0.000	0.198
-418.471	-200.000	0.002	-0.182
-417.457	268.505	-0.088	0.156
-416.442	377.783	0.143	0.296
-415.428	-113.121	0.336	0.067
-414.413	-200.000	0.043	0.210
-413.398	322.217	0.053	0.102
-412.384	129.253	0.061	0.079
-411.369	-18.276	0.200	0.127
-410.355	9.570	-0.105	-0.081
-409.340	-200.000	0.143	0.000
-408.325	-116.116	-0.200	-0.038
-407.311	-195.181	-0.202	0.002
-406.296	162.653	-0.277	0.394
-405.282	-146.738	0.124	0.011
-404.267	-66.148	0.221	0.089
-403.252	800.000	-0.021	0.077
-402.238	554.810	0.094	-0.230
-401.223	-33.215	-0.104	-0.059
-400.209	-200.000	-0.022	0.336
-399.194	-79.482	-0.347	0.119
-398.179	-37.106	-0.141	-0.077
-397.165	-200.000	0.061	0.474
-396.150	5.954	0.076	0.057
-395.136	-124.611	-0.289	0.046
-394.121	-89.372	0.240	-0.072
-393.106	6.261	0.118	-0.089
-392.092	-65.950	-0.159	0.064
-391.077	290.196	0.049	0.091
-390.063	-17.127	0.270	-0.173
-389.048	-42.976	-0.068	-0.035
-388.033	-73.007	0.200	0.074
-387.019	-122.481	-0.354	0.058
-386.004	211.470	0.063	-0.100
-384.990	800.000	0.095	-0.308
-383.975	800.000	0.045	-0.176
-382.960	233.770	0.166	0.277
-381.946	-167.218	0.304	-0.012
-380.931	346.906	0.087	-0.173
-379.917	-97.410	-0.104	-0.027
-378.902	609.559	-0.124	0.314
-377.888	-8.055	-0.298	-0.204
-376.873	12.176	0.095	-0.074
-375.858	-200.000	0.049	0.350
-374.844	300.139	0.167	0.311
-373.829	-87.507	-0.131	0.040
-372.815	302.237	-0.086	-0.161
-371.800	-70.645	-0.111	-0.042
-370.785	-3.869	-0.302	-0.213
-369.771	-109.900	-0.163	0.035
-368.756	72.474	0.077	0.081
-367.742	-128.056	0.067	-0.010
-366.727	547.908	0.119	0.290
-365.712	181.228	0.173	0.258
-364.698	-60.598	0.072	0.031
-363.683	-200.000	0.015	-0.207
-362.669	-42.061	0.234	-0.121
-361.654	-200.000	-0.031	0.173
-360.639	375.218	0.078	0.161
-359.625	674.737	0.114	0.301
-358.610	-63.443	0.307	0.128
-357.596	-200.000	-0.013	-0.242
-356.581	-183.315	-0.297	-0.005
-355.566	8.583	-0.154	-0.117
-354.552	196.946	-0.092	0.142
-353.537	800.000	-0.090	-0.314
-352.523	-144.212	0.526	-0.050
-351.508	-69.427	0.325	-0.126
-350.493	117.004	0.222	0.275
-349.479	641.500	-0.100	0.259
-348.464	81.588	-0.095	-0.104
-347.450	-53.875	0.364	-0.168
-346.435	-115.956	-0.173	0.033
-345.420	-200.000	0.022	-0.500
-344.406	-60.780	-0.233	0.100
-343.391	-200.000	-0.013	0.069
-342.377	-200.000	-0.052	0.415
-341.362	82.869	0.070	0.077
-340.348	33.707	-0.063	-0.056
-339.333	800.000	0.133	-0.438
-338.318	-94.222	0.098	-0.027
-337.304	-87.281	-0.139	0.043
-336.289	107.673	-0.173	0.208
-335.275	-172.034	-0.250	-0.008
-334.260	-34.830	0.125	0.069
-333.245	173.366	0.153	-0.223
-332.231	137.561	-0.203	0.269
-331.216	-3.085	0.302	0.213
-330.202	241.347	-0.060	0.101
-329.187	-30.938	0.386	-0.220
-328.172	-33.510	-0.170	-0.095
-327.158	800.000	0.076	-0.279
-326.143	32.683	0.213	-0.186
-325.129	-15.831	0.251	-0.162
-324.114	-44.208	0.467	0.237
-323.099	-200.000	0.107	0.582
-322.085	205.406	-0.106	-0.167
-321.070	-122.602	-0.237	0.039
-320.056	213.537	-0.099	0.158
-319.041	-17.674	0.253	0.161
-318.026	-19.665	-0.024	-0.015
-317.012	800.000	-0.054	0.187
-315.997	-97.762	-0.167	-0.044
-314.983	40.652	-0.089	-0.081
-313.968	50.077	0.264	-0.252
-312.953	-19.330	-0.109	0.068
-311.939	-200.000	-0.018	-0.133
-310.924	-128.195	-0.281	0.041
-309.910	-200.000	-0.016	0.126
-308.895	800.000	0.063	-0.243
-307.880	-102.421	0.445	-0.108
-306.866	-151.912	-0.219	-0.016
-305.851	613.489	0.097	0.246
-304.837	342.895	-0.016	-0.031
-303.822	244.505	0.024	-0.042
-302.807	68.994	-0.162	0.168
-301.793	-200.000	0.031	-0.210
-300.778	-77.836	-0.098	0.034
-299.764	-16.436	0.273	-0.175
-298.749	-85.754	-0.267	-0.084
-297.735	-47.910	-0.287	-0.140
-296.720	-88.249	0.344	-0.104
-295.705	-67.007	-0.185	0.074
-294.691	229.930	-0.148	0.245
-293.676	800.000	0.017	-0.066
-292.662	-34.070	-0.170	-0.094
-291.647	-200.000	-0.012	0.248
-290.632	-159.231	-0.077	0.004
-289.618	297.151	0.047	-0.086
-288.603	96.319	0.176	-0.203
-287.589	-200.000	0.018	0.337
-286.574	800.000	0.122	0.367
-285.559	341.732	-0.063	-0.124
-284.545	-41.152	0.456	0.238
-283.530	-62.426	0.233	0.098
-282.516	-64.166	-0.324	-0.133
-281.501	-11.055	0.289	0.193
-280.486	171.297	0.094	-0.137
-279.472	-75.042	-0.100	-0.036
-278.457	-34.360	-0.126	0.070
-277.443	36.353	-0.083	0.074
-276.428	16.695	0.172	0.137
-275.413	58.286	0.110	-0.109
-274.399	-68.251	0.208	0.082
-273.384	152.183	-0.071	0.098
-272.370	-44.924	-0.225	0.113
-271.355	77.276	-0.147	-0.158
-270.340	-17.726	-0.136	0.086
-269.326	46.844	0.066	0.062
-268.311	96.442	-0.178	0.205
-267.297	-200.000	0.000	0.333
-266.282	-57.287	0.271	-0.120
-265.267	586.159	-0.160	-0.396
-264.253	800.000	0.063	-0.230
-263.238	-200.000	-0.012	-0.243
-262.224	343.747	0.033	-0.065
-261.209	166.513	0.104	-0.149
-260.195	19.265	-0.143	0.116
-259.180	61.395	0.113	0.113
-258.165	33.900	-0.103	0.091
-257.151	-200.000	-0.028	0.191
-256.136	-32.036	0.139	0.079
-255.122	800.000	0.056	-0.233
-254.107	-109.093	0.220	-0.047
-253.092	-200.000	-0.059	-0.455
-252.078	-14.622	0.070	-0.046
-251.063	800.000	0.060	0.182
-250.049	-200.000	-0.017	0.215
-249.034	-200.000	0.007	0.145
-248.019	112.822	-0.234	-0.286
-247.005	220.862	0.074	-0.119
-245.990	-200.000	0.002	0.152
-244.976	-76.163	-0.347	-0.124
-243.961	34.527	0.123	0.109
-242.946	204.542	0.133	-0.208
-241.932	137.708	0.040	0.053
-240.917	57.310	-0.205	-0.201
-239.903	12.681	-0.220	-0.171
-238.888	800.000	0.079	-0.225
-237.873	-153.103	0.243	-0.017
-236.859	118.905	-0.096	-0.119
-235.844	160.635	-0.050	0.071
-234.830	142.960	-0.181	0.242
-233.815	181.635	-0.233	-0.346
-232.800	282.203	-0.097	0.176
-231.786	81.969	-0.055	0.060
-230.771	-50.056	-0.049	0.023
-229.757	-35.186	0.059	-0.032
-228.742	-200.000	-0.010	-0.317
-227.727	-119.954	0.128	-0.022
-226.713	-200.000	-0.045	-0.203
-225.698	-145.386	-0.241	0.022
-224.684	197.200	0.091	0.139
-223.669	249.867	0.142	-0.243
-222.655	798.732	-0.069	-0.190
-221.640	-8.382	-0.107	0.072
-220.625	76.484	0.180	-0.193
-219.611	-48.132	0.275	-0.134
-218.596	683.881	-0.123	0.324
-217.582	309.832	0.128	-0.240
-216.567	27.224	0.044	-0.037
-215.552	-162.238	0.249	0.013
-214.538	-145.739	0.364	-0.033
-213.523	-200.000	0.023	0.243
-212.509	-154.466	-0.440	0.030
-211.494	83.479	-0.190	0.208
-210.479	-186.074	0.156	-0.002
-209.465	-200.000	0.009	0.047
-208.450	-200.000	0.011	0.051
-207.436	109.737	-0.089	-0.108
-206.421	-31.055	0.038	-0.022
-205.406	-200.000	0.021	-0.222
-204.392	140.532	-0.131	-0.174
-203.377	194.931	0.139	-0.212
-202.363	117.935	0.155	-0.192
-201.348	-24.421	0.109	-0.065
-200.333	800.000	-0.041	-0.120
-199.319	-200.000	0.023	-0.178
-198.304	-139.125	0.127	-0.014
-197.290	-200.000	0.089	0.468
-196.275	-116.986	-0.118	0.022
-195.260	-96.774	0.108	0.029
-194.246	-18.871	0.088	0.055
-193.231	-58.665	-0.164	0.071
-192.217	-42.548	-0.420	-0.216
-191.202	-104.223	0.142	0.033
-190.187	81.723	-0.171	0.186
-189.173	-49.265	0.142	-0.068
-188.158	-137.295	-0.147	-0.017
-187.144	130.254	0.085	-0.109
-186.129	114.164	-0.017	0.021
-185.114	247.902	-0.082	0.139
-184.100	24.150	-0.408	0.339
-183.085	800.000	0.099	0.398
-182.071	800.000	0.115	-0.344
-181.056	39.679	-0.186	0.168
-180.042	-11.888	0.263	0.173
-179.027	-4.468	-0.187	0.130
-178.012	-19.335	-0.218	-0.136
-176.998	-80.881	-0.286	-0.095
-175.983	-200.000	0.003	0.149
-174.969	-104.864	-0.322	-0.074
-173.954	-72.138	0.341	-0.127
-172.939	82.584	0.085	0.092
-171.925	-76.397	0.129	0.046
-170.910	800.000	0.126	0.380
-169.896	-150.500	0.297	0.023
-168.881	322.583	0.019	0.036
-167.866	-200.000	-0.029	0.176
-166.852	800.000	0.087	-0.364
-165.837	-41.668	-0.206	0.106
-164.823	-200.000	0.007	-0.402
-163.808	-102.612	-0.151	0.036
-162.793	-128.368	0.198	0.028
-161.779	-121.161	0.118	0.020
-160.764	79.720	-0.112	-0.120
-159.750	800.000	-0.111	0.327
-158.735	-94.203	-0.362	0.099
-157.720	182.343	-0.150	0.222
-156.706	212.494	-0.115	-0.182
-155.691	-200.000	0.036	0.297
-154.677	50.814	-0.101	0.096
-153.662	-112.871	-0.279	0.056
-152.647	-44.975	0.215	-0.108
-151.633	38.956	0.287	-0.258
-150.618	151.281	-0.045	0.061
-149.604	-104.697	-0.559	0.129
-148.589	-200.000	-0.014	0.205
-147.574	-48.817	0.062	-0.030
-146.560	40.624	0.299	0.270
-145.545	-200.000	-0.005	-0.050
-144.531	800.000	0.071	0.255
-143.516	-148.534	-0.223	-0.018
-142.502	208.770	-0.204	-0.320
-141.487	-56.720	-0.252	0.112
-140.472	168.954	-0.094	0.134
-139.458	159.788	0.124	-0.174
-138.443	79.696	-0.191	-0.206
-137.429	40.735	-0.089	-0.081
-136.414	-200.000	-0.010	0.539
-135.399	-64.208	-0.270	0.111
-134.385	-200.000	-0.151	-0.000
-133.370	-171.614	-0.261	0.009
-132.356	-200.000	-0.002	-0.067
-131.341	39.763	0.366	0.330
-130.326	-77.012	0.182	0.064
-129.312	-55.254	-0.178	0.080
-128.297	137.341	-0.181	0.238
-127.283	800.000	-0.049	0.202
-126.268	282.824	0.065	0.118
-125.253	-200.000	-0.030	0.205
-124.239	-135.065	-0.198	0.024
-123.224	121.177	-0.062	-0.078
-122.210	-118.232	0.099	-0.018
-121.195	65.949	0.069	0.070
-120.180	-17.722	0.181	0.114
