DTS Sentinel unit serial number:	SN413079Multiplexer serial number:	ORYXHardware model number:	OX4-SRSoftware version number:	ORYX F/W v4.00 Oryx Data Collector v3.7.2.0data status	okinstallation	princeton_trtdifferential loss correction	single-endedforward channel	channel 4reverse channel	N/Adate	2019/09/11time	16:27:11forward acquisition time	60.00reverse acquisition time	0.00gamma	496.2192k internal	0.2275k external	0.2275temperature offset calibration	1.0021default loss term (dB/km)	0.3790temperature slope calibration	1.0000multiplexer offset coefficient	1.0000multiplexer slope coefficient	1.0000fibre end	0.00T internal ref (°C)	43.56T ext. ref 1 (°C)	1.07T ext. ref 2 (°C)	39.11length (m)	temperature (°C)	Stokes	anti-Stokes-747.200	800.000	0.051	0.155
-746.185	492.094	0.111	0.262
-745.171	-200.000	-0.028	0.187
-744.156	-3.203	-0.166	-0.120
-743.142	-96.942	-0.133	-0.036
-742.127	-27.985	0.058	0.034
-741.112	67.163	-0.094	-0.099
-740.098	393.385	0.155	0.332
-739.083	-48.475	0.136	-0.067
-738.069	-200.000	-0.055	0.291
-737.054	681.113	0.098	0.264
-736.039	-200.000	0.024	0.183
-735.025	-12.890	-0.067	0.045
-734.010	250.465	-0.096	0.168
-732.996	-64.724	-0.117	-0.049
-731.981	-42.266	-0.162	0.085
-730.966	-43.020	0.115	-0.060
-729.952	-200.000	0.004	0.365
-728.937	522.577	0.064	-0.154
-727.923	113.491	0.079	0.099
-726.908	12.726	0.347	0.276
-725.894	-13.094	-0.255	-0.171
-724.879	800.000	-0.028	0.093
-723.864	-200.000	-0.002	-0.024
-722.850	52.895	0.265	0.261
-721.835	-84.702	-0.252	0.082
-720.821	-56.570	0.092	-0.042
-719.806	800.000	0.018	0.065
-718.791	-200.000	-0.004	0.244
-717.777	-30.644	0.346	0.202
-716.762	-200.000	0.030	0.187
-715.748	-200.000	0.025	-0.162
-714.733	-141.380	0.148	0.015
-713.718	8.719	0.089	0.069
-712.704	-27.029	0.058	-0.035
-711.689	-45.217	-0.115	0.059
-710.675	-35.754	0.151	0.084
-709.660	-13.901	0.192	-0.127
-708.645	-112.890	-0.178	-0.036
-707.631	-48.376	-0.133	0.066
-706.616	1.899	0.333	-0.248
-705.602	275.618	-0.186	-0.339
-704.587	800.000	0.033	-0.129
-703.572	800.000	0.041	-0.119
-702.558	-20.762	-0.086	0.054
-701.543	-52.911	0.318	-0.151
-700.529	277.595	-0.092	-0.169
-699.514	354.548	-0.061	0.125
-698.499	59.864	-0.218	-0.222
-697.485	-31.611	-0.121	0.070
-696.470	800.000	0.066	0.263
-695.456	-82.443	-0.034	0.011
-694.441	121.772	0.057	0.073
-693.426	517.573	-0.229	-0.551
-692.412	-83.457	-0.264	0.087
-691.397	-29.133	0.317	-0.187
-690.383	45.388	0.182	-0.173
-689.368	-148.930	-0.258	0.021
-688.354	369.510	0.097	-0.203
-687.339	-87.336	-0.042	-0.013
-686.324	-124.244	0.146	0.023
-685.310	75.364	0.068	0.073
-684.295	-169.001	-0.154	-0.006
-683.281	258.755	0.047	-0.083
-682.266	85.082	0.068	0.076
-681.251	-118.421	0.454	0.083
-680.237	-102.082	-0.250	0.062
-679.222	399.154	-0.013	0.027
-678.208	-3.838	0.281	0.201
-677.193	-200.000	-0.036	0.178
-676.178	-42.445	0.207	0.108
-675.164	545.543	-0.094	-0.230
-674.149	-200.000	-0.060	-0.304
-673.135	800.000	-0.051	-0.212
-672.120	-122.918	0.166	0.027
-671.105	-161.820	0.322	0.017
-670.091	-22.163	-0.092	0.058
-669.076	-16.306	-0.192	0.125
-668.062	25.142	-0.174	-0.148
-667.047	106.752	-0.151	-0.184
-666.032	276.567	0.125	-0.229
-665.018	591.948	0.073	-0.187
-664.003	198.550	0.164	-0.258
-662.989	800.000	0.119	-0.488
-661.974	-4.759	0.278	0.197
-660.959	-200.000	-0.060	-0.323
-659.945	-87.948	-0.300	-0.093
-658.930	-153.055	0.315	0.023
-657.916	-64.517	0.154	0.064
-656.901	-21.690	-0.200	-0.125
-655.886	40.607	-0.115	0.107
-654.872	14.479	0.241	-0.193
-653.857	-85.764	-0.076	0.024
-652.843	-200.000	0.009	-0.284
-651.828	-200.000	-0.027	0.133
-650.814	-96.183	-0.347	-0.095
-649.799	-5.557	-0.176	0.124
-648.784	295.569	0.139	0.262
-647.770	-104.799	0.262	0.062
-646.755	-200.000	0.004	-0.168
-645.741	-200.000	-0.033	0.227
-644.726	98.220	0.143	0.170
-643.711	318.897	0.168	0.328
-642.697	-200.000	-0.032	-0.373
-641.682	162.070	-0.232	-0.334
-640.668	423.856	-0.058	0.127
-639.653	259.572	-0.057	0.102
-638.638	-115.999	-0.295	0.056
-637.624	800.000	0.067	-0.272
-636.609	-56.273	-0.228	-0.104
-635.595	3.521	-0.244	-0.183
-634.580	-200.000	0.194	0.001
-633.565	-200.000	-0.023	-0.339
-632.551	-200.000	0.031	-0.295
-631.536	53.536	-0.074	0.073
-630.522	-200.000	0.043	0.275
-629.507	800.000	-0.076	0.314
-628.492	-83.786	-0.277	0.091
-627.478	-200.000	0.025	-0.312
-626.463	-158.051	0.141	-0.009
-625.449	-126.902	0.076	0.011
-624.434	800.000	0.027	-0.099
-623.419	-98.489	-0.475	-0.125
-622.405	-25.838	-0.201	-0.122
-621.390	-73.800	0.097	0.036
-620.376	800.000	0.017	0.052
-619.361	-200.000	0.037	-0.278
-618.346	194.440	-0.250	-0.388
-617.332	800.000	0.025	0.090
-616.317	7.087	-0.185	0.141
-615.303	-155.804	-0.276	0.018
-614.288	37.557	0.074	0.068
-613.273	800.000	0.083	-0.300
-612.259	450.881	0.050	-0.114
-611.244	-200.000	0.006	-0.451
-610.230	-33.943	-0.094	0.053
-609.215	-200.000	0.048	0.334
-608.201	95.896	-0.066	-0.078
-607.186	154.453	-0.131	-0.184
-606.171	-101.446	-0.178	0.044
-605.157	76.420	-0.238	-0.258
-604.142	170.820	-0.249	-0.366
-603.128	198.292	0.039	0.062
-602.113	-54.748	0.311	0.144
-601.098	-63.554	0.416	0.175
-600.084	427.521	-0.089	-0.197
-599.069	-87.657	-0.189	-0.058
-598.055	-97.721	0.197	-0.052
-597.040	-200.000	0.020	0.219
-596.025	19.866	-0.084	-0.069
-595.011	-141.876	0.145	0.015
-593.996	124.261	0.211	-0.271
-592.982	62.457	-0.107	-0.110
-591.967	382.182	-0.106	-0.223
-590.952	-3.367	0.194	-0.139
-589.938	50.966	0.099	0.096
-588.923	-67.643	0.180	-0.072
-587.909	-121.488	0.437	-0.074
-586.894	307.966	-0.030	-0.058
-585.879	-58.611	0.123	-0.055
-584.865	-42.061	0.230	-0.121
-583.850	73.933	0.105	0.113
-582.836	195.402	0.094	0.146
-581.821	800.000	-0.069	-0.267
-580.806	-200.000	-0.022	-0.250
-579.792	-155.800	0.302	0.020
-578.777	123.773	0.028	-0.036
-577.763	85.381	-0.189	0.213
-576.748	-200.000	-0.008	0.145
-575.733	-51.141	-0.067	0.032
-574.719	-200.000	-0.001	0.144
-573.704	69.187	-0.080	-0.084
-572.690	-200.000	0.027	0.225
-571.675	16.636	-0.123	0.100
-570.661	370.591	-0.147	-0.306
-569.646	452.935	0.053	-0.120
-568.631	-200.000	0.014	-0.093
-567.617	8.730	-0.165	-0.127
-566.602	-122.558	0.214	-0.036
-565.588	800.000	-0.083	-0.333
-564.573	-23.050	-0.152	0.094
-563.558	35.214	0.133	0.120
-562.544	-1.022	-0.193	-0.140
-561.529	-45.564	-0.445	-0.226
-560.515	-200.000	0.041	0.287
-559.500	-103.736	0.146	-0.035
-558.485	54.278	0.130	0.128
-557.471	3.545	0.030	-0.023
-556.456	-117.424	-0.056	-0.010
-555.442	-200.000	-0.001	-0.030
-554.427	-200.000	-0.035	-0.169
-553.412	-153.368	-0.116	-0.008
-552.398	317.785	-0.124	0.241
-551.383	170.713	-0.242	0.354
-550.369	19.576	0.215	0.177
-549.354	-7.796	-0.075	-0.052
-548.339	357.600	0.123	-0.250
-547.325	-200.000	0.000	0.006
-546.310	-12.282	-0.174	0.117
-545.296	-120.403	-0.060	0.010
-544.281	54.728	0.239	-0.236
-543.266	-200.000	0.013	-0.100
-542.252	44.457	-0.234	-0.219
-541.237	521.283	0.047	0.113
-540.223	-3.625	0.110	0.078
-539.208	-5.153	-0.162	0.114
-538.193	22.914	-0.119	-0.100
-537.179	158.367	0.136	0.194
-536.164	-110.796	0.270	0.057
-535.150	88.217	0.239	0.271
-534.135	800.000	-0.021	-0.062
-533.121	62.907	-0.341	0.349
-532.106	-52.791	0.111	-0.052
-531.091	-51.027	0.253	-0.122
-530.077	-24.983	0.072	0.044
-529.062	800.000	-0.113	-0.491
-528.048	-102.135	-0.022	0.005
-527.033	-84.751	0.281	0.091
-526.018	223.919	-0.107	-0.177
-525.004	180.955	0.188	-0.282
-523.989	-0.941	0.265	0.191
-522.975	682.766	0.023	0.062
-521.960	-38.791	-0.145	-0.078
-520.945	800.000	0.016	0.069
-519.931	-119.385	0.292	0.052
-518.916	-200.000	0.017	0.093
-517.902	129.255	0.075	-0.097
-516.887	45.893	-0.099	0.094
-515.872	-34.084	-0.067	0.037
-514.858	-45.325	0.343	-0.174
-513.843	-4.887	0.133	-0.094
-512.829	-7.375	-0.174	0.120
-511.814	-17.662	0.022	0.014
-510.799	-40.443	0.085	0.045
-509.785	-21.595	0.110	0.068
-508.770	329.916	0.157	0.308
-507.756	-21.190	0.048	0.030
-506.741	469.933	0.037	-0.085
-505.726	28.331	0.274	0.237
-504.712	-140.522	-0.170	0.018
-503.697	307.067	0.094	0.179
-502.683	225.520	0.138	0.228
-501.668	549.852	-0.046	0.112
-500.653	86.406	0.073	-0.082
-499.639	133.443	-0.199	0.263
-498.624	800.000	0.036	-0.101
-497.610	-163.417	-0.061	-0.003
-496.595	8.264	-0.144	0.110
-495.581	-69.944	-0.191	0.074
-494.566	131.978	0.040	0.053
-493.551	-22.124	-0.156	0.097
-492.537	141.877	0.151	-0.204
-491.522	32.636	-0.055	0.049
-490.508	-200.000	0.017	0.241
-489.493	800.000	-0.121	0.376
-488.478	-200.000	0.008	-0.199
-487.464	-200.000	-0.026	0.150
-486.449	-106.351	-0.231	0.053
-485.435	-29.852	-0.228	0.132
-484.420	-200.000	-0.021	0.239
-483.405	-75.195	-0.141	0.051
-482.391	-99.248	0.375	0.097
-481.376	-36.888	0.177	-0.097
-480.362	223.783	0.027	0.045
-479.347	-152.342	0.286	0.021
-478.332	-200.000	0.048	-0.245
-477.318	55.600	0.073	-0.072
-476.303	251.581	-0.095	0.165
-475.289	-88.227	-0.202	0.062
-474.274	-87.169	0.347	0.108
-473.259	-31.333	0.128	-0.073
-472.245	800.000	0.052	-0.157
-471.230	-200.000	0.003	0.434
-470.216	-200.000	-0.052	-0.382
-469.201	-200.000	0.025	-0.363
-468.186	-166.020	0.291	0.013
-467.172	36.229	0.201	-0.180
-466.157	-43.690	0.341	0.176
-465.143	-200.000	-0.004	-0.044
-464.128	-200.000	-0.026	0.123
-463.113	-200.000	0.033	-0.314
-462.099	-113.618	-0.079	-0.016
-461.084	-140.556	0.258	0.027
-460.070	333.600	-0.037	0.074
-459.055	319.625	0.149	-0.288
-458.040	-35.189	0.163	-0.091
-457.026	36.021	0.188	-0.169
-456.011	800.000	0.043	-0.135
-454.997	800.000	0.035	0.110
-453.982	676.660	-0.026	-0.069
-452.968	-18.594	0.366	0.233
-451.953	-102.895	-0.144	0.035
-450.938	-106.110	0.355	-0.081
-449.924	-200.000	0.017	0.283
-448.909	75.672	-0.145	0.157
-447.895	57.576	-0.215	0.214
-446.880	-200.000	0.005	0.063
-445.865	21.701	0.052	0.043
-444.851	-57.187	-0.305	-0.137
-443.836	245.606	-0.105	0.180
-442.822	-64.465	-0.148	0.061
-441.807	-15.591	0.025	-0.016
-440.792	615.633	-0.139	-0.355
-439.778	-200.000	-0.008	-0.144
-438.763	-96.150	0.339	-0.092
-437.749	26.173	-0.187	0.159
-436.734	-168.082	0.755	-0.030
-435.719	132.843	-0.083	0.109
-434.705	0.949	-0.331	-0.242
-433.690	800.000	-0.042	0.150
-432.676	-200.000	0.028	0.175
-431.661	88.450	-0.145	0.164
-430.646	-15.846	0.179	0.116
-429.632	-72.510	-0.362	-0.136
-428.617	29.854	-0.114	-0.099
-427.603	10.149	0.285	0.220
-426.588	-179.749	-0.203	0.004
-425.573	16.883	-0.071	0.057
-424.559	-145.493	0.134	-0.012
-423.544	32.494	-0.259	-0.228
-422.530	112.243	0.087	0.108
-421.515	-96.114	-0.145	-0.039
-420.500	-69.080	0.179	0.070
-419.486	-200.000	-0.045	-0.585
-418.471	-200.000	-0.023	0.274
-417.457	-200.000	0.015	0.119
-416.442	-48.621	0.292	-0.143
-415.428	-200.000	-0.001	-0.180
-414.413	-77.158	-0.092	0.032
-413.398	800.000	0.116	0.339
-412.384	-59.482	-0.315	0.138
-411.369	-126.426	-0.440	-0.067
-410.355	-110.110	0.097	-0.021
-409.340	0.431	-0.103	0.075
-408.325	-131.691	0.079	0.011
-407.311	-125.382	0.177	-0.028
-406.296	-58.760	-0.044	-0.020
-405.282	8.103	-0.317	0.243
-404.267	442.722	0.114	-0.254
-403.252	-59.439	-0.147	0.064
-402.238	11.259	-0.249	-0.194
-401.223	325.957	-0.108	0.210
-400.209	-200.000	-0.002	-0.064
-399.194	-12.352	0.325	0.216
-398.179	62.140	-0.085	0.086
-397.165	44.376	-0.316	-0.296
-396.150	7.045	-0.051	0.038
-395.136	-79.685	-0.226	-0.077
-394.121	-46.309	-0.227	-0.114
-393.106	20.051	-0.137	0.112
-392.092	41.864	-0.145	-0.133
-391.077	-108.680	-0.043	-0.009
-390.063	-200.000	0.121	0.601
-389.048	596.663	-0.052	0.131
-388.033	5.810	0.435	-0.328
-387.019	220.003	-0.106	0.173
-386.004	80.241	-0.112	0.123
-384.990	-80.046	0.196	0.067
-383.975	-200.000	0.018	0.154
-382.960	-200.000	-0.008	-0.135
-381.946	800.000	-0.065	0.188
-380.931	448.026	-0.127	0.285
-379.917	-200.000	0.017	0.178
-378.902	36.211	-0.187	-0.167
-377.888	-200.000	0.048	-0.364
-376.873	-200.000	0.054	-0.303
-375.858	-78.409	-0.253	0.088
-374.844	-200.000	0.036	-0.460
-373.829	-200.000	0.028	-0.196
-372.815	317.255	0.111	-0.212
-371.800	132.200	0.203	0.266
-370.785	80.247	-0.198	-0.216
-369.771	614.193	0.099	0.252
-368.756	176.371	0.118	0.174
-367.742	168.218	0.051	-0.074
-366.727	186.534	0.039	0.060
-365.712	299.782	0.170	-0.319
-364.698	-93.724	0.145	0.041
-363.683	-76.497	-0.249	-0.089
-362.669	-89.571	0.368	-0.110
-361.654	22.301	0.145	0.121
-360.639	674.889	0.206	0.544
-359.625	-49.544	-0.048	0.023
-358.610	-29.322	0.126	0.073
-357.596	-101.930	0.070	-0.017
-356.581	790.570	0.052	0.146
-355.566	-77.404	-0.322	0.113
-354.552	-62.615	-0.155	-0.065
-353.537	524.921	0.149	-0.356
-352.523	-150.980	-0.106	-0.008
-351.508	323.440	0.097	-0.188
-350.493	69.234	-0.019	0.020
-349.479	-87.762	-0.186	0.057
-348.464	0.247	-0.270	0.196
-347.450	9.540	-0.234	0.180
-346.435	-130.245	0.240	-0.033
-345.420	621.212	-0.138	0.353
-344.406	735.660	0.198	0.538
-343.391	186.992	0.186	0.282
-342.377	52.687	-0.200	0.194
-341.362	-36.229	0.253	-0.139
-340.348	48.275	0.234	0.223
-339.333	-56.037	0.126	-0.057
-338.318	-77.512	0.253	0.089
-337.304	800.000	-0.018	-0.055
-336.289	-54.002	0.228	0.105
-335.275	167.137	-0.146	0.211
-334.260	-151.985	-0.145	-0.011
-333.245	-163.811	0.175	0.008
-332.231	19.949	0.222	-0.181
-331.216	36.715	-0.157	-0.141
-330.202	430.040	-0.130	-0.285
-329.187	2.837	0.129	-0.095
-328.172	-200.000	-0.013	-0.225
-327.158	-119.122	0.104	-0.019
-326.143	54.793	-0.285	-0.279
-325.129	312.316	0.084	0.161
-324.114	79.845	-0.155	-0.169
-323.099	-200.000	0.012	-0.078
-322.085	800.000	-0.009	-0.038
-321.070	279.053	-0.079	0.144
-320.056	410.601	0.027	-0.059
-319.041	-59.942	0.317	-0.137
-318.026	115.635	-0.304	-0.376
-317.012	302.832	0.009	-0.016
-315.997	-16.856	0.090	0.057
-314.983	-112.657	-0.157	0.032
-313.968	-168.468	-0.491	0.019
-312.953	91.426	-0.187	0.213
-311.939	800.000	-0.098	-0.317
-310.924	66.743	-0.174	-0.179
-309.910	-98.188	-0.159	-0.041
-308.895	800.000	0.062	-0.211
-307.880	216.174	0.177	-0.285
-306.866	-111.077	-0.132	-0.027
-305.851	-147.106	-0.062	0.005
-304.837	494.819	-0.094	0.219
-303.822	800.000	0.054	-0.165
-302.807	-156.560	0.386	-0.024
-301.793	-95.497	0.332	-0.090
-300.778	-200.000	0.003	-0.175
-299.764	226.416	-0.088	-0.145
-298.749	-88.258	-0.090	-0.027
-297.735	52.292	-0.112	0.109
-296.720	-42.783	0.309	0.159
-295.705	-33.933	0.078	-0.043
-294.691	-200.000	0.014	-0.115
-293.676	58.915	0.160	0.160
-292.662	800.000	-0.051	0.191
-291.647	-200.000	-0.035	-0.222
-290.632	777.007	-0.077	0.213
-289.618	339.704	0.141	-0.278
-288.603	-200.000	-0.006	-0.209
-287.589	-83.330	-0.026	0.008
-286.574	-200.000	-0.018	0.122
-285.559	-25.483	0.164	0.098
-284.545	143.267	0.089	-0.120
-283.530	-56.872	0.330	0.148
-282.516	-200.000	-0.009	-0.206
-281.501	-111.370	0.402	-0.083
-280.486	535.313	0.019	0.045
-279.472	-72.321	-0.195	0.073
-278.457	512.997	0.147	0.346
-277.443	498.843	0.155	-0.361
-276.428	78.115	-0.062	-0.067
-275.413	800.000	0.142	0.451
-274.399	32.843	-0.116	0.102
-273.384	72.688	0.110	0.116
-272.370	-200.000	-0.049	-0.000
-271.355	-61.510	0.347	-0.148
-270.340	800.000	-0.144	0.485
-269.326	-177.317	0.435	0.011
-268.311	-71.612	0.082	-0.031
-267.297	134.010	0.116	0.153
-266.282	13.931	0.301	0.237
-265.267	-163.372	-0.060	-0.003
-264.253	104.336	0.124	0.147
-263.238	87.011	-0.235	0.263
-262.224	-163.474	-0.296	0.014
-261.209	185.018	-0.046	0.070
-260.195	-200.000	-0.040	-0.189
-259.180	800.000	-0.036	-0.111
-258.165	329.076	0.111	-0.217
-257.151	392.200	-0.010	-0.022
-256.136	-200.000	0.033	-0.192
-255.122	-76.144	-0.095	-0.034
-254.107	-16.023	0.146	-0.094
-253.092	286.181	0.166	0.303
-252.078	91.543	-0.029	-0.033
-251.063	30.599	-0.131	0.114
-250.049	267.193	-0.133	0.236
-249.034	746.826	0.055	0.149
-248.019	800.000	-0.115	0.438
-247.005	-200.000	-0.007	0.055
-245.990	-76.693	0.188	0.067
-244.976	-200.000	-0.008	0.084
-243.961	125.036	-0.215	-0.274
-242.946	85.414	-0.076	0.085
-241.932	-200.000	0.011	0.306
-240.917	154.338	0.080	0.110
-239.903	-176.864	-0.092	-0.002
-238.888	249.767	0.071	-0.122
-237.873	800.000	0.049	-0.219
-236.859	220.270	-0.114	-0.184
-235.844	163.400	0.057	-0.082
-234.830	20.701	-0.223	0.183
-233.815	-180.683	-0.265	-0.005
-232.800	557.236	-0.053	-0.130
-231.786	30.119	-0.367	-0.317
-230.771	800.000	0.013	-0.058
-229.757	51.648	0.075	-0.072
-228.742	-200.000	0.034	-0.313
-227.727	-83.893	-0.122	0.039
-226.713	23.597	-0.053	-0.044
-225.698	163.930	-0.041	-0.058
-224.684	-7.539	-0.101	0.069
-223.669	-93.592	0.164	0.046
-222.655	800.000	-0.052	-0.219
-221.640	-200.000	-0.078	0.395
-220.625	-93.143	0.273	0.077
-219.611	325.198	-0.089	0.172
-218.596	-49.451	0.232	-0.112
-217.582	62.316	-0.129	-0.131
-216.567	-91.974	-0.131	0.038
-215.552	369.438	-0.040	-0.081
-214.538	238.297	-0.072	0.120
-213.523	-143.921	-0.276	0.026
-212.509	-97.819	0.185	-0.048
-211.494	76.423	0.205	-0.220
-210.479	-200.000	-0.006	0.114
-209.465	228.693	-0.033	-0.054
-208.450	-13.341	-0.083	0.054
-207.436	-200.000	0.015	-0.224
-206.421	-200.000	-0.228	0.001
-205.406	-134.671	-0.433	0.053
-204.392	365.469	0.163	0.331
-203.377	74.293	-0.114	0.121
-202.363	10.252	0.418	0.321
-201.348	-91.297	0.215	-0.062
-200.333	-200.000	-0.004	-0.208
-199.319	-200.000	-0.029	-0.176
-198.304	-200.000	-0.014	-0.166
-197.290	91.499	0.113	-0.128
-196.275	-57.879	0.152	-0.067
-195.260	-200.000	0.005	-0.177
-194.246	-121.802	0.241	-0.040
-193.231	-190.571	-0.286	-0.003
-192.217	108.192	0.098	-0.118
-191.202	-15.545	-0.183	0.118
-190.187	-93.944	-0.265	0.074
-189.173	-83.720	-0.195	0.063
-188.158	4.402	-0.238	-0.176
-187.144	-200.000	0.046	-0.364
-186.129	18.295	0.172	0.139
-185.114	-90.241	0.363	-0.106
-184.100	-80.811	-0.286	-0.096
-183.085	95.190	0.138	0.159
-182.071	-200.000	-0.011	0.110
-181.056	88.832	-0.179	0.201
-180.042	-15.436	0.101	0.065
-179.027	178.702	-0.244	0.360
-178.012	-82.787	-0.571	0.186
-176.998	-167.180	0.036	-0.001
-175.983	-97.131	0.177	0.047
-174.969	558.227	-0.046	-0.112
-173.954	-200.000	0.030	-0.280
-172.939	104.227	-0.053	-0.063
-171.925	75.722	-0.101	0.108
-170.910	-134.853	0.217	-0.027
-169.896	-156.671	-0.092	-0.006
-168.881	134.687	-0.117	-0.153
-167.866	4.550	0.241	-0.178
-166.852	-91.004	-0.074	0.022
-165.837	-118.327	-0.351	-0.063
-164.823	316.850	-0.086	0.164
-163.808	-44.432	0.376	0.190
-162.793	29.090	-0.176	0.150
-161.779	-117.671	-0.141	0.026
-160.764	385.075	0.107	0.223
-159.750	-200.000	0.004	0.094
-158.735	-7.570	-0.202	-0.138
-157.720	26.670	0.077	0.065
-156.706	-82.070	-0.203	-0.067
-155.691	800.000	0.044	0.142
-154.677	239.263	-0.110	-0.185
-153.662	-75.812	-0.202	-0.072
-152.647	125.075	-0.062	0.079
-151.633	-125.117	-0.145	0.022
-150.618	-46.109	0.153	0.076
-149.604	-34.985	-0.038	-0.021
-148.589	-194.204	0.163	0.001
-147.574	-44.595	0.058	-0.029
-146.560	-200.000	-0.007	-0.038
-145.545	-95.622	0.241	0.065
-144.531	-64.874	-0.316	0.129
-143.516	-192.524	-0.103	-0.001
-142.502	-200.000	-0.035	-0.155
-141.487	-200.000	-0.090	0.428
-140.472	533.470	0.136	-0.325
-139.458	-142.125	0.127	-0.013
-138.443	-74.661	-0.334	0.121
-137.429	-200.000	0.004	0.161
-136.414	199.682	-0.054	0.083
-135.399	0.868	-0.124	-0.089
-134.385	38.582	0.276	-0.248
-133.370	-200.000	-0.030	-0.224
-132.356	800.000	0.136	-0.439
-131.341	247.608	-0.156	-0.266
-130.326	9.488	-0.106	-0.081
-129.312	800.000	-0.039	0.109
-128.297	-200.000	-0.002	0.183
-127.283	-63.851	0.182	-0.075
-126.268	800.000	-0.042	0.159
-125.253	546.865	0.067	0.162
-124.239	327.568	0.091	-0.175
-123.224	800.000	-0.032	0.091
-122.210	-200.000	-0.044	0.274
-121.195	-15.942	0.244	0.156
-120.180	-78.796	0.161	-0.055
