DTS Sentinel unit serial number:	SN413079Multiplexer serial number:	ORYXHardware model number:	OX4-SRSoftware version number:	ORYX F/W v4.00 Oryx Data Collector v3.7.2.0data status	okinstallation	princeton_trtdifferential loss correction	single-endedforward channel	channel 4reverse channel	N/Adate	2019/09/11time	02:03:10forward acquisition time	60.00reverse acquisition time	0.00gamma	496.2192k internal	0.2318k external	0.2318temperature offset calibration	0.9946default loss term (dB/km)	0.3790temperature slope calibration	1.0000multiplexer offset coefficient	1.0000multiplexer slope coefficient	1.0000fibre end	0.00T internal ref (°C)	29.19T ext. ref 1 (°C)	-0.29T ext. ref 2 (°C)	23.18length (m)	temperature (°C)	Stokes	anti-Stokes-747.200	800.000	0.046	-0.151
-746.185	41.512	-0.227	0.208
-745.171	-200.000	-0.014	0.109
-744.156	-102.619	-0.237	0.057
-743.142	20.352	0.099	0.081
-742.127	54.902	0.062	0.061
-741.112	-137.533	-0.123	0.014
-740.098	-28.707	0.130	-0.076
-739.083	172.826	0.218	0.317
-738.069	-200.000	0.019	0.326
-737.054	-42.148	-0.168	-0.087
-736.039	-95.079	-0.029	0.008
-735.025	64.078	0.273	0.278
-734.010	337.781	-0.187	-0.367
-732.996	-35.527	-0.270	-0.148
-731.981	800.000	-0.071	-0.201
-730.966	800.000	-0.068	0.229
-729.952	-121.228	-0.196	0.033
-728.937	-34.861	-0.107	-0.059
-727.923	800.000	-0.015	0.066
-726.908	-200.000	-0.025	0.182
-725.894	89.833	-0.365	-0.412
-724.879	-19.412	-0.259	-0.162
-723.864	2.267	-0.322	-0.235
-722.850	134.976	0.047	-0.062
-721.835	15.698	-0.252	0.200
-720.821	800.000	0.073	0.232
-719.806	168.621	-0.324	-0.466
-718.791	374.675	-0.113	0.233
-717.777	-96.999	0.406	-0.107
-716.762	40.792	-0.188	-0.172
-715.748	-160.369	-0.068	0.004
-714.733	48.315	0.051	-0.049
-713.718	-28.162	0.409	-0.239
-712.704	-200.000	0.031	-0.145
-711.689	234.444	0.105	-0.176
-710.675	45.455	-0.287	-0.268
-709.660	228.947	-0.157	-0.258
-708.645	178.980	0.131	-0.193
-707.631	-198.365	0.126	0.001
-706.616	-200.000	0.061	-0.286
-705.602	105.422	-0.136	-0.162
-704.587	-163.900	0.112	0.005
-703.572	4.121	-0.079	0.059
-702.558	-200.000	0.036	-0.198
-701.543	800.000	-0.052	0.169
-700.529	392.889	0.150	0.315
-699.514	413.636	-0.117	-0.252
-698.499	-112.134	-0.244	-0.050
-697.485	-9.204	-0.270	0.182
-696.470	137.108	0.126	0.167
-695.456	142.847	-0.113	-0.152
-694.441	-200.000	0.011	-0.058
-693.426	-200.000	-0.018	0.105
-692.412	144.837	-0.175	0.236
-691.397	171.087	0.200	-0.290
-690.383	-200.000	-0.018	-0.336
-689.368	352.734	-0.117	0.233
-688.354	13.278	-0.432	-0.338
-687.339	25.426	0.277	-0.233
-686.324	-67.590	-0.076	0.030
-685.310	215.105	0.064	0.102
-684.295	-154.789	-0.396	0.026
-683.281	-12.994	-0.260	-0.171
-682.266	276.037	-0.059	0.105
-681.251	45.586	-0.135	0.126
-680.237	704.748	-0.138	0.366
-679.222	150.598	0.196	0.269
-678.208	800.000	-0.024	0.084
-677.193	-200.000	0.029	-0.246
-676.178	-200.000	0.011	-0.236
-675.164	196.946	-0.018	0.028
-674.149	-132.445	0.175	-0.023
-673.135	-200.000	0.018	-0.210
-672.120	495.743	0.128	0.297
-671.105	-62.979	-0.430	0.179
-670.091	-106.738	0.277	-0.062
-669.076	59.897	0.154	-0.153
-668.062	11.613	0.049	0.038
-667.047	-200.000	0.014	-0.306
-666.032	-200.000	0.026	-0.181
-665.018	-57.643	-0.199	0.088
-664.003	233.557	0.021	-0.034
-662.989	-161.528	0.411	0.021
-661.974	123.960	0.059	0.075
-660.959	-153.199	-0.212	-0.015
-659.945	-64.039	0.153	0.063
-658.930	-95.261	0.201	0.055
-657.916	-122.071	-0.208	-0.034
-656.901	31.659	0.301	0.261
-655.886	-200.000	-0.020	-0.287
-654.872	-170.636	-0.098	-0.003
-653.857	-82.245	0.122	-0.040
-652.843	7.917	0.170	0.129
-651.828	80.676	0.052	0.057
-650.814	-86.299	-0.288	0.089
-649.799	-178.184	-0.472	0.011
-648.784	-37.727	-0.148	-0.080
-647.770	-70.959	-0.359	-0.136
-646.755	17.649	0.092	-0.074
-645.741	-100.795	-0.110	0.027
-644.726	291.522	-0.059	-0.108
-643.711	-200.000	0.025	-0.339
-642.697	106.752	-0.221	0.264
-641.682	-89.564	-0.219	-0.065
-640.668	-152.689	-0.302	-0.022
-639.653	800.000	-0.030	-0.091
-638.638	-200.000	0.023	-0.454
-637.624	-113.417	0.094	0.018
-636.609	-72.096	0.376	-0.141
-635.595	55.056	0.200	-0.195
-634.580	579.005	0.049	-0.120
-633.565	-200.000	0.018	-0.084
-632.551	58.079	-0.141	-0.140
-631.536	40.495	0.221	-0.200
-630.522	109.695	-0.090	-0.108
-629.507	302.362	-0.137	0.255
-628.492	-11.181	0.157	-0.104
-627.478	-200.000	0.012	0.089
-626.463	-200.000	-0.016	-0.167
-625.449	374.490	0.044	-0.091
-624.434	-146.060	-0.507	-0.045
-623.419	-200.000	0.015	-0.089
-622.405	800.000	0.016	0.060
-621.390	-101.619	-0.314	-0.077
-620.376	-200.000	0.077	-0.384
-619.361	6.998	-0.096	-0.072
-618.346	-142.580	0.269	-0.027
-617.332	-200.000	-0.014	-0.140
-616.317	712.384	0.062	-0.166
-615.303	382.249	0.050	-0.104
-614.288	-94.005	-0.431	-0.119
-613.273	800.000	0.067	-0.209
-612.259	-200.000	0.004	0.119
-611.244	-59.076	-0.148	-0.064
-610.230	201.584	0.140	-0.217
-609.215	214.899	-0.045	-0.072
-608.201	470.807	-0.029	0.066
-607.186	-146.193	-0.127	0.011
-606.171	-200.000	0.066	-0.347
-605.157	-102.795	-0.420	-0.101
-604.142	-140.564	0.075	0.008
-603.128	393.238	0.092	-0.192
-602.113	-200.000	0.024	-0.439
-601.098	800.000	-0.103	-0.451
-600.084	39.446	0.102	0.092
-599.069	-23.987	-0.084	0.051
-598.055	800.000	0.060	0.198
-597.040	-76.547	0.050	0.018
-596.025	456.155	-0.140	0.313
-595.011	166.960	-0.250	0.357
-593.996	-200.000	-0.015	-0.208
-592.982	143.859	-0.123	0.165
-591.967	719.045	0.039	-0.105
-590.952	-95.088	0.276	-0.075
-589.938	-153.594	-0.357	-0.025
-588.923	550.996	0.149	0.360
-587.909	800.000	0.046	0.187
-586.894	-193.608	0.270	0.002
-585.879	-200.000	0.002	-0.053
-584.865	-12.260	0.318	0.209
-583.850	-21.097	-0.159	0.098
-582.836	-168.911	-0.077	0.003
-581.821	24.824	0.149	0.124
-580.806	-68.168	0.358	0.140
-579.792	-200.000	-0.038	0.249
-578.777	-200.000	0.006	-0.038
-577.763	4.992	-0.224	0.166
-576.748	198.976	0.053	0.081
-575.733	354.055	-0.194	-0.388
-574.719	46.876	0.239	-0.223
-573.704	-78.105	-0.144	-0.050
-572.690	-200.000	0.002	0.144
-571.675	-135.032	-0.369	0.045
-570.661	-200.000	-0.007	0.040
-569.646	800.000	0.016	0.065
-568.631	-70.787	0.238	-0.090
-567.617	-156.422	-0.238	0.015
-566.602	-110.785	0.157	0.033
-565.588	136.673	-0.200	0.263
-564.573	6.058	-0.084	-0.063
-563.558	122.925	0.040	0.051
-562.544	-78.695	-0.315	-0.108
-561.529	-102.069	-0.225	0.055
-560.515	386.510	0.134	0.278
-559.500	-2.514	0.362	0.255
-558.485	-34.504	0.295	0.162
-557.471	-124.557	-0.325	-0.051
-556.456	133.825	0.052	-0.068
-555.442	7.560	0.206	-0.154
-554.427	-115.133	-0.108	-0.021
-553.412	-2.364	-0.027	-0.019
-552.398	-72.011	-0.334	0.125
-551.383	-200.000	0.035	-0.244
-550.369	-12.906	0.154	-0.101
-549.354	-76.340	-0.058	-0.020
-548.339	-53.007	-0.091	-0.042
-547.325	108.328	-0.162	0.194
-546.310	-37.654	-0.270	-0.144
-545.296	25.511	-0.124	0.103
-544.281	249.669	0.080	0.137
-543.266	301.815	0.124	0.230
-542.252	-148.312	0.182	-0.015
-541.237	558.760	0.111	-0.268
-540.223	-32.414	0.163	-0.091
-539.208	16.532	0.102	-0.081
-538.193	43.106	-0.315	0.289
-537.179	3.885	-0.139	0.102
-536.164	72.202	0.161	-0.168
-535.150	-200.000	-0.004	0.174
-534.135	201.378	0.113	-0.175
-533.121	800.000	0.026	0.085
-532.106	-116.770	-0.278	-0.051
-531.091	250.275	0.096	0.163
-530.077	-120.444	-0.205	-0.035
-529.062	-89.918	-0.153	0.045
-528.048	-19.474	-0.220	0.137
-527.033	82.028	-0.077	0.084
-526.018	175.851	0.061	0.089
-525.004	127.881	0.170	0.216
-523.989	-200.000	0.007	0.117
-522.975	30.242	-0.199	0.170
-521.960	-200.000	0.022	-0.273
-520.945	-193.378	0.084	0.001
-519.931	-69.054	-0.125	0.048
-518.916	-113.942	0.148	-0.029
-517.902	800.000	0.064	-0.267
-516.887	-200.000	0.049	-0.267
-515.872	74.268	-0.051	0.054
-514.858	-55.794	0.127	0.057
-513.843	80.468	0.286	0.309
-512.829	-110.318	-0.230	0.048
-511.814	21.456	-0.180	0.147
-510.799	-63.479	-0.135	-0.056
-509.785	-114.485	-0.174	0.034
-508.770	14.827	-0.281	-0.221
-507.756	-200.000	-0.007	-0.244
-506.741	-172.423	-0.139	0.004
-505.726	-140.673	0.126	-0.013
-504.712	58.161	-0.367	-0.361
-503.697	7.647	-0.047	0.035
-502.683	185.900	-0.234	0.349
-501.668	-85.774	-0.311	-0.097
-500.653	-40.314	0.213	-0.111
-499.639	329.208	0.047	0.091
-498.624	-84.616	-0.150	0.047
-497.610	800.000	0.038	-0.137
-496.595	127.982	0.212	-0.270
-495.581	-200.000	-0.049	0.390
-494.566	537.738	0.125	-0.298
-493.551	155.040	0.100	-0.138
-492.537	144.157	-0.164	-0.219
-491.522	-200.000	0.020	-0.146
-490.508	470.168	-0.010	-0.022
-489.493	-87.611	0.100	0.030
-488.478	-155.803	-0.141	0.009
-487.464	-200.000	0.005	0.023
-486.449	-152.914	0.061	0.004
-485.435	-200.000	0.049	-0.330
-484.420	-59.665	-0.160	-0.069
-483.405	-52.778	0.119	-0.055
-482.391	-153.621	-0.234	-0.016
-481.376	41.516	-0.117	-0.106
-480.362	87.725	-0.147	-0.163
-479.347	-40.068	0.200	-0.104
-478.332	-200.000	0.020	0.175
-477.318	800.000	0.068	-0.243
-476.303	-69.209	0.334	0.129
-475.289	-113.193	-0.060	-0.012
-474.274	6.918	0.115	0.086
-473.259	-40.655	-0.303	-0.157
-472.245	-17.096	0.332	-0.210
-471.230	-200.000	-0.066	0.357
-470.216	-200.000	-0.009	0.060
-469.201	800.000	-0.008	-0.032
-468.186	-200.000	-0.055	0.451
-467.172	254.370	-0.086	0.147
-466.157	103.856	0.195	-0.230
-465.143	157.711	-0.111	-0.154
-464.128	13.645	-0.119	-0.092
-463.113	-9.950	0.357	0.237
-462.099	16.348	0.176	-0.139
-461.084	-140.410	-0.112	0.012
-460.070	34.531	0.300	-0.262
-459.055	62.480	0.194	0.194
-458.040	452.901	0.057	0.127
-457.026	385.516	-0.157	-0.323
-456.011	10.219	0.373	0.284
-454.997	-130.210	0.227	0.031
-453.982	-89.796	-0.306	-0.090
-452.968	97.282	-0.123	0.142
-451.953	-200.000	-0.014	0.159
-450.938	590.011	-0.070	0.173
-449.924	198.070	-0.105	0.160
-448.909	-89.939	0.231	0.068
-447.895	-200.000	-0.011	0.074
-446.880	60.152	0.220	0.218
-445.865	9.253	0.312	0.236
-444.851	-12.133	-0.127	-0.083
-443.836	-200.000	-0.060	-0.454
-442.822	-200.000	-0.284	-0.001
-441.807	-200.000	0.022	-0.138
-440.792	473.642	0.124	0.280
-439.778	121.431	0.194	-0.241
-438.763	-25.790	0.285	-0.168
-437.749	-200.000	-0.024	-0.189
-436.734	43.082	0.122	0.111
-435.719	98.743	-0.211	-0.243
-434.705	-21.470	-0.243	0.148
-433.690	210.623	-0.102	-0.161
-432.676	-180.600	0.344	0.007
-431.661	-75.323	0.136	0.049
-430.646	71.253	0.182	-0.188
-429.632	-17.078	0.219	-0.138
-428.617	169.805	0.135	0.193
-427.603	-56.084	0.320	0.142
-426.588	25.326	-0.053	-0.044
-425.573	138.763	-0.152	-0.199
-424.559	287.571	-0.288	-0.521
-423.544	4.588	0.108	-0.079
-422.530	1.061	-0.329	0.236
-421.515	32.231	0.126	0.108
-420.500	350.497	-0.084	0.165
-419.486	25.371	-0.287	-0.238
-418.471	287.452	0.167	0.301
-417.457	499.938	0.007	-0.016
-416.442	-113.220	0.129	0.025
-415.428	-18.442	0.233	-0.145
-414.413	-103.906	-0.282	-0.066
-413.398	260.711	0.103	-0.178
-412.384	-160.945	-0.276	0.014
-411.369	327.693	-0.053	0.102
-410.355	249.327	-0.023	-0.039
-409.340	-200.000	-0.042	-0.398
-408.325	521.360	0.059	-0.139
-407.311	350.222	0.099	-0.196
-406.296	-64.871	0.188	0.076
-405.282	83.874	-0.111	-0.121
-404.267	89.428	0.162	0.180
-403.252	-200.000	-0.066	-0.340
-402.238	-200.000	0.021	-0.156
-401.223	-179.837	0.234	0.005
-400.209	22.437	0.234	0.191
-399.194	327.730	0.094	0.180
-398.179	-200.000	0.015	-0.123
-397.165	800.000	-0.040	0.170
-396.150	131.150	-0.308	-0.395
-395.136	576.058	-0.016	0.039
-394.121	800.000	-0.110	0.345
-393.106	-200.000	0.002	0.151
-392.092	800.000	0.056	-0.168
-391.077	-3.728	-0.057	0.040
-390.063	-102.799	-0.095	-0.023
-389.048	-11.268	0.135	-0.089
-388.033	58.509	-0.126	0.124
-387.019	197.200	-0.015	0.023
-386.004	-152.267	-0.342	-0.025
-384.990	-48.458	0.162	0.078
-383.975	34.511	-0.033	-0.029
-382.960	180.945	0.190	0.278
-381.946	-143.424	0.520	0.050
-380.931	-31.231	0.245	0.138
-379.917	-89.769	-0.416	-0.121
-378.902	-19.283	-0.455	-0.282
-377.888	360.545	0.078	0.155
-376.873	-2.041	-0.291	-0.204
-375.858	-54.280	0.072	0.032
-374.844	800.000	-0.078	0.234
-373.829	-142.075	0.216	0.021
-372.815	-200.000	-0.041	0.231
-371.800	114.881	-0.096	0.117
-370.785	-59.099	0.236	0.101
-369.771	-79.999	-0.204	0.068
-368.756	-88.754	-0.307	0.091
-367.742	-200.000	0.012	-0.225
-366.727	-50.444	0.291	0.137
-365.712	-153.815	-0.205	0.014
-364.698	-64.287	0.293	-0.119
-363.683	800.000	-0.068	0.218
-362.669	335.861	-0.198	0.383
-361.654	79.696	-0.133	-0.142
-360.639	-152.995	0.355	-0.025
-359.625	34.867	-0.139	0.121
-358.610	-67.919	0.164	0.064
-357.596	-200.000	-0.033	-0.191
-356.581	-124.082	-0.234	-0.037
-355.566	189.568	-0.026	0.038
-354.552	-200.000	-0.052	0.275
-353.537	-148.396	-0.077	-0.006
-352.523	-105.981	-0.103	-0.023
-351.508	800.000	-0.043	0.143
-350.493	93.258	-0.204	0.230
-349.479	209.514	0.094	0.147
-348.464	-200.000	0.021	0.397
-347.450	-200.000	0.038	-0.285
-346.435	800.000	0.069	0.262
-345.420	-145.036	0.217	0.020
-344.406	122.010	-0.051	-0.064
-343.391	800.000	0.073	0.319
-342.377	-71.183	-0.307	-0.115
-341.362	29.248	-0.064	0.054
-340.348	-77.291	-0.101	-0.035
-339.333	-125.309	-0.116	0.018
-338.318	-200.000	-0.017	0.161
-337.304	300.080	-0.078	0.144
-336.289	-126.926	0.197	-0.029
-335.275	280.890	-0.037	0.066
-334.260	-34.029	-0.052	-0.029
-333.245	137.300	0.178	0.232
-332.231	-97.211	-0.253	0.066
-331.216	-184.101	0.248	0.004
-330.202	-48.950	-0.167	0.080
-329.187	412.621	-0.074	-0.157
-328.172	800.000	0.028	0.095
-327.158	52.555	0.261	-0.248
-326.143	79.947	0.259	-0.277
-325.129	-200.000	0.008	-0.236
-324.114	-101.674	0.353	0.085
-323.099	292.239	0.031	0.056
-322.085	800.000	-0.017	-0.072
-321.070	62.781	0.148	0.147
-320.056	-67.337	0.156	0.061
-319.041	-99.427	-0.254	0.064
-318.026	333.337	0.055	0.107
-317.012	-17.854	-0.220	-0.137
-315.997	-200.000	-0.011	-0.100
-314.983	405.508	0.066	0.138
-313.968	59.230	0.234	0.229
-312.953	154.871	-0.251	-0.343
-311.939	249.539	0.096	-0.162
-310.924	-200.000	-0.056	-0.309
-309.910	57.042	-0.155	-0.151
-308.895	-79.958	-0.342	-0.114
-307.880	39.767	0.154	0.138
-306.866	510.844	0.104	-0.240
-305.851	5.060	-0.299	0.219
-304.837	105.788	0.078	0.092
-303.822	800.000	0.064	-0.181
-302.807	-200.000	-0.002	0.133
-301.793	-55.231	-0.116	0.052
-300.778	-200.000	0.031	-0.202
-299.764	-154.126	-0.141	-0.009
-298.749	36.883	-0.125	-0.110
-297.735	526.991	-0.214	0.502
-296.720	800.000	0.099	0.290
-295.705	-156.762	0.312	-0.019
-294.691	486.250	0.052	-0.119
-293.676	-200.000	-0.010	-0.135
-292.662	-183.808	0.284	-0.005
-291.647	51.439	-0.183	-0.173
-290.632	143.286	-0.209	-0.277
-289.618	18.334	-0.375	-0.298
-288.603	418.548	-0.094	0.199
-287.589	-149.625	0.161	-0.013
-286.574	71.179	-0.142	0.146
-285.559	800.000	-0.049	0.133
-284.545	-176.291	-0.250	0.006
-283.530	-200.000	0.009	0.132
-282.516	800.000	-0.091	-0.257
-281.501	-24.046	-0.126	-0.075
-280.486	735.503	-0.023	-0.061
-279.472	-200.000	0.032	0.391
-278.457	-97.842	0.202	-0.052
-277.443	-38.864	-0.064	0.033
-276.428	726.624	0.122	-0.323
-275.413	272.565	0.087	-0.153
-274.399	358.660	-0.079	-0.156
-273.384	-153.000	0.231	-0.016
-272.370	-200.000	0.135	0.000
-271.355	-200.000	-0.021	-0.098
-270.340	-135.808	-0.667	0.078
-269.326	-70.060	0.034	-0.013
-268.311	-45.857	0.252	-0.124
-267.297	-200.000	0.034	0.166
-266.282	106.253	0.146	-0.172
-265.267	-200.000	-0.039	-0.329
-264.253	-34.464	0.101	0.055
-263.238	289.805	-0.012	0.021
-262.224	158.533	0.110	0.151
-261.209	91.021	-0.117	-0.130
-260.195	-80.013	-0.228	-0.076
-259.180	-111.924	0.213	0.043
-258.165	93.574	0.169	0.190
-257.151	-0.746	0.242	-0.170
-256.136	-137.564	0.538	0.060
-255.122	-200.000	0.011	-0.076
-254.107	-200.000	0.024	-0.110
-253.092	452.756	0.017	-0.036
-252.078	800.000	-0.088	-0.330
-251.063	266.786	0.071	0.124
-250.049	127.428	-0.113	0.142
-249.034	370.201	0.023	0.046
-248.019	-73.420	-0.292	-0.106
-247.005	-200.000	0.016	-0.150
-245.990	216.810	-0.057	-0.090
-244.976	-18.971	-0.370	0.228
-243.961	-65.452	0.284	-0.113
-242.946	-112.293	-0.127	0.025
-241.932	-104.803	0.224	0.051
-240.917	-43.748	-0.229	-0.114
-239.903	-169.586	-0.215	-0.008
-238.888	-200.000	0.007	0.056
-237.873	299.852	-0.055	-0.101
-236.859	-56.352	0.255	0.112
-235.844	10.399	0.180	-0.136
-234.830	-200.000	0.008	-0.078
-233.815	241.287	-0.077	0.128
-232.800	272.054	-0.240	-0.420
-231.786	800.000	0.066	0.240
-230.771	71.425	0.087	0.089
-229.757	-76.125	-0.225	0.079
-228.742	705.890	0.038	0.098
-227.727	-33.228	0.408	0.224
-226.713	-100.073	-0.254	0.063
-225.698	-200.000	0.043	0.217
-224.684	237.370	-0.251	0.413
-223.669	229.345	0.263	0.425
-222.655	-200.000	0.037	-0.225
-221.640	686.360	0.026	0.068
-220.625	800.000	0.140	0.522
-219.611	264.939	0.076	-0.132
-218.596	127.222	0.115	0.145
-217.582	-126.501	-0.366	0.054
-216.567	-200.000	-0.002	-0.308
-215.552	-200.000	-0.018	0.239
-214.538	217.055	0.120	0.189
-213.523	-200.000	0.041	-0.360
-212.509	-75.793	0.138	-0.048
-211.494	-95.880	0.362	0.096
-210.479	-56.264	-0.164	0.072
-209.465	-20.113	0.141	0.086
-208.450	800.000	-0.055	-0.175
-207.436	-134.255	0.216	-0.026
-206.421	-66.256	0.199	0.078
-205.406	-200.000	0.062	0.285
-204.392	-69.470	0.315	-0.120
-203.377	-200.000	0.057	0.292
-202.363	-124.879	0.429	-0.066
-201.348	113.183	0.253	0.304
-200.333	-106.328	0.247	-0.055
-199.319	-200.000	-0.015	0.203
-198.304	-200.000	0.007	0.469
-197.290	167.701	0.159	0.224
-196.275	201.231	-0.153	0.234
-195.260	-39.355	0.175	-0.091
-194.246	800.000	-0.136	0.377
-193.231	36.606	0.189	0.166
-192.217	245.568	-0.084	-0.139
-191.202	-71.994	0.292	-0.107
-190.187	-200.000	0.009	0.437
-189.173	-64.592	-0.130	-0.052
-188.158	800.000	-0.050	0.155
-187.144	-200.000	0.016	0.092
-186.129	-200.000	-0.038	0.335
-185.114	214.978	-0.275	-0.432
-184.100	354.368	-0.204	-0.402
-183.085	-11.378	-0.285	0.186
-182.071	-9.432	0.243	0.161
-181.056	-86.982	-0.279	0.084
-180.042	-75.821	0.364	0.128
-179.027	-65.444	-0.243	-0.097
-178.012	141.046	-0.105	0.138
-176.998	-200.000	0.023	-0.157
-175.983	800.000	-0.043	-0.150
-174.969	341.632	0.039	0.075
-173.954	107.624	0.063	-0.074
-172.939	105.634	0.230	0.269
-171.925	-20.693	-0.068	-0.041
-170.910	-8.683	-0.275	0.182
-169.896	-27.247	0.111	-0.064
-168.881	-105.948	-0.254	0.057
-167.866	28.186	-0.078	0.065
-166.852	306.153	0.193	-0.356
-165.837	320.221	0.023	-0.044
-164.823	-140.095	0.306	0.032
-163.808	-25.493	0.384	0.225
-162.793	-200.000	-0.023	-0.387
-161.779	-13.613	0.319	-0.204
-160.764	800.000	0.044	-0.159
-159.750	283.933	-0.078	-0.139
-158.735	583.371	0.150	0.365
-157.720	-66.113	-0.077	-0.031
-156.706	-192.110	0.245	0.002
-155.691	409.615	0.143	0.299
-154.677	228.919	-0.055	0.088
-153.662	69.287	-0.210	-0.213
-152.647	-35.517	0.167	0.090
-151.633	-86.043	0.347	-0.106
-150.618	-74.926	-0.206	0.073
-149.604	800.000	-0.104	-0.336
-148.589	401.132	0.265	0.549
-147.574	206.080	-0.125	0.193
-146.560	136.121	0.056	-0.072
-145.545	437.819	-0.092	-0.198
-144.531	-31.862	-0.131	0.072
-143.516	-79.554	0.341	0.114
-142.502	-185.315	-0.285	-0.004
-141.487	-154.271	-0.249	0.017
-140.472	-10.283	-0.152	-0.099
-139.458	8.387	0.203	0.151
-138.443	735.960	-0.045	0.120
-137.429	115.022	0.259	0.313
-136.414	213.015	-0.122	-0.190
-135.399	-24.225	0.294	0.173
-134.385	-87.337	-0.219	-0.066
-133.370	118.008	0.120	-0.146
-132.356	91.263	-0.128	-0.142
-131.341	-200.000	-0.015	0.100
-130.326	-116.063	0.201	0.037
-129.312	-81.949	-0.251	-0.081
-128.297	168.243	0.172	-0.242
-127.283	-56.176	-0.288	-0.127
-126.268	-200.000	0.010	-0.061
-125.253	800.000	0.041	-0.149
-124.239	-104.569	-0.188	0.043
-123.224	35.260	0.061	-0.053
-122.210	-47.021	0.278	0.134
-121.195	-117.724	0.373	-0.066
