DTS Sentinel unit serial number:	SN413079Multiplexer serial number:	ORYXHardware model number:	OX4-SRSoftware version number:	ORYX F/W v4.00 Oryx Data Collector v3.7.2.0data status	okinstallation	princeton_trtdifferential loss correction	single-endedforward channel	channel 4reverse channel	N/Adate	2019/09/11time	13:15:10forward acquisition time	60.00reverse acquisition time	0.00gamma	496.2192k internal	0.2282k external	0.2282temperature offset calibration	1.0004default loss term (dB/km)	0.3790temperature slope calibration	1.0000multiplexer offset coefficient	1.0000multiplexer slope coefficient	1.0000fibre end	0.00T internal ref (°C)	41.94T ext. ref 1 (°C)	0.80T ext. ref 2 (°C)	36.41length (m)	temperature (°C)	Stokes	anti-Stokes-747.200	474.907	-0.044	-0.103
-746.185	800.000	-0.112	0.365
-745.171	-13.450	-0.232	0.155
-744.156	54.977	-0.113	-0.113
-743.142	64.930	0.017	0.017
-742.127	290.944	0.055	-0.102
-741.112	-200.000	0.037	0.307
-740.098	800.000	-0.073	0.265
-739.083	-66.781	0.189	0.077
-738.069	73.971	0.289	0.312
-737.054	104.130	-0.269	-0.325
-736.039	119.174	-0.066	0.084
-735.025	-105.785	0.116	0.027
-734.010	362.893	-0.111	0.229
-732.996	3.029	-0.333	0.249
-731.981	5.953	-0.356	-0.271
-730.966	150.109	0.265	-0.369
-729.952	-22.346	-0.222	-0.138
-728.937	-82.018	-0.307	0.103
-727.923	587.513	-0.059	-0.148
-726.908	-73.149	-0.214	-0.080
-725.894	162.080	-0.020	-0.028
-724.879	-200.000	-0.005	0.234
-723.864	630.535	-0.098	0.255
-722.850	-135.993	-0.163	0.020
-721.835	436.840	-0.098	-0.220
-720.821	396.706	0.113	-0.242
-719.806	800.000	-0.122	0.391
-718.791	-8.939	-0.030	-0.021
-717.777	-68.455	-0.298	-0.119
-716.762	226.575	-0.118	0.197
-715.748	-153.087	0.094	0.007
-714.733	595.605	-0.044	-0.112
-713.718	0.520	-0.340	-0.250
-712.704	229.913	-0.323	-0.542
-711.689	-111.618	0.535	0.112
-710.675	-24.901	-0.071	-0.043
-709.660	-35.651	-0.310	0.172
-708.645	-84.186	0.120	0.039
-707.631	284.101	0.103	-0.191
-706.616	-200.000	-0.022	0.161
-705.602	-114.149	-0.262	0.052
-704.587	-124.297	-0.294	-0.047
-703.572	-41.799	0.093	0.049
-702.558	-70.756	-0.191	-0.074
-701.543	800.000	-0.078	0.323
-700.529	-25.362	0.133	-0.081
-699.514	619.935	-0.105	-0.271
-698.499	260.912	-0.160	-0.285
-697.485	117.011	0.111	-0.139
-696.470	-43.136	-0.237	-0.123
-695.456	-42.930	-0.189	0.099
-694.441	-131.071	-0.096	0.013
-693.426	-113.588	-0.233	0.047
-692.412	220.453	0.105	0.172
-691.397	-102.602	0.142	-0.035
-690.383	800.000	-0.015	-0.053
-689.368	-96.224	-0.048	-0.013
-688.354	126.883	-0.278	0.361
-687.339	-200.000	0.004	-0.092
-686.324	-82.553	0.206	0.068
-685.310	2.658	-0.172	0.128
-684.295	291.679	0.049	-0.092
-683.281	-19.151	-0.150	0.095
-682.266	108.764	0.017	-0.021
-681.251	-200.000	0.049	-0.460
-680.237	352.947	0.295	0.599
-679.222	-49.861	0.192	-0.093
-678.208	145.727	-0.143	0.197
-677.193	-200.000	-0.017	-0.104
-676.178	113.419	0.125	0.156
-675.164	234.069	0.081	-0.137
-674.149	97.945	0.235	-0.277
-673.135	274.965	-0.025	-0.046
-672.120	-200.000	-0.031	-0.461
-671.105	7.143	-0.198	-0.151
-670.091	10.779	0.117	0.092
-669.076	-29.802	-0.137	0.080
-668.062	-138.580	-0.313	-0.035
-667.047	-200.000	0.031	-0.322
-666.032	393.731	0.042	-0.089
-665.018	59.667	0.076	0.076
-664.003	399.442	-0.135	0.291
-662.989	-61.196	0.185	-0.080
-661.974	-200.000	0.009	-0.402
-660.959	98.816	-0.086	-0.102
-659.945	220.454	-0.084	0.138
-658.930	547.217	-0.056	0.138
-657.916	-144.687	0.244	0.023
-656.901	37.171	-0.111	-0.101
-655.886	76.279	-0.214	0.232
-654.872	146.162	-0.155	-0.213
-653.857	-144.181	0.408	-0.039
-652.843	800.000	0.072	0.217
-651.828	-200.000	-0.029	0.150
-650.814	6.966	-0.203	-0.155
-649.799	-75.882	0.136	0.049
-648.784	449.834	0.022	0.050
-647.770	17.934	-0.081	-0.066
-646.755	-78.056	0.138	0.049
-645.741	70.845	-0.019	-0.020
-644.726	-200.000	-0.059	-0.302
-643.711	-61.976	-0.447	0.191
-642.697	293.989	-0.217	-0.406
-641.682	114.457	0.045	-0.056
-640.668	14.536	-0.182	0.145
-639.653	225.149	0.053	-0.088
-638.638	272.882	0.057	0.104
-637.624	593.621	-0.147	0.372
-636.609	30.542	-0.183	0.160
-635.595	-58.789	0.289	-0.128
-634.580	-200.000	0.102	-0.467
-633.565	800.000	-0.064	0.198
-632.551	-200.000	-0.050	0.245
-631.536	191.738	0.041	0.064
-630.522	-200.000	0.016	-0.207
-629.507	387.128	0.117	-0.247
-628.492	67.734	-0.157	0.164
-627.478	-4.102	-0.107	-0.076
-626.463	387.127	0.142	0.300
-625.449	-33.879	0.239	-0.135
-624.434	390.628	-0.107	0.227
-623.419	-200.000	0.061	-0.337
-622.405	88.945	-0.238	-0.271
-621.390	-8.043	-0.267	0.184
-620.376	-200.000	0.085	0.417
-619.361	-79.514	-0.178	-0.061
-618.346	800.000	0.131	-0.469
-617.332	120.917	0.067	-0.086
-616.317	311.513	-0.084	0.160
-615.303	26.296	-0.107	0.092
-614.288	-149.134	-0.498	0.041
-613.273	-131.711	0.046	0.006
-612.259	37.030	0.031	-0.028
-611.244	-200.000	0.017	-0.146
-610.230	9.907	0.056	-0.043
-609.215	-200.000	-0.003	-0.018
-608.201	154.901	0.027	0.037
-607.186	48.496	-0.093	0.089
-606.171	795.366	0.101	0.283
-605.157	564.033	0.046	0.113
-604.142	120.389	0.182	0.231
-603.128	131.259	-0.070	-0.092
-602.113	-175.311	0.177	0.005
-601.098	-11.294	-0.354	0.238
-600.084	311.157	0.041	-0.079
-599.069	74.261	-0.173	-0.185
-598.055	53.093	0.078	0.077
-597.040	-112.279	-0.035	0.007
-596.025	800.000	0.079	-0.243
-595.011	-200.000	-0.053	-0.456
-593.996	-69.472	0.118	0.046
-592.982	-92.948	-0.324	-0.092
-591.967	501.489	-0.055	-0.131
-590.952	15.030	-0.288	-0.230
-589.938	800.000	0.067	-0.211
-588.923	339.171	-0.051	-0.102
-587.909	84.624	0.071	0.079
-586.894	-28.612	-0.224	0.132
-585.879	800.000	-0.069	0.199
-584.865	800.000	0.025	-0.100
-583.850	-72.596	-0.194	0.073
-582.836	-132.837	0.170	0.022
-581.821	81.803	0.081	0.089
-580.806	79.347	-0.223	0.245
-579.792	800.000	-0.024	-0.091
-578.777	-100.880	-0.185	0.047
-577.763	126.730	-0.082	0.107
-576.748	-84.587	0.292	0.094
-575.733	-200.000	0.069	0.318
-574.719	800.000	0.123	0.467
-573.704	-84.601	-0.217	0.070
-572.690	-113.979	0.127	0.025
-571.675	115.190	-0.180	0.224
-570.661	22.368	0.171	0.143
-569.646	-46.720	-0.122	-0.061
-568.631	-52.182	0.328	0.155
-567.617	137.350	0.076	-0.102
-566.602	62.006	-0.149	-0.152
-565.588	118.663	-0.086	0.109
-564.573	41.637	0.274	0.254
-563.558	-102.768	0.206	0.050
-562.544	-200.000	-0.001	-0.293
-561.529	800.000	-0.036	0.156
-560.515	337.353	0.143	0.284
-559.500	800.000	-0.022	0.062
-558.485	-200.000	-0.005	-0.138
-557.471	38.953	-0.236	-0.215
-556.456	-141.181	0.084	0.009
-555.442	-138.351	-0.090	0.010
-554.427	-35.109	-0.136	0.076
-553.412	156.572	-0.040	0.057
-552.398	170.409	0.138	-0.202
-551.383	137.968	0.281	0.376
-550.369	-200.000	-0.020	-0.411
-549.354	-48.730	-0.219	-0.107
-548.339	-22.009	0.149	-0.092
-547.325	33.903	0.067	0.059
-546.310	800.000	0.039	0.148
-545.296	-156.429	-0.171	0.011
-544.281	606.574	0.053	-0.134
-543.266	-160.456	0.088	0.005
-542.252	-51.158	-0.219	0.105
-541.237	419.351	0.112	0.244
-540.223	-37.262	-0.258	-0.141
-539.208	19.261	-0.068	-0.056
-538.193	1.857	-0.130	0.095
-537.179	20.819	-0.228	-0.188
-536.164	-14.950	0.046	-0.030
-535.150	-200.000	-0.006	0.114
-534.135	-200.000	-0.057	0.344
-533.121	-73.788	0.226	0.084
-532.106	376.005	0.105	-0.218
-531.091	-113.603	0.107	-0.021
-530.077	-25.679	-0.283	0.170
-529.062	-200.000	-0.028	-0.130
-528.048	-128.940	0.361	-0.052
-527.033	-97.983	0.375	-0.099
-526.018	-200.000	-0.065	0.296
-525.004	-79.918	-0.207	-0.071
-523.989	198.647	-0.041	-0.065
-522.975	-104.052	-0.516	-0.123
-521.960	-87.312	-0.147	-0.045
-520.945	43.525	0.176	0.164
-519.931	-15.887	0.125	-0.081
-518.916	274.781	0.060	0.107
-517.902	-151.797	-0.098	-0.007
-516.887	59.201	-0.168	-0.169
-515.872	112.618	0.061	-0.076
-514.858	274.966	-0.121	-0.218
-513.843	-200.000	0.022	0.222
-512.829	29.350	0.133	0.115
-511.814	-140.582	-0.376	0.040
-510.799	463.184	0.053	0.120
-509.785	31.269	-0.209	-0.183
-508.770	-107.598	-0.111	-0.025
-507.756	-158.953	0.377	0.022
-506.741	63.696	-0.191	-0.196
-505.726	626.730	0.043	-0.110
-504.712	298.775	0.194	-0.364
-503.697	59.556	-0.207	-0.208
-502.683	188.125	0.078	-0.119
-501.668	-200.000	-0.012	0.178
-500.653	19.505	0.202	-0.165
-499.639	-150.806	0.313	0.024
-498.624	-200.000	0.022	-0.242
-497.610	800.000	-0.031	0.106
-496.595	127.409	-0.009	-0.012
-495.581	242.530	-0.151	-0.258
-494.566	-124.611	-0.466	0.074
-493.551	277.507	0.082	0.149
-492.537	-83.266	0.251	-0.082
-491.522	-17.881	-0.068	0.043
-490.508	800.000	-0.105	-0.357
-489.493	800.000	-0.114	0.348
-488.478	44.086	-0.209	0.195
-487.464	-43.681	-0.082	-0.042
-486.449	122.879	-0.024	0.031
-485.435	-200.000	0.051	-0.481
-484.420	302.608	0.065	0.123
-483.405	-180.518	0.164	0.003
-482.391	26.508	-0.063	-0.054
-481.376	-141.432	-0.310	-0.032
-480.362	-200.000	-0.004	0.121
-479.347	-200.000	0.017	-0.183
-478.332	35.623	0.111	-0.099
-477.318	-100.527	0.156	-0.039
-476.303	-65.897	-0.116	-0.047
-475.289	-200.000	-0.054	-0.290
-474.274	-200.000	-0.021	-0.164
-473.259	-54.189	0.119	-0.055
-472.245	34.127	-0.168	-0.149
-471.230	-56.711	-0.159	0.072
-470.216	-200.000	-0.009	-0.059
-469.201	-149.791	-0.264	0.021
-468.186	-15.878	-0.080	0.052
-467.172	-31.712	0.117	0.067
-466.157	-9.568	0.265	-0.180
-465.143	508.650	-0.034	-0.080
-464.128	-29.570	-0.349	-0.202
-463.113	-69.058	0.250	0.098
-462.099	52.088	-0.191	0.185
-461.084	311.536	-0.069	0.131
-460.070	-11.225	0.104	0.070
-459.055	67.275	0.115	-0.119
-458.040	28.083	0.153	-0.131
-457.026	-77.381	0.240	0.085
-456.011	-101.811	-0.061	0.015
-454.997	800.000	0.069	-0.287
-453.982	-167.164	0.228	0.009
-452.968	276.615	0.063	0.114
-451.953	-70.825	0.195	0.075
-450.938	-84.589	-0.199	-0.064
-449.924	-3.023	-0.016	0.011
-448.909	-110.737	0.166	0.035
-447.895	53.104	0.089	0.087
-446.880	-200.000	-0.072	-0.333
-445.865	14.842	0.360	0.286
-444.851	487.369	-0.122	0.283
-443.836	800.000	-0.021	-0.061
-442.822	30.822	0.174	-0.151
-441.807	-31.424	-0.399	0.228
-440.792	-69.436	-0.270	0.105
-439.778	-130.498	0.424	-0.058
-438.763	-200.000	-0.016	0.130
-437.749	715.370	-0.019	-0.050
-436.734	-101.309	0.065	0.016
-435.719	-118.763	-0.052	0.009
-434.705	-71.903	-0.216	0.081
-433.690	-164.097	0.087	0.004
-432.676	-200.000	0.029	-0.194
-431.661	69.779	-0.289	-0.303
-430.646	-107.848	0.176	-0.039
-429.632	-71.836	-0.159	0.060
-428.617	48.906	-0.184	0.176
-427.603	323.824	0.063	-0.122
-426.588	800.000	0.025	-0.078
-425.573	-67.604	0.124	-0.049
-424.559	-3.266	0.134	0.095
-423.544	-57.178	-0.256	-0.114
-422.530	-200.000	0.013	-0.065
-421.515	-1.843	-0.169	-0.120
-420.500	-49.395	0.269	-0.130
-419.486	-134.460	0.090	-0.011
-418.471	364.384	0.094	-0.192
-417.457	-200.000	0.016	-0.372
-416.442	800.000	-0.070	-0.198
-415.428	-22.434	0.062	0.038
-414.413	147.706	0.117	-0.160
-413.398	59.657	0.059	-0.059
-412.384	40.008	-0.124	-0.113
-411.369	800.000	-0.080	-0.270
-410.355	-52.354	0.518	0.243
-409.340	-64.264	0.398	-0.164
-408.325	527.885	-0.145	0.346
-407.311	119.950	0.082	-0.104
-406.296	-19.223	-0.190	-0.119
-405.282	82.461	0.068	-0.075
-404.267	-147.203	0.238	-0.021
-403.252	170.908	0.130	-0.189
-402.238	336.212	0.121	0.238
-401.223	21.423	0.319	-0.263
-400.209	-149.616	-0.142	-0.011
-399.194	491.844	-0.104	0.242
-398.179	-69.303	-0.546	0.213
-397.165	398.487	-0.105	-0.222
-396.150	155.088	-0.138	-0.192
-395.136	116.342	-0.113	-0.141
-394.121	800.000	0.015	-0.063
-393.106	-79.393	0.123	-0.042
-392.092	275.076	0.021	-0.037
-391.077	28.426	-0.205	-0.175
-390.063	0.555	-0.259	0.188
-389.048	-14.988	0.209	0.136
-388.033	-98.224	-0.373	0.097
-387.019	-200.000	0.014	-0.108
-386.004	800.000	0.032	0.091
-384.990	-76.612	-0.293	-0.104
-383.975	-9.967	0.297	-0.200
-382.960	-91.967	-0.110	0.032
-381.946	800.000	0.049	0.201
-380.931	-127.517	0.153	-0.023
-379.917	64.957	-0.093	-0.096
-378.902	232.189	0.158	0.262
-377.888	-109.407	-0.242	0.052
-376.873	32.402	-0.264	-0.231
-375.858	-200.000	0.055	0.451
-374.844	-88.365	0.514	-0.156
-373.829	-88.975	0.475	-0.142
-372.815	-65.097	-0.179	-0.073
-371.800	441.443	-0.169	-0.375
-370.785	-146.545	0.417	-0.037
-369.771	-127.313	0.128	-0.019
-368.756	-200.000	0.072	0.327
-367.742	-71.822	0.105	0.040
-366.727	-3.575	-0.104	-0.073
-365.712	-175.629	0.144	-0.004
-364.698	-40.607	-0.187	-0.098
-363.683	515.457	-0.070	-0.167
-362.669	83.330	0.336	0.370
-361.654	142.127	0.278	0.374
-360.639	-152.738	0.172	0.012
-359.625	800.000	-0.126	-0.488
-358.610	-109.838	0.057	-0.012
-357.596	129.149	-0.175	0.226
-356.581	382.242	0.037	-0.078
-355.566	116.800	0.040	0.050
-354.552	18.995	-0.118	-0.096
-353.537	85.995	-0.188	-0.209
-352.523	49.269	-0.133	0.127
-351.508	108.436	0.199	0.240
-350.493	262.048	-0.164	0.288
-349.479	437.804	0.048	0.106
-348.464	800.000	-0.068	0.196
-347.450	55.154	0.249	0.244
-346.435	483.242	0.186	-0.428
-345.420	37.488	0.299	0.268
-344.406	412.931	0.081	0.174
-343.391	-18.532	-0.323	0.204
-342.377	376.284	-0.054	0.111
-341.362	800.000	0.125	-0.518
-340.348	-200.000	-0.036	-0.185
-339.333	-80.113	-0.215	-0.073
-338.318	-25.875	-0.303	-0.181
-337.304	-10.121	-0.113	0.076
-336.289	-8.900	-0.052	0.035
-335.275	286.954	-0.045	-0.082
-334.260	-24.208	-0.023	-0.014
-333.245	299.335	-0.165	-0.308
-332.231	140.118	0.102	-0.136
-331.216	-19.578	-0.157	0.098
-330.202	417.497	0.081	-0.174
-329.187	800.000	-0.111	-0.362
-328.172	-25.678	-0.175	-0.104
-327.158	-200.000	0.015	-0.086
-326.143	779.743	-0.055	0.153
-325.129	22.944	-0.034	-0.028
-324.114	-104.583	0.068	-0.016
-323.099	-200.000	-0.084	-0.404
-322.085	67.754	0.153	0.159
-321.070	569.603	0.132	-0.325
-320.056	-111.682	0.268	-0.055
-319.041	-183.401	-0.079	0.001
-318.026	-41.331	0.231	0.120
-317.012	-200.000	-0.018	0.386
-315.997	-36.107	-0.066	0.036
-314.983	-200.000	-0.034	0.349
-313.968	-200.000	0.006	0.049
-312.953	-149.749	0.469	-0.037
-311.939	-2.836	-0.117	-0.083
-310.924	375.148	-0.069	-0.142
-309.910	-9.129	-0.180	-0.122
-308.895	-200.000	-0.004	0.339
-307.880	-200.000	-0.024	-0.267
-306.866	144.401	0.109	-0.147
-305.851	-177.456	0.080	-0.002
-304.837	623.354	0.087	0.222
-303.822	-157.039	-0.162	-0.010
-302.807	-47.347	0.164	0.081
-301.793	-42.194	-0.293	-0.151
-300.778	-200.000	-0.024	-0.417
-299.764	-94.583	-0.084	0.023
-298.749	-200.000	-0.036	-0.171
-297.735	-162.834	0.191	0.009
-296.720	467.537	0.074	0.169
-295.705	-71.949	0.107	-0.040
-294.691	-16.371	0.170	0.109
-293.676	-200.000	-0.015	-0.141
-292.662	-200.000	-0.027	0.124
-291.647	647.672	-0.019	-0.049
-290.632	-200.000	-0.052	0.332
-289.618	-110.962	-0.310	-0.064
-288.603	183.598	0.186	-0.277
-287.589	-74.250	0.320	0.117
-286.574	-200.000	-0.022	-0.112
-285.559	-200.000	-0.004	-0.201
-284.545	23.196	-0.142	0.117
-283.530	-40.458	0.188	-0.099
-282.516	-200.000	0.005	0.283
-281.501	800.000	0.054	-0.205
-280.486	-1.898	0.195	0.138
-279.472	87.991	0.179	-0.201
-278.457	-96.139	0.099	0.027
-277.443	-200.000	-0.045	0.221
-276.428	-200.000	-0.058	-0.297
-275.413	-27.569	-0.119	0.070
-274.399	81.368	-0.089	-0.097
-273.384	-118.273	0.168	-0.030
-272.370	-200.000	0.058	-0.315
-271.355	12.236	-0.182	0.141
-270.340	63.421	0.150	0.152
-269.326	-39.953	0.075	-0.039
-268.311	-171.455	0.129	0.004
-267.297	-200.000	0.006	0.167
-266.282	-200.000	-0.112	0.543
-265.267	-200.000	-0.011	0.354
-264.253	86.538	-0.163	-0.181
-263.238	-167.763	0.091	0.004
-262.224	-149.285	-0.227	0.018
-261.209	283.241	-0.133	-0.241
-260.195	-96.769	-0.146	-0.039
-259.180	92.359	0.122	0.138
-258.165	-146.620	0.336	0.029
-257.151	-196.220	-0.284	-0.002
-256.136	-200.000	0.447	0.001
-255.122	2.597	0.170	-0.124
-254.107	-200.000	-0.045	0.297
-253.092	-200.000	0.045	0.405
-252.078	454.623	0.164	0.366
-251.063	-115.545	-0.245	-0.046
-250.049	-200.000	0.023	-0.371
-249.034	-16.877	-0.276	0.176
-248.019	84.788	-0.221	0.244
-247.005	316.711	0.061	-0.117
-245.990	-134.826	0.078	-0.010
-244.976	33.574	0.114	-0.100
-243.961	-142.822	-0.142	0.014
-242.946	-200.000	0.002	0.140
-241.932	178.758	0.297	0.437
-240.917	-95.058	-0.154	-0.042
-239.903	-123.353	-0.076	0.012
-238.888	666.091	-0.077	-0.201
-237.873	217.704	-0.078	-0.125
-236.859	38.443	-0.056	0.050
-235.844	661.191	-0.051	-0.133
-234.830	-160.081	0.244	-0.013
-233.815	-117.929	-0.037	-0.007
-232.800	36.586	0.093	0.083
-231.786	-200.000	0.021	0.183
-230.771	-35.464	0.079	0.043
-229.757	-130.367	-0.195	0.027
-228.742	299.104	-0.025	-0.046
-227.727	274.949	-0.117	-0.208
-226.713	800.000	0.095	0.309
-225.698	-200.000	-0.071	0.379
-224.684	65.156	0.210	0.214
-223.669	19.356	-0.094	0.076
-222.655	-118.916	-0.133	-0.023
-221.640	-200.000	0.044	0.202
-220.625	599.690	0.020	-0.050
-219.611	206.796	0.147	-0.230
-218.596	10.044	0.213	0.163
-217.582	-84.651	-0.248	0.079
-216.567	-85.149	-0.153	-0.048
-215.552	-83.547	-0.259	0.083
-214.538	-12.396	-0.242	0.159
-213.523	-57.595	-0.052	0.023
-212.509	64.103	0.108	-0.109
-211.494	-26.343	0.133	-0.079
-210.479	-200.000	0.018	0.101
-209.465	297.588	0.100	-0.186
-208.450	177.543	0.097	0.143
-207.436	-0.696	0.258	-0.184
-206.421	5.166	0.260	-0.193
-205.406	-200.000	0.009	-0.101
-204.392	800.000	-0.047	0.182
-203.377	483.106	0.139	0.319
-202.363	196.503	0.057	0.087
-201.348	10.746	0.173	0.133
-200.333	59.322	0.094	-0.093
-199.319	333.906	-0.109	-0.213
-198.304	-123.068	-0.318	0.051
-197.290	-55.637	0.254	0.114
-196.275	-123.897	0.432	-0.068
-195.260	263.209	0.147	0.256
-194.246	93.621	-0.096	0.110
-193.231	-200.000	-0.031	-0.275
-192.217	430.727	-0.056	0.123
-191.202	-200.000	-0.060	-0.489
-190.187	446.638	0.081	0.180
-189.173	43.230	0.188	0.173
-188.158	-200.000	-0.001	-0.122
-187.144	-89.341	-0.081	0.024
-186.129	-89.332	0.236	0.070
-185.114	-108.669	-0.048	-0.010
-184.100	106.849	-0.072	0.086
-183.085	-100.254	0.080	-0.020
-182.071	446.813	-0.036	-0.080
-181.056	284.454	-0.185	-0.335
-180.042	136.231	-0.289	0.379
-179.027	327.788	0.177	0.342
-178.012	-200.000	0.002	0.342
-176.998	-200.000	0.075	0.379
-175.983	211.079	-0.340	0.537
-174.969	87.765	0.106	-0.118
-173.954	31.786	0.243	-0.210
-172.939	-29.013	-0.110	-0.063
-171.925	-0.716	0.098	0.070
-170.910	-16.718	-0.119	-0.076
-169.896	-95.001	0.467	0.127
-168.881	102.007	-0.088	0.104
-167.866	-37.162	-0.069	0.037
-166.852	-171.370	-0.162	-0.005
-165.837	15.606	0.109	-0.086
-164.823	-200.000	0.095	0.000
-163.808	800.000	0.021	-0.061
-162.793	-68.508	-0.187	-0.073
-161.779	-90.498	-0.291	0.085
-160.764	447.710	0.103	-0.228
-159.750	47.804	0.151	0.142
-158.735	14.439	0.066	0.051
-157.720	-63.517	-0.381	-0.157
-156.706	261.904	0.124	-0.217
-155.691	103.620	-0.191	0.226
-154.677	-150.598	0.096	-0.007
-153.662	227.950	-0.104	0.171
-152.647	-200.000	-0.007	0.122
-151.633	-122.992	0.240	-0.039
-150.618	800.000	0.044	-0.176
-149.604	-43.431	0.228	-0.116
-148.589	-56.490	-0.101	-0.045
-147.574	-200.000	-0.069	-0.366
-146.560	105.749	0.150	-0.179
-145.545	6.405	0.326	-0.243
-144.531	-200.000	0.015	-0.149
-143.516	-200.000	0.017	-0.076
-142.502	-75.604	0.447	0.160
-141.487	169.930	0.174	0.250
-140.472	62.998	0.066	0.066
-139.458	275.097	-0.084	0.150
-138.443	110.859	-0.158	0.190
-137.429	736.144	-0.116	0.311
-136.414	-108.973	0.083	0.018
-135.399	599.249	0.122	-0.303
-134.385	-41.386	-0.068	-0.035
-133.370	219.264	-0.078	0.125
-132.356	252.180	-0.105	0.180
-131.341	-120.008	-0.437	-0.075
-130.326	108.167	0.164	-0.196
-129.312	418.206	0.106	-0.226
-128.297	-146.665	0.180	-0.016
-127.283	95.183	0.189	-0.216
-126.268	-104.611	-0.082	-0.019
-125.253	-200.000	-0.002	-0.132
-124.239	56.848	-0.115	0.112
-123.224	47.977	-0.427	0.400
-122.210	800.000	-0.046	-0.156
-121.195	-158.091	0.127	-0.007
