DTS Sentinel unit serial number:	SN413079Multiplexer serial number:	ORYXHardware model number:	OX4-SRSoftware version number:	ORYX F/W v4.00 Oryx Data Collector v3.7.2.0data status	okinstallation	princeton_trtdifferential loss correction	single-endedforward channel	channel 4reverse channel	N/Adate	2019/09/11time	03:27:11forward acquisition time	60.00reverse acquisition time	0.00gamma	496.2192k internal	0.2316k external	0.2316temperature offset calibration	0.9944default loss term (dB/km)	0.3790temperature slope calibration	1.0000multiplexer offset coefficient	1.0000multiplexer slope coefficient	1.0000fibre end	0.00T internal ref (°C)	29.44T ext. ref 1 (°C)	-0.31T ext. ref 2 (°C)	24.27length (m)	temperature (°C)	Stokes	anti-Stokes-747.200	23.879	-0.164	-0.137
-746.185	-200.000	0.014	0.207
-745.171	-77.303	-0.113	0.040
-744.156	-79.597	-0.141	0.048
-743.142	-200.000	0.010	0.222
-742.127	33.129	0.084	0.074
-741.112	-200.000	0.019	0.338
-740.098	138.760	-0.344	0.457
-739.083	-139.001	-0.111	-0.012
-738.069	531.292	-0.062	-0.148
-737.054	800.000	0.044	-0.125
-736.039	674.719	0.100	0.262
-735.025	-19.950	0.208	0.130
-734.010	-68.920	-0.265	-0.104
-732.996	-192.928	-0.139	0.001
-731.981	-27.488	-0.191	-0.112
-730.966	40.554	0.076	0.069
-729.952	-52.592	-0.477	0.223
-728.937	-89.579	-0.131	0.039
-727.923	105.301	-0.128	-0.152
-726.908	252.390	0.175	-0.302
-725.894	-76.359	-0.226	-0.081
-724.879	-50.962	-0.251	-0.119
-723.864	-105.229	-0.209	-0.048
-722.850	-200.000	-0.020	0.236
-721.835	33.292	0.209	-0.184
-720.821	-93.048	-0.195	-0.055
-719.806	138.487	-0.126	0.167
-718.791	-86.724	-0.355	-0.110
-717.777	800.000	-0.080	-0.266
-716.762	489.033	-0.058	-0.134
-715.748	-165.367	0.286	0.013
-714.733	520.891	0.156	0.369
-713.718	-47.548	-0.099	-0.049
-712.704	24.471	0.239	-0.200
-711.689	175.212	-0.278	0.407
-710.675	-114.944	-0.304	0.058
-709.660	-138.417	0.384	0.043
-708.645	-132.804	0.184	0.024
-707.631	72.869	-0.135	0.142
-706.616	50.532	0.359	-0.344
-705.602	727.651	-0.119	-0.321
-704.587	-81.215	0.329	0.110
-703.572	-200.000	-0.014	-0.137
-702.558	-97.615	-0.111	0.029
-701.543	-43.710	-0.198	-0.101
-700.529	236.928	-0.071	0.118
-699.514	800.000	0.076	-0.241
-698.499	327.992	0.013	0.025
-697.485	19.548	-0.312	0.254
-696.470	-67.081	-0.119	0.047
-695.456	-138.654	-0.104	0.011
-694.441	9.949	-0.177	-0.136
-693.426	149.188	0.227	0.311
-692.412	-200.000	0.003	0.184
-691.397	-99.637	-0.186	-0.047
-690.383	-14.883	0.115	-0.075
-689.368	-200.000	-0.095	-0.551
-688.354	138.685	0.294	0.390
-687.339	-200.000	-0.001	0.140
-686.324	-200.000	-0.026	0.182
-685.310	-102.915	0.087	0.021
-684.295	13.159	-0.289	0.226
-683.281	-7.521	0.088	0.060
-682.266	800.000	0.015	-0.065
-681.251	317.246	-0.032	0.061
-680.237	-76.613	-0.240	-0.085
-679.222	188.296	0.044	-0.067
-678.208	-93.546	0.337	0.094
-677.193	-42.749	0.218	-0.112
-676.178	-200.000	-0.001	0.177
-675.164	212.840	0.085	0.136
-674.149	-200.000	0.011	0.234
-673.135	354.900	0.146	-0.293
-672.120	-122.150	-0.194	0.032
-671.105	13.933	-0.167	0.131
-670.091	80.320	-0.129	-0.140
-669.076	91.493	-0.052	0.059
-668.062	161.627	-0.097	-0.138
-667.047	12.758	0.047	0.037
-666.032	280.060	-0.050	0.090
-665.018	129.559	-0.021	-0.027
-664.003	81.870	0.162	-0.177
-662.989	394.742	-0.073	0.154
-661.974	-200.000	0.031	0.176
-660.959	327.795	0.049	-0.095
-659.945	10.159	-0.045	0.035
-658.930	-52.733	-0.130	-0.061
-657.916	-113.188	0.320	0.064
-656.901	-86.406	-0.145	-0.045
-655.886	-200.000	-0.010	-0.446
-654.872	146.268	-0.179	-0.243
-653.857	-173.459	0.329	0.010
-652.843	-0.846	0.156	-0.112
-651.828	76.548	0.129	-0.138
-650.814	-200.000	0.040	-0.190
-649.799	353.124	-0.152	-0.305
-648.784	6.006	-0.327	-0.244
-647.770	-6.626	0.316	-0.217
-646.755	-127.167	-0.287	0.042
-645.741	94.903	-0.172	-0.197
-644.726	141.459	-0.076	-0.102
-643.711	611.710	0.150	-0.379
-642.697	-129.207	0.276	0.039
-641.682	-135.125	-0.271	0.033
-640.668	800.000	-0.087	0.256
-639.653	800.000	0.029	-0.089
-638.638	-100.243	0.194	-0.049
-637.624	244.196	0.075	0.126
-636.609	-128.840	0.156	0.022
-635.595	-200.000	0.013	0.400
-634.580	-23.834	0.220	0.133
-633.565	167.222	0.185	-0.264
-632.551	185.782	-0.130	0.194
-631.536	677.564	-0.020	0.053
-630.522	-200.000	0.016	-0.419
-629.507	-50.202	-0.028	-0.014
-628.492	54.411	0.258	-0.251
-627.478	-200.000	0.055	-0.320
-626.463	70.386	0.144	-0.150
-625.449	486.242	0.047	-0.108
-624.434	65.611	-0.227	-0.231
-623.419	-200.000	-0.017	-0.077
-622.405	-200.000	0.009	0.222
-621.390	269.355	-0.221	0.391
-620.376	0.465	0.183	-0.132
-619.361	-21.227	0.071	0.044
-618.346	800.000	-0.041	0.161
-617.332	-91.277	-0.426	0.123
-616.317	-119.058	-0.274	0.048
-615.303	800.000	0.070	0.298
-614.288	92.615	0.052	0.059
-613.273	-95.625	-0.269	0.073
-612.259	353.809	-0.111	0.222
-611.244	111.694	0.073	-0.089
-610.230	-200.000	0.003	-0.047
-609.215	800.000	-0.018	-0.055
-608.201	-33.415	0.119	-0.066
-607.186	-164.884	0.156	0.007
-606.171	-200.000	-0.017	-0.090
-605.157	-23.696	0.215	-0.130
-604.142	-33.782	-0.105	-0.058
-603.128	24.818	0.184	0.153
-602.113	-58.153	0.128	0.056
-601.098	-119.880	0.158	-0.027
-600.084	-143.375	-0.414	0.040
-599.069	-136.031	-0.348	-0.041
-598.055	-54.288	-0.110	-0.050
-597.040	-48.164	-0.160	-0.078
-596.025	9.625	-0.246	0.188
-595.011	-31.939	-0.400	0.226
-593.996	136.671	0.145	0.190
-592.982	-200.000	-0.034	0.216
-591.967	-200.000	-0.038	0.286
-590.952	-135.919	-0.411	0.049
-589.938	28.929	-0.236	-0.201
-588.923	-31.956	-0.183	-0.103
-587.909	-157.536	0.065	0.004
-586.894	32.636	-0.300	0.261
-585.879	-102.462	-0.145	-0.035
-584.865	39.403	0.226	-0.204
-583.850	-41.850	0.296	-0.153
-582.836	-200.000	-0.044	0.351
-581.821	-200.000	0.001	0.016
-580.806	-66.474	-0.034	0.013
-579.792	-4.243	0.124	-0.086
-578.777	-37.139	0.134	0.072
-577.763	-66.303	0.086	-0.034
-576.748	-163.268	-0.125	0.006
-575.733	-90.134	-0.297	0.087
-574.719	-200.000	-0.022	-0.122
-573.704	-97.668	0.195	0.051
-572.690	-154.784	-0.224	0.015
-571.675	-15.667	-0.313	0.201
-570.661	-56.353	0.132	0.059
-569.646	-26.010	-0.262	0.155
-568.631	-200.000	-0.026	0.439
-567.617	-200.000	0.010	0.094
-566.602	-200.000	0.003	-0.250
-565.588	-114.861	-0.215	0.041
-564.573	614.876	-0.054	-0.135
-563.558	-61.348	-0.100	-0.042
-562.544	34.188	-0.112	-0.098
-561.529	77.604	0.144	-0.155
-560.515	-200.000	0.077	-0.425
-559.500	109.375	-0.164	0.198
-558.485	-35.282	0.333	-0.182
-557.471	800.000	-0.008	-0.034
-556.456	-104.024	0.082	-0.019
-555.442	-125.067	-0.368	-0.057
-554.427	800.000	-0.051	-0.168
-553.412	-100.133	0.190	-0.048
-552.398	-200.000	0.070	-0.369
-551.383	-200.000	0.001	-0.186
-550.369	29.880	-0.128	-0.110
-549.354	-78.674	-0.035	0.012
-548.339	-72.103	0.246	-0.092
-547.325	-200.000	-0.011	0.118
-546.310	-200.000	-0.010	0.400
-545.296	-39.997	-0.384	-0.201
-544.281	800.000	0.051	-0.214
-543.266	-200.000	0.005	0.232
-542.252	-94.138	0.110	-0.030
-541.237	-153.199	-0.296	-0.021
-540.223	-152.808	-0.400	-0.029
-539.208	-165.293	0.565	0.025
-538.193	57.090	-0.147	0.144
-537.179	137.473	-0.278	-0.365
-536.164	-200.000	-0.246	-0.000
-535.150	-200.000	0.021	-0.120
-534.135	-106.990	-0.353	-0.078
-533.121	-200.000	-0.006	0.124
-532.106	-167.146	-0.045	-0.002
-531.091	800.000	-0.081	0.277
-530.077	-200.000	-0.016	0.258
-529.062	-72.119	-0.174	0.065
-528.048	658.408	0.051	-0.133
-527.033	-200.000	0.046	0.239
-526.018	-200.000	0.000	-0.291
-525.004	-200.000	-0.003	0.154
-523.989	-102.373	0.107	-0.026
-522.975	-0.475	0.089	0.063
-521.960	173.969	-0.140	0.202
-520.945	-65.414	0.229	-0.092
-519.931	303.738	0.136	-0.253
-518.916	-71.729	0.145	-0.054
-517.902	-101.196	0.323	0.079
-516.887	12.924	0.174	-0.135
-515.872	-134.203	0.014	-0.002
-514.858	25.813	-0.219	0.183
-513.843	527.951	-0.015	0.036
-512.829	104.911	0.140	-0.166
-511.814	-89.185	-0.262	-0.078
-510.799	43.517	0.204	0.187
-509.785	227.659	0.314	0.513
-508.770	143.995	-0.106	0.143
-507.756	-89.597	0.205	-0.060
-506.741	-72.315	-0.250	-0.093
-505.726	-181.962	0.128	-0.002
-504.712	-50.612	-0.056	0.026
-503.697	-138.149	0.029	-0.003
-502.683	58.643	-0.151	0.148
-501.668	-200.000	-0.037	0.266
-500.653	-7.873	-0.177	-0.120
-499.639	-200.000	0.015	-0.163
-498.624	-37.930	0.283	-0.151
-497.610	276.644	0.132	0.235
-496.595	-141.045	-0.249	0.026
-495.581	147.412	-0.041	0.055
-494.566	324.958	0.035	-0.068
-493.551	-200.000	-0.045	-0.303
-492.537	800.000	-0.108	-0.360
-491.522	-9.327	-0.180	-0.121
-490.508	62.820	0.217	-0.218
-489.493	-14.410	-0.221	-0.142
-488.478	51.831	0.075	-0.072
-487.464	565.508	0.018	0.044
-486.449	-200.000	-0.038	0.168
-485.435	-111.419	-0.201	0.041
-484.420	-200.000	0.048	-0.312
-483.405	179.644	-0.094	-0.137
-482.391	-63.144	0.147	0.061
-481.376	-67.763	0.256	-0.100
-480.362	-200.000	-0.024	0.144
-479.347	-200.000	0.057	-0.295
-478.332	-121.014	0.243	-0.041
-477.318	-72.863	-0.237	-0.087
-476.303	65.503	-0.204	-0.207
-475.289	-99.923	0.298	0.075
-474.274	288.041	0.135	-0.245
-473.259	144.063	-0.212	-0.283
-472.245	17.769	-0.315	0.251
-471.230	-17.307	0.182	0.115
-470.216	-200.000	0.096	0.482
-469.201	-107.907	0.470	-0.102
-468.186	-200.000	0.016	-0.418
-467.172	-200.000	0.012	-0.180
-466.157	-200.000	-0.026	0.131
-465.143	-200.000	-0.000	-0.253
-464.128	-200.000	-0.020	-0.169
-463.113	-194.584	0.403	0.003
-462.099	-200.000	0.012	0.256
-461.084	309.366	-0.066	0.123
-460.070	655.640	-0.123	-0.316
-459.055	-73.593	-0.202	-0.074
-458.040	9.085	-0.143	0.108
-457.026	71.938	0.238	0.248
-456.011	330.267	0.084	0.162
-454.997	-137.569	0.522	-0.059
-453.982	237.619	0.176	-0.292
-452.968	-200.000	0.019	0.318
-451.953	-200.000	-0.005	0.034
-450.938	142.282	-0.063	0.084
-449.924	452.323	-0.086	0.190
-448.909	288.631	-0.024	0.044
-447.895	-121.312	0.162	0.027
-446.880	-124.416	0.248	0.039
-445.865	-18.830	-0.056	0.035
-444.851	288.550	-0.068	0.123
-443.836	800.000	-0.074	0.215
-442.822	-40.610	-0.240	-0.125
-441.807	24.651	-0.176	0.146
-440.792	-11.317	-0.135	0.089
-439.778	-98.113	0.267	-0.069
-438.763	-53.222	0.277	0.127
-437.749	329.700	-0.066	0.127
-436.734	-172.715	0.225	0.007
-435.719	-43.404	0.057	0.029
-434.705	150.931	-0.086	-0.117
-433.690	77.547	0.123	0.131
-432.676	-33.871	-0.296	-0.163
-431.661	38.695	0.114	0.101
-430.646	800.000	-0.071	-0.240
-429.632	-37.779	0.191	-0.101
-428.617	164.982	-0.025	0.036
-427.603	-67.959	0.024	-0.009
-426.588	-130.691	-0.338	0.045
-425.573	-200.000	0.026	-0.369
-424.559	-125.137	0.228	-0.035
-423.544	73.601	0.180	-0.188
-422.530	141.040	-0.171	-0.227
-421.515	800.000	-0.066	-0.186
-420.500	-104.092	0.295	0.069
-419.486	-44.700	-0.246	0.123
-418.471	-43.940	-0.109	-0.055
-417.457	206.130	0.043	-0.066
-416.442	132.565	0.030	0.039
-415.428	-27.722	-0.328	0.190
-414.413	47.479	-0.162	0.151
-413.398	800.000	0.048	-0.172
-412.384	56.028	-0.170	0.165
-411.369	-200.000	0.003	0.122
-410.355	-40.621	0.183	0.095
-409.340	47.943	0.200	0.187
-408.325	-200.000	0.002	0.130
-407.311	800.000	-0.041	0.160
-406.296	-148.582	0.434	0.035
-405.282	-181.175	-0.034	0.001
-404.267	273.182	0.046	0.081
-403.252	-65.567	0.060	-0.024
-402.238	800.000	0.042	0.133
-401.223	-130.844	-0.162	-0.022
-400.209	80.354	-0.295	-0.317
-399.194	160.712	0.107	0.150
-398.179	9.057	0.475	0.359
-397.165	30.277	-0.070	0.059
-396.150	-32.015	0.375	0.210
-395.136	77.567	0.156	0.166
-394.121	-200.000	-0.018	0.109
-393.106	-11.996	-0.092	0.060
-392.092	800.000	0.082	0.241
-391.077	410.952	-0.143	-0.302
-390.063	263.326	-0.031	0.054
-389.048	800.000	0.112	-0.378
-388.033	-58.632	0.164	-0.071
-387.019	-155.154	-0.101	-0.007
-386.004	-33.602	0.247	-0.136
-384.990	-171.864	0.034	0.001
-383.975	42.816	-0.048	0.044
-382.960	-127.508	0.393	-0.057
-381.946	717.425	0.105	0.279
-380.931	143.687	-0.022	-0.029
-379.917	-200.000	0.164	0.001
-378.902	-37.823	0.168	0.089
-377.888	-135.237	-0.267	-0.032
-376.873	99.943	0.090	0.104
-375.858	800.000	-0.054	-0.176
-374.844	-45.525	-0.288	0.143
-373.829	546.592	-0.081	-0.195
-372.815	755.635	0.064	0.174
-371.800	-40.893	0.386	-0.199
-370.785	-96.183	0.314	-0.083
-369.771	152.425	0.088	-0.120
-368.756	-115.418	-0.195	0.037
-367.742	-72.441	0.238	0.088
-366.727	10.633	-0.154	0.117
-365.712	265.250	0.120	-0.208
-364.698	800.000	-0.116	0.401
-363.683	-53.484	-0.062	0.029
-362.669	-90.573	-0.475	0.137
-361.654	67.299	0.108	-0.110
-360.639	-200.000	0.022	-0.105
-359.625	531.628	-0.085	0.200
-358.610	-123.558	-0.086	0.014
-357.596	-200.000	-0.035	0.170
-356.581	-147.271	0.046	0.004
-355.566	624.703	-0.117	0.295
-354.552	-16.055	-0.212	0.134
-353.537	-52.768	0.105	-0.048
-352.523	800.000	0.093	0.262
-351.508	88.253	0.101	-0.112
-350.493	177.309	0.177	0.257
-349.479	-112.443	0.308	-0.061
-348.464	-80.057	0.335	0.112
-347.450	105.503	0.098	-0.116
-346.435	242.237	-0.010	-0.017
-345.420	563.883	-0.166	0.401
-344.406	-191.892	-0.114	-0.001
-343.391	-61.256	-0.072	-0.030
-342.377	-92.024	-0.508	0.143
-341.362	800.000	-0.024	0.092
-340.348	-159.776	0.226	0.012
-339.333	-200.000	-0.058	0.285
-338.318	-73.929	-0.168	0.061
-337.304	357.138	-0.168	-0.333
-336.289	130.289	0.148	-0.189
-335.275	145.158	0.093	-0.124
-334.260	-200.000	-0.072	-0.355
-333.245	-200.000	-0.053	-0.410
-332.231	-89.769	0.289	0.084
-331.216	800.000	0.101	0.334
-330.202	-18.219	0.119	0.074
-329.187	93.982	-0.157	0.178
-328.172	-21.556	-0.288	-0.175
-327.158	-200.000	-0.034	0.202
-326.143	-112.475	-0.083	0.017
-325.129	-200.000	-0.017	-0.082
-324.114	145.479	-0.139	0.185
-323.099	-165.386	-0.331	-0.014
-322.085	-200.000	-0.010	0.078
-321.070	-22.110	0.073	0.044
-320.056	-53.640	0.299	-0.136
-319.041	639.584	0.098	0.247
-318.026	78.279	0.156	-0.166
-317.012	800.000	0.016	-0.047
-315.997	-200.000	0.029	-0.170
-314.983	800.000	0.096	0.316
-313.968	182.232	-0.111	-0.163
-312.953	-112.745	0.409	0.081
-311.939	271.419	-0.017	-0.030
-310.924	519.329	-0.073	0.171
-309.910	454.417	-0.166	0.366
-308.895	21.391	-0.189	-0.153
-307.880	-99.968	0.191	0.047
-306.866	102.516	0.166	-0.193
-305.851	-108.339	0.321	0.069
-304.837	-74.835	0.433	0.155
-303.822	583.969	-0.086	-0.211
-302.807	-106.977	0.307	0.068
-301.793	193.342	-0.090	0.135
-300.778	800.000	0.091	-0.330
-299.764	-93.580	-0.390	0.107
-298.749	-114.793	-0.524	0.100
-297.735	-200.000	-0.020	-0.274
-296.720	-200.000	-0.016	-0.289
-295.705	54.324	-0.007	0.006
-294.691	-156.527	0.147	-0.009
-293.676	-108.549	0.274	-0.059
-292.662	77.612	-0.144	0.153
-291.647	800.000	-0.150	-0.420
-290.632	403.352	0.093	-0.194
-289.618	55.983	-0.257	0.248
-288.603	800.000	-0.107	0.451
-287.589	-147.656	-0.203	-0.017
-286.574	-92.195	0.475	-0.133
-285.559	800.000	-0.083	-0.283
-284.545	-200.000	-0.031	-0.157
-283.530	800.000	0.091	-0.257
-282.516	800.000	0.064	0.200
-281.501	214.090	0.054	-0.085
-280.486	800.000	-0.068	0.254
-279.472	248.072	-0.088	-0.148
-278.457	128.081	-0.240	-0.303
-277.443	215.977	0.030	0.047
-276.428	800.000	-0.075	0.301
-275.413	-67.102	0.110	0.043
-274.399	-125.692	-0.215	0.032
-273.384	336.419	0.097	0.188
-272.370	-90.941	0.076	-0.022
-271.355	92.935	0.099	0.111
-270.340	800.000	-0.059	-0.242
-269.326	123.720	-0.117	-0.146
-268.311	55.747	0.060	0.058
-267.297	403.542	-0.069	0.143
-266.282	800.000	-0.083	-0.332
-265.267	238.431	-0.239	-0.395
-264.253	-31.411	0.131	-0.073
-263.238	58.388	0.078	-0.076
-262.224	-122.539	-0.306	0.049
-261.209	39.212	-0.262	0.233
-260.195	-200.000	-0.036	0.410
-259.180	582.165	0.056	-0.136
-258.165	396.718	-0.139	-0.288
-257.151	-200.000	-0.007	-0.061
-256.136	541.860	-0.055	0.131
-255.122	-80.953	-0.209	-0.069
-254.107	-200.000	0.050	-0.305
-253.092	52.150	0.090	0.085
-252.078	800.000	0.080	-0.255
-251.063	-67.045	0.355	0.139
-250.049	77.949	-0.032	0.034
-249.034	446.248	0.183	0.400
-248.019	-148.805	-0.228	0.018
-247.005	800.000	0.046	-0.142
-245.990	-200.000	-0.003	0.209
-244.976	23.917	-0.236	0.193
-243.961	34.321	-0.149	0.129
-242.946	305.418	-0.172	0.318
-241.932	17.202	-0.164	-0.129
-240.917	-145.745	-0.086	-0.008
-239.903	305.976	0.081	0.149
-238.888	-90.008	-0.255	-0.074
-237.873	64.973	0.114	0.114
-236.859	-94.329	0.507	0.138
-235.844	800.000	-0.066	0.187
-234.830	254.770	0.068	-0.116
-233.815	39.466	-0.181	0.161
-232.800	690.914	0.042	0.108
-231.786	236.529	-0.156	0.256
-230.771	260.067	-0.147	-0.252
-229.757	380.367	-0.010	0.020
-228.742	28.070	0.142	0.119
-227.727	698.947	0.129	0.336
-226.713	-138.220	-0.188	-0.021
-225.698	544.526	0.069	-0.163
-224.684	67.485	0.190	0.192
-223.669	-109.770	-0.156	0.033
-222.655	-10.740	0.264	0.174
-221.640	-200.000	-0.011	0.103
-220.625	203.073	-0.087	0.134
-219.611	66.026	-0.154	0.155
-218.596	-200.000	0.014	-0.121
-217.582	-200.000	-0.023	-0.104
-216.567	800.000	-0.022	0.072
-215.552	-200.000	0.046	-0.283
-214.538	711.295	-0.079	-0.207
-213.523	32.662	0.117	-0.100
-212.509	81.374	0.246	-0.264
-211.494	-200.000	0.006	-0.061
-210.479	-26.253	0.249	-0.145
-209.465	115.989	-0.265	-0.322
-208.450	663.987	-0.044	0.112
-207.436	-79.137	-0.117	0.040
-206.421	201.531	0.038	-0.058
-205.406	800.000	0.074	0.222
-204.392	800.000	0.055	0.164
-203.377	-139.063	0.046	-0.005
-202.363	354.191	-0.135	-0.266
-201.348	-95.489	-0.429	0.114
-200.333	659.959	0.040	0.101
-199.319	-200.000	0.013	-0.192
-198.304	-144.274	0.136	0.013
-197.290	347.121	-0.089	-0.173
-196.275	-73.664	0.126	-0.046
-195.260	138.498	-0.051	-0.066
-194.246	196.407	-0.059	0.090
-193.231	-1.580	-0.125	-0.087
-192.217	118.699	0.274	-0.336
-191.202	-58.504	-0.231	-0.099
-190.187	-200.000	-0.022	-0.174
-189.173	46.612	-0.121	0.111
-188.158	-2.586	0.128	-0.089
-187.144	197.814	0.135	-0.205
-186.129	-200.000	0.005	0.188
-185.114	201.342	0.074	0.114
-184.100	-120.440	0.477	0.080
-183.085	97.774	0.214	-0.244
-182.071	-8.387	-0.040	0.027
-181.056	-7.162	0.087	-0.058
-180.042	-101.840	-0.156	-0.037
-179.027	395.450	-0.169	-0.350
-178.012	-200.000	0.012	0.158
-176.998	-200.000	0.073	0.000
-175.983	-153.981	-0.254	-0.017
-174.969	800.000	0.053	0.148
-173.954	8.376	0.077	-0.057
-172.939	-200.000	-0.044	-0.223
-171.925	-200.000	-0.013	-0.155
-170.910	145.153	0.150	0.199
-169.896	158.032	0.094	-0.129
-168.881	100.389	-0.135	0.155
-167.866	800.000	0.056	-0.167
-166.852	774.489	0.104	-0.281
-165.837	142.658	0.233	-0.306
-164.823	800.000	0.068	-0.269
-163.808	-167.881	0.348	-0.014
-162.793	70.733	0.066	-0.068
-161.779	-92.174	0.143	0.040
-160.764	-200.000	-0.031	0.340
-159.750	-115.894	-0.035	0.006
-158.735	-15.824	-0.341	0.215
-157.720	389.326	-0.136	0.279
-156.706	-200.000	0.016	0.127
-155.691	17.931	0.109	-0.086
-154.677	800.000	0.057	0.156
-153.662	298.622	0.044	-0.081
-152.647	28.432	0.173	0.145
-151.633	-137.569	0.230	-0.026
-150.618	1.906	-0.306	0.219
-149.604	800.000	0.021	0.060
-148.589	800.000	0.072	0.256
-147.574	-200.000	0.023	-0.315
-146.560	267.418	-0.052	0.089
-145.545	800.000	0.029	-0.097
-144.531	-152.278	-0.105	-0.007
-143.516	148.842	0.132	0.176
-142.502	15.171	0.288	0.223
-141.487	144.841	-0.200	0.265
-140.472	750.444	0.171	-0.456
-139.458	800.000	-0.045	-0.128
-138.443	35.729	0.116	0.100
-137.429	-29.930	0.204	-0.115
-136.414	731.437	0.043	0.114
-135.399	176.904	0.036	-0.052
-134.385	664.287	-0.065	-0.165
-133.370	-200.000	-0.018	-0.479
-132.356	-14.135	0.290	-0.185
-131.341	-100.126	0.180	0.044
-130.326	421.065	0.033	0.070
-129.312	-92.324	-0.134	0.037
-128.297	-200.000	0.035	0.172
-127.283	36.263	0.190	0.166
-126.268	-200.000	-0.012	0.156
-125.253	235.325	-0.143	0.233
-124.239	14.429	-0.200	0.154
-123.224	708.515	-0.065	0.170
-122.210	-96.154	-0.357	-0.094
-121.195	240.775	-0.137	0.227
