DTS Sentinel unit serial number:	SN413079Multiplexer serial number:	ORYXHardware model number:	OX4-SRSoftware version number:	ORYX F/W v4.00 Oryx Data Collector v3.7.2.0data status	okinstallation	princeton_trtdifferential loss correction	single-endedforward channel	channel 4reverse channel	N/Adate	2019/09/12time	07:15:10forward acquisition time	60.00reverse acquisition time	0.00gamma	496.2192k internal	0.2306k external	0.2306temperature offset calibration	1.0062default loss term (dB/km)	0.3790temperature slope calibration	1.0000multiplexer offset coefficient	1.0000multiplexer slope coefficient	1.0000fibre end	0.00T internal ref (°C)	32.25T ext. ref 1 (°C)	1.60T ext. ref 2 (°C)	28.25length (m)	temperature (°C)	Stokes	anti-Stokes-747.200	-75.037	0.157	0.057
-746.185	-200.000	0.000	0.055
-745.171	-45.431	-0.274	0.138
-744.156	540.463	-0.035	-0.085
-743.142	198.155	-0.114	-0.178
-742.127	-30.316	0.177	0.102
-741.112	-47.167	0.091	0.045
-740.098	-119.096	-0.262	0.047
-739.083	-105.980	-0.280	0.064
-738.069	800.000	-0.066	0.192
-737.054	-73.390	-0.067	-0.025
-736.039	90.769	-0.161	0.184
-735.025	-200.000	0.054	-0.305
-734.010	168.186	-0.124	-0.180
-732.996	545.731	0.083	-0.202
-731.981	-116.495	-0.136	0.025
-730.966	-41.091	0.217	-0.114
-729.952	-91.593	-0.374	0.108
-728.937	-5.951	-0.255	-0.177
-727.923	-40.134	0.342	-0.181
-726.908	133.894	0.149	-0.196
-725.894	-81.102	-0.289	-0.097
-724.879	-164.121	0.025	-0.001
-723.864	712.876	-0.025	-0.067
-722.850	-47.041	-0.192	0.095
-721.835	-99.029	-0.452	-0.116
-720.821	-88.055	0.375	0.114
-719.806	-97.467	-0.499	0.132
-718.791	800.000	-0.104	-0.297
-717.777	448.572	-0.174	-0.389
-716.762	800.000	0.060	-0.215
-715.748	356.261	-0.187	0.379
-714.733	-200.000	-0.060	-0.420
-713.718	-200.000	0.031	-0.177
-712.704	283.929	-0.054	-0.099
-711.689	-200.000	0.049	-0.230
-710.675	244.182	0.062	-0.105
-709.660	-29.410	-0.076	-0.044
-708.645	-122.112	-0.322	0.054
-707.631	-86.653	0.114	-0.036
-706.616	37.007	0.218	-0.196
-705.602	-80.410	-0.326	-0.110
-704.587	475.835	0.133	-0.306
-703.572	205.345	0.120	-0.190
-702.558	6.827	-0.117	0.088
-701.543	385.978	0.026	-0.055
-700.529	800.000	0.073	-0.283
-699.514	-95.899	0.197	0.053
-698.499	-142.838	0.174	-0.017
-697.485	255.709	-0.049	-0.085
-696.470	-200.000	0.008	0.145
-695.456	-154.366	-0.013	0.001
-694.441	800.000	-0.112	-0.397
-693.426	-94.123	0.113	0.031
-692.412	48.716	-0.376	-0.358
-691.397	-142.741	-0.114	-0.011
-690.383	-55.863	-0.174	-0.079
-689.368	-200.000	0.386	0.001
-688.354	-110.473	-0.375	0.079
-687.339	132.283	-0.099	0.129
-686.324	-200.000	-0.006	-0.261
-685.310	-200.000	0.019	0.489
-684.295	-107.574	0.109	-0.024
-683.281	75.121	0.148	0.159
-682.266	-30.423	-0.119	-0.068
-681.251	-35.857	-0.224	0.123
-680.237	-1.213	0.159	0.114
-679.222	-16.455	-0.157	0.101
-678.208	-129.580	-0.130	-0.018
-677.193	-134.846	-0.380	-0.047
-676.178	-200.000	0.007	-0.129
-675.164	69.730	-0.063	-0.066
-674.149	30.174	-0.251	0.217
-673.135	-18.717	0.079	0.050
-672.120	188.426	0.119	-0.180
-671.105	186.286	0.114	0.172
-670.091	9.690	-0.245	-0.188
-669.076	274.090	-0.157	-0.282
-668.062	569.176	0.078	-0.191
-667.047	-38.525	-0.235	-0.126
-666.032	-57.121	-0.201	-0.090
-665.018	-200.000	-0.020	-0.396
-664.003	8.960	-0.147	0.113
-662.989	-56.386	0.250	0.112
-661.974	-44.152	-0.328	-0.167
-660.959	-14.605	-0.130	-0.085
-659.945	-124.743	0.171	-0.027
-658.930	113.709	0.313	-0.386
-657.916	-107.044	0.244	0.055
-656.901	-79.928	0.409	0.139
-655.886	142.903	-0.095	-0.128
-654.872	456.550	-0.118	-0.265
-653.857	-108.742	-0.084	-0.018
-652.843	800.000	0.067	-0.204
-651.828	-200.000	0.008	-0.183
-650.814	164.209	0.074	0.106
-649.799	-26.765	-0.066	0.039
-648.784	354.480	-0.206	-0.416
-647.770	-60.226	-0.164	-0.071
-646.755	-200.000	-0.043	-0.257
-645.741	-87.874	0.328	-0.100
-644.726	-104.578	-0.272	0.064
-643.711	-11.675	-0.183	0.122
-642.697	-117.164	0.059	0.011
-641.682	-200.000	-0.249	-0.001
-640.668	-200.000	-0.012	0.126
-639.653	113.901	-0.108	0.133
-638.638	36.326	0.281	0.251
-637.624	304.109	-0.139	0.262
-636.609	184.521	-0.075	-0.112
-635.595	-176.151	-0.291	0.008
-634.580	-164.585	-0.203	0.009
-633.565	-47.261	0.077	-0.038
-632.551	800.000	0.036	-0.152
-631.536	-124.209	-0.159	0.025
-630.522	436.254	-0.146	-0.322
-629.507	786.090	-0.097	0.269
-628.492	-59.654	-0.211	-0.092
-627.478	-60.003	0.032	0.014
-626.463	-75.444	-0.186	-0.067
-625.449	-84.985	0.224	0.071
-624.434	-176.289	-0.072	0.002
-623.419	448.914	0.039	0.087
-622.405	95.970	-0.076	0.088
-621.390	-200.000	0.015	-0.123
-620.376	800.000	0.067	0.297
-619.361	-200.000	-0.046	-0.210
-618.346	63.465	-0.147	-0.149
-617.332	-4.014	0.053	-0.037
-616.317	-200.000	-0.004	-0.136
-615.303	-80.020	0.519	0.176
-614.288	-52.243	-0.212	0.099
-613.273	702.665	0.084	-0.224
-612.259	64.802	-0.331	-0.338
-611.244	-180.599	-0.130	0.003
-610.230	-90.844	-0.123	0.036
-609.215	-142.171	-0.106	-0.011
-608.201	-134.791	-0.119	-0.015
-607.186	-200.000	0.024	-0.171
-606.171	-39.295	-0.181	0.096
-605.157	273.692	0.131	0.234
-604.142	800.000	0.043	-0.147
-603.128	308.136	0.104	0.196
-602.113	800.000	-0.049	0.197
-601.098	272.508	0.080	-0.142
-600.084	-63.051	-0.170	0.071
-599.069	666.917	-0.079	0.207
-598.055	-200.000	-0.046	0.460
-597.040	-10.405	-0.216	-0.145
-596.025	-200.000	0.051	-0.535
-595.011	-200.000	0.077	-0.456
-593.996	-48.704	-0.297	-0.144
-592.982	-144.385	0.182	0.017
-591.967	352.899	-0.083	0.166
-590.952	-45.298	0.151	0.076
-589.938	-107.969	0.318	0.070
-588.923	-137.332	-0.243	0.028
-587.909	154.170	-0.032	-0.044
-586.894	668.302	0.024	-0.062
-585.879	-200.000	0.035	-0.319
-584.865	-116.248	0.275	-0.052
-583.850	-104.392	0.291	0.068
-582.836	169.761	-0.105	-0.152
-581.821	595.011	-0.023	-0.058
-580.806	53.057	0.188	0.182
-579.792	186.927	-0.206	-0.311
-578.777	510.232	-0.026	-0.061
-577.763	-34.255	-0.093	-0.051
-576.748	-200.000	0.013	-0.142
-575.733	800.000	-0.078	-0.232
-574.719	174.994	0.063	0.092
-573.704	-200.000	-0.023	0.341
-572.690	-95.892	-0.129	0.035
-571.675	53.763	0.097	0.094
-570.661	168.985	-0.098	0.141
-569.646	-200.000	-0.008	-0.048
-568.631	-140.118	-0.149	-0.016
-567.617	16.245	0.043	-0.034
-566.602	-200.000	0.035	0.334
-565.588	-200.000	-0.091	-0.446
-564.573	243.301	0.031	-0.053
-563.558	51.184	0.431	-0.413
-562.544	15.718	0.118	0.093
-561.529	-121.154	0.322	0.055
-560.515	-200.000	0.001	-0.126
-559.500	-61.443	-0.261	0.111
-558.485	-9.674	-0.093	0.062
-557.471	-79.975	0.073	-0.025
-556.456	224.982	-0.161	0.263
-555.442	-5.662	-0.231	-0.160
-554.427	-59.109	0.367	-0.160
-553.412	-200.000	-0.002	0.178
-552.398	-200.000	0.073	-0.408
-551.383	-200.000	0.009	-0.117
-550.369	38.895	-0.261	-0.235
-549.354	-200.000	0.003	-0.069
-548.339	60.137	0.096	0.095
-547.325	-23.099	-0.345	0.210
-546.310	-8.078	0.099	-0.067
-545.296	35.560	-0.236	-0.209
-544.281	449.721	-0.028	0.063
-543.266	51.246	0.117	0.112
-542.252	-65.129	-0.379	-0.154
-541.237	-102.792	0.240	-0.058
-540.223	-44.118	0.012	-0.006
-539.208	-41.458	-0.114	0.059
-538.193	800.000	0.050	0.208
-537.179	-68.110	0.233	0.092
-536.164	236.744	-0.227	-0.379
-535.150	-138.497	0.187	0.021
-534.135	147.609	0.201	-0.273
-533.121	-7.974	-0.218	0.148
-532.106	-200.000	0.012	0.149
-531.091	-158.106	0.055	0.003
-530.077	-111.879	-0.084	0.017
-529.062	183.775	0.119	0.177
-528.048	8.550	0.191	-0.145
-527.033	573.357	-0.074	0.181
-526.018	1.869	0.034	0.025
-525.004	74.741	-0.176	0.187
-523.989	-200.000	-0.007	-0.124
-522.975	800.000	0.159	-0.546
-521.960	150.402	0.031	-0.042
-520.945	16.717	-0.105	0.084
-519.931	-57.581	0.100	0.044
-518.916	-50.803	-0.303	-0.144
-517.902	-144.880	0.588	0.054
-516.887	-67.521	0.094	-0.037
-515.872	61.015	-0.320	-0.320
-514.858	142.865	-0.156	-0.209
-513.843	9.942	0.114	0.087
-512.829	476.205	0.024	-0.056
-511.814	-29.836	0.075	0.043
-510.799	-124.960	0.303	-0.047
-509.785	82.420	0.157	0.172
-508.770	-200.000	0.015	-0.154
-507.756	389.360	-0.163	-0.340
-506.741	-64.361	0.197	-0.081
-505.726	-13.489	0.263	-0.172
-504.712	-32.920	-0.088	-0.049
-503.697	41.292	-0.114	0.104
-502.683	138.321	0.101	0.133
-501.668	265.056	0.133	-0.234
-500.653	-200.000	-0.049	-0.229
-499.639	178.067	0.119	0.174
-498.624	52.248	-0.087	0.084
-497.610	457.801	-0.058	0.130
-496.595	524.862	-0.044	-0.104
-495.581	-200.000	0.063	-0.330
-494.566	-111.586	0.275	-0.056
-493.551	-200.000	-0.016	-0.157
-492.537	-157.377	0.145	-0.009
-491.522	-200.000	0.021	0.112
-490.508	-74.094	0.131	-0.048
-489.493	-113.339	0.316	0.062
-488.478	-37.512	-0.097	0.052
-487.464	-127.197	0.115	-0.017
-486.449	800.000	-0.091	0.335
-485.435	14.430	-0.335	-0.263
-484.420	7.327	0.217	-0.163
-483.405	-85.655	-0.072	-0.023
-482.391	-95.504	-0.233	0.063
-481.376	800.000	-0.095	-0.291
-480.362	-200.000	0.030	-0.207
-479.347	-28.486	0.072	0.042
-478.332	-32.217	-0.136	0.077
-477.318	339.589	0.080	-0.157
-476.303	-200.000	-0.067	0.357
-475.289	109.479	0.071	-0.085
-474.274	-200.000	-0.008	0.057
-473.259	69.229	-0.086	-0.089
-472.245	245.784	0.063	-0.106
-471.230	278.373	-0.059	0.105
-470.216	163.748	0.173	0.245
-469.201	-142.821	-0.115	0.011
-468.186	442.862	0.185	-0.408
-467.172	269.141	0.141	0.249
-466.157	231.177	-0.075	0.123
-465.143	251.405	-0.063	-0.108
-464.128	-200.000	-0.017	0.096
-463.113	156.101	-0.185	0.257
-462.099	-50.158	0.115	-0.055
-461.084	-117.884	0.102	0.018
-460.070	-25.169	0.105	-0.062
-459.055	-200.000	0.067	-0.342
-458.040	-192.675	-0.141	0.001
-457.026	-200.000	-0.022	0.233
-456.011	107.480	-0.223	0.267
-454.997	59.146	-0.246	-0.243
-453.982	-200.000	-0.053	0.250
-452.968	504.357	0.009	0.021
-451.953	-121.983	-0.279	-0.046
-450.938	152.873	-0.126	-0.173
-449.924	42.804	0.127	-0.117
-448.909	-143.973	0.246	0.023
-447.895	629.206	0.123	0.312
-446.880	94.321	-0.112	0.128
-445.865	-74.131	0.103	0.038
-444.851	78.249	-0.112	-0.120
-443.836	-200.000	-0.036	0.285
-442.822	-200.000	-0.046	0.386
-441.807	102.106	0.026	0.031
-440.792	182.560	-0.071	-0.106
-439.778	154.527	0.080	-0.110
-438.763	-47.157	-0.171	-0.084
-437.749	-17.784	0.195	0.123
-436.734	-99.646	0.212	-0.053
-435.719	49.848	0.090	-0.086
-434.705	-200.000	0.026	0.261
-433.690	800.000	0.052	0.163
-432.676	-10.487	0.178	0.118
-431.661	83.536	-0.201	-0.220
-430.646	-200.000	-0.003	-0.067
-429.632	25.930	0.204	0.171
-428.617	-102.132	0.426	0.103
-427.603	194.669	0.114	0.174
-426.588	-108.987	-0.338	-0.072
-425.573	-65.033	-0.144	-0.058
-424.559	-134.475	-0.131	0.016
-423.544	318.850	0.083	-0.158
-422.530	-135.985	0.183	0.022
-421.515	41.624	0.174	-0.158
-420.500	-176.041	-0.029	0.001
-419.486	184.517	0.144	0.214
-418.471	-38.025	0.189	0.101
-417.457	114.092	-0.119	-0.145
-416.442	255.215	-0.136	-0.234
-415.428	299.782	0.106	0.196
-414.413	-200.000	0.050	-0.241
-413.398	-98.016	0.076	0.020
-412.384	-107.578	-0.359	-0.079
-411.369	258.596	-0.142	0.246
-410.355	-200.000	0.070	0.379
-409.340	24.859	0.138	-0.115
-408.325	-14.303	-0.125	0.081
-407.311	242.709	-0.102	-0.171
-406.296	-200.000	-0.011	-0.220
-405.282	-200.000	-0.002	0.037
-404.267	-105.631	0.025	-0.006
-403.252	-21.384	0.197	-0.121
-402.238	800.000	-0.048	0.177
-401.223	13.013	0.051	0.040
-400.209	-132.543	-0.099	0.013
-399.194	90.005	-0.115	0.129
-398.179	38.885	0.315	0.283
-397.165	800.000	0.053	0.232
-396.150	301.556	-0.126	-0.234
-395.136	68.078	0.237	-0.243
-394.121	79.184	-0.055	0.059
-393.106	57.412	0.169	-0.165
-392.092	112.162	-0.157	0.190
-391.077	-200.000	0.039	0.302
-390.063	-112.090	-0.460	-0.093
-389.048	-74.246	0.014	0.005
-388.033	91.422	-0.242	0.272
-387.019	389.705	0.105	-0.218
-386.004	-78.022	-0.073	0.025
-384.990	-89.588	-0.197	0.058
-383.975	-92.768	0.129	-0.036
-382.960	-59.238	-0.112	-0.048
-381.946	800.000	-0.048	0.151
-380.931	800.000	0.098	0.287
-379.917	800.000	-0.030	0.124
-378.902	-33.498	0.373	0.207
-377.888	224.324	0.095	-0.155
-376.873	-200.000	0.007	0.235
-375.858	257.815	0.072	-0.124
-374.844	106.288	0.086	0.103
-373.829	202.985	-0.131	-0.203
-372.815	-200.000	-0.036	-0.161
-371.800	-200.000	0.003	-0.035
-370.785	13.152	-0.338	-0.263
-369.771	275.937	0.031	0.055
-368.756	-59.204	-0.057	-0.025
-367.742	-181.346	-0.216	-0.004
-366.727	117.211	0.367	0.453
-365.712	22.580	-0.187	-0.153
-364.698	-131.678	0.267	0.035
-363.683	-200.000	0.018	0.202
-362.669	218.283	0.034	0.054
-361.654	-117.066	-0.111	-0.020
-360.639	-32.451	-0.217	-0.121
-359.625	47.529	0.244	0.228
-358.610	27.962	0.130	0.110
-357.596	55.444	-0.143	0.139
-356.581	139.756	0.165	-0.218
-355.566	-43.103	-0.182	-0.093
-354.552	109.635	0.216	-0.259
-353.537	293.766	-0.102	0.187
-352.523	800.000	-0.033	-0.120
-351.508	-36.451	0.066	-0.036
-350.493	-5.868	0.246	-0.169
-349.479	-57.281	0.171	-0.075
-348.464	11.836	0.243	0.187
-347.450	13.739	-0.023	0.018
-346.435	24.211	-0.163	-0.134
-345.420	96.836	0.121	-0.139
-344.406	800.000	-0.029	0.114
-343.391	43.433	0.203	0.186
-342.377	-200.000	-0.044	0.196
-341.362	-200.000	-0.004	0.184
-340.348	254.723	0.231	-0.396
-339.333	800.000	0.050	0.183
-338.318	79.521	0.285	0.306
-337.304	-68.004	0.275	0.107
-336.289	-200.000	-0.107	0.478
-335.275	-200.000	-0.006	-0.151
-334.260	-200.000	0.006	0.042
-333.245	85.367	0.027	-0.030
-332.231	92.296	-0.106	0.120
-331.216	-92.388	0.120	0.034
-330.202	164.309	0.095	0.134
-329.187	-200.000	0.006	-0.131
-328.172	65.030	-0.167	-0.169
-327.158	145.193	0.124	0.166
-326.143	780.084	-0.214	0.587
-325.129	-200.000	-0.015	-0.305
-324.114	-200.000	-0.003	0.167
-323.099	800.000	-0.109	0.334
-322.085	106.901	0.091	-0.109
-321.070	47.163	0.131	-0.122
-320.056	800.000	-0.027	-0.082
-319.041	58.883	-0.159	-0.156
-318.026	800.000	-0.093	0.334
-317.012	48.248	0.106	-0.099
-315.997	139.836	0.084	-0.111
-314.983	-200.000	-0.026	0.185
-313.968	-151.222	0.323	-0.024
-312.953	128.200	0.138	0.176
-311.939	431.777	-0.033	-0.072
-310.924	800.000	0.062	-0.173
-309.910	222.370	-0.077	-0.124
-308.895	699.117	-0.168	0.443
-307.880	-149.300	0.450	-0.036
-306.866	340.213	0.149	-0.291
-305.851	20.609	0.112	0.091
-304.837	-200.000	-0.038	-0.293
-303.822	-79.690	-0.197	0.066
-302.807	-166.247	0.204	0.009
-301.793	800.000	-0.094	0.281
-300.778	-65.051	0.291	0.117
-299.764	-54.050	0.379	-0.172
-298.749	-90.229	-0.153	-0.044
-297.735	-17.771	-0.150	0.094
-296.720	93.085	-0.119	-0.135
-295.705	163.805	0.083	-0.116
-294.691	800.000	0.042	0.137
-293.676	-107.079	-0.261	-0.058
-292.662	-200.000	-0.063	-0.305
-291.647	-110.592	-0.122	0.025
-290.632	800.000	0.029	0.090
-289.618	-200.000	0.012	0.126
-288.603	-200.000	-0.023	0.367
-287.589	-192.524	-0.035	-0.000
-286.574	800.000	-0.037	-0.145
-285.559	69.974	0.226	-0.233
-284.545	630.432	0.058	0.147
-283.530	-137.405	-0.130	-0.015
-282.516	-82.801	0.151	0.049
-281.501	-137.510	-0.309	-0.035
-280.486	19.921	0.275	0.221
-279.472	794.730	0.049	-0.136
-278.457	-13.157	0.152	0.099
-277.443	73.484	-0.089	-0.093
-276.428	-197.732	-0.103	0.001
-275.413	519.787	-0.123	-0.288
-274.399	-90.010	-0.374	0.109
-273.384	-200.000	0.045	0.293
-272.370	34.458	-0.201	-0.175
-271.355	-13.763	-0.053	0.034
-270.340	234.916	0.095	0.157
-269.326	-50.254	0.029	-0.014
-268.311	256.093	0.066	-0.113
-267.297	100.062	-0.084	0.097
-266.282	-172.789	0.239	0.007
-265.267	-141.291	-0.264	0.027
-264.253	376.646	0.086	0.175
-263.238	800.000	-0.035	0.152
-262.224	-140.095	0.233	0.024
-261.209	-11.137	-0.303	-0.199
-260.195	-97.446	0.330	0.086
-259.180	25.044	0.305	0.252
-258.165	-157.561	-0.017	-0.001
-257.151	-142.589	0.485	0.047
-256.136	34.434	0.199	0.174
-255.122	-200.000	0.015	0.235
-254.107	-79.045	0.192	-0.065
-253.092	439.818	0.156	0.340
-252.078	144.429	0.070	0.093
-251.063	-17.631	-0.159	0.099
-250.049	7.276	-0.314	-0.234
-249.034	-104.259	-0.239	-0.055
-248.019	254.781	-0.106	0.182
-247.005	41.553	-0.138	0.125
-245.990	-164.194	-0.612	-0.028
-244.976	791.313	0.115	-0.314
-243.961	-143.115	-0.307	0.030
-242.946	-200.000	-0.038	0.236
-241.932	-60.870	0.358	0.151
-240.917	109.729	0.084	0.100
-239.903	-177.673	-0.375	0.009
-238.888	-20.438	0.141	-0.087
-237.873	-99.765	-0.241	0.060
-236.859	619.334	-0.106	0.264
-235.844	21.584	-0.436	0.353
-234.830	-200.000	-0.043	-0.327
-233.815	-145.235	-0.066	0.006
-232.800	46.056	0.098	-0.091
-231.786	-200.000	0.050	-0.237
-230.771	800.000	-0.021	0.066
-229.757	83.400	-0.181	-0.197
-228.742	136.891	-0.161	-0.209
-227.727	-20.507	0.474	0.290
-226.713	-84.035	-0.376	-0.119
-225.698	675.804	0.065	-0.168
-224.684	163.609	-0.057	-0.080
-223.669	28.463	0.107	0.090
-222.655	-6.328	0.074	0.051
-221.640	186.411	-0.178	0.263
-220.625	-40.202	0.320	-0.166
-219.611	-90.238	0.050	-0.014
-218.596	-77.218	-0.301	-0.105
-217.582	-130.641	-0.423	-0.057
-216.567	28.987	0.138	-0.116
-215.552	478.184	-0.108	-0.243
-214.538	-128.784	-0.182	-0.026
-213.523	-56.839	-0.179	0.079
-212.509	787.469	-0.075	0.205
-211.494	117.793	0.081	0.099
-210.479	449.815	0.096	-0.211
-209.465	-98.703	-0.342	-0.087
-208.450	800.000	0.036	-0.122
-207.436	-152.841	0.256	-0.018
-206.421	360.275	0.099	-0.197
-205.406	491.511	0.084	-0.191
-204.392	-39.951	0.066	0.034
-203.377	-200.000	-0.075	-0.364
-202.363	-46.043	0.182	0.090
-201.348	12.371	0.226	0.173
-200.333	800.000	0.035	-0.128
-199.319	-200.000	0.009	-0.227
-198.304	-85.267	0.076	-0.024
-197.290	-80.066	0.352	0.118
-196.275	-200.000	-0.346	0.001
-195.260	85.848	0.180	0.198
-194.246	800.000	-0.049	-0.215
-193.231	75.309	0.175	-0.184
-192.217	-177.190	0.139	-0.003
-191.202	335.066	-0.035	0.067
-190.187	-37.358	0.499	-0.265
-189.173	-125.400	-0.454	-0.069
-188.158	12.502	-0.276	0.212
-187.144	-10.649	-0.377	-0.248
-186.129	-200.000	-0.061	-0.276
-185.114	-111.316	0.282	-0.057
-184.100	44.085	0.124	-0.113
-183.085	-200.000	-0.046	0.328
-182.071	188.021	0.082	0.123
-181.056	189.329	-0.215	-0.320
-180.042	40.825	0.374	0.336
-179.027	-160.563	0.304	-0.016
-178.012	-18.839	0.260	0.161
-176.998	40.812	-0.168	0.151
-175.983	110.514	-0.166	0.199
-174.969	-77.621	0.328	0.113
-173.954	-140.407	-0.378	0.039
-172.939	-200.000	0.046	0.213
-171.925	800.000	0.083	0.232
-170.910	800.000	0.041	-0.145
-169.896	219.456	-0.055	0.088
-168.881	-51.160	-0.151	-0.070
-167.866	800.000	-0.101	-0.347
-166.852	193.187	-0.087	-0.131
-165.837	-200.000	-0.029	0.273
-164.823	611.040	0.089	-0.222
-163.808	88.287	-0.331	0.365
-162.793	-200.000	-0.012	0.076
-161.779	800.000	0.111	-0.337
-160.764	248.909	-0.095	0.160
-159.750	-165.193	-0.239	0.010
-158.735	37.489	0.010	-0.009
-157.720	658.355	-0.041	-0.104
-156.706	743.437	0.073	-0.196
-155.691	-58.553	-0.352	0.152
-154.677	304.144	0.123	0.227
-153.662	263.849	0.224	-0.387
-152.647	83.810	-0.002	-0.002
-151.633	0.536	-0.077	-0.054
-150.618	-91.734	-0.348	-0.098
-149.604	194.048	0.162	-0.244
-148.589	-200.000	0.032	-0.582
-147.574	262.778	0.124	-0.213
-146.560	-200.000	0.057	-0.296
-145.545	169.754	0.226	-0.321
-144.531	800.000	-0.023	0.076
-143.516	-53.946	0.132	0.060
-142.502	544.364	-0.050	-0.120
-141.487	-200.000	-0.027	0.171
-140.472	-39.267	0.206	-0.107
-139.458	800.000	-0.060	0.170
-138.443	-106.760	-0.070	0.015
-137.429	167.242	0.124	-0.174
-136.414	79.989	-0.066	-0.071
-135.399	-37.130	-0.140	0.074
-134.385	74.925	0.068	-0.072
-133.370	-78.674	-0.196	0.067
-132.356	-41.021	0.236	0.121
-131.341	50.111	0.012	-0.011
-130.326	800.000	0.042	0.126
-129.312	77.082	0.147	0.155
-128.297	-25.813	-0.097	0.057
-127.283	-92.415	0.286	0.080
-126.268	12.606	0.035	-0.027
-125.253	12.132	-0.033	0.025
-124.239	103.142	0.140	0.163
-123.224	57.873	-0.235	0.228
-122.210	-200.000	-0.020	0.239
-121.195	104.033	-0.223	0.260
