DTS Sentinel unit serial number:	SN413079Multiplexer serial number:	ORYXHardware model number:	OX4-SRSoftware version number:	ORYX F/W v4.00 Oryx Data Collector v3.7.2.0data status	okinstallation	princeton_trtdifferential loss correction	single-endedforward channel	channel 4reverse channel	N/Adate	2019/09/11time	15:23:11forward acquisition time	60.00reverse acquisition time	0.00gamma	496.2192k internal	0.2278k external	0.2278temperature offset calibration	1.0010default loss term (dB/km)	0.3790temperature slope calibration	1.0000multiplexer offset coefficient	1.0000multiplexer slope coefficient	1.0000fibre end	0.00T internal ref (°C)	42.87T ext. ref 1 (°C)	0.97T ext. ref 2 (°C)	37.19length (m)	temperature (°C)	Stokes	anti-Stokes-747.200	100.242	-0.081	-0.096
-746.185	-200.000	0.047	0.476
-745.171	800.000	0.031	-0.125
-744.156	-117.166	-0.245	-0.046
-743.142	429.569	0.145	0.324
-742.127	-200.000	0.095	0.516
-741.112	146.635	0.070	0.096
-740.098	260.325	-0.127	0.226
-739.083	-200.000	-0.012	0.200
-738.069	258.111	0.017	-0.030
-737.054	-140.400	0.118	-0.013
-736.039	800.000	-0.055	-0.239
-735.025	44.175	0.045	0.043
-734.010	-159.374	-0.158	0.009
-732.996	704.029	-0.061	0.165
-731.981	-94.690	-0.223	-0.062
-730.966	-118.242	-0.257	-0.047
-729.952	-20.424	0.264	0.167
-728.937	-43.932	0.376	-0.194
-727.923	-3.922	-0.281	0.201
-726.908	-200.000	-0.019	0.137
-725.894	218.142	-0.083	-0.137
-724.879	-49.951	-0.248	0.121
-723.864	-118.526	-0.255	0.046
-722.850	351.633	0.086	-0.176
-721.835	-45.768	0.306	-0.156
-720.821	32.131	0.278	-0.247
-719.806	614.224	-0.092	-0.236
-718.791	-25.800	-0.134	-0.081
-717.777	-102.862	0.274	0.067
-716.762	-47.228	-0.198	0.099
-715.748	-135.671	-0.275	0.034
-714.733	-200.000	0.027	-0.141
-713.718	612.949	0.011	0.028
-712.704	-128.979	-0.126	0.018
-711.689	14.203	-0.433	-0.347
-710.675	-200.000	0.012	0.118
-709.660	-96.236	0.083	-0.023
-708.645	124.075	0.181	0.233
-707.631	-19.373	-0.119	-0.076
-706.616	-97.615	-0.153	0.041
-705.602	383.579	0.110	-0.232
-704.587	-12.088	0.403	-0.271
-703.572	-200.000	-0.008	-0.246
-702.558	-200.000	-0.018	-0.133
-701.543	-66.247	-0.257	-0.105
-700.529	-17.145	0.426	0.276
-699.514	-76.958	0.481	0.173
-698.499	0.341	0.270	0.198
-697.485	120.335	0.136	-0.173
-696.470	141.632	0.073	0.099
-695.456	-84.319	-0.057	-0.019
-694.441	-31.372	0.132	0.076
-693.426	158.804	-0.065	0.092
-692.412	-130.670	-0.271	0.038
-691.397	544.325	0.036	-0.087
-690.383	74.334	-0.182	-0.197
-689.368	7.717	-0.139	0.107
-688.354	201.951	-0.022	0.035
-687.339	-18.633	0.179	0.115
-686.324	-110.145	0.079	0.017
-685.310	-62.198	-0.165	-0.071
-684.295	-200.000	-0.018	-0.153
-683.281	-51.967	-0.362	-0.173
-682.266	800.000	-0.125	-0.479
-681.251	-59.040	-0.085	0.038
-680.237	800.000	-0.026	0.080
-679.222	800.000	-0.062	-0.222
-678.208	60.007	0.090	0.091
-677.193	-101.903	-0.303	-0.075
-676.178	800.000	0.128	-0.461
-675.164	-104.696	-0.153	0.036
-674.149	-200.000	0.033	-0.384
-673.135	621.431	0.026	0.068
-672.120	547.223	0.147	-0.361
-671.105	-174.325	-0.222	0.007
-670.091	-200.000	-0.040	-0.199
-669.076	-34.083	0.172	-0.097
-668.062	-49.768	-0.247	-0.121
-667.047	-200.000	0.005	0.041
-666.032	-127.067	0.455	0.069
-665.018	46.652	-0.247	-0.236
-664.003	-40.901	0.125	0.066
-662.989	-9.818	-0.389	-0.266
-661.974	569.857	0.081	-0.203
-660.959	-81.599	-0.112	0.038
-659.945	-69.082	-0.177	0.070
-658.930	-94.063	-0.163	-0.046
-657.916	-173.549	0.445	-0.014
-656.901	800.000	-0.068	-0.225
-655.886	-48.406	-0.095	-0.047
-654.872	18.468	0.140	0.115
-653.857	614.828	-0.016	-0.041
-652.843	-200.000	0.019	0.132
-651.828	-102.728	0.221	0.054
-650.814	800.000	0.058	-0.230
-649.799	-27.852	-0.212	0.126
-648.784	4.491	0.336	-0.253
-647.770	-121.640	0.265	-0.045
-646.755	800.000	-0.029	-0.105
-645.741	630.241	-0.056	-0.146
-644.726	88.594	-0.187	0.213
-643.711	20.116	-0.263	-0.218
-642.697	-14.393	-0.087	-0.057
-641.682	423.149	0.046	-0.101
-640.668	393.911	-0.104	-0.221
-639.653	144.149	-0.059	-0.080
-638.638	800.000	0.055	0.172
-637.624	-200.000	-0.017	-0.301
-636.609	800.000	0.070	-0.228
-635.595	46.748	-0.106	-0.101
-634.580	52.009	0.119	-0.116
-633.565	800.000	0.094	0.303
-632.551	86.907	0.104	-0.118
-631.536	800.000	-0.036	-0.116
-630.522	-23.776	0.157	-0.096
-629.507	-200.000	0.023	0.301
-628.492	32.951	-0.192	0.170
-627.478	-85.327	-0.275	-0.088
-626.463	-10.018	-0.293	-0.199
-625.449	-126.776	-0.278	-0.042
-624.434	84.415	-0.009	-0.011
-623.419	211.476	0.070	-0.113
-622.405	23.429	-0.013	-0.011
-621.390	-145.648	0.052	0.005
-620.376	-40.516	-0.105	0.056
-619.361	646.300	-0.131	0.342
-618.346	-74.725	0.340	-0.125
-617.332	54.102	0.164	0.162
-616.317	-9.044	-0.302	-0.207
-615.303	-200.000	-0.012	0.157
-614.288	168.728	0.171	-0.250
-613.273	-87.849	-0.326	0.101
-612.259	629.020	0.171	0.443
-611.244	153.248	-0.176	0.246
-610.230	12.650	0.232	0.184
-609.215	230.724	0.138	0.231
-608.201	800.000	-0.052	0.177
-607.186	-73.675	0.140	-0.052
-606.171	764.062	0.112	0.311
-605.157	-121.504	0.213	-0.036
-604.142	104.310	-0.257	-0.310
-603.128	800.000	0.019	-0.077
-602.113	-200.000	0.017	-0.183
-601.098	96.695	-0.118	-0.139
-600.084	-78.333	0.303	0.106
-599.069	148.288	-0.179	0.248
-598.055	77.892	-0.124	0.136
-597.040	-135.775	-0.387	-0.047
-596.025	-4.720	0.212	0.150
-595.011	-128.983	-0.402	0.058
-593.996	581.706	0.042	0.106
-592.982	228.858	0.073	-0.122
-591.967	200.961	0.044	0.069
-590.952	280.953	-0.116	0.212
-589.938	50.424	-0.386	-0.374
-588.923	761.981	-0.064	0.178
-587.909	-81.894	0.262	0.088
-586.894	285.742	0.080	-0.147
-585.879	296.393	-0.020	-0.038
-584.865	92.836	0.107	0.123
-583.850	-200.000	-0.054	0.677
-582.836	520.323	-0.059	0.141
-581.821	-86.332	-0.142	0.045
-580.806	296.002	0.090	0.170
-579.792	638.569	-0.123	0.320
-578.777	-120.979	0.161	-0.028
-577.763	-170.421	0.300	0.011
-576.748	595.638	-0.186	-0.471
-575.733	-200.000	0.019	-0.110
-574.719	73.917	-0.195	0.209
-573.704	8.845	-0.043	0.033
-572.690	800.000	0.039	-0.114
-571.675	-45.886	-0.049	-0.025
-570.661	186.799	0.221	0.337
-569.646	110.488	0.116	0.143
-568.631	-10.244	-0.348	-0.236
-567.617	-92.623	-0.342	-0.098
-566.602	800.000	-0.062	-0.263
-565.588	28.648	0.036	0.031
-564.573	606.300	-0.087	0.222
-563.558	-200.000	-0.042	-0.194
-562.544	-146.342	0.107	0.010
-561.529	22.996	0.092	-0.078
-560.515	-63.505	-0.248	0.104
-559.500	-61.300	0.525	-0.226
-558.485	-188.485	-0.146	-0.002
-557.471	-86.965	-0.245	0.076
-556.456	659.774	0.038	-0.101
-555.442	38.888	0.226	0.207
-554.427	-126.149	0.129	-0.020
-553.412	-22.066	-0.253	-0.157
-552.398	-102.717	0.023	-0.006
-551.383	-69.132	0.200	0.079
-550.369	-182.029	0.179	0.003
-549.354	25.965	0.151	0.129
-548.339	200.006	-0.095	0.149
-547.325	340.876	-0.133	-0.265
-546.310	291.205	-0.120	0.223
-545.296	-63.085	0.197	-0.083
-544.281	-200.000	0.016	0.185
-543.266	-109.178	0.245	-0.053
-542.252	214.340	0.059	-0.095
-541.237	27.409	0.091	0.078
-540.223	656.477	-0.128	0.335
-539.208	-53.270	0.208	0.097
-538.193	-200.000	-0.004	-0.145
-537.179	-105.108	-0.160	-0.037
-536.164	-146.713	0.343	0.030
-535.150	-3.704	-0.100	0.071
-534.135	-200.000	-0.015	-0.074
-533.121	-34.024	-0.317	-0.178
-532.106	40.057	0.153	-0.140
-531.091	22.398	0.219	-0.182
-530.077	-106.246	-0.123	-0.028
-529.062	-185.039	0.319	0.005
-528.048	541.990	-0.135	-0.329
-527.033	61.180	0.087	-0.088
-526.018	-200.000	-0.007	-0.394
-525.004	-200.000	0.044	0.260
-523.989	800.000	0.097	-0.357
-522.975	175.250	-0.047	-0.070
-521.960	29.736	0.166	0.145
-520.945	-185.382	-0.449	-0.007
-519.931	5.816	0.195	-0.148
-518.916	-43.209	-0.235	0.121
-517.902	800.000	-0.042	-0.160
-516.887	10.242	-0.229	-0.178
-515.872	-62.977	0.241	-0.102
-514.858	0.964	-0.107	0.078
-513.843	-54.870	0.364	0.168
-512.829	-200.000	-0.023	0.137
-511.814	55.216	-0.066	-0.065
-510.799	-34.740	0.134	-0.075
-509.785	-200.000	0.003	0.026
-508.770	-141.230	-0.227	0.024
-507.756	125.418	-0.049	0.064
-506.741	-120.200	-0.243	-0.042
-505.726	-200.000	0.033	0.385
-504.712	-143.683	-0.215	-0.021
-503.697	29.028	0.147	-0.127
-502.683	800.000	-0.032	0.119
-501.668	-73.694	-0.106	-0.039
-500.653	-200.000	0.068	0.494
-499.639	-200.000	0.015	-0.145
-498.624	-128.093	-0.123	-0.018
-497.610	290.412	0.050	0.092
-496.595	140.479	-0.215	-0.289
-495.581	3.562	0.345	-0.257
-494.566	160.642	-0.075	-0.106
-493.551	161.074	-0.177	0.252
-492.537	-185.954	-0.054	-0.001
-491.522	772.206	0.084	-0.232
-490.508	12.796	0.308	0.243
-489.493	117.963	-0.161	0.203
-488.478	107.281	-0.249	-0.302
-487.464	35.917	-0.068	0.061
-486.449	-200.000	-0.035	-0.225
-485.435	-74.838	0.374	0.137
-484.420	-108.822	-0.428	-0.093
-483.405	-19.997	0.152	-0.096
-482.391	96.498	-0.082	0.095
-481.376	-83.890	-0.256	-0.083
-480.362	-200.000	0.064	-0.334
-479.347	410.204	0.135	0.291
-478.332	4.116	-0.151	0.112
-477.318	-33.955	0.249	0.139
-476.303	17.010	0.262	0.212
-475.289	-200.000	-0.004	0.217
-474.274	-24.611	0.117	0.071
-473.259	-200.000	0.058	0.280
-472.245	-106.222	-0.422	-0.096
-471.230	191.372	-0.184	0.282
-470.216	416.354	0.102	0.221
-469.201	44.889	0.186	0.174
-468.186	-157.743	-0.246	-0.015
-467.172	-68.500	0.225	-0.089
-466.157	-200.000	0.061	-0.451
-465.143	-55.422	0.220	-0.101
-464.128	105.669	-0.376	0.453
-463.113	176.341	0.042	0.062
-462.099	23.387	-0.289	0.242
-461.084	-200.000	0.066	0.318
-460.070	239.735	0.186	0.315
-459.055	6.600	-0.108	0.082
-458.040	-79.720	0.027	-0.009
-457.026	-78.383	-0.041	-0.014
-456.011	764.473	-0.035	-0.096
-454.997	213.236	0.080	0.129
-453.982	-66.163	-0.427	0.173
-452.968	-200.000	0.044	-0.333
-451.953	20.991	0.213	-0.176
-450.938	-200.000	-0.046	0.398
-449.924	-133.065	0.300	-0.039
-448.909	-200.000	0.015	-0.142
-447.895	10.229	0.226	-0.175
-446.880	-35.278	0.071	0.039
-445.865	-162.484	-0.107	-0.005
-444.851	45.839	-0.298	0.280
-443.836	-98.286	0.239	0.062
-442.822	56.218	0.128	0.127
-441.807	-0.602	0.026	0.019
-440.792	-88.630	0.256	-0.077
-439.778	-26.760	0.090	0.054
-438.763	-34.531	0.269	-0.150
-437.749	-200.000	0.027	0.318
-436.734	-200.000	0.004	0.086
-435.719	-200.000	0.033	0.163
-434.705	55.044	0.173	0.170
-433.690	-33.152	-0.147	-0.083
-432.676	-117.132	0.170	0.031
-431.661	-41.511	-0.071	0.037
-430.646	-62.997	-0.097	0.041
-429.632	372.462	-0.098	-0.203
-428.617	-200.000	0.067	-0.352
-427.603	19.779	-0.250	-0.205
-426.588	216.797	0.056	-0.090
-425.573	-61.757	0.316	0.135
-424.559	-163.641	-0.125	-0.006
-423.544	424.305	-0.007	-0.015
-422.530	627.937	0.170	0.436
-421.515	318.225	0.087	0.168
-420.500	800.000	-0.098	0.288
-419.486	-144.181	-0.330	0.031
-418.471	35.827	-0.060	0.054
-417.457	-29.387	0.022	-0.013
-416.442	800.000	-0.034	-0.110
-415.428	-200.000	-0.001	0.274
-414.413	-200.000	0.002	0.077
-413.398	-116.913	0.242	0.045
-412.384	265.757	0.124	-0.220
-411.369	800.000	0.042	0.140
-410.355	112.207	0.154	0.189
-409.340	96.544	-0.178	0.208
-408.325	10.073	0.105	0.081
-407.311	357.516	0.071	0.143
-406.296	354.283	-0.033	0.066
-405.282	236.111	0.094	-0.158
-404.267	-102.552	-0.078	-0.019
-403.252	-200.000	0.001	-0.042
-402.238	-45.965	0.246	-0.124
-401.223	-200.000	-0.036	-0.219
-400.209	462.899	0.020	0.045
-399.194	-90.366	0.141	0.041
-398.179	296.597	-0.092	-0.170
-397.165	22.169	0.124	0.103
-396.150	656.478	-0.142	-0.370
-395.136	-35.177	-0.085	-0.047
-394.121	800.000	-0.112	0.317
-393.106	517.281	-0.094	0.223
-392.092	-153.558	0.189	-0.013
-391.077	-56.392	0.074	-0.034
-390.063	83.915	0.098	-0.109
-389.048	242.849	0.068	0.116
-388.033	52.458	0.140	0.136
-387.019	-200.000	-0.033	-0.358
-386.004	465.280	0.152	-0.345
-384.990	-17.116	-0.418	-0.268
-383.975	126.052	-0.101	0.130
-382.960	675.663	0.049	0.128
-381.946	234.072	-0.193	0.322
-380.931	-28.931	0.225	-0.131
-379.917	-200.000	-0.055	-0.322
-378.902	130.275	0.024	0.032
-377.888	-141.118	-0.259	0.027
-376.873	-200.000	-0.018	0.188
-375.858	-141.975	-0.102	0.010
-374.844	800.000	0.078	-0.304
-373.829	800.000	0.051	0.153
-372.815	800.000	-0.069	0.269
-371.800	-88.938	-0.126	0.038
-370.785	-200.000	-0.027	-0.170
-369.771	15.352	0.051	-0.041
-368.756	800.000	0.135	-0.428
-367.742	800.000	0.026	-0.088
-366.727	-20.178	0.202	-0.126
-365.712	99.253	-0.169	0.198
-364.698	-200.000	0.016	0.158
-363.683	-141.570	-0.041	-0.004
-362.669	31.125	-0.110	-0.096
-361.654	260.565	0.067	0.118
-360.639	-75.847	0.349	-0.125
-359.625	-92.135	-0.084	0.024
-358.610	800.000	-0.027	0.114
-357.596	761.698	0.051	-0.140
-356.581	733.849	0.096	0.260
-355.566	-7.006	0.040	-0.028
-354.552	-200.000	0.003	0.181
-353.537	580.639	0.053	-0.133
-352.523	-157.104	0.030	-0.002
-351.508	51.666	-0.245	-0.236
-350.493	-57.814	0.251	-0.111
-349.479	800.000	0.060	0.170
-348.464	-200.000	-0.232	-0.001
-347.450	650.589	0.103	0.268
-346.435	280.272	0.081	-0.147
-345.420	-200.000	-0.080	-0.380
-344.406	-15.883	0.035	-0.023
-343.391	398.576	0.060	0.128
-342.377	661.210	-0.078	-0.205
-341.362	95.281	-0.197	0.227
-340.348	-143.901	-0.285	-0.027
-339.333	-200.000	0.021	-0.131
-338.318	146.348	-0.220	0.299
-337.304	800.000	-0.046	-0.152
-336.289	-200.000	-0.025	-0.190
-335.275	16.190	-0.172	-0.137
-334.260	-30.532	-0.179	-0.103
-333.245	420.844	-0.075	-0.164
-332.231	225.914	-0.139	-0.228
-331.216	61.686	0.227	-0.229
-330.202	56.767	-0.069	-0.068
-329.187	-124.880	0.332	-0.052
-328.172	69.919	-0.229	-0.240
-327.158	-200.000	-0.014	0.146
-326.143	-81.786	0.098	0.033
-325.129	-95.873	0.212	-0.057
-324.114	-26.459	-0.171	0.101
-323.099	11.524	0.115	-0.089
-322.085	800.000	-0.079	-0.318
-321.070	42.776	0.291	-0.268
-320.056	-72.300	-0.108	0.041
-319.041	-200.000	-0.041	-0.337
-318.026	58.617	-0.139	-0.138
-317.012	-19.589	-0.169	0.106
-315.997	800.000	-0.119	0.409
-314.983	-200.000	0.031	-0.151
-313.968	333.174	-0.132	-0.257
-312.953	800.000	-0.050	0.157
-311.939	-83.606	0.212	0.069
-310.924	-200.000	-0.059	-0.464
-309.910	173.296	-0.133	-0.194
-308.895	414.135	-0.082	0.176
-307.880	800.000	0.052	-0.184
-306.866	66.866	0.140	0.144
-305.851	-200.000	-0.034	0.250
-304.837	120.551	-0.136	0.171
-303.822	-120.707	0.273	0.047
-302.807	-47.716	-0.256	0.126
-301.793	-200.000	-0.006	-0.029
-300.778	800.000	0.070	-0.290
-299.764	-122.284	0.154	-0.025
-298.749	2.431	-0.174	-0.127
-297.735	155.391	0.182	-0.254
-296.720	800.000	0.075	0.225
-295.705	800.000	-0.094	0.294
-294.691	213.725	0.129	0.207
-293.676	-135.878	-0.127	-0.015
-292.662	-200.000	0.007	0.221
-291.647	-200.000	-0.041	0.286
-290.632	-35.925	-0.090	-0.049
-289.618	-61.194	0.263	0.112
-288.603	15.306	-0.065	-0.051
-287.589	-158.477	0.158	0.009
-286.574	-168.123	0.247	-0.010
-285.559	800.000	-0.092	-0.266
-284.545	338.187	0.131	-0.258
-283.530	800.000	-0.040	-0.121
-282.516	216.729	-0.063	-0.101
-281.501	-200.000	0.319	-0.001
-280.486	136.609	0.337	0.445
-279.472	424.241	0.045	0.098
-278.457	-200.000	-0.016	0.081
-277.443	800.000	0.052	0.178
-276.428	173.200	0.137	0.199
-275.413	800.000	-0.029	0.081
-274.399	318.809	0.029	-0.055
-273.384	-200.000	0.012	-0.296
-272.370	-18.448	0.179	-0.113
-271.355	215.326	0.076	0.122
-270.340	-137.981	0.135	-0.015
-269.326	-200.000	0.060	0.598
-268.311	-200.000	-0.047	0.368
-267.297	-160.504	-0.149	0.008
-266.282	96.872	-0.108	-0.125
-265.267	205.829	0.105	0.165
-264.253	-141.804	-0.261	0.026
-263.238	211.638	0.037	0.059
-262.224	-200.000	0.010	0.103
-261.209	182.893	0.084	-0.125
-260.195	800.000	0.049	-0.157
-259.180	800.000	0.071	-0.253
-258.165	-200.000	-0.011	0.152
-257.151	-61.718	-0.236	-0.100
-256.136	100.927	-0.075	-0.088
-255.122	203.654	-0.081	0.127
-254.107	-200.000	-0.040	-0.396
-253.092	266.123	0.075	-0.132
-252.078	75.188	-0.139	-0.148
-251.063	-110.233	-0.254	-0.053
-250.049	-200.000	0.039	0.268
-249.034	-20.684	0.253	0.157
-248.019	38.939	0.180	-0.163
-247.005	-4.487	-0.087	-0.061
-245.990	321.967	0.143	0.276
-244.976	458.068	0.113	-0.253
-243.961	-37.468	0.291	-0.157
-242.946	800.000	-0.106	0.366
-241.932	407.741	0.121	-0.258
-240.917	-200.000	-0.000	0.085
-239.903	-200.000	-0.041	0.194
-238.888	-200.000	-0.023	-0.105
-237.873	-35.144	-0.097	-0.054
-236.859	-163.258	-0.240	0.012
-235.844	-88.206	-0.160	0.048
-234.830	-52.011	0.034	0.016
-233.815	800.000	0.097	-0.367
-232.800	-155.111	0.091	0.006
-231.786	-28.933	0.128	0.074
-230.771	-137.785	-0.137	0.015
-229.757	-97.677	-0.331	-0.087
-228.742	-167.946	0.317	-0.013
-227.727	-200.000	0.021	-0.095
-226.713	-200.000	-0.001	0.104
-225.698	262.929	-0.063	0.110
-224.684	6.283	0.247	0.185
-223.669	800.000	-0.017	0.052
-222.655	-80.908	0.129	-0.043
-221.640	-102.269	-0.150	-0.036
-220.625	-200.000	0.007	0.285
-219.611	-200.000	-0.012	0.081
-218.596	216.633	0.060	0.096
-217.582	-145.449	0.305	-0.028
-216.567	316.057	-0.100	-0.191
-215.552	-61.687	-0.054	-0.023
-214.538	797.292	0.050	-0.139
-213.523	43.494	-0.143	0.132
-212.509	-53.420	-0.147	-0.068
-211.494	1.319	-0.190	-0.138
-210.479	-156.949	0.325	0.020
-209.465	74.191	0.013	0.013
-208.450	-89.980	0.136	-0.040
-207.436	-11.151	0.151	0.101
-206.421	292.535	0.054	-0.099
-205.406	-63.253	-0.154	-0.064
-204.392	-200.000	-0.030	-0.175
-203.377	3.951	-0.177	0.130
-202.363	-200.000	-0.005	-0.033
-201.348	82.372	-0.185	-0.202
-200.333	171.797	-0.117	0.170
-199.319	27.845	-0.093	0.079
-198.304	171.590	-0.076	0.110
-197.290	137.409	0.100	0.132
-196.275	800.000	-0.100	0.315
-195.260	560.828	0.120	0.293
-194.246	800.000	0.020	-0.077
-193.231	-200.000	0.025	-0.546
-192.217	596.974	-0.099	-0.248
-191.202	-68.703	-0.604	0.235
-190.187	-175.545	0.317	-0.009
-189.173	-114.663	0.320	0.062
-188.158	-11.295	-0.049	0.032
-187.144	-200.000	0.011	-0.128
-186.129	-200.000	-0.006	0.061
-185.114	94.728	0.098	-0.112
-184.100	-180.519	-0.182	0.004
-183.085	-70.247	0.564	-0.216
-182.071	96.699	0.149	0.172
-181.056	-114.518	0.276	-0.053
-180.042	-200.000	-0.067	-0.315
-179.027	-139.514	-0.327	0.035
-178.012	800.000	-0.050	0.174
-176.998	-55.994	-0.093	0.042
-175.983	180.554	-0.150	-0.222
-174.969	800.000	0.060	0.219
-173.954	-200.000	0.095	-0.492
-172.939	510.389	-0.184	-0.431
-171.925	33.184	-0.238	-0.208
-170.910	296.799	-0.079	-0.146
-169.896	97.764	0.051	0.059
-168.881	-200.000	-0.003	-0.158
-167.866	262.234	0.108	-0.188
-166.852	141.123	-0.122	-0.163
-165.837	100.784	0.155	0.182
-164.823	16.698	0.082	-0.065
-163.808	711.215	0.230	-0.613
-162.793	-200.000	0.003	0.160
-161.779	-44.272	0.160	0.081
-160.764	217.956	-0.061	-0.097
-159.750	-200.000	-0.079	0.446
-158.735	-137.298	-0.514	-0.059
-157.720	25.249	0.243	0.203
-156.706	-78.054	-0.068	-0.024
-155.691	-61.822	0.248	0.104
-154.677	-29.162	-0.083	0.048
-153.662	-117.876	0.239	0.043
-152.647	105.711	-0.345	-0.411
-151.633	-156.107	-0.428	-0.027
-150.618	-40.653	-0.230	0.120
-149.604	-83.205	0.078	-0.025
-148.589	285.723	-0.131	-0.238
-147.574	564.355	0.174	-0.424
-146.560	-200.000	0.058	-0.272
-145.545	167.946	-0.141	-0.202
-144.531	800.000	0.050	-0.187
-143.516	62.187	-0.246	0.247
-142.502	-200.000	0.026	-0.473
-141.487	800.000	-0.045	-0.164
-140.472	-64.852	0.421	-0.171
-139.458	5.577	0.035	-0.026
-138.443	-150.686	-0.022	-0.002
-137.429	263.246	0.094	-0.164
-136.414	235.825	-0.071	0.118
-135.399	37.405	0.148	0.132
-134.385	21.117	-0.093	-0.076
-133.370	800.000	0.129	0.399
-132.356	31.119	0.098	0.085
-131.341	-46.644	0.183	-0.090
-130.326	-200.000	-0.109	-0.001
-129.312	142.606	0.092	0.124
-128.297	448.442	-0.094	0.209
-127.283	282.212	-0.046	0.084
-126.268	-160.835	0.253	-0.013
-125.253	-46.807	0.199	-0.098
-124.239	-200.000	-0.077	-0.447
-123.224	2.354	-0.128	-0.093
-122.210	191.998	0.075	0.114
-121.195	51.566	-0.299	-0.285
