DTS Sentinel unit serial number:	SN413079Multiplexer serial number:	ORYXHardware model number:	OX4-SRSoftware version number:	ORYX F/W v4.00 Oryx Data Collector v3.7.2.0data status	okinstallation	princeton_trtdifferential loss correction	single-endedforward channel	channel 4reverse channel	N/Adate	2019/09/10time	19:43:11forward acquisition time	60.00reverse acquisition time	0.00gamma	496.2192k internal	0.2310k external	0.2310temperature offset calibration	0.9945default loss term (dB/km)	0.3790temperature slope calibration	1.0000multiplexer offset coefficient	1.0000multiplexer slope coefficient	1.0000fibre end	0.00T internal ref (°C)	33.09T ext. ref 1 (°C)	-0.31T ext. ref 2 (°C)	25.91length (m)	temperature (°C)	Stokes	anti-Stokes-747.200	-96.713	0.274	-0.073
-746.185	-178.346	-0.185	0.004
-745.171	419.764	0.152	0.330
-744.156	153.021	-0.235	0.327
-743.142	-200.000	-0.014	-0.184
-742.127	-200.000	0.002	-0.067
-741.112	-63.357	-0.358	-0.150
-740.098	505.929	-0.115	0.271
-739.083	-10.267	0.133	0.089
-738.069	-200.000	0.009	-0.145
-737.054	-200.000	-0.006	-0.120
-736.039	-37.445	0.233	-0.126
-735.025	755.156	0.133	0.366
-734.010	65.623	-0.257	-0.264
-732.996	76.157	-0.235	-0.252
-731.981	-200.000	-0.020	0.209
-730.966	-87.987	0.198	-0.060
-729.952	-200.000	-0.025	0.349
-728.937	75.553	-0.134	0.143
-727.923	800.000	-0.043	0.151
-726.908	494.345	-0.062	-0.144
-725.894	672.048	-0.168	-0.443
-724.879	46.792	0.299	0.282
-723.864	230.475	-0.119	0.198
-722.850	-78.982	-0.437	-0.151
-721.835	11.100	0.138	0.107
-720.821	24.291	-0.359	0.301
-719.806	54.755	0.147	-0.144
-718.791	123.594	-0.254	-0.323
-717.777	-78.386	0.089	-0.031
-716.762	-200.000	-0.069	0.577
-715.748	574.954	-0.152	-0.377
-714.733	800.000	-0.050	-0.158
-713.718	-46.606	0.086	0.043
-712.704	-34.520	0.491	0.273
-711.689	-93.110	0.239	-0.067
-710.675	-34.875	-0.487	-0.270
-709.660	-94.983	-0.215	0.059
-708.645	-161.031	-0.053	0.003
-707.631	104.663	0.159	0.190
-706.616	800.000	0.097	-0.368
-705.602	-200.000	-0.044	-0.249
-704.587	213.725	0.102	-0.163
-703.572	286.681	0.046	0.084
-702.558	-109.928	0.091	0.019
-701.543	29.166	-0.041	0.035
-700.529	-150.708	0.187	-0.014
-699.514	38.024	0.068	-0.061
-698.499	-4.655	0.091	-0.064
-697.485	492.458	-0.095	0.221
-696.470	33.397	-0.210	-0.184
-695.456	-57.678	0.122	0.054
-694.441	-105.899	-0.161	0.037
-693.426	-143.123	0.244	-0.024
-692.412	-99.574	0.263	-0.067
-691.397	28.106	-0.225	0.192
-690.383	50.954	0.100	-0.096
-689.368	492.607	0.046	-0.107
-688.354	-70.111	0.119	0.046
-687.339	403.113	-0.034	0.072
-686.324	-78.221	0.136	-0.047
-685.310	-44.455	-0.173	0.088
-684.295	-146.218	0.176	0.016
-683.281	85.275	0.137	0.152
-682.266	318.225	0.066	-0.126
-681.251	108.099	0.211	-0.255
-680.237	58.819	0.133	0.133
-679.222	152.235	-0.078	0.108
-678.208	411.480	0.125	-0.269
-677.193	149.541	-0.191	0.262
-676.178	-114.975	0.119	0.023
-675.164	800.000	-0.024	-0.100
-674.149	-44.076	0.323	-0.164
-673.135	-143.488	0.122	0.012
-672.120	78.039	-0.031	-0.034
-671.105	-138.624	0.259	-0.029
-670.091	163.765	0.159	0.227
-669.076	42.530	0.109	0.100
-668.062	-200.000	-0.003	-0.121
-667.047	26.906	0.046	0.039
-666.032	304.100	-0.059	-0.111
-665.018	232.765	-0.069	-0.115
-664.003	-16.613	0.163	-0.104
-662.989	-200.000	0.020	0.235
-661.974	-4.450	0.151	-0.106
-660.959	-61.816	-0.397	-0.168
-659.945	-17.750	-0.139	-0.088
-658.930	166.661	0.200	-0.286
-657.916	-141.111	0.218	-0.023
-656.901	28.630	-0.205	-0.176
-655.886	315.871	0.156	0.298
-654.872	-55.749	0.172	-0.078
-653.857	343.548	0.059	0.116
-652.843	-123.078	-0.237	-0.039
-651.828	-58.355	0.249	-0.110
-650.814	-200.000	-0.003	-0.176
-649.799	96.906	-0.088	0.102
-648.784	-200.000	-0.036	-0.254
-647.770	69.909	-0.251	-0.262
-646.755	-162.714	0.256	-0.013
-645.741	-173.459	-0.258	-0.008
-644.726	800.000	-0.105	0.297
-643.711	-15.998	-0.148	-0.095
-642.697	-31.152	0.316	0.180
-641.682	-134.747	-0.256	-0.031
-640.668	-136.951	0.359	-0.042
-639.653	-26.526	0.193	0.114
-638.638	-50.947	-0.082	0.039
-637.624	-104.947	0.077	0.018
-636.609	-200.000	0.033	-0.427
-635.595	-119.146	0.423	0.075
-634.580	79.931	0.180	0.196
-633.565	21.422	-0.129	-0.106
-632.551	598.206	0.110	-0.275
-631.536	-155.908	0.157	0.010
-630.522	800.000	-0.065	0.278
-629.507	-77.186	-0.250	-0.088
-628.492	-115.750	0.241	0.046
-627.478	-200.000	-0.023	-0.242
-626.463	-200.000	0.012	-0.329
-625.449	800.000	-0.064	-0.185
-624.434	-8.187	-0.236	0.161
-623.419	756.361	0.084	0.231
-622.405	-55.343	-0.155	0.070
-621.390	-129.014	-0.106	-0.015
-620.376	357.469	-0.046	-0.093
-619.361	-200.000	-0.015	-0.245
-618.346	800.000	0.032	-0.133
-617.332	-200.000	0.012	-0.278
-616.317	61.982	0.107	0.108
-615.303	-33.487	-0.108	0.061
-614.288	-131.172	0.093	0.013
-613.273	-187.991	-0.453	0.006
-612.259	-101.311	-0.324	0.080
-611.244	148.065	-0.172	0.235
-610.230	-67.625	-0.349	0.138
-609.215	-171.877	-0.166	0.005
-608.201	-145.023	0.336	0.031
-607.186	-124.853	0.271	-0.042
-606.171	800.000	0.056	0.171
-605.157	36.408	0.224	0.200
-604.142	-200.000	0.019	-0.143
-603.128	-5.612	-0.145	-0.100
-602.113	-36.032	0.102	0.055
-601.098	-200.000	0.062	-0.351
-600.084	-145.665	0.382	-0.035
-599.069	-26.346	0.304	-0.180
-598.055	-24.740	0.094	0.056
-597.040	800.000	0.027	0.079
-596.025	-3.538	-0.263	-0.185
-595.011	800.000	-0.004	0.015
-593.996	-44.213	0.102	0.052
-592.982	-200.000	-0.002	0.295
-591.967	-50.454	-0.119	0.057
-590.952	-63.489	0.059	-0.024
-589.938	69.793	0.056	0.058
-588.923	438.880	-0.148	-0.326
-587.909	800.000	-0.056	-0.214
-586.894	800.000	0.030	0.119
-585.879	-200.000	-0.016	0.215
-584.865	259.322	-0.083	0.144
-583.850	97.937	-0.085	0.098
-582.836	306.753	0.081	0.152
-581.821	113.591	-0.058	-0.071
-580.806	196.635	-0.090	0.139
-579.792	250.161	0.098	0.168
-578.777	-165.531	-0.166	-0.007
-577.763	-200.000	0.064	-0.323
-576.748	-166.830	0.097	-0.004
-575.733	183.050	0.122	0.182
-574.719	-102.485	-0.186	0.045
-573.704	143.006	-0.086	-0.116
-572.690	-83.693	-0.087	-0.028
-571.675	-200.000	0.001	0.052
-570.661	-73.451	-0.295	-0.109
-569.646	-194.247	0.082	0.001
-568.631	-9.851	0.044	0.029
-567.617	-78.227	-0.126	-0.044
-566.602	-40.266	0.271	-0.142
-565.588	23.777	0.155	0.129
-564.573	74.540	0.016	-0.017
-563.558	179.921	-0.199	-0.295
-562.544	352.571	0.055	-0.111
-561.529	-50.164	-0.137	-0.065
-560.515	-200.000	-0.031	-0.188
-559.500	-60.026	0.044	-0.019
-558.485	399.248	0.194	0.409
-557.471	-99.426	-0.374	0.095
-556.456	800.000	0.014	0.042
-555.442	-200.000	-0.008	0.134
-554.427	800.000	0.065	0.228
-553.412	-200.000	0.033	-0.219
-552.398	-182.357	0.263	-0.005
-551.383	58.584	-0.145	0.144
-550.369	143.899	0.088	-0.118
-549.354	-111.465	0.273	-0.056
-548.339	-65.913	0.181	-0.073
-547.325	615.310	0.174	-0.439
-546.310	-200.000	0.022	0.152
-545.296	118.449	-0.205	0.255
-544.281	800.000	-0.030	-0.131
-543.266	692.710	-0.030	-0.079
-542.252	115.955	0.168	0.207
-541.237	77.403	0.192	0.206
-540.223	-134.932	0.064	0.008
-539.208	-120.739	-0.330	-0.056
-538.193	176.045	-0.061	-0.089
-537.179	800.000	0.096	0.330
-536.164	-149.608	-0.020	0.002
-535.150	-200.000	0.011	0.146
-534.135	-200.000	-0.014	-0.076
-533.121	-53.650	-0.115	0.053
-532.106	11.868	0.306	-0.237
-531.091	-199.485	-0.129	0.001
-530.077	-74.753	-0.082	0.030
-529.062	-13.196	0.088	-0.058
-528.048	22.489	0.104	-0.086
-527.033	62.190	0.225	-0.226
-526.018	196.989	-0.068	-0.104
-525.004	-84.168	0.052	0.017
-523.989	-24.723	0.215	0.129
-522.975	312.332	0.137	0.259
-521.960	-139.841	-0.348	0.037
-520.945	615.665	0.094	0.237
-519.931	431.632	-0.137	-0.299
-518.916	118.093	-0.068	-0.085
-517.902	800.000	0.035	-0.110
-516.887	800.000	-0.045	-0.191
-515.872	79.635	0.124	0.134
-514.858	800.000	0.070	0.256
-513.843	79.170	0.144	0.155
-512.829	36.604	-0.040	0.036
-511.814	-200.000	0.013	0.152
-510.799	-200.000	-0.024	-0.112
-509.785	-48.086	0.153	-0.075
-508.770	73.595	0.209	-0.220
-507.756	-187.332	-0.206	0.003
-506.741	-13.993	-0.040	0.026
-505.726	-200.000	0.000	0.321
-504.712	-105.405	-0.026	-0.006
-503.697	-130.021	0.095	-0.013
-502.683	133.131	-0.130	0.169
-501.668	122.152	-0.058	0.073
-500.653	-79.800	-0.368	0.124
-499.639	800.000	-0.061	0.181
-498.624	-200.000	-0.054	0.260
-497.610	-108.974	-0.327	-0.070
-496.595	120.020	-0.147	-0.183
-495.581	-39.944	0.130	-0.068
-494.566	78.510	-0.083	0.089
-493.551	129.231	0.159	-0.204
-492.537	800.000	-0.081	0.266
-491.522	-200.000	0.068	-0.513
-490.508	-7.561	-0.113	-0.077
-489.493	286.558	0.021	0.037
-488.478	800.000	-0.031	-0.125
-487.464	-59.742	-0.200	-0.086
-486.449	-10.446	0.166	-0.111
-485.435	-134.318	-0.132	0.016
-484.420	-118.655	0.453	-0.080
-483.405	800.000	0.031	0.091
-482.391	-200.000	0.025	0.161
-481.376	-200.000	-0.002	-0.277
-480.362	12.237	0.119	0.092
-479.347	-200.000	-0.018	0.516
-478.332	87.289	0.034	0.037
-477.318	-136.609	-0.268	-0.031
-476.303	800.000	0.050	-0.162
-475.289	-80.383	0.125	-0.042
-474.274	-83.203	-0.179	-0.058
-473.259	800.000	-0.063	0.255
-472.245	-119.339	-0.342	-0.060
-471.230	-81.983	0.244	0.080
-470.216	-159.293	0.141	0.008
-469.201	-127.045	-0.160	-0.024
-468.186	-153.235	-0.377	-0.026
-467.172	-200.000	0.021	-0.256
-466.157	67.010	0.259	-0.265
-465.143	70.813	0.131	-0.136
-464.128	16.253	-0.240	0.190
-463.113	28.681	-0.124	-0.106
-462.099	800.000	-0.089	0.294
-461.084	-6.408	0.382	0.262
-460.070	98.075	-0.147	-0.170
-459.055	4.331	0.102	-0.075
-458.040	-200.000	0.008	0.251
-457.026	-31.370	-0.125	-0.071
-456.011	50.500	-0.225	-0.214
-454.997	-140.388	0.115	-0.012
-453.982	250.776	-0.078	-0.133
-452.968	-159.698	-0.496	-0.027
-451.953	163.756	0.097	0.137
-450.938	800.000	-0.087	-0.296
-449.924	365.163	-0.143	0.290
-448.909	-200.000	0.004	0.049
-447.895	-80.982	0.329	-0.109
-446.880	463.789	0.054	-0.121
-445.865	-200.000	0.015	-0.069
-444.851	5.975	-0.402	0.299
-443.836	-58.055	0.255	0.112
-442.822	123.049	-0.081	-0.102
-441.807	-54.896	0.257	-0.116
-440.792	363.473	-0.092	-0.186
-439.778	27.316	0.185	-0.156
-438.763	-9.035	-0.356	0.239
-437.749	256.874	-0.111	-0.191
-436.734	-141.646	0.288	0.029
-435.719	-200.000	-0.023	0.162
-434.705	-109.457	0.493	0.105
-433.690	-200.000	0.019	0.097
-432.676	800.000	0.041	0.122
-431.661	17.434	0.107	-0.086
-430.646	-37.708	0.176	0.094
-429.632	37.999	-0.180	0.161
-428.617	282.124	-0.088	0.159
-427.603	800.000	-0.030	-0.118
-426.588	19.570	0.332	-0.268
-425.573	-178.203	-0.204	-0.005
-424.559	-200.000	0.021	-0.464
-423.544	329.270	0.110	-0.213
-422.530	444.682	0.086	-0.189
-421.515	-200.000	0.029	-0.168
-420.500	17.534	0.159	0.127
-419.486	34.652	0.161	0.141
-418.471	334.559	0.139	-0.269
-417.457	177.139	-0.237	0.346
-416.442	50.140	0.135	-0.128
-415.428	190.996	-0.203	-0.307
-414.413	-200.000	0.001	-0.089
-413.398	-8.994	0.135	-0.091
-412.384	800.000	-0.084	0.366
-411.369	-46.720	-0.235	-0.115
-410.355	384.009	0.073	0.150
-409.340	-200.000	0.007	-0.123
-408.325	-61.107	0.278	-0.118
-407.311	-54.476	-0.351	-0.159
-406.296	-200.000	0.019	-0.208
-405.282	-93.816	0.165	0.046
-404.267	99.262	-0.086	-0.100
-403.252	-200.000	-0.046	0.336
-402.238	800.000	0.026	0.103
-401.223	305.776	-0.139	-0.259
-400.209	-17.953	0.081	-0.051
-399.194	-133.393	-0.049	0.006
-398.179	111.365	0.082	0.099
-397.165	-72.080	0.138	0.051
-396.150	133.240	0.230	0.297
-395.136	-54.916	-0.269	-0.122
-394.121	-117.190	-0.298	-0.054
-393.106	53.814	0.215	0.207
-392.092	161.551	-0.164	0.230
-391.077	-77.934	0.490	0.169
-390.063	4.139	0.203	-0.149
-389.048	-200.000	0.016	0.177
-388.033	-33.276	-0.301	0.167
-387.019	-33.954	0.075	-0.041
-386.004	220.764	-0.115	-0.185
-384.990	-200.000	-0.001	-0.049
-383.975	4.912	-0.104	0.077
-382.960	800.000	-0.070	-0.223
-381.946	-13.906	0.050	-0.033
-380.931	800.000	0.036	-0.136
-379.917	-25.239	-0.289	-0.171
-378.902	-200.000	0.056	-0.298
-377.888	241.196	0.097	0.163
-376.873	-1.211	0.063	0.045
-375.858	-80.558	-0.047	-0.016
-374.844	-200.000	-0.012	-0.071
-373.829	110.233	0.171	-0.205
-372.815	-188.405	-0.231	0.003
-371.800	-200.000	0.039	-0.367
-370.785	800.000	-0.084	-0.306
-369.771	-200.000	0.018	-0.197
-368.756	-19.086	0.288	0.179
-367.742	-200.000	0.038	-0.226
-366.727	72.353	0.126	0.131
-365.712	-95.766	-0.215	-0.057
-364.698	75.249	-0.139	-0.147
-363.683	-34.012	0.241	-0.132
-362.669	-200.000	0.020	0.332
-361.654	49.649	-0.112	0.106
-360.639	-51.424	-0.024	0.011
-359.625	-124.341	0.320	-0.050
-358.610	513.300	0.074	0.172
-357.596	-41.541	0.260	-0.134
-356.581	-200.000	-0.011	-0.057
-355.566	-200.000	-0.027	0.120
-354.552	-200.000	-0.196	0.001
-353.537	57.533	-0.121	0.118
-352.523	48.558	-0.126	0.118
-351.508	352.045	0.155	-0.307
-350.493	456.716	0.123	-0.272
-349.479	-200.000	0.018	0.084
-348.464	800.000	-0.032	0.141
-347.450	240.095	-0.124	0.207
-346.435	156.380	0.085	0.118
-345.420	-104.243	0.310	0.072
-344.406	-21.693	-0.037	-0.022
-343.391	-126.009	-0.121	0.018
-342.377	800.000	0.036	-0.119
-341.362	-17.118	-0.085	0.054
-340.348	-89.211	0.224	-0.066
-339.333	-10.481	0.033	0.022
-338.318	-52.030	0.098	0.046
-337.304	117.732	-0.055	-0.068
-336.289	614.363	0.045	-0.113
-335.275	61.857	0.123	-0.123
-334.260	97.158	-0.129	-0.148
-333.245	229.007	-0.045	-0.073
-332.231	-200.000	0.003	-0.281
-331.216	-200.000	-0.028	0.285
-330.202	-59.206	-0.146	0.063
-329.187	-72.985	0.127	-0.047
-328.172	-72.238	0.195	0.072
-327.158	214.029	0.142	-0.225
-326.143	-90.799	0.249	0.072
-325.129	650.960	-0.053	-0.135
-324.114	126.717	0.123	0.156
-323.099	-10.263	0.078	0.052
-322.085	-120.098	-0.240	0.041
-321.070	222.437	0.143	0.230
-320.056	106.460	-0.183	0.216
-319.041	-161.962	-0.250	0.013
-318.026	-200.000	0.037	-0.215
-317.012	-176.347	0.182	0.005
-315.997	597.866	0.032	0.078
-314.983	-58.029	0.161	-0.070
-313.968	-74.497	-0.160	0.058
-312.953	800.000	0.142	0.412
-311.939	117.482	0.305	0.375
-310.924	28.244	-0.319	0.269
-309.910	-122.398	0.176	0.029
-308.895	-4.298	0.115	-0.079
-307.880	206.730	0.309	-0.480
-306.866	-94.558	-0.215	0.058
-305.851	67.509	0.094	0.096
-304.837	-64.995	-0.084	-0.034
-303.822	253.290	-0.086	0.146
-302.807	-200.000	0.001	0.048
-301.793	-62.959	-0.065	-0.027
-300.778	800.000	-0.116	-0.406
-299.764	-200.000	0.023	0.119
-298.749	-200.000	0.001	0.135
-297.735	-147.112	-0.180	-0.015
-296.720	-31.450	-0.200	-0.112
-295.705	-21.338	-0.258	-0.157
-294.691	-84.717	0.196	0.062
-293.676	345.201	-0.155	0.303
-292.662	-107.006	-0.235	0.052
-291.647	-147.073	-0.227	-0.019
-290.632	-200.000	-0.018	-0.224
-289.618	9.028	-0.276	0.208
-288.603	-200.000	0.009	0.257
-287.589	-99.992	0.293	-0.073
-286.574	65.838	-0.152	0.154
-285.559	209.553	0.071	0.112
-284.545	-200.000	0.001	-0.035
-283.530	-99.081	-0.184	-0.046
-282.516	-27.177	0.061	-0.035
-281.501	59.400	-0.123	-0.121
-280.486	100.824	0.089	0.103
-279.472	13.490	0.327	-0.253
-278.457	19.870	-0.151	0.122
-277.443	-51.131	-0.383	0.179
-276.428	-108.879	0.289	-0.061
-275.413	-30.871	-0.301	0.169
-274.399	-50.490	-0.363	0.171
-273.384	-80.356	-0.224	0.074
-272.370	-200.000	0.036	0.193
-271.355	456.293	0.139	-0.307
-270.340	-200.000	-0.014	0.250
-269.326	702.749	-0.084	-0.221
-268.311	-45.096	-0.159	-0.079
-267.297	-111.796	0.115	0.023
-266.282	-200.000	-0.015	-0.080
-265.267	368.060	-0.053	0.107
-264.253	-150.521	-0.125	-0.010
-263.238	800.000	0.109	0.328
-262.224	-96.046	-0.214	0.057
-261.209	-130.361	0.166	-0.022
-260.195	77.079	0.034	-0.036
-259.180	-118.302	-0.103	0.018
-258.165	-200.000	0.004	0.022
-257.151	-5.637	-0.166	0.113
-256.136	154.096	-0.293	0.400
-255.122	-200.000	0.055	0.394
-254.107	-133.394	-0.171	-0.021
-253.092	525.595	-0.105	0.246
-252.078	141.576	-0.130	0.172
-251.063	149.687	-0.142	0.192
-250.049	51.597	0.259	-0.246
-249.034	-47.662	0.215	-0.104
-248.019	-183.067	-0.099	0.002
-247.005	297.322	0.074	-0.135
-245.990	-200.000	-0.044	0.260
-244.976	22.610	0.321	-0.262
-243.961	-112.300	-0.076	0.015
-242.946	724.067	0.113	-0.300
-241.932	-200.000	0.025	-0.113
-240.917	490.034	-0.103	-0.235
-239.903	-145.136	-0.330	-0.030
-238.888	-86.593	0.141	-0.043
-237.873	-111.097	-0.154	-0.031
-236.859	-138.717	-0.156	-0.017
-235.844	-41.566	0.156	0.080
-234.830	10.058	-0.265	0.201
-233.815	-200.000	0.020	0.146
-232.800	800.000	-0.037	0.117
-231.786	476.819	-0.037	0.084
-230.771	309.911	0.051	-0.095
-229.757	-200.000	-0.023	-0.113
-228.742	-143.112	-0.120	0.012
-227.727	-77.310	0.139	0.048
-226.713	-71.599	-0.045	0.017
-225.698	800.000	0.015	0.052
-224.684	-85.242	-0.098	-0.031
-223.669	413.041	0.124	0.262
-222.655	230.604	-0.036	0.058
-221.640	-32.677	0.249	-0.138
-220.625	206.275	-0.111	-0.172
-219.611	-126.582	-0.213	-0.031
-218.596	22.935	0.079	-0.064
-217.582	391.543	0.089	-0.184
-216.567	800.000	0.158	-0.459
-215.552	208.945	0.136	-0.212
-214.538	-200.000	-0.031	0.238
-213.523	159.555	-0.140	0.194
-212.509	800.000	0.014	0.042
-211.494	-105.487	0.348	0.079
-210.479	183.383	-0.081	0.119
-209.465	-50.452	-0.201	0.094
-208.450	64.046	0.104	0.104
-207.436	-8.570	0.197	-0.132
-206.421	-96.408	-0.084	0.022
-205.406	41.399	0.137	-0.123
-204.392	-200.000	0.022	0.160
-203.377	88.424	-0.106	0.117
-202.363	88.451	-0.187	-0.207
-201.348	737.081	-0.050	-0.133
-200.333	-32.069	-0.142	-0.079
-199.319	-76.309	-0.186	0.065
-198.304	-155.695	0.383	0.024
-197.290	172.458	0.101	0.144
-196.275	29.657	0.279	-0.236
-195.260	-200.000	0.039	0.253
-194.246	-2.176	-0.151	0.106
-193.231	44.084	-0.180	0.164
-192.217	544.190	0.032	0.076
-191.202	-51.318	0.395	0.184
-190.187	-140.944	-0.186	0.019
-189.173	298.130	-0.043	-0.079
-188.158	-115.628	-0.281	0.052
-187.144	93.656	0.265	-0.299
-186.129	800.000	-0.023	0.084
-185.114	-200.000	-0.047	-0.320
-184.100	-200.000	-0.013	-0.082
-183.085	-90.654	0.501	-0.144
-182.071	209.866	-0.119	-0.186
-181.056	-200.000	0.075	0.330
-180.042	-149.281	0.402	0.032
-179.027	-200.000	0.011	0.696
-178.012	25.592	-0.080	0.066
-176.998	-155.169	0.228	0.015
-175.983	-118.723	0.257	-0.045
-174.969	195.558	0.168	-0.254
-173.954	800.000	0.115	-0.344
-172.939	-103.165	0.290	-0.068
-171.925	-110.691	-0.149	0.031
-170.910	-200.000	0.013	0.469
-169.896	160.152	-0.136	0.188
-168.881	-200.000	0.013	-0.137
-167.866	-152.550	0.496	-0.035
-166.852	322.667	-0.197	0.373
-165.837	-200.000	0.023	-0.154
-164.823	443.528	-0.151	-0.328
-163.808	55.655	0.123	0.119
-162.793	-200.000	-0.032	-0.231
-161.779	149.989	0.114	-0.154
-160.764	-32.638	-0.536	-0.296
-159.750	192.034	-0.171	-0.255
-158.735	119.792	-0.017	0.021
-157.720	272.362	-0.065	0.114
-156.706	800.000	0.056	0.200
-155.691	800.000	0.023	0.071
-154.677	-69.707	-0.457	0.173
-153.662	-7.355	0.165	-0.111
-152.647	800.000	-0.067	-0.240
-151.633	87.012	-0.135	0.148
-150.618	558.278	0.050	0.119
-149.604	445.715	0.146	0.318
-148.589	664.852	0.044	-0.114
-147.574	493.879	0.041	-0.093
-146.560	-94.688	0.417	0.112
-145.545	-2.895	0.425	-0.294
-144.531	-138.393	0.097	0.011
-143.516	310.756	-0.058	-0.107
-142.502	262.996	-0.074	0.128
-141.487	800.000	0.046	0.139
-140.472	153.557	-0.107	0.145
-139.458	-76.514	0.246	-0.086
-138.443	5.269	0.241	0.176
-137.429	-52.386	-0.206	-0.095
-136.414	672.893	0.018	-0.047
-135.399	-125.247	0.150	0.023
-134.385	800.000	0.030	-0.087
-133.370	189.114	-0.021	-0.032
-132.356	-33.975	0.055	0.030
-131.341	-38.149	0.110	-0.058
-130.326	-111.031	-0.223	-0.045
-129.312	-100.747	-0.263	0.064
-128.297	54.470	0.242	0.231
-127.283	22.935	0.207	-0.168
-126.268	-66.637	0.280	-0.110
-125.253	-133.304	-0.160	-0.020
-124.239	-53.468	-0.202	0.092
-123.224	-92.224	0.084	0.023
-122.210	569.305	0.122	0.294
-121.195	-135.159	0.316	-0.038
