DTS Sentinel unit serial number:	SN413079Multiplexer serial number:	ORYXHardware model number:	OX4-SRSoftware version number:	ORYX F/W v4.00 Oryx Data Collector v3.7.2.0data status	okinstallation	princeton_trtdifferential loss correction	single-endedforward channel	channel 4reverse channel	N/Adate	2019/09/11time	20:43:11forward acquisition time	60.00reverse acquisition time	0.00gamma	496.2192k internal	0.2304k external	0.2304temperature offset calibration	1.0062default loss term (dB/km)	0.3790temperature slope calibration	1.0000multiplexer offset coefficient	1.0000multiplexer slope coefficient	1.0000fibre end	0.00T internal ref (°C)	37.17T ext. ref 1 (°C)	1.55T ext. ref 2 (°C)	30.89length (m)	temperature (°C)	Stokes	anti-Stokes-747.200	-200.000	-0.001	-0.076
-746.185	244.186	-0.290	0.497
-745.171	-118.643	0.124	0.022
-744.156	-200.000	-0.038	0.202
-743.142	33.435	0.363	-0.321
-742.127	-4.220	-0.423	0.298
-741.112	-194.640	-0.249	-0.002
-740.098	-123.682	0.241	-0.039
-739.083	-200.000	-0.025	-0.134
-738.069	800.000	0.050	0.186
-737.054	-36.496	0.213	-0.117
-736.039	-2.669	0.167	-0.119
-735.025	232.994	-0.170	0.285
-734.010	-136.986	0.266	-0.031
-732.996	-46.855	0.173	-0.086
-731.981	-63.134	-0.317	0.133
-730.966	117.355	-0.041	-0.051
-729.952	-176.540	0.146	-0.004
-728.937	-70.736	-0.277	-0.107
-727.923	-200.000	0.003	0.194
-726.908	591.805	0.108	-0.271
-725.894	77.894	-0.240	-0.260
-724.879	152.268	0.089	0.124
-723.864	-61.362	-0.110	-0.047
-722.850	185.397	-0.229	-0.347
-721.835	-84.113	0.204	-0.066
-720.821	622.678	-0.089	-0.229
-719.806	-67.627	0.180	-0.072
-718.791	17.165	0.116	0.094
-717.777	4.216	0.158	-0.118
-716.762	83.644	0.113	0.125
-715.748	-24.130	0.172	-0.104
-714.733	-200.000	0.046	-0.279
-713.718	-112.265	0.052	-0.011
-712.704	738.981	0.088	0.241
-711.689	-153.117	-0.173	0.012
-710.675	169.557	-0.142	-0.206
-709.660	-76.694	0.238	-0.085
-708.645	-200.000	0.026	0.140
-707.631	-123.277	-0.141	-0.023
-706.616	137.737	-0.152	-0.202
-705.602	800.000	0.106	-0.352
-704.587	326.638	-0.203	-0.395
-703.572	-143.136	0.237	-0.023
-702.558	374.058	0.111	0.230
-701.543	-18.968	0.186	-0.118
-700.529	-200.000	0.057	-0.397
-699.514	-200.000	0.037	0.414
-698.499	-143.196	-0.148	0.014
-697.485	53.453	0.307	0.299
-696.470	-161.115	-0.381	-0.020
-695.456	-40.666	0.268	-0.141
-694.441	-167.561	0.156	0.006
-693.426	-200.000	-0.028	-0.240
-692.412	-200.000	0.013	-0.096
-691.397	221.553	-0.005	-0.009
-690.383	3.840	-0.148	-0.110
-689.368	227.639	0.150	0.248
-688.354	69.236	-0.127	0.133
-687.339	227.908	0.212	0.351
-686.324	254.586	0.134	0.233
-685.310	71.445	0.305	0.322
-684.295	-200.000	-0.012	0.203
-683.281	800.000	0.065	-0.185
-682.266	366.987	0.068	0.140
-681.251	-111.922	0.088	-0.018
-680.237	53.075	-0.233	0.226
-679.222	31.992	-0.074	0.065
-678.208	56.383	0.159	0.157
-677.193	-200.000	0.009	-0.266
-676.178	-200.000	-0.046	-0.354
-675.164	800.000	-0.059	-0.182
-674.149	204.821	-0.066	0.104
-673.135	431.565	-0.059	-0.129
-672.120	-15.900	-0.091	0.059
-671.105	-172.545	0.096	-0.003
-670.091	-200.000	0.051	-0.267
-669.076	33.330	-0.090	-0.079
-668.062	222.947	-0.170	0.278
-667.047	1.346	0.333	0.243
-666.032	-41.659	-0.297	-0.155
-665.018	-35.554	0.158	0.087
-664.003	12.165	-0.059	0.046
-662.989	-5.651	-0.076	0.053
-661.974	122.499	0.043	-0.055
-660.959	-182.347	-0.300	0.006
-659.945	511.465	0.124	0.294
-658.930	800.000	-0.071	0.301
-657.916	-1.890	0.226	-0.161
-656.901	51.975	-0.078	0.075
-655.886	363.797	0.045	0.091
-654.872	-108.185	0.091	0.020
-653.857	-61.985	-0.194	-0.082
-652.843	-61.065	0.137	-0.059
-651.828	188.687	-0.095	-0.144
-650.814	-200.000	-0.028	0.245
-649.799	398.584	0.042	0.089
-648.784	-60.910	-0.294	-0.126
-647.770	-200.000	-0.016	0.156
-646.755	-28.663	0.124	-0.072
-645.741	-200.000	-0.000	-0.074
-644.726	137.281	-0.172	-0.229
-643.711	-33.622	-0.224	0.125
-642.697	93.138	-0.075	-0.086
-641.682	21.336	-0.186	0.153
-640.668	239.573	0.225	-0.380
-639.653	-200.000	0.009	0.153
-638.638	800.000	-0.155	0.470
-637.624	-80.738	0.110	-0.037
-636.609	6.526	0.065	-0.049
-635.595	-116.547	0.072	-0.013
-634.580	-200.000	0.035	-0.174
-633.565	-195.966	0.155	0.001
-632.551	201.861	-0.169	-0.264
-631.536	756.505	-0.024	0.067
-630.522	674.300	0.103	-0.272
-629.507	223.358	0.138	-0.226
-628.492	-183.439	0.092	-0.002
-627.478	-61.226	0.299	0.128
-626.463	-200.000	-0.018	0.366
-625.449	321.005	-0.099	0.192
-624.434	103.780	-0.077	0.091
-623.419	-87.892	-0.314	0.096
-622.405	106.635	0.153	-0.185
-621.390	84.636	0.115	-0.128
-620.376	-4.215	0.128	-0.090
-619.361	-52.783	-0.210	0.098
-618.346	49.416	-0.237	0.226
-617.332	-128.463	0.200	0.029
-616.317	-20.888	-0.245	0.152
-615.303	-3.802	-0.431	0.303
-614.288	-200.000	-0.025	-0.256
-613.273	-200.000	0.033	-0.204
-612.259	25.008	0.199	-0.167
-611.244	33.577	-0.349	-0.307
-610.230	11.477	-0.229	0.178
-609.215	-200.000	-0.035	0.170
-608.201	-200.000	0.012	-0.062
-607.186	-184.839	-0.262	-0.004
-606.171	20.653	-0.283	0.232
-605.157	-91.545	0.156	0.045
-604.142	-135.279	-0.543	-0.066
-603.128	-27.597	-0.113	0.066
-602.113	-61.817	-0.116	-0.049
-601.098	594.504	-0.093	-0.234
-600.084	-164.060	0.152	0.007
-599.069	-30.353	0.297	-0.171
-598.055	-7.140	-0.400	0.275
-597.040	-56.036	0.137	0.062
-596.025	63.602	0.095	-0.096
-595.011	54.697	0.168	0.164
-593.996	-90.685	0.109	-0.032
-592.982	-200.000	0.022	0.164
-591.967	-87.006	-0.293	0.090
-590.952	800.000	-0.031	0.124
-589.938	18.041	0.104	0.084
-588.923	95.686	-0.079	-0.091
-587.909	-200.000	-0.002	0.056
-586.894	-64.340	0.291	-0.120
-585.879	-192.758	0.227	0.002
-584.865	-133.049	-0.376	0.048
-583.850	229.930	-0.056	-0.092
-582.836	-47.429	0.274	-0.135
-581.821	-45.618	-0.155	0.078
-580.806	105.351	-0.167	-0.199
-579.792	-164.502	0.223	0.010
-578.777	800.000	-0.033	0.142
-577.763	-11.328	-0.191	-0.127
-576.748	-107.372	-0.216	-0.048
-575.733	105.208	0.066	-0.079
-574.719	-48.723	0.225	-0.109
-573.704	-3.029	0.113	0.079
-572.690	-105.634	-0.080	-0.018
-571.675	-84.041	0.268	-0.086
-570.661	800.000	0.031	0.117
-569.646	30.621	0.151	-0.131
-568.631	-200.000	0.085	-0.437
-567.617	-7.952	-0.121	0.083
-566.602	-54.564	0.137	-0.063
-565.588	26.096	-0.242	0.204
-564.573	435.231	0.046	0.102
-563.558	194.143	-0.148	0.227
-562.544	-67.673	-0.178	-0.070
-561.529	62.584	-0.059	-0.060
-560.515	-200.000	-0.011	-0.088
-559.500	-36.833	-0.242	-0.131
-558.485	-177.350	0.348	-0.009
-557.471	226.912	0.119	-0.196
-556.456	-200.000	0.028	0.215
-555.442	-89.684	0.161	-0.048
-554.427	-200.000	0.015	-0.146
-553.412	15.702	-0.233	-0.185
-552.398	-47.793	0.045	-0.022
-551.383	116.500	0.130	-0.161
-550.369	800.000	0.134	-0.387
-549.354	703.946	0.088	-0.234
-548.339	-200.000	-0.032	0.384
-547.325	-114.820	-0.193	0.037
-546.310	167.144	0.133	-0.191
-545.296	4.774	0.283	0.210
-544.281	-85.353	-0.192	0.060
-543.266	276.199	0.064	-0.115
-542.252	-200.000	0.002	-0.187
-541.237	43.547	-0.019	-0.018
-540.223	-200.000	-0.008	0.245
-539.208	-200.000	0.030	-0.201
-538.193	800.000	-0.083	0.270
-537.179	-149.976	0.303	0.024
-536.164	218.560	0.164	-0.265
-535.150	-43.023	0.277	0.142
-534.135	36.913	0.105	0.094
-533.121	502.622	-0.090	0.211
-532.106	-114.709	0.085	-0.016
-531.091	-200.000	-0.048	-0.373
-530.077	-200.000	0.028	-0.136
-529.062	-164.843	0.279	0.013
-528.048	-138.314	-0.298	-0.033
-527.033	1.331	-0.138	-0.100
-526.018	-79.388	-0.152	-0.052
-525.004	-178.893	0.215	0.005
-523.989	-70.447	-0.314	-0.120
-522.975	39.270	0.160	0.145
-521.960	-200.000	-0.002	0.262
-520.945	-114.924	-0.146	-0.028
-519.931	63.341	-0.069	0.070
-518.916	28.977	0.171	-0.147
-517.902	12.173	-0.311	-0.242
-516.887	4.987	0.049	-0.037
-515.872	-64.007	0.241	0.099
-514.858	76.840	-0.119	-0.127
-513.843	-156.577	-0.560	0.035
-512.829	-23.045	-0.113	0.069
-511.814	2.338	0.238	0.174
-510.799	337.484	-0.145	-0.285
-509.785	-175.112	0.283	-0.008
-508.770	-200.000	-0.028	-0.258
-507.756	-112.270	0.249	-0.050
-506.741	-177.181	-0.190	0.005
-505.726	264.609	0.016	0.028
-504.712	429.129	0.164	0.357
-503.697	176.519	-0.201	0.294
-502.683	800.000	-0.021	-0.080
-501.668	800.000	0.022	0.079
-500.653	-200.000	0.003	0.042
-499.639	186.209	0.206	-0.309
-498.624	-200.000	0.028	0.209
-497.610	260.584	0.115	0.200
-496.595	280.508	0.057	0.103
-495.581	159.716	-0.115	0.162
-494.566	-52.284	-0.265	-0.124
-493.551	505.985	0.043	-0.100
-492.537	66.992	0.151	0.155
-491.522	75.038	-0.168	-0.178
-490.508	-200.000	0.006	0.098
-489.493	-96.999	0.238	-0.063
-488.478	-159.073	-0.078	-0.004
-487.464	-24.931	0.166	-0.099
-486.449	457.052	0.139	0.310
-485.435	-200.000	-0.017	0.144
-484.420	113.910	0.148	0.181
-483.405	23.493	-0.130	0.108
-482.391	-154.309	0.415	0.028
-481.376	191.043	-0.043	0.065
-480.362	192.908	-0.275	-0.418
-479.347	-119.391	0.069	-0.012
-478.332	-49.876	0.090	0.043
-477.318	-29.862	0.358	0.205
-476.303	-34.666	0.273	0.151
-475.289	-200.000	-0.010	0.190
-474.274	800.000	-0.042	0.164
-473.259	-82.983	-0.112	0.037
-472.245	-200.000	0.006	0.208
-471.230	331.181	-0.034	0.066
-470.216	800.000	-0.075	0.315
-469.201	208.949	-0.180	-0.284
-468.186	-181.734	0.083	-0.002
-467.172	-92.019	0.220	-0.063
-466.157	-18.493	-0.133	0.084
-465.143	67.161	-0.301	-0.309
-464.128	112.249	0.109	0.132
-463.113	-200.000	-0.009	0.163
-462.099	-200.000	0.065	-0.291
-461.084	-173.788	-0.354	-0.011
-460.070	21.566	-0.119	-0.097
-459.055	-44.519	-0.147	0.074
-458.040	-200.000	-0.021	-0.186
-457.026	263.626	-0.068	-0.119
-456.011	-72.603	-0.234	-0.087
-454.997	114.665	-0.256	0.314
-453.982	370.016	0.133	0.271
-452.968	-112.426	-0.112	0.022
-451.953	125.181	0.119	-0.151
-450.938	132.232	-0.170	-0.220
-449.924	742.322	-0.060	-0.161
-448.909	25.628	-0.158	-0.132
-447.895	-200.000	0.005	0.335
-446.880	-200.000	0.008	-0.304
-445.865	800.000	0.006	-0.025
-444.851	-77.694	0.290	0.101
-443.836	-149.742	-0.321	0.025
-442.822	-200.000	0.010	-0.053
-441.807	104.675	-0.118	0.140
-440.792	210.737	-0.048	0.076
-439.778	-200.000	0.046	0.280
-438.763	-191.842	0.323	0.003
-437.749	-40.367	0.493	-0.258
-436.734	-9.217	0.264	-0.178
-435.719	-90.657	-0.217	-0.063
-434.705	-200.000	0.001	-0.289
-433.690	571.152	0.155	0.380
-432.676	-153.534	0.191	0.013
-431.661	305.402	-0.037	0.068
-430.646	800.000	0.016	-0.069
-429.632	96.107	-0.101	0.117
-428.617	-82.394	0.421	0.137
-427.603	80.722	-0.159	0.172
-426.588	403.959	0.120	-0.254
-425.573	-30.822	-0.343	0.195
-424.559	451.584	0.059	0.131
-423.544	-100.959	-0.133	0.033
-422.530	145.261	0.082	0.110
-421.515	93.759	0.117	-0.134
-420.500	-200.000	0.008	0.289
-419.486	50.153	0.197	0.187
-418.471	319.943	0.089	-0.169
-417.457	-118.861	0.361	0.064
-416.442	-200.000	-0.053	0.457
-415.428	-126.108	-0.140	0.021
-414.413	-15.494	-0.311	0.199
-413.398	-138.183	-0.138	-0.015
-412.384	122.953	0.115	0.145
-411.369	-21.262	0.078	0.048
-410.355	-134.439	-0.221	0.027
-409.340	-98.722	0.056	0.014
-408.325	-200.000	-0.002	-0.457
-407.311	-9.488	-0.142	-0.095
-406.296	375.354	0.119	-0.244
-405.282	-200.000	-0.013	-0.462
-404.267	-200.000	0.004	-0.112
-403.252	560.331	-0.144	0.351
-402.238	-155.670	0.224	-0.014
-401.223	800.000	-0.164	-0.490
-400.209	-200.000	-0.001	-0.266
-399.194	-200.000	-0.016	0.149
-398.179	140.599	0.008	0.011
-397.165	-200.000	0.035	-0.330
-396.150	-60.281	0.224	-0.096
-395.136	-86.453	0.255	-0.079
-394.121	69.651	0.052	-0.054
-393.106	-200.000	-0.051	-0.245
-392.092	-40.138	-0.163	0.085
-391.077	-29.317	-0.183	-0.105
-390.063	-200.000	-0.006	-0.280
-389.048	217.929	0.058	0.092
-388.033	-142.200	0.184	-0.018
-387.019	40.561	0.151	0.137
-386.004	-19.642	-0.159	0.099
-384.990	3.847	0.272	-0.199
-383.975	229.402	-0.132	0.216
-382.960	176.050	0.070	0.101
-381.946	-84.878	-0.308	-0.097
-380.931	700.064	0.073	0.192
-379.917	-200.000	-0.035	-0.295
-378.902	-200.000	0.009	-0.121
-377.888	-95.215	-0.150	0.041
-376.873	260.533	-0.060	-0.105
-375.858	-85.884	0.150	0.047
-374.844	312.353	0.083	-0.157
-373.829	125.407	0.089	0.113
-372.815	-62.398	0.144	0.060
-371.800	307.619	-0.034	-0.063
-370.785	-49.772	-0.537	0.256
-369.771	347.562	0.038	-0.074
-368.756	107.801	-0.070	0.084
-367.742	130.349	-0.154	0.197
-366.727	162.069	-0.129	-0.181
-365.712	-120.827	-0.210	0.036
-364.698	-111.992	-0.080	0.016
-363.683	99.377	-0.175	-0.203
-362.669	-200.000	-0.002	-0.082
-361.654	277.824	0.085	0.152
-360.639	-90.410	0.149	-0.043
-359.625	181.140	0.054	0.079
-358.610	-126.596	0.074	0.011
-357.596	-118.957	0.069	-0.012
-356.581	582.017	0.161	0.395
-355.566	190.852	0.165	0.250
-354.552	-58.016	-0.051	-0.022
-353.537	247.394	-0.040	-0.068
-352.523	12.860	0.166	0.128
-351.508	311.322	0.181	0.341
-350.493	-157.866	0.264	-0.016
-349.479	-200.000	0.040	-0.292
-348.464	-179.779	0.253	-0.005
-347.450	800.000	0.102	-0.300
-346.435	74.010	0.153	0.161
-345.420	-86.047	0.192	0.059
-344.406	99.841	0.127	-0.148
-343.391	6.225	0.294	-0.218
-342.377	-109.592	-0.301	-0.064
-341.362	348.010	-0.216	0.427
-340.348	-151.427	-0.238	-0.018
-339.333	94.383	-0.115	0.131
-338.318	-162.657	-0.115	0.006
-337.304	-1.175	0.155	-0.110
-336.289	113.449	0.067	0.081
-335.275	-114.379	0.273	-0.053
-334.260	-130.925	0.418	-0.056
-333.245	270.668	0.107	-0.188
-332.231	85.227	-0.018	-0.020
-331.216	179.547	-0.137	-0.200
-330.202	69.375	0.180	0.185
-329.187	-200.000	0.052	-0.432
-328.172	136.949	-0.241	-0.315
-327.158	-46.846	-0.583	0.285
-326.143	-144.444	0.190	0.018
-325.129	-200.000	-0.020	-0.155
-324.114	-112.934	0.140	-0.028
-323.099	-0.764	0.240	-0.170
-322.085	-200.000	-0.008	-0.106
-321.070	-200.000	0.030	0.297
-320.056	-200.000	0.021	0.289
-319.041	-200.000	-0.014	-0.212
-318.026	105.253	-0.208	0.246
-317.012	-200.000	0.007	-0.073
-315.997	-47.027	-0.086	-0.042
-314.983	-116.528	0.115	-0.021
-313.968	87.202	-0.071	0.079
-312.953	-127.238	0.482	0.070
-311.939	800.000	-0.162	0.528
-310.924	337.325	-0.135	-0.263
-309.910	-42.708	0.159	0.081
-308.895	-188.387	-0.171	0.002
-307.880	58.319	-0.193	-0.189
-306.866	-136.192	-0.323	0.038
-305.851	78.671	-0.260	0.278
-304.837	800.000	0.041	0.114
-303.822	-200.000	0.018	-0.165
-302.807	-200.000	0.057	0.393
-301.793	-200.000	-0.004	0.142
-300.778	-128.994	0.040	-0.006
-299.764	-200.000	0.014	0.373
-298.749	684.193	-0.046	-0.120
-297.735	-36.221	0.036	-0.019
-296.720	-53.455	-0.191	-0.088
-295.705	800.000	0.112	0.385
-294.691	-200.000	-0.037	0.279
-293.676	197.722	-0.107	-0.163
-292.662	76.444	-0.292	-0.309
-291.647	87.456	0.100	-0.111
-290.632	-200.000	0.008	-0.336
-289.618	-8.789	-0.228	-0.153
-288.603	-200.000	-0.007	-0.089
-287.589	-114.217	0.447	0.086
-286.574	-182.984	0.112	0.002
-285.559	45.631	-0.321	0.297
-284.545	326.830	-0.089	0.171
-283.530	90.673	-0.174	-0.195
-282.516	-26.608	0.275	0.161
-281.501	76.692	0.099	-0.105
-280.486	-159.330	0.147	0.008
-279.472	-200.000	0.013	-0.096
-278.457	-26.055	-0.095	-0.056
-277.443	62.872	0.124	-0.124
-276.428	88.468	-0.060	-0.066
-275.413	3.326	0.192	0.140
-274.399	758.744	-0.073	0.198
-273.384	122.866	0.110	0.137
-272.370	615.031	0.111	-0.277
-271.355	9.750	-0.409	0.310
-270.340	0.534	0.368	-0.263
-269.326	129.264	-0.249	-0.317
-268.311	-69.178	0.176	-0.068
-267.297	4.183	0.182	0.133
-266.282	-200.000	-0.040	-0.203
-265.267	286.732	-0.063	0.114
-264.253	213.417	-0.151	0.238
-263.238	-200.000	0.035	-0.368
-262.224	461.593	-0.071	-0.157
-261.209	152.964	0.151	0.206
-260.195	137.089	0.131	-0.172
-259.180	765.533	0.091	-0.248
-258.165	106.368	0.101	-0.119
-257.151	-71.939	-0.221	-0.082
-256.136	-106.682	0.196	0.044
-255.122	-35.367	-0.207	0.113
-254.107	-114.078	0.219	-0.042
-253.092	15.477	0.072	0.056
-252.078	24.229	0.104	0.086
-251.063	323.705	0.058	0.110
-250.049	-173.496	0.229	-0.007
-249.034	-200.000	0.019	-0.176
-248.019	-74.619	-0.306	0.110
-247.005	-200.000	0.027	-0.302
-245.990	-200.000	0.052	-0.264
-244.976	-58.779	0.171	0.074
-243.961	-175.937	-0.265	-0.007
-242.946	-200.000	-0.067	-0.311
-241.932	-200.000	-0.064	-0.298
-240.917	79.793	0.197	-0.212
-239.903	187.848	-0.012	0.018
-238.888	-167.942	-0.084	0.003
-237.873	-200.000	0.041	-0.238
-236.859	-200.000	-0.000	-0.208
-235.844	155.199	-0.128	0.176
-234.830	-136.654	0.133	-0.015
-233.815	-200.000	0.029	-0.266
-232.800	-12.938	0.366	0.238
-231.786	-98.682	-0.301	0.077
-230.771	-200.000	-0.016	-0.176
-229.757	24.754	-0.174	0.144
-228.742	116.684	-0.211	-0.258
-227.727	40.568	-0.133	-0.119
-226.713	203.133	-0.100	-0.155
-225.698	265.239	-0.256	0.446
-224.684	-200.000	0.037	0.187
-223.669	-103.873	0.310	0.072
-222.655	119.977	-0.146	0.180
-221.640	-49.162	0.062	0.029
-220.625	800.000	-0.014	-0.051
-219.611	28.120	0.160	-0.135
-218.596	-4.235	-0.158	-0.109
-217.582	-173.847	-0.123	-0.004
-216.567	-123.296	-0.158	-0.025
-215.552	15.925	0.101	0.080
-214.538	-31.481	0.184	0.103
-213.523	31.289	0.115	0.099
-212.509	-200.000	-0.001	-0.021
-211.494	-78.798	-0.143	0.049
-210.479	-200.000	0.035	0.168
-209.465	800.000	-0.009	0.037
-208.450	321.644	-0.106	-0.201
-207.436	-16.583	-0.315	-0.199
-206.421	351.197	-0.057	0.112
-205.406	-200.000	0.024	0.143
-204.392	-200.000	0.014	0.158
-203.377	-200.000	-0.014	0.239
-202.363	134.768	0.143	0.185
-201.348	-200.000	0.010	0.058
-200.333	227.961	-0.111	-0.180
-199.319	800.000	-0.061	-0.180
-198.304	-80.317	-0.423	0.141
-197.290	96.736	0.281	-0.321
-196.275	66.740	-0.126	-0.128
-195.260	-116.264	-0.077	-0.014
-194.246	-107.708	-0.274	-0.060
-193.231	480.627	0.152	0.343
-192.217	-65.361	-0.179	0.072
-191.202	-134.991	-0.027	0.003
-190.187	45.765	0.096	0.089
-189.173	247.585	0.066	0.111
-188.158	800.000	0.054	0.181
-187.144	800.000	-0.038	0.149
-186.129	-3.853	0.194	0.134
-185.114	-200.000	0.034	0.211
-184.100	-120.569	0.197	-0.033
-183.085	118.252	0.164	-0.202
-182.071	-9.324	-0.030	-0.020
-181.056	-200.000	0.009	0.368
-180.042	-200.000	-0.019	-0.096
-179.027	-81.992	-0.179	0.058
-178.012	50.254	-0.074	0.070
-176.998	-21.035	-0.189	-0.115
-175.983	-200.000	0.053	-0.252
-174.969	144.136	-0.052	-0.069
-173.954	264.798	0.224	-0.389
-172.939	46.113	-0.296	-0.273
-171.925	-60.673	-0.107	0.045
-170.910	-172.978	-0.075	-0.002
-169.896	-176.392	0.165	-0.004
-168.881	90.253	-0.130	-0.145
-167.866	139.052	0.162	-0.212
-166.852	-114.557	0.391	0.075
-165.837	35.510	0.250	0.218
-164.823	56.770	0.100	0.097
-163.808	39.851	0.211	-0.189
-162.793	124.383	0.284	0.355
-161.779	-99.809	-0.218	-0.054
-160.764	-6.795	-0.284	0.192
-159.750	92.678	0.125	0.140
-158.735	81.362	-0.219	0.235
-157.720	800.000	0.100	0.333
-156.706	800.000	-0.148	0.461
-155.691	-58.588	0.246	0.106
-154.677	777.288	-0.094	0.255
-153.662	800.000	-0.062	-0.266
-152.647	18.266	0.286	0.227
-151.633	557.978	-0.093	-0.223
-150.618	800.000	-0.003	-0.015
-149.604	800.000	-0.061	-0.255
-148.589	800.000	0.074	0.256
-147.574	800.000	0.066	0.257
-146.560	800.000	-0.036	-0.134
-145.545	5.801	0.298	-0.220
-144.531	327.310	-0.048	0.092
-143.516	800.000	-0.083	0.322
-142.502	-136.961	0.491	-0.056
-141.487	12.540	0.110	0.085
-140.472	-101.949	-0.331	0.079
-139.458	28.934	0.047	-0.039
-138.443	59.560	-0.348	-0.341
-137.429	-108.172	0.163	-0.035
-136.414	-144.215	-0.124	0.011
-135.399	-200.000	0.012	-0.480
-134.385	-21.899	-0.201	0.122
-133.370	502.274	-0.037	-0.085
-132.356	-38.256	0.212	-0.112
-131.341	-78.345	0.185	0.063
-130.326	144.119	0.099	0.132
-129.312	-200.000	0.036	-0.347
-128.297	-200.000	0.026	-0.129
-127.283	346.388	-0.163	0.319
-126.268	77.089	0.238	-0.252
-125.253	156.167	-0.147	-0.201
-124.239	-93.342	0.275	0.076
-123.224	-47.809	0.269	0.130
-122.210	800.000	0.086	-0.287
-121.195	-132.783	-0.213	0.027
