DTS Sentinel unit serial number:	SN413079Multiplexer serial number:	ORYXHardware model number:	OX4-SRSoftware version number:	ORYX F/W v4.00 Oryx Data Collector v3.7.2.0data status	okinstallation	princeton_trtdifferential loss correction	single-endedforward channel	channel 4reverse channel	N/Adate	2019/09/11time	23:15:10forward acquisition time	60.00reverse acquisition time	0.00gamma	496.2192k internal	0.2309k external	0.2309temperature offset calibration	1.0079default loss term (dB/km)	0.3790temperature slope calibration	1.0000multiplexer offset coefficient	1.0000multiplexer slope coefficient	1.0000fibre end	0.00T internal ref (°C)	34.44T ext. ref 1 (°C)	1.86T ext. ref 2 (°C)	28.69length (m)	temperature (°C)	Stokes	anti-Stokes-747.200	800.000	-0.059	0.261
-746.185	-200.000	-0.082	0.424
-745.171	800.000	0.004	-0.015
-744.156	67.017	0.397	0.411
-743.142	-143.197	0.114	0.011
-742.127	-200.000	-0.447	0.001
-741.112	77.210	-0.083	-0.090
-740.098	281.845	0.013	0.024
-739.083	-148.281	0.163	-0.014
-738.069	151.610	-0.129	-0.179
-737.054	800.000	0.065	0.263
-736.039	800.000	-0.129	-0.374
-735.025	446.586	-0.118	-0.265
-734.010	109.180	-0.160	0.194
-732.996	-53.580	-0.262	-0.122
-731.981	174.557	0.028	0.042
-730.966	332.851	0.069	0.136
-729.952	198.647	-0.139	-0.215
-728.937	302.400	0.149	-0.279
-727.923	-200.000	-0.046	0.276
-726.908	-200.000	0.004	-0.118
-725.894	800.000	0.069	0.230
-724.879	659.402	0.029	0.077
-723.864	800.000	0.055	0.240
-722.850	334.195	-0.291	0.573
-721.835	800.000	-0.081	0.289
-720.821	-154.383	-0.104	0.007
-719.806	-200.000	0.015	0.081
-718.791	-83.788	0.263	-0.085
-717.777	-200.000	-0.031	0.272
-716.762	-35.912	-0.137	-0.075
-715.748	-195.142	-0.216	0.002
-714.733	-83.924	0.256	-0.083
-713.718	98.091	0.025	-0.029
-712.704	30.577	0.107	-0.093
-711.689	420.464	-0.098	0.214
-710.675	212.552	0.041	0.065
-709.660	53.231	-0.080	0.078
-708.645	-101.609	-0.287	0.071
-707.631	-9.508	0.106	-0.071
-706.616	152.878	0.177	-0.245
-705.602	-200.000	-0.011	0.105
-704.587	-33.062	-0.240	0.135
-703.572	767.400	0.047	0.129
-702.558	-52.133	-0.285	0.134
-701.543	-136.007	-0.389	0.046
-700.529	670.615	0.093	-0.244
-699.514	-140.620	0.191	-0.020
-698.499	-168.130	0.225	0.009
-697.485	-143.097	0.034	0.003
-696.470	-106.017	-0.095	0.022
-695.456	518.537	-0.193	0.459
-694.441	-137.144	-0.346	0.040
-693.426	-70.046	-0.337	-0.130
-692.412	-200.000	0.013	-0.104
-691.397	679.934	0.130	-0.343
-690.383	-200.000	-0.036	-0.179
-689.368	689.078	-0.098	0.259
-688.354	-88.733	0.203	0.061
-687.339	0.131	-0.216	-0.156
-686.324	-120.915	-0.214	0.036
-685.310	152.788	-0.055	-0.076
-684.295	299.444	0.081	0.152
-683.281	800.000	0.076	0.238
-682.266	23.318	0.152	-0.127
-681.251	-3.872	0.051	0.036
-680.237	282.749	0.028	0.052
-679.222	-200.000	0.043	0.206
-678.208	-200.000	-0.017	0.495
-677.193	-63.568	-0.143	-0.059
-676.178	167.139	0.067	-0.096
-675.164	230.390	-0.111	0.184
-674.149	-185.335	0.248	-0.004
-673.135	-200.000	-0.065	-0.298
-672.120	800.000	-0.057	0.215
-671.105	102.500	-0.251	-0.298
-670.091	-117.791	-0.247	0.045
-669.076	-31.950	0.271	-0.154
-668.062	50.451	-0.043	-0.041
-667.047	568.216	0.094	-0.230
-666.032	800.000	-0.031	-0.095
-665.018	-118.261	0.383	0.069
-664.003	57.776	0.124	-0.123
-662.989	-98.269	-0.342	-0.089
-661.974	24.263	-0.197	0.165
-660.959	-86.321	-0.182	-0.057
-659.945	27.453	-0.142	0.121
-658.930	143.389	0.088	-0.118
-657.916	-200.000	-0.008	-0.432
-656.901	-165.626	-0.436	0.019
-655.886	-200.000	0.010	-0.056
-654.872	388.190	0.029	-0.060
-653.857	188.668	0.185	0.280
-652.843	-77.460	0.172	-0.060
-651.828	1.861	-0.306	-0.223
-650.814	59.188	-0.109	-0.109
-649.799	-3.220	-0.059	-0.042
-648.784	-103.365	-0.369	0.088
-647.770	-31.622	-0.206	-0.117
-646.755	-200.000	-0.003	0.203
-645.741	147.936	-0.241	-0.329
-644.726	-38.673	0.140	0.075
-643.711	-200.000	0.033	0.265
-642.697	-43.988	-0.333	0.170
-641.682	26.139	-0.185	0.156
-640.668	-200.000	-0.061	-0.278
-639.653	-200.000	-0.011	0.165
-638.638	16.980	-0.139	0.111
-637.624	-200.000	0.015	-0.335
-636.609	-50.131	-0.056	0.027
-635.595	-200.000	-0.051	0.268
-634.580	800.000	0.046	0.182
-633.565	-9.393	0.127	-0.086
-632.551	-9.961	-0.170	0.115
-631.536	-95.057	0.170	-0.046
-630.522	-200.000	0.017	-0.234
-629.507	-86.392	-0.121	-0.038
-628.492	-110.535	0.319	0.067
-627.478	-52.338	-0.143	-0.067
-626.463	147.745	0.132	0.179
-625.449	-177.815	-0.123	-0.003
-624.434	24.595	0.047	-0.040
-623.419	-150.564	-0.113	-0.009
-622.405	800.000	0.025	0.069
-621.390	-115.086	0.302	0.058
-620.376	-200.000	0.017	0.442
-619.361	-200.000	0.058	0.300
-618.346	-200.000	0.010	0.266
-617.332	-88.168	-0.216	-0.066
-616.317	-200.000	-0.002	-0.135
-615.303	-200.000	-0.044	0.311
-614.288	374.126	0.066	0.135
-613.273	143.436	0.087	0.118
-612.259	-82.468	-0.122	0.040
-611.244	74.028	0.364	0.386
-610.230	131.432	0.112	0.145
-609.215	-144.016	-0.184	-0.018
-608.201	93.564	0.062	-0.071
-607.186	-25.566	-0.195	-0.116
-606.171	-13.262	0.136	0.089
-605.157	-200.000	-0.028	0.155
-604.142	800.000	-0.081	-0.281
-603.128	800.000	-0.103	-0.369
-602.113	-200.000	0.044	0.213
-601.098	-62.404	0.229	0.096
-600.084	16.578	-0.169	0.135
-599.069	800.000	0.048	-0.140
-598.055	154.667	-0.071	-0.098
-597.040	-66.109	-0.132	0.053
-596.025	221.589	0.145	0.235
-595.011	-153.627	0.139	-0.010
-593.996	65.709	-0.164	0.168
-592.982	-31.542	-0.176	0.100
-591.967	263.027	-0.092	-0.162
-590.952	800.000	0.101	0.302
-589.938	800.000	-0.032	0.131
-588.923	-200.000	-0.039	-0.330
-587.909	-70.594	0.142	-0.054
-586.894	-200.000	-0.047	-0.336
-585.879	-118.358	-0.208	0.037
-584.865	-200.000	0.019	0.263
-583.850	-141.901	0.038	-0.004
-582.836	188.336	-0.128	-0.194
-581.821	86.494	0.165	-0.184
-580.806	2.262	-0.128	0.094
-579.792	58.649	0.236	0.234
-578.777	-103.863	-0.102	-0.024
-577.763	21.706	0.170	-0.140
-576.748	-200.000	0.009	0.118
-575.733	-64.572	0.248	-0.102
-574.719	-200.000	-0.010	0.078
-573.704	-44.763	0.100	-0.050
-572.690	-2.453	0.339	0.240
-571.675	-91.107	-0.271	-0.079
-570.661	-88.814	0.156	-0.047
-569.646	-62.774	-0.224	-0.094
-568.631	-44.734	-0.143	-0.072
-567.617	107.364	0.114	0.136
-566.602	-200.000	0.018	-0.318
-565.588	-32.316	-0.256	-0.144
-564.573	-9.840	0.182	0.122
-563.558	502.541	0.187	-0.437
-562.544	-21.291	-0.125	0.077
-561.529	159.069	0.157	-0.220
-560.515	800.000	-0.036	0.151
-559.500	-79.128	-0.263	-0.090
-558.485	800.000	-0.090	0.316
-557.471	562.324	-0.165	0.404
-556.456	-67.874	-0.085	0.033
-555.442	-194.512	-0.329	-0.003
-554.427	310.063	-0.067	-0.127
-553.412	-87.629	0.215	-0.066
-552.398	328.240	-0.075	-0.146
-551.383	-29.372	0.221	-0.127
-550.369	-55.669	0.075	-0.034
-549.354	-200.000	-0.008	0.172
-548.339	445.114	-0.122	-0.269
-547.325	-149.309	0.271	-0.022
-546.310	252.648	-0.187	0.322
-545.296	800.000	0.184	-0.575
-544.281	800.000	-0.078	-0.233
-543.266	-200.000	0.049	0.244
-542.252	-200.000	0.026	0.463
-541.237	-43.950	0.247	-0.125
-540.223	7.822	0.140	0.106
-539.208	-200.000	0.025	-0.166
-538.193	487.381	0.144	-0.331
-537.179	-200.000	0.015	-0.227
-536.164	240.431	-0.252	0.424
-535.150	-200.000	0.312	-0.001
-534.135	-159.277	0.126	-0.007
-533.121	260.057	0.148	0.258
-532.106	-200.000	0.034	-0.204
-531.091	-79.022	-0.303	-0.104
-530.077	800.000	-0.021	-0.089
-529.062	-18.790	0.177	0.111
-528.048	399.185	0.080	-0.169
-527.033	-33.165	0.234	-0.130
-526.018	-109.613	-0.276	-0.059
-525.004	800.000	-0.033	0.110
-523.989	-16.772	0.535	-0.341
-522.975	-53.904	-0.242	-0.111
-521.960	486.858	-0.065	0.148
-520.945	-174.620	-0.190	-0.005
-519.931	-33.678	-0.287	0.159
-518.916	500.013	0.017	0.039
-517.902	-64.398	-0.219	0.090
-516.887	343.391	0.129	0.255
-515.872	-30.022	0.126	-0.072
-514.858	164.896	0.159	-0.226
-513.843	205.056	-0.089	-0.139
-512.829	160.701	0.009	0.013
-511.814	-23.336	-0.263	-0.159
-510.799	264.370	0.196	-0.344
-509.785	-89.675	-0.154	-0.045
-508.770	800.000	0.099	0.335
-507.756	-83.404	-0.102	-0.033
-506.741	-198.891	0.273	0.002
-505.726	12.375	0.063	-0.049
-504.712	800.000	0.057	-0.162
-503.697	-119.338	-0.117	0.020
-502.683	43.721	0.152	-0.140
-501.668	-152.655	0.089	-0.006
-500.653	-78.411	-0.268	-0.092
-499.639	-200.000	0.041	-0.334
-498.624	604.718	-0.079	0.198
-497.610	760.473	0.129	-0.352
-496.595	69.389	-0.210	-0.217
-495.581	34.140	-0.189	-0.166
-494.566	60.524	-0.233	-0.232
-493.551	-200.000	0.020	0.120
-492.537	-15.657	0.125	0.080
-491.522	147.013	0.199	0.270
-490.508	-200.000	0.024	0.228
-489.493	98.975	0.114	0.132
-488.478	-64.205	0.060	0.025
-487.464	112.717	0.329	0.401
-486.449	77.421	0.252	0.270
-485.435	-75.915	-0.199	0.071
-484.420	415.465	-0.127	-0.272
-483.405	-96.488	0.319	-0.085
-482.391	-166.578	0.222	-0.009
-481.376	-188.455	0.034	0.000
-480.362	-20.679	0.085	-0.053
-479.347	401.563	0.113	0.238
-478.332	10.261	0.189	0.145
-477.318	431.754	-0.107	-0.234
-476.303	302.627	0.137	-0.255
-475.289	-83.769	0.232	-0.074
-474.274	584.895	-0.081	0.200
-473.259	276.400	0.154	0.275
-472.245	617.655	0.009	-0.023
-471.230	-200.000	-0.038	-0.287
-470.216	-146.004	-0.253	-0.023
-469.201	-19.894	-0.240	0.149
-468.186	19.722	-0.032	0.026
-467.172	-83.873	-0.118	0.038
-466.157	800.000	-0.028	0.080
-465.143	60.432	0.108	-0.108
-464.128	-143.617	-0.378	-0.036
-463.113	-71.636	-0.145	-0.054
-462.099	800.000	0.029	-0.091
-461.084	-89.365	0.159	0.047
-460.070	-29.702	0.312	-0.179
-459.055	106.808	-0.164	0.195
-458.040	-0.730	-0.210	0.150
-457.026	-33.376	-0.267	-0.148
-456.011	93.300	-0.218	-0.247
-454.997	-60.809	0.063	-0.027
-453.982	-13.535	-0.141	0.092
-452.968	-200.000	0.024	-0.118
-451.953	-200.000	0.067	0.391
-450.938	72.301	0.087	-0.091
-449.924	-61.386	-0.163	-0.069
-448.909	-193.769	-0.020	-0.000
-447.895	54.698	0.135	0.131
-446.880	-200.000	-0.004	0.155
-445.865	128.800	-0.225	-0.288
-444.851	-42.915	-0.221	0.113
-443.836	-1.072	0.131	-0.093
-442.822	-33.973	-0.327	-0.181
-441.807	-200.000	0.000	0.139
-440.792	-200.000	0.011	0.083
-439.778	-94.644	-0.380	0.104
-438.763	157.548	-0.131	0.183
-437.749	-6.513	0.325	0.223
-436.734	-2.753	-0.017	0.012
-435.719	450.221	-0.076	-0.168
-434.705	-200.000	0.012	-0.070
-433.690	683.834	0.122	-0.318
-432.676	-0.357	-0.199	0.142
-431.661	-91.477	0.083	0.024
-430.646	73.716	0.137	0.145
-429.632	-50.046	-0.023	-0.011
-428.617	800.000	0.009	0.035
-427.603	-24.793	0.050	-0.030
-426.588	50.106	-0.077	0.073
-425.573	800.000	0.021	-0.087
-424.559	-120.316	-0.206	-0.035
-423.544	694.597	0.118	-0.311
-422.530	-25.165	0.233	-0.138
-421.515	-40.507	0.120	-0.063
-420.500	-77.538	0.138	-0.048
-419.486	110.152	-0.054	0.065
-418.471	69.568	0.139	-0.144
-417.457	-200.000	0.018	0.285
-416.442	295.480	-0.048	-0.089
-415.428	111.030	-0.203	-0.245
-414.413	174.880	-0.046	0.067
-413.398	800.000	0.054	-0.181
-412.384	218.456	0.092	-0.147
-411.369	151.931	0.149	-0.204
-410.355	436.004	0.217	0.473
-409.340	153.815	-0.095	0.131
-408.325	-3.995	-0.313	-0.218
-407.311	206.527	-0.073	0.114
-406.296	800.000	0.040	-0.129
-405.282	-61.651	0.316	-0.133
-404.267	59.905	0.117	-0.116
-403.252	172.579	0.097	0.141
-402.238	463.619	-0.065	0.146
-401.223	-200.000	0.023	-0.350
-400.209	-200.000	-0.018	-0.394
-399.194	13.974	0.152	0.119
-398.179	-92.681	-0.232	-0.065
-397.165	-11.144	0.232	0.154
-396.150	320.093	0.042	-0.080
-395.136	57.361	0.242	-0.237
-394.121	800.000	0.095	0.319
-393.106	-38.731	0.087	-0.046
-392.092	-200.000	0.031	0.361
-391.077	407.459	-0.151	-0.320
-390.063	-12.454	0.097	0.064
-389.048	-118.087	0.119	0.021
-388.033	348.410	0.071	-0.141
-387.019	115.574	-0.212	-0.260
-386.004	800.000	0.030	-0.110
-384.990	-200.000	-0.007	0.135
-383.975	3.479	0.162	-0.119
-382.960	259.908	-0.138	-0.239
-381.946	-1.813	0.265	-0.187
-380.931	800.000	-0.071	0.295
-379.917	-43.932	0.137	0.069
-378.902	-200.000	0.028	0.133
-377.888	-138.098	0.241	-0.027
-376.873	-136.409	-0.440	-0.051
-375.858	160.499	-0.146	0.204
-374.844	-200.000	-0.007	0.073
-373.829	-200.000	-0.009	-0.261
-372.815	-103.914	-0.167	-0.039
-371.800	117.257	-0.108	0.133
-370.785	98.497	-0.216	-0.250
-369.771	108.997	-0.203	0.243
-368.756	-200.000	-0.023	-0.140
-367.742	-153.293	0.490	-0.034
-366.727	-25.141	0.304	-0.180
-365.712	-100.679	0.138	-0.034
-364.698	-200.000	-0.004	0.018
-363.683	-200.000	0.012	0.289
-362.669	-68.031	-0.177	0.069
-361.654	151.949	-0.036	0.049
-360.639	-93.167	-0.271	0.075
-359.625	13.130	0.254	0.197
-358.610	-200.000	0.023	-0.102
-357.596	800.000	0.048	0.160
-356.581	611.043	0.115	-0.287
-355.566	315.400	0.114	0.215
-354.552	226.268	0.124	0.201
-353.537	-27.035	-0.092	-0.054
-352.523	-48.448	-0.085	0.041
-351.508	154.366	-0.273	0.375
-350.493	33.621	0.122	0.106
-349.479	792.339	0.096	-0.265
-348.464	-103.295	-0.115	-0.027
-347.450	-118.127	-0.154	0.028
-346.435	-200.000	0.010	0.067
-345.420	-79.765	-0.062	0.021
-344.406	-58.224	-0.038	0.016
-343.391	734.649	0.041	-0.109
-342.377	-84.088	-0.408	0.129
-341.362	-200.000	0.031	0.210
-340.348	47.070	0.125	0.116
-339.333	55.548	-0.141	-0.137
-338.318	800.000	0.068	0.259
-337.304	621.197	-0.103	-0.259
-336.289	320.983	-0.152	-0.289
-335.275	173.648	0.141	-0.203
-334.260	-132.629	-0.036	0.005
-333.245	691.983	0.067	0.174
-332.231	97.788	0.164	0.188
-331.216	-200.000	0.067	0.395
-330.202	-200.000	0.009	0.205
-329.187	-162.401	0.299	-0.015
-328.172	247.691	0.099	0.168
-327.158	25.041	-0.237	-0.197
-326.143	-54.957	0.054	-0.024
-325.129	-80.011	0.181	0.061
-324.114	-200.000	0.010	0.123
-323.099	108.810	0.248	-0.296
-322.085	47.226	-0.142	-0.132
-321.070	-77.984	-0.024	0.008
-320.056	-103.102	0.199	0.047
-319.041	-200.000	-0.000	0.232
-318.026	-24.107	-0.149	0.089
-317.012	105.704	-0.084	0.099
-315.997	-200.000	-0.033	-0.204
-314.983	-200.000	-0.046	-0.394
-313.968	800.000	-0.093	-0.276
-312.953	-93.799	-0.136	0.037
-311.939	95.921	-0.106	0.121
-310.924	46.561	-0.045	-0.042
-309.910	84.904	0.202	-0.221
-308.895	680.396	0.094	0.245
-307.880	108.474	-0.129	0.154
-306.866	-5.734	-0.235	0.161
-305.851	-172.535	-0.348	0.011
-304.837	421.975	-0.158	-0.338
-303.822	-34.490	0.139	0.076
-302.807	-24.220	-0.069	-0.041
-301.793	-200.000	0.100	0.492
-300.778	-108.648	-0.268	-0.058
-299.764	800.000	0.037	-0.111
-298.749	71.215	0.121	0.125
-297.735	6.309	0.054	-0.040
-296.720	-200.000	0.024	-0.117
-295.705	800.000	-0.039	0.157
-294.691	-111.091	0.205	0.042
-293.676	41.325	0.175	-0.158
-292.662	48.406	0.308	-0.288
-291.647	800.000	0.062	0.190
-290.632	-197.199	0.259	-0.002
-289.618	-70.074	0.073	-0.028
-288.603	91.128	0.132	-0.148
-287.589	23.298	0.074	0.061
-286.574	-200.000	-0.014	-0.068
-285.559	-87.042	0.149	-0.045
-284.545	526.329	-0.136	-0.319
-283.530	-121.569	-0.255	0.042
-282.516	41.298	-0.291	0.262
-281.501	-200.000	0.029	0.138
-280.486	800.000	-0.087	0.248
-279.472	-96.559	0.241	0.063
-278.457	53.056	0.144	-0.138
-277.443	-200.000	0.051	-0.287
-276.428	498.450	0.109	-0.251
-275.413	23.164	0.126	0.103
-274.399	-137.214	0.068	0.008
-273.384	204.282	0.165	-0.255
-272.370	800.000	0.034	0.118
-271.355	-1.769	-0.239	0.168
-270.340	464.798	-0.178	-0.398
-269.326	-200.000	-0.051	-0.271
-268.311	425.459	-0.091	-0.195
-267.297	-200.000	-0.042	-0.285
-266.282	-144.468	0.258	0.024
-265.267	259.594	0.043	-0.074
-264.253	-52.623	0.162	-0.075
-263.238	146.604	0.058	-0.078
-262.224	104.819	0.218	-0.256
-261.209	800.000	-0.035	-0.098
-260.195	-158.684	-0.292	0.017
-259.180	29.191	0.076	-0.064
-258.165	800.000	0.052	0.185
-257.151	-30.413	-0.266	-0.150
-256.136	-200.000	0.045	-0.402
-255.122	386.711	0.102	0.210
-254.107	-200.000	-0.018	-0.323
-253.092	-200.000	0.031	0.166
-252.078	32.631	-0.075	0.065
-251.063	-49.090	-0.236	-0.112
-250.049	126.245	0.158	-0.199
-249.034	-186.046	-0.406	0.006
-248.019	-73.387	-0.224	-0.082
-247.005	-200.000	-0.031	0.260
-245.990	-200.000	-0.083	0.441
-244.976	67.833	0.048	-0.049
-243.961	-138.897	-0.138	-0.015
-242.946	-11.592	-0.197	-0.129
-241.932	83.203	0.112	0.122
-240.917	-39.138	0.240	-0.126
-239.903	-133.392	-0.160	-0.020
-238.888	-58.070	-0.209	-0.091
-237.873	-57.221	-0.196	0.086
-236.859	-91.333	0.150	-0.043
-235.844	39.097	0.241	-0.215
-234.830	121.402	-0.059	0.073
-233.815	800.000	-0.023	0.085
-232.800	28.312	0.113	-0.095
-231.786	57.994	-0.199	0.194
-230.771	-126.220	0.110	-0.016
-229.757	506.269	-0.006	-0.014
-228.742	-64.485	0.408	-0.165
-227.727	128.530	0.117	0.149
-226.713	57.004	-0.359	0.348
-225.698	393.624	-0.129	0.268
-224.684	-35.592	-0.299	0.161
-223.669	64.811	0.219	0.220
-222.655	-200.000	-0.004	0.067
-221.640	-144.177	-0.126	-0.012
-220.625	-154.733	0.168	-0.011
-219.611	-64.688	-0.370	-0.149
-218.596	-116.607	0.130	0.024
-217.582	315.584	-0.146	0.274
-216.567	-200.000	-0.020	-0.109
-215.552	-74.328	0.260	-0.093
-214.538	-69.328	-0.317	0.121
-213.523	-170.318	0.313	0.011
-212.509	481.922	-0.176	0.399
-211.494	800.000	0.060	-0.192
-210.479	800.000	-0.020	0.085
-209.465	-3.253	0.230	-0.160
-208.450	-103.566	-0.115	0.027
-207.436	800.000	0.033	0.114
-206.421	66.736	-0.078	-0.079
-205.406	800.000	0.007	-0.021
-204.392	238.451	-0.021	-0.034
-203.377	67.146	-0.156	-0.158
-202.363	-56.210	-0.060	-0.027
-201.348	-50.269	0.314	-0.148
-200.333	-25.280	0.106	0.062
-199.319	-97.644	-0.063	0.016
-198.304	751.962	0.117	-0.315
-197.290	-100.413	-0.267	-0.066
-196.275	-200.000	0.015	0.236
-195.260	-15.633	0.324	0.205
-194.246	-150.192	0.102	0.008
-193.231	510.305	0.039	0.089
-192.217	216.524	0.077	0.122
-191.202	162.895	-0.071	0.100
-190.187	-78.157	0.194	0.066
-189.173	-80.238	0.012	0.004
-188.158	800.000	-0.103	0.294
-187.144	800.000	-0.133	0.376
-186.129	92.111	0.321	0.360
-185.114	-55.117	0.028	-0.012
-184.100	-50.323	0.273	-0.128
-183.085	800.000	0.050	-0.141
-182.071	637.797	-0.069	-0.174
-181.056	-158.324	0.123	0.007
-180.042	800.000	0.076	0.235
-179.027	-120.992	-0.520	-0.087
-178.012	244.196	0.040	-0.067
-176.998	-200.000	-0.018	-0.232
-175.983	-114.592	-0.289	-0.055
-174.969	168.397	0.144	-0.203
-173.954	-200.000	-0.048	-0.291
-172.939	-200.000	0.007	0.258
-171.925	-75.207	-0.115	-0.041
-170.910	349.242	0.090	-0.177
-169.896	800.000	0.023	-0.081
-168.881	-133.825	0.024	-0.003
-167.866	-145.327	-0.192	0.017
-166.852	-13.441	0.104	-0.067
-165.837	-58.542	-0.359	-0.155
-164.823	-76.135	0.290	0.102
-163.808	35.725	0.201	-0.175
-162.793	-31.719	-0.076	-0.043
-161.779	-170.602	0.369	-0.013
-160.764	-61.316	-0.426	-0.178
-159.750	-183.645	0.321	-0.005
-158.735	-69.271	0.285	-0.109
-157.720	-116.988	-0.106	0.019
-156.706	-200.000	0.077	0.364
-155.691	800.000	-0.120	0.480
-154.677	10.931	-0.047	0.036
-153.662	-154.728	-0.430	0.028
-152.647	-200.000	0.023	0.166
-151.633	26.730	-0.221	0.184
-150.618	5.872	0.279	-0.205
-149.604	20.801	0.114	0.092
-148.589	-62.762	-0.043	-0.018
-147.574	-2.898	-0.267	-0.185
-146.560	154.131	0.280	0.381
-145.545	143.919	-0.063	-0.083
-144.531	308.546	-0.079	-0.146
-143.516	-154.040	-0.270	-0.018
-142.502	-133.947	0.289	0.036
-141.487	-22.149	0.183	0.110
-140.472	-137.521	-0.348	0.039
-139.458	437.281	0.014	0.031
-138.443	-102.821	0.121	-0.028
-137.429	-29.039	-0.283	-0.161
-136.414	-61.451	0.436	-0.182
-135.399	-200.000	0.017	0.091
-134.385	-74.583	0.051	0.018
-133.370	800.000	0.101	-0.369
-132.356	195.098	-0.238	-0.358
-131.341	800.000	-0.078	-0.244
-130.326	-62.909	0.166	0.068
-129.312	-9.492	-0.185	0.122
-128.297	-5.306	0.069	-0.047
-127.283	73.733	-0.189	-0.197
-126.268	441.897	0.095	-0.206
-125.253	-200.000	-0.011	-0.076
-124.239	137.212	0.034	-0.044
-123.224	-112.936	-0.147	0.029
-122.210	-100.795	0.059	0.014
-121.195	112.318	-0.023	-0.028
