DTS Sentinel unit serial number:	SN413079Multiplexer serial number:	ORYXHardware model number:	OX4-SRSoftware version number:	ORYX F/W v4.00 Oryx Data Collector v3.7.2.0data status	okinstallation	princeton_trtdifferential loss correction	single-endedforward channel	channel 4reverse channel	N/Adate	2019/09/12time	00:35:11forward acquisition time	60.00reverse acquisition time	0.00gamma	496.2192k internal	0.2309k external	0.2309temperature offset calibration	1.0090default loss term (dB/km)	0.3790temperature slope calibration	1.0000multiplexer offset coefficient	1.0000multiplexer slope coefficient	1.0000fibre end	0.00T internal ref (°C)	33.37T ext. ref 1 (°C)	2.06T ext. ref 2 (°C)	28.09length (m)	temperature (°C)	Stokes	anti-Stokes-747.200	500.521	-0.035	0.081
-746.185	26.844	0.195	0.166
-745.171	216.477	-0.112	0.181
-744.156	-102.633	-0.397	0.096
-743.142	592.720	-0.094	-0.235
-742.127	-98.537	-0.208	0.054
-741.112	800.000	0.103	0.306
-740.098	673.208	-0.057	0.151
-739.083	-200.000	-0.067	0.299
-738.069	-200.000	-0.004	0.215
-737.054	-93.842	-0.313	0.087
-736.039	197.386	-0.218	0.337
-735.025	-36.856	0.105	-0.057
-734.010	-35.820	-0.047	-0.026
-732.996	247.971	-0.189	-0.324
-731.981	-78.924	0.414	-0.143
-730.966	54.997	-0.055	0.054
-729.952	54.445	0.284	-0.278
-728.937	467.475	0.030	0.069
-727.923	-200.000	-0.481	-0.001
-726.908	434.278	-0.128	0.282
-725.894	-200.000	0.025	0.196
-724.879	-34.895	-0.147	-0.081
-723.864	-141.605	-0.105	0.011
-722.850	21.757	0.042	-0.035
-721.835	-153.162	0.184	-0.013
-720.821	170.916	0.120	-0.175
-719.806	-69.968	0.305	-0.118
-718.791	506.970	-0.148	0.349
-717.777	53.680	-0.080	0.078
-716.762	-63.351	-0.260	0.109
-715.748	-200.000	-0.010	0.076
-714.733	-35.393	0.175	0.097
-713.718	-131.199	0.262	-0.035
-712.704	-121.621	-0.368	-0.062
-711.689	25.500	0.038	-0.032
-710.675	800.000	0.081	-0.292
-709.660	18.341	-0.099	0.080
-708.645	-200.000	0.058	-0.434
-707.631	-200.000	0.042	-0.452
-706.616	500.846	-0.126	-0.294
-705.602	148.703	-0.173	0.237
-704.587	-132.420	0.374	0.049
-703.572	101.561	0.105	-0.125
-702.558	-117.932	-0.146	-0.027
-701.543	59.571	-0.106	0.106
-700.529	-13.449	0.116	-0.076
-699.514	-35.983	0.221	0.121
-698.499	34.316	0.002	-0.002
-697.485	42.711	-0.126	-0.116
-696.470	-26.471	-0.272	-0.162
-695.456	117.419	0.114	-0.142
-694.441	-58.464	0.273	-0.120
-693.426	211.985	0.283	-0.452
-692.412	-42.684	-0.230	-0.119
-691.397	20.110	0.295	-0.242
-690.383	-10.384	0.050	0.034
-689.368	-83.014	0.147	-0.048
-688.354	25.957	-0.114	0.097
-687.339	-200.000	-0.006	0.311
-686.324	458.438	-0.098	-0.220
-685.310	-50.057	0.195	0.094
-684.295	112.669	-0.208	0.256
-683.281	-40.763	-0.188	-0.099
-682.266	-170.402	0.447	0.016
-681.251	97.607	-0.062	0.073
-680.237	78.352	-0.158	-0.171
-679.222	-33.411	-0.280	-0.157
-678.208	-92.163	0.237	0.068
-677.193	455.188	0.062	0.139
-676.178	156.450	-0.083	-0.116
-675.164	184.408	-0.079	0.119
-674.149	80.189	-0.056	0.061
-673.135	421.553	0.145	0.316
-672.120	-200.000	-0.038	0.172
-671.105	130.280	0.108	0.141
-670.091	111.766	0.197	0.241
-669.076	100.260	-0.041	0.048
-668.062	597.261	0.044	0.110
-667.047	-200.000	0.277	-0.001
-666.032	-10.863	-0.117	-0.078
-665.018	-200.000	0.066	0.302
-664.003	7.291	-0.114	0.086
-662.989	-200.000	-0.038	0.200
-661.974	-200.000	0.003	-0.324
-660.959	-200.000	0.009	-0.088
-659.945	-200.000	-0.010	0.100
-658.930	-86.965	0.171	0.053
-657.916	-163.414	0.274	0.013
-656.901	3.992	0.049	-0.036
-655.886	62.038	0.373	0.377
-654.872	-150.994	-0.261	0.020
-653.857	295.396	-0.143	0.265
-652.843	800.000	-0.091	0.326
-651.828	-101.783	-0.136	0.033
-650.814	-10.031	0.101	-0.068
-649.799	-134.120	0.193	0.024
-648.784	-116.623	0.199	0.037
-647.770	-127.314	-0.263	0.039
-646.755	-88.519	-0.011	-0.003
-645.741	-128.481	-0.285	0.041
-644.726	-200.000	0.023	-0.186
-643.711	-200.000	0.032	0.157
-642.697	106.859	0.228	-0.274
-641.682	42.261	0.077	-0.071
-640.668	190.184	0.199	-0.302
-639.653	-200.000	0.000	-0.127
-638.638	177.946	-0.167	-0.246
-637.624	457.918	0.169	-0.379
-636.609	-125.896	0.229	0.035
-635.595	-138.216	0.382	0.043
-634.580	28.826	0.179	0.153
-633.565	-80.678	0.028	-0.009
-632.551	800.000	0.038	-0.146
-631.536	399.216	0.013	0.028
-630.522	433.263	-0.088	0.193
-629.507	121.452	0.288	0.363
-628.492	800.000	0.076	0.275
-627.478	-200.000	0.027	0.233
-626.463	-200.000	-0.006	0.149
-625.449	499.524	-0.050	-0.117
-624.434	43.213	-0.007	0.007
-623.419	800.000	0.027	0.111
-622.405	-86.141	-0.070	-0.022
-621.390	-200.000	-0.005	-0.102
-620.376	-52.783	-0.132	0.061
-619.361	-83.342	0.352	0.114
-618.346	-200.000	-0.020	-0.277
-617.332	-164.882	-0.269	0.012
-616.317	-200.000	-0.012	0.264
-615.303	-78.691	0.235	-0.081
-614.288	-47.037	-0.177	-0.087
-613.273	263.512	-0.150	0.264
-612.259	-44.413	-0.121	0.061
-611.244	-136.348	-0.187	-0.022
-610.230	-1.084	0.125	0.090
-609.215	7.157	-0.175	0.132
-608.201	-36.213	-0.149	-0.081
-607.186	-19.896	-0.142	0.089
-606.171	668.361	0.082	-0.214
-605.157	45.520	0.018	-0.016
-604.142	-76.979	-0.230	-0.081
-603.128	-67.018	0.075	0.030
-602.113	11.279	0.206	-0.160
-601.098	-107.348	0.139	-0.031
-600.084	219.023	-0.078	-0.127
-599.069	800.000	0.059	0.224
-598.055	547.397	-0.120	-0.290
-597.040	182.982	0.129	-0.193
-596.025	-92.609	-0.209	-0.059
-595.011	800.000	0.088	-0.297
-593.996	34.515	-0.037	0.033
-592.982	34.621	-0.121	0.107
-591.967	323.336	0.096	0.186
-590.952	-10.219	0.269	0.180
-589.938	800.000	-0.032	0.097
-588.923	-136.984	0.101	0.012
-587.909	60.958	0.185	-0.185
-586.894	29.572	0.128	0.110
-585.879	-23.744	-0.324	0.196
-584.865	666.702	-0.103	-0.269
-583.850	47.961	0.071	0.067
-582.836	-124.716	-0.231	-0.036
-581.821	-127.568	-0.190	0.028
-580.806	-106.248	-0.292	0.066
-579.792	-200.000	0.026	0.190
-578.777	230.258	-0.138	-0.228
-577.763	-137.765	-0.151	-0.017
-576.748	401.836	-0.153	-0.324
-575.733	-66.485	0.122	0.049
-574.719	44.732	-0.141	0.131
-573.704	-200.000	0.051	0.390
-572.690	-200.000	0.013	-0.114
-571.675	-200.000	-0.039	-0.175
-570.661	-60.072	0.127	0.055
-569.646	-104.294	0.029	0.007
-568.631	-117.389	0.061	0.011
-567.617	-115.370	-0.059	-0.011
-566.602	-20.740	-0.266	-0.165
-565.588	-125.343	-0.203	0.031
-564.573	-54.688	-0.062	0.028
-563.558	10.578	-0.234	-0.180
-562.544	-200.000	0.016	-0.179
-561.529	-112.701	0.201	0.040
-560.515	-33.408	0.144	-0.081
-559.500	-200.000	-0.062	-0.508
-558.485	-172.068	-0.282	0.009
-557.471	-184.757	-0.079	0.001
-556.456	47.119	-0.180	-0.169
-555.442	800.000	-0.029	0.120
-554.427	80.521	-0.123	0.134
-553.412	-16.695	0.160	0.102
-552.398	800.000	-0.081	-0.337
-551.383	196.251	-0.061	-0.093
-550.369	54.051	-0.084	0.081
-549.354	-10.461	-0.086	-0.057
-548.339	-36.921	0.157	0.085
-547.325	-90.185	-0.250	0.073
-546.310	-21.653	0.175	0.107
-545.296	-6.941	-0.325	-0.223
-544.281	800.000	0.026	0.106
-543.266	-200.000	-0.024	0.135
-542.252	214.729	-0.157	0.251
-541.237	428.874	0.066	-0.145
-540.223	800.000	-0.018	0.060
-539.208	-23.812	0.078	0.047
-538.193	-49.192	-0.305	0.147
-537.179	720.140	-0.091	0.244
-536.164	-172.763	-0.175	0.006
-535.150	-11.441	-0.138	0.091
-534.135	-91.338	-0.139	0.040
-533.121	242.616	0.355	0.599
-532.106	-124.688	-0.147	-0.023
-531.091	-200.000	-0.066	-0.333
-530.077	663.928	0.191	0.497
-529.062	118.728	0.201	0.250
-528.048	160.179	0.036	0.051
-527.033	-200.000	-0.030	0.409
-526.018	-19.348	-0.123	-0.077
-525.004	187.785	-0.142	0.214
-523.989	-103.738	-0.154	-0.036
-522.975	36.318	-0.185	-0.165
-521.960	62.149	-0.082	-0.083
-520.945	-200.000	-0.042	-0.285
-519.931	-57.926	-0.122	0.054
-518.916	-184.633	0.133	0.002
-517.902	-98.154	0.057	-0.015
-516.887	-200.000	0.014	0.119
-515.872	-200.000	-0.025	-0.489
-514.858	33.067	-0.170	-0.148
-513.843	-11.863	0.156	0.103
-512.829	762.332	0.103	0.281
-511.814	800.000	0.075	0.261
-510.799	800.000	-0.082	-0.312
-509.785	-123.307	0.083	-0.013
-508.770	-19.752	0.166	-0.103
-507.756	487.343	-0.132	0.302
-506.741	231.122	-0.028	-0.047
-505.726	289.989	-0.183	-0.334
-504.712	-200.000	-0.000	-0.317
-503.697	157.183	0.109	-0.152
-502.683	159.840	0.125	-0.176
-501.668	363.701	0.122	-0.246
-500.653	250.272	-0.058	0.098
-499.639	-14.526	0.126	-0.081
-498.624	7.355	0.373	0.281
-497.610	-200.000	0.010	-0.126
-496.595	800.000	-0.008	0.032
-495.581	-161.143	-0.240	-0.013
-494.566	148.054	-0.084	-0.114
-493.551	481.585	0.115	-0.262
-492.537	53.990	-0.136	-0.131
-491.522	31.561	-0.146	-0.127
-490.508	-198.021	0.337	0.002
-489.493	1.286	-0.139	0.101
-488.478	-9.288	-0.104	-0.070
-487.464	80.367	-0.166	0.180
-486.449	800.000	-0.048	-0.144
-485.435	254.349	-0.241	0.416
-484.420	11.249	-0.299	0.230
-483.405	-200.000	0.019	0.315
-482.391	199.932	0.148	0.229
-481.376	92.289	0.071	-0.081
-480.362	5.046	-0.275	-0.204
-479.347	800.000	0.031	-0.130
-478.332	-94.531	-0.136	-0.037
-477.318	800.000	0.047	-0.147
-476.303	-112.766	-0.314	-0.063
-475.289	-42.573	0.057	0.029
-474.274	-145.811	-0.165	-0.015
-473.259	12.524	0.345	-0.267
-472.245	800.000	0.065	0.283
-471.230	-137.803	0.205	-0.023
-470.216	-200.000	-0.044	-0.371
-469.201	-159.861	-0.153	-0.008
-468.186	-103.563	0.096	-0.023
-467.172	335.924	-0.028	-0.055
-466.157	626.496	-0.031	0.080
-465.143	-200.000	-0.010	0.237
-464.128	219.886	0.044	-0.070
-463.113	95.735	0.075	0.086
-462.099	-28.840	0.286	-0.165
-461.084	506.697	0.072	-0.169
-460.070	116.359	-0.060	-0.074
-459.055	-97.794	0.302	0.078
-458.040	526.487	0.029	-0.070
-457.026	-115.434	-0.231	-0.044
-456.011	-200.000	0.041	-0.226
-454.997	-200.000	-0.020	-0.130
-453.982	-57.997	-0.015	-0.007
-452.968	-72.639	-0.450	-0.167
-451.953	36.240	-0.315	-0.279
-450.938	260.358	-0.206	0.358
-449.924	88.693	0.172	0.192
-448.909	588.451	0.111	-0.275
-447.895	-52.336	-0.197	-0.092
-446.880	-200.000	0.013	-0.296
-445.865	-88.304	0.194	-0.058
-444.851	-101.718	0.279	-0.068
-443.836	-50.086	0.182	0.087
-442.822	527.116	-0.028	-0.067
-441.807	-71.154	0.071	0.027
-440.792	202.281	0.028	0.044
-439.778	3.864	-0.187	0.137
-438.763	-52.887	0.100	0.046
-437.749	-100.470	-0.101	0.025
-436.734	-11.826	0.164	0.108
-435.719	-143.120	0.068	-0.007
-434.705	294.131	0.098	0.180
-433.690	-200.000	0.034	0.153
-432.676	207.872	-0.170	-0.266
-431.661	800.000	-0.062	0.195
-430.646	-160.935	-0.287	0.015
-429.632	800.000	-0.099	-0.275
-428.617	-166.140	-0.223	0.010
-427.603	198.177	0.071	0.108
-426.588	174.966	-0.062	0.090
-425.573	-200.000	-0.031	-0.275
-424.559	41.565	0.149	-0.136
-423.544	134.157	-0.089	0.116
-422.530	87.632	-0.132	-0.146
-421.515	-14.106	-0.160	-0.104
-420.500	224.234	-0.123	0.200
-419.486	41.037	0.071	0.065
-418.471	-114.362	0.243	0.047
-417.457	246.644	0.043	0.072
-416.442	-200.000	0.017	-0.401
-415.428	59.975	-0.097	-0.096
-414.413	-171.685	-0.654	-0.022
-413.398	258.409	0.192	0.332
-412.384	121.753	0.088	0.110
-411.369	-61.806	0.367	-0.154
-410.355	-200.000	0.061	-0.400
-409.340	-157.227	0.253	0.015
-408.325	-65.178	0.137	-0.055
-407.311	-200.000	0.019	0.175
-406.296	170.688	0.126	0.182
-405.282	416.244	0.213	-0.456
-404.267	-139.243	-0.187	0.020
-403.252	758.638	-0.031	0.085
-402.238	-118.375	0.231	0.041
-401.223	-172.605	0.111	0.003
-400.209	73.850	-0.176	-0.185
-399.194	-200.000	-0.018	0.135
-398.179	156.467	-0.141	0.196
-397.165	670.349	-0.028	0.072
-396.150	73.023	-0.086	-0.091
-395.136	32.957	-0.175	-0.152
-394.121	-200.000	-0.016	-0.315
-393.106	40.294	0.243	0.219
-392.092	-145.622	0.411	-0.037
-391.077	687.924	-0.067	-0.176
-390.063	-50.310	-0.217	0.103
-389.048	16.640	-0.179	0.142
-388.033	-200.000	0.024	0.351
-387.019	95.464	0.243	0.278
-386.004	-200.000	-0.002	-0.084
-384.990	115.534	-0.185	-0.226
-383.975	-167.016	0.188	-0.008
-382.960	800.000	0.086	-0.352
-381.946	-87.069	0.200	0.061
-380.931	-68.846	-0.423	0.164
-379.917	800.000	0.024	-0.073
-378.902	-57.590	0.173	-0.076
-377.888	-110.288	0.274	-0.057
-376.873	-200.000	0.034	0.328
-375.858	110.347	0.004	-0.005
-374.844	-25.322	-0.308	0.183
-373.829	90.252	0.125	-0.140
-372.815	-200.000	0.011	0.068
-371.800	-12.969	-0.061	-0.040
-370.785	34.317	0.152	-0.133
-369.771	99.546	0.035	0.040
-368.756	-200.000	0.036	0.216
-367.742	-200.000	-0.012	-0.257
-366.727	-33.827	0.214	-0.118
-365.712	-54.101	-0.064	-0.029
-364.698	-200.000	0.046	-0.352
-363.683	311.571	0.087	-0.163
-362.669	-67.408	-0.042	0.017
-361.654	800.000	0.072	0.282
-360.639	52.159	-0.177	-0.169
-359.625	23.651	-0.039	-0.032
-358.610	10.857	-0.222	0.170
-357.596	-177.826	0.198	0.005
-356.581	277.390	0.168	-0.298
-355.566	-83.208	-0.203	0.065
-354.552	51.490	0.194	0.184
-353.537	475.241	0.180	0.406
-352.523	237.328	-0.054	0.090
-351.508	207.989	0.106	-0.165
-350.493	233.720	0.208	0.342
-349.479	38.437	0.218	-0.194
-348.464	206.444	0.044	0.068
-347.450	-117.452	-0.164	-0.030
-346.435	218.566	-0.154	0.246
-345.420	800.000	-0.049	-0.197
-344.406	142.067	-0.138	0.184
-343.391	530.700	-0.099	-0.235
-342.377	800.000	0.074	-0.278
-341.362	10.112	-0.083	-0.063
-340.348	194.656	-0.060	-0.091
-339.333	540.816	-0.074	-0.177
-338.318	164.974	-0.134	-0.189
-337.304	-62.077	-0.234	0.098
-336.289	-124.017	-0.183	-0.029
-335.275	-137.362	0.196	0.022
-334.260	171.273	-0.106	0.152
-333.245	-140.158	0.312	0.033
-332.231	103.298	-0.278	-0.326
-331.216	-200.000	-0.019	-0.249
-330.202	-139.490	0.232	0.025
-329.187	118.010	0.222	0.273
-328.172	-95.559	-0.283	0.076
-327.158	800.000	-0.064	0.262
-326.143	43.494	0.104	0.095
-325.129	492.084	0.089	0.203
-324.114	95.816	-0.137	0.156
-323.099	32.235	0.296	-0.256
-322.085	-200.000	0.023	-0.117
-321.070	-134.791	-0.140	-0.017
-320.056	-200.000	0.019	0.264
-319.041	800.000	0.057	0.195
-318.026	-42.829	0.318	0.161
-317.012	24.246	0.256	0.212
-315.997	-28.143	-0.197	0.114
-314.983	800.000	0.041	0.160
-313.968	-200.000	-0.016	0.230
-312.953	294.763	-0.052	-0.095
-311.939	43.538	-0.219	-0.200
-310.924	134.890	-0.226	-0.293
-309.910	-46.349	0.343	-0.168
-308.895	62.991	0.044	-0.044
-307.880	211.728	0.157	-0.247
-306.866	758.523	0.118	-0.318
-305.851	-61.182	0.192	0.081
-304.837	31.088	-0.121	-0.104
-303.822	-200.000	0.015	-0.258
-302.807	-31.558	-0.024	-0.013
-301.793	250.208	0.037	-0.063
-300.778	800.000	-0.071	0.217
-299.764	86.788	-0.067	0.074
-298.749	111.984	0.198	0.239
-297.735	252.039	-0.120	-0.203
-296.720	336.290	-0.159	-0.309
-295.705	800.000	0.033	0.115
-294.691	-200.000	0.016	-0.124
-293.676	-115.487	-0.208	0.039
-292.662	52.674	-0.058	0.055
-291.647	322.766	-0.144	0.274
-290.632	766.741	0.084	0.227
-289.618	-166.763	0.519	-0.021
-288.603	443.255	-0.080	0.176
-287.589	-200.000	0.038	0.296
-286.574	-93.808	0.224	-0.062
-285.559	-74.981	0.503	-0.180
-284.545	-200.000	0.016	-0.130
-283.530	-24.678	0.144	0.085
-282.516	-42.127	-0.054	-0.028
-281.501	-33.574	0.508	-0.280
-280.486	-16.588	-0.410	0.259
-279.472	-102.208	-0.068	-0.016
-278.457	-82.771	0.102	-0.033
-277.443	-41.863	-0.217	0.111
-276.428	800.000	0.031	0.118
-275.413	-164.717	-0.081	0.004
-274.399	121.392	-0.173	0.215
-273.384	-47.906	-0.156	0.076
-272.370	77.568	0.278	0.295
-271.355	247.899	-0.056	0.094
-270.340	101.542	0.108	0.125
-269.326	-77.909	-0.096	-0.033
-268.311	520.026	0.064	-0.150
-267.297	741.816	-0.127	-0.341
-266.282	148.634	0.146	0.197
-265.267	-200.000	0.008	-0.061
-264.253	58.072	-0.111	-0.108
-263.238	654.087	0.030	0.076
-262.224	577.947	0.082	-0.200
-261.209	-28.884	-0.271	0.155
-260.195	-129.603	0.388	-0.053
-259.180	800.000	0.047	-0.160
-258.165	298.602	0.071	-0.131
-257.151	30.904	0.124	0.106
-256.136	-75.545	-0.163	0.058
-255.122	56.801	0.154	-0.150
-254.107	17.024	0.336	0.265
-253.092	250.552	-0.234	0.395
-252.078	-180.915	0.185	0.004
-251.063	800.000	-0.054	-0.221
-250.049	-200.000	0.017	0.265
-249.034	-200.000	-0.008	-0.200
-248.019	34.596	-0.084	-0.073
-247.005	-98.225	0.165	0.042
-245.990	6.184	-0.034	-0.025
-244.976	141.604	0.052	0.068
-243.961	-59.545	0.415	0.178
-242.946	-200.000	-0.022	-0.351
-241.932	84.033	-0.265	-0.288
-240.917	76.594	-0.061	0.065
-239.903	-200.000	0.303	0.000
-238.888	493.811	-0.123	-0.282
-237.873	-157.325	-0.192	0.012
-236.859	-93.960	0.245	0.067
-235.844	-71.924	0.411	0.152
-234.830	800.000	-0.060	0.234
-233.815	75.761	-0.231	0.243
-232.800	-45.293	-0.233	-0.115
-231.786	-200.000	-0.047	0.260
-230.771	178.915	-0.099	0.144
-229.757	188.894	-0.182	0.271
-228.742	-48.889	0.229	-0.109
-227.727	800.000	-0.030	-0.097
-226.713	-85.387	-0.205	0.064
-225.698	-0.498	0.122	0.086
-224.684	175.629	0.166	0.239
-223.669	-92.225	-0.192	-0.054
-222.655	800.000	-0.090	-0.361
-221.640	-151.699	0.049	0.004
-220.625	-55.675	0.175	0.078
-219.611	-41.812	-0.282	-0.144
-218.596	-143.494	-0.137	0.013
-217.582	-4.844	-0.292	-0.200
-216.567	480.476	0.042	0.095
-215.552	155.780	-0.117	0.161
-214.538	213.083	0.244	0.383
-213.523	-45.385	-0.331	-0.164
-212.509	-150.322	-0.180	-0.014
-211.494	105.115	0.205	-0.241
-210.479	314.582	-0.091	-0.171
-209.465	-171.369	0.396	-0.013
-208.450	800.000	0.111	0.414
-207.436	-80.573	-0.364	0.121
-206.421	81.877	-0.346	0.373
-205.406	-119.319	0.158	0.027
-204.392	69.048	0.123	-0.126
-203.377	108.639	0.205	-0.244
-202.363	-200.000	0.078	-0.360
-201.348	396.736	-0.153	0.318
-200.333	-200.000	-0.061	0.376
-199.319	13.170	-0.142	-0.110
-198.304	46.415	-0.172	0.158
-197.290	118.813	0.082	0.101
-196.275	388.456	0.073	-0.151
-195.260	-158.626	-0.430	-0.025
-194.246	-78.694	0.321	0.109
-193.231	-42.874	0.304	-0.153
-192.217	-43.946	0.304	-0.152
-191.202	-68.461	-0.140	-0.054
-190.187	-140.432	0.210	0.022
-189.173	130.766	0.116	0.148
-188.158	800.000	-0.020	0.070
-187.144	-200.000	-0.025	-0.195
-186.129	188.227	-0.064	-0.095
-185.114	39.162	0.193	0.171
-184.100	62.293	-0.052	0.052
-183.085	223.808	-0.080	-0.128
-182.071	141.685	0.207	-0.272
-181.056	-79.958	-0.209	0.070
-180.042	-30.620	-0.257	0.144
-179.027	800.000	-0.047	0.177
-178.012	-151.651	0.163	-0.012
-176.998	600.619	-0.021	-0.052
-175.983	230.589	-0.184	-0.299
-174.969	56.152	0.300	-0.289
-173.954	-81.752	0.256	0.083
-172.939	450.191	-0.079	-0.173
-171.925	-161.015	0.118	0.006
-170.910	727.821	0.149	0.395
-169.896	505.077	-0.046	0.107
-168.881	-27.677	-0.183	0.105
-167.866	136.776	0.206	-0.267
-166.852	341.158	-0.126	0.244
-165.837	-200.000	-0.035	0.208
-164.823	-200.000	0.047	-0.233
-163.808	626.433	-0.139	-0.348
-162.793	800.000	-0.053	0.159
-161.779	-200.000	0.041	0.272
-160.764	-200.000	0.054	-0.254
-159.750	-72.371	0.300	0.110
-158.735	731.182	0.087	0.230
-157.720	104.626	-0.249	0.291
-156.706	-120.475	-0.099	-0.017
-155.691	-146.877	0.185	-0.016
-154.677	-200.000	0.013	0.345
-153.662	239.594	-0.069	-0.114
-152.647	242.723	0.092	-0.153
-151.633	33.053	-0.142	0.122
-150.618	-168.050	0.344	-0.013
-149.604	-65.100	-0.081	-0.032
-148.589	36.598	0.152	0.133
-147.574	800.000	0.034	-0.122
-146.560	107.474	0.137	-0.162
-145.545	-142.880	-0.302	-0.029
-144.531	772.973	-0.091	-0.246
-143.516	-186.783	0.303	-0.004
-142.502	537.347	-0.102	-0.241
-141.487	176.282	0.110	-0.158
-140.472	-98.700	0.159	0.040
-139.458	-81.358	0.278	0.091
-138.443	-32.514	0.118	0.065
-137.429	-43.114	-0.177	0.089
-136.414	800.000	-0.130	0.361
-135.399	52.635	0.245	0.232
-134.385	-200.000	-0.015	0.078
-133.370	-200.000	0.020	0.243
-132.356	504.946	0.115	0.264
-131.341	114.466	0.224	0.271
-130.326	-200.000	0.000	0.312
-129.312	-200.000	0.013	-0.116
-128.297	284.936	0.144	0.257
-127.283	389.904	0.048	0.098
-126.268	-53.621	0.066	0.030
-125.253	-200.000	0.044	0.376
-124.239	800.000	0.007	0.028
-123.224	800.000	-0.046	0.129
-122.210	-81.541	-0.351	-0.114
-121.195	-25.570	-0.100	-0.059
-120.180	445.723	0.099	-0.215
