DTS Sentinel unit serial number:	SN413079Multiplexer serial number:	ORYXHardware model number:	OX4-SRSoftware version number:	ORYX F/W v4.00 Oryx Data Collector v3.7.2.0data status	okinstallation	princeton_trtdifferential loss correction	single-endedforward channel	channel 4reverse channel	N/Adate	2019/09/11time	12:03:10forward acquisition time	60.00reverse acquisition time	0.00gamma	496.2192k internal	0.2287k external	0.2287temperature offset calibration	0.9966default loss term (dB/km)	0.3790temperature slope calibration	1.0000multiplexer offset coefficient	1.0000multiplexer slope coefficient	1.0000fibre end	0.00T internal ref (°C)	39.37T ext. ref 1 (°C)	0.19T ext. ref 2 (°C)	37.26length (m)	temperature (°C)	Stokes	anti-Stokes-747.200	232.779	-0.140	-0.235
-746.185	92.142	-0.087	0.101
-745.171	-154.843	-0.136	-0.009
-744.156	93.887	0.249	0.289
-743.142	-62.369	0.057	-0.025
-742.127	93.117	-0.026	0.030
-741.112	167.585	-0.113	-0.164
-740.098	118.083	-0.133	0.168
-739.083	107.273	-0.165	0.201
-738.069	-6.621	0.341	0.238
-737.054	-127.647	0.325	0.048
-736.039	800.000	-0.066	0.269
-735.025	34.701	-0.195	0.174
-734.010	-200.000	-0.019	-0.411
-732.996	101.396	0.081	-0.097
-731.981	101.595	0.195	-0.233
-730.966	-200.000	-0.101	-0.483
-729.952	-171.818	0.044	-0.001
-728.937	-200.000	-0.023	-0.187
-727.923	123.580	0.126	0.162
-726.908	36.159	0.257	-0.232
-725.894	64.192	0.330	-0.340
-724.879	-200.000	0.001	-0.128
-723.864	-51.131	0.142	0.068
-722.850	800.000	-0.050	-0.223
-721.835	19.260	-0.020	0.016
-720.821	24.013	0.153	-0.130
-719.806	268.478	-0.066	-0.118
-718.791	-104.302	-0.334	-0.079
-717.777	-50.505	0.253	-0.122
-716.762	-63.176	0.456	0.193
-715.748	38.547	0.066	-0.060
-714.733	265.295	0.014	-0.025
-713.718	-200.000	-0.042	-0.446
-712.704	66.672	0.040	0.041
-711.689	67.751	0.197	-0.206
-710.675	346.507	-0.146	-0.294
-709.660	-1.551	-0.121	-0.087
-708.645	54.903	-0.174	0.172
-707.631	43.874	0.104	0.098
-706.616	213.246	-0.047	-0.076
-705.602	800.000	-0.035	-0.142
-704.587	1.637	-0.261	0.193
-703.572	-84.928	0.138	0.044
-702.558	800.000	-0.075	0.254
-701.543	-70.837	0.274	-0.106
-700.529	-119.463	-0.269	0.048
-699.514	-64.253	-0.025	0.010
-698.499	180.587	0.130	0.195
-697.485	59.040	-0.212	-0.213
-696.470	259.001	-0.149	-0.262
-695.456	0.031	-0.101	-0.073
-694.441	-26.835	-0.145	-0.087
-693.426	-69.395	-0.266	0.105
-692.412	-200.000	0.068	-0.365
-691.397	261.782	0.034	0.060
-690.383	800.000	-0.023	-0.066
-689.368	-11.132	0.065	-0.044
-688.354	800.000	-0.032	-0.106
-687.339	-24.359	-0.047	-0.028
-686.324	544.338	-0.035	-0.086
-685.310	350.534	-0.174	-0.352
-684.295	-123.677	-0.331	-0.054
-683.281	-107.957	-0.360	0.080
-682.266	158.961	-0.072	-0.102
-681.251	-149.392	-0.211	-0.017
-680.237	-200.000	-0.034	0.429
-679.222	-122.715	0.073	0.012
-678.208	74.206	0.217	-0.233
-677.193	-148.783	-0.191	-0.016
-676.178	205.886	-0.103	-0.164
-675.164	-63.922	0.208	-0.087
-674.149	-42.081	-0.281	0.147
-673.135	-25.740	-0.263	-0.159
-672.120	-80.002	-0.165	0.057
-671.105	-176.829	-0.080	-0.002
-670.091	-9.767	0.093	-0.064
-669.076	-129.573	0.030	0.004
-668.062	140.395	0.289	0.390
-667.047	743.421	0.007	0.020
-666.032	800.000	0.055	-0.165
-665.018	800.000	0.051	-0.160
-664.003	-101.932	-0.090	-0.022
-662.989	-51.489	-0.141	-0.067
-661.974	-9.849	-0.092	-0.063
-660.959	-200.000	0.012	-0.090
-659.945	-37.104	-0.264	0.144
-658.930	-37.464	0.157	-0.086
-657.916	-152.400	-0.267	-0.020
-656.901	-84.273	-0.110	0.036
-655.886	22.316	-0.319	0.267
-654.872	-17.657	-0.267	0.171
-653.857	-200.000	0.050	-0.428
-652.843	237.070	-0.089	-0.151
-651.828	290.639	0.113	-0.209
-650.814	-147.806	0.260	-0.022
-649.799	-65.601	-0.366	0.150
-648.784	-62.283	-0.177	0.075
-647.770	-85.753	0.119	0.038
-646.755	164.919	0.135	-0.194
-645.741	-200.000	0.005	-0.025
-644.726	189.779	0.051	0.079
-643.711	60.664	-0.245	-0.248
-642.697	102.738	0.116	0.138
-641.682	-132.988	0.361	-0.047
-640.668	-18.719	-0.204	0.130
-639.653	-67.896	0.060	-0.024
-638.638	-44.981	-0.220	0.112
-637.624	-200.000	0.008	-0.380
-636.609	34.559	-0.253	-0.225
-635.595	76.862	-0.100	0.109
-634.580	335.559	0.175	-0.347
-633.565	-200.000	0.013	-0.559
-632.551	110.173	0.257	-0.315
-631.536	-200.000	-0.001	-0.444
-630.522	707.833	-0.057	-0.155
-629.507	172.433	-0.164	-0.242
-628.492	-200.000	0.018	0.381
-627.478	-200.000	0.017	0.169
-626.463	-111.167	0.042	0.009
-625.449	-12.969	-0.260	0.173
-624.434	800.000	-0.066	-0.273
-623.419	-43.663	-0.286	0.147
-622.405	82.799	0.203	-0.226
-621.390	800.000	-0.038	-0.134
-620.376	30.798	-0.128	-0.112
-619.361	580.673	-0.026	-0.065
-618.346	-147.140	0.184	-0.016
-617.332	-31.036	0.230	-0.133
-616.317	-15.908	-0.128	0.083
-615.303	800.000	0.045	-0.195
-614.288	197.938	0.040	-0.063
-613.273	-40.554	0.121	-0.064
-612.259	-200.000	-0.005	0.317
-611.244	-84.822	-0.136	0.044
-610.230	-65.009	-0.009	-0.004
-609.215	38.737	-0.101	0.092
-608.201	-36.830	0.358	0.196
-607.186	-32.653	0.223	-0.127
-606.171	-147.737	-0.170	-0.015
-605.157	-200.000	0.016	-0.166
-604.142	-200.000	-0.046	0.229
-603.128	340.527	-0.112	0.223
-602.113	-200.000	0.009	-0.130
-601.098	73.614	0.390	0.417
-600.084	-110.463	-0.366	0.078
-599.069	800.000	0.047	0.175
-598.055	237.259	-0.024	0.040
-597.040	-41.865	0.254	-0.133
-596.025	-74.564	-0.240	0.088
-595.011	323.813	-0.091	-0.176
-593.996	-29.265	-0.202	0.118
-592.982	-182.362	-0.044	0.001
-591.967	-200.000	0.002	-0.088
-590.952	-95.067	-0.301	0.083
-589.938	800.000	0.047	0.206
-588.923	21.265	0.126	-0.104
-587.909	-2.988	0.160	0.114
-586.894	-39.346	0.033	-0.017
-585.879	800.000	-0.045	0.160
-584.865	-47.979	0.371	-0.183
-583.850	419.696	-0.171	-0.374
-582.836	-200.000	0.024	-0.167
-581.821	-26.721	-0.184	0.110
-580.806	55.612	-0.081	0.080
-579.792	62.716	-0.150	-0.153
-578.777	-117.307	0.339	0.063
-577.763	-39.700	-0.061	-0.033
-576.748	208.456	0.109	0.173
-575.733	136.109	-0.115	0.152
-574.719	-62.490	0.138	0.059
-573.704	-200.000	0.040	0.180
-572.690	-200.000	-0.020	0.098
-571.675	335.934	0.146	-0.289
-570.661	82.942	0.136	-0.151
-569.646	-125.937	-0.300	-0.046
-568.631	-146.343	-0.054	-0.005
-567.617	-178.066	0.037	0.001
-566.602	-49.779	-0.483	-0.234
-565.588	-80.391	-0.143	0.048
-564.573	107.973	0.139	0.168
-563.558	800.000	0.016	-0.057
-562.544	-32.974	-0.294	-0.166
-561.529	-200.000	0.040	-0.311
-560.515	-65.518	0.155	0.063
-559.500	33.168	-0.207	-0.183
-558.485	-200.000	-0.003	-0.087
-557.471	-72.494	0.362	0.136
-556.456	149.413	-0.183	-0.252
-555.442	-110.793	0.135	-0.028
-554.427	-200.000	-0.055	0.467
-553.412	-180.391	0.147	-0.003
-552.398	67.781	0.164	-0.171
-551.383	800.000	-0.019	0.079
-550.369	-19.693	-0.321	-0.202
-549.354	-107.050	0.333	-0.075
-548.339	-67.024	0.249	-0.100
-547.325	84.405	-0.150	-0.167
-546.310	145.479	-0.090	0.123
-545.296	-174.722	0.324	-0.009
-544.281	-5.179	-0.065	-0.045
-543.266	800.000	0.040	-0.145
-542.252	48.526	0.217	-0.207
-541.237	390.195	0.102	0.216
-540.223	42.403	0.079	0.073
-539.208	83.461	-0.193	0.214
-538.193	85.110	0.066	0.073
-537.179	-2.370	0.203	0.145
-536.164	-200.000	0.019	0.227
-535.150	510.086	-0.125	0.296
-534.135	176.632	0.233	0.344
-533.121	800.000	-0.054	-0.168
-532.106	370.504	-0.073	0.150
-531.091	800.000	0.050	-0.209
-530.077	-200.000	-0.037	0.000
-529.062	-38.869	-0.238	0.127
-528.048	13.879	0.179	0.142
-527.033	229.730	0.057	0.095
-526.018	-15.618	-0.165	-0.107
-525.004	-101.779	-0.256	-0.063
-523.989	-200.000	0.021	0.325
-522.975	-47.271	0.037	0.018
-521.960	603.408	-0.079	-0.199
-520.945	-104.840	0.200	-0.047
-519.931	-200.000	-0.034	-0.243
-518.916	-186.004	0.416	0.006
-517.902	-120.696	-0.228	0.039
-516.887	800.000	-0.008	0.025
-515.872	-200.000	-0.007	0.184
-514.858	378.455	-0.044	-0.092
-513.843	319.938	0.148	-0.285
-512.829	757.146	-0.089	-0.246
-511.814	-82.708	-0.380	-0.125
-510.799	10.737	0.233	0.181
-509.785	60.150	-0.202	-0.203
-508.770	-200.000	-0.051	-0.278
-507.756	228.339	-0.068	-0.112
-506.741	-164.461	0.128	0.006
-505.726	-17.167	-0.138	-0.089
-504.712	366.353	-0.102	-0.208
-503.697	-73.248	0.166	0.062
-502.683	125.809	-0.139	-0.179
-501.668	-112.532	0.109	0.022
-500.653	-200.000	-0.037	0.179
-499.639	800.000	0.080	-0.285
-498.624	-64.988	-0.464	0.190
-497.610	11.719	-0.134	-0.104
-496.595	47.413	0.121	-0.115
-495.581	-200.000	0.010	-0.075
-494.566	132.816	-0.173	-0.227
-493.551	-200.000	0.088	0.000
-492.537	800.000	-0.032	-0.114
-491.522	2.462	0.065	-0.048
-490.508	-11.592	-0.006	0.004
-489.493	24.521	0.109	-0.091
-488.478	-200.000	-0.028	0.140
-487.464	283.635	-0.048	0.088
-486.449	-27.365	-0.029	-0.017
-485.435	-200.000	-0.004	-0.148
-484.420	388.092	-0.112	0.235
-483.405	9.590	-0.178	-0.137
-482.391	148.898	-0.106	-0.145
-481.376	-86.938	-0.108	-0.033
-480.362	-145.357	0.277	-0.025
-479.347	-70.736	0.259	-0.099
-478.332	414.799	0.140	0.302
-477.318	-59.175	-0.042	0.018
-476.303	-99.013	-0.410	0.106
-475.289	-119.053	-0.457	-0.081
-474.274	385.492	0.033	0.070
-473.259	-103.038	-0.090	0.022
-472.245	-97.193	-0.346	-0.092
-471.230	379.922	-0.048	-0.100
-470.216	72.741	-0.011	-0.012
-469.201	254.690	0.314	-0.545
-468.186	-90.182	-0.159	-0.047
-467.172	-85.422	-0.274	0.087
-466.157	800.000	0.016	-0.068
-465.143	325.763	0.173	-0.336
-464.128	800.000	0.092	0.387
-463.113	800.000	-0.046	0.131
-462.099	-149.099	-0.226	-0.018
-461.084	597.316	0.068	0.171
-460.070	143.655	0.090	-0.121
-459.055	516.366	-0.069	0.164
-458.040	-200.000	-0.001	-0.070
-457.026	-35.412	0.204	-0.113
-456.011	186.360	0.195	0.294
-454.997	-67.358	-0.239	0.095
-453.982	-200.000	-0.010	-0.048
-452.968	-160.245	0.118	0.006
-451.953	-200.000	-0.022	0.158
-450.938	410.405	-0.158	0.339
-449.924	-58.602	0.047	0.021
-448.909	-37.678	-0.260	0.140
-447.895	-200.000	0.023	0.136
-446.880	-168.296	-0.188	0.007
-445.865	191.297	-0.269	-0.411
-444.851	-82.217	0.103	-0.034
-443.836	119.926	0.151	-0.190
-442.822	3.926	0.182	0.135
-441.807	-83.214	0.198	0.065
-440.792	-94.523	0.399	0.110
-439.778	85.796	-0.244	0.272
-438.763	67.945	0.166	0.172
-437.749	625.019	-0.061	-0.157
-436.734	-74.990	-0.172	-0.062
-435.719	-25.764	-0.069	-0.041
-434.705	57.377	-0.184	0.182
-433.690	-200.000	-0.123	-0.562
-432.676	334.976	-0.113	-0.223
-431.661	-38.045	-0.091	0.049
-430.646	379.115	0.122	-0.254
-429.632	800.000	0.112	-0.356
-428.617	539.066	0.039	0.094
-427.603	-63.687	0.153	0.063
-426.588	-132.529	0.374	0.049
-425.573	90.447	0.086	0.097
-424.559	-200.000	0.006	-0.036
-423.544	-90.081	-0.227	0.067
-422.530	-200.000	0.009	0.285
-421.515	-200.000	-0.020	-0.186
-420.500	-197.525	0.299	0.002
-419.486	62.167	-0.150	0.152
-418.471	337.043	-0.027	-0.054
-417.457	800.000	0.086	0.293
-416.442	260.793	0.095	-0.166
-415.428	-172.660	0.214	-0.007
-414.413	-200.000	0.010	-0.182
-413.398	244.106	-0.181	-0.308
-412.384	-97.370	0.163	-0.043
-411.369	321.866	0.030	0.058
-410.355	-135.701	0.200	0.024
-409.340	259.047	0.061	-0.107
-408.325	104.352	-0.125	0.148
-407.311	20.261	-0.182	-0.149
-406.296	-133.883	0.146	0.018
-405.282	-78.610	0.329	0.114
-404.267	-200.000	0.016	0.093
-403.252	107.262	0.119	0.143
-402.238	800.000	-0.124	0.363
-401.223	-42.680	0.368	-0.190
-400.209	-75.287	0.415	-0.150
-399.194	40.888	-0.066	0.060
-398.179	-8.783	0.137	-0.093
-397.165	-63.952	-0.033	0.014
-396.150	311.912	-0.228	-0.433
-395.136	-170.900	-0.420	-0.015
-394.121	-200.000	0.067	0.313
-393.106	-84.527	0.111	-0.036
-392.092	159.415	-0.154	0.217
-391.077	800.000	0.071	-0.231
-390.063	185.135	0.080	0.120
-389.048	-101.464	0.186	-0.046
-388.033	-115.213	0.229	-0.044
-387.019	800.000	0.067	-0.201
-386.004	-200.000	0.026	-0.234
-384.990	26.109	-0.072	0.061
-383.975	800.000	-0.084	0.324
-382.960	-200.000	0.009	-0.313
-381.946	800.000	0.060	0.224
-380.931	12.955	-0.166	0.130
-379.917	-92.610	-0.277	0.079
-378.902	604.011	-0.092	0.231
-377.888	-13.163	-0.134	-0.088
-376.873	-200.000	-0.053	-0.241
-375.858	800.000	0.067	0.226
-374.844	450.377	0.080	-0.179
-373.829	-54.661	0.191	-0.088
-372.815	-119.578	0.104	-0.018
-371.800	85.642	0.091	-0.101
-370.785	51.899	-0.270	-0.260
-369.771	47.451	-0.226	0.213
-368.756	800.000	-0.117	0.432
-367.742	-200.000	-0.039	0.348
-366.727	369.546	-0.083	-0.170
-365.712	-200.000	-0.059	0.438
-364.698	800.000	0.106	-0.423
-363.683	-85.405	0.174	-0.055
-362.669	-200.000	0.031	-0.258
-361.654	-154.033	-0.219	0.015
-360.639	800.000	-0.049	-0.159
-359.625	207.245	0.048	-0.076
-358.610	-200.000	0.018	0.118
-357.596	55.517	-0.115	0.113
-356.581	719.433	0.038	0.103
-355.566	-118.615	0.209	-0.037
-354.552	-200.000	0.023	0.149
-353.537	-200.000	-0.002	-0.061
-352.523	-101.920	0.191	-0.047
-351.508	-99.789	-0.129	0.033
-350.493	82.312	0.143	0.157
-349.479	51.400	0.241	-0.231
-348.464	-125.357	0.106	-0.016
-347.450	42.080	-0.185	0.170
-346.435	-58.659	-0.046	0.020
-345.420	32.557	0.117	0.103
-344.406	-47.251	0.490	0.241
-343.391	-200.000	-0.012	-0.253
-342.377	1.898	-0.114	-0.083
-341.362	-1.327	0.068	-0.048
-340.348	-87.125	-0.292	-0.090
-339.333	9.530	-0.161	-0.123
-338.318	-114.280	0.288	-0.056
-337.304	126.743	0.222	0.284
-336.289	-182.648	0.112	-0.002
-335.275	-186.678	0.035	-0.000
-334.260	69.013	0.245	0.254
-333.245	-56.824	0.273	0.122
-332.231	640.776	-0.049	-0.126
-331.216	-200.000	-0.008	-0.124
-330.202	-80.493	0.098	-0.033
-329.187	37.763	-0.129	-0.116
-328.172	152.329	0.167	0.230
-327.158	-30.819	-0.347	-0.198
-326.143	120.440	-0.040	0.050
-325.129	-7.370	-0.032	-0.022
-324.114	-200.000	-0.047	-0.264
-323.099	133.262	-0.158	0.205
-322.085	-200.000	0.005	0.170
-321.070	-200.000	-0.003	0.347
-320.056	-29.629	0.242	-0.139
-319.041	-46.427	-0.166	0.082
-318.026	132.592	-0.130	0.169
-317.012	37.067	0.251	0.224
-315.997	-200.000	-0.038	0.223
-314.983	-40.792	0.296	0.154
-313.968	-200.000	-0.001	-0.025
-312.953	800.000	-0.079	-0.259
-311.939	800.000	0.048	0.210
-310.924	47.505	0.171	-0.161
-309.910	475.508	0.138	-0.315
-308.895	-200.000	0.014	-0.250
-307.880	-44.414	0.424	-0.214
-306.866	-169.577	0.435	0.016
-305.851	-28.649	-0.452	-0.263
-304.837	-144.480	-0.063	0.006
-303.822	-64.837	0.164	0.067
-302.807	-200.000	0.005	-0.597
-301.793	-125.666	0.075	0.011
-300.778	-82.778	-0.191	-0.062
-299.764	64.563	0.087	0.089
-298.749	-152.624	0.098	0.007
-297.735	-200.000	-0.071	0.326
-296.720	-48.622	-0.157	-0.076
-295.705	-172.094	0.278	-0.009
-294.691	310.358	-0.086	0.162
-293.676	576.479	0.131	0.323
-292.662	718.844	-0.088	0.237
-291.647	-200.000	-0.059	0.327
-290.632	-33.202	-0.053	0.030
-289.618	-200.000	-0.001	-0.163
-288.603	18.201	-0.204	0.164
-287.589	16.220	-0.242	-0.192
-286.574	411.927	0.051	0.109
-285.559	-200.000	0.036	0.436
-284.545	-0.165	-0.157	-0.113
-283.530	-200.000	-0.028	-0.265
-282.516	-26.051	0.138	0.082
-281.501	128.390	0.119	0.152
-280.486	-200.000	0.021	0.395
-279.472	99.402	0.150	0.174
-278.457	627.960	-0.036	-0.091
-277.443	-67.603	-0.303	0.120
-276.428	-11.806	-0.174	0.115
-275.413	190.486	-0.070	0.106
-274.399	-116.452	-0.255	-0.047
-273.384	-157.104	-0.271	-0.017
-272.370	-5.617	0.080	-0.055
-271.355	-2.971	0.131	0.092
-270.340	800.000	0.085	0.351
-269.326	-95.720	-0.303	0.082
-268.311	-71.749	-0.111	-0.042
-267.297	-125.661	0.518	-0.079
-266.282	728.774	-0.080	-0.214
-265.267	-90.886	0.417	0.121
-264.253	-200.000	0.002	-0.236
-263.238	-20.039	-0.316	0.196
-262.224	800.000	-0.038	0.142
-261.209	-5.898	0.091	-0.063
-260.195	108.183	-0.107	0.129
-259.180	61.533	0.177	-0.177
-258.165	99.837	-0.198	-0.231
-257.151	85.326	0.175	0.193
-256.136	83.695	0.234	-0.256
-255.122	-200.000	-0.017	0.394
-254.107	-34.927	-0.200	0.110
-253.092	-141.555	-0.114	-0.012
-252.078	372.912	0.069	0.140
-251.063	-7.077	0.174	0.119
-250.049	531.533	-0.052	-0.124
-249.034	800.000	0.080	0.225
-248.019	29.497	-0.230	-0.197
-247.005	800.000	0.014	0.056
-245.990	-21.050	-0.043	-0.026
-244.976	191.490	0.002	-0.004
-243.961	61.804	0.079	-0.079
-242.946	-35.058	-0.053	-0.029
-241.932	800.000	0.040	0.120
-240.917	-200.000	0.027	-0.227
-239.903	112.142	0.062	-0.075
-238.888	197.657	-0.207	-0.318
-237.873	52.143	-0.121	0.116
-236.859	-200.000	-0.032	-0.194
-235.844	-200.000	0.036	-0.198
-234.830	-51.878	-0.372	0.174
-233.815	-42.262	0.261	0.134
-232.800	800.000	0.064	-0.232
-231.786	164.164	-0.277	-0.392
-230.771	800.000	-0.096	-0.411
-229.757	197.886	-0.071	-0.109
-228.742	800.000	-0.045	0.133
-227.727	-135.234	0.055	0.007
-226.713	53.284	-0.349	-0.336
-225.698	-33.874	0.178	0.099
-224.684	-200.000	0.184	-0.000
-223.669	-60.266	0.194	0.083
-222.655	-200.000	-0.004	-0.105
-221.640	-113.582	-0.128	0.025
-220.625	-200.000	-0.030	0.133
-219.611	459.273	0.064	0.143
-218.596	-13.680	-0.192	-0.125
-217.582	-200.000	0.015	0.188
-216.567	800.000	-0.023	0.076
-215.552	-51.092	0.062	0.029
-214.538	65.479	0.189	0.192
-213.523	108.936	-0.080	0.096
-212.509	-200.000	-0.050	-0.336
-211.494	231.575	0.202	-0.332
-210.479	-58.121	0.378	0.165
-209.465	-125.574	-0.298	-0.045
-208.450	-200.000	-0.019	-0.215
-207.436	148.375	0.202	0.274
-206.421	-200.000	0.014	0.330
-205.406	351.968	-0.071	-0.142
-204.392	25.296	-0.333	0.278
-203.377	698.210	-0.146	0.385
-202.363	113.687	0.219	0.268
-201.348	41.600	-0.262	0.238
-200.333	-24.419	0.185	-0.111
-199.319	-200.000	0.189	0.000
-198.304	82.025	0.114	0.124
-197.290	-200.000	-0.014	-0.219
-196.275	725.068	0.045	0.119
-195.260	-100.308	-0.059	-0.015
-194.246	-121.694	-0.148	0.025
-193.231	159.644	0.139	0.194
-192.217	-116.850	-0.227	0.042
-191.202	482.970	0.103	0.235
-190.187	-29.765	-0.228	0.131
-189.173	-70.810	0.270	-0.102
-188.158	-45.853	0.278	-0.138
-187.144	800.000	0.022	0.085
-186.129	284.404	-0.083	0.150
-185.114	-16.132	-0.131	-0.083
-184.100	800.000	-0.048	-0.151
-183.085	-119.724	-0.164	0.028
-182.071	-138.097	0.272	-0.030
-181.056	-1.833	-0.236	-0.166
-180.042	-200.000	-0.005	0.034
-179.027	800.000	-0.090	0.324
-178.012	800.000	-0.042	0.170
-176.998	161.069	0.087	0.122
-175.983	-76.421	-0.123	0.043
-174.969	17.402	0.100	0.080
-173.954	-94.803	0.219	-0.060
-172.939	125.983	-0.104	-0.132
-171.925	-193.565	-0.207	0.002
-170.910	-200.000	0.045	0.234
-169.896	63.303	-0.038	-0.038
-168.881	390.977	-0.046	0.096
-167.866	638.889	0.122	0.311
-166.852	-118.848	0.381	0.067
-165.837	-34.440	0.063	-0.035
-164.823	-200.000	0.013	0.277
-163.808	106.364	0.117	0.139
-162.793	148.383	-0.102	0.138
-161.779	-200.000	-0.019	-0.188
-160.764	-108.015	-0.292	-0.064
-159.750	45.130	0.077	0.071
-158.735	274.191	0.142	-0.252
-157.720	552.311	-0.048	0.115
-156.706	-200.000	0.087	-0.401
-155.691	-138.943	-0.162	-0.018
-154.677	-12.130	-0.143	0.094
-153.662	-17.270	-0.236	-0.149
-152.647	608.042	0.051	0.129
-151.633	179.819	0.055	-0.081
-150.618	799.795	-0.057	0.158
-149.604	-200.000	0.048	0.247
-148.589	178.167	-0.139	0.203
-147.574	-200.000	0.013	-0.182
-146.560	-200.000	-0.001	0.070
-145.545	48.631	-0.184	-0.173
-144.531	691.697	0.051	-0.134
-143.516	-55.099	0.112	0.051
-142.502	201.075	-0.115	-0.177
-141.487	800.000	0.181	-0.573
-140.472	-10.312	-0.260	-0.173
-139.458	274.270	0.138	0.244
-138.443	-200.000	-0.005	0.159
-137.429	-132.922	0.420	0.054
-136.414	-63.911	-0.215	0.088
-135.399	175.978	0.113	-0.165
-134.385	701.397	0.106	0.281
-133.370	-113.560	0.130	0.026
-132.356	-181.800	0.142	-0.003
-131.341	-82.100	0.209	-0.068
-130.326	800.000	0.086	0.269
-129.312	800.000	-0.027	-0.095
-128.297	-57.394	-0.141	-0.062
-127.283	-200.000	-0.036	0.281
-126.268	-52.719	0.049	0.022
-125.253	110.083	-0.100	0.120
-124.239	197.581	-0.095	-0.145
-123.224	-82.560	0.231	-0.075
-122.210	-88.727	-0.276	0.082
