DTS Sentinel unit serial number:	SN413079Multiplexer serial number:	ORYXHardware model number:	OX4-SRSoftware version number:	ORYX F/W v4.00 Oryx Data Collector v3.7.2.0data status	okinstallation	princeton_trtdifferential loss correction	single-endedforward channel	channel 4reverse channel	N/Adate	2019/09/12time	03:19:11forward acquisition time	60.00reverse acquisition time	0.00gamma	496.2192k internal	0.2309k external	0.2309temperature offset calibration	1.0094default loss term (dB/km)	0.3790temperature slope calibration	1.0000multiplexer offset coefficient	1.0000multiplexer slope coefficient	1.0000fibre end	0.00T internal ref (°C)	32.25T ext. ref 1 (°C)	2.13T ext. ref 2 (°C)	26.61length (m)	temperature (°C)	Stokes	anti-Stokes-747.200	-168.310	0.213	0.008
-746.185	-200.000	0.035	0.307
-745.171	-128.869	0.310	-0.044
-744.156	552.658	-0.140	-0.341
-743.142	120.663	-0.117	0.147
-742.127	247.003	-0.112	0.191
-741.112	-50.323	0.196	0.094
-740.098	287.805	-0.061	-0.112
-739.083	-44.978	-0.123	0.062
-738.069	259.483	-0.103	0.181
-737.054	-200.000	-0.039	0.313
-736.039	-200.000	0.030	0.209
-735.025	268.521	0.061	-0.109
-734.010	9.756	-0.076	0.059
-732.996	11.827	-0.437	-0.341
-731.981	800.000	0.033	0.092
-730.966	-146.094	0.270	-0.024
-729.952	-175.557	-0.202	-0.006
-728.937	-80.516	-0.103	-0.035
-727.923	-29.712	0.161	-0.093
-726.908	-139.909	0.177	0.019
-725.894	19.209	-0.071	-0.058
-724.879	-194.597	-0.077	0.001
-723.864	-200.000	0.041	0.201
-722.850	44.281	-0.049	0.046
-721.835	-32.319	0.314	-0.178
-720.821	-154.862	0.240	0.016
-719.806	-28.643	-0.228	-0.133
-718.791	-96.269	-0.117	0.032
-717.777	-55.903	0.330	-0.150
-716.762	-200.000	-0.000	0.165
-715.748	34.701	-0.312	-0.276
-714.733	36.969	0.225	0.201
-713.718	12.771	-0.286	-0.224
-712.704	-139.004	-0.245	0.027
-711.689	-200.000	-0.004	0.160
-710.675	52.656	0.120	0.117
-709.660	-83.350	0.219	0.071
-708.645	800.000	0.064	0.237
-707.631	-200.000	0.034	-0.256
-706.616	126.537	-0.269	0.346
-705.602	800.000	-0.035	-0.154
-704.587	75.012	-0.179	-0.192
-703.572	-200.000	0.024	0.136
-702.558	-200.000	0.021	0.370
-701.543	-119.962	0.054	0.009
-700.529	-163.002	-0.087	-0.004
-699.514	-146.610	-0.142	0.013
-698.499	-26.727	0.178	-0.106
-697.485	-36.695	0.109	-0.059
-696.470	-23.535	-0.126	-0.077
-695.456	-179.348	-0.023	-0.001
-694.441	3.817	0.231	-0.171
-693.426	-174.607	0.270	-0.008
-692.412	479.099	-0.148	0.341
-691.397	-200.000	-0.006	0.177
-690.383	-200.000	0.074	-0.404
-689.368	151.715	-0.020	0.027
-688.354	-174.841	0.145	-0.004
-687.339	800.000	-0.055	-0.161
-686.324	800.000	0.081	-0.314
-685.310	331.436	-0.051	0.099
-684.295	44.813	0.194	-0.181
-683.281	-168.413	-0.162	-0.006
-682.266	183.531	-0.126	0.189
-681.251	122.075	0.049	-0.062
-680.237	-145.034	-0.394	0.036
-679.222	1.243	0.398	0.289
-678.208	-200.000	-0.001	-0.091
-677.193	-200.000	-0.102	-0.494
-676.178	-65.106	0.034	-0.014
-675.164	-106.413	0.294	-0.067
-674.149	16.330	-0.207	-0.166
-673.135	-200.000	0.016	-0.281
-672.120	800.000	0.034	0.107
-671.105	-200.000	-0.017	0.378
-670.091	566.786	0.120	0.294
-669.076	-1.500	-0.149	-0.107
-668.062	14.532	-0.070	0.055
-667.047	-200.000	0.044	-0.254
-666.032	-102.747	-0.086	0.021
-665.018	-80.208	0.194	-0.066
-664.003	-22.602	-0.221	-0.135
-662.989	-200.000	0.018	0.112
-661.974	299.625	-0.148	-0.276
-660.959	362.307	0.068	0.137
-659.945	42.014	-0.131	0.121
-658.930	-26.856	0.232	-0.137
-657.916	-53.607	-0.117	0.054
-656.901	800.000	0.063	-0.254
-655.886	30.157	0.292	0.252
-654.872	94.935	0.127	-0.146
-653.857	26.442	-0.148	-0.125
-652.843	55.076	0.108	0.105
-651.828	-190.891	0.151	-0.002
-650.814	199.548	0.160	-0.248
-649.799	-16.762	-0.182	-0.117
-648.784	8.227	0.205	0.156
-647.770	800.000	0.077	-0.317
-646.755	-115.186	0.227	-0.044
-645.741	-200.000	0.021	0.103
-644.726	-150.713	0.516	0.040
-643.711	-126.219	0.228	-0.035
-642.697	800.000	0.040	-0.117
-641.682	26.389	-0.182	0.154
-640.668	-74.440	-0.149	0.054
-639.653	-124.379	0.260	0.041
-638.638	-200.000	-0.051	0.232
-637.624	38.255	-0.148	0.133
-636.609	-105.265	-0.201	-0.046
-635.595	-102.962	-0.333	0.080
-634.580	15.431	-0.327	0.259
-633.565	-101.857	-0.359	0.088
-632.551	800.000	0.050	-0.156
-631.536	-148.824	-0.236	0.019
-630.522	344.082	0.083	-0.165
-629.507	60.019	-0.147	0.146
-628.492	211.812	-0.101	0.161
-627.478	40.766	-0.202	-0.185
-626.463	150.292	0.104	-0.143
-625.449	64.301	-0.269	-0.274
-624.434	-200.000	0.011	0.193
-623.419	-200.000	0.023	0.130
-622.405	800.000	0.082	-0.258
-621.390	142.937	-0.082	0.110
-620.376	-200.000	0.000	0.079
-619.361	244.121	0.115	0.196
-618.346	-140.202	-0.323	-0.034
-617.332	275.755	-0.161	0.288
-616.317	800.000	-0.100	0.337
-615.303	-38.955	-0.244	-0.130
-614.288	800.000	0.139	-0.389
-613.273	-25.361	0.165	0.099
-612.259	49.703	0.146	-0.139
-611.244	291.806	0.112	0.206
-610.230	115.995	0.158	-0.196
-609.215	251.834	-0.155	-0.267
-608.201	-200.000	-0.010	0.082
-607.186	-95.073	0.072	-0.020
-606.171	369.106	-0.088	0.180
-605.157	21.003	0.127	0.104
-604.142	-5.612	0.178	-0.123
-603.128	154.652	-0.076	0.106
-602.113	93.295	-0.230	0.263
-601.098	800.000	-0.032	0.114
-600.084	126.900	0.058	0.075
-599.069	74.583	-0.129	0.137
-598.055	-126.095	-0.421	-0.064
-597.040	308.552	0.134	-0.253
-596.025	137.229	-0.010	-0.013
-595.011	-146.597	-0.148	0.013
-593.996	-102.464	-0.110	-0.027
-592.982	550.367	0.083	-0.201
-591.967	-200.000	0.001	0.289
-590.952	-1.948	0.092	-0.065
-589.938	-29.448	-0.226	-0.130
-588.923	-128.688	0.101	-0.014
-587.909	-109.228	-0.151	0.032
-586.894	-41.770	-0.125	0.065
-585.879	54.195	-0.084	0.081
-584.865	-187.501	-0.167	0.002
-583.850	-72.497	-0.349	-0.130
-582.836	-200.000	0.052	-0.439
-581.821	800.000	0.029	0.107
-580.806	-156.187	-0.157	0.010
-579.792	511.460	-0.026	0.061
-578.777	30.954	-0.111	0.096
-577.763	354.123	0.111	-0.223
-576.748	383.991	0.070	0.146
-575.733	-83.523	-0.158	0.051
-574.719	-67.331	0.120	-0.047
-573.704	800.000	-0.049	0.176
-572.690	-53.403	0.168	-0.078
-571.675	25.285	0.158	-0.132
-570.661	-78.480	-0.270	0.093
-569.646	354.629	-0.066	-0.133
-568.631	-73.943	0.174	0.064
-567.617	-38.730	-0.079	0.042
-566.602	77.319	-0.259	0.278
-565.588	-200.000	-0.008	0.213
-564.573	-6.534	-0.211	-0.145
-563.558	-93.862	0.324	-0.090
-562.544	-200.000	0.055	-0.368
-561.529	303.088	0.039	-0.072
-560.515	252.206	-0.076	-0.131
-559.500	475.727	0.137	-0.311
-558.485	-79.061	-0.182	-0.062
-557.471	-200.000	-0.044	0.222
-556.456	800.000	0.076	-0.321
-555.442	-178.448	-0.263	0.006
-554.427	-1.058	0.142	0.101
-553.412	-28.174	-0.128	-0.074
-552.398	129.138	-0.270	-0.348
-551.383	-45.243	-0.142	0.071
-550.369	-99.207	0.079	-0.020
-549.354	-94.054	0.097	0.027
-548.339	104.431	-0.195	0.231
-547.325	-39.602	0.208	0.110
-546.310	-200.000	0.016	-0.264
-545.296	800.000	0.051	-0.187
-544.281	39.202	-0.050	-0.045
-543.266	-22.961	0.117	-0.071
-542.252	188.294	0.272	-0.410
-541.237	-150.787	-0.273	0.021
-540.223	-200.000	-0.011	-0.177
-539.208	206.415	-0.164	-0.258
-538.193	-200.000	0.027	-0.326
-537.179	-62.042	0.324	0.136
-536.164	333.358	-0.146	-0.284
-535.150	93.091	-0.145	0.165
-534.135	800.000	0.086	0.345
-533.121	-147.251	0.030	-0.003
-532.106	-87.030	-0.111	-0.034
-531.091	-17.788	0.147	-0.093
-530.077	-89.337	0.087	-0.026
-529.062	-160.651	-0.325	0.017
-528.048	24.006	-0.016	-0.013
-527.033	-21.937	-0.276	0.169
-526.018	-142.942	-0.228	0.022
-525.004	-110.901	-0.323	0.067
-523.989	367.953	0.125	-0.255
-522.975	-153.929	-0.282	0.019
-521.960	134.130	-0.280	0.365
-520.945	-200.000	0.052	-0.285
-519.931	-142.308	0.090	0.009
-518.916	72.750	0.218	0.229
-517.902	-51.652	-0.193	-0.091
-516.887	-70.588	0.220	-0.084
-515.872	38.448	-0.098	0.088
-514.858	-76.840	-0.191	0.067
-513.843	800.000	-0.041	-0.137
-512.829	15.713	-0.160	-0.127
-511.814	-96.357	-0.303	0.081
-510.799	-48.092	0.133	-0.065
-509.785	326.744	-0.066	0.127
-508.770	443.555	-0.085	-0.188
-507.756	-200.000	-0.035	0.258
-506.741	-104.600	0.197	-0.046
-505.726	-200.000	0.035	-0.229
-504.712	395.844	0.082	0.173
-503.697	36.328	0.200	-0.178
-502.683	-142.395	-0.124	-0.012
-501.668	-133.511	0.179	-0.023
-500.653	-67.187	-0.322	-0.128
-499.639	8.920	0.257	-0.195
-498.624	-168.775	0.424	-0.016
-497.610	190.115	0.067	-0.101
-496.595	267.676	0.120	-0.212
-495.581	-200.000	0.028	0.213
-494.566	-130.617	-0.249	0.034
-493.551	-105.478	-0.175	0.040
-492.537	24.616	0.178	-0.148
-491.522	-157.050	0.312	-0.019
-490.508	-200.000	0.004	0.026
-489.493	-30.502	-0.140	0.080
-488.478	145.796	0.210	0.283
-487.464	129.581	0.195	-0.250
-486.449	-125.465	0.117	-0.018
-485.435	318.539	0.151	0.288
-484.420	-41.611	-0.126	0.065
-483.405	-12.502	-0.245	-0.161
-482.391	663.877	-0.060	-0.156
-481.376	227.329	0.193	-0.315
-480.362	-100.910	-0.147	0.036
-479.347	-200.000	0.009	0.054
-478.332	-116.061	-0.285	-0.053
-477.318	-200.000	0.034	0.264
-476.303	-200.000	0.092	-0.476
-475.289	-200.000	-0.027	0.147
-474.274	-104.070	-0.120	0.028
-473.259	-55.299	0.033	0.015
-472.245	592.677	-0.163	0.405
-471.230	-52.495	-0.344	0.160
-470.216	-140.692	0.226	0.024
-469.201	-103.486	0.246	0.058
-468.186	46.560	-0.066	-0.062
-467.172	-200.000	0.013	-0.104
-466.157	800.000	-0.066	0.195
-465.143	-73.158	-0.220	-0.081
-464.128	-161.165	0.444	-0.023
-463.113	-200.000	-0.009	0.415
-462.099	489.126	-0.037	-0.086
-461.084	800.000	0.020	-0.068
-460.070	-66.869	0.508	-0.202
-459.055	286.736	0.094	-0.170
-458.040	184.841	0.080	-0.120
-457.026	-108.907	-0.174	-0.037
-456.011	800.000	-0.050	0.207
-454.997	800.000	0.089	0.253
-453.982	-110.599	-0.390	-0.081
-452.968	-200.000	0.019	0.200
-451.953	-83.907	-0.174	-0.056
-450.938	44.889	0.051	0.047
-449.924	112.606	0.239	-0.290
-448.909	-46.776	0.134	-0.066
-447.895	-66.970	-0.233	0.092
-446.880	-152.852	0.087	-0.006
-445.865	426.937	0.105	-0.228
-444.851	-148.807	-0.128	0.010
-443.836	187.044	0.028	-0.041
-442.822	441.467	-0.154	0.339
-441.807	800.000	-0.081	-0.255
-440.792	-200.000	0.001	0.043
-439.778	-200.000	0.002	0.356
-438.763	800.000	0.118	0.354
-437.749	-152.082	-0.115	-0.008
-436.734	-200.000	-0.007	0.131
-435.719	171.140	-0.145	0.209
-434.705	42.049	-0.181	0.165
-433.690	-200.000	0.028	0.225
-432.676	141.069	-0.183	0.243
-431.661	680.136	0.074	0.192
-430.646	-149.137	-0.153	-0.012
-429.632	-82.724	-0.303	0.098
-428.617	-76.625	0.197	0.070
-427.603	-200.000	-0.022	-0.334
-426.588	-50.034	-0.153	0.073
-425.573	800.000	0.094	-0.331
-424.559	-98.925	0.310	0.079
-423.544	-130.116	-0.312	-0.043
-422.530	-94.226	-0.253	0.069
-421.515	-130.629	0.146	-0.020
-420.500	-24.854	0.077	-0.046
-419.486	-40.106	-0.333	-0.174
-418.471	-26.960	0.313	-0.183
-417.457	-69.112	-0.253	-0.098
-416.442	-132.034	0.350	-0.046
-415.428	177.219	-0.088	-0.129
-414.413	800.000	-0.048	-0.185
-413.398	-136.322	0.293	0.034
-412.384	800.000	0.118	0.343
-411.369	-40.955	0.248	-0.129
-410.355	52.445	-0.263	-0.251
-409.340	-64.980	-0.119	0.048
-408.325	54.018	-0.083	-0.080
-407.311	-83.886	0.087	-0.028
-406.296	-142.893	0.183	-0.018
-405.282	800.000	0.068	-0.224
-404.267	111.238	-0.215	0.260
-403.252	800.000	-0.046	0.129
-402.238	340.188	-0.318	-0.622
-401.223	-21.352	0.122	-0.074
-400.209	216.292	0.101	-0.161
-399.194	800.000	-0.046	0.135
-398.179	-200.000	0.026	0.140
-397.165	233.002	0.249	0.410
-396.150	-79.200	-0.192	0.065
-395.136	162.410	0.272	0.383
-394.121	324.702	0.075	0.143
-393.106	-167.694	-0.069	-0.003
-392.092	-120.271	-0.123	0.021
-391.077	156.896	0.181	-0.251
-390.063	-52.333	0.178	-0.083
-389.048	617.638	0.079	0.198
-388.033	-153.756	0.454	0.031
-387.019	115.487	-0.235	0.288
-386.004	106.827	0.160	0.191
-384.990	-127.167	-0.375	-0.055
-383.975	79.246	0.230	0.247
-382.960	-16.078	0.059	0.037
-381.946	-200.000	0.004	0.213
-380.931	626.289	0.067	0.168
-379.917	-51.146	-0.171	0.080
-378.902	800.000	-0.110	-0.342
-377.888	448.615	-0.086	-0.191
-376.873	69.583	0.028	0.029
-375.858	800.000	-0.091	0.254
-374.844	52.134	0.198	-0.189
-373.829	800.000	0.081	0.345
-372.815	-200.000	0.036	0.181
-371.800	106.385	0.231	0.274
-370.785	399.849	0.124	0.261
-369.771	-124.555	-0.020	-0.003
-368.756	377.375	-0.080	0.163
-367.742	-190.991	0.253	-0.003
-366.727	-143.996	-0.122	0.012
-365.712	628.251	0.077	-0.195
-364.698	800.000	0.028	-0.084
-363.683	515.440	0.084	0.197
-362.669	-153.545	-0.130	-0.009
-361.654	-104.654	0.059	-0.014
-360.639	332.172	0.060	0.115
-359.625	-200.000	0.016	-0.124
-358.610	607.284	0.133	-0.331
-357.596	-39.979	0.230	0.120
-356.581	-93.842	-0.173	0.048
-355.566	-200.000	0.037	-0.263
-354.552	-142.738	-0.333	-0.032
-353.537	-133.175	0.211	-0.027
-352.523	-99.695	-0.194	0.049
-351.508	-59.459	0.116	0.050
-350.493	96.621	0.058	-0.067
-349.479	-200.000	-0.226	-0.001
-348.464	-62.960	0.132	-0.054
-347.450	294.962	0.049	-0.090
-346.435	128.924	0.179	-0.229
-345.420	-200.000	0.010	-0.129
-344.406	20.292	0.106	0.085
-343.391	785.712	-0.110	-0.302
-342.377	-104.488	0.440	0.102
-341.362	63.687	0.143	0.144
-340.348	117.739	0.150	0.184
-339.333	-38.240	-0.143	0.076
-338.318	800.000	0.080	0.268
-337.304	-200.000	0.011	0.066
-336.289	-103.180	-0.277	-0.065
-335.275	214.027	-0.051	-0.080
-334.260	112.180	-0.114	-0.138
-333.245	-200.000	-0.003	-0.440
-332.231	800.000	0.077	-0.253
-331.216	-165.235	-0.218	-0.010
-330.202	146.680	0.151	-0.202
-329.187	754.087	0.126	-0.339
-328.172	-18.994	0.140	-0.087
-327.158	-161.363	0.184	0.010
-326.143	-200.000	-0.035	0.657
-325.129	-24.758	0.305	-0.181
-324.114	341.251	0.086	0.167
-323.099	251.386	0.206	-0.350
-322.085	-200.000	0.032	-0.234
-321.070	127.833	-0.247	-0.314
-320.056	-84.601	0.045	-0.014
-319.041	-106.246	0.191	0.043
-318.026	-200.000	-0.021	-0.388
-317.012	114.467	-0.105	-0.128
-315.997	-103.917	0.189	-0.044
-314.983	57.941	-0.260	0.254
-313.968	-200.000	-0.010	0.054
-312.953	1.826	0.024	0.018
-311.939	800.000	-0.037	0.126
-310.924	376.363	0.058	0.118
-309.910	-58.421	0.094	0.041
-308.895	-133.497	0.083	0.010
-307.880	-13.186	-0.068	-0.044
-306.866	413.654	-0.024	-0.051
-305.851	204.179	-0.111	0.171
-304.837	-200.000	0.045	-0.216
-303.822	298.009	0.112	-0.206
-302.807	800.000	0.038	0.125
-301.793	87.835	0.160	-0.177
-300.778	-200.000	0.011	0.064
-299.764	506.792	0.136	-0.315
-298.749	494.307	0.129	-0.295
-297.735	-56.917	0.172	-0.076
-296.720	-92.148	-0.234	-0.066
-295.705	-124.164	0.137	0.021
-294.691	-41.702	0.102	0.052
-293.676	-181.369	-0.276	-0.005
-292.662	-10.456	0.276	0.182
-291.647	-112.004	-0.243	-0.049
-290.632	-88.629	-0.174	-0.052
-289.618	-76.665	-0.307	0.108
-288.603	-170.607	-0.177	0.006
-287.589	23.590	0.043	-0.035
-286.574	156.277	-0.181	-0.250
-285.559	-112.132	0.422	-0.085
-284.545	124.022	0.144	-0.181
-283.530	-200.000	0.008	-0.061
-282.516	-107.610	0.271	0.059
-281.501	-110.674	0.073	-0.015
-280.486	-51.824	-0.178	-0.083
-279.472	148.390	0.076	-0.102
-278.457	-125.925	-0.089	-0.013
-277.443	-78.137	-0.142	-0.049
-276.428	121.325	-0.147	0.183
-275.413	-59.808	-0.211	0.090
-274.399	-200.000	0.050	0.233
-273.384	-111.412	0.203	-0.041
-272.370	559.824	0.229	0.551
-271.355	-67.112	0.280	-0.110
-270.340	-148.804	-0.508	0.041
-269.326	602.810	-0.104	0.259
-268.311	123.098	0.169	-0.211
-267.297	-49.943	-0.125	0.059
-266.282	427.637	-0.023	0.049
-265.267	146.489	-0.187	-0.251
-264.253	-200.000	0.016	0.090
-263.238	-93.905	0.207	0.057
-262.224	-123.962	0.146	-0.023
-261.209	18.149	0.228	-0.181
-260.195	800.000	0.060	-0.191
-259.180	-200.000	-0.002	0.295
-258.165	338.131	-0.085	0.164
-257.151	-82.484	0.055	-0.018
-256.136	-200.000	-0.007	-0.236
-255.122	-114.106	0.173	-0.033
-254.107	29.474	0.376	0.319
-253.092	50.005	-0.174	0.164
-252.078	-110.835	0.325	-0.067
-251.063	-200.000	0.020	-0.098
-250.049	-55.166	0.111	-0.050
-249.034	-200.000	0.003	-0.028
-248.019	7.845	-0.158	-0.118
-247.005	787.512	-0.117	-0.321
-245.990	-96.143	0.218	0.058
-244.976	2.939	0.196	0.142
-243.961	559.776	0.026	-0.062
-242.946	-12.694	-0.125	0.081
-241.932	-9.248	0.528	0.351
-240.917	-200.000	0.019	0.463
-239.903	-70.683	0.268	-0.101
-238.888	112.420	-0.085	0.103
-237.873	425.051	-0.027	-0.058
-236.859	-137.119	0.151	-0.017
-235.844	800.000	0.034	-0.113
-234.830	682.529	-0.043	0.111
-233.815	21.934	-0.266	0.216
-232.800	259.569	0.155	-0.266
-231.786	206.339	0.058	0.090
-230.771	-200.000	-0.008	0.064
-229.757	-184.194	-0.047	0.001
-228.742	-200.000	0.052	-0.247
-227.727	-64.307	-0.248	-0.100
-226.713	-33.833	0.322	0.177
-225.698	-71.541	-0.113	0.042
-224.684	570.412	0.053	0.127
-223.669	800.000	0.020	-0.063
-222.655	98.517	0.039	0.045
-221.640	-1.808	0.124	-0.087
-220.625	-88.740	0.179	-0.053
-219.611	59.752	-0.209	-0.205
-218.596	-200.000	-0.021	0.244
-217.582	-77.753	-0.174	0.060
-216.567	-200.000	0.011	0.339
-215.552	-7.806	-0.016	-0.011
-214.538	491.784	-0.080	0.181
-213.523	-16.424	-0.156	-0.098
-212.509	-102.735	0.170	-0.040
-211.494	-46.368	-0.196	0.096
-210.479	51.224	0.127	0.120
-209.465	138.677	0.108	-0.142
-208.450	106.354	-0.190	-0.224
-207.436	-200.000	-0.098	-0.468
-206.421	467.203	0.097	-0.216
-205.406	213.697	-0.087	0.138
-204.392	-86.207	0.207	0.063
-203.377	348.799	0.067	0.132
-202.363	20.369	0.089	-0.072
-201.348	55.489	-0.134	0.129
-200.333	800.000	0.049	0.207
-199.319	800.000	-0.057	0.230
-198.304	-75.441	-0.202	-0.072
-197.290	-170.659	0.068	-0.002
-196.275	-200.000	0.058	-0.314
-195.260	149.820	0.065	0.088
-194.246	-36.075	-0.131	-0.070
-193.231	-88.367	0.426	0.127
-192.217	-200.000	-0.066	-0.387
-191.202	-200.000	-0.020	-0.436
-190.187	440.754	0.060	0.131
-189.173	224.188	0.091	0.146
-188.158	45.943	0.288	0.265
-187.144	256.580	-0.185	0.316
-186.129	-123.076	-0.284	-0.045
-185.114	-200.000	-0.003	0.199
-184.100	153.201	-0.088	0.120
-183.085	-105.751	-0.308	0.069
-182.071	193.749	-0.142	0.214
-181.056	-51.996	-0.016	-0.007
-180.042	800.000	-0.053	0.194
-179.027	-110.074	0.310	-0.064
-178.012	-125.814	-0.290	-0.044
-176.998	-66.115	0.227	-0.090
-175.983	800.000	-0.078	0.219
-174.969	224.449	-0.192	0.308
-173.954	-74.730	0.050	0.018
-172.939	-28.763	-0.220	0.126
-171.925	349.040	0.017	0.033
-170.910	613.722	0.116	-0.288
-169.896	-84.599	-0.069	0.022
-168.881	-38.351	-0.154	-0.081
-167.866	405.524	0.170	-0.357
-166.852	236.827	-0.135	0.222
-165.837	800.000	0.093	-0.296
-164.823	-44.025	0.173	-0.087
-163.808	-146.140	0.138	0.012
-162.793	-200.000	0.012	-0.172
-161.779	-125.792	0.127	0.019
-160.764	54.265	-0.091	-0.087
-159.750	-171.411	-0.262	0.009
-158.735	-200.000	0.056	0.280
-157.720	4.865	0.030	-0.022
-156.706	-200.000	-0.067	-0.359
-155.691	27.937	-0.349	0.292
-154.677	-3.963	0.244	0.168
-153.662	800.000	-0.036	0.146
-152.647	-22.561	0.291	0.175
-151.633	421.250	0.039	0.083
-150.618	-68.781	-0.127	0.049
-149.604	-141.519	0.180	0.018
-148.589	-0.891	0.173	0.122
-147.574	91.819	0.288	0.322
-146.560	-200.000	0.033	0.179
-145.545	295.872	0.039	0.070
-144.531	-124.358	0.251	0.039
-143.516	-200.000	-0.054	0.291
-142.502	167.826	0.173	0.244
-141.487	800.000	-0.055	0.210
-140.472	208.286	0.063	-0.098
-139.458	-24.760	-0.260	-0.154
-138.443	124.269	-0.028	-0.035
-137.429	-69.373	0.133	-0.051
-136.414	-43.421	-0.087	0.043
-135.399	162.596	-0.011	-0.016
-134.385	618.825	0.026	-0.064
-133.370	-70.832	0.194	-0.072
-132.356	20.343	-0.220	-0.176
-131.341	-16.279	-0.070	-0.044
-130.326	-28.442	-0.127	-0.072
-129.312	800.000	0.051	0.223
-128.297	101.750	0.185	0.214
-127.283	67.678	0.293	0.297
-126.268	-96.790	0.294	-0.077
-125.253	-73.009	-0.378	0.138
-124.239	-69.995	-0.350	0.132
-123.224	698.927	0.141	0.369
-122.210	-200.000	-0.026	0.119
