DTS Sentinel unit serial number:	SN413079Multiplexer serial number:	ORYXHardware model number:	OX4-SRSoftware version number:	ORYX F/W v4.00 Oryx Data Collector v3.7.2.0data status	okinstallation	princeton_trtdifferential loss correction	single-endedforward channel	channel 4reverse channel	N/Adate	2019/09/11time	02:55:10forward acquisition time	60.00reverse acquisition time	0.00gamma	496.2192k internal	0.2318k external	0.2318temperature offset calibration	0.9946default loss term (dB/km)	0.3790temperature slope calibration	1.0000multiplexer offset coefficient	1.0000multiplexer slope coefficient	1.0000fibre end	0.00T internal ref (°C)	29.30T ext. ref 1 (°C)	-0.31T ext. ref 2 (°C)	23.78length (m)	temperature (°C)	Stokes	anti-Stokes-747.200	552.466	0.127	-0.308
-746.185	-21.635	-0.283	-0.175
-745.171	-200.000	0.028	0.240
-744.156	7.922	-0.220	-0.167
-743.142	800.000	0.023	-0.071
-742.127	-99.169	-0.270	0.069
-741.112	12.449	-0.100	0.078
-740.098	800.000	-0.035	-0.138
-739.083	-152.648	0.319	-0.023
-738.069	-130.341	-0.222	0.030
-737.054	194.900	-0.149	-0.229
-736.039	-107.550	0.164	0.036
-735.025	570.292	-0.143	0.353
-734.010	-102.343	-0.469	-0.114
-732.996	-157.281	-0.388	-0.024
-731.981	800.000	-0.109	-0.362
-730.966	-26.445	0.103	0.061
-729.952	454.745	0.028	-0.063
-728.937	-141.117	-0.565	0.058
-727.923	-159.227	-0.165	-0.009
-726.908	570.763	0.131	0.321
-725.894	-123.125	-0.392	0.064
-724.879	-121.949	-0.226	-0.038
-723.864	-69.310	0.095	-0.037
-722.850	16.541	-0.158	-0.126
-721.835	800.000	-0.054	-0.195
-720.821	-104.387	-0.178	0.042
-719.806	-171.179	-0.358	-0.012
-718.791	-123.079	-0.303	-0.049
-717.777	75.246	-0.094	-0.100
-716.762	800.000	0.076	-0.226
-715.748	41.116	-0.240	-0.219
-714.733	800.000	0.052	-0.148
-713.718	452.524	-0.180	-0.403
-712.704	9.904	-0.261	-0.200
-711.689	-63.372	0.334	-0.139
-710.675	800.000	-0.111	-0.383
-709.660	216.357	0.252	0.405
-708.645	175.706	0.065	-0.095
-707.631	151.200	-0.092	-0.126
-706.616	55.249	0.038	-0.037
-705.602	18.437	-0.044	0.035
-704.587	189.036	-0.182	-0.276
-703.572	-50.231	-0.143	0.068
-702.558	-32.966	-0.053	-0.030
-701.543	-108.659	-0.122	-0.026
-700.529	-59.963	0.153	-0.066
-699.514	-14.014	0.222	-0.145
-698.499	-22.620	-0.152	-0.093
-697.485	800.000	0.109	-0.310
-696.470	229.753	-0.066	-0.109
-695.456	-200.000	0.012	0.200
-694.441	-200.000	-0.026	-0.129
-693.426	-152.403	0.132	0.010
-692.412	-79.420	0.475	0.162
-691.397	6.368	0.065	0.049
-690.383	-200.000	0.000	-0.223
-689.368	38.082	-0.063	0.056
-688.354	141.190	-0.297	0.397
-687.339	-126.257	0.415	0.063
-686.324	620.830	0.077	0.196
-685.310	91.745	0.243	-0.276
-684.295	150.827	-0.027	-0.037
-683.281	-200.000	0.038	-0.200
-682.266	-120.037	-0.114	0.020
-681.251	114.688	0.080	0.099
-680.237	800.000	0.096	-0.269
-679.222	-200.000	-0.062	-0.356
-678.208	-114.661	0.009	-0.002
-677.193	7.426	-0.291	0.220
-676.178	-200.000	0.003	-0.069
-675.164	711.517	-0.086	-0.230
-674.149	455.424	-0.080	-0.178
-673.135	-200.000	-0.002	-0.050
-672.120	422.656	0.092	0.199
-671.105	-200.000	-0.007	-0.273
-670.091	7.014	0.076	-0.057
-669.076	-143.719	-0.103	0.010
-668.062	-64.191	-0.075	0.031
-667.047	-70.166	-0.201	0.077
-666.032	48.083	-0.082	0.077
-665.018	-94.333	0.202	-0.056
-664.003	457.550	0.066	0.148
-662.989	255.781	-0.132	0.228
-661.974	51.258	-0.115	-0.110
-660.959	494.566	-0.168	-0.389
-659.945	-168.873	0.074	0.003
-658.930	-153.784	-0.310	-0.021
-657.916	-200.000	0.019	0.219
-656.901	-200.000	0.038	0.451
-655.886	-200.000	-0.001	0.023
-654.872	193.766	-0.104	-0.159
-653.857	-15.640	-0.093	-0.060
-652.843	-47.896	0.093	-0.045
-651.828	12.085	0.245	0.190
-650.814	-99.465	-0.084	0.021
-649.799	-25.306	-0.130	-0.078
-648.784	-200.000	0.070	0.335
-647.770	-200.000	0.048	-0.220
-646.755	-200.000	0.004	0.114
-645.741	-129.423	0.126	-0.018
-644.726	800.000	-0.039	0.127
-643.711	-93.878	-0.281	0.078
-642.697	800.000	-0.044	0.127
-641.682	2.351	-0.323	-0.235
-640.668	30.838	-0.203	0.175
-639.653	-159.239	-0.108	-0.006
-638.638	-200.000	0.040	0.248
-637.624	-58.048	-0.188	0.083
-636.609	293.032	0.159	0.292
-635.595	288.701	0.035	-0.063
-634.580	-200.000	-0.041	0.353
-633.565	-145.329	0.128	0.012
-632.551	-48.594	0.142	0.069
-631.536	29.275	-0.115	0.099
-630.522	719.725	0.166	0.446
-629.507	59.462	-0.204	0.202
-628.492	-57.174	0.077	-0.034
-627.478	220.923	-0.108	-0.174
-626.463	-82.189	-0.438	-0.144
-625.449	155.062	0.154	-0.213
-624.434	800.000	-0.101	-0.310
-623.419	-65.562	-0.040	-0.016
-622.405	-200.000	0.040	-0.243
-621.390	-55.631	0.188	-0.085
-620.376	-154.613	0.264	-0.018
-619.361	370.226	0.023	-0.047
-618.346	-35.297	0.180	0.098
-617.332	-122.778	0.096	0.016
-616.317	7.107	0.085	0.064
-615.303	-114.353	0.171	-0.033
-614.288	-175.145	0.284	-0.008
-613.273	-10.856	0.175	0.117
-612.259	-130.176	0.286	-0.039
-611.244	87.472	-0.134	0.150
-610.230	77.951	-0.121	-0.130
-609.215	-98.646	-0.412	0.106
-608.201	1.465	0.211	-0.153
-607.186	205.147	-0.079	-0.123
-606.171	800.000	-0.055	-0.208
-605.157	-26.315	-0.098	-0.058
-604.142	-114.087	0.473	0.092
-603.128	128.547	-0.177	-0.228
-602.113	333.417	-0.194	-0.377
-601.098	251.137	0.110	-0.189
-600.084	-192.908	-0.220	-0.002
-599.069	-200.000	0.007	0.188
-598.055	-134.278	-0.141	-0.017
-597.040	800.000	-0.062	0.189
-596.025	-92.019	0.196	0.056
-595.011	231.682	-0.133	-0.220
-593.996	-58.939	-0.130	-0.057
-592.982	215.502	0.047	-0.075
-591.967	-36.461	-0.304	0.165
-590.952	137.895	-0.066	0.086
-589.938	-78.159	0.050	-0.017
-588.923	189.359	-0.109	0.164
-587.909	-84.605	0.184	-0.058
-586.894	-21.720	-0.096	0.059
-585.879	-37.065	0.421	-0.227
-584.865	-42.976	0.124	-0.063
-583.850	-11.713	0.136	0.090
-582.836	-76.919	-0.162	-0.057
-581.821	-200.000	-0.043	-0.193
-580.806	-99.546	-0.141	-0.036
-579.792	-156.798	-0.104	0.006
-578.777	-9.611	-0.017	0.011
-577.763	-61.749	-0.137	0.058
-576.748	88.700	0.185	0.207
-575.733	-63.240	0.062	0.026
-574.719	-200.000	0.002	0.375
-573.704	434.002	-0.092	0.200
-572.690	-107.152	0.307	0.068
-571.675	142.781	-0.090	0.120
-570.661	40.278	-0.324	-0.293
-569.646	386.060	-0.110	-0.229
-568.631	292.807	-0.040	-0.073
-567.617	-70.643	-0.265	0.101
-566.602	-200.000	-0.010	-0.062
-565.588	518.821	-0.212	-0.500
-564.573	148.632	-0.114	-0.155
-563.558	-21.414	-0.107	-0.066
-562.544	-23.014	-0.097	-0.059
-561.529	368.742	-0.076	-0.155
-560.515	-200.000	0.016	0.266
-559.500	209.700	0.154	0.242
-558.485	23.452	-0.187	0.155
-557.471	-180.748	0.069	-0.001
-556.456	-169.485	-0.161	0.006
-555.442	-77.582	0.136	0.047
-554.427	80.947	0.060	-0.065
-553.412	-90.275	0.328	-0.096
-552.398	391.734	-0.100	-0.210
-551.383	-14.994	0.302	-0.195
-550.369	417.337	0.042	-0.090
-549.354	-86.794	-0.084	0.026
-548.339	109.588	-0.218	-0.262
-547.325	-142.075	0.315	0.031
-546.310	13.907	-0.148	0.116
-545.296	-200.000	-0.013	-0.105
-544.281	-62.164	0.257	-0.108
-543.266	143.615	-0.046	-0.061
-542.252	120.326	0.203	0.254
-541.237	509.530	-0.072	0.169
-540.223	168.539	0.276	-0.395
-539.208	208.462	0.094	-0.147
-538.193	-200.000	-0.017	0.206
-537.179	-200.000	-0.045	0.234
-536.164	-145.285	0.392	-0.036
-535.150	-38.206	-0.165	-0.088
-534.135	83.669	0.013	-0.014
-533.121	425.717	-0.123	0.266
-532.106	380.897	0.125	-0.257
-531.091	-123.043	0.040	0.006
-530.077	-200.000	0.004	-0.299
-529.062	800.000	-0.015	0.052
-528.048	-88.701	-0.145	0.043
-527.033	-68.812	0.155	0.060
-526.018	188.523	0.036	-0.054
-525.004	-200.000	-0.033	0.185
-523.989	800.000	-0.074	-0.227
-522.975	-120.131	-0.126	-0.022
-521.960	-200.000	0.028	0.166
-520.945	-33.880	-0.166	-0.092
-519.931	800.000	0.060	0.220
-518.916	-175.972	0.442	-0.012
-517.902	432.937	-0.200	-0.436
-516.887	-200.000	0.020	-0.152
-515.872	-200.000	-0.010	0.166
-514.858	800.000	-0.081	-0.321
-513.843	-143.988	0.234	0.022
-512.829	24.169	0.324	0.268
-511.814	245.148	-0.065	-0.110
-510.799	-93.010	0.220	0.062
-509.785	-1.197	-0.322	0.228
-508.770	19.958	0.246	-0.199
-507.756	-48.315	-0.173	0.084
-506.741	-200.000	-0.003	-0.017
-505.726	59.523	-0.117	-0.115
-504.712	-107.336	0.151	-0.033
-503.697	253.062	0.082	-0.140
-502.683	-59.440	-0.121	-0.052
-501.668	-138.829	0.236	0.026
-500.653	-200.000	-0.016	-0.219
-499.639	800.000	0.021	0.063
-498.624	524.644	0.178	0.420
-497.610	800.000	-0.177	0.590
-496.595	303.515	-0.128	0.239
-495.581	627.656	-0.040	0.101
-494.566	13.583	-0.198	0.154
-493.551	-53.009	0.092	-0.043
-492.537	800.000	-0.058	0.179
-491.522	-138.199	-0.482	-0.054
-490.508	-148.722	-0.278	-0.023
-489.493	-95.972	-0.301	0.080
-488.478	126.056	-0.132	0.168
-487.464	329.148	-0.171	-0.330
-486.449	492.106	-0.154	0.353
-485.435	203.599	-0.075	0.117
-484.420	20.925	0.258	0.210
-483.405	-200.000	0.036	-0.258
-482.391	800.000	-0.134	-0.490
-481.376	-142.418	0.335	-0.033
-480.362	420.862	0.065	0.141
-479.347	-200.000	0.073	0.418
-478.332	-132.806	-0.247	0.032
-477.318	14.825	0.366	0.287
-476.303	278.703	0.044	-0.078
-475.289	552.552	0.120	0.288
-474.274	-164.559	-0.217	0.010
-473.259	69.293	0.230	-0.237
-472.245	451.956	-0.094	-0.207
-471.230	2.879	0.096	0.070
-470.216	59.699	0.352	-0.348
-469.201	-124.679	0.337	0.052
-468.186	213.643	0.189	-0.299
-467.172	676.186	-0.004	-0.010
-466.157	-200.000	0.036	-0.292
-465.143	-200.000	0.003	0.316
-464.128	95.612	-0.110	0.125
-463.113	800.000	0.042	0.148
-462.099	-50.405	-0.205	0.097
-461.084	186.765	-0.117	-0.174
-460.070	20.799	0.097	0.079
-459.055	69.035	0.252	0.259
-458.040	-200.000	-0.033	-0.215
-457.026	-78.280	0.384	0.132
-456.011	426.900	-0.103	0.222
-454.997	-28.533	0.291	0.168
-453.982	-51.747	0.182	-0.085
-452.968	106.841	-0.250	-0.297
-451.953	-90.101	0.227	0.066
-450.938	-83.977	0.211	-0.067
-449.924	-74.299	-0.063	-0.023
-448.909	-195.778	-0.334	-0.002
-447.895	65.490	-0.269	0.272
-446.880	225.458	-0.047	-0.076
-445.865	-200.000	-0.003	-0.096
-444.851	-200.000	0.028	-0.199
-443.836	129.118	-0.215	0.275
-442.822	-12.580	0.179	0.117
-441.807	148.218	0.082	0.111
-440.792	800.000	-0.060	-0.177
-439.778	208.608	-0.132	0.206
-438.763	-200.000	-0.001	-0.039
-437.749	113.753	-0.242	0.294
-436.734	-45.209	-0.159	-0.079
-435.719	696.225	-0.054	0.142
-434.705	-200.000	0.009	0.173
-433.690	-200.000	-0.046	-0.333
-432.676	-105.133	0.120	0.028
-431.661	-48.704	0.033	0.016
-430.646	-174.729	-0.069	-0.002
-429.632	106.278	0.073	0.086
-428.617	324.917	0.207	-0.396
-427.603	152.754	-0.074	0.101
-426.588	549.166	-0.034	-0.082
-425.573	-121.152	0.150	0.025
-424.559	-94.893	0.146	-0.040
-423.544	-200.000	-0.026	-0.197
-422.530	-104.997	-0.102	0.023
-421.515	800.000	0.113	-0.400
-420.500	-63.305	-0.036	0.015
-419.486	20.687	0.195	0.158
-418.471	53.887	-0.061	0.058
-417.457	489.185	0.125	-0.286
-416.442	-94.135	-0.394	-0.108
-415.428	-94.343	0.083	-0.023
-414.413	145.575	0.053	0.071
-413.398	-68.004	0.310	0.121
-412.384	-200.000	-0.006	0.110
-411.369	-5.894	0.203	0.139
-410.355	-120.043	0.304	0.052
-409.340	-157.023	-0.140	-0.009
-408.325	-28.229	0.307	-0.177
-407.311	-93.846	-0.332	0.091
-406.296	772.804	-0.107	-0.291
-405.282	119.413	-0.084	0.104
-404.267	-75.210	0.043	0.015
-403.252	-90.468	-0.098	-0.028
-402.238	154.995	-0.134	-0.184
-401.223	-200.000	0.035	-0.246
-400.209	-164.592	0.259	-0.012
-399.194	-158.527	-0.120	-0.007
-398.179	698.850	-0.166	-0.436
-397.165	-92.368	-0.154	0.043
-396.150	471.312	0.052	-0.117
-395.136	87.319	-0.158	0.174
-394.121	360.746	0.130	0.259
-393.106	-124.144	0.143	0.022
-392.092	32.146	0.256	0.221
-391.077	96.488	0.099	0.113
-390.063	97.830	0.224	0.257
-389.048	-41.167	0.046	-0.023
-388.033	-160.705	-0.179	-0.010
-387.019	44.032	0.175	0.160
-386.004	-47.168	-0.325	-0.158
-384.990	82.549	-0.096	-0.104
-383.975	-138.910	-0.122	-0.013
-382.960	163.853	-0.129	-0.181
-381.946	-141.821	-0.356	0.036
-380.931	-61.793	-0.234	-0.098
-379.917	800.000	-0.087	-0.348
-378.902	-90.233	-0.418	-0.121
-377.888	378.394	-0.153	0.311
-376.873	-83.233	-0.170	-0.054
-375.858	-200.000	0.052	0.277
-374.844	59.408	0.099	-0.097
-373.829	-5.239	0.138	-0.095
-372.815	-121.737	-0.233	0.038
-371.800	305.799	-0.147	0.272
-370.785	339.120	0.097	0.188
-369.771	50.160	0.290	-0.273
-368.756	-66.429	0.168	0.067
-367.742	514.573	-0.142	-0.332
-366.727	-200.000	0.020	-0.099
-365.712	-69.840	0.167	-0.063
-364.698	800.000	0.129	0.405
-363.683	-200.000	-0.054	-0.300
-362.669	800.000	0.061	0.220
-361.654	-121.387	-0.235	0.039
-360.639	206.856	0.148	0.230
-359.625	-166.699	0.273	-0.011
-358.610	-130.702	0.127	0.017
-357.596	-119.796	0.174	-0.030
-356.581	-200.000	-0.023	-0.510
-355.566	-200.000	0.004	0.115
-354.552	-87.696	-0.076	0.023
-353.537	9.773	0.385	0.291
-352.523	111.243	0.198	-0.238
-351.508	300.366	0.100	0.184
-350.493	74.709	-0.116	-0.121
-349.479	-115.800	0.280	0.052
-348.464	111.742	-0.169	0.204
-347.450	-200.000	-0.035	0.345
-346.435	800.000	0.128	0.365
-345.420	11.097	-0.086	0.066
-344.406	-19.725	-0.078	-0.048
-343.391	106.588	-0.369	-0.436
-342.377	76.796	0.195	-0.207
-341.362	6.343	-0.068	0.050
-340.348	131.271	-0.078	-0.100
-339.333	-200.000	-0.012	-0.098
-338.318	-50.948	0.203	0.095
-337.304	79.352	-0.186	0.199
-336.289	132.721	0.164	0.211
-335.275	800.000	-0.015	-0.046
-334.260	-138.514	-0.018	-0.002
-333.245	268.057	-0.145	0.253
-332.231	-22.694	-0.235	0.141
-331.216	122.968	-0.100	0.125
-330.202	-85.751	0.355	0.110
-329.187	176.490	-0.174	0.252
-328.172	240.835	0.131	-0.218
-327.158	-56.752	-0.210	0.092
-326.143	203.737	-0.181	-0.279
-325.129	-200.000	-0.009	0.099
-324.114	82.415	0.200	-0.216
-323.099	800.000	0.084	0.259
-322.085	800.000	-0.039	0.151
-321.070	-130.768	-0.103	0.014
-320.056	-1.301	0.361	-0.254
-319.041	17.764	0.441	-0.349
-318.026	-200.000	-0.023	-0.128
-317.012	-191.654	-0.132	0.001
-315.997	-119.278	-0.167	-0.029
-314.983	800.000	0.059	0.235
-313.968	-200.000	-0.013	-0.095
-312.953	84.288	-0.212	-0.231
-311.939	-81.417	0.100	-0.033
-310.924	39.704	-0.103	-0.092
-309.910	39.742	0.330	0.294
-308.895	766.427	0.070	-0.190
-307.880	-185.763	-0.472	-0.007
-306.866	-128.775	0.254	-0.036
-305.851	108.925	0.180	0.215
-304.837	284.121	-0.215	-0.384
-303.822	192.551	0.070	-0.105
-302.807	73.937	-0.113	-0.118
-301.793	-25.627	0.084	0.050
-300.778	43.050	-0.218	0.198
-299.764	150.778	0.057	0.077
-298.749	20.245	0.223	0.179
-297.735	134.184	-0.444	-0.572
-296.720	-114.016	0.226	0.044
-295.705	-33.453	-0.113	-0.062
-294.691	-151.667	0.304	-0.022
-293.676	110.128	-0.145	0.173
-292.662	-52.845	-0.214	-0.098
-291.647	-58.079	-0.507	-0.220
-290.632	-40.268	-0.112	-0.058
-289.618	-130.299	0.221	-0.030
-288.603	152.640	0.066	0.090
-287.589	203.499	-0.064	0.098
-286.574	-200.000	-0.006	-0.418
-285.559	-107.514	0.111	0.024
-284.545	-200.000	0.016	0.188
-283.530	667.651	-0.109	-0.279
-282.516	-200.000	-0.044	-0.283
-281.501	800.000	0.043	-0.142
-280.486	4.913	0.318	0.233
-279.472	-91.626	-0.214	-0.061
-278.457	85.358	0.142	-0.155
-277.443	653.652	-0.096	0.245
-276.428	-119.449	-0.186	-0.032
-275.413	5.775	0.271	0.199
-274.399	155.650	-0.119	-0.162
-273.384	18.414	0.089	0.071
-272.370	81.153	-0.119	0.128
-271.355	87.299	0.178	-0.195
-270.340	-7.712	0.215	-0.145
-269.326	47.651	0.203	0.189
-268.311	-9.355	-0.089	-0.059
-267.297	116.127	-0.158	0.192
-266.282	135.370	0.051	0.065
-265.267	-109.638	-0.303	-0.063
-264.253	-200.000	0.048	0.380
-263.238	104.018	0.303	0.354
-262.224	-110.886	-0.086	-0.018
-261.209	-9.824	-0.191	-0.126
-260.195	13.809	-0.140	-0.108
-259.180	40.640	0.142	-0.127
-258.165	46.899	-0.182	0.168
-257.151	-200.000	-0.088	0.505
-256.136	-15.178	0.090	-0.057
-255.122	-127.385	-0.124	-0.018
-254.107	-107.714	-0.138	0.030
-253.092	-121.183	-0.062	0.010
-252.078	92.595	0.143	0.160
-251.063	432.627	0.148	-0.318
-250.049	465.494	0.132	0.293
-249.034	800.000	0.128	-0.436
-248.019	-183.558	0.383	-0.007
-247.005	98.991	0.046	-0.053
-245.990	-56.461	-0.129	0.057
-244.976	-112.795	-0.118	-0.023
-243.961	5.821	0.165	0.121
-242.946	461.199	0.132	0.291
-241.932	-90.781	0.273	-0.078
-240.917	-94.581	-0.064	-0.017
-239.903	41.834	0.166	0.149
-238.888	359.506	0.106	-0.210
-237.873	-7.010	0.106	0.072
-236.859	-55.448	0.076	0.034
-235.844	118.403	0.166	-0.203
-234.830	-200.000	0.005	0.054
-233.815	-43.071	0.236	0.119
-232.800	195.515	-0.130	-0.195
-231.786	-200.000	0.011	-0.060
-230.771	-37.272	-0.180	0.095
-229.757	6.478	-0.089	0.065
-228.742	800.000	0.089	-0.286
-227.727	778.271	0.009	0.024
-226.713	-107.745	-0.252	-0.054
-225.698	75.198	-0.152	-0.159
-224.684	501.776	-0.051	0.117
-223.669	499.303	0.142	0.326
-222.655	-200.000	0.010	0.046
-221.640	-139.784	-0.116	-0.012
-220.625	2.615	-0.344	-0.248
-219.611	-62.745	-0.149	-0.061
-218.596	-42.373	-0.156	-0.079
-217.582	-110.813	0.567	-0.116
-216.567	34.009	0.144	0.124
-215.552	-148.700	-0.241	0.019
-214.538	32.451	0.090	-0.077
-213.523	-32.214	-0.087	-0.048
-212.509	-200.000	-0.020	-0.205
-211.494	-62.311	-0.125	-0.051
-210.479	6.319	-0.057	0.042
-209.465	-168.819	0.138	0.005
-208.450	116.210	-0.123	0.150
-207.436	-140.041	-0.097	-0.010
-206.421	800.000	-0.011	0.046
-205.406	-22.528	0.152	-0.091
-204.392	42.120	-0.137	0.124
-203.377	800.000	-0.014	-0.042
-202.363	575.190	0.151	-0.365
-201.348	-147.693	-0.346	-0.029
-200.333	39.618	0.172	-0.153
-199.319	-11.339	-0.311	0.203
-198.304	45.359	0.189	-0.172
-197.290	116.705	-0.144	0.175
-196.275	36.832	-0.065	0.057
-195.260	-49.604	0.085	-0.040
-194.246	-200.000	-0.035	0.183
-193.231	336.843	-0.046	0.088
-192.217	-4.069	-0.204	-0.140
-191.202	122.650	-0.268	0.333
-190.187	295.686	0.100	0.181
-189.173	41.948	0.057	0.051
-188.158	1.542	-0.168	-0.120
-187.144	44.067	0.435	-0.395
-186.129	-200.000	0.024	0.125
-185.114	-52.450	0.100	-0.046
-184.100	-96.686	-0.144	0.038
-183.085	-97.652	-0.167	0.043
-182.071	-88.776	0.277	-0.082
-181.056	281.955	-0.093	-0.166
-180.042	-178.098	-0.111	-0.003
-179.027	-128.976	0.362	0.050
-178.012	201.606	-0.064	0.098
-176.998	-51.913	-0.200	-0.092
-175.983	-67.803	-0.129	-0.050
-174.969	431.660	0.123	-0.263
-173.954	2.278	0.402	0.288
-172.939	6.331	-0.108	-0.079
-171.925	800.000	-0.022	0.091
-170.910	-200.000	-0.017	0.279
-169.896	-23.038	0.103	0.062
-168.881	39.374	-0.126	-0.112
-167.866	-98.922	0.093	0.023
-166.852	156.279	-0.157	-0.215
-165.837	272.293	-0.126	-0.220
-164.823	-92.677	-0.067	-0.019
-163.808	-85.949	-0.041	-0.013
-162.793	614.267	0.080	0.198
-161.779	-67.096	-0.320	-0.125
-160.764	45.640	-0.097	0.089
-159.750	-131.923	-0.196	0.025
-158.735	-87.130	0.289	0.087
-157.720	-2.329	-0.091	0.063
-156.706	-67.452	0.051	0.020
-155.691	3.186	0.209	-0.151
-154.677	-200.000	0.022	0.176
-153.662	40.916	-0.112	0.100
-152.647	446.051	0.050	0.109
-151.633	-94.812	-0.150	-0.040
-150.618	292.484	-0.143	0.259
-149.604	263.199	0.190	0.326
-148.589	-148.269	0.203	0.017
-147.574	128.513	-0.063	-0.079
-146.560	104.111	-0.126	-0.146
-145.545	-46.531	-0.136	0.066
-144.531	150.790	0.156	0.210
-143.516	-200.000	0.003	-0.074
-142.502	646.923	0.104	0.263
-141.487	-53.176	-0.248	-0.113
-140.472	-167.840	-0.133	0.005
-139.458	-28.366	-0.110	0.063
-138.443	-95.456	-0.192	-0.051
-137.429	-77.095	0.282	-0.097
-136.414	-21.511	0.044	-0.026
-135.399	-200.000	-0.025	-0.263
-134.385	19.768	-0.304	-0.242
-133.370	-200.000	0.020	-0.102
-132.356	305.559	-0.059	0.109
-131.341	335.114	0.049	0.093
-130.326	-20.412	-0.184	-0.112
-129.312	-156.241	-0.195	-0.012
-128.297	-189.240	0.175	0.002
-127.283	489.147	-0.074	0.167
-126.268	-3.526	-0.118	-0.081
-125.253	-89.179	0.341	-0.100
-124.239	-57.128	-0.074	0.032
-123.224	-159.727	0.526	-0.029
-122.210	800.000	-0.056	0.201
