DTS Sentinel unit serial number:	SN413079Multiplexer serial number:	ORYXHardware model number:	OX4-SRSoftware version number:	ORYX F/W v4.00 Oryx Data Collector v3.7.2.0data status	okinstallation	princeton_trtdifferential loss correction	single-endedforward channel	channel 4reverse channel	N/Adate	2019/09/11time	10:11:11forward acquisition time	60.00reverse acquisition time	0.00gamma	496.2192k internal	0.2295k external	0.2295temperature offset calibration	0.9972default loss term (dB/km)	0.3790temperature slope calibration	1.0000multiplexer offset coefficient	1.0000multiplexer slope coefficient	1.0000fibre end	0.00T internal ref (°C)	35.75T ext. ref 1 (°C)	0.17T ext. ref 2 (°C)	33.49length (m)	temperature (°C)	Stokes	anti-Stokes-747.200	-82.406	-0.188	-0.062
-746.185	-55.864	0.052	0.024
-745.171	-172.819	0.188	0.006
-744.156	-182.183	-0.306	0.006
-743.142	-67.855	0.264	-0.105
-742.127	-91.999	-0.271	-0.078
-741.112	-24.738	-0.338	0.206
-740.098	138.886	0.153	-0.206
-739.083	-42.745	-0.301	-0.156
-738.069	800.000	-0.021	0.077
-737.054	98.315	0.128	0.150
-736.039	-159.435	-0.233	0.013
-735.025	-100.644	0.188	0.047
-734.010	-53.828	-0.348	0.162
-732.996	277.935	-0.149	-0.272
-731.981	75.076	-0.023	-0.025
-730.966	44.392	0.334	-0.314
-729.952	158.081	0.053	-0.076
-728.937	-6.942	-0.254	-0.176
-727.923	135.574	-0.141	-0.188
-726.908	-42.551	-0.085	0.044
-725.894	-200.000	0.004	-0.054
-724.879	800.000	0.044	-0.154
-723.864	196.874	-0.179	0.279
-722.850	800.000	0.060	0.194
-721.835	-72.197	0.351	0.133
-720.821	-200.000	-0.013	-0.254
-719.806	107.395	0.230	-0.279
-718.791	-71.506	-0.098	0.038
-717.777	65.781	-0.118	-0.122
-716.762	-117.932	-0.073	0.013
-715.748	-12.179	0.295	-0.197
-714.733	66.662	0.194	0.202
-713.718	102.762	0.090	-0.108
-712.704	127.418	-0.077	-0.100
-711.689	-200.000	-0.018	0.155
-710.675	394.871	0.101	0.215
-709.660	-200.000	-0.018	0.134
-708.645	-12.506	0.233	-0.156
-707.631	65.155	-0.102	-0.105
-706.616	800.000	-0.081	0.344
-705.602	-14.574	0.106	-0.069
-704.587	-137.220	0.098	-0.011
-703.572	-8.473	0.275	-0.189
-702.558	-113.026	-0.280	-0.056
-701.543	548.258	0.093	-0.228
-700.529	161.495	-0.261	-0.372
-699.514	-137.999	0.287	-0.033
-698.499	200.789	-0.177	0.278
-697.485	-7.815	-0.242	0.167
-696.470	216.461	-0.106	-0.173
-695.456	-200.000	0.019	-0.210
-694.441	93.475	-0.053	-0.061
-693.426	800.000	-0.063	-0.204
-692.412	-187.940	0.140	0.002
-691.397	94.884	0.128	-0.148
-690.383	78.361	-0.104	0.113
-689.368	-140.980	-0.148	-0.015
-688.354	354.204	-0.058	0.117
-687.339	-129.151	-0.200	-0.029
-686.324	-200.000	-0.003	-0.356
-685.310	176.559	-0.121	0.179
-684.295	-76.831	-0.101	-0.036
-683.281	800.000	-0.059	-0.168
-682.266	110.474	-0.178	-0.218
-681.251	-141.451	0.281	0.029
-680.237	-101.677	-0.178	-0.044
-679.222	-179.110	0.088	0.002
-678.208	206.951	-0.139	0.220
-677.193	315.138	0.045	0.086
-676.178	52.727	0.111	0.108
-675.164	-114.276	-0.127	0.025
-674.149	91.923	-0.113	0.130
-673.135	328.601	0.027	0.053
-672.120	-2.509	-0.026	0.019
-671.105	-200.000	0.030	0.178
-670.091	-5.772	-0.118	0.082
-669.076	122.933	0.049	-0.063
-668.062	301.352	-0.086	-0.161
-667.047	-148.959	0.241	-0.020
-666.032	213.622	0.010	-0.016
-665.018	-184.264	0.420	0.007
-664.003	-14.593	-0.102	-0.067
-662.989	-1.745	-0.250	-0.179
-661.974	-79.759	0.226	0.077
-660.959	-36.312	-0.094	0.052
-659.945	21.858	-0.171	0.142
-658.930	56.324	-0.104	0.103
-657.916	-18.335	0.175	0.112
-656.901	-200.000	-0.085	0.381
-655.886	128.368	-0.148	-0.191
-654.872	-1.347	-0.182	-0.131
-653.857	281.149	-0.025	-0.045
-652.843	-200.000	0.009	0.177
-651.828	-200.000	-0.026	-0.360
-650.814	272.977	0.150	-0.271
-649.799	-39.649	-0.151	0.081
-648.784	65.335	-0.220	-0.226
-647.770	470.592	0.230	-0.527
-646.755	29.577	-0.206	0.179
-645.741	3.989	-0.046	0.035
-644.726	210.712	-0.051	-0.082
-643.711	-149.149	-0.295	0.024
-642.697	172.797	0.108	-0.159
-641.682	350.057	-0.041	-0.083
-640.668	364.735	0.058	0.119
-639.653	45.583	0.065	-0.061
-638.638	-200.000	-0.007	0.091
-637.624	180.025	-0.144	0.216
-636.609	-131.804	-0.389	-0.052
-635.595	-98.892	-0.306	0.079
-634.580	86.068	-0.050	-0.056
-633.565	272.585	-0.124	0.222
-632.551	-8.785	-0.151	0.103
-631.536	-76.416	-0.236	0.084
-630.522	800.000	-0.073	-0.261
-629.507	-200.000	0.001	-0.310
-628.492	149.740	-0.077	-0.106
-627.478	-88.666	0.259	-0.078
-626.463	800.000	0.018	0.054
-625.449	228.694	0.070	0.116
-624.434	66.163	0.126	0.130
-623.419	16.252	-0.156	0.125
-622.405	87.808	-0.252	0.284
-621.390	60.448	0.101	-0.102
-620.376	138.033	-0.193	-0.258
-619.361	649.050	-0.056	0.147
-618.346	34.576	0.254	-0.225
-617.332	31.865	-0.068	0.060
-616.317	137.675	-0.101	-0.135
-615.303	-80.909	-0.184	0.062
-614.288	-200.000	-0.023	-0.118
-613.273	105.223	0.094	-0.113
-612.259	800.000	0.013	-0.037
-611.244	471.398	-0.045	-0.104
-610.230	632.527	0.056	-0.145
-609.215	224.878	-0.072	-0.119
-608.201	800.000	0.034	-0.138
-607.186	-15.262	-0.091	0.059
-606.171	2.492	0.042	0.031
-605.157	-43.627	0.234	0.120
-604.142	-1.051	-0.055	0.040
-603.128	-55.724	-0.097	-0.044
-602.113	800.000	-0.086	-0.328
-601.098	68.839	0.101	0.106
-600.084	-135.401	0.509	0.062
-599.069	166.517	-0.243	0.350
-598.055	-4.056	0.159	0.112
-597.040	73.943	-0.020	-0.021
-596.025	-99.431	0.124	-0.032
-595.011	202.371	0.193	0.302
-593.996	-101.850	-0.134	0.033
-592.982	33.472	0.137	0.121
-591.967	100.769	0.233	0.275
-590.952	79.261	0.121	0.132
-589.938	-157.628	-0.241	0.015
-588.923	-69.275	0.148	0.058
-587.909	-45.968	0.138	-0.069
-586.894	354.672	-0.107	0.217
-585.879	-0.345	-0.307	0.222
-584.865	-200.000	0.062	-0.285
-583.850	427.573	-0.061	-0.134
-582.836	-90.935	0.169	0.049
-581.821	547.913	-0.106	-0.257
-580.806	-38.931	-0.020	-0.011
-579.792	-88.577	0.280	0.085
-578.777	-200.000	-0.004	-0.053
-577.763	746.763	0.083	0.226
-576.748	61.874	-0.222	0.225
-575.733	152.256	0.030	-0.041
-574.719	296.488	-0.100	-0.186
-573.704	800.000	-0.042	0.150
-572.690	384.212	-0.107	0.224
-571.675	-95.258	0.126	0.034
-570.661	138.133	-0.152	0.202
-569.646	-103.938	0.206	0.049
-568.631	-200.000	-0.003	-0.345
-567.617	93.619	-0.153	0.176
-566.602	-51.830	-0.145	0.069
-565.588	117.081	-0.190	-0.237
-564.573	800.000	0.063	0.227
-563.558	-122.063	-0.207	-0.034
-562.544	-100.278	0.275	-0.069
-561.529	241.396	-0.153	0.259
-560.515	-14.903	-0.053	0.034
-559.500	-128.558	-0.215	-0.031
-558.485	194.992	0.153	0.236
-557.471	264.297	0.096	-0.169
-556.456	-73.178	-0.319	0.119
-555.442	-40.246	0.083	0.044
-554.427	-98.803	-0.259	0.067
-553.412	-115.607	-0.326	-0.062
-552.398	-56.568	0.191	-0.086
-551.383	-108.992	0.061	-0.013
-550.369	-200.000	0.027	-0.423
-549.354	202.703	-0.164	-0.257
-548.339	397.603	-0.015	-0.032
-547.325	245.840	0.077	-0.131
-546.310	-200.000	0.031	0.258
-545.296	800.000	-0.043	0.171
-544.281	-200.000	0.015	-0.111
-543.266	-70.925	0.171	-0.065
-542.252	-67.549	-0.061	-0.024
-541.237	580.700	0.111	0.277
-540.223	-177.156	0.079	0.002
-539.208	-136.939	0.408	-0.047
-538.193	-15.564	0.313	-0.203
-537.179	69.409	0.085	0.088
-536.164	42.538	0.294	0.271
-535.150	-200.000	0.009	-0.403
-534.135	-200.000	-0.020	0.245
-533.121	-200.000	0.064	0.300
-532.106	415.337	-0.038	-0.082
-531.091	-89.716	-0.062	-0.018
-530.077	-21.766	-0.028	0.017
-529.062	-84.455	-0.260	0.083
-528.048	-63.622	-0.314	-0.131
-527.033	235.071	-0.179	0.299
-526.018	-70.567	0.038	-0.015
-525.004	-200.000	0.025	0.181
-523.989	59.655	-0.235	0.235
-522.975	-101.118	0.288	-0.072
-521.960	-200.000	-0.015	0.308
-520.945	62.037	-0.101	0.102
-519.931	-106.161	-0.193	-0.044
-518.916	704.120	-0.023	-0.060
-517.902	-148.576	-0.318	-0.026
-516.887	86.890	-0.177	-0.198
-515.872	800.000	-0.053	0.150
-514.858	14.352	0.325	0.257
-513.843	-200.000	-0.024	0.141
-512.829	117.877	0.156	0.195
-511.814	611.355	0.050	-0.128
-510.799	-61.791	0.089	-0.038
-509.785	-101.310	0.196	-0.049
-508.770	-148.973	-0.257	-0.021
-507.756	-63.587	0.162	-0.068
-506.741	-53.604	0.250	0.116
-505.726	147.538	-0.047	-0.064
-504.712	-99.807	0.223	-0.057
-503.697	10.738	0.300	-0.232
-502.683	-44.367	0.171	0.087
-501.668	-123.500	-0.144	-0.023
-500.653	-147.877	0.194	-0.016
-499.639	-200.000	-0.021	0.262
-498.624	800.000	-0.113	0.381
-497.610	-22.086	0.301	-0.185
-496.595	-50.629	-0.364	-0.174
-495.581	-200.000	0.018	0.271
-494.566	-200.000	0.014	-0.130
-493.551	-100.914	-0.137	0.034
-492.537	-141.284	-0.237	0.024
-491.522	-2.551	0.063	0.044
-490.508	278.966	-0.079	0.142
-489.493	-200.000	0.027	0.298
-488.478	-200.000	0.036	0.232
-487.464	-85.929	-0.177	-0.055
-486.449	-148.353	-0.441	0.037
-485.435	-106.589	-0.295	-0.066
-484.420	-8.258	-0.276	-0.188
-483.405	183.788	-0.015	0.022
-482.391	28.577	0.188	0.161
-481.376	57.883	-0.308	-0.305
-480.362	9.580	0.170	-0.130
-479.347	-200.000	-0.345	0.002
-478.332	157.474	0.106	0.149
-477.318	-70.048	0.365	-0.141
-476.303	85.555	-0.045	-0.050
-475.289	81.351	0.073	0.080
-474.274	-200.000	0.052	-0.397
-473.259	-200.000	-0.008	-0.137
-472.245	800.000	-0.048	0.194
-471.230	800.000	-0.108	0.310
-470.216	800.000	-0.036	0.127
-469.201	797.793	0.052	-0.144
-468.186	100.195	0.143	-0.168
-467.172	-146.217	-0.244	-0.022
-466.157	63.399	-0.298	-0.302
-465.143	501.960	-0.049	0.115
-464.128	223.937	-0.141	-0.230
-463.113	27.977	-0.100	-0.085
-462.099	-200.000	-0.034	-0.187
-461.084	-200.000	0.042	-0.263
-460.070	48.960	0.207	0.197
-459.055	-59.435	-0.289	0.126
-458.040	-111.941	-0.101	0.021
-457.026	-196.693	-0.011	0.000
-456.011	60.640	0.159	-0.159
-454.997	-91.774	0.049	0.014
-453.982	-200.000	0.007	0.095
-452.968	-200.000	-0.027	-0.244
-451.953	-70.856	-0.191	0.073
-450.938	33.828	-0.132	-0.116
-449.924	336.297	-0.095	-0.187
-448.909	417.479	-0.225	-0.487
-447.895	492.895	-0.034	0.079
-446.880	69.670	0.100	0.105
-445.865	-200.000	0.054	0.278
-444.851	440.774	0.056	-0.124
-443.836	75.960	-0.177	-0.189
-442.822	-50.323	-0.134	-0.064
-441.807	136.431	0.194	0.255
-440.792	-200.000	-0.004	0.038
-439.778	-82.835	-0.168	0.055
-438.763	760.020	0.080	-0.220
-437.749	78.279	0.213	-0.230
-436.734	-69.485	-0.392	-0.152
-435.719	-80.632	-0.109	0.037
-434.705	200.315	0.077	0.119
-433.690	800.000	0.083	-0.250
-432.676	-200.000	-0.059	0.272
-431.661	-200.000	0.003	0.088
-430.646	43.023	0.164	0.151
-429.632	-79.748	-0.315	0.107
-428.617	-67.346	0.230	-0.091
-427.603	124.108	0.151	0.191
-426.588	367.325	0.082	0.167
-425.573	-130.517	-0.217	-0.030
-424.559	-47.705	0.226	-0.111
-423.544	-200.000	-0.002	-0.217
-422.530	-200.000	0.034	-0.364
-421.515	101.506	0.201	0.236
-420.500	-22.433	-0.182	0.111
-419.486	227.728	0.091	-0.150
-418.471	-45.770	0.093	-0.046
-417.457	-112.872	0.249	-0.050
-416.442	363.095	0.175	-0.354
-415.428	221.153	-0.006	-0.010
-414.413	-200.000	-0.026	-0.212
-413.398	191.455	0.277	-0.420
-412.384	129.616	-0.074	0.095
-411.369	49.780	0.083	-0.078
-410.355	97.388	-0.215	-0.249
-409.340	-103.600	0.142	0.034
-408.325	313.684	-0.065	0.123
-407.311	-103.744	-0.337	-0.080
-406.296	79.385	0.152	0.164
-405.282	21.899	-0.169	0.139
-404.267	-112.966	-0.141	-0.028
-403.252	196.931	0.218	0.335
-402.238	434.229	0.054	0.118
-401.223	-36.751	0.054	0.029
-400.209	71.898	0.115	0.120
-399.194	117.173	-0.134	-0.166
-398.179	572.760	-0.026	0.064
-397.165	266.778	0.162	0.285
-396.150	-42.478	-0.170	-0.087
-395.136	-119.057	-0.261	-0.046
-394.121	-81.518	-0.305	0.101
-393.106	17.132	0.197	0.157
-392.092	-133.007	0.225	-0.029
-391.077	-34.197	-0.239	-0.132
-390.063	28.344	0.250	-0.213
-389.048	-52.523	-0.151	0.070
-388.033	-43.420	-0.222	0.113
-387.019	34.911	-0.174	-0.153
-386.004	-200.000	-0.025	0.275
-384.990	521.502	-0.051	0.121
-383.975	243.057	-0.131	0.222
-382.960	-200.000	0.003	0.098
-381.946	-105.726	-0.099	-0.022
-380.931	259.422	0.176	-0.306
-379.917	313.447	0.019	-0.036
-378.902	-25.719	-0.225	-0.134
-377.888	726.545	-0.097	0.260
-376.873	-135.017	-0.308	0.037
-375.858	-200.000	-0.054	-0.263
-374.844	-154.469	-0.251	-0.017
-373.829	25.675	-0.487	0.409
-372.815	-77.542	-0.178	-0.062
-371.800	-200.000	-0.004	0.269
-370.785	370.614	-0.142	0.290
-369.771	1.167	-0.047	0.034
-368.756	-170.004	0.262	0.009
-367.742	-56.659	0.195	0.087
-366.727	-200.000	0.002	-0.393
-365.712	42.374	-0.076	0.069
-364.698	-10.292	0.124	-0.083
-363.683	-177.698	0.228	0.006
-362.669	39.346	0.131	0.119
-361.654	45.084	0.084	-0.078
-360.639	-150.432	0.227	0.018
-359.625	-168.649	0.413	-0.016
-358.610	74.307	-0.103	0.109
-357.596	-185.415	0.341	-0.005
-356.581	449.898	0.097	-0.215
-355.566	-77.926	-0.144	-0.050
-354.552	800.000	-0.018	0.060
-353.537	234.644	0.023	0.039
-352.523	-167.193	-0.173	0.007
-351.508	-102.289	-0.365	-0.088
-350.493	797.295	0.051	0.141
-349.479	743.632	0.129	0.350
-348.464	-139.619	0.112	-0.012
-347.450	74.766	0.381	0.404
-346.435	21.569	-0.203	-0.166
-345.420	-54.087	0.143	-0.066
-344.406	-200.000	-0.019	-0.189
-343.391	167.048	0.229	-0.327
-342.377	-62.812	0.152	-0.063
-341.362	-147.591	-0.314	-0.027
-340.348	46.948	0.127	-0.119
-339.333	156.001	-0.093	-0.128
-338.318	-19.300	-0.113	-0.070
-337.304	-8.644	0.160	-0.108
-336.289	429.750	-0.103	-0.224
-335.275	800.000	-0.087	-0.297
-334.260	-200.000	0.029	-0.217
-333.245	-86.275	0.283	0.088
-332.231	88.455	-0.388	0.434
-331.216	794.435	-0.080	0.223
-330.202	-113.440	0.185	0.037
-329.187	20.196	0.166	0.135
-328.172	245.322	-0.111	-0.187
-327.158	731.604	-0.069	0.186
-326.143	0.487	0.555	0.399
-325.129	-148.686	-0.235	-0.019
-324.114	-200.000	0.047	-0.226
-323.099	800.000	0.084	0.330
-322.085	362.486	-0.117	0.236
-321.070	800.000	0.116	-0.368
-320.056	79.849	0.217	-0.235
-319.041	120.567	0.134	-0.168
-318.026	113.635	0.112	-0.136
-317.012	-200.000	-0.029	-0.386
-315.997	-31.798	0.226	0.128
-314.983	202.096	0.112	0.174
-313.968	767.756	0.034	0.092
-312.953	43.584	-0.256	-0.235
-311.939	800.000	-0.006	-0.020
-310.924	-107.023	-0.195	0.043
-309.910	9.035	-0.258	0.196
-308.895	-21.618	0.143	-0.087
-307.880	76.070	-0.098	-0.104
-306.866	-200.000	0.039	-0.379
-305.851	133.246	0.040	-0.052
-304.837	-61.968	0.230	0.096
-303.822	48.647	0.087	0.082
-302.807	-81.048	0.070	0.023
-301.793	-200.000	-0.054	-0.334
-300.778	-200.000	-0.024	-0.225
-299.764	-30.598	-0.204	-0.116
-298.749	-200.000	-0.011	-0.324
-297.735	-196.591	0.207	-0.001
-296.720	208.959	0.085	-0.134
-295.705	-70.519	-0.170	0.065
-294.691	-52.838	0.222	-0.103
-293.676	-55.734	0.221	-0.099
-292.662	193.576	0.172	-0.262
-291.647	800.000	-0.020	0.079
-290.632	734.269	-0.033	-0.090
-289.618	156.405	-0.180	-0.249
-288.603	59.029	0.062	0.061
-287.589	765.725	-0.109	0.297
-286.574	-122.036	-0.197	0.033
-285.559	112.774	0.264	0.321
-284.545	90.906	-0.227	0.256
-283.530	-51.769	-0.075	-0.035
-282.516	-200.000	0.013	-0.133
-281.501	-98.168	-0.165	-0.043
-280.486	183.260	0.068	0.101
-279.472	94.302	-0.222	0.253
-278.457	-200.000	0.006	0.115
-277.443	-105.785	0.208	0.047
-276.428	-169.286	0.098	0.004
-275.413	800.000	-0.044	0.190
-274.399	-81.222	-0.187	0.062
-273.384	-73.686	-0.196	-0.072
-272.370	-108.235	0.181	-0.039
-271.355	79.832	-0.190	0.205
-270.340	800.000	0.056	0.220
-269.326	-26.414	-0.192	0.113
-268.311	29.154	-0.391	0.333
-267.297	-200.000	0.003	0.181
-266.282	-41.955	0.124	-0.064
-265.267	-103.316	0.201	-0.047
-264.253	-124.794	0.314	0.049
-263.238	218.487	-0.107	0.172
-262.224	-180.618	-0.263	-0.005
-261.209	800.000	-0.062	0.226
-260.195	-46.699	-0.073	0.036
-259.180	686.447	-0.104	-0.273
-258.165	53.307	0.046	-0.044
-257.151	87.153	0.102	-0.113
-256.136	507.786	0.123	-0.287
-255.122	293.525	0.077	0.140
-254.107	93.273	0.097	-0.110
-253.092	-200.000	0.020	0.188
-252.078	-128.770	0.111	-0.016
-251.063	103.630	0.149	0.175
-250.049	-107.430	0.198	0.044
-249.034	-20.259	0.147	0.091
-248.019	113.010	-0.121	-0.147
-247.005	-127.374	0.084	0.012
-245.990	-200.000	0.022	-0.229
-244.976	71.095	-0.106	0.110
-243.961	-62.961	0.512	0.212
-242.946	-73.240	0.123	-0.045
-241.932	38.395	-0.179	0.160
-240.917	99.026	0.109	-0.126
-239.903	800.000	-0.042	-0.128
-238.888	-3.405	0.165	-0.115
-237.873	-110.356	0.258	0.054
-236.859	-200.000	-0.039	0.226
-235.844	21.270	0.252	-0.205
-234.830	-200.000	0.035	0.243
-233.815	-10.107	0.301	0.200
-232.800	28.133	0.143	-0.121
-231.786	-115.065	-0.234	-0.045
-230.771	529.633	-0.053	0.126
-229.757	194.556	-0.175	0.265
-228.742	-200.000	0.025	-0.144
-227.727	-94.223	-0.440	-0.121
-226.713	-200.000	0.033	-0.303
-225.698	-200.000	-0.073	-0.324
-224.684	-125.443	0.238	-0.036
-223.669	-80.102	0.181	-0.061
-222.655	-76.146	-0.380	-0.134
-221.640	-89.173	0.125	-0.037
-220.625	25.007	0.159	0.132
-219.611	179.951	0.152	0.223
-218.596	-200.000	-0.001	-0.058
-217.582	-0.490	0.340	-0.242
-216.567	-142.169	0.141	0.014
-215.552	-4.332	0.398	-0.276
-214.538	31.257	0.286	0.246
-213.523	-200.000	-0.013	-0.205
-212.509	-120.007	0.317	-0.054
-211.494	-78.102	0.408	-0.140
-210.479	177.629	-0.162	0.237
-209.465	184.101	0.010	0.015
-208.450	-16.805	0.193	-0.122
-207.436	-137.841	0.415	0.046
-206.421	-200.000	-0.028	0.145
-205.406	50.182	-0.266	0.251
-204.392	228.485	-0.107	-0.175
-203.377	81.593	-0.046	-0.050
-202.363	-200.000	-0.027	-0.155
-201.348	451.282	-0.171	-0.378
-200.333	229.531	0.106	-0.173
-199.319	432.807	0.087	0.189
-198.304	-0.438	0.279	0.199
-197.290	-200.000	0.021	0.100
-196.275	141.770	-0.188	-0.249
-195.260	201.300	-0.121	0.186
-194.246	112.992	0.070	0.085
-193.231	74.903	0.019	0.020
-192.217	-138.231	-0.157	-0.017
-191.202	315.041	0.225	0.424
-190.187	800.000	-0.053	0.215
-189.173	-95.479	-0.127	0.034
-188.158	-200.000	0.041	0.230
-187.144	800.000	-0.044	0.143
-186.129	8.625	-0.046	0.034
-185.114	-3.618	0.362	-0.252
-184.100	74.340	0.113	-0.119
-183.085	658.745	-0.107	-0.274
-182.071	370.277	-0.070	-0.141
-181.056	-189.233	-0.232	-0.003
-180.042	33.556	-0.159	0.139
-179.027	-98.505	0.219	-0.056
-178.012	-8.567	0.328	-0.220
-176.998	-200.000	-0.027	-0.198
-175.983	-69.060	0.106	-0.041
-174.969	-175.794	-0.368	0.010
-173.954	-62.412	-0.114	-0.047
-172.939	-94.547	0.241	-0.066
-171.925	-73.145	-0.046	-0.017
-170.910	-200.000	-0.001	-0.025
-169.896	-23.300	0.321	0.193
-168.881	109.140	-0.271	-0.325
-167.866	96.990	-0.283	-0.324
-166.852	728.577	0.082	0.220
-165.837	715.549	-0.079	-0.208
-164.823	-200.000	0.001	0.196
-163.808	-200.000	0.078	-0.449
-162.793	-19.416	-0.029	-0.018
-161.779	-70.174	0.283	-0.108
-160.764	-94.145	0.037	0.010
-159.750	-118.680	-0.054	0.010
-158.735	148.833	-0.119	0.161
-157.720	188.122	0.103	0.154
-156.706	-8.975	-0.068	0.046
-155.691	-86.394	-0.041	0.013
-154.677	800.000	-0.081	0.268
-153.662	800.000	-0.105	0.321
-152.647	-37.171	-0.111	-0.059
-151.633	-112.806	0.178	0.035
-150.618	19.990	-0.111	0.090
-149.604	-200.000	-0.013	0.394
-148.589	-159.547	-0.033	-0.002
-147.574	63.460	0.215	0.215
-146.560	378.228	-0.143	0.292
-145.545	-81.759	-0.164	0.054
-144.531	-200.000	-0.093	0.416
-143.516	-200.000	-0.004	0.218
-142.502	-88.235	0.165	0.049
-141.487	94.113	0.081	-0.092
-140.472	94.090	0.084	0.095
-139.458	-200.000	-0.065	0.320
-138.443	-200.000	-0.011	0.169
-137.429	-56.736	-0.298	-0.132
-136.414	234.974	0.170	-0.279
-135.399	129.018	-0.115	-0.146
-134.385	-97.870	-0.054	0.014
-133.370	92.231	-0.275	-0.310
-132.356	179.572	0.130	-0.191
-131.341	430.608	-0.061	0.131
-130.326	11.893	-0.289	-0.222
-129.312	-82.568	-0.434	-0.140
-128.297	-200.000	-0.003	-0.066
-127.283	635.287	-0.086	0.219
-126.268	-200.000	0.014	0.084
-125.253	-86.878	0.173	-0.053
-124.239	800.000	-0.092	-0.368
-123.224	312.619	0.015	0.028
-122.210	-11.621	-0.452	0.296
-121.195	-112.964	-0.335	-0.066
