DTS Sentinel unit serial number:	SN413079Multiplexer serial number:	ORYXHardware model number:	OX4-SRSoftware version number:	ORYX F/W v4.00 Oryx Data Collector v3.7.2.0data status	okinstallation	princeton_trtdifferential loss correction	single-endedforward channel	channel 4reverse channel	N/Adate	2019/09/11time	12:47:10forward acquisition time	60.00reverse acquisition time	0.00gamma	496.2192k internal	0.2284k external	0.2284temperature offset calibration	0.9965default loss term (dB/km)	0.3790temperature slope calibration	1.0000multiplexer offset coefficient	1.0000multiplexer slope coefficient	1.0000fibre end	0.00T internal ref (°C)	41.11T ext. ref 1 (°C)	0.24T ext. ref 2 (°C)	38.93length (m)	temperature (°C)	Stokes	anti-Stokes-747.200	-4.043	-0.028	-0.020
-746.185	-200.000	-0.061	0.287
-745.171	-107.478	0.024	0.005
-744.156	-200.000	-0.006	0.129
-743.142	-29.385	-0.044	0.026
-742.127	800.000	-0.114	0.341
-741.112	792.761	0.100	-0.282
-740.098	1.783	0.075	0.055
-739.083	-127.752	-0.214	-0.032
-738.069	315.005	0.205	0.397
-737.054	-200.000	-0.015	0.109
-736.039	44.836	-0.348	-0.329
-735.025	-200.000	-0.025	-0.200
-734.010	-184.200	-0.255	-0.004
-732.996	-77.070	-0.406	-0.145
-731.981	156.284	-0.174	-0.247
-730.966	-200.000	0.015	-0.512
-729.952	-82.831	-0.113	-0.037
-728.937	-71.298	-0.314	-0.121
-727.923	-182.530	0.210	0.004
-726.908	-106.826	-0.384	0.087
-725.894	-200.000	-0.007	-0.117
-724.879	119.264	-0.219	-0.278
-723.864	-200.000	0.009	-0.047
-722.850	-112.421	0.071	0.015
-721.835	-34.213	0.080	-0.045
-720.821	-200.000	-0.005	-0.484
-719.806	-200.000	0.001	-0.248
-718.791	-11.695	0.098	-0.066
-717.777	-200.000	-0.017	-0.173
-716.762	-200.000	0.005	0.112
-715.748	-121.324	-0.344	0.059
-714.733	59.218	-0.229	-0.231
-713.718	240.989	0.089	-0.152
-712.704	800.000	-0.072	-0.266
-711.689	-86.998	-0.083	-0.026
-710.675	-131.168	-0.028	0.004
-709.660	-180.212	0.183	0.004
-708.645	-200.000	-0.041	-0.196
-707.631	-200.000	-0.012	-0.090
-706.616	-129.086	-0.197	0.028
-705.602	76.693	0.193	0.210
-704.587	-200.000	-0.076	0.383
-703.572	800.000	0.079	0.283
-702.558	-200.000	-0.043	0.197
-701.543	-156.892	0.147	-0.009
-700.529	-36.579	0.200	0.110
-699.514	-200.000	-0.029	-0.171
-698.499	-142.082	-0.194	-0.020
-697.485	-3.832	0.211	0.150
-696.470	361.441	-0.133	-0.274
-695.456	142.995	-0.104	0.142
-694.441	-200.000	0.002	-0.179
-693.426	248.310	0.170	-0.295
-692.412	-43.371	-0.090	0.047
-691.397	177.473	-0.171	-0.256
-690.383	-66.180	0.237	0.097
-689.368	-27.305	-0.168	0.100
-688.354	39.496	0.117	-0.108
-687.339	-200.000	-0.018	0.142
-686.324	-94.691	0.231	-0.064
-685.310	-74.157	0.195	-0.072
-684.295	-200.000	-0.034	-0.187
-683.281	-200.000	-0.079	-0.442
-682.266	-200.000	-0.002	-0.132
-681.251	-200.000	-0.052	0.504
-680.237	666.562	0.044	0.118
-679.222	-40.701	-0.196	-0.104
-678.208	47.601	-0.221	-0.211
-677.193	10.996	-0.208	-0.163
-676.178	-12.851	0.038	-0.025
-675.164	-96.033	-0.212	0.058
-674.149	-145.224	0.255	0.024
-673.135	128.723	0.190	0.248
-672.120	10.722	0.237	-0.185
-671.105	-200.000	0.048	0.247
-670.091	17.155	-0.282	-0.229
-669.076	-2.380	-0.292	-0.210
-668.062	785.932	-0.083	-0.233
-667.047	-100.417	0.190	-0.048
-666.032	-200.000	0.022	-0.186
-665.018	412.372	-0.053	0.116
-664.003	131.285	-0.055	0.073
-662.989	-200.000	0.043	0.277
-661.974	-56.099	0.505	-0.230
-660.959	265.676	0.109	-0.194
-659.945	-25.608	0.147	-0.089
-658.930	15.605	-0.217	0.174
-657.916	-200.000	-0.032	-0.432
-656.901	-200.000	-0.021	-0.190
-655.886	245.361	-0.096	0.165
-654.872	43.997	-0.156	-0.147
-653.857	-70.140	0.281	-0.109
-652.843	800.000	-0.126	-0.534
-651.828	293.436	0.203	-0.380
-650.814	800.000	-0.057	-0.219
-649.799	13.312	-0.216	0.172
-648.784	-140.216	0.189	0.020
-647.770	665.044	0.112	-0.296
-646.755	123.135	-0.259	0.332
-645.741	82.259	-0.018	-0.020
-644.726	-85.299	0.079	-0.025
-643.711	800.000	-0.096	0.371
-642.697	800.000	0.023	-0.087
-641.682	-200.000	-0.005	-0.266
-640.668	89.178	-0.322	-0.367
-639.653	96.300	-0.186	-0.218
-638.638	-164.334	-0.213	-0.010
-637.624	27.023	-0.049	-0.042
-636.609	2.961	0.083	0.061
-635.595	30.536	-0.209	-0.183
-634.580	-200.000	-0.031	0.148
-633.565	-147.315	0.158	-0.014
-632.551	800.000	-0.068	0.243
-631.536	-200.000	-0.035	-0.186
-630.522	-110.429	-0.004	0.001
-629.507	-59.304	-0.156	0.068
-628.492	170.902	0.219	-0.320
-627.478	800.000	0.051	0.152
-626.463	-200.000	-0.013	-0.358
-625.449	800.000	-0.035	0.116
-624.434	-46.192	0.010	-0.005
-623.419	-115.918	0.069	-0.013
-622.405	58.976	-0.098	-0.098
-621.390	-200.000	-0.001	0.170
-620.376	-200.000	-0.028	-0.138
-619.361	26.238	-0.105	0.089
-618.346	-200.000	0.017	-0.242
-617.332	-102.919	-0.020	-0.005
-616.317	31.586	0.136	0.120
-615.303	-200.000	-0.019	-0.168
-614.288	-118.270	-0.144	-0.026
-613.273	-40.857	0.205	-0.109
-612.259	-90.806	0.054	0.016
-611.244	-200.000	-0.005	-0.119
-610.230	320.744	0.061	-0.118
-609.215	16.781	0.154	0.125
-608.201	68.064	0.163	-0.170
-607.186	48.547	0.102	-0.098
-606.171	-96.623	-0.475	-0.128
-605.157	-44.633	0.157	-0.080
-604.142	87.202	0.240	-0.272
-603.128	-40.877	-0.302	-0.159
-602.113	129.016	-0.051	0.066
-601.098	217.151	-0.106	-0.172
-600.084	-113.513	0.576	0.115
-599.069	-95.498	0.423	0.116
-598.055	-6.546	0.320	0.223
-597.040	800.000	-0.043	-0.142
-596.025	-200.000	-0.030	-0.146
-595.011	-120.764	0.017	0.003
-593.996	59.018	0.116	0.117
-592.982	-151.384	-0.291	0.022
-591.967	23.296	-0.169	-0.141
-590.952	-173.680	0.177	0.005
-589.938	52.784	-0.151	-0.147
-588.923	-125.965	0.382	0.059
-587.909	800.000	-0.078	-0.285
-586.894	-22.040	-0.028	0.017
-585.879	-160.245	-0.166	0.009
-584.865	24.721	-0.158	0.134
-583.850	278.492	-0.053	0.097
-582.836	-45.748	0.297	0.150
-581.821	800.000	-0.050	0.209
-580.806	66.998	-0.207	0.216
-579.792	-81.857	-0.081	0.027
-578.777	-125.235	0.092	-0.014
-577.763	220.235	-0.272	0.444
-576.748	-200.000	0.020	0.175
-575.733	-116.452	-0.149	0.028
-574.719	339.173	0.108	-0.214
-573.704	-200.000	-0.003	-0.109
-572.690	-200.000	-0.019	-0.121
-571.675	437.784	-0.024	-0.054
-570.661	-89.472	0.070	0.021
-569.646	180.469	-0.097	0.145
-568.631	-69.106	-0.425	-0.167
-567.617	-54.686	0.134	-0.062
-566.602	-119.393	0.165	0.029
-565.588	8.905	0.177	-0.136
-564.573	-28.151	0.171	0.101
-563.558	-200.000	0.035	-0.211
-562.544	72.019	-0.166	-0.176
-561.529	-86.793	0.140	-0.044
-560.515	800.000	-0.034	0.117
-559.500	-118.098	0.171	0.031
-558.485	49.104	0.069	-0.066
-557.471	133.813	0.154	-0.203
-556.456	679.228	0.052	-0.139
-555.442	64.273	0.193	0.198
-554.427	-200.000	0.008	0.077
-553.412	-200.000	-0.010	0.184
-552.398	-112.671	-0.322	-0.065
-551.383	329.819	-0.093	-0.183
-550.369	800.000	-0.052	0.225
-549.354	-200.000	-0.002	-0.144
-548.339	176.126	0.145	-0.215
-547.325	147.796	0.080	-0.111
-546.310	-97.890	0.561	0.148
-545.296	-196.802	-0.139	-0.001
-544.281	35.561	-0.146	0.130
-543.266	800.000	0.034	-0.110
-542.252	-133.797	0.296	0.038
-541.237	-69.780	0.215	-0.084
-540.223	-200.000	0.047	0.286
-539.208	-200.000	-0.009	-0.119
-538.193	-200.000	0.020	-0.095
-537.179	-103.623	-0.259	-0.062
-536.164	-79.972	0.222	-0.076
-535.150	-104.638	0.298	-0.070
-534.135	219.829	-0.154	-0.250
-533.121	-35.584	-0.212	-0.117
-532.106	-5.132	0.236	-0.166
-531.091	-200.000	-0.234	0.000
-530.077	334.389	-0.113	0.222
-529.062	-149.496	-0.422	0.034
-528.048	800.000	0.111	0.382
-527.033	-127.774	-0.372	0.055
-526.018	-200.000	-0.036	-0.192
-525.004	-34.640	0.258	0.144
-523.989	72.835	0.214	0.228
-522.975	211.930	-0.095	0.153
-521.960	-17.971	0.235	-0.150
-520.945	-200.000	0.010	-0.310
-519.931	-200.000	0.046	-0.364
-518.916	-200.000	0.043	-0.231
-517.902	706.540	0.069	0.185
-516.887	33.427	-0.249	0.220
-515.872	191.274	-0.060	-0.092
-514.858	76.253	-0.188	0.203
-513.843	603.851	-0.098	-0.248
-512.829	-200.000	-0.035	-0.195
-511.814	800.000	-0.033	-0.094
-510.799	-85.599	-0.157	0.050
-509.785	-24.071	0.253	-0.154
-508.770	116.782	0.089	0.112
-507.756	252.408	-0.065	-0.113
-506.741	-200.000	0.012	0.388
-505.726	8.655	-0.294	-0.225
-504.712	-71.730	-0.119	0.045
-503.697	259.382	-0.055	0.096
-502.683	-34.451	0.122	0.068
-501.668	-71.051	-0.301	0.115
-500.653	46.968	0.092	0.087
-499.639	184.455	0.163	-0.246
-498.624	114.312	0.099	-0.122
-497.610	-147.095	-0.166	-0.014
-496.595	442.599	0.040	-0.089
-495.581	800.000	0.107	-0.334
-494.566	-136.935	-0.223	-0.026
-493.551	-59.788	0.071	0.031
-492.537	-33.488	0.386	0.217
-491.522	-72.650	-0.303	0.114
-490.508	89.676	0.116	-0.132
-489.493	-191.947	0.217	-0.002
-488.478	800.000	0.088	-0.298
-487.464	-200.000	0.062	-0.506
-486.449	-200.000	-0.003	-0.030
-485.435	38.629	-0.117	-0.106
-484.420	520.312	-0.074	0.177
-483.405	164.450	0.065	-0.093
-482.391	27.647	0.078	-0.067
-481.376	660.439	0.065	0.170
-480.362	800.000	-0.075	0.325
-479.347	-74.225	-0.087	0.032
-478.332	268.418	0.250	0.445
-477.318	-80.483	-0.223	0.076
-476.303	-200.000	-0.025	-0.192
-475.289	-45.161	0.142	0.072
-474.274	336.894	-0.019	-0.037
-473.259	-25.830	0.342	0.205
-472.245	-180.215	-0.157	0.003
-471.230	-200.000	-0.031	-0.141
-470.216	259.447	-0.131	0.230
-469.201	147.365	0.058	-0.080
-468.186	-199.066	-0.369	0.002
-467.172	46.302	0.258	0.243
-466.157	101.736	0.145	0.171
-465.143	87.979	0.191	0.215
-464.128	111.680	0.104	0.127
-463.113	48.894	-0.202	-0.192
-462.099	-139.178	-0.198	-0.022
-461.084	-200.000	0.015	0.261
-460.070	-138.762	0.233	-0.026
-459.055	800.000	-0.069	0.197
-458.040	-6.081	-0.293	0.204
-457.026	17.011	0.169	0.136
-456.011	-200.000	0.000	-0.003
-454.997	-112.016	0.080	-0.016
-453.982	97.762	-0.240	-0.280
-452.968	-81.124	0.049	-0.017
-451.953	65.258	0.169	0.173
-450.938	44.573	0.161	-0.150
-449.924	7.956	-0.173	0.132
-448.909	-52.302	0.500	0.235
-447.895	800.000	0.072	-0.201
-446.880	-51.941	-0.198	0.094
-445.865	408.670	-0.143	-0.308
-444.851	164.853	0.173	0.248
-443.836	175.254	0.152	-0.223
-442.822	-67.412	-0.145	0.058
-441.807	346.146	-0.188	-0.375
-440.792	212.844	-0.078	-0.125
-439.778	-45.783	0.259	0.130
-438.763	-157.022	-0.305	-0.019
-437.749	-200.000	-0.022	0.190
-436.734	-200.000	-0.001	-0.109
-435.719	72.115	0.139	-0.147
-434.705	346.447	0.026	0.052
-433.690	29.105	0.130	0.112
-432.676	-85.813	0.156	0.049
-431.661	488.177	0.097	-0.224
-430.646	103.428	-0.119	0.141
-429.632	23.351	-0.158	0.132
-428.617	-200.000	0.006	-0.333
-427.603	75.376	-0.035	-0.037
-426.588	-43.962	-0.364	-0.186
-425.573	800.000	-0.027	0.097
-424.559	-49.830	-0.271	-0.131
-423.544	-28.064	-0.233	0.137
-422.530	108.483	-0.131	0.159
-421.515	552.797	-0.099	0.242
-420.500	132.203	-0.112	0.147
-419.486	-132.115	-0.249	0.033
-418.471	-200.000	-0.028	-0.144
-417.457	10.348	0.073	0.056
-416.442	-70.630	0.097	0.037
-415.428	800.000	-0.067	-0.239
-414.413	122.289	0.303	0.384
-413.398	800.000	-0.050	0.181
-412.384	-56.861	0.216	-0.097
-411.369	174.273	0.222	-0.325
-410.355	99.946	-0.102	-0.120
-409.340	192.652	-0.195	0.298
-408.325	166.596	-0.083	0.120
-407.311	-200.000	-0.045	-0.436
-406.296	-200.000	-0.050	0.233
-405.282	800.000	0.029	0.081
-404.267	-200.000	0.051	0.386
-403.252	-76.949	0.097	0.034
-402.238	-68.252	0.029	-0.011
-401.223	-107.617	0.402	-0.089
-400.209	21.805	-0.101	-0.083
-399.194	161.415	0.119	0.169
-398.179	800.000	0.111	0.430
-397.165	-72.272	-0.343	0.129
-396.150	174.613	-0.168	0.246
-395.136	-56.703	0.168	0.075
-394.121	20.948	0.248	-0.204
-393.106	-53.899	0.119	-0.055
-392.092	36.680	-0.297	0.266
-391.077	-49.875	-0.277	0.133
-390.063	82.321	-0.071	0.078
-389.048	-193.273	-0.161	0.001
-388.033	-81.499	-0.173	-0.058
-387.019	-39.660	0.134	0.071
-386.004	45.245	-0.113	-0.105
-384.990	-23.989	-0.247	-0.150
-383.975	-163.853	-0.496	-0.023
-382.960	-56.183	0.161	-0.073
-381.946	-35.263	0.215	-0.118
-380.931	-200.000	-0.003	-0.121
-379.917	-8.485	0.062	0.042
-378.902	-200.000	-0.001	0.043
-377.888	-60.299	-0.125	0.054
-376.873	413.950	0.046	0.100
-375.858	-155.889	-0.157	0.010
-374.844	800.000	-0.030	0.128
-373.829	15.027	0.126	0.100
-372.815	-200.000	0.000	0.071
-371.800	-200.000	0.026	0.219
-370.785	97.118	-0.122	0.142
-369.771	16.370	-0.032	-0.026
-368.756	169.010	0.266	-0.384
-367.742	125.714	0.137	-0.174
-366.727	76.508	-0.085	0.091
-365.712	-53.141	-0.111	-0.052
-364.698	800.000	-0.071	0.280
-363.683	-91.755	-0.076	0.022
-362.669	-85.737	0.057	-0.018
-361.654	-187.165	0.155	0.002
-360.639	-28.457	0.163	0.095
-359.625	2.604	-0.325	-0.238
-358.610	499.885	0.088	-0.205
-357.596	-200.000	-0.026	0.265
-356.581	229.490	-0.266	-0.440
-355.566	-200.000	-0.024	-0.200
-354.552	-200.000	-0.010	-0.283
-353.537	-200.000	-0.003	0.235
-352.523	206.074	0.179	0.281
-351.508	-115.537	0.135	-0.026
-350.493	-93.821	-0.110	-0.031
-349.479	164.068	0.145	-0.207
-348.464	-157.298	0.124	-0.008
-347.450	118.256	-0.124	0.154
-346.435	-200.000	-0.001	0.111
-345.420	-134.451	-0.076	0.009
-344.406	159.903	-0.156	0.220
-343.391	120.653	0.216	-0.271
-342.377	388.665	-0.088	0.183
-341.362	434.014	-0.057	-0.125
-340.348	588.366	0.073	0.183
-339.333	29.621	-0.215	0.185
-338.318	-192.773	0.518	-0.005
-337.304	624.428	-0.064	-0.162
-336.289	-16.011	0.339	-0.218
-335.275	-7.506	0.195	-0.133
-334.260	100.703	-0.185	-0.217
-333.245	55.190	-0.106	-0.103
-332.231	141.496	-0.069	-0.092
-331.216	-200.000	0.018	0.097
-330.202	-200.000	-0.039	0.287
-329.187	-71.509	-0.409	0.155
-328.172	800.000	-0.096	0.322
-327.158	-200.000	0.011	-0.160
-326.143	100.203	0.177	-0.208
-325.129	-53.112	-0.585	0.272
-324.114	347.824	0.127	0.253
-323.099	-97.381	-0.142	0.037
-322.085	93.863	0.099	0.114
-321.070	800.000	-0.069	0.279
-320.056	-59.558	-0.196	0.085
-319.041	-29.596	-0.030	-0.017
-318.026	-43.347	0.262	0.134
-317.012	148.518	-0.059	-0.080
-315.997	272.699	-0.197	-0.351
-314.983	158.662	-0.063	-0.088
-313.968	142.782	-0.032	-0.043
-312.953	-78.774	0.191	-0.066
-311.939	-142.833	-0.241	0.024
-310.924	-106.977	0.293	-0.066
-309.910	235.971	-0.070	-0.117
-308.895	-64.758	-0.226	0.092
-307.880	-33.282	0.140	0.078
-306.866	-71.468	-0.291	-0.110
-305.851	-100.563	-0.082	0.021
-304.837	1.612	0.170	-0.124
-303.822	221.410	-0.034	0.055
-302.807	19.918	0.227	-0.185
-301.793	-200.000	-0.036	-0.195
-300.778	-200.000	0.064	0.290
-299.764	800.000	0.016	-0.057
-298.749	-200.000	0.003	0.051
-297.735	800.000	-0.011	-0.033
-296.720	387.398	-0.102	0.213
-295.705	262.406	-0.198	0.347
-294.691	-11.137	0.310	-0.206
-293.676	37.694	-0.078	0.070
-292.662	240.829	-0.121	-0.204
-291.647	-200.000	-0.003	-0.116
-290.632	-147.327	-0.006	-0.001
-289.618	800.000	-0.061	-0.247
-288.603	-56.849	0.494	-0.220
-287.589	72.776	-0.128	0.135
-286.574	-98.269	-0.361	0.094
-285.559	-72.559	0.045	-0.017
-284.545	346.127	-0.093	-0.184
-283.530	-200.000	0.015	-0.146
-282.516	-38.536	0.290	0.155
-281.501	-200.000	-0.005	-0.029
-280.486	262.905	0.128	-0.225
-279.472	416.043	0.058	0.125
-278.457	250.590	-0.033	-0.056
-277.443	-161.989	-0.066	0.003
-276.428	102.182	-0.207	0.244
-275.413	-127.798	0.178	0.026
-274.399	85.501	-0.031	0.034
-273.384	-47.169	-0.171	0.084
-272.370	-200.000	-0.035	-0.336
-271.355	-164.558	0.164	0.008
-270.340	32.103	-0.294	-0.256
-269.326	40.281	-0.074	-0.067
-268.311	-39.913	-0.186	0.098
-267.297	-169.072	-0.116	-0.004
-266.282	-200.000	-0.030	0.181
-265.267	187.628	0.174	0.262
-264.253	124.167	0.193	-0.245
-263.238	34.542	0.438	-0.386
-262.224	-74.826	-0.065	-0.024
-261.209	81.042	0.162	0.177
-260.195	800.000	0.039	-0.115
-259.180	85.431	-0.248	-0.274
-258.165	-68.508	0.076	0.030
-257.151	-5.735	0.159	0.110
-256.136	627.030	0.056	0.143
-255.122	-190.696	-0.271	0.003
-254.107	-19.038	-0.166	-0.104
-253.092	452.568	0.071	-0.157
-252.078	25.362	0.087	0.073
-251.063	-152.621	0.349	0.025
-250.049	314.977	0.112	0.213
-249.034	800.000	0.057	-0.211
-248.019	-29.685	-0.308	0.177
-247.005	-20.399	-0.262	0.162
-245.990	46.656	0.260	0.243
-244.976	282.073	0.109	-0.197
-243.961	237.747	-0.190	-0.317
-242.946	-147.838	-0.253	0.021
-241.932	274.736	0.102	-0.182
-240.917	800.000	-0.095	0.305
-239.903	-200.000	-0.048	-0.253
-238.888	-18.375	-0.077	0.049
-237.873	-58.612	0.380	0.166
-236.859	-200.000	0.018	-0.119
-235.844	179.235	-0.258	0.380
-234.830	557.765	0.124	0.301
-233.815	800.000	-0.045	0.171
-232.800	-57.673	-0.128	0.057
-231.786	800.000	0.040	0.116
-230.771	-7.080	0.308	-0.211
-229.757	-161.629	-0.073	-0.004
-228.742	-0.923	0.066	0.047
-227.727	-16.432	0.090	0.057
-226.713	-121.720	0.376	0.063
-225.698	198.384	-0.064	-0.099
-224.684	800.000	-0.099	0.345
-223.669	221.214	0.099	-0.159
-222.655	13.996	0.397	-0.311
-221.640	245.288	0.146	0.246
-220.625	-32.556	0.350	-0.196
-219.611	-200.000	-0.040	-0.266
-218.596	120.817	-0.091	0.114
-217.582	270.425	-0.077	0.137
-216.567	800.000	-0.034	0.148
-215.552	800.000	-0.107	0.446
-214.538	-27.919	0.228	0.133
-213.523	-159.763	0.183	0.010
-212.509	-149.833	0.514	0.041
-211.494	-200.000	-0.010	-0.231
-210.479	800.000	0.091	0.358
-209.465	-200.000	0.076	0.440
-208.450	-200.000	-0.003	0.070
-207.436	-195.288	-0.344	0.003
-206.421	800.000	-0.082	0.253
-205.406	-131.657	0.080	0.011
-204.392	298.186	0.087	-0.161
-203.377	236.092	0.237	-0.393
-202.363	393.447	0.017	-0.036
-201.348	38.388	-0.194	0.174
-200.333	103.665	0.285	0.336
-199.319	222.875	-0.096	0.156
-198.304	226.882	0.062	-0.101
-197.290	785.470	-0.050	0.138
-196.275	-109.843	0.019	0.004
-195.260	-44.981	0.129	-0.065
-194.246	152.478	0.055	0.076
-193.231	-53.470	0.106	-0.049
-192.217	800.000	0.073	-0.206
-191.202	-10.307	0.253	-0.169
-190.187	162.373	-0.254	-0.358
-189.173	-200.000	-0.006	0.141
-188.158	-97.182	0.130	-0.034
-187.144	97.076	-0.124	0.143
-186.129	110.027	0.163	0.197
-185.114	21.644	0.119	-0.098
-184.100	53.800	-0.138	-0.133
-183.085	-48.064	0.150	-0.073
-182.071	800.000	-0.120	0.351
-181.056	-200.000	0.043	-0.214
-180.042	-128.056	-0.258	0.037
-179.027	79.144	0.086	0.093
-178.012	18.569	-0.093	-0.075
-176.998	-85.515	-0.256	-0.080
-175.983	-200.000	-0.029	-0.161
-174.969	-200.000	-0.078	0.436
-173.954	800.000	0.065	0.276
-172.939	637.496	-0.053	-0.136
-171.925	-33.712	-0.239	-0.132
-170.910	800.000	-0.064	-0.239
-169.896	-48.333	0.050	0.024
-168.881	-29.183	-0.308	-0.177
-167.866	-183.573	-0.500	-0.009
-166.852	238.301	0.171	-0.285
-165.837	-117.414	-0.268	0.049
-164.823	404.908	-0.033	-0.069
-163.808	66.469	0.202	-0.207
-162.793	288.239	-0.169	0.307
-161.779	-12.290	0.235	-0.154
-160.764	704.300	0.156	-0.414
-159.750	800.000	-0.111	-0.315
-158.735	-110.775	0.216	0.045
-157.720	-189.986	-0.438	-0.005
-156.706	-200.000	0.003	0.177
-155.691	724.818	0.068	0.183
-154.677	32.153	0.319	0.276
-153.662	-98.899	-0.157	0.040
-152.647	228.680	0.122	-0.199
-151.633	-134.576	0.246	0.030
-150.618	-19.932	-0.101	0.063
-149.604	153.353	-0.082	-0.112
-148.589	-40.350	-0.399	0.208
-147.574	-149.185	-0.207	-0.017
-146.560	145.878	-0.219	-0.295
-145.545	-65.538	-0.278	-0.112
-144.531	23.516	-0.397	0.328
-143.516	98.370	-0.052	0.060
-142.502	164.975	-0.133	-0.189
-141.487	800.000	-0.030	-0.106
-140.472	-158.062	0.448	0.026
-139.458	-142.511	0.098	-0.010
-138.443	102.983	0.052	-0.061
-137.429	-137.448	-0.357	-0.040
-136.414	-200.000	0.013	-0.185
-135.399	6.468	-0.233	-0.174
-134.385	-181.298	0.064	0.001
-133.370	-16.641	-0.141	-0.089
-132.356	82.028	0.158	0.172
-131.341	800.000	-0.082	0.314
-130.326	-200.000	0.027	0.429
-129.312	4.014	0.100	-0.074
-128.297	417.510	-0.037	-0.080
-127.283	-138.421	-0.101	-0.011
-126.268	-84.533	-0.228	0.072
-125.253	-90.727	0.237	0.069
-124.239	-200.000	0.014	-0.071
-123.224	187.292	-0.131	-0.196
-122.210	15.896	0.127	-0.100
