DTS Sentinel unit serial number:	SN413079Multiplexer serial number:	ORYXHardware model number:	OX4-SRSoftware version number:	ORYX F/W v4.00 Oryx Data Collector v3.7.2.0data status	okinstallation	princeton_trtdifferential loss correction	single-endedforward channel	channel 4reverse channel	N/Adate	2019/09/11time	15:11:11forward acquisition time	60.00reverse acquisition time	0.00gamma	496.2192k internal	0.2278k external	0.2278temperature offset calibration	1.0011default loss term (dB/km)	0.3790temperature slope calibration	1.0000multiplexer offset coefficient	1.0000multiplexer slope coefficient	1.0000fibre end	0.00T internal ref (°C)	43.00T ext. ref 1 (°C)	0.96T ext. ref 2 (°C)	36.83length (m)	temperature (°C)	Stokes	anti-Stokes-747.200	-5.968	-0.174	0.122
-746.185	-35.959	-0.196	0.109
-745.171	-106.493	0.345	0.079
-744.156	-200.000	0.048	0.515
-743.142	520.731	-0.120	-0.291
-742.127	686.921	-0.029	-0.079
-741.112	-200.000	-0.000	0.115
-740.098	-200.000	0.017	0.191
-739.083	119.610	-0.077	-0.098
-738.069	-9.158	-0.105	0.072
-737.054	-63.480	0.124	0.052
-736.039	302.299	-0.197	0.374
-735.025	-200.000	-0.009	0.336
-734.010	-36.212	0.231	-0.128
-732.996	88.402	-0.104	-0.118
-731.981	569.671	0.136	-0.341
-730.966	800.000	-0.019	-0.069
-729.952	-30.885	0.155	0.090
-728.937	-100.732	-0.060	0.015
-727.923	-42.920	0.157	0.082
-726.908	800.000	0.058	-0.232
-725.894	-160.226	-0.266	-0.015
-724.879	-37.342	-0.123	-0.067
-723.864	800.000	-0.130	-0.418
-722.850	-200.000	-0.033	-0.223
-721.835	411.110	0.155	-0.338
-720.821	-16.860	0.207	-0.135
-719.806	800.000	-0.011	0.038
-718.791	11.439	-0.083	0.065
-717.777	129.092	-0.077	-0.102
-716.762	-200.000	-0.013	-0.080
-715.748	91.305	0.202	-0.233
-714.733	113.573	-0.118	-0.147
-713.718	-60.966	0.148	0.064
-712.704	-71.168	-0.294	-0.114
-711.689	-165.145	0.108	0.005
-710.675	-61.878	0.334	0.144
-709.660	-43.704	0.230	-0.119
-708.645	-32.193	0.204	-0.117
-707.631	-200.000	0.032	-0.165
-706.616	-40.368	-0.100	-0.053
-705.602	-200.000	0.025	0.177
-704.587	-76.457	-0.228	0.083
-703.572	101.761	-0.094	0.113
-702.558	20.168	0.262	0.217
-701.543	-121.929	0.109	0.018
-700.529	-104.518	0.250	-0.059
-699.514	378.355	-0.088	-0.184
-698.499	-129.441	-0.174	-0.025
-697.485	409.459	-0.088	-0.191
-696.470	127.863	-0.331	-0.432
-695.456	78.122	0.244	-0.267
-694.441	676.119	0.091	-0.243
-693.426	260.848	0.131	0.233
-692.412	-70.637	-0.521	-0.202
-691.397	-11.369	0.226	0.153
-690.383	180.794	-0.130	-0.197
-689.368	60.067	-0.065	0.066
-688.354	800.000	-0.137	-0.498
-687.339	192.571	0.156	-0.243
-686.324	610.375	-0.026	-0.066
-685.310	800.000	-0.017	-0.051
-684.295	-30.306	-0.189	0.110
-683.281	-98.872	-0.236	-0.062
-682.266	512.067	0.165	0.395
-681.251	19.975	0.095	-0.079
-680.237	-200.000	-0.279	0.001
-679.222	20.591	0.220	-0.183
-678.208	-18.065	-0.105	-0.067
-677.193	-200.000	0.028	0.233
-676.178	-200.000	0.057	-0.280
-675.164	5.139	0.234	0.177
-674.149	138.089	-0.107	-0.145
-673.135	26.030	-0.219	0.187
-672.120	-121.425	0.182	0.031
-671.105	544.733	0.049	0.119
-670.091	-200.000	-0.008	0.057
-669.076	456.499	-0.140	-0.319
-668.062	-127.210	-0.210	0.032
-667.047	-127.249	-0.139	0.021
-666.032	170.146	-0.130	-0.190
-665.018	-133.197	-0.267	0.035
-664.003	309.988	-0.022	-0.042
-662.989	-121.945	0.231	0.039
-661.974	-200.000	-0.049	-0.380
-660.959	800.000	-0.107	-0.336
-659.945	467.483	0.098	-0.226
-658.930	-102.263	0.198	-0.049
-657.916	-200.000	-0.109	-0.492
-656.901	-103.231	-0.210	0.051
-655.886	-85.536	-0.369	-0.118
-654.872	626.399	-0.183	-0.473
-653.857	237.232	-0.127	-0.215
-652.843	-200.000	0.035	-0.313
-651.828	-128.870	-0.166	0.024
-650.814	-95.071	-0.183	-0.051
-649.799	-200.000	-0.056	0.293
-648.784	-122.845	-0.241	-0.040
-647.770	800.000	-0.087	-0.365
-646.755	-200.000	-0.003	-0.179
-645.741	-69.477	0.186	0.073
-644.726	-76.291	0.182	-0.066
-643.711	-7.027	-0.143	-0.100
-642.697	-67.187	-0.202	-0.082
-641.682	49.918	0.085	-0.083
-640.668	-122.550	0.379	-0.063
-639.653	2.895	0.111	-0.083
-638.638	37.019	-0.217	0.197
-637.624	-88.988	-0.286	0.087
-636.609	800.000	-0.056	0.208
-635.595	800.000	0.040	-0.121
-634.580	800.000	-0.062	0.251
-633.565	800.000	0.087	-0.305
-632.551	303.413	-0.062	-0.118
-631.536	98.852	-0.197	-0.233
-630.522	-200.000	0.000	0.237
-629.507	468.605	-0.062	-0.143
-628.492	-33.703	-0.194	0.110
-627.478	11.202	-0.150	-0.118
-626.463	68.262	-0.055	-0.057
-625.449	800.000	-0.042	-0.149
-624.434	271.027	0.072	-0.129
-623.419	10.052	0.198	-0.154
-622.405	-116.128	-0.095	-0.018
-621.390	101.414	0.057	-0.069
-620.376	-125.084	-0.351	0.055
-619.361	-200.000	-0.007	0.100
-618.346	800.000	-0.029	-0.089
-617.332	51.245	0.137	0.133
-616.317	-87.527	0.207	0.064
-615.303	0.213	0.045	0.033
-614.288	40.472	-0.385	-0.355
-613.273	-104.755	0.242	0.057
-612.259	53.036	0.244	-0.239
-611.244	-0.350	-0.173	0.126
-610.230	-39.498	0.313	0.168
-609.215	746.415	-0.084	0.231
-608.201	68.024	-0.251	0.263
-607.186	-135.408	0.090	-0.011
-606.171	800.000	-0.027	0.117
-605.157	-40.552	0.043	0.023
-604.142	456.538	-0.130	-0.296
-603.128	356.868	-0.134	0.274
-602.113	-16.156	-0.234	0.153
-601.098	-200.000	-0.048	0.433
-600.084	470.904	0.076	0.174
-599.069	-67.531	0.110	-0.044
-598.055	-200.000	-0.036	-0.198
-597.040	26.928	0.057	-0.049
-596.025	-14.332	-0.170	-0.112
-595.011	-24.027	-0.209	0.128
-593.996	-38.838	0.274	-0.148
-592.982	-184.906	0.149	-0.002
-591.967	-14.191	0.196	0.129
-590.952	-118.314	-0.185	0.034
-589.938	493.083	0.017	-0.041
-588.923	494.940	-0.069	-0.163
-587.909	-200.000	0.009	-0.201
-586.894	800.000	0.064	-0.251
-585.879	-68.229	0.136	-0.054
-584.865	-158.488	0.087	0.005
-583.850	-107.815	-0.228	-0.051
-582.836	-200.000	0.050	-0.441
-581.821	71.914	0.147	-0.157
-580.806	222.079	0.059	-0.096
-579.792	800.000	0.041	0.140
-578.777	-165.346	-0.265	-0.012
-577.763	-36.570	-0.228	0.125
-576.748	73.011	-0.269	0.288
-575.733	106.922	-0.087	0.105
-574.719	-200.000	-0.009	0.039
-573.704	185.264	0.118	-0.180
-572.690	-13.121	-0.119	-0.079
-571.675	400.904	0.105	0.225
-570.661	226.453	0.081	0.134
-569.646	-103.943	-0.376	0.090
-568.631	172.996	-0.083	0.123
-567.617	130.490	0.086	-0.113
-566.602	4.657	0.478	0.359
-565.588	99.736	-0.223	0.265
-564.573	-178.652	0.118	0.003
-563.558	800.000	0.080	0.252
-562.544	-2.366	-0.246	0.176
-561.529	336.825	-0.070	0.140
-560.515	-86.522	-0.176	0.055
-559.500	-74.874	-0.380	0.139
-558.485	-119.317	0.106	-0.019
-557.471	52.625	0.168	0.164
-556.456	8.292	0.229	-0.176
-555.442	52.064	-0.232	-0.226
-554.427	-200.000	0.027	0.257
-553.412	325.241	0.049	0.096
-552.398	800.000	-0.019	-0.064
-551.383	663.032	-0.073	0.193
-550.369	676.521	0.081	0.216
-549.354	29.439	0.099	0.086
-548.339	800.000	0.008	-0.029
-547.325	-52.683	0.196	-0.092
-546.310	800.000	0.108	-0.364
-545.296	-64.738	-0.351	-0.145
-544.281	348.965	0.060	0.121
-543.266	-200.000	0.021	-0.380
-542.252	-133.449	-0.154	0.020
-541.237	428.839	0.077	-0.171
-540.223	103.890	-0.247	-0.296
-539.208	-95.270	-0.104	0.029
-538.193	358.415	-0.138	0.282
-537.179	-200.000	-0.019	0.266
-536.164	-109.732	-0.079	0.017
-535.150	-151.436	0.306	-0.023
-534.135	46.873	0.114	-0.108
-533.121	-23.647	-0.232	-0.142
-532.106	-48.281	0.314	-0.155
-531.091	-141.107	0.146	-0.015
-530.077	-88.484	-0.123	-0.037
-529.062	108.701	0.187	0.228
-528.048	92.232	-0.166	-0.191
-527.033	317.330	-0.061	0.118
-526.018	-91.883	-0.447	-0.129
-525.004	-200.000	-0.009	0.173
-523.989	800.000	0.044	0.125
-522.975	-200.000	0.000	0.020
-521.960	-200.000	-0.001	0.246
-520.945	-129.556	0.106	0.015
-519.931	-18.021	-0.249	-0.159
-518.916	-128.776	-0.212	0.031
-517.902	-200.000	0.017	-0.381
-516.887	170.328	0.114	-0.167
-515.872	48.387	-0.098	0.094
-514.858	-200.000	0.029	-0.260
-513.843	-200.000	-0.012	0.131
-512.829	800.000	0.047	0.154
-511.814	-138.910	-0.273	-0.030
-510.799	146.103	-0.074	-0.102
-509.785	-10.586	0.270	-0.182
-508.770	447.916	-0.082	-0.184
-507.756	157.887	0.068	-0.097
-506.741	-121.377	0.048	0.008
-505.726	9.764	-0.062	-0.048
-504.712	-200.000	-0.018	0.222
-503.697	-112.957	-0.027	0.005
-502.683	-200.000	-0.049	0.247
-501.668	206.106	0.101	0.160
-500.653	-161.996	-0.392	0.020
-499.639	-70.314	0.094	-0.036
-498.624	-94.528	0.039	-0.011
-497.610	447.430	-0.087	-0.195
-496.595	-88.390	0.159	-0.048
-495.581	-70.676	0.254	-0.098
-494.566	-153.219	0.430	0.031
-493.551	-88.841	0.222	0.067
-492.537	-17.693	-0.150	0.096
-491.522	-192.897	0.060	0.001
-490.508	-55.773	0.062	-0.028
-489.493	-200.000	-0.106	0.000
-488.478	164.089	-0.125	-0.179
-487.464	412.754	0.089	-0.193
-486.449	-109.504	0.234	0.050
-485.435	83.803	-0.199	-0.222
-484.420	-68.091	0.253	0.101
-483.405	261.055	0.142	0.250
-482.391	-200.000	0.024	-0.189
-481.376	-200.000	0.026	-0.293
-480.362	35.081	0.104	-0.092
-479.347	-200.000	0.055	0.289
-478.332	0.436	0.122	0.089
-477.318	484.067	-0.101	-0.235
-476.303	249.959	-0.122	-0.210
-475.289	463.425	-0.126	0.287
-474.274	-104.691	-0.168	-0.039
-473.259	-200.000	0.037	0.314
-472.245	6.483	-0.236	-0.179
-471.230	800.000	-0.094	-0.366
-470.216	504.178	-0.096	0.227
-469.201	800.000	-0.076	-0.216
-468.186	74.570	-0.183	-0.196
-467.172	268.242	-0.077	0.137
-466.157	-200.000	-0.026	0.153
-465.143	385.234	0.054	0.114
-464.128	-200.000	-0.025	0.409
-463.113	-52.680	0.128	0.060
-462.099	457.795	-0.116	-0.263
-461.084	800.000	-0.068	0.266
-460.070	110.064	-0.106	0.130
-459.055	421.159	-0.019	0.042
-458.040	-1.685	-0.150	0.108
-457.026	-67.289	0.184	0.074
-456.011	18.581	0.149	-0.121
-454.997	101.005	-0.235	-0.279
-453.982	-194.718	-0.089	-0.001
-452.968	-200.000	-0.003	-0.061
-451.953	-200.000	0.006	-0.422
-450.938	-200.000	0.025	-0.278
-449.924	-127.596	-0.260	-0.038
-448.909	-40.965	0.117	0.061
-447.895	800.000	0.079	-0.318
-446.880	-200.000	0.025	0.143
-445.865	-200.000	0.010	-0.173
-444.851	-189.745	-0.194	-0.002
-443.836	-57.806	0.295	0.131
-442.822	-73.627	-0.252	0.093
-441.807	800.000	0.035	-0.141
-440.792	-121.901	-0.284	-0.048
-439.778	-22.614	0.095	0.058
-438.763	161.702	-0.248	-0.353
-437.749	-200.000	-0.066	0.341
-436.734	-129.757	0.112	0.016
-435.719	-5.172	0.156	-0.109
-434.705	-76.078	0.222	0.080
-433.690	495.011	-0.030	0.070
-432.676	-72.623	-0.299	0.112
-431.661	241.408	0.169	-0.287
-430.646	464.603	0.037	0.084
-429.632	444.352	-0.071	-0.158
-428.617	-200.000	-0.017	-0.210
-427.603	-15.824	-0.178	0.115
-426.588	-7.462	0.278	0.192
-425.573	-96.516	-0.068	-0.018
-424.559	-115.812	0.230	-0.044
-423.544	800.000	0.046	-0.198
-422.530	2.924	-0.142	0.105
-421.515	-4.290	0.081	-0.057
-420.500	-200.000	0.037	0.264
-419.486	-100.134	0.137	-0.035
-418.471	103.087	-0.136	-0.162
-417.457	-100.512	-0.167	-0.042
-416.442	800.000	-0.072	-0.275
-415.428	-10.167	-0.221	0.149
-414.413	-110.854	0.382	-0.080
-413.398	131.771	0.209	0.273
-412.384	625.978	-0.039	-0.100
-411.369	-83.677	-0.129	0.042
-410.355	-111.339	0.341	0.071
-409.340	47.782	-0.004	-0.004
-408.325	50.143	-0.119	0.114
-407.311	-124.225	-0.354	-0.056
-406.296	111.194	-0.279	-0.341
-405.282	394.953	-0.207	-0.438
-404.267	-14.622	-0.351	-0.229
-403.252	78.430	0.146	-0.158
-402.238	230.985	0.115	-0.191
-401.223	87.692	-0.012	0.013
-400.209	167.216	-0.143	-0.207
-399.194	-95.507	0.387	-0.105
-398.179	-127.367	0.280	0.041
-397.165	-26.184	-0.223	-0.133
-396.150	125.027	0.179	-0.229
-395.136	566.984	-0.034	0.083
-394.121	-200.000	0.010	0.165
-393.106	110.825	-0.138	0.169
-392.092	660.142	-0.014	0.038
-391.077	350.699	-0.122	0.245
-390.063	-200.000	0.005	-0.416
-389.048	-200.000	0.039	-0.296
-388.033	50.972	-0.126	-0.122
-387.019	-12.071	0.353	0.235
-386.004	-132.007	0.252	0.033
-384.990	-117.358	-0.344	-0.063
-383.975	-200.000	-0.028	-0.336
-382.960	-7.217	-0.035	-0.024
-381.946	-135.310	0.281	0.034
-380.931	-34.879	-0.233	-0.129
-379.917	-200.000	-0.001	0.038
-378.902	-16.586	-0.071	0.046
-377.888	162.239	-0.192	-0.274
-376.873	521.383	-0.025	-0.060
-375.858	-200.000	-0.013	0.296
-374.844	684.188	-0.051	0.134
-373.829	287.363	0.050	0.091
-372.815	-21.764	0.170	-0.105
-371.800	403.658	0.130	-0.277
-370.785	41.573	0.032	0.029
-369.771	34.792	-0.087	0.078
-368.756	-168.126	0.180	-0.007
-367.742	265.514	-0.124	0.219
-366.727	361.599	0.098	0.199
-365.712	35.059	0.176	0.157
-364.698	-75.839	-0.183	0.066
-363.683	18.116	-0.095	0.077
-362.669	-118.774	-0.207	-0.037
-361.654	62.982	0.162	-0.165
-360.639	-200.000	-0.048	0.318
-359.625	-162.405	0.089	-0.004
-358.610	391.408	-0.092	-0.193
-357.596	-57.897	-0.069	-0.030
-356.581	-101.332	-0.151	-0.037
-355.566	6.790	0.015	0.011
-354.552	-153.040	-0.144	0.010
-353.537	140.779	-0.113	-0.151
-352.523	453.637	0.157	0.353
-351.508	-121.474	0.307	0.052
-350.493	431.164	-0.153	0.335
-349.479	6.583	-0.131	0.099
-348.464	-41.784	-0.176	-0.092
-347.450	-87.939	-0.192	0.059
-346.435	73.884	0.197	-0.209
-345.420	-39.849	-0.151	-0.080
-344.406	70.119	0.314	-0.329
-343.391	14.714	-0.049	0.039
-342.377	42.288	0.081	-0.074
-341.362	227.379	-0.043	0.070
-340.348	800.000	-0.113	-0.321
-339.333	26.195	0.108	-0.091
-338.318	-77.619	0.136	-0.048
-337.304	106.942	0.105	-0.126
-336.289	378.282	0.066	-0.136
-335.275	2.380	-0.257	0.188
-334.260	-17.441	-0.059	-0.037
-333.245	99.375	0.158	-0.185
-332.231	800.000	0.027	0.102
-331.216	800.000	-0.030	0.129
-330.202	186.819	-0.056	0.085
-329.187	105.205	-0.112	0.134
-328.172	-200.000	-0.002	0.068
-327.158	-200.000	-0.033	-0.197
-326.143	-65.449	0.152	0.062
-325.129	-61.295	-0.187	0.080
-324.114	800.000	-0.084	-0.298
-323.099	317.843	0.014	-0.026
-322.085	131.906	-0.397	-0.518
-321.070	800.000	-0.018	0.073
-320.056	11.831	0.093	-0.072
-319.041	319.867	0.069	0.133
-318.026	-166.574	0.284	-0.012
-317.012	-119.725	0.363	0.063
-315.997	107.759	-0.279	-0.337
-314.983	453.499	-0.156	-0.351
-313.968	114.903	-0.070	-0.086
-312.953	-84.223	-0.208	-0.067
-311.939	-98.603	-0.059	0.015
-310.924	-20.800	-0.375	0.233
-309.910	800.000	0.013	-0.041
-308.895	46.133	-0.073	-0.069
-307.880	-200.000	0.019	-0.311
-306.866	-125.232	-0.367	-0.057
-305.851	208.799	-0.021	0.032
-304.837	87.788	0.120	0.135
-303.822	-15.348	0.230	0.149
-302.807	-73.613	0.164	0.061
-301.793	-146.869	0.248	-0.022
-300.778	-46.753	-0.221	-0.109
-299.764	800.000	-0.075	-0.230
-298.749	-126.454	-0.110	0.017
-297.735	130.165	-0.131	0.170
-296.720	-60.404	-0.141	0.061
-295.705	41.033	0.248	-0.226
-294.691	259.773	-0.061	-0.106
-293.676	175.835	-0.032	0.047
-292.662	519.208	-0.036	0.086
-291.647	153.626	-0.125	-0.173
-290.632	-93.078	-0.162	0.046
-289.618	-12.900	0.227	-0.149
-288.603	244.822	-0.158	0.269
-287.589	-145.428	-0.065	0.006
-286.574	-25.865	-0.107	-0.064
-285.559	-108.323	0.167	-0.036
-284.545	459.237	0.221	0.497
-283.530	75.471	0.217	-0.232
-282.516	125.314	-0.076	0.097
-281.501	-164.649	0.406	0.019
-280.486	250.150	0.211	-0.363
-279.472	800.000	-0.087	-0.260
-278.457	606.508	0.105	-0.266
-277.443	-200.000	-0.068	0.498
-276.428	800.000	-0.131	0.468
-275.413	-72.648	-0.068	0.025
-274.399	-156.095	-0.281	-0.018
-273.384	70.019	0.101	0.105
-272.370	-81.987	0.140	-0.046
-271.355	-141.284	-0.286	0.029
-270.340	-104.658	-0.314	0.073
-269.326	17.685	-0.151	0.121
-268.311	186.113	0.158	0.238
-267.297	5.454	0.261	0.194
-266.282	-1.543	0.118	-0.084
-265.267	-148.964	0.286	0.023
-264.253	-200.000	-0.041	0.278
-263.238	93.215	0.186	0.213
-262.224	591.294	-0.125	0.312
-261.209	-60.995	-0.227	0.097
-260.195	20.501	0.065	0.053
-259.180	80.202	0.217	0.236
-258.165	-150.489	0.133	0.010
-257.151	-107.644	0.208	0.046
-256.136	-200.000	0.039	0.214
-255.122	-93.638	0.261	-0.073
-254.107	213.279	-0.073	0.116
-253.092	-200.000	0.044	-0.296
-252.078	-107.453	-0.156	0.035
-251.063	145.255	-0.098	0.133
-250.049	-97.472	0.158	0.042
-249.034	800.000	0.069	0.210
-248.019	800.000	0.011	0.041
-247.005	-14.039	0.219	-0.143
-245.990	147.529	0.120	-0.163
-244.976	78.571	-0.098	-0.105
-243.961	13.750	-0.131	-0.103
-242.946	-4.072	-0.052	-0.036
-241.932	-116.061	0.127	-0.024
-240.917	-159.331	0.196	-0.011
-239.903	80.416	0.137	0.149
-238.888	163.557	0.202	0.287
-237.873	179.452	0.238	-0.352
-236.859	800.000	0.026	-0.084
-235.844	-57.431	-0.132	0.058
-234.830	145.009	-0.094	0.127
-233.815	150.798	-0.137	0.188
-232.800	-20.639	0.400	0.248
-231.786	423.194	0.062	-0.134
-230.771	573.072	0.079	0.194
-229.757	-49.550	0.094	-0.045
-228.742	51.852	0.271	-0.260
-227.727	-200.000	0.010	-0.217
-226.713	-71.454	0.268	-0.101
-225.698	-10.700	0.393	0.263
-224.684	343.036	0.132	0.262
-223.669	99.950	0.111	0.130
-222.655	800.000	-0.077	-0.270
-221.640	-93.214	-0.120	0.034
-220.625	-60.307	0.262	0.113
-219.611	176.920	0.073	-0.107
-218.596	227.214	-0.133	0.218
-217.582	-161.028	0.289	-0.015
-216.567	-200.000	-0.015	-0.101
-215.552	84.713	0.012	-0.013
-214.538	37.395	0.012	-0.011
-213.523	54.770	0.292	-0.285
-212.509	-186.985	0.247	0.003
-211.494	800.000	-0.072	0.278
-210.479	6.988	0.152	-0.114
-209.465	86.679	0.139	0.155
-208.450	48.348	0.037	-0.035
-207.436	269.052	0.040	0.071
-206.421	42.687	-0.175	-0.161
-205.406	-108.800	0.031	0.007
-204.392	-78.018	0.220	-0.076
-203.377	228.829	-0.140	0.230
-202.363	114.112	0.152	0.186
-201.348	111.486	0.308	-0.375
-200.333	-31.757	-0.129	0.073
-199.319	-103.439	-0.114	0.027
-198.304	517.091	-0.139	0.328
-197.290	691.640	-0.153	-0.404
-196.275	-78.272	-0.324	-0.112
-195.260	268.058	-0.096	0.170
-194.246	262.608	-0.084	0.147
-193.231	19.056	-0.095	0.077
-192.217	232.152	-0.206	0.341
-191.202	-165.242	0.146	0.006
-190.187	388.649	0.171	0.358
-189.173	-200.000	-0.018	0.234
-188.158	-200.000	-0.012	-0.057
-187.144	-200.000	-0.035	-0.352
-186.129	27.061	-0.146	-0.124
-185.114	377.243	-0.070	0.144
-184.100	-200.000	-0.212	-0.000
-183.085	314.410	-0.047	-0.090
-182.071	-200.000	-0.002	0.093
-181.056	-68.859	0.390	0.152
-180.042	233.193	-0.041	-0.069
-179.027	-169.336	0.223	0.008
-178.012	-200.000	-0.024	0.210
-176.998	-122.660	0.312	0.051
-175.983	800.000	0.075	-0.246
-174.969	-46.072	0.170	0.084
-173.954	69.904	0.155	0.161
-172.939	101.149	0.328	-0.385
-171.925	-103.156	-0.386	0.092
-170.910	754.364	-0.209	0.569
-169.896	-29.852	0.140	-0.080
-168.881	-18.481	-0.274	0.172
-167.866	-200.000	-0.033	0.273
-166.852	62.988	0.160	0.161
-165.837	-34.617	0.125	0.069
-164.823	800.000	0.054	0.155
-163.808	89.603	0.167	0.187
-162.793	-200.000	-0.100	0.450
-161.779	109.650	0.018	0.022
-160.764	-30.567	0.232	0.132
-159.750	205.331	0.174	0.272
-158.735	-40.945	0.143	0.074
-157.720	-75.879	0.363	0.129
-156.706	-82.204	-0.122	-0.040
-155.691	-18.658	-0.210	-0.132
-154.677	-200.000	-0.035	-0.364
-153.662	420.376	-0.109	-0.236
-152.647	89.432	0.088	-0.098
-151.633	-111.908	-0.410	-0.083
-150.618	65.578	-0.049	-0.050
-149.604	-200.000	-0.033	-0.162
-148.589	77.765	0.291	-0.312
-147.574	15.173	-0.113	0.089
-146.560	171.060	-0.156	0.224
-145.545	4.530	-0.073	0.054
-144.531	4.196	0.210	-0.154
-143.516	200.257	0.158	0.244
-142.502	-110.267	-0.151	-0.032
-141.487	-80.189	-0.258	-0.087
-140.472	125.123	-0.166	-0.210
-139.458	-24.693	0.094	0.056
-138.443	40.040	0.077	0.070
-137.429	49.587	-0.111	-0.105
-136.414	129.472	-0.149	0.191
-135.399	-200.000	-0.011	0.147
-134.385	-121.688	-0.272	0.045
-133.370	-26.864	0.052	0.031
-132.356	-118.079	0.257	-0.046
-131.341	-23.881	0.098	-0.059
-130.326	-200.000	0.028	0.176
-129.312	-19.423	0.172	0.107
-128.297	800.000	0.085	-0.277
-127.283	90.425	0.188	0.211
-126.268	-146.093	0.224	-0.020
-125.253	-200.000	0.026	-0.122
-124.239	276.704	0.076	0.137
-123.224	170.391	0.125	0.181
-122.210	-140.600	-0.197	0.021
-121.195	-200.000	-0.015	0.422
