DTS Sentinel unit serial number:	SN413079Multiplexer serial number:	ORYXHardware model number:	OX4-SRSoftware version number:	ORYX F/W v4.00 Oryx Data Collector v3.7.2.0data status	okinstallation	princeton_trtdifferential loss correction	single-endedforward channel	channel 4reverse channel	N/Adate	2019/09/12time	02:15:11forward acquisition time	60.00reverse acquisition time	0.00gamma	496.2192k internal	0.2308k external	0.2308temperature offset calibration	1.0092default loss term (dB/km)	0.3790temperature slope calibration	1.0000multiplexer offset coefficient	1.0000multiplexer slope coefficient	1.0000fibre end	0.00T internal ref (°C)	32.64T ext. ref 1 (°C)	2.09T ext. ref 2 (°C)	26.72length (m)	temperature (°C)	Stokes	anti-Stokes-747.200	-200.000	0.068	0.634
-746.185	-200.000	-0.243	0.000
-745.171	800.000	0.087	-0.319
-744.156	70.673	-0.119	0.125
-743.142	-200.000	-0.049	0.234
-742.127	8.241	-0.211	0.161
-741.112	-154.499	0.179	-0.012
-740.098	-43.490	-0.121	0.062
-739.083	800.000	0.028	-0.098
-738.069	-200.000	0.046	-0.229
-737.054	-200.000	-0.016	-0.154
-736.039	-21.538	-0.229	0.142
-735.025	-164.694	0.262	-0.012
-734.010	-145.307	-0.442	-0.041
-732.996	-127.917	-0.188	0.027
-731.981	6.283	0.047	-0.036
-730.966	41.372	-0.115	-0.106
-729.952	-157.132	0.387	-0.024
-728.937	236.883	-0.099	0.167
-727.923	126.217	0.176	-0.225
-726.908	-200.000	0.010	-0.088
-725.894	25.019	-0.345	-0.291
-724.879	644.253	-0.067	-0.173
-723.864	-200.000	0.012	0.157
-722.850	-200.000	0.027	-0.164
-721.835	800.000	0.033	0.111
-720.821	-43.181	0.150	-0.077
-719.806	-200.000	-0.035	0.275
-718.791	74.846	-0.218	0.233
-717.777	-20.994	0.300	0.186
-716.762	404.591	-0.095	-0.203
-715.748	48.773	0.141	-0.134
-714.733	-51.642	0.156	0.074
-713.718	-47.697	-0.264	-0.130
-712.704	-149.014	0.307	-0.025
-711.689	-27.442	-0.124	-0.073
-710.675	-5.487	0.219	0.153
-709.660	-122.486	-0.299	0.049
-708.645	-77.428	0.215	-0.076
-707.631	353.056	0.101	-0.203
-706.616	-111.197	-0.207	-0.043
-705.602	-169.947	0.249	0.009
-704.587	-161.184	0.325	-0.017
-703.572	-116.266	0.117	-0.022
-702.558	72.928	-0.024	-0.026
-701.543	58.551	-0.269	-0.268
-700.529	342.387	-0.132	-0.262
-699.514	-96.915	0.297	-0.079
-698.499	-67.408	-0.169	-0.067
-697.485	-36.381	-0.165	0.090
-696.470	129.934	0.052	-0.067
-695.456	509.243	0.101	-0.237
-694.441	800.000	-0.081	0.245
-693.426	-120.406	-0.172	0.030
-692.412	800.000	0.051	0.162
-691.397	-157.873	0.141	-0.008
-690.383	57.582	-0.204	-0.202
-689.368	76.964	0.178	-0.192
-688.354	800.000	-0.082	0.276
-687.339	421.823	-0.086	0.187
-686.324	-117.188	-0.270	-0.050
-685.310	-10.820	0.175	-0.117
-684.295	800.000	-0.109	0.369
-683.281	-154.572	0.048	0.003
-682.266	800.000	-0.040	0.128
-681.251	32.526	-0.177	0.155
-680.237	800.000	0.072	-0.250
-679.222	-79.782	0.036	-0.012
-678.208	-36.869	-0.126	0.068
-677.193	800.000	0.051	-0.158
-676.178	13.601	-0.170	-0.134
-675.164	-97.150	-0.242	-0.064
-674.149	49.012	0.147	0.140
-673.135	-154.237	-0.327	0.022
-672.120	-48.804	-0.139	0.068
-671.105	1.674	0.287	-0.209
-670.091	-69.366	0.216	-0.084
-669.076	682.245	0.082	-0.217
-668.062	371.140	0.089	0.183
-667.047	-200.000	-0.004	-0.188
-666.032	-94.562	-0.218	-0.060
-665.018	800.000	-0.089	-0.359
-664.003	800.000	-0.093	-0.393
-662.989	-105.370	-0.178	-0.041
-661.974	-168.323	-0.304	-0.012
-660.959	-200.000	-0.012	-0.199
-659.945	-4.766	0.261	-0.182
-658.930	262.780	-0.091	-0.160
-657.916	-200.000	0.037	0.341
-656.901	249.980	-0.120	-0.206
-655.886	-200.000	-0.009	-0.196
-654.872	-130.034	-0.392	0.054
-653.857	604.683	0.076	-0.192
-652.843	-65.790	-0.248	-0.101
-651.828	304.551	0.058	0.109
-650.814	17.785	0.189	-0.153
-649.799	35.460	0.056	-0.050
-648.784	165.452	-0.100	-0.144
-647.770	264.774	-0.192	-0.339
-646.755	-111.864	0.150	-0.031
-645.741	-44.816	0.232	0.117
-644.726	-17.772	-0.288	-0.183
-643.711	-121.285	0.111	-0.019
-642.697	-200.000	-0.021	0.121
-641.682	-125.207	-0.099	-0.015
-640.668	800.000	-0.024	-0.084
-639.653	543.079	0.032	0.077
-638.638	800.000	0.011	0.037
-637.624	-83.425	0.122	-0.040
-636.609	331.304	0.159	0.310
-635.595	-164.474	-0.408	-0.019
-634.580	163.912	0.040	0.057
-633.565	-52.731	-0.316	0.148
-632.551	-200.000	-0.022	0.166
-631.536	-2.052	-0.247	0.176
-630.522	184.652	0.095	-0.142
-629.507	-23.934	-0.086	0.052
-628.492	-13.267	0.108	0.071
-627.478	-48.320	-0.086	-0.042
-626.463	-85.368	0.209	-0.066
-625.449	4.015	-0.311	0.230
-624.434	-125.873	-0.376	0.057
-623.419	-56.564	0.226	-0.101
-622.405	-16.431	-0.055	0.035
-621.390	-97.311	-0.194	0.051
-620.376	311.755	0.092	-0.175
-619.361	-200.000	-0.022	0.116
-618.346	85.873	-0.082	0.092
-617.332	152.831	0.214	0.295
-616.317	-61.951	0.478	-0.202
-615.303	-200.000	-0.018	-0.224
-614.288	-112.429	-0.269	-0.054
-613.273	380.468	-0.058	-0.121
-612.259	-135.056	0.056	0.007
-611.244	-93.385	0.080	-0.023
-610.230	182.638	-0.163	-0.243
-609.215	-200.000	-0.033	0.278
-608.201	173.897	0.098	0.142
-607.186	-14.194	0.124	-0.081
-606.171	-80.154	-0.243	-0.082
-605.157	-38.974	0.069	-0.037
-604.142	-151.455	-0.073	-0.006
-603.128	800.000	-0.017	0.048
-602.113	-128.737	0.052	-0.007
-601.098	585.047	-0.055	0.136
-600.084	-200.000	-0.059	0.271
-599.069	-200.000	0.005	-0.285
-598.055	-133.826	-0.172	0.022
-597.040	124.530	-0.157	-0.200
-596.025	2.755	-0.063	0.046
-595.011	497.906	0.100	0.232
-593.996	-55.590	0.080	-0.036
-592.982	-200.000	0.013	-0.137
-591.967	800.000	-0.085	0.239
-590.952	800.000	0.031	-0.117
-589.938	-24.356	0.265	-0.160
-588.923	-6.913	0.070	-0.048
-587.909	122.057	0.188	0.238
-586.894	240.123	-0.133	0.223
-585.879	-44.039	-0.168	-0.085
-584.865	-57.340	0.278	-0.124
-583.850	597.890	-0.044	-0.111
-582.836	63.291	-0.153	-0.155
-581.821	64.325	-0.187	0.190
-580.806	82.154	0.217	-0.238
-579.792	35.948	-0.025	0.022
-578.777	-200.000	-0.029	-0.192
-577.763	552.057	-0.072	-0.175
-576.748	800.000	0.086	-0.265
-575.733	-54.698	-0.196	-0.089
-574.719	62.808	0.162	-0.164
-573.704	113.388	0.080	0.098
-572.690	-5.834	0.206	-0.142
-571.675	-24.033	0.126	0.076
-570.661	-75.660	0.168	0.060
-569.646	800.000	-0.047	0.134
-568.631	-92.101	-0.211	-0.060
-567.617	-20.372	-0.146	0.090
-566.602	296.395	0.095	-0.176
-565.588	58.560	-0.133	-0.132
-564.573	-92.705	-0.166	-0.047
-563.558	-23.907	-0.101	-0.061
-562.544	-200.000	-0.003	0.238
-561.529	454.915	-0.114	-0.254
-560.515	-99.901	-0.201	-0.051
-559.500	-56.709	-0.501	0.224
-558.485	-120.564	0.166	-0.028
-557.471	800.000	0.016	-0.051
-556.456	84.472	0.100	0.111
-555.442	-167.821	0.306	0.012
-554.427	114.629	-0.156	-0.192
-553.412	66.477	0.185	-0.189
-552.398	-57.582	-0.061	-0.027
-551.383	-47.765	-0.349	-0.171
-550.369	-13.147	-0.030	0.019
-549.354	800.000	-0.022	-0.089
-548.339	9.458	0.168	-0.128
-547.325	59.715	-0.194	-0.193
-546.310	628.418	0.050	0.126
-545.296	-38.183	-0.117	-0.063
-544.281	-127.236	-0.202	0.030
-543.266	42.034	-0.300	0.275
-542.252	800.000	-0.110	-0.331
-541.237	244.105	-0.081	0.137
-540.223	-85.292	0.039	0.012
-539.208	-200.000	-0.022	-0.352
-538.193	-39.500	0.055	-0.029
-537.179	70.189	-0.038	0.039
-536.164	-200.000	-0.005	-0.209
-535.150	56.953	0.165	0.163
-534.135	-57.227	0.266	0.118
-533.121	3.642	-0.225	-0.166
-532.106	26.847	-0.208	-0.175
-531.091	265.844	-0.036	0.063
-530.077	800.000	-0.033	-0.116
-529.062	-0.906	0.226	-0.161
-528.048	-200.000	0.024	-0.343
-527.033	800.000	0.056	-0.175
-526.018	735.902	0.092	-0.247
-525.004	124.292	0.216	0.274
-523.989	90.908	0.148	-0.167
-522.975	2.227	0.315	0.229
-521.960	-200.000	-0.074	0.376
-520.945	37.357	0.234	0.209
-519.931	-153.262	-0.283	0.020
-518.916	-200.000	0.023	0.295
-517.902	6.020	0.307	-0.229
-516.887	-200.000	0.054	-0.292
-515.872	68.191	0.142	0.147
-514.858	800.000	0.064	0.232
-513.843	-41.366	-0.092	0.048
-512.829	213.166	0.067	-0.106
-511.814	-148.886	-0.297	-0.024
-510.799	143.579	0.144	0.193
-509.785	123.034	0.200	0.252
-508.770	-84.134	0.183	0.058
-507.756	-200.000	-0.001	-0.277
-506.741	-88.125	0.458	0.138
-505.726	-68.485	0.255	-0.100
-504.712	800.000	-0.028	-0.091
-503.697	550.843	0.149	0.361
-502.683	-59.700	-0.095	0.041
-501.668	167.521	-0.069	0.099
-500.653	-200.000	-0.007	-0.095
-499.639	-123.591	0.243	-0.039
-498.624	-200.000	-0.002	0.356
-497.610	800.000	-0.055	0.218
-496.595	317.836	-0.171	-0.325
-495.581	-10.907	-0.097	0.064
-494.566	12.071	-0.166	0.129
-493.551	-200.000	0.016	-0.117
-492.537	93.511	0.230	-0.262
-491.522	770.820	0.076	-0.209
-490.508	12.654	-0.122	0.095
-489.493	-90.106	-0.367	0.108
-488.478	405.926	0.109	0.232
-487.464	-168.616	-0.097	0.004
-486.449	-56.746	-0.267	0.119
-485.435	248.542	-0.196	-0.334
-484.420	800.000	0.085	-0.274
-483.405	-169.821	-0.230	0.008
-482.391	-156.380	-0.155	0.010
-481.376	-66.063	0.098	0.039
-480.362	63.228	0.303	-0.305
-479.347	800.000	-0.038	-0.160
-478.332	58.941	-0.197	0.195
-477.318	-14.399	0.179	-0.116
-476.303	-54.105	0.208	-0.095
-475.289	109.013	0.125	-0.150
-474.274	-123.853	-0.187	0.030
-473.259	800.000	-0.055	-0.182
-472.245	-200.000	0.212	-0.000
-471.230	25.983	0.160	-0.134
-470.216	530.672	0.092	0.218
-469.201	-200.000	-0.003	0.148
-468.186	-133.514	0.285	0.036
-467.172	39.986	0.168	0.152
-466.157	-36.271	0.017	-0.009
-465.143	-200.000	0.055	0.248
-464.128	556.239	0.051	0.123
-463.113	779.249	0.061	0.168
-462.099	-65.038	-0.268	0.109
-461.084	-159.409	0.214	0.012
-460.070	-37.623	0.197	-0.106
-459.055	49.120	0.096	0.090
-458.040	99.906	-0.143	0.167
-457.026	7.574	-0.155	-0.117
-456.011	-200.000	0.010	0.141
-454.997	-15.571	0.190	-0.122
-453.982	800.000	-0.018	0.069
-452.968	-200.000	-0.004	0.148
-451.953	-50.116	-0.328	0.156
-450.938	-165.055	-0.283	0.013
-449.924	-139.672	0.330	0.035
-448.909	-200.000	0.074	0.362
-447.895	189.776	0.119	0.179
-446.880	-96.109	-0.185	0.049
-445.865	-161.563	0.265	-0.014
-444.851	-137.150	0.159	-0.018
-443.836	56.053	0.222	0.217
-442.822	-32.305	0.285	-0.160
-441.807	563.098	-0.087	0.211
-440.792	-157.483	-0.243	-0.015
-439.778	301.909	-0.088	-0.163
-438.763	-49.956	0.153	0.073
-437.749	-63.259	-0.241	0.100
-436.734	-156.843	0.055	-0.003
-435.719	800.000	-0.095	-0.273
-434.705	93.795	-0.115	-0.131
-433.690	-52.356	-0.058	-0.027
-432.676	377.082	-0.248	-0.508
-431.661	-200.000	0.025	-0.122
-430.646	159.566	-0.287	0.401
-429.632	-200.000	-0.021	-0.181
-428.617	-20.767	0.088	-0.054
-427.603	-56.458	-0.176	-0.078
-426.588	800.000	0.014	0.054
-425.573	-61.341	0.349	0.148
-424.559	-174.311	-0.439	-0.013
-423.544	-200.000	0.009	0.160
-422.530	233.902	0.196	0.324
-421.515	534.792	-0.033	-0.077
-420.500	431.145	-0.166	0.361
-419.486	-137.737	-0.233	0.026
-418.471	34.642	0.202	0.178
-417.457	800.000	-0.132	-0.367
-416.442	83.929	-0.162	-0.177
-415.428	28.292	-0.079	-0.067
-414.413	-121.906	0.077	0.013
-413.398	1.563	-0.174	-0.125
-412.384	19.797	0.025	0.020
-411.369	-200.000	-0.032	0.224
-410.355	-106.976	0.526	-0.117
-409.340	131.994	-0.142	-0.183
-408.325	800.000	-0.060	-0.199
-407.311	-66.413	0.032	-0.013
-406.296	-53.807	0.309	0.141
-405.282	-200.000	-0.014	0.112
-404.267	97.559	-0.231	0.266
-403.252	58.223	-0.447	-0.439
-402.238	-200.000	0.010	-0.078
-401.223	-85.430	-0.577	-0.180
-400.209	-71.309	-0.082	-0.031
-399.194	-200.000	-0.058	0.330
-398.179	95.263	0.072	-0.082
-397.165	-162.642	-0.500	0.025
-396.150	267.850	0.038	0.066
-395.136	553.109	-0.089	-0.215
-394.121	-9.461	-0.089	0.060
-393.106	-200.000	-0.029	-0.298
-392.092	-150.418	0.204	0.016
-391.077	-200.000	-0.047	0.438
-390.063	-200.000	-0.015	-0.078
-389.048	-131.042	-0.253	0.034
-388.033	118.899	-0.170	-0.211
-387.019	-200.000	-0.003	-0.096
-386.004	-200.000	0.061	-0.291
-384.990	-27.666	-0.138	0.080
-383.975	620.731	-0.103	0.259
-382.960	-2.157	0.077	-0.054
-381.946	99.295	0.161	-0.187
-380.931	-200.000	0.045	-0.229
-379.917	-200.000	-0.012	-0.201
-378.902	39.463	0.179	-0.161
-377.888	-200.000	0.007	0.231
-376.873	51.291	-0.135	0.128
-375.858	23.542	-0.382	-0.315
-374.844	800.000	0.096	0.326
-373.829	69.064	-0.271	-0.279
-372.815	101.570	-0.176	-0.206
-371.800	-99.559	0.101	-0.026
-370.785	-200.000	-0.005	-0.220
-369.771	187.650	0.090	-0.134
-368.756	-45.661	-0.326	-0.162
-367.742	-96.145	0.151	-0.040
-366.727	291.710	-0.174	0.317
-365.712	24.384	0.042	-0.035
-364.698	-200.000	0.019	-0.157
-363.683	-190.048	0.489	-0.005
-362.669	-18.056	0.269	-0.169
-361.654	-49.952	-0.174	0.083
-360.639	-122.259	0.273	0.045
-359.625	188.458	-0.033	-0.050
-358.610	800.000	-0.037	-0.131
-357.596	202.642	-0.061	-0.095
-356.581	-96.934	-0.187	-0.049
-355.566	-71.675	0.443	0.165
-354.552	250.626	-0.148	-0.251
-353.537	-87.553	-0.228	-0.069
-352.523	-46.364	-0.065	-0.032
-351.508	-200.000	0.014	0.132
-350.493	18.910	0.518	0.415
-349.479	-200.000	0.012	0.182
-348.464	-200.000	-0.051	-0.246
-347.450	250.975	0.222	-0.378
-346.435	-200.000	-0.016	-0.444
-345.420	-40.516	0.183	-0.095
-344.406	-32.385	0.108	-0.060
-343.391	-200.000	0.002	-0.221
-342.377	134.998	0.211	-0.275
-341.362	-76.650	-0.582	-0.204
-340.348	705.826	-0.059	-0.155
-339.333	-90.607	0.403	-0.117
-338.318	-121.031	-0.277	0.046
-337.304	-106.863	0.065	0.014
-336.289	19.178	-0.164	0.132
-335.275	-101.356	0.369	-0.090
-334.260	-200.000	-0.028	0.310
-333.245	313.684	-0.102	0.193
-332.231	-7.831	-0.288	-0.194
-331.216	132.649	0.107	-0.139
-330.202	146.607	0.294	-0.395
-329.187	0.101	0.214	-0.153
-328.172	-200.000	0.036	0.246
-327.158	-53.240	-0.140	0.064
-326.143	491.292	0.025	-0.058
-325.129	-44.500	-0.194	0.097
-324.114	623.931	0.065	0.164
-323.099	-66.323	-0.059	0.023
-322.085	89.486	0.170	-0.190
-321.070	-178.823	0.417	-0.009
-320.056	-200.000	0.015	-0.343
-319.041	-104.000	-0.252	-0.059
-318.026	69.604	0.172	0.177
-317.012	-25.563	0.288	0.170
-315.997	88.315	0.152	-0.169
-314.983	800.000	0.152	-0.422
-313.968	-200.000	0.008	-0.117
-312.953	71.775	-0.264	0.274
-311.939	124.647	-0.229	0.288
-310.924	164.043	-0.149	-0.210
-309.910	800.000	-0.028	-0.115
-308.895	-200.000	0.001	0.250
-307.880	-64.398	0.320	-0.130
-306.866	-200.000	0.001	0.022
-305.851	-46.940	0.277	-0.135
-304.837	-121.373	-0.538	0.090
-303.822	122.218	0.179	0.224
-302.807	-153.518	0.082	0.006
-301.793	203.413	0.178	0.275
-300.778	-127.413	-0.415	0.060
-299.764	-200.000	-0.039	0.221
-298.749	-105.402	0.167	-0.038
-297.735	-93.291	-0.146	-0.040
-296.720	-59.122	-0.388	0.167
-295.705	591.293	0.184	0.454
-294.691	238.466	0.142	0.236
-293.676	-136.221	-0.046	0.005
-292.662	30.929	-0.240	0.206
-291.647	475.488	-0.081	-0.183
-290.632	155.519	0.139	0.191
-289.618	434.393	0.137	-0.296
-288.603	-51.538	0.249	0.116
-287.589	-10.208	0.329	0.218
-286.574	-19.038	-0.090	0.056
-285.559	-110.343	0.188	-0.039
-284.545	-200.000	-0.008	-0.216
-283.530	-200.000	-0.010	0.145
-282.516	-4.397	-0.204	-0.141
-281.501	-200.000	0.053	-0.251
-280.486	389.443	-0.046	-0.094
-279.472	-103.398	0.092	0.022
-278.457	7.723	-0.172	0.129
-277.443	-154.045	0.276	-0.019
-276.428	250.751	0.044	-0.074
-275.413	-29.966	0.119	0.068
-274.399	236.252	0.097	0.160
-273.384	259.035	-0.087	-0.150
-272.370	-70.309	-0.165	-0.062
-271.355	-91.303	0.235	0.067
-270.340	-74.256	-0.367	-0.132
-269.326	-200.000	0.020	-0.215
-268.311	-200.000	-0.000	-0.108
-267.297	369.205	0.141	0.285
-266.282	332.925	0.122	0.236
-265.267	-87.957	0.140	0.042
-264.253	63.291	-0.196	-0.196
-263.238	493.175	-0.176	-0.402
-262.224	-177.003	0.054	0.001
-261.209	-69.424	-0.279	0.107
-260.195	184.876	-0.330	0.487
-259.180	383.046	0.133	0.272
-258.165	-181.129	0.149	-0.003
-257.151	293.819	0.060	-0.110
-256.136	-108.361	-0.208	-0.045
-255.122	800.000	-0.094	0.335
-254.107	800.000	-0.067	0.221
-253.092	-154.119	0.110	-0.007
-252.078	-17.318	-0.193	0.121
-251.063	126.886	-0.205	0.259
-250.049	-91.138	0.349	-0.100
-249.034	-110.986	0.564	-0.115
-248.019	800.000	-0.086	0.367
-247.005	-143.969	-0.277	0.026
-245.990	-74.787	0.052	-0.019
-244.976	-119.649	0.097	-0.017
-243.961	-105.664	0.220	0.050
-242.946	-200.000	0.030	0.316
-241.932	-125.308	-0.114	-0.017
-240.917	-137.097	-0.059	0.007
-239.903	29.970	0.233	-0.198
-238.888	-200.000	-0.010	-0.045
-237.873	-93.093	0.252	0.070
-236.859	-200.000	-0.011	0.175
-235.844	259.526	0.046	-0.078
-234.830	-200.000	0.001	-0.098
-233.815	-47.458	0.235	0.114
-232.800	38.984	-0.190	0.169
-231.786	414.821	0.092	0.194
-230.771	22.049	0.188	0.153
-229.757	-200.000	-0.025	0.155
-228.742	159.541	0.325	-0.450
-227.727	6.781	0.221	0.164
-226.713	-200.000	-0.025	-0.139
-225.698	-166.836	0.087	-0.004
-224.684	129.305	-0.042	0.053
-223.669	145.621	0.050	-0.066
-222.655	-112.596	-0.167	0.033
-221.640	168.239	-0.209	0.296
-220.625	367.245	0.058	-0.117
-219.611	-75.422	-0.131	-0.047
-218.596	-84.916	-0.130	0.041
-217.582	-140.644	0.181	-0.019
-216.567	-200.000	0.050	-0.264
-215.552	193.116	0.199	-0.299
-214.538	-57.187	0.492	-0.216
-213.523	-5.884	0.161	0.109
-212.509	-169.070	0.372	0.014
-211.494	5.102	0.158	-0.116
-210.479	-93.367	-0.204	0.056
-209.465	13.132	-0.039	-0.030
-208.450	-97.289	-0.114	0.030
-207.436	-116.688	0.027	0.005
-206.421	-39.830	-0.265	-0.138
-205.406	313.327	0.139	0.260
-204.392	9.094	-0.175	0.132
-203.377	-75.621	-0.233	0.082
-202.363	-35.555	0.099	0.053
-201.348	-142.791	-0.038	-0.004
-200.333	-67.485	0.201	-0.078
-199.319	307.978	0.024	-0.044
-198.304	383.306	-0.115	-0.235
-197.290	800.000	-0.076	0.330
-196.275	-46.348	0.062	-0.030
-195.260	-3.799	0.183	-0.127
-194.246	-90.483	0.184	-0.053
-193.231	690.632	-0.036	0.093
-192.217	800.000	-0.075	0.304
-191.202	-130.460	-0.331	0.045
-190.187	-5.667	0.120	-0.082
-189.173	-85.470	-0.069	0.021
-188.158	-200.000	0.033	0.317
-187.144	693.086	-0.114	0.296
-186.129	-171.902	0.344	-0.011
-185.114	-139.578	0.073	0.008
-184.100	-73.440	-0.236	0.086
-183.085	91.165	0.029	-0.033
-182.071	210.489	-0.211	0.329
-181.056	405.334	0.103	0.217
-180.042	800.000	0.067	-0.202
-179.027	475.826	0.012	0.026
-178.012	-200.000	0.010	0.121
-176.998	-1.575	0.100	0.070
-175.983	-50.032	0.142	-0.067
-174.969	-111.482	-0.240	-0.049
-173.954	-200.000	-0.009	0.358
-172.939	78.308	-0.041	-0.043
-171.925	-180.388	0.107	0.002
-170.910	-178.144	0.209	0.005
-169.896	-125.310	0.213	0.032
-168.881	163.694	-0.189	-0.264
-167.866	-138.618	-0.522	-0.057
-166.852	-200.000	-0.000	0.049
-165.837	-200.000	-0.003	-0.414
-164.823	-47.674	-0.123	0.059
-163.808	475.398	0.092	0.206
-162.793	800.000	0.088	0.252
-161.779	-70.563	0.028	-0.010
-160.764	118.886	-0.163	0.200
-159.750	-87.804	-0.106	0.032
-158.735	-196.380	-0.195	-0.001
-157.720	493.128	0.082	0.186
-156.706	800.000	0.023	0.078
-155.691	-200.000	-0.010	-0.057
-154.677	-11.716	-0.161	-0.105
-153.662	-151.619	-0.376	0.028
-152.647	-159.654	0.319	0.018
-151.633	-28.041	-0.016	0.009
-150.618	331.027	0.060	0.115
-149.604	159.957	0.026	-0.036
-148.589	211.900	0.061	-0.096
-147.574	800.000	0.052	-0.183
-146.560	164.402	-0.165	0.230
-145.545	-151.182	-0.068	0.005
-144.531	223.062	-0.225	-0.360
-143.516	-200.000	-0.034	-0.341
-142.502	-200.000	-0.035	0.319
-141.487	-56.944	0.180	0.079
-140.472	-43.706	-0.278	-0.139
-139.458	-89.790	-0.170	-0.049
-138.443	-200.000	-0.011	0.050
-137.429	-200.000	0.019	0.388
-136.414	-11.746	0.368	0.239
-135.399	-200.000	-0.017	0.227
-134.385	-97.590	0.360	-0.093
-133.370	800.000	-0.041	-0.135
-132.356	178.237	0.142	-0.206
-131.341	204.745	-0.224	0.345
-130.326	43.385	0.186	0.168
-129.312	-2.908	-0.212	0.147
-128.297	-61.619	-0.199	0.083
-127.283	800.000	-0.048	0.134
-126.268	150.826	0.027	0.037
-125.253	-51.666	-0.195	0.090
-124.239	289.376	0.094	0.168
-123.224	-42.355	0.258	-0.130
-122.210	-200.000	-0.023	0.105
