DTS Sentinel unit serial number:	SN413079Multiplexer serial number:	ORYXHardware model number:	OX4-SRSoftware version number:	ORYX F/W v4.00 Oryx Data Collector v3.7.2.0data status	okinstallation	princeton_trtdifferential loss correction	single-endedforward channel	channel 4reverse channel	N/Adate	2019/09/11time	10:39:11forward acquisition time	60.00reverse acquisition time	0.00gamma	496.2192k internal	0.2294k external	0.2294temperature offset calibration	0.9969default loss term (dB/km)	0.3790temperature slope calibration	1.0000multiplexer offset coefficient	1.0000multiplexer slope coefficient	1.0000fibre end	0.00T internal ref (°C)	36.62T ext. ref 1 (°C)	0.17T ext. ref 2 (°C)	34.22length (m)	temperature (°C)	Stokes	anti-Stokes-747.200	157.700	-0.051	0.073
-746.185	-200.000	0.016	0.241
-745.171	-42.960	-0.090	-0.047
-744.156	-105.143	0.077	0.018
-743.142	-70.102	0.248	0.097
-742.127	53.503	-0.359	0.352
-741.112	-94.847	-0.103	0.029
-740.098	-166.454	-0.242	-0.010
-739.083	-200.000	0.030	0.385
-738.069	-87.707	-0.374	0.115
-737.054	800.000	0.026	-0.080
-736.039	-6.652	-0.197	-0.137
-735.025	192.725	-0.035	-0.053
-734.010	-18.971	-0.235	0.149
-732.996	9.935	-0.180	0.140
-731.981	9.220	-0.288	0.223
-730.966	-184.289	-0.181	-0.003
-729.952	800.000	-0.047	0.179
-728.937	569.814	-0.088	0.219
-727.923	220.899	0.105	-0.172
-726.908	-200.000	-0.003	-0.284
-725.894	67.779	-0.165	0.173
-724.879	53.379	0.049	0.048
-723.864	-63.426	-0.034	-0.014
-722.850	-12.846	-0.264	-0.176
-721.835	-93.569	0.440	-0.124
-720.821	-24.750	0.243	0.148
-719.806	-119.539	-0.359	-0.064
-718.791	226.790	-0.126	-0.209
-717.777	-174.990	0.327	0.009
-716.762	122.685	0.199	-0.254
-715.748	-61.525	-0.067	-0.029
-714.733	-78.095	-0.256	-0.090
-713.718	667.760	-0.088	-0.232
-712.704	-0.825	0.291	0.211
-711.689	50.144	-0.021	0.020
-710.675	-200.000	-0.026	0.128
-709.660	-169.048	-0.121	0.005
-708.645	39.282	0.280	0.256
-707.631	142.466	0.261	0.353
-706.616	-133.025	-0.138	-0.018
-705.602	-46.527	-0.292	-0.146
-704.587	180.960	-0.054	0.081
-703.572	-161.014	-0.315	-0.017
-702.558	-200.000	0.034	0.405
-701.543	800.000	0.089	-0.337
-700.529	-96.441	-0.108	0.029
-699.514	-98.716	-0.325	-0.084
-698.499	152.464	0.062	-0.086
-697.485	-137.331	-0.166	-0.019
-696.470	-160.023	0.033	0.002
-695.456	126.060	0.054	-0.070
-694.441	25.353	0.019	0.016
-693.426	54.890	-0.275	-0.271
-692.412	-123.937	0.289	-0.046
-691.397	-29.286	-0.117	-0.069
-690.383	-42.472	-0.005	-0.002
-689.368	120.043	-0.081	-0.102
-688.354	5.797	-0.155	-0.117
-687.339	-77.483	-0.176	0.062
-686.324	-200.000	0.020	-0.293
-685.310	27.062	0.064	-0.055
-684.295	212.095	-0.093	0.149
-683.281	-56.403	-0.189	-0.086
-682.266	-36.440	0.045	-0.025
-681.251	-200.000	-0.026	0.359
-680.237	102.625	0.065	-0.077
-679.222	-36.945	-0.192	0.105
-678.208	52.127	-0.248	0.241
-677.193	104.658	0.095	0.114
-676.178	-59.461	-0.249	0.109
-675.164	-46.614	-0.252	0.126
-674.149	800.000	-0.033	0.150
-673.135	227.724	0.054	0.089
-672.120	-158.776	-0.365	-0.021
-671.105	-101.431	0.141	-0.035
-670.091	18.045	0.128	-0.104
-669.076	174.042	-0.050	-0.074
-668.062	-35.611	-0.170	-0.094
-667.047	800.000	0.068	-0.297
-666.032	73.742	-0.081	-0.087
-665.018	-200.000	-0.031	0.219
-664.003	136.246	-0.092	0.122
-662.989	667.904	-0.076	-0.201
-661.974	-71.789	0.114	0.043
-660.959	405.954	-0.019	-0.040
-659.945	-72.106	-0.110	0.042
-658.930	551.758	-0.094	-0.229
-657.916	-105.420	-0.240	-0.056
-656.901	-161.024	-0.247	-0.013
-655.886	-174.340	-0.124	-0.004
-654.872	3.017	-0.103	-0.076
-653.857	-138.781	0.217	-0.024
-652.843	-111.951	0.143	-0.029
-651.828	253.360	0.096	-0.166
-650.814	-83.996	-0.275	0.089
-649.799	800.000	0.045	-0.128
-648.784	360.303	-0.081	-0.166
-647.770	800.000	0.068	0.237
-646.755	-200.000	0.046	-0.401
-645.741	-176.361	-0.047	0.001
-644.726	-16.780	-0.191	0.123
-643.711	171.417	0.097	0.142
-642.697	-19.988	-0.113	0.071
-641.682	800.000	-0.073	0.217
-640.668	-120.633	-0.089	0.015
-639.653	-15.436	-0.209	-0.136
-638.638	36.292	-0.065	0.059
-637.624	-92.822	-0.156	-0.044
-636.609	481.507	-0.121	-0.279
-635.595	-61.134	-0.394	-0.169
-634.580	85.071	0.178	0.198
-633.565	91.416	0.216	0.248
-632.551	-200.000	0.054	-0.379
-631.536	800.000	-0.047	-0.184
-630.522	16.074	-0.233	-0.187
-629.507	-47.722	0.158	0.078
-628.492	-200.000	0.021	0.098
-627.478	-200.000	0.002	-0.012
-626.463	-37.086	-0.290	-0.158
-625.449	248.221	0.178	-0.307
-624.434	106.273	0.145	-0.174
-623.419	383.373	0.179	-0.375
-622.405	551.098	0.175	-0.428
-621.390	-98.259	-0.215	-0.056
-620.376	800.000	0.120	-0.406
-619.361	695.959	0.079	-0.212
-618.346	180.137	-0.079	-0.118
-617.332	-5.441	-0.048	-0.033
-616.317	177.270	-0.115	0.170
-615.303	-104.562	0.189	-0.044
-614.288	159.111	-0.243	-0.343
-613.273	-200.000	-0.004	-0.124
-612.259	-163.201	-0.352	-0.017
-611.244	395.854	-0.061	-0.130
-610.230	-74.366	-0.336	0.123
-609.215	-19.592	-0.304	0.191
-608.201	84.124	0.089	-0.099
-607.186	-155.781	-0.033	0.002
-606.171	-200.000	-0.003	-0.286
-605.157	405.944	-0.152	-0.325
-604.142	657.333	-0.080	0.210
-603.128	-26.704	-0.094	0.056
-602.113	-132.227	0.113	-0.015
-601.098	-165.622	-0.213	0.009
-600.084	-46.974	-0.116	0.058
-599.069	13.321	0.034	0.027
-598.055	-116.641	-0.282	0.053
-597.040	-200.000	0.018	-0.227
-596.025	352.939	0.105	-0.212
-595.011	-200.000	-0.077	0.378
-593.996	-200.000	0.015	0.206
-592.982	-200.000	0.017	-0.325
-591.967	-200.000	-0.004	0.185
-590.952	332.604	-0.038	0.074
-589.938	543.205	-0.042	0.102
-588.923	232.797	0.109	0.183
-587.909	-200.000	-0.012	0.344
-586.894	436.195	-0.086	-0.191
-585.879	433.916	-0.074	0.164
-584.865	409.386	0.025	0.055
-583.850	-200.000	-0.020	0.101
-582.836	86.229	0.169	0.189
-581.821	70.268	-0.145	0.153
-580.806	-23.490	-0.234	-0.143
-579.792	800.000	0.197	-0.560
-578.777	264.570	0.094	-0.166
-577.763	-94.414	0.140	-0.039
-576.748	251.160	0.175	-0.303
-575.733	-98.707	0.415	0.107
-574.719	800.000	0.063	-0.274
-573.704	-59.300	-0.331	-0.145
-572.690	-82.029	-0.386	0.128
-571.675	335.775	-0.036	0.070
-570.661	80.236	0.139	-0.152
-569.646	-80.611	0.183	0.062
-568.631	-200.000	0.005	0.520
-567.617	175.012	0.035	0.052
-566.602	-104.949	0.224	0.052
-565.588	-135.634	0.134	0.016
-564.573	-200.000	-0.029	0.165
-563.558	-0.826	-0.154	-0.111
-562.544	-11.315	0.219	-0.147
-561.529	207.985	0.154	-0.245
-560.515	-17.626	-0.207	0.132
-559.500	-18.253	-0.513	-0.326
-558.485	-38.307	-0.182	0.098
-557.471	51.085	-0.144	0.139
-556.456	165.283	0.133	0.191
-555.442	-99.950	0.626	0.159
-554.427	-170.021	-0.358	0.013
-553.412	278.440	-0.018	0.032
-552.398	157.175	-0.089	0.124
-551.383	-200.000	-0.006	0.197
-550.369	19.313	-0.075	-0.061
-549.354	44.737	-0.125	-0.117
-548.339	800.000	-0.054	-0.170
-547.325	-77.762	0.141	-0.050
-546.310	348.345	0.142	-0.285
-545.296	-39.157	-0.193	-0.103
-544.281	163.889	-0.068	0.098
-543.266	-147.276	-0.184	-0.016
-542.252	73.364	0.087	0.092
-541.237	-8.665	-0.216	-0.147
-540.223	-200.000	0.017	-0.150
-539.208	800.000	0.068	-0.251
-538.193	-26.007	-0.281	-0.168
-537.179	-21.570	-0.091	0.056
-536.164	-200.000	-0.005	0.032
-535.150	155.183	0.106	0.147
-534.135	566.100	-0.099	-0.243
-533.121	-200.000	-0.040	-0.220
-532.106	263.447	-0.126	0.222
-531.091	63.679	0.040	-0.041
-530.077	178.481	-0.255	-0.377
-529.062	570.282	0.125	-0.309
-528.048	-140.827	-0.110	0.011
-527.033	-6.184	0.183	-0.127
-526.018	-66.235	0.060	0.024
-525.004	325.427	0.049	0.095
-523.989	-10.931	0.107	-0.072
-522.975	800.000	-0.092	-0.331
-521.960	-138.146	0.092	-0.010
-520.945	37.828	0.146	-0.132
-519.931	-136.787	0.166	0.019
-518.916	333.815	0.053	-0.105
-517.902	-42.074	-0.230	-0.119
-516.887	-74.248	-0.186	0.068
-515.872	-80.022	-0.129	-0.044
-514.858	91.971	-0.146	0.167
-513.843	-77.809	0.299	0.105
-512.829	-177.837	-0.091	0.002
-511.814	-40.434	0.052	0.027
-510.799	-143.102	-0.102	0.010
-509.785	72.327	0.109	0.115
-508.770	-110.281	-0.437	0.092
-507.756	-68.075	0.438	-0.173
-506.741	-158.668	0.084	0.005
-505.726	-140.795	-0.245	0.026
-504.712	-156.634	0.068	-0.004
-503.697	-93.311	0.090	-0.025
-502.683	68.827	-0.095	0.099
-501.668	-7.369	-0.153	0.105
-500.653	-200.000	-0.028	0.269
-499.639	-174.791	0.127	0.004
-498.624	-125.250	-0.114	-0.018
-497.610	-69.641	-0.118	-0.046
-496.595	-101.113	0.171	-0.043
-495.581	-92.418	0.208	-0.059
-494.566	-120.189	0.158	0.027
-493.551	25.961	0.287	-0.242
-492.537	640.963	0.069	-0.178
-491.522	-200.000	-0.048	0.228
-490.508	53.136	0.083	0.080
-489.493	-100.014	-0.098	0.025
-488.478	60.174	-0.225	0.226
-487.464	-117.872	-0.404	-0.073
-486.449	310.610	-0.102	-0.193
-485.435	-200.000	-0.035	-0.164
-484.420	-200.000	0.049	0.239
-483.405	90.655	-0.188	-0.213
-482.391	-200.000	-0.024	-0.170
-481.376	-120.644	-0.173	0.030
-480.362	-200.000	0.028	0.216
-479.347	-34.210	0.184	0.102
-478.332	-200.000	-0.039	0.298
-477.318	-152.858	-0.094	-0.007
-476.303	128.810	-0.194	-0.250
-475.289	-200.000	0.023	0.149
-474.274	-73.290	0.241	-0.089
-473.259	-32.710	-0.294	0.165
-472.245	-200.000	0.016	-0.226
-471.230	-80.128	-0.458	0.155
-470.216	800.000	0.112	0.365
-469.201	101.489	0.274	-0.324
-468.186	800.000	-0.130	0.423
-467.172	85.976	-0.091	-0.101
-466.157	131.688	0.296	0.385
-465.143	114.919	-0.090	0.111
-464.128	10.213	-0.038	-0.029
-463.113	-1.165	0.180	0.129
-462.099	-200.000	0.001	0.031
-461.084	123.493	0.269	-0.341
-460.070	-1.702	0.086	0.061
-459.055	673.740	-0.086	0.225
-458.040	358.571	-0.065	-0.131
-457.026	-200.000	0.006	-0.170
-456.011	127.470	0.115	-0.148
-454.997	27.848	-0.220	-0.187
-453.982	98.389	-0.103	-0.120
-452.968	-123.175	-0.262	-0.042
-451.953	-45.626	0.205	0.103
-450.938	-43.098	0.295	0.151
-449.924	-106.726	-0.317	-0.071
-448.909	-63.746	-0.387	0.160
-447.895	-200.000	-0.004	0.094
-446.880	-200.000	0.000	-0.206
-445.865	800.000	0.156	0.452
-444.851	-72.509	0.305	0.114
-443.836	300.683	-0.098	0.183
-442.822	-117.686	-0.524	-0.095
-441.807	124.490	0.109	0.138
-440.792	307.092	0.030	0.057
-439.778	-113.563	0.301	-0.059
-438.763	48.778	-0.203	-0.193
-437.749	261.706	-0.194	0.339
-436.734	55.820	0.188	0.185
-435.719	800.000	-0.086	-0.301
-434.705	-117.307	0.122	-0.022
-433.690	-17.541	-0.174	-0.111
-432.676	-102.493	-0.346	0.084
-431.661	-170.252	0.537	-0.019
-430.646	169.401	-0.035	-0.051
-429.632	127.914	-0.248	-0.319
-428.617	-15.396	0.186	0.120
-427.603	530.045	0.097	-0.232
-426.588	96.037	0.246	-0.284
-425.573	-33.714	-0.101	0.056
-424.559	-195.919	0.112	0.001
-423.544	131.550	0.037	0.048
-422.530	315.898	0.037	-0.071
-421.515	-115.410	0.146	0.028
-420.500	20.562	-0.068	0.055
-419.486	-3.804	0.171	0.120
-418.471	800.000	0.093	0.330
-417.457	-126.118	-0.057	0.009
-416.442	-200.000	-0.010	-0.107
-415.428	-200.000	-0.071	-0.402
-414.413	-156.309	0.186	-0.012
-413.398	-130.709	-0.249	0.034
-412.384	-45.396	-0.104	0.052
-411.369	-200.000	0.014	0.229
-410.355	39.154	0.053	0.048
-409.340	-135.183	-0.313	0.038
-408.325	108.411	-0.024	0.029
-407.311	-48.229	0.303	0.148
-406.296	-105.535	-0.263	-0.060
-405.282	-33.618	0.166	-0.092
-404.267	287.483	-0.225	-0.411
-403.252	-200.000	-0.021	-0.099
-402.238	188.346	0.020	0.030
-401.223	-200.000	-0.043	0.251
-400.209	513.530	-0.191	-0.450
-399.194	-200.000	0.027	-0.148
-398.179	-15.819	0.126	0.081
-397.165	800.000	-0.081	0.278
-396.150	-200.000	0.012	0.356
-395.136	141.815	0.080	0.108
-394.121	-112.858	-0.299	-0.060
-393.106	27.000	0.100	0.085
-392.092	-200.000	0.021	-0.271
-391.077	-200.000	-0.015	0.278
-390.063	-110.748	0.261	0.054
-389.048	-200.000	-0.017	-0.242
-388.033	220.391	0.050	0.081
-387.019	20.461	0.179	0.146
-386.004	800.000	0.124	0.409
-384.990	499.304	0.168	0.390
-383.975	-83.614	-0.032	-0.010
-382.960	800.000	-0.097	-0.296
-381.946	-66.626	-0.192	0.077
-380.931	377.532	-0.027	0.055
-379.917	146.914	0.173	0.234
-378.902	747.910	0.078	-0.212
-377.888	139.641	-0.087	-0.116
-376.873	-106.348	0.135	0.030
-375.858	191.590	0.156	0.238
-374.844	-200.000	0.023	0.384
-373.829	-200.000	0.015	-0.162
-372.815	800.000	0.042	-0.130
-371.800	-167.423	0.248	-0.010
-370.785	-61.001	0.226	0.096
-369.771	-147.611	0.050	0.004
-368.756	390.444	-0.175	-0.365
-367.742	-46.584	-0.414	-0.205
-366.727	-80.118	-0.268	-0.090
-365.712	5.513	-0.081	0.061
-364.698	-5.230	0.185	-0.128
-363.683	-100.894	0.109	-0.027
-362.669	-55.585	-0.181	-0.082
-361.654	-154.820	0.255	0.017
-360.639	10.327	0.154	-0.118
-359.625	-51.475	-0.252	-0.119
-358.610	372.520	0.123	0.252
-357.596	202.602	-0.226	-0.352
-356.581	223.082	-0.235	-0.382
-355.566	170.760	0.229	-0.331
-354.552	363.449	0.049	-0.100
-353.537	-36.556	-0.167	-0.090
-352.523	47.109	0.144	0.135
-351.508	57.078	0.096	-0.094
-350.493	-16.982	-0.258	0.164
-349.479	800.000	0.049	-0.177
-348.464	22.119	-0.148	0.122
-347.450	-200.000	-0.025	0.164
-346.435	-39.742	0.314	-0.165
-345.420	-37.198	0.029	-0.016
-344.406	316.638	0.047	0.089
-343.391	523.509	-0.023	-0.055
-342.377	174.419	0.188	0.273
-341.362	800.000	-0.029	0.088
-340.348	-16.809	-0.308	-0.196
-339.333	368.055	-0.017	-0.034
-338.318	-200.000	0.047	-0.302
-337.304	154.644	0.209	-0.289
-336.289	305.708	0.089	0.166
-335.275	45.445	0.041	0.038
-334.260	-44.811	-0.149	0.075
-333.245	200.685	-0.136	0.211
-332.231	104.099	-0.168	-0.199
-331.216	-105.398	-0.026	-0.006
-330.202	-200.000	0.037	-0.195
-329.187	23.931	0.281	0.233
-328.172	390.835	-0.142	0.297
-327.158	-165.391	-0.365	-0.016
-326.143	800.000	0.046	0.133
-325.129	128.077	-0.198	-0.253
-324.114	-148.519	0.171	-0.014
-323.099	26.512	-0.060	0.051
-322.085	111.145	0.182	-0.220
-321.070	207.587	0.100	0.156
-320.056	-18.424	-0.038	-0.024
-319.041	-17.510	0.091	-0.058
-318.026	290.968	0.080	-0.146
-317.012	-200.000	-0.013	0.119
-315.997	-90.167	-0.272	-0.080
-314.983	-101.747	0.393	-0.096
-313.968	31.028	0.055	-0.047
-312.953	759.202	0.096	0.261
-311.939	-58.477	-0.342	-0.149
-310.924	-6.061	0.160	0.110
-309.910	-98.851	0.053	0.013
-308.895	-88.262	-0.319	0.096
-307.880	-85.676	-0.377	-0.118
-306.866	-131.874	0.035	0.005
-305.851	156.074	-0.082	0.113
-304.837	-125.445	0.238	-0.036
-303.822	-78.058	0.204	0.071
-302.807	-39.101	-0.216	-0.114
-301.793	-200.000	-0.012	0.272
-300.778	-55.498	0.275	0.124
-299.764	-132.282	-0.225	-0.029
-298.749	488.502	-0.106	0.244
-297.735	800.000	-0.068	0.290
-296.720	-196.464	0.534	-0.004
-295.705	-150.770	-0.163	-0.012
-294.691	-112.609	0.280	-0.056
-293.676	43.878	0.173	-0.159
-292.662	-200.000	-0.011	-0.456
-291.647	199.813	0.175	-0.269
-290.632	4.756	0.236	-0.174
-289.618	11.555	0.239	0.184
-288.603	576.716	-0.100	-0.245
-287.589	-200.000	-0.023	0.105
-286.574	-88.898	-0.068	-0.020
-285.559	-145.767	-0.154	-0.014
-284.545	-53.109	-0.455	-0.210
-283.530	113.204	0.121	-0.147
-282.516	-10.467	0.180	0.120
-281.501	-5.642	0.331	0.228
-280.486	-200.000	-0.001	-0.025
-279.472	800.000	0.033	0.126
-278.457	800.000	-0.077	-0.276
-277.443	-200.000	-0.017	0.170
-276.428	-118.829	-0.039	0.007
-275.413	-62.465	-0.156	-0.065
-274.399	-200.000	-0.018	0.154
-273.384	39.143	-0.239	-0.214
-272.370	-76.840	0.630	-0.221
-271.355	94.721	-0.125	0.143
-270.340	-200.000	0.016	0.112
-269.326	26.374	0.257	-0.216
-268.311	527.865	0.061	0.144
-267.297	-142.228	-0.167	0.017
-266.282	800.000	0.105	0.331
-265.267	97.411	0.076	-0.087
-264.253	800.000	-0.039	-0.133
-263.238	486.931	0.049	0.113
-262.224	-3.420	-0.171	-0.120
-261.209	-34.220	0.287	0.158
-260.195	319.853	0.031	0.059
-259.180	-94.649	-0.115	-0.031
-258.165	-40.041	-0.212	-0.111
-257.151	800.000	-0.024	0.082
-256.136	-5.622	0.191	-0.131
-255.122	800.000	-0.059	-0.179
-254.107	384.067	-0.069	0.142
-253.092	-74.538	-0.093	0.034
-252.078	81.140	-0.255	0.276
-251.063	54.332	0.214	-0.206
-250.049	-172.893	-0.111	0.003
-249.034	-153.637	0.084	0.006
-248.019	-77.789	-0.198	0.069
-247.005	131.828	0.161	0.208
-245.990	491.714	-0.120	-0.275
-244.976	117.973	-0.273	-0.337
-243.961	800.000	-0.149	0.561
-242.946	-200.000	-0.011	0.430
-241.932	-94.401	-0.266	0.073
-240.917	-114.408	-0.067	0.013
-239.903	-130.960	0.130	-0.017
-238.888	-128.621	-0.309	-0.044
-237.873	-200.000	0.018	0.208
-236.859	-200.000	0.048	0.347
-235.844	144.150	0.188	0.251
-234.830	487.655	0.111	0.253
-233.815	-94.763	-0.060	0.016
-232.800	-51.980	0.165	0.077
-231.786	-27.330	0.281	0.164
-230.771	800.000	-0.036	0.136
-229.757	-53.108	0.172	0.079
-228.742	-161.047	0.133	-0.007
-227.727	-200.000	0.002	0.020
-226.713	69.127	0.122	0.126
-225.698	800.000	0.041	0.165
-224.684	-55.628	0.245	0.110
-223.669	725.853	0.019	0.051
-222.655	-68.698	0.159	0.062
-221.640	271.253	0.121	-0.213
-220.625	-90.072	-0.134	-0.039
-219.611	800.000	-0.124	0.357
-218.596	183.883	0.231	0.343
-217.582	-200.000	0.058	0.340
-216.567	46.326	-0.125	-0.116
-215.552	-200.000	-0.036	0.177
-214.538	78.080	-0.252	0.270
-213.523	261.515	0.156	0.271
-212.509	-74.771	-0.166	0.060
-211.494	-200.000	0.013	-0.235
-210.479	616.358	-0.088	-0.222
-209.465	93.004	-0.105	-0.119
-208.450	-42.126	-0.181	-0.093
-207.436	-0.551	0.340	-0.241
-206.421	564.787	-0.107	-0.260
-205.406	-71.959	-0.395	0.147
-204.392	-200.000	0.033	0.262
-203.377	800.000	0.059	0.214
-202.363	-60.625	-0.057	-0.024
-201.348	190.852	-0.068	0.102
-200.333	0.496	0.053	-0.038
-199.319	106.956	0.192	0.229
-198.304	-34.017	-0.248	0.137
-197.290	127.720	0.163	-0.207
-196.275	-107.049	-0.094	0.021
-195.260	-198.454	-0.171	-0.001
-194.246	-72.890	0.209	-0.077
-193.231	3.068	-0.127	0.092
-192.217	219.969	-0.120	0.193
-191.202	-125.020	-0.223	-0.034
-190.187	-200.000	-0.020	0.162
-189.173	556.291	0.080	0.192
-188.158	-123.999	0.321	0.051
-187.144	485.050	0.004	-0.009
-186.129	-110.894	-0.219	0.045
-185.114	-200.000	-0.055	0.343
-184.100	-200.000	-0.047	-0.251
-183.085	-14.376	0.228	0.147
-182.071	740.183	-0.066	0.177
-181.056	10.285	0.070	0.053
-180.042	-79.913	0.241	0.081
-179.027	-140.929	0.389	0.040
-178.012	-200.000	-0.057	-0.274
-176.998	-94.395	0.324	0.089
-175.983	737.678	-0.066	-0.178
-174.969	-143.018	-0.195	0.019
-173.954	8.865	0.145	0.110
-172.939	800.000	-0.056	-0.159
-171.925	-180.787	0.240	-0.005
-170.910	-145.959	0.254	-0.022
-169.896	89.332	0.224	-0.249
-168.881	79.002	-0.110	0.118
-167.866	-76.165	0.228	-0.080
-166.852	4.781	0.270	-0.199
-165.837	-200.000	-0.011	0.193
-164.823	-200.000	-0.019	0.093
-163.808	-108.209	0.155	-0.034
-162.793	-175.306	0.240	-0.007
-161.779	41.043	0.140	0.127
-160.764	-200.000	-0.002	0.026
-159.750	-39.202	0.224	0.117
-158.735	-174.708	0.185	0.005
-157.720	15.122	0.152	0.119
-156.706	800.000	-0.067	0.248
-155.691	800.000	-0.031	-0.087
-154.677	115.992	-0.141	0.172
-153.662	-118.980	0.338	-0.059
-152.647	-32.670	0.290	-0.161
-151.633	267.280	0.119	-0.209
-150.618	-114.320	-0.191	-0.037
-149.604	-132.633	-0.177	0.023
-148.589	-55.360	-0.210	0.094
-147.574	204.573	0.153	0.237
-146.560	800.000	-0.088	0.320
-145.545	-70.977	0.319	0.120
-144.531	-109.814	0.084	-0.018
-143.516	800.000	-0.060	-0.169
-142.502	-55.951	-0.086	0.038
-141.487	-74.654	0.194	0.070
-140.472	30.663	0.256	0.219
-139.458	201.729	0.109	-0.168
-138.443	-200.000	-0.029	0.163
-137.429	542.074	-0.043	-0.103
-136.414	-200.000	-0.031	0.183
-135.399	800.000	-0.051	0.206
-134.385	-146.705	-0.282	-0.024
-133.370	355.842	0.111	0.220
-132.356	-200.000	0.007	0.031
-131.341	-30.009	-0.065	0.037
-130.326	460.124	0.160	0.355
-129.312	748.206	0.033	-0.088
-128.297	-12.039	-0.255	-0.167
-127.283	10.610	-0.046	0.035
-126.268	102.761	0.138	0.162
-125.253	74.793	0.315	0.331
-124.239	353.224	0.099	0.197
-123.224	-88.957	-0.205	0.061
-122.210	-94.259	0.089	-0.024
