DTS Sentinel unit serial number:	SN413079Multiplexer serial number:	ORYXHardware model number:	OX4-SRSoftware version number:	ORYX F/W v4.00 Oryx Data Collector v3.7.2.0data status	okinstallation	princeton_trtdifferential loss correction	single-endedforward channel	channel 4reverse channel	N/Adate	2019/09/11time	10:23:11forward acquisition time	60.00reverse acquisition time	0.00gamma	496.2192k internal	0.2294k external	0.2294temperature offset calibration	0.9972default loss term (dB/km)	0.3790temperature slope calibration	1.0000multiplexer offset coefficient	1.0000multiplexer slope coefficient	1.0000fibre end	0.00T internal ref (°C)	36.17T ext. ref 1 (°C)	0.16T ext. ref 2 (°C)	32.60length (m)	temperature (°C)	Stokes	anti-Stokes-747.200	258.724	0.012	-0.021
-746.185	594.398	-0.093	-0.236
-745.171	800.000	0.058	0.225
-744.156	187.120	-0.114	0.173
-743.142	-72.441	-0.124	-0.047
-742.127	800.000	0.114	0.381
-741.112	-122.357	-0.558	0.093
-740.098	-62.897	-0.185	0.078
-739.083	122.526	0.189	0.242
-738.069	137.743	-0.303	0.405
-737.054	-165.951	-0.571	-0.025
-736.039	-148.940	-0.197	-0.016
-735.025	64.295	0.364	0.375
-734.010	-22.010	-0.324	-0.201
-732.996	61.541	-0.094	0.096
-731.981	35.673	-0.195	0.175
-730.966	103.063	-0.083	-0.099
-729.952	51.443	-0.107	-0.104
-728.937	200.208	-0.253	-0.397
-727.923	800.000	-0.053	-0.203
-726.908	-133.842	-0.114	0.015
-725.894	89.926	0.046	-0.052
-724.879	81.220	-0.172	-0.190
-723.864	-13.526	0.192	-0.127
-722.850	-158.893	-0.160	0.009
-721.835	-128.509	-0.271	0.039
-720.821	281.491	0.053	-0.098
-719.806	-57.823	0.081	0.036
-718.791	-200.000	-0.001	-0.037
-717.777	233.530	0.155	0.260
-716.762	-122.287	-0.150	0.025
-715.748	-200.000	-0.010	0.162
-714.733	-88.412	-0.183	0.056
-713.718	-153.815	-0.383	0.027
-712.704	275.364	-0.116	0.210
-711.689	-144.361	-0.126	-0.012
-710.675	-200.000	0.019	-0.379
-709.660	-134.693	0.127	-0.016
-708.645	-58.157	-0.194	-0.086
-707.631	-200.000	0.002	0.113
-706.616	14.018	0.262	-0.208
-705.602	16.774	0.379	0.306
-704.587	-6.261	-0.039	-0.027
-703.572	-200.000	-0.005	0.116
-702.558	246.656	-0.158	-0.272
-701.543	51.182	0.053	0.052
-700.529	-122.378	0.358	0.060
-699.514	40.783	0.220	0.202
-698.499	-30.241	-0.187	-0.108
-697.485	-181.945	0.440	0.009
-696.470	-200.000	0.001	-0.129
-695.456	644.749	-0.095	0.247
-694.441	-102.763	-0.161	-0.039
-693.426	-145.604	-0.132	-0.012
-692.412	19.760	0.241	-0.198
-691.397	134.730	-0.075	0.099
-690.383	65.522	0.130	-0.134
-689.368	-15.282	0.218	-0.142
-688.354	-162.705	-0.183	0.009
-687.339	-103.098	-0.100	-0.024
-686.324	-200.000	0.039	-0.519
-685.310	-200.000	0.003	-0.190
-684.295	-70.041	0.404	0.157
-683.281	-200.000	0.037	0.175
-682.266	240.203	-0.131	0.223
-681.251	-83.986	0.102	-0.033
-680.237	-200.000	-0.023	-0.294
-679.222	-92.184	0.152	-0.044
-678.208	-200.000	-0.038	0.204
-677.193	-38.229	-0.172	-0.093
-676.178	291.551	0.103	-0.192
-675.164	-200.000	-0.015	-0.282
-674.149	-41.105	0.107	-0.056
-673.135	508.976	-0.093	-0.220
-672.120	725.233	-0.047	-0.128
-671.105	-200.000	-0.033	0.173
-670.091	-43.984	0.214	0.109
-669.076	-135.739	-0.092	0.011
-668.062	-64.184	-0.088	-0.036
-667.047	-200.000	-0.016	-0.237
-666.032	-200.000	0.010	0.380
-665.018	-140.371	0.164	-0.017
-664.003	-98.380	0.095	0.025
-662.989	-200.000	-0.005	0.328
-661.974	353.643	0.086	-0.175
-660.959	24.473	-0.174	0.147
-659.945	244.081	-0.071	0.122
-658.930	73.565	-0.255	0.272
-657.916	800.000	-0.029	-0.123
-656.901	-116.828	-0.256	-0.048
-655.886	800.000	-0.052	-0.181
-654.872	219.530	-0.183	-0.299
-653.857	-151.596	-0.196	0.015
-652.843	30.539	0.163	0.142
-651.828	217.766	-0.152	0.246
-650.814	-116.476	0.164	0.031
-649.799	800.000	-0.067	-0.212
-648.784	410.602	-0.110	-0.237
-647.770	26.681	-0.179	0.153
-646.755	125.733	0.094	-0.121
-645.741	-156.944	0.247	0.015
-644.726	188.417	-0.028	-0.043
-643.711	-174.139	-0.291	-0.009
-642.697	98.822	0.196	0.231
-641.682	-99.011	-0.299	-0.077
-640.668	164.984	0.240	-0.346
-639.653	-200.000	0.002	-0.026
-638.638	-49.380	0.099	-0.048
-637.624	111.671	-0.122	0.150
-636.609	-200.000	-0.053	0.251
-635.595	112.063	0.116	-0.143
-634.580	800.000	-0.028	-0.108
-633.565	-134.622	-0.296	-0.037
-632.551	-104.576	-0.115	-0.027
-631.536	-96.810	0.137	-0.037
-630.522	-65.411	-0.192	-0.079
-629.507	130.636	-0.109	0.143
-628.492	506.911	-0.109	-0.257
-627.478	88.717	-0.126	-0.143
-626.463	-200.000	0.009	-0.141
-625.449	7.517	-0.131	0.100
-624.434	-200.000	-0.007	-0.091
-623.419	-59.938	0.135	0.059
-622.405	43.276	-0.092	0.086
-621.390	86.483	-0.022	0.024
-620.376	-150.486	0.183	-0.014
-619.361	13.638	0.080	0.063
-618.346	-81.119	-0.264	0.089
-617.332	800.000	-0.073	-0.250
-616.317	204.148	0.129	-0.204
-615.303	800.000	0.057	0.216
-614.288	452.201	-0.106	0.239
-613.273	-154.647	-0.153	0.010
-612.259	-45.061	0.146	0.074
-611.244	-200.000	-0.031	0.160
-610.230	-126.795	0.234	0.035
-609.215	59.970	-0.097	-0.098
-608.201	-200.000	0.032	-0.402
-607.186	-124.995	-0.432	-0.068
-606.171	255.913	0.080	-0.140
-605.157	-149.605	0.352	0.028
-604.142	264.532	0.052	-0.093
-603.128	-148.871	-0.120	-0.010
-602.113	59.405	0.049	-0.049
-601.098	-200.000	-0.018	0.184
-600.084	59.995	-0.067	0.068
-599.069	111.609	0.160	0.196
-598.055	-133.573	-0.158	0.020
-597.040	-3.946	0.226	-0.159
-596.025	16.951	0.127	-0.102
-595.011	800.000	0.028	-0.096
-593.996	482.571	0.162	-0.375
-592.982	-200.000	-0.021	-0.401
-591.967	-146.790	0.305	0.027
-590.952	800.000	-0.045	0.127
-589.938	489.673	-0.103	0.240
-588.923	181.090	-0.040	0.060
-587.909	-200.000	-0.001	0.037
-586.894	-14.897	-0.324	0.211
-585.879	-200.000	-0.033	0.379
-584.865	-99.427	-0.329	-0.084
-583.850	22.417	0.251	-0.209
-582.836	800.000	0.029	-0.110
-581.821	-142.346	0.277	-0.028
-580.806	800.000	0.054	-0.193
-579.792	800.000	0.120	0.430
-578.777	3.592	0.451	0.335
-577.763	73.431	0.144	0.153
-576.748	-200.000	-0.008	0.360
-575.733	-80.966	0.116	0.039
-574.719	455.545	0.054	0.122
-573.704	-143.302	0.325	0.032
-572.690	-130.040	-0.191	0.027
-571.675	-43.709	-0.079	0.040
-570.661	-15.535	-0.211	-0.137
-569.646	-200.000	-0.022	0.119
-568.631	72.737	0.249	-0.264
-567.617	-51.546	-0.179	-0.085
-566.602	-200.000	-0.026	0.400
-565.588	39.941	-0.061	-0.055
-564.573	148.703	-0.300	-0.412
-563.558	-58.832	-0.277	-0.122
-562.544	800.000	0.120	-0.414
-561.529	38.066	-0.178	-0.161
-560.515	532.406	0.021	0.050
-559.500	-102.835	-0.075	0.018
-558.485	131.770	0.174	-0.227
-557.471	17.838	0.171	0.138
-556.456	-76.338	0.080	0.029
-555.442	-200.000	0.015	0.092
-554.427	-200.000	0.029	-0.145
-553.412	-200.000	-0.244	0.001
-552.398	577.007	-0.040	-0.098
-551.383	-200.000	-0.011	-0.237
-550.369	-200.000	0.015	-0.223
-549.354	-64.339	0.206	-0.085
-548.339	680.813	-0.030	0.079
-547.325	-96.483	-0.054	-0.015
-546.310	-200.000	0.065	-0.428
-545.296	-81.746	0.277	0.092
-544.281	658.313	-0.135	-0.351
-543.266	-102.085	-0.554	-0.136
-542.252	-30.126	0.230	0.133
-541.237	-96.327	-0.170	0.046
-540.223	-92.583	-0.306	0.087
-539.208	-94.617	-0.258	-0.071
-538.193	53.562	0.128	-0.125
-537.179	-200.000	-0.043	0.199
-536.164	-38.528	0.081	-0.043
-535.150	-175.368	-0.131	-0.004
-534.135	-59.111	0.335	0.146
-533.121	-34.968	0.185	0.102
-532.106	22.619	-0.000	0.000
-531.091	-59.509	-0.279	0.122
-530.077	14.872	0.162	-0.129
-529.062	-200.000	-0.004	-0.050
-528.048	-200.000	-0.026	-0.267
-527.033	273.812	-0.135	-0.241
-526.018	16.324	0.108	0.086
-525.004	-50.640	-0.188	-0.090
-523.989	364.885	-0.096	0.197
-522.975	-152.536	-0.416	0.030
-521.960	455.600	0.098	0.221
-520.945	-32.010	-0.307	-0.174
-519.931	-33.740	-0.144	-0.080
-518.916	289.696	0.084	0.155
-517.902	800.000	0.094	-0.280
-516.887	-200.000	-0.003	-0.159
-515.872	-200.000	0.318	0.001
-514.858	3.791	-0.229	-0.170
-513.843	-146.865	0.311	-0.027
-512.829	125.594	0.196	-0.251
-511.814	166.071	0.131	-0.188
-510.799	22.668	0.349	-0.290
-509.785	-95.728	0.374	-0.101
-508.770	-80.838	0.318	-0.107
-507.756	-162.588	0.253	-0.013
-506.741	-7.856	0.197	0.135
-505.726	-200.000	-0.005	0.174
-504.712	-74.206	0.116	0.043
-503.697	-95.337	0.473	-0.129
-502.683	90.867	-0.163	0.185
-501.668	-200.000	-0.010	0.050
-500.653	-68.524	-0.308	0.121
-499.639	-157.809	0.201	-0.012
-498.624	401.623	0.090	-0.191
-497.610	2.596	-0.236	-0.173
-496.595	22.889	-0.115	-0.096
-495.581	19.989	0.083	-0.068
-494.566	248.111	0.064	0.110
-493.551	2.063	-0.282	0.206
-492.537	-24.552	-0.338	0.204
-491.522	-174.508	0.311	0.009
-490.508	-200.000	0.066	0.385
-489.493	31.630	-0.245	0.214
-488.478	388.364	0.143	0.299
-487.464	-156.406	0.221	-0.014
-486.449	800.000	-0.035	0.124
-485.435	79.995	0.117	0.127
-484.420	800.000	-0.089	0.249
-483.405	-200.000	0.027	-0.215
-482.391	-186.859	0.194	-0.003
-481.376	-74.719	-0.150	0.054
-480.362	-102.921	-0.404	0.097
-479.347	-143.035	-0.072	-0.007
-478.332	-200.000	0.045	-0.503
-477.318	-22.996	0.351	-0.214
-476.303	303.241	-0.062	-0.116
-475.289	-49.948	-0.296	-0.142
-474.274	800.000	0.059	-0.173
-473.259	21.845	0.196	0.162
-472.245	-62.721	0.176	0.074
-471.230	800.000	0.057	0.237
-470.216	800.000	-0.028	0.113
-469.201	212.104	-0.127	-0.202
-468.186	-96.353	0.384	0.103
-467.172	-163.855	-0.214	-0.010
-466.157	-97.328	-0.089	0.024
-465.143	42.687	-0.057	0.052
-464.128	175.357	0.095	-0.139
-463.113	184.337	0.126	-0.189
-462.099	-100.654	0.612	-0.153
-461.084	-122.381	-0.247	0.041
-460.070	-91.213	-0.218	0.063
-459.055	101.670	0.064	-0.075
-458.040	-200.000	-0.017	0.212
-457.026	-122.162	-0.158	-0.026
-456.011	153.829	-0.245	-0.340
-454.997	254.298	0.118	-0.204
-453.982	800.000	0.038	-0.141
-452.968	-145.265	-0.262	0.024
-451.953	171.540	-0.070	0.102
-450.938	23.831	-0.118	0.098
-449.924	-11.138	0.163	0.108
-448.909	800.000	-0.095	-0.279
-447.895	271.150	-0.035	-0.063
-446.880	170.790	0.192	-0.278
-445.865	-85.319	-0.144	0.045
-444.851	-200.000	-0.028	-0.258
-443.836	-53.460	-0.075	-0.034
-442.822	-200.000	0.009	0.326
-441.807	-54.362	0.198	-0.091
-440.792	800.000	-0.085	-0.310
-439.778	-130.730	0.330	0.045
-438.763	-200.000	-0.072	0.321
-437.749	-121.464	-0.166	-0.028
-436.734	800.000	0.048	-0.189
-435.719	186.969	-0.112	0.169
-434.705	-117.173	0.130	0.024
-433.690	220.952	-0.082	0.132
-432.676	-7.795	-0.006	-0.004
-431.661	-126.046	0.128	-0.019
-430.646	-162.191	0.235	-0.012
-429.632	-200.000	-0.008	0.122
-428.617	-104.853	-0.310	-0.072
-427.603	-200.000	0.039	0.210
-426.588	73.335	0.094	-0.099
-425.573	-200.000	-0.011	-0.112
-424.559	559.400	0.137	-0.334
-423.544	278.259	0.194	0.349
-422.530	-158.088	-0.232	0.014
-421.515	-60.543	0.421	-0.181
-420.500	-38.055	-0.338	0.181
-419.486	-200.000	0.020	0.377
-418.471	-119.766	0.345	0.060
-417.457	-128.188	-0.102	-0.015
-416.442	-69.074	0.082	0.032
-415.428	-83.464	-0.362	0.117
-414.413	420.641	0.097	0.211
-413.398	3.489	-0.218	-0.161
-412.384	89.472	0.135	0.152
-411.369	-28.664	-0.399	-0.232
-410.355	800.000	-0.081	-0.347
-409.340	-75.880	0.216	-0.077
-408.325	17.998	-0.177	0.142
-407.311	391.890	0.104	0.218
-406.296	800.000	-0.012	-0.044
-405.282	-41.868	0.120	0.062
-404.267	-84.748	-0.269	0.085
-403.252	-59.058	-0.277	-0.121
-402.238	30.646	0.155	0.134
-401.223	10.058	-0.192	-0.147
-400.209	-94.731	-0.045	-0.012
-399.194	-151.139	0.073	-0.006
-398.179	-75.713	-0.373	-0.133
-397.165	-152.856	-0.082	-0.006
-396.150	22.370	0.327	0.270
-395.136	81.812	0.086	-0.094
-394.121	-174.677	0.449	0.013
-393.106	-111.585	-0.186	-0.038
-392.092	-79.916	0.358	0.121
-391.077	592.673	0.154	-0.383
-390.063	800.000	0.041	0.114
-389.048	-111.535	-0.309	-0.063
-388.033	229.444	-0.080	0.131
-387.019	-115.177	-0.381	0.073
-386.004	800.000	0.078	0.234
-384.990	-200.000	0.008	0.413
-383.975	-84.284	-0.034	0.011
-382.960	521.597	-0.088	-0.208
-381.946	-77.700	-0.023	0.008
-380.931	4.153	0.123	-0.090
-379.917	130.386	-0.117	-0.151
-378.902	-49.755	-0.277	-0.133
-377.888	32.576	0.049	0.043
-376.873	-74.937	-0.240	-0.087
-375.858	484.741	0.029	0.067
-374.844	800.000	0.094	0.334
-373.829	-118.469	-0.332	0.059
-372.815	13.704	-0.146	-0.115
-371.800	-71.788	-0.181	0.068
-370.785	800.000	0.102	-0.381
-369.771	-50.985	-0.084	0.040
-368.756	-33.501	0.115	-0.064
-367.742	661.987	-0.131	0.341
-366.727	53.976	0.125	0.121
-365.712	-72.079	0.195	-0.073
-364.698	-200.000	0.007	0.079
-363.683	-200.000	-0.037	0.210
-362.669	25.109	-0.267	-0.223
-361.654	-200.000	0.004	-0.183
-360.639	-42.796	-0.248	-0.127
-359.625	83.302	-0.190	0.209
-358.610	20.546	-0.275	0.224
-357.596	-145.953	0.106	0.009
-356.581	308.629	0.126	-0.237
-355.566	710.642	-0.059	-0.158
-354.552	16.986	-0.076	-0.061
-353.537	800.000	0.094	0.338
-352.523	800.000	-0.029	-0.099
-351.508	-200.000	0.007	-0.158
-350.493	177.730	-0.147	-0.216
-349.479	-11.432	0.093	-0.061
-348.464	57.372	0.171	0.168
-347.450	-200.000	0.046	-0.293
-346.435	800.000	-0.094	0.311
-345.420	371.461	-0.078	0.160
-344.406	77.126	-0.204	-0.218
-343.391	-26.596	-0.111	0.066
-342.377	200.291	0.214	-0.331
-341.362	-25.358	-0.095	-0.057
-340.348	-21.114	-0.034	-0.021
-339.333	-58.486	0.199	0.087
-338.318	82.832	0.165	0.180
-337.304	503.658	-0.117	0.273
-336.289	-200.000	-0.030	-0.212
-335.275	199.580	0.036	-0.055
-334.260	208.853	-0.061	0.096
-333.245	448.017	-0.088	-0.195
-332.231	-123.846	0.224	0.036
-331.216	20.066	0.299	0.243
-330.202	104.632	0.279	0.330
-329.187	93.803	-0.119	0.136
-328.172	-75.401	0.170	-0.061
-327.158	-36.992	-0.252	-0.136
-326.143	1.267	0.310	-0.224
-325.129	800.000	0.035	-0.130
-324.114	-88.507	-0.347	-0.104
-323.099	18.152	0.197	0.158
-322.085	-67.844	-0.236	-0.093
-321.070	800.000	0.063	0.244
-320.056	189.509	-0.101	0.153
-319.041	-39.923	-0.174	-0.091
-318.026	341.921	0.094	-0.186
-317.012	-66.582	-0.031	0.012
-315.997	-169.521	-0.063	0.002
-314.983	-200.000	-0.014	0.252
-313.968	-200.000	-0.035	0.243
-312.953	33.432	0.271	0.237
-311.939	-200.000	0.046	-0.214
-310.924	-61.875	0.206	-0.087
-309.910	-200.000	-0.012	0.323
-308.895	238.854	0.101	-0.169
-307.880	-200.000	0.014	-0.069
-306.866	-165.122	-0.077	-0.003
-305.851	-24.631	0.204	0.122
-304.837	-182.201	0.057	-0.001
-303.822	-72.555	0.326	-0.121
-302.807	-93.815	-0.227	0.063
-301.793	156.271	-0.102	0.141
-300.778	800.000	-0.058	0.171
-299.764	6.175	0.080	0.060
-298.749	502.747	-0.050	0.116
-297.735	-200.000	0.022	-0.113
-296.720	43.608	0.059	-0.054
-295.705	800.000	0.078	-0.271
-294.691	-91.110	-0.122	0.035
-293.676	-64.548	0.145	0.059
-292.662	-53.081	-0.009	0.004
-291.647	-137.955	-0.121	0.014
-290.632	-200.000	-0.003	0.028
-289.618	-109.116	0.195	-0.042
-288.603	-28.151	0.015	0.009
-287.589	686.899	-0.046	-0.120
-286.574	206.797	0.194	0.303
-285.559	307.057	0.185	0.346
-284.545	140.839	0.067	-0.088
-283.530	-89.678	-0.188	-0.055
-282.516	-108.555	-0.095	0.020
-281.501	-49.853	0.260	0.124
-280.486	340.685	0.095	-0.187
-279.472	-200.000	0.008	-0.217
-278.457	21.979	-0.283	-0.231
-277.443	-184.807	-0.246	0.004
-276.428	-200.000	-0.046	0.325
-275.413	800.000	0.079	0.253
-274.399	198.949	-0.136	-0.209
-273.384	-97.601	-0.232	0.060
-272.370	32.881	-0.144	0.126
-271.355	27.129	-0.036	0.030
-270.340	77.791	-0.301	0.322
-269.326	309.530	-0.079	0.148
-268.311	-11.623	-0.146	0.096
-267.297	800.000	0.048	-0.196
-266.282	214.134	0.052	-0.083
-265.267	-106.380	-0.263	0.059
-264.253	-51.640	-0.110	-0.052
-263.238	-89.945	0.204	-0.060
-262.224	90.653	-0.245	-0.276
-261.209	508.001	-0.188	0.438
-260.195	800.000	0.068	0.213
-259.180	281.189	0.144	0.259
-258.165	-147.972	-0.024	-0.002
-257.151	-57.860	0.243	-0.107
-256.136	454.878	-0.080	0.178
-255.122	218.328	-0.073	-0.118
-254.107	800.000	0.012	-0.046
-253.092	419.085	0.120	0.259
-252.078	-200.000	0.016	-0.090
-251.063	-44.827	-0.204	0.102
-250.049	-36.395	0.081	-0.044
-249.034	-86.723	0.242	0.074
-248.019	424.710	-0.032	0.069
-247.005	-200.000	-0.006	0.066
-245.990	448.892	0.079	0.175
-244.976	-113.749	0.085	0.017
-243.961	-102.659	-0.266	0.064
-242.946	1.756	0.243	0.175
-241.932	-133.039	0.079	0.010
-240.917	84.617	0.157	-0.173
-239.903	-200.000	0.008	0.072
-238.888	800.000	0.059	0.175
-237.873	-54.488	0.108	0.049
-236.859	-29.754	0.243	0.139
-235.844	-154.603	0.122	0.008
-234.830	-34.574	0.144	-0.079
-233.815	310.421	0.170	-0.319
-232.800	68.577	-0.185	0.190
-231.786	206.339	-0.039	-0.061
-230.771	234.116	0.032	0.053
-229.757	-200.000	0.015	-0.192
-228.742	800.000	-0.077	0.286
-227.727	-58.276	-0.137	0.060
-226.713	358.124	0.019	0.037
-225.698	-127.667	0.147	-0.021
-224.684	800.000	0.047	0.140
-223.669	131.784	0.135	-0.174
-222.655	-200.000	0.014	0.253
-221.640	10.699	0.066	-0.050
-220.625	-98.030	0.490	-0.126
-219.611	167.993	-0.066	-0.094
-218.596	109.361	-0.090	-0.108
-217.582	-200.000	-0.149	0.000
-216.567	800.000	-0.086	-0.259
-215.552	-81.493	-0.290	0.096
-214.538	177.911	-0.124	0.181
-213.523	-200.000	-0.031	-0.204
-212.509	323.124	-0.063	0.120
-211.494	-27.978	0.128	0.074
-210.479	-200.000	0.009	-0.310
-209.465	-117.231	0.275	0.050
-208.450	-57.225	0.140	-0.062
-207.436	49.174	0.178	0.167
-206.421	223.904	-0.023	0.037
-205.406	290.385	0.089	-0.161
-204.392	140.534	0.091	-0.121
-203.377	-200.000	0.035	-0.154
-202.363	183.397	0.104	-0.153
-201.348	60.042	-0.101	0.100
-200.333	241.824	0.014	0.024
-199.319	445.462	-0.051	0.113
-198.304	800.000	0.085	-0.354
-197.290	-138.074	0.084	-0.009
-196.275	-25.108	-0.184	0.109
-195.260	226.254	0.050	0.082
-194.246	39.509	0.080	-0.071
-193.231	743.602	0.094	-0.253
-192.217	343.693	-0.039	0.077
-191.202	800.000	-0.079	-0.220
-190.187	-200.000	0.052	-0.313
-189.173	800.000	0.050	-0.204
-188.158	-200.000	-0.035	-0.173
-187.144	150.334	-0.068	0.092
-186.129	800.000	-0.065	-0.216
-185.114	-88.263	0.130	-0.039
-184.100	82.460	0.237	0.258
-183.085	-81.714	-0.074	0.024
-182.071	56.955	0.067	0.065
-181.056	-174.871	-0.328	-0.009
-180.042	249.861	-0.027	-0.046
-179.027	-95.428	-0.095	0.026
-178.012	369.296	-0.059	-0.119
-176.998	165.926	-0.185	0.262
-175.983	360.626	0.138	0.277
-174.969	544.920	-0.101	0.241
-173.954	-200.000	-0.043	0.397
-172.939	-200.000	0.005	0.225
-171.925	519.083	0.025	0.059
-170.910	800.000	0.129	-0.471
-169.896	19.629	0.094	0.076
-168.881	-200.000	-0.030	0.243
-167.866	-107.217	-0.282	0.062
-166.852	-145.737	0.500	-0.045
-165.837	115.360	0.310	0.379
-164.823	-94.217	-0.148	-0.040
-163.808	133.992	-0.060	-0.078
-162.793	-73.887	-0.092	0.033
-161.779	136.032	-0.094	-0.122
-160.764	581.878	-0.125	-0.306
-159.750	-122.423	-0.152	-0.025
-158.735	-200.000	0.068	0.339
-157.720	449.503	-0.014	-0.030
-156.706	35.747	-0.070	0.061
-155.691	-117.158	-0.246	0.045
-154.677	160.832	0.291	0.406
-153.662	-89.633	-0.298	-0.087
-152.647	204.382	-0.039	-0.060
-151.633	-33.770	0.078	0.043
-150.618	-19.516	0.169	0.105
-149.604	-200.000	-0.028	0.270
-148.589	-61.428	-0.268	-0.113
-147.574	800.000	0.065	0.199
-146.560	156.870	0.116	0.161
-145.545	-106.741	0.331	0.074
-144.531	58.417	-0.192	-0.188
-143.516	-127.880	-0.156	-0.022
-142.502	-42.458	-0.226	-0.115
-141.487	-126.442	0.264	-0.039
-140.472	800.000	-0.059	-0.206
-139.458	-93.558	-0.253	0.070
-138.443	-76.301	-0.153	0.054
-137.429	-59.978	0.240	0.102
-136.414	-115.142	0.297	-0.056
-135.399	-200.000	0.019	0.184
-134.385	-110.645	-0.172	0.036
-133.370	-200.000	0.009	0.436
-132.356	88.006	0.208	0.230
-131.341	99.557	0.081	-0.093
-130.326	68.807	0.145	0.149
-129.312	-200.000	-0.004	-0.054
-128.297	-120.470	0.279	-0.047
-127.283	-4.830	-0.278	-0.191
-126.268	-52.279	-0.106	0.049
-125.253	80.318	-0.154	0.165
-124.239	-124.447	-0.096	0.015
-123.224	800.000	-0.128	-0.359
-122.210	-18.987	0.189	-0.118
