DTS Sentinel unit serial number:	SN413079Multiplexer serial number:	ORYXHardware model number:	OX4-SRSoftware version number:	ORYX F/W v4.00 Oryx Data Collector v3.7.2.0data status	okinstallation	princeton_trtdifferential loss correction	single-endedforward channel	channel 4reverse channel	N/Adate	2019/09/11time	05:59:10forward acquisition time	60.00reverse acquisition time	0.00gamma	496.2192k internal	0.2316k external	0.2316temperature offset calibration	0.9943default loss term (dB/km)	0.3790temperature slope calibration	1.0000multiplexer offset coefficient	1.0000multiplexer slope coefficient	1.0000fibre end	0.00T internal ref (°C)	29.44T ext. ref 1 (°C)	-0.22T ext. ref 2 (°C)	23.53length (m)	temperature (°C)	Stokes	anti-Stokes-747.200	-136.820	0.476	-0.056
-746.185	-68.552	-0.110	-0.043
-745.171	-102.841	-0.024	-0.006
-744.156	-200.000	0.011	0.210
-743.142	800.000	0.050	0.148
-742.127	-200.000	0.025	0.244
-741.112	-200.000	-0.035	0.292
-740.098	-95.866	-0.450	0.122
-739.083	159.001	0.066	-0.093
-738.069	-200.000	0.010	0.208
-737.054	-200.000	-0.005	0.122
-736.039	668.609	-0.077	-0.202
-735.025	-108.749	0.360	0.078
-734.010	-133.712	-0.125	-0.016
-732.996	460.926	-0.059	-0.133
-731.981	119.769	-0.044	-0.056
-730.966	357.829	0.037	-0.075
-729.952	-200.000	-0.033	-0.272
-728.937	-54.643	-0.093	-0.043
-727.923	255.025	-0.076	-0.131
-726.908	-37.143	-0.273	-0.148
-725.894	-26.765	-0.150	0.088
-724.879	475.423	0.147	0.337
-723.864	-200.000	-0.008	0.161
-722.850	229.837	-0.061	0.101
-721.835	800.000	-0.086	-0.302
-720.821	800.000	-0.054	-0.173
-719.806	-109.865	-0.225	0.048
-718.791	-56.925	-0.300	0.134
-717.777	-101.776	-0.357	0.087
-716.762	396.973	-0.101	0.213
-715.748	-131.489	0.099	-0.013
-714.733	-200.000	-0.012	-0.127
-713.718	-22.538	-0.088	-0.054
-712.704	800.000	-0.059	-0.167
-711.689	5.881	0.194	-0.145
-710.675	438.000	-0.075	-0.167
-709.660	-200.000	0.023	-0.243
-708.645	-72.253	0.108	-0.041
-707.631	-166.677	-0.286	-0.012
-706.616	-200.000	-0.017	0.202
-705.602	-81.160	-0.222	-0.074
-704.587	196.222	0.218	0.335
-703.572	-200.000	-0.006	0.234
-702.558	-51.342	-0.318	0.151
-701.543	-89.176	-0.143	-0.043
-700.529	324.327	0.118	-0.228
-699.514	243.373	0.193	0.327
-698.499	791.131	-0.090	-0.251
-697.485	-0.972	-0.306	0.219
-696.470	32.625	-0.279	0.244
-695.456	-60.963	0.293	0.125
-694.441	527.465	0.073	-0.175
-693.426	-96.895	-0.093	-0.025
-692.412	730.270	-0.062	-0.167
-691.397	-129.282	0.306	-0.043
-690.383	-2.456	-0.150	-0.106
-689.368	376.783	0.102	0.211
-688.354	272.569	-0.146	0.260
-687.339	-200.000	0.030	0.181
-686.324	-200.000	0.019	-0.546
-685.310	-200.000	0.013	-0.148
-684.295	-200.000	0.012	-0.327
-683.281	-200.000	-0.054	0.244
-682.266	-132.318	-0.103	0.013
-681.251	-200.000	-0.063	0.323
-680.237	-200.000	-0.014	-0.175
-679.222	222.184	0.328	-0.533
-678.208	-200.000	-0.055	-0.276
-677.193	-55.437	-0.550	-0.249
-676.178	800.000	0.030	0.104
-675.164	82.165	-0.052	-0.057
-674.149	466.940	-0.055	-0.125
-673.135	-200.000	-0.004	-0.124
-672.120	-200.000	-0.036	0.180
-671.105	162.006	0.083	-0.118
-670.091	698.450	-0.082	0.217
-669.076	-56.952	-0.403	-0.180
-668.062	230.683	0.081	-0.135
-667.047	-86.949	0.289	0.089
-666.032	-200.000	0.036	0.167
-665.018	-122.145	-0.143	-0.024
-664.003	-163.848	0.228	-0.011
-662.989	86.117	0.110	0.122
-661.974	-161.975	0.452	-0.023
-660.959	24.347	0.246	-0.205
-659.945	-16.617	0.254	0.162
-658.930	-200.000	0.071	-0.365
-657.916	219.298	-0.150	-0.242
-656.901	-22.975	0.220	0.134
-655.886	51.229	0.096	0.092
-654.872	-28.036	0.252	0.147
-653.857	800.000	-0.055	0.204
-652.843	-200.000	0.055	-0.281
-651.828	-152.906	-0.065	0.005
-650.814	-154.364	-0.186	0.013
-649.799	280.168	0.060	-0.107
-648.784	-200.000	0.001	0.188
-647.770	11.894	0.163	-0.127
-646.755	-92.120	-0.124	0.035
-645.741	146.724	-0.047	-0.063
-644.726	-9.899	-0.336	-0.225
-643.711	-132.586	-0.282	0.037
-642.697	-34.192	0.552	-0.306
-641.682	4.802	-0.170	-0.126
-640.668	800.000	0.060	-0.188
-639.653	40.445	0.222	-0.202
-638.638	-2.906	-0.393	0.277
-637.624	-54.425	-0.259	0.118
-636.609	23.630	-0.066	0.055
-635.595	-53.371	0.186	0.086
-634.580	-30.397	-0.329	0.189
-633.565	166.671	0.103	0.148
-632.551	534.889	-0.064	-0.154
-631.536	-84.888	-0.098	0.031
-630.522	615.316	-0.122	0.309
-629.507	-200.000	-0.033	-0.158
-628.492	122.966	0.214	0.270
-627.478	274.343	0.155	0.277
-626.463	438.621	0.071	-0.157
-625.449	-200.000	-0.007	0.231
-624.434	159.619	0.144	0.202
-623.419	-32.312	0.325	-0.183
-622.405	-50.649	-0.111	-0.053
-621.390	-75.866	0.152	-0.054
-620.376	-200.000	0.038	0.364
-619.361	552.870	-0.085	0.205
-618.346	86.448	0.165	0.183
-617.332	-53.452	-0.095	0.044
-616.317	226.813	-0.055	-0.090
-615.303	-122.552	-0.365	0.060
-614.288	233.494	0.052	0.087
-613.273	-27.683	-0.047	-0.028
-612.259	223.016	-0.090	-0.146
-611.244	-48.181	-0.205	0.100
-610.230	-119.962	-0.279	-0.048
-609.215	-200.000	0.056	0.291
-608.201	-200.000	-0.061	0.324
-607.186	-200.000	0.015	-0.279
-606.171	-130.362	-0.030	-0.004
-605.157	800.000	-0.110	0.323
-604.142	-51.210	0.239	-0.113
-603.128	-87.938	0.269	-0.082
-602.113	181.810	0.066	0.098
-601.098	111.786	-0.048	-0.059
-600.084	-0.417	0.150	-0.107
-599.069	-86.315	0.227	0.070
-598.055	5.709	-0.208	-0.155
-597.040	132.784	0.091	-0.119
-596.025	41.917	-0.203	-0.186
-595.011	-200.000	-0.015	0.089
-593.996	-171.559	-0.182	0.006
-592.982	-189.630	-0.133	0.002
-591.967	-200.000	-0.092	0.541
-590.952	-56.235	-0.229	0.103
-589.938	-200.000	0.035	-0.158
-588.923	800.000	-0.046	0.163
-587.909	-157.249	-0.258	-0.016
-586.894	-65.626	0.185	-0.075
-585.879	-119.029	-0.227	0.040
-584.865	-42.224	0.295	-0.152
-583.850	-200.000	-0.013	-0.098
-582.836	71.443	0.250	-0.261
-581.821	-67.274	-0.353	-0.140
-580.806	-107.779	0.158	0.035
-579.792	4.755	0.094	-0.069
-578.777	-39.374	0.195	-0.103
-577.763	143.989	0.155	0.208
-576.748	-2.673	0.226	-0.159
-575.733	-200.000	-0.062	-0.296
-574.719	-200.000	-0.029	-0.399
-573.704	78.025	-0.013	-0.014
-572.690	-129.092	0.155	-0.022
-571.675	-200.000	-0.056	-0.261
-570.661	91.146	0.123	-0.139
-569.646	243.285	0.224	-0.378
-568.631	-40.628	-0.221	-0.115
-567.617	-75.577	-0.346	0.124
-566.602	-200.000	-0.024	0.163
-565.588	-42.496	0.097	0.050
-564.573	-53.370	-0.120	0.055
-563.558	-200.000	-0.010	0.066
-562.544	-200.000	0.022	0.241
-561.529	-200.000	-0.095	0.502
-560.515	409.270	0.102	0.216
-559.500	-200.000	0.000	0.021
-558.485	-200.000	-0.026	0.142
-557.471	-177.001	0.311	-0.008
-556.456	65.005	0.122	-0.123
-555.442	-200.000	0.021	0.258
-554.427	407.532	0.128	0.271
-553.412	-77.215	-0.296	-0.104
-552.398	38.406	-0.303	-0.271
-551.383	-200.000	-0.007	-0.288
-550.369	-83.413	-0.207	-0.067
-549.354	342.250	-0.121	0.239
-548.339	120.311	-0.233	0.291
-547.325	-89.048	0.355	-0.106
-546.310	95.739	-0.150	0.172
-545.296	-200.000	0.007	-0.101
-544.281	108.134	0.244	0.292
-543.266	-1.147	-0.027	0.019
-542.252	42.157	0.213	0.194
-541.237	-61.139	0.337	-0.143
-540.223	93.100	0.138	0.157
-539.208	-200.000	-0.010	0.260
-538.193	636.840	0.094	0.240
-537.179	125.078	0.249	0.315
-536.164	-83.640	-0.030	-0.010
-535.150	62.358	-0.156	-0.157
-534.135	-200.000	-0.035	0.262
-533.121	-137.541	0.133	-0.015
-532.106	-60.178	0.164	-0.070
-531.091	110.690	0.060	0.073
-530.077	-40.253	0.193	0.101
-529.062	236.530	-0.072	0.119
-528.048	-69.385	-0.166	0.064
-527.033	306.479	0.139	-0.259
-526.018	-41.907	-0.210	-0.108
-525.004	-48.672	-0.290	0.140
-523.989	130.418	-0.167	-0.215
-522.975	-163.577	0.219	0.010
-521.960	-72.744	0.252	0.093
-520.945	800.000	0.081	0.330
-519.931	-21.731	0.350	0.214
-518.916	167.674	0.222	-0.317
-517.902	18.694	0.334	0.268
-516.887	140.372	-0.075	-0.100
-515.872	-110.378	-0.154	0.032
-514.858	-17.409	0.214	0.135
-513.843	-91.550	0.252	0.072
-512.829	800.000	-0.036	-0.136
-511.814	-56.307	-0.006	0.003
-510.799	8.314	-0.061	0.046
-509.785	-57.903	0.234	0.103
-508.770	172.879	0.100	-0.145
-507.756	800.000	0.051	-0.215
-506.741	800.000	-0.062	0.223
-505.726	-124.231	0.160	-0.025
-504.712	-7.438	0.264	-0.179
-503.697	243.673	-0.057	-0.096
-502.683	-68.095	0.306	-0.120
-501.668	-55.245	-0.177	-0.080
-500.653	26.542	-0.179	-0.150
-499.639	547.640	0.088	-0.211
-498.624	-19.820	-0.288	0.179
-497.610	678.498	0.075	0.196
-496.595	-100.920	-0.313	-0.077
-495.581	-27.222	-0.260	0.152
-494.566	17.454	-0.207	0.165
-493.551	-114.372	-0.207	-0.040
-492.537	-10.493	-0.031	-0.020
-491.522	-30.322	-0.012	-0.007
-490.508	76.637	0.076	0.081
-489.493	-75.308	-0.184	0.066
-488.478	-80.877	0.261	0.087
-487.464	-200.000	0.017	-0.150
-486.449	-86.441	0.153	-0.047
-485.435	35.202	0.387	0.340
-484.420	-127.918	-0.254	-0.037
-483.405	64.859	-0.258	0.261
-482.391	342.908	0.096	0.188
-481.376	-47.230	0.115	0.056
-480.362	162.633	0.070	-0.099
-479.347	13.611	0.224	-0.175
-478.332	-157.677	-0.211	-0.013
-477.318	30.046	-0.189	-0.161
-476.303	-132.696	-0.128	-0.016
-475.289	-171.458	-0.242	0.008
-474.274	92.333	-0.261	-0.295
-473.259	-200.000	0.086	-0.415
-472.245	-72.728	0.162	0.060
-471.230	481.035	0.182	-0.414
-470.216	153.808	-0.053	-0.073
-469.201	-150.026	-0.229	-0.018
-468.186	-200.000	0.030	-0.210
-467.172	-146.157	-0.164	0.014
-466.157	-200.000	0.022	-0.276
-465.143	-158.080	-0.284	-0.017
-464.128	21.010	-0.230	0.187
-463.113	76.816	0.261	0.278
-462.099	-54.415	-0.133	0.061
-461.084	-66.290	-0.147	0.059
-460.070	800.000	0.024	-0.071
-459.055	-68.870	-0.079	0.031
-458.040	159.807	0.073	-0.102
-457.026	-95.333	0.129	-0.035
-456.011	-137.452	-0.156	0.018
-454.997	85.365	0.312	0.343
-453.982	-31.689	0.134	0.076
-452.968	-96.058	-0.192	0.051
-451.953	-7.267	-0.215	0.146
-450.938	276.951	0.043	-0.077
-449.924	-151.295	-0.276	-0.021
-448.909	287.313	-0.109	0.198
-447.895	12.599	-0.195	-0.151
-446.880	19.715	0.488	-0.393
-445.865	359.591	-0.214	-0.428
-444.851	19.631	0.198	0.160
-443.836	298.624	0.195	-0.359
-442.822	800.000	-0.073	-0.247
-441.807	-106.380	0.130	0.029
-440.792	368.949	0.024	-0.049
-439.778	-109.289	0.177	-0.038
-438.763	613.905	-0.092	0.231
-437.749	800.000	0.051	-0.143
-436.734	-20.818	0.598	0.367
-435.719	-200.000	0.009	-0.173
-434.705	-111.768	-0.112	0.023
-433.690	-38.606	-0.100	0.053
-432.676	253.384	-0.142	0.243
-431.661	112.374	-0.254	0.307
-430.646	241.168	-0.101	-0.168
-429.632	-54.510	0.148	-0.067
-428.617	229.004	0.085	0.138
-427.603	147.039	-0.085	-0.114
-426.588	-144.397	-0.157	0.015
-425.573	-200.000	0.003	-0.045
-424.559	800.000	-0.046	-0.180
-423.544	28.144	-0.233	0.197
-422.530	-74.879	-0.144	-0.052
-421.515	-144.337	0.189	-0.018
-420.500	-87.831	0.370	0.111
-419.486	-159.249	-0.203	-0.011
-418.471	89.716	-0.191	-0.214
-417.457	705.885	0.177	-0.467
-416.442	-3.120	-0.186	-0.129
-415.428	-42.350	-0.201	-0.103
-414.413	452.885	-0.184	-0.408
-413.398	-111.113	-0.380	0.078
-412.384	800.000	-0.129	-0.358
-411.369	800.000	0.094	-0.269
-410.355	800.000	-0.052	0.188
-409.340	39.800	-0.116	0.104
-408.325	304.830	-0.110	-0.205
-407.311	-83.105	-0.097	-0.031
-406.296	88.885	0.139	0.155
-405.282	18.977	0.202	0.162
-404.267	800.000	0.118	0.428
-403.252	166.965	0.129	-0.183
-402.238	-58.746	0.399	-0.173
-401.223	69.567	0.099	0.102
-400.209	-160.590	-0.157	0.008
-399.194	64.056	0.268	-0.269
-398.179	800.000	-0.034	-0.115
-397.165	135.537	-0.116	0.150
-396.150	46.763	-0.120	0.111
-395.136	28.814	-0.207	-0.175
-394.121	291.914	-0.203	-0.369
-393.106	-170.703	-0.202	-0.007
-392.092	163.934	-0.083	-0.117
-391.077	68.729	-0.335	-0.343
-390.063	146.108	-0.173	-0.233
-389.048	251.591	0.010	-0.017
-388.033	-200.000	0.012	0.210
-387.019	-156.310	-0.452	0.028
-386.004	-112.037	0.157	-0.032
-384.990	-85.857	0.040	-0.012
-383.975	470.775	-0.060	-0.135
-382.960	-102.072	0.149	-0.036
-381.946	435.981	-0.049	-0.106
-380.931	-129.256	0.199	0.028
-379.917	78.050	-0.060	-0.064
-378.902	-99.183	-0.225	-0.057
-377.888	-200.000	-0.011	-0.055
-376.873	383.423	0.101	-0.207
-375.858	-117.099	-0.092	0.017
-374.844	-41.476	-0.158	-0.081
-373.829	95.297	-0.164	0.186
-372.815	252.173	-0.056	0.095
-371.800	-133.011	-0.114	0.014
-370.785	-200.000	-0.017	0.178
-369.771	-85.460	0.065	0.020
-368.756	207.643	-0.138	0.214
-367.742	-0.670	-0.143	-0.101
-366.727	537.873	0.188	-0.446
-365.712	800.000	-0.040	0.166
-364.698	-165.369	-0.257	0.011
-363.683	8.854	-0.357	-0.269
-362.669	-134.296	-0.294	-0.036
-361.654	800.000	-0.096	-0.298
-360.639	17.611	-0.355	-0.282
-359.625	-200.000	-0.020	0.381
-358.610	21.264	0.243	0.197
-357.596	10.250	0.031	0.023
-356.581	-52.389	0.090	0.042
-355.566	-56.778	-0.221	0.098
-354.552	-200.000	-0.013	0.135
-353.537	-47.623	-0.199	0.097
-352.523	32.511	-0.180	-0.155
-351.508	-98.839	-0.024	0.006
-350.493	-95.011	-0.159	-0.043
-349.479	-200.000	-0.068	-0.396
-348.464	800.000	0.055	-0.213
-347.450	800.000	0.014	0.046
-346.435	-63.996	0.301	-0.123
-345.420	17.971	-0.153	-0.121
-344.406	-149.300	0.526	0.042
-343.391	396.190	-0.136	-0.282
-342.377	25.349	0.075	0.062
-341.362	-109.900	-0.287	0.060
-340.348	-200.000	-0.015	0.354
-339.333	31.670	-0.041	0.035
-338.318	51.567	-0.056	0.053
-337.304	-200.000	-0.051	-0.255
-336.289	800.000	0.103	-0.313
-335.275	-200.000	-0.021	0.227
-334.260	-70.473	0.185	-0.070
-333.245	77.969	-0.055	-0.058
-332.231	-59.974	0.158	0.067
-331.216	-200.000	0.002	0.015
-330.202	-98.173	-0.198	-0.051
-329.187	800.000	0.029	0.128
-328.172	581.059	0.088	-0.215
-327.158	414.460	0.148	0.314
-326.143	-93.432	0.150	0.042
-325.129	-200.000	-0.419	-0.001
-324.114	-56.057	0.212	0.094
-323.099	-75.574	0.076	-0.027
-322.085	682.892	-0.052	-0.135
-321.070	-200.000	0.005	0.270
-320.056	108.870	0.216	-0.257
-319.041	376.003	-0.141	-0.287
-318.026	-160.861	0.158	-0.008
-317.012	62.878	0.295	-0.294
-315.997	-74.890	-0.122	-0.044
-314.983	-17.524	-0.400	0.251
-313.968	-200.000	-0.013	-0.087
-312.953	-175.344	-0.246	0.007
-311.939	-24.462	-0.285	0.169
-310.924	-26.146	0.332	-0.194
-309.910	115.848	0.176	-0.214
-308.895	-200.000	0.026	0.173
-307.880	123.703	0.203	0.253
-306.866	-57.068	-0.282	-0.124
-305.851	-200.000	0.018	0.188
-304.837	-17.299	0.081	-0.051
-303.822	-200.000	0.043	-0.320
-302.807	263.587	0.130	-0.226
-301.793	-61.211	-0.154	0.064
-300.778	155.930	-0.206	-0.283
-299.764	-200.000	0.039	0.384
-298.749	-37.304	0.273	0.145
-297.735	163.692	0.052	-0.072
-296.720	-57.376	0.239	0.105
-295.705	800.000	-0.067	0.200
-294.691	253.637	0.170	0.289
-293.676	-126.659	0.149	0.022
-292.662	-166.650	-0.177	0.007
-291.647	800.000	-0.091	-0.295
-290.632	-200.000	0.002	0.101
-289.618	80.185	0.182	0.195
-288.603	-158.835	0.111	-0.006
-287.589	196.485	-0.180	-0.272
-286.574	471.740	0.139	-0.311
-285.559	5.795	0.146	0.107
-284.545	-149.245	0.143	0.011
-283.530	-169.023	-0.244	0.009
-282.516	800.000	-0.095	-0.339
-281.501	66.767	0.186	0.188
-280.486	-78.727	-0.166	0.056
-279.472	779.783	-0.049	-0.134
-278.457	121.715	0.135	0.167
-277.443	254.557	-0.130	0.222
-276.428	-200.000	0.045	-0.205
-275.413	485.438	0.160	0.363
-274.399	137.431	0.111	0.144
-273.384	-61.280	0.310	0.130
-272.370	-159.169	0.047	-0.003
-271.355	-72.515	-0.115	0.042
-270.340	361.806	-0.108	0.216
-269.326	-31.971	0.467	-0.260
-268.311	210.836	-0.081	-0.126
-267.297	34.981	-0.111	0.096
-266.282	800.000	0.037	-0.118
-265.267	-87.322	0.201	-0.061
-264.253	-79.655	-0.260	0.087
-263.238	-4.920	0.272	0.186
-262.224	800.000	-0.042	-0.174
-261.209	-200.000	-0.033	0.360
-260.195	-53.592	-0.110	0.050
-259.180	-187.366	0.355	0.005
-258.165	469.798	-0.134	0.299
-257.151	112.359	-0.222	-0.267
-256.136	38.338	-0.076	0.067
-255.122	-69.323	-0.029	0.011
-254.107	389.590	0.055	-0.114
-253.092	-138.168	-0.272	0.030
-252.078	45.094	-0.333	-0.305
-251.063	145.872	0.017	0.023
-250.049	713.327	-0.057	-0.151
-249.034	-105.416	0.193	-0.044
-248.019	15.602	0.255	-0.199
-247.005	-171.839	-0.183	0.006
-245.990	-118.830	-0.247	-0.043
-244.976	87.860	0.256	-0.282
-243.961	107.101	0.042	0.050
-242.946	11.702	-0.365	-0.278
-241.932	-159.944	0.116	-0.006
-240.917	800.000	0.049	-0.194
-239.903	-200.000	0.001	0.097
-238.888	800.000	0.058	0.209
-237.873	643.972	-0.153	0.387
-236.859	344.915	-0.077	-0.151
-235.844	-200.000	-0.020	-0.208
-234.830	-88.816	0.036	0.011
-233.815	259.164	0.235	-0.403
-232.800	-49.349	0.281	0.133
-231.786	-100.113	0.362	0.090
-230.771	402.973	-0.075	-0.157
-229.757	20.542	0.383	-0.308
-228.742	-200.000	0.003	0.018
-227.727	-200.000	-0.098	0.455
-226.713	-200.000	0.059	-0.265
-225.698	-87.699	0.171	0.051
-224.684	-200.000	-0.011	0.104
-223.669	-143.760	-0.135	0.013
-222.655	278.052	0.046	-0.082
-221.640	105.336	0.286	0.336
-220.625	145.161	-0.140	0.186
-219.611	-130.320	0.072	-0.010
-218.596	85.100	-0.210	0.229
-217.582	166.508	0.064	0.091
-216.567	-123.744	-0.393	-0.062
-215.552	30.366	0.050	-0.042
-214.538	-67.902	0.137	0.053
-213.523	27.355	-0.100	-0.083
-212.509	59.289	-0.030	0.029
-211.494	-53.093	0.346	0.158
-210.479	-200.000	0.002	0.156
-209.465	-200.000	0.001	0.108
-208.450	35.485	0.389	0.339
-207.436	8.036	-0.132	-0.098
-206.421	-200.000	0.022	0.316
-205.406	800.000	0.060	0.190
-204.392	197.739	0.024	0.037
-203.377	36.899	-0.184	-0.161
-202.363	-200.000	0.042	0.324
-201.348	759.023	0.041	0.109
-200.333	800.000	0.063	-0.210
-199.319	738.710	0.147	0.390
-198.304	-95.866	-0.081	0.021
-197.290	800.000	-0.039	0.163
-196.275	417.798	0.065	-0.138
-195.260	-200.000	-0.055	-0.324
-194.246	-200.000	-0.023	-0.232
-193.231	-200.000	-0.018	-0.141
-192.217	-98.782	-0.132	-0.033
-191.202	85.001	-0.124	-0.134
-190.187	767.514	-0.052	0.141
-189.173	122.267	0.145	0.179
-188.158	497.791	0.132	0.300
-187.144	-96.062	0.337	0.089
-186.129	46.933	0.129	0.119
-185.114	-124.940	-0.257	-0.039
-184.100	154.801	0.151	-0.206
-183.085	-134.789	-0.235	0.028
-182.071	747.548	0.012	-0.031
-181.056	249.309	-0.168	0.282
-180.042	-140.371	0.256	-0.027
-179.027	74.434	0.160	0.167
-178.012	-136.572	0.109	0.012
-176.998	-200.000	-0.014	0.268
-175.983	-125.805	0.482	0.072
-174.969	-93.215	-0.064	-0.018
-173.954	800.000	-0.053	0.161
-172.939	-81.731	0.233	-0.076
-171.925	30.770	0.138	0.117
-170.910	34.091	-0.202	-0.175
-169.896	-160.192	0.144	-0.008
-168.881	26.492	-0.030	-0.025
-167.866	123.787	-0.016	0.020
-166.852	800.000	0.026	-0.105
-165.837	56.703	-0.209	-0.201
-164.823	15.980	-0.133	-0.104
-163.808	241.815	-0.171	0.283
-162.793	-95.456	0.210	-0.056
-161.779	-177.763	0.391	-0.009
-160.764	550.540	0.100	-0.238
-159.750	141.920	0.132	0.173
-158.735	-57.817	0.042	0.018
-157.720	800.000	-0.142	0.428
-156.706	63.829	0.118	-0.118
-155.691	4.588	0.051	-0.037
-154.677	800.000	-0.113	-0.344
-153.662	-148.466	-0.088	0.007
-152.647	800.000	0.034	-0.116
-151.633	-200.000	0.037	0.242
-150.618	580.796	0.124	-0.300
-149.604	-131.332	0.089	-0.012
-148.589	228.585	-0.135	0.218
-147.574	-94.950	0.171	0.046
-146.560	26.087	0.172	0.142
-145.545	120.004	-0.134	-0.164
-144.531	-127.050	0.254	0.037
-143.516	-200.000	-0.077	0.390
-142.502	800.000	-0.058	0.231
-141.487	15.914	0.192	-0.150
-140.472	-200.000	-0.039	-0.285
-139.458	11.602	-0.163	-0.124
-138.443	-36.536	0.155	-0.082
-137.429	134.334	-0.169	0.216
-136.414	22.712	0.189	0.153
-135.399	-35.280	0.123	-0.066
-134.385	510.373	0.085	-0.195
-133.370	338.800	0.044	-0.084
-132.356	-90.207	-0.267	0.077
-131.341	604.638	-0.079	0.193
-130.326	-6.876	-0.051	0.034
-129.312	800.000	-0.028	0.091
-128.297	-135.452	0.132	0.016
-127.283	-37.447	0.090	0.047
-126.268	-41.050	0.358	0.183
-125.253	-200.000	0.046	-0.264
-124.239	800.000	0.131	0.410
-123.224	800.000	0.011	0.037
-122.210	146.153	0.215	0.285
-121.195	-131.641	-0.171	0.022
