DTS Sentinel unit serial number:	SN413079Multiplexer serial number:	ORYXHardware model number:	OX4-SRSoftware version number:	ORYX F/W v4.00 Oryx Data Collector v3.7.2.0data status	okinstallation	princeton_trtdifferential loss correction	single-endedforward channel	channel 4reverse channel	N/Adate	2019/09/10time	20:03:11forward acquisition time	60.00reverse acquisition time	0.00gamma	496.2192k internal	0.2311k external	0.2311temperature offset calibration	0.9946default loss term (dB/km)	0.3790temperature slope calibration	1.0000multiplexer offset coefficient	1.0000multiplexer slope coefficient	1.0000fibre end	0.00T internal ref (°C)	32.56T ext. ref 1 (°C)	-0.29T ext. ref 2 (°C)	25.63length (m)	temperature (°C)	Stokes	anti-Stokes-747.200	-10.818	-0.136	0.091
-746.185	800.000	0.090	0.341
-745.171	-112.251	-0.080	-0.016
-744.156	-135.594	-0.117	-0.014
-743.142	1.361	-0.150	-0.110
-742.127	-12.160	-0.117	0.078
-741.112	596.265	-0.084	-0.212
-740.098	-200.000	0.002	-0.089
-739.083	800.000	-0.094	0.274
-738.069	130.531	-0.125	0.162
-737.054	800.000	-0.095	0.327
-736.039	-45.684	-0.222	0.111
-735.025	-13.437	0.250	-0.165
-734.010	339.038	-0.249	-0.492
-732.996	227.720	0.120	-0.198
-731.981	-200.000	-0.047	0.315
-730.966	-84.803	-0.182	0.058
-729.952	-83.236	-0.509	-0.166
-728.937	160.573	0.129	0.183
-727.923	232.614	-0.186	-0.310
-726.908	-119.122	0.307	-0.055
-725.894	-96.987	-0.163	-0.043
-724.879	-53.654	-0.198	0.092
-723.864	787.520	-0.145	-0.405
-722.850	-37.184	0.176	0.095
-721.835	224.204	-0.049	0.080
-720.821	-27.378	0.147	0.087
-719.806	-108.618	0.097	-0.021
-718.791	-39.120	-0.485	0.259
-717.777	-141.659	-0.231	0.024
-716.762	-97.765	-0.167	0.044
-715.748	233.599	-0.088	-0.146
-714.733	25.323	0.265	0.224
-713.718	800.000	-0.058	-0.169
-712.704	-200.000	0.014	0.161
-711.689	-70.488	-0.169	0.065
-710.675	-122.163	-0.341	0.057
-709.660	-200.000	-0.032	0.243
-708.645	3.241	0.184	-0.136
-707.631	111.336	-0.090	-0.110
-706.616	800.000	-0.030	-0.107
-705.602	-200.000	0.020	0.103
-704.587	-93.298	0.342	-0.096
-703.572	-119.372	0.220	0.039
-702.558	-144.119	-0.121	0.012
-701.543	800.000	0.147	-0.416
-700.529	-200.000	0.004	-0.344
-699.514	-49.710	0.139	0.067
-698.499	-200.000	0.008	-0.134
-697.485	-115.580	0.021	0.004
-696.470	-86.075	0.070	0.022
-695.456	22.978	0.279	-0.232
-694.441	-69.228	-0.283	-0.110
-693.426	-92.841	-0.078	0.022
-692.412	487.543	0.155	0.359
-691.397	-107.968	-0.253	0.056
-690.383	800.000	-0.121	-0.435
-689.368	-131.412	0.230	-0.031
-688.354	14.098	0.067	-0.053
-687.339	432.518	-0.036	-0.079
-686.324	30.189	0.132	0.114
-685.310	-151.523	-0.231	0.017
-684.295	132.917	0.138	0.180
-683.281	163.940	0.148	0.212
-682.266	-110.820	-0.053	0.011
-681.251	-130.165	-0.211	0.029
-680.237	-144.853	-0.328	-0.030
-679.222	-200.000	0.008	0.269
-678.208	-200.000	0.026	-0.200
-677.193	-103.880	0.102	-0.024
-676.178	101.866	0.144	-0.170
-675.164	-111.967	0.099	-0.020
-674.149	223.381	-0.171	0.279
-673.135	-62.277	-0.159	0.067
-672.120	800.000	-0.116	-0.392
-671.105	-145.748	-0.317	-0.029
-670.091	-33.789	0.247	-0.138
-669.076	-200.000	0.022	0.230
-668.062	266.609	0.125	-0.220
-667.047	120.725	0.287	0.361
-666.032	-191.113	0.119	-0.001
-665.018	-78.600	0.233	0.081
-664.003	24.958	-0.331	-0.277
-662.989	-55.594	-0.320	-0.145
-661.974	800.000	0.023	-0.068
-660.959	431.389	0.091	0.200
-659.945	116.542	-0.183	0.227
-658.930	-200.000	-0.035	0.200
-657.916	118.015	0.128	0.160
-656.901	800.000	-0.091	-0.345
-655.886	-48.662	0.442	0.215
-654.872	800.000	-0.086	-0.283
-653.857	-110.659	-0.583	-0.122
-652.843	-6.617	0.112	-0.077
-651.828	550.305	0.130	-0.316
-650.814	-97.531	-0.270	0.071
-649.799	59.150	-0.165	-0.165
-648.784	800.000	-0.057	-0.218
-647.770	-183.794	-0.280	-0.005
-646.755	-200.000	0.022	-0.178
-645.741	-35.282	0.105	0.058
-644.726	-64.432	-0.050	0.021
-643.711	-171.180	-0.215	-0.007
-642.697	-127.608	-0.222	0.032
-641.682	-27.154	-0.134	-0.079
-640.668	-72.791	-0.368	-0.137
-639.653	-33.342	-0.187	0.105
-638.638	-200.000	-0.025	0.259
-637.624	-200.000	0.028	0.406
-636.609	104.818	-0.086	0.103
-635.595	800.000	0.064	-0.206
-634.580	-71.919	0.279	0.105
-633.565	800.000	0.083	-0.249
-632.551	-154.814	-0.464	-0.031
-631.536	71.361	0.090	0.095
-630.522	-200.000	0.011	0.085
-629.507	-185.339	-0.701	0.011
-628.492	0.617	-0.153	-0.110
-627.478	-112.621	0.333	-0.067
-626.463	-88.728	0.149	-0.045
-625.449	-68.395	-0.182	0.071
-624.434	51.899	0.152	0.146
-623.419	800.000	0.048	0.144
-622.405	443.692	0.010	0.022
-621.390	190.824	-0.150	0.228
-620.376	-91.811	-0.154	-0.044
-619.361	25.995	0.190	-0.160
-618.346	59.406	-0.274	-0.273
-617.332	20.318	0.213	0.174
-616.317	-179.448	0.321	-0.007
-615.303	800.000	-0.126	-0.373
-614.288	-200.000	0.057	0.369
-613.273	-89.413	-0.418	-0.124
-612.259	90.586	-0.103	0.116
-611.244	-104.077	0.341	0.080
-610.230	-82.651	0.310	-0.101
-609.215	301.729	0.146	0.272
-608.201	26.310	-0.294	0.248
-607.186	-117.166	-0.192	-0.035
-606.171	102.746	-0.384	-0.454
-605.157	-200.000	0.017	-0.523
-604.142	-4.066	-0.162	-0.113
-603.128	462.596	0.064	-0.145
-602.113	800.000	0.038	-0.154
-601.098	91.871	-0.104	-0.118
-600.084	364.553	0.183	0.373
-599.069	-31.707	0.138	-0.078
-598.055	314.368	0.093	-0.176
-597.040	-200.000	-0.014	-0.108
-596.025	-200.000	-0.032	-0.262
-595.011	151.341	-0.027	-0.037
-593.996	41.336	-0.269	-0.246
-592.982	-94.904	0.141	0.039
-591.967	-176.415	0.414	0.011
-590.952	800.000	0.012	0.042
-589.938	4.014	-0.128	0.094
-588.923	-140.211	0.148	0.016
-587.909	800.000	-0.053	-0.186
-586.894	-14.254	0.180	-0.117
-585.879	463.777	0.144	0.326
-584.865	800.000	0.115	-0.324
-583.850	-92.668	0.072	-0.020
-582.836	-94.614	-0.044	0.012
-581.821	-18.355	-0.283	-0.179
-580.806	43.754	-0.176	-0.163
-579.792	800.000	-0.163	-0.460
-578.777	31.356	-0.139	-0.120
-577.763	-47.012	0.308	-0.152
-576.748	-132.771	0.098	-0.013
-575.733	249.246	0.165	0.282
-574.719	27.761	0.058	-0.049
-573.704	-48.247	0.049	-0.024
-572.690	34.327	0.109	-0.096
-571.675	-79.816	0.115	-0.039
-570.661	800.000	-0.070	0.201
-569.646	258.002	0.152	-0.264
-568.631	-29.112	-0.166	0.096
-567.617	-17.792	-0.050	-0.032
-566.602	82.186	0.168	0.184
-565.588	-37.501	0.073	-0.039
-564.573	-79.362	-0.084	0.029
-563.558	-200.000	-0.049	-0.234
-562.544	110.585	0.205	0.249
-561.529	-37.327	-0.409	0.220
-560.515	-17.089	-0.307	0.195
-559.500	32.947	0.290	-0.253
-558.485	-114.639	0.269	-0.052
-557.471	-154.512	-0.048	-0.003
-556.456	61.768	0.113	0.113
-555.442	784.425	0.078	-0.217
-554.427	-181.415	0.237	0.005
-553.412	800.000	-0.150	0.464
-552.398	-151.223	-0.461	-0.035
-551.383	-86.484	-0.471	-0.146
-550.369	-15.683	0.116	-0.074
-549.354	2.193	-0.021	0.015
-548.339	800.000	0.033	-0.100
-547.325	-0.314	-0.158	-0.113
-546.310	540.358	-0.110	-0.264
-545.296	138.015	-0.074	0.098
-544.281	-134.907	-0.212	0.026
-543.266	-147.871	0.215	-0.018
-542.252	10.366	-0.123	-0.095
-541.237	-113.515	-0.430	-0.085
-540.223	487.990	0.116	-0.266
-539.208	-200.000	-0.098	0.444
-538.193	800.000	-0.022	-0.065
-537.179	365.293	-0.228	0.462
-536.164	155.014	-0.064	0.089
-535.150	-200.000	0.016	-0.245
-534.135	-200.000	0.064	0.375
-533.121	-18.374	0.133	-0.084
-532.106	116.447	-0.054	-0.067
-531.091	-113.978	-0.493	0.096
-530.077	-158.081	-0.202	-0.012
-529.062	-72.012	-0.077	0.029
-528.048	-102.313	0.203	-0.049
-527.033	323.859	0.064	0.122
-526.018	-200.000	0.049	0.256
-525.004	-200.000	0.003	-0.136
-523.989	402.381	0.058	0.122
-522.975	37.918	0.185	-0.165
-521.960	-51.949	0.303	-0.142
-520.945	-50.363	0.075	-0.036
-519.931	73.688	-0.087	-0.092
-518.916	307.048	-0.112	0.209
-517.902	-136.303	-0.141	-0.017
-516.887	-129.986	0.398	-0.055
-515.872	-19.005	0.165	0.103
-514.858	332.872	-0.115	-0.224
-513.843	69.027	0.069	0.071
-512.829	337.825	0.155	-0.303
-511.814	13.297	-0.311	0.242
-510.799	-24.987	-0.116	0.069
-509.785	-200.000	0.031	-0.157
-508.770	800.000	0.111	-0.386
-507.756	-33.978	-0.070	-0.039
-506.741	61.586	0.170	-0.170
-505.726	-178.969	-0.474	0.011
-504.712	502.739	-0.070	-0.163
-503.697	-180.836	0.397	0.008
-502.683	800.000	0.079	-0.227
-501.668	800.000	0.023	0.095
-500.653	623.790	0.094	-0.239
-499.639	157.502	0.121	-0.169
-498.624	-74.519	0.145	-0.053
-497.610	501.922	0.102	0.236
-496.595	-200.000	-0.058	0.444
-495.581	-171.454	-0.144	-0.005
-494.566	-155.437	0.301	-0.020
-493.551	-39.422	0.157	0.083
-492.537	211.898	0.214	-0.338
-491.522	-200.000	-0.007	-0.152
-490.508	-200.000	0.028	0.286
-489.493	-110.363	0.421	0.088
-488.478	216.885	-0.052	-0.084
-487.464	-200.000	0.006	-0.166
-486.449	603.517	0.067	0.167
-485.435	-74.049	0.398	-0.145
-484.420	-100.705	0.170	-0.042
-483.405	312.746	-0.077	-0.145
-482.391	-69.073	0.305	0.118
-481.376	-104.583	0.092	-0.021
-480.362	66.430	0.092	0.093
-479.347	-111.600	0.249	0.051
-478.332	-92.429	0.014	-0.004
-477.318	800.000	0.118	-0.369
-476.303	-200.000	-0.008	-0.040
-475.289	108.310	-0.079	-0.095
-474.274	-89.659	-0.193	-0.057
-473.259	-200.000	-0.005	0.292
-472.245	737.285	-0.178	0.479
-471.230	-82.190	-0.300	-0.098
-470.216	-175.189	0.214	0.006
-469.201	333.136	0.053	0.103
-468.186	-200.000	0.008	0.053
-467.172	-59.924	0.173	-0.074
-466.157	-42.697	-0.203	0.104
-465.143	800.000	0.039	-0.154
-464.128	800.000	-0.058	0.254
-463.113	538.359	-0.122	0.291
-462.099	412.967	-0.067	0.143
-461.084	-200.000	0.009	-0.077
-460.070	168.058	-0.151	-0.216
-459.055	-77.899	-0.228	0.079
-458.040	-65.867	0.079	-0.032
-457.026	22.063	-0.125	0.103
-456.011	800.000	0.075	-0.266
-454.997	27.535	-0.071	-0.060
-453.982	-80.996	-0.308	-0.102
-452.968	-16.810	0.130	-0.083
-451.953	521.225	0.082	0.192
-450.938	800.000	-0.059	0.193
-449.924	-42.470	0.083	-0.042
-448.909	-200.000	-0.037	0.330
-447.895	-70.932	-0.212	-0.080
-446.880	-200.000	0.015	0.103
-445.865	800.000	0.029	0.105
-444.851	-200.000	-0.033	-0.192
-443.836	94.980	0.065	0.074
-442.822	271.073	-0.144	0.255
-441.807	222.777	-0.253	-0.408
-440.792	-175.422	0.230	-0.006
-439.778	-27.426	0.132	0.077
-438.763	204.153	-0.183	0.285
-437.749	-77.636	0.123	-0.043
-436.734	239.378	0.109	0.181
-435.719	-117.110	0.232	0.042
-434.705	800.000	-0.111	0.321
-433.690	-134.598	0.238	-0.029
-432.676	-71.439	-0.265	-0.100
-431.661	800.000	0.021	-0.062
-430.646	-187.090	-0.209	-0.003
-429.632	800.000	-0.057	0.220
-428.617	131.001	-0.067	-0.087
-427.603	-4.854	0.342	0.237
-426.588	-2.604	0.180	0.126
-425.573	-200.000	-0.002	0.192
-424.559	800.000	-0.110	0.361
-423.544	-103.791	-0.186	-0.044
-422.530	-14.754	-0.184	0.118
-421.515	-87.218	0.196	0.060
-420.500	33.036	0.044	-0.039
-419.486	117.594	-0.199	-0.246
-418.471	800.000	-0.118	0.331
-417.457	8.965	0.065	0.049
-416.442	448.602	-0.043	0.094
-415.428	-200.000	-0.006	-0.128
-414.413	-45.751	0.304	-0.151
-413.398	800.000	-0.057	0.241
-412.384	800.000	0.026	0.106
-411.369	479.256	0.101	-0.230
-410.355	122.293	0.102	0.127
-409.340	-200.000	0.037	0.204
-408.325	-61.430	-0.079	-0.033
-407.311	-132.070	0.273	0.036
-406.296	-133.402	-0.058	-0.007
-405.282	-41.064	-0.194	-0.100
-404.267	-105.952	-0.413	-0.093
-403.252	-117.993	-0.082	-0.015
-402.238	-200.000	0.003	0.352
-401.223	-120.525	0.453	-0.077
-400.209	108.361	0.244	-0.292
-399.194	38.747	0.115	0.103
-398.179	383.068	-0.108	0.223
-397.165	800.000	-0.058	0.161
-396.150	-52.252	-0.270	0.125
-395.136	564.571	-0.127	0.309
-394.121	800.000	0.040	-0.135
-393.106	-200.000	-0.020	0.115
-392.092	-7.975	-0.067	-0.045
-391.077	800.000	-0.096	-0.319
-390.063	-71.957	-0.186	-0.069
-389.048	-200.000	-0.002	0.026
-388.033	-63.974	-0.027	0.011
-387.019	42.154	-0.123	-0.112
-386.004	-23.682	0.222	0.133
-384.990	109.794	0.195	0.235
-383.975	59.244	-0.165	-0.163
-382.960	-132.434	0.268	-0.035
-381.946	77.658	0.256	0.272
-380.931	326.642	-0.017	-0.032
-379.917	800.000	0.043	0.159
-378.902	569.992	-0.094	-0.228
-377.888	197.289	0.086	-0.131
-376.873	-200.000	-0.008	0.088
-375.858	23.765	0.126	-0.104
-374.844	-40.837	0.145	0.075
-373.829	800.000	-0.055	0.197
-372.815	14.863	-0.162	-0.127
-371.800	-64.501	-0.225	0.092
-370.785	800.000	0.116	-0.440
-369.771	50.047	-0.130	0.122
-368.756	-50.627	-0.353	0.166
-367.742	-82.496	0.052	0.017
-366.727	102.571	0.088	-0.103
-365.712	82.831	0.106	0.116
-364.698	800.000	-0.049	-0.195
-363.683	-106.184	-0.078	-0.017
-362.669	-67.817	0.189	-0.074
-361.654	558.327	-0.017	-0.040
-360.639	-161.446	0.322	-0.017
-359.625	800.000	-0.060	0.222
-358.610	-144.843	-0.151	0.014
-357.596	-165.963	-0.328	0.014
-356.581	-96.673	-0.042	0.011
-355.566	233.648	-0.145	-0.239
-354.552	16.430	0.097	-0.076
-353.537	-200.000	-0.002	0.230
-352.523	-200.000	-0.036	0.275
-351.508	-200.000	0.071	0.329
-350.493	-9.117	-0.261	-0.174
-349.479	-57.336	-0.061	-0.027
-348.464	-200.000	-0.036	-0.584
-347.450	-200.000	0.041	-0.222
-346.435	-200.000	-0.014	0.140
-345.420	391.507	0.066	0.138
-344.406	-141.432	-0.337	0.034
-343.391	158.868	-0.096	-0.133
-342.377	738.164	-0.038	-0.101
-341.362	-200.000	-0.036	-0.169
-340.348	141.459	-0.157	0.208
-339.333	-200.000	0.031	-0.309
-338.318	-200.000	0.073	-0.518
-337.304	-68.662	0.485	-0.188
-336.289	112.146	0.086	0.104
-335.275	800.000	0.065	0.257
-334.260	-80.215	0.318	-0.106
-333.245	-114.255	-0.115	-0.022
-332.231	-127.324	0.179	-0.026
-331.216	-200.000	-0.009	0.054
-330.202	429.307	-0.049	-0.106
-329.187	382.925	-0.160	-0.329
-328.172	42.970	0.111	-0.101
-327.158	-200.000	-0.020	-0.238
-326.143	341.184	0.002	0.005
-325.129	-66.705	0.137	-0.054
-324.114	78.813	0.255	0.273
-323.099	763.330	0.130	-0.352
-322.085	41.388	-0.042	-0.038
-321.070	123.083	0.190	-0.238
-320.056	-200.000	0.011	-0.265
-319.041	-200.000	-0.010	-0.102
-318.026	-11.418	0.241	0.159
-317.012	157.246	-0.159	-0.220
-315.997	48.157	0.188	-0.176
-314.983	-61.604	-0.272	-0.114
-313.968	-48.148	0.348	-0.168
-312.953	-60.096	-0.229	-0.098
-311.939	-200.000	-0.026	0.141
-310.924	-110.262	-0.071	-0.015
-309.910	800.000	0.142	0.408
-308.895	-155.089	-0.285	-0.019
-307.880	166.444	0.266	0.376
-306.866	800.000	-0.086	-0.247
-305.851	42.307	-0.066	0.059
-304.837	-200.000	0.009	0.295
-303.822	-122.776	-0.370	-0.060
-302.807	-57.838	0.217	-0.095
-301.793	-200.000	-0.001	0.415
-300.778	67.243	0.074	0.075
-299.764	-200.000	-0.029	0.190
-298.749	18.579	0.375	0.299
-297.735	-142.759	-0.134	0.013
-296.720	800.000	0.045	-0.179
-295.705	-200.000	-0.022	-0.326
-294.691	-200.000	0.354	0.001
-293.676	416.408	-0.038	-0.081
-292.662	-200.000	-0.011	0.095
-291.647	-39.022	0.497	0.261
-290.632	-5.102	-0.136	0.093
-289.618	800.000	0.048	0.132
-288.603	284.475	0.091	-0.164
-287.589	-87.997	0.151	-0.045
-286.574	17.069	-0.204	0.161
-285.559	-125.442	-0.017	0.003
-284.545	-200.000	-0.008	-0.170
-283.530	-27.001	-0.212	-0.123
-282.516	-1.840	0.277	-0.194
-281.501	-125.905	0.144	0.022
-280.486	-180.161	-0.130	-0.003
-279.472	-200.000	-0.001	0.226
-278.457	21.429	0.298	0.242
-277.443	-65.381	-0.210	-0.084
-276.428	800.000	-0.094	0.260
-275.413	-200.000	0.008	0.084
-274.399	-138.192	0.081	-0.009
-273.384	77.088	-0.118	-0.125
-272.370	178.206	0.203	0.296
-271.355	457.378	0.132	-0.292
-270.340	320.071	0.044	0.083
-269.326	6.944	-0.314	-0.233
-268.311	233.344	-0.233	0.382
-267.297	493.216	-0.073	0.166
-266.282	-111.285	0.144	-0.029
-265.267	-6.800	-0.013	0.009
-264.253	-22.997	-0.163	-0.098
-263.238	243.139	0.070	-0.117
-262.224	-74.803	0.348	-0.124
-261.209	595.018	0.052	0.128
-260.195	0.836	-0.135	-0.096
-259.180	33.137	-0.126	0.109
-258.165	25.662	-0.138	0.114
-257.151	-160.165	0.266	0.014
-256.136	601.174	-0.062	-0.153
-255.122	38.832	-0.245	-0.218
-254.107	-125.324	0.026	-0.004
-253.092	-13.442	0.213	0.137
-252.078	-200.000	0.033	-0.437
-251.063	-200.000	-0.008	0.398
-250.049	-57.346	0.412	-0.180
-249.034	-17.910	-0.256	0.160
-248.019	-159.109	0.178	-0.010
-247.005	4.193	0.068	0.050
-245.990	-0.301	-0.090	-0.064
-244.976	-50.041	-0.338	0.159
-243.961	469.339	-0.128	0.287
-242.946	-34.828	-0.208	-0.113
-241.932	161.775	0.050	0.070
-240.917	-45.165	-0.215	0.106
-239.903	800.000	0.140	-0.425
-238.888	-59.711	-0.248	-0.106
-237.873	800.000	0.046	-0.164
-236.859	-159.852	0.103	0.006
-235.844	-72.488	-0.151	-0.055
-234.830	800.000	0.059	0.181
-233.815	694.393	0.050	0.131
-232.800	50.610	-0.031	-0.029
-231.786	715.126	-0.114	0.301
-230.771	-200.000	-0.026	0.209
-229.757	295.637	0.134	0.245
-228.742	75.342	-0.053	-0.056
-227.727	-165.776	0.143	-0.006
-226.713	-68.433	0.165	-0.064
-225.698	-200.000	0.041	-0.236
-224.684	-93.407	-0.244	0.067
-223.669	-200.000	0.033	-0.157
-222.655	234.945	-0.154	-0.253
-221.640	44.717	-0.162	-0.148
-220.625	-200.000	0.050	-0.325
-219.611	-200.000	0.032	-0.171
-218.596	-200.000	-0.006	-0.184
-217.582	35.651	0.232	0.203
-216.567	85.224	-0.123	-0.135
-215.552	800.000	-0.036	-0.154
-214.538	453.308	0.075	0.166
-213.523	-91.257	0.206	0.059
-212.509	65.238	-0.134	0.135
-211.494	72.295	-0.043	0.044
-210.479	322.644	0.042	0.079
-209.465	59.679	-0.240	-0.236
-208.450	393.122	-0.138	0.285
-207.436	-8.114	-0.233	0.156
-206.421	-173.215	-0.205	0.006
-205.406	4.450	-0.110	-0.080
-204.392	-101.148	-0.140	-0.034
-203.377	-5.951	0.199	-0.135
-202.363	14.248	0.092	-0.071
-201.348	-96.528	0.324	-0.085
-200.333	-200.000	-0.015	0.204
-199.319	47.739	0.083	-0.077
-198.304	-99.255	-0.258	0.065
-197.290	480.084	0.091	0.204
-196.275	-154.134	0.141	0.009
-195.260	-200.000	-0.012	0.144
-194.246	-79.734	-0.105	0.035
-193.231	-161.334	-0.304	-0.016
-192.217	-15.487	-0.154	0.098
-191.202	-200.000	-0.018	-0.311
-190.187	64.506	0.122	0.122
-189.173	-28.610	0.082	0.047
-188.158	-65.848	-0.069	0.028
-187.144	349.511	0.140	0.275
-186.129	33.240	0.340	-0.293
-185.114	117.630	0.118	-0.144
-184.100	20.062	0.403	0.323
-183.085	154.551	-0.179	-0.244
-182.071	-134.713	0.350	0.042
-181.056	-40.885	0.124	-0.064
-180.042	477.946	0.052	-0.116
-179.027	13.066	0.126	-0.097
-178.012	62.823	0.365	0.363
-176.998	-33.145	0.093	-0.051
-175.983	-200.000	-0.026	-0.352
-174.969	15.261	-0.149	-0.116
-173.954	105.834	-0.090	-0.106
-172.939	102.687	0.219	0.254
-171.925	75.505	-0.126	0.132
-170.910	-115.558	-0.291	-0.054
-169.896	129.878	-0.144	0.183
-168.881	775.542	-0.043	-0.115
-167.866	-161.656	0.161	0.008
-166.852	159.544	-0.109	-0.150
-165.837	129.595	-0.120	-0.153
-164.823	122.662	0.115	0.143
-163.808	-200.000	-0.005	0.349
-162.793	-200.000	-0.058	0.293
-161.779	-81.971	-0.123	-0.040
-160.764	-14.489	-0.191	0.122
-159.750	-66.168	-0.224	0.089
-158.735	800.000	0.052	0.159
-157.720	631.479	0.070	0.176
-156.706	748.253	-0.058	-0.154
-155.691	-103.915	0.072	0.017
-154.677	-200.000	0.022	0.195
-153.662	-21.175	0.296	0.179
-152.647	367.035	0.063	0.126
-151.633	201.889	-0.042	-0.064
-150.618	-200.000	0.044	0.413
-149.604	602.174	0.153	-0.376
-148.589	269.477	0.039	-0.067
-147.574	172.272	-0.149	-0.212
-146.560	31.656	-0.067	0.057
-145.545	155.749	-0.095	-0.129
-144.531	-120.911	0.183	-0.030
-143.516	-200.000	0.033	0.181
-142.502	-70.504	0.085	-0.032
-141.487	800.000	0.046	0.144
-140.472	-148.354	0.354	-0.029
-139.458	365.119	0.174	0.348
-138.443	-200.000	-0.045	0.254
-137.429	238.107	-0.082	0.135
-136.414	760.014	0.082	-0.219
-135.399	149.790	0.040	0.053
-134.385	96.244	-0.161	-0.183
-133.370	-59.531	0.179	-0.076
-132.356	-16.721	0.089	0.056
-131.341	344.075	-0.051	0.099
-130.326	-200.000	-0.012	0.059
-129.312	-175.178	-0.222	-0.006
-128.297	800.000	0.082	0.350
-127.283	50.111	0.219	0.205
-126.268	109.676	-0.080	-0.095
-125.253	800.000	-0.042	-0.146
-124.239	-200.000	-0.027	-0.192
-123.224	-200.000	0.007	0.095
-122.210	-28.266	-0.048	0.028
