DTS Sentinel unit serial number:	SN413079Multiplexer serial number:	ORYXHardware model number:	OX4-SRSoftware version number:	ORYX F/W v4.00 Oryx Data Collector v3.7.2.0data status	okinstallation	princeton_trtdifferential loss correction	single-endedforward channel	channel 4reverse channel	N/Adate	2019/09/11time	01:47:11forward acquisition time	60.00reverse acquisition time	0.00gamma	496.2192k internal	0.2317k external	0.2317temperature offset calibration	0.9950default loss term (dB/km)	0.3790temperature slope calibration	1.0000multiplexer offset coefficient	1.0000multiplexer slope coefficient	1.0000fibre end	0.00T internal ref (°C)	29.17T ext. ref 1 (°C)	-0.31T ext. ref 2 (°C)	23.10length (m)	temperature (°C)	Stokes	anti-Stokes-747.200	-82.933	0.357	0.117
-746.185	-101.399	-0.174	-0.043
-745.171	-186.183	0.106	-0.002
-744.156	-159.874	-0.292	-0.016
-743.142	-88.927	0.327	0.098
-742.127	-200.000	-0.054	0.407
-741.112	-113.008	-0.115	0.023
-740.098	76.053	-0.279	0.299
-739.083	800.000	0.010	0.032
-738.069	-200.000	-0.029	0.147
-737.054	-127.074	0.168	0.025
-736.039	-55.112	-0.368	-0.167
-735.025	-200.000	0.010	0.229
-734.010	-119.862	-0.285	-0.050
-732.996	-200.000	0.021	0.231
-731.981	-43.732	0.163	-0.083
-730.966	-106.081	-0.194	0.044
-729.952	139.755	-0.146	-0.194
-728.937	-200.000	0.072	-0.398
-727.923	-65.061	-0.337	0.138
-726.908	-120.489	0.351	0.060
-725.894	49.338	-0.113	-0.108
-724.879	800.000	-0.054	0.206
-723.864	800.000	-0.179	-0.501
-722.850	-200.000	0.032	0.340
-721.835	-200.000	0.020	0.277
-720.821	-200.000	-0.008	0.170
-719.806	102.908	-0.252	-0.298
-718.791	591.839	0.093	-0.232
-717.777	-200.000	-0.022	-0.111
-716.762	800.000	0.031	-0.117
-715.748	-132.944	-0.273	0.035
-714.733	285.144	-0.095	-0.172
-713.718	386.814	0.048	-0.099
-712.704	-200.000	0.005	-0.163
-711.689	-150.768	-0.150	0.012
-710.675	-88.400	-0.212	0.064
-709.660	105.868	0.031	-0.037
-708.645	-70.731	0.024	-0.009
-707.631	-13.518	0.210	-0.138
-706.616	26.450	0.301	-0.254
-705.602	-137.383	-0.094	0.011
-704.587	544.616	-0.073	-0.177
-703.572	-51.134	0.143	-0.068
-702.558	110.904	-0.270	-0.328
-701.543	45.526	0.068	-0.063
-700.529	76.044	0.182	-0.195
-699.514	43.423	-0.209	-0.193
-698.499	68.291	-0.176	-0.183
-697.485	-28.735	0.439	-0.255
-696.470	651.508	0.115	-0.298
-695.456	39.717	0.269	-0.244
-694.441	73.553	0.008	-0.009
-693.426	-102.703	0.142	-0.034
-692.412	-200.000	-0.104	0.466
-691.397	800.000	-0.086	-0.257
-690.383	-200.000	0.018	0.100
-689.368	9.377	-0.223	-0.171
-688.354	-120.936	0.273	0.046
-687.339	-111.801	0.363	-0.074
-686.324	204.004	-0.145	-0.227
-685.310	800.000	0.012	0.052
-684.295	800.000	0.052	0.204
-683.281	-6.270	-0.225	-0.155
-682.266	244.589	-0.120	0.204
-681.251	-200.000	0.016	0.087
-680.237	800.000	0.019	0.066
-679.222	103.289	0.165	-0.195
-678.208	-0.618	0.183	0.131
-677.193	-41.862	-0.382	-0.198
-676.178	89.148	-0.357	-0.401
-675.164	427.206	0.071	-0.155
-674.149	-68.443	-0.135	-0.053
-673.135	-164.778	-0.241	0.011
-672.120	567.578	-0.111	0.271
-671.105	133.753	0.249	0.326
-670.091	435.908	0.049	0.109
-669.076	-125.793	-0.298	-0.045
-668.062	57.001	0.155	-0.152
-667.047	-72.191	0.137	-0.051
-666.032	-7.961	0.106	0.072
-665.018	219.672	-0.156	-0.252
-664.003	230.866	-0.056	-0.092
-662.989	-200.000	0.017	-0.207
-661.974	41.710	-0.056	0.051
-660.959	283.613	0.078	-0.142
-659.945	236.435	0.147	0.245
-658.930	-62.050	0.204	0.086
-657.916	-171.333	0.111	0.004
-656.901	-20.680	-0.311	-0.192
-655.886	-67.787	-0.203	0.080
-654.872	-200.000	-0.006	0.169
-653.857	49.014	-0.048	-0.045
-652.843	295.340	-0.115	-0.212
-651.828	-126.113	0.115	-0.017
-650.814	42.446	-0.223	0.205
-649.799	-127.395	0.289	0.042
-648.784	-93.593	-0.108	-0.030
-647.770	29.276	0.233	-0.200
-646.755	-143.369	-0.366	-0.035
-645.741	-61.176	-0.155	0.066
-644.726	800.000	-0.039	0.168
-643.711	800.000	0.092	-0.275
-642.697	-70.789	0.185	0.070
-641.682	-120.715	0.026	0.005
-640.668	213.600	-0.165	-0.263
-639.653	-200.000	-0.035	0.223
-638.638	95.128	-0.032	0.036
-637.624	-25.263	-0.340	-0.203
-636.609	-200.000	-0.005	-0.160
-635.595	57.909	0.098	-0.097
-634.580	270.799	-0.015	-0.027
-633.565	-112.142	0.201	0.041
-632.551	173.186	-0.159	-0.232
-631.536	-57.141	-0.124	-0.055
-630.522	-161.541	-0.125	0.006
-629.507	185.470	0.113	-0.169
-628.492	304.220	0.126	-0.235
-627.478	177.273	-0.166	-0.243
-626.463	14.786	-0.202	-0.159
-625.449	-31.293	-0.306	-0.174
-624.434	0.751	0.183	-0.132
-623.419	-135.059	0.173	0.021
-622.405	-111.110	0.372	0.077
-621.390	-91.432	-0.378	-0.109
-620.376	-77.742	0.184	-0.064
-619.361	2.523	0.087	-0.064
-618.346	-20.606	0.268	0.166
-617.332	800.000	-0.070	0.294
-616.317	-200.000	-0.238	0.001
-615.303	-160.694	0.514	-0.028
-614.288	-125.812	0.265	-0.040
-613.273	-49.810	-0.122	-0.058
-612.259	-200.000	0.002	-0.099
-611.244	149.747	-0.127	-0.173
-610.230	105.394	-0.200	-0.238
-609.215	464.120	-0.058	-0.131
-608.201	340.230	0.158	-0.311
-607.186	-46.805	-0.018	0.009
-606.171	-101.039	-0.314	-0.077
-605.157	-89.754	0.103	-0.030
-604.142	247.529	0.042	-0.072
-603.128	-131.704	0.163	0.022
-602.113	80.817	-0.163	-0.176
-601.098	270.791	-0.069	-0.122
-600.084	413.206	0.060	-0.128
-599.069	445.512	0.078	-0.172
-598.055	-83.535	-0.323	-0.104
-597.040	-200.000	0.006	-0.054
-596.025	466.622	-0.164	0.369
-595.011	-41.127	0.170	-0.088
-593.996	-198.447	-0.303	0.002
-592.982	83.884	0.158	-0.174
-591.967	-200.000	0.029	-0.184
-590.952	703.124	0.083	0.220
-589.938	800.000	0.095	-0.379
-588.923	-59.971	-0.224	0.096
-587.909	-200.000	0.004	-0.074
-586.894	-196.633	0.119	0.001
-585.879	385.235	-0.096	0.199
-584.865	-79.159	-0.401	-0.137
-583.850	-47.651	0.128	-0.062
-582.836	-76.763	-0.251	-0.088
-581.821	648.196	-0.038	-0.097
-580.806	751.107	-0.028	-0.077
-579.792	-14.358	0.087	-0.056
-578.777	4.294	0.095	0.070
-577.763	35.781	0.260	0.230
-576.748	-200.000	-0.067	-0.362
-575.733	-200.000	0.008	-0.166
-574.719	-30.595	-0.247	-0.141
-573.704	-52.003	0.085	0.040
-572.690	-81.952	0.210	0.069
-571.675	-93.252	0.316	-0.088
-570.661	9.451	-0.135	-0.103
-569.646	800.000	-0.041	0.128
-568.631	-16.916	0.050	-0.032
-567.617	-200.000	0.017	-0.310
-566.602	-200.000	-0.006	-0.312
-565.588	3.773	0.250	0.184
-564.573	12.921	-0.108	0.084
-563.558	-26.911	0.178	-0.105
-562.544	119.682	0.059	0.074
-561.529	325.226	-0.073	0.141
-560.515	-8.280	-0.141	0.095
-559.500	-91.486	-0.157	0.045
-558.485	610.481	0.222	0.558
-557.471	800.000	0.021	0.063
-556.456	1.036	-0.201	-0.145
-555.442	302.208	-0.070	-0.131
-554.427	-200.000	0.038	0.473
-553.412	87.810	0.096	0.107
-552.398	800.000	0.045	-0.127
-551.383	-125.231	0.087	0.013
-550.369	332.765	0.122	0.236
-549.354	424.417	0.116	0.250
-548.339	-11.832	-0.240	-0.158
-547.325	-200.000	-0.044	-0.303
-546.310	-200.000	0.039	-0.381
-545.296	151.508	0.166	0.227
-544.281	-83.885	-0.467	0.149
-543.266	175.721	0.145	-0.211
-542.252	-81.183	0.287	-0.095
-541.237	5.260	0.119	-0.088
-540.223	347.915	0.196	-0.387
-539.208	12.617	0.088	0.068
-538.193	-116.969	0.310	-0.057
-537.179	62.795	0.062	0.062
-536.164	458.153	0.095	-0.212
-535.150	695.156	0.074	0.195
-534.135	-135.887	-0.176	0.021
-533.121	800.000	-0.070	-0.196
-532.106	-38.815	0.191	-0.101
-531.091	-150.851	-0.096	-0.007
-530.077	-166.296	-0.027	-0.001
-529.062	-200.000	-0.069	-0.392
-528.048	33.580	-0.084	-0.073
-527.033	-200.000	-0.011	0.313
-526.018	-68.107	-0.223	-0.087
-525.004	-110.591	-0.266	0.055
-523.989	-200.000	0.083	-0.449
-522.975	-4.270	0.106	-0.074
-521.960	-98.450	0.169	0.043
-520.945	17.029	0.244	0.194
-519.931	-200.000	0.068	0.377
-518.916	-124.134	-0.125	-0.020
-517.902	-200.000	-0.006	0.098
-516.887	-73.504	-0.079	-0.029
-515.872	-200.000	-0.052	-0.232
-514.858	-200.000	0.022	-0.239
-513.843	800.000	-0.112	-0.355
-512.829	165.450	0.167	0.236
-511.814	89.122	-0.125	-0.140
-510.799	488.191	0.069	-0.157
-509.785	275.294	0.111	0.198
-508.770	-200.000	-0.018	0.191
-507.756	369.150	0.168	-0.341
-506.741	-57.195	0.421	-0.186
-505.726	-90.817	0.158	0.046
-504.712	-37.307	0.292	0.156
-503.697	800.000	0.046	0.161
-502.683	194.980	-0.079	-0.121
-501.668	-103.913	-0.362	0.085
-500.653	-122.302	-0.228	-0.037
-499.639	800.000	0.026	-0.098
-498.624	294.085	-0.090	0.166
-497.610	98.760	0.260	-0.301
-496.595	200.838	-0.033	-0.051
-495.581	120.855	0.027	0.034
-494.566	800.000	0.090	0.265
-493.551	227.573	0.156	0.254
-492.537	90.421	-0.368	0.413
-491.522	48.875	-0.148	-0.139
-490.508	202.825	-0.304	0.471
-489.493	800.000	-0.052	0.173
-488.478	-143.891	0.149	0.014
-487.464	-39.570	0.216	0.113
-486.449	-2.430	-0.239	0.168
-485.435	-200.000	-0.002	-0.071
-484.420	-10.570	-0.268	0.178
-483.405	-83.460	0.278	-0.089
-482.391	800.000	-0.065	-0.192
-481.376	-200.000	-0.041	0.259
-480.362	-110.075	-0.415	0.087
-479.347	-32.498	-0.149	-0.083
-478.332	-134.903	-0.261	0.032
-477.318	-156.100	0.399	0.025
-476.303	72.946	-0.180	0.189
-475.289	-68.096	0.242	-0.095
-474.274	81.243	0.067	-0.073
-473.259	467.399	0.097	0.219
-472.245	19.044	-0.115	-0.093
-471.230	-140.439	0.540	0.056
-470.216	800.000	0.117	0.433
-469.201	254.549	0.087	-0.149
-468.186	-40.584	-0.107	-0.056
-467.172	-178.116	0.185	-0.004
-466.157	276.079	0.145	-0.258
-465.143	435.911	0.019	-0.041
-464.128	800.000	0.135	-0.380
-463.113	-8.934	0.245	0.165
-462.099	-41.960	-0.059	0.031
-461.084	-123.692	0.229	0.036
-460.070	-200.000	-0.055	0.257
-459.055	-178.919	0.135	-0.003
-458.040	-200.000	-0.385	0.001
-457.026	360.524	0.220	-0.441
-456.011	-77.909	0.086	-0.030
-454.997	55.011	0.089	-0.086
-453.982	85.682	0.025	0.028
-452.968	-85.067	-0.278	0.087
-451.953	-128.666	-0.540	0.076
-450.938	-0.046	0.280	-0.200
-449.924	-47.204	-0.131	-0.064
-448.909	3.525	-0.079	0.057
-447.895	106.140	0.194	0.230
-446.880	-152.720	0.230	-0.016
-445.865	150.612	0.101	-0.137
-444.851	-71.541	0.213	-0.080
-443.836	-56.529	0.296	-0.132
-442.822	-200.000	-0.028	0.174
-441.807	-31.217	-0.207	-0.117
-440.792	-36.820	0.400	-0.215
-439.778	-101.736	0.131	0.032
-438.763	-200.000	-0.063	0.277
-437.749	195.288	-0.151	0.230
-436.734	596.463	0.100	-0.247
-435.719	31.861	0.063	-0.054
-434.705	154.112	0.089	-0.122
-433.690	170.364	-0.068	0.098
-432.676	106.198	-0.244	0.289
-431.661	-188.273	-0.266	0.003
-430.646	1.497	-0.334	0.240
-429.632	349.232	-0.064	-0.126
-428.617	-41.503	-0.373	-0.192
-427.603	51.824	0.094	-0.089
-426.588	325.926	-0.084	-0.160
-425.573	332.447	-0.043	-0.083
-424.559	288.833	-0.102	-0.185
-423.544	800.000	-0.091	0.304
-422.530	-11.630	-0.245	-0.161
-421.515	327.864	-0.106	-0.203
-420.500	-105.432	0.184	-0.042
-419.486	52.144	-0.122	-0.116
-418.471	-54.160	-0.416	-0.189
-417.457	-200.000	0.079	0.403
-416.442	398.391	-0.051	-0.106
-415.428	-115.337	-0.398	0.075
-414.413	-200.000	-0.033	0.291
-413.398	41.020	0.319	-0.287
-412.384	-127.661	-0.334	0.048
-411.369	93.416	0.289	0.326
-410.355	264.817	-0.064	-0.111
-409.340	-200.000	-0.013	-0.126
-408.325	-198.012	0.140	-0.001
-407.311	800.000	-0.122	-0.402
-406.296	80.126	-0.333	0.358
-405.282	3.740	-0.080	-0.058
-404.267	-34.058	0.086	0.047
-403.252	-20.886	0.227	-0.139
-402.238	-73.382	0.139	-0.051
-401.223	-47.346	0.269	0.131
-400.209	800.000	-0.045	-0.150
-399.194	-136.899	0.131	-0.015
-398.179	-200.000	-0.019	0.146
-397.165	-108.181	-0.267	0.058
-396.150	800.000	0.037	0.120
-395.136	-54.158	0.105	0.048
-394.121	-20.109	-0.172	0.106
-393.106	-9.086	-0.139	-0.093
-392.092	-111.433	0.066	0.013
-391.077	230.668	-0.191	-0.312
-390.063	-38.605	-0.144	0.076
-389.048	-13.533	-0.243	0.157
-388.033	-200.000	-0.004	-0.148
-387.019	32.198	-0.236	0.203
-386.004	-11.544	-0.221	0.145
-384.990	-20.117	-0.101	-0.062
-383.975	468.355	0.103	0.231
-382.960	7.392	0.087	-0.065
-381.946	-116.892	-0.383	-0.070
-380.931	-125.507	0.053	0.008
-379.917	221.081	-0.063	-0.100
-378.902	409.827	0.051	-0.108
-377.888	-130.032	0.121	0.017
-376.873	-15.967	0.333	-0.211
-375.858	63.281	0.081	-0.081
-374.844	-73.224	-0.082	-0.030
-373.829	119.692	0.085	0.105
-372.815	82.286	-0.320	0.346
-371.800	-55.225	-0.203	0.091
-370.785	800.000	0.057	-0.205
-369.771	-200.000	-0.327	-0.002
-368.756	800.000	0.020	0.077
-367.742	-200.000	-0.004	0.115
-366.727	367.081	0.066	0.133
-365.712	-165.525	0.165	0.007
-364.698	433.920	-0.094	0.203
-363.683	441.035	-0.118	0.257
-362.669	-19.326	0.060	-0.037
-361.654	-77.094	0.102	0.035
-360.639	-74.253	0.205	-0.074
-359.625	-14.189	0.046	-0.030
-358.610	-9.511	-0.183	0.122
-357.596	107.887	-0.089	-0.106
-356.581	800.000	0.014	-0.041
-355.566	-200.000	-0.024	-0.181
-354.552	247.706	0.094	0.159
-353.537	138.240	-0.280	0.367
-352.523	800.000	-0.070	-0.262
-351.508	-200.000	-0.026	-0.263
-350.493	26.169	-0.141	-0.117
-349.479	-200.000	0.012	-0.259
-348.464	137.709	-0.250	-0.326
-347.450	59.166	0.259	-0.254
-346.435	573.734	0.148	-0.359
-345.420	58.215	0.218	0.213
-344.406	32.282	-0.036	0.031
-343.391	-200.000	-0.007	-0.242
-342.377	-98.720	-0.216	-0.055
-341.362	107.679	0.200	-0.238
-340.348	316.133	0.191	0.359
-339.333	2.607	-0.172	0.124
-338.318	56.366	-0.190	0.184
-337.304	-168.604	0.131	-0.005
-336.289	122.269	0.023	-0.028
-335.275	74.772	-0.040	-0.041
-334.260	75.584	0.143	-0.151
-333.245	25.736	-0.081	-0.067
-332.231	220.141	-0.109	0.174
-331.216	91.675	0.310	0.347
-330.202	-200.000	0.032	0.358
-329.187	-83.163	-0.234	0.075
-328.172	-166.463	0.195	0.008
-327.158	676.081	-0.114	0.295
-326.143	-200.000	-0.087	0.403
-325.129	481.144	-0.111	0.251
-324.114	800.000	0.048	0.180
-323.099	78.630	-0.105	-0.112
-322.085	-200.000	0.001	-0.273
-321.070	-196.750	0.148	-0.001
-320.056	800.000	-0.085	-0.262
-319.041	-159.804	0.085	0.005
-318.026	38.768	0.274	0.243
-317.012	-1.672	-0.085	0.060
-315.997	-61.646	0.602	-0.252
-314.983	27.879	-0.144	-0.121
-313.968	-45.850	0.249	-0.122
-312.953	47.730	0.073	0.068
-311.939	-200.000	-0.007	0.078
-310.924	-44.675	0.080	-0.040
-309.910	548.520	0.218	0.520
-308.895	494.299	0.146	0.334
-307.880	412.142	0.165	-0.348
-306.866	253.310	0.057	0.097
-305.851	796.172	0.045	0.124
-304.837	-50.316	-0.155	0.073
-303.822	310.484	-0.110	-0.204
-302.807	284.730	0.081	-0.145
-301.793	800.000	-0.067	0.208
-300.778	800.000	-0.081	0.295
-299.764	-68.649	0.145	-0.056
-298.749	84.681	0.071	0.078
-297.735	29.154	0.021	0.018
-296.720	-99.234	-0.049	-0.012
-295.705	-75.101	-0.218	0.077
-294.691	-110.246	0.125	0.026
-293.676	530.369	-0.012	0.028
-292.662	-200.000	-0.025	-0.196
-291.647	-18.717	0.018	0.011
-290.632	-61.684	-0.165	-0.069
-289.618	173.141	0.030	0.043
-288.603	164.911	0.050	0.070
-287.589	-96.014	0.193	-0.051
-286.574	146.788	-0.326	-0.436
-285.559	40.370	-0.104	0.093
-284.545	-40.527	-0.120	0.062
-283.530	-68.846	-0.092	0.035
-282.516	101.726	0.139	-0.161
-281.501	800.000	-0.093	-0.306
-280.486	-173.115	0.163	-0.005
-279.472	800.000	-0.078	0.304
-278.457	-151.591	-0.189	-0.014
-277.443	62.842	-0.094	0.094
-276.428	-41.326	-0.159	0.081
-275.413	-200.000	0.003	-0.165
-274.399	-73.300	0.156	-0.057
-273.384	49.249	-0.161	0.151
-272.370	-52.315	0.119	0.055
-271.355	-24.945	-0.391	-0.230
-270.340	-133.253	0.318	0.040
-269.326	187.507	-0.074	-0.109
-268.311	-200.000	-0.002	-0.174
-267.297	-200.000	-0.057	0.275
-266.282	-123.139	-0.233	0.037
-265.267	61.895	0.098	-0.097
-264.253	-76.861	-0.131	0.046
-263.238	800.000	0.009	-0.033
-262.224	135.378	-0.107	0.138
-261.209	0.780	-0.094	-0.067
-260.195	50.502	0.181	-0.170
-259.180	800.000	0.053	0.184
-258.165	21.801	-0.136	-0.110
-257.151	-200.000	0.007	0.092
-256.136	-83.923	-0.417	0.132
-255.122	15.092	-0.090	0.070
-254.107	36.562	-0.152	0.133
-253.092	275.674	-0.018	0.032
-252.078	-200.000	-0.060	-0.298
-251.063	-34.697	0.330	-0.179
-250.049	504.915	0.101	0.233
-249.034	800.000	-0.088	-0.288
-248.019	238.043	0.042	0.069
-247.005	-200.000	-0.001	-0.062
-245.990	613.248	0.220	0.546
-244.976	332.074	0.186	0.356
-243.961	-155.871	0.180	-0.011
-242.946	-161.825	-0.236	-0.012
-241.932	-200.000	-0.050	-0.305
-240.917	508.083	-0.102	-0.235
-239.903	-121.263	-0.456	-0.076
-238.888	-74.943	0.333	-0.118
-237.873	800.000	0.057	0.184
-236.859	-200.000	0.026	0.290
-235.844	-32.642	0.227	0.125
-234.830	800.000	-0.019	0.075
-233.815	-200.000	-0.001	-0.007
-232.800	-70.996	0.273	0.102
-231.786	800.000	0.041	0.161
-230.771	-200.000	0.039	0.390
-229.757	566.096	0.049	0.117
-228.742	-122.618	0.332	0.053
-227.727	-30.622	-0.288	0.162
-226.713	430.837	0.162	-0.347
-225.698	-198.727	-0.472	-0.003
-224.684	-200.000	-0.026	0.133
-223.669	-12.630	-0.255	0.165
-222.655	-45.008	-0.175	-0.086
-221.640	500.345	-0.010	-0.024
-220.625	-200.000	0.024	0.125
-219.611	-200.000	0.038	0.355
-218.596	174.364	0.084	0.120
-217.582	-76.309	0.128	-0.045
-216.567	-200.000	-0.009	-0.180
-215.552	-166.814	-0.194	0.008
-214.538	53.906	0.125	-0.119
-213.523	800.000	-0.045	0.154
-212.509	-200.000	-0.035	0.349
-211.494	32.517	-0.149	0.128
-210.479	164.614	-0.177	0.247
-209.465	800.000	0.127	-0.360
-208.450	800.000	0.022	-0.081
-207.436	800.000	-0.100	0.297
-206.421	-14.011	-0.020	-0.013
-205.406	-200.000	0.035	0.227
-204.392	-29.231	0.480	-0.272
-203.377	-83.514	0.136	0.043
-202.363	800.000	0.014	0.038
-201.348	-103.177	-0.261	0.061
-200.333	800.000	0.083	-0.256
-199.319	-122.075	-0.111	-0.018
-198.304	-70.144	0.188	0.071
-197.290	-142.158	0.021	-0.002
-196.275	-159.631	-0.225	-0.012
-195.260	-132.656	-0.211	0.027
-194.246	-200.000	0.007	0.120
-193.231	535.529	0.076	-0.178
-192.217	-151.760	0.336	-0.024
-191.202	-146.979	-0.030	0.003
-190.187	70.766	-0.064	-0.066
-189.173	260.403	-0.206	-0.353
-188.158	800.000	-0.092	-0.320
-187.144	-5.258	0.161	0.110
-186.129	-47.008	0.070	0.034
-185.114	601.283	0.049	0.121
-184.100	800.000	0.140	-0.606
-183.085	-170.003	0.422	-0.015
-182.071	443.582	0.080	0.173
-181.056	54.342	0.185	0.177
-180.042	-200.000	0.024	0.216
-179.027	-113.291	0.308	0.060
-178.012	576.272	-0.042	0.100
-176.998	84.585	-0.100	0.109
-175.983	-200.000	-0.019	-0.155
-174.969	-27.211	-0.323	-0.186
-173.954	7.938	-0.071	-0.053
-172.939	119.209	-0.243	0.297
-171.925	-189.594	-0.373	0.004
-170.910	32.021	0.247	0.211
-169.896	-200.000	-0.045	0.480
-168.881	-4.438	-0.194	0.132
-167.866	-36.077	0.121	0.065
-166.852	-200.000	-0.019	0.087
-165.837	18.466	0.077	0.061
-164.823	41.660	0.211	0.189
-163.808	-66.278	0.296	0.117
-162.793	25.182	0.131	0.108
-161.779	-140.596	0.295	-0.030
-160.764	-98.612	0.363	-0.092
-159.750	-200.000	0.010	0.266
-158.735	85.453	-0.079	-0.085
-157.720	800.000	-0.075	-0.297
-156.706	139.964	0.172	0.224
-155.691	-145.986	0.267	0.023
-154.677	-39.486	-0.159	-0.083
-153.662	-152.025	-0.151	-0.011
-152.647	-53.400	0.338	0.153
-151.633	-156.817	-0.407	-0.025
-150.618	-88.783	0.146	-0.043
-149.604	-200.000	-0.018	0.176
-148.589	-55.377	0.217	-0.096
-147.574	-200.000	0.023	0.378
-146.560	-200.000	-0.008	0.293
-145.545	285.991	-0.080	-0.143
-144.531	80.357	0.106	0.112
-143.516	165.079	-0.142	-0.198
-142.502	800.000	0.031	0.113
-141.487	800.000	-0.087	0.309
-140.472	58.803	0.078	0.076
-139.458	-62.319	0.169	-0.070
-138.443	-117.533	-0.195	-0.035
-137.429	271.232	-0.034	0.058
-136.414	267.054	-0.106	-0.184
-135.399	21.191	0.090	-0.072
-134.385	-130.026	0.167	0.023
-133.370	-87.575	0.167	0.050
-132.356	-172.231	-0.446	0.014
-131.341	-103.855	-0.353	0.082
-130.326	-40.995	0.238	-0.122
-129.312	-200.000	0.019	0.241
-128.297	92.936	-0.126	-0.141
-127.283	-62.101	0.038	0.016
-126.268	-79.078	0.150	-0.050
-125.253	-115.631	-0.168	0.031
-124.239	-10.141	0.109	-0.072
-123.224	-200.000	-0.043	-0.344
-122.210	-107.339	-0.106	-0.023
-121.195	-80.732	-0.085	-0.028
