DTS Sentinel unit serial number:	SN413079Multiplexer serial number:	ORYXHardware model number:	OX4-SRSoftware version number:	ORYX F/W v4.00 Oryx Data Collector v3.7.2.0data status	okinstallation	princeton_trtdifferential loss correction	single-endedforward channel	channel 4reverse channel	N/Adate	2019/09/11time	21:27:11forward acquisition time	60.00reverse acquisition time	0.00gamma	496.2192k internal	0.2305k external	0.2305temperature offset calibration	1.0061default loss term (dB/km)	0.3790temperature slope calibration	1.0000multiplexer offset coefficient	1.0000multiplexer slope coefficient	1.0000fibre end	0.00T internal ref (°C)	36.06T ext. ref 1 (°C)	1.59T ext. ref 2 (°C)	29.97length (m)	temperature (°C)	Stokes	anti-Stokes-747.200	800.000	-0.095	0.326
-746.185	69.129	-0.105	0.110
-745.171	-200.000	0.045	0.264
-744.156	-165.550	0.269	-0.012
-743.142	57.550	0.174	-0.173
-742.127	-200.000	0.080	0.465
-741.112	78.030	-0.138	0.150
-740.098	-200.000	0.110	0.498
-739.083	420.830	0.070	0.152
-738.069	-100.270	0.337	-0.085
-737.054	800.000	0.019	0.073
-736.039	-77.834	-0.022	-0.008
-735.025	800.000	0.041	-0.141
-734.010	56.928	0.136	0.135
-732.996	56.829	-0.166	-0.165
-731.981	104.599	-0.057	-0.068
-730.966	-200.000	0.004	0.198
-729.952	369.366	-0.074	-0.152
-728.937	733.144	-0.076	-0.206
-727.923	-200.000	0.026	-0.373
-726.908	-200.000	0.004	0.041
-725.894	800.000	-0.073	0.276
-724.879	-18.887	-0.248	0.157
-723.864	-126.034	0.275	0.042
-722.850	-75.971	-0.264	0.095
-721.835	121.404	0.112	0.142
-720.821	-72.928	0.218	-0.081
-719.806	-73.964	-0.415	-0.153
-718.791	-200.000	0.081	-0.360
-717.777	-78.547	0.099	0.034
-716.762	-200.000	0.016	-0.096
-715.748	800.000	-0.058	-0.248
-714.733	401.388	0.137	-0.293
-713.718	-200.000	0.035	-0.408
-712.704	-3.110	0.126	-0.089
-711.689	-93.040	-0.209	0.059
-710.675	-83.790	0.347	-0.113
-709.660	434.509	-0.039	-0.087
-708.645	800.000	0.130	0.415
-707.631	800.000	-0.147	0.564
-706.616	-16.170	0.017	0.011
-705.602	105.336	0.187	-0.225
-704.587	114.498	-0.144	-0.178
-703.572	-200.000	0.009	-0.202
-702.558	673.452	-0.145	-0.382
-701.543	-61.010	0.233	-0.100
-700.529	-69.890	-0.068	-0.026
-699.514	175.935	-0.235	-0.347
-698.499	26.475	0.310	-0.264
-697.485	20.318	0.162	0.133
-696.470	-79.472	0.284	0.098
-695.456	-24.850	0.190	0.115
-694.441	-15.916	0.230	0.149
-693.426	-57.988	0.179	-0.079
-692.412	223.457	-0.068	0.111
-691.397	-106.537	-0.353	-0.080
-690.383	232.545	0.088	-0.147
-689.368	-200.000	0.014	0.107
-688.354	259.254	-0.222	0.388
-687.339	-189.088	0.433	0.005
-686.324	-70.212	0.129	0.050
-685.310	-200.000	-0.061	0.283
-684.295	196.394	-0.030	-0.046
-683.281	312.566	0.150	-0.286
-682.266	-7.148	-0.338	-0.233
-681.251	7.267	-0.042	-0.032
-680.237	-125.601	-0.176	-0.027
-679.222	361.049	0.094	0.192
-678.208	-200.000	-0.024	0.218
-677.193	-200.000	0.002	0.028
-676.178	44.197	0.061	-0.057
-675.164	123.349	-0.104	-0.133
-674.149	201.911	0.026	-0.041
-673.135	800.000	0.054	-0.169
-672.120	-5.935	0.410	-0.285
-671.105	-200.000	-0.010	0.214
-670.091	103.977	-0.275	0.328
-669.076	106.360	-0.085	-0.103
-668.062	-155.424	0.349	-0.023
-667.047	-30.743	-0.410	-0.235
-666.032	800.000	-0.020	0.073
-665.018	157.294	-0.119	0.166
-664.003	53.942	-0.189	0.184
-662.989	363.978	-0.071	-0.145
-661.974	671.515	0.193	0.508
-660.959	1.463	-0.162	-0.118
-659.945	-155.345	-0.116	-0.008
-658.930	-59.800	0.306	0.133
-657.916	-200.000	-0.067	0.381
-656.901	111.716	0.017	0.021
-655.886	800.000	0.057	0.195
-654.872	22.653	0.155	0.129
-653.857	-200.000	0.029	-0.308
-652.843	-55.076	0.293	0.134
-651.828	74.620	-0.115	-0.123
-650.814	-141.515	-0.160	-0.016
-649.799	-181.993	0.090	-0.002
-648.784	-200.000	-0.017	0.076
-647.770	172.775	0.124	0.181
-646.755	-165.986	-0.262	0.011
-645.741	-141.482	0.164	0.017
-644.726	-36.693	0.130	-0.071
-643.711	-69.310	0.301	-0.117
-642.697	61.585	-0.049	0.049
-641.682	-200.000	-0.013	0.129
-640.668	251.664	0.184	-0.317
-639.653	800.000	0.033	0.124
-638.638	31.977	0.171	-0.149
-637.624	492.630	-0.084	0.196
-636.609	-76.659	0.112	-0.040
-635.595	454.558	-0.073	0.165
-634.580	2.286	-0.209	-0.153
-633.565	206.896	0.039	-0.062
-632.551	142.563	-0.063	0.085
-631.536	-148.562	-0.340	-0.028
-630.522	78.510	-0.245	-0.265
-629.507	130.783	0.150	-0.195
-628.492	399.287	0.040	-0.084
-627.478	-84.213	-0.186	-0.060
-626.463	-99.358	-0.193	0.049
-625.449	-135.902	0.148	0.018
-624.434	218.594	-0.117	0.189
-623.419	-200.000	0.052	0.356
-622.405	-131.784	0.247	0.033
-621.390	-30.871	0.315	0.180
-620.376	226.756	0.127	0.210
-619.361	-130.444	-0.157	0.022
-618.346	-66.281	0.341	0.137
-617.332	14.384	0.009	-0.007
-616.317	133.208	0.036	0.047
-615.303	123.289	-0.046	0.058
-614.288	19.235	0.269	-0.219
-613.273	-200.000	-0.013	-0.233
-612.259	697.200	0.052	-0.139
-611.244	-35.338	-0.191	-0.105
-610.230	109.841	-0.250	-0.304
-609.215	75.373	-0.080	-0.085
-608.201	-85.082	0.427	0.135
-607.186	800.000	-0.090	-0.332
-606.171	12.343	-0.224	-0.175
-605.157	-54.493	-0.397	0.182
-604.142	-24.543	0.137	0.082
-603.128	-158.721	-0.180	0.010
-602.113	-91.561	-0.371	-0.107
-601.098	-60.314	-0.549	-0.237
-600.084	669.238	-0.172	-0.451
-599.069	196.007	0.169	-0.261
-598.055	-87.089	-0.172	0.053
-597.040	63.674	-0.214	0.218
-596.025	27.973	-0.183	-0.156
-595.011	-200.000	-0.014	-0.085
-593.996	-77.334	-0.349	-0.123
-592.982	-200.000	0.019	-0.282
-591.967	15.721	0.194	-0.155
-590.952	18.733	-0.255	0.206
-589.938	145.911	0.092	0.124
-588.923	-200.000	0.020	-0.091
-587.909	-200.000	-0.024	-0.290
-586.894	800.000	0.044	-0.135
-585.879	-148.341	-0.135	0.011
-584.865	43.726	-0.171	0.158
-583.850	51.749	0.200	-0.192
-582.836	-200.000	-0.062	-0.616
-581.821	83.714	-0.197	-0.217
-580.806	15.375	-0.246	-0.196
-579.792	-113.820	-0.147	-0.029
-578.777	-18.642	0.093	0.059
-577.763	-43.415	0.173	-0.088
-576.748	-84.389	0.080	0.026
-575.733	314.859	-0.139	-0.264
-574.719	-103.183	-0.185	0.044
-573.704	8.749	0.319	-0.243
-572.690	114.815	0.079	-0.098
-571.675	-32.948	-0.315	-0.177
-570.661	-31.403	0.192	-0.109
-569.646	-124.723	0.257	-0.040
-568.631	78.244	0.183	-0.198
-567.617	385.579	0.081	0.170
-566.602	-200.000	0.016	0.115
-565.588	17.213	-0.133	-0.107
-564.573	303.164	-0.206	0.385
-563.558	-105.369	0.060	0.014
-562.544	9.343	0.285	0.218
-561.529	94.743	-0.270	0.310
-560.515	-50.255	-0.163	-0.078
-559.500	-27.094	-0.200	0.118
-558.485	-26.305	0.140	0.083
-557.471	-200.000	0.091	0.415
-556.456	-200.000	-0.022	0.470
-555.442	800.000	-0.089	-0.275
-554.427	-87.626	0.259	-0.079
-553.412	-168.645	0.226	0.009
-552.398	6.582	0.222	0.167
-551.383	511.874	-0.086	-0.203
-550.369	800.000	-0.023	-0.080
-549.354	800.000	-0.040	-0.118
-548.339	-110.248	0.089	-0.019
-547.325	800.000	-0.055	-0.161
-546.310	-68.272	-0.274	-0.108
-545.296	56.399	-0.204	0.200
-544.281	-39.153	-0.230	-0.122
-543.266	-105.304	0.179	-0.041
-542.252	14.662	0.183	0.145
-541.237	-200.000	-0.001	-0.115
-540.223	-200.000	-0.007	0.128
-539.208	-153.773	0.234	0.016
-538.193	-147.903	-0.211	-0.018
-537.179	800.000	0.097	0.379
-536.164	-200.000	-0.001	0.100
-535.150	-48.440	-0.142	0.069
-534.135	617.205	0.035	-0.090
-533.121	-31.634	0.191	-0.108
-532.106	-35.719	0.092	-0.050
-531.091	27.013	-0.087	-0.074
-530.077	288.037	-0.044	-0.080
-529.062	-78.309	0.250	0.086
-528.048	-97.753	-0.086	-0.022
-527.033	27.247	-0.085	-0.072
-526.018	-58.906	-0.227	-0.099
-525.004	92.899	0.206	-0.235
-523.989	23.127	0.066	0.055
-522.975	-74.269	-0.335	0.122
-521.960	47.185	-0.104	0.098
-520.945	574.611	-0.043	-0.106
-519.931	-200.000	0.025	-0.230
-518.916	-150.106	-0.277	0.022
-517.902	800.000	-0.118	0.380
-516.887	-24.890	0.070	-0.042
-515.872	-65.319	-0.033	-0.013
-514.858	800.000	0.046	-0.130
-513.843	-200.000	-0.037	-0.324
-512.829	-200.000	0.005	0.331
-511.814	-53.199	0.106	-0.049
-510.799	174.321	-0.211	0.308
-509.785	98.275	-0.132	0.154
-508.770	455.136	0.101	-0.226
-507.756	-165.953	0.073	0.003
-506.741	-200.000	-0.010	-0.048
-505.726	-62.917	-0.123	-0.051
-504.712	800.000	-0.055	0.234
-503.697	-200.000	-0.004	-0.211
-502.683	209.111	0.205	-0.324
-501.668	-91.185	-0.178	0.051
-500.653	774.249	0.056	0.155
-499.639	-200.000	0.062	-0.307
-498.624	-47.967	0.278	-0.136
-497.610	699.336	-0.086	-0.228
-496.595	-153.787	0.297	0.021
-495.581	50.857	0.205	-0.196
-494.566	9.192	-0.190	0.145
-493.551	800.000	0.045	0.163
-492.537	-18.805	0.099	-0.062
-491.522	166.152	0.107	0.153
-490.508	-100.479	-0.422	0.105
-489.493	97.102	0.059	-0.068
-488.478	-74.677	0.424	0.154
-487.464	-121.256	0.313	-0.053
-486.449	800.000	-0.060	-0.199
-485.435	232.540	0.176	-0.292
-484.420	800.000	0.049	0.211
-483.405	793.964	0.076	-0.211
-482.391	-17.295	-0.160	0.102
-481.376	-183.218	0.203	0.004
-480.362	45.132	-0.151	-0.140
-479.347	-200.000	-0.033	0.154
-478.332	-177.871	-0.322	-0.008
-477.318	-62.289	-0.380	0.159
-476.303	21.877	0.111	-0.091
-475.289	18.695	-0.254	0.205
-474.274	800.000	0.022	0.097
-473.259	-200.000	-0.017	0.179
-472.245	800.000	0.069	0.225
-471.230	800.000	0.032	-0.105
-470.216	37.516	0.105	-0.094
-469.201	161.505	0.047	-0.066
-468.186	502.735	0.117	0.272
-467.172	-162.825	-0.239	0.012
-466.157	-65.038	0.163	0.066
-465.143	-191.294	-0.169	-0.002
-464.128	-184.535	-0.059	-0.001
-463.113	284.160	-0.007	0.012
-462.099	51.830	-0.071	0.068
-461.084	312.398	-0.100	0.190
-460.070	-70.122	0.168	-0.064
-459.055	166.605	0.059	0.085
-458.040	-171.961	0.310	0.010
-457.026	31.852	-0.117	0.102
-456.011	-200.000	0.055	0.392
-454.997	-44.034	0.176	-0.089
-453.982	179.945	0.127	0.187
-452.968	-79.089	-0.030	-0.010
-451.953	349.050	-0.082	0.163
-450.938	-20.508	0.105	-0.065
-449.924	148.988	0.137	-0.186
-448.909	-200.000	0.006	0.059
-447.895	-30.275	-0.211	0.121
-446.880	647.870	0.067	0.173
-445.865	568.225	-0.132	-0.323
-444.851	-39.865	0.291	-0.153
-443.836	344.372	0.157	0.311
-442.822	127.620	-0.104	0.133
-441.807	-114.016	-0.076	-0.015
-440.792	-119.638	-0.208	0.036
-439.778	292.903	0.128	0.235
-438.763	340.626	-0.166	-0.327
-437.749	-33.314	-0.226	0.126
-436.734	-200.000	-0.054	0.372
-435.719	22.830	-0.471	0.388
-434.705	181.480	-0.239	0.353
-433.690	800.000	-0.064	-0.250
-432.676	-191.964	0.096	0.001
-431.661	57.754	-0.170	-0.168
-430.646	178.378	-0.132	-0.194
-429.632	-89.056	0.511	-0.152
-428.617	81.385	0.090	-0.098
-427.603	423.556	-0.154	0.333
-426.588	-3.982	-0.298	0.208
-425.573	-200.000	-0.036	0.184
-424.559	18.594	-0.029	-0.023
-423.544	-200.000	-0.053	-0.448
-422.530	23.802	0.197	-0.163
-421.515	-49.618	0.172	-0.082
-420.500	-96.814	0.403	-0.106
-419.486	-200.000	0.003	0.310
-418.471	-17.843	0.231	0.146
-417.457	800.000	0.028	-0.093
-416.442	-200.000	0.001	0.198
-415.428	-76.740	0.367	-0.129
-414.413	207.010	-0.191	-0.299
-413.398	-200.000	0.035	0.264
-412.384	800.000	-0.099	0.285
-411.369	800.000	-0.118	0.463
-410.355	-200.000	0.003	0.211
-409.340	532.147	-0.075	-0.179
-408.325	-51.267	0.193	0.091
-407.311	17.739	0.224	0.179
-406.296	-106.543	-0.333	0.075
-405.282	53.505	0.089	0.085
-404.267	-34.437	-0.298	0.164
-403.252	7.466	0.362	-0.271
-402.238	365.611	0.047	-0.096
-401.223	117.081	0.107	-0.132
-400.209	-200.000	0.000	-0.243
-399.194	131.089	0.109	0.140
-398.179	683.395	0.181	0.474
-397.165	-115.526	0.162	-0.031
-396.150	87.745	-0.169	0.188
-395.136	-200.000	0.039	0.450
-394.121	-200.000	-0.011	-0.109
-393.106	-85.233	0.226	-0.071
-392.092	-30.103	0.252	0.144
-391.077	-200.000	0.020	0.166
-390.063	-83.061	0.098	-0.032
-389.048	51.207	0.165	-0.157
-388.033	226.441	0.180	0.293
-387.019	-45.437	0.283	-0.141
-386.004	-33.777	-0.403	-0.223
-384.990	-200.000	0.003	-0.037
-383.975	187.543	-0.073	-0.109
-382.960	95.648	0.240	-0.275
-381.946	170.945	0.041	-0.059
-380.931	800.000	0.040	0.117
-379.917	-200.000	0.050	-0.285
-378.902	-186.473	-0.233	-0.003
-377.888	57.635	-0.009	-0.009
-376.873	686.791	0.119	0.312
-375.858	62.543	0.255	0.256
-374.844	-72.417	-0.153	-0.057
-373.829	208.330	-0.112	0.175
-372.815	800.000	-0.027	0.102
-371.800	312.257	0.152	0.286
-370.785	-200.000	-0.015	0.364
-369.771	-11.904	0.177	0.117
-368.756	189.015	0.036	-0.054
-367.742	13.732	0.006	-0.004
-366.727	158.026	0.100	-0.139
-365.712	552.881	-0.068	-0.165
-364.698	170.538	-0.165	-0.237
-363.683	221.552	0.132	-0.212
-362.669	-200.000	0.030	-0.282
-361.654	800.000	0.037	-0.124
-360.639	-66.712	0.216	0.086
-359.625	-86.839	0.201	-0.061
-358.610	346.041	-0.193	-0.381
-357.596	273.861	-0.021	0.037
-356.581	-1.601	-0.080	-0.056
-355.566	-200.000	-0.028	0.185
-354.552	29.147	0.206	-0.176
-353.537	128.456	-0.156	-0.200
-352.523	240.791	0.101	0.168
-351.508	800.000	0.076	0.218
-350.493	-130.059	-0.100	-0.014
-349.479	-122.747	-0.010	-0.002
-348.464	-26.826	-0.132	0.077
-347.450	-137.416	-0.184	-0.021
-346.435	-147.841	0.346	0.029
-345.420	-187.103	0.471	-0.006
-344.406	-79.687	0.057	0.019
-343.391	-82.452	-0.130	-0.042
-342.377	134.473	0.085	-0.110
-341.362	11.849	0.143	0.110
-340.348	-112.839	0.089	0.018
-339.333	-145.827	-0.262	-0.023
-338.318	737.376	0.080	-0.214
-337.304	-178.913	0.394	0.009
-336.289	55.136	-0.219	0.212
-335.275	58.132	0.067	-0.066
-334.260	-200.000	-0.025	0.189
-333.245	-112.513	-0.112	-0.022
-332.231	-29.395	-0.356	-0.204
-331.216	-99.635	0.005	0.001
-330.202	-37.727	-0.045	0.024
-329.187	-11.596	-0.074	-0.049
-328.172	574.290	-0.091	-0.223
-327.158	800.000	-0.029	-0.095
-326.143	-16.560	-0.149	-0.095
-325.129	-9.033	-0.183	-0.123
-324.114	-200.000	0.049	0.328
-323.099	-59.281	0.325	-0.140
-322.085	-37.379	-0.296	-0.158
-321.070	-156.455	-0.372	-0.023
-320.056	37.044	0.353	0.313
-319.041	-5.502	0.093	-0.064
-318.026	4.667	-0.226	0.166
-317.012	-4.033	0.225	-0.156
-315.997	800.000	0.034	-0.140
-314.983	62.744	-0.063	0.063
-313.968	159.425	-0.099	0.137
-312.953	362.395	-0.067	-0.135
-311.939	800.000	-0.040	0.171
-310.924	-200.000	-0.070	0.341
-309.910	112.200	-0.140	0.169
-308.895	68.824	-0.069	-0.071
-307.880	-41.508	-0.285	-0.147
-306.866	446.154	-0.052	0.115
-305.851	-200.000	-0.032	-0.236
-304.837	76.729	0.211	0.223
-303.822	-130.298	-0.383	-0.052
-302.807	-106.983	-0.079	-0.017
-301.793	-82.902	0.174	-0.056
-300.778	-70.324	-0.236	0.090
-299.764	800.000	-0.067	-0.227
-298.749	431.147	0.104	-0.225
-297.735	-60.390	0.079	0.034
-296.720	-200.000	-0.015	0.167
-295.705	92.280	-0.132	-0.148
-294.691	34.947	0.301	-0.264
-293.676	31.912	-0.268	-0.230
-292.662	119.593	-0.114	0.141
-291.647	732.407	-0.083	-0.221
-290.632	-124.797	-0.296	-0.046
-289.618	449.894	-0.110	0.242
-288.603	635.543	-0.044	0.111
-287.589	167.029	0.073	0.104
-286.574	74.212	0.105	0.110
-285.559	-44.768	0.203	0.101
-284.545	194.783	0.128	-0.194
-283.530	800.000	-0.091	-0.312
-282.516	-200.000	0.070	-0.387
-281.501	-200.000	-0.057	-0.282
-280.486	67.261	0.134	-0.137
-279.472	-200.000	0.011	0.171
-278.457	-98.208	0.163	-0.042
-277.443	-74.216	-0.200	0.072
-276.428	-200.000	0.024	-0.301
-275.413	-200.000	-0.023	0.305
-274.399	23.479	0.193	0.159
-273.384	465.213	0.061	-0.136
-272.370	-200.000	-0.014	-0.174
-271.355	-140.167	0.302	0.032
-270.340	-156.334	-0.120	-0.008
-269.326	131.106	-0.094	0.120
-268.311	62.771	-0.045	-0.045
-267.297	-74.679	0.172	0.062
-266.282	714.621	-0.044	0.118
-265.267	393.767	0.026	-0.053
-264.253	-51.540	0.301	-0.140
-263.238	140.235	0.126	-0.166
-262.224	-55.658	0.076	0.034
-261.209	-114.337	-0.265	0.051
-260.195	800.000	0.078	-0.236
-259.180	-175.709	0.356	-0.010
-258.165	325.446	-0.180	0.344
-257.151	210.867	-0.050	0.079
-256.136	104.051	0.079	-0.093
-255.122	-86.843	-0.345	0.105
-254.107	-88.346	-0.206	-0.062
-253.092	800.000	0.051	-0.147
-252.078	-200.000	-0.049	-0.233
-251.063	607.969	0.104	0.259
-250.049	-200.000	0.019	-0.274
-249.034	800.000	0.042	0.120
-248.019	341.605	0.161	0.314
-247.005	800.000	-0.081	-0.253
-245.990	16.651	0.164	0.130
-244.976	139.256	-0.104	-0.137
-243.961	-200.000	0.003	-0.182
-242.946	132.091	0.168	-0.216
-241.932	800.000	-0.029	-0.114
-240.917	-200.000	0.004	0.262
-239.903	428.564	-0.077	-0.166
-238.888	-200.000	0.012	0.164
-237.873	549.024	-0.087	-0.208
-236.859	-200.000	0.011	-0.080
-235.844	93.186	0.178	-0.200
-234.830	-62.515	-0.047	0.020
-233.815	-48.034	0.116	-0.056
-232.800	800.000	0.107	-0.304
-231.786	-132.632	-0.029	0.004
-230.771	-148.962	0.196	0.016
-229.757	800.000	0.091	-0.345
-228.742	5.856	0.094	-0.069
-227.727	27.857	0.210	0.176
-226.713	88.937	0.182	-0.202
-225.698	-200.000	0.007	0.184
-224.684	-110.777	-0.333	-0.068
-223.669	-130.485	0.315	0.042
-222.655	72.841	0.212	0.221
-221.640	-5.859	-0.360	0.246
-220.625	-56.012	-0.445	0.198
-219.611	-86.016	-0.227	-0.070
-218.596	56.019	0.205	0.198
-217.582	-118.847	0.028	0.005
-216.567	-200.000	0.008	0.189
-215.552	-200.000	-0.011	-0.194
-214.538	-200.000	0.042	0.231
-213.523	-129.538	-0.284	-0.039
-212.509	-46.935	0.226	0.110
-211.494	-200.000	-0.027	0.301
-210.479	261.082	-0.045	-0.078
-209.465	246.369	0.186	0.313
-208.450	-200.000	-0.004	0.222
-207.436	800.000	-0.091	-0.280
-206.421	200.324	-0.026	0.041
-205.406	-158.082	0.384	-0.022
-204.392	150.561	-0.129	-0.175
-203.377	7.747	0.309	0.231
-202.363	-93.023	-0.365	0.101
-201.348	-87.105	-0.257	0.078
-200.333	-135.236	0.200	-0.024
-199.319	-200.000	0.016	0.123
-198.304	-193.728	-0.220	-0.002
-197.290	-44.802	0.082	0.041
-196.275	7.589	0.049	0.037
-195.260	179.475	0.115	-0.168
-194.246	175.058	0.169	-0.244
-193.231	-21.175	0.223	0.136
-192.217	226.303	-0.121	0.196
-191.202	45.923	-0.352	-0.324
-190.187	-24.622	-0.458	0.271
-189.173	-200.000	0.000	0.114
-188.158	47.063	0.159	0.147
-187.144	-103.532	0.131	-0.031
-186.129	94.067	-0.153	-0.173
-185.114	5.529	0.157	0.115
-184.100	-200.000	-0.047	0.219
-183.085	51.576	-0.143	0.135
-182.071	445.730	0.143	0.312
-181.056	-200.000	0.005	-0.108
-180.042	-170.432	-0.117	-0.004
-179.027	478.033	-0.254	0.572
-178.012	20.074	0.148	-0.119
-176.998	-71.739	0.207	0.077
-175.983	138.229	-0.119	-0.155
-174.969	53.334	-0.221	0.211
-173.954	-131.991	-0.190	0.025
-172.939	224.344	0.146	-0.235
-171.925	116.926	-0.057	0.070
-170.910	200.353	-0.255	0.390
-169.896	583.170	0.115	0.281
-168.881	15.061	0.200	0.156
-167.866	36.571	-0.253	0.222
-166.852	541.063	-0.082	-0.195
-165.837	-92.493	0.369	-0.103
-164.823	-200.000	-0.011	-0.231
-163.808	44.208	0.104	0.094
-162.793	-83.397	-0.096	-0.030
-161.779	-100.374	-0.074	0.018
-160.764	-200.000	-0.009	-0.085
-159.750	-200.000	0.011	-0.352
-158.735	5.834	0.254	0.187
-157.720	800.000	0.104	-0.315
-156.706	-138.603	0.233	0.025
-155.691	-200.000	0.003	-0.434
-154.677	-82.426	-0.265	-0.086
-153.662	48.776	-0.263	0.246
-152.647	800.000	0.035	-0.106
-151.633	56.732	0.051	0.049
-150.618	72.125	0.140	0.145
-149.604	-200.000	0.062	-0.383
-148.589	-113.695	-0.291	-0.056
-147.574	-200.000	-0.015	-0.230
-146.560	-4.148	-0.135	0.093
-145.545	-200.000	0.004	0.165
-144.531	-21.714	-0.049	0.030
-143.516	-7.553	-0.239	0.161
-142.502	-200.000	0.029	0.269
-141.487	-128.569	0.102	0.014
-140.472	800.000	-0.055	-0.199
-139.458	218.140	0.089	-0.142
-138.443	72.042	0.386	-0.399
-137.429	-104.474	0.305	0.070
-136.414	-117.214	0.297	0.054
-135.399	-200.000	-0.003	0.109
-134.385	23.280	0.119	0.097
-133.370	800.000	-0.060	-0.188
-132.356	-200.000	-0.008	0.213
-131.341	20.010	0.092	0.073
-130.326	-109.561	-0.284	-0.060
-129.312	550.418	0.167	0.398
-128.297	-35.599	-0.244	0.132
-127.283	166.162	-0.165	-0.232
-126.268	-57.301	-0.241	-0.105
-125.253	-200.000	0.021	0.118
-124.239	-4.739	0.188	-0.129
-123.224	-33.883	-0.331	-0.181
-122.210	800.000	0.093	0.307
-121.195	671.631	-0.109	0.281
-120.180	-130.939	0.186	0.025
