DTS Sentinel unit serial number:	SN413079Multiplexer serial number:	ORYXHardware model number:	OX4-SRSoftware version number:	ORYX F/W v4.00 Oryx Data Collector v3.7.2.0data status	okinstallation	princeton_trtdifferential loss correction	single-endedforward channel	channel 4reverse channel	N/Adate	2019/09/10time	18:19:11forward acquisition time	60.00reverse acquisition time	0.00gamma	496.2192k internal	0.2300k external	0.2300temperature offset calibration	0.9941default loss term (dB/km)	0.3790temperature slope calibration	1.0000multiplexer offset coefficient	1.0000multiplexer slope coefficient	1.0000fibre end	0.00T internal ref (°C)	36.37T ext. ref 1 (°C)	-0.35T ext. ref 2 (°C)	28.32length (m)	temperature (°C)	Stokes	anti-Stokes-747.200	320.158	0.164	0.318
-746.185	-123.767	-0.272	0.044
-745.171	-167.782	0.185	0.007
-744.156	-150.296	-0.210	0.017
-743.142	-146.568	-0.244	-0.022
-742.127	-130.185	-0.348	0.048
-741.112	54.169	-0.099	-0.097
-740.098	-200.000	-0.042	-0.260
-739.083	450.979	-0.101	0.227
-738.069	570.739	-0.118	0.292
-737.054	-10.080	-0.281	0.190
-736.039	318.379	-0.091	-0.176
-735.025	-199.067	-0.239	-0.001
-734.010	219.256	-0.119	-0.194
-732.996	-200.000	-0.022	-0.256
-731.981	800.000	0.104	-0.302
-730.966	800.000	-0.115	-0.345
-729.952	393.888	-0.145	-0.309
-728.937	-200.000	-0.057	-0.371
-727.923	14.007	0.138	-0.110
-726.908	-41.112	-0.175	0.092
-725.894	-200.000	0.001	-0.376
-724.879	133.645	0.061	0.081
-723.864	94.302	0.072	0.083
-722.850	210.775	0.031	0.050
-721.835	-9.692	-0.115	-0.078
-720.821	-61.145	-0.127	0.055
-719.806	8.302	-0.194	0.149
-718.791	64.976	-0.203	0.208
-717.777	-124.318	-0.063	-0.010
-716.762	-200.000	0.021	-0.115
-715.748	478.056	0.111	-0.257
-714.733	277.019	0.080	-0.144
-713.718	-58.021	0.360	-0.160
-712.704	-200.000	0.030	-0.262
-711.689	380.487	-0.017	0.036
-710.675	800.000	-0.031	0.137
-709.660	-200.000	0.019	-0.135
-708.645	442.522	-0.066	0.148
-707.631	-22.786	0.051	0.031
-706.616	650.037	-0.045	0.116
-705.602	-64.727	0.090	0.037
-704.587	-107.205	-0.104	0.023
-703.572	32.902	0.123	-0.108
-702.558	393.454	-0.191	-0.405
-701.543	294.939	0.035	-0.065
-700.529	181.872	0.214	-0.320
-699.514	800.000	0.068	0.196
-698.499	167.121	-0.162	-0.234
-697.485	800.000	-0.068	-0.244
-696.470	-154.802	0.185	0.012
-695.456	-149.788	0.296	-0.024
-694.441	800.000	-0.098	0.310
-693.426	-200.000	-0.023	-0.491
-692.412	56.657	-0.199	-0.197
-691.397	-49.740	-0.026	0.013
-690.383	-200.000	0.007	-0.339
-689.368	90.406	0.163	-0.186
-688.354	31.165	0.430	0.375
-687.339	-123.893	0.080	-0.013
-686.324	155.881	-0.132	-0.185
-685.310	-9.618	-0.479	-0.325
-684.295	-200.000	-0.031	0.280
-683.281	162.394	-0.034	-0.049
-682.266	-69.543	0.068	0.027
-681.251	-200.000	-0.068	-0.388
-680.237	800.000	-0.080	0.315
-679.222	-77.308	0.303	-0.107
-678.208	152.844	0.038	-0.053
-677.193	-135.601	0.148	-0.018
-676.178	-78.498	0.217	0.076
-675.164	78.204	-0.230	0.250
-674.149	800.000	-0.089	0.273
-673.135	118.703	-0.200	-0.251
-672.120	48.043	0.300	-0.285
-671.105	60.358	-0.274	-0.275
-670.091	-200.000	-0.055	0.287
-669.076	-38.744	0.179	0.096
-668.062	-200.000	0.017	0.245
-667.047	-200.000	0.026	-0.132
-666.032	-56.022	-0.189	0.086
-665.018	428.883	0.081	-0.178
-664.003	-129.846	-0.333	0.047
-662.989	37.580	0.353	-0.319
-661.974	19.892	-0.249	-0.204
-660.959	287.659	0.092	-0.170
-659.945	800.000	0.053	-0.213
-658.930	664.595	0.171	-0.450
-657.916	177.132	-0.187	-0.277
-656.901	-72.520	-0.288	0.108
-655.886	123.280	0.139	0.177
-654.872	4.660	-0.305	-0.228
-653.857	800.000	0.081	0.264
-652.843	-22.096	-0.311	-0.192
-651.828	-200.000	0.087	-0.617
-650.814	-67.904	0.076	-0.030
-649.799	-176.811	-0.183	-0.005
-648.784	-16.316	-0.383	-0.247
-647.770	-200.000	0.021	-0.476
-646.755	667.094	-0.071	-0.187
-645.741	121.581	-0.188	-0.238
-644.726	-77.518	0.236	0.083
-643.711	132.563	-0.139	0.183
-642.697	505.888	0.048	-0.114
-641.682	800.000	0.145	0.453
-640.668	-74.534	-0.292	0.107
-639.653	-61.152	-0.250	0.107
-638.638	-158.034	0.143	-0.009
-637.624	324.483	-0.011	0.022
-636.609	800.000	0.042	-0.174
-635.595	38.050	0.092	-0.083
-634.580	-6.571	-0.163	-0.112
-633.565	-3.473	0.146	0.103
-632.551	-10.618	0.175	0.118
-631.536	42.960	-0.267	-0.247
-630.522	-60.983	-0.368	0.158
-629.507	106.045	-0.128	0.154
-628.492	142.287	0.204	0.275
-627.478	-200.000	0.003	0.301
-626.463	115.960	0.112	-0.140
-625.449	-39.038	0.322	0.172
-624.434	339.170	0.083	-0.165
-623.419	-16.523	-0.077	0.050
-622.405	618.432	0.115	0.293
-621.390	26.958	-0.267	0.228
-620.376	33.942	-0.226	-0.200
-619.361	-189.964	0.349	-0.004
-618.346	800.000	0.031	-0.103
-617.332	10.489	0.087	0.067
-616.317	395.168	0.061	0.128
-615.303	-41.448	0.279	-0.146
-614.288	-22.065	-0.205	-0.126
-613.273	-84.320	0.359	0.115
-612.259	-200.000	-0.013	-0.212
-611.244	105.674	0.169	-0.202
-610.230	272.472	0.125	0.224
-609.215	-3.834	-0.172	0.121
-608.201	280.774	0.225	-0.409
-607.186	58.589	-0.047	0.047
-606.171	74.852	0.307	-0.328
-605.157	-112.242	-0.237	-0.048
-604.142	611.850	0.062	-0.157
-603.128	-105.671	0.321	0.074
-602.113	-200.000	-0.024	-0.111
-601.098	-18.443	-0.020	0.013
-600.084	-152.572	0.101	-0.007
-599.069	34.713	-0.178	0.158
-598.055	89.894	0.161	0.182
-597.040	-169.852	0.081	-0.003
-596.025	-112.581	0.062	-0.013
-595.011	23.701	0.164	0.137
-593.996	218.805	0.146	0.237
-592.982	-0.262	-0.083	-0.060
-591.967	-1.664	0.108	0.077
-590.952	255.897	0.036	0.063
-589.938	-34.913	0.054	-0.030
-588.923	94.144	-0.084	-0.097
-587.909	-46.669	0.079	0.039
-586.894	12.027	-0.156	-0.121
-585.879	-75.479	0.174	0.063
-584.865	156.025	-0.075	0.105
-583.850	334.277	0.076	0.149
-582.836	27.676	-0.319	0.272
-581.821	23.391	-0.069	-0.058
-580.806	-4.319	0.158	-0.111
-579.792	800.000	-0.055	0.156
-578.777	800.000	0.103	0.339
-577.763	-38.352	-0.184	-0.099
-576.748	718.926	-0.009	-0.024
-575.733	17.777	-0.234	-0.189
-574.719	20.950	0.156	-0.128
-573.704	40.304	-0.067	-0.061
-572.690	708.548	-0.104	-0.278
-571.675	-192.153	-0.238	-0.002
-570.661	287.696	-0.155	0.283
-569.646	259.797	0.123	-0.215
-568.631	-26.383	0.227	-0.135
-567.617	-5.981	0.219	-0.152
-566.602	20.856	0.072	0.059
-565.588	114.673	0.130	-0.160
-564.573	-48.995	-0.023	-0.011
-563.558	8.291	0.107	-0.081
-562.544	62.010	-0.027	0.027
-561.529	138.733	-0.078	0.103
-560.515	-5.019	0.229	-0.159
-559.500	-120.737	0.018	0.003
-558.485	-9.745	-0.273	-0.184
-557.471	-69.200	0.374	0.146
-556.456	145.460	-0.215	-0.291
-555.442	78.025	-0.195	0.210
-554.427	-41.933	-0.266	-0.138
-553.412	-148.860	-0.155	0.013
-552.398	51.156	0.280	-0.269
-551.383	275.837	-0.233	-0.419
-550.369	-22.184	0.172	0.106
-549.354	-41.623	-0.495	-0.258
-548.339	-200.000	-0.007	-0.103
-547.325	800.000	-0.073	-0.228
-546.310	5.838	0.045	-0.034
-545.296	800.000	0.085	0.275
-544.281	267.878	-0.183	-0.325
-543.266	-44.357	0.191	-0.097
-542.252	155.580	-0.117	-0.163
-541.237	19.417	-0.160	0.130
-540.223	-200.000	-0.011	0.327
-539.208	800.000	0.065	-0.254
-538.193	800.000	-0.064	0.212
-537.179	-90.693	-0.036	-0.010
-536.164	-118.775	0.149	0.027
-535.150	29.780	-0.133	0.115
-534.135	-139.474	0.196	-0.021
-533.121	292.350	-0.091	-0.168
-532.106	-117.020	0.120	0.022
-531.091	356.032	0.039	-0.078
-530.077	149.634	0.281	-0.385
-529.062	-119.892	0.028	0.005
-528.048	-96.350	0.266	-0.071
-527.033	-116.775	0.087	0.016
-526.018	-160.132	-0.157	0.009
-525.004	-200.000	0.015	0.094
-523.989	-48.587	-0.326	-0.158
-522.975	80.972	-0.195	-0.213
-521.960	20.846	-0.210	-0.172
-520.945	800.000	-0.026	-0.096
-519.931	30.454	0.124	0.107
-518.916	-16.073	0.131	-0.084
-517.902	492.977	0.051	0.119
-516.887	-180.744	-0.197	0.004
-515.872	89.757	-0.061	-0.068
-514.858	41.307	-0.231	-0.211
-513.843	-59.574	0.219	0.095
-512.829	165.426	0.158	0.226
-511.814	-138.240	-0.015	0.002
-510.799	26.142	0.164	-0.138
-509.785	-6.635	-0.030	-0.020
-508.770	-149.612	0.189	-0.015
-507.756	44.912	-0.122	0.113
-506.741	2.070	-0.236	0.172
-505.726	-167.130	-0.148	-0.006
-504.712	-52.475	-0.197	0.092
-503.697	-121.497	0.190	-0.032
-502.683	-27.538	-0.206	-0.121
-501.668	28.039	0.112	-0.096
-500.653	119.825	0.090	0.113
-499.639	-46.024	0.313	0.156
-498.624	114.539	0.173	0.213
-497.610	93.475	-0.193	0.221
-496.595	-67.708	0.192	0.076
-495.581	-200.000	-0.037	-0.198
-494.566	729.784	-0.101	-0.273
-493.551	-200.000	-0.029	0.206
-492.537	-41.107	0.198	0.103
-491.522	-89.376	0.116	0.034
-490.508	-200.000	0.029	0.136
-489.493	800.000	-0.080	0.259
-488.478	-44.209	-0.209	0.106
-487.464	-200.000	-0.077	0.000
-486.449	-47.081	0.064	-0.032
-485.435	-157.100	-0.234	-0.014
-484.420	-158.750	-0.158	0.009
-483.405	-200.000	-0.029	0.315
-482.391	-200.000	0.001	-0.036
-481.376	62.676	0.166	0.168
-480.362	319.805	-0.071	-0.136
-479.347	800.000	-0.011	0.047
-478.332	61.915	-0.224	0.225
-477.318	88.743	-0.131	-0.147
-476.303	800.000	0.106	-0.367
-475.289	-200.000	0.010	0.063
-474.274	58.183	-0.097	0.096
-473.259	800.000	-0.043	-0.122
-472.245	-200.000	0.042	-0.569
-471.230	236.342	0.105	0.175
-470.216	537.970	-0.076	0.183
-469.201	-91.495	0.104	0.030
-468.186	-76.075	0.225	-0.080
-467.172	179.918	-0.102	-0.151
-466.157	800.000	-0.077	-0.282
-465.143	-149.501	-0.191	-0.015
-464.128	-141.722	0.287	0.029
-463.113	-200.000	0.006	0.251
-462.099	774.309	-0.034	-0.092
-461.084	3.059	0.113	0.083
-460.070	-103.838	-0.356	-0.084
-459.055	-82.466	-0.167	-0.055
-458.040	-200.000	0.008	0.268
-457.026	-141.657	0.234	0.024
-456.011	247.896	-0.270	0.460
-454.997	-137.544	0.328	0.037
-453.982	303.494	0.091	-0.170
-452.968	-11.033	-0.167	-0.111
-451.953	-200.000	0.014	-0.130
-450.938	-60.180	-0.352	0.151
-449.924	241.575	-0.118	0.199
-448.909	125.827	-0.096	0.123
-447.895	-200.000	-0.021	0.209
-446.880	192.332	0.163	-0.248
-445.865	-91.272	0.185	-0.053
-444.851	418.550	-0.018	0.040
-443.836	24.501	0.062	0.051
-442.822	53.689	0.104	-0.101
-441.807	-101.597	-0.215	0.053
-440.792	-62.331	-0.351	0.147
-439.778	-72.130	-0.211	-0.079
-438.763	-137.178	0.138	-0.016
-437.749	-84.608	0.258	-0.082
-436.734	800.000	0.047	0.204
-435.719	17.024	0.013	0.010
-434.705	-95.190	0.202	-0.055
-433.690	-95.045	0.171	-0.047
-432.676	-200.000	0.018	-0.242
-431.661	147.940	0.037	-0.050
-430.646	50.600	-0.145	-0.138
-429.632	-200.000	0.006	0.124
-428.617	-66.669	-0.338	-0.135
-427.603	-43.346	-0.186	-0.095
-426.588	436.901	-0.111	-0.244
-425.573	18.203	0.198	0.159
-424.559	149.592	0.018	-0.024
-423.544	800.000	-0.080	0.252
-422.530	-200.000	0.014	0.069
-421.515	13.189	0.065	-0.051
-420.500	-74.016	0.192	-0.070
-419.486	-89.377	-0.231	0.069
-418.471	-83.309	-0.238	-0.077
-417.457	129.404	-0.184	-0.237
-416.442	-125.550	-0.226	-0.035
-415.428	51.137	0.023	0.022
-414.413	-36.590	-0.143	-0.078
-413.398	-4.724	0.232	0.161
-412.384	496.364	0.038	0.087
-411.369	-141.043	0.357	0.037
-410.355	-39.269	0.307	0.162
-409.340	25.174	0.138	0.116
-408.325	29.294	0.146	-0.125
-407.311	-14.716	0.057	-0.037
-406.296	-200.000	-0.020	0.274
-405.282	-179.123	0.247	-0.006
-404.267	800.000	0.024	-0.083
-403.252	-200.000	-0.015	-0.345
-402.238	-69.644	0.338	-0.130
-401.223	-200.000	-0.053	0.252
-400.209	-200.000	0.017	-0.248
-399.194	-138.965	-0.293	-0.032
-398.179	-112.379	0.245	0.049
-397.165	-91.669	0.109	0.031
-396.150	763.417	-0.044	0.119
-395.136	59.936	0.072	0.072
-394.121	-200.000	-0.002	0.042
-393.106	83.951	0.101	0.111
-392.092	800.000	-0.173	0.577
-391.077	-200.000	-0.006	-0.167
-390.063	-157.272	0.261	0.016
-389.048	-200.000	-0.003	-0.163
-388.033	-57.560	0.172	-0.076
-387.019	-200.000	-0.032	0.309
-386.004	-200.000	0.018	0.572
-384.990	-76.968	-0.149	-0.052
-383.975	-89.968	-0.312	0.091
-382.960	27.170	-0.134	0.113
-381.946	425.912	0.115	-0.250
-380.931	-58.444	0.245	-0.107
-379.917	-86.996	0.331	0.102
-378.902	800.000	-0.055	0.202
-377.888	149.128	-0.146	-0.199
-376.873	-200.000	0.025	-0.250
-375.858	-29.585	0.271	0.156
-374.844	-153.550	0.500	0.035
-373.829	-200.000	0.011	0.254
-372.815	-200.000	0.046	0.214
-371.800	74.201	0.030	-0.032
-370.785	-200.000	-0.011	0.333
-369.771	55.212	0.104	-0.101
-368.756	308.662	-0.086	0.162
-367.742	-51.678	-0.177	0.083
-366.727	476.715	0.026	0.060
-365.712	501.132	-0.064	0.148
-364.698	577.622	0.051	0.125
-363.683	-3.559	-0.141	-0.099
-362.669	28.223	-0.168	-0.143
-361.654	-64.646	0.387	0.158
-360.639	442.233	-0.119	0.261
-359.625	-46.024	0.124	-0.061
-358.610	-169.019	-0.417	-0.016
-357.596	-93.826	-0.323	-0.089
-356.581	-118.167	-0.177	0.032
-355.566	274.181	-0.258	-0.459
-354.552	173.700	0.231	-0.335
-353.537	-55.759	-0.175	0.078
-352.523	104.968	-0.223	-0.264
-351.508	445.723	0.093	-0.205
-350.493	103.578	-0.033	-0.039
-349.479	-200.000	0.003	-0.098
-348.464	-200.000	0.007	0.080
-347.450	18.936	-0.274	0.220
-346.435	116.999	-0.076	0.094
-345.420	78.473	-0.068	-0.073
-344.406	528.788	-0.068	0.162
-343.391	-200.000	-0.021	-0.351
-342.377	268.779	0.124	0.219
-341.362	-200.000	-0.058	0.266
-340.348	107.354	-0.170	-0.203
-339.333	800.000	0.042	-0.171
-338.318	-27.793	-0.384	-0.224
-337.304	18.356	-0.168	-0.135
-336.289	92.187	0.105	0.119
-335.275	800.000	-0.100	0.323
-334.260	-72.646	0.173	-0.064
-333.245	-200.000	0.029	0.152
-332.231	800.000	-0.097	0.315
-331.216	63.283	0.127	-0.128
-330.202	25.010	-0.140	-0.116
-329.187	-99.799	0.058	0.015
-328.172	703.702	0.115	-0.305
-327.158	98.469	-0.208	-0.240
-326.143	-200.000	-0.032	-0.239
-325.129	-150.691	-0.209	-0.016
-324.114	-115.630	-0.284	0.053
-323.099	34.461	-0.212	0.186
-322.085	48.106	0.165	0.155
-321.070	-58.095	0.126	0.055
-320.056	-79.252	0.211	0.072
-319.041	289.099	0.049	-0.090
-318.026	1.834	0.316	-0.229
-317.012	-69.464	-0.048	0.019
-315.997	-200.000	0.028	0.144
-314.983	-200.000	-0.042	0.274
-313.968	800.000	0.101	-0.304
-312.953	-109.914	0.341	-0.072
-311.939	33.671	-0.261	0.227
-310.924	-41.806	-0.135	-0.070
-309.910	800.000	-0.038	-0.136
-308.895	64.427	0.162	-0.164
-307.880	-146.217	0.314	-0.028
-306.866	12.954	-0.148	-0.114
-305.851	-200.000	-0.012	0.262
-304.837	-43.053	0.045	-0.023
-303.822	171.747	-0.120	0.172
-302.807	255.031	0.214	0.368
-301.793	67.519	-0.169	0.173
-300.778	800.000	0.075	0.240
-299.764	-151.490	-0.356	-0.026
-298.749	434.852	0.046	-0.100
-297.735	314.169	0.134	-0.253
-296.720	-125.568	-0.180	0.027
-295.705	269.649	-0.082	0.144
-294.691	-200.000	0.024	-0.114
-293.676	-121.502	-0.353	0.059
-292.662	800.000	0.053	0.221
-291.647	-200.000	-0.046	-0.372
-290.632	176.985	-0.090	0.131
-289.618	800.000	0.023	0.072
-288.603	-57.534	0.116	-0.051
-287.589	157.663	0.300	0.416
-286.574	-71.535	0.496	0.186
-285.559	312.630	0.250	-0.470
-284.545	770.515	0.039	0.105
-283.530	131.784	0.222	-0.286
-282.516	186.231	0.054	-0.081
-281.501	-124.775	0.380	0.059
-280.486	-63.366	-0.155	-0.064
-279.472	-200.000	-0.055	0.289
-278.457	800.000	0.053	-0.160
-277.443	-40.425	-0.180	0.093
-276.428	-158.665	0.132	0.008
-275.413	71.721	0.174	0.181
-274.399	800.000	0.040	0.113
-273.384	179.690	-0.095	0.140
-272.370	-39.109	-0.176	0.093
-271.355	294.457	0.076	0.138
-270.340	800.000	-0.145	-0.448
-269.326	28.149	0.328	0.277
-268.311	7.019	-0.220	-0.164
-267.297	223.108	-0.190	0.306
-266.282	300.404	0.112	-0.208
-265.267	-200.000	0.016	-0.195
-264.253	291.404	0.064	-0.117
-263.238	-141.546	-0.265	0.027
-262.224	-27.667	-0.420	-0.244
-261.209	619.189	-0.075	0.188
-260.195	69.757	0.059	0.060
-259.180	-106.111	-0.215	-0.048
-258.165	-137.437	-0.237	0.027
-257.151	-200.000	-0.029	0.330
-256.136	254.140	0.067	0.115
-255.122	-49.618	-0.304	-0.145
-254.107	-65.338	-0.144	-0.058
-253.092	116.604	-0.041	0.050
-252.078	49.370	0.064	0.061
-251.063	-35.919	-0.264	0.143
-250.049	-200.000	0.024	0.172
-249.034	142.967	0.112	-0.149
-248.019	203.917	-0.305	0.473
-247.005	575.728	0.052	0.128
-245.990	749.011	-0.105	0.284
-244.976	10.358	0.182	-0.139
-243.961	-200.000	0.056	-0.285
-242.946	-169.458	-0.262	-0.010
-241.932	-200.000	0.012	-0.080
-240.917	-200.000	-0.020	0.145
-239.903	-160.538	0.105	-0.006
-238.888	-91.050	0.158	0.045
-237.873	-173.778	0.195	0.006
-236.859	556.727	0.068	0.164
-235.844	-56.504	0.175	0.078
-234.830	800.000	0.045	0.148
-233.815	800.000	-0.019	-0.059
-232.800	-97.984	-0.099	-0.025
-231.786	12.621	-0.141	-0.109
-230.771	-104.742	0.257	-0.059
-229.757	800.000	0.117	-0.370
-228.742	-200.000	-0.050	-0.344
-227.727	36.627	-0.229	-0.202
-226.713	328.698	-0.120	0.231
-225.698	64.368	-0.165	-0.166
-224.684	47.305	-0.067	0.062
-223.669	97.740	-0.250	-0.287
-222.655	800.000	-0.024	-0.089
-221.640	-200.000	-0.032	0.338
-220.625	131.680	0.195	0.250
-219.611	152.021	0.052	0.070
-218.596	-84.045	0.147	0.047
-217.582	-67.647	0.161	0.063
-216.567	-53.466	-0.137	0.063
-215.552	210.448	-0.072	0.113
-214.538	286.116	-0.047	0.085
-213.523	-166.043	0.146	-0.006
-212.509	-20.713	0.299	-0.183
-211.494	800.000	-0.040	0.121
-210.479	280.083	-0.124	0.221
-209.465	-57.277	0.057	-0.025
-208.450	-51.323	0.289	-0.135
-207.436	66.345	0.194	-0.197
-206.421	67.741	0.215	-0.220
-205.406	-200.000	-0.041	-0.358
-204.392	-8.264	0.097	-0.065
-203.377	-105.609	0.179	-0.040
-202.363	-200.000	-0.005	-0.118
-201.348	-117.012	0.424	0.077
-200.333	-92.167	0.176	-0.050
-199.319	96.206	-0.036	0.042
-198.304	-55.030	-0.280	0.126
-197.290	-150.843	0.376	-0.028
-196.275	-65.664	-0.312	0.125
-195.260	-200.000	-0.040	0.278
-194.246	-190.440	-0.090	-0.001
-193.231	-127.483	0.240	-0.035
-192.217	108.910	0.058	-0.069
-191.202	-52.503	-0.258	0.119
-190.187	-185.340	-0.072	0.001
-189.173	292.710	0.009	0.017
-188.158	-147.330	0.265	0.022
-187.144	55.789	0.094	-0.091
-186.129	316.054	-0.129	-0.244
-185.114	589.892	0.026	0.064
-184.100	-200.000	0.002	-0.077
-183.085	404.840	0.073	-0.153
-182.071	283.949	0.024	0.043
-181.056	80.658	-0.117	-0.126
-180.042	-200.000	0.013	-0.123
-179.027	-111.737	0.154	-0.031
-178.012	-0.040	0.073	0.052
-176.998	-18.362	0.362	-0.225
-175.983	668.522	-0.074	0.190
-174.969	-200.000	0.029	-0.161
-173.954	-116.930	0.294	0.054
-172.939	-27.593	0.128	-0.074
-171.925	800.000	0.031	0.094
-170.910	-181.003	-0.400	0.008
-169.896	31.831	0.192	-0.165
-168.881	56.709	-0.251	-0.244
-167.866	128.114	-0.147	-0.187
-166.852	-134.962	0.335	-0.040
-165.837	-130.706	-0.181	0.024
-164.823	-200.000	0.025	-0.217
-163.808	-87.413	0.305	-0.092
-162.793	508.355	0.024	-0.055
-161.779	56.522	0.103	0.100
-160.764	-200.000	0.041	0.317
-159.750	-24.647	-0.102	-0.060
-158.735	-156.391	-0.314	0.020
-157.720	251.833	0.145	0.246
-156.706	-200.000	0.018	0.189
-155.691	238.179	-0.063	-0.105
-154.677	-53.296	-0.342	0.156
-153.662	-42.754	0.267	0.135
-152.647	-117.863	-0.305	-0.055
-151.633	-80.419	-0.426	-0.142
-150.618	-27.853	0.391	0.226
-149.604	235.444	-0.112	-0.184
-148.589	-62.305	-0.337	0.140
-147.574	-200.000	-0.014	-0.103
-146.560	-102.868	0.130	-0.031
-145.545	-101.119	-0.186	-0.045
-144.531	-106.798	0.162	0.036
-143.516	-200.000	-0.042	-0.357
-142.502	-200.000	-0.067	-0.341
-141.487	-73.993	0.129	0.046
-140.472	1.686	0.247	-0.177
-139.458	-49.702	0.114	0.054
-138.443	198.379	-0.121	-0.184
-137.429	762.439	-0.081	-0.219
-136.414	-200.000	0.067	0.329
-135.399	377.483	-0.185	0.377
-134.385	67.978	-0.153	-0.156
-133.370	-39.826	-0.247	-0.129
-132.356	-134.051	-0.350	0.043
-131.341	-28.362	-0.076	-0.044
-130.326	-146.842	-0.273	0.023
-129.312	433.626	-0.084	0.183
-128.297	-38.708	0.264	0.139
-127.283	605.601	0.065	0.162
-126.268	-74.412	-0.162	0.058
-125.253	131.293	-0.202	0.258
-124.239	-17.471	-0.151	0.095
-123.224	566.980	0.126	-0.304
-122.210	28.190	0.202	-0.170
-121.195	551.266	0.078	-0.185
-120.180	-200.000	-0.039	0.297
