DTS Sentinel unit serial number:	SN413079Multiplexer serial number:	ORYXHardware model number:	OX4-SRSoftware version number:	ORYX F/W v4.00 Oryx Data Collector v3.7.2.0data status	okinstallation	princeton_trtdifferential loss correction	single-endedforward channel	channel 4reverse channel	N/Adate	2019/09/10time	18:47:11forward acquisition time	60.00reverse acquisition time	0.00gamma	496.2192k internal	0.2303k external	0.2303temperature offset calibration	0.9942default loss term (dB/km)	0.3790temperature slope calibration	1.0000multiplexer offset coefficient	1.0000multiplexer slope coefficient	1.0000fibre end	0.00T internal ref (°C)	35.12T ext. ref 1 (°C)	-0.38T ext. ref 2 (°C)	27.18length (m)	temperature (°C)	Stokes	anti-Stokes-747.200	2.550	0.142	-0.105
-746.185	800.000	0.098	0.277
-745.171	-200.000	0.005	0.194
-744.156	-44.472	-0.193	-0.098
-743.142	161.752	-0.090	0.128
-742.127	800.000	0.123	0.355
-741.112	427.226	-0.087	0.191
-740.098	-27.511	-0.364	0.215
-739.083	549.153	-0.150	-0.365
-738.069	175.631	-0.118	0.174
-737.054	157.174	-0.210	-0.296
-736.039	-200.000	-0.068	-0.537
-735.025	-125.814	-0.242	0.037
-734.010	-183.024	0.152	-0.003
-732.996	-167.534	0.111	-0.005
-731.981	-43.585	-0.196	-0.100
-730.966	8.706	0.161	-0.123
-729.952	41.712	0.104	0.096
-728.937	183.916	0.217	-0.327
-727.923	221.637	-0.045	0.074
-726.908	60.686	-0.134	-0.136
-725.894	-12.418	-0.094	0.062
-724.879	-145.852	-0.250	-0.023
-723.864	-200.000	0.006	-0.166
-722.850	-98.490	0.423	0.110
-721.835	20.863	-0.087	-0.072
-720.821	7.984	-0.278	-0.212
-719.806	-123.578	-0.343	-0.055
-718.791	242.656	-0.220	-0.376
-717.777	-200.000	0.049	0.279
-716.762	-62.855	0.199	0.084
-715.748	-200.000	0.010	-0.271
-714.733	288.049	0.246	0.453
-713.718	711.983	0.031	-0.083
-712.704	-135.116	-0.202	0.025
-711.689	-68.534	0.191	0.075
-710.675	-80.573	-0.221	-0.075
-709.660	-200.000	-0.001	-0.308
-708.645	-106.842	-0.484	0.109
-707.631	62.355	-0.059	0.060
-706.616	-200.000	-0.025	-0.213
-705.602	3.961	0.039	-0.029
-704.587	-135.491	0.160	-0.019
-703.572	232.775	0.128	-0.214
-702.558	-200.000	0.026	-0.277
-701.543	-106.218	0.214	0.049
-700.529	69.331	-0.103	0.108
-699.514	800.000	0.056	0.176
-698.499	-40.035	0.362	-0.192
-697.485	25.307	0.054	-0.045
-696.470	108.622	0.123	-0.149
-695.456	-142.350	-0.261	-0.026
-694.441	50.757	0.231	-0.222
-693.426	584.557	-0.071	0.178
-692.412	388.561	-0.098	0.206
-691.397	-47.687	-0.235	-0.116
-690.383	-163.597	-0.335	-0.016
-689.368	382.767	-0.149	-0.311
-688.354	108.813	0.036	0.044
-687.339	-178.051	0.231	-0.006
-686.324	32.148	-0.079	0.069
-685.310	-122.186	-0.220	-0.037
-684.295	555.517	-0.122	0.297
-683.281	-5.689	0.127	-0.088
-682.266	800.000	-0.046	-0.146
-681.251	77.236	0.118	0.127
-680.237	128.339	0.216	0.280
-679.222	105.673	0.082	0.099
-678.208	-103.259	-0.307	0.074
-677.193	216.477	0.274	0.442
-676.178	80.066	-0.056	-0.061
-675.164	206.679	-0.227	-0.360
-674.149	800.000	-0.065	-0.219
-673.135	-116.441	0.150	-0.028
-672.120	98.672	0.099	-0.116
-671.105	114.015	0.169	0.208
-670.091	310.568	-0.153	-0.291
-669.076	115.833	0.036	0.045
-668.062	3.423	-0.167	-0.124
-667.047	51.502	-0.011	-0.011
-666.032	-45.234	-0.413	-0.208
-665.018	-32.698	-0.205	-0.116
-664.003	457.123	-0.108	-0.243
-662.989	573.206	-0.057	-0.141
-661.974	539.309	-0.020	0.048
-660.959	-29.925	0.158	-0.091
-659.945	13.056	-0.301	-0.236
-658.930	-20.037	-0.203	-0.127
-657.916	-49.731	-0.114	-0.055
-656.901	-200.000	0.032	0.211
-655.886	330.580	0.140	0.274
-654.872	-200.000	0.010	0.113
-653.857	-190.758	-0.188	0.002
-652.843	-186.164	-0.357	-0.005
-651.828	-21.275	-0.212	-0.131
-650.814	364.273	-0.161	-0.329
-649.799	64.600	-0.168	0.172
-648.784	-53.589	0.354	0.164
-647.770	193.084	0.092	-0.141
-646.755	-43.464	0.190	0.097
-645.741	183.954	-0.023	-0.035
-644.726	32.909	0.337	-0.296
-643.711	-6.789	0.307	0.212
-642.697	-23.271	0.186	0.113
-641.682	-46.994	-0.277	0.137
-640.668	-127.839	0.158	-0.023
-639.653	-200.000	-0.020	0.150
-638.638	-145.248	0.262	0.024
-637.624	800.000	0.063	-0.210
-636.609	752.697	0.090	-0.246
-635.595	-37.533	0.105	0.057
-634.580	169.019	0.057	-0.083
-633.565	328.979	-0.068	-0.133
-632.551	-106.874	-0.158	-0.036
-631.536	177.925	-0.136	-0.201
-630.522	-94.924	0.169	0.046
-629.507	-200.000	0.025	-0.162
-628.492	637.753	-0.072	-0.184
-627.478	306.615	-0.027	-0.051
-626.463	25.960	-0.159	-0.134
-625.449	-186.014	-0.096	0.001
-624.434	-115.246	-0.304	-0.058
-623.419	98.209	0.119	0.139
-622.405	800.000	-0.044	0.136
-621.390	-155.107	0.142	-0.009
-620.376	-90.439	-0.145	0.043
-619.361	800.000	0.021	-0.078
-618.346	103.154	0.121	-0.144
-617.332	-105.463	0.371	0.085
-616.317	27.504	-0.104	-0.089
-615.303	202.183	0.057	0.089
-614.288	8.558	-0.081	0.061
-613.273	-2.059	0.146	0.104
-612.259	6.921	-0.464	-0.350
-611.244	331.321	-0.075	-0.147
-610.230	800.000	-0.017	-0.048
-609.215	140.366	-0.031	-0.041
-608.201	-27.934	-0.232	-0.136
-607.186	-200.000	0.026	0.220
-606.171	800.000	-0.098	0.406
-605.157	0.320	-0.270	0.195
-604.142	-200.000	-0.019	-0.214
-603.128	-37.017	0.154	0.084
-602.113	-127.526	0.396	-0.058
-601.098	117.635	0.189	-0.236
-600.084	-32.047	0.342	-0.194
-599.069	165.896	-0.180	-0.259
-598.055	137.378	0.204	0.271
-597.040	-200.000	-0.001	-0.063
-596.025	720.453	-0.125	0.337
-595.011	42.761	0.170	0.157
-593.996	300.501	-0.135	0.252
-592.982	-200.000	-0.049	0.227
-591.967	-123.228	-0.259	-0.042
-590.952	24.392	0.102	-0.085
-589.938	-61.766	0.172	-0.073
-588.923	-115.032	0.286	-0.055
-587.909	800.000	-0.080	-0.261
-586.894	800.000	0.102	0.294
-585.879	-52.472	-0.247	-0.115
-584.865	-74.262	0.110	-0.040
-583.850	-159.251	0.405	0.023
-582.836	-200.000	0.008	-0.123
-581.821	34.479	0.104	0.092
-580.806	167.264	-0.092	0.132
-579.792	354.036	0.087	0.174
-578.777	800.000	-0.033	0.146
-577.763	-99.553	0.178	-0.045
-576.748	-7.930	-0.112	-0.076
-575.733	-91.807	0.188	0.054
-574.719	800.000	0.115	0.350
-573.704	70.245	0.154	-0.161
-572.690	-90.724	0.052	0.015
-571.675	-200.000	-0.004	-0.082
-570.661	562.394	0.157	0.383
-569.646	-59.420	-0.047	0.021
-568.631	-200.000	0.052	0.311
-567.617	-200.000	0.012	-0.242
-566.602	181.134	0.061	-0.091
-565.588	398.845	0.074	-0.158
-564.573	800.000	0.082	-0.352
-563.558	-65.832	-0.125	0.050
-562.544	-65.537	0.169	0.069
-561.529	83.662	-0.171	-0.188
-560.515	-43.491	0.520	0.266
-559.500	56.587	0.232	0.228
-558.485	31.788	0.085	0.074
-557.471	-20.331	-0.308	0.192
-556.456	-200.000	0.023	-0.289
-555.442	0.929	-0.098	-0.071
-554.427	-153.251	-0.255	0.018
-553.412	455.441	-0.116	-0.260
-552.398	129.723	0.038	-0.049
-551.383	-200.000	0.034	0.238
-550.369	586.538	0.215	-0.534
-549.354	-117.424	-0.147	0.027
-548.339	22.650	-0.068	0.056
-547.325	3.471	0.140	0.103
-546.310	4.689	-0.164	-0.122
-545.296	-98.059	-0.240	0.062
-544.281	56.756	-0.192	0.189
-543.266	-101.584	0.349	0.086
-542.252	-200.000	0.020	0.206
-541.237	147.640	-0.237	0.323
-540.223	199.560	-0.220	-0.341
-539.208	300.560	-0.109	0.204
-538.193	1.057	-0.102	0.074
-537.179	335.631	-0.178	-0.349
-536.164	-119.207	0.084	-0.015
-535.150	-70.177	0.216	-0.083
-534.135	800.000	0.072	-0.227
-533.121	-113.424	-0.248	-0.049
-532.106	-68.568	-0.305	0.119
-531.091	-144.677	-0.109	0.010
-530.077	112.602	-0.089	-0.109
-529.062	800.000	0.026	0.101
-528.048	-54.164	0.195	-0.090
-527.033	-83.711	-0.299	-0.096
-526.018	-200.000	-0.042	-0.242
-525.004	-200.000	0.060	-0.373
-523.989	489.060	0.149	-0.344
-522.975	39.076	0.237	0.214
-521.960	506.777	-0.072	-0.168
-520.945	246.403	-0.038	-0.065
-519.931	-200.000	-0.046	-0.215
-518.916	-200.000	0.046	-0.215
-517.902	-200.000	0.034	0.165
-516.887	800.000	-0.010	0.039
-515.872	-179.322	-0.268	-0.006
-514.858	16.812	0.190	-0.152
-513.843	188.973	-0.114	-0.172
-512.829	202.375	-0.161	0.250
-511.814	-108.575	0.109	0.024
-510.799	-154.308	-0.241	0.016
-509.785	-88.639	-0.217	0.065
-508.770	84.109	-0.223	0.246
-507.756	-28.812	-0.036	0.021
-506.741	381.150	0.164	0.341
-505.726	800.000	-0.049	0.185
-504.712	-26.914	-0.202	-0.119
-503.697	-98.139	0.219	0.057
-502.683	800.000	0.047	-0.167
-501.668	-159.287	-0.256	0.014
-500.653	-113.931	-0.088	-0.017
-499.639	147.366	-0.151	-0.206
-498.624	35.419	-0.319	0.282
-497.610	-97.269	-0.088	0.023
-496.595	-200.000	0.012	0.242
-495.581	-181.872	-0.437	0.008
-494.566	-55.270	0.173	0.078
-493.551	522.015	-0.142	0.337
-492.537	800.000	0.061	0.255
-491.522	736.704	0.132	-0.357
-490.508	-19.960	-0.253	0.158
-489.493	120.884	0.192	0.241
-488.478	-24.623	0.306	-0.184
-487.464	-200.000	0.006	0.275
-486.449	520.911	0.181	0.427
-485.435	67.258	-0.094	-0.096
-484.420	-48.842	0.156	-0.075
-483.405	-72.992	0.274	-0.101
-482.391	75.141	0.110	0.117
-481.376	235.368	0.102	-0.169
-480.362	-94.593	-0.319	-0.088
-479.347	-142.343	-0.108	-0.011
-478.332	138.929	-0.104	-0.138
-477.318	86.604	-0.065	-0.072
-476.303	-132.611	-0.292	0.038
-475.289	116.279	-0.081	-0.100
-474.274	800.000	0.082	-0.294
-473.259	72.473	-0.150	0.157
-472.245	25.168	0.021	-0.018
-471.230	-44.151	-0.298	0.150
-470.216	800.000	0.115	0.357
-469.201	-49.116	-0.217	-0.104
-468.186	544.238	-0.081	0.194
-467.172	204.506	-0.269	-0.420
-466.157	-124.733	0.125	0.019
-465.143	-46.982	-0.194	-0.095
-464.128	591.713	0.174	-0.433
-463.113	-200.000	-0.027	-0.270
-462.099	-200.000	0.019	0.181
-461.084	-81.405	0.214	0.071
-460.070	-166.747	-0.109	-0.005
-459.055	-200.000	0.088	0.557
-458.040	3.391	0.094	0.069
-457.026	106.505	0.061	-0.073
-456.011	591.656	0.104	-0.259
-454.997	-85.106	0.117	0.037
-453.982	-35.453	0.224	0.122
-452.968	29.255	-0.273	-0.234
-451.953	-200.000	-0.017	-0.149
-450.938	-200.000	0.014	-0.085
-449.924	800.000	-0.045	-0.142
-448.909	344.553	-0.068	0.135
-447.895	-54.729	-0.497	-0.226
-446.880	34.548	-0.124	0.109
-445.865	-20.662	-0.189	0.117
-444.851	144.478	0.120	-0.161
-443.836	-88.061	-0.016	-0.005
-442.822	137.392	0.164	0.216
-441.807	-75.159	-0.236	0.085
-440.792	-200.000	-0.019	0.261
-439.778	-104.632	-0.188	0.044
-438.763	25.509	0.362	-0.303
-437.749	-200.000	0.007	0.053
-436.734	583.705	-0.042	-0.104
-435.719	51.274	0.057	-0.054
-434.705	-200.000	0.006	-0.282
-433.690	323.070	-0.132	0.254
-432.676	-116.905	0.374	0.069
-431.661	-53.472	0.229	0.106
-430.646	800.000	-0.058	-0.193
-429.632	-9.754	-0.172	0.115
-428.617	-149.706	0.194	0.015
-427.603	49.047	-0.034	-0.032
-426.588	216.458	-0.135	0.216
-425.573	220.157	0.147	0.237
-424.559	-200.000	-0.024	0.197
-423.544	276.186	-0.013	0.024
-422.530	115.457	0.135	0.166
-421.515	-14.659	-0.162	-0.105
-420.500	33.784	0.168	-0.147
-419.486	800.000	0.112	0.337
-418.471	143.170	-0.132	0.177
-417.457	-44.447	0.115	0.058
-416.442	-107.388	0.140	0.031
-415.428	423.651	0.096	-0.207
-414.413	-200.000	0.001	-0.135
-413.398	-200.000	0.062	-0.421
-412.384	-12.113	0.278	0.183
-411.369	148.569	-0.105	-0.143
-410.355	7.616	-0.213	-0.160
-409.340	564.238	-0.033	0.080
-408.325	-177.544	0.183	-0.005
-407.311	103.751	-0.077	0.091
-406.296	800.000	-0.053	0.195
-405.282	38.158	-0.031	0.027
-404.267	166.953	-0.086	-0.123
-403.252	185.454	0.040	-0.059
-402.238	49.378	0.253	0.239
-401.223	-200.000	0.001	-0.207
-400.209	800.000	-0.017	-0.053
-399.194	-133.355	0.053	0.007
-398.179	-103.945	0.165	-0.039
-397.165	145.395	-0.017	0.023
-396.150	25.900	0.235	0.197
-395.136	-200.000	0.006	0.238
-394.121	-149.489	-0.140	-0.011
-393.106	34.046	-0.091	-0.080
-392.092	-127.216	0.158	-0.023
-391.077	800.000	-0.077	0.248
-390.063	344.444	-0.181	-0.356
-389.048	800.000	-0.031	0.105
-388.033	373.134	-0.104	-0.212
-387.019	-200.000	-0.018	0.324
-386.004	-72.175	-0.188	-0.070
-384.990	553.925	0.045	-0.109
-383.975	0.344	0.261	-0.187
-382.960	158.533	0.041	0.057
-381.946	800.000	0.075	0.214
-380.931	-200.000	0.002	-0.086
-379.917	148.728	-0.224	0.303
-378.902	268.572	-0.082	-0.144
-377.888	312.799	-0.145	0.273
-376.873	553.750	0.175	-0.422
-375.858	-200.000	0.032	0.341
-374.844	390.527	0.059	0.123
-373.829	146.909	0.215	0.290
-372.815	-32.804	0.365	-0.204
-371.800	120.279	-0.128	-0.159
-370.785	74.132	0.135	-0.142
-369.771	771.859	-0.074	0.202
-368.756	-131.758	-0.042	0.006
-367.742	384.866	0.143	-0.295
-366.727	-57.231	0.415	-0.183
-365.712	-92.995	-0.201	-0.056
-364.698	77.227	-0.127	-0.136
-363.683	100.223	-0.065	0.076
-362.669	116.911	0.209	0.258
-361.654	-103.958	0.254	0.059
-360.639	31.676	0.043	0.037
-359.625	22.504	0.117	-0.096
-358.610	-31.770	-0.135	-0.076
-357.596	-200.000	0.008	-0.136
-356.581	31.021	0.176	0.152
-355.566	45.327	-0.477	0.441
-354.552	518.315	-0.139	0.327
-353.537	-200.000	-0.008	0.229
-352.523	-200.000	-0.044	-0.400
-351.508	-31.461	-0.066	-0.037
-350.493	2.962	-0.207	-0.151
-349.479	183.811	0.151	0.223
-348.464	213.730	0.149	0.236
-347.450	610.827	-0.070	0.176
-346.435	118.311	-0.067	0.083
-345.420	707.899	-0.047	0.125
-344.406	-85.064	-0.255	-0.080
-343.391	82.823	0.219	0.239
-342.377	232.820	-0.255	0.420
-341.362	142.090	0.088	0.117
-340.348	-145.594	-0.169	0.015
-339.333	45.427	-0.065	0.060
-338.318	113.328	0.120	-0.146
-337.304	-27.149	-0.113	-0.066
-336.289	-33.140	-0.306	0.170
-335.275	-200.000	-0.025	0.154
-334.260	81.393	-0.160	0.174
-333.245	304.161	0.111	0.207
-332.231	94.355	0.121	-0.138
-331.216	-57.369	-0.249	-0.110
-330.202	223.207	0.103	0.166
-329.187	-159.586	0.206	-0.011
-328.172	-24.022	0.242	0.145
-327.158	197.079	-0.089	0.136
-326.143	-200.000	-0.104	0.499
-325.129	-158.093	-0.148	0.009
-324.114	67.482	-0.074	-0.075
-323.099	-99.212	0.136	-0.034
-322.085	225.611	0.169	-0.275
-321.070	30.168	-0.123	0.106
-320.056	0.192	0.263	-0.188
-319.041	129.792	-0.214	-0.274
-318.026	-111.140	-0.181	0.037
-317.012	-200.000	-0.067	0.536
-315.997	-49.477	-0.287	0.137
-314.983	396.760	0.158	-0.330
-313.968	-200.000	-0.026	-0.390
-312.953	-155.350	0.193	0.013
-311.939	213.352	-0.141	-0.223
-310.924	-30.792	-0.046	0.026
-309.910	-46.335	-0.217	-0.107
-308.895	800.000	-0.065	-0.197
-307.880	323.735	0.033	0.064
-306.866	-200.000	-0.027	-0.165
-305.851	-32.069	-0.092	0.052
-304.837	800.000	0.031	0.114
-303.822	543.591	0.136	-0.324
-302.807	-142.744	0.281	0.027
-301.793	-120.074	0.107	-0.018
-300.778	7.361	-0.166	0.124
-299.764	-35.393	-0.406	-0.221
-298.749	-113.772	-0.252	0.049
-297.735	412.639	-0.033	-0.070
-296.720	-200.000	0.011	0.115
-295.705	178.818	-0.178	-0.261
-294.691	800.000	-0.108	-0.315
-293.676	212.468	-0.079	-0.125
-292.662	100.245	0.159	0.184
-291.647	301.225	-0.048	0.089
-290.632	800.000	-0.066	0.208
-289.618	-197.388	0.198	0.001
-288.603	2.181	0.125	0.091
-287.589	363.436	-0.153	0.307
-286.574	-42.015	-0.317	-0.162
-285.559	257.665	-0.038	-0.065
-284.545	28.263	0.194	-0.164
-283.530	-86.366	0.334	-0.103
-282.516	-116.331	0.132	-0.024
-281.501	-172.347	-0.165	0.005
-280.486	171.911	0.090	-0.129
-279.472	800.000	0.014	0.057
-278.457	436.209	0.057	0.125
-277.443	-200.000	0.057	0.355
-276.428	-148.608	-0.193	-0.016
-275.413	-200.000	0.014	-0.287
-274.399	-34.379	0.101	0.055
-273.384	182.227	-0.142	-0.209
-272.370	121.338	0.020	-0.025
-271.355	-200.000	-0.017	0.191
-270.340	-200.000	-0.026	-0.399
-269.326	800.000	0.016	-0.062
-268.311	19.563	0.117	0.094
-267.297	-189.658	0.379	0.004
-266.282	800.000	0.056	-0.178
-265.267	120.138	0.142	0.176
-264.253	-200.000	0.013	-0.097
-263.238	-51.478	0.250	-0.117
-262.224	-200.000	-0.004	0.070
-261.209	-125.465	0.070	-0.011
-260.195	-169.538	0.406	0.015
-259.180	249.055	0.062	-0.105
-258.165	234.973	-0.163	-0.269
-257.151	-105.142	-0.169	0.039
-256.136	-97.936	-0.266	0.068
-255.122	-200.000	-0.029	0.151
-254.107	229.457	0.159	-0.259
-253.092	-64.577	-0.271	-0.110
-252.078	-88.983	0.277	0.082
-251.063	429.256	-0.137	0.296
-250.049	372.821	0.260	0.528
-249.034	29.580	0.105	-0.089
-248.019	-81.454	0.237	-0.078
-247.005	-17.541	-0.228	-0.143
-245.990	95.838	-0.052	0.059
-244.976	102.015	0.110	0.128
-243.961	800.000	-0.033	0.113
-242.946	-200.000	-0.021	0.120
-241.932	-200.000	0.014	-0.081
-240.917	412.058	0.014	-0.029
-239.903	316.081	0.109	0.205
-238.888	210.168	-0.073	-0.115
-237.873	296.726	0.094	-0.172
-236.859	378.743	0.023	0.048
-235.844	20.236	-0.190	0.153
-234.830	266.061	-0.128	-0.223
-233.815	-136.133	-0.282	0.033
-232.800	46.685	0.159	0.148
-231.786	-145.626	-0.372	-0.033
-230.771	10.515	-0.205	-0.156
-229.757	141.611	-0.176	0.232
-228.742	-128.754	0.090	0.013
-227.727	-194.156	0.230	0.002
-226.713	-200.000	-0.022	-0.132
-225.698	252.745	0.092	0.156
-224.684	-104.413	-0.259	0.060
-223.669	45.474	0.119	0.109
-222.655	80.877	-0.126	0.136
-221.640	-200.000	-0.062	-0.311
-220.625	-10.521	0.209	0.138
-219.611	-65.779	0.157	0.063
-218.596	-105.540	-0.204	0.046
-217.582	-105.259	0.216	0.049
-216.567	-200.000	-0.037	-0.180
-215.552	63.194	-0.050	-0.050
-214.538	-200.000	-0.061	-0.383
-213.523	379.811	-0.062	-0.127
-212.509	390.772	0.311	-0.645
-211.494	800.000	-0.038	-0.127
-210.479	-12.660	0.207	-0.134
-209.465	-183.945	-0.183	0.003
-208.450	-200.000	-0.043	0.349
-207.436	-200.000	-0.013	-0.137
-206.421	-88.421	-0.223	-0.066
-205.406	40.703	-0.106	-0.095
-204.392	37.013	-0.543	0.479
-203.377	-91.859	0.211	0.060
-202.363	-124.612	0.511	-0.079
-201.348	-58.344	0.107	-0.046
-200.333	-89.467	0.059	-0.017
-199.319	749.887	-0.057	-0.154
-198.304	-200.000	-0.047	0.211
-197.290	210.638	-0.054	-0.085
-196.275	-25.189	0.141	-0.083
-195.260	-80.521	-0.114	-0.038
-194.246	114.964	-0.118	-0.144
-193.231	121.174	-0.084	-0.105
-192.217	-200.000	-0.052	-0.354
-191.202	3.640	-0.124	0.090
-190.187	-127.409	0.063	-0.009
-189.173	800.000	-0.043	0.129
-188.158	-80.161	0.113	-0.038
-187.144	-120.148	0.068	-0.012
-186.129	-180.557	0.293	-0.006
-185.114	-12.185	0.045	0.029
-184.100	-35.208	-0.046	0.025
-183.085	800.000	-0.086	0.305
-182.071	-175.928	0.181	0.005
-181.056	800.000	-0.151	-0.507
-180.042	-55.899	-0.235	0.105
-179.027	-200.000	0.231	-0.000
-178.012	-34.192	0.266	-0.146
-176.998	-77.383	-0.099	0.034
-175.983	640.558	0.189	0.479
-174.969	-87.167	-0.388	-0.118
-173.954	-200.000	-0.009	0.103
-172.939	-40.461	-0.262	-0.136
-171.925	-200.000	-0.036	0.302
-170.910	-140.737	0.242	0.025
-169.896	-38.971	0.153	0.080
-168.881	-200.000	0.045	-0.426
-167.866	-81.345	-0.269	-0.088
-166.852	-52.369	-0.209	0.097
-165.837	-200.000	-0.013	0.268
-164.823	44.043	-0.109	-0.099
-163.808	2.426	0.342	0.247
-162.793	800.000	-0.042	-0.157
-161.779	-38.655	0.221	-0.116
-160.764	135.186	-0.145	0.188
-159.750	144.153	0.232	-0.308
-158.735	-73.922	-0.176	0.063
-157.720	-79.349	0.122	-0.041
-156.706	800.000	0.049	-0.187
-155.691	337.100	0.101	-0.195
-154.677	-200.000	0.050	-0.485
-153.662	-173.589	-0.182	-0.005
-152.647	-89.924	0.045	0.013
-151.633	42.969	0.231	0.210
-150.618	-37.141	0.223	-0.119
-149.604	-179.498	-0.377	0.008
-148.589	58.459	-0.308	-0.301
-147.574	-51.683	-0.155	0.072
-146.560	-200.000	-0.048	-0.283
-145.545	-98.625	-0.194	0.049
-144.531	638.835	-0.073	-0.185
-143.516	-120.434	0.256	0.043
-142.502	-185.507	-0.124	0.002
-141.487	-9.314	-0.301	-0.200
-140.472	-200.000	-0.009	-0.076
-139.458	800.000	0.018	0.065
-138.443	-70.514	0.211	0.079
-137.429	-200.000	-0.035	0.262
-136.414	110.168	0.269	-0.322
-135.399	340.819	0.156	0.304
-134.385	-122.479	-0.109	0.018
-133.370	316.974	0.262	0.493
-132.356	-149.412	-0.314	-0.025
-131.341	7.233	0.134	-0.100
-130.326	-182.659	0.257	-0.005
-129.312	146.772	0.192	0.256
-128.297	-61.990	-0.306	-0.127
-127.283	113.710	-0.180	0.217
-126.268	-151.901	-0.234	0.017
-125.253	-82.549	0.261	0.084
-124.239	249.697	-0.068	-0.115
-123.224	217.753	0.042	-0.066
-122.210	800.000	-0.025	0.074
-121.195	-200.000	-0.005	0.115
