DTS Sentinel unit serial number:	SN413079Multiplexer serial number:	ORYXHardware model number:	OX4-SRSoftware version number:	ORYX F/W v4.00 Oryx Data Collector v3.7.2.0data status	okinstallation	princeton_trtdifferential loss correction	single-endedforward channel	channel 4reverse channel	N/Adate	2019/09/11time	00:35:11forward acquisition time	60.00reverse acquisition time	0.00gamma	496.2192k internal	0.2318k external	0.2318temperature offset calibration	0.9949default loss term (dB/km)	0.3790temperature slope calibration	1.0000multiplexer offset coefficient	1.0000multiplexer slope coefficient	1.0000fibre end	0.00T internal ref (°C)	29.23T ext. ref 1 (°C)	-0.31T ext. ref 2 (°C)	22.97length (m)	temperature (°C)	Stokes	anti-Stokes-747.200	-132.089	-0.227	-0.030
-746.185	-38.699	0.107	-0.057
-745.171	337.048	0.170	-0.334
-744.156	-200.000	-0.001	-0.084
-743.142	37.161	0.380	-0.340
-742.127	241.767	-0.054	0.091
-741.112	189.033	-0.098	-0.149
-740.098	72.731	-0.144	0.153
-739.083	-200.000	-0.006	-0.115
-738.069	437.223	0.121	0.267
-737.054	239.896	-0.144	0.243
-736.039	-159.447	-0.192	-0.011
-735.025	800.000	-0.083	0.249
-734.010	14.764	-0.070	-0.056
-732.996	23.566	-0.036	-0.030
-731.981	-107.052	-0.461	0.103
-730.966	390.577	-0.111	-0.233
-729.952	-200.000	-0.001	0.326
-728.937	163.812	-0.149	0.212
-727.923	-31.291	-0.365	-0.208
-726.908	361.879	-0.057	0.116
-725.894	-98.437	0.179	0.046
-724.879	-100.733	-0.226	0.056
-723.864	-48.874	0.290	0.141
-722.850	111.669	0.224	0.273
-721.835	-100.879	-0.267	-0.066
-720.821	-61.130	-0.410	-0.175
-719.806	-106.680	0.165	0.037
-718.791	121.480	-0.117	0.147
-717.777	343.656	-0.140	-0.278
-716.762	27.570	0.271	0.231
-715.748	-200.000	-0.013	0.286
-714.733	-60.790	0.241	-0.103
-713.718	157.721	0.134	0.187
-712.704	-200.000	-0.006	-0.118
-711.689	108.273	-0.023	-0.028
-710.675	-57.767	0.109	0.048
-709.660	21.130	-0.261	0.214
-708.645	800.000	-0.049	-0.154
-707.631	422.932	0.044	-0.095
-706.616	-54.800	-0.057	0.026
-705.602	800.000	-0.058	-0.244
-704.587	12.065	-0.321	-0.250
-703.572	-109.381	0.084	-0.018
-702.558	800.000	-0.038	-0.151
-701.543	-200.000	-0.038	-0.323
-700.529	-0.369	-0.257	0.185
-699.514	-66.056	0.153	-0.062
-698.499	800.000	0.058	-0.223
-697.485	130.535	-0.136	-0.176
-696.470	-200.000	-0.008	-0.144
-695.456	-40.688	0.282	0.148
-694.441	210.673	0.051	-0.081
-693.426	-146.872	0.183	-0.016
-692.412	-10.214	-0.292	-0.196
-691.397	-200.000	-0.001	-0.234
-690.383	-91.802	-0.461	-0.132
-689.368	585.477	-0.098	-0.244
-688.354	-200.000	-0.086	-0.474
-687.339	240.872	0.124	-0.209
-686.324	-200.000	-0.123	-0.000
-685.310	800.000	-0.045	0.146
-684.295	31.691	0.122	-0.106
-683.281	-13.837	0.292	-0.190
-682.266	-200.000	-0.043	-0.211
-681.251	25.900	0.196	-0.165
-680.237	-200.000	-0.010	-0.336
-679.222	-118.649	0.126	0.022
-678.208	-112.763	-0.183	0.037
-677.193	-200.000	0.021	-0.103
-676.178	-100.093	0.383	0.096
-675.164	197.480	-0.051	0.079
-674.149	218.531	-0.057	-0.091
-673.135	108.684	0.116	-0.140
-672.120	11.187	-0.298	0.230
-671.105	171.650	0.135	-0.196
-670.091	-102.480	0.094	-0.023
-669.076	127.299	-0.212	0.272
-668.062	-200.000	-0.030	-0.220
-667.047	682.520	0.063	-0.167
-666.032	-28.487	0.117	-0.068
-665.018	-200.000	0.020	0.182
-664.003	-115.019	-0.207	-0.040
-662.989	34.267	0.368	-0.324
-661.974	-13.027	0.207	0.136
-660.959	-42.325	-0.166	0.086
-659.945	-188.553	0.149	0.002
-658.930	-200.000	0.005	-0.097
-657.916	-7.417	0.058	0.040
-656.901	-23.014	-0.209	-0.127
-655.886	59.017	-0.197	-0.196
-654.872	-116.286	-0.096	0.018
-653.857	-161.731	-0.129	0.007
-652.843	129.455	-0.157	-0.202
-651.828	-119.364	-0.444	-0.078
-650.814	63.469	0.077	-0.078
-649.799	-89.339	-0.200	0.060
-648.784	313.753	0.083	-0.158
-647.770	-200.000	0.001	0.075
-646.755	-200.000	-0.040	0.184
-645.741	98.894	-0.293	-0.342
-644.726	375.701	0.124	0.256
-643.711	800.000	-0.078	-0.232
-642.697	343.243	-0.079	0.156
-641.682	-154.901	0.420	-0.028
-640.668	-59.514	-0.133	-0.057
-639.653	102.198	-0.169	0.199
-638.638	-200.000	0.040	0.268
-637.624	-200.000	0.016	-0.116
-636.609	294.354	0.108	-0.199
-635.595	-200.000	-0.001	-0.286
-634.580	-73.139	0.041	0.015
-633.565	22.794	0.317	-0.262
-632.551	-53.484	0.312	-0.144
-631.536	-52.860	0.167	-0.077
-630.522	-52.243	0.345	-0.161
-629.507	-124.646	0.334	0.052
-628.492	-71.832	0.137	0.052
-627.478	157.445	-0.066	-0.092
-626.463	454.940	0.040	0.090
-625.449	-200.000	0.050	-0.291
-624.434	-151.298	-0.294	0.022
-623.419	410.079	-0.075	-0.159
-622.405	-200.000	0.004	-0.159
-621.390	-113.604	0.067	-0.013
-620.376	48.264	0.157	-0.148
-619.361	-200.000	0.001	0.014
-618.346	-17.510	0.135	-0.086
-617.332	-49.938	0.182	-0.087
-616.317	104.736	-0.090	-0.106
-615.303	331.303	-0.119	0.232
-614.288	25.027	0.126	0.105
-613.273	-40.926	0.242	0.126
-612.259	347.678	0.156	0.310
-611.244	-168.342	0.128	-0.005
-610.230	-179.821	-0.239	0.005
-609.215	75.771	0.237	0.252
-608.201	570.808	-0.080	-0.196
-607.186	-147.648	-0.166	0.014
-606.171	624.690	-0.102	-0.259
-605.157	-168.366	0.266	-0.010
-604.142	279.104	0.105	0.189
-603.128	-47.225	0.120	-0.059
-602.113	800.000	-0.086	0.339
-601.098	124.625	-0.152	0.192
-600.084	676.648	-0.074	-0.194
-599.069	-153.883	0.230	0.016
-598.055	-93.306	0.247	-0.069
-597.040	-55.348	-0.110	0.050
-596.025	-151.718	0.124	-0.009
-595.011	-147.556	0.230	0.020
-593.996	800.000	-0.098	0.286
-592.982	239.453	0.040	0.066
-591.967	-47.281	0.134	0.066
-590.952	636.021	0.106	-0.271
-589.938	-177.287	-0.239	-0.006
-588.923	143.592	-0.180	0.241
-587.909	-31.829	-0.116	0.065
-586.894	92.278	-0.104	-0.118
-585.879	-195.648	0.123	-0.001
-584.865	-65.593	0.280	-0.113
-583.850	-14.785	-0.077	0.050
-582.836	800.000	-0.057	0.249
-581.821	-200.000	-0.007	-0.186
-580.806	-31.173	0.184	0.104
-579.792	-127.865	0.116	0.017
-578.777	9.513	-0.219	0.167
-577.763	-56.271	-0.129	0.058
-576.748	800.000	0.038	-0.140
-575.733	248.790	-0.110	0.187
-574.719	-97.949	0.136	-0.035
-573.704	-107.140	0.188	0.042
-572.690	-200.000	-0.028	-0.191
-571.675	109.490	-0.135	0.162
-570.661	568.381	0.110	0.269
-569.646	-98.198	0.194	-0.050
-568.631	-200.000	-0.036	-0.224
-567.617	150.888	0.202	-0.276
-566.602	-21.687	-0.265	-0.162
-565.588	88.238	-0.120	-0.134
-564.573	800.000	-0.054	0.237
-563.558	-16.436	0.281	0.179
-562.544	83.635	-0.366	0.401
-561.529	-50.043	-0.167	0.079
-560.515	800.000	0.067	0.243
-559.500	-94.429	-0.144	0.039
-558.485	-200.000	-0.001	-0.293
-557.471	-200.000	-0.017	0.185
-556.456	159.891	0.135	0.189
-555.442	-135.875	0.219	0.026
-554.427	562.692	-0.019	0.046
-553.412	67.308	-0.375	-0.384
-552.398	-63.840	-0.330	0.135
-551.383	221.921	0.146	0.236
-550.369	-200.000	0.059	0.265
-549.354	-101.103	-0.204	-0.050
-548.339	-83.768	0.036	0.012
-547.325	-142.693	-0.162	0.016
-546.310	111.602	0.117	-0.142
-545.296	126.482	0.306	0.389
-544.281	800.000	0.010	0.035
-543.266	32.357	-0.114	0.099
-542.252	-52.981	0.479	-0.221
-541.237	-200.000	-0.004	-0.062
-540.223	-66.394	-0.124	0.049
-539.208	-87.776	0.410	-0.124
-538.193	-108.175	0.112	0.024
-537.179	139.061	-0.172	-0.227
-536.164	160.599	-0.138	-0.193
-535.150	-55.594	0.142	-0.064
-534.135	-117.883	-0.304	0.055
-533.121	-111.694	-0.251	0.051
-532.106	279.273	-0.044	0.079
-531.091	-84.937	-0.346	0.109
-530.077	247.619	-0.158	0.268
-529.062	-4.318	0.190	-0.132
-528.048	-200.000	-0.045	-0.000
-527.033	800.000	-0.065	0.214
-526.018	88.794	-0.113	0.126
-525.004	1.549	-0.318	-0.229
-523.989	-129.972	0.277	0.038
-522.975	4.501	-0.195	0.143
-521.960	-200.000	-0.037	0.391
-520.945	339.613	-0.187	0.366
-519.931	599.111	0.084	-0.210
-518.916	53.524	-0.194	0.187
-517.902	305.395	0.050	-0.094
-516.887	-6.833	0.258	-0.176
-515.872	-115.608	-0.362	-0.068
-514.858	-121.687	0.283	0.047
-513.843	-200.000	0.036	-0.172
-512.829	-102.979	-0.292	0.069
-511.814	-30.618	-0.194	0.110
-510.799	-130.652	-0.473	0.064
-509.785	179.812	-0.158	0.232
-508.770	685.733	0.133	0.350
-507.756	-200.000	-0.004	0.207
-506.741	110.999	-0.213	-0.257
-505.726	-126.994	-0.190	-0.028
-504.712	423.583	0.103	-0.223
-503.697	-111.935	0.126	-0.025
-502.683	27.628	-0.068	0.057
-501.668	-4.640	0.255	0.176
-500.653	-200.000	0.001	-0.360
-499.639	-21.286	-0.104	-0.064
-498.624	108.654	0.181	-0.217
-497.610	-100.677	0.068	0.017
-496.595	480.441	0.101	0.231
-495.581	-155.211	0.037	-0.002
-494.566	-200.000	0.002	0.105
-493.551	-200.000	-0.051	0.307
-492.537	800.000	0.089	-0.341
-491.522	-164.141	0.168	0.008
-490.508	-200.000	0.001	-0.374
-489.493	19.191	0.098	-0.079
-488.478	60.413	-0.114	0.113
-487.464	-121.285	0.361	0.060
-486.449	-54.976	0.405	0.183
-485.435	-200.000	0.098	0.460
-484.420	-115.077	0.454	0.086
-483.405	-13.490	0.049	-0.032
-482.391	143.429	-0.225	-0.300
-481.376	-87.038	0.245	0.075
-480.362	800.000	0.039	-0.165
-479.347	287.113	-0.098	0.178
-478.332	-98.718	0.290	0.074
-477.318	-3.760	-0.061	-0.042
-476.303	-9.338	0.145	0.097
-475.289	474.563	-0.082	-0.184
-474.274	-167.491	-0.167	-0.007
-473.259	-95.148	-0.191	-0.052
-472.245	-142.753	-0.086	0.008
-471.230	-200.000	0.018	-0.092
-470.216	290.160	-0.072	0.131
-469.201	72.338	0.141	0.147
-468.186	105.123	-0.143	0.169
-467.172	102.618	-0.075	0.088
-466.157	240.364	0.123	0.206
-465.143	-132.174	-0.102	0.013
-464.128	-200.000	0.053	0.356
-463.113	-87.414	-0.136	-0.041
-462.099	11.035	0.131	-0.100
-461.084	-200.000	-0.059	-0.279
-460.070	691.880	-0.074	-0.194
-459.055	-11.783	0.067	-0.044
-458.040	385.203	-0.152	0.314
-457.026	-200.000	-0.011	-0.058
-456.011	-200.000	-0.010	0.177
-454.997	56.233	0.122	-0.118
-453.982	800.000	-0.099	-0.419
-452.968	5.585	-0.109	-0.080
-451.953	34.234	0.029	-0.025
-450.938	12.725	-0.210	-0.163
-449.924	-163.117	-0.142	-0.007
-448.909	347.713	-0.239	-0.471
-447.895	13.621	-0.275	-0.214
-446.880	-150.899	0.017	0.001
-445.865	800.000	0.096	0.291
-444.851	351.443	-0.129	0.255
-443.836	664.731	0.109	0.282
-442.822	26.419	-0.234	0.196
-441.807	53.739	0.229	0.220
-440.792	800.000	-0.043	-0.179
-439.778	-119.145	0.078	-0.014
-438.763	109.064	-0.220	0.263
-437.749	800.000	-0.105	-0.308
-436.734	-200.000	-0.049	0.292
-435.719	-200.000	-0.016	-0.235
-434.705	-83.113	-0.109	-0.035
-433.690	-200.000	-0.038	-0.198
-432.676	-139.126	-0.214	0.023
-431.661	-200.000	-0.006	0.361
-430.646	311.036	-0.113	0.211
-429.632	-24.976	0.009	0.005
-428.617	172.556	-0.053	-0.076
-427.603	80.011	-0.061	-0.066
-426.588	430.303	0.109	0.236
-425.573	172.129	0.102	0.147
-424.559	602.040	0.117	-0.290
-423.544	88.167	-0.160	-0.178
-422.530	529.038	0.054	-0.127
-421.515	51.216	-0.225	-0.213
-420.500	-101.754	-0.092	0.022
-419.486	-84.043	-0.358	0.114
-418.471	70.579	0.045	-0.046
-417.457	-54.113	-0.293	0.133
-416.442	-5.158	0.143	-0.098
-415.428	-200.000	0.000	0.121
-414.413	51.214	-0.210	-0.199
-413.398	148.516	0.175	-0.237
-412.384	88.012	-0.149	-0.165
-411.369	800.000	0.043	-0.158
-410.355	-200.000	0.010	0.132
-409.340	800.000	0.052	0.211
-408.325	-200.000	0.005	0.180
-407.311	800.000	-0.033	0.131
-406.296	-54.244	-0.241	0.109
-405.282	123.474	0.222	0.278
-404.267	-20.989	0.105	-0.064
-403.252	-38.968	-0.149	-0.078
-402.238	111.059	-0.125	-0.150
-401.223	-11.006	0.158	0.104
-400.209	-87.136	-0.172	0.052
-399.194	-58.806	-0.114	-0.049
-398.179	-61.759	-0.221	-0.092
-397.165	-53.981	0.203	-0.092
-396.150	-113.303	0.301	-0.059
-395.136	-200.000	0.078	-0.368
-394.121	211.758	-0.220	0.347
-393.106	78.519	-0.121	0.130
-392.092	74.418	0.302	-0.316
-391.077	-140.237	-0.495	0.052
-390.063	94.475	0.037	0.042
-389.048	-92.915	0.250	-0.070
-388.033	-105.239	0.110	0.025
-387.019	15.551	0.215	-0.168
-386.004	148.231	-0.052	-0.069
-384.990	800.000	-0.032	0.131
-383.975	-33.239	0.088	0.049
-382.960	-143.048	0.207	0.020
-381.946	-200.000	0.025	0.316
-380.931	705.817	-0.071	0.187
-379.917	660.476	-0.053	-0.137
-378.902	-167.666	0.165	-0.007
-377.888	800.000	0.054	0.177
-376.873	670.765	-0.104	0.269
-375.858	-78.669	-0.102	-0.035
-374.844	-131.291	0.483	-0.064
-373.829	-127.248	0.042	-0.006
-372.815	-200.000	-0.016	-0.227
-371.800	-200.000	0.009	0.185
-370.785	-101.153	0.067	-0.016
-369.771	387.926	-0.148	0.305
-368.756	551.303	0.051	-0.123
-367.742	288.799	0.065	-0.117
-366.727	618.666	-0.147	0.368
-365.712	-59.229	-0.345	0.148
-364.698	-95.156	0.045	0.012
-363.683	189.337	0.062	0.092
-362.669	-138.732	-0.261	-0.028
-361.654	627.770	-0.096	0.243
-360.639	-56.513	-0.154	0.068
-359.625	-200.000	0.016	0.154
-358.610	-60.916	-0.250	0.105
-357.596	-98.951	-0.128	0.032
-356.581	-49.416	-0.148	-0.070
-355.566	-200.000	-0.015	-0.119
-354.552	116.306	-0.126	-0.154
-353.537	800.000	0.099	-0.343
-352.523	624.358	0.028	-0.069
-351.508	108.590	0.184	-0.219
-350.493	-200.000	0.035	-0.168
-349.479	31.695	-0.183	0.157
-348.464	344.871	0.060	-0.118
-347.450	268.556	-0.084	-0.148
-346.435	-200.000	0.034	0.349
-345.420	-200.000	0.008	-0.291
-344.406	800.000	-0.022	-0.081
-343.391	-40.870	0.307	-0.158
-342.377	-52.798	-0.139	0.064
-341.362	71.846	-0.134	-0.139
-340.348	-18.538	0.310	-0.193
-339.333	260.831	0.138	-0.238
-338.318	-94.340	0.341	-0.093
-337.304	241.676	0.186	0.310
-336.289	579.845	-0.089	-0.217
-335.275	21.446	0.029	0.024
-334.260	-15.206	-0.030	0.019
-333.245	93.741	0.077	-0.087
-332.231	800.000	-0.063	-0.189
-331.216	800.000	-0.044	0.166
-330.202	-14.987	-0.115	0.073
-329.187	-200.000	0.009	-0.334
-328.172	162.607	0.107	-0.150
-327.158	800.000	0.072	0.265
-326.143	17.075	-0.208	0.164
-325.129	800.000	-0.079	0.290
-324.114	-125.981	-0.249	0.037
-323.099	-119.174	0.277	-0.048
-322.085	-153.328	-0.387	0.027
-321.070	-64.252	-0.374	0.152
-320.056	-48.345	-0.173	-0.083
-319.041	-80.385	-0.025	-0.008
-318.026	-107.722	-0.228	0.050
-317.012	-88.920	-0.194	-0.057
-315.997	-2.470	0.466	-0.325
-314.983	-200.000	-0.036	-0.207
-313.968	800.000	0.044	-0.181
-312.953	-60.910	0.387	-0.163
-311.939	-101.491	-0.085	-0.020
-310.924	-15.437	0.323	0.205
-309.910	48.941	0.063	0.059
-308.895	-74.782	-0.395	0.141
-307.880	-80.335	-0.356	-0.119
-306.866	68.698	0.219	-0.224
-305.851	-68.413	0.285	0.110
-304.837	800.000	-0.112	0.370
-303.822	234.296	0.095	-0.156
-302.807	5.958	0.178	-0.131
-301.793	-113.493	0.351	-0.068
-300.778	141.892	-0.100	-0.132
-299.764	18.399	0.223	-0.177
-298.749	-128.503	0.158	-0.022
-297.735	70.912	0.211	0.217
-296.720	376.920	0.118	0.240
-295.705	151.344	-0.047	-0.064
-294.691	-20.859	-0.181	-0.111
-293.676	-200.000	-0.036	-0.227
-292.662	-200.000	0.000	0.109
-291.647	-56.741	-0.453	0.199
-290.632	-71.894	-0.183	-0.068
-289.618	-200.000	-0.069	0.322
-288.603	-106.806	0.198	0.044
-287.589	-118.071	0.153	0.027
-286.574	-200.000	0.003	-0.301
-285.559	-151.773	0.191	0.014
-284.545	89.582	-0.200	0.221
-283.530	-36.347	0.402	-0.216
-282.516	-177.729	0.164	0.004
-281.501	-96.020	0.256	0.068
-280.486	361.158	-0.056	-0.112
-279.472	-46.176	0.166	0.081
-278.457	-48.983	0.239	0.114
-277.443	263.901	-0.071	0.123
-276.428	800.000	-0.031	-0.105
-275.413	-167.872	-0.121	0.005
-274.399	-103.311	0.219	0.051
-273.384	42.408	-0.052	-0.047
-272.370	-105.723	-0.229	-0.052
-271.355	-200.000	0.000	-0.129
-270.340	-0.921	0.149	-0.105
-269.326	800.000	0.102	0.282
-268.311	-62.653	-0.258	0.106
-267.297	-134.921	0.097	0.012
-266.282	282.630	0.061	-0.110
-265.267	-167.822	-0.296	-0.012
-264.253	446.798	0.090	0.196
-263.238	-2.772	0.269	-0.187
-262.224	480.426	0.076	0.172
-261.209	-200.000	0.057	0.384
-260.195	800.000	-0.072	0.275
-259.180	-189.509	-0.271	-0.003
-258.165	-156.947	-0.238	-0.014
-257.151	-46.024	0.199	0.097
-256.136	-25.056	0.172	0.101
-255.122	4.724	0.189	-0.138
-254.107	-40.191	0.074	0.038
-253.092	-200.000	0.024	-0.218
-252.078	-200.000	-0.019	-0.199
-251.063	-83.975	-0.189	0.060
-250.049	24.107	-0.043	-0.035
-249.034	-71.661	0.140	0.052
-248.019	-73.607	-0.017	-0.006
-247.005	212.419	0.015	0.023
-245.990	90.279	-0.487	-0.541
-244.976	-200.000	-0.019	0.175
-243.961	-87.660	0.182	-0.054
-242.946	29.584	0.164	-0.138
-241.932	-1.582	-0.077	0.054
-240.917	140.524	-0.237	-0.311
-239.903	219.214	-0.023	-0.036
-238.888	-200.000	0.018	0.175
-237.873	-36.380	0.377	-0.202
-236.859	800.000	0.019	-0.066
-235.844	-126.797	0.321	0.047
-234.830	-200.000	-0.066	-0.352
-233.815	-74.211	0.187	0.067
-232.800	-200.000	0.033	0.206
-231.786	-200.000	0.010	0.123
-230.771	19.092	-0.359	0.285
-229.757	-85.383	-0.350	0.108
-228.742	775.100	0.013	-0.036
-227.727	-89.331	-0.251	0.073
-226.713	-200.000	-0.012	-0.356
-225.698	800.000	0.079	0.301
-224.684	66.271	0.123	0.124
-223.669	-93.096	0.026	0.007
-222.655	61.266	-0.112	-0.111
-221.640	-103.349	0.460	0.108
-220.625	-135.472	-0.369	0.044
-219.611	220.866	-0.255	-0.407
-218.596	614.337	0.094	-0.233
-217.582	-177.306	-0.137	0.003
-216.567	-73.765	0.315	-0.114
-215.552	-41.541	0.208	-0.106
-214.538	326.827	-0.212	-0.403
-213.523	-200.000	-0.002	0.258
-212.509	664.021	0.032	0.083
-211.494	34.345	-0.253	0.219
-210.479	178.092	-0.181	-0.262
-209.465	800.000	0.051	0.140
-208.450	800.000	0.104	0.384
-207.436	-200.000	-0.004	0.043
-206.421	800.000	0.101	0.285
-205.406	-200.000	-0.100	-0.474
-204.392	800.000	-0.092	-0.397
-203.377	39.817	-0.202	-0.179
-202.363	139.996	0.116	-0.152
-201.348	101.907	-0.208	0.240
-200.333	374.661	-0.159	0.322
-199.319	-136.943	-0.482	0.055
-198.304	64.157	0.143	-0.142
-197.290	-106.912	0.336	0.074
-196.275	-125.755	-0.062	0.009
-195.260	204.932	0.123	-0.189
-194.246	-18.924	0.123	0.076
-193.231	99.408	-0.081	0.093
-192.217	94.751	-0.054	-0.061
-191.202	-160.385	0.082	0.004
-190.187	28.576	0.355	0.298
-189.173	113.299	-0.210	0.253
-188.158	-200.000	0.015	-0.102
-187.144	-121.883	0.128	0.021
-186.129	-200.000	-0.002	0.000
-185.114	121.864	-0.036	-0.044
-184.100	379.350	-0.120	-0.244
-183.085	691.265	0.109	-0.282
-182.071	142.356	-0.055	-0.073
-181.056	51.571	0.297	-0.280
-180.042	426.630	0.065	0.139
-179.027	800.000	-0.061	-0.210
-178.012	-83.242	-0.216	-0.069
-176.998	-114.885	-0.049	0.009
-175.983	190.174	0.064	0.095
-174.969	-132.086	-0.160	-0.021
-173.954	-200.000	-0.021	0.123
-172.939	-200.000	0.002	0.173
-171.925	10.549	0.151	-0.114
-170.910	387.256	0.130	-0.265
-169.896	-106.038	-0.184	-0.041
-168.881	-146.943	-0.243	-0.021
-167.866	-200.000	0.007	-0.117
-166.852	-106.141	0.279	-0.062
-165.837	174.150	0.112	-0.159
-164.823	-47.724	0.200	-0.096
-163.808	-200.000	-0.047	0.275
-162.793	407.121	0.144	-0.301
-161.779	-21.510	0.050	-0.030
-160.764	-49.268	0.101	-0.048
-159.750	559.268	0.018	0.042
-158.735	-200.000	-0.015	0.130
-157.720	37.685	0.098	-0.086
-156.706	-90.812	0.159	0.045
-155.691	154.583	-0.067	0.091
-154.677	800.000	-0.082	-0.330
-153.662	55.959	-0.363	0.349
-152.647	-200.000	-0.064	-0.303
-151.633	-200.000	-0.029	-0.128
-150.618	154.823	-0.248	-0.337
-149.604	-43.404	0.358	0.179
-148.589	-182.941	-0.062	-0.001
-147.574	72.961	-0.179	0.185
-146.560	800.000	0.035	0.132
-145.545	143.946	0.054	-0.071
-144.531	484.893	0.057	0.129
-143.516	-200.000	0.009	0.076
-142.502	-190.611	-0.090	-0.001
-141.487	97.144	-0.059	0.067
-140.472	149.317	-0.099	0.132
-139.458	-161.302	-0.171	-0.009
-138.443	-200.000	-0.011	0.229
-137.429	800.000	0.068	0.206
-136.414	121.638	0.064	-0.079
-135.399	97.925	-0.116	-0.132
-134.385	-173.469	0.192	0.006
-133.370	105.025	-0.178	-0.207
-132.356	-31.414	-0.321	-0.178
-131.341	52.737	-0.286	0.271
-130.326	-90.735	0.169	0.048
-129.312	-107.745	0.186	-0.040
-128.297	20.882	0.313	-0.250
-127.283	528.980	-0.124	0.289
-126.268	-200.000	0.002	-0.210
-125.253	-200.000	-0.010	0.080
-124.239	238.106	-0.078	0.128
-123.224	105.212	0.251	0.292
-122.210	-87.607	0.181	0.054
