DTS Sentinel unit serial number:	SN413079Multiplexer serial number:	ORYXHardware model number:	OX4-SRSoftware version number:	ORYX F/W v4.00 Oryx Data Collector v3.7.2.0data status	okinstallation	princeton_trtdifferential loss correction	single-endedforward channel	channel 4reverse channel	N/Adate	2019/09/10time	16:03:10forward acquisition time	60.00reverse acquisition time	0.00gamma	496.2192k internal	0.2294k external	0.2294temperature offset calibration	0.9935default loss term (dB/km)	0.3790temperature slope calibration	1.0000multiplexer offset coefficient	1.0000multiplexer slope coefficient	1.0000fibre end	0.00T internal ref (°C)	38.25T ext. ref 1 (°C)	-0.26T ext. ref 2 (°C)	32.60length (m)	temperature (°C)	Stokes	anti-Stokes-747.200	-126.028	-0.161	-0.025
-746.185	402.231	-0.195	0.419
-745.171	-136.416	-0.131	-0.016
-744.156	-200.000	0.038	0.261
-743.142	-200.000	0.010	0.112
-742.127	20.168	-0.190	-0.157
-741.112	-200.000	0.014	0.095
-740.098	59.344	-0.268	0.270
-739.083	-131.746	-0.152	0.020
-738.069	-36.635	0.307	0.169
-737.054	257.506	0.290	-0.509
-736.039	800.000	-0.139	0.483
-735.025	99.841	-0.173	0.205
-734.010	254.538	0.104	0.181
-732.996	42.254	-0.037	-0.035
-731.981	-94.280	-0.079	-0.022
-730.966	79.058	-0.324	-0.355
-729.952	-36.282	0.272	0.150
-728.937	242.751	-0.131	0.224
-727.923	90.619	-0.079	0.091
-726.908	-69.790	-0.095	-0.037
-725.894	-2.819	-0.089	-0.064
-724.879	-8.150	0.057	-0.039
-723.864	800.000	-0.090	-0.319
-722.850	-74.391	0.212	0.078
-721.835	554.274	-0.050	-0.123
-720.821	800.000	0.056	-0.209
-719.806	-200.000	0.009	0.088
-718.791	230.029	0.069	-0.115
-717.777	-23.881	-0.085	0.052
-716.762	637.856	-0.163	-0.424
-715.748	419.956	-0.073	-0.159
-714.733	53.512	-0.332	-0.325
-713.718	55.639	-0.194	0.192
-712.704	-200.000	-0.014	-0.143
-711.689	800.000	0.039	0.127
-710.675	326.103	-0.124	0.243
-709.660	773.833	-0.011	-0.032
-708.645	21.904	-0.383	-0.319
-707.631	-200.000	0.061	-0.361
-706.616	3.681	-0.164	0.122
-705.602	800.000	0.041	-0.122
-704.587	326.162	-0.058	0.113
-703.572	-200.000	0.002	-0.238
-702.558	-99.139	-0.198	-0.051
-701.543	-200.000	0.028	0.400
-700.529	103.497	-0.247	-0.296
-699.514	-200.000	-0.036	-0.195
-698.499	-38.454	-0.196	-0.106
-697.485	-133.279	0.286	-0.037
-696.470	-59.938	-0.176	-0.077
-695.456	-200.000	0.071	-0.394
-694.441	9.622	0.094	-0.073
-693.426	408.316	-0.080	-0.173
-692.412	-200.000	0.048	-0.246
-691.397	-88.187	0.199	-0.061
-690.383	-200.000	-0.046	-0.439
-689.368	-200.000	0.035	-0.236
-688.354	800.000	-0.072	-0.242
-687.339	97.447	-0.031	0.037
-686.324	-49.662	-0.334	0.162
-685.310	-200.000	-0.015	-0.176
-684.295	19.366	-0.053	0.044
-683.281	-200.000	-0.046	-0.217
-682.266	18.884	-0.057	-0.046
-681.251	-100.724	-0.375	0.094
-680.237	-93.378	-0.221	0.062
-679.222	800.000	0.042	-0.162
-678.208	247.919	0.139	-0.240
-677.193	381.597	-0.117	-0.246
-676.178	30.544	0.262	-0.228
-675.164	-140.718	-0.201	-0.021
-674.149	-101.320	0.263	-0.065
-673.135	142.803	-0.452	-0.613
-672.120	-29.776	0.106	-0.062
-671.105	-16.360	-0.279	-0.181
-670.091	-200.000	0.026	-0.142
-669.076	-74.875	0.327	0.120
-668.062	-151.689	-0.244	-0.018
-667.047	-47.994	-0.192	0.095
-666.032	-121.776	0.309	-0.052
-665.018	-35.671	-0.180	0.099
-664.003	37.283	-0.096	-0.087
-662.989	-56.405	0.070	0.032
-661.974	-200.000	0.019	-0.238
-660.959	-64.817	0.240	0.099
-659.945	156.726	0.126	-0.177
-658.930	-200.000	0.022	0.289
-657.916	-22.387	-0.450	-0.278
-656.901	-79.113	0.312	0.108
-655.886	104.270	0.158	0.189
-654.872	235.231	0.107	-0.181
-653.857	233.500	-0.159	0.267
-652.843	800.000	-0.028	-0.121
-651.828	-200.000	0.022	-0.275
-650.814	208.991	0.074	-0.117
-649.799	682.667	-0.050	0.132
-648.784	-200.000	0.059	0.000
-647.770	546.832	0.103	0.252
-646.755	129.649	-0.125	0.163
-645.741	-24.803	-0.296	0.179
-644.726	415.406	-0.079	-0.171
-643.711	289.840	0.268	-0.496
-642.697	221.202	0.058	-0.095
-641.682	116.003	0.161	0.201
-640.668	800.000	-0.066	0.241
-639.653	800.000	0.046	0.162
-638.638	15.027	-0.206	-0.164
-637.624	-200.000	0.046	0.337
-636.609	38.997	0.230	-0.210
-635.595	-100.634	-0.358	0.090
-634.580	-200.000	0.006	0.037
-633.565	-200.000	-0.003	-0.112
-632.551	-200.000	-0.063	0.486
-631.536	51.295	-0.190	0.184
-630.522	-200.000	0.044	-0.249
-629.507	800.000	0.026	-0.080
-628.492	-200.000	0.022	0.225
-627.478	-92.535	-0.214	0.061
-626.463	-200.000	0.052	-0.241
-625.449	130.852	0.044	-0.057
-624.434	800.000	0.052	0.170
-623.419	-7.736	-0.146	-0.100
-622.405	174.368	-0.190	0.280
-621.390	432.689	-0.098	-0.216
-620.376	-187.313	-0.163	-0.002
-619.361	-30.568	-0.063	0.036
-618.346	800.000	-0.035	-0.128
-617.332	102.173	0.205	-0.243
-616.317	-14.462	0.098	0.064
-615.303	-200.000	0.021	0.131
-614.288	-85.099	-0.066	0.021
-613.273	521.949	0.006	-0.013
-612.259	-200.000	-0.061	-0.286
-611.244	82.522	-0.377	-0.416
-610.230	-66.312	0.189	-0.076
-609.215	-200.000	-0.082	-0.462
-608.201	9.406	0.151	0.116
-607.186	357.095	-0.028	-0.056
-606.171	72.073	-0.074	0.078
-605.157	78.117	-0.146	-0.159
-604.142	22.914	-0.271	0.226
-603.128	-200.000	-0.015	-0.239
-602.113	800.000	0.064	0.279
-601.098	674.503	0.054	0.143
-600.084	-67.614	0.215	0.086
-599.069	800.000	0.062	0.206
-598.055	105.260	-0.151	-0.181
-597.040	800.000	-0.126	0.502
-596.025	-200.000	-0.051	0.403
-595.011	568.740	0.099	-0.244
-593.996	20.857	0.182	0.150
-592.982	207.882	0.065	0.102
-591.967	-200.000	-0.001	0.305
-590.952	684.160	0.058	0.155
-589.938	532.289	0.142	0.342
-588.923	-34.777	0.049	0.027
-587.909	-200.000	-0.020	0.148
-586.894	-200.000	0.057	-0.321
-585.879	-200.000	0.043	0.271
-584.865	-14.010	0.294	-0.193
-583.850	-200.000	-0.037	-0.195
-582.836	-200.000	0.031	0.199
-581.821	213.781	0.063	-0.102
-580.806	180.903	0.056	0.084
-579.792	446.458	0.088	-0.197
-578.777	-200.000	0.039	-0.280
-577.763	-200.000	0.034	-0.419
-576.748	42.311	0.189	-0.174
-575.733	34.041	-0.243	-0.215
-574.719	-64.027	0.137	0.057
-573.704	-82.183	-0.292	0.097
-572.690	-30.526	-0.365	0.210
-571.675	800.000	-0.089	-0.330
-570.661	-49.806	-0.198	0.096
-569.646	173.369	0.133	0.194
-568.631	-31.409	-0.093	-0.053
-567.617	-200.000	0.017	0.264
-566.602	-166.305	-0.155	-0.007
-565.588	537.844	-0.115	-0.278
-564.573	-136.001	0.136	-0.016
-563.558	-124.634	-0.135	0.021
-562.544	351.600	-0.211	0.425
-561.529	-34.060	-0.278	0.155
-560.515	800.000	-0.038	-0.119
-559.500	131.612	0.101	0.132
-558.485	-67.331	0.264	-0.106
-557.471	91.897	0.111	-0.127
-556.456	34.678	0.100	0.089
-555.442	326.390	0.167	-0.326
-554.427	-188.607	0.084	0.001
-553.412	-105.659	0.374	-0.086
-552.398	-128.594	0.078	-0.011
-551.383	-98.304	0.096	-0.025
-550.369	-16.913	0.275	0.177
-549.354	-36.262	-0.121	-0.066
-548.339	-200.000	-0.001	-0.300
-547.325	-152.305	-0.239	0.017
-546.310	-18.896	-0.056	-0.036
-545.296	249.927	-0.111	-0.192
-544.281	82.618	0.043	-0.047
-543.266	115.412	0.103	0.127
-542.252	-22.046	-0.237	0.146
-541.237	-31.612	-0.265	0.151
-540.223	161.317	-0.209	0.297
-539.208	646.841	0.101	-0.262
-538.193	145.236	-0.183	-0.248
-537.179	56.576	0.084	-0.083
-536.164	-8.971	0.055	-0.037
-535.150	570.644	-0.101	0.250
-534.135	-200.000	-0.035	-0.248
-533.121	800.000	-0.081	-0.307
-532.106	41.946	-0.171	-0.157
-531.091	-124.932	-0.367	-0.057
-530.077	109.718	0.056	-0.068
-529.062	20.118	0.066	-0.054
-528.048	-66.951	0.345	-0.138
-527.033	84.245	-0.107	-0.119
-526.018	115.405	0.181	-0.224
-525.004	-200.000	0.025	-0.131
-523.989	39.660	0.300	-0.273
-522.975	-91.189	-0.168	-0.049
-521.960	-95.506	0.149	0.040
-520.945	-200.000	-0.020	0.109
-519.931	-200.000	0.017	0.079
-518.916	-200.000	0.009	-0.106
-517.902	-16.852	-0.310	0.199
-516.887	81.082	0.194	0.212
-515.872	-120.959	0.174	0.030
-514.858	95.001	-0.090	-0.104
-513.843	-80.082	-0.105	-0.036
-512.829	-7.222	-0.285	0.196
-511.814	-154.859	0.297	-0.020
-510.799	6.518	-0.129	-0.097
-509.785	671.418	-0.087	-0.228
-508.770	58.722	-0.386	0.385
-507.756	-135.687	0.226	0.027
-506.741	-200.000	0.007	-0.046
-505.726	23.316	0.205	-0.171
-504.712	8.286	-0.049	-0.037
-503.697	800.000	0.106	-0.393
-502.683	184.330	-0.103	-0.154
-501.668	-68.447	0.427	0.168
-500.653	-35.879	-0.226	0.124
-499.639	-200.000	0.078	0.358
-498.624	80.410	-0.048	-0.053
-497.610	-125.446	0.089	-0.014
-496.595	-113.477	0.221	-0.044
-495.581	-94.519	0.098	-0.027
-494.566	3.165	0.289	0.213
-493.551	-200.000	-0.016	-0.116
-492.537	-200.000	0.017	-0.217
-491.522	74.815	0.125	-0.133
-490.508	-146.235	0.282	-0.025
-489.493	-55.662	-0.087	-0.039
-488.478	800.000	0.016	0.055
-487.464	-200.000	0.035	-0.184
-486.449	75.824	0.218	0.233
-485.435	-63.554	0.222	-0.092
-484.420	-105.590	0.234	0.054
-483.405	-58.214	0.069	0.030
-482.391	-200.000	0.073	-0.397
-481.376	-108.813	-0.238	0.051
-480.362	-135.309	-0.319	0.039
-479.347	-46.835	-0.160	0.079
-478.332	102.275	-0.126	0.149
-477.318	69.684	0.131	0.136
-476.303	800.000	0.049	-0.149
-475.289	-50.414	-0.069	0.033
-474.274	576.485	-0.130	0.322
-473.259	800.000	-0.055	0.204
-472.245	-37.291	0.207	0.112
-471.230	800.000	0.101	-0.342
-470.216	257.473	0.158	-0.274
-469.201	305.215	-0.170	0.319
-468.186	-142.194	-0.274	-0.027
-467.172	-34.840	-0.278	0.154
-466.157	154.674	0.077	0.106
-465.143	-200.000	0.010	0.140
-464.128	-20.379	0.069	0.043
-463.113	422.880	-0.012	-0.027
-462.099	159.005	-0.105	0.148
-461.084	0.291	-0.088	0.064
-460.070	62.580	0.169	0.171
-459.055	-106.395	-0.220	-0.050
-458.040	-200.000	-0.002	-0.095
-457.026	-94.727	0.363	0.100
-456.011	-200.000	-0.017	0.117
-454.997	590.655	-0.059	-0.147
-453.982	135.445	0.144	0.190
-452.968	-114.809	0.175	0.034
-451.953	-131.230	-0.263	-0.035
-450.938	-200.000	0.028	0.239
-449.924	-72.686	0.379	0.141
-448.909	-1.413	0.055	0.039
-447.895	107.509	-0.076	-0.092
-446.880	-32.802	0.289	-0.162
-445.865	-99.955	-0.171	0.043
-444.851	201.103	0.112	-0.174
-443.836	59.130	0.184	-0.183
-442.822	-6.912	-0.308	0.212
-441.807	-101.104	-0.061	-0.015
-440.792	800.000	0.067	0.267
-439.778	800.000	-0.024	0.103
-438.763	147.708	0.069	-0.094
-437.749	800.000	-0.029	0.127
-436.734	441.245	-0.135	-0.298
-435.719	800.000	0.059	0.228
-434.705	800.000	-0.018	-0.060
-433.690	98.355	-0.132	-0.154
-432.676	-21.529	0.138	-0.085
-431.661	800.000	0.013	-0.041
-430.646	501.660	-0.081	0.188
-429.632	-26.154	0.279	0.165
-428.617	-6.878	-0.079	-0.055
-427.603	800.000	0.058	-0.214
-426.588	800.000	0.070	-0.302
-425.573	-136.553	0.374	-0.044
-424.559	9.488	-0.202	-0.154
-423.544	-48.593	-0.089	-0.043
-422.530	800.000	0.013	-0.051
-421.515	-26.290	-0.100	0.059
-420.500	-167.197	0.231	-0.009
-419.486	4.934	0.115	0.086
-418.471	-65.166	-0.228	-0.093
-417.457	20.854	0.045	0.036
-416.442	118.469	0.110	-0.137
-415.428	-25.280	-0.223	0.133
-414.413	-17.558	-0.117	0.074
-413.398	-57.787	0.181	-0.080
-412.384	297.359	0.078	-0.144
-411.369	800.000	0.041	0.131
-410.355	-53.583	-0.190	0.088
-409.340	-200.000	0.014	0.127
-408.325	-200.000	-0.042	0.245
-407.311	-100.627	-0.235	-0.059
-406.296	-200.000	-0.048	0.228
-405.282	-200.000	0.060	-0.301
-404.267	148.111	-0.125	-0.170
-403.252	197.572	0.055	0.084
-402.238	-107.678	0.305	-0.067
-401.223	-125.838	0.077	-0.012
-400.209	212.079	0.176	0.279
-399.194	800.000	0.101	-0.382
-398.179	-47.610	-0.091	0.045
-397.165	491.213	0.144	-0.332
-396.150	228.029	-0.056	-0.092
-395.136	153.163	-0.110	0.152
-394.121	-107.146	-0.221	-0.049
-393.106	-41.364	-0.056	-0.029
-392.092	-133.559	-0.250	-0.032
-391.077	-56.325	-0.395	0.177
-390.063	-200.000	-0.020	-0.104
-389.048	800.000	0.032	-0.130
-388.033	-200.000	0.014	0.206
-387.019	-200.000	-0.020	-0.235
-386.004	213.014	-0.062	0.098
-384.990	-148.599	0.159	-0.013
-383.975	-200.000	0.032	-0.154
-382.960	159.097	-0.031	0.043
-381.946	-164.043	-0.232	0.011
-380.931	-44.856	0.383	-0.193
-379.917	800.000	0.046	0.152
-378.902	6.783	0.208	0.156
-377.888	800.000	-0.040	-0.155
-376.873	800.000	-0.114	0.343
-375.858	194.012	-0.135	-0.207
-374.844	-200.000	-0.034	-0.315
-373.829	-95.073	0.162	-0.044
-372.815	-144.085	0.080	0.008
-371.800	543.774	-0.079	-0.190
-370.785	-91.270	-0.329	-0.095
-369.771	-20.649	0.039	-0.024
-368.756	117.371	-0.136	-0.169
-367.742	-14.362	-0.238	-0.155
-366.727	-117.106	-0.094	0.017
-365.712	-18.655	0.049	0.031
-364.698	492.656	-0.115	0.265
-363.683	-62.854	0.442	-0.184
-362.669	-200.000	0.015	0.253
-361.654	184.812	-0.076	0.113
-360.639	-97.688	-0.111	-0.029
-359.625	71.384	0.250	0.261
-358.610	800.000	-0.077	-0.216
-357.596	91.599	-0.238	-0.270
-356.581	94.195	-0.210	-0.240
-355.566	-36.338	0.093	0.051
-354.552	800.000	0.087	-0.298
-353.537	567.152	0.049	0.119
-352.523	-200.000	-0.000	-0.019
-351.508	-98.497	-0.190	-0.049
-350.493	800.000	0.038	-0.144
-349.479	-75.105	-0.143	-0.052
-348.464	447.432	-0.155	-0.343
-347.450	-125.299	0.254	-0.039
-346.435	432.199	0.115	0.250
-345.420	746.209	-0.119	-0.323
-344.406	332.037	0.034	0.067
-343.391	-165.194	-0.186	-0.008
-342.377	-200.000	-0.202	-0.001
-341.362	220.866	0.134	-0.217
-340.348	-125.669	-0.262	-0.040
-339.333	-88.439	-0.289	-0.087
-338.318	-88.603	-0.205	-0.061
-337.304	-91.491	0.204	0.059
-336.289	439.967	-0.080	-0.177
-335.275	277.435	-0.252	-0.452
-334.260	136.081	0.070	-0.092
-333.245	-63.213	-0.169	0.070
-332.231	473.175	0.118	-0.268
-331.216	15.904	-0.102	-0.081
-330.202	0.716	-0.166	0.119
-329.187	288.570	0.039	0.071
-328.172	287.607	0.076	0.138
-327.158	-102.036	-0.423	0.103
-326.143	-82.387	-0.127	-0.042
-325.129	-200.000	0.032	-0.164
-324.114	-25.527	0.146	0.087
-323.099	-150.815	0.223	-0.017
-322.085	210.739	0.185	-0.292
-321.070	-116.489	-0.180	0.033
-320.056	55.481	0.149	-0.145
-319.041	-200.000	-0.059	-0.285
-318.026	127.766	0.191	0.244
-317.012	64.300	-0.221	-0.224
-315.997	-200.000	-0.011	0.068
-314.983	-32.935	-0.182	0.102
-313.968	800.000	-0.023	-0.066
-312.953	800.000	-0.026	0.103
-311.939	-9.986	0.117	0.079
-310.924	-94.377	-0.160	-0.044
-309.910	-200.000	-0.012	0.103
-308.895	-118.905	-0.079	-0.014
-307.880	10.689	0.296	0.227
-306.866	46.954	0.171	0.160
-305.851	68.665	-0.227	0.234
-304.837	446.502	-0.017	0.037
-303.822	150.439	-0.142	-0.194
-302.807	123.404	-0.304	0.383
-301.793	25.492	0.194	-0.162
-300.778	210.796	0.025	-0.040
-299.764	-200.000	0.052	-0.000
-298.749	-200.000	0.025	-0.359
-297.735	-200.000	0.027	0.236
-296.720	-200.000	-0.040	0.286
-295.705	-86.111	0.273	0.085
-294.691	168.946	-0.201	-0.287
-293.676	60.248	-0.108	-0.107
-292.662	43.145	0.129	-0.119
-291.647	535.955	0.017	0.039
-290.632	-78.062	0.334	-0.115
-289.618	-200.000	-0.011	-0.256
-288.603	-200.000	0.052	-0.287
-287.589	66.288	-0.121	-0.123
-286.574	149.412	0.028	0.039
-285.559	-200.000	-0.008	-0.259
-284.545	-2.714	-0.206	0.145
-283.530	-22.939	0.139	-0.084
-282.516	437.276	-0.040	0.089
-281.501	800.000	0.040	-0.169
-280.486	800.000	0.086	-0.323
-279.472	107.088	-0.198	0.236
-278.457	-53.700	-0.108	-0.049
-277.443	-17.353	-0.188	-0.119
-276.428	-6.258	0.105	0.072
-275.413	800.000	-0.040	-0.132
-274.399	-79.672	-0.224	0.076
-273.384	-180.784	0.101	0.002
-272.370	-82.843	0.415	-0.135
-271.355	361.830	0.185	-0.372
-270.340	-117.992	0.141	-0.025
-269.326	-81.375	-0.096	0.032
-268.311	-16.999	-0.228	-0.144
-267.297	-200.000	-0.035	0.174
-266.282	-42.236	-0.319	0.163
-265.267	-28.492	0.114	0.066
-264.253	237.095	0.065	0.108
-263.238	127.252	0.151	0.192
-262.224	657.925	0.133	-0.342
-261.209	49.077	0.307	-0.289
-260.195	-53.520	-0.059	0.027
-259.180	11.323	0.157	0.120
-258.165	800.000	-0.102	0.311
-257.151	434.733	0.186	0.405
-256.136	459.912	-0.174	0.389
-255.122	-120.583	0.188	0.032
-254.107	145.414	-0.041	-0.056
-253.092	-172.193	0.404	0.013
-252.078	800.000	0.061	0.254
-251.063	-144.953	0.223	-0.020
-250.049	-193.354	0.104	0.001
-249.034	800.000	-0.009	0.034
-248.019	563.210	-0.076	0.185
-247.005	-200.000	-0.001	-0.063
-245.990	-200.000	0.049	0.228
-244.976	-28.218	-0.084	0.049
-243.961	-200.000	0.007	0.267
-242.946	271.663	0.174	0.308
-241.932	-4.379	0.209	0.145
-240.917	172.606	-0.091	-0.131
-239.903	293.448	-0.214	0.392
-238.888	-151.598	-0.272	0.020
-237.873	-131.497	0.109	0.014
-236.859	-124.104	0.173	0.027
-235.844	-57.334	0.211	-0.093
-234.830	-15.283	-0.233	-0.149
-233.815	55.893	0.033	0.032
-232.800	-136.571	0.249	0.029
-231.786	72.144	0.080	-0.084
-230.771	-200.000	-0.029	0.473
-229.757	153.279	0.197	0.270
-228.742	-141.977	-0.176	0.018
-227.727	-200.000	-0.009	0.086
-226.713	-118.434	0.439	-0.078
-225.698	408.095	-0.131	0.277
-224.684	49.261	-0.152	-0.144
-223.669	-54.195	0.139	0.063
-222.655	390.268	-0.042	-0.087
-221.640	800.000	0.016	-0.062
-220.625	-15.626	-0.319	-0.204
-219.611	364.803	0.146	0.294
-218.596	-69.387	0.163	0.063
-217.582	-105.123	0.429	-0.098
-216.567	-122.447	-0.383	0.062
-215.552	116.948	-0.162	0.200
-214.538	46.171	-0.090	0.083
-213.523	-1.073	-0.303	0.215
-212.509	-82.674	0.297	-0.096
-211.494	-99.732	0.304	0.076
-210.479	-200.000	-0.094	-0.420
-209.465	-84.217	-0.262	-0.083
-208.450	-53.463	0.089	0.041
-207.436	232.796	0.143	0.236
-206.421	-200.000	0.034	-0.151
-205.406	15.562	-0.297	-0.233
-204.392	211.396	0.201	-0.317
-203.377	-46.836	-0.290	-0.142
-202.363	-129.101	-0.211	0.029
-201.348	29.388	0.164	0.140
-200.333	-149.867	-0.403	-0.032
-199.319	56.057	-0.145	0.141
-198.304	-200.000	0.030	0.235
-197.290	13.394	0.187	0.145
-196.275	30.882	0.281	0.241
-195.260	-43.178	-0.185	0.094
-194.246	9.795	-0.561	0.426
-193.231	-127.077	0.392	-0.058
-192.217	-200.000	0.024	-0.165
-191.202	99.135	-0.173	-0.201
-190.187	-34.895	-0.274	0.150
-189.173	255.885	-0.042	0.072
-188.158	190.746	0.238	-0.357
-187.144	-100.790	0.141	0.035
-186.129	252.534	-0.161	0.275
-185.114	34.026	0.230	-0.201
-184.100	-200.000	-0.005	-0.105
-183.085	276.940	-0.187	0.332
-182.071	-200.000	0.003	-0.119
-181.056	72.546	0.275	-0.287
-180.042	25.172	-0.039	0.032
-179.027	109.307	-0.092	0.110
-178.012	51.542	0.152	0.145
-176.998	159.027	0.071	0.098
-175.983	730.073	0.092	-0.246
-174.969	-173.136	0.145	0.004
-173.954	800.000	-0.064	-0.195
-172.939	-54.601	-0.181	-0.082
-171.925	-200.000	-0.026	-0.143
-170.910	-200.000	-0.016	-0.143
-169.896	-155.714	0.317	-0.020
-168.881	-200.000	0.020	0.372
-167.866	431.036	0.048	-0.103
-166.852	444.588	0.196	0.431
-165.837	-80.587	0.283	0.094
-164.823	-102.264	0.036	-0.009
-163.808	-5.421	-0.191	0.131
-162.793	-117.470	-0.045	0.008
-161.779	-200.000	0.042	0.217
-160.764	-114.690	0.286	-0.055
-159.750	-112.944	0.068	-0.013
-158.735	-36.193	-0.335	0.181
-157.720	-17.909	0.128	0.080
-156.706	-154.956	0.163	0.011
-155.691	-200.000	-0.006	-0.047
-154.677	800.000	0.160	-0.456
-153.662	544.413	0.126	0.301
-152.647	800.000	0.051	0.204
-151.633	38.468	-0.438	0.390
-150.618	-85.504	0.110	-0.034
-149.604	31.483	-0.228	-0.196
-148.589	408.651	-0.201	-0.425
-147.574	-97.402	0.236	0.061
-146.560	-66.468	0.119	0.047
-145.545	-30.329	0.190	0.108
-144.531	-79.569	0.617	0.208
-143.516	-200.000	0.016	0.099
-142.502	786.378	-0.031	-0.085
-141.487	140.488	0.128	-0.169
-140.472	-111.852	0.177	-0.036
-139.458	800.000	0.115	-0.467
-138.443	269.784	0.181	0.318
-137.429	-200.000	-0.016	0.109
-136.414	-141.260	-0.236	0.024
-135.399	39.590	0.053	0.048
-134.385	-200.000	-0.189	-0.001
-133.370	52.214	0.151	0.143
-132.356	29.322	0.097	0.082
-131.341	-134.033	-0.057	0.007
-130.326	-126.397	0.366	-0.054
-129.312	-126.095	-0.322	0.048
-128.297	-69.241	0.077	0.029
-127.283	-200.000	0.028	-0.376
-126.268	800.000	0.122	-0.439
-125.253	-67.366	0.060	0.024
-124.239	-200.000	-0.054	0.389
-123.224	42.370	-0.164	0.149
-122.210	-200.000	0.036	-0.206
-121.195	800.000	-0.077	-0.218
