DTS Sentinel unit serial number:	SN413079Multiplexer serial number:	ORYXHardware model number:	OX4-SRSoftware version number:	ORYX F/W v4.00 Oryx Data Collector v3.7.2.0data status	okinstallation	princeton_trtdifferential loss correction	single-endedforward channel	channel 4reverse channel	N/Adate	2019/09/12time	05:47:11forward acquisition time	60.00reverse acquisition time	0.00gamma	496.2192k internal	0.2307k external	0.2307temperature offset calibration	1.0066default loss term (dB/km)	0.3790temperature slope calibration	1.0000multiplexer offset coefficient	1.0000multiplexer slope coefficient	1.0000fibre end	0.00T internal ref (°C)	32.00T ext. ref 1 (°C)	1.59T ext. ref 2 (°C)	27.52length (m)	temperature (°C)	Stokes	anti-Stokes-747.200	277.865	0.072	-0.130
-746.185	-130.105	0.088	0.012
-745.171	141.082	-0.058	0.078
-744.156	-157.643	-0.354	0.021
-743.142	56.460	-0.235	-0.233
-742.127	-105.916	0.353	-0.081
-741.112	800.000	0.044	0.157
-740.098	224.853	0.232	0.382
-739.083	286.712	-0.116	0.214
-738.069	-135.419	-0.376	-0.046
-737.054	240.176	-0.010	0.018
-736.039	-200.000	0.012	0.072
-735.025	129.675	0.056	0.072
-734.010	551.860	-0.198	-0.482
-732.996	800.000	-0.034	0.099
-731.981	449.661	-0.015	0.033
-730.966	205.876	-0.113	0.179
-729.952	594.751	-0.067	-0.169
-728.937	424.817	0.049	-0.107
-727.923	-142.132	0.107	0.011
-726.908	-140.690	-0.156	0.016
-725.894	-152.945	-0.063	-0.004
-724.879	-113.745	-0.291	0.058
-723.864	-132.904	0.330	-0.043
-722.850	11.710	0.175	-0.137
-721.835	115.062	-0.066	-0.082
-720.821	800.000	0.011	0.034
-719.806	170.623	0.044	-0.065
-718.791	341.917	0.037	-0.074
-717.777	-77.649	-0.196	0.069
-716.762	-93.945	-0.395	0.110
-715.748	394.321	0.051	-0.108
-714.733	-200.000	0.032	0.215
-713.718	-200.000	-0.056	0.364
-712.704	-92.850	0.251	0.071
-711.689	175.480	-0.045	0.067
-710.675	202.973	-0.166	-0.260
-709.660	198.774	0.101	0.156
-708.645	-169.209	-0.033	-0.001
-707.631	-17.846	0.211	-0.134
-706.616	-35.383	0.254	0.140
-705.602	94.066	0.043	0.049
-704.587	-27.857	-0.316	-0.186
-703.572	-5.120	-0.069	-0.048
-702.558	-70.212	0.387	-0.149
-701.543	210.519	0.124	0.197
-700.529	-38.951	-0.115	0.062
-699.514	-200.000	0.003	0.164
-698.499	800.000	-0.054	-0.171
-697.485	-41.258	0.071	0.037
-696.470	-104.784	0.122	-0.028
-695.456	362.223	-0.123	0.250
-694.441	-111.878	-0.161	0.033
-693.426	-199.643	-0.122	-0.001
-692.412	18.501	-0.202	0.164
-691.397	-40.386	-0.072	-0.038
-690.383	-87.897	0.180	-0.055
-689.368	122.651	0.084	-0.107
-688.354	686.544	0.124	-0.329
-687.339	800.000	0.044	0.148
-686.324	-200.000	-0.020	-0.265
-685.310	-174.364	0.245	-0.007
-684.295	167.738	-0.060	-0.087
-683.281	-72.095	-0.196	-0.074
-682.266	-61.307	-0.205	-0.088
-681.251	350.354	0.097	0.195
-680.237	-29.782	0.184	0.107
-679.222	-82.133	0.077	0.025
-678.208	-97.291	-0.256	-0.068
-677.193	-200.000	0.040	-0.293
-676.178	-44.600	-0.336	0.170
-675.164	12.571	-0.258	-0.202
-674.149	189.761	0.133	-0.202
-673.135	-200.000	-0.015	0.124
-672.120	-141.758	0.358	0.036
-671.105	80.078	0.333	0.363
-670.091	39.561	-0.176	-0.160
-669.076	-200.000	-0.006	-0.108
-668.062	-149.699	0.369	0.029
-667.047	34.986	-0.204	-0.181
-666.032	60.291	0.317	-0.318
-665.018	750.611	0.068	-0.186
-664.003	-81.350	0.188	-0.063
-662.989	36.314	-0.025	0.023
-661.974	-185.953	0.520	0.008
-660.959	127.605	-0.213	-0.274
-659.945	26.325	-0.107	0.090
-658.930	-27.929	0.109	0.064
-657.916	-74.797	-0.254	-0.093
-656.901	-39.032	-0.301	0.161
-655.886	800.000	0.129	-0.361
-654.872	-200.000	-0.019	0.175
-653.857	800.000	0.054	0.205
-652.843	-178.968	-0.342	0.008
-651.828	-131.828	-0.163	-0.022
-650.814	191.673	0.262	-0.400
-649.799	776.918	-0.069	-0.191
-648.784	97.293	-0.096	-0.112
-647.770	-200.000	0.004	-0.095
-646.755	47.248	0.113	0.107
-645.741	-39.980	-0.153	0.081
-644.726	264.294	-0.103	0.181
-643.711	125.653	0.181	-0.231
-642.697	-200.000	0.019	-0.113
-641.682	-200.000	0.050	-0.313
-640.668	-200.000	-0.015	-0.169
-639.653	700.355	0.066	-0.177
-638.638	-97.015	0.205	-0.054
-637.624	-200.000	-0.025	0.000
-636.609	-114.761	-0.324	0.063
-635.595	-32.047	0.139	-0.079
-634.580	20.162	-0.179	-0.146
-633.565	-97.377	-0.184	-0.048
-632.551	-24.545	0.265	0.160
-631.536	-14.008	0.192	-0.125
-630.522	23.581	-0.212	-0.177
-629.507	-200.000	-0.049	-0.343
-628.492	342.486	0.051	0.101
-627.478	170.246	0.069	0.100
-626.463	21.108	0.081	0.066
-625.449	800.000	-0.050	-0.168
-624.434	-200.000	-0.008	0.151
-623.419	-0.452	-0.109	-0.078
-622.405	-25.625	-0.142	-0.085
-621.390	54.406	0.375	-0.365
-620.376	-10.390	0.333	0.224
-619.361	444.533	-0.063	0.140
-618.346	44.063	0.159	0.147
-617.332	169.235	0.106	0.154
-616.317	800.000	0.105	0.429
-615.303	800.000	-0.044	-0.162
-614.288	800.000	-0.027	0.113
-613.273	-164.864	-0.241	-0.011
-612.259	-22.792	-0.249	-0.152
-611.244	-200.000	-0.075	0.419
-610.230	-16.712	-0.055	-0.036
-609.215	540.449	-0.051	0.122
-608.201	521.704	0.060	-0.141
-607.186	170.236	-0.120	-0.174
-606.171	800.000	0.076	-0.217
-605.157	25.168	0.270	0.227
-604.142	-146.568	0.620	-0.055
-603.128	-4.918	-0.188	-0.131
-602.113	109.654	-0.134	0.162
-601.098	-111.361	0.151	-0.031
-600.084	-86.494	-0.202	-0.063
-599.069	-141.495	0.197	-0.020
-598.055	-15.482	-0.299	-0.193
-597.040	-138.066	-0.155	-0.017
-596.025	-173.798	0.100	-0.003
-595.011	278.441	0.210	-0.379
-593.996	-104.044	-0.066	0.016
-592.982	7.419	-0.106	0.080
-591.967	-8.615	0.261	0.177
-590.952	96.453	-0.398	-0.460
-589.938	-64.294	0.141	-0.058
-588.923	-101.029	-0.231	0.057
-587.909	-61.857	0.044	-0.019
-586.894	-63.725	-0.051	0.021
-585.879	-109.507	0.208	-0.044
-584.865	-200.000	-0.015	-0.213
-583.850	744.811	0.078	0.212
-582.836	-115.481	-0.124	0.024
-581.821	-30.504	0.122	0.070
-580.806	76.429	0.109	-0.117
-579.792	-200.000	-0.152	-0.000
-578.777	-61.391	0.404	0.172
-577.763	-42.202	-0.167	0.086
-576.748	11.937	0.261	-0.203
-575.733	-48.296	0.331	0.161
-574.719	-200.000	-0.007	-0.268
-573.704	444.017	0.074	-0.163
-572.690	-29.155	-0.078	-0.045
-571.675	-82.382	-0.339	0.111
-570.661	231.231	0.003	-0.005
-569.646	-21.181	-0.347	0.214
-568.631	-135.006	-0.259	-0.032
-567.617	154.818	0.104	-0.144
-566.602	97.638	0.068	0.078
-565.588	131.109	0.167	-0.217
-564.573	-200.000	-0.051	0.292
-563.558	87.086	-0.227	0.253
-562.544	53.198	0.148	-0.143
-561.529	-200.000	-0.054	-0.288
-560.515	-134.727	-0.209	-0.026
-559.500	-109.981	-0.133	0.028
-558.485	244.040	-0.117	0.199
-557.471	95.587	0.134	-0.155
-556.456	-200.000	0.045	0.352
-555.442	223.420	-0.197	0.321
-554.427	200.587	-0.122	-0.189
-553.412	-62.936	-0.230	0.096
-552.398	353.849	0.061	0.123
-551.383	-2.779	-0.104	0.073
-550.369	-177.826	0.186	-0.005
-549.354	112.750	0.181	-0.221
-548.339	-57.149	-0.161	-0.072
-547.325	800.000	-0.082	-0.230
-546.310	520.883	-0.082	-0.193
-545.296	83.755	0.141	0.155
-544.281	527.019	0.135	0.320
-543.266	138.894	-0.039	0.052
-542.252	-200.000	0.057	0.329
-541.237	127.495	-0.093	0.120
-540.223	-95.570	0.257	0.070
-539.208	-59.143	-0.110	0.048
-538.193	800.000	0.044	-0.132
-537.179	-65.847	0.147	-0.059
-536.164	-200.000	-0.036	0.441
-535.150	701.390	-0.022	-0.057
-534.135	28.719	0.073	-0.062
-533.121	800.000	-0.036	-0.120
-532.106	15.572	0.158	-0.125
-531.091	174.969	0.091	-0.132
-530.077	85.496	-0.160	-0.177
-529.062	-0.249	-0.133	0.096
-528.048	162.431	0.246	0.348
-527.033	-200.000	-0.019	-0.125
-526.018	-150.724	0.088	0.007
-525.004	800.000	0.063	-0.266
-523.989	800.000	-0.008	-0.030
-522.975	82.156	-0.085	0.092
-521.960	7.140	0.144	0.108
-520.945	-200.000	-0.034	0.590
-519.931	-165.297	0.152	0.007
-518.916	-99.740	-0.239	0.060
-517.902	-81.975	-0.292	-0.096
-516.887	800.000	-0.082	-0.280
-515.872	-200.000	0.012	-0.181
-514.858	651.964	-0.045	0.117
-513.843	228.379	-0.160	-0.263
-512.829	-134.534	-0.046	-0.006
-511.814	-78.831	-0.112	-0.038
-510.799	21.544	0.062	0.051
-509.785	800.000	0.098	-0.319
-508.770	400.353	0.138	-0.291
-507.756	-200.000	-0.011	0.118
-506.741	62.637	-0.083	0.084
-505.726	0.222	0.042	0.030
-504.712	-181.094	-0.168	0.003
-503.697	107.686	0.190	0.228
-502.683	0.316	-0.076	-0.055
-501.668	-23.927	-0.102	0.062
-500.653	22.455	0.067	0.055
-499.639	137.336	0.124	0.164
-498.624	-131.295	-0.319	0.043
-497.610	-188.903	0.079	0.001
-496.595	800.000	0.018	0.074
-495.581	-122.017	-0.138	-0.023
-494.566	-200.000	0.012	-0.325
-493.551	-200.000	0.014	0.416
-492.537	-68.687	-0.305	-0.119
-491.522	-99.074	-0.128	-0.033
-490.508	-200.000	0.033	0.147
-489.493	214.958	0.117	0.186
-488.478	737.919	-0.108	0.291
-487.464	659.225	-0.064	-0.166
-486.449	368.493	-0.102	0.207
-485.435	177.928	0.119	0.174
-484.420	800.000	-0.014	0.045
-483.405	800.000	-0.076	-0.233
-482.391	-200.000	0.001	-0.166
-481.376	137.330	-0.198	-0.261
-480.362	14.762	0.171	0.134
-479.347	-147.526	-0.342	-0.029
-478.332	-157.780	0.191	0.011
-477.318	268.700	0.162	0.286
-476.303	3.567	-0.388	0.285
-475.289	-200.000	0.062	0.457
-474.274	-200.000	0.002	-0.025
-473.259	-15.401	-0.137	-0.088
-472.245	-91.540	0.125	-0.036
-471.230	218.490	-0.022	-0.036
-470.216	-13.827	0.164	0.107
-469.201	-200.000	-0.012	-0.172
-468.186	-100.976	0.359	-0.089
-467.172	-200.000	-0.032	0.208
-466.157	3.533	0.083	0.061
-465.143	-31.313	0.135	0.077
-464.128	-93.558	-0.406	-0.113
-463.113	552.634	0.137	0.332
-462.099	-94.711	-0.376	0.103
-461.084	-21.278	0.189	0.116
-460.070	-45.810	-0.141	-0.070
-459.055	800.000	0.042	0.171
-458.040	-200.000	-0.001	-0.108
-457.026	-200.000	-0.012	-0.341
-456.011	233.920	-0.103	0.170
-454.997	746.545	0.041	0.111
-453.982	-8.924	0.214	-0.144
-452.968	122.427	0.021	-0.027
-451.953	-102.246	0.140	-0.034
-450.938	104.404	0.032	-0.038
-449.924	-200.000	-0.025	-0.169
-448.909	-22.361	-0.080	0.049
-447.895	181.922	-0.018	-0.027
-446.880	-39.265	-0.301	-0.159
-445.865	717.920	-0.078	0.209
-444.851	-63.427	-0.124	0.051
-443.836	195.661	0.104	-0.159
-442.822	19.110	-0.227	-0.183
-441.807	-200.000	-0.002	0.071
-440.792	-200.000	0.015	-0.321
-439.778	-200.000	0.004	0.195
-438.763	-51.953	-0.170	-0.080
-437.749	154.805	0.102	0.141
-436.734	77.604	-0.115	-0.123
-435.719	737.052	0.071	-0.192
-434.705	800.000	-0.030	-0.119
-433.690	186.274	-0.108	-0.161
-432.676	266.006	0.032	-0.055
-431.661	-51.675	0.301	0.141
-430.646	800.000	-0.055	0.169
-429.632	83.639	-0.123	0.135
-428.617	-161.741	0.289	0.015
-427.603	-200.000	0.009	0.305
-426.588	785.915	-0.173	0.477
-425.573	-119.701	0.171	-0.030
-424.559	800.000	0.110	0.478
-423.544	448.850	0.081	0.180
-422.530	509.759	0.080	-0.187
-421.515	-200.000	-0.028	0.179
-420.500	96.284	-0.092	0.106
-419.486	-173.053	0.167	0.005
-418.471	-118.897	-0.176	-0.031
-417.457	800.000	0.072	-0.310
-416.442	-19.589	-0.153	0.095
-415.428	193.003	0.166	0.252
-414.413	236.663	-0.122	-0.202
-413.398	-102.092	-0.247	0.060
-412.384	103.341	-0.166	-0.195
-411.369	-43.383	0.166	-0.084
-410.355	-200.000	0.002	-0.216
-409.340	3.095	-0.235	-0.171
-408.325	-200.000	-0.011	0.213
-407.311	-10.300	0.175	-0.117
-406.296	-200.000	0.035	-0.333
-405.282	386.095	-0.170	-0.353
-404.267	-200.000	-0.017	-0.281
-403.252	-18.050	-0.112	-0.071
-402.238	800.000	0.147	0.475
-401.223	-16.370	0.280	0.178
-400.209	181.055	0.142	-0.209
-399.194	-87.139	-0.365	-0.111
-398.179	182.930	0.155	0.229
-397.165	110.228	0.015	-0.018
-396.150	-200.000	0.027	0.485
-395.136	800.000	-0.081	-0.276
-394.121	-89.772	0.196	0.058
-393.106	-36.272	-0.190	-0.103
-392.092	-48.752	-0.222	-0.107
-391.077	-153.242	-0.169	0.012
-390.063	-200.000	-0.039	-0.229
-389.048	-110.373	-0.350	0.073
-388.033	21.187	0.059	0.048
-387.019	-200.000	0.032	-0.391
-386.004	-112.620	-0.174	0.035
-384.990	532.340	-0.243	-0.575
-383.975	-100.813	0.337	-0.083
-382.960	-28.995	0.467	-0.269
-381.946	-177.318	0.344	-0.009
-380.931	-156.308	0.027	-0.002
-379.917	800.000	-0.188	0.564
-378.902	-116.079	-0.085	-0.016
-377.888	202.918	0.161	0.250
-376.873	-76.436	0.134	-0.047
-375.858	-150.747	0.169	0.013
-374.844	137.842	0.181	-0.238
-373.829	-200.000	-0.073	-0.417
-372.815	522.346	0.082	-0.192
-371.800	-59.596	0.220	-0.094
-370.785	82.704	-0.274	0.299
-369.771	201.093	0.045	0.070
-368.756	88.093	0.206	0.229
-367.742	-48.010	0.050	-0.024
-366.727	-59.694	0.217	-0.093
-365.712	113.568	-0.081	0.098
-364.698	-17.271	-0.133	0.084
-363.683	56.908	0.086	0.084
-362.669	-82.422	0.388	0.126
-361.654	-200.000	-0.034	-0.156
-360.639	384.770	-0.083	0.172
-359.625	-17.099	0.082	-0.052
-358.610	-200.000	-0.002	0.010
-357.596	800.000	-0.080	0.285
-356.581	800.000	0.106	-0.383
-355.566	97.238	0.116	0.134
-354.552	-33.729	0.236	-0.131
-353.537	211.806	-0.031	-0.049
-352.523	-103.586	0.098	0.023
-351.508	-73.173	-0.193	0.071
-350.493	-139.709	-0.068	0.007
-349.479	800.000	0.086	-0.312
-348.464	800.000	-0.130	0.366
-347.450	-200.000	-0.006	0.068
-346.435	29.366	-0.052	-0.044
-345.420	-131.433	0.364	-0.048
-344.406	88.881	-0.050	-0.056
-343.391	103.966	0.093	-0.109
-342.377	-169.976	0.082	0.003
-341.362	-200.000	-0.031	-0.311
-340.348	351.208	0.109	-0.215
-339.333	-200.000	0.200	0.001
-338.318	184.269	0.049	0.073
-337.304	-200.000	0.058	0.395
-336.289	-14.051	-0.149	0.096
-335.275	-78.016	0.321	-0.111
-334.260	34.192	-0.167	-0.146
-333.245	-116.704	0.264	0.048
-332.231	-200.000	-0.071	-0.345
-331.216	-49.883	-0.135	-0.064
-330.202	-99.063	0.384	0.097
-329.187	303.645	-0.126	-0.234
-328.172	261.150	0.180	-0.311
-327.158	-21.528	-0.062	-0.038
-326.143	-200.000	-0.003	0.107
-325.129	711.021	-0.119	-0.314
-324.114	800.000	0.027	0.085
-323.099	-116.917	0.364	-0.067
-322.085	374.658	0.098	0.199
-321.070	-172.598	-0.101	-0.003
-320.056	-92.577	-0.289	-0.081
-319.041	-200.000	0.032	-0.234
-318.026	182.067	-0.104	-0.154
-317.012	800.000	-0.031	-0.096
-315.997	-200.000	0.014	-0.185
-314.983	-119.798	-0.212	-0.037
-313.968	-106.214	0.281	0.063
-312.953	800.000	-0.093	0.261
-311.939	800.000	0.024	-0.099
-310.924	456.278	-0.082	-0.183
-309.910	-200.000	0.020	0.105
-308.895	81.091	-0.111	0.119
-307.880	800.000	0.034	0.142
-306.866	40.810	0.229	-0.207
-305.851	-200.000	-0.010	0.201
-304.837	-200.000	-0.027	-0.326
-303.822	56.381	0.142	0.138
-302.807	24.389	0.231	0.191
-301.793	637.382	0.058	-0.148
-300.778	-200.000	0.022	0.148
-299.764	43.772	-0.190	0.174
-298.749	737.574	0.211	0.565
-297.735	-69.918	0.148	0.056
-296.720	-124.702	0.249	0.039
-295.705	-186.662	-0.408	0.006
-294.691	146.569	-0.030	0.041
-293.676	-62.501	0.140	-0.058
-292.662	800.000	-0.087	-0.262
-291.647	-200.000	-0.041	0.306
-290.632	-86.514	-0.225	-0.069
-289.618	-200.000	0.014	0.162
-288.603	800.000	-0.042	-0.117
-287.589	431.072	-0.120	0.260
-286.574	618.315	0.100	0.250
-285.559	313.651	-0.084	-0.157
-284.545	-45.595	0.253	0.125
-283.530	25.597	0.126	-0.105
-282.516	351.426	0.079	0.157
-281.501	-200.000	0.022	-0.156
-280.486	-200.000	0.007	-0.157
-279.472	-75.084	-0.237	0.085
-278.457	201.020	0.102	0.157
-277.443	-175.250	0.441	0.012
-276.428	53.210	-0.234	-0.224
-275.413	800.000	-0.117	0.421
-274.399	-164.585	-0.225	0.010
-273.384	315.397	0.034	-0.064
-272.370	800.000	-0.081	-0.252
-271.355	-111.206	0.092	-0.019
-270.340	77.059	0.162	-0.172
-269.326	800.000	0.059	-0.177
-268.311	-200.000	-0.036	-0.330
-267.297	78.230	0.239	-0.255
-266.282	-16.078	-0.188	0.120
-265.267	-77.164	0.381	0.132
-264.253	391.639	0.016	-0.032
-263.238	-200.000	0.033	0.174
-262.224	-6.901	-0.307	0.208
-261.209	-86.810	-0.304	0.093
-260.195	270.100	-0.135	0.237
-259.180	588.039	-0.118	0.290
-258.165	609.901	0.179	-0.446
-257.151	642.649	0.064	-0.163
-256.136	237.206	-0.103	-0.171
-255.122	376.790	-0.127	-0.259
-254.107	-120.703	-0.262	0.044
-253.092	800.000	0.057	-0.197
-252.078	181.464	0.057	-0.084
-251.063	-43.857	-0.144	0.072
-250.049	-137.213	-0.161	-0.018
-249.034	-150.147	0.169	-0.013
-248.019	182.759	0.073	0.108
-247.005	59.421	0.205	-0.201
-245.990	160.104	-0.113	-0.157
-244.976	-200.000	-0.033	-0.229
-243.961	756.076	-0.114	0.307
-242.946	-200.000	-0.022	-0.335
-241.932	-160.608	0.284	0.015
-240.917	-86.638	0.228	0.070
-239.903	98.172	-0.076	0.088
-238.888	800.000	0.086	-0.254
-237.873	800.000	0.105	0.297
-236.859	800.000	0.034	0.117
-235.844	-200.000	-0.014	0.164
-234.830	-125.853	-0.220	-0.033
-233.815	171.474	-0.132	0.189
-232.800	800.000	0.105	-0.317
-231.786	85.284	0.211	-0.230
-230.771	-200.000	-0.047	0.232
-229.757	74.191	-0.166	0.174
-228.742	175.452	0.104	-0.151
-227.727	800.000	0.081	-0.228
-226.713	275.557	-0.174	0.308
-225.698	-37.722	-0.203	0.108
-224.684	20.779	0.105	-0.085
-223.669	-106.902	-0.125	-0.028
-222.655	37.522	0.063	0.056
-221.640	-200.000	0.017	-0.123
-220.625	580.275	-0.170	-0.414
-219.611	-200.000	-0.010	-0.055
-218.596	-182.862	-0.031	0.001
-217.582	800.000	-0.010	0.030
-216.567	346.714	-0.081	0.159
-215.552	45.859	-0.153	0.140
-214.538	800.000	-0.163	-0.485
-213.523	-138.866	-0.317	-0.034
-212.509	-200.000	0.049	0.254
-211.494	83.372	-0.150	-0.163
-210.479	-79.113	0.184	0.062
-209.465	367.858	0.084	0.169
-208.450	82.089	-0.095	0.103
-207.436	-94.705	-0.046	0.013
-206.421	15.265	-0.059	-0.046
-205.406	-9.009	0.125	0.083
-204.392	131.300	-0.167	0.213
-203.377	-200.000	-0.056	-0.255
-202.363	52.004	0.100	-0.095
-201.348	130.421	-0.299	-0.381
-200.333	-200.000	0.015	-0.194
-199.319	445.305	0.144	0.315
-198.304	-45.387	0.252	-0.124
-197.290	-113.592	0.129	0.025
-196.275	800.000	0.005	0.018
-195.260	76.518	0.011	-0.011
-194.246	800.000	0.046	0.131
-193.231	-89.039	-0.122	-0.036
-192.217	94.234	0.187	0.212
-191.202	215.004	-0.128	-0.203
-190.187	-55.298	0.051	-0.023
-189.173	-117.762	-0.281	0.050
-188.158	-64.870	-0.419	-0.169
-187.144	-84.082	0.085	0.027
-186.129	741.142	0.029	-0.078
-185.114	-29.941	-0.103	0.058
-184.100	-72.129	-0.393	0.145
-183.085	39.476	-0.130	0.116
-182.071	-10.886	0.427	0.281
-181.056	800.000	-0.027	0.081
-180.042	-7.661	-0.226	0.152
-179.027	-200.000	0.065	0.406
-178.012	50.724	-0.107	0.101
-176.998	-200.000	0.012	0.093
-175.983	3.201	-0.123	0.089
-174.969	154.027	-0.211	-0.288
-173.954	-99.022	0.477	0.120
-172.939	800.000	0.057	0.174
-171.925	-200.000	-0.006	0.062
-170.910	-200.000	-0.018	-0.207
-169.896	-200.000	-0.021	-0.111
-168.881	326.366	-0.101	0.193
-167.866	174.787	0.175	0.252
-166.852	53.081	0.270	0.257
-165.837	426.766	0.115	0.247
-164.823	-116.000	0.303	-0.056
-163.808	156.304	-0.053	0.073
-162.793	-44.249	0.368	0.184
-161.779	-200.000	0.026	-0.261
-160.764	-52.482	0.170	-0.078
-159.750	-16.770	-0.327	-0.206
-158.735	-114.766	-0.288	-0.055
-157.720	-156.730	-0.182	-0.011
-156.706	48.950	0.128	0.119
-155.691	30.652	0.194	0.165
-154.677	729.273	0.122	0.324
-153.662	800.000	-0.083	0.239
-152.647	-113.799	-0.287	0.055
-151.633	-181.099	-0.073	0.001
-150.618	-73.834	0.138	-0.050
-149.604	-9.881	0.331	0.219
-148.589	800.000	0.033	0.120
-147.574	-200.000	0.008	-0.078
-146.560	6.242	-0.335	-0.246
-145.545	761.013	-0.094	0.253
-144.531	-165.717	0.123	-0.005
-143.516	780.693	0.094	0.257
-142.502	-67.680	0.182	0.071
-141.487	707.277	-0.021	-0.056
-140.472	66.096	-0.190	-0.192
-139.458	-4.871	0.130	-0.089
-138.443	166.379	-0.054	-0.076
-137.429	-36.914	-0.043	-0.023
-136.414	59.267	0.120	0.117
-135.399	-52.904	-0.265	-0.121
-134.385	-102.360	-0.319	-0.076
-133.370	-192.258	0.327	0.003
-132.356	800.000	0.070	-0.227
-131.341	89.862	-0.044	0.048
-130.326	-200.000	0.030	0.162
-129.312	708.561	-0.079	-0.207
-128.297	-200.000	0.014	-0.066
-127.283	0.618	0.071	0.050
-126.268	-93.990	-0.348	0.095
-125.253	39.745	-0.278	-0.248
-124.239	413.887	-0.168	-0.354
-123.224	-200.000	0.002	0.087
-122.210	284.561	-0.192	-0.343
