DTS Sentinel unit serial number:	SN413079Multiplexer serial number:	ORYXHardware model number:	OX4-SRSoftware version number:	ORYX F/W v4.00 Oryx Data Collector v3.7.2.0data status	okinstallation	princeton_trtdifferential loss correction	single-endedforward channel	channel 4reverse channel	N/Adate	2019/09/11time	04:03:10forward acquisition time	60.00reverse acquisition time	0.00gamma	496.2192k internal	0.2316k external	0.2316temperature offset calibration	0.9944default loss term (dB/km)	0.3790temperature slope calibration	1.0000multiplexer offset coefficient	1.0000multiplexer slope coefficient	1.0000fibre end	0.00T internal ref (°C)	29.56T ext. ref 1 (°C)	-0.30T ext. ref 2 (°C)	23.65length (m)	temperature (°C)	Stokes	anti-Stokes-747.200	140.048	0.087	0.117
-746.185	-200.000	-0.007	-0.209
-745.171	-200.000	0.027	0.261
-744.156	-200.000	0.005	0.266
-743.142	121.444	0.078	0.099
-742.127	143.870	-0.117	0.157
-741.112	-169.647	0.251	-0.009
-740.098	65.665	0.190	-0.195
-739.083	-48.906	0.133	-0.065
-738.069	-200.000	0.048	0.218
-737.054	113.096	0.166	-0.203
-736.039	-92.819	-0.386	0.109
-735.025	-83.933	0.185	0.060
-734.010	41.418	-0.378	0.346
-732.996	800.000	0.028	-0.105
-731.981	6.193	-0.175	0.131
-730.966	160.628	-0.057	0.081
-729.952	-24.915	-0.003	-0.002
-728.937	800.000	0.077	0.242
-727.923	8.395	-0.201	0.153
-726.908	210.439	0.039	-0.063
-725.894	800.000	0.068	-0.247
-724.879	-46.421	-0.072	-0.036
-723.864	39.236	-0.202	-0.183
-722.850	-127.501	-0.203	-0.030
-721.835	231.618	0.181	-0.300
-720.821	-53.395	0.243	-0.113
-719.806	-200.000	0.040	-0.324
-718.791	38.795	0.102	-0.092
-717.777	-200.000	-0.000	0.032
-716.762	-200.000	-0.014	-0.221
-715.748	-200.000	0.081	0.372
-714.733	-200.000	0.013	-0.150
-713.718	642.653	0.127	-0.328
-712.704	487.021	-0.055	-0.126
-711.689	-200.000	-0.011	0.205
-710.675	144.286	0.059	-0.080
-709.660	-150.369	-0.276	0.021
-708.645	-105.373	0.357	-0.082
-707.631	800.000	0.031	-0.089
-706.616	-143.247	-0.267	-0.026
-705.602	-82.657	-0.075	-0.025
-704.587	122.288	-0.076	-0.097
-703.572	442.950	0.128	0.283
-702.558	-99.619	0.590	-0.150
-701.543	800.000	-0.132	0.407
-700.529	38.424	0.137	-0.124
-699.514	-32.857	0.092	0.052
-698.499	-200.000	0.012	-0.214
-697.485	11.389	0.104	-0.081
-696.470	129.890	0.101	-0.131
-695.456	379.122	0.025	-0.051
-694.441	-113.969	0.341	-0.067
-693.426	139.622	-0.366	0.487
-692.412	-53.133	0.265	-0.123
-691.397	31.486	0.240	-0.209
-690.383	-48.030	-0.078	-0.038
-689.368	-34.216	-0.241	-0.134
-688.354	-51.211	-0.101	0.048
-687.339	-200.000	-0.014	-0.220
-686.324	-91.517	0.180	-0.052
-685.310	-128.452	0.252	0.036
-684.295	-27.970	-0.104	0.061
-683.281	2.139	-0.023	0.017
-682.266	279.576	-0.212	0.383
-681.251	800.000	-0.142	-0.427
-680.237	-61.569	-0.035	-0.015
-679.222	-88.893	-0.270	0.081
-678.208	-155.482	0.425	-0.028
-677.193	-200.000	0.056	-0.262
-676.178	-200.000	0.011	-0.185
-675.164	-37.617	0.408	-0.220
-674.149	-118.655	0.312	-0.056
-673.135	800.000	-0.181	0.593
-672.120	2.169	0.137	0.100
-671.105	181.017	0.140	0.209
-670.091	421.206	0.049	-0.106
-669.076	445.675	0.127	0.283
-668.062	108.076	0.090	-0.108
-667.047	86.126	0.116	-0.129
-666.032	349.589	-0.129	-0.257
-665.018	-148.625	-0.215	-0.018
-664.003	-92.962	0.299	0.084
-662.989	187.897	0.120	0.180
-661.974	800.000	0.039	-0.139
-660.959	-113.431	-0.108	-0.021
-659.945	184.922	-0.205	-0.307
-658.930	-61.053	0.173	-0.074
-657.916	202.621	0.185	0.289
-656.901	234.113	-0.011	-0.019
-655.886	374.383	-0.121	-0.248
-654.872	451.131	0.090	0.201
-653.857	23.100	-0.107	0.089
-652.843	493.193	-0.111	0.256
-651.828	-82.290	0.121	-0.040
-650.814	220.775	0.055	0.089
-649.799	-129.368	0.111	0.016
-648.784	800.000	0.048	-0.183
-647.770	610.005	0.008	0.020
-646.755	-43.532	-0.121	0.061
-645.741	-60.707	0.183	0.078
-644.726	-200.000	0.030	-0.132
-643.711	288.932	0.222	-0.405
-642.697	-179.105	-0.412	0.009
-641.682	-66.789	0.186	0.074
-640.668	-129.678	-0.337	-0.047
-639.653	-123.724	0.175	0.028
-638.638	360.241	-0.081	-0.163
-637.624	363.968	-0.082	0.166
-636.609	-200.000	0.084	-0.391
-635.595	128.667	-0.202	0.259
-634.580	-71.577	-0.278	-0.105
-633.565	-108.692	-0.237	0.051
-632.551	-200.000	0.039	0.347
-631.536	-67.517	0.109	-0.043
-630.522	53.588	-0.315	0.305
-629.507	-138.456	-0.470	-0.052
-628.492	121.653	0.230	-0.289
-627.478	-86.299	0.131	-0.041
-626.463	-58.668	0.081	0.036
-625.449	133.292	0.071	0.093
-624.434	-200.000	0.007	-0.062
-623.419	-200.000	-0.014	0.104
-622.405	784.477	-0.067	0.185
-621.390	-18.315	-0.111	0.070
-620.376	800.000	-0.054	-0.206
-619.361	-53.791	-0.216	-0.100
-618.346	408.740	-0.150	-0.321
-617.332	-3.267	0.034	-0.024
-616.317	-87.411	-0.339	0.104
-615.303	-200.000	-0.018	-0.125
-614.288	-200.000	0.030	0.209
-613.273	20.000	0.145	0.118
-612.259	31.131	-0.218	-0.188
-611.244	109.533	0.279	-0.337
-610.230	-200.000	-0.065	-0.368
-609.215	412.447	0.151	0.322
-608.201	190.685	-0.144	0.218
-607.186	-200.000	-0.023	-0.137
-606.171	-200.000	0.005	0.147
-605.157	-167.305	-0.105	0.004
-604.142	-109.215	0.026	-0.006
-603.128	-93.140	-0.411	0.115
-602.113	50.245	0.220	-0.209
-601.098	665.053	-0.089	-0.232
-600.084	-65.351	0.088	0.036
-599.069	313.560	0.090	-0.170
-598.055	319.823	0.195	0.374
-597.040	-165.780	-0.168	-0.007
-596.025	-13.782	-0.208	-0.136
-595.011	-200.000	0.001	0.218
-593.996	-200.000	0.010	0.278
-592.982	800.000	0.024	-0.077
-591.967	-115.519	0.073	-0.014
-590.952	39.213	-0.114	-0.103
-589.938	14.228	0.103	0.081
-588.923	800.000	-0.101	-0.316
-587.909	-30.198	0.179	-0.102
-586.894	-135.238	-0.201	0.024
-585.879	171.550	-0.187	-0.270
-584.865	-123.040	-0.514	-0.083
-583.850	-129.781	0.129	-0.018
-582.836	198.676	0.151	0.233
-581.821	-136.465	0.220	0.026
-580.806	27.352	-0.227	0.192
-579.792	-159.932	-0.183	0.010
-578.777	-61.753	0.064	-0.027
-577.763	-77.345	-0.228	0.080
-576.748	-103.969	0.158	0.037
-575.733	47.039	-0.092	0.086
-574.719	-162.790	-0.047	0.002
-573.704	2.962	0.040	-0.029
-572.690	0.771	0.109	-0.078
-571.675	0.612	0.144	0.104
-570.661	-86.725	0.226	-0.070
-569.646	-200.000	0.018	0.257
-568.631	9.907	-0.140	-0.107
-567.617	53.074	0.131	-0.126
-566.602	800.000	-0.014	0.058
-565.588	800.000	0.058	-0.209
-564.573	289.855	0.056	-0.102
-563.558	-200.000	0.049	0.220
-562.544	18.996	0.176	-0.142
-561.529	-200.000	0.005	0.078
-560.515	-200.000	-0.004	0.256
-559.500	800.000	0.072	-0.228
-558.485	-59.670	0.204	0.088
-557.471	-173.804	0.084	0.002
-556.456	319.206	0.137	-0.260
-555.442	26.273	-0.253	0.212
-554.427	68.583	-0.110	0.113
-553.412	161.610	-0.173	0.244
-552.398	766.335	0.078	-0.212
-551.383	390.606	0.037	-0.078
-550.369	800.000	-0.071	0.276
-549.354	800.000	0.069	0.205
-548.339	107.623	0.147	-0.176
-547.325	-68.742	-0.109	0.042
-546.310	-160.369	-0.141	-0.008
-545.296	-0.964	0.211	0.150
-544.281	-42.361	0.124	0.064
-543.266	-14.577	-0.172	0.111
-542.252	-200.000	-0.013	-0.142
-541.237	-71.313	0.310	0.117
-540.223	-71.398	-0.518	0.195
-539.208	-104.155	-0.059	0.014
-538.193	-95.644	-0.124	0.033
-537.179	-200.000	0.035	-0.294
-536.164	-200.000	-0.057	-0.525
-535.150	20.097	-0.067	0.054
-534.135	-105.457	0.359	-0.082
-533.121	-200.000	0.132	-0.628
-532.106	643.937	-0.114	-0.293
-531.091	155.346	0.056	-0.077
-530.077	-122.261	-0.103	0.017
-529.062	85.620	-0.016	0.018
-528.048	-11.629	0.032	-0.021
-527.033	-171.216	0.253	0.009
-526.018	61.054	0.120	-0.120
-525.004	34.206	-0.086	0.076
-523.989	-37.491	-0.269	0.144
-522.975	-200.000	-0.037	-0.219
-521.960	187.050	-0.169	0.253
-520.945	43.229	-0.013	-0.012
-519.931	800.000	-0.104	-0.345
-518.916	-139.664	0.256	0.027
-517.902	7.243	0.224	0.168
-516.887	-46.777	-0.172	-0.084
-515.872	-80.962	-0.205	-0.068
-514.858	-200.000	0.069	-0.388
-513.843	72.374	0.146	-0.153
-512.829	-200.000	-0.027	-0.305
-511.814	-36.639	-0.256	-0.138
-510.799	331.258	-0.057	0.110
-509.785	-200.000	-0.002	0.226
-508.770	86.379	-0.156	0.172
-507.756	-32.442	-0.084	0.047
-506.741	-200.000	-0.037	0.161
-505.726	-200.000	-0.013	0.147
-504.712	-200.000	0.028	-0.312
-503.697	-45.170	-0.061	0.030
-502.683	36.286	0.224	-0.198
-501.668	-200.000	-0.009	0.104
-500.653	-200.000	-0.001	0.087
-499.639	78.087	0.224	-0.240
-498.624	-99.765	-0.240	-0.060
-497.610	19.680	-0.110	0.089
-496.595	-200.000	0.010	0.307
-495.581	-84.151	-0.172	-0.055
-494.566	46.036	-0.090	0.084
-493.551	800.000	-0.090	0.368
-492.537	-171.313	0.477	-0.016
-491.522	-118.054	-0.193	-0.035
-490.508	70.277	0.022	-0.023
-489.493	-51.199	0.355	-0.167
-488.478	207.025	-0.122	-0.190
-487.464	688.499	-0.047	0.122
-486.449	-200.000	-0.012	-0.055
-485.435	-59.160	0.231	0.100
-484.420	-200.000	0.018	-0.171
-483.405	-200.000	-0.006	-0.040
-482.391	3.455	-0.114	0.083
-481.376	349.861	0.067	0.133
-480.362	-200.000	-0.041	0.188
-479.347	800.000	-0.073	0.241
-478.332	206.805	-0.058	0.091
-477.318	760.598	0.018	-0.049
-476.303	-200.000	0.010	0.230
-475.289	343.744	0.147	0.288
-474.274	-60.447	-0.164	0.070
-473.259	404.371	0.100	-0.211
-472.245	-171.137	0.154	-0.005
-471.230	800.000	0.004	-0.013
-470.216	134.332	-0.145	0.189
-469.201	800.000	0.032	-0.088
-468.186	-17.699	-0.109	0.069
-467.172	800.000	0.139	0.483
-466.157	-200.000	-0.031	-0.169
-465.143	-200.000	-0.021	-0.228
-464.128	-52.114	0.373	-0.173
-463.113	29.373	-0.273	0.233
-462.099	-118.778	-0.096	-0.017
-461.084	-21.602	-0.160	0.098
-460.070	800.000	-0.067	0.189
-459.055	-118.546	-0.182	0.032
-458.040	69.073	-0.119	-0.123
-457.026	-178.576	-0.049	0.001
-456.011	74.943	0.189	0.199
-454.997	128.992	-0.293	-0.374
-453.982	-125.724	0.263	0.040
-452.968	44.260	0.348	0.320
-451.953	-200.000	-0.019	0.140
-450.938	-200.000	0.018	-0.409
-449.924	800.000	0.110	-0.466
-448.909	-96.138	-0.307	0.082
-447.895	-75.560	0.199	-0.071
-446.880	-200.000	0.041	-0.272
-445.865	-185.605	-0.125	0.002
-444.851	-159.325	0.414	0.023
-443.836	147.301	-0.080	0.108
-442.822	-107.358	-0.184	0.041
-441.807	-92.315	0.196	-0.055
-440.792	-151.714	-0.369	0.027
-439.778	-94.834	-0.138	-0.037
-438.763	-200.000	0.046	0.222
-437.749	96.222	0.095	0.109
-436.734	800.000	0.122	0.422
-435.719	800.000	-0.069	-0.265
-434.705	368.280	0.102	-0.207
-433.690	62.036	-0.075	-0.075
-432.676	-144.249	0.309	0.029
-431.661	390.975	-0.114	-0.238
-430.646	-109.792	0.205	0.043
-429.632	-200.000	0.028	-0.303
-428.617	-200.000	-0.027	-0.419
-427.603	42.860	0.107	-0.098
-426.588	-65.828	0.286	0.115
-425.573	217.482	-0.076	0.121
-424.559	210.624	0.075	-0.118
-423.544	800.000	0.054	-0.185
-422.530	-171.193	-0.274	-0.009
-421.515	-67.554	0.209	0.082
-420.500	-14.372	0.124	-0.080
-419.486	104.476	0.176	-0.208
-418.471	800.000	0.070	-0.269
-417.457	382.700	-0.126	0.260
-416.442	-200.000	0.023	-0.117
-415.428	-18.127	0.174	-0.109
-414.413	-124.946	0.172	-0.026
-413.398	-200.000	0.023	0.508
-412.384	127.526	-0.193	-0.245
-411.369	-60.999	0.047	0.020
-410.355	800.000	0.114	-0.361
-409.340	-127.785	0.313	-0.045
-408.325	-200.000	0.015	-0.138
-407.311	-84.314	-0.319	0.101
-406.296	283.366	-0.015	-0.027
-405.282	-116.409	-0.236	0.044
-404.267	76.480	-0.068	0.072
-403.252	13.381	0.024	0.018
-402.238	-200.000	0.003	-0.159
-401.223	800.000	-0.034	0.126
-400.209	-73.176	-0.217	0.080
-399.194	800.000	0.068	0.296
-398.179	-28.901	0.094	0.054
-397.165	-102.597	-0.254	-0.061
-396.150	-97.741	-0.417	-0.108
-395.136	800.000	-0.038	-0.115
-394.121	164.627	0.237	-0.334
-393.106	-200.000	-0.003	0.034
-392.092	0.286	0.335	0.239
-391.077	-200.000	0.042	0.252
-390.063	-76.567	-0.186	0.065
-389.048	56.625	0.126	-0.122
-388.033	110.965	-0.096	-0.116
-387.019	-200.000	0.043	0.240
-386.004	195.148	0.154	0.234
-384.990	116.117	-0.174	0.213
-383.975	-18.346	0.229	0.143
-382.960	-43.172	-0.080	0.040
-381.946	-50.042	0.580	0.274
-380.931	253.905	0.119	-0.202
-379.917	-200.000	0.001	0.208
-378.902	-51.301	-0.333	0.156
-377.888	-32.966	0.152	0.084
-376.873	-69.003	-0.131	-0.051
-375.858	-200.000	-0.044	0.280
-374.844	-200.000	0.018	-0.252
-373.829	-200.000	-0.082	-0.394
-372.815	611.280	0.064	0.159
-371.800	40.325	-0.407	-0.366
-370.785	-200.000	0.014	-0.277
-369.771	-200.000	-0.002	-0.018
-368.756	-200.000	0.003	-0.203
-367.742	-53.186	-0.178	0.081
-366.727	211.163	-0.085	-0.134
-365.712	-164.857	0.184	0.008
-364.698	402.229	0.149	0.313
-363.683	231.778	-0.093	0.152
-362.669	-200.000	0.027	-0.156
-361.654	-96.827	-0.152	-0.040
-360.639	155.286	0.161	0.221
-359.625	-18.871	0.101	-0.063
-358.610	-200.000	0.029	-0.309
-357.596	-147.826	-0.239	-0.020
-356.581	-49.070	0.163	-0.078
-355.566	178.140	-0.070	0.102
-354.552	800.000	0.019	0.072
-353.537	-38.202	0.235	0.124
-352.523	-200.000	-0.011	-0.194
-351.508	11.368	0.221	-0.169
-350.493	41.223	0.159	-0.144
-349.479	-200.000	0.264	0.000
-348.464	124.810	0.102	-0.128
-347.450	-28.885	0.188	-0.108
-346.435	41.406	-0.123	-0.111
-345.420	-200.000	0.009	-0.051
-344.406	289.051	0.143	-0.259
-343.391	800.000	0.085	-0.262
-342.377	-110.043	0.143	0.030
-341.362	-82.961	0.273	-0.088
-340.348	-200.000	0.030	0.210
-339.333	466.822	0.004	0.009
-338.318	-21.230	0.140	-0.085
-337.304	-140.921	0.116	-0.012
-336.289	245.214	0.018	-0.030
-335.275	-121.687	-0.257	0.042
-334.260	-95.221	-0.200	-0.054
-333.245	-121.490	0.202	-0.033
-332.231	48.412	-0.048	0.045
-331.216	-93.391	0.327	-0.090
-330.202	-42.635	-0.200	-0.102
-329.187	161.000	0.194	-0.271
-328.172	139.232	-0.115	0.150
-327.158	-200.000	-0.017	0.204
-326.143	163.449	-0.145	0.204
-325.129	800.000	-0.067	-0.269
-324.114	89.028	-0.226	-0.251
-323.099	-200.000	0.014	-0.095
-322.085	-200.000	-0.028	0.360
-321.070	800.000	0.019	-0.070
-320.056	74.523	0.258	0.270
-319.041	-200.000	-0.006	0.315
-318.026	-200.000	0.010	-0.141
-317.012	-200.000	-0.003	0.049
-315.997	92.378	0.102	0.115
-314.983	-33.856	0.097	0.053
-313.968	92.970	0.057	-0.064
-312.953	-51.508	0.422	-0.196
-311.939	-200.000	0.041	-0.235
-310.924	114.979	-0.105	0.127
-309.910	-200.000	0.007	-0.049
-308.895	-101.239	0.412	-0.100
-307.880	-22.316	-0.109	-0.066
-306.866	-200.000	0.019	-0.179
-305.851	430.977	-0.115	0.248
-304.837	800.000	0.053	-0.195
-303.822	298.348	-0.065	-0.120
-302.807	245.506	-0.022	0.037
-301.793	169.450	0.039	-0.055
-300.778	-61.199	-0.154	0.065
-299.764	28.769	0.220	-0.185
-298.749	238.332	-0.235	0.388
-297.735	800.000	-0.107	0.307
-296.720	115.246	-0.091	0.111
-295.705	-47.972	-0.199	0.096
-294.691	-131.323	0.485	0.064
-293.676	-101.171	0.109	-0.027
-292.662	48.820	0.181	0.169
-291.647	-200.000	-0.025	0.195
-290.632	800.000	0.056	-0.165
-289.618	140.478	-0.052	0.069
-288.603	-156.189	-0.363	-0.023
-287.589	-200.000	0.042	-0.339
-286.574	67.414	-0.022	0.022
-285.559	151.833	0.200	-0.271
-284.545	400.729	-0.083	0.172
-283.530	-56.775	-0.133	0.059
-282.516	609.886	0.054	0.135
-281.501	-200.000	0.375	0.002
-280.486	800.000	0.097	0.363
-279.472	158.071	-0.191	0.263
-278.457	800.000	0.004	-0.011
-277.443	800.000	-0.077	-0.213
-276.428	-36.170	0.158	-0.085
-275.413	-200.000	-0.058	0.296
-274.399	-200.000	0.049	-0.266
-273.384	-108.778	-0.551	0.117
-272.370	14.351	-0.090	0.070
-271.355	-48.112	0.119	-0.057
-270.340	-50.995	0.063	-0.029
-269.326	290.783	-0.138	0.249
-268.311	6.645	0.185	0.137
-267.297	-200.000	0.007	0.155
-266.282	0.613	-0.101	-0.072
-265.267	-159.137	0.111	-0.006
-264.253	554.161	0.106	0.254
-263.238	-70.107	-0.177	0.067
-262.224	458.468	-0.160	0.354
-261.209	-200.000	0.002	0.093
-260.195	1.450	-0.064	0.046
-259.180	-52.339	0.231	-0.106
-258.165	-200.000	-0.026	0.502
-257.151	-200.000	0.033	0.355
-256.136	-91.494	0.199	-0.057
-255.122	164.528	0.246	-0.345
-254.107	-153.743	0.135	-0.009
-253.092	88.239	0.109	0.121
-252.078	153.880	-0.071	0.097
-251.063	-200.000	0.001	0.205
-250.049	216.932	0.084	-0.133
-249.034	712.050	-0.024	-0.064
-248.019	43.833	0.174	0.159
-247.005	203.364	-0.107	0.164
-245.990	800.000	0.032	0.124
-244.976	-59.067	-0.066	-0.028
-243.961	-44.587	-0.250	-0.124
-242.946	94.010	-0.216	0.243
-241.932	-46.605	-0.153	0.075
-240.917	-168.865	0.206	0.008
-239.903	177.210	-0.062	0.089
-238.888	60.863	0.079	0.078
-237.873	223.626	0.207	0.331
-236.859	100.842	0.132	-0.152
-235.844	265.023	-0.073	0.126
-234.830	-87.954	0.115	-0.034
-233.815	-92.099	-0.361	-0.101
-232.800	-200.000	0.035	-0.329
-231.786	90.263	-0.279	0.310
-230.771	-121.382	-0.106	0.017
-229.757	-53.171	0.119	-0.054
-228.742	-200.000	-0.058	-0.388
-227.727	800.000	-0.065	0.234
-226.713	231.461	0.255	-0.416
-225.698	-170.697	-0.295	-0.010
-224.684	201.569	0.036	0.056
-223.669	800.000	0.071	0.300
-222.655	800.000	-0.034	0.118
-221.640	-60.550	-0.128	-0.054
-220.625	349.232	0.012	-0.024
-219.611	-143.205	-0.438	-0.042
-218.596	698.845	-0.079	0.206
-217.582	-200.000	-0.003	-0.152
-216.567	124.365	0.127	-0.158
-215.552	684.294	-0.118	-0.306
-214.538	800.000	0.036	0.137
-213.523	8.439	0.338	0.252
-212.509	6.251	-0.290	0.213
-211.494	-200.000	-0.035	0.386
-210.479	-200.000	-0.028	0.298
-209.465	292.501	-0.205	-0.371
-208.450	-167.501	0.146	-0.006
-207.436	195.336	-0.252	-0.379
-206.421	-200.000	0.009	0.155
-205.406	432.128	0.081	-0.174
-204.392	-94.214	-0.138	0.037
-203.377	-124.219	0.135	0.021
-202.363	67.927	-0.026	0.027
-201.348	-155.753	0.193	0.012
-200.333	121.978	0.085	-0.105
-199.319	226.492	0.125	0.202
-198.304	228.439	0.066	0.107
-197.290	-75.654	-0.161	0.057
-196.275	-173.858	0.122	-0.004
-195.260	85.556	-0.109	-0.119
-194.246	552.523	-0.110	0.263
-193.231	-200.000	-0.055	0.406
-192.217	100.226	0.105	0.120
-191.202	168.653	0.118	-0.166
-190.187	-118.953	-0.358	-0.062
-189.173	-200.000	0.014	0.091
-188.158	158.937	0.098	-0.135
-187.144	142.359	-0.069	0.090
-186.129	-27.875	-0.388	0.223
-185.114	-95.787	-0.126	-0.033
-184.100	-200.000	-0.035	-0.286
-183.085	800.000	-0.051	0.175
-182.071	-13.872	0.153	0.098
-181.056	193.959	-0.034	-0.051
-180.042	-200.000	-0.010	0.076
-179.027	28.844	0.180	-0.151
-178.012	29.738	-0.076	-0.064
-176.998	-200.000	-0.007	-0.114
-175.983	-200.000	0.002	0.365
-174.969	-165.765	-0.512	0.022
-173.954	-49.788	0.355	0.167
-172.939	18.154	-0.128	0.101
-171.925	800.000	-0.044	-0.127
-170.910	-200.000	0.009	-0.119
-169.896	423.269	0.067	0.143
-168.881	-200.000	-0.056	-0.358
-167.866	-51.013	-0.179	-0.083
-166.852	-141.629	0.095	0.009
-165.837	4.551	0.209	0.152
-164.823	37.902	-0.083	-0.073
-163.808	-48.376	0.241	-0.115
-162.793	-179.706	0.341	-0.007
-161.779	12.365	0.171	-0.130
-160.764	-200.000	-0.033	-0.250
-159.750	-162.251	-0.236	0.012
-158.735	19.931	-0.169	0.135
-157.720	176.983	-0.165	-0.238
-156.706	-26.140	0.060	0.035
-155.691	143.238	0.219	-0.289
-154.677	13.890	-0.193	-0.148
-153.662	800.000	0.048	0.144
-152.647	759.974	0.057	-0.153
-151.633	-66.164	0.121	0.048
-150.618	-90.048	0.237	-0.068
-149.604	135.041	-0.189	0.244
-148.589	-71.725	0.180	0.066
-147.574	-200.000	0.094	-0.506
-146.560	-105.052	0.123	0.028
-145.545	-24.105	-0.142	0.084
-144.531	800.000	-0.038	0.158
-143.516	13.599	-0.016	-0.012
-142.502	157.685	0.210	-0.287
-141.487	-45.256	0.319	0.157
-140.472	-55.175	0.173	0.077
-139.458	800.000	-0.007	-0.023
-138.443	-200.000	0.024	-0.349
-137.429	-110.751	0.279	-0.057
-136.414	-200.000	-0.045	-0.254
-135.399	142.193	0.112	0.148
-134.385	-200.000	0.042	-0.278
-133.370	-40.466	-0.189	-0.097
-132.356	-86.078	-0.174	-0.053
-131.341	800.000	-0.083	0.261
-130.326	-200.000	-0.022	0.305
-129.312	368.074	0.079	0.159
-128.297	-52.736	0.217	0.099
-127.283	115.407	-0.234	0.283
-126.268	425.551	-0.091	0.194
-125.253	623.332	0.045	-0.111
-124.239	20.851	-0.243	0.195
-123.224	-200.000	0.014	-0.071
-122.210	-200.000	-0.042	-0.191
-121.195	75.054	-0.190	0.198
