DTS Sentinel unit serial number:	SN413079Multiplexer serial number:	ORYXHardware model number:	OX4-SRSoftware version number:	ORYX F/W v4.00 Oryx Data Collector v3.7.2.0data status	okinstallation	princeton_trtdifferential loss correction	single-endedforward channel	channel 4reverse channel	N/Adate	2019/09/11time	14:51:11forward acquisition time	60.00reverse acquisition time	0.00gamma	496.2192k internal	0.2278k external	0.2278temperature offset calibration	1.0007default loss term (dB/km)	0.3790temperature slope calibration	1.0000multiplexer offset coefficient	1.0000multiplexer slope coefficient	1.0000fibre end	0.00T internal ref (°C)	42.56T ext. ref 1 (°C)	0.92T ext. ref 2 (°C)	38.72length (m)	temperature (°C)	Stokes	anti-Stokes-747.200	-200.000	-0.003	-0.101
-746.185	-29.787	-0.297	0.175
-745.171	-47.200	-0.215	0.108
-744.156	-200.000	0.009	0.147
-743.142	-81.814	-0.288	-0.097
-742.127	260.472	-0.264	0.469
-741.112	-75.729	-0.395	0.144
-740.098	475.445	-0.125	0.290
-739.083	36.001	-0.127	-0.116
-738.069	134.459	0.104	0.139
-737.054	-87.656	0.123	0.038
-736.039	38.718	0.157	-0.145
-735.025	-183.075	-0.251	-0.005
-734.010	282.467	-0.060	0.110
-732.996	29.596	-0.280	-0.245
-731.981	-74.455	-0.299	0.111
-730.966	-91.371	0.167	-0.049
-729.952	-60.046	-0.192	0.084
-728.937	-200.000	0.005	0.082
-727.923	-30.081	0.010	0.006
-726.908	-143.626	-0.249	-0.024
-725.894	-177.507	-0.424	-0.011
-724.879	84.587	-0.179	-0.202
-723.864	-129.136	-0.413	-0.059
-722.850	142.778	-0.279	0.381
-721.835	26.768	0.341	-0.293
-720.821	800.000	0.121	-0.426
-719.806	39.432	-0.094	0.087
-718.791	-200.000	-0.005	-0.072
-717.777	800.000	-0.036	-0.104
-716.762	159.011	0.035	0.050
-715.748	584.708	0.067	0.170
-714.733	-95.181	-0.277	0.077
-713.718	-169.582	-0.237	-0.009
-712.704	-38.278	-0.148	-0.080
-711.689	-200.000	-0.028	-0.327
-710.675	61.956	-0.418	-0.428
-709.660	81.951	0.216	0.241
-708.645	-200.000	-0.006	0.071
-707.631	-200.000	0.005	-0.226
-706.616	-57.392	-0.282	0.127
-705.602	165.286	0.235	0.342
-704.587	-200.000	0.017	0.080
-703.572	-193.536	-0.236	0.002
-702.558	800.000	0.095	-0.383
-701.543	97.032	-0.060	-0.071
-700.529	-113.210	0.165	-0.033
-699.514	800.000	-0.100	-0.343
-698.499	-58.111	0.196	0.088
-697.485	-133.690	-0.186	-0.024
-696.470	422.824	-0.101	-0.223
-695.456	-200.000	0.013	-0.231
-694.441	-159.478	-0.163	-0.009
-693.426	-88.181	-0.055	-0.017
-692.412	273.033	-0.020	-0.035
-691.397	800.000	0.080	-0.258
-690.383	776.184	-0.112	0.315
-689.368	290.920	-0.161	-0.300
-688.354	-200.000	-0.009	0.186
-687.339	-136.458	0.162	0.019
-686.324	-118.669	0.228	0.041
-685.310	89.278	0.118	0.135
-684.295	-20.320	-0.094	0.059
-683.281	390.579	0.150	-0.320
-682.266	-51.808	0.131	0.062
-681.251	146.876	-0.012	-0.017
-680.237	-106.340	0.377	-0.087
-679.222	-90.905	-0.230	0.068
-678.208	599.105	0.062	-0.158
-677.193	270.789	-0.086	-0.156
-676.178	-69.849	-0.212	0.083
-675.164	-119.553	-0.198	0.035
-674.149	-200.000	0.014	-0.062
-673.135	-82.128	-0.286	0.096
-672.120	-121.305	-0.222	-0.038
-671.105	-200.000	-0.020	-0.347
-670.091	-143.314	-0.456	-0.045
-669.076	196.169	0.075	-0.117
-668.062	501.693	0.026	0.061
-667.047	-116.471	0.095	0.018
-666.032	117.203	0.138	0.174
-665.018	-200.000	0.025	0.124
-664.003	-100.153	0.510	0.130
-662.989	-173.806	-0.370	-0.011
-661.974	-200.000	0.053	0.270
-660.959	213.193	0.162	0.263
-659.945	-62.030	-0.258	-0.110
-658.930	378.189	-0.132	0.277
-657.916	-134.233	-0.149	0.019
-656.901	-200.000	0.019	-0.533
-655.886	-200.000	-0.027	-0.143
-654.872	-12.109	-0.366	0.246
-653.857	800.000	0.056	0.237
-652.843	-116.676	-0.131	-0.025
-651.828	-90.135	0.029	0.009
-650.814	800.000	-0.119	-0.340
-649.799	-74.288	0.059	0.022
-648.784	800.000	0.081	-0.290
-647.770	-200.000	-0.005	-0.405
-646.755	28.208	-0.124	-0.108
-645.741	-200.000	0.018	-0.102
-644.726	132.677	-0.179	0.236
-643.711	-91.491	-0.279	-0.082
-642.697	-90.938	-0.354	-0.105
-641.682	800.000	-0.044	-0.138
-640.668	283.019	-0.106	-0.196
-639.653	70.608	-0.249	-0.264
-638.638	800.000	-0.026	-0.100
-637.624	369.919	-0.207	-0.431
-636.609	150.384	0.061	0.085
-635.595	800.000	0.037	0.119
-634.580	115.611	-0.080	0.101
-633.565	108.324	-0.065	-0.079
-632.551	116.944	0.215	-0.271
-631.536	-139.226	-0.318	-0.035
-630.522	563.204	-0.093	-0.230
-629.507	-103.252	0.319	0.077
-628.492	59.165	-0.250	0.252
-627.478	-5.616	0.256	0.180
-626.463	800.000	-0.068	0.224
-625.449	233.694	-0.084	-0.141
-624.434	-161.243	-0.086	-0.005
-623.419	526.243	-0.177	-0.427
-622.405	-156.525	0.374	-0.024
-621.390	-200.000	0.033	-0.351
-620.376	-26.210	0.278	-0.168
-619.361	565.833	-0.030	0.076
-618.346	60.419	0.164	-0.166
-617.332	59.283	0.060	0.061
-616.317	-23.661	0.069	0.042
-615.303	69.369	0.154	-0.163
-614.288	-78.958	0.036	0.013
-613.273	-200.000	-0.001	-0.034
-612.259	16.722	0.118	0.096
-611.244	-200.000	-0.001	0.118
-610.230	12.896	0.136	-0.107
-609.215	-14.602	0.181	-0.119
-608.201	-3.383	-0.329	-0.235
-607.186	-200.000	-0.010	0.232
-606.171	472.479	-0.073	0.168
-605.157	82.211	-0.026	0.029
-604.142	9.622	-0.061	0.047
-603.128	-131.021	0.134	0.018
-602.113	128.189	0.095	0.124
-601.098	558.171	0.052	-0.128
-600.084	29.041	0.191	0.166
-599.069	-33.693	-0.164	-0.093
-598.055	-200.000	0.071	0.324
-597.040	0.045	0.220	-0.160
-596.025	-18.847	-0.254	-0.162
-595.011	416.769	-0.085	0.185
-593.996	-77.135	0.083	0.030
-592.982	800.000	-0.149	-0.501
-591.967	-200.000	-0.001	-0.133
-590.952	-110.775	-0.133	-0.028
-589.938	-79.045	-0.267	-0.093
-588.923	-0.059	-0.110	-0.080
-587.909	-200.000	0.035	-0.226
-586.894	-42.630	0.119	0.062
-585.879	-61.472	0.197	0.085
-584.865	-95.897	0.041	-0.011
-583.850	102.053	0.129	-0.155
-582.836	-200.000	-0.001	0.110
-581.821	-87.914	0.285	-0.088
-580.806	-200.000	0.004	-0.094
-579.792	-39.762	-0.244	0.130
-578.777	-12.451	-0.415	0.277
-577.763	157.062	-0.335	0.474
-576.748	800.000	0.067	0.201
-575.733	-117.077	-0.210	-0.039
-574.719	-19.699	-0.369	-0.233
-573.704	-200.000	-0.019	-0.285
-572.690	-138.482	-0.411	-0.046
-571.675	-200.000	-0.021	0.172
-570.661	257.032	0.073	-0.129
-569.646	72.118	0.190	0.203
-568.631	-200.000	0.062	0.279
-567.617	800.000	-0.034	-0.149
-566.602	-157.929	-0.341	0.021
-565.588	-7.999	-0.161	0.111
-564.573	-54.687	-0.157	-0.072
-563.558	523.044	0.020	0.048
-562.544	559.239	0.146	0.361
-561.529	800.000	-0.094	-0.277
-560.515	-200.000	-0.039	-0.219
-559.500	22.061	0.288	-0.240
-558.485	-39.921	0.284	-0.151
-557.471	-2.380	-0.209	0.150
-556.456	-56.064	0.027	0.012
-555.442	-43.933	0.348	-0.179
-554.427	-30.223	-0.081	0.047
-553.412	80.632	-0.200	-0.221
-552.398	204.014	0.150	-0.237
-551.383	-38.770	-0.196	0.106
-550.369	59.912	0.089	-0.090
-549.354	-44.549	-0.169	-0.086
-548.339	-30.144	-0.324	-0.188
-547.325	74.231	0.089	0.096
-546.310	-11.884	-0.085	0.057
-545.296	-200.000	-0.011	0.297
-544.281	-55.875	-0.203	-0.092
-543.266	-52.441	0.169	-0.080
-542.252	123.009	0.176	0.225
-541.237	-200.000	0.026	0.200
-540.223	-154.042	0.213	-0.015
-539.208	-88.975	0.245	-0.074
-538.193	-34.162	-0.234	0.132
-537.179	-179.947	0.149	-0.003
-536.164	-134.731	0.148	-0.018
-535.150	639.344	0.082	0.214
-534.135	99.082	0.091	0.108
-533.121	-200.000	-0.012	-0.118
-532.106	-200.000	-0.030	0.189
-531.091	88.313	-0.144	0.164
-530.077	-163.260	0.018	-0.001
-529.062	-38.039	-0.074	0.040
-528.048	-144.181	0.143	-0.014
-527.033	-200.000	0.035	0.307
-526.018	800.000	-0.053	-0.228
-525.004	137.131	0.161	-0.215
-523.989	800.000	0.110	0.360
-522.975	59.654	-0.151	0.152
-521.960	-12.815	0.188	0.125
-520.945	102.060	-0.127	0.151
-519.931	-140.130	0.398	-0.043
-518.916	-36.524	-0.238	-0.130
-517.902	-53.952	-0.345	0.161
-516.887	800.000	-0.044	0.125
-515.872	-163.998	-0.191	-0.009
-514.858	-200.000	0.009	-0.107
-513.843	256.590	-0.182	0.318
-512.829	-79.848	0.088	-0.030
-511.814	-46.239	-0.197	-0.099
-510.799	282.406	0.191	-0.349
-509.785	-75.853	-0.275	0.099
-508.770	800.000	0.080	-0.247
-507.756	800.000	0.009	-0.038
-506.741	-6.656	0.036	-0.025
-505.726	-69.298	0.106	-0.042
-504.712	-168.349	0.261	0.010
-503.697	115.786	-0.231	0.288
-502.683	-10.270	0.332	0.225
-501.668	233.168	0.191	-0.320
-500.653	205.773	-0.089	0.142
-499.639	-181.203	0.424	-0.009
-498.624	-61.063	0.147	-0.063
-497.610	440.900	0.145	0.324
-496.595	-200.000	-0.010	-0.048
-495.581	-200.000	0.079	-0.370
-494.566	54.598	-0.070	-0.069
-493.551	42.350	0.255	-0.236
-492.537	45.569	0.189	-0.178
-491.522	-200.000	0.048	0.254
-490.508	245.615	0.281	0.482
-489.493	86.346	-0.125	0.141
-488.478	-4.986	-0.204	-0.143
-487.464	192.481	0.032	-0.049
-486.449	202.397	0.061	-0.096
-485.435	101.498	0.092	0.109
-484.420	648.624	-0.078	-0.203
-483.405	-168.970	0.210	-0.008
-482.391	335.145	0.182	-0.359
-481.376	-141.807	0.273	-0.028
-480.362	309.218	0.017	0.033
-479.347	505.864	-0.105	-0.249
-478.332	148.729	0.129	0.178
-477.318	800.000	-0.110	0.316
-476.303	-198.514	0.049	-0.000
-475.289	-168.473	-0.255	0.010
-474.274	-200.000	-0.005	-0.135
-473.259	-91.859	-0.228	-0.066
-472.245	-106.655	0.222	0.050
-471.230	-57.535	-0.266	0.119
-470.216	-200.000	-0.023	0.179
-469.201	45.512	0.151	0.142
-468.186	293.734	-0.173	-0.321
-467.172	-81.571	-0.176	-0.059
-466.157	-46.664	-0.358	0.178
-465.143	20.122	0.182	0.149
-464.128	-22.851	-0.287	0.177
-463.113	40.455	-0.117	0.108
-462.099	7.101	0.062	0.047
-461.084	56.633	0.137	0.136
-460.070	129.743	0.071	-0.092
-459.055	776.651	0.078	-0.217
-458.040	33.747	0.226	-0.200
-457.026	-92.977	0.053	-0.015
-456.011	-200.000	-0.022	-0.137
-454.997	22.993	-0.045	0.037
-453.982	487.634	-0.046	0.108
-452.968	-74.419	0.396	0.145
-451.953	-115.271	-0.187	-0.036
-450.938	-88.638	0.362	0.110
-449.924	64.026	0.087	0.089
-448.909	-120.441	-0.183	-0.032
-447.895	3.861	-0.566	-0.421
-446.880	-95.319	-0.146	0.040
-445.865	433.393	0.046	0.102
-444.851	-88.390	0.201	-0.061
-443.836	94.888	0.248	0.287
-442.822	173.696	0.205	-0.301
-441.807	87.946	-0.249	-0.280
-440.792	800.000	-0.109	-0.320
-439.778	306.883	0.106	0.201
-438.763	370.048	0.107	0.221
-437.749	287.115	-0.035	0.064
-436.734	185.086	0.078	0.118
-435.719	-91.757	-0.024	0.007
-434.705	653.356	0.116	-0.303
-433.690	208.802	-0.144	-0.229
-432.676	-5.473	-0.204	0.142
-431.661	-140.247	-0.306	-0.033
-430.646	800.000	-0.054	0.183
-429.632	91.140	-0.206	-0.235
-428.617	-170.032	-0.123	0.004
-427.603	-32.059	0.205	0.117
-426.588	800.000	0.018	-0.066
-425.573	-6.926	-0.213	0.147
-424.559	558.526	0.121	0.297
-423.544	-125.154	-0.149	0.023
-422.530	-112.714	0.110	0.022
-421.515	-117.961	-0.183	0.033
-420.500	-200.000	0.036	0.258
-419.486	-187.819	0.267	-0.004
-418.471	800.000	0.088	0.263
-417.457	800.000	-0.099	0.298
-416.442	275.951	0.102	0.184
-415.428	212.267	-0.036	0.058
-414.413	148.998	0.072	-0.099
-413.398	195.570	-0.117	-0.180
-412.384	800.000	0.080	0.228
-411.369	-128.660	-0.078	0.011
-410.355	-200.000	-0.010	-0.124
-409.340	82.607	0.267	-0.295
-408.325	322.886	0.115	-0.222
-407.311	54.048	0.268	-0.262
-406.296	-26.653	-0.018	-0.011
-405.282	79.793	-0.070	-0.076
-404.267	-38.796	-0.063	0.034
-403.252	-123.199	0.047	0.008
-402.238	-200.000	0.026	0.176
-401.223	107.276	0.194	0.234
-400.209	66.861	0.270	0.279
-399.194	-112.224	0.234	0.048
-398.179	89.765	-0.164	-0.186
-397.165	-200.000	-0.011	0.354
-396.150	-174.385	0.263	-0.008
-395.136	351.772	0.150	0.303
-394.121	115.000	0.217	-0.268
-393.106	-200.000	-0.013	-0.062
-392.092	48.250	0.147	-0.140
-391.077	-110.284	-0.194	0.041
-390.063	800.000	0.076	0.242
-389.048	-143.310	-0.108	-0.011
-388.033	48.467	0.162	-0.154
-387.019	800.000	0.069	0.218
-386.004	-93.730	0.108	-0.030
-384.990	-119.717	0.254	-0.044
-383.975	-200.000	0.042	0.358
-382.960	-36.196	-0.257	0.141
-381.946	-200.000	0.031	0.170
-380.931	-91.683	0.065	0.019
-379.917	800.000	-0.035	-0.102
-378.902	-68.456	0.134	-0.053
-377.888	-130.163	0.182	-0.025
-376.873	-61.878	0.142	-0.060
-375.858	138.158	-0.192	0.255
-374.844	-144.036	-0.248	0.024
-373.829	-200.000	-0.016	-0.192
-372.815	47.688	0.294	-0.279
-371.800	-200.000	0.039	-0.223
-370.785	-108.356	-0.234	0.051
-369.771	-153.092	-0.129	0.009
-368.756	-77.249	-0.144	-0.051
-367.742	-200.000	-0.029	-0.159
-366.727	-70.124	-0.104	0.040
-365.712	103.973	0.066	-0.079
-364.698	-187.689	0.278	0.004
-363.683	55.308	0.026	0.026
-362.669	-38.310	-0.128	0.069
-361.654	466.872	0.065	0.148
-360.639	-200.000	-0.016	0.153
-359.625	73.340	0.253	0.269
-358.610	-200.000	0.017	0.084
-357.596	-66.743	-0.164	-0.066
-356.581	800.000	0.056	-0.238
-355.566	195.112	0.054	0.083
-354.552	-82.676	-0.164	0.054
-353.537	-200.000	0.001	0.349
-352.523	26.642	0.144	-0.123
-351.508	53.415	0.237	-0.231
-350.493	-137.323	-0.303	-0.035
-349.479	486.350	-0.055	0.127
-348.464	24.151	0.015	0.012
-347.450	-191.007	0.210	-0.002
-346.435	-200.000	0.014	0.105
-345.420	-42.347	0.105	0.054
-344.406	151.377	-0.097	-0.134
-343.391	-35.890	0.216	-0.118
-342.377	78.429	-0.070	0.076
-341.362	-200.000	0.051	0.233
-340.348	95.788	-0.111	-0.129
-339.333	-200.000	-0.009	0.125
-338.318	800.000	0.056	-0.241
-337.304	95.619	-0.176	0.203
-336.289	-200.000	0.064	0.000
-335.275	-151.293	0.069	0.005
-334.260	800.000	-0.055	-0.191
-333.245	156.894	-0.092	-0.128
-332.231	89.129	0.212	0.240
-331.216	-76.316	-0.264	0.094
-330.202	233.871	-0.121	-0.202
-329.187	257.790	-0.092	0.160
-328.172	-200.000	-0.014	0.190
-327.158	81.381	-0.099	0.108
-326.143	94.345	0.022	-0.025
-325.129	800.000	0.013	-0.037
-324.114	497.038	0.119	0.277
-323.099	-200.000	-0.022	-0.263
-322.085	144.016	0.144	0.195
-321.070	-200.000	-0.001	-0.146
-320.056	73.822	-0.209	-0.222
-319.041	800.000	0.065	-0.199
-318.026	84.868	0.131	-0.145
-317.012	81.397	0.095	0.104
-315.997	-102.542	-0.357	-0.086
-314.983	104.606	-0.063	-0.075
-313.968	800.000	-0.060	0.206
-312.953	109.242	-0.141	0.171
-311.939	126.300	-0.108	0.138
-310.924	2.900	-0.149	-0.110
-309.910	39.046	-0.288	-0.260
-308.895	800.000	-0.060	-0.265
-307.880	-110.610	-0.093	0.019
-306.866	3.291	-0.238	0.175
-305.851	-200.000	0.055	0.284
-304.837	800.000	0.075	-0.239
-303.822	189.797	-0.045	-0.068
-302.807	-101.219	0.131	0.032
-301.793	-98.932	-0.515	-0.132
-300.778	23.004	0.042	0.035
-299.764	-70.953	0.082	-0.031
-298.749	526.231	-0.148	-0.354
-297.735	409.817	0.063	0.135
-296.720	-84.370	-0.087	0.028
-295.705	-200.000	0.015	0.072
-294.691	-127.682	0.069	-0.010
-293.676	55.627	-0.245	-0.240
-292.662	60.561	0.112	-0.112
-291.647	800.000	0.036	0.143
-290.632	231.458	0.192	0.318
-289.618	597.572	-0.024	-0.059
-288.603	800.000	0.026	-0.079
-287.589	-200.000	-0.023	0.190
-286.574	267.285	0.028	0.050
-285.559	-200.000	0.011	0.263
-284.545	-154.751	0.376	0.025
-283.530	-143.751	0.122	-0.012
-282.516	-88.818	-0.597	0.179
-281.501	239.264	0.106	0.179
-280.486	-52.963	0.180	0.084
-279.472	-16.356	0.034	-0.022
-278.457	42.151	-0.084	0.078
-277.443	-200.000	0.026	0.220
-276.428	0.997	-0.236	0.171
-275.413	11.987	-0.090	0.070
-274.399	-130.354	-0.316	-0.043
-273.384	-116.372	-0.217	-0.041
-272.370	77.085	0.083	-0.089
-271.355	770.316	-0.094	-0.259
-270.340	71.080	-0.178	0.187
-269.326	204.342	0.100	-0.156
-268.311	414.083	-0.068	-0.147
-267.297	-21.369	0.221	0.136
-266.282	153.075	-0.049	0.068
-265.267	-91.196	0.142	-0.041
-264.253	133.149	0.002	0.003
-263.238	71.208	0.145	0.152
-262.224	-57.134	-0.158	0.070
-261.209	-23.325	0.172	-0.104
-260.195	125.732	0.315	-0.401
-259.180	51.778	0.020	-0.019
-258.165	-200.000	0.018	-0.126
-257.151	160.109	-0.022	-0.031
-256.136	266.855	-0.238	0.421
-255.122	800.000	-0.032	0.124
-254.107	115.729	-0.088	-0.109
-253.092	4.008	-0.106	0.078
-252.078	-95.926	-0.197	0.053
-251.063	-200.000	0.028	0.229
-250.049	128.743	-0.095	-0.122
-249.034	28.011	-0.253	-0.216
-248.019	239.689	-0.045	-0.076
-247.005	-28.144	-0.144	-0.084
-245.990	353.375	-0.208	0.417
-244.976	-199.206	0.135	-0.001
-243.961	31.497	0.154	0.134
-242.946	-42.802	0.034	0.018
-241.932	-200.000	0.023	-0.173
-240.917	35.183	-0.178	0.157
-239.903	275.086	-0.035	0.062
-238.888	159.920	-0.277	-0.389
-237.873	-79.455	-0.133	0.046
-236.859	-200.000	0.058	0.386
-235.844	9.921	-0.106	-0.082
-234.830	-141.063	-0.027	-0.003
-233.815	-200.000	-0.060	0.342
-232.800	-157.776	0.373	-0.022
-231.786	92.910	-0.096	-0.109
-230.771	23.458	0.081	-0.067
-229.757	-200.000	-0.053	0.362
-228.742	-200.000	-0.034	-0.282
-227.727	-126.808	-0.177	0.026
-226.713	800.000	-0.032	-0.105
-225.698	127.588	-0.174	-0.223
-224.684	-46.458	0.220	0.109
-223.669	-29.403	-0.083	0.048
-222.655	-200.000	0.010	-0.166
-221.640	-5.534	0.227	-0.157
-220.625	119.800	0.206	0.257
-219.611	86.254	-0.110	0.122
-218.596	204.617	0.078	-0.122
-217.582	176.852	0.241	-0.353
-216.567	-45.042	0.120	0.060
-215.552	-22.732	0.226	-0.138
-214.538	194.204	0.206	0.315
-213.523	96.800	-0.175	0.202
-212.509	-72.140	0.107	-0.040
-211.494	-95.817	-0.246	-0.066
-210.479	-35.266	-0.030	-0.017
-209.465	-142.490	0.364	-0.036
-208.450	0.906	0.273	0.197
-207.436	-200.000	0.009	0.201
-206.421	11.535	-0.135	-0.104
-205.406	800.000	-0.063	0.213
-204.392	-200.000	0.027	0.131
-203.377	-200.000	-0.019	0.116
-202.363	-200.000	-0.055	0.314
-201.348	118.129	-0.132	0.164
-200.333	-200.000	0.012	0.057
-199.319	-148.133	0.050	0.004
-198.304	203.534	-0.117	-0.183
-197.290	46.317	-0.071	0.067
-196.275	-200.000	0.031	-0.149
-195.260	-200.000	0.009	0.041
-194.246	-113.985	-0.172	0.034
-193.231	-200.000	0.019	-0.465
-192.217	100.539	0.171	-0.200
-191.202	-200.000	0.044	-0.356
-190.187	800.000	0.038	0.147
-189.173	-61.896	0.188	-0.079
-188.158	800.000	0.051	-0.200
-187.144	47.506	-0.195	0.183
-186.129	-35.801	-0.472	0.257
-185.114	178.461	0.070	-0.103
-184.100	14.094	0.030	0.024
-183.085	2.153	-0.230	0.168
-182.071	-200.000	-0.002	-0.135
-181.056	116.845	0.185	-0.228
-180.042	60.485	0.233	-0.233
-179.027	-64.107	-0.119	0.049
-178.012	1.809	0.105	0.076
-176.998	-48.734	0.321	0.155
-175.983	-200.000	-0.016	0.236
-174.969	-113.583	0.123	0.024
-173.954	240.861	0.062	-0.105
-172.939	-12.910	-0.073	-0.048
-171.925	93.606	0.147	-0.167
-170.910	282.159	-0.006	-0.010
-169.896	-74.354	-0.213	0.078
-168.881	124.924	-0.135	-0.171
-167.866	-200.000	-0.036	-0.367
-166.852	-53.323	0.188	-0.087
-165.837	-33.994	0.193	0.107
-164.823	-137.285	-0.196	-0.022
-163.808	-98.846	0.316	-0.081
-162.793	-200.000	-0.004	-0.022
-161.779	800.000	-0.026	0.074
-160.764	-1.464	-0.067	0.048
-159.750	337.224	-0.023	0.044
-158.735	130.506	0.043	-0.055
-157.720	-120.430	0.309	0.053
-156.706	-42.889	0.158	-0.081
-155.691	-19.716	0.101	0.063
-154.677	-200.000	-0.050	-0.253
-153.662	-96.120	-0.218	-0.058
-152.647	-59.115	0.309	-0.134
-151.633	-15.777	-0.060	-0.039
-150.618	-200.000	0.022	-0.203
-149.604	800.000	-0.105	0.320
-148.589	-200.000	-0.008	0.215
-147.574	31.116	-0.058	-0.050
-146.560	166.625	0.187	0.266
-145.545	-28.297	-0.087	-0.051
-144.531	-92.214	0.219	-0.062
-143.516	-24.357	-0.134	-0.080
-142.502	212.778	0.157	0.250
-141.487	-200.000	-0.057	-0.365
-140.472	-200.000	0.003	-0.060
-139.458	50.274	0.045	0.042
-138.443	20.651	-0.126	-0.103
-137.429	36.525	-0.186	-0.165
-136.414	-109.461	0.314	0.067
-135.399	-200.000	0.007	0.319
-134.385	800.000	0.013	-0.058
-133.370	631.838	0.077	0.196
-132.356	43.121	0.290	0.266
-131.341	175.698	0.154	0.225
-130.326	-75.905	0.190	0.068
-129.312	215.210	-0.048	-0.076
-128.297	-200.000	-0.027	0.187
-127.283	-9.986	-0.207	-0.138
-126.268	-57.528	0.213	0.094
-125.253	800.000	-0.031	0.097
-124.239	113.900	0.132	-0.161
-123.224	70.979	0.226	-0.235
-122.210	-120.979	0.059	-0.010
-121.195	800.000	-0.073	0.275
