DTS Sentinel unit serial number:	SN413079Multiplexer serial number:	ORYXHardware model number:	OX4-SRSoftware version number:	ORYX F/W v4.00 Oryx Data Collector v3.7.2.0data status	okinstallation	princeton_trtdifferential loss correction	single-endedforward channel	channel 4reverse channel	N/Adate	2019/09/11time	11:19:11forward acquisition time	60.00reverse acquisition time	0.00gamma	496.2192k internal	0.2292k external	0.2292temperature offset calibration	0.9971default loss term (dB/km)	0.3790temperature slope calibration	1.0000multiplexer offset coefficient	1.0000multiplexer slope coefficient	1.0000fibre end	0.00T internal ref (°C)	37.70T ext. ref 1 (°C)	0.17T ext. ref 2 (°C)	34.53length (m)	temperature (°C)	Stokes	anti-Stokes-747.200	-125.133	-0.251	0.039
-746.185	800.000	-0.029	0.096
-745.171	-200.000	0.025	-0.169
-744.156	-180.186	-0.185	-0.004
-743.142	95.740	-0.065	0.076
-742.127	800.000	-0.051	0.172
-741.112	-158.505	-0.211	0.013
-740.098	94.060	-0.224	0.260
-739.083	110.105	-0.052	0.064
-738.069	-108.763	-0.154	-0.034
-737.054	433.491	0.023	0.051
-736.039	-101.441	-0.561	0.140
-735.025	-200.000	-0.003	0.380
-734.010	124.143	0.071	0.091
-732.996	800.000	-0.071	-0.300
-731.981	-47.764	0.238	-0.118
-730.966	236.859	0.125	0.211
-729.952	-198.805	-0.075	-0.000
-728.937	113.192	-0.216	-0.268
-727.923	72.039	-0.154	-0.164
-726.908	800.000	-0.014	-0.060
-725.894	-11.427	-0.184	0.124
-724.879	-43.823	-0.053	-0.027
-723.864	-79.687	0.098	-0.034
-722.850	-132.737	0.502	-0.066
-721.835	182.113	-0.141	0.213
-720.821	-200.000	0.042	-0.233
-719.806	23.288	-0.194	0.163
-718.791	79.941	0.116	-0.127
-717.777	-99.404	0.218	0.056
-716.762	333.976	-0.088	0.174
-715.748	800.000	-0.068	-0.238
-714.733	178.908	0.052	-0.078
-713.718	-200.000	-0.063	-0.379
-712.704	146.551	0.080	-0.110
-711.689	-129.358	0.053	0.008
-710.675	-36.691	0.220	0.121
-709.660	800.000	0.031	0.106
-708.645	-95.529	-0.205	-0.056
-707.631	246.346	0.041	0.070
-706.616	28.713	0.245	0.212
-705.602	-200.000	-0.016	-0.209
-704.587	-44.769	-0.103	-0.052
-703.572	121.957	-0.086	-0.110
-702.558	-200.000	-0.028	-0.246
-701.543	-55.735	0.183	0.084
-700.529	-181.629	0.259	-0.005
-699.514	492.451	-0.073	-0.171
-698.499	30.223	-0.015	-0.013
-697.485	96.853	0.143	-0.167
-696.470	18.661	0.161	0.132
-695.456	361.633	0.203	0.415
-694.441	26.728	0.086	0.074
-693.426	773.917	-0.112	0.313
-692.412	-34.371	0.163	0.091
-691.397	-200.000	0.021	0.099
-690.383	-37.955	0.303	0.164
-689.368	-200.000	-0.047	-0.317
-688.354	63.107	-0.237	0.242
-687.339	-128.469	-0.334	0.048
-686.324	800.000	0.101	-0.312
-685.310	-200.000	-0.050	0.255
-684.295	45.237	0.217	-0.205
-683.281	-36.810	0.181	-0.099
-682.266	76.896	-0.147	-0.159
-681.251	-200.000	-0.002	-0.244
-680.237	38.305	0.096	0.088
-679.222	434.851	-0.074	0.164
-678.208	146.608	-0.268	0.367
-677.193	-33.468	0.153	-0.086
-676.178	-200.000	-0.014	-0.215
-675.164	156.881	0.227	-0.320
-674.149	114.372	-0.024	-0.030
-673.135	-200.000	-0.017	-0.216
-672.120	-13.958	-0.227	0.149
-671.105	-107.512	-0.225	0.050
-670.091	-70.801	0.345	0.133
-669.076	711.493	-0.110	0.296
-668.062	-114.983	0.022	0.004
-667.047	-41.866	-0.262	-0.137
-666.032	293.248	-0.213	0.397
-665.018	-145.512	-0.241	0.022
-664.003	-49.242	0.204	0.099
-662.989	19.815	-0.189	-0.155
-661.974	-131.706	-0.220	-0.029
-660.959	-111.752	0.233	0.048
-659.945	-67.605	-0.151	-0.060
-658.930	-71.932	-0.228	-0.087
-657.916	85.508	-0.059	-0.066
-656.901	239.597	-0.176	0.299
-655.886	-27.768	-0.266	0.157
-654.872	-200.000	0.038	-0.354
-653.857	-200.000	-0.061	-0.428
-652.843	-200.000	-0.053	0.323
-651.828	-89.211	-0.256	0.077
-650.814	-83.134	0.100	0.033
-649.799	165.303	-0.107	0.153
-648.784	-52.269	-0.304	0.144
-647.770	165.606	-0.073	0.105
-646.755	-148.069	0.169	0.014
-645.741	695.516	-0.046	0.123
-644.726	-28.747	-0.141	0.083
-643.711	800.000	-0.104	-0.307
-642.697	-111.054	0.083	0.017
-641.682	-200.000	-0.031	-0.311
-640.668	83.447	-0.105	0.116
-639.653	-200.000	0.019	0.245
-638.638	-62.484	-0.102	0.043
-637.624	25.418	-0.119	-0.100
-636.609	-67.068	0.071	0.028
-635.595	-200.000	-0.015	0.147
-634.580	-6.207	0.310	0.216
-633.565	-49.248	-0.347	0.169
-632.551	58.568	-0.381	-0.381
-631.536	-200.000	0.010	-0.227
-630.522	800.000	0.046	0.178
-629.507	-200.000	0.041	0.344
-628.492	116.535	-0.094	-0.117
-627.478	83.103	-0.148	0.164
-626.463	-83.615	-0.253	0.082
-625.449	-123.463	-0.120	-0.020
-624.434	139.353	-0.088	0.117
-623.419	800.000	0.129	-0.552
-622.405	24.199	0.189	-0.159
-621.390	800.000	-0.027	-0.085
-620.376	-129.597	0.150	0.021
-619.361	1.030	0.160	-0.117
-618.346	-52.363	-0.101	0.047
-617.332	-89.962	-0.085	-0.025
-616.317	-93.626	-0.247	-0.069
-615.303	35.575	0.212	0.189
-614.288	66.929	-0.155	-0.161
-613.273	25.964	0.138	-0.117
-612.259	-149.247	0.314	0.026
-611.244	-156.393	-0.297	0.019
-610.230	800.000	-0.021	-0.067
-609.215	104.441	-0.169	0.203
-608.201	-200.000	-0.031	0.162
-607.186	14.577	-0.134	-0.106
-606.171	-200.000	0.014	0.133
-605.157	290.371	0.151	-0.280
-604.142	32.247	0.042	-0.037
-603.128	-151.713	-0.456	-0.034
-602.113	-200.000	-0.019	0.278
-601.098	9.319	0.119	-0.092
-600.084	-118.939	0.189	0.034
-599.069	-44.370	-0.116	0.059
-598.055	-154.079	-0.180	-0.012
-597.040	134.964	0.156	0.206
-596.025	38.104	-0.213	0.193
-595.011	-108.747	0.067	0.015
-593.996	251.110	-0.029	-0.049
-592.982	208.350	-0.202	-0.322
-591.967	767.674	-0.034	-0.094
-590.952	489.876	-0.058	0.135
-589.938	-30.460	-0.260	0.150
-588.923	329.544	-0.029	-0.058
-587.909	-200.000	0.020	0.200
-586.894	403.550	0.044	-0.094
-585.879	-200.000	0.049	-0.221
-584.865	-131.133	0.081	0.011
-583.850	331.286	0.106	0.208
-582.836	5.466	0.221	0.166
-581.821	464.206	0.063	-0.144
-580.806	-55.189	-0.395	-0.180
-579.792	-92.207	-0.359	0.103
-578.777	31.643	0.153	0.133
-577.763	426.830	-0.062	0.135
-576.748	-65.784	-0.240	-0.098
-575.733	800.000	0.031	0.105
-574.719	170.428	0.249	-0.363
-573.704	800.000	0.049	-0.218
-572.690	182.421	0.056	-0.084
-571.675	212.705	0.218	-0.350
-570.661	-67.651	-0.445	0.177
-569.646	485.262	-0.104	0.242
-568.631	417.703	0.026	0.057
-567.617	321.227	-0.132	-0.255
-566.602	-91.627	0.235	0.068
-565.588	800.000	-0.029	-0.121
-564.573	800.000	-0.054	-0.173
-563.558	-200.000	0.009	-0.107
-562.544	-118.468	0.066	0.012
-561.529	21.197	-0.153	-0.127
-560.515	-200.000	0.006	0.205
-559.500	-159.121	0.375	0.022
-558.485	-63.178	0.072	-0.030
-557.471	-55.021	-0.191	-0.088
-556.456	-66.309	-0.200	0.081
-555.442	26.339	0.061	0.052
-554.427	127.248	-0.325	-0.419
-553.412	-200.000	0.070	-0.367
-552.398	-69.061	0.186	-0.073
-551.383	29.139	0.129	0.111
-550.369	210.681	0.088	0.140
-549.354	-142.716	0.265	0.026
-548.339	195.301	0.151	0.233
-547.325	-100.112	-0.108	-0.027
-546.310	-99.498	0.150	-0.038
-545.296	-200.000	-0.009	-0.337
-544.281	76.088	-0.233	-0.250
-543.266	26.601	-0.122	-0.103
-542.252	577.637	0.038	-0.094
-541.237	-127.129	-0.141	0.021
-540.223	800.000	-0.150	-0.424
-539.208	543.111	0.169	-0.410
-538.193	-200.000	-0.061	-0.328
-537.179	-132.814	-0.368	0.048
-536.164	-75.993	-0.272	0.098
-535.150	-56.114	0.413	-0.187
-534.135	-136.970	0.191	-0.022
-533.121	-144.560	0.128	0.012
-532.106	-39.138	0.181	-0.096
-531.091	-148.731	0.077	-0.006
-530.077	-200.000	-0.011	-0.054
-529.062	-28.012	-0.453	-0.266
-528.048	800.000	-0.064	0.220
-527.033	28.425	-0.094	0.080
-526.018	-185.620	-0.187	0.003
-525.004	-88.252	0.221	0.067
-523.989	-3.343	0.213	0.150
-522.975	19.150	-0.146	-0.119
-521.960	-104.986	-0.125	0.029
-520.945	157.837	0.146	-0.205
-519.931	725.246	0.043	0.118
-518.916	92.543	0.147	-0.168
-517.902	15.528	-0.225	-0.179
-516.887	-200.000	-0.144	-0.000
-515.872	-146.907	0.281	0.025
-514.858	-138.009	0.204	-0.023
-513.843	800.000	0.071	0.227
-512.829	-19.240	0.065	0.041
-511.814	-8.004	-0.143	0.098
-510.799	800.000	0.034	0.096
-509.785	800.000	0.087	0.304
-508.770	-127.748	-0.072	-0.011
-507.756	5.413	-0.158	-0.119
-506.741	26.258	-0.161	-0.136
-505.726	-91.180	-0.422	0.123
-504.712	-199.600	-0.195	-0.001
-503.697	-88.648	-0.107	-0.032
-502.683	-29.352	-0.194	-0.112
-501.668	-128.236	0.287	-0.042
-500.653	-103.460	0.105	0.025
-499.639	-44.481	0.196	-0.099
-498.624	22.251	0.152	-0.126
-497.610	161.116	0.086	0.121
-496.595	100.853	-0.268	-0.316
-495.581	-200.000	0.031	-0.153
-494.566	-118.460	0.040	0.007
-493.551	24.556	-0.101	-0.085
-492.537	797.885	-0.065	-0.181
-491.522	34.052	0.144	-0.127
-490.508	-89.832	-0.217	-0.064
-489.493	-200.000	0.037	0.222
-488.478	-200.000	0.026	0.238
-487.464	-180.942	-0.119	0.002
-486.449	-132.299	-0.345	-0.045
-485.435	800.000	0.082	-0.309
-484.420	-200.000	-0.032	0.158
-483.405	-135.008	-0.139	-0.017
-482.391	116.229	0.082	-0.102
-481.376	190.238	0.135	0.206
-480.362	140.324	-0.100	-0.134
-479.347	-167.502	0.060	0.002
-478.332	-165.139	-0.380	0.017
-477.318	-38.520	0.230	-0.123
-476.303	41.374	-0.032	-0.029
-475.289	-200.000	-0.073	0.474
-474.274	-44.666	0.197	0.099
-473.259	99.646	-0.048	0.056
-472.245	-155.608	0.205	-0.013
-471.230	-200.000	0.005	0.157
-470.216	-200.000	-0.002	-0.072
-469.201	-106.337	0.038	-0.009
-468.186	21.060	0.237	-0.195
-467.172	-12.713	-0.245	0.161
-466.157	767.559	-0.039	-0.108
-465.143	216.104	-0.034	-0.055
-464.128	-124.026	0.138	-0.022
-463.113	-94.889	-0.330	-0.090
-462.099	-200.000	-0.057	-0.261
-461.084	-200.000	-0.018	0.352
-460.070	800.000	-0.052	-0.199
-459.055	-56.051	-0.042	0.019
-458.040	-200.000	0.051	-0.329
-457.026	35.571	-0.148	-0.131
-456.011	-147.952	0.132	0.011
-454.997	-89.908	-0.176	0.052
-453.982	-180.478	0.397	0.008
-452.968	-62.676	0.328	-0.138
-451.953	-88.440	0.201	0.061
-450.938	33.970	-0.314	-0.277
-449.924	571.344	-0.134	0.331
-448.909	10.022	0.315	-0.242
-447.895	-200.000	0.008	0.250
-446.880	212.421	0.113	-0.180
-445.865	-200.000	0.406	-0.000
-444.851	800.000	0.012	-0.041
-443.836	-72.999	0.116	-0.043
-442.822	286.027	0.058	-0.107
-441.807	-200.000	0.046	-0.369
-440.792	682.682	0.125	-0.329
-439.778	-33.001	0.194	0.109
-438.763	-182.201	0.240	-0.005
-437.749	49.863	-0.159	0.152
-436.734	465.607	0.066	-0.150
-435.719	-200.000	-0.031	0.450
-434.705	-173.004	-0.135	0.004
-433.690	-200.000	-0.045	0.284
-432.676	202.742	-0.173	0.270
-431.661	53.467	0.220	-0.214
-430.646	-96.152	-0.040	0.011
-429.632	-200.000	0.045	-0.236
-428.617	-200.000	-0.014	0.162
-427.603	49.842	-0.145	0.138
-426.588	800.000	0.062	0.235
-425.573	-200.000	-0.017	-0.124
-424.559	56.441	0.109	-0.107
-423.544	31.627	0.076	-0.066
-422.530	800.000	-0.043	0.174
-421.515	-0.710	-0.165	-0.118
-420.500	-114.698	-0.201	0.039
-419.486	-77.178	0.243	-0.085
-418.471	88.309	-0.209	-0.235
-417.457	90.392	0.147	0.167
-416.442	-13.587	0.064	-0.042
-415.428	-200.000	0.071	0.316
-414.413	-200.000	-0.026	0.152
-413.398	-200.000	0.047	0.327
-412.384	86.889	0.324	0.362
-411.369	-200.000	0.048	0.457
-410.355	639.686	0.069	0.176
-409.340	534.872	0.059	0.140
-408.325	7.787	0.291	0.220
-407.311	-114.794	0.088	0.017
-406.296	-200.000	0.076	-0.553
-405.282	221.850	-0.180	-0.292
-404.267	37.604	0.088	-0.079
-403.252	-200.000	-0.029	-0.193
-402.238	-53.121	0.370	-0.172
-401.223	-75.911	0.263	0.094
-400.209	-200.000	-0.040	0.314
-399.194	147.969	-0.143	0.195
-398.179	-200.000	0.007	-0.280
-397.165	100.640	-0.103	0.121
-396.150	-133.608	0.165	-0.021
-395.136	-53.387	0.154	0.071
-394.121	-61.960	-0.218	-0.092
-393.106	137.855	0.145	0.192
-392.092	-200.000	0.026	-0.360
-391.077	800.000	-0.020	0.085
-390.063	-29.230	0.104	0.060
-389.048	-26.169	-0.131	-0.078
-388.033	-5.865	-0.272	0.188
-387.019	-55.494	-0.121	0.055
-386.004	-164.876	-0.260	0.012
-384.990	-13.362	-0.167	-0.109
-383.975	-200.000	-0.014	-0.143
-382.960	-200.000	-0.014	-0.263
-381.946	92.721	-0.085	0.097
-380.931	-200.000	-0.025	0.193
-379.917	-53.663	-0.116	0.053
-378.902	-2.786	-0.151	0.107
-377.888	373.726	0.137	0.280
-376.873	-48.327	0.378	0.184
-375.858	800.000	-0.067	0.219
-374.844	-173.160	-0.201	-0.006
-373.829	54.423	0.203	-0.197
-372.815	194.841	0.093	-0.142
-371.800	-17.208	-0.180	-0.115
-370.785	-40.659	0.208	0.109
-369.771	-133.000	-0.085	0.011
-368.756	-127.385	-0.472	0.069
-367.742	-150.453	-0.140	0.011
-366.727	-133.711	-0.160	0.020
-365.712	229.044	0.175	0.287
-364.698	-83.782	0.216	0.070
-363.683	35.728	0.385	-0.341
-362.669	-189.873	-0.154	-0.002
-361.654	-200.000	0.011	-0.209
-360.639	-12.339	-0.119	-0.078
-359.625	178.722	0.103	0.152
-358.610	-176.681	0.039	-0.001
-357.596	-1.670	-0.151	-0.107
-356.581	79.884	0.186	0.201
-355.566	-124.968	0.140	0.022
-354.552	-24.711	-0.369	-0.221
-353.537	522.187	-0.087	-0.206
-352.523	-89.460	0.093	0.028
-351.508	-1.242	-0.200	-0.143
-350.493	38.012	-0.147	-0.132
-349.479	800.000	0.039	0.147
-348.464	85.735	0.250	-0.277
-347.450	561.690	-0.105	0.256
-346.435	800.000	-0.061	-0.240
-345.420	-200.000	0.420	-0.001
-344.406	115.174	-0.131	-0.162
-343.391	-200.000	0.018	0.208
-342.377	146.312	-0.325	0.439
-341.362	800.000	0.112	-0.404
-340.348	43.055	-0.115	-0.106
-339.333	-200.000	0.022	0.222
-338.318	179.655	0.177	0.260
-337.304	-160.502	0.046	-0.002
-336.289	-6.448	0.107	-0.074
-335.275	800.000	0.038	-0.141
-334.260	154.583	-0.124	0.172
-333.245	10.742	0.189	0.146
-332.231	-124.187	0.108	-0.017
-331.216	-200.000	0.102	0.000
-330.202	-61.727	0.358	-0.151
-329.187	236.987	0.035	-0.058
-328.172	-200.000	0.005	-0.067
-327.158	-39.128	0.168	0.089
-326.143	-54.005	-0.151	0.069
-325.129	800.000	-0.058	0.193
-324.114	-67.561	-0.279	0.110
-323.099	11.324	-0.047	-0.036
-322.085	-89.030	0.302	0.090
-321.070	-2.005	0.048	0.034
-320.056	-96.230	-0.268	0.072
-319.041	306.995	-0.160	0.300
-318.026	173.979	0.073	-0.106
-317.012	-110.040	0.310	-0.065
-315.997	-200.000	-0.012	0.102
-314.983	-53.962	-0.193	-0.088
-313.968	-129.870	-0.081	0.011
-312.953	-200.000	0.052	-0.319
-311.939	246.306	-0.095	-0.161
-310.924	92.790	-0.125	-0.142
-309.910	-200.000	0.005	-0.150
-308.895	-200.000	-0.018	-0.191
-307.880	309.886	0.116	-0.218
-306.866	-54.631	-0.228	-0.104
-305.851	504.489	0.073	-0.171
-304.837	-36.371	0.195	-0.106
-303.822	93.105	-0.084	0.096
-302.807	-61.292	-0.151	0.064
-301.793	182.710	-0.007	0.011
-300.778	201.400	0.098	0.151
-299.764	-80.198	0.239	0.080
-298.749	-90.590	0.074	0.021
-297.735	-6.430	-0.152	0.104
-296.720	-200.000	-0.011	0.118
-295.705	72.036	-0.192	0.200
-294.691	644.524	0.043	0.109
-293.676	335.254	-0.125	0.243
-292.662	10.567	0.188	-0.144
-291.647	-146.963	0.278	0.024
-290.632	-200.000	0.002	0.165
-289.618	483.984	-0.190	-0.434
-288.603	-33.806	0.170	-0.094
-287.589	-10.643	0.059	0.039
-286.574	-145.605	-0.146	-0.013
-285.559	-67.028	0.174	-0.069
-284.545	172.492	-0.187	0.271
-283.530	-93.761	-0.183	0.051
-282.516	-200.000	0.014	-0.085
-281.501	-200.000	0.001	-0.060
-280.486	-149.296	-0.178	0.014
-279.472	-200.000	-0.014	-0.229
-278.457	32.275	0.150	0.130
-277.443	-200.000	0.016	-0.141
-276.428	-48.142	-0.201	0.097
-275.413	-131.912	-0.185	-0.024
-274.399	-112.271	0.356	0.072
-273.384	-200.000	-0.004	-0.086
-272.370	-144.943	0.177	-0.016
-271.355	-200.000	0.055	0.569
-270.340	-200.000	0.078	-0.400
-269.326	102.062	0.023	-0.027
-268.311	1.595	-0.049	0.035
-267.297	252.126	0.104	0.178
-266.282	87.349	0.158	-0.175
-265.267	-6.724	0.352	0.240
-264.253	583.350	0.046	0.113
-263.238	580.526	-0.046	-0.112
-262.224	-77.683	-0.328	-0.114
-261.209	78.079	-0.177	0.190
-260.195	-98.459	0.470	0.121
-259.180	106.831	-0.188	0.225
-258.165	628.945	0.051	-0.129
-257.151	-172.545	0.202	0.006
-256.136	-40.033	-0.280	0.147
-255.122	800.000	-0.043	-0.135
-254.107	-7.773	0.234	0.159
-253.092	-94.731	0.337	0.092
-252.078	675.728	-0.028	-0.072
-251.063	-26.385	-0.182	-0.107
-250.049	-74.791	0.279	-0.101
-249.034	-141.259	-0.119	0.012
-248.019	800.000	0.095	-0.273
-247.005	800.000	-0.068	-0.233
-245.990	-198.698	0.354	0.002
-244.976	16.688	-0.233	0.185
-243.961	-144.639	-0.204	0.019
-242.946	-200.000	0.009	0.190
-241.932	63.450	0.044	0.044
-240.917	139.905	-0.126	0.167
-239.903	-200.000	-0.031	0.161
-238.888	-92.491	0.382	0.108
-237.873	-98.273	0.124	-0.032
-236.859	-66.551	0.168	-0.067
-235.844	-85.456	0.281	0.088
-234.830	572.601	0.081	-0.199
-233.815	150.710	-0.109	-0.149
-232.800	-8.610	0.147	-0.099
-231.786	71.245	-0.193	0.201
-230.771	-70.525	-0.104	0.039
-229.757	197.382	-0.171	-0.262
-228.742	42.592	0.146	0.133
-227.727	61.983	-0.147	0.147
-226.713	-46.906	0.225	0.110
-225.698	38.035	-0.125	-0.111
-224.684	800.000	-0.020	0.076
-223.669	-151.715	0.174	-0.013
-222.655	-200.000	0.000	0.011
-221.640	72.289	0.117	-0.122
-220.625	584.456	0.016	0.039
-219.611	-200.000	0.027	0.451
-218.596	-200.000	0.005	0.059
-217.582	-39.719	0.395	0.207
-216.567	800.000	0.052	-0.189
-215.552	388.861	0.107	-0.223
-214.538	528.445	-0.048	-0.113
-213.523	39.325	-0.181	0.163
-212.509	280.399	0.158	-0.283
-211.494	-57.968	0.273	0.120
-210.479	16.508	-0.184	-0.146
-209.465	800.000	0.083	0.311
-208.450	122.065	-0.087	0.109
-207.436	-200.000	0.006	-0.072
-206.421	-49.618	0.060	0.029
-205.406	-86.092	-0.202	-0.062
-204.392	-160.965	-0.152	0.008
-203.377	2.371	-0.227	-0.165
-202.363	-5.812	-0.164	-0.113
-201.348	72.556	-0.144	0.151
-200.333	-18.999	-0.073	0.046
-199.319	-138.636	0.260	-0.029
-198.304	0.085	-0.232	-0.166
-197.290	-170.830	-0.162	-0.006
-196.275	-94.631	-0.102	-0.028
-195.260	-200.000	0.013	-0.170
-194.246	-31.217	0.309	0.174
-193.231	62.345	0.186	0.186
-192.217	-200.000	-0.002	-0.038
-191.202	-45.982	-0.285	-0.141
-190.187	-113.774	0.103	0.020
-189.173	283.780	-0.168	0.303
-188.158	-200.000	-0.008	-0.230
-187.144	-135.443	-0.173	-0.021
-186.129	-1.109	-0.158	0.112
-185.114	-124.449	-0.195	-0.030
-184.100	129.139	0.044	0.057
-183.085	800.000	0.011	-0.038
-182.071	15.362	0.141	0.111
-181.056	-99.334	-0.116	-0.029
-180.042	-150.853	-0.137	-0.010
-179.027	455.432	0.091	0.201
-178.012	-200.000	0.015	-0.153
-176.998	-200.000	-0.045	0.221
-175.983	-200.000	0.080	0.437
-174.969	330.638	-0.150	0.289
-173.954	-159.367	-0.439	-0.025
-172.939	-200.000	-0.008	0.324
-171.925	-75.908	0.256	-0.091
-170.910	252.231	0.061	0.103
-169.896	-200.000	-0.017	0.349
-168.881	391.756	-0.102	0.212
-167.866	-33.608	-0.066	0.036
-166.852	-99.139	0.269	0.068
-165.837	343.715	0.061	0.119
-164.823	4.951	0.242	-0.178
-163.808	-115.961	0.409	0.076
-162.793	308.088	-0.010	-0.018
-161.779	43.849	-0.047	0.043
-160.764	-137.780	-0.111	-0.012
-159.750	64.281	-0.127	0.128
-158.735	-46.748	-0.056	0.028
-157.720	-67.150	0.147	0.058
-156.706	800.000	-0.109	-0.365
-155.691	-139.267	0.183	-0.020
-154.677	-54.285	-0.078	-0.035
-153.662	-200.000	0.026	-0.170
-152.647	-8.138	-0.145	-0.098
-151.633	-186.630	0.302	-0.004
-150.618	-200.000	0.028	0.185
-149.604	-16.028	0.146	-0.093
-148.589	-46.150	0.088	-0.043
-147.574	682.725	-0.096	0.250
-146.560	321.912	-0.039	-0.074
-145.545	-123.668	-0.358	0.057
-144.531	-200.000	-0.018	0.087
-143.516	-200.000	-0.004	-0.069
-142.502	305.667	0.011	0.020
-141.487	202.248	-0.095	0.147
-140.472	-131.844	-0.150	0.020
-139.458	163.356	0.048	0.068
-138.443	-200.000	-0.063	0.335
-137.429	-60.184	0.364	-0.155
-136.414	-200.000	0.001	-0.255
-135.399	-6.354	-0.196	-0.133
-134.385	-139.265	-0.300	0.032
-133.370	4.824	-0.059	0.043
-132.356	585.467	0.032	-0.078
-131.341	307.306	0.035	0.066
-130.326	64.800	-0.245	0.247
-129.312	156.229	0.142	0.196
-128.297	76.288	-0.298	0.315
-127.283	-200.000	0.001	0.195
-126.268	800.000	-0.079	-0.231
-125.253	-9.911	-0.105	0.070
-124.239	-133.850	0.125	0.015
-123.224	-18.856	0.132	-0.082
-122.210	-80.413	-0.127	-0.042
-121.195	-72.908	0.096	-0.035
