DTS Sentinel unit serial number:	SN413079Multiplexer serial number:	ORYXHardware model number:	OX4-SRSoftware version number:	ORYX F/W v4.00 Oryx Data Collector v3.7.2.0data status	okinstallation	princeton_trtdifferential loss correction	single-endedforward channel	channel 4reverse channel	N/Adate	2019/09/11time	07:43:11forward acquisition time	60.00reverse acquisition time	0.00gamma	496.2192k internal	0.2307k external	0.2307temperature offset calibration	0.9947default loss term (dB/km)	0.3790temperature slope calibration	1.0000multiplexer offset coefficient	1.0000multiplexer slope coefficient	1.0000fibre end	0.00T internal ref (°C)	31.50T ext. ref 1 (°C)	0.00T ext. ref 2 (°C)	27.61length (m)	temperature (°C)	Stokes	anti-Stokes-747.200	535.228	0.057	-0.137
-746.185	-200.000	-0.317	0.001
-745.171	-200.000	0.013	0.317
-744.156	89.385	0.176	0.199
-743.142	-12.469	-0.361	-0.240
-742.127	175.290	0.119	0.175
-741.112	-200.000	-0.001	0.188
-740.098	289.013	0.109	0.202
-739.083	-116.177	0.199	-0.037
-738.069	-48.830	0.099	-0.048
-737.054	53.818	-0.071	0.069
-736.039	109.157	-0.143	-0.174
-735.025	-200.000	-0.019	-0.101
-734.010	403.134	-0.181	-0.386
-732.996	518.141	-0.139	0.330
-731.981	101.557	-0.201	-0.238
-730.966	20.040	-0.089	0.073
-729.952	30.142	0.092	-0.080
-728.937	-0.535	-0.360	-0.260
-727.923	-188.017	0.102	-0.001
-726.908	46.272	-0.080	-0.075
-725.894	72.930	0.199	-0.211
-724.879	-61.548	-0.212	-0.090
-723.864	343.244	0.172	0.343
-722.850	490.549	0.066	0.154
-721.835	669.981	-0.133	-0.349
-720.821	25.304	-0.258	-0.218
-719.806	800.000	0.063	-0.178
-718.791	-45.535	0.095	-0.048
-717.777	-77.754	-0.322	0.113
-716.762	411.618	-0.097	-0.209
-715.748	-200.000	0.027	-0.189
-714.733	-102.121	-0.454	-0.111
-713.718	-121.735	-0.199	-0.033
-712.704	63.940	0.148	-0.151
-711.689	84.453	0.138	-0.153
-710.675	-19.965	-0.283	-0.177
-709.660	800.000	-0.046	-0.135
-708.645	800.000	-0.040	-0.157
-707.631	117.314	-0.070	0.087
-706.616	-47.852	-0.118	0.058
-705.602	800.000	-0.125	-0.358
-704.587	800.000	-0.078	0.278
-703.572	-109.672	-0.087	-0.019
-702.558	86.551	-0.154	0.173
-701.543	-200.000	-0.041	0.240
-700.529	-140.389	0.159	-0.017
-699.514	-103.828	-0.398	-0.095
-698.499	11.715	0.148	-0.115
-697.485	233.594	-0.101	-0.169
-696.470	-82.033	-0.287	-0.095
-695.456	95.568	-0.180	-0.208
-694.441	95.891	-0.036	-0.042
-693.426	198.861	-0.141	-0.219
-692.412	632.645	-0.140	-0.360
-691.397	800.000	0.073	-0.278
-690.383	10.910	-0.257	0.199
-689.368	-200.000	-0.032	0.180
-688.354	312.119	0.032	0.061
-687.339	-59.530	-0.301	-0.131
-686.324	63.903	-0.139	-0.142
-685.310	-200.000	-0.023	-0.240
-684.295	-200.000	-0.031	-0.190
-683.281	45.726	-0.082	-0.077
-682.266	-200.000	0.018	0.115
-681.251	-200.000	0.009	0.107
-680.237	-140.909	0.389	-0.041
-679.222	4.897	-0.215	-0.161
-678.208	-9.575	-0.093	-0.063
-677.193	-20.329	-0.212	0.133
-676.178	102.087	-0.173	0.205
-675.164	-148.103	-0.120	0.010
-674.149	214.228	0.090	-0.144
-673.135	-104.430	0.356	0.084
-672.120	159.344	0.152	-0.215
-671.105	-92.006	-0.149	-0.043
-670.091	71.560	0.031	-0.033
-669.076	-200.000	0.055	0.286
-668.062	-77.037	-0.086	-0.030
-667.047	-119.707	0.352	0.062
-666.032	-33.447	0.182	0.102
-665.018	112.732	-0.199	-0.244
-664.003	800.000	-0.042	-0.123
-662.989	-200.000	-0.009	0.182
-661.974	6.940	-0.066	0.050
-660.959	351.384	-0.065	0.130
-659.945	-56.655	-0.212	0.095
-658.930	-90.510	0.080	0.023
-657.916	-50.625	0.124	0.059
-656.901	-81.845	-0.458	0.152
-655.886	-56.746	-0.129	0.058
-654.872	-84.789	0.129	0.041
-653.857	-132.180	-0.298	-0.039
-652.843	-22.435	-0.218	0.134
-651.828	-200.000	0.035	0.314
-650.814	-200.000	-0.011	0.289
-649.799	-37.476	-0.132	-0.072
-648.784	480.752	-0.110	0.252
-647.770	348.524	-0.124	0.248
-646.755	-67.165	0.060	0.024
-645.741	2.175	0.234	0.171
-644.726	718.460	-0.116	-0.312
-643.711	-50.293	-0.215	-0.103
-642.697	-71.063	0.312	0.119
-641.682	12.340	-0.140	-0.109
-640.668	-200.000	-0.029	-0.257
-639.653	112.808	0.122	-0.150
-638.638	26.212	0.187	-0.158
-637.624	-90.822	-0.248	-0.072
-636.609	202.858	-0.053	-0.083
-635.595	800.000	0.094	0.302
-634.580	-14.822	-0.298	0.194
-633.565	-119.662	0.138	0.024
-632.551	-10.684	0.186	-0.125
-631.536	-63.164	0.204	-0.085
-630.522	-88.625	0.047	-0.014
-629.507	-35.849	0.100	-0.055
-628.492	386.960	-0.119	-0.249
-627.478	68.785	0.103	0.107
-626.463	321.907	0.069	-0.132
-625.449	-71.052	-0.291	0.111
-624.434	-21.652	0.078	0.048
-623.419	-200.000	0.025	0.147
-622.405	-135.967	-0.289	-0.034
-621.390	34.319	-0.099	-0.088
-620.376	-109.730	0.367	-0.078
-619.361	-174.691	0.248	0.007
-618.346	19.046	0.214	-0.174
-617.332	41.188	0.118	0.107
-616.317	-103.659	0.077	-0.018
-615.303	-85.064	-0.125	-0.040
-614.288	-162.085	0.379	-0.019
-613.273	298.943	0.287	0.534
-612.259	-123.756	-0.069	-0.011
-611.244	506.751	-0.041	0.095
-610.230	340.773	-0.097	0.191
-609.215	-99.152	0.209	0.054
-608.201	-200.000	0.035	0.238
-607.186	-200.000	0.012	0.267
-606.171	-18.031	0.157	0.100
-605.157	332.978	0.152	0.297
-604.142	-93.281	-0.273	0.077
-603.128	-165.535	-0.161	-0.007
-602.113	-123.574	0.152	0.024
-601.098	-26.098	-0.276	0.164
-600.084	-200.000	-0.068	0.394
-599.069	-200.000	0.065	-0.349
-598.055	-92.704	-0.241	0.068
-597.040	800.000	0.134	0.383
-596.025	800.000	0.042	-0.118
-595.011	-119.908	-0.121	0.021
-593.996	-82.920	0.086	0.028
-592.982	19.485	-0.404	-0.328
-591.967	-153.076	0.192	-0.014
-590.952	-178.682	0.236	-0.005
-589.938	206.115	0.074	-0.116
-588.923	1.923	-0.209	-0.152
-587.909	17.281	0.042	-0.033
-586.894	-200.000	-0.008	-0.317
-585.879	-200.000	-0.019	-0.305
-584.865	-99.026	0.191	-0.049
-583.850	-85.905	-0.221	-0.069
-582.836	-200.000	0.021	-0.199
-581.821	-71.489	-0.165	-0.062
-580.806	788.800	0.121	-0.335
-579.792	111.700	-0.100	-0.121
-578.777	-53.416	-0.076	0.035
-577.763	72.175	-0.206	-0.217
-576.748	141.376	-0.198	-0.265
-575.733	-23.187	-0.104	-0.063
-574.719	-133.098	0.407	-0.052
-573.704	695.131	0.051	-0.136
-572.690	117.135	0.181	0.225
-571.675	-152.564	0.080	-0.006
-570.661	69.586	-0.032	0.034
-569.646	8.313	0.099	-0.075
-568.631	-18.514	0.257	0.162
-567.617	300.572	-0.060	0.111
-566.602	182.047	0.195	-0.290
-565.588	-188.196	-0.092	-0.001
-564.573	-200.000	0.005	0.198
-563.558	-54.766	-0.344	-0.157
-562.544	-149.971	-0.294	0.023
-561.529	-81.938	-0.184	-0.061
-560.515	14.573	-0.302	0.238
-559.500	483.172	0.105	-0.241
-558.485	4.281	0.109	-0.081
-557.471	-106.576	-0.202	0.045
-556.456	2.109	-0.339	0.248
-555.442	-28.203	-0.249	-0.145
-554.427	-87.700	-0.146	0.044
-553.412	99.201	-0.136	-0.159
-552.398	732.549	-0.106	-0.285
-551.383	2.346	-0.149	-0.109
-550.369	45.805	-0.156	-0.146
-549.354	-129.869	0.301	0.042
-548.339	770.229	-0.064	-0.176
-547.325	81.981	0.115	-0.126
-546.310	-200.000	0.035	0.331
-545.296	-69.990	0.093	-0.036
-544.281	-88.856	0.229	0.069
-543.266	-31.341	-0.092	0.052
-542.252	-45.379	0.209	0.105
-541.237	-74.540	-0.144	0.052
-540.223	800.000	0.207	-0.605
-539.208	-24.992	0.166	-0.099
-538.193	800.000	-0.010	0.030
-537.179	-8.662	0.167	0.113
-536.164	-124.731	0.067	0.010
-535.150	56.051	0.370	-0.362
-534.135	359.868	-0.110	-0.223
-533.121	37.817	-0.212	0.190
-532.106	44.257	0.131	0.121
-531.091	572.567	-0.026	-0.064
-530.077	-118.054	0.229	0.041
-529.062	435.288	-0.111	0.244
-528.048	85.157	-0.160	-0.177
-527.033	-65.259	0.417	-0.169
-526.018	-65.738	-0.214	0.086
-525.004	-101.668	-0.488	-0.119
-523.989	263.535	0.179	-0.315
-522.975	800.000	0.103	-0.367
-521.960	104.001	-0.216	0.256
-520.945	-129.071	-0.123	0.017
-519.931	-174.038	-0.106	0.003
-518.916	-70.889	-0.165	0.063
-517.902	13.031	0.038	0.030
-516.887	-10.261	-0.156	0.105
-515.872	-101.053	0.338	0.083
-514.858	800.000	-0.092	0.339
-513.843	-6.742	0.063	-0.043
-512.829	72.582	0.253	-0.266
-511.814	-150.446	-0.400	0.031
-510.799	-74.887	-0.342	0.124
-509.785	109.165	-0.152	0.183
-508.770	800.000	0.071	0.206
-507.756	-200.000	0.001	0.158
-506.741	-100.890	-0.183	0.045
-505.726	-13.556	-0.157	0.103
-504.712	-185.077	0.188	-0.003
-503.697	800.000	0.048	0.158
-502.683	131.643	0.098	-0.127
-501.668	555.044	0.092	-0.224
-500.653	5.970	-0.320	0.238
-499.639	60.042	0.125	-0.124
-498.624	-36.008	-0.242	-0.132
-497.610	800.000	-0.083	-0.361
-496.595	-200.000	0.046	-0.251
-495.581	80.893	0.144	-0.157
-494.566	-22.164	-0.395	-0.241
-493.551	84.858	0.056	0.062
-492.537	800.000	0.027	-0.094
-491.522	152.180	0.093	-0.128
-490.508	-66.781	0.211	-0.084
-489.493	-200.000	0.053	0.342
-488.478	-200.000	0.029	0.146
-487.464	536.048	-0.097	-0.232
-486.449	-48.999	-0.210	-0.101
-485.435	312.668	0.088	-0.166
-484.420	246.079	-0.166	-0.281
-483.405	-94.407	0.248	0.068
-482.391	249.259	-0.132	0.225
-481.376	385.906	0.051	0.106
-480.362	-200.000	0.149	0.000
-479.347	282.668	-0.133	0.241
-478.332	128.952	0.120	0.155
-477.318	518.034	0.044	0.105
-476.303	273.726	0.178	-0.317
-475.289	38.965	-0.215	-0.194
-474.274	-200.000	0.001	-0.368
-473.259	489.229	-0.104	-0.239
-472.245	48.549	-0.160	0.150
-471.230	-104.568	0.377	0.088
-470.216	-119.183	0.354	-0.062
-469.201	17.109	0.138	0.110
-468.186	21.794	0.351	0.288
-467.172	125.077	-0.086	-0.109
-466.157	-200.000	-0.020	0.299
-465.143	-73.592	-0.224	0.082
-464.128	-116.846	0.076	-0.014
-463.113	-158.553	0.217	0.013
-462.099	211.894	0.077	0.122
-461.084	-19.846	-0.188	-0.117
-460.070	-66.743	0.270	0.108
-459.055	-38.190	0.295	-0.157
-458.040	-116.048	-0.291	-0.055
-457.026	-37.060	-0.092	0.050
-456.011	-200.000	-0.010	-0.120
-454.997	-36.384	0.103	0.056
-453.982	-83.400	0.186	0.060
-452.968	10.912	0.069	-0.053
-451.953	42.171	0.168	0.153
-450.938	-24.031	-0.086	-0.052
-449.924	-0.187	-0.119	0.085
-448.909	800.000	0.060	-0.238
-447.895	-88.585	0.339	0.101
-446.880	-200.000	-0.007	0.157
-445.865	-135.308	0.218	-0.026
-444.851	-200.000	-0.038	-0.284
-443.836	262.648	-0.138	-0.241
-442.822	-81.018	-0.192	0.064
-441.807	-7.567	-0.112	-0.076
-440.792	-105.815	0.247	0.056
-439.778	157.367	-0.097	0.135
-438.763	-9.149	0.093	-0.062
-437.749	-49.324	-0.053	0.025
-436.734	135.521	-0.039	0.052
-435.719	-49.479	0.370	0.177
-434.705	-8.641	-0.245	0.165
-433.690	-69.451	-0.406	-0.156
-432.676	-200.000	0.008	-0.099
-431.661	150.815	-0.064	-0.087
-430.646	-97.782	-0.503	0.131
-429.632	85.329	-0.106	0.117
-428.617	-103.071	0.303	0.072
-427.603	115.558	0.088	0.107
-426.588	18.106	0.092	0.074
-425.573	800.000	0.119	0.455
-424.559	470.632	-0.094	0.213
-423.544	-175.663	0.339	-0.009
-422.530	-123.960	0.302	0.048
-421.515	-84.269	-0.193	-0.061
-420.500	-125.521	-0.087	-0.013
-419.486	-200.000	-0.028	-0.278
-418.471	-200.000	0.029	-0.137
-417.457	-53.619	0.409	0.188
-416.442	-200.000	0.054	0.324
-415.428	335.571	-0.011	-0.022
-414.413	-115.419	-0.228	-0.043
-413.398	19.881	-0.218	-0.177
-412.384	-200.000	-0.055	0.330
-411.369	-28.445	0.203	-0.118
-410.355	-200.000	0.007	-0.265
-409.340	-139.785	0.231	-0.025
-408.325	172.114	0.029	-0.042
-407.311	800.000	-0.054	0.154
-406.296	-200.000	0.034	0.176
-405.282	-34.958	0.048	0.026
-404.267	800.000	-0.026	-0.086
-403.252	362.053	0.057	0.115
-402.238	-114.408	-0.290	-0.056
-401.223	257.183	0.114	-0.197
-400.209	800.000	0.076	-0.311
-399.194	19.304	0.089	0.072
-398.179	-200.000	0.024	-0.163
-397.165	-115.199	-0.357	-0.068
-396.150	336.472	-0.070	-0.135
-395.136	-56.403	-0.285	-0.127
-394.121	-188.032	0.114	-0.001
-393.106	143.884	0.051	-0.068
-392.092	113.520	-0.136	-0.165
-391.077	-119.636	-0.198	-0.034
-390.063	-89.225	-0.188	-0.056
-389.048	-114.837	0.253	0.048
-388.033	-15.671	0.281	-0.180
-387.019	-8.904	-0.102	0.069
-386.004	-200.000	-0.006	0.238
-384.990	36.793	0.148	-0.131
-383.975	-4.793	-0.101	0.070
-382.960	-75.767	0.028	0.010
-381.946	694.054	-0.109	0.287
-380.931	-126.369	0.238	-0.036
-379.917	187.011	-0.180	-0.269
-378.902	300.797	-0.143	-0.264
-377.888	16.318	-0.102	0.081
-376.873	800.000	-0.115	0.321
-375.858	-119.313	-0.244	-0.043
-374.844	146.999	0.093	-0.126
-373.829	40.791	0.244	-0.221
-372.815	570.140	-0.047	-0.114
-371.800	-193.952	0.212	-0.002
-370.785	800.000	0.145	0.455
-369.771	34.454	-0.234	0.205
-368.756	-66.543	-0.329	0.131
-367.742	-200.000	0.004	0.118
-366.727	-79.131	-0.196	0.067
-365.712	374.123	0.083	-0.170
-364.698	268.425	0.077	0.134
-363.683	-59.635	-0.540	-0.232
-362.669	14.625	-0.256	-0.201
-361.654	484.357	0.042	0.096
-360.639	530.724	0.084	0.200
-359.625	-133.585	-0.011	0.001
-358.610	137.259	0.212	-0.278
-357.596	-71.350	0.107	-0.040
-356.581	532.193	0.118	-0.279
-355.566	-72.438	-0.085	-0.031
-354.552	112.848	-0.145	0.176
-353.537	175.263	0.157	-0.228
-352.523	361.080	0.046	0.092
-351.508	-22.849	-0.197	-0.119
-350.493	144.374	-0.162	0.216
-349.479	-73.649	0.215	-0.079
-348.464	800.000	-0.058	0.255
-347.450	323.281	0.142	-0.271
-346.435	4.378	0.220	0.162
-345.420	-125.129	0.112	0.017
-344.406	83.376	0.143	0.156
-343.391	-200.000	0.010	-0.066
-342.377	237.834	0.055	0.091
-341.362	-165.003	0.243	0.011
-340.348	628.499	0.121	-0.307
-339.333	27.496	-0.191	0.160
-338.318	-200.000	-0.022	0.109
-337.304	470.227	0.144	0.325
-336.289	-87.164	0.258	0.078
-335.275	12.604	0.126	0.097
-334.260	800.000	0.174	0.541
-333.245	-135.867	0.410	-0.048
-332.231	287.321	-0.112	0.202
-331.216	5.081	-0.390	0.288
-330.202	148.213	-0.080	-0.108
-329.187	14.501	-0.098	0.077
-328.172	-23.717	-0.154	-0.092
-327.158	56.018	-0.215	0.209
-326.143	162.778	0.025	-0.035
-325.129	23.833	0.181	0.149
-324.114	-94.455	0.090	-0.025
-323.099	-58.734	-0.208	0.090
-322.085	800.000	-0.170	0.475
-321.070	-200.000	-0.002	-0.066
-320.056	800.000	-0.088	-0.306
-319.041	800.000	0.133	0.368
-318.026	10.219	0.051	0.039
-317.012	426.210	-0.149	-0.322
-315.997	-69.451	0.213	-0.082
-314.983	800.000	0.045	-0.191
-313.968	-100.406	-0.264	-0.065
-312.953	93.568	0.161	0.182
-311.939	-149.264	-0.019	0.001
-310.924	-84.881	0.303	0.095
-309.910	-179.788	-0.076	0.002
-308.895	-40.676	0.095	0.049
-307.880	162.883	0.109	0.153
-306.866	46.181	-0.115	-0.106
-305.851	-200.000	0.084	0.462
-304.837	98.324	0.225	-0.259
-303.822	178.135	0.038	-0.056
-302.807	79.924	-0.159	-0.171
-301.793	-33.883	-0.216	0.119
-300.778	-85.623	0.162	0.050
-299.764	9.761	-0.322	0.244
-298.749	280.989	-0.164	0.294
-297.735	259.959	-0.083	-0.143
-296.720	-200.000	-0.015	0.075
-295.705	787.217	-0.200	-0.550
-294.691	-124.489	-0.410	-0.064
-293.676	-110.006	0.123	0.026
-292.662	-198.729	-0.081	0.000
-291.647	177.411	0.102	0.148
-290.632	92.010	-0.263	-0.296
-289.618	-200.000	0.071	-0.373
-288.603	-37.957	0.177	0.094
-287.589	-200.000	-0.009	0.214
-286.574	83.386	-0.078	-0.085
-285.559	-200.000	0.029	0.174
-284.545	800.000	-0.011	-0.041
-283.530	-7.203	-0.046	0.031
-282.516	-42.198	-0.063	0.032
-281.501	247.284	-0.036	0.060
-280.486	-200.000	0.002	0.166
-279.472	-90.176	-0.326	0.095
-278.457	-40.203	-0.085	0.044
-277.443	154.550	0.282	-0.387
-276.428	9.296	0.376	0.284
-275.413	314.740	0.043	0.082
-274.399	-115.190	0.307	-0.058
-273.384	-195.631	-0.490	0.004
-272.370	-86.004	-0.117	-0.036
-271.355	-22.005	-0.115	-0.070
-270.340	-146.576	0.361	0.031
-269.326	-200.000	0.048	0.231
-268.311	200.485	0.132	0.202
-267.297	800.000	0.011	-0.035
-266.282	40.596	0.087	0.078
-265.267	-200.000	0.014	0.118
-264.253	25.917	-0.158	-0.132
-263.238	-135.086	-0.275	0.033
-262.224	800.000	-0.014	0.057
-261.209	-27.634	0.146	-0.085
-260.195	531.655	0.039	-0.093
-259.180	375.497	0.086	0.175
-258.165	-200.000	0.019	-0.099
-257.151	171.259	0.191	-0.273
-256.136	577.376	-0.021	-0.051
-255.122	56.434	-0.210	-0.204
-254.107	52.227	0.094	-0.089
-253.092	-100.610	0.118	-0.029
-252.078	158.098	0.127	0.176
-251.063	-200.000	-0.004	0.072
-250.049	800.000	-0.054	-0.222
-249.034	-200.000	-0.002	-0.272
-248.019	542.175	-0.026	0.062
-247.005	332.091	-0.152	0.294
-245.990	-130.704	-0.270	0.036
-244.976	29.375	0.094	-0.079
-243.961	-32.800	0.120	-0.067
-242.946	101.936	-0.332	-0.386
-241.932	467.363	0.088	-0.197
-240.917	21.702	0.312	0.253
-239.903	-25.150	-0.126	0.075
-238.888	-42.620	-0.063	0.032
-237.873	-142.935	-0.267	0.026
-236.859	322.231	0.156	0.296
-235.844	-200.000	0.000	-0.346
-234.830	-34.886	-0.086	-0.047
-233.815	104.566	0.017	-0.020
-232.800	319.931	0.093	-0.176
-231.786	-128.594	-0.235	0.033
-230.771	443.205	0.122	0.267
-229.757	59.657	0.068	0.067
-228.742	-168.570	0.187	0.007
-227.727	80.651	-0.127	-0.137
-226.713	-123.222	-0.212	0.034
-225.698	-98.869	0.248	-0.063
-224.684	246.798	0.060	0.101
-223.669	-83.303	-0.346	-0.111
-222.655	-39.405	-0.149	0.078
-221.640	13.995	0.243	0.188
-220.625	-69.312	0.246	0.094
-219.611	413.420	0.106	-0.225
-218.596	-127.191	-0.113	-0.016
-217.582	30.364	-0.170	-0.145
-216.567	142.503	-0.129	-0.170
-215.552	-200.000	0.011	0.225
-214.538	-2.620	-0.442	0.308
-213.523	67.509	-0.216	0.220
-212.509	178.550	0.145	-0.211
-211.494	-180.992	-0.089	0.002
-210.479	-117.247	-0.225	-0.041
-209.465	57.281	0.232	0.225
-208.450	-60.180	0.197	0.084
-207.436	-48.371	-0.148	-0.071
-206.421	-142.516	0.156	-0.015
-205.406	89.770	-0.062	0.069
-204.392	100.218	0.115	-0.133
-203.377	-126.031	0.096	0.014
-202.363	-148.807	-0.388	0.031
-201.348	207.021	-0.151	0.235
-200.333	-5.563	-0.164	0.112
-199.319	146.184	0.059	0.079
-198.304	-81.018	-0.342	-0.113
-197.290	374.520	0.024	0.050
-196.275	-200.000	-0.041	-0.195
-195.260	-117.187	0.198	0.036
-194.246	91.620	0.138	0.154
-193.231	12.259	0.246	-0.188
-192.217	83.804	-0.176	-0.192
-191.202	-200.000	-0.040	-0.186
-190.187	-23.839	0.125	-0.074
-189.173	625.096	-0.077	0.193
-188.158	800.000	0.044	-0.139
-187.144	800.000	0.049	0.168
-186.129	185.551	0.223	0.329
-185.114	-15.860	-0.185	0.117
-184.100	-42.086	0.062	0.032
-183.085	135.125	0.172	-0.222
-182.071	-178.795	0.248	-0.006
-181.056	-200.000	-0.012	-0.130
-180.042	412.759	0.042	-0.088
-179.027	683.134	-0.108	-0.279
-178.012	-200.000	0.002	-0.212
-176.998	-31.123	-0.247	0.138
-175.983	31.232	0.085	-0.072
-174.969	41.330	-0.260	0.234
-173.954	445.591	0.116	0.252
-172.939	-76.394	-0.205	0.072
-171.925	800.000	-0.061	-0.203
-170.910	800.000	-0.026	0.090
-169.896	4.156	-0.274	-0.200
-168.881	-54.894	0.191	-0.086
-167.866	-166.533	-0.168	-0.007
-166.852	77.095	-0.081	0.086
-165.837	30.394	0.229	0.194
-164.823	115.301	-0.133	-0.162
-163.808	8.619	0.142	0.107
-162.793	-10.625	-0.143	0.094
-161.779	709.533	0.050	-0.133
-160.764	81.944	0.139	0.150
-159.750	-149.229	-0.058	0.005
-158.735	458.385	0.129	-0.286
-157.720	-54.171	0.575	0.260
-156.706	-83.113	0.238	-0.076
-155.691	-178.568	0.174	-0.004
-154.677	-32.388	0.035	0.019
-153.662	303.884	-0.069	0.127
-152.647	-175.627	0.287	-0.008
-151.633	33.516	0.250	0.216
-150.618	-129.461	-0.123	-0.017
-149.604	618.527	0.072	-0.179
-148.589	-128.104	-0.407	-0.058
-147.574	42.861	-0.125	-0.113
-146.560	-200.000	-0.025	-0.206
-145.545	40.998	-0.025	-0.023
-144.531	326.668	-0.071	0.135
-143.516	800.000	-0.022	-0.074
-142.502	-1.765	0.322	-0.225
-141.487	-62.080	-0.278	-0.115
-140.472	-200.000	-0.069	0.376
-139.458	-100.954	0.203	-0.050
-138.443	37.035	-0.189	0.166
-137.429	357.193	-0.038	0.076
-136.414	-200.000	0.014	0.212
-135.399	-66.945	-0.062	-0.024
-134.385	-163.214	0.296	0.014
-133.370	-95.608	-0.369	0.098
-132.356	-108.448	0.230	0.049
-131.341	144.698	0.073	0.097
-130.326	248.500	-0.130	0.219
-129.312	-72.534	0.128	-0.047
-128.297	-34.679	-0.146	0.079
-127.283	94.155	0.049	0.055
-126.268	110.695	0.136	0.163
-125.253	-200.000	0.016	0.074
-124.239	800.000	0.028	0.087
-123.224	-78.093	0.235	-0.080
-122.210	-129.207	-0.305	0.042
-121.195	800.000	-0.028	-0.082
-120.180	800.000	-0.054	-0.186
