DTS Sentinel unit serial number:	SN413079Multiplexer serial number:	ORYXHardware model number:	OX4-SRSoftware version number:	ORYX F/W v4.00 Oryx Data Collector v3.7.2.0data status	okinstallation	princeton_trtdifferential loss correction	single-endedforward channel	channel 4reverse channel	N/Adate	2019/09/11time	08:35:11forward acquisition time	60.00reverse acquisition time	0.00gamma	496.2192k internal	0.2303k external	0.2303temperature offset calibration	0.9969default loss term (dB/km)	0.3790temperature slope calibration	1.0000multiplexer offset coefficient	1.0000multiplexer slope coefficient	1.0000fibre end	0.00T internal ref (°C)	33.28T ext. ref 1 (°C)	0.10T ext. ref 2 (°C)	30.55length (m)	temperature (°C)	Stokes	anti-Stokes-747.200	117.245	0.022	0.028
-746.185	52.558	0.075	-0.073
-745.171	-54.592	0.316	-0.146
-744.156	-53.812	-0.355	-0.165
-743.142	47.120	0.229	-0.217
-742.127	2.698	0.086	-0.063
-741.112	-52.043	-0.498	-0.236
-740.098	800.000	-0.077	0.292
-739.083	-76.814	0.311	0.111
-738.069	-69.564	0.097	-0.038
-737.054	-61.347	-0.065	-0.028
-736.039	12.224	-0.154	0.120
-735.025	-200.000	0.051	-0.359
-734.010	-200.000	0.011	-0.344
-732.996	-93.732	-0.216	-0.061
-731.981	-130.403	-0.182	-0.025
-730.966	-33.871	-0.169	0.095
-729.952	-16.359	-0.243	0.157
-728.937	-9.205	-0.090	0.061
-727.923	-19.312	-0.223	-0.141
-726.908	103.003	-0.208	0.249
-725.894	356.775	-0.096	0.195
-724.879	-170.144	0.246	0.009
-723.864	176.543	-0.147	-0.217
-722.850	-8.795	0.323	-0.221
-721.835	-84.203	-0.293	-0.095
-720.821	74.178	-0.189	-0.202
-719.806	197.192	-0.122	-0.189
-718.791	-101.262	0.023	-0.006
-717.777	-141.308	-0.301	-0.031
-716.762	-45.802	0.118	0.059
-715.748	-92.019	0.109	0.031
-714.733	157.068	-0.138	0.194
-713.718	50.506	0.125	-0.120
-712.704	68.731	-0.206	0.215
-711.689	-200.000	0.002	-0.124
-710.675	-160.981	-0.172	0.009
-709.660	-200.000	-0.066	-0.386
-708.645	-200.000	0.036	-0.353
-707.631	20.529	0.052	-0.043
-706.616	555.852	-0.097	-0.237
-705.602	-72.249	0.203	-0.077
-704.587	-104.883	-0.140	0.033
-703.572	146.848	-0.112	-0.153
-702.558	-74.187	0.083	0.031
-701.543	-134.462	0.336	0.042
-700.529	535.557	0.115	0.277
-699.514	97.054	0.152	0.177
-698.499	404.030	-0.080	-0.171
-697.485	124.120	-0.054	0.069
-696.470	-200.000	-0.007	-0.185
-695.456	297.948	-0.100	-0.186
-694.441	-200.000	-0.014	-0.340
-693.426	-200.000	0.016	0.137
-692.412	800.000	-0.048	-0.162
-691.397	-47.481	0.228	-0.113
-690.383	-75.550	0.234	0.084
-689.368	-46.062	-0.085	0.043
-688.354	99.262	-0.123	-0.144
-687.339	189.633	0.096	0.147
-686.324	800.000	-0.016	0.057
-685.310	-19.697	0.086	0.054
-684.295	-200.000	0.031	-0.231
-683.281	-162.086	0.039	-0.002
-682.266	31.499	0.255	0.223
-681.251	357.349	-0.088	-0.178
-680.237	-91.896	-0.181	0.052
-679.222	209.576	0.090	0.143
-678.208	209.734	-0.172	-0.273
-677.193	-55.382	-0.327	0.149
-676.178	-200.000	0.024	-0.260
-675.164	317.774	0.042	0.080
-674.149	-37.965	-0.153	0.083
-673.135	-14.627	-0.229	0.149
-672.120	-132.488	-0.138	-0.018
-671.105	77.018	0.161	-0.173
-670.091	41.630	-0.124	0.114
-669.076	-22.659	-0.151	0.093
-668.062	81.462	0.173	-0.191
-667.047	-41.502	0.181	0.094
-666.032	86.524	-0.101	0.113
-665.018	800.000	0.028	0.086
-664.003	-153.714	-0.287	0.020
-662.989	290.568	0.113	-0.208
-661.974	232.072	0.055	0.092
-660.959	-49.406	0.162	0.078
-659.945	42.889	0.166	-0.154
-658.930	107.305	0.134	-0.162
-657.916	-27.658	0.331	-0.195
-656.901	800.000	0.112	0.336
-655.886	800.000	0.093	-0.271
-654.872	-135.291	0.234	-0.028
-653.857	47.715	-0.266	-0.252
-652.843	149.877	-0.209	0.287
-651.828	53.247	-0.079	0.077
-650.814	133.254	0.119	-0.156
-649.799	-200.000	-0.028	-0.153
-648.784	17.701	-0.069	-0.056
-647.770	172.364	0.163	-0.238
-646.755	-53.354	-0.306	0.142
-645.741	-200.000	0.009	0.039
-644.726	800.000	-0.045	-0.133
-643.711	155.148	-0.052	-0.073
-642.697	800.000	0.070	-0.218
-641.682	-10.406	0.064	-0.043
-640.668	183.985	0.085	-0.128
-639.653	-58.368	-0.203	-0.090
-638.638	-69.756	0.283	-0.110
-637.624	-14.354	-0.162	0.106
-636.609	-40.124	-0.057	0.030
-635.595	165.662	-0.257	0.368
-634.580	109.074	0.160	0.194
-633.565	576.553	-0.016	-0.040
-632.551	-152.117	0.053	0.004
-631.536	-142.205	0.350	-0.035
-630.522	45.582	-0.069	0.065
-629.507	800.000	-0.016	-0.063
-628.492	326.211	0.104	-0.201
-627.478	800.000	-0.072	0.264
-626.463	76.825	0.209	0.225
-625.449	95.253	-0.096	0.111
-624.434	375.124	0.114	-0.237
-623.419	-200.000	-0.022	0.134
-622.405	-32.123	-0.212	0.120
-621.390	30.688	0.143	-0.124
-620.376	798.788	-0.039	-0.110
-619.361	293.164	0.036	0.067
-618.346	-200.000	-0.021	-0.177
-617.332	-10.476	-0.113	-0.076
-616.317	50.776	0.235	-0.226
-615.303	-143.990	0.229	0.022
-614.288	33.995	0.224	0.198
-613.273	123.671	0.122	-0.155
-612.259	-200.000	0.074	0.507
-611.244	-127.865	0.101	-0.015
-610.230	408.359	0.223	-0.478
-609.215	194.536	0.057	-0.087
-608.201	178.848	-0.129	0.190
-607.186	-200.000	-0.017	-0.279
-606.171	58.725	-0.045	0.045
-605.157	-200.000	-0.009	-0.073
-604.142	-200.000	0.011	-0.067
-603.128	-22.374	0.067	0.041
-602.113	54.511	-0.083	-0.081
-601.098	-35.971	0.274	0.150
-600.084	800.000	0.083	-0.256
-599.069	81.110	-0.132	-0.145
-598.055	-79.716	0.276	0.094
-597.040	-157.037	-0.185	-0.011
-596.025	-40.602	-0.346	-0.182
-595.011	-105.179	-0.314	0.073
-593.996	42.595	0.256	0.236
-592.982	75.669	0.080	-0.086
-591.967	-53.780	-0.125	-0.058
-590.952	-200.000	0.026	-0.212
-589.938	-102.951	0.173	-0.042
-588.923	187.953	0.080	0.122
-587.909	573.137	-0.092	-0.226
-586.894	32.961	-0.202	-0.177
-585.879	139.096	-0.157	-0.209
-584.865	-200.000	0.032	-0.329
-583.850	-200.000	0.018	-0.141
-582.836	299.855	-0.060	0.112
-581.821	-124.197	-0.183	0.029
-580.806	39.355	-0.226	-0.205
-579.792	800.000	0.097	-0.279
-578.777	-200.000	-0.005	0.141
-577.763	97.676	-0.249	0.289
-576.748	-32.476	-0.168	0.095
-575.733	-65.505	0.233	-0.095
-574.719	12.539	-0.142	-0.111
-573.704	-200.000	0.007	0.343
-572.690	353.335	-0.073	-0.146
-571.675	-200.000	-0.025	0.180
-570.661	26.328	0.127	-0.108
-569.646	566.527	-0.116	0.286
-568.631	-200.000	0.012	-0.078
-567.617	77.325	0.095	-0.102
-566.602	107.868	0.041	-0.049
-565.588	294.790	0.076	-0.141
-564.573	-59.229	-0.296	-0.129
-563.558	38.335	-0.024	-0.022
-562.544	800.000	-0.140	0.409
-561.529	88.077	-0.155	0.174
-560.515	-200.000	0.052	-0.349
-559.500	-39.466	-0.502	-0.266
-558.485	-43.727	0.263	-0.134
-557.471	-28.663	0.091	-0.053
-556.456	79.702	0.212	-0.231
-555.442	-200.000	0.010	-0.248
-554.427	-154.633	-0.190	-0.013
-553.412	22.846	-0.390	0.323
-552.398	800.000	0.037	0.115
-551.383	286.649	0.075	0.137
-550.369	120.334	-0.111	-0.140
-549.354	-200.000	-0.020	-0.132
-548.339	-82.990	-0.480	-0.157
-547.325	-98.756	0.261	-0.067
-546.310	-35.031	-0.080	0.044
-545.296	-159.495	-0.497	0.028
-544.281	-200.000	-0.013	-0.078
-543.266	800.000	-0.078	0.250
-542.252	-200.000	-0.011	0.061
-541.237	-26.033	0.264	-0.157
-540.223	800.000	-0.073	0.224
-539.208	291.236	0.113	-0.207
-538.193	83.822	-0.037	-0.041
-537.179	182.157	-0.098	0.145
-536.164	2.813	0.141	0.103
-535.150	-200.000	-0.021	-0.140
-534.135	-200.000	-0.034	0.223
-533.121	264.302	-0.080	-0.141
-532.106	-189.353	0.236	0.003
-531.091	-75.738	-0.019	-0.007
-530.077	-165.305	-0.217	0.010
-529.062	-115.646	0.133	0.025
-528.048	105.037	-0.057	-0.068
-527.033	-131.022	-0.324	-0.044
-526.018	800.000	-0.100	-0.289
-525.004	271.332	-0.075	0.134
-523.989	800.000	-0.088	-0.326
-522.975	-200.000	0.025	0.267
-521.960	-118.930	-0.146	-0.026
-520.945	-36.436	0.118	-0.064
-519.931	-110.270	0.318	0.067
-518.916	109.350	0.091	-0.110
-517.902	85.383	-0.083	-0.092
-516.887	649.845	0.088	0.228
-515.872	-5.797	-0.238	-0.165
-514.858	800.000	-0.044	0.142
-513.843	7.742	-0.286	-0.216
-512.829	-114.451	-0.209	-0.040
-511.814	75.843	-0.227	-0.242
-510.799	-200.000	-0.013	-0.309
-509.785	-4.196	-0.220	-0.154
-508.770	-200.000	0.019	-0.106
-507.756	-105.497	-0.174	0.040
-506.741	-85.537	0.337	-0.106
-505.726	76.239	-0.068	0.072
-504.712	800.000	-0.022	0.072
-503.697	-200.000	-0.024	0.133
-502.683	-124.099	-0.392	0.062
-501.668	431.832	0.125	0.274
-500.653	-168.677	0.095	0.004
-499.639	20.539	0.190	-0.155
-498.624	-200.000	0.022	0.307
-497.610	197.384	-0.050	0.077
-496.595	-136.383	0.141	0.017
-495.581	-10.711	-0.115	0.077
-494.566	-87.630	-0.133	-0.041
-493.551	39.384	-0.349	0.315
-492.537	-18.292	-0.014	0.009
-491.522	-121.867	-0.228	0.038
-490.508	31.741	-0.071	-0.062
-489.493	-97.701	0.158	0.041
-488.478	-52.269	0.378	0.177
-487.464	-52.988	0.138	-0.064
-486.449	-55.992	0.030	0.013
-485.435	-139.903	0.280	0.030
-484.420	-200.000	0.017	-0.133
-483.405	87.735	0.275	-0.307
-482.391	-55.174	0.203	-0.092
-481.376	173.370	0.062	0.091
-480.362	366.755	0.113	0.230
-479.347	207.408	-0.020	0.032
-478.332	-125.064	-0.208	0.032
-477.318	583.334	0.022	0.053
-476.303	6.611	-0.065	0.049
-475.289	800.000	-0.085	-0.371
-474.274	-102.667	0.087	0.021
-473.259	-51.717	-0.158	-0.074
-472.245	-200.000	-0.013	0.126
-471.230	-200.000	0.027	0.217
-470.216	83.181	-0.102	-0.112
-469.201	-200.000	-0.013	-0.131
-468.186	534.862	0.142	0.338
-467.172	-39.937	-0.261	0.137
-466.157	-61.106	0.263	0.112
-465.143	-114.571	-0.200	-0.039
-464.128	800.000	-0.061	0.238
-463.113	800.000	0.044	0.175
-462.099	-78.156	0.325	-0.113
-461.084	123.942	0.137	0.174
-460.070	-107.478	0.255	-0.056
-459.055	800.000	-0.016	0.050
-458.040	270.363	-0.022	0.039
-457.026	-200.000	0.035	-0.169
-456.011	-53.874	-0.098	0.045
-454.997	-38.130	-0.310	0.165
-453.982	800.000	-0.022	0.094
-452.968	-100.796	-0.221	0.055
-451.953	-93.921	-0.409	-0.113
-450.938	535.606	0.158	0.377
-449.924	282.774	0.032	0.058
-448.909	233.998	-0.100	0.166
-447.895	-20.401	0.390	-0.241
-446.880	-112.921	-0.136	-0.027
-445.865	800.000	0.055	0.183
-444.851	-22.165	-0.305	-0.186
-443.836	-200.000	-0.024	0.124
-442.822	-30.290	0.154	-0.088
-441.807	-200.000	0.003	-0.022
-440.792	511.538	0.133	0.311
-439.778	-200.000	-0.049	-0.286
-438.763	-200.000	0.042	0.234
-437.749	-32.162	0.066	0.037
-436.734	134.843	0.079	-0.104
-435.719	120.541	0.191	0.238
-434.705	-200.000	-0.017	0.122
-433.690	113.178	-0.109	-0.133
-432.676	68.428	0.096	0.099
-431.661	-65.263	-0.102	-0.041
-430.646	794.912	0.023	-0.065
-429.632	-99.304	-0.311	0.079
-428.617	-41.205	0.323	-0.168
-427.603	231.007	0.074	0.121
-426.588	78.172	0.140	0.150
-425.573	800.000	-0.094	-0.347
-424.559	-122.302	-0.437	-0.072
-423.544	177.863	0.102	-0.149
-422.530	-78.380	-0.084	-0.029
-421.515	153.360	-0.161	0.222
-420.500	-136.461	0.315	0.037
-419.486	-87.949	0.456	-0.138
-418.471	53.771	-0.156	0.151
-417.457	-200.000	-0.084	0.410
-416.442	101.925	0.244	0.286
-415.428	454.039	0.067	-0.149
-414.413	56.595	-0.143	0.140
-413.398	108.139	-0.150	-0.180
-412.384	117.717	0.026	0.033
-411.369	115.405	-0.176	0.216
-410.355	-71.062	0.148	-0.056
-409.340	63.887	0.102	0.103
-408.325	-200.000	-0.004	0.031
-407.311	-97.314	-0.174	-0.046
-406.296	-200.000	0.008	0.147
-405.282	-200.000	-0.000	0.026
-404.267	800.000	0.065	-0.266
-403.252	-16.959	0.222	-0.141
-402.238	193.342	0.074	-0.112
-401.223	-200.000	0.010	0.133
-400.209	-67.385	0.120	0.047
-399.194	193.190	0.174	-0.264
-398.179	-200.000	-0.002	-0.042
-397.165	63.256	-0.034	-0.034
-396.150	288.470	0.056	0.102
-395.136	-65.344	0.366	0.148
-394.121	-48.421	-0.182	-0.088
-393.106	-200.000	-0.023	-0.437
-392.092	94.636	-0.192	0.220
-391.077	-200.000	0.071	-0.445
-390.063	-49.574	0.145	-0.069
-389.048	-200.000	0.029	-0.146
-388.033	698.640	-0.077	0.205
-387.019	37.183	-0.124	0.111
-386.004	-61.319	0.219	-0.093
-384.990	195.101	0.075	-0.115
-383.975	-25.217	-0.082	0.049
-382.960	-117.276	-0.245	-0.045
-381.946	27.169	0.194	-0.164
-380.931	-95.733	-0.058	0.016
-379.917	-16.634	-0.102	0.065
-378.902	-200.000	-0.022	0.138
-377.888	-200.000	0.019	0.294
-376.873	-54.493	-0.397	-0.181
-375.858	-200.000	-0.009	-0.068
-374.844	101.572	0.238	-0.279
-373.829	193.157	-0.195	0.296
-372.815	121.167	-0.098	0.122
-371.800	33.505	0.372	-0.324
-370.785	-3.861	0.321	-0.224
-369.771	130.213	0.134	0.173
-368.756	-187.399	0.258	0.003
-367.742	377.630	0.113	-0.231
-366.727	-76.638	0.265	-0.093
-365.712	-89.610	-0.166	-0.049
-364.698	164.030	0.121	0.172
-363.683	94.636	0.171	-0.196
-362.669	-124.070	-0.125	-0.020
-361.654	-200.000	-0.065	0.434
-360.639	-144.888	-0.398	0.037
-359.625	-14.109	-0.025	0.016
-358.610	-109.907	0.319	-0.067
-357.596	-74.023	0.310	-0.113
-356.581	-173.435	-0.345	-0.010
-355.566	-115.234	-0.219	-0.042
-354.552	-172.864	0.245	0.008
-353.537	800.000	0.088	-0.271
-352.523	-118.974	0.078	-0.014
-351.508	170.969	0.080	-0.115
-350.493	-200.000	-0.023	0.208
-349.479	-200.000	-0.020	-0.293
-348.464	-123.398	-0.070	0.011
-347.450	-164.430	0.194	0.009
-346.435	70.893	-0.044	0.046
-345.420	-200.000	0.033	0.382
-344.406	13.089	0.241	-0.187
-343.391	-160.876	-0.112	0.006
-342.377	91.808	-0.239	-0.270
-341.362	307.121	0.098	-0.183
-340.348	-200.000	0.010	0.485
-339.333	223.837	0.132	-0.214
-338.318	169.964	-0.231	0.332
-337.304	-93.192	0.229	-0.064
-336.289	-50.965	-0.041	0.019
-335.275	223.694	0.169	0.274
-334.260	-70.951	0.321	0.121
-333.245	123.701	-0.129	-0.162
-332.231	-83.296	0.166	0.054
-331.216	-200.000	-0.012	0.148
-330.202	800.000	-0.085	-0.294
-329.187	800.000	0.074	-0.222
-328.172	-112.798	0.312	-0.062
-327.158	-81.870	-0.171	-0.056
-326.143	-90.364	-0.403	0.117
-325.129	-200.000	0.052	0.260
-324.114	-108.102	0.328	0.071
-323.099	-59.799	0.041	0.018
-322.085	-200.000	-0.012	0.060
-321.070	-200.000	-0.060	0.272
-320.056	-126.651	0.318	0.047
-319.041	191.464	-0.076	0.114
-318.026	-55.955	-0.077	-0.034
-317.012	143.404	-0.123	-0.163
-315.997	-51.910	-0.093	-0.043
-314.983	-122.472	0.347	-0.057
-313.968	-112.689	0.225	0.045
-312.953	-200.000	0.007	-0.212
-311.939	-148.966	-0.163	0.013
-310.924	-76.586	-0.032	-0.011
-309.910	-79.678	-0.179	0.060
-308.895	-74.663	0.252	-0.091
-307.880	23.263	-0.136	0.112
-306.866	-163.858	0.394	-0.018
-305.851	427.662	0.148	-0.321
-304.837	-8.600	0.265	-0.178
-303.822	156.166	-0.198	0.273
-302.807	-200.000	-0.034	0.623
-301.793	459.424	-0.125	-0.278
-300.778	-160.983	-0.206	0.011
-299.764	-149.287	-0.211	0.017
-298.749	93.389	0.270	0.306
-297.735	-40.574	-0.345	0.179
-296.720	-82.390	-0.398	-0.130
-295.705	-200.000	-0.008	-0.168
-294.691	195.129	-0.147	-0.223
-293.676	156.412	0.017	0.024
-292.662	-200.000	-0.012	-0.065
-291.647	800.000	-0.022	0.090
-290.632	321.551	-0.141	0.268
-289.618	-72.204	-0.178	-0.066
-288.603	396.555	0.062	-0.129
-287.589	114.642	0.152	0.186
-286.574	-96.485	-0.122	0.032
-285.559	-40.391	0.133	0.069
-284.545	183.343	-0.186	0.275
-283.530	-10.962	-0.189	0.125
-282.516	800.000	0.155	0.526
-281.501	504.598	-0.030	-0.068
-280.486	348.277	-0.232	-0.459
-279.472	-125.161	0.302	-0.046
-278.457	-68.153	-0.420	-0.164
-277.443	12.705	-0.080	-0.062
-276.428	315.509	0.039	-0.073
-275.413	47.067	-0.281	-0.261
-274.399	-35.850	-0.336	-0.182
-273.384	-200.000	-0.053	0.373
-272.370	149.560	-0.067	-0.091
-271.355	11.673	0.229	0.176
-270.340	-200.000	0.016	0.130
-269.326	21.312	-0.260	-0.211
-268.311	-163.278	-0.120	0.006
-267.297	-200.000	0.034	0.243
-266.282	-117.799	0.340	0.061
-265.267	-36.663	0.315	0.169
-264.253	-200.000	-0.022	0.179
-263.238	-200.000	0.035	-0.178
-262.224	-200.000	-0.043	0.211
-261.209	-108.056	-0.345	-0.075
-260.195	83.786	0.209	0.228
-259.180	209.242	-0.038	0.059
-258.165	329.162	-0.054	0.103
-257.151	-105.750	-0.063	0.014
-256.136	149.766	0.114	0.154
-255.122	-24.322	0.277	-0.165
-254.107	-2.926	0.061	0.043
-253.092	416.488	-0.152	0.325
-252.078	-200.000	-0.010	0.100
-251.063	-111.652	-0.468	-0.095
-250.049	-59.582	-0.130	-0.056
-249.034	80.349	0.203	-0.218
-248.019	-5.503	0.305	-0.209
-247.005	-127.452	-0.398	-0.058
-245.990	155.196	-0.135	-0.186
-244.976	800.000	0.034	-0.136
-243.961	7.727	0.241	-0.180
-242.946	-60.386	0.157	0.067
-241.932	800.000	0.128	0.378
-240.917	800.000	0.065	-0.221
-239.903	-77.715	-0.118	0.041
-238.888	14.663	-0.106	0.083
-237.873	-175.937	-0.066	0.002
-236.859	-200.000	0.016	-0.241
-235.844	-40.613	-0.201	-0.104
-234.830	253.592	-0.203	0.346
-233.815	800.000	0.055	-0.167
-232.800	149.901	-0.041	-0.056
-231.786	172.322	0.097	0.140
-230.771	158.249	-0.030	-0.042
-229.757	-76.742	0.224	0.078
-228.742	68.200	-0.270	-0.276
-227.727	-200.000	0.060	-0.377
-226.713	800.000	-0.113	-0.333
-225.698	-107.117	0.494	0.109
-224.684	13.213	0.213	0.165
-223.669	-70.974	0.216	-0.081
-222.655	112.180	-0.105	0.126
-221.640	-168.667	0.172	0.007
-220.625	-127.689	-0.226	0.033
-219.611	-149.305	-0.222	-0.018
-218.596	-200.000	0.002	0.275
-217.582	-200.000	0.017	0.087
-216.567	-70.057	0.311	0.118
-215.552	40.384	0.196	0.176
-214.538	519.322	-0.103	-0.241
-213.523	-73.077	0.139	-0.051
-212.509	800.000	0.074	-0.219
-211.494	6.667	0.022	-0.016
-210.479	-200.000	-0.025	0.327
-209.465	188.546	0.100	0.150
-208.450	-89.925	-0.424	0.123
-207.436	509.633	-0.033	-0.077
-206.421	-200.000	0.082	0.516
-205.406	-45.534	-0.160	0.079
-204.392	-150.031	-0.253	0.020
-203.377	-200.000	0.062	-0.273
-202.363	-200.000	-0.017	0.230
-201.348	-18.509	0.097	-0.060
-200.333	259.014	0.207	-0.355
-199.319	-116.544	-0.187	-0.034
-198.304	36.279	0.126	0.111
-197.290	75.944	-0.219	-0.231
-196.275	-120.711	0.288	0.048
-195.260	112.624	0.173	-0.209
-194.246	-200.000	-0.009	0.142
-193.231	391.637	0.057	-0.119
-192.217	-184.049	-0.182	0.003
-191.202	81.484	-0.054	0.058
-190.187	-94.267	-0.422	0.115
-189.173	-67.463	0.312	-0.122
-188.158	-95.988	-0.129	-0.034
-187.144	800.000	0.055	0.192
-186.129	-200.000	0.004	-0.135
-185.114	800.000	0.058	-0.165
-184.100	-200.000	0.010	-0.088
-183.085	631.459	-0.040	-0.100
-182.071	176.950	0.030	-0.044
-181.056	800.000	0.067	0.227
-180.042	-72.072	0.140	0.052
-179.027	-31.887	-0.226	-0.126
-178.012	15.654	0.153	0.119
-176.998	481.113	-0.117	-0.265
-175.983	-135.432	0.298	-0.035
-174.969	-94.868	-0.088	-0.024
-173.954	94.574	0.077	-0.087
-172.939	-200.000	-0.014	0.276
-171.925	-25.559	0.276	0.162
-170.910	800.000	0.138	0.381
-169.896	26.317	-0.075	-0.062
-168.881	800.000	-0.061	0.228
-167.866	48.663	-0.113	0.105
-166.852	-5.745	0.202	-0.138
-165.837	264.942	0.105	-0.183
-164.823	-128.370	-0.175	-0.025
-163.808	103.666	0.183	-0.214
-162.793	-194.363	-0.077	-0.001
-161.779	-80.954	0.264	0.087
-160.764	394.489	-0.087	0.180
-159.750	-200.000	0.020	-0.115
-158.735	-200.000	-0.188	0.000
-157.720	-16.363	-0.201	-0.127
-156.706	-38.346	0.085	-0.045
-155.691	-42.795	-0.226	-0.114
-154.677	-200.000	-0.027	0.376
-153.662	-47.723	0.211	0.102
-152.647	-84.039	0.453	-0.143
-151.633	-200.000	0.073	0.338
-150.618	800.000	-0.116	0.341
-149.604	-99.485	-0.176	0.044
-148.589	169.539	0.070	0.099
-147.574	96.386	0.121	-0.138
-146.560	-52.700	-0.119	-0.055
-145.545	-94.030	-0.342	0.093
-144.531	176.942	0.062	0.090
-143.516	-61.031	-0.152	-0.064
-142.502	146.486	-0.120	0.160
-141.487	800.000	0.047	-0.148
-140.472	800.000	0.029	-0.090
-139.458	-6.253	-0.055	-0.037
-138.443	-200.000	-0.029	-0.289
-137.429	634.176	-0.049	-0.122
-136.414	7.593	0.148	0.110
-135.399	-85.844	-0.400	-0.123
-134.385	-200.000	0.005	0.162
-133.370	800.000	0.075	0.233
-132.356	-200.000	-0.035	-0.183
-131.341	-153.109	-0.173	-0.012
-130.326	800.000	-0.074	-0.206
-129.312	-19.528	-0.212	0.131
-128.297	680.734	0.033	0.085
-127.283	-55.959	0.108	-0.048
-126.268	297.572	0.154	0.281
-125.253	800.000	-0.038	-0.130
-124.239	204.928	0.171	-0.264
-123.224	-200.000	0.026	-0.271
-122.210	-55.930	-0.153	0.068
