DTS Sentinel unit serial number:	SN413079Multiplexer serial number:	ORYXHardware model number:	OX4-SRSoftware version number:	ORYX F/W v4.00 Oryx Data Collector v3.7.2.0data status	okinstallation	princeton_trtdifferential loss correction	single-endedforward channel	channel 4reverse channel	N/Adate	2019/09/11time	06:27:10forward acquisition time	60.00reverse acquisition time	0.00gamma	496.2192k internal	0.2315k external	0.2315temperature offset calibration	0.9944default loss term (dB/km)	0.3790temperature slope calibration	1.0000multiplexer offset coefficient	1.0000multiplexer slope coefficient	1.0000fibre end	0.00T internal ref (°C)	29.56T ext. ref 1 (°C)	-0.19T ext. ref 2 (°C)	24.13length (m)	temperature (°C)	Stokes	anti-Stokes-747.200	140.599	-0.103	-0.138
-746.185	301.288	-0.146	0.274
-745.171	-200.000	-0.040	0.241
-744.156	684.587	-0.127	0.337
-743.142	51.951	-0.031	-0.030
-742.127	-83.194	-0.311	0.101
-741.112	800.000	-0.070	0.240
-740.098	-200.000	0.006	0.157
-739.083	-125.009	-0.123	0.019
-738.069	-18.868	-0.111	-0.070
-737.054	48.304	0.123	-0.117
-736.039	-109.117	-0.348	-0.075
-735.025	102.542	0.149	0.177
-734.010	6.858	-0.340	-0.257
-732.996	240.366	0.148	-0.249
-731.981	-12.010	0.060	0.040
-730.966	474.886	0.089	0.204
-729.952	-164.862	-0.158	0.007
-728.937	650.663	0.150	-0.389
-727.923	183.022	-0.046	-0.068
-726.908	-96.977	-0.363	0.096
-725.894	28.347	0.117	0.100
-724.879	-126.232	0.376	-0.057
-723.864	-148.740	-0.296	0.024
-722.850	266.310	0.120	0.213
-721.835	-70.013	-0.170	0.066
-720.821	800.000	0.043	-0.146
-719.806	-168.970	-0.025	0.001
-718.791	59.936	0.262	0.262
-717.777	263.980	0.080	-0.140
-716.762	-13.346	0.126	-0.083
-715.748	250.943	-0.020	-0.034
-714.733	195.302	-0.196	0.302
-713.718	-169.738	-0.221	-0.008
-712.704	-125.687	-0.167	-0.026
-711.689	59.989	0.097	0.097
-710.675	-144.432	0.331	-0.031
-709.660	-200.000	0.020	-0.307
-708.645	30.096	-0.150	0.129
-707.631	-80.031	0.291	0.099
-706.616	84.869	-0.183	-0.203
-705.602	-34.694	0.157	0.087
-704.587	649.242	-0.143	0.370
-703.572	-44.140	0.140	-0.071
-702.558	-200.000	-0.032	-0.256
-701.543	517.489	0.092	0.219
-700.529	-135.792	0.032	0.004
-699.514	-5.154	0.056	-0.039
-698.499	-90.098	0.388	-0.114
-697.485	328.479	-0.049	0.096
-696.470	-36.693	0.207	-0.113
-695.456	-142.292	-0.170	-0.017
-694.441	-114.336	0.055	0.011
-693.426	37.248	-0.037	-0.033
-692.412	162.813	-0.208	0.295
-691.397	-134.127	0.167	0.021
-690.383	800.000	-0.068	0.212
-689.368	90.125	0.269	-0.304
-688.354	476.824	-0.221	-0.506
-687.339	800.000	0.093	0.275
-686.324	11.190	-0.161	-0.125
-685.310	417.025	-0.102	-0.220
-684.295	-200.000	0.037	-0.423
-683.281	189.546	-0.210	-0.318
-682.266	189.404	0.103	-0.156
-681.251	-127.422	0.255	-0.037
-680.237	27.806	0.117	0.099
-679.222	21.697	0.320	-0.263
-678.208	298.040	0.062	-0.116
-677.193	268.711	-0.088	-0.156
-676.178	-121.310	0.327	0.055
-675.164	-200.000	-0.041	0.407
-674.149	79.420	0.119	0.129
-673.135	-200.000	-0.017	0.129
-672.120	554.077	-0.073	0.176
-671.105	-22.473	-0.063	-0.039
-670.091	743.671	-0.060	0.164
-669.076	29.801	0.335	-0.288
-668.062	-8.099	0.126	0.086
-667.047	11.207	0.133	-0.103
-666.032	-133.606	0.100	0.013
-665.018	800.000	0.114	0.463
-664.003	-200.000	0.003	0.151
-662.989	-5.901	0.159	0.110
-661.974	21.483	0.154	-0.127
-660.959	5.204	0.339	0.252
-659.945	136.839	-0.050	-0.065
-658.930	-21.123	-0.258	0.159
-657.916	1.700	-0.239	-0.174
-656.901	551.376	-0.027	-0.065
-655.886	800.000	0.074	-0.264
-654.872	-32.011	-0.127	0.072
-653.857	-39.949	0.228	-0.120
-652.843	800.000	-0.090	-0.319
-651.828	800.000	-0.092	-0.323
-650.814	-200.000	-0.044	0.271
-649.799	800.000	0.013	0.057
-648.784	-41.997	-0.144	0.074
-647.770	800.000	-0.039	0.161
-646.755	707.366	0.134	-0.357
-645.741	32.869	0.246	-0.215
-644.726	73.350	0.231	0.244
-643.711	-200.000	-0.009	-0.067
-642.697	-127.085	-0.193	0.029
-641.682	-200.000	-0.051	0.264
-640.668	-200.000	-0.004	0.227
-639.653	-200.000	-0.015	0.107
-638.638	71.594	0.110	0.116
-637.624	800.000	-0.024	0.098
-636.609	800.000	0.109	-0.320
-635.595	-111.012	-0.082	0.017
-634.580	95.351	0.199	-0.228
-633.565	-22.639	0.218	0.133
-632.551	-10.917	-0.040	0.026
-631.536	800.000	-0.076	0.326
-630.522	-163.336	-0.247	0.012
-629.507	137.450	-0.108	0.143
-628.492	-198.317	-0.321	-0.002
-627.478	303.936	-0.165	-0.308
-626.463	122.831	0.070	-0.089
-625.449	-200.000	0.026	-0.378
-624.434	-95.393	-0.174	-0.047
-623.419	-101.972	0.387	-0.094
-622.405	-42.441	0.174	-0.090
-621.390	10.913	0.075	-0.058
-620.376	99.134	-0.298	0.347
-619.361	-169.545	-0.149	-0.005
-618.346	68.904	0.137	-0.142
-617.332	93.836	0.214	0.244
-616.317	41.658	-0.108	-0.099
-615.303	-51.007	-0.100	0.047
-614.288	800.000	0.073	-0.238
-613.273	-114.282	0.162	0.032
-612.259	49.958	-0.189	0.180
-611.244	800.000	0.125	-0.378
-610.230	30.251	0.307	-0.265
-609.215	-29.316	-0.120	-0.069
-608.201	-132.193	0.259	0.034
-607.186	649.315	0.075	-0.194
-606.171	-146.146	-0.300	0.027
-605.157	800.000	-0.059	-0.191
-604.142	-29.159	0.024	0.014
-603.128	78.299	0.140	0.151
-602.113	28.240	-0.040	0.034
-601.098	-88.491	-0.050	0.015
-600.084	131.106	-0.094	0.121
-599.069	800.000	0.049	-0.201
-598.055	-200.000	0.017	0.254
-597.040	-68.152	0.054	-0.021
-596.025	39.923	0.341	-0.309
-595.011	-61.139	-0.139	-0.059
-593.996	-73.929	-0.179	-0.065
-592.982	139.427	0.083	0.110
-591.967	-200.000	-0.005	-0.165
-590.952	156.127	-0.185	-0.257
-589.938	89.421	0.256	-0.288
-588.923	130.917	-0.148	0.191
-587.909	-157.088	0.352	-0.022
-586.894	71.293	0.119	0.125
-585.879	84.872	-0.225	0.249
-584.865	116.926	-0.026	-0.032
-583.850	-29.872	0.098	-0.056
-582.836	-81.342	-0.459	0.152
-581.821	-98.641	0.317	-0.081
-580.806	37.505	-0.075	-0.067
-579.792	87.783	0.229	-0.256
-578.777	-103.731	-0.192	-0.045
-577.763	-102.832	0.250	0.060
-576.748	499.035	-0.047	-0.109
-575.733	-125.174	-0.179	-0.028
-574.719	677.899	-0.131	-0.343
-573.704	94.210	-0.121	0.139
-572.690	-94.151	-0.319	0.088
-571.675	446.125	0.047	-0.105
-570.661	14.950	0.075	-0.059
-569.646	108.443	0.093	-0.112
-568.631	361.975	-0.113	-0.227
-567.617	-52.372	0.165	0.077
-566.602	41.680	-0.143	0.131
-565.588	113.383	0.151	0.185
-564.573	-88.620	-0.081	-0.024
-563.558	117.803	-0.194	-0.240
-562.544	282.599	0.107	-0.194
-561.529	129.689	-0.207	0.267
-560.515	242.854	-0.034	-0.058
-559.500	-19.031	0.076	0.048
-558.485	-200.000	-0.007	-0.140
-557.471	48.537	-0.122	-0.115
-556.456	-200.000	-0.002	-0.083
-555.442	-40.979	-0.373	0.194
-554.427	-96.876	0.286	0.075
-553.412	120.007	0.067	-0.084
-552.398	-100.216	-0.357	-0.089
-551.383	468.869	0.043	0.097
-550.369	-13.478	0.387	0.252
-549.354	157.826	0.089	-0.124
-548.339	800.000	0.055	0.200
-547.325	-199.801	-0.309	-0.002
-546.310	-20.736	-0.359	0.221
-545.296	-146.878	0.321	0.028
-544.281	-200.000	-0.014	-0.070
-543.266	800.000	0.050	0.141
-542.252	-116.022	-0.249	0.047
-541.237	291.334	0.228	0.418
-540.223	-200.000	0.038	-0.286
-539.208	-102.674	0.250	0.060
-538.193	84.553	-0.375	-0.413
-537.179	-89.845	0.293	0.086
-536.164	-200.000	-0.018	0.107
-535.150	800.000	-0.095	-0.384
-534.135	11.248	-0.070	0.054
-533.121	229.430	-0.077	0.127
-532.106	-71.279	-0.204	-0.077
-531.091	117.769	0.150	0.185
-530.077	105.039	-0.109	-0.129
-529.062	-200.000	-0.020	0.191
-528.048	-200.000	-0.010	0.104
-527.033	240.623	0.142	0.238
-526.018	-4.516	0.108	-0.075
-525.004	-103.426	-0.133	0.031
-523.989	42.478	-0.136	0.125
-522.975	-200.000	0.035	-0.279
-521.960	-194.381	0.164	-0.001
-520.945	-74.439	-0.198	0.072
-519.931	180.197	0.077	-0.113
-518.916	24.447	-0.362	0.301
-517.902	229.347	0.090	-0.148
-516.887	77.290	0.094	-0.100
-515.872	566.236	-0.069	-0.169
-514.858	-200.000	0.032	0.618
-513.843	10.282	0.235	-0.180
-512.829	287.197	-0.062	0.112
-511.814	504.771	0.060	0.140
-510.799	-95.069	-0.097	0.026
-509.785	-200.000	-0.004	-0.039
-508.770	633.026	-0.120	0.305
-507.756	267.604	-0.114	-0.200
-506.741	256.409	0.055	0.095
-505.726	-200.000	0.010	0.091
-504.712	94.951	-0.271	-0.310
-503.697	4.424	0.158	-0.116
-502.683	315.540	0.082	-0.156
-501.668	-69.217	0.284	-0.110
-500.653	-13.464	-0.257	0.167
-499.639	17.831	0.236	-0.189
-498.624	603.209	-0.074	-0.185
-497.610	-132.605	0.193	-0.025
-496.595	800.000	0.015	-0.050
-495.581	800.000	0.096	-0.334
-494.566	478.639	0.101	-0.230
-493.551	108.936	0.191	0.230
-492.537	-30.468	-0.181	0.103
-491.522	247.650	0.103	-0.174
-490.508	-48.842	0.387	0.186
-489.493	-0.718	-0.163	-0.116
-488.478	-28.314	0.257	-0.149
-487.464	45.777	0.250	0.232
-486.449	-200.000	-0.052	0.384
-485.435	-141.380	-0.146	0.015
-484.420	141.380	-0.174	-0.230
-483.405	800.000	0.069	-0.219
-482.391	7.275	-0.105	-0.078
-481.376	-200.000	0.023	-0.139
-480.362	63.256	0.109	0.110
-479.347	296.807	-0.121	-0.223
-478.332	472.715	-0.064	0.145
-477.318	-165.482	-0.156	-0.007
-476.303	800.000	0.078	0.219
-475.289	-45.031	-0.258	0.129
-474.274	-200.000	0.016	0.099
-473.259	263.948	0.142	0.247
-472.245	800.000	-0.026	-0.108
-471.230	-115.875	-0.130	-0.024
-470.216	89.638	-0.137	0.153
-469.201	301.463	0.066	0.122
-468.186	600.495	-0.050	-0.125
-467.172	391.823	-0.037	-0.077
-466.157	-129.969	0.413	0.057
-465.143	-73.283	0.348	-0.128
-464.128	800.000	-0.057	-0.236
-463.113	-200.000	-0.007	0.072
-462.099	51.190	0.136	-0.129
-461.084	331.627	0.097	-0.188
-460.070	-200.000	0.000	-0.127
-459.055	-200.000	0.025	0.276
-458.040	196.924	0.105	0.160
-457.026	-200.000	0.008	0.042
-456.011	147.199	0.183	0.247
-454.997	-58.765	-0.320	0.139
-453.982	-106.510	0.239	-0.053
-452.968	-38.699	0.165	-0.087
-451.953	149.752	0.081	-0.110
-450.938	-146.760	-0.120	0.010
-449.924	22.270	0.165	0.135
-448.909	-42.394	-0.046	0.024
-447.895	-200.000	0.055	0.345
-446.880	215.712	-0.144	0.229
-445.865	800.000	-0.078	0.277
-444.851	-24.086	-0.174	0.104
-443.836	-66.840	0.074	0.029
-442.822	-200.000	-0.002	-0.210
-441.807	-6.787	-0.039	-0.027
-440.792	92.085	0.172	-0.194
-439.778	-187.568	0.140	-0.002
-438.763	800.000	0.065	0.201
-437.749	800.000	-0.061	-0.169
-436.734	-108.701	0.197	0.042
-435.719	-82.605	0.093	-0.030
-434.705	-40.225	-0.203	0.106
-433.690	102.940	0.181	-0.213
-432.676	47.711	0.142	-0.133
-431.661	-127.138	-0.113	0.017
-430.646	-92.178	0.352	-0.100
-429.632	126.790	-0.040	-0.051
-428.617	31.693	-0.274	0.236
-427.603	78.743	0.161	0.173
-426.588	577.236	-0.077	-0.189
-425.573	-160.916	-0.071	0.004
-424.559	-36.114	-0.338	0.182
-423.544	355.635	-0.073	0.146
-422.530	800.000	0.103	-0.288
-421.515	-107.625	-0.360	-0.079
-420.500	37.107	-0.142	0.126
-419.486	41.507	0.282	0.255
-418.471	247.907	0.208	-0.351
-417.457	-51.084	0.318	0.149
-416.442	-129.911	0.050	-0.007
-415.428	-91.271	0.317	-0.091
-414.413	7.761	-0.229	-0.172
-413.398	-200.000	0.030	-0.216
-412.384	-13.933	0.249	0.161
-411.369	-179.758	-0.210	-0.005
-410.355	-200.000	0.015	-0.180
-409.340	-71.131	0.083	-0.031
-408.325	44.676	-0.126	-0.116
-407.311	248.512	-0.219	-0.371
-406.296	-169.882	0.558	0.020
-405.282	-25.081	-0.222	0.132
-404.267	-14.641	0.277	-0.178
-403.252	336.976	-0.030	-0.059
-402.238	-200.000	-0.056	-0.305
-401.223	-72.319	-0.151	-0.056
-400.209	-105.043	-0.251	0.058
-399.194	-146.326	-0.028	-0.002
-398.179	663.132	-0.044	-0.114
-397.165	800.000	0.048	0.152
-396.150	-200.000	-0.098	0.517
-395.136	800.000	-0.079	0.219
-394.121	754.806	-0.086	-0.232
-393.106	-96.387	-0.213	0.056
-392.092	90.715	0.071	-0.079
-391.077	800.000	0.097	-0.277
-390.063	-132.024	0.226	0.029
-389.048	40.291	0.065	0.058
-388.033	-200.000	-0.004	-0.155
-387.019	800.000	0.075	0.208
-386.004	158.391	-0.161	0.224
-384.990	800.000	0.083	0.234
-383.975	624.687	-0.020	0.050
-382.960	51.497	0.164	0.156
-381.946	-84.966	0.248	-0.078
-380.931	-164.989	-0.315	-0.014
-379.917	-200.000	-0.040	0.228
-378.902	-38.600	-0.078	0.041
-377.888	743.264	-0.016	-0.043
-376.873	-200.000	0.017	0.110
-375.858	-1.321	-0.279	0.197
-374.844	-124.840	0.378	-0.058
-373.829	-185.876	-0.170	0.003
-372.815	73.562	-0.218	-0.228
-371.800	-200.000	-0.027	0.196
-370.785	21.478	0.057	-0.047
-369.771	637.941	-0.018	0.045
-368.756	-3.174	-0.320	0.223
-367.742	-13.908	0.393	0.253
-366.727	-194.199	0.266	-0.002
-365.712	185.387	0.251	0.372
-364.698	-200.000	0.031	-0.214
-363.683	-83.009	-0.082	0.026
-362.669	800.000	0.010	-0.029
-361.654	-14.249	-0.114	-0.074
-360.639	800.000	0.025	0.069
-359.625	-94.866	-0.352	-0.095
-358.610	-3.186	0.133	-0.093
-357.596	79.552	-0.156	-0.167
-356.581	264.244	0.078	-0.136
-355.566	0.344	-0.166	0.118
-354.552	308.500	0.014	0.027
-353.537	-48.045	0.151	0.073
-352.523	-173.234	-0.109	0.003
-351.508	-4.883	-0.533	-0.367
-350.493	-37.413	0.310	0.165
-349.479	95.305	0.299	0.340
-348.464	800.000	0.174	-0.487
-347.450	485.386	0.120	0.272
-346.435	-200.000	-0.021	0.133
-345.420	342.583	-0.042	-0.083
-344.406	-200.000	-0.008	0.046
-343.391	93.482	0.141	0.159
-342.377	11.060	-0.315	0.240
-341.362	279.418	0.140	-0.250
-340.348	-38.412	0.405	0.214
-339.333	131.020	-0.054	0.069
-338.318	-109.262	0.582	-0.123
-337.304	436.277	0.018	0.038
-336.289	-10.311	-0.133	-0.088
-335.275	-61.604	-0.100	0.042
-334.260	90.427	0.058	-0.064
-333.245	-200.000	0.307	0.000
-332.231	32.166	-0.140	0.121
-331.216	-10.697	0.204	-0.135
-330.202	800.000	-0.050	-0.153
-329.187	-43.693	-0.134	-0.067
-328.172	-200.000	-0.026	-0.171
-327.158	800.000	-0.093	0.292
-326.143	800.000	-0.021	-0.086
-325.129	-200.000	0.011	-0.319
-324.114	213.562	-0.276	-0.435
-323.099	-107.410	-0.404	-0.088
-322.085	300.692	0.037	0.069
-321.070	-200.000	-0.005	-0.132
-320.056	107.241	0.252	-0.298
-319.041	-3.784	-0.141	0.098
-318.026	-200.000	0.039	-0.277
-317.012	-12.521	0.409	0.266
-315.997	295.562	-0.127	-0.231
-314.983	54.022	0.216	0.207
-313.968	-154.645	0.091	-0.006
-312.953	800.000	0.072	-0.230
-311.939	40.045	-0.033	0.030
-310.924	240.495	-0.050	-0.083
-309.910	-121.353	-0.193	0.032
-308.895	-37.571	0.164	0.087
-307.880	-29.257	-0.429	-0.245
-306.866	14.120	0.179	0.139
-305.851	-140.123	0.360	0.038
-304.837	-5.810	0.440	-0.300
-303.822	-26.440	0.278	-0.162
-302.807	46.487	-0.135	-0.125
-301.793	24.429	-0.487	0.401
-300.778	222.244	-0.033	-0.054
-299.764	304.627	0.100	0.186
-298.749	800.000	-0.040	0.133
-297.735	-138.635	0.326	-0.036
-296.720	800.000	0.069	-0.212
-295.705	608.175	0.086	-0.215
-294.691	359.868	0.071	0.142
-293.676	-50.965	-0.116	0.054
-292.662	-200.000	0.047	0.332
-291.647	-129.617	-0.091	0.013
-290.632	102.443	-0.044	-0.051
-289.618	30.146	0.124	0.105
-288.603	-80.319	-0.118	-0.039
-287.589	-137.922	0.240	0.027
-286.574	50.954	0.323	0.304
-285.559	800.000	0.067	-0.232
-284.545	-68.252	-0.337	-0.130
-283.530	-161.508	0.147	-0.008
-282.516	-77.301	-0.230	-0.080
-281.501	-42.225	-0.495	-0.252
-280.486	-121.591	-0.059	0.010
-279.472	-88.601	0.062	0.018
-278.457	249.647	0.170	0.287
-277.443	-8.296	-0.145	0.097
-276.428	317.647	0.049	0.092
-275.413	-87.491	-0.196	0.059
-274.399	133.300	0.162	-0.208
-273.384	800.000	0.062	-0.234
-272.370	160.155	0.072	0.101
-271.355	-71.837	-0.123	0.045
-270.340	800.000	-0.079	0.322
-269.326	800.000	-0.056	0.157
-268.311	-200.000	0.015	0.197
-267.297	800.000	-0.038	0.126
-266.282	226.497	0.167	0.269
-265.267	-80.170	-0.121	0.040
-264.253	-15.242	0.192	-0.122
-263.238	-200.000	-0.013	-0.201
-262.224	-3.966	-0.102	0.071
-261.209	800.000	-0.102	0.280
-260.195	794.730	-0.038	-0.103
-259.180	-43.873	-0.107	-0.053
-258.165	-200.000	-0.063	0.444
-257.151	98.221	0.080	0.091
-256.136	800.000	-0.048	-0.203
-255.122	800.000	-0.108	-0.434
-254.107	-23.271	0.257	0.154
-253.092	152.266	-0.162	0.220
-252.078	64.735	-0.043	0.044
-251.063	40.947	-0.143	0.129
-250.049	-200.000	0.044	0.202
-249.034	191.286	-0.128	0.192
-248.019	-81.234	0.237	0.078
-247.005	386.569	0.069	0.142
-245.990	-33.881	-0.064	-0.035
-244.976	-200.000	-0.029	-0.466
-243.961	-11.978	-0.156	0.101
-242.946	92.831	-0.110	0.123
-241.932	-84.035	-0.242	0.076
-240.917	538.340	-0.231	-0.546
-239.903	267.971	0.143	-0.249
-238.888	-134.763	0.331	0.040
-237.873	-10.621	0.260	0.171
-236.859	26.198	0.043	0.036
-235.844	8.480	-0.177	-0.132
-234.830	163.494	0.101	0.141
-233.815	671.232	-0.184	0.472
-232.800	-200.000	-0.018	0.097
-231.786	-200.000	0.000	-0.083
-230.771	115.816	0.097	-0.117
-229.757	-200.000	0.092	0.493
-228.742	104.147	-0.181	0.212
-227.727	-72.516	0.087	0.032
-226.713	800.000	-0.048	0.160
-225.698	-200.000	-0.037	0.205
-224.684	559.581	-0.105	-0.253
-223.669	800.000	-0.023	0.087
-222.655	-139.539	-0.151	0.016
-221.640	217.156	-0.033	-0.052
-220.625	-128.677	-0.243	0.034
-219.611	16.557	0.142	-0.112
-218.596	44.579	-0.115	-0.105
-217.582	-89.365	-0.109	-0.032
-216.567	800.000	0.093	-0.290
-215.552	-113.623	0.244	-0.047
-214.538	-55.754	-0.229	0.102
-213.523	38.964	0.105	0.093
-212.509	754.821	-0.053	0.143
-211.494	-30.292	-0.211	-0.119
-210.479	-55.152	-0.268	-0.120
-209.465	-65.033	0.333	0.133
-208.450	795.003	0.055	-0.149
-207.436	10.940	-0.107	0.081
-206.421	-120.569	-0.407	-0.068
-205.406	-92.507	0.204	0.057
-204.392	800.000	-0.020	-0.062
-203.377	-198.099	-0.154	0.001
-202.363	28.075	0.044	-0.037
-201.348	168.528	0.095	0.134
-200.333	170.186	-0.149	0.212
-199.319	-25.520	-0.083	0.049
-198.304	800.000	0.077	0.234
-197.290	55.893	0.054	-0.052
-196.275	138.127	-0.072	-0.094
-195.260	-106.563	-0.408	-0.090
-194.246	800.000	-0.108	0.408
-193.231	-101.516	0.119	-0.029
-192.217	89.312	0.107	-0.119
-191.202	131.063	0.208	0.265
-190.187	124.388	-0.135	-0.168
-189.173	800.000	0.045	-0.176
-188.158	-78.682	-0.212	-0.072
-187.144	-200.000	-0.005	-0.118
-186.129	-152.776	0.250	-0.018
-185.114	194.249	-0.115	-0.173
-184.100	-75.142	-0.043	0.015
-183.085	570.987	-0.075	0.181
-182.071	54.841	0.151	0.145
-181.056	-200.000	0.012	0.227
-180.042	28.117	-0.310	0.259
-179.027	-112.233	-0.294	0.059
-178.012	-95.813	0.117	-0.031
-176.998	99.667	-0.090	-0.103
-175.983	-123.547	0.253	-0.040
-174.969	-182.704	-0.090	-0.002
-173.954	800.000	-0.040	0.164
-172.939	198.703	0.045	-0.068
-171.925	192.091	0.183	0.274
-170.910	282.401	0.132	0.235
-169.896	-151.637	0.672	0.049
-168.881	64.493	-0.128	0.127
-167.866	30.516	-0.143	-0.121
-166.852	-200.000	-0.001	-0.346
-165.837	21.166	-0.161	-0.129
-164.823	-200.000	0.054	-0.321
-163.808	635.003	0.052	-0.130
-162.793	185.122	-0.073	-0.108
-161.779	-152.534	-0.154	-0.011
-160.764	-40.764	-0.287	-0.147
-159.750	-21.271	-0.191	-0.116
-158.735	800.000	-0.030	-0.098
-157.720	-200.000	-0.017	0.093
-156.706	-200.000	-0.031	-0.292
-155.691	60.530	-0.202	-0.199
-154.677	-63.459	-0.224	0.091
-153.662	-200.000	-0.007	-0.065
-152.647	-36.595	0.116	-0.062
-151.633	-200.000	-0.022	-0.283
-150.618	-67.659	0.117	-0.045
-149.604	-200.000	-0.029	0.252
-148.589	62.488	-0.098	0.097
-147.574	-60.877	-0.061	-0.025
-146.560	100.011	-0.252	0.289
-145.545	-200.000	0.025	0.142
-144.531	70.381	-0.076	0.078
-143.516	800.000	-0.041	-0.127
-142.502	-72.835	0.155	0.057
-141.487	-200.000	-0.031	0.209
-140.472	257.006	0.169	-0.287
-139.458	121.587	-0.105	-0.130
-138.443	75.234	-0.189	0.198
-137.429	141.219	0.042	0.055
-136.414	-22.724	-0.191	-0.114
-135.399	287.978	0.033	0.059
-134.385	254.632	0.256	0.433
-133.370	135.531	-0.143	0.184
-132.356	-200.000	-0.006	-0.028
-131.341	-200.000	0.052	0.383
-130.326	732.016	-0.108	-0.287
-129.312	14.667	0.106	0.082
-128.297	241.785	-0.026	0.043
-127.283	-91.363	0.131	0.037
-126.268	71.980	0.254	0.261
-125.253	0.524	0.225	0.159
-124.239	-169.833	-0.313	0.011
-123.224	-200.000	-0.062	0.271
-122.210	-115.219	-0.147	-0.028
-121.195	27.386	0.082	0.068
-120.180	-137.313	0.231	0.026
