DTS Sentinel unit serial number:	SN413079Multiplexer serial number:	ORYXHardware model number:	OX4-SRSoftware version number:	ORYX F/W v4.00 Oryx Data Collector v3.7.2.0data status	okinstallation	princeton_trtdifferential loss correction	single-endedforward channel	channel 4reverse channel	N/Adate	2019/09/12time	01:27:11forward acquisition time	60.00reverse acquisition time	0.00gamma	496.2192k internal	0.2308k external	0.2308temperature offset calibration	1.0090default loss term (dB/km)	0.3790temperature slope calibration	1.0000multiplexer offset coefficient	1.0000multiplexer slope coefficient	1.0000fibre end	0.00T internal ref (°C)	32.94T ext. ref 1 (°C)	2.08T ext. ref 2 (°C)	27.84length (m)	temperature (°C)	Stokes	anti-Stokes-747.200	4.244	-0.109	-0.081
-746.185	800.000	-0.120	0.417
-745.171	-108.971	0.028	-0.006
-744.156	-200.000	-0.009	0.116
-743.142	386.347	-0.054	0.114
-742.127	-72.054	-0.137	0.052
-741.112	-200.000	-0.019	0.321
-740.098	-200.000	0.056	0.287
-739.083	-43.031	-0.392	0.202
-738.069	-11.456	-0.135	0.090
-737.054	3.338	0.181	0.134
-736.039	-21.873	-0.275	-0.170
-735.025	-161.010	0.243	-0.013
-734.010	215.147	-0.107	-0.172
-732.996	-10.190	0.238	-0.160
-731.981	-74.510	-0.137	-0.050
-730.966	486.787	-0.132	0.307
-729.952	481.331	-0.163	0.376
-728.937	-79.991	0.153	0.052
-727.923	-106.574	-0.283	0.064
-726.908	-4.161	-0.224	0.157
-725.894	267.876	-0.248	-0.441
-724.879	464.851	-0.079	-0.180
-723.864	-126.309	-0.226	0.034
-722.850	-200.000	0.046	-0.258
-721.835	-79.397	0.247	-0.085
-720.821	-88.202	-0.309	-0.094
-719.806	99.557	-0.240	-0.282
-718.791	-87.981	0.142	0.043
-717.777	594.646	-0.102	-0.256
-716.762	800.000	-0.082	-0.289
-715.748	13.160	-0.186	-0.147
-714.733	-148.331	0.275	0.023
-713.718	-22.117	0.087	0.054
-712.704	-77.322	-0.354	-0.125
-711.689	321.159	-0.149	0.287
-710.675	284.007	0.058	-0.107
-709.660	800.000	-0.037	0.117
-708.645	7.251	0.053	-0.041
-707.631	-21.869	0.118	0.073
-706.616	270.620	0.051	-0.091
-705.602	-101.428	0.192	0.047
-704.587	459.233	-0.110	-0.250
-703.572	-200.000	-0.064	0.328
-702.558	-36.752	0.079	-0.043
-701.543	800.000	0.021	0.076
-700.529	-23.913	-0.021	-0.013
-699.514	-88.999	0.250	0.075
-698.499	122.409	-0.203	0.257
-697.485	237.753	0.090	-0.151
-696.470	4.036	-0.121	-0.090
-695.456	-200.000	-0.005	0.032
-694.441	538.352	-0.032	-0.078
-693.426	-120.635	-0.256	0.044
-692.412	-179.713	0.160	0.004
-691.397	-93.839	-0.205	-0.057
-690.383	-200.000	0.021	0.144
-689.368	800.000	0.043	0.151
-688.354	97.750	-0.046	0.053
-687.339	229.707	-0.060	0.100
-686.324	-200.000	-0.017	-0.088
-685.310	-200.000	-0.049	0.384
-684.295	-28.788	-0.152	0.088
-683.281	-131.847	-0.172	0.023
-682.266	79.811	0.116	-0.126
-681.251	191.652	0.140	0.214
-680.237	-200.000	0.037	0.219
-679.222	-59.384	-0.071	0.031
-678.208	-200.000	-0.070	-0.378
-677.193	-200.000	-0.003	-0.102
-676.178	-61.474	-0.129	-0.055
-675.164	17.891	0.171	0.138
-674.149	-78.511	-0.297	0.103
-673.135	800.000	0.087	0.305
-672.120	-178.877	0.140	0.003
-671.105	176.399	0.138	0.203
-670.091	141.209	-0.155	-0.208
-669.076	-63.660	0.271	-0.113
-668.062	765.920	0.030	-0.082
-667.047	401.184	-0.120	-0.256
-666.032	-18.572	0.122	0.077
-665.018	-102.250	-0.486	-0.118
-664.003	33.771	0.209	0.184
-662.989	-31.860	0.286	0.162
-661.974	-200.000	0.028	-0.244
-660.959	-200.000	0.035	-0.191
-659.945	-70.980	-0.322	0.123
-658.930	124.395	0.129	-0.165
-657.916	243.070	-0.120	0.204
-656.901	-30.354	-0.474	0.273
-655.886	-160.276	0.295	0.016
-654.872	5.050	-0.464	0.346
-653.857	-200.000	0.078	0.421
-652.843	-75.927	-0.076	0.027
-651.828	-85.476	0.112	-0.035
-650.814	-200.000	-0.004	-0.181
-649.799	132.728	0.013	0.017
-648.784	-200.000	0.029	-0.190
-647.770	-129.317	-0.218	-0.031
-646.755	119.246	-0.136	0.170
-645.741	-30.506	-0.264	-0.151
-644.726	35.912	0.123	0.110
-643.711	-16.217	-0.196	-0.126
-642.697	-200.000	0.002	0.010
-641.682	723.070	0.040	0.109
-640.668	24.412	0.186	-0.155
-639.653	278.433	-0.066	-0.119
-638.638	-40.197	-0.076	-0.040
-637.624	-91.407	-0.121	0.035
-636.609	-115.943	-0.485	0.091
-635.595	223.224	0.176	-0.288
-634.580	-200.000	0.007	-0.138
-633.565	-82.020	0.016	-0.005
-632.551	800.000	-0.098	0.290
-631.536	48.449	-0.330	0.313
-630.522	-30.087	-0.233	0.134
-629.507	-130.238	0.227	-0.031
-628.492	42.137	0.084	0.077
-627.478	42.476	-0.019	-0.017
-626.463	-20.465	-0.235	-0.146
-625.449	-55.002	-0.047	0.021
-624.434	-200.000	0.011	0.061
-623.419	721.637	-0.072	0.193
-622.405	-157.020	0.082	0.005
-621.390	120.797	0.131	0.165
-620.376	-85.688	-0.349	-0.110
-619.361	208.015	-0.135	0.213
-618.346	-147.858	0.157	0.013
-617.332	-62.671	-0.185	0.077
-616.317	-200.000	-0.014	-0.239
-615.303	61.577	-0.057	0.057
-614.288	23.925	-0.055	0.046
-613.273	9.152	0.163	0.124
-612.259	-95.341	0.357	-0.097
-611.244	18.173	0.118	0.095
-610.230	-46.559	-0.150	0.074
-609.215	-157.606	0.105	0.006
-608.201	800.000	-0.085	0.305
-607.186	611.940	-0.110	-0.279
-606.171	800.000	-0.053	0.152
-605.157	91.335	-0.187	0.212
-604.142	-200.000	0.047	-0.377
-603.128	-128.251	-0.170	0.025
-602.113	37.190	0.109	-0.098
-601.098	-85.983	0.339	-0.106
-600.084	8.640	-0.377	0.287
-599.069	800.000	0.039	0.120
-598.055	204.059	0.096	0.151
-597.040	3.862	-0.393	-0.290
-596.025	-125.789	0.142	-0.022
-595.011	-73.378	0.091	-0.034
-593.996	22.243	-0.116	0.096
-592.982	-44.241	0.088	-0.045
-591.967	-88.563	-0.098	-0.030
-590.952	-200.000	0.049	-0.230
-589.938	-200.000	0.044	-0.284
-588.923	90.630	-0.222	-0.251
-587.909	-166.767	0.274	0.011
-586.894	-112.065	0.372	-0.076
-585.879	-56.253	0.313	-0.140
-584.865	137.308	-0.106	0.140
-583.850	-45.912	0.212	-0.106
-582.836	61.412	-0.334	0.336
-581.821	171.062	-0.091	0.132
-580.806	337.641	0.034	0.068
-579.792	479.140	-0.208	-0.475
-578.777	800.000	-0.098	0.364
-577.763	-200.000	0.009	-0.088
-576.748	-69.331	0.325	-0.126
-575.733	153.772	-0.089	0.123
-574.719	308.540	-0.111	0.209
-573.704	423.686	-0.132	0.286
-572.690	-200.000	-0.050	0.231
-571.675	-94.646	0.222	0.061
-570.661	-200.000	0.018	-0.325
-569.646	-1.795	-0.115	0.082
-568.631	191.998	-0.123	0.187
-567.617	390.363	-0.062	-0.130
-566.602	-99.855	0.069	0.017
-565.588	800.000	0.084	-0.289
-564.573	191.657	0.050	0.075
-563.558	800.000	0.015	0.042
-562.544	-160.484	0.213	0.012
-561.529	-169.747	-0.216	0.008
-560.515	279.499	0.059	-0.106
-559.500	-137.231	-0.248	0.028
-558.485	10.240	-0.398	-0.305
-557.471	38.053	-0.053	-0.048
-556.456	800.000	-0.058	0.245
-555.442	255.444	-0.126	-0.217
-554.427	29.487	0.209	-0.179
-553.412	-69.834	0.301	-0.116
-552.398	406.948	-0.131	-0.279
-551.383	-63.031	-0.190	-0.079
-550.369	-83.232	0.119	0.039
-549.354	758.352	-0.037	0.102
-548.339	-200.000	0.066	-0.348
-547.325	-200.000	0.068	-0.341
-546.310	-200.000	-0.025	-0.238
-545.296	571.262	-0.122	-0.298
-544.281	66.910	0.212	-0.218
-543.266	-6.186	0.108	0.074
-542.252	-200.000	0.014	-0.069
-541.237	800.000	0.064	-0.212
-540.223	-200.000	-0.034	-0.162
-539.208	-27.704	-0.131	-0.077
-538.193	782.982	0.180	-0.497
-537.179	-19.892	-0.122	0.076
-536.164	-1.051	0.082	0.059
-535.150	-10.942	-0.105	-0.070
-534.135	-91.857	0.213	0.061
-533.121	256.780	-0.090	0.156
-532.106	5.611	0.174	-0.130
-531.091	-200.000	0.003	-0.020
-530.077	142.675	-0.158	-0.211
-529.062	203.507	-0.193	-0.301
-528.048	489.647	-0.156	0.359
-527.033	62.054	0.154	0.155
-526.018	5.056	-0.101	0.075
-525.004	-109.288	0.090	0.019
-523.989	-157.739	-0.138	0.008
-522.975	131.119	-0.281	-0.363
-521.960	47.092	0.308	0.289
-520.945	-79.942	0.399	-0.135
-519.931	-200.000	-0.012	-0.136
-518.916	-200.000	0.005	-0.281
-517.902	-162.590	0.277	0.014
-516.887	-78.376	-0.297	0.102
-515.872	-106.423	-0.352	0.079
-514.858	456.591	0.064	-0.144
-513.843	13.996	0.198	0.155
-512.829	259.269	0.145	-0.252
-511.814	800.000	-0.090	-0.367
-510.799	800.000	-0.061	0.197
-509.785	80.006	0.029	0.031
-508.770	-200.000	0.070	-0.390
-507.756	-200.000	-0.063	-0.399
-506.741	-32.358	0.442	-0.249
-505.726	504.012	-0.164	0.382
-504.712	-90.004	0.107	-0.031
-503.697	800.000	0.022	-0.089
-502.683	-178.696	-0.496	0.011
-501.668	-136.451	0.207	-0.024
-500.653	800.000	0.059	0.182
-499.639	33.170	0.238	0.208
-498.624	590.995	0.071	0.177
-497.610	-52.866	-0.420	0.195
-496.595	769.605	-0.105	0.287
-495.581	-73.557	-0.031	0.011
-494.566	196.901	0.052	-0.079
-493.551	-200.000	-0.021	-0.144
-492.537	-86.147	-0.122	-0.038
-491.522	-160.002	-0.470	-0.026
-490.508	79.628	0.131	-0.141
-489.493	163.003	0.042	-0.060
-488.478	-18.091	-0.038	-0.024
-487.464	800.000	0.111	-0.429
-486.449	-145.150	0.120	-0.011
-485.435	-107.009	0.169	-0.038
-484.420	59.489	-0.155	0.154
-483.405	-200.000	-0.020	-0.140
-482.391	40.035	-0.060	-0.054
-481.376	30.210	-0.102	-0.087
-480.362	312.817	-0.013	0.024
-479.347	92.627	0.095	-0.108
-478.332	-100.268	-0.307	-0.077
-477.318	-179.946	0.216	-0.005
-476.303	-200.000	0.034	0.165
-475.289	-125.628	-0.406	0.062
-474.274	170.827	0.058	0.084
-473.259	595.079	0.103	0.255
-472.245	52.996	0.147	-0.141
-471.230	800.000	0.097	0.292
-470.216	-160.764	0.128	-0.007
-469.201	-200.000	-0.017	0.147
-468.186	-66.760	-0.181	-0.072
-467.172	-94.702	-0.274	-0.075
-466.157	800.000	-0.098	0.276
-465.143	-200.000	0.019	0.159
-464.128	800.000	0.050	0.211
-463.113	800.000	-0.132	-0.437
-462.099	233.137	-0.138	0.228
-461.084	78.908	-0.245	0.264
-460.070	230.705	0.033	0.054
-459.055	53.590	0.037	0.036
-458.040	266.363	0.110	-0.193
-457.026	17.031	-0.128	-0.102
-456.011	258.076	0.061	0.106
-454.997	800.000	0.078	-0.342
-453.982	16.938	0.293	-0.233
-452.968	-200.000	0.054	0.498
-451.953	-200.000	0.019	-0.140
-450.938	-129.379	-0.052	0.007
-449.924	175.220	0.156	0.226
-448.909	113.878	0.318	0.389
-447.895	-200.000	0.000	0.102
-446.880	766.760	0.179	-0.489
-445.865	532.776	-0.086	0.205
-444.851	-33.229	-0.024	-0.013
-443.836	-200.000	0.002	-0.181
-442.822	240.518	0.093	-0.156
-441.807	-82.513	-0.275	-0.090
-440.792	30.022	0.146	-0.125
-439.778	-2.639	-0.071	-0.050
-438.763	16.222	0.400	-0.317
-437.749	36.558	0.061	-0.054
-436.734	28.930	-0.050	0.043
-435.719	79.621	-0.189	0.204
-434.705	26.228	-0.203	0.170
-433.690	168.524	0.106	0.151
-432.676	-200.000	0.025	0.258
-431.661	-36.184	0.096	0.052
-430.646	-31.012	0.161	0.091
-429.632	219.396	-0.078	0.125
-428.617	-72.354	0.281	0.104
-427.603	76.285	0.073	0.077
-426.588	-142.638	0.280	-0.027
-425.573	-41.223	-0.090	0.047
-424.559	-200.000	0.035	0.207
-423.544	564.632	0.121	-0.293
-422.530	-44.911	-0.140	-0.070
-421.515	376.243	-0.035	-0.071
-420.500	-2.874	0.078	-0.055
-419.486	-160.511	0.289	-0.016
-418.471	-50.860	-0.327	0.154
-417.457	800.000	0.029	0.108
-416.442	800.000	-0.060	-0.211
-415.428	142.250	0.132	0.176
-414.413	3.391	0.156	0.114
-413.398	96.125	-0.099	-0.114
-412.384	-111.493	-0.127	-0.026
-411.369	118.680	0.122	-0.151
-410.355	280.461	0.026	0.047
-409.340	30.673	0.208	0.179
-408.325	-92.365	-0.059	-0.017
-407.311	-157.209	-0.100	0.006
-406.296	163.152	0.086	-0.121
-405.282	-18.194	0.163	0.102
-404.267	-135.394	-0.419	0.050
-403.252	371.056	-0.118	-0.241
-402.238	-63.387	-0.132	0.055
-401.223	-200.000	0.031	-0.342
-400.209	-42.737	0.171	0.087
-399.194	-200.000	-0.059	0.313
-398.179	800.000	0.010	0.036
-397.165	618.556	-0.042	0.105
-396.150	79.814	0.138	-0.149
-395.136	263.773	-0.094	0.165
-394.121	-186.085	0.320	0.005
-393.106	-200.000	0.036	0.292
-392.092	220.106	0.079	-0.126
-391.077	-184.372	0.327	0.005
-390.063	192.429	0.206	-0.312
-389.048	-33.877	-0.168	-0.093
-388.033	-69.678	0.200	-0.077
-387.019	47.352	0.204	-0.191
-386.004	-200.000	-0.002	-0.223
-384.990	107.178	-0.146	-0.174
-383.975	-80.148	-0.226	0.076
-382.960	54.845	0.042	-0.041
-381.946	-200.000	0.005	0.504
-380.931	-78.954	0.189	0.064
-379.917	226.484	0.084	0.136
-378.902	-30.865	-0.108	-0.061
-377.888	211.782	-0.119	0.188
-376.873	800.000	0.117	-0.376
-375.858	-111.690	-0.056	-0.011
-374.844	-197.536	0.450	-0.003
-373.829	-200.000	0.061	-0.499
-372.815	591.979	0.053	-0.132
-371.800	-151.051	-0.011	0.001
-370.785	-146.329	0.220	0.019
-369.771	-45.860	-0.039	-0.019
-368.756	-159.138	0.524	-0.030
-367.742	38.176	-0.182	0.163
-366.727	323.952	-0.181	0.347
-365.712	173.699	0.074	0.106
-364.698	-21.628	0.387	0.236
-363.683	-200.000	-0.042	0.188
-362.669	35.957	0.113	0.100
-361.654	249.692	-0.229	0.389
-360.639	76.996	0.196	0.209
-359.625	117.391	-0.116	0.143
-358.610	28.692	-0.137	-0.116
-357.596	83.707	0.207	-0.226
-356.581	-200.000	-0.006	0.473
-355.566	120.241	-0.049	0.060
-354.552	-147.491	-0.116	0.010
-353.537	-200.000	-0.019	0.315
-352.523	-142.454	0.292	-0.029
-351.508	-40.972	0.277	0.143
-350.493	642.146	0.115	-0.294
-349.479	-75.839	-0.257	0.091
-348.464	500.274	0.059	0.136
-347.450	56.064	-0.194	0.189
-346.435	-117.157	0.316	-0.057
-345.420	-99.793	0.105	-0.026
-344.406	4.287	-0.041	0.030
-343.391	-200.000	0.048	-0.211
-342.377	800.000	-0.054	0.183
-341.362	60.063	0.143	0.141
-340.348	113.300	-0.082	-0.099
-339.333	106.075	0.105	0.124
-338.318	-200.000	0.069	0.417
-337.304	-33.496	-0.122	-0.068
-336.289	207.291	0.158	-0.246
-335.275	414.262	-0.006	0.012
-334.260	-120.771	-0.150	-0.025
-333.245	-161.132	0.191	-0.010
-332.231	-114.687	0.284	0.054
-331.216	-16.165	0.114	0.072
-330.202	-56.512	0.176	-0.078
-329.187	800.000	-0.121	-0.418
-328.172	-142.265	0.216	0.021
-327.158	395.835	0.056	0.116
-326.143	-50.196	-0.224	-0.106
-325.129	-200.000	0.072	0.410
-324.114	800.000	-0.057	0.238
-323.099	3.723	-0.297	-0.217
-322.085	162.797	-0.125	0.176
-321.070	-81.718	0.212	0.069
-320.056	56.054	-0.093	0.090
-319.041	-95.191	-0.277	-0.075
-318.026	8.815	-0.225	-0.170
-317.012	-144.231	-0.360	-0.034
-315.997	578.293	0.114	0.279
-314.983	-153.997	0.216	-0.015
-313.968	-200.000	-0.015	-0.105
-312.953	-55.905	0.369	0.165
-311.939	222.603	0.059	0.095
-310.924	115.664	0.048	0.058
-309.910	52.992	0.055	-0.053
-308.895	800.000	0.072	-0.260
-307.880	-47.638	-0.133	-0.065
-306.866	253.751	-0.027	-0.045
-305.851	-22.515	0.122	-0.074
-304.837	41.772	-0.134	-0.121
-303.822	-4.168	-0.337	-0.233
-302.807	630.749	-0.065	0.165
-301.793	800.000	-0.041	0.114
-300.778	-200.000	0.010	0.161
-299.764	44.073	-0.123	-0.113
-298.749	-58.065	-0.309	-0.134
-297.735	499.886	0.107	0.248
-296.720	-200.000	0.042	0.365
-295.705	235.561	-0.084	0.138
-294.691	-1.324	0.088	-0.062
-293.676	26.777	-0.260	0.217
-292.662	298.275	0.065	0.119
-291.647	-148.656	-0.088	0.007
-290.632	137.059	0.129	-0.168
-289.618	-200.000	0.010	0.069
-288.603	115.490	-0.277	-0.338
-287.589	-200.000	-0.003	-0.026
-286.574	-200.000	-0.006	0.117
-285.559	-118.016	0.141	0.025
-284.545	800.000	-0.065	0.187
-283.530	-78.378	-0.125	0.043
-282.516	-137.576	0.193	-0.022
-281.501	-61.260	-0.071	0.030
-280.486	-115.896	-0.077	-0.014
-279.472	-200.000	0.029	-0.228
-278.457	-90.336	0.221	-0.064
-277.443	-20.312	-0.328	0.201
-276.428	463.854	-0.079	0.177
-275.413	46.416	0.175	0.162
-274.399	311.727	0.057	-0.106
-273.384	800.000	0.050	0.170
-272.370	-84.987	0.184	0.058
-271.355	184.150	-0.277	-0.409
-270.340	-65.453	-0.277	-0.111
-269.326	-72.320	0.333	-0.123
-268.311	-200.000	-0.018	-0.159
-267.297	-133.510	-0.470	-0.059
-266.282	-120.832	-0.102	0.017
-265.267	-120.176	0.095	-0.016
-264.253	-172.900	0.241	-0.007
-263.238	-200.000	0.001	-0.071
-262.224	800.000	0.021	-0.085
-261.209	73.707	-0.116	0.121
-260.195	152.896	0.162	0.221
-259.180	-180.894	0.182	-0.004
-258.165	170.807	0.085	0.121
-257.151	800.000	0.013	-0.046
-256.136	-79.857	-0.270	0.090
-255.122	112.982	-0.192	-0.232
-254.107	-5.689	0.190	0.130
-253.092	96.054	-0.073	0.083
-252.078	129.652	0.188	-0.240
-251.063	154.467	-0.272	-0.372
-250.049	46.253	-0.135	-0.124
-249.034	-200.000	0.024	0.112
-248.019	-112.241	-0.157	-0.031
-247.005	-200.000	0.012	-0.083
-245.990	-84.904	0.297	-0.093
-244.976	232.491	-0.229	-0.375
-243.961	-115.886	0.129	-0.024
-242.946	-99.234	0.115	0.029
-241.932	-200.000	0.014	0.130
-240.917	86.312	-0.232	0.255
-239.903	36.426	-0.266	-0.234
-238.888	-200.000	-0.000	0.038
-237.873	-200.000	-0.029	-0.141
-236.859	58.904	-0.254	-0.249
-235.844	-93.741	-0.241	0.066
-234.830	-109.546	0.103	0.022
-233.815	264.493	0.127	-0.221
-232.800	359.537	-0.074	-0.148
-231.786	-30.871	0.189	-0.107
-230.771	-200.000	0.026	-0.273
-229.757	800.000	-0.092	-0.253
-228.742	-16.688	-0.388	0.245
-227.727	96.640	-0.191	-0.217
-226.713	-44.170	-0.123	0.062
-225.698	480.858	-0.097	0.219
-224.684	800.000	0.018	-0.059
-223.669	-6.544	-0.147	-0.099
-222.655	183.627	-0.183	0.269
-221.640	800.000	-0.043	0.165
-220.625	88.048	-0.148	-0.163
-219.611	800.000	-0.080	0.302
-218.596	79.720	0.386	0.413
-217.582	-40.888	0.201	0.104
-216.567	-200.000	0.044	-0.237
-215.552	3.354	-0.195	0.142
-214.538	-115.457	0.209	-0.039
-213.523	-21.563	-0.126	-0.076
-212.509	543.228	-0.045	-0.106
-211.494	-28.077	0.335	-0.193
-210.479	151.900	0.120	0.163
-209.465	46.014	0.225	-0.207
-208.450	61.150	0.268	0.265
-207.436	37.918	-0.149	0.131
-206.421	-200.000	0.011	0.145
-205.406	-200.000	0.008	0.259
-204.392	79.121	-0.163	0.173
-203.377	-17.364	-0.035	-0.022
-202.363	-120.891	-0.147	-0.025
-201.348	-200.000	0.028	0.125
-200.333	5.783	0.358	0.263
-199.319	386.124	-0.175	-0.360
-198.304	455.988	0.111	0.244
-197.290	328.731	0.216	0.414
-196.275	645.287	0.033	-0.085
-195.260	188.928	-0.246	-0.367
-194.246	-46.064	0.224	0.110
-193.231	476.663	0.087	0.195
-192.217	-92.672	-0.272	0.076
-191.202	-105.112	-0.265	-0.060
-190.187	220.496	0.094	0.151
-189.173	800.000	-0.057	0.165
-188.158	-4.947	-0.338	-0.232
-187.144	-181.052	-0.088	0.002
-186.129	70.125	0.082	-0.084
-185.114	324.434	-0.150	0.285
-184.100	214.993	0.229	0.360
-183.085	591.133	-0.098	-0.241
-182.071	388.579	-0.086	0.176
-181.056	-159.865	0.395	-0.022
-180.042	6.778	0.361	-0.267
-179.027	-37.675	0.289	0.153
-178.012	-200.000	-0.023	-0.207
-176.998	-200.000	-0.035	-0.225
-175.983	113.844	-0.094	0.113
-174.969	379.916	0.234	0.476
-173.954	-55.691	-0.245	0.109
-172.939	800.000	0.065	0.183
-171.925	-72.434	0.265	0.097
-170.910	58.332	-0.152	-0.149
-169.896	138.224	0.198	0.258
-168.881	-113.286	-0.311	0.061
-167.866	91.699	0.130	0.145
-166.852	-200.000	-0.007	0.082
-165.837	3.322	0.113	0.081
-164.823	-129.109	0.141	0.020
-163.808	-200.000	0.020	-0.175
-162.793	-55.717	0.269	0.119
-161.779	-29.096	0.080	-0.046
-160.764	-200.000	0.008	0.171
-159.750	25.461	-0.042	-0.035
-158.735	-200.000	0.041	-0.231
-157.720	27.969	-0.243	-0.203
-156.706	384.531	-0.027	-0.055
-155.691	-81.433	-0.183	0.060
-154.677	735.865	0.155	-0.413
-153.662	800.000	-0.074	-0.214
-152.647	301.874	-0.106	-0.195
-151.633	16.597	-0.158	-0.124
-150.618	-68.290	0.224	0.086
-149.604	-200.000	-0.002	0.023
-148.589	-17.962	0.326	0.203
-147.574	59.807	0.097	0.095
-146.560	-140.963	-0.475	0.048
-145.545	117.196	-0.075	0.091
-144.531	800.000	-0.054	-0.163
-143.516	800.000	-0.050	0.208
-142.502	-129.647	0.292	-0.040
-141.487	-200.000	-0.002	0.067
-140.472	228.628	-0.249	-0.403
-139.458	117.859	0.093	0.114
-138.443	-200.000	0.017	-0.130
-137.429	-33.704	-0.363	0.199
-136.414	-93.472	0.296	0.081
-135.399	-200.000	0.024	0.146
-134.385	-3.603	0.035	-0.024
-133.370	12.419	0.051	-0.039
-132.356	-108.577	-0.084	0.018
-131.341	224.566	0.142	0.228
-130.326	-200.000	0.034	-0.290
-129.312	-141.998	-0.283	-0.028
-128.297	142.319	0.051	0.067
-127.283	800.000	0.034	0.113
-126.268	-200.000	0.012	-0.063
-125.253	413.837	0.136	0.287
-124.239	-139.190	0.082	-0.009
-123.224	10.046	0.084	0.063
-122.210	-200.000	0.003	-0.200
-121.195	182.413	-0.071	0.104
-120.180	-156.453	-0.238	-0.015
