DTS Sentinel unit serial number:	SN413079Multiplexer serial number:	ORYXHardware model number:	OX4-SRSoftware version number:	ORYX F/W v4.00 Oryx Data Collector v3.7.2.0data status	okinstallation	princeton_trtdifferential loss correction	single-endedforward channel	channel 4reverse channel	N/Adate	2019/09/11time	14:31:11forward acquisition time	60.00reverse acquisition time	0.00gamma	496.2192k internal	0.2280k external	0.2280temperature offset calibration	1.0005default loss term (dB/km)	0.3790temperature slope calibration	1.0000multiplexer offset coefficient	1.0000multiplexer slope coefficient	1.0000fibre end	0.00T internal ref (°C)	42.19T ext. ref 1 (°C)	0.91T ext. ref 2 (°C)	37.60length (m)	temperature (°C)	Stokes	anti-Stokes-747.200	-200.000	-0.005	0.057
-746.185	34.513	0.022	-0.020
-745.171	-55.173	-0.145	0.067
-744.156	-200.000	0.031	0.233
-743.142	83.268	0.161	-0.180
-742.127	-200.000	-0.061	0.551
-741.112	74.093	-0.089	-0.097
-740.098	112.854	-0.138	0.172
-739.083	-68.078	0.127	-0.051
-738.069	35.567	0.061	0.055
-737.054	-82.760	-0.150	0.050
-736.039	-78.148	-0.121	-0.043
-735.025	-123.580	-0.105	0.017
-734.010	-200.000	-0.032	-0.211
-732.996	222.819	0.020	0.034
-731.981	-200.000	0.034	-0.152
-730.966	7.284	0.085	0.065
-729.952	117.025	-0.216	0.272
-728.937	-93.384	-0.544	-0.155
-727.923	-41.175	0.367	-0.195
-726.908	-40.320	-0.030	0.016
-725.894	738.534	0.190	-0.525
-724.879	67.176	-0.286	-0.300
-723.864	-147.934	0.368	0.031
-722.850	-111.569	0.115	0.024
-721.835	155.260	0.144	0.203
-720.821	-48.422	0.196	-0.097
-719.806	-121.974	0.158	-0.027
-718.791	-114.511	-0.149	-0.029
-717.777	-200.000	0.016	0.193
-716.762	-173.728	-0.454	0.014
-715.748	-31.340	-0.065	-0.037
-714.733	-107.747	-0.083	-0.019
-713.718	129.102	0.212	-0.278
-712.704	281.604	0.185	-0.340
-711.689	-200.000	0.029	0.335
-710.675	267.842	-0.240	-0.433
-709.660	-200.000	-0.015	-0.159
-708.645	-137.843	0.318	0.037
-707.631	482.665	-0.219	-0.511
-706.616	-158.318	-0.136	-0.008
-705.602	-130.357	-0.145	-0.020
-704.587	-104.819	-0.112	0.027
-703.572	31.632	-0.204	0.180
-702.558	355.094	0.160	-0.328
-701.543	-90.120	-0.231	-0.069
-700.529	-200.000	-0.006	-0.070
-699.514	278.585	-0.093	-0.171
-698.499	800.000	0.038	-0.143
-697.485	-146.112	0.222	-0.020
-696.470	-114.117	0.107	-0.021
-695.456	52.010	0.130	0.127
-694.441	35.327	-0.128	-0.115
-693.426	200.849	-0.070	0.110
-692.412	-197.547	-0.092	0.001
-691.397	800.000	0.054	0.240
-690.383	139.374	0.137	-0.185
-689.368	32.616	0.132	0.117
-688.354	4.688	-0.034	-0.025
-687.339	19.442	0.186	0.154
-686.324	138.430	0.151	-0.203
-685.310	-161.904	-0.264	0.014
-684.295	63.644	0.254	0.262
-683.281	-45.772	-0.261	-0.133
-682.266	800.000	-0.033	-0.136
-681.251	-200.000	0.012	0.114
-680.237	74.053	0.401	-0.432
-679.222	770.560	-0.083	-0.232
-678.208	416.661	0.038	-0.083
-677.193	800.000	-0.105	0.324
-676.178	173.731	-0.025	-0.037
-675.164	363.815	0.292	-0.602
-674.149	70.456	-0.307	-0.326
-673.135	228.598	0.129	-0.215
-672.120	-200.000	-0.008	-0.325
-671.105	-59.727	0.277	-0.122
-670.091	31.278	-0.401	0.353
-669.076	-0.929	-0.341	0.248
-668.062	-25.752	0.196	0.119
-667.047	381.389	0.023	-0.048
-666.032	35.001	0.155	0.139
-665.018	561.670	0.056	0.139
-664.003	29.653	-0.226	-0.197
-662.989	-42.913	0.048	0.025
-661.974	-147.382	0.326	-0.028
-660.959	415.763	-0.046	-0.100
-659.945	-99.075	0.091	-0.024
-658.930	205.209	-0.036	-0.057
-657.916	759.268	0.050	-0.138
-656.901	36.432	-0.101	-0.091
-655.886	-143.552	0.293	-0.029
-654.872	-63.394	0.272	-0.115
-653.857	800.000	-0.081	0.343
-652.843	-200.000	-0.086	-0.444
-651.828	46.272	-0.175	0.166
-650.814	-200.000	0.017	0.224
-649.799	800.000	0.051	-0.162
-648.784	-200.000	0.023	-0.231
-647.770	-50.718	-0.262	-0.126
-646.755	800.000	0.019	-0.073
-645.741	800.000	0.122	-0.434
-644.726	47.768	-0.154	0.147
-643.711	4.984	0.068	-0.051
-642.697	217.819	0.095	0.156
-641.682	-94.771	-0.303	-0.084
-640.668	141.331	0.182	-0.246
-639.653	-100.940	0.157	-0.039
-638.638	-200.000	-0.024	-0.153
-637.624	-106.930	-0.214	-0.048
-636.609	429.042	0.055	-0.123
-635.595	800.000	-0.060	-0.177
-634.580	92.178	-0.159	-0.183
-633.565	24.519	-0.260	-0.221
-632.551	800.000	-0.052	0.149
-631.536	685.845	-0.126	-0.336
-630.522	-132.643	0.318	0.042
-629.507	176.613	0.059	0.087
-628.492	-103.569	0.155	-0.037
-627.478	-200.000	-0.002	-0.075
-626.463	28.532	-0.193	-0.167
-625.449	726.499	0.077	0.210
-624.434	471.435	0.156	0.360
-623.419	800.000	0.037	-0.119
-622.405	175.729	-0.089	-0.131
-621.390	-138.614	-0.202	-0.023
-620.376	-57.660	-0.122	-0.055
-619.361	10.831	0.010	0.008
-618.346	100.525	0.145	0.172
-617.332	-33.535	0.113	0.064
-616.317	133.950	0.196	0.260
-615.303	-200.000	0.065	-0.305
-614.288	-200.000	0.027	-0.281
-613.273	-200.000	-0.005	-0.142
-612.259	-164.899	-0.273	-0.013
-611.244	-14.261	0.273	0.180
-610.230	-200.000	-0.009	0.047
-609.215	-97.449	0.347	0.092
-608.201	-80.909	-0.041	-0.014
-607.186	302.980	0.217	-0.410
-606.171	-200.000	0.006	-0.136
-605.157	-200.000	-0.004	0.121
-604.142	-177.737	-0.279	-0.007
-603.128	-17.573	-0.148	0.095
-602.113	-102.831	-0.378	-0.092
-601.098	-64.290	0.311	-0.130
-600.084	800.000	0.097	-0.283
-599.069	-139.062	0.214	-0.024
-598.055	-80.652	0.264	-0.090
-597.040	-33.484	-0.248	0.140
-596.025	112.474	0.143	-0.177
-595.011	17.755	0.073	0.060
-593.996	-57.829	-0.489	-0.219
-592.982	-166.655	0.160	0.007
-591.967	-149.469	0.196	-0.016
-590.952	-40.540	-0.253	-0.134
-589.938	38.286	-0.377	-0.343
-588.923	-43.951	-0.198	0.102
-587.909	575.839	0.058	0.144
-586.894	-200.000	-0.085	0.445
-585.879	-46.720	-0.159	0.079
-584.865	73.376	0.148	-0.158
-583.850	-153.010	0.324	-0.023
-582.836	437.740	-0.131	0.293
-581.821	-200.000	-0.031	0.156
-580.806	-5.183	-0.311	-0.219
-579.792	59.430	-0.276	0.278
-578.777	34.573	0.103	-0.092
-577.763	-200.000	0.096	0.475
-576.748	-60.717	0.055	0.024
-575.733	177.802	0.243	-0.362
-574.719	277.129	0.056	0.101
-573.704	112.888	-0.068	0.085
-572.690	-105.929	0.471	-0.108
-571.675	-16.433	-0.182	-0.118
-570.661	567.975	0.024	-0.059
-569.646	-91.972	-0.093	0.027
-568.631	130.673	-0.267	-0.350
-567.617	-116.472	-0.172	0.032
-566.602	549.280	-0.098	0.239
-565.588	-200.000	0.010	-0.077
-564.573	-200.000	-0.048	0.390
-563.558	-115.635	0.379	0.073
-562.544	267.576	0.179	0.321
-561.529	800.000	0.023	0.073
-560.515	54.367	0.083	-0.082
-559.500	160.115	-0.060	0.085
-558.485	117.835	0.260	-0.327
-557.471	231.039	0.111	0.186
-556.456	-45.506	0.070	0.036
-555.442	100.351	0.212	-0.251
-554.427	191.983	-0.016	-0.025
-553.412	-52.065	0.074	-0.035
-552.398	29.835	-0.123	-0.107
-551.383	800.000	0.097	0.290
-550.369	800.000	-0.038	-0.112
-549.354	-12.226	-0.167	0.111
-548.339	-59.907	-0.218	-0.095
-547.325	135.805	-0.084	0.111
-546.310	800.000	-0.080	-0.347
-545.296	-72.738	0.070	0.026
-544.281	-85.328	0.261	-0.083
-543.266	800.000	-0.078	-0.249
-542.252	49.468	0.012	0.012
-541.237	-200.000	-0.028	0.221
-540.223	-15.391	0.226	0.148
-539.208	-167.680	-0.196	0.008
-538.193	144.746	-0.120	-0.164
-537.179	-119.992	-0.219	0.038
-536.164	800.000	-0.026	0.092
-535.150	-200.000	0.028	-0.337
-534.135	-114.219	-0.091	0.018
-533.121	360.325	-0.064	-0.131
-532.106	-84.000	-0.299	0.097
-531.091	302.931	-0.061	-0.115
-530.077	-175.959	0.481	0.013
-529.062	-5.585	0.181	0.127
-528.048	-12.903	0.121	-0.081
-527.033	-67.732	-0.174	0.069
-526.018	248.246	-0.217	0.374
-525.004	238.197	-0.066	-0.112
-523.989	173.509	-0.249	-0.367
-522.975	-21.858	0.068	0.042
-521.960	97.477	-0.072	-0.084
-520.945	131.126	0.068	-0.090
-519.931	-27.060	0.235	0.140
-518.916	-50.616	-0.090	-0.043
-517.902	29.642	-0.090	0.078
-516.887	800.000	-0.023	-0.077
-515.872	256.136	0.078	0.136
-514.858	-10.934	0.098	0.066
-513.843	-200.000	-0.028	0.255
-512.829	-200.000	0.008	-0.157
-511.814	-53.772	-0.363	0.169
-510.799	93.399	-0.081	-0.093
-509.785	272.293	0.061	0.110
-508.770	45.328	-0.152	-0.143
-507.756	188.416	-0.104	0.158
-506.741	12.902	-0.116	0.091
-505.726	800.000	0.035	-0.135
-504.712	-3.338	0.168	-0.119
-503.697	-9.732	0.470	-0.319
-502.683	-200.000	0.028	0.281
-501.668	143.755	-0.108	-0.147
-500.653	-152.421	0.246	-0.018
-499.639	133.975	-0.028	0.037
-498.624	-143.781	0.101	-0.010
-497.610	450.300	-0.059	0.133
-496.595	-200.000	0.043	-0.234
-495.581	361.545	0.095	0.194
-494.566	442.154	-0.161	0.358
-493.551	-57.751	-0.079	-0.035
-492.537	-170.024	0.145	0.005
-491.522	-6.955	-0.185	0.128
-490.508	-29.251	0.167	0.097
-489.493	-50.291	-0.012	0.006
-488.478	13.184	-0.111	0.087
-487.464	800.000	0.031	0.095
-486.449	800.000	-0.043	0.133
-485.435	74.267	-0.236	-0.252
-484.420	-116.435	-0.227	-0.043
-483.405	-123.176	0.251	0.041
-482.391	-144.224	0.155	0.015
-481.376	15.264	-0.126	0.100
-480.362	4.927	-0.190	0.142
-479.347	310.364	-0.117	0.222
-478.332	291.918	-0.121	-0.225
-477.318	-66.814	0.271	0.109
-476.303	545.442	0.035	-0.086
-475.289	256.777	0.128	0.224
-474.274	-37.966	-0.146	0.079
-473.259	187.649	0.032	0.048
-472.245	800.000	0.101	0.352
-471.230	800.000	0.082	0.279
-470.216	-129.268	-0.291	-0.041
-469.201	617.663	-0.129	0.331
-468.186	-93.649	0.243	0.068
-467.172	-57.420	0.119	-0.053
-466.157	83.565	-0.077	0.086
-465.143	-137.246	0.058	0.007
-464.128	-200.000	-0.045	-0.494
-463.113	-47.590	-0.047	-0.023
-462.099	800.000	-0.094	0.357
-461.084	156.936	-0.102	-0.143
-460.070	-200.000	0.012	-0.284
-459.055	167.537	0.101	-0.145
-458.040	110.379	0.309	-0.378
-457.026	-48.577	-0.213	0.104
-456.011	-200.000	0.060	-0.275
-454.997	705.571	-0.026	-0.069
-453.982	164.483	0.116	0.166
-452.968	-107.828	0.122	-0.027
-451.953	95.049	0.095	-0.111
-450.938	46.020	0.145	0.137
-449.924	22.902	0.191	-0.159
-448.909	27.507	0.256	0.219
-447.895	585.133	-0.113	0.281
-446.880	-68.979	-0.134	-0.052
-445.865	-168.067	-0.080	-0.003
-444.851	58.651	-0.222	0.222
-443.836	-200.000	0.029	0.258
-442.822	-127.087	-0.304	0.045
-441.807	197.572	0.024	0.038
-440.792	800.000	-0.033	0.096
-439.778	469.215	-0.139	0.317
-438.763	-68.153	0.272	0.108
-437.749	-97.392	0.072	-0.019
-436.734	5.398	-0.210	-0.157
-435.719	209.364	0.173	-0.275
-434.705	34.934	0.156	-0.139
-433.690	5.299	0.055	-0.041
-432.676	800.000	-0.086	-0.295
-431.661	331.219	-0.111	-0.218
-430.646	-99.580	0.285	-0.073
-429.632	-200.000	-0.032	0.434
-428.617	87.437	-0.167	-0.187
-427.603	-2.441	0.441	-0.314
-426.588	-19.115	0.210	-0.133
-425.573	398.692	-0.133	-0.283
-424.559	-4.672	0.198	-0.139
-423.544	197.689	-0.095	-0.147
-422.530	800.000	-0.061	-0.266
-421.515	-104.256	0.140	-0.033
-420.500	-13.590	-0.229	0.150
-419.486	120.960	0.078	0.099
-418.471	92.007	-0.091	0.104
-417.457	800.000	-0.047	-0.207
-416.442	-37.981	0.149	0.080
-415.428	112.335	0.178	-0.218
-414.413	-194.384	0.273	-0.002
-413.398	71.244	-0.089	-0.093
-412.384	-7.418	0.185	-0.127
-411.369	800.000	0.144	-0.405
-410.355	-2.261	0.382	-0.272
-409.340	-149.617	0.153	-0.012
-408.325	272.912	-0.109	-0.195
-407.311	-150.516	-0.247	-0.019
-406.296	7.189	0.174	-0.132
-405.282	800.000	-0.028	-0.106
-404.267	-145.809	-0.266	-0.024
-403.252	134.315	-0.178	0.234
-402.238	8.577	0.073	0.056
-401.223	-200.000	-0.190	0.001
-400.209	-101.149	-0.292	0.072
-399.194	-78.938	0.185	0.064
-398.179	-200.000	0.035	0.627
-397.165	-90.439	-0.226	-0.066
-396.150	-85.081	0.180	0.057
-395.136	800.000	0.071	0.222
-394.121	800.000	0.055	0.192
-393.106	-200.000	-0.047	0.247
-392.092	-3.432	-0.286	-0.202
-391.077	-200.000	0.018	0.576
-390.063	634.703	0.090	0.232
-389.048	-200.000	-0.019	-0.124
-388.033	36.528	0.357	-0.320
-387.019	-200.000	-0.008	-0.136
-386.004	-196.550	-0.197	-0.001
-384.990	-111.580	0.319	0.066
-383.975	800.000	-0.042	0.181
-382.960	800.000	0.035	-0.131
-381.946	-200.000	-0.052	-0.241
-380.931	430.189	-0.070	0.153
-379.917	-6.563	0.116	-0.080
-378.902	384.844	0.028	0.059
-377.888	-9.909	0.256	-0.172
-376.873	32.861	-0.083	-0.073
-375.858	-200.000	-0.010	-0.278
-374.844	579.469	-0.111	-0.275
-373.829	-200.000	0.008	-0.392
-372.815	65.927	-0.089	0.091
-371.800	-200.000	0.010	-0.319
-370.785	-106.487	-0.303	-0.069
-369.771	45.258	0.151	0.141
-368.756	63.569	0.191	0.195
-367.742	800.000	-0.105	0.403
-366.727	-157.946	-0.224	-0.013
-365.712	-22.675	-0.117	-0.071
-364.698	122.283	0.165	-0.208
-363.683	10.462	-0.142	-0.109
-362.669	445.214	0.073	-0.162
-361.654	-77.299	-0.208	0.073
-360.639	-12.812	-0.026	-0.017
-359.625	-6.893	-0.360	-0.248
-358.610	-200.000	-0.029	0.273
-357.596	-40.070	-0.336	-0.177
-356.581	-23.876	0.317	-0.192
-355.566	176.209	-0.109	-0.160
-354.552	-200.000	-0.010	-0.111
-353.537	-200.000	-0.015	0.377
-352.523	-200.000	-0.013	0.116
-351.508	111.884	-0.186	0.228
-350.493	143.986	0.095	-0.128
-349.479	-54.744	0.095	0.044
-348.464	21.957	0.153	-0.127
-347.450	-200.000	-0.020	-0.270
-346.435	-158.808	-0.360	-0.021
-345.420	23.378	0.136	-0.114
-344.406	800.000	0.068	0.201
-343.391	-10.683	0.127	-0.085
-342.377	-200.000	-0.045	-0.437
-341.362	800.000	0.155	0.565
-340.348	-200.000	-0.011	0.339
-339.333	385.341	0.043	-0.090
-338.318	341.333	0.046	0.092
-337.304	-200.000	0.010	-0.136
-336.289	-85.587	-0.085	-0.027
-335.275	800.000	0.056	0.173
-334.260	57.892	-0.246	0.244
-333.245	-94.362	-0.393	0.109
-332.231	-200.000	0.006	0.199
-331.216	-200.000	0.003	-0.243
-330.202	-90.132	0.220	0.065
-329.187	-81.996	-0.119	0.039
-328.172	-200.000	-0.033	0.303
-327.158	153.989	0.141	-0.196
-326.143	278.146	0.100	0.180
-325.129	29.149	-0.247	-0.212
-324.114	234.678	0.033	0.054
-323.099	185.194	-0.128	-0.192
-322.085	15.887	-0.117	-0.093
-321.070	125.536	0.028	-0.035
-320.056	-21.401	-0.311	-0.192
-319.041	513.688	0.028	-0.066
-318.026	46.089	-0.120	-0.112
-317.012	-200.000	0.013	-0.398
-315.997	258.965	0.093	-0.162
-314.983	800.000	-0.141	0.481
-313.968	212.308	0.036	-0.058
-312.953	60.407	-0.112	0.113
-311.939	68.054	-0.218	0.226
-310.924	-200.000	-0.023	0.220
-309.910	-200.000	0.003	0.061
-308.895	639.523	0.071	0.182
-307.880	800.000	-0.104	-0.294
-306.866	-94.543	-0.268	0.074
-305.851	-103.649	0.181	-0.043
-304.837	100.576	0.148	-0.174
-303.822	185.715	0.167	0.251
-302.807	114.122	0.132	-0.162
-301.793	-12.683	0.241	0.159
-300.778	709.973	-0.097	0.260
-299.764	-200.000	-0.023	0.163
-298.749	800.000	-0.073	0.304
-297.735	82.628	-0.026	0.028
-296.720	-92.483	-0.113	0.032
-295.705	482.210	0.149	0.342
-294.691	442.281	0.095	0.211
-293.676	241.294	-0.030	0.051
-292.662	-95.365	-0.123	-0.033
-291.647	-89.288	-0.354	0.105
-290.632	720.617	0.063	0.169
-289.618	-116.165	-0.070	-0.013
-288.603	-128.725	0.227	-0.032
-287.589	-22.608	0.029	-0.018
-286.574	188.973	0.271	-0.410
-285.559	133.662	-0.101	0.132
-284.545	-97.417	0.186	-0.049
-283.530	-14.765	0.324	0.210
-282.516	-200.000	0.017	0.203
-281.501	11.095	-0.128	0.099
-280.486	109.345	-0.235	-0.285
-279.472	72.183	0.165	0.173
-278.457	225.898	0.113	-0.184
-277.443	526.379	-0.054	0.130
-276.428	204.210	-0.098	0.153
-275.413	-136.765	-0.358	-0.042
-274.399	-71.963	-0.074	0.028
-273.384	800.000	0.074	0.313
-272.370	60.564	0.209	0.209
-271.355	-200.000	-0.031	-0.276
-270.340	-31.298	-0.078	0.044
-269.326	-27.134	-0.238	-0.140
-268.311	57.475	0.268	0.264
-267.297	5.243	0.097	-0.073
-266.282	-26.959	0.393	-0.232
-265.267	-180.525	-0.487	-0.010
-264.253	-200.000	-0.011	-0.386
-263.238	69.250	-0.219	0.227
-262.224	63.976	-0.292	-0.297
-261.209	-119.519	0.066	-0.012
-260.195	-93.704	0.199	0.056
-259.180	-200.000	0.018	-0.460
-258.165	246.011	-0.119	0.203
-257.151	-200.000	-0.004	0.203
-256.136	111.410	0.192	-0.234
-255.122	-200.000	-0.010	-0.199
-254.107	-25.067	-0.150	0.090
-253.092	156.986	-0.055	0.076
-252.078	800.000	0.041	0.176
-251.063	196.931	0.113	0.174
-250.049	480.700	0.119	-0.271
-249.034	211.566	0.083	-0.132
-248.019	-57.229	0.291	0.129
-247.005	134.212	0.145	0.189
-245.990	-200.000	0.004	-0.332
-244.976	54.713	0.078	0.076
-243.961	-200.000	0.014	0.225
-242.946	-8.890	-0.312	0.211
-241.932	-117.005	0.120	-0.022
-240.917	-70.749	0.423	0.161
-239.903	288.911	-0.047	0.086
-238.888	-85.962	0.130	0.041
-237.873	-197.860	-0.099	-0.001
-236.859	188.630	0.157	-0.237
-235.844	22.100	-0.045	0.037
-234.830	800.000	0.007	0.030
-233.815	-200.000	-0.056	0.259
-232.800	49.912	0.207	-0.197
-231.786	-200.000	-0.016	0.083
-230.771	-113.274	0.371	0.074
-229.757	320.840	0.063	0.120
-228.742	-43.525	0.298	-0.152
-227.727	-99.318	-0.235	0.060
-226.713	89.879	0.173	-0.194
-225.698	-30.431	-0.256	-0.146
-224.684	97.515	-0.188	-0.218
-223.669	-55.359	0.164	-0.074
-222.655	-62.713	-0.363	0.152
-221.640	-200.000	-0.020	0.154
-220.625	-135.020	-0.133	-0.016
-219.611	-44.572	0.076	-0.038
-218.596	-200.000	0.034	0.233
-217.582	328.384	0.044	-0.086
-216.567	46.454	0.159	-0.149
-215.552	122.646	-0.168	-0.212
-214.538	800.000	-0.066	-0.231
-213.523	90.373	0.056	-0.063
-212.509	435.073	0.026	-0.057
-211.494	179.344	0.184	0.271
-210.479	-163.374	0.282	0.014
-209.465	-200.000	-0.002	0.075
-208.450	87.450	-0.162	0.181
-207.436	-55.654	-0.202	0.091
-206.421	-200.000	-0.029	0.128
-205.406	-200.000	0.030	0.231
-204.392	142.585	-0.049	0.065
-203.377	-74.245	-0.379	0.138
-202.363	-200.000	-0.041	-0.258
-201.348	-59.083	0.109	0.047
-200.333	-59.650	0.328	-0.142
-199.319	-82.332	0.312	-0.102
-198.304	-145.416	0.197	-0.018
-197.290	271.400	-0.155	0.274
-196.275	240.013	0.223	-0.374
-195.260	-126.841	0.319	-0.047
-194.246	-200.000	0.011	-0.059
-193.231	-9.570	0.086	0.058
-192.217	229.297	0.122	0.200
-191.202	-179.814	0.218	0.005
-190.187	-200.000	-0.017	-0.208
-189.173	-20.912	-0.203	0.125
-188.158	-200.000	-0.035	0.183
-187.144	800.000	0.058	-0.167
-186.129	79.859	-0.234	-0.253
-185.114	-42.530	-0.286	0.147
-184.100	-6.584	-0.082	0.057
-183.085	391.799	0.064	0.134
-182.071	47.164	-0.253	0.237
-181.056	619.442	0.015	0.039
-180.042	295.283	-0.154	-0.284
-179.027	800.000	0.049	-0.164
-178.012	-200.000	-0.005	0.042
-176.998	267.566	-0.153	0.270
-175.983	800.000	-0.027	0.081
-174.969	253.840	0.122	0.210
-173.954	11.373	0.149	0.115
-172.939	-85.793	-0.122	-0.038
-171.925	270.221	0.077	0.136
-170.910	800.000	0.067	0.191
-169.896	185.261	-0.149	0.222
-168.881	-57.511	-0.251	-0.111
-167.866	135.682	0.149	0.195
-166.852	101.443	-0.041	0.048
-165.837	-200.000	0.031	-0.275
-164.823	9.990	0.034	-0.026
-163.808	-200.000	0.043	0.290
-162.793	-146.317	-0.200	0.018
-161.779	104.379	0.114	-0.134
-160.764	-200.000	0.064	0.303
-159.750	22.896	0.332	0.274
-158.735	-200.000	-0.026	-0.134
-157.720	800.000	-0.103	-0.286
-156.706	57.944	0.115	-0.113
-155.691	416.727	-0.031	0.067
-154.677	-200.000	0.004	-0.311
-153.662	-94.055	-0.104	-0.029
-152.647	66.578	-0.285	0.291
-151.633	-35.011	-0.255	0.140
-150.618	654.638	-0.058	-0.150
-149.604	-147.333	-0.065	0.006
-148.589	561.997	-0.125	-0.305
-147.574	72.904	-0.033	0.034
-146.560	800.000	-0.013	-0.044
-145.545	-185.816	-0.064	-0.001
-144.531	800.000	-0.115	0.327
-143.516	-150.548	-0.122	0.009
-142.502	126.817	-0.009	0.011
-141.487	104.786	0.185	0.219
-140.472	85.979	-0.087	-0.096
-139.458	391.955	-0.107	-0.223
-138.443	-110.008	0.073	-0.015
-137.429	58.656	-0.112	-0.110
-136.414	-60.818	0.099	0.042
-135.399	-200.000	-0.014	0.270
-134.385	-5.224	0.046	0.032
-133.370	-14.529	0.351	0.227
-132.356	188.333	0.244	0.366
-131.341	247.834	0.146	0.247
-130.326	191.318	-0.281	0.424
-129.312	-200.000	0.048	0.281
-128.297	34.335	0.084	0.074
-127.283	-139.317	0.272	-0.029
-126.268	99.347	-0.312	0.362
-125.253	-200.000	0.022	0.106
-124.239	63.325	-0.238	-0.240
-123.224	-36.193	0.105	-0.057
-122.210	-33.530	-0.387	0.215
-121.195	-47.362	0.245	-0.120
-120.180	724.540	0.008	0.023
