DTS Sentinel unit serial number:	SN413079Multiplexer serial number:	ORYXHardware model number:	OX4-SRSoftware version number:	ORYX F/W v4.00 Oryx Data Collector v3.7.2.0data status	okinstallation	princeton_trtdifferential loss correction	single-endedforward channel	channel 4reverse channel	N/Adate	2019/09/11time	00:03:10forward acquisition time	60.00reverse acquisition time	0.00gamma	496.2192k internal	0.2317k external	0.2317temperature offset calibration	0.9953default loss term (dB/km)	0.3790temperature slope calibration	1.0000multiplexer offset coefficient	1.0000multiplexer slope coefficient	1.0000fibre end	0.00T internal ref (°C)	29.39T ext. ref 1 (°C)	-0.30T ext. ref 2 (°C)	23.02length (m)	temperature (°C)	Stokes	anti-Stokes-747.200	-68.793	0.377	0.148
-746.185	-76.680	-0.418	0.148
-745.171	154.151	0.202	0.280
-744.156	-34.034	-0.229	-0.128
-743.142	-200.000	-0.046	0.338
-742.127	86.143	-0.379	0.422
-741.112	241.036	0.055	0.094
-740.098	38.089	0.144	0.130
-739.083	164.474	-0.142	-0.202
-738.069	-117.093	-0.249	0.046
-737.054	-114.400	-0.139	-0.027
-736.039	144.523	-0.155	-0.209
-735.025	194.884	0.070	0.108
-734.010	-5.058	0.210	0.146
-732.996	-41.296	-0.269	-0.140
-731.981	-200.000	-0.014	0.112
-730.966	-104.754	-0.146	-0.034
-729.952	800.000	0.050	-0.152
-728.937	427.428	-0.050	0.109
-727.923	-25.809	-0.267	-0.159
-726.908	311.103	-0.168	-0.319
-725.894	800.000	-0.117	-0.402
-724.879	-37.386	-0.085	0.046
-723.864	-52.708	-0.337	-0.157
-722.850	-118.046	0.190	0.034
-721.835	-200.000	0.056	-0.252
-720.821	-52.191	-0.331	-0.155
-719.806	358.924	-0.098	0.197
-718.791	91.345	-0.108	-0.122
-717.777	377.535	0.118	0.244
-716.762	-92.174	-0.372	0.106
-715.748	-200.000	0.021	-0.208
-714.733	55.089	-0.243	0.238
-713.718	-200.000	-0.031	-0.360
-712.704	-154.950	-0.280	-0.019
-711.689	-144.792	-0.298	0.028
-710.675	-12.606	0.030	0.020
-709.660	-48.796	-0.140	-0.068
-708.645	475.872	-0.098	-0.224
-707.631	497.483	-0.068	0.157
-706.616	30.237	0.147	0.127
-705.602	-200.000	0.059	0.340
-704.587	-155.107	-0.077	0.005
-703.572	396.629	-0.128	0.270
-702.558	-139.097	-0.094	0.010
-701.543	246.473	-0.133	-0.227
-700.529	223.653	-0.020	-0.032
-699.514	132.686	0.052	-0.068
-698.499	1.907	-0.173	0.126
-697.485	-200.000	-0.059	-0.580
-696.470	800.000	0.055	-0.188
-695.456	-64.122	0.146	-0.060
-694.441	-43.691	0.055	-0.028
-693.426	-162.278	-0.302	0.015
-692.412	-135.919	-0.198	0.024
-691.397	176.347	0.147	-0.216
-690.383	800.000	0.048	-0.151
-689.368	-200.000	0.005	-0.191
-688.354	375.965	-0.073	-0.150
-687.339	-200.000	0.003	0.033
-686.324	-7.115	-0.070	0.048
-685.310	-200.000	-0.012	-0.115
-684.295	542.894	-0.104	0.251
-683.281	119.793	0.118	0.148
-682.266	446.255	0.141	0.312
-681.251	-200.000	-0.037	0.230
-680.237	89.394	0.328	0.370
-679.222	37.164	0.182	-0.162
-678.208	14.667	0.068	-0.054
-677.193	602.101	-0.118	0.296
-676.178	10.735	0.172	-0.132
-675.164	800.000	-0.121	0.344
-674.149	92.754	-0.142	0.161
-673.135	-60.162	-0.170	0.073
-672.120	-47.041	0.373	-0.184
-671.105	800.000	-0.123	0.455
-670.091	3.049	-0.218	-0.160
-669.076	474.785	-0.134	-0.305
-668.062	-200.000	0.001	0.091
-667.047	-200.000	0.035	0.349
-666.032	18.408	-0.309	-0.249
-665.018	546.498	0.096	-0.231
-664.003	-200.000	0.024	-0.204
-662.989	-108.705	0.376	-0.081
-661.974	-189.238	-0.218	-0.003
-660.959	-71.196	0.113	0.043
-659.945	701.901	0.064	-0.170
-658.930	-200.000	-0.004	0.103
-657.916	64.076	-0.124	0.125
-656.901	526.719	0.143	-0.340
-655.886	-200.000	-0.013	-0.075
-654.872	-27.118	0.086	0.050
-653.857	372.900	-0.105	-0.215
-652.843	-153.833	-0.185	-0.013
-651.828	8.920	0.152	-0.116
-650.814	800.000	-0.095	-0.270
-649.799	-96.261	0.224	-0.060
-648.784	-200.000	0.053	-0.247
-647.770	135.285	0.011	0.014
-646.755	68.037	-0.091	-0.094
-645.741	-17.447	-0.307	-0.195
-644.726	-136.937	0.332	0.038
-643.711	208.223	0.136	0.215
-642.697	-131.293	0.247	0.033
-641.682	-99.583	0.495	0.125
-640.668	-82.353	0.111	0.036
-639.653	-153.866	-0.126	-0.009
-638.638	297.005	0.102	-0.189
-637.624	-111.118	-0.220	0.045
-636.609	-137.803	-0.240	-0.027
-635.595	16.561	-0.139	-0.111
-634.580	182.892	0.083	0.123
-633.565	-105.395	-0.358	0.082
-632.551	800.000	0.036	-0.131
-631.536	666.160	-0.129	-0.335
-630.522	141.169	-0.103	0.137
-629.507	800.000	-0.041	0.118
-628.492	-200.000	-0.035	0.222
-627.478	-13.876	-0.309	0.201
-626.463	1.043	0.260	-0.188
-625.449	218.371	0.105	0.170
-624.434	-49.691	-0.150	-0.072
-623.419	-200.000	-0.011	-0.285
-622.405	-187.009	0.201	0.003
-621.390	-200.000	-0.010	0.094
-620.376	212.284	-0.097	0.154
-619.361	656.080	0.105	-0.272
-618.346	349.603	0.081	0.162
-617.332	-96.807	0.265	0.070
-616.317	130.250	0.044	-0.056
-615.303	-200.000	0.006	0.086
-614.288	-85.109	-0.189	-0.060
-613.273	-200.000	-0.048	0.271
-612.259	330.076	0.047	0.092
-611.244	-200.000	0.014	0.088
-610.230	-120.745	0.153	0.026
-609.215	611.410	-0.084	0.212
-608.201	506.928	-0.171	-0.399
-607.186	-175.625	-0.090	-0.002
-606.171	473.517	0.075	-0.169
-605.157	258.598	0.155	-0.269
-604.142	-25.299	0.323	0.193
-603.128	-114.914	0.367	-0.070
-602.113	800.000	-0.046	0.151
-601.098	-200.000	0.005	-0.176
-600.084	800.000	-0.122	-0.345
-599.069	-62.193	0.202	0.085
-598.055	580.812	-0.080	-0.197
-597.040	-22.473	0.300	0.183
-596.025	285.102	-0.201	-0.365
-595.011	326.932	-0.121	-0.234
-593.996	342.935	-0.091	0.180
-592.982	-17.372	0.150	0.095
-591.967	800.000	-0.051	0.196
-590.952	49.016	-0.169	0.159
-589.938	-200.000	0.001	0.149
-588.923	120.900	0.181	-0.227
-587.909	-200.000	-0.030	0.140
-586.894	237.841	-0.104	0.173
-585.879	302.109	-0.154	0.287
-584.865	800.000	-0.040	-0.129
-583.850	-200.000	-0.042	0.232
-582.836	-200.000	-0.036	0.271
-581.821	-51.500	-0.334	0.157
-580.806	3.003	0.249	0.182
-579.792	800.000	-0.043	-0.180
-578.777	171.615	0.104	0.150
-577.763	-200.000	-0.014	0.335
-576.748	800.000	-0.047	-0.164
-575.733	440.104	-0.119	-0.261
-574.719	800.000	-0.048	0.140
-573.704	-200.000	-0.025	-0.214
-572.690	4.093	-0.118	0.086
-571.675	-139.634	-0.145	0.016
-570.661	-112.468	0.336	0.067
-569.646	-32.263	-0.298	-0.168
-568.631	131.877	-0.268	0.347
-567.617	-200.000	-0.053	-0.326
-566.602	-200.000	0.012	0.074
-565.588	-200.000	0.025	0.222
-564.573	137.704	-0.169	-0.223
-563.558	-200.000	-0.052	-0.322
-562.544	-122.589	0.477	0.078
-561.529	-154.809	-0.245	-0.016
-560.515	563.897	-0.095	-0.232
-559.500	403.874	-0.249	0.526
-558.485	120.404	0.119	-0.149
-557.471	2.381	0.169	-0.123
-556.456	13.872	-0.251	0.196
-555.442	177.235	0.174	0.255
-554.427	-84.652	0.208	-0.066
-553.412	-200.000	0.019	-0.170
-552.398	800.000	0.038	-0.155
-551.383	79.798	0.086	0.093
-550.369	98.118	-0.174	0.202
-549.354	192.253	0.118	-0.179
-548.339	-48.714	-0.131	0.063
-547.325	-200.000	-0.001	0.254
-546.310	-170.412	-0.149	0.005
-545.296	-108.430	0.224	0.049
-544.281	-77.950	-0.094	-0.033
-543.266	225.982	0.057	-0.093
-542.252	19.639	-0.243	-0.196
-541.237	800.000	-0.174	-0.734
-540.223	246.025	0.148	-0.250
-539.208	-200.000	-0.002	-0.101
-538.193	183.485	-0.127	0.189
-537.179	-75.668	-0.163	-0.058
-536.164	-200.000	0.014	0.066
-535.150	-200.000	-0.034	-0.164
-534.135	800.000	0.153	-0.428
-533.121	800.000	-0.069	-0.225
-532.106	-160.957	0.304	0.016
-531.091	-107.327	-0.402	0.089
-530.077	-44.327	-0.157	-0.079
-529.062	-200.000	-0.003	0.122
-528.048	-200.000	0.061	-0.440
-527.033	-44.199	0.117	-0.059
-526.018	-68.439	0.363	0.141
-525.004	-14.770	-0.331	0.213
-523.989	419.152	0.105	-0.226
-522.975	-138.986	-0.095	0.010
-521.960	674.210	0.117	-0.306
-520.945	-116.491	0.382	-0.071
-519.931	145.131	-0.219	0.295
-518.916	260.528	-0.108	-0.188
-517.902	180.990	-0.158	-0.232
-516.887	800.000	-0.034	-0.115
-515.872	-200.000	0.018	0.521
-514.858	-200.000	0.005	0.077
-513.843	112.959	-0.024	0.030
-512.829	-107.255	0.116	0.026
-511.814	-200.000	0.023	0.382
-510.799	117.012	-0.159	-0.196
-509.785	-97.158	0.196	0.051
-508.770	-200.000	-0.022	-0.130
-507.756	-109.511	-0.118	-0.025
-506.741	-106.066	0.150	0.034
-505.726	-12.633	0.234	-0.153
-504.712	-200.000	-0.059	-0.309
-503.697	60.660	-0.058	0.058
-502.683	-200.000	-0.016	0.233
-501.668	-31.799	-0.270	-0.152
-500.653	-200.000	0.007	0.090
-499.639	-6.290	-0.232	-0.159
-498.624	800.000	0.070	0.271
-497.610	-158.908	-0.596	-0.034
-496.595	-35.076	-0.145	-0.079
-495.581	-33.081	-0.053	0.029
-494.566	-200.000	0.011	0.242
-493.551	-200.000	0.033	-0.187
-492.537	65.173	0.212	0.215
-491.522	255.757	-0.144	0.247
-490.508	33.023	0.200	-0.174
-489.493	-10.394	-0.244	0.162
-488.478	-197.778	0.077	-0.000
-487.464	15.242	-0.032	-0.025
-486.449	52.595	-0.037	0.035
-485.435	168.801	-0.130	-0.185
-484.420	35.099	0.044	0.038
-483.405	327.169	0.203	-0.391
-482.391	-164.012	0.054	0.002
-481.376	64.833	-0.137	0.139
-480.362	-200.000	-0.027	0.213
-479.347	-9.111	0.228	-0.153
-478.332	800.000	-0.043	0.181
-477.318	406.883	-0.120	-0.253
-476.303	14.468	-0.335	-0.262
-475.289	-21.590	-0.080	0.049
-474.274	-107.043	-0.490	-0.108
-473.259	153.869	-0.037	0.051
-472.245	-115.340	0.305	0.058
-471.230	687.550	-0.046	-0.120
-470.216	-200.000	0.006	-0.149
-469.201	-127.640	0.338	-0.049
-468.186	-200.000	0.029	-0.186
-467.172	188.056	-0.075	0.112
-466.157	-109.796	0.115	0.024
-465.143	-200.000	0.026	-0.123
-464.128	-45.803	-0.337	-0.167
-463.113	604.489	0.076	0.190
-462.099	71.935	0.381	0.397
-461.084	-12.315	-0.312	-0.204
-460.070	173.230	-0.215	-0.310
-459.055	-164.184	0.037	-0.002
-458.040	610.777	0.179	-0.449
-457.026	800.000	-0.055	-0.170
-456.011	21.785	0.288	-0.235
-454.997	159.420	-0.186	-0.259
-453.982	-10.883	0.220	0.145
-452.968	-122.788	-0.101	-0.016
-451.953	4.275	-0.216	-0.158
-450.938	-89.168	0.147	-0.044
-449.924	-136.904	-0.149	-0.017
-448.909	65.155	0.258	0.261
-447.895	182.646	-0.081	-0.119
-446.880	-101.191	-0.178	0.044
-445.865	102.248	-0.074	0.087
-444.851	53.765	0.250	-0.240
-443.836	-148.047	0.330	-0.027
-442.822	66.859	-0.132	-0.135
-441.807	-76.528	0.139	0.049
-440.792	-153.905	0.129	-0.009
-439.778	120.554	0.110	-0.137
-438.763	-87.870	0.113	-0.034
-437.749	-136.268	-0.446	0.052
-436.734	190.625	-0.038	-0.057
-435.719	272.352	0.111	0.195
-434.705	-200.000	0.004	0.044
-433.690	331.209	-0.177	0.342
-432.676	-41.631	-0.305	-0.157
-431.661	-200.000	0.026	-0.163
-430.646	42.827	0.146	-0.133
-429.632	535.659	-0.192	0.456
-428.617	139.385	-0.240	0.316
-427.603	800.000	-0.066	0.267
-426.588	-111.890	0.270	-0.054
-425.573	-159.534	0.224	0.012
-424.559	192.299	0.141	-0.213
-423.544	-31.800	0.026	-0.015
-422.530	-200.000	-0.015	-0.070
-421.515	102.427	-0.143	-0.167
-420.500	-153.527	0.235	-0.016
-419.486	-71.004	0.311	-0.117
-418.471	-200.000	-0.013	-0.081
-417.457	-141.731	0.144	0.015
-416.442	-147.349	-0.303	0.026
-415.428	178.954	-0.281	0.411
-414.413	-200.000	0.048	0.296
-413.398	800.000	0.036	-0.143
-412.384	-200.000	0.023	-0.234
-411.369	-200.000	0.020	-0.151
-410.355	515.690	0.108	-0.252
-409.340	-85.580	0.243	0.076
-408.325	-32.835	0.364	0.202
-407.311	-2.357	0.335	-0.235
-406.296	800.000	0.066	-0.275
-405.282	-91.838	0.072	-0.020
-404.267	-48.894	-0.422	0.202
-403.252	-200.000	0.071	0.341
-402.238	-80.411	0.168	-0.056
-401.223	93.140	0.441	0.498
-400.209	-200.000	0.032	0.196
-399.194	-200.000	0.141	-0.001
-398.179	126.207	0.054	0.068
-397.165	-38.846	0.178	-0.094
-396.150	721.510	-0.120	-0.319
-395.136	181.186	0.210	0.309
-394.121	-84.839	-0.088	0.027
-393.106	654.075	0.104	0.266
-392.092	-122.467	0.467	-0.076
-391.077	-200.000	0.000	-0.026
-390.063	193.213	-0.135	-0.204
-389.048	68.701	0.217	0.222
-388.033	-100.174	-0.146	-0.036
-387.019	645.385	0.073	0.187
-386.004	-200.000	0.079	0.559
-384.990	-74.200	0.287	0.104
-383.975	-61.298	0.113	-0.047
-382.960	394.854	0.031	-0.064
-381.946	316.724	-0.079	-0.149
-380.931	-98.985	0.184	-0.047
-379.917	485.211	0.020	0.046
-378.902	153.173	0.168	-0.229
-377.888	-104.240	0.050	-0.012
-376.873	480.848	-0.037	-0.084
-375.858	43.320	-0.084	-0.077
-374.844	-200.000	-0.021	0.333
-373.829	78.115	-0.043	-0.046
-372.815	153.376	0.179	0.245
-371.800	246.898	0.181	0.305
-370.785	800.000	-0.064	0.255
-369.771	-200.000	0.037	0.203
-368.756	12.221	-0.115	-0.089
-367.742	134.937	-0.119	0.154
-366.727	352.746	0.145	-0.287
-365.712	-0.184	-0.122	0.087
-364.698	100.253	-0.152	-0.175
-363.683	-60.687	-0.010	0.004
-362.669	163.670	0.129	-0.182
-361.654	-23.319	0.062	-0.037
-360.639	-200.000	-0.019	-0.276
-359.625	800.000	-0.065	-0.200
-358.610	-29.838	-0.171	-0.097
-357.596	100.565	-0.130	0.150
-356.581	-119.113	-0.314	0.055
-355.566	239.204	0.133	0.220
-354.552	-200.000	0.043	0.192
-353.537	-20.394	-0.065	0.040
-352.523	-116.316	-0.411	0.076
-351.508	-200.000	-0.008	0.043
-350.493	56.236	0.093	0.090
-349.479	-44.746	0.179	-0.089
-348.464	157.770	0.015	-0.021
-347.450	-16.062	-0.084	0.053
-346.435	-142.020	0.230	0.023
-345.420	138.911	0.052	0.068
-344.406	800.000	-0.063	0.192
-343.391	-6.743	-0.541	-0.367
-342.377	-30.675	-0.045	0.026
-341.362	-104.396	-0.151	0.035
-340.348	262.113	0.164	0.284
-339.333	109.390	-0.067	-0.079
-338.318	-117.379	0.343	-0.062
-337.304	518.886	0.112	0.262
-336.289	23.892	0.197	0.162
-335.275	431.564	-0.051	-0.111
-334.260	56.160	-0.235	0.227
-333.245	55.678	-0.186	0.179
-332.231	-63.049	-0.127	-0.052
-331.216	-144.788	-0.091	0.008
-330.202	-98.733	0.125	0.032
-329.187	-9.800	-0.126	-0.084
-328.172	-21.012	0.123	0.075
-327.158	-81.583	0.231	0.076
-326.143	155.017	-0.284	0.390
-325.129	99.717	0.159	-0.183
-324.114	-158.083	-0.207	0.012
-323.099	-56.463	0.210	0.093
-322.085	-119.804	-0.319	-0.055
-321.070	-102.698	0.282	0.067
-320.056	68.486	-0.067	0.068
-319.041	599.618	-0.064	0.159
-318.026	123.389	0.133	0.166
-317.012	-37.823	-0.322	0.171
-315.997	-103.487	-0.384	-0.090
-314.983	29.898	0.102	-0.087
-313.968	-127.619	0.392	-0.056
-312.953	-200.000	-0.014	-0.098
-311.939	-137.231	0.212	0.024
-310.924	-118.465	-0.129	-0.023
-309.910	289.265	-0.066	0.119
-308.895	-200.000	0.050	0.310
-307.880	-133.719	-0.372	0.046
-306.866	-175.013	-0.153	-0.004
-305.851	-200.000	0.002	-0.197
-304.837	-45.360	0.135	0.067
-303.822	-80.736	0.197	0.065
-302.807	-200.000	-0.010	-0.182
-301.793	800.000	0.047	-0.196
-300.778	57.766	0.170	-0.166
-299.764	67.160	-0.067	0.068
-298.749	-200.000	-0.003	-0.036
-297.735	-29.123	-0.337	-0.192
-296.720	-51.691	0.307	-0.142
-295.705	800.000	0.102	-0.410
-294.691	6.846	0.207	-0.154
-293.676	-21.321	-0.340	0.206
-292.662	-101.773	0.056	-0.014
-291.647	-20.900	-0.105	-0.064
-290.632	800.000	0.051	0.146
-289.618	216.608	0.091	-0.144
-288.603	-200.000	-0.389	-0.000
-287.589	83.732	0.055	-0.060
-286.574	-0.438	-0.241	0.170
-285.559	800.000	-0.008	0.027
-284.545	187.236	-0.018	-0.027
-283.530	-200.000	0.069	0.438
-282.516	-93.971	-0.295	0.081
-281.501	82.069	-0.246	-0.265
-280.486	307.126	0.116	0.214
-279.472	-157.272	0.318	-0.019
-278.457	353.972	-0.122	-0.242
-277.443	-22.853	-0.097	-0.058
-276.428	43.384	-0.195	0.177
-275.413	406.628	-0.116	-0.243
-274.399	-142.475	-0.005	0.001
-273.384	63.224	-0.177	0.177
-272.370	13.217	0.031	0.024
-271.355	-77.077	0.311	-0.108
-270.340	358.516	-0.050	-0.099
-269.326	-120.455	0.203	-0.034
-268.311	800.000	0.035	-0.136
-267.297	-200.000	-0.042	-0.290
-266.282	419.285	-0.044	0.094
-265.267	177.571	0.055	-0.080
-264.253	-75.231	-0.497	0.176
-263.238	-85.661	0.392	0.121
-262.224	-200.000	-0.008	0.287
-261.209	164.795	0.151	-0.212
-260.195	16.092	0.235	-0.184
-259.180	-23.829	0.062	0.037
-258.165	-104.738	0.211	0.048
-257.151	-136.194	0.061	0.007
-256.136	-85.443	-0.201	-0.062
-255.122	747.877	-0.028	0.074
-254.107	800.000	-0.072	-0.305
-253.092	5.071	-0.070	-0.051
-252.078	1.938	-0.242	-0.173
-251.063	-76.264	0.248	-0.087
-250.049	2.990	-0.132	0.095
-249.034	-200.000	-0.011	0.101
-248.019	109.256	0.181	-0.215
-247.005	124.731	-0.274	-0.342
-245.990	-55.200	0.136	0.061
-244.976	169.335	0.147	0.208
-243.961	-124.546	0.139	-0.021
-242.946	-200.000	0.001	0.017
-241.932	-200.000	0.287	-0.001
-240.917	-8.246	-0.208	-0.139
-239.903	34.536	0.196	-0.170
-238.888	800.000	0.052	0.168
-237.873	-51.251	0.154	0.072
-236.859	-7.205	-0.329	-0.221
-235.844	164.996	0.144	0.202
-234.830	-49.849	0.117	-0.055
-233.815	371.430	-0.032	-0.065
-232.800	-59.354	0.027	0.012
-231.786	-200.000	-0.002	0.260
-230.771	60.960	0.247	-0.243
-229.757	178.925	-0.022	0.032
-228.742	-136.217	-0.185	-0.022
-227.727	-43.942	0.238	0.119
-226.713	-135.438	0.052	-0.006
-225.698	-108.667	-0.151	0.032
-224.684	-200.000	-0.011	0.111
-223.669	446.269	0.126	-0.275
-222.655	-30.900	-0.183	-0.102
-221.640	-45.340	0.147	0.072
-220.625	-87.742	-0.317	-0.095
-219.611	338.804	-0.037	0.072
-218.596	553.674	-0.077	-0.183
-217.582	-200.000	-0.001	0.331
-216.567	-75.741	-0.341	-0.120
-215.552	-129.455	-0.212	-0.029
-214.538	-104.044	-0.450	-0.104
-213.523	59.020	-0.178	0.174
-212.509	201.921	0.139	-0.213
-211.494	-141.246	-0.294	0.030
-210.479	-200.000	0.018	0.134
-209.465	-112.228	0.177	0.035
-208.450	391.031	-0.245	0.505
-207.436	-32.832	0.231	-0.127
-206.421	800.000	0.053	-0.228
-205.406	-147.322	0.082	0.007
-204.392	414.861	0.136	0.287
-203.377	11.707	-0.089	0.068
-202.363	-18.951	-0.109	0.067
-201.348	432.240	-0.246	0.529
-200.333	-200.000	0.217	-0.001
-199.319	546.381	0.116	0.274
-198.304	-75.904	-0.093	0.033
-197.290	293.896	0.133	0.240
-196.275	171.835	-0.055	0.078
-195.260	-112.736	0.223	0.044
-194.246	-172.134	-0.319	0.010
-193.231	-200.000	0.023	-0.288
-192.217	-200.000	0.048	-0.215
-191.202	170.584	0.190	-0.269
-190.187	-133.470	-0.122	-0.015
-189.173	-122.375	0.350	-0.057
-188.158	800.000	0.078	-0.237
-187.144	339.238	-0.102	-0.197
-186.129	454.821	-0.036	0.079
-185.114	-143.958	0.190	-0.018
-184.100	421.415	0.119	0.252
-183.085	-183.247	0.148	0.003
-182.071	144.637	0.045	0.060
-181.056	-91.228	-0.219	0.062
-180.042	-29.373	-0.083	-0.047
-179.027	-87.840	0.152	-0.045
-178.012	12.808	-0.174	-0.133
-176.998	-200.000	0.046	-0.264
-175.983	-126.865	0.042	0.006
-174.969	15.003	0.026	0.020
-173.954	149.872	0.140	0.188
-172.939	-65.388	-0.428	-0.171
-171.925	-80.671	-0.222	-0.073
-170.910	-60.768	-0.160	0.067
-169.896	278.430	0.121	0.214
-168.881	-3.873	0.072	0.050
-167.866	-33.051	-0.085	0.047
-166.852	-134.261	0.167	0.020
-165.837	-70.661	0.267	-0.100
-164.823	-200.000	0.027	-0.378
-163.808	73.752	0.167	0.173
-162.793	159.849	-0.191	0.263
-161.779	-168.544	0.451	0.017
-160.764	-108.862	-0.229	0.049
-159.750	262.538	0.120	-0.205
-158.735	23.955	-0.024	0.019
-157.720	-74.943	-0.093	0.033
-156.706	-200.000	0.037	0.217
-155.691	328.936	0.114	0.216
-154.677	542.102	0.096	-0.226
-153.662	-107.074	-0.465	-0.102
-152.647	-200.000	0.014	0.286
-151.633	-99.401	0.165	0.041
-150.618	225.931	-0.147	0.235
-149.604	161.168	-0.177	0.245
-148.589	-16.560	0.102	0.064
-147.574	-156.640	0.068	-0.004
-146.560	800.000	0.036	-0.120
-145.545	-200.000	-0.075	0.333
-144.531	-200.000	0.085	0.371
-143.516	118.282	-0.115	-0.141
-142.502	-200.000	-0.006	0.057
-141.487	225.992	0.121	0.194
-140.472	-200.000	0.028	-0.219
-139.458	86.960	-0.373	-0.407
-138.443	197.486	0.176	-0.265
-137.429	800.000	-0.053	0.194
-136.414	-85.188	0.057	0.018
-135.399	-2.065	-0.171	-0.119
-134.385	66.287	-0.166	0.167
-133.370	-19.950	0.399	0.243
-132.356	668.691	-0.103	0.263
-131.341	403.443	0.128	0.267
-130.326	800.000	-0.149	0.452
-129.312	127.287	0.174	-0.218
-128.297	-84.293	-0.072	0.022
-127.283	43.806	0.070	0.063
-126.268	47.176	-0.269	-0.247
-125.253	423.085	0.102	-0.217
-124.239	800.000	0.158	0.460
-123.224	-114.282	-0.264	0.050
-122.210	-200.000	-0.017	-0.314
