DTS Sentinel unit serial number:	SN413079Multiplexer serial number:	ORYXHardware model number:	OX4-SRSoftware version number:	ORYX F/W v4.00 Oryx Data Collector v3.7.2.0data status	okinstallation	princeton_trtdifferential loss correction	single-endedforward channel	channel 4reverse channel	N/Adate	2019/09/11time	07:27:11forward acquisition time	60.00reverse acquisition time	0.00gamma	496.2192k internal	0.2310k external	0.2310temperature offset calibration	0.9942default loss term (dB/km)	0.3790temperature slope calibration	1.0000multiplexer offset coefficient	1.0000multiplexer slope coefficient	1.0000fibre end	0.00T internal ref (°C)	30.97T ext. ref 1 (°C)	-0.09T ext. ref 2 (°C)	27.55length (m)	temperature (°C)	Stokes	anti-Stokes-747.200	-59.196	-0.214	-0.094
-746.185	344.792	0.103	0.205
-745.171	-6.026	0.148	-0.103
-744.156	307.810	-0.167	0.316
-743.142	-61.594	-0.221	-0.094
-742.127	366.862	0.164	0.336
-741.112	70.429	0.176	0.185
-740.098	-200.000	0.023	0.228
-739.083	-7.612	-0.194	-0.133
-738.069	-92.769	-0.113	-0.032
-737.054	-23.452	-0.042	-0.026
-736.039	149.854	-0.060	0.083
-735.025	-150.105	0.065	-0.005
-734.010	255.133	-0.186	-0.324
-732.996	11.441	-0.163	-0.127
-731.981	50.003	-0.096	0.092
-730.966	230.762	-0.201	-0.334
-729.952	54.588	0.137	-0.134
-728.937	-200.000	-0.047	-0.258
-727.923	32.270	-0.083	-0.073
-726.908	-103.339	-0.436	0.104
-725.894	448.427	-0.079	0.177
-724.879	579.217	0.124	-0.309
-723.864	-56.418	-0.186	0.084
-722.850	292.684	0.294	0.543
-721.835	156.567	-0.214	0.300
-720.821	-81.288	-0.091	0.030
-719.806	-63.604	-0.374	0.156
-718.791	119.356	-0.034	-0.043
-717.777	118.661	-0.091	0.114
-716.762	-123.502	-0.143	0.023
-715.748	-35.629	0.375	0.206
-714.733	800.000	0.059	-0.191
-713.718	-70.296	0.126	-0.049
-712.704	76.461	0.122	-0.131
-711.689	800.000	0.095	-0.270
-710.675	445.965	0.108	-0.242
-709.660	158.167	0.146	0.205
-708.645	37.559	-0.217	0.196
-707.631	-20.166	0.066	-0.041
-706.616	57.734	-0.271	0.269
-705.602	34.883	-0.157	-0.140
-704.587	-200.000	-0.008	-0.213
-703.572	547.074	-0.051	-0.125
-702.558	395.846	-0.079	-0.167
-701.543	209.469	0.234	-0.371
-700.529	170.924	-0.115	-0.167
-699.514	92.553	0.282	-0.322
-698.499	-39.281	-0.281	-0.150
-697.485	15.112	0.228	0.181
-696.470	178.546	0.154	0.228
-695.456	-200.000	0.006	0.542
-694.441	-62.490	0.209	-0.088
-693.426	227.257	0.040	-0.066
-692.412	-178.562	-0.229	0.005
-691.397	-42.933	0.317	-0.163
-690.383	-94.317	-0.234	-0.065
-689.368	741.877	0.108	-0.294
-688.354	800.000	0.025	0.108
-687.339	37.335	0.084	-0.075
-686.324	-130.912	0.350	0.047
-685.310	80.229	0.084	-0.092
-684.295	136.084	-0.122	0.161
-683.281	-200.000	0.033	-0.402
-682.266	147.592	-0.149	-0.203
-681.251	800.000	0.077	0.233
-680.237	673.313	-0.029	0.077
-679.222	40.037	-0.090	-0.082
-678.208	-117.698	-0.225	0.041
-677.193	-45.414	0.261	-0.131
-676.178	91.139	-0.081	-0.092
-675.164	-37.377	-0.051	-0.028
-674.149	185.238	0.157	-0.236
-673.135	31.307	-0.113	0.098
-672.120	85.071	-0.143	-0.159
-671.105	-141.652	-0.086	0.009
-670.091	608.519	-0.146	-0.370
-669.076	108.311	-0.078	0.094
-668.062	-200.000	-0.022	0.245
-667.047	144.346	0.262	-0.354
-666.032	51.315	-0.233	0.224
-665.018	173.452	0.220	-0.322
-664.003	-200.000	0.059	-0.309
-662.989	72.592	-0.210	-0.222
-661.974	-24.501	-0.101	0.061
-660.959	-84.048	-0.091	-0.029
-659.945	-34.002	-0.367	-0.205
-658.930	75.142	0.118	0.126
-657.916	800.000	0.008	0.032
-656.901	338.449	0.067	-0.132
-655.886	-30.440	-0.248	0.143
-654.872	158.072	0.035	0.049
-653.857	-59.913	-0.200	-0.087
-652.843	624.539	-0.174	0.445
-651.828	-119.461	0.222	-0.039
-650.814	-56.850	0.481	-0.215
-649.799	230.676	-0.063	-0.104
-648.784	423.677	0.092	-0.200
-647.770	-73.568	0.094	0.035
-646.755	724.637	0.114	-0.308
-645.741	13.147	-0.134	-0.105
-644.726	101.906	0.059	-0.069
-643.711	800.000	-0.025	-0.099
-642.697	147.541	0.276	0.376
-641.682	659.468	0.049	0.129
-640.668	398.991	0.024	0.050
-639.653	323.912	0.068	0.132
-638.638	-157.935	0.226	0.013
-637.624	-200.000	-0.027	0.150
-636.609	-35.995	-0.247	-0.135
-635.595	483.061	0.034	-0.077
-634.580	-55.571	-0.283	-0.128
-633.565	-78.257	-0.231	0.080
-632.551	-134.026	0.199	0.025
-631.536	-85.914	0.211	-0.066
-630.522	85.668	-0.219	0.243
-629.507	317.231	-0.014	-0.026
-628.492	-200.000	-0.021	0.185
-627.478	-1.311	-0.149	-0.106
-626.463	-200.000	0.026	0.184
-625.449	573.989	0.129	0.318
-624.434	163.059	-0.233	-0.331
-623.419	-99.212	-0.298	-0.076
-622.405	-121.980	-0.104	-0.017
-621.390	-200.000	0.041	0.229
-620.376	-48.702	0.136	-0.066
-619.361	-7.379	0.362	-0.248
-618.346	-155.824	0.062	0.004
-617.332	54.477	-0.237	0.230
-616.317	-145.593	-0.247	-0.022
-615.303	111.201	-0.245	-0.298
-614.288	-62.430	-0.177	-0.074
-613.273	108.141	-0.137	-0.165
-612.259	800.000	0.057	0.197
-611.244	86.210	-0.076	0.085
-610.230	800.000	-0.066	0.201
-609.215	736.459	0.064	0.175
-608.201	-200.000	0.014	0.129
-607.186	-8.911	0.200	0.136
-606.171	-200.000	-0.006	-0.101
-605.157	-174.641	-0.530	-0.015
-604.142	800.000	-0.027	-0.085
-603.128	-75.368	0.178	-0.064
-602.113	-119.604	-0.238	-0.042
-601.098	-84.064	0.492	0.158
-600.084	-10.685	-0.210	0.140
-599.069	-72.635	0.281	-0.105
-598.055	-108.445	-0.180	-0.039
-597.040	362.589	-0.137	0.278
-596.025	26.972	-0.030	-0.026
-595.011	-200.000	-0.017	-0.346
-593.996	330.468	-0.155	-0.301
-592.982	-60.908	0.192	-0.082
-591.967	-27.017	0.211	0.124
-590.952	617.498	-0.086	0.218
-589.938	-200.000	-0.030	-0.289
-588.923	-190.398	-0.118	-0.001
-587.909	142.762	-0.082	0.110
-586.894	-60.311	0.166	0.071
-585.879	800.000	0.052	-0.168
-584.865	721.604	-0.111	0.299
-583.850	70.640	-0.253	-0.264
-582.836	215.928	0.075	0.120
-581.821	-75.744	-0.247	0.089
-580.806	710.930	-0.094	0.252
-579.792	-79.193	0.292	0.100
-578.777	147.918	-0.100	0.137
-577.763	-94.100	0.729	-0.202
-576.748	376.620	0.137	-0.282
-575.733	-200.000	0.006	0.064
-574.719	-3.185	-0.207	-0.146
-573.704	-28.387	0.191	0.111
-572.690	-39.611	0.228	0.120
-571.675	-61.032	0.142	0.060
-570.661	800.000	0.149	-0.491
-569.646	800.000	-0.106	0.345
-568.631	-200.000	-0.019	0.094
-567.617	-123.706	-0.175	0.028
-566.602	-137.118	0.221	-0.025
-565.588	-124.172	0.104	0.016
-564.573	-147.974	0.188	0.016
-563.558	-105.910	0.211	-0.048
-562.544	800.000	-0.032	0.093
-561.529	800.000	0.101	-0.315
-560.515	565.613	-0.139	0.340
-559.500	-9.655	-0.150	0.101
-558.485	2.273	0.121	0.089
-557.471	113.957	0.082	0.101
-556.456	-200.000	-0.028	-0.176
-555.442	105.727	-0.066	0.079
-554.427	45.563	0.107	0.100
-553.412	646.604	0.062	0.159
-552.398	170.036	0.054	-0.078
-551.383	68.848	0.162	0.168
-550.369	-37.478	0.331	-0.178
-549.354	-200.000	-0.116	-0.514
-548.339	32.128	-0.237	0.206
-547.325	147.345	-0.356	-0.483
-546.310	-50.656	0.222	0.105
-545.296	-57.030	-0.202	-0.090
-544.281	14.886	-0.150	-0.118
-543.266	-44.938	-0.252	0.126
-542.252	-42.875	0.115	0.059
-541.237	106.345	0.018	0.021
-540.223	346.089	0.066	-0.131
-539.208	-66.483	0.292	0.117
-538.193	-200.000	-0.015	0.356
-537.179	-200.000	-0.013	0.123
-536.164	110.937	0.052	-0.063
-535.150	52.240	0.206	0.198
-534.135	136.601	-0.175	0.230
-533.121	-26.862	-0.262	0.154
-532.106	113.063	-0.116	0.142
-531.091	-164.109	0.232	0.011
-530.077	-70.275	-0.236	-0.090
-529.062	56.409	0.112	-0.109
-528.048	-200.000	-0.011	-0.145
-527.033	35.925	-0.127	-0.112
-526.018	-140.627	-0.295	-0.031
-525.004	-67.688	0.226	-0.089
-523.989	-77.061	0.323	-0.113
-522.975	-184.036	-0.573	0.010
-521.960	800.000	0.054	-0.223
-520.945	41.726	-0.082	-0.075
-519.931	-200.000	-0.023	-0.410
-518.916	-141.610	0.244	0.025
-517.902	-80.545	0.166	-0.056
-516.887	-200.000	0.032	-0.239
-515.872	23.088	-0.359	-0.297
-514.858	18.018	-0.060	0.048
-513.843	163.471	-0.099	-0.141
-512.829	194.285	-0.072	-0.109
-511.814	-200.000	0.015	0.069
-510.799	69.802	0.025	0.026
-509.785	-137.374	0.188	-0.021
-508.770	-200.000	0.008	-0.111
-507.756	-200.000	0.301	0.000
-506.741	74.268	-0.212	0.224
-505.726	374.420	-0.067	0.138
-504.712	800.000	-0.050	-0.169
-503.697	-61.833	-0.099	-0.042
-502.683	218.128	-0.082	-0.131
-501.668	-200.000	0.022	-0.124
-500.653	-62.113	0.276	0.116
-499.639	-124.299	-0.455	-0.072
-498.624	-200.000	0.050	0.373
-497.610	-140.496	0.127	-0.013
-496.595	800.000	0.055	0.180
-495.581	800.000	-0.047	-0.136
-494.566	534.786	0.026	0.061
-493.551	-67.590	0.352	0.139
-492.537	-129.622	-0.111	-0.015
-491.522	-200.000	0.004	-0.403
-490.508	-91.466	-0.250	-0.072
-489.493	39.589	0.193	0.174
-488.478	533.172	0.146	0.348
-487.464	588.880	0.130	0.321
-486.449	-200.000	0.031	-0.188
-485.435	237.297	-0.090	0.150
-484.420	-10.050	0.158	0.106
-483.405	-200.000	0.008	-0.211
-482.391	-200.000	-0.011	-0.273
-481.376	-99.286	0.263	0.067
-480.362	-80.197	-0.196	0.066
-479.347	33.133	-0.415	-0.361
-478.332	-200.000	0.005	0.077
-477.318	-200.000	-0.001	-0.234
-476.303	22.895	-0.200	0.165
-475.289	402.694	-0.085	0.180
-474.274	-56.444	0.196	0.087
-473.259	-16.181	-0.192	0.122
-472.245	172.506	0.215	-0.311
-471.230	9.776	-0.158	-0.121
-470.216	-50.151	-0.166	0.079
-469.201	800.000	-0.039	-0.158
-468.186	-97.473	-0.128	0.034
-467.172	-200.000	-0.038	-0.236
-466.157	-200.000	0.017	0.354
-465.143	-8.317	0.109	0.074
-464.128	72.077	0.192	-0.201
-463.113	106.858	-0.206	0.246
-462.099	-92.647	0.118	-0.033
-461.084	-52.572	-0.032	0.015
-460.070	-200.000	-0.047	-0.221
-459.055	-25.973	-0.275	-0.163
-458.040	462.805	0.104	-0.233
-457.026	-53.508	-0.138	-0.064
-456.011	-124.088	0.213	0.034
-454.997	142.415	-0.176	0.235
-453.982	270.903	0.172	0.305
-452.968	5.956	-0.145	0.108
-451.953	-88.519	0.206	-0.062
-450.938	139.757	0.061	-0.081
-449.924	36.337	-0.278	0.246
-448.909	371.919	-0.082	0.167
-447.895	186.554	-0.202	0.302
-446.880	-200.000	0.054	0.299
-445.865	-46.254	-0.207	0.102
-444.851	-200.000	0.017	0.098
-443.836	800.000	-0.051	0.145
-442.822	307.871	-0.213	-0.398
-441.807	800.000	0.097	-0.314
-440.792	-112.593	0.281	0.056
-439.778	-21.455	-0.204	0.125
-438.763	-200.000	-0.002	0.011
-437.749	-96.594	-0.348	-0.092
-436.734	-200.000	-0.012	-0.396
-435.719	-2.087	0.069	-0.049
-434.705	-82.846	0.197	-0.064
-433.690	-200.000	-0.008	0.129
-432.676	63.380	0.180	-0.181
-431.661	800.000	0.066	0.191
-430.646	-200.000	0.003	0.390
-429.632	11.978	-0.139	0.107
-428.617	66.922	0.304	-0.311
-427.603	-29.408	-0.174	0.100
-426.588	-31.758	0.147	0.083
-425.573	32.762	0.392	0.340
-424.559	-200.000	-0.068	0.307
-423.544	103.870	-0.095	-0.112
-422.530	-95.938	-0.204	0.055
-421.515	-200.000	-0.028	-0.261
-420.500	-42.557	0.376	0.192
-419.486	246.202	0.054	-0.091
-418.471	-200.000	-0.021	0.187
-417.457	-186.596	-0.229	-0.003
-416.442	800.000	0.074	-0.246
-415.428	-92.286	-0.366	0.103
-414.413	800.000	-0.084	-0.289
-413.398	-68.425	0.164	0.064
-412.384	320.386	-0.047	0.090
-411.369	51.730	0.242	0.231
-410.355	-100.206	-0.154	0.038
-409.340	76.517	0.057	-0.061
-408.325	-200.000	0.008	0.139
-407.311	-65.624	0.489	-0.197
-406.296	120.682	-0.132	-0.164
-405.282	194.144	-0.023	-0.035
-404.267	-200.000	-0.039	-0.192
-403.252	381.919	0.233	0.480
-402.238	-151.762	0.217	-0.016
-401.223	-112.411	0.456	-0.091
-400.209	328.428	-0.039	0.074
-399.194	800.000	-0.031	-0.111
-398.179	-200.000	-0.013	0.332
-397.165	132.190	0.319	0.412
-396.150	-54.813	0.135	0.061
-395.136	-84.541	0.249	0.079
-394.121	-98.108	0.189	0.049
-393.106	140.638	-0.183	0.243
-392.092	-200.000	0.012	0.179
-391.077	-10.640	-0.167	0.111
-390.063	-47.139	-0.170	-0.083
-389.048	-56.632	-0.044	-0.020
-388.033	23.483	-0.182	0.150
-387.019	-145.291	0.085	-0.008
-386.004	800.000	-0.172	0.530
-384.990	223.163	-0.160	-0.258
-383.975	800.000	0.104	-0.292
-382.960	173.694	0.218	0.316
-381.946	97.789	-0.082	0.095
-380.931	305.288	0.113	0.210
-379.917	-128.033	-0.408	-0.059
-378.902	164.484	-0.226	-0.318
-377.888	-141.365	0.348	-0.035
-376.873	800.000	-0.083	0.274
-375.858	-125.168	0.193	0.030
-374.844	-200.000	0.012	-0.173
-373.829	-200.000	-0.100	-0.469
-372.815	91.213	-0.230	0.258
-371.800	800.000	-0.118	0.371
-370.785	800.000	-0.014	-0.060
-369.771	20.576	-0.091	-0.074
-368.756	-49.764	0.191	-0.091
-367.742	-200.000	0.024	-0.347
-366.727	29.029	-0.135	-0.114
-365.712	30.910	-0.169	0.145
-364.698	-128.228	-0.102	0.015
-363.683	473.257	0.119	-0.269
-362.669	128.683	0.025	0.032
-361.654	800.000	-0.046	0.178
-360.639	-200.000	0.087	0.391
-359.625	-126.602	0.021	-0.003
-358.610	29.137	-0.223	0.190
-357.596	-69.966	0.208	-0.079
-356.581	594.149	-0.105	-0.259
-355.566	-10.855	0.083	0.055
-354.552	-200.000	-0.066	0.332
-353.537	235.526	0.042	-0.069
-352.523	800.000	0.131	-0.373
-351.508	223.309	0.042	0.068
-350.493	40.165	-0.104	0.093
-349.479	9.462	-0.059	-0.044
-348.464	134.433	-0.168	0.218
-347.450	-82.601	-0.286	0.093
-346.435	-200.000	-0.062	-0.309
-345.420	52.035	-0.124	0.118
-344.406	-43.116	0.211	-0.107
-343.391	-200.000	0.016	0.150
-342.377	387.865	0.093	-0.192
-341.362	-127.552	-0.299	0.043
-340.348	-90.969	0.276	-0.079
-339.333	59.866	0.172	0.170
-338.318	-88.234	0.303	0.091
-337.304	-200.000	0.140	0.000
-336.289	800.000	-0.043	0.153
-335.275	-200.000	0.050	0.225
-334.260	-66.114	0.055	-0.022
-333.245	299.813	-0.076	0.140
-332.231	128.935	-0.058	-0.074
-331.216	188.429	0.104	-0.156
-330.202	192.320	0.194	-0.293
-329.187	-200.000	-0.030	-0.356
-328.172	800.000	0.015	0.062
-327.158	28.286	-0.200	0.169
-326.143	-179.081	-0.211	-0.005
-325.129	287.068	0.187	-0.338
-324.114	-27.302	-0.163	-0.095
-323.099	-200.000	0.003	0.065
-322.085	800.000	-0.052	0.193
-321.070	-200.000	-0.041	-0.288
-320.056	-200.000	0.022	-0.301
-319.041	-200.000	0.042	0.416
-318.026	128.849	-0.316	-0.402
-317.012	647.411	-0.071	-0.181
-315.997	-200.000	-0.068	-0.333
-314.983	28.010	-0.202	0.170
-313.968	-37.312	-0.169	0.090
-312.953	-200.000	-0.007	0.144
-311.939	-200.000	-0.033	-0.285
-310.924	-200.000	-0.073	0.320
-309.910	-83.806	-0.169	0.054
-308.895	327.551	0.180	0.346
-307.880	29.343	0.131	-0.111
-306.866	369.907	0.067	0.135
-305.851	-88.420	-0.232	0.069
-304.837	638.964	-0.066	-0.167
-303.822	-106.245	-0.191	-0.043
-302.807	724.146	0.070	0.185
-301.793	-200.000	0.016	0.107
-300.778	-34.357	-0.168	-0.092
-299.764	800.000	0.051	-0.154
-298.749	-200.000	-0.013	0.097
-297.735	12.031	0.166	-0.127
-296.720	168.789	0.241	-0.343
-295.705	-110.411	0.415	-0.086
-294.691	800.000	0.076	-0.283
-293.676	-132.826	0.078	-0.010
-292.662	-94.439	0.294	0.080
-291.647	-33.916	-0.025	0.014
-290.632	-200.000	0.019	-0.164
-289.618	43.493	-0.114	-0.104
-288.603	-200.000	0.020	-0.090
-287.589	-62.107	-0.224	-0.093
-286.574	-200.000	-0.021	0.188
-285.559	800.000	0.068	0.271
-284.545	201.605	0.233	-0.358
-283.530	-200.000	0.042	0.185
-282.516	271.793	-0.085	0.150
-281.501	-115.263	0.368	-0.069
-280.486	-106.886	-0.133	0.029
-279.472	44.109	0.105	0.096
-278.457	275.271	-0.084	0.148
-277.443	18.288	0.227	-0.181
-276.428	7.774	0.189	-0.141
-275.413	-65.866	0.091	-0.036
-274.399	55.720	0.111	-0.108
-273.384	-200.000	0.002	0.144
-272.370	19.136	-0.252	-0.202
-271.355	96.529	-0.023	0.026
-270.340	800.000	0.040	-0.145
-269.326	277.363	-0.084	0.148
-268.311	134.125	-0.191	-0.247
-267.297	-48.389	0.307	0.147
-266.282	-34.214	0.088	-0.048
-265.267	20.641	-0.183	0.148
-264.253	50.639	-0.230	0.217
-263.238	3.509	-0.354	-0.257
-262.224	-136.208	0.191	-0.022
-261.209	453.874	0.144	-0.317
-260.195	273.359	0.070	0.122
-259.180	-200.000	0.001	-0.006
-258.165	257.669	0.153	-0.263
-257.151	-200.000	0.045	-0.279
-256.136	230.075	0.060	-0.098
-255.122	-200.000	-0.008	-0.136
-254.107	-37.631	0.219	0.116
-253.092	-200.000	-0.004	-0.141
-252.078	-40.620	-0.153	0.079
-251.063	-135.819	-0.183	0.022
-250.049	40.059	0.194	0.173
-249.034	-85.914	-0.207	-0.064
-248.019	33.335	-0.191	0.165
-247.005	7.715	-0.139	-0.104
-245.990	222.672	-0.284	-0.456
-244.976	0.305	-0.220	-0.156
-243.961	-200.000	0.028	-0.132
-242.946	-200.000	-0.034	-0.295
-241.932	-108.431	0.108	0.023
-240.917	468.323	-0.115	0.256
-239.903	5.267	0.132	0.097
-238.888	-10.949	0.057	-0.037
-237.873	-92.188	0.160	0.045
-236.859	-1.654	-0.037	-0.026
-235.844	-200.000	-0.355	0.000
-234.830	-22.484	0.345	0.208
-233.815	-200.000	-0.004	-0.174
-232.800	27.085	0.063	-0.052
-231.786	-200.000	0.041	-0.245
-230.771	19.915	0.048	0.039
-229.757	320.285	0.105	-0.198
-228.742	-118.885	0.183	0.032
-227.727	74.602	0.110	-0.115
-226.713	-22.331	-0.303	0.183
-225.698	-59.420	-0.221	-0.095
-224.684	222.571	-0.122	0.195
-223.669	109.905	-0.071	0.085
-222.655	-174.371	-0.480	-0.014
-221.640	254.455	0.189	-0.322
-220.625	-200.000	-0.072	-0.390
-219.611	-200.000	0.023	-0.258
-218.596	-59.971	0.296	-0.126
-217.582	-155.757	-0.330	-0.021
-216.567	800.000	-0.049	0.185
-215.552	-64.457	0.181	-0.073
-214.538	800.000	-0.074	0.273
-213.523	148.005	0.035	-0.048
-212.509	-183.671	0.323	0.005
-211.494	-70.239	-0.392	0.148
-210.479	-200.000	-0.015	-0.278
-209.465	-167.402	0.261	0.010
-208.450	32.897	-0.072	0.062
-207.436	17.384	-0.117	-0.092
-206.421	42.896	0.207	0.188
-205.406	-200.000	0.017	-0.108
-204.392	-99.889	0.216	0.054
-203.377	1.260	-0.403	-0.288
-202.363	137.212	-0.065	-0.085
-201.348	15.485	0.234	0.183
-200.333	360.747	0.039	0.078
-199.319	-130.732	0.112	-0.015
-198.304	319.178	0.039	0.073
-197.290	320.488	0.190	0.359
-196.275	-37.348	-0.321	0.170
-195.260	724.525	-0.065	-0.172
-194.246	-64.935	0.135	-0.054
-193.231	113.507	0.164	0.198
-192.217	-34.771	-0.407	0.221
-191.202	-200.000	0.032	0.302
-190.187	800.000	-0.087	0.251
-189.173	-139.376	-0.078	-0.008
-188.158	438.804	0.096	-0.209
-187.144	0.213	-0.084	0.059
-186.129	-200.000	-0.035	-0.272
-185.114	-200.000	-0.034	0.254
-184.100	-91.084	0.317	0.090
-183.085	-46.795	0.186	0.090
-182.071	-15.534	-0.114	0.072
-181.056	0.367	0.065	0.046
-180.042	-100.367	0.325	-0.080
-179.027	-63.843	-0.309	0.126
-178.012	359.397	0.214	-0.424
-176.998	23.901	-0.156	0.128
-175.983	54.510	0.085	0.082
-174.969	-10.049	-0.139	0.092
-173.954	-79.821	0.423	0.141
-172.939	594.523	-0.057	0.140
-171.925	2.130	0.211	0.151
-170.910	136.571	0.050	0.065
-169.896	217.045	-0.116	0.183
-168.881	-14.622	0.467	0.298
-167.866	-72.500	0.180	0.066
-166.852	-40.264	-0.264	-0.137
-165.837	-80.332	0.181	0.060
-164.823	-37.467	0.175	-0.093
-163.808	-32.958	-0.177	-0.098
-162.793	403.904	-0.009	0.018
-161.779	-65.396	-0.170	0.068
-160.764	306.061	0.073	-0.135
-159.750	135.413	-0.309	-0.399
-158.735	-200.000	-0.040	-0.405
-157.720	-85.267	-0.170	0.053
-156.706	800.000	0.038	0.151
-155.691	-200.000	-0.033	-0.308
-154.677	-200.000	-0.040	0.180
-153.662	81.973	0.172	0.185
-152.647	800.000	0.060	0.177
-151.633	-16.773	-0.113	-0.071
-150.618	-76.550	0.321	-0.112
-149.604	-200.000	0.006	0.491
-148.589	116.318	-0.092	-0.112
-147.574	800.000	-0.052	0.153
-146.560	-88.758	-0.127	0.038
-145.545	-19.495	-0.182	0.112
-144.531	-92.506	0.396	-0.110
-143.516	-106.864	-0.485	-0.107
-142.502	800.000	0.085	-0.347
-141.487	-62.651	-0.098	-0.040
-140.472	53.869	-0.095	-0.091
-139.458	51.170	0.040	-0.037
-138.443	-22.739	0.112	-0.067
-137.429	-144.810	0.327	-0.030
-136.414	125.135	-0.020	0.025
-135.399	-126.898	0.203	0.030
-134.385	-35.931	0.155	-0.083
-133.370	-190.552	-0.320	0.003
-132.356	102.228	-0.108	0.125
-131.341	566.590	0.040	0.097
-130.326	800.000	-0.096	-0.264
-129.312	800.000	-0.068	-0.274
-128.297	-67.622	0.254	-0.099
-127.283	55.394	-0.074	0.071
-126.268	55.334	-0.206	0.197
-125.253	265.872	-0.106	-0.184
-124.239	792.193	0.039	0.106
-123.224	-200.000	0.021	0.118
-122.210	100.783	-0.140	-0.161
-121.195	-120.963	0.243	0.040
-120.180	-60.447	0.269	-0.113
