DTS Sentinel unit serial number:	SN413079Multiplexer serial number:	ORYXHardware model number:	OX4-SRSoftware version number:	ORYX F/W v4.00 Oryx Data Collector v3.7.2.0data status	okinstallation	princeton_trtdifferential loss correction	single-endedforward channel	channel 4reverse channel	N/Adate	2019/09/11time	17:43:10forward acquisition time	60.00reverse acquisition time	0.00gamma	496.2192k internal	0.2274k external	0.2274temperature offset calibration	1.0025default loss term (dB/km)	0.3790temperature slope calibration	1.0000multiplexer offset coefficient	1.0000multiplexer slope coefficient	1.0000fibre end	0.00T internal ref (°C)	43.87T ext. ref 1 (°C)	1.12T ext. ref 2 (°C)	39.07length (m)	temperature (°C)	Stokes	anti-Stokes-747.200	-47.562	-0.172	-0.086
-746.185	-200.000	0.071	0.388
-745.171	-200.000	-0.023	0.277
-744.156	-200.000	0.013	0.204
-743.142	123.559	-0.202	0.262
-742.127	18.634	-0.125	0.103
-741.112	15.716	0.462	0.375
-740.098	-200.000	-0.083	0.563
-739.083	-95.487	-0.282	-0.078
-738.069	-187.700	-0.137	-0.002
-737.054	800.000	0.009	-0.034
-736.039	-90.472	-0.250	-0.075
-735.025	36.828	-0.126	-0.114
-734.010	-125.052	-0.270	-0.043
-732.996	-61.771	-0.309	0.134
-731.981	70.866	0.215	0.230
-730.966	-34.555	-0.362	0.204
-729.952	-4.151	0.058	0.042
-728.937	-200.000	0.007	-0.046
-727.923	800.000	0.053	-0.203
-726.908	800.000	-0.051	-0.152
-725.894	21.398	0.149	-0.125
-724.879	-0.989	-0.244	-0.178
-723.864	-13.586	0.029	-0.019
-722.850	586.432	-0.181	-0.460
-721.835	60.383	0.173	0.176
-720.821	550.203	-0.108	-0.268
-719.806	800.000	0.033	0.122
-718.791	-44.170	-0.038	0.019
-717.777	217.405	-0.156	-0.257
-716.762	-104.743	-0.264	-0.063
-715.748	72.235	0.096	-0.103
-714.733	-68.551	-0.205	-0.082
-713.718	46.488	-0.222	-0.212
-712.704	-200.000	-0.023	-0.146
-711.689	16.436	-0.254	0.206
-710.675	-52.913	0.079	0.037
-709.660	800.000	-0.045	-0.156
-708.645	-200.000	-0.001	-0.133
-707.631	340.211	-0.164	0.329
-706.616	-50.195	0.184	0.090
-705.602	134.426	0.016	0.021
-704.587	73.426	-0.178	-0.192
-703.572	-14.144	-0.218	0.145
-702.558	332.494	0.162	0.321
-701.543	221.353	-0.064	0.105
-700.529	-134.976	-0.179	-0.022
-699.514	-85.708	-0.251	0.080
-698.499	800.000	0.023	-0.077
-697.485	-28.257	-0.188	0.112
-696.470	12.722	-0.182	-0.144
-695.456	-88.838	0.176	-0.054
-694.441	389.248	0.059	-0.125
-693.426	-200.000	0.008	-0.060
-692.412	-200.000	0.025	-0.137
-691.397	190.586	0.192	-0.297
-690.383	644.151	-0.082	0.216
-689.368	-93.917	-0.527	-0.149
-688.354	800.000	-0.039	-0.125
-687.339	-163.050	0.290	0.014
-686.324	-119.444	-0.268	0.048
-685.310	-109.116	-0.310	0.068
-684.295	776.009	-0.045	0.127
-683.281	-142.106	0.259	-0.026
-682.266	-96.752	0.260	0.070
-681.251	-89.251	0.350	-0.106
-680.237	-21.492	0.035	-0.022
-679.222	327.654	-0.035	-0.069
-678.208	378.603	0.044	-0.093
-677.193	800.000	-0.082	-0.289
-676.178	328.340	0.088	-0.173
-675.164	800.000	0.062	-0.223
-674.149	47.526	-0.156	0.149
-673.135	182.898	-0.092	-0.139
-672.120	-200.000	0.050	0.402
-671.105	-200.000	0.028	0.401
-670.091	380.950	-0.158	-0.333
-669.076	10.568	0.120	-0.094
-668.062	-51.485	-0.243	0.117
-667.047	15.607	-0.214	-0.173
-666.032	666.082	-0.087	-0.230
-665.018	-187.377	0.167	-0.002
-664.003	-200.000	-0.005	0.362
-662.989	-88.375	0.197	-0.061
-661.974	87.762	0.091	-0.104
-660.959	12.822	0.116	-0.092
-659.945	-136.842	-0.092	0.011
-658.930	300.318	0.098	0.186
-657.916	54.936	0.121	-0.121
-656.901	-152.318	0.051	-0.004
-655.886	-200.000	0.042	-0.499
-654.872	123.493	0.117	-0.150
-653.857	363.969	0.118	-0.245
-652.843	-70.503	-0.223	0.087
-651.828	-49.462	-0.266	0.130
-650.814	82.572	-0.296	-0.330
-649.799	800.000	-0.018	0.075
-648.784	270.366	0.139	0.251
-647.770	68.372	0.106	0.112
-646.755	-152.492	-0.065	0.005
-645.741	-33.634	0.161	0.091
-644.726	-45.543	-0.302	0.154
-643.711	7.744	0.097	0.075
-642.697	23.373	-0.091	0.077
-641.682	-200.000	-0.047	0.221
-640.668	-200.000	0.006	0.054
-639.653	173.041	0.089	-0.131
-638.638	175.682	0.038	-0.057
-637.624	-67.163	0.294	-0.119
-636.609	171.393	0.083	-0.122
-635.595	160.358	0.152	-0.218
-634.580	800.000	-0.031	-0.101
-633.565	800.000	0.015	-0.051
-632.551	16.072	0.255	-0.207
-631.536	98.579	0.101	-0.120
-630.522	315.247	0.039	-0.075
-629.507	-131.327	0.227	0.031
-628.492	-200.000	-0.008	-0.160
-627.478	-182.756	0.140	0.003
-626.463	70.755	-0.113	-0.120
-625.449	35.910	0.120	-0.108
-624.434	-51.331	-0.100	-0.048
-623.419	-7.642	-0.140	-0.097
-622.405	-25.103	-0.142	0.086
-621.390	176.533	0.040	0.059
-620.376	288.631	-0.201	0.373
-619.361	-117.280	0.132	0.025
-618.346	-47.481	0.259	-0.129
-617.332	153.614	0.149	-0.209
-616.317	290.489	0.075	0.140
-615.303	296.090	-0.111	0.209
-614.288	75.009	0.136	0.147
-613.273	-159.052	0.315	0.018
-612.259	301.202	-0.111	0.210
-611.244	-149.471	0.546	0.044
-610.230	155.848	0.175	-0.248
-609.215	-179.211	-0.171	-0.004
-608.201	-62.182	0.271	0.116
-607.186	114.380	0.093	-0.117
-606.171	-12.310	0.517	-0.347
-605.157	107.170	-0.271	0.331
-604.142	-22.780	-0.314	0.194
-603.128	-11.710	-0.230	-0.155
-602.113	-0.345	0.210	-0.153
-601.098	216.919	-0.028	-0.046
-600.084	314.475	-0.111	0.215
-599.069	-30.239	-0.050	-0.029
-598.055	603.140	0.088	-0.225
-597.040	-200.000	0.025	-0.373
-596.025	-4.194	-0.113	0.080
-595.011	173.748	-0.040	-0.059
-593.996	131.579	0.107	0.141
-592.982	178.475	0.095	0.142
-591.967	34.120	-0.201	0.180
-590.952	270.508	0.039	0.071
-589.938	-200.000	0.009	0.178
-588.923	-99.915	0.199	0.051
-587.909	21.469	-0.365	0.304
-586.894	-144.174	0.323	0.031
-585.879	-89.224	0.337	-0.102
-584.865	-65.543	-0.256	0.105
-583.850	59.040	0.079	-0.080
-582.836	-200.000	0.002	0.088
-581.821	-200.000	-0.068	-0.517
-580.806	-200.000	-0.001	-0.193
-579.792	-123.762	-0.228	0.037
-578.777	-59.926	-0.276	-0.121
-577.763	158.482	0.203	0.288
-576.748	14.109	-0.182	-0.145
-575.733	-61.070	-0.045	-0.019
-574.719	-107.475	-0.194	0.044
-573.704	82.155	-0.030	-0.034
-572.690	-88.003	0.253	-0.078
-571.675	-84.100	0.234	-0.076
-570.661	-138.466	-0.083	-0.009
-569.646	191.238	0.109	0.168
-568.631	231.991	0.142	0.239
-567.617	-175.029	-0.194	0.006
-566.602	786.423	0.103	-0.289
-565.588	-91.137	0.204	-0.060
-564.573	365.093	0.105	-0.217
-563.558	-200.000	0.021	-0.263
-562.544	18.944	-0.031	-0.026
-561.529	-97.792	0.074	0.019
-560.515	-200.000	0.070	0.418
-559.500	-200.000	-0.114	-0.001
-558.485	30.447	0.202	-0.177
-557.471	800.000	0.103	-0.394
-556.456	-200.000	-0.005	-0.091
-555.442	-71.335	0.332	0.127
-554.427	77.528	-0.216	0.236
-553.412	27.481	0.287	-0.247
-552.398	-85.018	0.064	-0.021
-551.383	800.000	0.057	0.253
-550.369	-200.000	-0.043	0.316
-549.354	75.045	0.059	0.064
-548.339	-7.120	-0.021	0.014
-547.325	248.232	-0.057	-0.100
-546.310	297.675	-0.299	0.561
-545.296	286.849	-0.170	-0.314
-544.281	742.936	0.027	-0.076
-543.266	-46.838	0.290	-0.145
-542.252	800.000	-0.057	0.235
-541.237	-124.654	0.174	0.028
-540.223	105.343	0.143	0.173
-539.208	-122.119	0.122	-0.020
-538.193	-200.000	0.031	0.250
-537.179	-111.489	0.274	-0.057
-536.164	-200.000	0.001	-0.219
-535.150	-113.105	0.335	-0.068
-534.135	79.681	0.146	0.161
-533.121	285.500	0.129	-0.237
-532.106	-113.765	-0.179	0.036
-531.091	-200.000	0.000	-0.104
-530.077	-200.000	0.039	-0.232
-529.062	68.851	0.060	-0.063
-528.048	67.899	0.061	-0.064
-527.033	-147.761	-0.183	-0.016
-526.018	270.373	-0.086	0.154
-525.004	-166.904	-0.224	-0.009
-523.989	-200.000	0.012	0.227
-522.975	152.145	-0.207	0.289
-521.960	125.163	0.067	-0.086
-520.945	-20.363	0.200	-0.126
-519.931	-200.000	0.010	0.279
-518.916	-200.000	-0.031	-0.261
-517.902	-200.000	0.037	0.244
-516.887	-134.577	-0.044	0.006
-515.872	244.998	-0.105	-0.181
-514.858	37.059	-0.198	0.179
-513.843	373.684	-0.129	-0.268
-512.829	662.768	-0.040	-0.106
-511.814	800.000	-0.042	0.165
-510.799	37.819	-0.094	0.086
-509.785	-34.708	0.373	0.209
-508.770	-4.156	-0.127	0.090
-507.756	-31.002	-0.321	0.185
-506.741	369.298	0.033	0.068
-505.726	-40.826	0.165	-0.087
-504.712	465.579	-0.045	-0.104
-503.697	372.011	-0.122	0.253
-502.683	-200.000	0.028	0.345
-501.668	-200.000	0.031	0.158
-500.653	352.972	-0.155	-0.315
-499.639	-152.381	-0.243	-0.018
-498.624	-151.430	-0.175	-0.013
-497.610	-200.000	-0.018	-0.243
-496.595	-53.413	0.132	0.062
-495.581	14.917	0.139	-0.111
-494.566	800.000	0.020	-0.070
-493.551	-200.000	-0.032	-0.291
-492.537	-200.000	0.003	-0.154
-491.522	100.004	0.117	0.138
-490.508	217.210	-0.104	-0.170
-489.493	-91.087	-0.094	-0.027
-488.478	108.069	-0.250	0.304
-487.464	-29.242	0.040	-0.024
-486.449	-200.000	-0.040	0.492
-485.435	85.545	0.304	0.341
-484.420	-76.102	0.154	0.056
-483.405	-82.714	-0.138	-0.046
-482.391	42.936	0.243	-0.226
-481.376	800.000	-0.083	-0.303
-480.362	-9.601	0.161	-0.110
-479.347	94.906	0.122	0.142
-478.332	-11.355	0.097	-0.065
-477.318	-6.677	0.291	-0.202
-476.303	-65.103	-0.438	0.180
-475.289	-15.750	-0.548	-0.356
-474.274	-171.779	-0.352	0.012
-473.259	-12.759	-0.085	-0.057
-472.245	-91.968	-0.053	-0.015
-471.230	742.777	0.029	0.081
-470.216	15.983	-0.277	-0.223
-469.201	-84.970	0.363	0.116
-468.186	-20.652	0.259	0.162
-467.172	-200.000	0.007	-0.085
-466.157	-119.185	0.180	-0.032
-465.143	214.683	-0.138	0.223
-464.128	255.299	0.236	0.412
-463.113	800.000	0.087	0.388
-462.099	-130.044	0.260	-0.036
-461.084	-200.000	0.032	-0.309
-460.070	36.476	-0.171	-0.154
-459.055	-200.000	0.009	0.244
-458.040	800.000	-0.051	-0.150
-457.026	800.000	-0.091	-0.330
-456.011	201.759	0.194	-0.304
-454.997	433.510	-0.051	0.113
-453.982	-200.000	-0.019	-0.160
-452.968	-200.000	0.005	-0.313
-451.953	-111.099	-0.161	-0.034
-450.938	331.049	-0.066	0.129
-449.924	533.701	-0.083	-0.201
-448.909	-25.216	0.161	0.097
-447.895	-200.000	-0.049	-0.248
-446.880	-44.525	-0.080	0.041
-445.865	786.569	-0.058	-0.163
-444.851	-58.215	-0.197	0.088
-443.836	-59.956	0.143	-0.062
-442.822	-53.994	0.210	-0.097
-441.807	546.396	0.131	0.319
-440.792	-38.264	0.094	0.051
-439.778	33.564	0.188	0.166
-438.763	499.402	0.077	-0.180
-437.749	424.030	-0.205	-0.449
-436.734	-200.000	0.003	0.142
-435.719	-146.778	0.179	-0.016
-434.705	800.000	0.100	-0.432
-433.690	-12.143	0.136	0.090
-432.676	-137.115	-0.273	-0.032
-431.661	46.917	-0.105	-0.099
-430.646	-87.697	-0.223	-0.069
-429.632	-18.034	0.124	-0.079
-428.617	-200.000	-0.030	0.327
-427.603	359.747	-0.120	0.244
-426.588	-71.179	0.039	-0.015
-425.573	-18.169	0.171	0.109
-424.559	-106.378	-0.354	-0.081
-423.544	32.044	-0.192	-0.169
-422.530	-200.000	0.008	-0.522
-421.515	-118.217	-0.267	0.049
-420.500	-63.623	0.249	-0.104
-419.486	800.000	-0.026	-0.080
-418.471	326.987	-0.107	-0.208
-417.457	800.000	0.037	-0.134
-416.442	440.215	-0.074	-0.164
-415.428	800.000	0.051	-0.195
-414.413	-82.851	-0.086	0.028
-413.398	-200.000	0.007	-0.305
-412.384	-200.000	-0.029	0.147
-411.369	-200.000	0.008	-0.157
-410.355	-200.000	0.001	0.131
-409.340	240.875	0.052	-0.089
-408.325	800.000	0.084	0.285
-407.311	-20.428	-0.188	0.118
-406.296	-25.993	0.190	0.114
-405.282	-174.091	0.326	0.010
-404.267	-26.487	-0.082	0.049
-403.252	-132.780	-0.145	0.019
-402.238	-34.045	0.120	-0.067
-401.223	124.690	-0.196	0.251
-400.209	99.841	-0.239	0.281
-399.194	800.000	-0.043	0.178
-398.179	41.015	-0.307	-0.282
-397.165	-58.317	-0.118	0.052
-396.150	34.662	0.052	0.046
-395.136	-35.812	-0.202	-0.112
-394.121	-120.553	-0.143	-0.025
-393.106	186.972	-0.239	0.362
-392.092	-200.000	-0.001	0.325
-391.077	800.000	-0.061	0.248
-390.063	-200.000	0.020	-0.109
-389.048	-106.402	0.161	-0.037
-388.033	800.000	0.072	0.268
-387.019	100.220	-0.048	-0.056
-386.004	133.279	0.057	-0.075
-384.990	-200.000	0.027	0.263
-383.975	800.000	-0.047	-0.159
-382.960	-85.494	0.350	-0.111
-381.946	206.644	-0.091	-0.144
-380.931	-22.717	-0.218	0.134
-379.917	-93.084	-0.117	0.033
-378.902	-45.200	-0.132	-0.067
-377.888	148.539	-0.122	-0.168
-376.873	28.603	0.274	-0.236
-375.858	-200.000	0.013	0.218
-374.844	-200.000	0.032	0.522
-373.829	-70.325	-0.237	0.091
-372.815	-74.512	0.181	-0.066
-371.800	-75.684	0.196	0.071
-370.785	-120.476	-0.455	0.079
-369.771	-5.240	0.115	0.080
-368.756	0.255	-0.202	-0.147
-367.742	-200.000	0.006	0.238
-366.727	297.219	-0.125	0.233
-365.712	-154.321	-0.292	0.020
-364.698	36.467	0.088	-0.079
-363.683	91.131	-0.186	-0.212
-362.669	800.000	0.104	-0.314
-361.654	-200.000	-0.029	0.201
-360.639	-158.271	0.101	0.006
-359.625	157.390	0.150	-0.210
-358.610	48.670	-0.113	-0.108
-357.596	280.085	0.124	-0.225
-356.581	58.091	-0.224	-0.223
-355.566	38.980	0.098	0.089
-354.552	-18.341	-0.257	-0.163
-353.537	-200.000	-0.049	-0.257
-352.523	-83.685	-0.105	-0.034
-351.508	-45.026	-0.125	-0.063
-350.493	12.788	0.141	-0.110
-349.479	-200.000	-0.045	-0.203
-348.464	83.592	-0.167	-0.185
-347.450	-61.498	0.052	-0.022
-346.435	-64.202	-0.307	0.127
-345.420	-84.968	0.156	0.050
-344.406	-19.555	-0.044	0.027
-343.391	292.147	-0.059	0.110
-342.377	-164.162	0.279	0.013
-341.362	178.833	0.216	-0.321
-340.348	-200.000	-0.020	0.247
-339.333	242.234	0.162	0.275
-338.318	-200.000	-0.044	0.247
-337.304	-47.651	0.253	0.125
-336.289	-112.516	-0.083	0.017
-335.275	800.000	0.141	-0.460
-334.260	-142.286	-0.300	0.030
-333.245	-48.560	0.252	0.123
-332.231	-120.032	-0.106	-0.018
-331.216	-84.720	0.111	-0.035
-330.202	232.147	0.062	0.102
-329.187	-36.253	-0.138	0.076
-328.172	-175.625	0.099	0.003
-327.158	800.000	-0.058	-0.202
-326.143	18.260	-0.145	0.117
-325.129	91.721	-0.100	-0.114
-324.114	287.449	0.124	0.228
-323.099	214.020	0.078	-0.126
-322.085	-0.382	-0.247	0.178
-321.070	-193.100	-0.206	0.002
-320.056	-88.059	-0.166	-0.051
-319.041	-38.232	-0.251	0.135
-318.026	-79.952	-0.170	0.058
-317.012	155.102	0.081	-0.113
-315.997	-43.817	-0.121	-0.062
-314.983	-200.000	-0.011	0.091
-313.968	32.937	0.245	0.215
-312.953	59.741	-0.181	0.181
-311.939	176.454	-0.092	-0.135
-310.924	-20.180	-0.203	0.127
-309.910	62.827	-0.117	0.119
-308.895	157.165	0.225	0.316
-307.880	381.688	-0.141	0.294
-306.866	2.263	0.121	0.089
-305.851	-200.000	-0.010	0.062
-304.837	-110.574	0.216	0.045
-303.822	-55.623	-0.435	0.197
-302.807	101.641	-0.136	-0.161
-301.793	800.000	0.015	-0.046
-300.778	12.313	-0.258	0.202
-299.764	-200.000	-0.073	0.344
-298.749	-200.000	-0.059	-0.320
-297.735	181.107	0.159	-0.237
-296.720	606.005	-0.056	-0.141
-295.705	255.054	0.133	-0.231
-294.691	-200.000	-0.013	-0.100
-293.676	485.225	-0.058	-0.133
-292.662	-92.146	-0.400	-0.115
-291.647	-7.846	-0.233	-0.159
-290.632	800.000	-0.118	0.346
-289.618	-133.276	-0.241	-0.031
-288.603	-123.689	0.080	0.013
-287.589	-96.089	-0.184	0.050
-286.574	-21.475	0.083	-0.051
-285.559	-117.999	0.138	-0.025
-284.545	28.866	0.083	0.071
-283.530	-62.725	-0.388	-0.163
-282.516	-44.345	0.356	0.181
-281.501	285.399	0.104	0.190
-280.486	-49.760	-0.181	0.087
-279.472	51.620	0.263	0.253
-278.457	-76.730	-0.163	-0.058
-277.443	-111.193	-0.176	0.037
-276.428	-102.957	-0.177	-0.042
-275.413	-37.945	0.445	0.239
-274.399	462.427	0.154	0.347
-273.384	-77.800	-0.174	0.061
-272.370	39.253	-0.313	-0.284
-271.355	-200.000	0.006	-0.131
-270.340	800.000	-0.154	0.451
-269.326	696.333	0.040	-0.107
-268.311	29.741	0.171	0.147
-267.297	24.114	0.127	0.106
-266.282	778.282	-0.090	-0.248
-265.267	-200.000	-0.000	-0.154
-264.253	-40.795	-0.248	0.130
-263.238	-100.816	-0.232	-0.058
-262.224	302.005	0.069	0.128
-261.209	-1.477	0.039	0.028
-260.195	192.436	0.088	0.134
-259.180	-91.878	0.305	0.088
-258.165	-27.938	0.069	0.041
-257.151	83.291	0.169	-0.186
-256.136	-200.000	-0.038	-0.198
-255.122	-81.841	0.273	0.090
-254.107	82.452	-0.410	-0.450
-253.092	36.421	0.093	-0.083
-252.078	213.439	0.193	-0.309
-251.063	-34.969	0.235	-0.130
-250.049	-28.400	-0.332	0.194
-249.034	157.926	-0.117	0.164
-248.019	800.000	0.100	-0.336
-247.005	-118.052	-0.278	-0.050
-245.990	-200.000	-0.001	0.137
-244.976	498.336	0.066	-0.153
-243.961	-200.000	-0.042	-0.218
-242.946	-70.401	-0.232	-0.089
-241.932	800.000	-0.152	0.435
-240.917	9.846	0.186	0.143
-239.903	-200.000	0.019	-0.129
-238.888	35.813	0.076	-0.067
-237.873	-200.000	0.051	0.277
-236.859	800.000	0.085	-0.262
-235.844	488.201	-0.132	-0.304
-234.830	-29.417	-0.280	0.162
-233.815	-10.504	-0.133	-0.089
-232.800	-200.000	0.031	0.204
-231.786	38.208	0.206	-0.185
-230.771	132.721	0.189	-0.246
-229.757	-200.000	-0.066	0.466
-228.742	-200.000	-0.007	0.246
-227.727	-200.000	-0.010	-0.065
-226.713	-51.052	-0.086	0.041
-225.698	-145.669	-0.391	0.035
-224.684	-159.175	0.061	0.003
-223.669	22.409	0.198	-0.164
-222.655	-200.000	-0.046	-0.263
-221.640	-200.000	-0.078	-0.348
-220.625	-200.000	-0.072	0.330
-219.611	137.911	0.097	0.128
-218.596	535.483	-0.138	0.332
-217.582	-32.984	-0.176	-0.099
-216.567	-200.000	0.009	0.046
-215.552	122.372	0.110	-0.139
-214.538	113.684	0.140	-0.172
-213.523	800.000	0.070	0.243
-212.509	-47.188	0.165	-0.081
-211.494	-200.000	-0.019	0.133
-210.479	78.482	0.219	-0.237
-209.465	109.642	0.234	-0.284
-208.450	291.161	0.097	0.178
-207.436	-113.945	0.258	0.051
-206.421	-41.999	-0.230	-0.119
-205.406	-30.537	0.159	-0.091
-204.392	-200.000	0.058	-0.298
-203.377	-187.572	0.128	0.002
-202.363	800.000	0.063	-0.195
-201.348	-62.685	-0.166	0.070
-200.333	-200.000	-0.075	-0.423
-199.319	179.030	0.122	-0.180
-198.304	765.887	-0.088	0.242
-197.290	-37.003	0.144	0.078
-196.275	-88.996	0.301	0.090
-195.260	-6.452	-0.077	0.053
-194.246	-31.956	0.136	0.077
-193.231	-37.755	-0.090	-0.048
-192.217	-42.953	0.253	-0.130
-191.202	21.336	0.172	0.141
-190.187	-40.007	0.247	-0.130
-189.173	66.749	0.257	0.264
-188.158	-200.000	0.036	0.165
-187.144	18.338	-0.115	-0.093
-186.129	18.007	-0.071	-0.057
-185.114	-24.732	0.158	0.095
-184.100	-5.256	0.183	0.127
-183.085	142.437	0.147	0.196
-182.071	800.000	-0.081	-0.296
-181.056	-39.021	0.217	0.115
-180.042	-104.517	0.089	-0.021
-179.027	-200.000	-0.003	-0.233
-178.012	-200.000	-0.022	0.164
-176.998	24.852	-0.166	-0.139
-175.983	-111.572	0.250	0.051
-174.969	-93.129	0.264	-0.074
-173.954	-52.237	-0.085	0.040
-172.939	121.321	0.142	0.179
-171.925	70.396	-0.093	-0.097
-170.910	-91.202	-0.166	-0.048
-169.896	358.904	-0.141	0.284
-168.881	-49.072	-0.203	-0.098
-167.866	-61.357	0.235	0.100
-166.852	-114.927	-0.267	-0.051
-165.837	229.392	0.118	0.194
-164.823	9.764	0.257	-0.197
-163.808	-200.000	0.016	0.188
-162.793	-128.400	-0.283	0.041
-161.779	-64.244	-0.229	0.094
-160.764	-200.000	0.048	-0.408
-159.750	26.440	-0.072	-0.061
-158.735	-99.141	-0.189	0.048
-157.720	-86.281	0.361	0.112
-156.706	800.000	-0.075	0.208
-155.691	-148.108	-0.338	-0.028
-154.677	-200.000	0.001	-0.145
-153.662	-5.574	-0.228	0.157
-152.647	199.148	-0.037	-0.058
-151.633	-50.110	0.141	0.067
-150.618	100.813	-0.113	0.133
-149.604	800.000	-0.017	0.058
-148.589	-80.537	0.263	0.088
-147.574	351.030	0.160	-0.318
-146.560	69.705	0.169	-0.176
-145.545	-59.148	0.312	-0.135
-144.531	-9.260	-0.249	0.168
-143.516	-67.623	0.165	0.065
-142.502	-27.825	0.140	-0.082
-141.487	-55.716	0.158	0.071
-140.472	-200.000	-0.041	-0.328
-139.458	800.000	0.065	-0.236
-138.443	15.468	0.169	-0.133
-137.429	800.000	0.142	0.414
-136.414	36.617	0.185	-0.164
-135.399	-44.542	-0.207	0.104
-134.385	-200.000	-0.000	0.149
-133.370	771.618	-0.150	0.412
-132.356	-200.000	-0.027	0.221
-131.341	482.379	-0.203	0.465
-130.326	-200.000	0.037	0.382
-129.312	-60.204	-0.197	-0.085
-128.297	-12.674	0.170	-0.111
-127.283	675.167	0.057	-0.148
-126.268	-151.054	-0.091	-0.007
-125.253	-56.267	0.211	-0.094
-124.239	-200.000	0.010	-0.114
-123.224	659.070	0.060	0.156
-122.210	-169.813	-0.423	-0.015
-121.195	-200.000	-0.015	0.218
