DTS Sentinel unit serial number:	SN413079Multiplexer serial number:	ORYXHardware model number:	OX4-SRSoftware version number:	ORYX F/W v4.00 Oryx Data Collector v3.7.2.0data status	okinstallation	princeton_trtdifferential loss correction	single-endedforward channel	channel 4reverse channel	N/Adate	2019/09/10time	21:55:11forward acquisition time	60.00reverse acquisition time	0.00gamma	496.2192k internal	0.2314k external	0.2314temperature offset calibration	0.9949default loss term (dB/km)	0.3790temperature slope calibration	1.0000multiplexer offset coefficient	1.0000multiplexer slope coefficient	1.0000fibre end	0.00T internal ref (°C)	30.78T ext. ref 1 (°C)	-0.31T ext. ref 2 (°C)	24.09length (m)	temperature (°C)	Stokes	anti-Stokes-747.200	-200.000	0.000	0.238
-746.185	-9.981	-0.192	-0.129
-745.171	-200.000	0.050	0.244
-744.156	81.208	-0.196	0.215
-743.142	-153.284	-0.106	-0.007
-742.127	-200.000	0.027	0.263
-741.112	800.000	-0.095	-0.402
-740.098	-45.691	-0.172	0.086
-739.083	487.262	0.230	0.532
-738.069	-200.000	-0.054	0.434
-737.054	98.946	0.232	-0.272
-736.039	-200.000	-0.020	-0.097
-735.025	724.165	0.057	0.153
-734.010	-173.064	-0.364	-0.011
-732.996	402.225	-0.081	0.173
-731.981	-66.349	-0.051	0.020
-730.966	117.369	-0.192	-0.239
-729.952	-92.100	-0.275	0.079
-728.937	106.908	-0.099	0.119
-727.923	-38.177	0.078	-0.042
-726.908	136.406	-0.181	0.240
-725.894	-120.004	-0.123	0.021
-724.879	244.956	0.066	-0.112
-723.864	371.991	-0.140	0.287
-722.850	-62.497	-0.342	-0.144
-721.835	108.239	0.222	-0.268
-720.821	116.125	-0.319	-0.396
-719.806	-200.000	-0.011	-0.106
-718.791	300.485	0.226	-0.422
-717.777	-36.994	-0.360	0.195
-716.762	800.000	-0.054	-0.210
-715.748	-28.629	-0.211	-0.123
-714.733	515.899	0.085	-0.202
-713.718	348.759	0.081	0.162
-712.704	41.885	-0.162	-0.149
-711.689	-200.000	-0.000	0.537
-710.675	-60.019	-0.312	-0.135
-709.660	-60.947	0.056	0.024
-708.645	-98.982	0.203	0.052
-707.631	-200.000	-0.004	-0.083
-706.616	-200.000	-0.014	0.132
-705.602	-200.000	-0.003	0.079
-704.587	-42.980	-0.411	-0.211
-703.572	113.244	0.243	-0.299
-702.558	686.690	0.071	0.188
-701.543	-38.121	0.351	-0.188
-700.529	-200.000	-0.014	0.156
-699.514	-168.584	0.145	-0.006
-698.499	-47.127	0.102	0.051
-697.485	-31.809	0.064	0.036
-696.470	-34.492	-0.040	0.022
-695.456	-200.000	-0.017	0.179
-694.441	-60.010	-0.135	0.058
-693.426	92.803	0.121	-0.138
-692.412	343.640	-0.035	0.070
-691.397	65.331	-0.304	-0.311
-690.383	-200.000	-0.002	0.070
-689.368	-33.875	0.090	0.050
-688.354	21.139	-0.194	-0.159
-687.339	758.948	-0.088	-0.242
-686.324	-10.073	-0.204	0.137
-685.310	-188.810	0.222	0.003
-684.295	-200.000	0.017	0.142
-683.281	-151.295	-0.172	0.013
-682.266	-12.673	-0.301	-0.198
-681.251	56.545	0.211	-0.207
-680.237	-142.626	-0.127	0.013
-679.222	75.469	0.127	-0.136
-678.208	239.085	0.100	0.169
-677.193	-0.065	0.197	0.142
-676.178	85.457	-0.260	-0.289
-675.164	263.860	0.087	-0.152
-674.149	25.052	0.153	0.129
-673.135	-17.894	0.228	-0.145
-672.120	115.704	-0.365	-0.451
-671.105	-49.818	-0.180	0.086
-670.091	-135.049	0.327	-0.040
-669.076	-16.415	0.175	-0.112
-668.062	-23.067	-0.401	0.244
-667.047	-200.000	-0.027	-0.467
-666.032	-73.860	-0.170	-0.063
-665.018	72.209	-0.004	-0.004
-664.003	800.000	0.068	0.257
-662.989	-10.838	-0.263	-0.176
-661.974	-200.000	0.009	-0.112
-660.959	800.000	-0.057	0.244
-659.945	66.189	-0.079	0.081
-658.930	48.087	-0.127	0.120
-657.916	479.137	0.161	-0.369
-656.901	-200.000	-0.052	-0.298
-655.886	-200.000	0.022	-0.362
-654.872	-200.000	0.036	-0.176
-653.857	-65.926	-0.333	0.134
-652.843	189.089	0.213	-0.322
-651.828	-109.897	0.184	-0.039
-650.814	59.733	0.110	0.109
-649.799	-200.000	-0.002	0.264
-648.784	-132.977	0.146	0.019
-647.770	260.646	-0.193	-0.337
-646.755	-113.196	-0.550	0.109
-645.741	800.000	-0.079	0.298
-644.726	800.000	0.046	0.143
-643.711	42.446	-0.028	-0.026
-642.697	-102.501	0.309	-0.075
-641.682	-49.446	-0.258	-0.124
-640.668	-200.000	-0.051	-0.478
-639.653	800.000	-0.052	-0.146
-638.638	-76.299	-0.436	0.155
-637.624	27.152	-0.305	-0.258
-636.609	-186.924	0.111	0.002
-635.595	-197.507	-0.223	-0.001
-634.580	-36.202	-0.309	-0.168
-633.565	101.086	-0.228	-0.267
-632.551	11.285	-0.245	0.189
-631.536	-200.000	-0.016	0.259
-630.522	-200.000	-0.000	-0.264
-629.507	-22.089	-0.229	-0.140
-628.492	31.903	0.181	-0.157
-627.478	800.000	-0.072	-0.267
-626.463	-177.680	0.277	-0.007
-625.449	106.589	0.063	0.075
-624.434	177.869	-0.150	-0.220
-623.419	-52.699	0.323	-0.150
-622.405	44.308	-0.218	0.202
-621.390	-55.369	0.148	0.067
-620.376	-114.185	0.236	0.046
-619.361	-54.964	0.226	-0.103
-618.346	-67.800	-0.409	-0.161
-617.332	-174.295	0.322	-0.009
-616.317	800.000	0.040	0.156
-615.303	313.909	-0.106	-0.202
-614.288	800.000	0.034	-0.133
-613.273	-76.103	-0.204	0.072
-612.259	78.077	0.146	-0.157
-611.244	-41.817	0.313	-0.162
-610.230	800.000	0.083	-0.243
-609.215	412.818	-0.125	0.268
-608.201	8.473	-0.180	0.136
-607.186	546.990	-0.059	0.143
-606.171	138.705	0.114	0.151
-605.157	-48.559	0.383	-0.186
-604.142	-200.000	-0.001	0.141
-603.128	-192.748	-0.329	-0.003
-602.113	800.000	-0.053	-0.152
-601.098	800.000	0.080	0.229
-600.084	-93.740	-0.228	0.063
-599.069	-200.000	-0.021	-0.129
-598.055	288.054	-0.116	-0.212
-597.040	40.340	-0.203	0.184
-596.025	-200.000	0.009	0.178
-595.011	-87.448	0.076	0.023
-593.996	-143.872	-0.623	0.059
-592.982	83.934	-0.097	-0.107
-591.967	-167.090	-0.208	0.009
-590.952	153.961	-0.114	-0.157
-589.938	-177.152	0.240	-0.006
-588.923	-139.794	0.149	-0.016
-587.909	-98.933	0.285	-0.073
-586.894	540.989	-0.100	-0.240
-585.879	13.646	0.293	0.230
-584.865	800.000	-0.061	0.172
-583.850	-121.422	-0.204	-0.034
-582.836	-117.308	-0.041	-0.007
-581.821	-200.000	0.010	0.069
-580.806	9.597	0.327	-0.250
-579.792	800.000	0.045	-0.180
-578.777	-148.818	-0.421	0.034
-577.763	155.434	0.150	0.208
-576.748	571.763	-0.060	0.146
-575.733	-200.000	0.022	0.326
-574.719	117.838	-0.209	-0.259
-573.704	800.000	0.039	-0.164
-572.690	800.000	0.034	0.146
-571.675	-200.000	0.031	0.150
-570.661	-19.750	0.176	0.110
-569.646	800.000	-0.158	0.470
-568.631	-116.791	0.155	0.029
-567.617	-106.298	0.158	-0.036
-566.602	-136.270	-0.234	-0.028
-565.588	72.934	0.109	-0.114
-564.573	-153.617	0.262	-0.018
-563.558	-86.161	-0.118	0.037
-562.544	-200.000	0.001	0.243
-561.529	78.001	-0.199	-0.214
-560.515	20.940	-0.082	-0.067
-559.500	379.948	0.144	-0.297
-558.485	-122.523	-0.154	0.025
-557.471	105.026	0.127	0.151
-556.456	-200.000	0.012	-0.167
-555.442	330.390	-0.080	-0.155
-554.427	92.878	-0.160	-0.182
-553.412	-157.027	-0.385	-0.024
-552.398	800.000	-0.056	-0.213
-551.383	-200.000	0.023	-0.158
-550.369	-200.000	-0.050	-0.396
-549.354	-39.820	-0.032	-0.017
-548.339	2.146	-0.134	-0.097
-547.325	-200.000	-0.005	-0.021
-546.310	522.091	-0.046	-0.109
-545.296	-2.507	-0.353	0.249
-544.281	-200.000	0.023	-0.108
-543.266	113.842	-0.202	0.246
-542.252	-51.131	-0.208	-0.098
-541.237	-200.000	-0.002	-0.038
-540.223	-28.366	0.020	-0.012
-539.208	-44.092	-0.379	-0.191
-538.193	-200.000	-0.005	0.144
-537.179	-200.000	0.029	0.148
-536.164	-93.509	-0.022	0.006
-535.150	-200.000	0.000	0.210
-534.135	-200.000	-0.091	-0.476
-533.121	74.920	0.102	0.108
-532.106	-194.327	-0.263	-0.002
-531.091	-59.993	0.083	0.036
-530.077	-26.248	-0.203	0.120
-529.062	-129.078	0.188	0.026
-528.048	104.176	-0.159	0.188
-527.033	-142.129	0.169	0.017
-526.018	43.395	-0.260	0.239
-525.004	128.395	-0.133	-0.171
-523.989	800.000	0.034	-0.097
-522.975	434.532	0.109	0.237
-521.960	31.374	-0.244	-0.211
-520.945	-125.013	0.393	0.061
-519.931	72.279	-0.103	-0.108
-518.916	469.354	0.136	-0.306
-517.902	-37.957	-0.183	0.098
-516.887	-173.324	0.416	-0.013
-515.872	-127.660	-0.188	-0.027
-514.858	-75.015	0.249	-0.090
-513.843	44.277	-0.157	-0.144
-512.829	168.350	-0.092	0.132
-511.814	83.244	-0.040	-0.044
-510.799	307.316	-0.157	0.294
-509.785	2.714	-0.274	-0.199
-508.770	-174.864	-0.055	-0.002
-507.756	800.000	-0.100	-0.351
-506.741	106.712	0.177	-0.211
-505.726	-200.000	-0.012	0.340
-504.712	122.147	0.115	0.144
-503.697	-200.000	0.044	-0.217
-502.683	-88.779	0.263	0.078
-501.668	240.571	0.069	0.116
-500.653	-162.277	-0.149	0.007
-499.639	800.000	0.084	-0.262
-498.624	-122.502	-0.243	-0.040
-497.610	199.893	-0.073	-0.113
-496.595	-76.759	0.107	0.038
-495.581	-33.954	-0.260	0.144
-494.566	620.599	0.126	0.318
-493.551	14.560	-0.104	0.081
-492.537	376.897	0.092	-0.188
-491.522	308.978	0.101	0.189
-490.508	800.000	0.103	-0.391
-489.493	-200.000	-0.007	-0.242
-488.478	-70.883	0.225	-0.085
-487.464	72.832	0.082	0.086
-486.449	-9.499	-0.194	0.130
-485.435	-27.862	0.100	-0.058
-484.420	68.033	0.037	-0.038
-483.405	233.354	0.211	0.348
-482.391	8.086	0.131	-0.098
-481.376	-54.304	0.184	0.084
-480.362	-41.153	-0.062	0.032
-479.347	-68.981	0.275	-0.106
-478.332	800.000	-0.017	-0.064
-477.318	-200.000	-0.074	0.432
-476.303	14.927	0.122	0.096
-475.289	-167.675	0.240	-0.010
-474.274	-29.969	-0.097	0.055
-473.259	263.131	0.087	0.152
-472.245	-135.551	0.312	-0.037
-471.230	-77.471	0.292	0.102
-470.216	-38.395	-0.171	0.091
-469.201	800.000	-0.030	-0.099
-468.186	180.108	-0.125	-0.183
-467.172	53.366	-0.177	-0.171
-466.157	42.835	0.219	-0.200
-465.143	800.000	-0.034	0.116
-464.128	-146.607	-0.207	0.018
-463.113	334.590	0.106	0.205
-462.099	-122.798	0.295	0.048
-461.084	-200.000	-0.048	0.304
-460.070	800.000	-0.063	-0.225
-459.055	214.585	-0.039	0.062
-458.040	800.000	-0.101	0.315
-457.026	142.424	-0.077	-0.103
-456.011	800.000	-0.107	-0.299
-454.997	800.000	0.051	-0.142
-453.982	110.971	0.069	-0.084
-452.968	59.646	-0.305	-0.301
-451.953	65.727	0.169	0.172
-450.938	-200.000	0.000	0.226
-449.924	-118.714	0.190	0.034
-448.909	213.051	-0.070	0.111
-447.895	-47.911	0.286	0.139
-446.880	64.367	0.166	-0.168
-445.865	-31.154	-0.172	-0.097
-444.851	-48.908	-0.284	-0.137
-443.836	-200.000	-0.001	0.113
-442.822	-27.189	0.274	-0.160
-441.807	-101.820	-0.268	-0.065
-440.792	-117.051	-0.203	0.037
-439.778	-200.000	0.009	0.141
-438.763	-66.182	0.005	-0.002
-437.749	-200.000	-0.002	0.205
-436.734	-165.198	-0.065	-0.003
-435.719	141.148	-0.198	-0.262
-434.705	-200.000	0.107	0.519
-433.690	-200.000	-0.054	-0.258
-432.676	-13.822	0.115	0.074
-431.661	-200.000	-0.034	0.327
-430.646	447.866	0.076	0.167
-429.632	-167.824	0.175	0.007
-428.617	158.111	0.118	0.164
-427.603	163.436	0.149	0.209
-426.588	800.000	-0.030	-0.090
-425.573	113.323	-0.145	-0.177
-424.559	-200.000	-0.037	-0.265
-423.544	93.023	0.046	-0.052
-422.530	-159.304	0.327	0.018
-421.515	18.066	0.268	-0.214
-420.500	86.419	0.217	-0.240
-419.486	800.000	-0.056	0.187
-418.471	41.112	0.074	0.067
-417.457	173.751	-0.094	-0.136
-416.442	15.195	0.215	-0.168
-415.428	67.318	0.083	-0.085
-414.413	-55.522	-0.257	0.115
-413.398	-45.254	-0.125	0.062
-412.384	-114.508	0.016	0.003
-411.369	800.000	-0.040	-0.164
-410.355	-161.552	0.131	-0.007
-409.340	-63.835	0.169	-0.069
-408.325	800.000	0.073	0.232
-407.311	361.040	-0.143	0.287
-406.296	-153.765	0.172	0.012
-405.282	-193.676	0.184	-0.002
-404.267	14.641	0.259	0.202
-403.252	174.320	-0.058	-0.083
-402.238	-160.848	0.384	0.020
-401.223	-131.935	-0.264	-0.035
-400.209	-92.235	-0.557	0.157
-399.194	-118.226	0.394	0.070
-398.179	-4.647	-0.136	0.094
-397.165	80.679	0.169	-0.182
-396.150	24.962	0.111	-0.092
-395.136	124.893	0.136	-0.172
-394.121	-82.714	0.042	0.014
-393.106	439.601	0.085	0.186
-392.092	800.000	-0.063	-0.223
-391.077	-161.232	-0.090	-0.005
-390.063	-7.977	0.248	-0.168
-389.048	123.584	-0.049	0.062
-388.033	-104.625	0.175	0.040
-387.019	-181.307	0.298	-0.006
-386.004	-200.000	0.016	-0.263
-384.990	-200.000	-0.015	-0.229
-383.975	-176.568	-0.148	0.004
-382.960	93.539	-0.273	-0.309
-381.946	621.459	-0.038	-0.096
-380.931	-42.716	-0.096	0.049
-379.917	30.353	0.270	0.231
-378.902	352.001	0.134	0.265
-377.888	102.567	-0.162	0.189
-376.873	-38.683	-0.084	-0.044
-375.858	109.065	0.073	0.088
-374.844	-100.963	0.367	-0.090
-373.829	800.000	0.058	0.180
-372.815	21.302	0.207	0.168
-371.800	-142.933	0.218	-0.021
-370.785	-200.000	0.006	0.066
-369.771	57.883	0.242	0.236
-368.756	-194.789	0.332	0.003
-367.742	295.724	-0.099	0.182
-366.727	531.872	0.061	-0.145
-365.712	-200.000	-0.003	0.349
-364.698	-142.333	-0.221	-0.022
-363.683	175.178	0.141	-0.204
-362.669	-71.063	0.099	-0.037
-361.654	31.075	-0.109	0.093
-360.639	-17.003	0.058	-0.036
-359.625	140.738	-0.128	0.169
-358.610	-200.000	0.009	-0.210
-357.596	-136.950	0.226	0.026
-356.581	-128.928	0.141	0.020
-355.566	-81.641	0.245	0.080
-354.552	800.000	0.057	0.214
-353.537	42.598	0.053	0.048
-352.523	22.545	-0.316	0.258
-351.508	-96.127	-0.224	0.059
-350.493	-200.000	0.027	0.190
-349.479	-200.000	-0.023	-0.198
-348.464	343.897	-0.290	-0.568
-347.450	-79.814	0.091	0.031
-346.435	786.684	-0.085	-0.234
-345.420	-96.178	0.236	-0.063
-344.406	451.813	0.131	0.288
-343.391	-64.719	-0.105	-0.042
-342.377	88.575	-0.014	-0.016
-341.362	473.229	-0.161	0.362
-340.348	-175.769	0.297	-0.008
-339.333	387.334	-0.035	-0.072
-338.318	161.439	0.243	-0.338
-337.304	43.126	0.157	0.142
-336.289	800.000	-0.064	0.235
-335.275	-118.311	0.321	0.057
-334.260	-200.000	-0.068	0.313
-333.245	-38.766	0.133	-0.070
-332.231	41.201	0.124	-0.112
-331.216	800.000	-0.036	-0.130
-330.202	133.132	0.157	0.202
-329.187	-200.000	-0.047	0.323
-328.172	-53.171	-0.113	0.052
-327.158	-16.980	-0.421	-0.265
-326.143	460.690	0.246	-0.547
-325.129	800.000	0.051	0.190
-324.114	800.000	-0.010	-0.037
-323.099	162.316	-0.215	0.301
-322.085	58.872	0.152	-0.149
-321.070	-200.000	0.028	0.191
-320.056	-200.000	0.005	0.126
-319.041	800.000	0.046	0.188
-318.026	800.000	-0.059	0.182
-317.012	800.000	0.079	-0.255
-315.997	-71.507	0.129	0.048
-314.983	1.292	-0.136	-0.097
-313.968	-109.685	-0.096	-0.020
-312.953	-137.374	-0.212	-0.024
-311.939	-63.395	0.048	-0.020
-310.924	-28.331	0.446	0.257
-309.910	16.310	0.034	0.026
-308.895	-200.000	-0.031	0.156
-307.880	9.156	-0.257	-0.193
-306.866	-152.001	0.173	0.013
-305.851	-200.000	0.006	0.107
-304.837	8.047	0.104	-0.078
-303.822	-57.424	-0.366	0.160
-302.807	-62.735	0.225	0.093
-301.793	8.791	-0.166	0.125
-300.778	-16.841	0.042	-0.026
-299.764	-122.966	-0.240	0.038
-298.749	-200.000	-0.015	-0.143
-297.735	139.998	0.084	0.110
-296.720	587.004	0.049	0.121
-295.705	800.000	-0.074	-0.226
-294.691	269.931	0.133	0.232
-293.676	-29.806	-0.362	-0.205
-292.662	209.173	0.191	-0.297
-291.647	-118.792	0.116	-0.020
-290.632	-111.189	-0.174	-0.035
-289.618	574.623	-0.146	-0.356
-288.603	-144.508	0.067	0.006
-287.589	-200.000	-0.007	-0.054
-286.574	-184.140	-0.309	-0.005
-285.559	-21.008	-0.166	-0.101
-284.545	-200.000	-0.020	-0.235
-283.530	34.100	-0.105	-0.091
-282.516	-43.928	0.083	-0.042
-281.501	16.860	-0.217	0.171
-280.486	306.244	-0.100	0.184
-279.472	71.620	-0.107	-0.110
-278.457	367.517	0.107	0.214
-277.443	-200.000	-0.038	-0.226
-276.428	-9.011	-0.217	-0.145
-275.413	-98.963	0.412	-0.104
-274.399	449.614	-0.126	0.276
-273.384	109.973	0.038	-0.045
-272.370	-93.262	-0.265	0.073
-271.355	-200.000	0.074	0.486
-270.340	-96.455	0.319	0.084
-269.326	800.000	-0.058	-0.184
-268.311	280.551	0.111	-0.198
-267.297	152.908	0.148	0.202
-266.282	-110.556	0.067	0.014
-265.267	-119.392	0.201	0.035
-264.253	-200.000	-0.037	-0.306
-263.238	-8.251	-0.262	-0.176
-262.224	-8.657	-0.281	-0.188
-261.209	34.598	0.140	0.122
-260.195	327.669	-0.236	0.450
-259.180	-200.000	-0.013	0.150
-258.165	-42.289	-0.178	-0.091
-257.151	599.868	-0.099	-0.244
-256.136	-200.000	0.033	-0.233
-255.122	800.000	0.071	0.284
-254.107	-200.000	-0.033	0.178
-253.092	-130.226	-0.281	0.038
-252.078	-200.000	-0.016	0.336
-251.063	26.792	-0.159	-0.132
-250.049	-95.550	0.244	-0.065
-249.034	800.000	0.047	0.177
-248.019	571.997	0.010	-0.025
-247.005	-200.000	0.048	0.319
-245.990	255.179	0.064	-0.109
-244.976	-200.000	0.015	-0.173
-243.961	-150.490	0.141	-0.011
-242.946	495.978	0.067	-0.152
-241.932	204.433	0.220	0.338
-240.917	720.791	-0.034	-0.090
-239.903	67.101	-0.180	0.183
-238.888	800.000	0.021	-0.065
-237.873	64.568	-0.139	0.140
-236.859	519.134	0.023	-0.052
-235.844	2.447	0.174	-0.125
-234.830	-119.959	0.104	0.018
-233.815	-200.000	-0.020	0.277
-232.800	71.837	-0.069	-0.072
-231.786	74.331	-0.100	-0.104
-230.771	81.186	-0.084	-0.090
-229.757	104.425	0.117	-0.136
-228.742	196.359	-0.209	-0.316
-227.727	340.443	0.084	-0.164
-226.713	29.019	0.191	0.161
-225.698	-86.914	0.176	0.053
-224.684	85.187	-0.160	-0.174
-223.669	-17.954	0.341	-0.212
-222.655	800.000	-0.091	-0.253
-221.640	125.108	-0.169	0.211
-220.625	-176.664	0.149	-0.004
-219.611	590.654	-0.080	-0.197
-218.596	588.518	0.048	0.117
-217.582	97.419	0.100	0.114
-216.567	-200.000	-0.017	0.089
-215.552	-77.966	-0.035	-0.012
-214.538	252.155	-0.066	-0.112
-213.523	-21.503	0.203	-0.123
-212.509	96.392	0.206	0.234
-211.494	10.217	0.106	-0.080
-210.479	-162.274	-0.244	-0.012
-209.465	800.000	-0.057	-0.168
-208.450	-41.221	-0.056	-0.029
-207.436	13.508	0.082	0.063
-206.421	-200.000	-0.019	0.129
-205.406	-23.153	0.278	0.166
-204.392	-200.000	0.021	-0.134
-203.377	520.232	-0.034	-0.080
-202.363	493.014	-0.135	0.307
-201.348	-200.000	-0.047	-0.368
-200.333	-35.997	0.289	-0.155
-199.319	800.000	0.048	-0.156
-198.304	29.564	-0.212	0.179
-197.290	-49.346	-0.339	-0.160
-196.275	-200.000	-0.004	-0.145
-195.260	800.000	-0.064	-0.268
-194.246	25.457	0.259	0.214
-193.231	-200.000	-0.078	0.363
-192.217	-200.000	-0.020	-0.140
-191.202	-93.490	-0.142	-0.039
-190.187	-9.218	-0.263	0.174
-189.173	456.277	-0.117	0.258
-188.158	-156.068	-0.039	-0.002
-187.144	27.229	0.199	0.165
-186.129	80.915	-0.039	0.042
-185.114	-30.873	0.063	0.035
-184.100	-67.433	-0.250	0.097
-183.085	104.799	-0.059	0.070
-182.071	-86.893	0.032	0.010
-181.056	-51.040	0.239	0.111
-180.042	800.000	0.009	-0.036
-179.027	267.069	-0.200	-0.346
-178.012	1.282	0.232	0.165
-176.998	191.358	-0.167	-0.250
-175.983	-84.649	-0.080	0.025
-174.969	200.231	-0.132	-0.201
-173.954	233.790	0.134	0.219
-172.939	64.432	0.064	0.064
-171.925	-23.820	-0.157	0.093
-170.910	-112.416	0.081	-0.016
-169.896	800.000	0.057	-0.179
-168.881	-45.142	0.325	0.160
-167.866	-123.067	-0.291	0.046
-166.852	800.000	-0.080	-0.234
-165.837	-200.000	-0.003	-0.038
-164.823	-200.000	-0.040	-0.180
-163.808	220.744	0.130	0.207
-162.793	-131.290	0.105	-0.014
-161.779	-67.112	-0.245	0.096
-160.764	244.077	-0.101	-0.168
-159.750	800.000	-0.052	-0.203
-158.735	-200.000	0.235	-0.000
-157.720	-127.682	0.387	0.055
-156.706	88.354	0.216	0.237
-155.691	168.097	0.110	0.155
-154.677	108.258	-0.102	-0.120
-153.662	115.792	0.270	0.327
-152.647	316.083	-0.092	0.172
-151.633	-82.916	-0.251	0.080
-150.618	-200.000	-0.073	0.349
-149.604	-200.000	0.000	-0.104
-148.589	-70.660	-0.264	-0.099
-147.574	66.151	-0.182	0.183
-146.560	265.729	0.078	-0.135
-145.545	312.851	0.148	0.275
-144.531	-200.000	-0.005	0.110
-143.516	-200.000	0.021	0.435
-142.502	800.000	-0.090	-0.314
-141.487	-145.547	-0.213	0.019
-140.472	237.779	0.087	0.144
-139.458	140.773	-0.070	-0.091
-138.443	251.184	0.128	-0.215
-137.429	-146.291	-0.155	0.013
-136.414	800.000	0.058	0.205
-135.399	88.923	-0.074	0.081
-134.385	90.006	0.117	-0.129
-133.370	69.142	0.098	0.099
-132.356	-200.000	0.012	-0.168
-131.341	-27.426	-0.137	0.079
-130.326	-90.931	-0.080	-0.023
-129.312	579.401	-0.063	0.152
-128.297	-37.529	-0.307	-0.162
-127.283	45.327	0.283	-0.258
-126.268	164.541	-0.157	0.219
-125.253	-30.132	-0.248	0.140
-124.239	-104.145	-0.259	-0.060
-123.224	-18.752	0.200	0.123
-122.210	-200.000	0.010	0.169
