DTS Sentinel unit serial number:	SN413079Multiplexer serial number:	ORYXHardware model number:	OX4-SRSoftware version number:	ORYX F/W v4.00 Oryx Data Collector v3.7.2.0data status	okinstallation	princeton_trtdifferential loss correction	single-endedforward channel	channel 4reverse channel	N/Adate	2019/09/11time	13:11:11forward acquisition time	60.00reverse acquisition time	0.00gamma	496.2192k internal	0.2282k external	0.2282temperature offset calibration	0.9999default loss term (dB/km)	0.3790temperature slope calibration	1.0000multiplexer offset coefficient	1.0000multiplexer slope coefficient	1.0000fibre end	0.00T internal ref (°C)	41.91T ext. ref 1 (°C)	0.77T ext. ref 2 (°C)	37.81length (m)	temperature (°C)	Stokes	anti-Stokes-747.200	88.711	0.153	0.175
-746.185	800.000	-0.063	0.185
-745.171	-113.994	-0.186	-0.037
-744.156	-63.129	-0.229	0.097
-743.142	-200.000	0.036	0.189
-742.127	-11.619	-0.241	0.163
-741.112	-200.000	-0.002	-0.141
-740.098	800.000	0.080	0.297
-739.083	-35.499	-0.348	0.194
-738.069	-112.022	-0.344	0.071
-737.054	-200.000	0.016	-0.096
-736.039	-127.351	-0.156	0.023
-735.025	207.506	0.105	-0.168
-734.010	85.086	-0.120	-0.135
-732.996	-101.587	-0.272	-0.068
-731.981	-20.455	-0.309	0.195
-730.966	154.068	0.167	0.236
-729.952	-0.763	-0.179	0.130
-728.937	75.342	-0.074	-0.080
-727.923	-86.945	-0.178	0.056
-726.908	-200.000	0.025	-0.194
-725.894	651.830	-0.117	-0.307
-724.879	-91.606	-0.399	-0.117
-723.864	-21.919	0.088	0.055
-722.850	800.000	0.042	-0.151
-721.835	-200.000	0.044	-0.300
-720.821	800.000	-0.094	-0.281
-719.806	476.234	-0.135	-0.312
-718.791	-122.238	-0.075	0.013
-717.777	800.000	-0.030	0.085
-716.762	-140.160	-0.215	-0.023
-715.748	800.000	0.073	0.246
-714.733	-59.877	-0.140	-0.061
-713.718	-53.824	-0.189	-0.089
-712.704	753.347	0.032	-0.089
-711.689	-55.926	-0.382	0.175
-710.675	-108.268	0.417	0.092
-709.660	-40.857	0.175	0.093
-708.645	16.136	0.025	0.020
-707.631	62.965	0.223	0.229
-706.616	800.000	-0.081	0.231
-705.602	20.919	0.153	-0.127
-704.587	94.228	0.234	-0.272
-703.572	42.096	-0.264	-0.246
-702.558	336.903	-0.054	0.107
-701.543	-200.000	0.025	-0.225
-700.529	-114.909	0.307	-0.060
-699.514	447.583	0.094	0.213
-698.499	-77.388	0.106	-0.038
-697.485	-200.000	0.025	0.170
-696.470	11.526	-0.201	-0.158
-695.456	317.192	-0.107	-0.207
-694.441	-200.000	-0.008	-0.069
-693.426	-5.440	0.205	-0.144
-692.412	-200.000	-0.053	-0.492
-691.397	452.896	-0.029	0.067
-690.383	-11.712	-0.163	-0.110
-689.368	-200.000	0.030	-0.222
-688.354	42.014	0.224	0.209
-687.339	-66.479	-0.054	-0.022
-686.324	47.210	0.133	0.127
-685.310	-5.123	0.103	0.073
-684.295	645.585	-0.139	0.363
-683.281	237.736	-0.064	-0.108
-682.266	631.541	-0.157	-0.409
-681.251	-102.720	0.120	-0.029
-680.237	661.060	0.110	-0.291
-679.222	800.000	0.072	-0.256
-678.208	30.664	0.223	0.195
-677.193	800.000	-0.083	-0.248
-676.178	-140.656	-0.030	-0.003
-675.164	78.581	-0.107	0.118
-674.149	58.155	0.146	-0.146
-673.135	133.261	0.106	0.141
-672.120	44.811	-0.170	-0.161
-671.105	67.672	0.258	-0.270
-670.091	-83.041	-0.177	-0.058
-669.076	800.000	-0.052	-0.226
-668.062	-117.535	0.264	-0.049
-667.047	-19.327	-0.036	-0.023
-666.032	800.000	0.100	-0.293
-665.018	130.645	0.144	-0.189
-664.003	685.690	-0.024	-0.064
-662.989	-171.439	0.318	-0.011
-661.974	22.366	0.109	0.091
-660.959	-55.974	-0.184	-0.084
-659.945	-151.520	0.217	0.017
-658.930	-200.000	-0.016	-0.221
-657.916	226.999	0.284	-0.473
-656.901	-200.000	-0.012	0.063
-655.886	-42.745	-0.185	-0.096
-654.872	-166.254	0.108	0.005
-653.857	239.867	0.035	-0.060
-652.843	-116.776	-0.108	0.020
-651.828	290.402	0.049	0.090
-650.814	-133.132	-0.425	-0.055
-649.799	99.566	-0.234	-0.277
-648.784	-114.293	-0.267	0.053
-647.770	-108.409	-0.108	-0.024
-646.755	-200.000	0.036	-0.253
-645.741	-101.014	-0.312	0.078
-644.726	-140.145	-0.116	0.013
-643.711	501.499	0.042	0.100
-642.697	365.222	0.070	-0.145
-641.682	-55.575	-0.207	-0.095
-640.668	12.382	-0.279	0.220
-639.653	-119.391	-0.235	-0.042
-638.638	592.443	-0.070	-0.178
-637.624	-180.429	0.254	0.005
-636.609	420.879	-0.026	0.056
-635.595	-200.000	-0.024	-0.274
-634.580	370.101	-0.035	-0.073
-633.565	54.045	0.230	-0.227
-632.551	12.391	0.031	-0.025
-631.536	800.000	-0.009	0.035
-630.522	192.519	0.058	0.089
-629.507	-137.257	-0.270	0.031
-628.492	-143.914	-0.460	0.044
-627.478	54.303	-0.323	0.318
-626.463	216.514	-0.145	-0.236
-625.449	122.463	-0.317	-0.405
-624.434	-25.228	0.064	0.039
-623.419	24.198	0.065	-0.055
-622.405	-93.757	0.334	-0.094
-621.390	530.882	-0.223	-0.539
-620.376	57.104	0.097	-0.097
-619.361	-136.373	-0.237	-0.028
-618.346	39.517	0.086	0.079
-617.332	-98.577	0.241	-0.063
-616.317	75.007	-0.232	0.250
-615.303	-112.341	-0.219	0.045
-614.288	293.109	-0.099	-0.184
-613.273	-55.037	-0.165	-0.076
-612.259	225.451	-0.222	-0.368
-611.244	248.018	0.193	-0.334
-610.230	123.079	0.187	0.239
-609.215	1.373	0.033	0.024
-608.201	800.000	0.031	-0.099
-607.186	-200.000	-0.008	0.081
-606.171	-85.098	-0.241	-0.077
-605.157	800.000	0.033	0.104
-604.142	16.404	0.005	-0.004
-603.128	-107.367	0.220	0.049
-602.113	0.357	0.153	-0.112
-601.098	-110.748	0.187	0.039
-600.084	800.000	0.015	0.065
-599.069	-103.143	0.119	0.029
-598.055	365.587	0.048	-0.100
-597.040	-46.288	0.053	0.027
-596.025	350.325	-0.083	-0.169
-595.011	82.363	-0.269	-0.298
-593.996	396.261	0.130	0.278
-592.982	556.726	0.058	-0.143
-591.967	-164.468	0.164	-0.008
-590.952	-109.369	-0.080	0.017
-589.938	-20.714	-0.122	0.077
-588.923	712.324	-0.063	0.172
-587.909	-200.000	-0.035	-0.234
-586.894	191.115	-0.179	0.276
-585.879	800.000	-0.034	0.103
-584.865	481.906	0.112	-0.259
-583.850	-30.524	0.345	-0.200
-582.836	800.000	-0.053	-0.177
-581.821	17.518	-0.206	0.167
-580.806	-183.508	-0.139	-0.002
-579.792	142.971	-0.135	0.183
-578.777	-123.659	-0.179	-0.029
-577.763	62.126	-0.147	-0.150
-576.748	-108.855	-0.084	-0.018
-575.733	-200.000	-0.022	-0.241
-574.719	-152.872	0.191	0.014
-573.704	107.192	-0.123	0.149
-572.690	800.000	0.116	0.357
-571.675	-200.000	0.007	-0.257
-570.661	140.328	-0.156	-0.210
-569.646	212.948	-0.176	0.283
-568.631	129.152	0.216	-0.282
-567.617	294.983	-0.028	0.053
-566.602	-36.873	-0.225	0.123
-565.588	-200.000	0.017	0.219
-564.573	800.000	-0.056	0.227
-563.558	-166.854	0.400	0.017
-562.544	-8.200	-0.193	0.133
-561.529	126.359	-0.040	0.052
-560.515	-200.000	-0.030	-0.155
-559.500	-67.645	0.095	-0.038
-558.485	15.750	-0.104	-0.083
-557.471	-89.520	-0.104	-0.031
-556.456	171.051	-0.194	0.284
-555.442	-200.000	0.013	0.134
-554.427	-165.422	0.313	0.014
-553.412	-60.452	-0.616	0.267
-552.398	-73.262	-0.225	0.084
-551.383	205.100	-0.115	-0.182
-550.369	-138.466	-0.156	-0.018
-549.354	-78.100	0.034	-0.012
-548.339	-200.000	0.033	-0.399
-547.325	-140.041	-0.418	-0.045
-546.310	231.998	0.145	-0.242
-545.296	382.471	0.123	-0.258
-544.281	-200.000	0.010	-0.250
-543.266	-161.718	-0.235	-0.012
-542.252	198.252	0.140	0.218
-541.237	-200.000	0.044	-0.218
-540.223	-104.437	0.182	0.043
-539.208	-151.228	0.185	0.014
-538.193	9.898	0.315	0.244
-537.179	189.437	-0.149	0.228
-536.164	800.000	-0.143	0.410
-535.150	-150.040	-0.342	0.027
-534.135	-41.963	0.222	0.116
-533.121	-200.000	-0.047	0.258
-532.106	-75.306	-0.362	0.132
-531.091	-47.057	0.298	0.148
-530.077	-69.658	0.098	-0.038
-529.062	-121.738	-0.210	-0.035
-528.048	-171.002	0.135	-0.005
-527.033	800.000	-0.098	0.294
-526.018	-4.416	0.060	0.042
-525.004	201.999	0.156	-0.245
-523.989	-200.000	0.017	0.366
-522.975	-57.888	0.049	0.022
-521.960	-200.000	-0.024	-0.133
-520.945	-200.000	0.013	0.121
-519.931	-93.142	0.053	-0.015
-518.916	-200.000	-0.040	0.250
-517.902	370.041	0.054	0.111
-516.887	-63.883	-0.147	-0.061
-515.872	28.817	-0.211	-0.182
-514.858	-200.000	0.053	-0.330
-513.843	-46.621	0.125	0.063
-512.829	-32.071	0.085	0.048
-511.814	-51.106	0.199	-0.095
-510.799	-107.327	-0.101	-0.023
-509.785	112.827	-0.295	-0.364
-508.770	800.000	0.073	-0.271
-507.756	-72.899	0.247	-0.092
-506.741	-200.000	0.097	0.441
-505.726	800.000	0.035	-0.117
-504.712	41.810	0.126	0.117
-503.697	36.445	-0.209	-0.188
-502.683	-156.592	-0.196	-0.012
-501.668	-79.360	-0.507	-0.175
-500.653	-124.581	-0.222	-0.035
-499.639	-32.834	0.198	0.112
-498.624	145.409	0.166	-0.226
-497.610	571.757	-0.156	-0.387
-496.595	-200.000	0.009	-0.079
-495.581	-200.000	-0.051	0.326
-494.566	172.858	-0.221	0.323
-493.551	-195.425	0.030	-0.000
-492.537	-94.235	0.140	-0.039
-491.522	-137.752	0.084	-0.010
-490.508	13.247	0.341	-0.269
-489.493	136.799	0.070	-0.093
-488.478	-9.401	0.183	0.124
-487.464	12.239	-0.277	-0.217
-486.449	-17.411	-0.281	-0.180
-485.435	474.920	0.065	0.150
-484.420	-147.434	-0.248	-0.021
-483.405	693.593	0.041	0.109
-482.391	-137.484	-0.216	0.025
-481.376	173.814	-0.171	0.251
-480.362	150.233	0.107	-0.148
-479.347	-106.191	-0.146	-0.033
-478.332	-76.945	0.077	-0.027
-477.318	-200.000	-0.025	-0.376
-476.303	547.428	0.066	-0.160
-475.289	53.008	-0.035	-0.034
-474.274	800.000	0.049	-0.139
-473.259	800.000	-0.047	-0.157
-472.245	-161.411	0.227	-0.012
-471.230	800.000	-0.076	0.292
-470.216	559.418	-0.096	0.235
-469.201	-90.032	-0.104	-0.031
-468.186	34.090	0.103	0.092
-467.172	-200.000	-0.025	0.189
-466.157	139.961	-0.123	-0.165
-465.143	17.944	0.188	-0.153
-464.128	-136.844	0.244	0.029
-463.113	-200.000	0.016	0.288
-462.099	-92.272	0.183	-0.052
-461.084	193.611	-0.133	0.205
-460.070	147.489	0.119	-0.163
-459.055	31.122	0.180	-0.157
-458.040	455.245	-0.164	-0.369
-457.026	-152.986	0.464	0.033
-456.011	-6.147	-0.101	0.070
-454.997	65.445	0.157	0.162
-453.982	-200.000	-0.007	0.118
-452.968	520.989	0.025	-0.060
-451.953	-119.939	-0.200	0.035
-450.938	363.490	0.053	0.109
-449.924	-200.000	-0.001	-0.234
-448.909	574.472	0.024	0.059
-447.895	149.342	-0.092	-0.126
-446.880	-80.936	-0.234	0.079
-445.865	-98.491	-0.143	-0.037
-444.851	727.201	-0.070	0.189
-443.836	-56.382	-0.306	0.138
-442.822	208.674	-0.094	0.149
-441.807	-200.000	0.043	0.195
-440.792	-200.000	0.007	0.034
-439.778	724.189	-0.127	0.344
-438.763	28.106	0.088	-0.075
-437.749	107.633	-0.184	-0.223
-436.734	-106.304	0.239	0.054
-435.719	800.000	-0.052	0.180
-434.705	146.399	-0.212	-0.289
-433.690	-133.295	0.346	0.044
-432.676	-77.019	0.336	-0.119
-431.661	-78.609	0.355	-0.123
-430.646	-26.398	0.263	-0.157
-429.632	-108.969	-0.451	0.098
-428.617	200.776	-0.074	-0.116
-427.603	-138.692	-0.031	0.003
-426.588	-200.000	0.007	0.147
-425.573	76.324	-0.467	0.502
-424.559	-71.073	-0.236	-0.090
-423.544	-200.000	0.034	0.159
-422.530	-149.565	-0.193	-0.015
-421.515	17.744	0.181	0.146
-420.500	-70.233	0.203	0.078
-419.486	6.225	0.209	0.157
-418.471	20.284	0.151	-0.124
-417.457	-0.393	0.428	0.309
-416.442	-200.000	0.009	-0.156
-415.428	-19.333	-0.097	0.061
-414.413	3.828	0.186	-0.138
-413.398	-62.345	-0.190	-0.080
-412.384	-143.085	-0.237	-0.023
-411.369	-99.708	0.426	0.108
-410.355	-104.149	0.103	0.024
-409.340	-200.000	-0.031	0.330
-408.325	36.676	-0.087	0.078
-407.311	366.271	-0.067	0.136
-406.296	-135.212	-0.087	0.011
-405.282	40.054	-0.379	-0.346
-404.267	800.000	0.133	0.426
-403.252	689.825	-0.079	0.211
-402.238	-42.725	0.218	0.113
-401.223	35.049	0.140	0.124
-400.209	94.003	-0.119	-0.137
-399.194	-200.000	0.025	0.183
-398.179	279.517	-0.183	-0.331
-397.165	-200.000	-0.014	-0.239
-396.150	565.203	-0.097	-0.237
-395.136	800.000	-0.031	0.108
-394.121	800.000	-0.025	-0.092
-393.106	-6.426	0.596	0.412
-392.092	171.918	-0.104	0.152
-391.077	800.000	0.026	0.100
-390.063	-49.431	0.294	-0.142
-389.048	-12.597	0.285	0.189
-388.033	-102.300	0.301	0.073
-387.019	-1.509	0.125	-0.090
-386.004	-200.000	-0.076	-0.382
-384.990	646.390	0.125	-0.322
-383.975	39.555	-0.085	0.077
-382.960	-59.891	-0.272	0.118
-381.946	15.843	-0.242	0.193
-380.931	83.777	0.124	0.137
-379.917	334.701	0.182	0.358
-378.902	-165.271	0.052	0.002
-377.888	-200.000	-0.018	0.154
-376.873	800.000	-0.034	0.134
-375.858	800.000	0.083	0.344
-374.844	154.626	0.107	-0.149
-373.829	-12.047	-0.184	-0.122
-372.815	-97.818	0.235	-0.062
-371.800	-100.553	-0.023	-0.006
-370.785	-48.716	-0.103	0.050
-369.771	796.490	-0.106	0.297
-368.756	-200.000	-0.058	-0.465
-367.742	29.483	0.151	-0.130
-366.727	253.789	-0.057	-0.099
-365.712	112.843	-0.004	-0.005
-364.698	-53.583	0.191	-0.088
-363.683	212.592	0.108	0.173
-362.669	126.111	-0.081	0.103
-361.654	130.805	0.017	-0.022
-360.639	50.969	-0.065	-0.062
-359.625	-59.532	-0.093	-0.040
-358.610	-67.250	-0.200	0.080
-357.596	152.988	0.012	0.017
-356.581	800.000	0.051	0.193
-355.566	-200.000	-0.050	-0.295
-354.552	800.000	0.080	0.294
-353.537	-200.000	0.038	0.192
-352.523	-73.906	-0.106	0.039
-351.508	3.278	0.270	0.199
-350.493	-51.410	-0.182	0.086
-349.479	152.020	-0.218	-0.301
-348.464	800.000	-0.040	0.147
-347.450	800.000	0.077	-0.271
-346.435	-95.031	0.245	-0.067
-345.420	211.679	-0.094	0.149
-344.406	166.080	-0.126	0.181
-343.391	-200.000	-0.077	-0.345
-342.377	29.653	-0.150	-0.129
-341.362	-200.000	-0.014	-0.323
-340.348	-56.280	-0.478	-0.215
-339.333	234.165	0.160	-0.267
-338.318	800.000	0.042	-0.164
-337.304	-117.345	0.269	-0.049
-336.289	-17.107	0.232	0.148
-335.275	-121.415	0.227	-0.038
-334.260	800.000	-0.052	0.210
-333.245	-200.000	0.027	0.376
-332.231	-200.000	0.032	-0.388
-331.216	-89.172	0.200	0.060
-330.202	35.672	-0.049	-0.043
-329.187	-200.000	-0.000	0.258
-328.172	38.410	0.253	0.228
-327.158	-132.474	-0.135	0.018
-326.143	-26.678	0.039	-0.023
-325.129	58.933	0.122	0.121
-324.114	211.073	-0.159	-0.254
-323.099	766.033	-0.020	0.055
-322.085	-200.000	-0.027	-0.363
-321.070	-27.585	-0.080	0.047
-320.056	-22.003	-0.259	-0.159
-319.041	145.300	-0.079	-0.108
-318.026	-113.686	0.283	-0.056
-317.012	132.533	0.129	0.169
-315.997	-24.392	-0.120	-0.072
-314.983	648.131	0.105	-0.272
-313.968	-79.532	-0.345	-0.118
-312.953	-43.367	-0.035	-0.018
-311.939	104.193	-0.170	-0.202
-310.924	-49.134	-0.182	0.088
-309.910	-197.716	-0.350	0.002
-308.895	-46.988	0.105	0.052
-307.880	-84.394	0.224	-0.071
-306.866	-74.106	0.266	0.097
-305.851	49.269	0.079	-0.075
-304.837	-158.373	0.205	0.012
-303.822	-112.948	0.385	-0.077
-302.807	29.931	-0.242	-0.209
-301.793	-200.000	-0.014	-0.230
-300.778	800.000	-0.053	0.152
-299.764	-34.804	0.029	0.016
-298.749	-59.610	0.272	-0.118
-297.735	35.800	-0.058	-0.051
-296.720	652.133	-0.077	0.200
-295.705	-200.000	0.531	-0.001
-294.691	-9.965	-0.237	-0.159
-293.676	-200.000	-0.017	-0.151
-292.662	-142.023	0.138	-0.014
-291.647	133.983	0.069	-0.091
-290.632	70.167	0.109	0.113
-289.618	47.437	0.215	-0.203
-288.603	-80.087	0.381	0.129
-287.589	-200.000	-0.016	0.198
-286.574	-99.817	0.331	0.084
-285.559	-200.000	-0.020	-0.093
-284.545	-67.355	-0.123	-0.049
-283.530	66.065	-0.173	0.177
-282.516	269.468	-0.016	0.028
-281.501	-60.754	-0.168	0.072
-280.486	-200.000	-0.008	0.213
-279.472	-159.177	-0.196	-0.011
-278.457	-200.000	-0.012	0.127
-277.443	-103.066	0.452	0.108
-276.428	-155.806	-0.190	-0.012
-275.413	-183.679	-0.459	-0.008
-274.399	421.674	-0.065	-0.141
-273.384	800.000	0.085	0.246
-272.370	143.752	0.074	-0.099
-271.355	-200.000	0.022	0.395
-270.340	-200.000	-0.048	-0.254
-269.326	800.000	-0.064	-0.191
-268.311	-47.451	0.322	-0.158
-267.297	-200.000	0.057	-0.268
-266.282	317.560	-0.050	-0.096
-265.267	125.941	0.189	0.241
-264.253	-200.000	-0.052	-0.273
-263.238	548.025	0.064	0.154
-262.224	-200.000	-0.003	-0.224
-261.209	21.680	-0.250	-0.206
-260.195	-79.612	0.143	0.049
-259.180	-78.306	0.229	0.079
-258.165	-89.787	-0.056	-0.017
-257.151	-49.972	0.140	0.067
-256.136	-113.936	-0.436	-0.085
-255.122	-85.060	-0.225	-0.071
-254.107	507.961	0.180	0.421
-253.092	91.972	-0.126	0.142
-252.078	-114.250	-0.063	0.012
-251.063	-147.174	0.247	-0.021
-250.049	83.990	0.270	0.297
-249.034	-169.395	-0.186	-0.007
-248.019	-16.923	-0.275	0.175
-247.005	608.508	0.037	0.092
-245.990	288.144	0.119	0.217
-244.976	-112.637	0.071	0.014
-243.961	297.902	-0.078	-0.145
-242.946	-200.000	-0.011	0.250
-241.932	15.974	0.082	0.065
-240.917	82.458	0.248	-0.271
-239.903	-132.998	-0.136	-0.017
-238.888	-151.365	0.129	-0.010
-237.873	-32.830	0.064	0.036
-236.859	-18.312	-0.091	0.057
-235.844	-117.383	-0.179	-0.033
-234.830	13.325	-0.205	0.160
-233.815	182.935	0.137	0.204
-232.800	412.674	-0.076	-0.163
-231.786	-86.004	0.364	-0.113
-230.771	-118.291	-0.285	0.051
-229.757	-23.091	0.123	-0.075
-228.742	-200.000	0.017	-0.369
-227.727	-48.691	0.032	-0.016
-226.713	238.537	0.230	-0.385
-225.698	-200.000	0.020	0.585
-224.684	800.000	-0.018	0.064
-223.669	-98.748	-0.047	-0.012
-222.655	19.390	-0.264	-0.214
-221.640	-92.930	-0.280	0.079
-220.625	42.487	0.107	0.098
-219.611	-14.377	-0.074	0.048
-218.596	656.384	-0.093	0.240
-217.582	-153.182	0.100	-0.007
-216.567	800.000	-0.096	0.291
-215.552	-89.326	0.182	-0.054
-214.538	-200.000	0.037	0.175
-213.523	800.000	-0.049	0.174
-212.509	623.423	-0.108	-0.274
-211.494	-200.000	0.009	0.079
-210.479	-200.000	-0.015	-0.108
-209.465	-76.171	-0.239	-0.085
-208.450	161.809	0.230	-0.324
-207.436	237.432	-0.142	-0.237
-206.421	-124.586	0.235	0.037
-205.406	-150.758	-0.266	0.020
-204.392	-200.000	0.019	0.117
-203.377	-84.161	-0.176	-0.056
-202.363	48.214	0.287	-0.270
-201.348	-88.959	0.102	-0.030
-200.333	-130.981	-0.340	0.046
-199.319	164.827	0.225	0.320
-198.304	-42.412	0.089	-0.046
-197.290	-10.365	0.337	-0.225
-196.275	-185.478	0.284	-0.004
-195.260	326.383	0.084	0.163
-194.246	269.205	-0.098	0.172
-193.231	185.307	0.083	0.124
-192.217	-32.765	-0.252	0.141
-191.202	-168.700	0.146	-0.006
-190.187	125.037	-0.070	0.089
-189.173	-200.000	-0.001	-0.083
-188.158	337.669	0.066	-0.129
-187.144	-57.657	0.382	0.168
-186.129	-61.590	0.169	0.071
-185.114	91.877	0.102	0.115
-184.100	-103.673	0.109	0.026
-183.085	-51.006	0.154	-0.072
-182.071	-134.293	0.191	-0.024
-181.056	-109.937	-0.221	-0.047
-180.042	164.695	0.041	0.058
-179.027	-50.716	0.549	-0.260
-178.012	67.036	-0.057	-0.059
-176.998	737.145	-0.065	0.176
-175.983	800.000	-0.014	-0.048
-174.969	-93.573	-0.469	0.130
-173.954	-200.000	0.203	0.001
-172.939	-117.671	-0.190	0.034
-171.925	-107.871	0.338	-0.074
-170.910	800.000	0.057	-0.178
-169.896	-200.000	0.048	-0.360
-168.881	-27.682	0.094	0.055
-167.866	-200.000	0.028	-0.173
-166.852	-200.000	-0.007	-0.056
-165.837	-3.989	0.307	0.214
-164.823	-11.432	-0.363	-0.240
-163.808	-200.000	-0.019	0.340
-162.793	661.187	0.178	0.461
-161.779	-62.608	-0.278	0.116
-160.764	800.000	-0.082	0.296
-159.750	-200.000	0.438	0.001
-158.735	-32.599	-0.178	-0.100
-157.720	-131.455	0.031	-0.004
-156.706	-75.918	-0.165	0.059
-155.691	-54.741	0.366	0.166
-154.677	-200.000	0.013	0.309
-153.662	800.000	0.051	0.183
-152.647	-200.000	-0.046	-0.323
-151.633	669.716	0.158	-0.411
-150.618	800.000	-0.072	0.219
-149.604	-200.000	-0.069	0.318
-148.589	78.333	0.250	-0.268
-147.574	117.679	-0.111	0.138
-146.560	-93.929	-0.171	-0.047
-145.545	800.000	-0.032	-0.114
-144.531	800.000	0.094	-0.298
-143.516	780.491	0.093	-0.255
-142.502	-200.000	-0.009	0.043
-141.487	96.323	0.297	0.341
-140.472	-130.831	0.075	-0.010
-139.458	-84.771	0.153	0.048
-138.443	-94.954	0.087	0.024
-137.429	246.504	0.095	-0.161
-136.414	-71.561	0.493	-0.185
-135.399	96.022	0.252	0.288
-134.385	317.863	0.058	0.111
-133.370	275.425	-0.185	0.330
-132.356	-130.182	0.456	-0.062
-131.341	241.656	0.095	-0.160
-130.326	-62.724	-0.085	-0.035
-129.312	800.000	-0.071	-0.255
-128.297	66.522	0.157	-0.160
-127.283	4.853	0.383	-0.282
-126.268	255.028	0.172	-0.296
-125.253	95.855	-0.271	-0.310
-124.239	-92.112	-0.085	0.024
-123.224	665.702	0.063	0.164
-122.210	1.999	-0.009	-0.007
