DTS Sentinel unit serial number:	SN413079Multiplexer serial number:	ORYXHardware model number:	OX4-SRSoftware version number:	ORYX F/W v4.00 Oryx Data Collector v3.7.2.0data status	okinstallation	princeton_trtdifferential loss correction	single-endedforward channel	channel 4reverse channel	N/Adate	2019/09/10time	21:43:10forward acquisition time	60.00reverse acquisition time	0.00gamma	496.2192k internal	0.2314k external	0.2314temperature offset calibration	0.9951default loss term (dB/km)	0.3790temperature slope calibration	1.0000multiplexer offset coefficient	1.0000multiplexer slope coefficient	1.0000fibre end	0.00T internal ref (°C)	30.94T ext. ref 1 (°C)	-0.30T ext. ref 2 (°C)	24.29length (m)	temperature (°C)	Stokes	anti-Stokes-747.200	-48.969	0.313	-0.152
-746.185	323.863	0.146	0.283
-745.171	-8.203	-0.125	0.085
-744.156	453.797	-0.136	0.306
-743.142	21.000	-0.042	0.034
-742.127	-114.955	0.363	-0.070
-741.112	-89.370	-0.086	0.026
-740.098	-200.000	-0.023	-0.151
-739.083	397.134	0.147	0.311
-738.069	800.000	-0.071	0.274
-737.054	761.170	0.044	0.121
-736.039	-200.000	-0.034	-0.249
-735.025	-16.545	0.058	-0.037
-734.010	95.208	-0.094	0.109
-732.996	157.241	-0.152	-0.212
-731.981	-10.400	0.104	-0.070
-730.966	270.205	0.274	-0.488
-729.952	-61.395	-0.209	-0.089
-728.937	-38.907	-0.185	-0.099
-727.923	224.334	-0.087	-0.142
-726.908	67.364	0.041	0.042
-725.894	-73.632	0.282	-0.104
-724.879	-38.460	-0.249	-0.134
-723.864	-65.856	-0.062	-0.025
-722.850	167.780	0.142	-0.205
-721.835	26.286	-0.421	0.357
-720.821	135.379	-0.086	-0.114
-719.806	-200.000	0.036	-0.185
-718.791	404.477	0.027	0.058
-717.777	-81.317	-0.350	-0.117
-716.762	-200.000	-0.034	-0.167
-715.748	-104.053	-0.118	0.028
-714.733	-69.885	-0.383	-0.148
-713.718	-200.000	-0.015	-0.282
-712.704	-147.397	-0.166	0.014
-711.689	53.014	-0.177	0.172
-710.675	565.164	0.131	0.321
-709.660	-159.813	-0.312	0.017
-708.645	-200.000	0.171	-0.001
-707.631	800.000	-0.096	0.276
-706.616	-84.148	-0.391	0.126
-705.602	-200.000	-0.075	-0.488
-704.587	8.217	-0.118	-0.089
-703.572	-200.000	-0.240	0.001
-702.558	398.571	-0.115	0.244
-701.543	-8.270	0.080	-0.055
-700.529	752.282	0.035	-0.094
-699.514	60.059	-0.277	-0.277
-698.499	-152.917	-0.042	0.003
-697.485	11.759	0.026	0.020
-696.470	89.950	-0.267	-0.301
-695.456	-78.084	-0.098	-0.034
-694.441	33.110	-0.275	0.241
-693.426	-119.883	0.306	-0.053
-692.412	98.547	0.309	-0.361
-691.397	-200.000	0.025	-0.214
-690.383	-87.657	0.174	0.053
-689.368	-40.272	0.069	-0.037
-688.354	220.613	0.041	0.067
-687.339	380.302	-0.154	-0.320
-686.324	148.754	0.279	-0.382
-685.310	-200.000	-0.018	0.213
-684.295	349.102	0.090	-0.180
-683.281	106.500	-0.098	-0.117
-682.266	-93.722	-0.295	0.082
-681.251	-200.000	0.024	-0.200
-680.237	185.076	0.110	-0.164
-679.222	-200.000	0.026	-0.222
-678.208	84.364	-0.200	-0.221
-677.193	467.787	0.153	0.348
-676.178	310.764	-0.080	-0.152
-675.164	-200.000	0.044	0.438
-674.149	-73.474	-0.095	0.035
-673.135	-67.723	-0.165	0.065
-672.120	-27.342	0.133	-0.078
-671.105	89.309	0.264	0.297
-670.091	-100.328	-0.445	0.112
-669.076	-200.000	-0.006	-0.129
-668.062	-200.000	-0.007	0.060
-667.047	-44.845	-0.025	0.012
-666.032	69.908	-0.239	-0.250
-665.018	-13.583	-0.072	-0.047
-664.003	287.687	0.220	-0.402
-662.989	94.413	-0.061	-0.069
-661.974	41.947	0.225	-0.206
-660.959	-72.246	0.239	0.089
-659.945	-200.000	-0.044	-0.370
-658.930	-128.980	-0.281	-0.040
-657.916	9.450	-0.037	0.028
-656.901	-131.185	0.416	-0.056
-655.886	79.191	-0.231	-0.250
-654.872	-71.182	0.053	-0.020
-653.857	-200.000	-0.066	-0.000
-652.843	-93.765	-0.092	-0.026
-651.828	800.000	-0.117	-0.397
-650.814	-10.956	-0.091	-0.061
-649.799	800.000	0.077	-0.258
-648.784	-132.692	0.540	-0.070
-647.770	167.471	-0.235	0.337
-646.755	-37.566	0.312	0.168
-645.741	-200.000	0.013	-0.100
-644.726	130.019	0.354	-0.458
-643.711	-82.320	-0.101	-0.033
-642.697	-173.750	-0.539	0.016
-641.682	629.690	0.045	-0.115
-640.668	-69.405	0.134	0.052
-639.653	771.634	0.038	0.104
-638.638	-143.247	-0.155	-0.015
-637.624	-200.000	0.008	-0.114
-636.609	-71.783	-0.090	0.034
-635.595	-200.000	0.015	-0.076
-634.580	-99.427	0.080	-0.020
-633.565	7.830	0.290	0.219
-632.551	28.805	0.218	0.187
-631.536	-107.083	-0.259	-0.058
-630.522	-126.460	0.183	-0.028
-629.507	36.934	0.107	-0.095
-628.492	-93.197	0.246	-0.069
-627.478	-200.000	-0.006	-0.060
-626.463	-200.000	0.038	-0.284
-625.449	-200.000	0.002	-0.076
-624.434	-200.000	-0.034	-0.321
-623.419	378.171	0.018	-0.038
-622.405	21.110	-0.067	-0.055
-621.390	-149.872	-0.200	-0.016
-620.376	383.590	0.087	0.180
-619.361	-61.707	-0.295	0.125
-618.346	131.695	-0.112	-0.146
-617.332	-148.695	-0.206	0.017
-616.317	99.105	-0.104	-0.122
-615.303	235.098	-0.160	0.266
-614.288	-133.279	0.287	-0.037
-613.273	-162.181	0.061	-0.003
-612.259	44.723	-0.352	-0.326
-611.244	-114.187	0.205	0.040
-610.230	192.439	-0.136	0.207
-609.215	31.175	0.290	0.251
-608.201	-200.000	0.020	0.186
-607.186	40.982	-0.189	-0.172
-606.171	-200.000	0.046	-0.223
-605.157	287.313	0.089	-0.162
-604.142	-75.706	-0.189	-0.068
-603.128	139.459	-0.095	-0.126
-602.113	-1.383	-0.145	-0.103
-601.098	-31.822	-0.314	-0.178
-600.084	235.360	-0.169	-0.282
-599.069	-1.301	0.136	-0.097
-598.055	677.858	-0.089	-0.232
-597.040	-107.560	-0.321	0.071
-596.025	105.204	-0.224	-0.266
-595.011	-200.000	0.059	-0.350
-593.996	-200.000	-0.048	-0.459
-592.982	-36.443	0.070	0.038
-591.967	60.723	0.144	-0.144
-590.952	-200.000	-0.001	-0.240
-589.938	173.361	0.074	0.107
-588.923	131.279	0.070	0.091
-587.909	-200.000	0.011	-0.221
-586.894	-200.000	0.015	0.095
-585.879	695.585	-0.100	0.265
-584.865	45.138	0.110	-0.103
-583.850	-125.132	-0.229	0.035
-582.836	-200.000	-0.005	0.196
-581.821	40.629	-0.008	0.007
-580.806	-104.145	0.191	0.045
-579.792	-33.730	0.101	-0.056
-578.777	-100.860	0.423	0.105
-577.763	-80.633	0.159	0.053
-576.748	-131.341	-0.279	-0.037
-575.733	800.000	0.131	-0.528
-574.719	-200.000	-0.038	-0.227
-573.704	-169.700	-0.678	-0.025
-572.690	447.787	-0.108	-0.240
-571.675	455.383	0.047	-0.104
-570.661	260.486	-0.084	-0.147
-569.646	800.000	0.090	0.374
-568.631	4.418	0.044	-0.032
-567.617	58.866	0.087	-0.086
-566.602	295.184	0.089	0.164
-565.588	-61.346	-0.297	0.126
-564.573	-57.826	-0.189	0.083
-563.558	-158.188	0.212	0.012
-562.544	74.438	-0.106	-0.113
-561.529	85.839	-0.195	0.216
-560.515	-119.087	-0.201	-0.035
-559.500	800.000	0.060	-0.239
-558.485	5.952	-0.127	0.094
-557.471	-27.086	-0.320	0.188
-556.456	-137.466	0.349	-0.040
-555.442	-113.079	0.158	-0.031
-554.427	45.795	0.180	-0.167
-553.412	-200.000	0.055	0.405
-552.398	-61.940	-0.151	-0.064
-551.383	-144.730	-0.088	-0.008
-550.369	109.100	0.135	-0.163
-549.354	-72.976	0.091	-0.033
-548.339	762.290	-0.060	-0.164
-547.325	-200.000	0.001	0.136
-546.310	-124.829	0.132	0.020
-545.296	653.250	0.106	-0.273
-544.281	427.465	-0.041	0.089
-543.266	134.723	0.062	0.081
-542.252	-200.000	-0.007	-0.074
-541.237	-86.737	-0.272	0.084
-540.223	800.000	0.108	0.392
-539.208	-200.000	0.027	0.138
-538.193	86.187	0.209	-0.232
-537.179	30.193	0.370	0.317
-536.164	-200.000	0.015	0.183
-535.150	412.329	-0.121	0.259
-534.135	800.000	0.088	-0.377
-533.121	69.891	0.094	0.098
-532.106	-200.000	-0.070	-0.397
-531.091	-86.572	-0.032	0.010
-530.077	139.336	0.161	0.213
-529.062	-200.000	-0.032	-0.291
-528.048	111.857	0.047	-0.057
-527.033	469.670	0.051	-0.114
-526.018	-200.000	0.025	-0.223
-525.004	239.426	0.107	0.180
-523.989	144.110	-0.134	0.180
-522.975	264.371	-0.104	-0.181
-521.960	-102.043	-0.121	0.029
-520.945	574.043	0.046	-0.113
-519.931	145.314	-0.154	-0.207
-518.916	-200.000	-0.286	0.001
-517.902	36.056	0.291	-0.257
-516.887	-92.779	-0.277	0.078
-515.872	0.738	0.083	-0.060
-514.858	-200.000	0.056	-0.466
-513.843	-148.355	-0.371	-0.031
-512.829	-200.000	0.053	-0.329
-511.814	800.000	-0.116	0.381
-510.799	800.000	-0.066	-0.223
-509.785	-200.000	-0.056	-0.279
-508.770	6.095	0.117	-0.087
-507.756	-200.000	0.052	0.291
-506.741	1.817	-0.263	0.191
-505.726	-70.761	-0.538	-0.204
-504.712	68.440	-0.253	-0.260
-503.697	38.395	0.284	-0.254
-502.683	24.166	-0.136	0.113
-501.668	-200.000	0.014	-0.214
-500.653	-121.162	-0.267	0.045
-499.639	22.515	0.179	0.147
-498.624	45.844	-0.116	-0.107
-497.610	800.000	0.035	0.105
-496.595	148.375	0.089	-0.121
-495.581	83.482	-0.113	-0.123
-494.566	-76.593	-0.158	-0.056
-493.551	326.505	0.085	-0.163
-492.537	-113.167	0.221	-0.044
-491.522	800.000	0.174	-0.504
-490.508	-200.000	0.008	0.191
-489.493	800.000	-0.069	0.208
-488.478	800.000	0.040	0.124
-487.464	-115.140	0.275	-0.052
-486.449	-16.139	0.043	-0.028
-485.435	324.538	-0.054	-0.104
-484.420	43.871	-0.322	-0.296
-483.405	-200.000	-0.001	-0.027
-482.391	118.032	-0.183	-0.226
-481.376	800.000	-0.092	0.391
-480.362	-98.501	0.189	0.049
-479.347	-163.234	-0.202	-0.010
-478.332	800.000	-0.065	0.244
-477.318	-200.000	0.007	0.181
-476.303	29.880	-0.154	0.132
-475.289	-200.000	-0.042	0.197
-474.274	-120.423	-0.088	-0.015
-473.259	-200.000	-0.019	0.462
-472.245	9.285	0.186	-0.141
-471.230	-200.000	-0.003	-0.172
-470.216	-200.000	-0.020	-0.112
-469.201	-31.861	-0.098	0.055
-468.186	201.042	0.101	-0.157
-467.172	99.492	0.129	-0.150
-466.157	-200.000	-0.002	0.244
-465.143	125.931	-0.012	0.016
-464.128	-57.809	0.061	-0.027
-463.113	8.432	0.195	-0.147
-462.099	4.521	0.167	-0.123
-461.084	-9.111	0.129	0.086
-460.070	-200.000	0.013	0.188
-459.055	37.617	-0.138	0.123
-458.040	-200.000	0.006	-0.313
-457.026	-200.000	-0.044	-0.252
-456.011	-14.813	-0.003	-0.002
-454.997	-200.000	-0.030	-0.207
-453.982	-40.017	-0.252	0.132
-452.968	-200.000	0.023	-0.311
-451.953	-174.824	0.442	0.012
-450.938	23.993	-0.134	-0.111
-449.924	-89.475	0.156	0.046
-448.909	-82.453	0.227	0.074
-447.895	127.206	0.125	-0.159
-446.880	-103.647	-0.144	0.034
-445.865	-200.000	0.018	0.268
-444.851	-200.000	-0.017	0.312
-443.836	468.415	0.063	-0.141
-442.822	69.606	0.223	0.230
-441.807	174.971	-0.097	-0.140
-440.792	-200.000	0.010	0.061
-439.778	-200.000	-0.015	0.338
-438.763	-200.000	-0.017	-0.214
-437.749	800.000	-0.052	0.156
-436.734	414.803	0.113	-0.241
-435.719	-79.727	-0.043	0.015
-434.705	-6.875	0.164	0.112
-433.690	-4.922	0.154	-0.106
-432.676	155.052	-0.051	0.070
-431.661	-105.110	0.238	-0.055
-430.646	158.015	0.151	-0.209
-429.632	800.000	-0.011	0.032
-428.617	-200.000	-0.019	-0.432
-427.603	-100.150	-0.205	-0.051
-426.588	65.898	0.206	0.209
-425.573	200.517	-0.243	-0.374
-424.559	66.532	-0.129	-0.132
-423.544	259.101	-0.103	-0.178
-422.530	-166.084	-0.112	0.005
-421.515	31.566	0.063	0.054
-420.500	767.428	-0.051	-0.139
-419.486	-74.894	0.111	-0.040
-418.471	-0.409	0.275	-0.196
-417.457	30.268	-0.281	-0.240
-416.442	800.000	-0.036	-0.126
-415.428	284.943	0.073	0.131
-414.413	-110.538	-0.007	-0.001
-413.398	120.813	0.168	0.209
-412.384	175.509	-0.152	0.220
-411.369	-200.000	-0.008	-0.084
-410.355	-200.000	0.018	-0.125
-409.340	-200.000	0.032	-0.144
-408.325	629.542	-0.103	0.262
-407.311	-89.695	-0.283	-0.083
-406.296	800.000	-0.057	0.176
-405.282	658.485	0.055	0.140
-404.267	-75.155	0.226	0.081
-403.252	-200.000	-0.048	0.283
-402.238	-103.944	-0.110	-0.026
-401.223	-72.794	0.395	-0.146
-400.209	114.378	-0.259	-0.315
-399.194	-62.393	0.293	0.122
-398.179	266.919	-0.064	0.111
-397.165	-200.000	0.134	0.000
-396.150	58.735	-0.036	-0.036
-395.136	-200.000	-0.030	-0.147
-394.121	133.099	0.163	-0.211
-393.106	-50.446	0.027	0.013
-392.092	16.735	0.040	-0.032
-391.077	-200.000	0.021	0.168
-390.063	19.732	0.140	0.112
-389.048	35.313	-0.312	0.273
-388.033	255.603	-0.154	0.264
-387.019	-64.659	0.253	-0.102
-386.004	28.268	-0.373	0.315
-384.990	-200.000	-0.022	0.117
-383.975	-73.387	-0.184	-0.067
-382.960	-200.000	-0.036	-0.334
-381.946	-200.000	-0.057	-0.276
-380.931	482.443	0.058	0.132
-379.917	-8.966	0.460	-0.308
-378.902	-200.000	-0.010	-0.082
-377.888	137.287	-0.218	0.285
-376.873	-95.793	0.247	0.066
-375.858	-200.000	0.005	-0.116
-374.844	-112.108	0.116	-0.023
-373.829	-200.000	-0.044	0.306
-372.815	166.902	0.095	0.135
-371.800	-104.229	-0.126	-0.029
-370.785	800.000	0.016	-0.043
-369.771	229.071	0.072	-0.117
-368.756	-94.799	0.209	-0.057
-367.742	800.000	-0.064	-0.183
-366.727	17.895	0.050	0.040
-365.712	77.247	-0.284	-0.301
-364.698	-84.505	0.148	0.047
-363.683	800.000	0.067	0.227
-362.669	108.530	0.071	0.085
-361.654	70.384	-0.056	0.058
-360.639	-12.262	-0.086	-0.056
-359.625	-90.569	0.249	-0.072
-358.610	-68.632	0.080	0.031
-357.596	-61.868	-0.182	-0.076
-356.581	8.802	0.067	0.050
-355.566	-183.406	0.288	-0.005
-354.552	-35.904	0.064	-0.034
-353.537	-12.562	-0.188	0.122
-352.523	26.616	-0.039	-0.033
-351.508	58.591	-0.171	0.167
-350.493	-200.000	0.098	-0.483
-349.479	-200.000	0.020	0.114
-348.464	-104.933	0.183	-0.042
-347.450	113.415	-0.106	-0.128
-346.435	-105.351	-0.221	-0.050
-345.420	-73.220	0.082	-0.030
-344.406	-200.000	-0.014	0.215
-343.391	800.000	-0.059	0.254
-342.377	-43.663	0.162	0.081
-341.362	69.213	0.198	0.204
-340.348	57.019	-0.202	0.196
-339.333	-200.000	-0.023	0.162
-338.318	0.225	0.250	-0.178
-337.304	246.226	0.088	0.149
-336.289	-68.164	0.144	-0.056
-335.275	-200.000	0.010	0.118
-334.260	-106.932	0.280	-0.062
-333.245	-200.000	-0.028	0.263
-332.231	65.592	-0.102	0.103
-331.216	87.120	-0.062	0.069
-330.202	382.711	-0.159	0.325
-329.187	800.000	0.078	0.294
-328.172	-200.000	-0.007	-0.165
-327.158	800.000	0.058	-0.177
-326.143	-14.472	-0.025	0.016
-325.129	-86.791	0.201	-0.061
-324.114	-41.255	0.066	-0.034
-323.099	-51.408	0.065	0.030
-322.085	-200.000	-0.019	0.171
-321.070	614.508	0.097	0.242
-320.056	42.029	0.335	0.303
-319.041	-143.030	-0.185	0.018
-318.026	-200.000	0.009	-0.109
-317.012	-90.464	-0.259	0.075
-315.997	-120.495	-0.344	0.058
-314.983	5.316	0.080	0.059
-313.968	-135.391	-0.181	-0.022
-312.953	49.401	-0.151	-0.142
-311.939	-103.712	-0.091	-0.021
-310.924	99.586	-0.110	-0.127
-309.910	69.466	-0.136	0.139
-308.895	-191.252	0.243	-0.002
-307.880	-118.817	-0.407	0.071
-306.866	83.309	0.162	0.176
-305.851	297.706	0.108	0.197
-304.837	800.000	0.032	0.127
-303.822	-30.401	0.179	-0.101
-302.807	-115.314	-0.197	-0.037
-301.793	-154.749	0.086	0.006
-300.778	-200.000	-0.037	0.219
-299.764	-152.786	0.301	-0.021
-298.749	800.000	-0.018	0.056
-297.735	-61.582	-0.088	0.037
-296.720	9.135	0.286	-0.215
-295.705	-200.000	0.034	0.284
-294.691	216.728	0.245	0.389
-293.676	-200.000	-0.008	0.043
-292.662	-115.233	-0.301	0.057
-291.647	53.193	0.066	0.063
-290.632	79.926	0.238	-0.254
-289.618	-86.263	0.150	-0.046
-288.603	800.000	0.021	0.074
-287.589	388.570	-0.178	0.366
-286.574	3.843	-0.089	0.065
-285.559	-65.851	-0.213	0.085
-284.545	446.910	-0.053	0.116
-283.530	503.016	0.125	0.288
-282.516	-200.000	-0.009	0.216
-281.501	367.935	-0.122	0.245
-280.486	-84.606	0.187	-0.059
-279.472	-116.663	0.217	0.040
-278.457	282.303	0.061	0.109
-277.443	-4.691	-0.127	0.088
-276.428	201.330	-0.073	0.112
-275.413	-34.612	0.048	-0.026
-274.399	-144.235	0.032	0.003
-273.384	28.884	0.190	0.160
-272.370	800.000	0.182	0.505
-271.355	-105.948	-0.179	-0.040
-270.340	-22.686	0.064	-0.039
-269.326	344.243	0.058	-0.113
-268.311	-154.055	0.256	-0.017
-267.297	39.096	-0.122	0.109
-266.282	-63.708	0.197	0.080
-265.267	-123.910	0.441	-0.069
-264.253	163.518	0.113	0.158
-263.238	27.296	-0.142	-0.119
-262.224	-126.081	-0.196	0.029
-261.209	-156.684	-0.119	0.007
-260.195	-60.748	0.106	-0.045
-259.180	287.539	-0.139	-0.250
-258.165	78.333	0.077	0.082
-257.151	146.241	-0.259	0.346
-256.136	-200.000	0.003	0.290
-255.122	800.000	-0.072	0.255
-254.107	6.461	0.056	0.041
-253.092	-165.116	0.146	0.006
-252.078	800.000	0.027	-0.087
-251.063	747.158	0.084	0.224
-250.049	-200.000	-0.001	0.104
-249.034	178.032	-0.128	0.186
-248.019	8.082	-0.595	-0.444
-247.005	-200.000	0.020	-0.229
-245.990	-157.834	0.184	0.011
-244.976	201.013	-0.198	-0.303
-243.961	800.000	-0.064	-0.231
-242.946	-69.436	-0.225	-0.086
-241.932	-146.349	-0.229	0.020
-240.917	5.272	-0.167	-0.122
-239.903	554.251	-0.103	0.247
-238.888	-38.575	0.356	0.187
-237.873	30.285	0.139	0.118
-236.859	9.078	0.195	0.146
-235.844	-94.455	0.282	0.077
-234.830	800.000	0.060	-0.226
-233.815	61.916	0.079	-0.079
-232.800	190.993	0.112	-0.167
-231.786	156.018	-0.025	0.034
-230.771	19.458	-0.106	-0.085
-229.757	30.108	0.182	-0.154
-228.742	153.092	-0.164	0.223
-227.727	356.588	-0.054	-0.107
-226.713	-131.239	-0.371	0.049
-225.698	-95.797	-0.252	-0.067
-224.684	-200.000	0.015	-0.147
-223.669	23.335	0.104	0.085
-222.655	-200.000	0.006	0.025
-221.640	633.984	0.170	-0.429
-220.625	357.552	-0.027	0.053
-219.611	-133.570	-0.062	0.008
-218.596	-28.663	-0.245	0.140
-217.582	-36.966	0.235	0.125
-216.567	493.945	-0.189	0.430
-215.552	338.274	0.139	-0.269
-214.538	-200.000	0.015	0.300
-213.523	425.718	-0.142	-0.305
-212.509	717.435	-0.022	-0.057
-211.494	185.886	-0.150	0.222
-210.479	-197.668	0.359	-0.002
-209.465	690.824	0.059	0.154
-208.450	28.936	0.172	-0.145
-207.436	-75.965	0.397	0.140
-206.421	749.376	0.081	-0.216
-205.406	-162.477	-0.085	0.004
-204.392	-85.162	-0.158	-0.049
-203.377	95.487	-0.092	0.105
-202.363	-5.135	-0.093	0.063
-201.348	597.999	0.085	-0.208
-200.333	324.071	0.056	-0.106
-199.319	132.481	-0.102	0.131
-198.304	-120.415	0.164	0.028
-197.290	507.153	0.032	0.073
-196.275	800.000	-0.078	0.297
-195.260	16.025	-0.214	0.167
-194.246	-48.307	-0.346	0.165
-193.231	800.000	-0.048	0.200
-192.217	800.000	-0.059	0.216
-191.202	203.246	0.064	0.099
-190.187	41.069	-0.124	-0.111
-189.173	5.722	-0.299	0.219
-188.158	-102.041	0.190	0.045
-187.144	-102.808	0.372	0.088
-186.129	-62.939	0.059	0.024
-185.114	-32.905	0.273	-0.150
-184.100	-108.375	0.172	-0.037
-183.085	60.740	-0.241	-0.237
-182.071	225.714	-0.058	-0.094
-181.056	-200.000	-0.015	-0.267
-180.042	84.649	0.064	-0.069
-179.027	-93.287	0.205	-0.056
-178.012	-72.387	-0.347	0.127
-176.998	-14.188	0.224	-0.143
-175.983	-124.120	0.242	0.038
-174.969	-108.483	-0.055	-0.012
-173.954	119.970	-0.184	-0.226
-172.939	599.314	-0.143	0.352
-171.925	372.670	-0.103	-0.207
-170.910	179.116	-0.164	-0.238
-169.896	176.023	0.150	0.216
-168.881	8.597	-0.143	-0.107
-167.866	-155.976	-0.081	0.005
-166.852	67.598	0.195	0.197
-165.837	-36.556	0.109	0.058
-164.823	-200.000	-0.063	0.406
-163.808	-132.795	0.174	0.022
-162.793	267.687	-0.118	-0.205
-161.779	-10.569	-0.106	0.070
-160.764	-200.000	-0.010	0.211
-159.750	-200.000	-0.014	-0.115
-158.735	130.316	-0.108	-0.137
-157.720	-200.000	0.285	-0.001
-156.706	-60.822	0.077	0.032
-155.691	-200.000	0.024	0.174
-154.677	-132.371	-0.135	-0.017
-153.662	-200.000	-0.043	0.287
-152.647	-99.193	-0.499	-0.125
-151.633	-200.000	0.022	-0.100
-150.618	-66.660	0.413	-0.162
-149.604	58.982	0.100	0.097
-148.589	-37.803	-0.202	0.106
-147.574	395.305	-0.081	-0.168
-146.560	-7.622	-0.077	0.052
-145.545	-141.884	-0.005	0.000
-144.531	-200.000	0.044	0.282
-143.516	-99.974	-0.197	0.049
-142.502	-200.000	-0.020	0.251
-141.487	181.724	0.088	0.128
-140.472	-178.386	0.223	-0.005
-139.458	299.042	-0.040	0.074
-138.443	-152.788	0.105	-0.007
-137.429	-42.223	0.335	-0.169
-136.414	552.144	0.027	0.064
-135.399	-51.879	0.343	0.158
-134.385	-200.000	0.026	-0.169
-133.370	-153.427	0.224	-0.015
-132.356	155.861	-0.157	-0.214
-131.341	137.358	0.018	-0.023
-130.326	-48.223	-0.339	0.162
-129.312	-89.174	-0.111	-0.032
-128.297	-68.078	-0.373	0.144
-127.283	141.828	0.189	0.247
-126.268	-64.096	-0.243	-0.098
-125.253	-106.773	0.343	0.075
-124.239	727.517	-0.165	0.435
-123.224	-78.349	0.220	0.075
-122.210	63.723	-0.236	0.234
-121.195	71.198	-0.142	0.146
