DTS Sentinel unit serial number:	SN413079Multiplexer serial number:	ORYXHardware model number:	OX4-SRSoftware version number:	ORYX F/W v4.00 Oryx Data Collector v3.7.2.0data status	okinstallation	princeton_trtdifferential loss correction	single-endedforward channel	channel 4reverse channel	N/Adate	2019/09/10time	19:03:11forward acquisition time	60.00reverse acquisition time	0.00gamma	496.2192k internal	0.2306k external	0.2306temperature offset calibration	0.9937default loss term (dB/km)	0.3790temperature slope calibration	1.0000multiplexer offset coefficient	1.0000multiplexer slope coefficient	1.0000fibre end	0.00T internal ref (°C)	34.44T ext. ref 1 (°C)	-0.41T ext. ref 2 (°C)	26.72length (m)	temperature (°C)	Stokes	anti-Stokes-747.200	-25.288	-0.255	0.153
-746.185	1.558	0.263	0.192
-745.171	22.145	0.169	-0.140
-744.156	-200.000	0.012	-0.093
-743.142	95.501	-0.232	-0.269
-742.127	-48.609	-0.304	-0.148
-741.112	-14.451	0.231	-0.151
-740.098	-22.008	0.046	-0.028
-739.083	179.358	0.086	0.128
-738.069	287.226	-0.106	0.195
-737.054	-2.562	0.113	0.080
-736.039	98.662	-0.208	-0.244
-735.025	-116.732	0.375	0.070
-734.010	-26.781	0.218	-0.130
-732.996	-151.557	0.250	-0.019
-731.981	-103.092	-0.398	-0.096
-730.966	318.168	-0.207	-0.399
-729.952	145.769	0.096	-0.131
-728.937	43.389	-0.028	0.026
-727.923	165.547	0.108	-0.156
-726.908	-28.170	0.132	0.077
-725.894	-143.714	0.215	-0.021
-724.879	-39.279	-0.116	0.062
-723.864	-129.942	-0.206	0.029
-722.850	-200.000	0.028	0.145
-721.835	800.000	0.027	-0.079
-720.821	-199.948	-0.140	-0.001
-719.806	190.182	0.273	-0.417
-718.791	11.934	0.206	-0.161
-717.777	-200.000	-0.038	-0.231
-716.762	95.248	-0.202	-0.234
-715.748	-148.437	-0.113	-0.009
-714.733	-133.788	0.251	0.032
-713.718	24.110	-0.059	-0.050
-712.704	800.000	0.078	-0.289
-711.689	86.497	-0.266	-0.298
-710.675	77.668	-0.064	-0.069
-709.660	800.000	-0.124	-0.426
-708.645	800.000	-0.105	-0.329
-707.631	800.000	-0.082	-0.342
-706.616	191.964	0.093	0.143
-705.602	-28.745	0.339	0.198
-704.587	-97.453	0.132	0.035
-703.572	-150.681	0.106	0.008
-702.558	47.712	-0.135	0.128
-701.543	-147.585	0.511	0.044
-700.529	583.990	0.110	0.274
-699.514	-73.809	-0.446	0.165
-698.499	-105.078	0.052	0.012
-697.485	-56.330	0.122	-0.055
-696.470	-126.205	-0.009	0.001
-695.456	800.000	0.046	0.169
-694.441	72.217	0.141	0.149
-693.426	-11.932	0.390	0.260
-692.412	-52.727	-0.315	0.148
-691.397	-200.000	-0.005	-0.228
-690.383	33.975	-0.174	0.153
-689.368	732.054	0.064	-0.174
-688.354	800.000	-0.036	0.140
-687.339	-200.000	-0.008	-0.145
-686.324	-200.000	-0.030	-0.165
-685.310	-36.432	0.118	0.065
-684.295	-63.563	-0.162	-0.068
-683.281	243.471	0.088	-0.151
-682.266	800.000	0.054	-0.163
-681.251	11.015	-0.318	-0.247
-680.237	-103.647	-0.281	-0.067
-679.222	-34.065	-0.112	-0.062
-678.208	800.000	-0.027	0.079
-677.193	678.955	-0.084	-0.223
-676.178	-42.790	0.174	-0.090
-675.164	109.948	0.116	-0.142
-674.149	727.843	0.025	-0.067
-673.135	-39.604	-0.264	0.140
-672.120	800.000	-0.091	-0.304
-671.105	-200.000	-0.009	-0.231
-670.091	175.267	0.228	0.335
-669.076	-40.945	0.362	-0.190
-668.062	15.666	-0.286	-0.228
-667.047	-200.000	-0.038	-0.339
-666.032	-107.409	-0.395	-0.088
-665.018	800.000	0.083	-0.240
-664.003	-80.743	0.078	-0.026
-662.989	-147.215	0.318	0.028
-661.974	-97.161	0.207	-0.055
-660.959	-56.145	-0.275	-0.124
-659.945	-153.450	0.103	-0.007
-658.930	182.056	0.164	0.245
-657.916	446.445	0.109	-0.243
-656.901	-40.975	0.316	-0.166
-655.886	-10.165	-0.047	-0.031
-654.872	-18.042	-0.108	-0.069
-653.857	-200.000	0.025	-0.229
-652.843	56.731	0.154	-0.152
-651.828	-175.162	-0.364	-0.010
-650.814	550.640	0.124	-0.301
-649.799	800.000	0.045	-0.195
-648.784	106.449	0.134	0.161
-647.770	10.809	0.231	-0.178
-646.755	-200.000	-0.057	0.341
-645.741	-150.355	-0.367	0.029
-644.726	165.507	-0.124	-0.178
-643.711	-200.000	-0.057	0.380
-642.697	3.329	0.189	0.140
-641.682	-200.000	0.045	-0.402
-640.668	288.791	-0.066	-0.122
-639.653	-200.000	-0.001	0.050
-638.638	373.642	-0.031	-0.064
-637.624	-97.824	-0.036	-0.009
-636.609	28.750	-0.226	-0.194
-635.595	-200.000	-0.020	-0.152
-634.580	-69.473	-0.192	0.074
-633.565	-64.464	-0.134	-0.055
-632.551	-154.715	-0.127	0.009
-631.536	800.000	-0.060	0.184
-630.522	116.176	0.080	-0.100
-629.507	-98.155	-0.231	0.060
-628.492	-200.000	0.018	-0.286
-627.478	362.120	0.244	-0.495
-626.463	50.959	0.014	0.013
-625.449	71.522	-0.135	-0.142
-624.434	256.765	-0.161	-0.281
-623.419	-200.000	-0.033	0.180
-622.405	-8.215	0.198	-0.135
-621.390	14.776	0.068	-0.054
-620.376	800.000	0.046	-0.157
-619.361	-200.000	-0.048	-0.219
-618.346	800.000	0.087	-0.267
-617.332	-1.020	0.044	0.031
-616.317	-162.525	-0.219	-0.011
-615.303	389.515	-0.033	-0.069
-614.288	94.362	0.052	-0.060
-613.273	-200.000	0.041	-0.289
-612.259	-200.000	0.016	0.114
-611.244	800.000	-0.038	0.109
-610.230	343.948	0.095	0.188
-609.215	157.119	-0.175	0.246
-608.201	108.294	0.101	-0.122
-607.186	-163.948	0.432	0.020
-606.171	-85.289	-0.285	-0.090
-605.157	-46.860	0.200	-0.099
-604.142	81.143	-0.143	-0.157
-603.128	97.006	-0.067	-0.078
-602.113	368.800	-0.066	-0.135
-601.098	-48.437	0.133	-0.065
-600.084	-200.000	-0.015	0.182
-599.069	-200.000	0.022	-0.160
-598.055	220.764	-0.113	-0.184
-597.040	193.950	-0.051	-0.077
-596.025	133.494	0.099	0.130
-595.011	84.205	-0.204	-0.226
-593.996	800.000	0.051	-0.159
-592.982	-200.000	0.054	-0.428
-591.967	32.715	0.200	0.175
-590.952	280.360	0.124	0.223
-589.938	-156.554	0.206	0.013
-588.923	-200.000	0.028	0.312
-587.909	33.251	0.122	-0.107
-586.894	23.737	-0.135	-0.112
-585.879	-200.000	0.001	-0.542
-584.865	-72.039	-0.263	-0.099
-583.850	-118.277	-0.055	0.010
-582.836	-93.078	-0.080	-0.023
-581.821	308.399	-0.123	0.232
-580.806	-140.884	-0.357	0.037
-579.792	-200.000	0.017	-0.179
-578.777	800.000	0.027	-0.103
-577.763	-156.868	-0.152	-0.009
-576.748	713.511	-0.136	-0.363
-575.733	-42.427	-0.233	0.120
-574.719	-101.894	-0.343	0.084
-573.704	-191.697	-0.276	-0.003
-572.690	-200.000	0.006	-0.301
-571.675	-84.110	0.163	-0.052
-570.661	-200.000	0.018	0.133
-569.646	-73.487	0.273	-0.101
-568.631	800.000	0.062	0.205
-567.617	353.128	-0.261	0.524
-566.602	-1.921	0.446	0.317
-565.588	259.403	0.125	-0.218
-564.573	123.273	0.054	0.068
-563.558	-67.431	-0.065	0.026
-562.544	-125.215	-0.464	0.072
-561.529	75.918	0.032	-0.034
-560.515	120.365	0.059	-0.074
-559.500	-109.122	-0.443	-0.095
-558.485	127.653	-0.077	0.099
-557.471	-75.764	-0.228	-0.082
-556.456	439.068	-0.153	-0.338
-555.442	114.735	0.077	-0.095
-554.427	35.928	-0.189	-0.168
-553.412	21.562	-0.377	0.309
-552.398	10.083	0.289	-0.222
-551.383	-200.000	0.014	0.103
-550.369	-77.460	0.260	0.091
-549.354	-30.994	-0.097	-0.055
-548.339	-200.000	0.000	-0.144
-547.325	-79.532	0.301	-0.103
-546.310	11.779	0.075	0.058
-545.296	305.879	-0.092	-0.174
-544.281	800.000	0.063	-0.278
-543.266	229.128	-0.077	-0.128
-542.252	-200.000	0.020	0.104
-541.237	-4.562	0.139	0.097
-540.223	-136.935	0.319	0.037
-539.208	9.489	0.188	-0.144
-538.193	173.940	0.095	0.138
-537.179	4.125	0.022	-0.016
-536.164	-200.000	-0.022	0.164
-535.150	253.158	-0.212	0.365
-534.135	-17.690	-0.189	0.120
-533.121	424.381	0.123	0.266
-532.106	368.008	-0.076	0.155
-531.091	800.000	-0.064	-0.214
-530.077	-5.510	0.059	-0.041
-529.062	597.651	0.036	0.091
-528.048	59.323	0.296	0.294
-527.033	60.572	0.174	0.174
-526.018	-200.000	-0.015	0.126
-525.004	-200.000	-0.057	-0.341
-523.989	64.280	-0.025	0.025
-522.975	-51.047	0.079	0.037
-521.960	746.853	-0.079	-0.215
-520.945	138.260	-0.172	-0.227
-519.931	-112.498	0.101	0.020
-518.916	39.746	-0.176	0.159
-517.902	-127.551	0.137	-0.020
-516.887	166.444	-0.046	0.066
-515.872	10.632	0.201	0.154
-514.858	-142.683	0.186	-0.018
-513.843	800.000	-0.095	0.395
-512.829	-113.530	0.157	0.031
-511.814	679.620	-0.075	0.196
-510.799	137.375	0.171	0.225
-509.785	-84.809	-0.381	-0.121
-508.770	170.693	0.151	0.218
-507.756	-0.330	0.179	0.128
-506.741	-200.000	-0.018	0.175
-505.726	-200.000	0.021	0.366
-504.712	-53.954	0.157	0.072
-503.697	800.000	-0.017	-0.048
-502.683	-140.761	-0.049	-0.005
-501.668	418.254	0.163	0.352
-500.653	5.093	0.270	0.201
-499.639	123.369	-0.201	-0.254
-498.624	800.000	-0.083	-0.318
-497.610	-71.333	-0.409	0.154
-496.595	251.048	0.183	-0.313
-495.581	-15.915	0.240	0.154
-494.566	158.332	0.121	-0.169
-493.551	112.906	-0.182	-0.222
-492.537	143.453	-0.188	0.253
-491.522	179.330	-0.073	-0.107
-490.508	3.717	0.129	0.095
-489.493	-136.733	0.032	-0.004
-488.478	-109.919	0.187	-0.039
-487.464	-200.000	0.187	0.000
-486.449	-72.491	0.128	-0.048
-485.435	-97.678	-0.116	0.030
-484.420	-200.000	0.002	-0.364
-483.405	-160.527	-0.278	-0.015
-482.391	-82.206	-0.162	0.053
-481.376	168.862	0.025	0.037
-480.362	800.000	-0.078	0.244
-479.347	-106.811	-0.264	-0.059
-478.332	45.005	0.235	0.218
-477.318	-40.953	-0.176	0.091
-476.303	-200.000	-0.015	0.468
-475.289	141.280	0.107	0.143
-474.274	66.703	-0.252	0.258
-473.259	186.911	0.022	0.034
-472.245	-200.000	-0.031	0.236
-471.230	-200.000	-0.004	-0.144
-470.216	81.123	-0.155	-0.168
-469.201	150.225	-0.183	0.250
-468.186	546.591	-0.012	-0.030
-467.172	-200.000	-0.055	0.392
-466.157	1.142	-0.334	0.241
-465.143	-78.666	0.594	0.204
-464.128	298.836	-0.140	0.259
-463.113	-22.222	0.229	0.139
-462.099	-173.572	-0.288	-0.009
-461.084	-74.381	0.083	0.030
-460.070	288.062	-0.088	-0.160
-459.055	60.789	-0.151	0.151
-458.040	-86.549	-0.242	-0.075
-457.026	30.422	-0.097	-0.084
-456.011	-81.349	-0.144	0.048
-454.997	-12.909	0.099	-0.065
-453.982	-200.000	-0.001	-0.485
-452.968	-200.000	0.029	-0.211
-451.953	-200.000	-0.047	0.214
-450.938	-32.591	-0.068	0.038
-449.924	800.000	-0.012	0.053
-448.909	-79.937	0.153	0.052
-447.895	-114.193	0.250	0.049
-446.880	-125.875	0.178	0.027
-445.865	-200.000	-0.002	0.138
-444.851	-200.000	0.004	0.160
-443.836	-28.762	-0.099	0.057
-442.822	-171.602	-0.298	-0.010
-441.807	578.045	-0.070	0.171
-440.792	-200.000	-0.113	0.808
-439.778	-70.375	0.108	0.041
-438.763	-106.075	0.206	-0.047
-437.749	232.693	0.167	0.276
-436.734	8.943	-0.179	-0.136
-435.719	-53.113	0.135	0.062
-434.705	-18.994	0.151	0.094
-433.690	-200.000	0.004	-0.052
-432.676	-200.000	-0.015	-0.100
-431.661	-200.000	-0.019	0.319
-430.646	352.496	-0.038	0.075
-429.632	-25.674	0.065	0.039
-428.617	31.853	-0.183	0.159
-427.603	-60.701	0.188	-0.080
-426.588	347.022	-0.084	-0.167
-425.573	-70.506	-0.068	0.026
-424.559	-179.100	-0.256	-0.006
-423.544	262.031	0.070	-0.122
-422.530	18.870	0.177	0.143
-421.515	-200.000	-0.045	0.248
-420.500	85.047	0.063	-0.070
-419.486	-131.673	0.192	0.025
-418.471	-119.851	-0.281	-0.049
-417.457	219.070	0.039	0.062
-416.442	-9.115	-0.252	0.169
-415.428	155.606	0.180	-0.249
-414.413	-139.092	0.176	-0.019
-413.398	-151.041	-0.129	-0.010
-412.384	150.903	0.124	0.169
-411.369	800.000	0.135	-0.437
-410.355	-99.686	0.115	-0.029
-409.340	-33.121	-0.091	0.051
-408.325	0.143	-0.181	-0.129
-407.311	-130.167	0.147	0.020
-406.296	-180.553	-0.178	-0.004
-405.282	281.804	-0.245	-0.440
-404.267	-53.881	0.152	-0.070
-403.252	30.528	-0.062	-0.053
-402.238	60.394	0.063	-0.062
-401.223	-78.759	-0.311	-0.106
-400.209	-93.530	-0.192	0.053
-399.194	-178.071	0.353	-0.008
-398.179	-104.568	-0.156	0.036
-397.165	-200.000	0.033	0.184
-396.150	47.596	0.248	-0.232
-395.136	229.672	-0.048	-0.079
-394.121	56.024	0.220	-0.215
-393.106	-200.000	-0.047	-0.342
-392.092	-64.685	-0.143	-0.058
-391.077	-174.697	0.216	0.006
-390.063	150.355	-0.104	-0.142
-389.048	-101.070	-0.150	0.037
-388.033	11.084	-0.132	0.101
-387.019	-200.000	0.012	-0.228
-386.004	-24.028	-0.126	-0.076
-384.990	146.794	0.002	-0.003
-383.975	177.672	0.088	-0.129
-382.960	-53.310	-0.359	-0.165
-381.946	-100.637	-0.540	-0.134
-380.931	-200.000	0.036	0.171
-379.917	394.126	0.083	0.174
-378.902	-55.944	0.325	-0.145
-377.888	-19.444	0.104	-0.065
-376.873	-130.350	0.152	0.021
-375.858	800.000	0.053	-0.147
-374.844	108.836	-0.201	-0.240
-373.829	86.076	0.270	-0.298
-372.815	130.578	0.028	-0.036
-371.800	97.720	0.165	-0.191
-370.785	171.078	-0.119	0.172
-369.771	211.171	0.196	0.310
-368.756	41.787	0.058	-0.052
-367.742	-200.000	-0.007	-0.255
-366.727	-44.299	-0.237	0.119
-365.712	800.000	-0.039	0.138
-364.698	-37.815	0.130	-0.069
-363.683	-200.000	0.003	0.198
-362.669	239.031	-0.067	0.112
-361.654	-200.000	0.019	-0.172
-360.639	-200.000	0.045	0.314
-359.625	-2.129	0.103	0.073
-358.610	35.446	-0.203	0.178
-357.596	-93.119	-0.052	-0.015
-356.581	-105.180	-0.183	-0.042
-355.566	-3.950	-0.105	0.073
-354.552	800.000	0.071	0.201
-353.537	154.100	0.169	-0.232
-352.523	-200.000	-0.029	-0.203
-351.508	-200.000	0.004	-0.092
-350.493	149.591	0.057	0.077
-349.479	283.751	0.122	-0.220
-348.464	-200.000	-0.035	-0.162
-347.450	-140.517	-0.181	-0.019
-346.435	48.592	-0.057	-0.053
-345.420	800.000	0.055	-0.185
-344.406	9.859	-0.017	0.013
-343.391	800.000	0.092	0.386
-342.377	-78.627	0.219	0.075
-341.362	-52.936	0.161	-0.074
-340.348	92.833	0.289	-0.327
-339.333	-200.000	0.022	0.346
-338.318	800.000	-0.036	-0.129
-337.304	800.000	0.054	0.188
-336.289	800.000	0.067	-0.237
-335.275	-93.102	0.100	0.028
-334.260	198.022	0.110	-0.168
-333.245	-200.000	0.012	0.295
-332.231	-200.000	-0.003	-0.060
-331.216	-31.877	0.051	-0.029
-330.202	-84.218	-0.098	0.031
-329.187	-200.000	0.026	0.371
-328.172	12.934	0.083	0.064
-327.158	361.037	0.136	0.273
-326.143	192.178	-0.037	0.056
-325.129	-197.200	0.205	-0.001
-324.114	443.448	-0.089	-0.196
-323.099	62.762	0.373	0.373
-322.085	34.137	0.326	-0.284
-321.070	62.393	-0.184	-0.184
-320.056	-42.165	0.300	-0.154
-319.041	-200.000	-0.008	0.162
-318.026	-58.086	0.185	0.081
-317.012	-108.793	0.433	0.093
-315.997	57.522	-0.316	0.309
-314.983	-43.945	-0.379	0.191
-313.968	-98.626	0.150	-0.038
-312.953	800.000	-0.069	0.294
-311.939	-200.000	0.024	-0.129
-310.924	481.000	0.103	-0.234
-309.910	-162.071	0.237	0.012
-308.895	-168.152	-0.332	-0.013
-307.880	-200.000	0.011	-0.124
-306.866	-200.000	0.034	-0.462
-305.851	137.918	0.188	0.246
-304.837	39.275	-0.075	-0.067
-303.822	-19.677	0.182	0.112
-302.807	389.814	0.082	0.170
-301.793	-74.632	0.196	-0.070
-300.778	-75.429	0.272	-0.097
-299.764	-200.000	0.000	-0.156
-298.749	503.544	-0.059	-0.137
-297.735	-15.666	-0.205	-0.131
-296.720	-200.000	0.049	-0.270
-295.705	-123.733	-0.205	-0.032
-294.691	76.028	-0.175	-0.186
-293.676	-200.000	0.008	0.211
-292.662	91.860	-0.191	0.215
-291.647	30.631	-0.144	0.123
-290.632	-200.000	0.059	0.312
-289.618	418.092	-0.147	-0.313
-288.603	-200.000	-0.033	-0.355
-287.589	59.263	0.221	-0.218
-286.574	-92.226	0.179	-0.051
-285.559	800.000	0.070	-0.245
-284.545	171.489	0.054	-0.078
-283.530	-68.051	-0.325	0.127
-282.516	-22.496	0.230	-0.139
-281.501	-157.071	-0.416	-0.025
-280.486	198.784	-0.128	0.196
-279.472	-112.221	-0.279	0.056
-278.457	800.000	0.093	0.327
-277.443	-22.787	0.152	0.092
-276.428	-178.011	-0.189	0.004
-275.413	-200.000	-0.005	-0.116
-274.399	-70.817	-0.225	-0.085
-273.384	-106.449	-0.196	-0.044
-272.370	-187.775	-0.263	0.003
-271.355	-25.290	-0.301	0.178
-270.340	-20.927	-0.152	-0.093
-269.326	-31.824	0.180	-0.101
-268.311	-104.453	-0.272	-0.063
-267.297	-33.383	0.208	-0.115
-266.282	-200.000	0.002	0.105
-265.267	75.916	-0.148	-0.156
-264.253	-55.628	0.190	-0.085
-263.238	800.000	0.031	0.104
-262.224	146.314	0.130	-0.175
-261.209	16.558	-0.349	0.276
-260.195	-94.283	0.102	0.028
-259.180	-85.627	0.125	-0.039
-258.165	203.836	-0.023	-0.035
-257.151	67.399	0.186	-0.189
-256.136	-144.687	-0.186	0.017
-255.122	64.156	-0.112	0.113
-254.107	81.526	-0.185	-0.200
-253.092	-200.000	-0.012	0.154
-252.078	-200.000	-0.034	-0.211
-251.063	-156.105	0.375	0.024
-250.049	-200.000	0.030	-0.162
-249.034	290.423	0.109	-0.198
-248.019	236.892	-0.151	-0.250
-247.005	138.975	-0.017	0.023
-245.990	-200.000	0.004	0.085
-244.976	-41.220	-0.068	-0.035
-243.961	207.143	0.222	-0.345
-242.946	535.644	-0.012	-0.029
-241.932	800.000	-0.060	-0.198
-240.917	-117.092	-0.114	-0.021
-239.903	-162.862	0.393	-0.019
-238.888	236.607	0.091	0.151
-237.873	678.331	-0.018	-0.046
-236.859	800.000	0.016	0.070
-235.844	374.187	0.096	-0.196
-234.830	-151.644	0.345	0.025
-233.815	197.483	-0.111	-0.169
-232.800	43.221	-0.054	-0.049
-231.786	293.357	-0.016	0.030
-230.771	-41.127	-0.192	-0.099
-229.757	-200.000	-0.092	0.486
-228.742	472.014	-0.118	0.264
-227.727	800.000	-0.021	-0.090
-226.713	352.052	0.175	0.346
-225.698	158.096	-0.101	0.140
-224.684	-38.974	0.081	-0.043
-223.669	-141.102	0.173	-0.018
-222.655	454.296	-0.158	0.350
-221.640	800.000	0.096	0.310
-220.625	800.000	-0.036	-0.131
-219.611	-80.183	-0.199	-0.067
-218.596	-26.481	0.229	0.134
-217.582	-104.390	0.362	-0.084
-216.567	800.000	-0.025	-0.102
-215.552	-122.376	-0.314	-0.051
-214.538	661.903	0.138	-0.355
-213.523	117.780	0.094	-0.116
-212.509	-76.518	-0.166	0.058
-211.494	98.163	0.151	0.173
-210.479	37.706	0.113	-0.100
-209.465	38.773	-0.077	0.069
-208.450	-16.209	0.104	0.066
-207.436	151.562	0.215	0.292
-206.421	-200.000	0.038	0.296
-205.406	-36.729	-0.196	-0.105
-204.392	501.137	-0.096	0.221
-203.377	-2.931	-0.091	0.063
-202.363	-65.666	0.103	0.041
-201.348	-123.664	-0.213	-0.034
-200.333	-50.907	0.307	0.144
-199.319	54.175	0.220	-0.211
-198.304	-115.350	0.132	0.025
-197.290	-48.775	-0.105	0.050
-196.275	13.165	-0.269	-0.207
-195.260	589.896	-0.077	-0.189
-194.246	222.709	0.117	0.188
-193.231	-200.000	0.005	-0.217
-192.217	-0.969	-0.185	-0.130
-191.202	-109.803	-0.137	-0.029
-190.187	18.496	0.044	-0.035
-189.173	-108.756	0.102	-0.022
-188.158	147.548	-0.091	0.122
-187.144	-33.646	0.249	0.137
-186.129	253.181	-0.058	0.099
-185.114	388.246	0.063	0.129
-184.100	197.585	-0.124	-0.189
-183.085	-95.849	-0.209	-0.055
-182.071	-200.000	0.104	0.000
-181.056	39.886	-0.077	0.069
-180.042	-112.446	-0.045	-0.009
-179.027	-200.000	-0.016	-0.070
-178.012	-24.419	-0.155	0.092
-176.998	-152.395	0.234	-0.017
-175.983	-53.640	0.110	-0.050
-174.969	-124.863	-0.091	0.014
-173.954	-195.654	-0.362	-0.003
-172.939	54.024	-0.111	0.106
-171.925	-66.179	0.405	-0.160
-170.910	-127.549	-0.201	0.029
-169.896	85.380	0.213	0.232
-168.881	-200.000	0.179	0.001
-167.866	-200.000	-0.016	0.241
-166.852	-200.000	0.025	0.218
-165.837	-91.254	-0.200	-0.057
-164.823	-116.894	0.116	-0.021
-163.808	209.243	0.140	0.218
-162.793	-132.639	0.229	0.029
-161.779	58.736	-0.296	0.289
-160.764	-63.343	0.184	0.075
-159.750	-115.647	0.316	0.059
-158.735	-49.151	0.172	-0.082
-157.720	-161.366	0.462	0.024
-156.706	339.162	-0.057	0.110
-155.691	-94.319	-0.222	-0.060
-154.677	-200.000	-0.017	-0.114
-153.662	-186.066	-0.240	-0.004
-152.647	143.762	0.240	-0.318
-151.633	-134.753	0.245	-0.030
-150.618	-104.080	-0.101	0.023
-149.604	-200.000	-0.020	0.222
-148.589	133.262	-0.094	0.121
-147.574	-12.627	0.060	0.039
-146.560	-125.010	-0.216	-0.033
-145.545	-200.000	-0.004	0.318
-144.531	-28.555	0.262	0.150
-143.516	132.630	-0.204	0.261
-142.502	449.526	-0.067	-0.147
-141.487	141.872	0.189	-0.249
-140.472	123.428	0.111	-0.139
-139.458	-92.837	0.412	-0.114
-138.443	-72.266	-0.380	0.140
-137.429	-133.021	0.238	-0.030
-136.414	-88.207	-0.488	0.145
-135.399	-81.130	-0.061	-0.020
-134.385	-200.000	-0.003	0.318
-133.370	124.769	0.213	-0.267
-132.356	-111.396	0.135	-0.027
-131.341	32.170	-0.270	-0.231
-130.326	-143.097	-0.196	-0.019
-129.312	140.168	0.208	0.272
-128.297	-18.531	0.232	0.144
-127.283	288.889	-0.049	-0.088
-126.268	128.093	-0.033	0.042
-125.253	128.790	0.083	-0.105
-124.239	335.812	-0.175	0.338
-123.224	76.870	-0.155	-0.164
-122.210	356.447	-0.130	0.257
