DTS Sentinel unit serial number:	SN413079Multiplexer serial number:	ORYXHardware model number:	OX4-SRSoftware version number:	ORYX F/W v4.00 Oryx Data Collector v3.7.2.0data status	okinstallation	princeton_trtdifferential loss correction	single-endedforward channel	channel 4reverse channel	N/Adate	2019/09/12time	05:55:11forward acquisition time	60.00reverse acquisition time	0.00gamma	496.2192k internal	0.2308k external	0.2308temperature offset calibration	1.0064default loss term (dB/km)	0.3790temperature slope calibration	1.0000multiplexer offset coefficient	1.0000multiplexer slope coefficient	1.0000fibre end	0.00T internal ref (°C)	32.06T ext. ref 1 (°C)	1.57T ext. ref 2 (°C)	27.49length (m)	temperature (°C)	Stokes	anti-Stokes-747.200	-75.378	-0.108	0.039
-746.185	800.000	0.109	0.338
-745.171	-200.000	0.014	-0.282
-744.156	162.920	-0.062	0.089
-743.142	-71.517	0.248	0.094
-742.127	-200.000	-0.005	-0.060
-741.112	519.664	-0.115	-0.274
-740.098	-200.000	0.018	0.263
-739.083	-79.507	-0.239	0.082
-738.069	-119.525	0.013	0.002
-737.054	800.000	-0.073	-0.235
-736.039	79.296	-0.264	-0.288
-735.025	148.970	0.138	0.189
-734.010	-200.000	-0.002	0.194
-732.996	-200.000	-0.031	-0.250
-731.981	-114.199	0.221	-0.043
-730.966	-44.301	0.317	-0.161
-729.952	800.000	0.062	0.208
-728.937	-42.495	-0.443	0.229
-727.923	3.465	-0.297	-0.220
-726.908	-200.000	-0.014	-0.091
-725.894	-89.070	-0.136	-0.041
-724.879	-132.889	-0.409	0.053
-723.864	-122.244	-0.080	0.013
-722.850	131.506	0.253	-0.331
-721.835	481.348	-0.119	-0.274
-720.821	-96.064	-0.070	-0.019
-719.806	-88.435	0.271	0.082
-718.791	-56.290	0.216	-0.098
-717.777	46.175	0.091	0.086
-716.762	248.652	0.156	-0.268
-715.748	105.408	0.086	-0.104
-714.733	77.820	0.174	-0.188
-713.718	-200.000	-0.006	0.155
-712.704	-111.285	0.151	0.031
-711.689	291.130	-0.105	-0.194
-710.675	624.110	-0.096	-0.246
-709.660	800.000	-0.050	-0.150
-708.645	-17.800	-0.149	-0.095
-707.631	-154.852	-0.175	0.012
-706.616	38.896	0.251	0.228
-705.602	-129.562	-0.289	-0.041
-704.587	-200.000	0.017	-0.261
-703.572	-9.781	-0.111	0.075
-702.558	-59.866	0.188	-0.082
-701.543	-96.054	-0.067	0.018
-700.529	-93.799	0.292	0.082
-699.514	-135.856	0.418	0.050
-698.499	-200.000	0.004	-0.112
-697.485	166.330	-0.162	-0.233
-696.470	-47.018	-0.130	-0.065
-695.456	-41.158	0.233	-0.122
-694.441	-200.000	-0.007	-0.183
-693.426	148.837	0.075	-0.103
-692.412	293.218	-0.028	0.052
-691.397	-184.667	-0.154	-0.003
-690.383	-52.469	-0.101	-0.047
-689.368	-58.339	0.154	-0.068
-688.354	800.000	-0.077	0.228
-687.339	-200.000	0.005	-0.249
-686.324	-124.699	0.356	0.056
-685.310	-133.847	0.294	-0.037
-684.295	-132.972	-0.209	0.027
-683.281	-97.288	-0.216	-0.057
-682.266	-101.003	0.188	0.047
-681.251	-142.272	0.029	-0.003
-680.237	-200.000	0.011	-0.143
-679.222	800.000	-0.053	-0.194
-678.208	164.639	-0.112	-0.160
-677.193	290.247	-0.137	0.252
-676.178	-56.542	-0.051	-0.023
-675.164	18.639	-0.105	0.085
-674.149	481.134	0.065	-0.150
-673.135	38.644	-0.145	-0.131
-672.120	280.141	0.046	0.084
-671.105	175.165	-0.178	0.261
-670.091	570.736	0.039	-0.095
-669.076	-12.458	-0.506	-0.335
-668.062	742.314	-0.070	-0.191
-667.047	800.000	-0.021	0.062
-666.032	-27.142	0.070	0.041
-665.018	11.476	0.060	0.047
-664.003	-200.000	-0.011	-0.119
-662.989	-26.470	-0.230	-0.137
-661.974	-162.288	0.226	-0.011
-660.959	-151.417	0.112	0.008
-659.945	-106.154	-0.326	0.074
-658.930	-106.647	-0.212	-0.048
-657.916	-104.758	0.289	-0.067
-656.901	120.272	-0.306	0.385
-655.886	-125.954	-0.358	0.055
-654.872	-200.000	-0.021	0.199
-653.857	-200.000	-0.007	-0.056
-652.843	-41.081	0.456	-0.238
-651.828	111.900	-0.182	0.222
-650.814	270.687	-0.074	-0.132
-649.799	-200.000	-0.007	-0.120
-648.784	110.217	0.120	0.145
-647.770	-85.347	-0.083	-0.026
-646.755	-86.722	-0.050	-0.015
-645.741	481.770	-0.173	-0.397
-644.726	-54.048	-0.220	-0.102
-643.711	-200.000	-0.021	-0.244
-642.697	-144.727	0.088	0.008
-641.682	-193.220	-0.199	0.002
-640.668	800.000	0.009	0.026
-639.653	-66.728	-0.186	0.075
-638.638	700.085	0.076	0.203
-637.624	800.000	0.021	0.092
-636.609	434.748	0.085	-0.186
-635.595	180.277	-0.119	-0.176
-634.580	-113.306	-0.355	-0.071
-633.565	141.177	0.041	-0.055
-632.551	450.443	-0.159	0.354
-631.536	-133.394	-0.125	0.016
-630.522	589.671	0.106	0.265
-629.507	-65.453	-0.026	-0.011
-628.492	16.561	-0.229	-0.183
-627.478	-7.963	0.047	0.032
-626.463	703.922	-0.089	-0.239
-625.449	168.863	-0.146	0.210
-624.434	-103.169	-0.277	0.066
-623.419	55.328	-0.169	0.165
-622.405	-74.865	-0.112	0.040
-621.390	800.000	-0.018	-0.066
-620.376	-44.419	0.156	0.079
-619.361	800.000	0.080	-0.236
-618.346	481.684	0.138	-0.317
-617.332	72.962	0.178	-0.188
-616.317	-200.000	0.032	-0.227
-615.303	-72.316	-0.270	-0.101
-614.288	-67.285	-0.198	-0.079
-613.273	-27.344	0.095	-0.056
-612.259	75.918	0.056	0.060
-611.244	-89.149	-0.129	0.039
-610.230	253.731	-0.237	0.410
-609.215	216.385	-0.088	0.142
-608.201	-155.863	-0.497	-0.032
-607.186	26.464	-0.134	-0.113
-606.171	-35.635	-0.200	-0.110
-605.157	-9.175	0.205	-0.139
-604.142	-146.883	0.061	0.005
-603.128	572.777	-0.131	-0.323
-602.113	800.000	0.048	0.144
-601.098	5.288	0.327	0.243
-600.084	15.952	-0.147	-0.117
-599.069	379.911	0.143	-0.297
-598.055	-76.537	-0.231	-0.082
-597.040	-15.423	0.125	-0.080
-596.025	291.135	-0.144	-0.264
-595.011	29.732	-0.298	0.256
-593.996	-175.301	0.160	-0.004
-592.982	-200.000	-0.009	0.140
-591.967	168.264	0.161	0.231
-590.952	-74.804	-0.342	-0.124
-589.938	-200.000	-0.032	0.247
-588.923	130.780	-0.126	0.163
-587.909	-2.750	-0.066	0.047
-586.894	666.153	-0.112	0.293
-585.879	33.906	-0.062	0.054
-584.865	148.367	-0.188	-0.256
-583.850	205.005	0.034	0.053
-582.836	404.589	0.246	0.524
-581.821	-123.091	0.192	-0.031
-580.806	1.697	-0.414	0.301
-579.792	-61.609	0.142	0.060
-578.777	63.219	0.111	-0.112
-577.763	-15.594	-0.179	0.116
-576.748	84.019	-0.144	0.158
-575.733	-34.092	0.065	0.036
-574.719	586.087	-0.095	0.235
-573.704	-152.118	0.186	0.014
-572.690	279.415	0.243	0.438
-571.675	-55.358	0.244	-0.111
-570.661	-74.183	0.556	-0.203
-569.646	-200.000	0.011	0.132
-568.631	-103.179	-0.093	0.022
-567.617	-115.741	-0.470	-0.089
-566.602	-132.587	-0.267	-0.035
-565.588	800.000	-0.103	-0.301
-564.573	107.687	-0.125	0.150
-563.558	800.000	0.013	0.044
-562.544	-200.000	0.360	-0.001
-561.529	-200.000	-0.042	-0.257
-560.515	-55.995	-0.067	-0.030
-559.500	0.279	-0.211	-0.152
-558.485	-120.780	-0.335	0.057
-557.471	800.000	-0.092	0.335
-556.456	67.682	0.130	-0.134
-555.442	-86.238	-0.116	-0.036
-554.427	209.328	-0.163	-0.257
-553.412	29.500	0.169	0.145
-552.398	-44.622	0.146	0.074
-551.383	-51.891	0.154	-0.072
-550.369	-118.844	-0.299	0.053
-549.354	81.820	0.049	0.053
-548.339	-60.234	-0.189	0.081
-547.325	-20.212	0.115	-0.072
-546.310	-151.940	-0.473	-0.035
-545.296	109.046	-0.273	0.329
-544.281	508.613	-0.058	-0.137
-543.266	-200.000	-0.029	0.252
-542.252	272.522	0.064	-0.115
-541.237	-200.000	0.003	-0.124
-540.223	-126.699	0.045	-0.007
-539.208	-115.886	0.194	-0.036
-538.193	-102.900	-0.449	-0.107
-537.179	-200.000	-0.035	-0.291
-536.164	-18.632	-0.284	-0.178
-535.150	67.757	-0.046	-0.048
-534.135	360.332	-0.158	-0.320
-533.121	132.310	0.048	0.063
-532.106	-200.000	0.005	-0.101
-531.091	-200.000	0.064	0.562
-530.077	-91.014	0.322	-0.093
-529.062	109.879	0.118	0.143
-528.048	-91.576	0.098	0.028
-527.033	800.000	-0.022	-0.082
-526.018	-200.000	0.025	0.178
-525.004	-16.238	-0.082	-0.052
-523.989	-133.825	0.354	-0.044
-522.975	-92.970	-0.742	0.209
-521.960	-55.586	0.240	0.108
-520.945	198.666	-0.061	0.094
-519.931	405.135	-0.066	0.141
-518.916	62.951	0.144	0.145
-517.902	-34.301	0.199	0.110
-516.887	-200.000	0.030	-0.280
-515.872	-55.911	-0.211	-0.095
-514.858	-21.642	0.160	0.098
-513.843	-132.083	0.218	-0.029
-512.829	-81.392	0.048	0.016
-511.814	800.000	0.021	-0.086
-510.799	-99.494	0.225	0.057
-509.785	164.403	0.067	-0.095
-508.770	151.405	0.046	-0.063
-507.756	-90.438	-0.386	0.113
-506.741	114.443	-0.047	0.058
-505.726	-53.163	-0.115	-0.053
-504.712	705.576	-0.051	-0.136
-503.697	-106.543	0.302	-0.068
-502.683	40.841	0.084	0.076
-501.668	-96.016	-0.093	-0.025
-500.653	370.069	-0.072	0.147
-499.639	137.403	-0.139	0.183
-498.624	-148.855	-0.379	0.031
-497.610	7.368	-0.370	0.279
-496.595	-200.000	-0.017	-0.113
-495.581	-130.592	-0.262	0.036
-494.566	-200.000	0.013	-0.113
-493.551	-7.611	0.064	0.044
-492.537	-200.000	0.121	-0.565
-491.522	-200.000	-0.061	-0.340
-490.508	276.341	0.135	-0.241
-489.493	-200.000	0.023	0.246
-488.478	-41.748	0.139	-0.072
-487.464	20.718	-0.190	0.155
-486.449	-77.778	0.183	0.064
-485.435	135.692	0.215	0.282
-484.420	168.504	-0.080	0.115
-483.405	-200.000	0.346	0.000
-482.391	-200.000	0.035	-0.378
-481.376	-53.867	-0.390	-0.179
-480.362	800.000	-0.106	0.347
-479.347	198.006	0.107	-0.165
-478.332	-113.972	-0.282	0.055
-477.318	-179.318	0.113	0.003
-476.303	800.000	-0.031	0.106
-475.289	99.523	0.136	-0.158
-474.274	-118.787	0.202	0.036
-473.259	149.190	-0.020	0.027
-472.245	800.000	-0.049	0.167
-471.230	-89.461	-0.297	-0.088
-470.216	174.412	-0.143	-0.208
-469.201	-166.679	0.295	-0.012
-468.186	-89.319	-0.097	-0.029
-467.172	677.967	-0.127	0.332
-466.157	-104.528	0.227	0.053
-465.143	47.589	-0.162	-0.152
-464.128	-164.889	0.260	0.012
-463.113	-162.115	-0.294	0.015
-462.099	800.000	-0.075	0.262
-461.084	-4.069	-0.359	-0.250
-460.070	118.584	-0.082	0.101
-459.055	81.438	0.099	0.108
-458.040	-109.346	-0.039	0.008
-457.026	-200.000	0.011	-0.090
-456.011	181.593	0.197	0.292
-454.997	311.490	0.108	0.203
-453.982	140.542	0.079	-0.104
-452.968	-60.320	-0.333	0.142
-451.953	800.000	0.038	0.121
-450.938	-86.424	0.392	-0.121
-449.924	-179.157	-0.118	-0.003
-448.909	509.900	-0.077	0.180
-447.895	-108.199	0.306	0.067
-446.880	-37.416	-0.112	-0.060
-445.865	396.887	0.036	0.075
-444.851	296.810	0.108	0.198
-443.836	308.198	-0.182	0.341
-442.822	9.365	-0.098	-0.075
-441.807	86.543	0.132	0.147
-440.792	31.456	-0.138	0.119
-439.778	-48.887	0.231	0.111
-438.763	-200.000	0.025	-0.342
-437.749	660.125	-0.106	-0.273
-436.734	-200.000	-0.021	-0.130
-435.719	-86.404	-0.233	0.072
-434.705	-59.786	0.083	-0.036
-433.690	2.278	-0.141	0.103
-432.676	0.279	-0.189	-0.136
-431.661	-63.196	-0.088	-0.037
-430.646	-40.011	-0.284	-0.149
-429.632	-89.483	-0.161	0.047
-428.617	-189.898	0.118	-0.001
-427.603	359.981	-0.134	0.270
-426.588	-13.629	0.438	0.285
-425.573	238.094	-0.106	-0.176
-424.559	635.181	-0.071	-0.181
-423.544	-200.000	0.010	-0.100
-422.530	-81.349	0.426	-0.141
-421.515	-41.348	-0.298	0.154
-420.500	800.000	-0.027	0.099
-419.486	70.491	0.088	0.091
-418.471	9.338	0.323	0.245
-417.457	58.785	0.299	-0.295
-416.442	-138.153	-0.369	-0.041
-415.428	800.000	-0.068	0.287
-414.413	-90.761	0.166	-0.048
-413.398	451.655	0.132	0.293
-412.384	59.870	-0.278	-0.276
-411.369	-200.000	0.061	-0.293
-410.355	-200.000	-0.048	0.287
-409.340	-200.000	-0.025	-0.196
-408.325	-51.359	-0.184	0.086
-407.311	800.000	-0.036	-0.151
-406.296	596.883	-0.129	0.319
-405.282	-103.534	0.147	0.035
-404.267	-179.966	-0.131	0.003
-403.252	-142.969	-0.547	-0.053
-402.238	-200.000	-0.000	0.060
-401.223	296.730	-0.058	-0.107
-400.209	24.475	-0.043	-0.035
-399.194	262.159	-0.076	0.132
-398.179	-13.880	-0.258	0.167
-397.165	-125.878	-0.259	-0.039
-396.150	124.971	0.043	0.054
-395.136	43.961	0.283	-0.260
-394.121	-116.975	0.115	0.021
-393.106	-81.647	-0.307	-0.101
-392.092	800.000	-0.052	-0.161
-391.077	116.669	-0.248	-0.305
-390.063	-7.096	0.351	-0.239
-389.048	103.448	0.149	0.176
-388.033	221.459	-0.200	0.323
-387.019	58.178	0.073	-0.072
-386.004	33.580	0.071	-0.062
-384.990	142.456	0.139	-0.185
-383.975	75.960	0.378	-0.400
-382.960	-20.785	0.240	-0.148
-381.946	41.824	0.328	0.298
-380.931	185.289	-0.092	-0.137
-379.917	709.410	0.157	-0.417
-378.902	414.957	-0.019	-0.040
-377.888	-33.018	0.344	0.191
-376.873	465.144	-0.037	0.083
-375.858	452.194	0.035	-0.077
-374.844	27.994	-0.113	0.096
-373.829	-138.959	-0.138	0.015
-372.815	283.781	-0.123	-0.221
-371.800	-53.559	0.067	0.031
-370.785	369.622	0.123	-0.250
-369.771	-76.755	0.226	-0.079
-368.756	195.262	0.069	0.105
-367.742	356.438	0.126	-0.252
-366.727	8.541	-0.100	-0.075
-365.712	36.927	0.223	-0.198
-364.698	-200.000	-0.022	0.132
-363.683	-68.519	0.146	-0.057
-362.669	188.752	0.230	0.345
-361.654	61.356	0.125	-0.125
-360.639	-54.457	-0.277	-0.126
-359.625	-93.308	-0.155	-0.043
-358.610	-200.000	0.198	-0.000
-357.596	-200.000	0.008	0.058
-356.581	-200.000	-0.008	0.056
-355.566	-200.000	0.004	0.072
-354.552	674.104	-0.128	-0.334
-353.537	-126.676	0.358	-0.053
-352.523	800.000	0.054	-0.186
-351.508	-92.970	-0.109	-0.030
-350.493	387.036	-0.087	-0.180
-349.479	-13.177	-0.137	-0.089
-348.464	38.858	0.387	-0.346
-347.450	254.663	-0.080	0.137
-346.435	-163.254	-0.392	-0.019
-345.420	-200.000	-0.034	-0.158
-344.406	-97.293	0.202	0.053
-343.391	-36.188	-0.205	-0.111
-342.377	-58.399	0.205	0.089
-341.362	-34.727	-0.162	0.088
-340.348	119.137	-0.295	-0.366
-339.333	-14.005	-0.140	0.091
-338.318	33.061	0.086	-0.074
-337.304	134.049	-0.058	0.075
-336.289	-48.917	-0.121	-0.058
-335.275	-200.000	0.060	-0.313
-334.260	-32.684	-0.337	-0.187
-333.245	129.197	0.107	0.136
-332.231	-1.790	-0.057	-0.040
-331.216	499.198	-0.083	0.192
-330.202	-14.605	0.165	0.106
-329.187	-41.730	0.122	-0.063
-328.172	-164.934	-0.384	-0.017
-327.158	-80.132	-0.110	-0.037
-326.143	169.138	0.161	0.230
-325.129	-181.794	-0.101	-0.002
-324.114	532.264	0.101	0.240
-323.099	150.611	0.250	0.339
-322.085	-1.137	0.380	0.268
-321.070	800.000	-0.026	-0.109
-320.056	18.441	0.031	0.025
-319.041	-52.072	0.064	0.030
-318.026	800.000	-0.035	0.117
-317.012	52.821	0.141	0.135
-315.997	215.213	-0.150	-0.238
-314.983	82.515	-0.175	0.190
-313.968	800.000	0.070	0.205
-312.953	-125.247	0.266	0.041
-311.939	800.000	0.079	0.243
-310.924	324.640	0.119	0.228
-309.910	-200.000	-0.033	0.248
-308.895	-85.250	0.329	-0.103
-307.880	130.125	-0.128	0.164
-306.866	71.170	-0.253	-0.262
-305.851	126.812	0.204	-0.258
-304.837	-46.064	0.505	-0.249
-303.822	-119.508	-0.072	0.012
-302.807	158.263	-0.304	-0.421
-301.793	120.920	-0.237	-0.295
-300.778	800.000	-0.094	0.320
-299.764	800.000	0.075	0.308
-298.749	800.000	0.086	0.237
-297.735	-61.035	0.167	-0.070
-296.720	-88.197	0.056	0.017
-295.705	-27.253	-0.315	-0.183
-294.691	-200.000	-0.013	0.207
-293.676	45.947	0.103	-0.095
-292.662	-61.192	0.082	0.034
-291.647	500.087	0.068	0.157
-290.632	123.206	0.073	0.092
-289.618	104.535	-0.075	-0.089
-288.603	24.610	0.024	0.020
-287.589	424.019	-0.243	-0.521
-286.574	342.310	0.060	0.117
-285.559	-139.718	0.321	0.034
-284.545	800.000	-0.063	0.205
-283.530	-15.189	0.208	0.133
-282.516	324.287	0.063	0.120
-281.501	46.664	0.222	0.206
-280.486	205.496	-0.101	-0.156
-279.472	-48.262	-0.101	0.049
-278.457	800.000	0.090	0.366
-277.443	40.668	0.058	0.053
-276.428	800.000	-0.160	-0.474
-275.413	-90.688	-0.058	0.017
-274.399	-122.260	0.046	-0.008
-273.384	-138.616	0.293	0.032
-272.370	315.197	0.063	0.119
-271.355	23.863	-0.051	0.042
-270.340	174.475	-0.261	-0.377
-269.326	681.567	0.041	0.106
-268.311	-2.816	0.148	0.103
-267.297	263.154	0.093	0.161
-266.282	800.000	-0.017	-0.063
-265.267	-113.411	0.166	0.032
-264.253	-99.075	-0.296	0.075
-263.238	-147.138	0.195	-0.017
-262.224	335.747	-0.062	0.121
-261.209	431.949	-0.123	-0.267
-260.195	-125.025	-0.200	-0.031
-259.180	-41.781	-0.160	-0.082
-258.165	41.623	-0.040	0.036
-257.151	70.393	0.103	0.106
-256.136	-200.000	-0.047	0.385
-255.122	-200.000	0.020	0.135
-254.107	45.302	0.127	-0.117
-253.092	338.330	-0.120	0.232
-252.078	-200.000	-0.015	-0.180
-251.063	-200.000	-0.061	0.294
-250.049	-48.990	0.389	0.186
-249.034	491.720	0.066	0.150
-248.019	25.102	-0.045	-0.037
-247.005	69.972	0.121	0.125
-245.990	-79.029	0.300	-0.102
-244.976	152.581	0.163	0.222
-243.961	115.991	-0.009	0.011
-242.946	-103.754	0.110	0.026
-241.932	-84.134	0.176	-0.056
-240.917	-97.407	-0.301	-0.078
-239.903	-73.067	0.156	-0.057
-238.888	618.667	0.013	-0.034
-237.873	90.604	-0.113	-0.127
-236.859	-155.660	0.361	-0.023
-235.844	18.064	0.371	-0.295
-234.830	327.482	-0.093	0.178
-233.815	-200.000	0.018	0.086
-232.800	-129.269	0.250	-0.035
-231.786	90.130	-0.134	-0.149
-230.771	1.028	0.098	0.070
-229.757	208.453	0.036	-0.057
-228.742	-200.000	0.036	0.224
-227.727	-77.129	-0.217	-0.075
-226.713	-18.775	-0.274	-0.170
-225.698	217.471	0.180	-0.286
-224.684	-43.002	0.280	-0.142
-223.669	-200.000	0.035	-0.189
-222.655	-200.000	0.016	-0.177
-221.640	-200.000	0.017	-0.162
-220.625	75.760	0.108	-0.114
-219.611	-98.650	0.404	0.103
-218.596	158.053	0.202	-0.279
-217.582	202.198	0.087	-0.133
-216.567	-200.000	0.000	0.138
-215.552	26.174	0.156	-0.130
-214.538	-200.000	0.010	-0.117
-213.523	-85.760	0.141	-0.043
-212.509	-100.966	-0.164	-0.040
-211.494	294.546	0.063	0.115
-210.479	800.000	0.064	-0.229
-209.465	-200.000	0.025	0.327
-208.450	-48.650	0.142	0.068
-207.436	-200.000	-0.007	-0.144
-206.421	110.806	0.096	-0.115
-205.406	-161.537	-0.246	0.013
-204.392	-37.113	0.330	-0.176
-203.377	259.102	0.221	0.379
-202.363	800.000	0.064	0.196
-201.348	800.000	0.065	0.238
-200.333	241.127	0.114	0.189
-199.319	-164.158	0.110	-0.005
-198.304	-126.155	0.200	-0.030
-197.290	50.919	0.140	0.132
-196.275	-8.644	-0.296	0.198
-195.260	199.675	0.220	-0.336
-194.246	13.142	0.076	-0.059
-193.231	-60.826	-0.082	0.035
-192.217	110.326	-0.158	0.189
-191.202	-200.000	0.001	0.196
-190.187	-187.181	0.165	0.002
-189.173	-200.000	0.036	0.206
-188.158	399.096	0.074	0.155
-187.144	-200.000	0.041	0.205
-186.129	-200.000	0.007	0.061
-185.114	-200.000	0.016	-0.099
-184.100	800.000	0.022	-0.076
-183.085	192.816	-0.080	0.120
-182.071	-200.000	0.024	-0.298
-181.056	296.086	-0.119	0.216
-180.042	-80.282	-0.160	-0.053
-179.027	-200.000	0.010	-0.292
-178.012	-106.622	0.467	-0.103
-176.998	-150.130	-0.213	0.016
-175.983	-75.730	-0.223	0.079
-174.969	800.000	0.058	-0.194
-173.954	78.367	-0.081	-0.086
-172.939	259.792	-0.154	0.264
-171.925	116.801	0.134	-0.163
-170.910	-140.746	-0.147	0.015
-169.896	-186.098	0.325	-0.005
-168.881	663.475	0.185	0.474
-167.866	-4.596	-0.136	-0.093
-166.852	38.235	-0.179	0.159
-165.837	537.788	0.030	-0.071
-164.823	641.269	-0.024	0.062
-163.808	300.922	0.154	-0.283
-162.793	-200.000	0.047	-0.556
-161.779	7.120	-0.096	0.071
-160.764	-200.000	0.009	0.150
-159.750	-116.171	-0.237	-0.044
-158.735	-3.539	0.432	-0.299
-157.720	-124.415	-0.198	0.031
-156.706	128.776	-0.032	0.040
-155.691	6.062	0.169	-0.124
-154.677	-200.000	-0.057	0.277
-153.662	-26.058	0.228	-0.133
-152.647	800.000	0.045	-0.171
-151.633	-29.805	0.135	-0.077
-150.618	39.996	-0.200	-0.178
-149.604	175.628	-0.140	-0.201
-148.589	-89.620	-0.187	-0.055
-147.574	747.260	0.071	0.191
-146.560	137.272	0.134	-0.173
-145.545	212.529	-0.090	-0.141
-144.531	-34.395	0.050	-0.027
-143.516	51.255	-0.099	0.093
-142.502	74.368	0.134	-0.140
-141.487	-200.000	-0.020	0.241
-140.472	495.819	0.061	-0.140
-139.458	-100.239	0.093	0.023
-138.443	211.558	0.136	-0.213
-137.429	-140.902	-0.203	0.021
-136.414	691.834	0.066	-0.172
-135.399	-200.000	0.001	0.026
-134.385	233.780	-0.118	0.194
-133.370	-97.205	-0.065	0.017
-132.356	62.665	0.151	-0.150
-131.341	294.823	-0.043	0.078
-130.326	552.032	0.092	0.219
-129.312	-5.828	0.056	-0.038
-128.297	-6.171	0.138	0.094
-127.283	88.777	-0.108	-0.119
-126.268	85.158	-0.164	0.178
-125.253	-54.310	0.096	0.043
-124.239	-148.095	0.292	0.024
-123.224	196.518	0.216	0.326
-122.210	-117.318	0.268	0.048
-121.195	-19.837	0.125	-0.076
