DTS Sentinel unit serial number:	SN413079Multiplexer serial number:	ORYXHardware model number:	OX4-SRSoftware version number:	ORYX F/W v4.00 Oryx Data Collector v3.7.2.0data status	okinstallation	princeton_trtdifferential loss correction	single-endedforward channel	channel 4reverse channel	N/Adate	2019/09/11time	08:15:11forward acquisition time	60.00reverse acquisition time	0.00gamma	496.2192k internal	0.2306k external	0.2306temperature offset calibration	0.9976default loss term (dB/km)	0.3790temperature slope calibration	1.0000multiplexer offset coefficient	1.0000multiplexer slope coefficient	1.0000fibre end	0.00T internal ref (°C)	32.56T ext. ref 1 (°C)	0.17T ext. ref 2 (°C)	29.58length (m)	temperature (°C)	Stokes	anti-Stokes-747.200	-42.566	-0.167	-0.086
-746.185	329.363	-0.092	0.180
-745.171	-140.326	-0.307	0.033
-744.156	27.391	-0.613	0.525
-743.142	800.000	0.151	0.441
-742.127	-144.886	-0.430	0.040
-741.112	81.902	0.096	0.106
-740.098	-200.000	-0.021	0.165
-739.083	-200.000	0.025	-0.305
-738.069	800.000	0.029	0.089
-737.054	15.723	0.140	0.112
-736.039	372.638	-0.098	0.202
-735.025	800.000	0.064	0.211
-734.010	-34.759	-0.170	-0.094
-732.996	-200.000	-0.024	-0.280
-731.981	618.597	0.052	0.133
-730.966	800.000	-0.103	-0.375
-729.952	-37.944	0.321	0.174
-728.937	-175.859	0.112	-0.003
-727.923	-132.801	0.366	-0.047
-726.908	647.255	0.070	-0.182
-725.894	800.000	0.074	-0.272
-724.879	-149.251	0.103	0.008
-723.864	696.850	-0.068	-0.183
-722.850	-40.266	-0.418	-0.221
-721.835	-4.969	0.124	0.087
-720.821	800.000	-0.133	-0.412
-719.806	50.705	-0.154	-0.148
-718.791	242.944	-0.149	0.254
-717.777	196.844	-0.096	-0.149
-716.762	-131.458	-0.370	-0.050
-715.748	-174.809	0.254	-0.007
-714.733	214.078	-0.117	-0.189
-713.718	-20.020	0.175	0.109
-712.704	69.573	0.252	-0.264
-711.689	-200.000	-0.048	-0.325
-710.675	-117.043	-0.122	-0.023
-709.660	440.682	-0.069	-0.152
-708.645	-200.000	-0.004	-0.087
-707.631	45.487	-0.200	0.187
-706.616	72.161	-0.242	0.256
-705.602	24.507	0.248	0.208
-704.587	-30.260	0.252	0.145
-703.572	-43.037	-0.085	0.044
-702.558	800.000	0.061	0.243
-701.543	-51.966	0.005	0.002
-700.529	-68.694	0.108	-0.042
-699.514	-54.590	0.186	-0.086
-698.499	-147.724	0.617	0.053
-697.485	-96.359	0.149	0.040
-696.470	-200.000	0.039	-0.183
-695.456	52.153	-0.372	-0.360
-694.441	-132.561	0.137	-0.018
-693.426	212.346	0.132	-0.211
-692.412	27.141	-0.023	0.019
-691.397	230.644	-0.136	0.226
-690.383	-200.000	-0.002	0.185
-689.368	3.023	-0.295	-0.218
-688.354	-21.334	0.113	0.070
-687.339	-200.000	-0.008	0.228
-686.324	-17.974	-0.266	0.169
-685.310	-200.000	0.054	-0.263
-684.295	139.261	-0.172	-0.230
-683.281	-5.332	-0.272	-0.189
-682.266	-200.000	-0.001	-0.035
-681.251	-82.708	0.164	0.054
-680.237	-69.672	0.176	-0.068
-679.222	-81.143	0.085	-0.029
-678.208	-43.926	-0.216	-0.110
-677.193	-7.603	-0.232	0.159
-676.178	-29.138	-0.319	0.185
-675.164	800.000	0.060	-0.170
-674.149	-123.804	-0.285	0.046
-673.135	-180.522	0.225	0.005
-672.120	-11.967	0.171	-0.114
-671.105	132.747	0.242	-0.317
-670.091	77.126	0.319	0.344
-669.076	800.000	0.060	0.206
-668.062	70.428	-0.121	0.126
-667.047	-200.000	0.025	0.351
-666.032	800.000	-0.092	-0.352
-665.018	699.499	-0.025	-0.068
-664.003	197.544	0.208	-0.322
-662.989	49.863	-0.021	-0.020
-661.974	-57.356	-0.242	-0.108
-660.959	711.660	0.046	-0.123
-659.945	110.551	0.088	-0.107
-658.930	-200.000	0.023	-0.125
-657.916	-50.070	-0.357	0.172
-656.901	231.333	-0.107	0.177
-655.886	-16.799	-0.069	0.044
-654.872	-132.143	-0.512	-0.067
-653.857	-91.044	-0.136	0.040
-652.843	123.811	-0.124	-0.158
-651.828	-200.000	-0.016	-0.084
-650.814	800.000	-0.038	0.155
-649.799	26.155	-0.279	0.236
-648.784	-200.000	0.022	0.109
-647.770	55.873	0.067	0.066
-646.755	-14.227	-0.221	0.144
-645.741	-75.606	-0.160	-0.057
-644.726	-29.288	-0.135	-0.079
-643.711	627.666	-0.134	-0.344
-642.697	198.720	-0.139	-0.215
-641.682	336.913	-0.181	-0.356
-640.668	-11.614	-0.338	0.225
-639.653	-127.762	-0.281	0.041
-638.638	-17.597	-0.034	-0.021
-637.624	11.827	-0.338	0.263
-636.609	-200.000	-0.060	0.670
-635.595	-65.303	0.119	-0.049
-634.580	270.437	0.237	0.422
-633.565	190.426	-0.193	0.293
-632.551	233.252	0.108	-0.179
-631.536	-130.348	-0.247	-0.034
-630.522	800.000	-0.063	-0.246
-629.507	103.709	0.059	0.070
-628.492	-160.459	0.240	0.013
-627.478	419.134	0.116	0.252
-626.463	-28.412	-0.472	-0.276
-625.449	-23.375	0.190	-0.115
-624.434	448.969	0.101	-0.225
-623.419	420.519	-0.091	-0.199
-622.405	13.835	-0.156	-0.123
-621.390	-20.682	-0.037	0.023
-620.376	800.000	-0.054	0.160
-619.361	-200.000	-0.006	0.053
-618.346	-10.000	-0.229	0.154
-617.332	440.022	0.178	-0.394
-616.317	-200.000	0.004	-0.090
-615.303	4.367	0.246	0.183
-614.288	-52.240	-0.134	0.063
-613.273	46.011	0.133	-0.125
-612.259	-119.952	0.230	-0.040
-611.244	-143.785	0.270	0.026
-610.230	-200.000	-0.038	0.207
-609.215	250.888	-0.102	0.176
-608.201	800.000	0.019	-0.055
-607.186	-200.000	-0.058	0.307
-606.171	-82.995	0.043	0.014
-605.157	709.183	0.028	0.075
-604.142	-32.392	-0.127	0.072
-603.128	-125.815	-0.303	0.046
-602.113	800.000	0.064	0.234
-601.098	-153.606	-0.303	0.021
-600.084	-195.473	0.037	0.000
-599.069	429.153	-0.105	-0.229
-598.055	-61.865	-0.159	-0.067
-597.040	-2.466	0.154	0.109
-596.025	112.352	-0.094	-0.115
-595.011	800.000	0.070	0.230
-593.996	88.525	0.193	-0.217
-592.982	-187.746	-0.228	0.003
-591.967	-200.000	-0.019	-0.224
-590.952	-0.936	-0.233	-0.166
-589.938	-49.013	0.237	-0.115
-588.923	82.134	0.113	0.124
-587.909	-10.886	0.183	0.122
-586.894	800.000	-0.070	0.205
-585.879	245.791	-0.026	-0.044
-584.865	-87.169	-0.320	0.098
-583.850	214.838	-0.159	-0.255
-582.836	10.082	0.264	-0.203
-581.821	-38.354	-0.378	-0.202
-580.806	35.949	0.087	-0.077
-579.792	113.159	-0.132	0.162
-578.777	449.404	0.157	0.349
-577.763	-35.640	-0.036	0.020
-576.748	-147.678	0.137	0.012
-575.733	800.000	-0.048	-0.191
-574.719	193.448	0.218	-0.334
-573.704	292.454	0.058	-0.108
-572.690	77.109	0.131	-0.141
-571.675	-58.023	-0.168	0.074
-570.661	54.911	0.059	0.058
-569.646	14.899	0.168	-0.133
-568.631	-84.329	0.155	-0.050
-567.617	-18.260	0.293	0.185
-566.602	800.000	0.049	-0.174
-565.588	-6.340	0.159	-0.110
-564.573	-200.000	-0.036	0.360
-563.558	-146.092	-0.422	0.038
-562.544	-200.000	0.040	-0.205
-561.529	-200.000	-0.011	-0.104
-560.515	-190.312	0.247	0.003
-559.500	2.287	0.054	-0.040
-558.485	-200.000	-0.019	0.136
-557.471	-62.888	0.153	-0.064
-556.456	60.324	-0.107	0.107
-555.442	-68.845	0.452	0.176
-554.427	99.983	0.185	-0.216
-553.412	-51.423	-0.106	-0.050
-552.398	-111.249	0.205	-0.042
-551.383	-19.871	0.190	-0.119
-550.369	80.506	-0.332	-0.362
-549.354	-200.000	0.079	-0.465
-548.339	-183.865	0.143	0.002
-547.325	-84.223	0.116	-0.037
-546.310	13.039	-0.141	0.110
-545.296	-79.649	0.240	-0.082
-544.281	-200.000	-0.008	-0.224
-543.266	-200.000	0.041	0.224
-542.252	-66.137	-0.194	-0.078
-541.237	308.091	0.071	0.133
-540.223	97.785	-0.270	-0.313
-539.208	148.173	-0.148	-0.202
-538.193	48.578	0.194	0.183
-537.179	171.371	-0.092	0.133
-536.164	142.136	-0.301	-0.402
-535.150	25.728	-0.210	0.176
-534.135	520.014	-0.170	0.402
-533.121	-200.000	0.056	-0.271
-532.106	283.108	0.046	-0.083
-531.091	378.688	0.145	-0.300
-530.077	-200.000	0.015	-0.213
-529.062	-146.660	0.258	-0.023
-528.048	148.752	-0.097	-0.132
-527.033	90.934	0.120	-0.136
-526.018	-200.000	-0.004	0.111
-525.004	-200.000	0.018	-0.096
-523.989	800.000	-0.088	-0.281
-522.975	-149.563	-0.303	0.024
-521.960	-17.256	-0.075	-0.048
-520.945	-200.000	-0.181	0.001
-519.931	685.843	-0.098	-0.257
-518.916	-200.000	0.003	0.335
-517.902	101.292	0.288	0.338
-516.887	-200.000	0.007	-0.292
-515.872	118.572	0.298	-0.371
-514.858	631.009	0.129	0.330
-513.843	-80.065	0.230	-0.078
-512.829	-200.000	-0.023	-0.434
-511.814	96.782	-0.125	-0.144
-510.799	37.911	0.207	-0.185
-509.785	-197.662	-0.395	0.002
-508.770	309.821	-0.130	0.245
-507.756	-136.303	0.460	0.054
-506.741	-115.506	-0.283	0.054
-505.726	97.970	-0.098	-0.114
-504.712	-200.000	-0.007	-0.414
-503.697	83.674	-0.164	0.180
-502.683	-18.162	-0.144	0.091
-501.668	126.017	0.084	-0.107
-500.653	159.889	-0.281	-0.395
-499.639	-87.403	-0.221	-0.068
-498.624	-200.000	0.014	-0.123
-497.610	-59.364	0.388	0.168
-496.595	-37.961	-0.175	0.094
-495.581	57.676	0.297	-0.293
-494.566	-106.840	0.045	0.010
-493.551	-80.752	-0.325	-0.109
-492.537	800.000	0.046	-0.154
-491.522	-200.000	0.029	-0.176
-490.508	-200.000	0.036	-0.229
-489.493	-200.000	0.051	-0.384
-488.478	509.067	0.180	-0.422
-487.464	368.427	-0.060	0.121
-486.449	71.477	0.153	-0.160
-485.435	800.000	0.118	0.356
-484.420	195.301	0.078	0.119
-483.405	-23.811	-0.347	-0.209
-482.391	60.107	0.253	-0.252
-481.376	10.426	0.151	-0.115
-480.362	-200.000	0.043	0.304
-479.347	800.000	-0.020	-0.079
-478.332	-162.604	0.320	0.016
-477.318	-138.914	-0.337	0.037
-476.303	99.367	-0.157	0.182
-475.289	680.011	0.064	-0.167
-474.274	-101.882	0.225	-0.055
-473.259	800.000	-0.065	-0.233
-472.245	-83.248	0.190	-0.062
-471.230	-200.000	0.066	-0.303
-470.216	339.585	-0.057	-0.112
-469.201	800.000	0.082	0.258
-468.186	778.794	-0.063	-0.172
-467.172	-200.000	-0.014	0.200
-466.157	800.000	-0.080	0.283
-465.143	-174.034	0.425	-0.013
-464.128	278.078	-0.072	-0.129
-463.113	-200.000	-0.032	0.220
-462.099	-63.008	0.101	0.042
-461.084	-43.659	-0.114	-0.058
-460.070	800.000	-0.052	0.180
-459.055	506.320	-0.102	-0.237
-458.040	-109.640	0.255	-0.054
-457.026	248.371	-0.169	-0.288
-456.011	86.808	0.165	0.183
-454.997	-138.519	-0.493	-0.055
-453.982	36.543	-0.118	0.105
-452.968	81.260	0.165	-0.179
-451.953	15.717	0.185	-0.146
-450.938	186.299	0.082	0.122
-449.924	-177.854	0.271	-0.007
-448.909	-175.339	-0.185	0.005
-447.895	-69.702	-0.239	-0.092
-446.880	597.909	0.116	0.288
-445.865	-149.830	0.128	-0.010
-444.851	643.071	0.055	-0.141
-443.836	-200.000	-0.006	-0.041
-442.822	-4.899	0.108	-0.075
-441.807	125.515	-0.095	0.121
-440.792	-95.256	-0.106	-0.029
-439.778	-200.000	0.022	0.253
-438.763	35.654	0.163	-0.144
-437.749	201.036	0.141	0.219
-436.734	15.320	-0.218	0.172
-435.719	211.543	0.086	-0.136
-434.705	232.042	0.044	0.073
-433.690	-78.913	0.247	0.085
-432.676	187.775	-0.028	0.042
-431.661	123.024	-0.068	0.086
-430.646	-200.000	-0.007	0.199
-429.632	102.426	-0.385	0.453
-428.617	-82.232	0.087	-0.028
-427.603	-200.000	0.102	-0.000
-426.588	-5.775	0.073	0.050
-425.573	800.000	-0.046	0.157
-424.559	-13.229	-0.193	-0.126
-423.544	97.364	-0.146	-0.168
-422.530	-200.000	-0.044	0.262
-421.515	800.000	-0.098	-0.339
-420.500	800.000	-0.068	0.256
-419.486	-74.462	-0.468	-0.170
-418.471	-91.489	-0.122	0.035
-417.457	-105.803	-0.175	-0.040
-416.442	219.359	0.015	-0.024
-415.428	294.956	-0.106	-0.195
-414.413	85.896	-0.066	-0.073
-413.398	800.000	0.048	-0.174
-412.384	-200.000	-0.047	0.221
-411.369	-6.472	-0.135	0.093
-410.355	296.868	-0.056	-0.103
-409.340	-60.920	0.284	0.120
-408.325	48.262	0.152	0.143
-407.311	81.644	0.074	0.080
-406.296	664.815	-0.097	-0.252
-405.282	597.862	0.092	0.228
-404.267	181.802	-0.178	-0.263
-403.252	96.121	-0.016	0.018
-402.238	33.431	0.139	0.121
-401.223	-200.000	0.032	0.388
-400.209	122.302	-0.127	0.159
-399.194	331.022	-0.210	-0.407
-398.179	224.345	-0.119	0.193
-397.165	310.527	0.123	0.230
-396.150	107.903	0.020	0.024
-395.136	800.000	-0.079	0.230
-394.121	83.228	-0.266	0.291
-393.106	55.013	0.150	0.145
-392.092	398.115	0.076	-0.160
-391.077	159.407	0.271	-0.379
-390.063	84.421	0.289	0.317
-389.048	520.952	0.009	0.021
-388.033	-32.306	0.331	0.185
-387.019	-103.412	-0.544	0.129
-386.004	525.813	-0.026	0.062
-384.990	227.051	-0.195	0.318
-383.975	32.170	0.100	-0.086
-382.960	-2.178	-0.185	0.130
-381.946	63.144	0.216	-0.217
-380.931	-200.000	0.003	-0.176
-379.917	45.657	-0.063	-0.059
-378.902	-63.487	0.370	-0.153
-377.888	321.552	0.088	-0.168
-376.873	-147.192	-0.224	-0.019
-375.858	765.009	-0.092	0.251
-374.844	-66.913	0.088	0.035
-373.829	303.151	-0.101	0.188
-372.815	-107.989	-0.124	-0.027
-371.800	76.910	-0.132	-0.141
-370.785	302.765	-0.147	0.273
-369.771	-200.000	0.016	-0.287
-368.756	-40.876	0.184	-0.095
-367.742	158.141	-0.137	0.190
-366.727	217.948	-0.173	-0.277
-365.712	-81.006	0.395	-0.131
-364.698	-50.384	-0.293	0.139
-363.683	174.435	0.052	-0.075
-362.669	19.566	0.069	0.055
-361.654	-56.676	-0.155	-0.069
-360.639	-133.447	-0.234	0.029
-359.625	199.576	-0.136	0.209
-358.610	55.292	-0.201	0.195
-357.596	-83.443	-0.083	0.027
-356.581	16.595	-0.154	-0.122
-355.566	80.021	-0.162	0.175
-354.552	34.471	0.175	0.153
-353.537	371.210	0.060	-0.122
-352.523	800.000	0.137	0.465
-351.508	184.208	-0.179	0.266
-350.493	-200.000	-0.087	-0.406
-349.479	-200.000	0.049	0.314
-348.464	-200.000	0.010	0.369
-347.450	-184.242	0.184	-0.003
-346.435	-38.862	-0.115	0.061
-345.420	241.317	-0.150	-0.251
-344.406	334.064	0.155	-0.301
-343.391	-200.000	-0.038	0.230
-342.377	800.000	-0.019	-0.058
-341.362	-24.478	0.032	-0.019
-340.348	481.829	-0.060	0.137
-339.333	81.736	-0.216	-0.235
-338.318	30.385	0.345	0.295
-337.304	-118.783	-0.051	0.009
-336.289	800.000	0.084	0.254
-335.275	120.909	0.070	-0.088
-334.260	-23.016	0.036	0.022
-333.245	-42.629	0.173	0.088
-332.231	-200.000	0.017	-0.327
-331.216	-8.890	0.175	0.118
-330.202	-172.359	-0.445	0.014
-329.187	-200.000	-0.033	0.168
-328.172	-51.019	0.357	-0.168
-327.158	-69.071	0.102	-0.039
-326.143	190.359	-0.139	0.209
-325.129	57.046	0.139	-0.136
-324.114	-68.936	0.316	-0.122
-323.099	79.138	-0.211	0.226
-322.085	-124.209	0.019	0.003
-321.070	758.320	0.120	-0.325
-320.056	-53.188	-0.261	0.120
-319.041	91.977	-0.120	0.135
-318.026	-11.452	0.255	-0.168
-317.012	37.443	0.199	-0.177
-315.997	800.000	0.027	0.098
-314.983	-200.000	0.012	-0.520
-313.968	-180.730	0.282	0.006
-312.953	508.244	-0.075	0.175
-311.939	-69.875	0.175	0.067
-310.924	-25.209	0.268	0.159
-309.910	555.632	0.157	0.379
-308.895	-200.000	-0.032	0.340
-307.880	-100.797	-0.205	-0.051
-306.866	-29.656	-0.212	-0.121
-305.851	-146.802	0.261	-0.023
-304.837	110.502	-0.193	-0.232
-303.822	-124.538	-0.174	0.027
-302.807	-51.049	-0.277	0.130
-301.793	233.336	0.064	-0.105
-300.778	-200.000	0.093	0.422
-299.764	-116.599	0.083	0.015
-298.749	75.063	-0.077	-0.081
-297.735	31.258	-0.110	0.095
-296.720	338.455	0.030	-0.058
-295.705	47.300	-0.188	-0.175
-294.691	-200.000	-0.099	-0.510
-293.676	-71.893	-0.138	0.051
-292.662	12.732	-0.119	0.092
-291.647	-106.861	0.324	0.072
-290.632	38.345	0.140	0.125
-289.618	-52.968	0.358	-0.165
-288.603	514.123	-0.021	0.050
-287.589	13.364	0.228	-0.177
-286.574	800.000	-0.050	-0.169
-285.559	-200.000	0.035	-0.168
-284.545	0.391	0.103	0.073
-283.530	271.561	0.139	0.244
-282.516	25.804	0.228	0.190
-281.501	238.356	-0.078	-0.129
-280.486	-70.208	0.362	0.137
-279.472	-147.838	-0.261	0.022
-278.457	800.000	0.021	-0.071
-277.443	-96.285	-0.107	-0.028
-276.428	-62.211	0.129	-0.054
-275.413	-200.000	-0.033	0.220
-274.399	-200.000	0.049	-0.250
-273.384	-72.974	0.573	-0.210
-272.370	-200.000	0.063	-0.293
-271.355	-68.110	0.181	0.070
-270.340	-130.307	0.103	0.014
-269.326	-200.000	-0.015	-0.446
-268.311	-200.000	0.004	-0.188
-267.297	-32.715	-0.049	0.027
-266.282	-54.770	0.038	0.017
-265.267	800.000	0.030	-0.108
-264.253	-74.374	-0.168	0.061
-263.238	800.000	0.115	0.334
-262.224	-111.538	0.144	-0.029
-261.209	-200.000	-0.013	-0.068
-260.195	-72.405	0.324	0.120
-259.180	37.424	0.098	0.087
-258.165	-17.018	0.342	0.216
-257.151	2.406	-0.226	0.163
-256.136	-34.715	0.178	0.097
-255.122	-77.537	-0.241	-0.083
-254.107	66.137	-0.154	-0.156
-253.092	355.235	-0.049	0.097
-252.078	71.768	-0.113	0.117
-251.063	-134.054	0.340	-0.042
-250.049	32.824	-0.109	-0.094
-249.034	-97.520	-0.125	0.032
-248.019	-93.086	-0.048	-0.013
-247.005	-34.327	0.309	-0.169
-245.990	-107.278	0.149	0.033
-244.976	-92.489	-0.363	-0.102
-243.961	-158.427	-0.312	-0.018
-242.946	800.000	0.059	-0.196
-241.932	-76.649	-0.282	0.099
-240.917	800.000	0.015	0.053
-239.903	75.096	-0.100	-0.105
-238.888	-115.364	-0.248	0.047
-237.873	65.600	-0.010	-0.010
-236.859	-41.918	-0.255	0.130
-235.844	82.865	0.144	0.157
-234.830	-200.000	-0.050	-0.415
-233.815	-200.000	-0.002	-0.516
-232.800	494.302	-0.067	0.153
-231.786	-47.236	0.205	-0.100
-230.771	49.147	-0.128	0.120
-229.757	-200.000	-0.021	0.223
-228.742	-162.124	-0.249	-0.012
-227.727	-200.000	-0.034	0.426
-226.713	-132.655	-0.349	0.045
-225.698	-200.000	-0.015	0.253
-224.684	-14.614	-0.205	0.132
-223.669	-101.819	0.206	0.050
-222.655	-131.820	0.374	0.049
-221.640	630.370	0.041	-0.104
-220.625	-158.100	0.139	0.008
-219.611	800.000	0.077	0.278
-218.596	-105.001	-0.327	-0.075
-217.582	35.775	-0.111	0.097
-216.567	800.000	0.035	0.107
-215.552	-200.000	0.004	-0.310
-214.538	49.388	0.151	-0.142
-213.523	136.282	-0.063	0.082
-212.509	43.767	0.133	-0.121
-211.494	-17.931	-0.068	-0.043
-210.479	-200.000	-0.024	0.377
-209.465	-200.000	0.239	-0.000
-208.450	-200.000	-0.022	-0.163
-207.436	300.263	0.158	-0.290
-206.421	-126.295	0.037	0.005
-205.406	113.837	-0.067	-0.081
-204.392	28.887	0.017	-0.014
-203.377	-79.473	0.061	0.020
-202.363	58.308	0.267	0.261
-201.348	800.000	-0.079	0.264
-200.333	-54.151	-0.469	0.212
-199.319	193.462	0.083	-0.125
-198.304	-84.979	-0.117	0.037
-197.290	12.071	0.274	0.210
-196.275	171.003	-0.085	0.122
-195.260	-192.166	0.460	-0.004
-194.246	181.977	0.242	-0.355
-193.231	99.900	-0.151	-0.174
-192.217	759.874	0.069	0.186
-191.202	231.711	-0.092	0.150
-190.187	77.817	0.192	0.204
-189.173	-200.000	0.017	0.085
-188.158	35.683	0.230	0.201
-187.144	-50.616	-0.339	0.159
-186.129	-49.114	-0.251	0.120
-185.114	-25.236	-0.256	0.151
-184.100	800.000	0.024	-0.065
-183.085	-91.564	0.244	0.069
-182.071	32.827	-0.195	-0.168
-181.056	-41.549	-0.027	-0.014
-180.042	-14.533	0.112	0.071
-179.027	37.402	-0.160	-0.142
-178.012	37.661	0.225	0.199
-176.998	26.104	0.149	-0.124
-175.983	250.813	-0.092	-0.156
-174.969	789.389	-0.097	0.265
-173.954	127.545	-0.258	0.327
-172.939	212.556	-0.242	0.380
-171.925	240.749	-0.067	-0.112
-170.910	-119.380	0.406	0.070
-169.896	112.069	-0.224	-0.270
-168.881	-86.515	-0.165	0.050
-167.866	699.233	0.105	0.275
-166.852	81.855	0.187	0.201
-165.837	-34.867	0.153	0.083
-164.823	-200.000	0.006	0.293
-163.808	-23.369	-0.310	-0.185
-162.793	800.000	0.139	-0.433
-161.779	-72.891	0.290	-0.106
-160.764	-63.252	0.293	-0.120
-159.750	-52.295	0.150	-0.069
-158.735	-47.051	-0.233	0.113
-157.720	-138.343	0.118	-0.013
-156.706	159.465	0.091	0.126
-155.691	216.037	-0.108	0.171
-154.677	-69.778	0.156	-0.059
-153.662	-27.871	0.122	-0.070
-152.647	-151.310	-0.235	0.017
-151.633	-117.068	0.124	-0.022
-150.618	180.869	-0.206	-0.301
-149.604	-144.850	0.077	-0.007
-148.589	56.301	-0.227	-0.220
-147.574	800.000	-0.091	-0.261
-146.560	115.982	-0.202	0.245
-145.545	112.315	0.123	-0.148
-144.531	13.724	0.108	-0.083
-143.516	524.669	0.102	0.237
-142.502	-137.831	-0.215	0.024
-141.487	-157.845	0.295	-0.017
-140.472	800.000	-0.034	0.118
-139.458	-200.000	0.001	-0.222
-138.443	78.598	0.258	0.274
-137.429	139.588	0.220	0.288
-136.414	196.630	0.130	0.196
-135.399	-200.000	-0.052	0.233
-134.385	-3.183	-0.394	0.273
-133.370	105.087	0.197	-0.232
-132.356	659.659	0.068	-0.174
-131.341	-200.000	0.016	-0.082
-130.326	-31.549	-0.068	0.038
-129.312	120.816	-0.120	-0.148
-128.297	348.063	0.027	-0.053
-127.283	800.000	0.061	0.257
-126.268	-25.782	-0.069	-0.040
-125.253	-77.289	0.175	0.060
-124.239	800.000	0.059	0.234
-123.224	-148.422	-0.486	-0.040
-122.210	-51.664	-0.192	-0.089
-121.195	69.441	-0.057	0.058
-120.180	148.791	0.170	0.229
