DTS Sentinel unit serial number:	SN413079Multiplexer serial number:	ORYXHardware model number:	OX4-SRSoftware version number:	ORYX F/W v4.00 Oryx Data Collector v3.7.2.0data status	okinstallation	princeton_trtdifferential loss correction	single-endedforward channel	channel 4reverse channel	N/Adate	2019/09/10time	23:55:11forward acquisition time	60.00reverse acquisition time	0.00gamma	496.2192k internal	0.2317k external	0.2317temperature offset calibration	0.9948default loss term (dB/km)	0.3790temperature slope calibration	1.0000multiplexer offset coefficient	1.0000multiplexer slope coefficient	1.0000fibre end	0.00T internal ref (°C)	29.48T ext. ref 1 (°C)	-0.29T ext. ref 2 (°C)	22.94length (m)	temperature (°C)	Stokes	anti-Stokes-747.200	-200.000	0.042	0.343
-746.185	85.828	0.067	0.075
-745.171	82.851	-0.133	0.146
-744.156	800.000	0.063	0.189
-743.142	-171.510	0.516	0.017
-742.127	518.918	0.057	0.136
-741.112	450.356	-0.127	-0.284
-740.098	-200.000	-0.051	0.281
-739.083	-200.000	0.002	-0.343
-738.069	136.180	0.214	0.282
-737.054	-6.637	-0.167	0.115
-736.039	-91.508	0.223	-0.064
-735.025	-200.000	-0.009	0.195
-734.010	630.756	-0.058	-0.149
-732.996	800.000	-0.113	-0.459
-731.981	133.555	-0.066	-0.086
-730.966	-101.292	-0.222	0.055
-729.952	134.330	0.130	0.171
-728.937	-69.600	-0.124	0.048
-727.923	508.412	-0.136	0.320
-726.908	-16.685	-0.254	0.163
-725.894	363.119	0.168	-0.342
-724.879	-23.240	0.173	0.105
-723.864	-200.000	0.002	0.053
-722.850	572.449	0.075	-0.184
-721.835	-80.938	0.097	-0.033
-720.821	-30.362	-0.082	0.047
-719.806	-200.000	0.010	-0.173
-718.791	-48.568	0.072	0.035
-717.777	4.301	0.249	0.184
-716.762	-200.000	0.057	-0.329
-715.748	-145.469	0.278	0.025
-714.733	-66.718	-0.089	-0.036
-713.718	-35.369	0.254	-0.139
-712.704	-200.000	0.032	0.472
-711.689	-73.430	-0.413	-0.153
-710.675	287.696	-0.045	-0.083
-709.660	-104.876	0.084	-0.020
-708.645	540.407	-0.027	0.064
-707.631	532.764	0.046	-0.109
-706.616	-126.888	0.127	-0.019
-705.602	28.540	-0.403	0.344
-704.587	-65.898	0.139	-0.056
-703.572	-97.907	0.249	-0.065
-702.558	188.232	-0.075	0.113
-701.543	-200.000	0.027	-0.167
-700.529	800.000	0.015	0.051
-699.514	17.333	-0.111	0.089
-698.499	82.861	-0.217	-0.238
-697.485	230.817	-0.312	-0.515
-696.470	119.088	-0.137	0.171
-695.456	-200.000	-0.039	-0.282
-694.441	-200.000	0.055	-0.258
-693.426	87.993	0.205	-0.230
-692.412	154.588	-0.215	0.298
-691.397	-140.759	0.166	-0.017
-690.383	-200.000	-0.001	-0.116
-689.368	96.156	-0.203	-0.234
-688.354	-94.190	-0.342	0.095
-687.339	171.184	0.063	-0.092
-686.324	-17.516	-0.294	-0.187
-685.310	-43.996	0.293	-0.149
-684.295	-80.556	-0.315	0.106
-683.281	-200.000	0.002	0.052
-682.266	53.664	0.079	0.077
-681.251	545.651	-0.026	0.063
-680.237	-104.172	-0.392	0.092
-679.222	39.039	0.275	0.249
-678.208	-200.000	0.020	0.213
-677.193	-200.000	0.076	-0.430
-676.178	800.000	0.025	0.079
-675.164	-81.967	-0.049	-0.016
-674.149	-65.891	-0.054	0.022
-673.135	800.000	0.028	0.114
-672.120	-200.000	0.017	-0.173
-671.105	800.000	-0.103	-0.402
-670.091	97.029	0.150	0.174
-669.076	182.338	-0.064	0.095
-668.062	172.948	0.306	-0.445
-667.047	-103.381	0.197	-0.047
-666.032	610.731	0.090	-0.227
-665.018	277.212	0.046	-0.082
-664.003	29.407	-0.288	-0.247
-662.989	249.756	0.103	-0.176
-661.974	48.972	-0.158	-0.149
-660.959	-54.467	-0.088	-0.040
-659.945	-92.982	0.194	-0.055
-658.930	750.118	0.054	0.146
-657.916	-200.000	0.009	0.186
-656.901	800.000	-0.053	-0.189
-655.886	-93.132	0.173	0.049
-654.872	-44.692	-0.134	0.068
-653.857	758.348	-0.099	0.270
-652.843	-123.721	0.199	-0.032
-651.828	-200.000	0.038	0.234
-650.814	-105.242	0.558	-0.128
-649.799	252.766	-0.087	-0.149
-648.784	250.698	0.045	0.078
-647.770	-200.000	0.053	0.460
-646.755	513.888	0.163	-0.383
-645.741	48.753	0.363	-0.343
-644.726	-138.758	0.153	-0.017
-643.711	800.000	-0.064	-0.222
-642.697	-200.000	0.025	-0.156
-641.682	-200.000	0.046	-0.282
-640.668	-24.456	-0.228	0.137
-639.653	41.325	0.139	-0.126
-638.638	-200.000	0.016	-0.094
-637.624	47.198	0.199	-0.187
-636.609	242.195	0.040	-0.067
-635.595	-174.583	-0.361	-0.010
-634.580	44.641	-0.050	0.046
-633.565	-98.030	0.202	0.052
-632.551	800.000	-0.045	-0.155
-631.536	-200.000	0.019	-0.211
-630.522	151.408	-0.019	-0.025
-629.507	214.595	0.179	0.286
-628.492	121.595	-0.101	0.127
-627.478	36.103	-0.171	0.152
-626.463	350.986	0.007	-0.015
-625.449	-83.945	0.172	-0.055
-624.434	431.729	0.130	0.284
-623.419	-200.000	0.001	0.259
-622.405	-200.000	0.042	0.281
-621.390	800.000	0.078	0.322
-620.376	-200.000	-0.052	0.313
-619.361	646.714	0.077	0.198
-618.346	-57.262	0.169	0.075
-617.332	-29.966	-0.253	-0.145
-616.317	47.013	0.157	0.147
-615.303	-33.302	-0.282	0.157
-614.288	-124.649	-0.216	0.034
-613.273	-29.698	0.148	0.085
-612.259	-104.905	0.221	-0.051
-611.244	-140.212	-0.216	0.023
-610.230	423.998	-0.025	-0.053
-609.215	3.969	0.045	0.033
-608.201	254.518	-0.070	-0.120
-607.186	667.224	-0.142	-0.371
-606.171	-65.683	-0.033	-0.013
-605.157	800.000	0.015	0.049
-604.142	-200.000	0.003	-0.080
-603.128	800.000	0.041	0.144
-602.113	-200.000	-0.017	-0.175
-601.098	9.693	0.165	-0.126
-600.084	800.000	0.101	-0.293
-599.069	-200.000	0.062	0.283
-598.055	-177.700	-0.271	-0.007
-597.040	168.517	0.156	0.224
-596.025	-125.811	0.235	-0.036
-595.011	-118.351	-0.190	-0.034
-593.996	-200.000	0.019	-0.217
-592.982	-160.810	0.151	0.008
-591.967	-45.892	-0.097	0.048
-590.952	-22.304	0.108	0.066
-589.938	170.440	0.065	0.094
-588.923	800.000	-0.072	0.219
-587.909	-200.000	0.057	0.341
-586.894	-200.000	-0.005	-0.048
-585.879	21.517	0.131	-0.107
-584.865	-156.229	0.075	-0.005
-583.850	-45.009	-0.293	-0.147
-582.836	93.755	-0.156	-0.178
-581.821	-70.741	-0.104	0.040
-580.806	-63.146	0.427	0.177
-579.792	-200.000	0.002	-0.152
-578.777	-66.536	-0.045	0.018
-577.763	-105.462	-0.261	-0.060
-576.748	-17.549	-0.219	-0.138
-575.733	-32.257	-0.360	-0.202
-574.719	218.589	-0.037	-0.059
-573.704	43.911	-0.062	0.057
-572.690	102.631	0.141	0.166
-571.675	30.782	0.281	-0.242
-570.661	-200.000	-0.041	0.368
-569.646	145.347	-0.250	-0.336
-568.631	797.879	-0.097	-0.269
-567.617	800.000	0.082	-0.301
-566.602	175.457	-0.023	-0.034
-565.588	399.068	-0.100	-0.211
-564.573	-200.000	0.011	0.193
-563.558	124.473	-0.067	0.085
-562.544	40.559	-0.234	-0.212
-561.529	-44.233	-0.050	0.025
-560.515	113.915	0.066	-0.080
-559.500	800.000	0.064	0.178
-558.485	9.300	0.108	0.082
-557.471	223.606	-0.032	0.052
-556.456	-84.819	0.559	-0.177
-555.442	242.521	0.036	0.061
-554.427	-34.146	0.113	0.063
-553.412	-200.000	0.005	-0.152
-552.398	-66.517	-0.084	0.034
-551.383	800.000	-0.137	0.450
-550.369	105.021	-0.153	-0.181
-549.354	220.842	-0.089	-0.143
-548.339	70.930	0.021	0.022
-547.325	-200.000	0.003	-0.117
-546.310	7.155	-0.205	-0.154
-545.296	-110.403	0.048	0.010
-544.281	170.249	-0.103	0.148
-543.266	-93.707	-0.062	0.017
-542.252	-126.646	-0.221	-0.033
-541.237	20.739	-0.002	-0.002
-540.223	-200.000	0.020	-0.161
-539.208	-78.807	-0.237	-0.081
-538.193	87.484	-0.200	-0.222
-537.179	-40.743	0.301	-0.157
-536.164	-102.081	0.209	-0.051
-535.150	489.729	-0.184	0.422
-534.135	-113.639	0.204	0.040
-533.121	130.978	-0.062	-0.080
-532.106	-158.280	0.279	0.016
-531.091	-53.193	-0.040	0.019
-530.077	-154.806	-0.217	0.014
-529.062	-200.000	-0.019	-0.210
-528.048	-101.232	0.480	0.118
-527.033	132.118	0.157	0.203
-526.018	480.366	-0.104	0.236
-525.004	-46.979	-0.330	0.162
-523.989	736.124	0.068	0.182
-522.975	9.188	0.077	0.058
-521.960	-37.820	-0.079	-0.042
-520.945	-200.000	0.027	0.172
-519.931	-198.888	-0.322	-0.002
-518.916	143.562	-0.267	0.357
-517.902	106.638	-0.092	-0.110
-516.887	-133.091	-0.338	0.043
-515.872	-45.982	-0.170	-0.084
-514.858	169.332	0.037	-0.053
-513.843	800.000	-0.115	0.440
-512.829	800.000	0.059	-0.238
-511.814	72.582	-0.090	-0.094
-510.799	-169.579	-0.108	-0.004
-509.785	800.000	0.058	-0.228
-508.770	410.220	-0.031	0.066
-507.756	-147.735	0.019	0.002
-506.741	-37.145	0.228	-0.122
-505.726	266.246	0.101	0.176
-504.712	-134.152	-0.117	0.014
-503.697	-127.296	-0.158	-0.023
-502.683	-177.198	0.164	-0.004
-501.668	429.013	-0.151	-0.327
-500.653	20.744	0.111	0.090
-499.639	-200.000	-0.030	-0.310
-498.624	197.366	0.013	-0.020
-497.610	177.853	-0.155	-0.227
-496.595	-200.000	0.008	0.156
-495.581	-200.000	-0.004	-0.232
-494.566	-35.381	0.241	-0.131
-493.551	28.863	0.210	0.179
-492.537	-37.966	-0.246	-0.131
-491.522	154.604	0.132	-0.182
-490.508	-72.928	-0.131	-0.048
-489.493	-114.667	-0.145	-0.028
-488.478	105.903	-0.084	0.100
-487.464	-42.409	-0.304	0.156
-486.449	158.142	-0.135	0.187
-485.435	-100.358	-0.194	0.048
-484.420	132.979	0.076	0.099
-483.405	733.373	0.045	0.120
-482.391	-200.000	-0.022	-0.572
-481.376	-200.000	0.027	-0.124
-480.362	68.985	-0.189	-0.194
-479.347	590.674	-0.049	0.121
-478.332	-200.000	0.094	-0.457
-477.318	800.000	0.084	-0.255
-476.303	800.000	0.091	-0.304
-475.289	-34.667	-0.334	-0.183
-474.274	-200.000	0.006	-0.065
-473.259	-162.261	0.098	-0.005
-472.245	-24.825	-0.264	-0.157
-471.230	-82.328	0.061	0.020
-470.216	123.707	0.195	-0.246
-469.201	-12.077	-0.146	-0.095
-468.186	-200.000	-0.033	0.153
-467.172	146.608	0.053	0.071
-466.157	344.964	-0.147	-0.289
-465.143	73.360	0.083	0.087
-464.128	36.762	-0.020	-0.018
-463.113	-14.107	0.251	-0.162
-462.099	215.527	-0.009	-0.015
-461.084	79.120	0.122	-0.131
-460.070	-200.000	-0.003	-0.098
-459.055	193.371	-0.040	-0.061
-458.040	195.565	-0.107	0.164
-457.026	-200.000	-0.029	-0.171
-456.011	-81.484	0.253	-0.083
-454.997	-200.000	0.066	0.409
-453.982	800.000	-0.078	-0.314
-452.968	11.557	0.429	0.329
-451.953	-156.299	-0.264	-0.017
-450.938	800.000	-0.019	-0.063
-449.924	-184.346	0.094	0.002
-448.909	800.000	0.053	-0.155
-447.895	-163.523	-0.114	0.005
-446.880	527.001	-0.063	-0.148
-445.865	-19.127	0.099	0.061
-444.851	-111.642	0.291	0.059
-443.836	-152.526	-0.152	0.011
-442.822	124.953	0.227	-0.286
-441.807	-84.314	0.213	0.068
-440.792	526.262	-0.057	-0.135
-439.778	152.573	-0.045	0.061
-438.763	-71.030	-0.090	-0.034
-437.749	-85.820	-0.097	0.030
-436.734	-200.000	-0.051	0.291
-435.719	-124.196	-0.182	0.029
-434.705	-171.961	0.073	0.002
-433.690	-200.000	0.079	0.432
-432.676	-200.000	-0.001	-0.148
-431.661	800.000	0.025	0.098
-430.646	-80.890	-0.179	-0.059
-429.632	-200.000	-0.017	-0.110
-428.617	281.978	0.118	0.212
-427.603	137.745	0.069	-0.090
-426.588	113.652	0.102	0.124
-425.573	180.722	0.163	0.240
-424.559	1.752	0.081	0.059
-423.544	-19.779	0.308	-0.190
-422.530	-136.248	-0.374	-0.044
-421.515	507.105	0.055	-0.128
-420.500	800.000	0.045	0.192
-419.486	800.000	0.137	0.528
-418.471	-104.396	0.148	0.034
-417.457	-82.135	-0.263	0.086
-416.442	-142.302	-0.144	0.014
-415.428	-160.369	-0.065	-0.004
-414.413	319.351	-0.036	0.068
-413.398	800.000	0.075	0.245
-412.384	800.000	-0.055	0.168
-411.369	127.126	-0.092	0.116
-410.355	-200.000	-0.037	-0.166
-409.340	-44.803	0.099	0.049
-408.325	315.659	0.188	-0.354
-407.311	-111.626	0.054	-0.011
-406.296	-198.932	0.108	-0.001
-405.282	-141.374	0.154	-0.016
-404.267	-148.799	0.103	0.008
-403.252	-99.749	0.226	0.057
-402.238	411.088	-0.105	0.222
-401.223	175.711	-0.091	0.131
-400.209	800.000	-0.106	0.295
-399.194	108.645	-0.122	0.146
-398.179	234.181	-0.075	-0.123
-397.165	-145.840	0.201	0.018
-396.150	-200.000	0.080	-0.560
-395.136	38.879	0.224	-0.200
-394.121	224.207	0.167	-0.269
-393.106	48.738	0.149	0.139
-392.092	-50.515	-0.150	-0.071
-391.077	-200.000	-0.023	-0.175
-390.063	-20.376	0.153	-0.094
-389.048	-109.635	-0.200	-0.042
-388.033	-11.443	-0.123	0.081
-387.019	41.066	-0.140	0.126
-386.004	800.000	-0.025	0.100
-384.990	800.000	-0.106	-0.317
-383.975	-60.920	-0.237	0.100
-382.960	-128.203	-0.061	-0.009
-381.946	-52.124	-0.219	0.102
-380.931	-23.641	-0.168	-0.100
-379.917	-200.000	0.011	-0.105
-378.902	-38.266	0.131	0.069
-377.888	-200.000	0.026	-0.321
-376.873	-85.361	0.346	-0.108
-375.858	481.042	0.049	-0.111
-374.844	229.637	-0.207	0.338
-373.829	273.092	-0.148	-0.260
-372.815	158.232	-0.065	0.090
-371.800	237.986	0.067	-0.111
-370.785	123.547	0.248	-0.310
-369.771	-155.803	0.240	-0.015
-368.756	263.067	-0.180	0.311
-367.742	-74.415	0.402	-0.145
-366.727	-97.923	-0.141	-0.036
-365.712	-143.723	-0.163	0.015
-364.698	5.359	0.184	0.135
-363.683	1.569	-0.335	0.241
-362.669	-5.663	0.087	-0.059
-361.654	-200.000	0.062	0.541
-360.639	71.231	0.171	-0.177
-359.625	5.280	-0.198	-0.145
-358.610	-200.000	-0.050	-0.233
-357.596	198.229	-0.261	-0.398
-356.581	52.404	-0.154	-0.147
-355.566	-41.695	-0.290	-0.149
-354.552	468.220	-0.060	0.135
-353.537	543.504	0.033	0.079
-352.523	456.395	-0.110	-0.243
-351.508	-29.123	-0.120	-0.069
-350.493	126.033	-0.153	-0.193
-349.479	93.572	0.104	0.118
-348.464	-103.953	-0.225	-0.052
-347.450	-108.271	0.286	-0.062
-346.435	-62.907	-0.260	-0.107
-345.420	-53.744	0.187	-0.085
-344.406	-145.917	0.175	0.015
-343.391	800.000	0.056	0.172
-342.377	355.355	-0.248	0.492
-341.362	-160.761	0.110	0.006
-340.348	194.083	-0.134	0.203
-339.333	800.000	-0.061	-0.225
-338.318	575.307	-0.035	0.084
-337.304	38.204	0.146	-0.130
-336.289	24.997	-0.148	0.123
-335.275	-137.371	-0.241	-0.027
-334.260	-11.668	0.153	0.100
-333.245	800.000	-0.048	0.175
-332.231	-109.341	-0.134	0.028
-331.216	776.549	-0.072	-0.197
-330.202	-200.000	-0.013	-0.143
-329.187	410.435	-0.072	-0.152
-328.172	162.640	0.178	0.249
-327.158	-24.388	-0.111	-0.066
-326.143	244.346	0.144	-0.241
-325.129	800.000	-0.112	-0.396
-324.114	16.456	-0.336	0.264
-323.099	67.773	0.155	0.158
-322.085	-95.151	0.417	0.112
-321.070	-24.150	0.198	-0.118
-320.056	-200.000	-0.014	-0.144
-319.041	15.247	0.282	0.220
-318.026	756.998	-0.040	0.107
-317.012	-200.000	-0.272	-0.000
-315.997	-200.000	-0.065	-0.403
-314.983	-44.332	-0.347	-0.173
-313.968	9.387	-0.060	-0.045
-312.953	16.239	-0.198	0.155
-311.939	431.589	-0.165	0.357
-310.924	-149.905	0.234	-0.018
-309.910	-58.881	-0.223	-0.096
-308.895	-48.751	-0.150	-0.071
-307.880	20.310	0.092	-0.074
-306.866	512.409	0.138	-0.321
-305.851	-101.813	-0.075	-0.018
-304.837	521.347	0.116	-0.270
-303.822	-116.028	0.368	-0.068
-302.807	-200.000	0.043	0.221
-301.793	-200.000	0.006	0.364
-300.778	-25.178	0.410	0.241
-299.764	-200.000	-0.016	-0.124
-298.749	-200.000	-0.005	-0.047
-297.735	-200.000	-0.014	-0.272
-296.720	-200.000	-0.009	0.176
-295.705	71.668	-0.038	-0.039
-294.691	597.971	-0.069	0.169
-293.676	92.023	-0.082	0.092
-292.662	-45.058	0.192	0.095
-291.647	-200.000	0.005	0.218
-290.632	-75.410	-0.123	-0.043
-289.618	-63.718	0.466	-0.190
-288.603	-37.004	-0.327	-0.174
-287.589	48.541	0.082	0.076
-286.574	-33.111	0.230	-0.127
-285.559	-174.782	-0.257	-0.007
-284.545	-34.227	0.209	0.114
-283.530	800.000	-0.099	0.367
-282.516	-200.000	0.008	-0.113
-281.501	800.000	0.055	0.238
-280.486	-94.566	-0.126	-0.034
-279.472	117.964	-0.074	-0.090
-278.457	-200.000	0.010	0.189
-277.443	-200.000	-0.002	0.186
-276.428	-13.686	0.118	-0.076
-275.413	-88.131	0.262	-0.078
-274.399	42.764	-0.232	0.210
-273.384	136.830	0.257	0.334
-272.370	800.000	-0.073	0.208
-271.355	65.196	0.084	-0.084
-270.340	361.082	-0.112	-0.223
-269.326	501.082	0.037	0.085
-268.311	-2.522	0.294	0.205
-267.297	-100.500	-0.201	0.049
-266.282	-200.000	-0.026	-0.224
-265.267	-66.680	-0.159	-0.063
-264.253	-73.870	0.092	-0.033
-263.238	156.315	-0.062	0.085
-262.224	800.000	0.055	0.222
-261.209	800.000	0.037	-0.128
-260.195	-200.000	0.020	-0.245
-259.180	-42.118	-0.175	-0.089
-258.165	-84.188	-0.341	0.107
-257.151	-200.000	-0.031	-0.178
-256.136	-38.725	0.208	0.109
-255.122	30.354	-0.037	-0.031
-254.107	-200.000	-0.018	0.202
-253.092	-75.606	0.188	-0.067
-252.078	171.651	0.174	0.248
-251.063	800.000	0.076	0.215
-250.049	-107.133	-0.213	0.047
-249.034	-41.310	0.355	-0.182
-248.019	-27.865	0.304	0.175
-247.005	-2.104	-0.251	0.175
-245.990	244.603	0.077	0.128
-244.976	-200.000	-0.027	0.182
-243.961	176.316	-0.043	-0.062
-242.946	292.693	0.065	-0.118
-241.932	-200.000	0.011	0.052
-240.917	287.607	-0.155	0.278
-239.903	18.384	-0.151	-0.120
-238.888	-200.000	-0.025	-0.150
-237.873	-200.000	0.169	-0.000
-236.859	42.277	0.134	0.121
-235.844	-74.843	-0.356	0.127
-234.830	-165.030	-0.093	-0.004
-233.815	98.183	-0.251	0.286
-232.800	277.588	-0.141	0.249
-231.786	505.876	0.160	-0.368
-230.771	173.740	-0.123	-0.176
-229.757	-200.000	0.030	0.192
-228.742	800.000	0.073	-0.223
-227.727	82.293	0.097	0.104
-226.713	-200.000	0.006	-0.056
-225.698	-112.456	0.403	-0.080
-224.684	-200.000	0.001	-0.335
-223.669	112.149	0.234	0.281
-222.655	370.357	-0.048	0.096
-221.640	-200.000	-0.001	0.288
-220.625	-127.963	0.186	0.026
-219.611	80.921	0.128	0.137
-218.596	188.639	0.129	0.192
-217.582	-64.156	-0.389	0.157
-216.567	-77.491	0.096	-0.033
-215.552	55.223	0.094	0.091
-214.538	-118.636	0.187	-0.033
-213.523	-10.034	-0.160	-0.105
-212.509	140.483	-0.102	0.133
-211.494	-200.000	0.012	-0.253
-210.479	-22.328	0.336	-0.202
-209.465	-175.123	-0.130	0.004
-208.450	-81.741	0.197	0.064
-207.436	800.000	-0.021	0.067
-206.421	23.774	-0.149	0.121
-205.406	-200.000	-0.015	0.381
-204.392	-11.751	0.180	-0.117
-203.377	-41.476	-0.016	-0.008
-202.363	193.223	-0.051	-0.077
-201.348	-200.000	0.012	0.327
-200.333	-200.000	0.215	0.001
-199.319	800.000	-0.008	-0.023
-198.304	800.000	-0.062	0.203
-197.290	-148.022	-0.184	0.015
-196.275	800.000	0.031	-0.098
-195.260	6.800	0.151	-0.111
-194.246	27.497	-0.044	0.037
-193.231	-61.366	0.048	0.020
-192.217	-99.323	0.312	0.078
-191.202	15.205	-0.147	0.114
-190.187	-200.000	-0.039	0.240
-189.173	-200.000	0.012	0.234
-188.158	300.305	0.052	0.095
-187.144	-200.000	-0.015	0.096
-186.129	-77.183	-0.056	0.019
-185.114	-200.000	0.038	-0.389
-184.100	-190.640	-0.190	-0.002
-183.085	-126.812	0.138	-0.020
-182.071	-112.346	-0.293	-0.058
-181.056	-200.000	-0.026	0.188
-180.042	-47.272	0.131	0.063
-179.027	12.613	-0.207	0.158
-178.012	-40.896	0.612	-0.314
-176.998	504.557	0.063	-0.144
-175.983	281.935	-0.080	-0.142
-174.969	181.512	-0.072	-0.105
-173.954	634.684	-0.084	-0.211
-172.939	-34.519	-0.341	-0.185
-171.925	90.535	-0.248	0.275
-170.910	-2.126	0.165	0.115
-169.896	-123.973	0.302	0.047
-168.881	-135.056	-0.094	-0.011
-167.866	800.000	0.040	-0.162
-166.852	800.000	0.061	0.232
-165.837	-143.399	0.262	0.025
-164.823	-200.000	0.022	0.262
-163.808	-163.985	-0.063	-0.003
-162.793	360.270	0.083	-0.164
-161.779	67.907	0.054	0.055
-160.764	-195.794	-0.333	-0.002
-159.750	-20.932	0.215	0.130
-158.735	-200.000	-0.006	-0.072
-157.720	64.058	-0.084	0.083
-156.706	358.844	0.127	-0.251
-155.691	-82.100	0.188	0.061
-154.677	503.748	-0.064	-0.148
-153.662	-18.622	-0.082	-0.050
-152.647	191.041	0.055	0.083
-151.633	-93.655	0.052	0.014
-150.618	-177.055	0.245	0.006
-149.604	506.159	0.132	-0.302
-148.589	449.507	-0.108	0.235
-147.574	-10.415	0.226	0.148
-146.560	-200.000	-0.109	0.512
-145.545	-152.918	-0.114	-0.008
-144.531	-113.562	0.225	0.043
-143.516	-93.170	0.374	0.103
-142.502	-64.817	0.179	0.072
-141.487	-4.546	0.166	-0.113
-140.472	127.866	-0.196	-0.247
-139.458	-200.000	-0.036	-0.415
-138.443	-111.943	0.195	-0.039
-137.429	800.000	-0.026	0.106
-136.414	-168.945	0.344	-0.013
-135.399	-200.000	0.017	-0.215
-134.385	-69.662	0.237	0.090
-133.370	361.251	0.105	-0.208
-132.356	409.214	0.112	0.235
-131.341	12.143	0.471	0.358
-130.326	-132.032	-0.190	0.024
-129.312	-200.000	-0.002	-0.291
-128.297	31.375	-0.326	-0.276
-127.283	13.148	0.201	-0.154
-126.268	174.934	0.098	-0.141
-125.253	-154.151	-0.154	0.010
-124.239	-200.000	0.027	0.123
-123.224	-200.000	0.089	0.445
-122.210	160.931	0.062	-0.085
