DTS Sentinel unit serial number:	SN413079Multiplexer serial number:	ORYXHardware model number:	OX4-SRSoftware version number:	ORYX F/W v4.00 Oryx Data Collector v3.7.2.0data status	okinstallation	princeton_trtdifferential loss correction	single-endedforward channel	channel 4reverse channel	N/Adate	2019/09/11time	09:47:11forward acquisition time	60.00reverse acquisition time	0.00gamma	496.2192k internal	0.2297k external	0.2297temperature offset calibration	0.9969default loss term (dB/km)	0.3790temperature slope calibration	1.0000multiplexer offset coefficient	1.0000multiplexer slope coefficient	1.0000fibre end	0.00T internal ref (°C)	35.00T ext. ref 1 (°C)	0.09T ext. ref 2 (°C)	31.67length (m)	temperature (°C)	Stokes	anti-Stokes-747.200	175.451	-0.234	0.347
-746.185	-23.312	-0.297	0.183
-745.171	113.126	0.095	0.118
-744.156	-165.449	-0.301	0.013
-743.142	-36.328	-0.267	0.147
-742.127	800.000	-0.088	0.274
-741.112	-17.708	-0.287	-0.184
-740.098	354.089	-0.065	0.132
-739.083	-100.661	0.187	-0.047
-738.069	-77.759	-0.322	-0.114
-737.054	205.455	0.247	-0.392
-736.039	7.031	-0.273	-0.208
-735.025	48.295	0.353	0.337
-734.010	37.953	-0.140	0.127
-732.996	-200.000	0.009	-0.044
-731.981	-11.433	0.053	0.036
-730.966	-200.000	0.021	0.106
-729.952	-39.174	-0.142	-0.076
-728.937	-151.709	0.216	-0.016
-727.923	-40.955	-0.256	-0.135
-726.908	-58.067	-0.225	-0.100
-725.894	777.831	-0.088	-0.245
-724.879	-200.000	0.012	-0.097
-723.864	-107.643	-0.095	-0.021
-722.850	-134.820	-0.139	-0.017
-721.835	-15.059	-0.101	-0.066
-720.821	-200.000	-0.029	-0.166
-719.806	77.050	-0.163	-0.177
-718.791	-200.000	0.017	-0.213
-717.777	437.229	-0.018	-0.040
-716.762	0.641	0.076	0.056
-715.748	-200.000	0.086	-0.447
-714.733	-200.000	-0.005	-0.317
-713.718	-58.840	-0.266	-0.117
-712.704	-28.689	-0.147	-0.086
-711.689	-135.359	-0.309	0.038
-710.675	-109.244	0.182	0.039
-709.660	152.167	0.082	0.114
-708.645	-97.463	-0.184	0.049
-707.631	-54.982	-0.155	-0.071
-706.616	-67.487	-0.155	0.062
-705.602	-200.000	-0.045	0.548
-704.587	-115.740	-0.135	0.026
-703.572	-182.044	-0.159	0.003
-702.558	42.593	-0.118	0.109
-701.543	87.358	0.141	0.159
-700.529	-125.096	0.168	0.026
-699.514	-154.793	0.434	-0.029
-698.499	800.000	-0.074	-0.237
-697.485	-4.760	-0.202	-0.142
-696.470	432.741	-0.128	0.282
-695.456	-200.000	0.057	-0.468
-694.441	203.788	-0.265	0.419
-693.426	-8.335	-0.309	-0.212
-692.412	19.477	-0.180	0.147
-691.397	-58.527	-0.358	-0.159
-690.383	800.000	-0.037	0.106
-689.368	17.273	0.078	0.063
-688.354	29.114	-0.055	0.048
-687.339	-10.520	0.176	-0.119
-686.324	-104.006	0.180	0.043
-685.310	800.000	-0.116	-0.406
-684.295	-85.572	-0.053	0.017
-683.281	-32.438	0.098	-0.056
-682.266	800.000	-0.024	0.092
-681.251	-167.008	0.348	0.014
-680.237	227.299	-0.073	0.120
-679.222	82.556	-0.252	0.279
-678.208	-18.733	-0.060	0.038
-677.193	-26.938	-0.299	-0.178
-676.178	1.759	0.211	-0.155
-675.164	67.502	-0.317	-0.330
-674.149	542.822	0.126	-0.307
-673.135	794.130	-0.013	0.037
-672.120	-200.000	0.007	0.380
-671.105	-200.000	-0.024	0.364
-670.091	-200.000	0.041	-0.355
-669.076	103.516	-0.231	-0.276
-668.062	777.527	0.105	0.292
-667.047	800.000	-0.116	0.380
-666.032	85.999	-0.101	0.113
-665.018	-132.157	0.197	0.026
-664.003	800.000	-0.008	0.034
-662.989	255.739	-0.199	0.348
-661.974	-55.486	-0.126	0.058
-660.959	-71.978	0.252	0.095
-659.945	377.647	0.044	0.091
-658.930	9.345	-0.141	-0.109
-657.916	-200.000	-0.006	-0.334
-656.901	177.667	0.080	-0.119
-655.886	-32.796	-0.277	-0.157
-654.872	800.000	-0.070	-0.199
-653.857	-9.754	0.137	-0.093
-652.843	-62.449	-0.309	-0.131
-651.828	90.937	0.139	0.158
-650.814	-27.346	-0.215	-0.128
-649.799	-63.087	-0.234	-0.098
-648.784	289.752	0.060	-0.111
-647.770	-66.154	-0.156	0.063
-646.755	78.367	0.152	0.166
-645.741	-200.000	-0.095	0.652
-644.726	29.626	-0.105	0.091
-643.711	19.193	0.274	-0.224
-642.697	670.317	-0.085	-0.224
-641.682	800.000	-0.114	-0.354
-640.668	25.541	0.177	-0.150
-639.653	-200.000	-0.080	0.362
-638.638	-8.615	-0.232	-0.158
-637.624	182.641	0.224	-0.336
-636.609	-162.979	-0.157	-0.008
-635.595	800.000	0.106	0.385
-634.580	120.185	-0.099	-0.125
-633.565	-200.000	-0.085	-0.448
-632.551	-109.849	-0.355	0.076
-631.536	-4.560	-0.084	-0.059
-630.522	64.528	-0.252	-0.259
-629.507	-200.000	0.022	-0.105
-628.492	176.108	-0.052	-0.077
-627.478	145.333	0.202	0.275
-626.463	76.238	-0.119	-0.128
-625.449	580.937	-0.023	-0.058
-624.434	242.421	-0.045	0.077
-623.419	-80.333	0.183	0.062
-622.405	99.992	0.066	0.077
-621.390	-200.000	-0.010	0.049
-620.376	800.000	-0.027	0.100
-619.361	540.858	-0.058	-0.139
-618.346	800.000	-0.135	-0.415
-617.332	98.229	-0.113	-0.133
-616.317	-41.549	0.259	0.135
-615.303	-16.558	0.118	0.076
-614.288	-200.000	-0.030	-0.169
-613.273	17.868	-0.185	0.150
-612.259	-166.437	-0.127	-0.005
-611.244	78.051	-0.084	-0.091
-610.230	177.959	0.081	-0.120
-609.215	68.407	-0.123	-0.128
-608.201	-66.950	-0.182	0.073
-607.186	-118.630	-0.122	0.022
-606.171	800.000	-0.045	0.131
-605.157	-150.800	-0.167	0.013
-604.142	386.787	0.069	-0.145
-603.128	-200.000	0.009	0.081
-602.113	-154.485	0.289	-0.020
-601.098	-200.000	-0.061	-0.368
-600.084	469.443	-0.089	-0.202
-599.069	800.000	-0.060	0.265
-598.055	716.281	-0.174	0.469
-597.040	-32.890	0.087	0.049
-596.025	46.645	-0.172	0.162
-595.011	29.651	0.190	-0.164
-593.996	-104.078	-0.091	0.021
-592.982	-180.471	0.142	-0.003
-591.967	590.586	0.037	0.093
-590.952	-200.000	0.040	-0.217
-589.938	-200.000	0.014	-0.072
-588.923	134.637	-0.027	0.035
-587.909	-200.000	0.003	0.132
-586.894	71.120	-0.134	-0.141
-585.879	75.348	-0.291	0.311
-584.865	433.905	0.128	0.282
-583.850	-35.038	0.203	-0.112
-582.836	-142.793	-0.328	-0.032
-581.821	797.320	0.072	-0.201
-580.806	-56.156	0.137	0.062
-579.792	337.719	0.200	0.394
-578.777	-109.031	-0.257	0.055
-577.763	-96.495	0.144	-0.038
-576.748	-5.091	-0.156	0.109
-575.733	171.764	-0.086	-0.126
-574.719	-200.000	-0.002	0.055
-573.704	-108.984	-0.237	-0.051
-572.690	-101.065	-0.087	-0.022
-571.675	-82.281	0.234	-0.077
-570.661	-91.318	-0.060	0.017
-569.646	339.901	-0.113	0.223
-568.631	-42.103	0.222	-0.115
-567.617	-60.572	-0.113	0.049
-566.602	-200.000	-0.010	0.053
-565.588	-72.245	-0.422	-0.159
-564.573	800.000	0.047	-0.156
-563.558	-60.290	0.094	0.041
-562.544	-200.000	-0.042	0.316
-561.529	33.662	-0.106	0.093
-560.515	-196.385	0.218	-0.002
-559.500	586.402	-0.092	0.229
-558.485	-200.000	0.015	-0.155
-557.471	-44.947	0.249	0.126
-556.456	-34.270	0.127	-0.071
-555.442	536.248	-0.171	-0.412
-554.427	178.770	-0.201	0.298
-553.412	796.801	0.037	0.104
-552.398	-107.537	-0.078	-0.017
-551.383	-200.000	-0.039	0.299
-550.369	25.067	0.126	-0.106
-549.354	-200.000	-0.016	-0.329
-548.339	56.112	0.176	0.173
-547.325	123.896	-0.076	0.097
-546.310	-107.701	-0.205	-0.045
-545.296	-58.693	0.273	-0.120
-544.281	-84.956	0.120	-0.038
-543.266	-38.565	0.171	-0.092
-542.252	-99.722	-0.257	0.065
-541.237	88.337	0.373	0.419
-540.223	-200.000	-0.066	0.412
-539.208	-200.000	0.001	0.160
-538.193	225.039	-0.110	-0.180
-537.179	-117.681	-0.251	0.046
-536.164	10.974	-0.130	0.101
-535.150	-200.000	0.068	0.343
-534.135	800.000	-0.067	-0.190
-533.121	-114.465	-0.096	-0.019
-532.106	-68.910	0.142	0.056
-531.091	-200.000	0.028	0.259
-530.077	800.000	0.043	-0.147
-529.062	-5.117	0.270	0.188
-528.048	-169.777	0.125	0.005
-527.033	26.906	0.052	0.044
-526.018	19.052	-0.106	-0.086
-525.004	-43.815	0.204	-0.104
-523.989	-200.000	0.007	0.097
-522.975	-200.000	0.016	-0.215
-521.960	-27.978	-0.054	-0.031
-520.945	-74.483	0.356	0.130
-519.931	456.236	0.161	0.361
-518.916	108.487	-0.160	-0.193
-517.902	-41.929	-0.109	-0.056
-516.887	-187.809	0.284	-0.004
-515.872	-200.000	-0.017	0.093
-514.858	223.619	-0.148	-0.241
-513.843	-13.228	0.034	0.023
-512.829	645.691	-0.138	-0.356
-511.814	710.400	0.110	0.293
-510.799	-79.716	0.599	0.204
-509.785	800.000	0.068	0.259
-508.770	-100.487	0.129	-0.032
-507.756	-200.000	-0.015	-0.119
-506.741	-200.000	0.003	-0.080
-505.726	389.874	-0.132	0.277
-504.712	501.768	-0.074	-0.172
-503.697	800.000	-0.103	-0.314
-502.683	800.000	-0.027	0.076
-501.668	41.487	0.156	-0.143
-500.653	-61.711	0.190	0.081
-499.639	-200.000	0.020	0.225
-498.624	-200.000	0.023	0.156
-497.610	-127.912	-0.068	-0.010
-496.595	-200.000	0.023	-0.415
-495.581	-95.134	-0.187	0.051
-494.566	407.592	-0.107	-0.228
-493.551	-94.593	-0.034	-0.009
-492.537	-200.000	-0.014	0.166
-491.522	219.417	0.150	0.242
-490.508	-200.000	-0.044	-0.295
-489.493	314.398	-0.024	-0.047
-488.478	357.391	0.085	-0.172
-487.464	-60.581	-0.214	0.092
-486.449	168.628	-0.069	0.099
-485.435	47.051	0.159	-0.149
-484.420	15.025	0.403	-0.319
-483.405	12.705	0.197	-0.154
-482.391	95.745	0.117	-0.135
-481.376	17.329	0.333	-0.267
-480.362	-117.575	-0.252	-0.046
-479.347	-80.525	-0.201	0.068
-478.332	30.439	0.042	-0.036
-477.318	482.511	-0.132	0.303
-476.303	186.891	-0.153	0.231
-475.289	82.417	-0.101	0.111
-474.274	80.729	-0.093	-0.102
-473.259	-59.555	0.216	-0.094
-472.245	14.335	-0.079	0.063
-471.230	113.256	0.224	-0.274
-470.216	274.589	0.028	0.050
-469.201	-112.357	-0.027	0.005
-468.186	-200.000	-0.019	0.201
-467.172	-134.462	0.156	-0.019
-466.157	24.135	0.163	0.136
-465.143	800.000	-0.061	-0.249
-464.128	98.780	-0.097	0.113
-463.113	-122.578	-0.303	0.050
-462.099	110.826	0.134	0.162
-461.084	18.640	-0.119	-0.096
-460.070	81.420	-0.133	-0.145
-459.055	99.181	0.056	0.065
-458.040	-15.571	0.093	-0.060
-457.026	28.427	-0.180	0.153
-456.011	-200.000	0.022	-0.123
-454.997	3.066	0.145	0.106
-453.982	336.954	-0.095	0.186
-452.968	-79.040	-0.378	-0.130
-451.953	-137.797	0.406	-0.046
-450.938	45.755	-0.038	0.036
-449.924	800.000	-0.036	0.140
-448.909	362.098	-0.192	0.389
-447.895	173.067	0.191	-0.278
-446.880	-200.000	0.032	0.179
-445.865	339.799	-0.026	0.052
-444.851	-200.000	0.005	0.123
-443.836	-154.259	0.397	-0.027
-442.822	-75.668	-0.273	-0.098
-441.807	-150.252	-0.199	0.016
-440.792	4.244	0.089	-0.066
-439.778	-89.979	0.407	-0.120
-438.763	117.434	0.141	0.175
-437.749	789.169	-0.058	0.160
-436.734	-41.801	-0.133	0.069
-435.719	444.103	0.085	-0.187
-434.705	240.136	-0.062	-0.105
-433.690	-101.818	-0.107	-0.026
-432.676	800.000	0.046	0.144
-431.661	103.801	0.089	-0.105
-430.646	-186.565	-0.095	-0.001
-429.632	-200.000	0.038	-0.220
-428.617	-127.605	-0.050	0.007
-427.603	-54.773	0.137	-0.063
-426.588	-108.277	-0.280	-0.061
-425.573	-200.000	-0.009	0.333
-424.559	247.659	-0.068	-0.115
-423.544	-178.741	-0.326	0.008
-422.530	-62.387	-0.135	0.057
-421.515	-147.125	0.063	0.005
-420.500	76.192	0.041	0.044
-419.486	44.868	-0.190	-0.176
-418.471	-104.379	0.214	-0.050
-417.457	199.750	-0.145	-0.225
-416.442	-167.948	-0.022	0.001
-415.428	-111.811	-0.147	-0.030
-414.413	231.800	0.325	0.538
-413.398	26.631	0.284	0.240
-412.384	-34.070	0.150	0.083
-411.369	548.746	0.098	-0.237
-410.355	15.367	-0.033	-0.026
-409.340	8.920	-0.056	-0.043
-408.325	-72.681	-0.155	-0.057
-407.311	361.120	-0.185	0.373
-406.296	-92.930	-0.202	-0.057
-405.282	-22.504	0.082	-0.050
-404.267	27.605	0.099	-0.084
-403.252	-122.709	0.311	0.051
-402.238	-200.000	0.030	0.183
-401.223	66.147	-0.086	-0.088
-400.209	-200.000	0.011	-0.307
-399.194	800.000	0.088	-0.338
-398.179	-40.893	-0.071	-0.037
-397.165	-86.037	-0.222	-0.069
-396.150	-65.032	0.307	-0.125
-395.136	111.329	-0.093	-0.113
-394.121	38.284	-0.037	-0.033
-393.106	-0.260	-0.261	-0.187
-392.092	-56.786	-0.211	0.094
-391.077	85.231	0.159	0.176
-390.063	800.000	0.049	-0.152
-389.048	-55.303	0.164	0.074
-388.033	250.368	-0.147	-0.251
-387.019	207.516	-0.070	-0.109
-386.004	-200.000	0.025	-0.278
-384.990	-169.895	-0.145	-0.005
-383.975	-200.000	0.004	0.215
-382.960	-200.000	-0.017	-0.364
-381.946	-200.000	-0.047	0.305
-380.931	-200.000	0.057	0.294
-379.917	312.802	-0.170	0.321
-378.902	-84.769	0.091	0.029
-377.888	-113.364	0.125	-0.025
-376.873	188.608	0.097	0.147
-375.858	-146.138	0.258	-0.023
-374.844	147.492	0.101	-0.137
-373.829	-185.542	-0.425	0.007
-372.815	-2.232	0.009	0.006
-371.800	404.048	0.050	0.105
-370.785	208.466	-0.180	0.283
-369.771	388.130	0.068	0.142
-368.756	204.317	-0.120	-0.187
-367.742	800.000	0.060	-0.249
-366.727	-0.365	-0.154	-0.110
-365.712	-12.580	-0.218	-0.143
-364.698	172.140	0.054	0.079
-363.683	734.362	0.159	0.427
-362.669	-200.000	-0.021	0.160
-361.654	-200.000	0.035	-0.220
-360.639	-91.733	0.245	0.070
-359.625	-54.018	0.293	0.134
-358.610	156.677	-0.327	0.454
-357.596	200.573	-0.047	-0.073
-356.581	64.864	-0.214	-0.218
-355.566	590.065	0.130	-0.322
-354.552	-25.260	0.192	-0.114
-353.537	31.755	0.100	0.086
-352.523	-113.137	0.077	0.015
-351.508	312.811	0.102	0.193
-350.493	196.807	0.063	-0.097
-349.479	729.986	-0.082	-0.221
-348.464	457.031	0.047	-0.105
-347.450	800.000	-0.032	0.095
-346.435	164.241	0.171	-0.242
-345.420	-140.907	0.150	0.016
-344.406	576.730	-0.098	-0.242
-343.391	25.629	0.223	0.187
-342.377	-200.000	-0.015	0.077
-341.362	-90.761	-0.111	-0.032
-340.348	-121.197	0.291	0.049
-339.333	-93.690	0.312	0.087
-338.318	-200.000	-0.047	0.342
-337.304	432.018	-0.030	-0.065
-336.289	38.685	-0.107	0.096
-335.275	61.513	-0.103	0.103
-334.260	122.518	-0.067	-0.084
-333.245	-91.743	-0.191	-0.055
-332.231	-200.000	-0.064	0.449
-331.216	208.397	-0.216	-0.340
-330.202	-49.946	0.176	0.084
-329.187	-71.896	0.179	0.067
-328.172	-102.872	-0.076	-0.018
-327.158	-29.702	0.177	-0.102
-326.143	83.208	-0.042	0.046
-325.129	-200.000	-0.011	-0.270
-324.114	800.000	-0.069	-0.267
-323.099	800.000	-0.074	-0.262
-322.085	-200.000	0.000	-0.202
-321.070	332.505	0.077	0.149
-320.056	222.638	-0.127	-0.205
-319.041	56.148	-0.155	-0.151
-318.026	172.608	0.153	0.221
-317.012	-60.825	-0.138	0.059
-315.997	56.496	0.179	0.175
-314.983	31.042	-0.269	-0.232
-313.968	-141.294	-0.352	-0.036
-312.953	-99.030	0.288	0.073
-311.939	4.091	0.216	-0.159
-310.924	-200.000	0.024	0.170
-309.910	-89.888	-0.124	-0.036
-308.895	-200.000	-0.023	0.121
-307.880	-200.000	0.009	0.108
-306.866	-200.000	0.003	-0.197
-305.851	11.337	-0.133	0.102
-304.837	51.137	-0.164	-0.156
-303.822	3.121	0.240	-0.175
-302.807	-81.057	-0.320	-0.106
-301.793	800.000	-0.052	0.216
-300.778	-112.031	-0.318	0.064
-299.764	-200.000	0.017	-0.106
-298.749	572.853	0.161	-0.395
-297.735	-136.119	-0.246	0.029
-296.720	-200.000	-0.036	-0.201
-295.705	-126.333	0.035	-0.005
-294.691	-200.000	-0.025	-0.115
-293.676	-107.579	-0.111	0.024
-292.662	-179.269	0.215	-0.005
-291.647	-134.586	-0.305	-0.037
-290.632	-52.760	0.251	-0.116
-289.618	-103.499	0.145	0.034
-288.603	-1.861	0.269	-0.190
-287.589	342.758	0.116	-0.229
-286.574	-200.000	0.011	0.176
-285.559	800.000	0.046	-0.149
-284.545	-79.963	-0.248	-0.083
-283.530	-154.078	-0.043	0.003
-282.516	-51.498	-0.077	-0.036
-281.501	-189.185	0.096	0.001
-280.486	192.350	0.127	0.192
-279.472	-67.596	-0.371	0.146
-278.457	5.706	-0.119	0.089
-277.443	74.169	-0.052	0.055
-276.428	21.221	0.299	-0.244
-275.413	-142.382	-0.190	0.019
-274.399	-26.137	0.244	-0.144
-273.384	327.603	-0.166	-0.320
-272.370	-13.987	0.081	-0.052
-271.355	230.340	-0.091	-0.148
-270.340	800.000	-0.040	0.168
-269.326	-200.000	-0.034	0.327
-268.311	12.186	0.228	-0.176
-267.297	56.663	-0.209	0.204
-266.282	-55.941	0.192	-0.086
-265.267	113.372	-0.141	-0.171
-264.253	-105.613	-0.165	0.038
-263.238	43.474	-0.188	0.173
-262.224	-123.119	0.302	0.048
-261.209	-200.000	-0.025	-0.148
-260.195	28.631	0.323	-0.274
-259.180	-145.546	0.122	0.011
-258.165	106.893	0.060	0.072
-257.151	-200.000	-0.002	0.236
-256.136	-200.000	-0.033	0.169
-255.122	319.674	-0.046	-0.088
-254.107	64.497	-0.233	-0.235
-253.092	-98.599	-0.088	0.023
-252.078	-200.000	0.001	0.268
-251.063	-109.016	0.296	0.063
-250.049	-200.000	-0.016	-0.270
-249.034	800.000	-0.050	-0.174
-248.019	800.000	-0.067	-0.246
-247.005	-200.000	-0.008	-0.180
-245.990	-107.912	-0.268	0.058
-244.976	-84.219	0.183	0.058
-243.961	800.000	-0.027	0.082
-242.946	-184.081	-0.047	-0.001
-241.932	-117.048	-0.123	0.023
-240.917	-200.000	0.040	0.245
-239.903	151.503	0.177	0.241
-238.888	39.645	0.144	0.129
-237.873	-18.199	0.267	-0.167
-236.859	-200.000	-0.015	-0.217
-235.844	116.170	-0.197	0.241
-234.830	100.646	0.308	0.358
-233.815	185.060	-0.048	-0.072
-232.800	-170.100	0.178	0.006
-231.786	-35.530	-0.243	-0.132
-230.771	114.589	0.065	0.080
-229.757	-52.372	0.118	0.055
-228.742	-156.581	-0.201	-0.013
-227.727	-196.103	0.089	-0.001
-226.713	66.904	0.278	0.283
-225.698	16.744	0.253	-0.201
-224.684	-200.000	-0.022	-0.293
-223.669	800.000	0.040	-0.118
-222.655	-200.000	0.021	0.432
-221.640	-25.497	0.311	-0.184
-220.625	-73.965	0.215	0.078
-219.611	-104.874	-0.060	0.014
-218.596	-53.969	0.104	0.048
-217.582	-120.403	-0.036	-0.006
-216.567	-1.575	-0.128	-0.090
-215.552	-99.781	-0.223	-0.056
-214.538	800.000	-0.064	-0.234
-213.523	-59.442	0.356	0.153
-212.509	77.546	-0.164	0.175
-211.494	-38.828	0.320	-0.169
-210.479	-109.017	0.058	-0.012
-209.465	-53.420	-0.220	-0.101
-208.450	-200.000	0.042	-0.225
-207.436	176.230	0.141	0.204
-206.421	-158.003	-0.453	0.027
-205.406	800.000	0.110	0.313
-204.392	-200.000	-0.045	-0.256
-203.377	-200.000	-0.013	0.063
-202.363	-13.013	0.193	-0.125
-201.348	38.759	0.116	0.104
-200.333	-92.279	-0.165	-0.047
-199.319	-105.801	0.160	-0.036
-198.304	-48.448	-0.158	0.076
-197.290	-200.000	-0.039	-0.180
-196.275	57.860	-0.166	0.162
-195.260	-132.016	-0.275	-0.036
-194.246	-53.264	-0.108	-0.050
-193.231	-108.511	-0.380	-0.082
-192.217	-99.421	0.322	0.081
-191.202	94.132	-0.164	0.186
-190.187	-200.000	0.066	0.335
-189.173	142.651	0.174	0.231
-188.158	-77.880	-0.127	-0.044
-187.144	-118.088	0.292	0.052
-186.129	-87.125	0.175	-0.053
-185.114	-101.330	0.142	0.035
-184.100	203.112	0.073	0.113
-183.085	-20.384	0.257	0.158
-182.071	-8.490	-0.166	-0.111
-181.056	490.134	0.006	-0.015
-180.042	123.129	-0.103	-0.129
-179.027	-79.531	-0.202	-0.068
-178.012	-200.000	0.047	0.222
-176.998	132.636	0.039	0.050
-175.983	12.383	0.137	0.106
-174.969	-60.014	0.076	0.032
-173.954	109.148	-0.050	0.060
-172.939	800.000	-0.028	-0.112
-171.925	800.000	0.055	-0.227
-170.910	-39.845	-0.064	0.033
-169.896	-200.000	-0.044	-0.293
-168.881	33.145	-0.176	0.152
-167.866	278.058	0.119	0.212
-166.852	116.156	-0.036	-0.044
-165.837	-200.000	0.001	0.129
-164.823	800.000	-0.071	-0.245
-163.808	-164.784	-0.194	0.009
-162.793	-200.000	0.005	-0.044
-161.779	-200.000	0.019	0.220
-160.764	-200.000	-0.014	0.078
-159.750	96.540	-0.110	0.126
-158.735	-12.225	0.074	0.048
-157.720	800.000	-0.011	-0.048
-156.706	-82.803	0.126	0.041
-155.691	36.099	-0.022	-0.019
-154.677	-200.000	0.004	-0.113
-153.662	-144.379	0.281	0.026
-152.647	11.855	-0.262	0.201
-151.633	107.244	0.023	0.027
-150.618	-90.664	0.293	0.085
-149.604	50.452	-0.094	-0.089
-148.589	-151.464	0.182	0.013
-147.574	152.382	-0.173	-0.236
-146.560	-84.161	-0.098	0.031
-145.545	269.393	0.173	-0.302
-144.531	114.757	-0.170	0.207
-143.516	70.354	0.192	0.198
-142.502	34.096	0.107	0.093
-141.487	-52.183	-0.065	-0.030
-140.472	-43.222	0.081	-0.041
-139.458	68.912	0.058	-0.059
-138.443	-31.206	-0.307	0.173
-137.429	50.603	-0.062	0.058
-136.414	-147.342	-0.343	0.029
-135.399	-115.842	-0.071	0.013
-134.385	-154.124	0.153	0.010
-133.370	-38.153	-0.122	-0.065
-132.356	-175.971	-0.108	-0.003
-131.341	-18.458	-0.187	0.116
-130.326	77.870	0.156	0.166
-129.312	-120.442	-0.218	-0.037
-128.297	-100.757	-0.478	0.117
-127.283	13.088	0.103	0.080
-126.268	759.803	-0.085	0.230
-125.253	-72.704	0.278	-0.102
-124.239	800.000	0.036	-0.136
-123.224	231.896	0.217	-0.355
-122.210	452.066	-0.075	0.165
