DTS Sentinel unit serial number:	SN413079Multiplexer serial number:	ORYXHardware model number:	OX4-SRSoftware version number:	ORYX F/W v4.00 Oryx Data Collector v3.7.2.0data status	okinstallation	princeton_trtdifferential loss correction	single-endedforward channel	channel 4reverse channel	N/Adate	2019/09/12time	04:43:11forward acquisition time	60.00reverse acquisition time	0.00gamma	496.2192k internal	0.2310k external	0.2310temperature offset calibration	1.0120default loss term (dB/km)	0.3790temperature slope calibration	1.0000multiplexer offset coefficient	1.0000multiplexer slope coefficient	1.0000fibre end	0.00T internal ref (°C)	31.62T ext. ref 1 (°C)	2.42T ext. ref 2 (°C)	27.21length (m)	temperature (°C)	Stokes	anti-Stokes-747.200	-200.000	0.032	0.144
-746.185	-200.000	0.024	0.248
-745.171	-147.614	0.149	-0.013
-744.156	800.000	-0.147	0.442
-743.142	-97.940	-0.085	0.022
-742.127	38.934	0.144	0.131
-741.112	800.000	0.027	-0.118
-740.098	-167.888	-0.183	0.007
-739.083	98.279	-0.091	-0.107
-738.069	52.471	-0.223	0.216
-737.054	-200.000	-0.009	-0.106
-736.039	384.715	-0.116	-0.243
-735.025	165.958	0.344	0.494
-734.010	-132.386	-0.417	-0.055
-732.996	-85.144	0.142	-0.045
-731.981	-18.222	0.234	-0.149
-730.966	115.914	-0.083	-0.103
-729.952	261.423	0.077	0.136
-728.937	320.238	-0.015	-0.029
-727.923	-200.000	0.017	-0.342
-726.908	24.763	-0.217	-0.183
-725.894	-200.000	0.032	0.245
-724.879	-200.000	-0.037	0.241
-723.864	30.154	0.082	-0.071
-722.850	-98.094	-0.095	-0.025
-721.835	11.199	0.078	-0.060
-720.821	-200.000	0.010	-0.101
-719.806	213.692	0.127	-0.204
-718.791	-52.993	0.202	-0.094
-717.777	101.615	-0.164	-0.194
-716.762	472.925	0.064	0.146
-715.748	715.640	-0.148	-0.399
-714.733	134.532	-0.122	-0.160
-713.718	-41.250	-0.264	-0.138
-712.704	26.425	0.298	0.253
-711.689	-58.789	0.213	-0.094
-710.675	-200.000	0.032	-0.185
-709.660	-200.000	0.055	-0.309
-708.645	376.058	-0.027	-0.056
-707.631	207.612	0.118	-0.187
-706.616	127.250	0.144	-0.185
-705.602	-24.780	-0.139	0.084
-704.587	-200.000	0.006	0.116
-703.572	-200.000	0.032	-0.151
-702.558	-9.886	-0.162	-0.109
-701.543	800.000	0.073	-0.317
-700.529	-180.119	0.148	0.003
-699.514	-90.454	-0.069	0.020
-698.499	95.454	0.092	-0.106
-697.485	93.418	0.046	0.053
-696.470	-137.539	-0.159	0.018
-695.456	-70.948	0.051	-0.020
-694.441	-107.320	0.129	0.029
-693.426	-5.124	-0.223	0.156
-692.412	-200.000	-0.014	0.222
-691.397	554.742	0.079	-0.193
-690.383	-104.700	-0.489	-0.114
-689.368	627.218	-0.093	0.238
-688.354	605.047	-0.068	-0.171
-687.339	144.115	-0.192	-0.260
-686.324	-29.743	-0.193	-0.112
-685.310	336.118	0.183	-0.359
-684.295	-167.244	0.103	0.004
-683.281	212.349	0.136	-0.217
-682.266	55.618	0.329	0.322
-681.251	-44.509	0.104	-0.053
-680.237	-200.000	-0.002	-0.125
-679.222	-60.565	-0.123	0.053
-678.208	206.673	0.136	-0.215
-677.193	-105.440	-0.486	0.112
-676.178	82.153	0.259	0.285
-675.164	-200.000	-0.013	0.187
-674.149	-200.000	-0.018	-0.278
-673.135	-151.106	-0.176	0.013
-672.120	-143.475	-0.111	0.011
-671.105	800.000	0.107	-0.331
-670.091	62.419	0.269	0.272
-669.076	-79.247	0.057	0.019
-668.062	88.787	0.029	-0.033
-667.047	-149.891	-0.245	-0.019
-666.032	-24.726	0.048	-0.029
-665.018	-45.285	0.094	-0.047
-664.003	-200.000	0.031	0.242
-662.989	-46.234	-0.232	0.116
-661.974	-94.718	0.202	0.055
-660.959	-186.142	0.393	0.006
-659.945	-11.240	-0.180	-0.120
-658.930	800.000	-0.052	0.156
-657.916	-200.000	0.028	-0.127
-656.901	-200.000	0.034	-0.232
-655.886	-81.732	0.379	-0.126
-654.872	-87.298	0.300	0.092
-653.857	800.000	0.045	0.141
-652.843	9.844	0.260	0.200
-651.828	9.032	-0.132	0.101
-650.814	-200.000	0.034	-0.198
-649.799	519.939	-0.073	0.174
-648.784	13.827	-0.086	0.067
-647.770	-35.356	0.094	0.052
-646.755	800.000	-0.057	-0.173
-645.741	-44.758	-0.191	-0.097
-644.726	93.406	0.161	-0.185
-643.711	270.249	-0.047	0.083
-642.697	209.673	0.107	-0.170
-641.682	800.000	0.148	0.449
-640.668	88.311	0.122	0.137
-639.653	-200.000	-0.010	-0.229
-638.638	-23.866	-0.423	-0.256
-637.624	600.446	0.097	-0.244
-636.609	18.448	0.250	-0.202
-635.595	197.188	-0.079	-0.121
-634.580	-200.000	0.027	-0.272
-633.565	111.534	-0.053	-0.065
-632.551	-10.011	-0.065	0.044
-631.536	126.969	0.098	0.125
-630.522	-60.192	-0.172	-0.074
-629.507	69.451	0.202	-0.211
-628.492	-180.342	0.107	0.002
-627.478	325.357	-0.090	0.174
-626.463	18.023	0.056	-0.045
-625.449	16.981	-0.233	-0.187
-624.434	-148.871	-0.122	0.010
-623.419	5.730	-0.285	-0.213
-622.405	42.802	-0.274	0.252
-621.390	-200.000	0.015	0.186
-620.376	-138.159	-0.516	0.058
-619.361	181.250	-0.056	-0.083
-618.346	16.072	-0.126	0.100
-617.332	-26.352	-0.012	-0.007
-616.317	800.000	-0.018	0.071
-615.303	-144.834	0.204	-0.019
-614.288	-200.000	0.007	0.148
-613.273	800.000	-0.012	0.036
-612.259	13.441	-0.213	0.167
-611.244	-84.620	-0.695	-0.221
-610.230	99.642	-0.115	-0.134
-609.215	78.388	-0.185	0.199
-608.201	-17.426	0.114	-0.072
-607.186	-37.720	-0.066	0.036
-606.171	391.015	-0.040	-0.085
-605.157	-131.183	0.512	-0.069
-604.142	800.000	0.022	0.070
-603.128	426.527	-0.107	-0.232
-602.113	362.533	0.056	-0.113
-601.098	-65.061	0.335	-0.137
-600.084	137.525	0.145	0.192
-599.069	144.008	0.108	0.146
-598.055	-178.239	-0.064	0.002
-597.040	800.000	0.026	0.083
-596.025	26.241	0.159	-0.134
-595.011	68.533	-0.183	-0.190
-593.996	-101.259	0.191	0.047
-592.982	-134.649	-0.546	-0.067
-591.967	33.975	0.169	-0.148
-590.952	158.336	0.200	0.280
-589.938	10.048	0.371	0.285
-588.923	-22.564	0.079	0.048
-587.909	22.463	-0.152	-0.125
-586.894	545.306	-0.076	0.183
-585.879	-78.735	-0.544	-0.187
-584.865	-200.000	-0.095	0.489
-583.850	-78.471	-0.231	-0.080
-582.836	-19.481	0.078	-0.049
-581.821	-33.062	-0.356	0.199
-580.806	193.097	0.151	-0.230
-579.792	338.630	-0.137	-0.268
-578.777	-200.000	0.043	-0.369
-577.763	58.605	0.064	0.063
-576.748	441.845	-0.061	0.134
-575.733	-95.671	0.102	0.027
-574.719	-78.361	-0.116	-0.040
-573.704	-2.202	-0.061	0.043
-572.690	-148.569	-0.476	-0.039
-571.675	-61.622	0.176	0.074
-570.661	-163.523	0.079	0.004
-569.646	-87.830	-0.298	-0.090
-568.631	800.000	0.059	-0.200
-567.617	-6.955	-0.205	0.140
-566.602	-166.477	0.114	0.005
-565.588	309.886	-0.167	0.316
-564.573	-84.735	0.166	0.053
-563.558	186.127	0.071	-0.107
-562.544	112.940	-0.024	0.030
-561.529	65.135	-0.118	-0.120
-560.515	-111.472	0.356	-0.073
-559.500	14.862	0.387	-0.305
-558.485	800.000	-0.018	-0.073
-557.471	490.428	0.039	-0.091
-556.456	-78.461	0.135	-0.047
-555.442	800.000	0.108	0.316
-554.427	800.000	0.102	-0.335
-553.412	-135.847	-0.116	-0.014
-552.398	358.823	0.142	0.286
-551.383	-200.000	-0.008	-0.138
-550.369	-127.321	0.133	0.019
-549.354	-107.775	-0.233	-0.051
-548.339	-19.194	-0.280	0.175
-547.325	-51.414	-0.392	0.185
-546.310	1.635	-0.076	0.055
-545.296	264.968	0.060	-0.105
-544.281	554.145	-0.043	-0.105
-543.266	125.838	-0.023	0.029
-542.252	-7.504	-0.276	0.188
-541.237	-200.000	0.008	-0.272
-540.223	-200.000	0.021	0.103
-539.208	-127.364	0.230	0.034
-538.193	231.849	0.090	-0.148
-537.179	-200.000	0.004	0.105
-536.164	800.000	0.075	-0.229
-535.150	-200.000	-0.022	-0.133
-534.135	-118.567	-0.218	-0.039
-533.121	-200.000	0.019	0.346
-532.106	-31.455	0.167	0.095
-531.091	441.767	0.007	-0.015
-530.077	-40.461	-0.191	-0.100
-529.062	43.211	0.158	0.145
-528.048	215.771	0.189	-0.302
-527.033	109.521	-0.064	0.078
-526.018	29.649	0.226	0.194
-525.004	24.091	0.296	-0.246
-523.989	10.369	0.037	-0.028
-522.975	800.000	-0.057	-0.160
-521.960	36.179	-0.052	0.046
-520.945	-200.000	-0.052	-0.257
-519.931	-63.262	-0.268	-0.111
-518.916	276.170	-0.105	0.188
-517.902	175.902	-0.117	0.171
-516.887	-63.319	0.172	0.071
-515.872	763.076	0.042	-0.115
-514.858	253.836	0.178	-0.305
-513.843	-200.000	0.041	0.261
-512.829	-22.092	0.234	0.143
-511.814	52.574	0.249	-0.239
-510.799	-200.000	0.002	-0.183
-509.785	363.636	-0.162	-0.327
-508.770	121.752	-0.170	0.213
-507.756	44.326	-0.237	-0.219
-506.741	124.184	0.051	-0.064
-505.726	800.000	0.045	0.158
-504.712	-30.586	-0.227	0.129
-503.697	-200.000	0.024	-0.151
-502.683	-7.683	-0.076	0.051
-501.668	465.213	-0.083	0.187
-500.653	-126.341	-0.161	0.024
-499.639	800.000	-0.010	0.029
-498.624	516.612	0.124	-0.291
-497.610	-113.339	-0.120	0.024
-496.595	237.381	0.217	0.362
-495.581	340.790	-0.178	0.349
-494.566	632.512	0.169	0.429
-493.551	640.425	0.146	-0.373
-492.537	187.053	-0.112	0.168
-491.522	-200.000	-0.027	0.119
-490.508	-135.780	0.040	-0.005
-489.493	141.896	-0.069	0.092
-488.478	122.041	-0.077	-0.097
-487.464	-28.530	-0.239	0.138
-486.449	13.551	-0.254	-0.198
-485.435	13.880	0.303	-0.237
-484.420	111.793	0.183	0.221
-483.405	-200.000	0.036	-0.368
-482.391	-98.891	-0.175	-0.045
-481.376	111.996	-0.104	0.126
-480.362	-94.466	0.208	-0.057
-479.347	-200.000	0.025	-0.143
-478.332	-79.296	-0.570	-0.194
-477.318	329.307	-0.145	-0.281
-476.303	400.990	0.081	-0.170
-475.289	176.855	-0.185	-0.271
-474.274	707.487	-0.091	-0.241
-473.259	-37.598	-0.070	0.038
-472.245	172.711	-0.104	-0.150
-471.230	-66.257	-0.079	0.031
-470.216	-200.000	-0.014	-0.222
-469.201	-137.783	-0.147	-0.017
-468.186	-44.820	0.327	0.164
-467.172	800.000	0.028	-0.103
-466.157	-196.119	0.258	0.002
-465.143	28.806	0.250	-0.213
-464.128	3.830	0.392	0.288
-463.113	29.616	0.332	0.284
-462.099	439.695	-0.145	-0.318
-461.084	-52.467	0.078	0.036
-460.070	-200.000	0.002	0.445
-459.055	31.705	-0.161	0.139
-458.040	12.430	-0.096	0.074
-457.026	45.095	-0.094	-0.087
-456.011	-200.000	-0.001	0.026
-454.997	-200.000	-0.033	0.187
-453.982	-44.021	0.400	0.202
-452.968	-89.750	0.162	-0.048
-451.953	-200.000	-0.073	-0.338
-450.938	44.764	0.264	-0.244
-449.924	-117.064	-0.184	-0.034
-448.909	639.804	0.043	-0.109
-447.895	760.952	-0.057	0.155
-446.880	226.874	-0.063	-0.102
-445.865	-139.067	-0.332	0.036
-444.851	284.150	-0.069	-0.124
-443.836	168.591	0.039	-0.056
-442.822	29.090	-0.116	0.099
-441.807	-18.014	-0.088	0.056
-440.792	583.891	0.035	-0.086
-439.778	49.910	0.236	-0.224
-438.763	632.501	0.090	-0.230
-437.749	39.666	0.151	0.136
-436.734	209.445	-0.192	0.301
-435.719	49.713	0.095	0.090
-434.705	-121.779	0.069	0.011
-433.690	-127.165	0.054	-0.008
-432.676	-117.084	-0.353	-0.065
-431.661	-104.682	0.465	-0.107
-430.646	-70.534	0.243	-0.092
-429.632	-4.528	-0.181	0.125
-428.617	173.154	0.121	-0.175
-427.603	142.608	-0.073	-0.098
-426.588	216.947	0.096	-0.153
-425.573	106.643	0.260	-0.310
-424.559	69.195	-0.172	0.178
-423.544	-76.212	0.171	0.061
-422.530	202.262	0.117	0.182
-421.515	22.456	0.120	0.099
-420.500	800.000	0.055	0.178
-419.486	-200.000	0.026	0.312
-418.471	170.310	0.116	0.167
-417.457	153.524	0.227	0.312
-416.442	-43.305	0.050	0.025
-415.428	800.000	0.031	-0.112
-414.413	800.000	0.099	0.333
-413.398	-90.641	0.268	0.078
-412.384	92.373	0.151	0.171
-411.369	-200.000	0.073	0.562
-410.355	14.356	0.122	-0.095
-409.340	800.000	-0.122	-0.485
-408.325	-200.000	-0.049	-0.237
-407.311	800.000	-0.085	0.362
-406.296	153.070	0.109	-0.150
-405.282	9.174	-0.285	0.216
-404.267	-75.159	0.151	-0.054
-403.252	268.831	0.100	-0.176
-402.238	-127.360	0.194	0.028
-401.223	400.801	0.099	-0.208
-400.209	-200.000	-0.038	-0.294
-399.194	264.297	0.082	0.144
-398.179	-24.338	-0.116	0.069
-397.165	-29.609	0.379	0.217
-396.150	-64.900	0.360	0.146
-395.136	-200.000	-0.074	-0.395
-394.121	-200.000	0.075	0.353
-393.106	-200.000	0.035	0.185
-392.092	-163.183	-0.361	0.017
-391.077	-17.984	-0.487	-0.306
-390.063	-0.393	-0.179	0.127
-389.048	-64.409	0.328	-0.134
-388.033	-65.371	0.351	-0.142
-387.019	-8.145	-0.314	0.212
-386.004	269.873	-0.073	-0.128
-384.990	800.000	-0.133	-0.404
-383.975	-153.667	-0.105	-0.007
-382.960	-136.303	0.104	-0.012
-381.946	174.733	-0.148	0.214
-380.931	91.496	0.103	-0.115
-379.917	-44.421	-0.186	0.093
-378.902	227.567	0.143	-0.232
-377.888	105.052	-0.039	-0.046
-376.873	-159.341	-0.073	-0.004
-375.858	-132.437	0.399	-0.052
-374.844	6.596	-0.249	-0.185
-373.829	-51.613	0.146	0.068
-372.815	-200.000	0.019	-0.237
-371.800	145.906	-0.209	0.280
-370.785	16.584	0.079	0.062
-369.771	-89.518	0.340	-0.100
-368.756	-2.521	0.164	0.115
-367.742	-200.000	-0.025	0.185
-366.727	-111.422	0.151	0.031
-365.712	-89.065	-0.219	0.065
-364.698	96.588	0.193	0.222
-363.683	511.642	0.204	-0.475
-362.669	-106.283	0.229	0.051
-361.654	368.764	0.029	-0.059
-360.639	-37.376	-0.209	-0.112
-359.625	-200.000	0.008	-0.066
-358.610	800.000	-0.094	0.318
-357.596	-146.245	0.352	0.031
-356.581	800.000	0.035	-0.150
-355.566	-124.788	-0.311	-0.048
-354.552	-62.872	0.149	-0.061
-353.537	800.000	0.054	0.192
-352.523	-47.916	0.277	0.134
-351.508	33.277	-0.268	-0.233
-350.493	575.610	-0.038	-0.094
-349.479	50.035	-0.203	-0.192
-348.464	-90.620	0.333	0.096
-347.450	635.686	-0.093	-0.235
-346.435	1.668	-0.416	0.300
-345.420	797.680	0.058	0.160
-344.406	338.935	-0.257	0.500
-343.391	19.556	0.074	-0.060
-342.377	50.029	-0.235	-0.222
-341.362	800.000	0.042	0.179
-340.348	2.369	-0.251	0.181
-339.333	24.398	-0.225	0.186
-338.318	266.577	-0.236	0.412
-337.304	184.379	-0.269	0.399
-336.289	-77.566	-0.284	0.098
-335.275	-26.437	-0.169	0.099
-334.260	-46.053	0.224	-0.110
-333.245	-2.999	-0.123	-0.086
-332.231	800.000	-0.033	-0.112
-331.216	-65.176	0.223	-0.090
-330.202	113.368	-0.333	-0.403
-329.187	140.574	-0.067	0.088
-328.172	128.150	0.101	-0.128
-327.158	-16.211	0.149	0.095
-326.143	197.746	-0.141	-0.215
-325.129	-200.000	0.018	0.085
-324.114	-58.898	0.192	-0.083
-323.099	286.982	0.099	0.179
-322.085	-200.000	0.010	0.138
-321.070	-75.405	-0.097	0.034
-320.056	215.974	-0.074	-0.117
-319.041	56.201	-0.160	-0.155
-318.026	-161.808	0.110	-0.006
-317.012	160.880	0.179	-0.250
-315.997	-50.681	0.077	-0.036
-314.983	371.730	0.052	0.105
-313.968	-137.479	-0.096	0.011
-312.953	-60.148	-0.052	-0.022
-311.939	69.188	0.177	0.182
-310.924	216.700	-0.218	-0.346
-309.910	-200.000	-0.015	-0.086
-308.895	113.081	0.076	0.092
-307.880	800.000	0.071	-0.291
-306.866	58.239	-0.225	0.220
-305.851	-56.993	0.173	-0.076
-304.837	80.702	-0.098	0.106
-303.822	-104.962	-0.333	-0.076
-302.807	-160.550	-0.244	-0.013
-301.793	-179.216	0.115	0.003
-300.778	-200.000	0.026	-0.177
-299.764	-110.577	-0.364	-0.075
-298.749	-25.357	0.225	-0.133
-297.735	-200.000	0.051	-0.312
-296.720	-91.509	0.267	-0.076
-295.705	-113.528	-0.173	0.034
-294.691	98.318	-0.132	0.152
-293.676	214.501	0.217	-0.343
-292.662	-14.138	-0.194	0.125
-291.647	84.083	-0.042	0.046
-290.632	-200.000	0.034	0.192
-289.618	190.950	-0.036	0.054
-288.603	90.833	0.181	-0.203
-287.589	19.896	-0.157	0.126
-286.574	81.490	-0.055	0.060
-285.559	-73.456	0.487	0.177
-284.545	800.000	-0.053	-0.180
-283.530	800.000	-0.063	-0.247
-282.516	22.951	0.066	0.054
-281.501	-125.741	-0.137	-0.021
-280.486	-60.738	0.149	0.063
-279.472	23.146	-0.271	0.222
-278.457	-200.000	-0.063	0.302
-277.443	34.665	0.292	0.254
-276.428	-152.635	-0.247	0.018
-275.413	-141.242	0.054	-0.005
-274.399	-200.000	-0.012	0.368
-273.384	-66.618	0.233	0.092
-272.370	-200.000	-0.012	-0.142
-271.355	-52.278	-0.452	0.209
-270.340	800.000	-0.030	0.113
-269.326	-36.843	-0.167	0.089
-268.311	136.785	0.214	-0.279
-267.297	166.525	-0.172	0.243
-266.282	125.952	0.118	0.149
-265.267	157.739	-0.100	0.138
-264.253	-35.348	0.352	0.191
-263.238	-102.452	-0.398	-0.095
-262.224	-59.770	0.107	0.046
-261.209	78.681	0.184	-0.196
-260.195	-200.000	0.008	0.211
-259.180	-180.474	0.300	-0.006
-258.165	800.000	0.059	0.228
-257.151	-179.578	-0.183	-0.004
-256.136	-23.788	-0.081	-0.049
-255.122	-200.000	0.366	0.000
-254.107	307.275	0.276	0.513
-253.092	225.191	0.136	-0.219
-252.078	-142.019	0.410	0.041
-251.063	-104.868	-0.270	0.062
-250.049	-83.775	0.267	0.085
-249.034	50.306	-0.120	0.113
-248.019	-121.668	-0.229	-0.038
-247.005	360.933	0.072	0.144
-245.990	574.165	-0.240	0.582
-244.976	790.254	-0.068	-0.185
-243.961	800.000	-0.032	-0.127
-242.946	339.299	-0.220	0.427
-241.932	82.517	0.315	0.341
-240.917	597.309	0.114	-0.282
-239.903	540.752	-0.145	-0.343
-238.888	-200.000	-0.034	-0.176
-237.873	-134.473	-0.156	0.019
-236.859	83.737	-0.078	0.085
-235.844	256.215	-0.077	-0.131
-234.830	800.000	0.034	0.123
-233.815	-87.530	-0.172	-0.052
-232.800	-200.000	0.007	0.033
-231.786	94.560	-0.219	-0.247
-230.771	-37.741	-0.077	-0.041
-229.757	-138.613	-0.312	-0.034
-228.742	-142.372	0.040	0.004
-227.727	-142.152	0.164	0.016
-226.713	305.498	0.054	0.099
-225.698	122.858	0.069	-0.086
-224.684	-77.333	0.394	-0.136
-223.669	91.292	-0.166	0.186
-222.655	800.000	-0.105	-0.294
-221.640	125.033	-0.074	-0.093
-220.625	65.896	0.381	-0.384
-219.611	-200.000	0.013	0.085
-218.596	385.494	0.056	0.115
-217.582	157.702	0.239	-0.329
-216.567	48.006	-0.103	-0.096
-215.552	613.989	0.061	0.152
-214.538	-59.452	0.263	-0.112
-213.523	-123.252	-0.327	-0.052
-212.509	-200.000	0.033	0.274
-211.494	-200.000	0.015	-0.377
-210.479	205.854	0.054	-0.083
-209.465	-4.494	0.094	-0.064
-208.450	265.143	0.028	-0.049
-207.436	217.483	0.180	-0.286
-206.421	127.386	0.035	0.044
-205.406	-125.462	-0.100	-0.015
-204.392	-34.642	0.047	0.026
-203.377	-200.000	0.020	0.170
-202.363	-142.265	-0.180	0.018
-201.348	-200.000	-0.015	-0.165
-200.333	800.000	0.064	-0.212
-199.319	800.000	0.054	0.149
-198.304	117.464	-0.197	0.240
-197.290	-85.850	0.306	-0.094
-196.275	-95.571	-0.273	-0.073
-195.260	-128.206	0.088	-0.013
-194.246	148.741	0.146	-0.196
-193.231	-151.224	0.189	-0.014
-192.217	-0.392	0.393	0.277
-191.202	383.848	-0.143	0.293
-190.187	12.086	-0.373	0.285
-189.173	402.204	0.189	-0.395
-188.158	131.167	-0.190	0.242
-187.144	17.768	-0.132	0.105
-186.129	800.000	0.050	-0.214
-185.114	90.373	0.236	-0.262
-184.100	-200.000	-0.022	-0.223
-183.085	-200.000	-0.027	0.317
-182.071	-129.039	0.185	-0.026
-181.056	-200.000	0.062	-0.442
-180.042	-200.000	-0.014	0.152
-179.027	12.947	0.148	0.114
-178.012	201.652	-0.059	0.090
-176.998	357.824	0.105	0.207
-175.983	-200.000	0.008	0.323
-174.969	-73.315	0.316	0.115
-173.954	638.479	-0.083	-0.211
-172.939	12.663	-0.141	-0.108
-171.925	-101.904	0.286	0.069
-170.910	-57.398	-0.281	0.123
-169.896	784.834	0.102	-0.278
-168.881	28.596	0.206	-0.173
-167.866	222.152	-0.011	-0.017
-166.852	-200.000	0.023	-0.182
-165.837	-119.563	0.240	0.041
-164.823	-157.126	-0.240	-0.014
-163.808	72.004	0.250	-0.258
-162.793	7.504	-0.131	0.098
-161.779	-117.626	-0.118	0.021
-160.764	-87.450	-0.081	0.024
-159.750	800.000	0.082	0.271
-158.735	800.000	-0.049	0.207
-157.720	-41.076	-0.087	0.045
-156.706	-22.202	-0.455	0.274
-155.691	177.156	0.213	0.308
-154.677	-29.527	0.394	0.223
-153.662	147.408	-0.119	0.159
-152.647	762.665	-0.096	-0.259
-151.633	322.197	0.030	0.056
-150.618	40.931	0.259	0.232
-149.604	-33.486	0.166	-0.091
-148.589	116.439	0.162	-0.197
-147.574	-81.155	-0.128	0.042
-146.560	106.111	0.039	-0.045
-145.545	66.531	0.138	0.139
-144.531	-75.725	0.071	-0.025
-143.516	-175.530	-0.043	-0.001
-142.502	-21.131	0.155	-0.094
-141.487	-142.476	-0.123	-0.012
-140.472	3.894	0.121	0.088
-139.458	70.689	0.155	-0.159
-138.443	-127.419	-0.329	-0.048
-137.429	-149.408	-0.283	0.022
-136.414	-135.805	0.353	0.041
-135.399	124.182	0.119	-0.148
-134.385	171.893	-0.055	0.079
-133.370	-129.115	0.157	0.022
-132.356	-33.424	0.138	0.076
-131.341	-158.640	-0.024	0.001
-130.326	85.669	-0.145	0.157
-129.312	-97.489	0.314	-0.081
-128.297	-92.175	0.107	0.030
-127.283	-200.000	-0.004	-0.455
-126.268	206.032	0.110	-0.169
-125.253	-80.391	-0.197	-0.065
-124.239	-200.000	-0.007	-0.128
-123.224	-95.485	-0.259	-0.069
-122.210	800.000	0.038	0.116
-121.195	-29.755	-0.179	-0.101
-120.180	449.585	-0.083	-0.181
