DTS Sentinel unit serial number:	SN413079Multiplexer serial number:	ORYXHardware model number:	OX4-SRSoftware version number:	ORYX F/W v4.00 Oryx Data Collector v3.7.2.0data status	okinstallation	princeton_trtdifferential loss correction	single-endedforward channel	channel 4reverse channel	N/Adate	2019/09/11time	14:19:11forward acquisition time	60.00reverse acquisition time	0.00gamma	496.2192k internal	0.2281k external	0.2281temperature offset calibration	1.0002default loss term (dB/km)	0.3790temperature slope calibration	1.0000multiplexer offset coefficient	1.0000multiplexer slope coefficient	1.0000fibre end	0.00T internal ref (°C)	42.00T ext. ref 1 (°C)	0.87T ext. ref 2 (°C)	38.29length (m)	temperature (°C)	Stokes	anti-Stokes-747.200	-27.803	-0.293	-0.175
-746.185	332.680	0.346	0.688
-745.171	725.612	-0.143	-0.391
-744.156	55.756	0.009	-0.009
-743.142	-11.192	-0.120	0.081
-742.127	17.162	-0.294	-0.240
-741.112	49.843	-0.112	-0.108
-740.098	253.242	-0.101	-0.177
-739.083	-161.462	-0.139	-0.007
-738.069	-92.285	0.077	0.022
-737.054	136.138	0.056	0.075
-736.039	-51.501	-0.089	-0.043
-735.025	93.293	-0.205	0.238
-734.010	138.516	-0.290	-0.391
-732.996	4.613	-0.242	0.183
-731.981	-200.000	-0.007	-0.072
-730.966	-200.000	-0.004	0.263
-729.952	263.433	-0.079	0.141
-728.937	-200.000	0.009	0.329
-727.923	-129.257	-0.573	0.082
-726.908	-6.974	-0.063	0.044
-725.894	148.202	0.150	-0.208
-724.879	800.000	-0.033	0.136
-723.864	71.589	0.204	-0.218
-722.850	-90.571	-0.066	0.020
-721.835	36.188	-0.176	0.160
-720.821	127.513	-0.099	0.130
-719.806	-200.000	0.008	0.145
-718.791	279.363	0.166	-0.305
-717.777	-101.264	-0.443	-0.111
-716.762	528.729	0.041	-0.098
-715.748	300.007	-0.076	-0.145
-714.733	189.670	-0.099	-0.153
-713.718	-38.375	0.192	-0.105
-712.704	-72.827	0.068	0.026
-711.689	-69.537	-0.320	-0.126
-710.675	289.381	-0.098	-0.182
-709.660	2.919	-0.271	-0.202
-708.645	-200.000	0.023	-0.216
-707.631	22.104	-0.023	0.019
-706.616	-9.853	0.180	-0.123
-705.602	-200.000	0.024	-0.144
-704.587	-200.000	-0.016	-0.141
-703.572	-131.120	0.352	0.048
-702.558	800.000	-0.071	-0.249
-701.543	34.066	-0.230	0.206
-700.529	377.195	0.108	0.226
-699.514	241.040	-0.086	0.148
-698.499	-200.000	0.010	-0.068
-697.485	-8.451	-0.136	-0.094
-696.470	-164.951	-0.363	0.017
-695.456	249.075	-0.117	-0.204
-694.441	-110.149	0.120	0.026
-693.426	-72.825	-0.310	0.117
-692.412	-42.780	0.226	-0.118
-691.397	-89.738	0.277	0.083
-690.383	-107.659	0.028	0.006
-689.368	280.256	0.104	-0.190
-688.354	-200.000	-0.002	0.129
-687.339	-15.936	0.076	-0.049
-686.324	-41.191	0.243	-0.129
-685.310	149.030	-0.303	-0.420
-684.295	126.406	-0.180	0.234
-683.281	-69.274	-0.155	-0.061
-682.266	-198.420	0.298	-0.002
-681.251	-84.784	0.041	-0.013
-680.237	-93.044	-0.142	-0.041
-679.222	-181.846	0.148	-0.003
-678.208	12.004	-0.229	0.181
-677.193	76.276	-0.052	0.056
-676.178	112.320	-0.053	-0.066
-675.164	800.000	-0.112	-0.337
-674.149	-81.786	-0.212	0.071
-673.135	800.000	0.027	0.093
-672.120	-47.575	0.140	0.070
-671.105	-27.279	0.086	-0.051
-670.091	312.777	0.135	0.261
-669.076	254.388	-0.124	-0.218
-668.062	80.878	-0.201	-0.222
-667.047	-19.090	-0.134	0.086
-666.032	331.324	0.123	0.243
-665.018	-200.000	0.002	-0.399
-664.003	86.180	0.086	0.097
-662.989	-77.456	-0.191	0.068
-661.974	800.000	-0.044	0.152
-660.959	-200.000	-0.007	-0.328
-659.945	179.766	0.229	-0.344
-658.930	800.000	0.044	-0.126
-657.916	-200.000	-0.004	0.240
-656.901	8.024	-0.202	0.155
-655.886	319.116	0.175	-0.341
-654.872	605.901	-0.067	-0.171
-653.857	-57.337	0.179	0.081
-652.843	-111.940	-0.531	-0.110
-651.828	-17.882	-0.303	-0.195
-650.814	14.895	0.283	-0.227
-649.799	-200.000	0.031	-0.312
-648.784	640.228	-0.175	-0.457
-647.770	112.562	0.128	0.158
-646.755	-168.747	-0.537	0.021
-645.741	28.853	0.058	0.051
-644.726	800.000	-0.112	-0.346
-643.711	367.596	0.120	0.248
-642.697	800.000	-0.055	-0.211
-641.682	62.747	-0.140	-0.143
-640.668	-200.000	-0.009	0.049
-639.653	800.000	0.087	0.284
-638.638	800.000	-0.060	0.192
-637.624	599.411	0.103	0.263
-636.609	-200.000	-0.011	-0.055
-635.595	-63.407	-0.326	-0.137
-634.580	-74.964	0.328	-0.120
-633.565	7.225	-0.278	0.212
-632.551	57.879	0.041	0.041
-631.536	2.423	0.199	0.147
-630.522	-90.564	0.178	0.053
-629.507	-200.000	0.003	0.060
-628.492	316.367	-0.102	0.197
-627.478	25.031	-0.115	0.097
-626.463	800.000	-0.066	0.188
-625.449	-200.000	-0.025	-0.402
-624.434	164.035	0.170	-0.245
-623.419	137.034	-0.195	-0.261
-622.405	69.745	0.166	0.175
-621.390	800.000	-0.114	-0.333
-620.376	800.000	-0.099	0.327
-619.361	179.963	0.071	-0.106
-618.346	-135.414	-0.251	0.031
-617.332	-39.893	0.379	0.202
-616.317	114.604	0.056	0.069
-615.303	91.151	-0.172	0.198
-614.288	8.331	-0.231	-0.177
-613.273	320.265	-0.067	-0.129
-612.259	-78.871	0.335	0.117
-611.244	509.134	-0.177	-0.420
-610.230	694.917	-0.061	-0.164
-609.215	-80.991	-0.337	-0.114
-608.201	-200.000	-0.040	-0.429
-607.186	123.384	-0.128	-0.164
-606.171	-124.360	0.166	0.027
-605.157	97.605	0.063	-0.074
-604.142	-1.389	-0.024	-0.017
-603.128	-200.000	0.020	-0.101
-602.113	110.810	0.131	-0.161
-601.098	-91.251	0.187	0.055
-600.084	-78.327	-0.165	-0.058
-599.069	203.006	-0.143	-0.226
-598.055	347.687	-0.041	0.082
-597.040	-125.818	0.127	-0.020
-596.025	58.635	0.057	0.058
-595.011	-113.638	0.343	-0.068
-593.996	-200.000	-0.011	-0.262
-592.982	-156.912	-0.283	-0.018
-591.967	-200.000	0.025	0.140
-590.952	-188.523	0.440	-0.006
-589.938	7.931	-0.428	0.328
-588.923	171.760	0.091	-0.134
-587.909	-19.148	0.198	0.126
-586.894	30.047	-0.043	0.038
-585.879	28.930	0.167	0.145
-584.865	91.346	0.132	0.152
-583.850	800.000	-0.023	0.073
-582.836	-200.000	0.052	-0.289
-581.821	-145.405	-0.114	-0.010
-580.806	158.311	-0.224	-0.317
-579.792	-200.000	-0.056	0.293
-578.777	116.874	-0.100	0.125
-577.763	-39.952	-0.142	0.076
-576.748	17.987	-0.096	-0.078
-575.733	-116.058	0.159	0.030
-574.719	131.742	0.141	-0.185
-573.704	42.602	-0.400	-0.372
-572.690	102.992	0.160	0.191
-571.675	-13.428	0.148	-0.098
-570.661	90.840	-0.144	0.164
-569.646	-58.407	0.357	0.158
-568.631	-55.988	-0.124	0.056
-567.617	-200.000	0.006	0.255
-566.602	102.264	0.059	-0.070
-565.588	-112.732	-0.070	-0.014
-564.573	-100.114	-0.081	-0.021
-563.558	575.122	0.162	-0.403
-562.544	14.249	0.318	0.253
-561.529	648.217	0.131	0.341
-560.515	5.059	-0.147	-0.110
-559.500	169.943	-0.083	0.121
-558.485	554.723	0.071	-0.174
-557.471	-56.540	0.236	0.107
-556.456	198.312	-0.059	0.092
-555.442	-165.578	-0.186	-0.008
-554.427	-80.890	0.041	0.014
-553.412	112.655	-0.164	-0.202
-552.398	-89.411	-0.110	0.033
-551.383	-54.954	-0.111	-0.051
-550.369	-132.818	0.240	-0.031
-549.354	666.970	-0.058	-0.152
-548.339	-16.974	-0.065	-0.042
-547.325	-82.662	0.206	-0.068
-546.310	-200.000	0.006	-0.179
-545.296	167.992	0.190	0.276
-544.281	-74.298	0.188	0.069
-543.266	243.666	0.098	-0.167
-542.252	-119.987	0.072	-0.013
-541.237	800.000	-0.043	-0.181
-540.223	268.748	-0.158	0.283
-539.208	-48.318	0.200	0.098
-538.193	-146.277	-0.038	-0.003
-537.179	-136.001	0.189	0.023
-536.164	65.045	-0.243	-0.250
-535.150	-200.000	0.025	0.194
-534.135	23.614	-0.029	0.024
-533.121	-106.139	0.119	-0.027
-532.106	200.383	0.088	0.138
-531.091	-200.000	-0.011	-0.095
-530.077	279.244	-0.067	-0.122
-529.062	-200.000	-0.024	-0.165
-528.048	-200.000	-0.044	-0.279
-527.033	53.477	0.169	-0.166
-526.018	-200.000	0.012	0.267
-525.004	311.042	0.165	0.314
-523.989	114.919	0.114	0.142
-522.975	-200.000	0.019	-0.224
-521.960	463.055	0.225	0.512
-520.945	371.103	-0.132	-0.272
-519.931	-82.564	-0.468	-0.155
-518.916	41.267	-0.073	0.068
-517.902	354.851	-0.048	0.097
-516.887	-191.822	0.261	-0.003
-515.872	156.758	-0.093	0.132
-514.858	-200.000	-0.020	-0.147
-513.843	-74.663	-0.077	-0.028
-512.829	800.000	0.047	0.172
-511.814	-41.912	-0.165	0.086
-510.799	-91.431	0.111	-0.032
-509.785	355.450	-0.093	-0.188
-508.770	227.353	-0.079	-0.131
-507.756	-200.000	-0.007	0.093
-506.741	800.000	0.107	0.384
-505.726	-73.949	-0.333	0.123
-504.712	35.540	-0.131	-0.118
-503.697	-81.980	0.256	-0.085
-502.683	800.000	0.051	-0.174
-501.668	207.400	0.088	0.141
-500.653	377.571	-0.047	-0.099
-499.639	-200.000	0.038	-0.196
-498.624	63.436	0.312	-0.318
-497.610	262.242	0.168	-0.298
-496.595	-16.065	-0.037	0.024
-495.581	19.509	-0.217	-0.177
-494.566	753.004	-0.014	0.038
-493.551	155.466	-0.097	-0.136
-492.537	-58.231	0.187	0.083
-491.522	-169.412	0.060	0.002
-490.508	-122.208	0.384	0.064
-489.493	68.098	0.076	-0.079
-488.478	-100.344	-0.149	-0.038
-487.464	91.486	-0.325	-0.372
-486.449	-18.611	0.294	-0.187
-485.435	496.562	0.121	0.283
-484.420	135.681	-0.144	-0.190
-483.405	5.595	-0.052	-0.039
-482.391	-194.148	0.260	-0.002
-481.376	149.644	-0.240	-0.330
-480.362	800.000	0.081	-0.230
-479.347	189.364	-0.120	0.183
-478.332	-200.000	-0.070	-0.496
-477.318	-33.902	0.200	-0.112
-476.303	800.000	-0.019	0.077
-475.289	-200.000	-0.049	0.313
-474.274	-74.027	-0.301	-0.111
-473.259	-200.000	-0.022	0.229
-472.245	634.504	-0.073	-0.188
-471.230	259.097	0.177	-0.310
-470.216	-114.541	0.133	-0.026
-469.201	-0.448	0.044	0.032
-468.186	-89.685	0.338	0.101
-467.172	-183.805	-0.196	-0.003
-466.157	101.952	-0.142	-0.169
-465.143	179.964	0.098	-0.146
-464.128	-25.056	-0.299	0.180
-463.113	597.431	0.153	0.386
-462.099	800.000	0.141	0.490
-461.084	-100.420	0.218	0.055
-460.070	436.946	0.036	-0.081
-459.055	800.000	-0.064	0.209
-458.040	85.160	-0.232	0.259
-457.026	43.653	-0.137	0.128
-456.011	-145.750	-0.017	-0.002
-454.997	-200.000	-0.028	-0.129
-453.982	800.000	-0.106	0.359
-452.968	-61.234	-0.176	0.076
-451.953	800.000	-0.063	0.269
-450.938	74.852	0.099	0.106
-449.924	-200.000	0.035	0.202
-448.909	169.687	0.097	0.141
-447.895	-21.624	0.205	0.127
-446.880	-39.617	-0.131	-0.070
-445.865	-200.000	0.046	0.547
-444.851	-200.000	-0.012	-0.189
-443.836	55.898	-0.255	-0.251
-442.822	32.632	0.071	-0.063
-441.807	-86.540	-0.211	-0.066
-440.792	-156.159	-0.264	0.017
-439.778	-109.434	-0.135	-0.029
-438.763	395.041	-0.172	0.364
-437.749	219.836	-0.071	-0.116
-436.734	-200.000	-0.052	0.298
-435.719	157.151	0.098	0.138
-434.705	-200.000	0.022	0.113
-433.690	-99.089	-0.190	0.049
-432.676	-92.404	0.259	-0.074
-431.661	54.007	-0.043	0.042
-430.646	278.533	-0.206	-0.372
-429.632	-200.000	0.026	-0.140
-428.617	26.986	0.317	0.270
-427.603	800.000	-0.063	-0.198
-426.588	141.167	-0.141	-0.190
-425.573	1.437	0.270	-0.197
-424.559	42.839	0.123	0.114
-423.544	483.233	0.114	-0.262
-422.530	-41.573	-0.180	0.094
-421.515	-200.000	-0.006	-0.074
-420.500	800.000	-0.071	0.270
-419.486	125.714	-0.199	-0.255
-418.471	191.446	0.048	-0.074
-417.457	763.023	-0.135	-0.371
-416.442	671.866	-0.151	-0.397
-415.428	-38.150	0.127	0.068
-414.413	174.623	0.232	0.341
-413.398	175.614	0.132	0.195
-412.384	-102.988	0.113	-0.027
-411.369	23.297	-0.171	-0.143
-410.355	50.899	0.295	0.284
-409.340	-19.943	-0.332	-0.208
-408.325	-34.618	-0.132	0.073
-407.311	-4.008	0.264	0.186
-406.296	-121.768	-0.025	-0.004
-405.282	800.000	-0.092	-0.372
-404.267	195.433	0.040	-0.062
-403.252	-135.143	0.217	-0.026
-402.238	-200.000	0.038	0.209
-401.223	150.757	-0.122	0.169
-400.209	-200.000	-0.019	-0.189
-399.194	-99.036	-0.291	0.075
-398.179	159.214	-0.165	0.233
-397.165	-18.372	0.392	0.248
-396.150	126.013	-0.139	-0.178
-395.136	-200.000	-0.007	-0.073
-394.121	-81.581	0.427	-0.142
-393.106	-200.000	0.218	-0.000
-392.092	-200.000	0.010	-0.348
-391.077	-53.292	-0.362	0.169
-390.063	-149.493	-0.308	0.025
-389.048	800.000	-0.012	-0.037
-388.033	693.559	0.043	0.115
-387.019	30.390	-0.155	-0.134
-386.004	-83.550	0.204	-0.066
-384.990	-65.911	-0.138	-0.056
-383.975	40.407	-0.173	-0.158
-382.960	-26.774	0.160	0.095
-381.946	-200.000	-0.043	-0.277
-380.931	-103.746	-0.326	-0.077
-379.917	197.679	-0.100	0.154
-378.902	-109.620	-0.206	-0.044
-377.888	-200.000	0.046	0.282
-376.873	129.448	-0.163	-0.212
-375.858	-178.069	-0.251	-0.006
-374.844	-52.967	0.232	0.108
-373.829	-114.016	0.295	-0.058
-372.815	-71.775	0.472	0.178
-371.800	-50.089	0.279	0.134
-370.785	-121.186	-0.304	-0.051
-369.771	-169.964	0.394	0.014
-368.756	358.972	-0.117	0.237
-367.742	135.878	0.020	-0.027
-366.727	-161.856	0.172	-0.009
-365.712	-108.429	-0.280	0.061
-364.698	123.371	0.087	-0.111
-363.683	-154.407	-0.128	-0.009
-362.669	-69.798	-0.118	-0.046
-361.654	266.045	0.126	0.223
-360.639	118.910	-0.030	0.037
-359.625	-30.022	-0.435	0.251
-358.610	96.995	0.089	0.103
-357.596	-200.000	0.048	-0.379
-356.581	362.523	0.097	0.197
-355.566	-89.269	0.266	0.079
-354.552	160.110	0.260	-0.367
-353.537	-200.000	0.033	0.209
-352.523	-40.277	-0.343	0.181
-351.508	-184.432	-0.169	-0.003
-350.493	-53.773	-0.059	-0.027
-349.479	-0.558	-0.440	0.316
-348.464	-7.055	0.361	0.248
-347.450	11.893	-0.023	0.018
-346.435	156.213	-0.193	-0.270
-345.420	-200.000	0.010	-0.255
-344.406	173.691	0.126	-0.185
-343.391	151.863	0.043	-0.059
-342.377	480.035	-0.154	0.352
-341.362	-89.516	0.177	0.053
-340.348	-89.979	-0.120	-0.035
-339.333	52.091	0.100	0.097
-338.318	-200.000	0.013	-0.086
-337.304	103.899	0.110	-0.131
-336.289	43.288	-0.089	-0.082
-335.275	-200.000	-0.009	-0.179
-334.260	33.906	-0.205	0.181
-333.245	-51.914	0.383	-0.180
-332.231	-51.451	0.287	0.136
-331.216	173.765	-0.120	-0.176
-330.202	-200.000	0.060	0.376
-329.187	-48.199	0.297	-0.145
-328.172	347.659	-0.089	0.178
-327.158	147.493	0.132	-0.180
-326.143	-13.712	-0.359	0.235
-325.129	-200.000	0.073	0.324
-324.114	156.127	0.134	-0.187
-323.099	-117.505	-0.569	0.104
-322.085	456.308	0.064	-0.144
-321.070	-20.730	0.144	-0.089
-320.056	800.000	0.086	0.253
-319.041	127.217	0.080	-0.103
-318.026	-35.930	-0.185	0.101
-317.012	262.449	0.067	0.117
-315.997	800.000	0.074	0.287
-314.983	-182.099	-0.138	-0.003
-313.968	6.271	-0.248	-0.186
-312.953	50.672	0.091	-0.087
-311.939	267.633	-0.136	-0.241
-310.924	-111.652	-0.325	0.067
-309.910	-200.000	0.077	-0.423
-308.895	-132.137	0.060	-0.008
-307.880	98.302	0.213	-0.248
-306.866	210.398	0.070	0.111
-305.851	800.000	0.024	-0.077
-304.837	-59.280	0.303	0.132
-303.822	-158.950	0.456	-0.026
-302.807	-133.741	-0.233	0.029
-301.793	-33.474	-0.131	0.073
-300.778	426.084	0.041	-0.089
-299.764	-69.958	-0.145	0.056
-298.749	12.874	0.017	-0.013
-297.735	-88.697	0.270	0.081
-296.720	800.000	0.053	0.219
-295.705	28.031	0.060	-0.051
-294.691	-50.918	-0.364	0.173
-293.676	-81.383	0.329	0.109
-292.662	385.697	0.057	-0.118
-291.647	-81.846	-0.238	0.079
-290.632	38.567	-0.130	0.117
-289.618	38.795	-0.178	-0.160
-288.603	673.493	-0.063	-0.165
-287.589	56.456	-0.155	-0.152
-286.574	-10.631	0.165	0.110
-285.559	-200.000	0.001	-0.115
-284.545	-161.994	-0.287	-0.015
-283.530	-200.000	-0.020	0.173
-282.516	117.450	-0.140	0.174
-281.501	800.000	0.050	-0.193
-280.486	-49.526	0.159	-0.077
-279.472	210.803	-0.290	0.461
-278.457	29.447	0.051	0.044
-277.443	-159.620	-0.300	0.017
-276.428	-74.703	0.375	-0.136
-275.413	307.948	-0.146	-0.275
-274.399	488.778	0.056	-0.129
-273.384	201.646	-0.221	-0.343
-272.370	800.000	-0.089	-0.270
-271.355	151.083	-0.188	0.258
-270.340	60.903	0.412	0.412
-269.326	-200.000	0.013	-0.082
-268.311	678.032	0.134	-0.350
-267.297	-105.931	-0.113	0.026
-266.282	65.819	-0.202	0.206
-265.267	-200.000	-0.069	-0.382
-264.253	-168.635	-0.217	0.008
-263.238	-46.030	-0.115	-0.057
-262.224	17.237	-0.162	-0.130
-261.209	800.000	0.053	-0.221
-260.195	29.351	0.304	0.261
-259.180	-23.121	-0.212	-0.129
-258.165	182.606	-0.137	-0.205
-257.151	201.265	0.045	0.070
-256.136	800.000	0.020	-0.070
-255.122	-176.066	-0.215	-0.006
-254.107	314.711	0.076	0.145
-253.092	-33.776	0.333	0.185
-252.078	800.000	0.022	-0.096
-251.063	800.000	-0.084	-0.257
-250.049	370.583	0.188	0.385
-249.034	-109.321	-0.245	-0.052
-248.019	-163.419	0.124	0.006
-247.005	34.180	-0.137	-0.120
-245.990	-158.793	-0.137	0.008
-244.976	8.945	0.226	-0.172
-243.961	-200.000	-0.015	-0.131
-242.946	440.961	-0.162	0.358
-241.932	27.070	-0.094	-0.080
-240.917	800.000	0.080	-0.291
-239.903	520.357	0.038	-0.091
-238.888	54.207	0.152	0.147
-237.873	-127.129	-0.328	-0.048
-236.859	800.000	0.073	0.316
-235.844	-74.328	0.052	-0.019
-234.830	-134.771	-0.237	-0.029
-233.815	104.740	0.132	0.157
-232.800	256.818	0.077	-0.134
-231.786	272.216	0.116	-0.206
-230.771	412.338	0.023	0.049
-229.757	-65.164	0.394	-0.160
-228.742	-83.554	0.215	0.069
-227.727	352.662	-0.066	-0.131
-226.713	-91.080	0.246	-0.071
-225.698	177.662	-0.018	-0.027
-224.684	4.599	0.248	0.184
-223.669	800.000	-0.043	0.122
-222.655	-94.815	0.231	-0.063
-221.640	-200.000	-0.002	0.171
-220.625	-49.640	-0.110	0.053
-219.611	-152.239	-0.368	0.027
-218.596	1.806	0.281	0.204
-217.582	483.202	0.053	0.121
-216.567	800.000	0.085	-0.283
-215.552	-160.410	-0.206	0.011
-214.538	-94.866	-0.387	-0.106
-213.523	93.808	0.121	0.139
-212.509	-200.000	-0.024	-0.136
-211.494	-100.772	-0.049	-0.012
-210.479	411.299	0.113	0.242
-209.465	-22.771	0.366	0.223
-208.450	-58.952	-0.272	-0.118
-207.436	-140.002	-0.110	0.012
-206.421	-200.000	0.030	0.216
-205.406	-200.000	0.002	0.132
-204.392	301.188	0.080	0.150
-203.377	310.240	0.093	-0.176
-202.363	103.669	-0.103	0.122
-201.348	-23.791	0.130	-0.079
-200.333	-200.000	0.048	0.398
-199.319	683.961	-0.041	0.108
-198.304	5.960	-0.276	0.206
-197.290	94.514	0.125	0.143
-196.275	800.000	-0.069	0.260
-195.260	800.000	-0.024	0.079
-194.246	-24.786	0.254	0.152
-193.231	-149.329	0.162	-0.013
-192.217	190.593	0.152	-0.230
-191.202	-27.981	-0.033	-0.019
-190.187	-5.820	-0.204	-0.141
-189.173	-71.445	-0.115	0.043
-188.158	-114.296	-0.433	0.084
-187.144	-148.050	0.169	0.014
-186.129	131.331	0.184	0.238
-185.114	37.866	0.111	0.099
-184.100	800.000	0.093	0.369
-183.085	-200.000	0.033	-0.236
-182.071	112.055	-0.098	0.120
-181.056	289.482	0.216	0.394
-180.042	-83.794	0.390	0.125
-179.027	293.967	-0.035	0.064
-178.012	254.162	0.064	0.110
-176.998	66.521	0.240	-0.245
-175.983	218.212	-0.071	-0.114
-174.969	396.534	-0.022	0.045
-173.954	-11.991	-0.075	-0.049
-172.939	4.848	-0.280	-0.207
-171.925	-200.000	-0.001	0.004
-170.910	7.090	-0.322	-0.242
-169.896	338.743	-0.084	-0.165
-168.881	-76.845	0.323	0.114
-167.866	-149.713	0.568	0.045
-166.852	-149.041	0.098	0.008
-165.837	-33.856	0.370	0.205
-164.823	-153.763	-0.221	-0.015
-163.808	800.000	-0.091	0.325
-162.793	155.080	-0.170	0.235
-161.779	-82.096	-0.140	0.046
-160.764	179.698	0.169	-0.248
-159.750	119.879	-0.231	0.287
-158.735	115.160	-0.077	-0.094
-157.720	-29.746	0.228	-0.130
-156.706	-153.797	-0.125	0.009
-155.691	-200.000	-0.059	-0.519
-154.677	477.342	0.103	-0.233
-153.662	-20.554	-0.037	-0.023
-152.647	-79.229	-0.077	-0.026
-151.633	-135.732	0.215	-0.026
-150.618	-42.873	-0.106	-0.054
-149.604	5.225	-0.137	0.101
-148.589	-53.606	-0.037	-0.017
-147.574	-200.000	-0.038	-0.398
-146.560	27.633	-0.246	-0.208
-145.545	-101.335	-0.202	0.049
-144.531	273.517	0.105	0.187
-143.516	-167.059	-0.545	-0.022
-142.502	800.000	0.037	-0.139
-141.487	-200.000	0.018	-0.148
-140.472	-91.407	-0.137	0.039
-139.458	-200.000	0.008	-0.241
-138.443	44.251	-0.206	-0.190
-137.429	-40.884	-0.235	-0.122
-136.414	-200.000	0.038	-0.348
-135.399	-108.311	-0.125	0.027
-134.385	86.329	0.029	-0.032
-133.370	368.419	0.025	-0.050
-132.356	-127.975	0.180	-0.026
-131.341	-200.000	-0.075	-0.513
-130.326	-200.000	0.013	-0.157
-129.312	800.000	0.026	0.084
-128.297	521.879	0.100	-0.235
-127.283	-200.000	-0.015	0.109
-126.268	-75.012	-0.334	0.120
-125.253	-152.469	-0.194	0.014
-124.239	-200.000	-0.016	-0.336
-123.224	674.560	0.054	-0.140
-122.210	-57.094	-0.086	-0.038
-121.195	-51.173	0.086	-0.041
