DTS Sentinel unit serial number:	SN413079Multiplexer serial number:	ORYXHardware model number:	OX4-SRSoftware version number:	ORYX F/W v4.00 Oryx Data Collector v3.7.2.0data status	okinstallation	princeton_trtdifferential loss correction	single-endedforward channel	channel 4reverse channel	N/Adate	2019/09/11time	05:51:11forward acquisition time	60.00reverse acquisition time	0.00gamma	496.2192k internal	0.2316k external	0.2316temperature offset calibration	0.9945default loss term (dB/km)	0.3790temperature slope calibration	1.0000multiplexer offset coefficient	1.0000multiplexer slope coefficient	1.0000fibre end	0.00T internal ref (°C)	29.42T ext. ref 1 (°C)	-0.23T ext. ref 2 (°C)	23.41length (m)	temperature (°C)	Stokes	anti-Stokes-747.200	-102.149	-0.214	0.052
-746.185	-19.784	-0.188	0.118
-745.171	-200.000	0.044	0.285
-744.156	-107.394	-0.311	0.069
-743.142	-200.000	0.020	0.249
-742.127	-65.647	0.223	0.090
-741.112	-84.991	0.017	-0.005
-740.098	-52.213	-0.316	-0.148
-739.083	-96.940	0.167	-0.044
-738.069	-200.000	-0.011	-0.467
-737.054	-200.000	0.006	-0.194
-736.039	346.558	-0.082	-0.163
-735.025	-24.425	0.240	0.145
-734.010	800.000	-0.097	-0.358
-732.996	-21.309	-0.496	-0.307
-731.981	800.000	-0.036	0.131
-730.966	28.198	-0.184	-0.157
-729.952	-54.111	-0.147	-0.068
-728.937	92.180	-0.154	-0.176
-727.923	-19.856	-0.088	0.055
-726.908	-123.903	-0.384	0.061
-725.894	-93.606	0.240	0.067
-724.879	179.948	0.064	-0.095
-723.864	8.766	0.168	-0.128
-722.850	-200.000	0.056	-0.505
-721.835	512.661	-0.060	0.141
-720.821	800.000	0.103	0.344
-719.806	-166.512	-0.101	0.004
-718.791	544.908	-0.095	-0.229
-717.777	-140.999	-0.270	0.028
-716.762	119.127	-0.223	-0.279
-715.748	258.601	-0.172	-0.300
-714.733	-47.046	-0.311	-0.153
-713.718	25.208	-0.313	0.263
-712.704	18.953	-0.098	0.080
-711.689	646.779	0.023	0.060
-710.675	131.485	0.150	-0.195
-709.660	800.000	-0.156	0.476
-708.645	800.000	0.020	0.087
-707.631	-200.000	0.007	0.044
-706.616	761.165	-0.098	-0.270
-705.602	184.728	-0.208	-0.312
-704.587	-96.898	0.105	0.028
-703.572	649.263	-0.176	0.456
-702.558	33.377	-0.194	-0.171
-701.543	5.412	-0.059	0.044
-700.529	285.063	0.070	0.127
-699.514	147.545	-0.139	-0.189
-698.499	7.904	-0.224	-0.170
-697.485	478.798	0.080	0.183
-696.470	-2.062	-0.183	-0.130
-695.456	-111.088	0.101	0.021
-694.441	-200.000	-0.023	0.176
-693.426	-55.272	-0.407	-0.185
-692.412	-99.726	0.343	-0.087
-691.397	-161.229	0.124	0.007
-690.383	-166.989	0.521	-0.022
-689.368	-200.000	-0.002	-0.332
-688.354	204.330	-0.066	0.104
-687.339	486.214	0.217	0.499
-686.324	374.065	-0.093	-0.192
-685.310	-33.885	-0.172	0.096
-684.295	-113.809	-0.168	0.033
-683.281	-68.590	-0.443	-0.173
-682.266	-102.280	0.187	-0.045
-681.251	-14.574	-0.164	0.106
-680.237	156.058	-0.108	0.151
-679.222	-200.000	0.020	-0.202
-678.208	-33.696	-0.354	-0.197
-677.193	-200.000	0.060	-0.277
-676.178	527.291	-0.096	-0.230
-675.164	-5.102	-0.238	-0.166
-674.149	248.088	-0.108	-0.184
-673.135	-42.297	-0.064	-0.033
-672.120	-76.170	-0.198	0.071
-671.105	356.856	0.142	-0.287
-670.091	17.104	-0.111	0.089
-669.076	-63.917	0.022	0.009
-668.062	-132.535	-0.058	-0.008
-667.047	800.000	0.038	0.122
-666.032	-174.258	-0.339	0.010
-665.018	-109.724	-0.378	-0.080
-664.003	-29.762	0.273	-0.157
-662.989	89.664	0.087	-0.098
-661.974	-110.319	0.190	0.040
-660.959	-147.581	-0.124	0.011
-659.945	-200.000	0.025	-0.297
-658.930	-82.625	-0.278	-0.091
-657.916	-141.116	0.208	0.021
-656.901	113.382	-0.052	-0.064
-655.886	-28.768	-0.108	-0.063
-654.872	312.146	0.190	-0.361
-653.857	-54.019	-0.173	0.079
-652.843	227.643	-0.082	-0.135
-651.828	172.536	0.070	0.102
-650.814	-35.579	0.163	0.089
-649.799	418.779	-0.038	0.082
-648.784	800.000	-0.010	0.044
-647.770	-101.401	-0.362	0.089
-646.755	800.000	-0.035	-0.103
-645.741	606.390	-0.090	0.227
-644.726	-74.231	-0.230	-0.084
-643.711	194.908	0.129	-0.198
-642.697	170.016	0.087	0.126
-641.682	-102.899	0.142	0.034
-640.668	-22.197	-0.141	-0.086
-639.653	-72.653	0.162	0.060
-638.638	210.460	-0.116	-0.185
-637.624	452.846	-0.098	-0.219
-636.609	-200.000	-0.024	0.305
-635.595	115.724	0.043	0.053
-634.580	-200.000	0.047	-0.254
-633.565	-176.365	-0.125	-0.003
-632.551	-100.880	-0.287	-0.071
-631.536	797.899	-0.156	0.433
-630.522	-147.620	0.133	-0.011
-629.507	308.405	0.092	-0.172
-628.492	44.164	0.237	-0.219
-627.478	38.838	-0.069	0.062
-626.463	766.600	-0.053	-0.146
-625.449	-8.424	-0.293	-0.199
-624.434	153.442	0.193	-0.267
-623.419	-124.118	0.177	0.028
-622.405	-200.000	-0.046	-0.331
-621.390	34.039	-0.224	-0.197
-620.376	800.000	-0.020	0.083
-619.361	150.424	-0.080	-0.109
-618.346	-53.769	-0.293	0.135
-617.332	-44.994	0.187	-0.094
-616.317	170.413	0.042	-0.060
-615.303	17.052	-0.471	-0.376
-614.288	319.948	0.075	-0.144
-613.273	224.218	0.108	0.175
-612.259	-4.370	-0.069	0.048
-611.244	370.757	0.167	-0.341
-610.230	292.002	-0.043	-0.080
-609.215	-141.436	0.193	0.020
-608.201	370.665	-0.152	-0.311
-607.186	800.000	0.044	-0.137
-606.171	-200.000	-0.007	-0.234
-605.157	111.595	-0.072	0.088
-604.142	433.725	-0.049	-0.107
-603.128	28.458	0.110	-0.094
-602.113	723.521	-0.060	0.160
-601.098	41.960	0.200	0.183
-600.084	534.030	0.042	-0.100
-599.069	-145.797	-0.229	-0.021
-598.055	800.000	-0.075	0.227
-597.040	156.217	-0.041	0.057
-596.025	-200.000	-0.062	0.471
-595.011	-200.000	0.027	-0.244
-593.996	-58.955	0.218	-0.095
-592.982	78.922	0.021	0.023
-591.967	189.164	0.069	-0.104
-590.952	-70.669	0.184	0.070
-589.938	-63.549	0.390	0.161
-588.923	24.461	-0.270	-0.225
-587.909	-104.059	-0.066	0.015
-586.894	-200.000	0.040	-0.238
-585.879	-44.961	0.078	0.039
-584.865	429.125	0.114	-0.249
-583.850	169.355	0.070	-0.101
-582.836	24.128	0.085	-0.071
-581.821	199.442	0.056	0.087
-580.806	230.150	0.132	0.217
-579.792	-200.000	-0.021	0.283
-578.777	49.094	-0.273	0.258
-577.763	6.451	0.097	0.072
-576.748	101.403	-0.202	0.237
-575.733	539.152	0.064	-0.153
-574.719	78.161	-0.264	-0.283
-573.704	-155.084	0.094	0.006
-572.690	-35.516	-0.073	0.040
-571.675	80.866	-0.165	0.180
-570.661	378.297	0.098	-0.202
-569.646	122.916	-0.121	0.153
-568.631	-200.000	0.005	0.099
-567.617	-166.110	0.305	0.013
-566.602	-177.567	-0.207	-0.005
-565.588	800.000	0.030	-0.100
-564.573	-200.000	-0.014	-0.073
-563.558	800.000	0.070	0.228
-562.544	-3.688	0.260	0.181
-561.529	-200.000	-0.040	-0.190
-560.515	-172.770	-0.194	-0.006
-559.500	-37.665	0.050	-0.027
-558.485	-152.377	0.219	0.016
-557.471	210.513	-0.296	-0.467
-556.456	-200.000	0.031	0.263
-555.442	-141.767	0.153	0.015
-554.427	324.529	-0.107	0.206
-553.412	-69.185	-0.265	-0.102
-552.398	-66.279	0.297	0.119
-551.383	-66.159	0.155	0.062
-550.369	800.000	-0.083	0.240
-549.354	-52.394	-0.129	-0.060
-548.339	-200.000	0.003	-0.088
-547.325	800.000	-0.053	0.179
-546.310	66.679	-0.211	-0.216
-545.296	-100.669	0.127	0.032
-544.281	-24.306	0.226	-0.136
-543.266	-98.799	-0.448	-0.115
-542.252	439.311	0.190	0.417
-541.237	-4.829	-0.254	0.176
-540.223	-200.000	0.004	0.052
-539.208	-200.000	-0.032	0.209
-538.193	151.474	0.140	-0.191
-537.179	123.187	0.140	0.176
-536.164	154.635	0.057	-0.079
-535.150	44.284	0.206	-0.190
-534.135	7.814	-0.096	0.072
-533.121	-90.361	0.232	0.068
-532.106	-8.043	-0.133	-0.090
-531.091	160.309	-0.217	0.304
-530.077	40.392	-0.044	0.040
-529.062	360.625	0.056	0.113
-528.048	-200.000	-0.031	-0.265
-527.033	-45.331	-0.340	-0.170
-526.018	159.967	0.140	0.196
-525.004	329.173	-0.113	0.218
-523.989	277.029	0.129	0.230
-522.975	-166.838	0.129	0.005
-521.960	-190.080	-0.117	0.001
-520.945	125.918	-0.177	-0.225
-519.931	89.906	0.269	0.301
-518.916	-87.887	0.207	-0.063
-517.902	-81.395	0.314	0.104
-516.887	-109.574	0.110	-0.023
-515.872	4.800	-0.152	-0.112
-514.858	-55.599	0.366	-0.164
-513.843	-80.275	-0.320	-0.107
-512.829	-200.000	-0.021	0.178
-511.814	-111.112	-0.066	-0.014
-510.799	-132.855	0.512	-0.065
-509.785	800.000	0.024	-0.070
-508.770	14.971	0.224	-0.176
-507.756	-28.403	0.086	-0.050
-506.741	-200.000	-0.021	0.286
-505.726	611.701	-0.129	-0.324
-504.712	-74.403	0.226	-0.082
-503.697	126.370	-0.191	0.243
-502.683	303.119	-0.142	-0.264
-501.668	57.163	-0.153	-0.150
-500.653	-200.000	-0.004	0.106
-499.639	205.287	0.014	-0.021
-498.624	-197.440	0.218	-0.001
-497.610	-67.898	0.246	-0.096
-496.595	-4.597	-0.234	0.162
-495.581	-31.864	0.229	-0.129
-494.566	175.920	0.094	0.137
-493.551	255.875	-0.094	0.162
-492.537	-200.000	0.021	0.186
-491.522	112.499	-0.233	0.283
-490.508	-109.119	0.220	0.047
-489.493	-27.531	0.175	-0.102
-488.478	-200.000	0.009	0.074
-487.464	800.000	0.102	-0.372
-486.449	100.019	0.094	-0.109
-485.435	-44.290	0.229	0.115
-484.420	138.034	-0.157	-0.206
-483.405	322.402	0.190	0.363
-482.391	176.248	-0.088	0.127
-481.376	83.321	-0.071	-0.078
-480.362	204.955	0.071	-0.111
-479.347	-200.000	-0.003	0.163
-478.332	-62.321	0.360	-0.150
-477.318	494.587	-0.064	0.147
-476.303	-165.532	0.319	0.014
-475.289	205.788	-0.110	0.171
-474.274	-77.167	0.501	0.175
-473.259	800.000	-0.027	0.081
-472.245	-154.828	0.251	-0.017
-471.230	-42.101	-0.270	-0.139
-470.216	-147.374	0.138	-0.012
-469.201	-170.088	-0.222	-0.008
-468.186	94.432	0.136	-0.155
-467.172	592.991	-0.132	-0.327
-466.157	-109.535	-0.377	-0.080
-465.143	-47.766	-0.154	-0.075
-464.128	-200.000	-0.054	0.287
-463.113	-200.000	0.015	0.076
-462.099	800.000	-0.043	0.161
-461.084	123.630	0.136	0.171
-460.070	130.872	0.107	0.138
-459.055	-30.176	0.122	0.069
-458.040	-135.145	0.149	-0.018
-457.026	-93.861	-0.060	0.016
-456.011	415.051	0.097	-0.208
-454.997	-98.241	-0.063	0.016
-453.982	-49.830	-0.160	-0.076
-452.968	-126.764	-0.370	0.055
-451.953	129.163	0.164	0.209
-450.938	253.418	-0.166	0.284
-449.924	-200.000	-0.040	0.309
-448.909	-200.000	0.046	0.361
-447.895	452.567	-0.051	0.114
-446.880	-5.249	0.123	0.085
-445.865	203.668	-0.051	-0.079
-444.851	-148.248	0.298	0.025
-443.836	-140.243	0.389	-0.041
-442.822	12.288	-0.286	-0.220
-441.807	-73.112	-0.561	0.206
-440.792	800.000	-0.032	-0.123
-439.778	198.615	-0.177	-0.271
-438.763	258.330	-0.126	-0.217
-437.749	71.791	0.150	-0.156
-436.734	8.686	0.110	0.083
-435.719	-200.000	-0.006	0.130
-434.705	764.368	0.113	-0.308
-433.690	-200.000	-0.019	0.148
-432.676	-200.000	0.017	0.098
-431.661	-88.941	-0.175	-0.052
-430.646	-65.432	0.612	0.246
-429.632	381.103	0.012	0.025
-428.617	130.819	0.026	-0.033
-427.603	-200.000	0.021	0.139
-426.588	753.446	0.136	-0.367
-425.573	800.000	-0.060	-0.229
-424.559	-90.333	0.011	-0.003
-423.544	-40.866	-0.185	0.096
-422.530	-124.558	-0.123	0.019
-421.515	405.321	-0.023	-0.048
-420.500	-60.027	0.040	0.017
-419.486	32.616	0.279	-0.241
-418.471	85.413	0.118	-0.130
-417.457	-177.680	0.099	-0.002
-416.442	-200.000	-0.026	0.139
-415.428	477.936	0.127	-0.287
-414.413	723.350	0.149	-0.396
-413.398	-200.000	0.051	0.382
-412.384	-12.356	-0.074	-0.048
-411.369	-200.000	-0.041	-0.205
-410.355	-200.000	-0.026	0.312
-409.340	56.991	0.032	0.031
-408.325	77.995	0.237	-0.252
-407.311	-124.593	-0.189	-0.029
-406.296	-102.608	0.244	0.058
-405.282	124.853	0.147	0.184
-404.267	800.000	-0.087	-0.299
-403.252	-108.233	0.213	0.046
-402.238	-167.935	0.050	-0.002
-401.223	15.217	0.256	-0.200
-400.209	-47.680	0.056	-0.027
-399.194	-154.412	-0.062	0.004
-398.179	48.893	-0.311	-0.291
-397.165	41.894	0.179	-0.162
-396.150	-51.418	-0.267	0.125
-395.136	357.137	0.044	-0.088
-394.121	-182.154	-0.252	0.005
-393.106	137.106	0.269	-0.351
-392.092	800.000	-0.066	0.199
-391.077	475.286	0.031	-0.069
-390.063	-165.092	-0.284	0.013
-389.048	800.000	0.085	-0.257
-388.033	44.490	-0.285	0.262
-387.019	-145.826	0.145	0.013
-386.004	-200.000	0.034	0.442
-384.990	-200.000	-0.037	0.198
-383.975	-171.304	0.262	-0.009
-382.960	261.763	-0.072	-0.124
-381.946	-200.000	0.026	0.140
-380.931	165.093	-0.176	-0.248
-379.917	-127.328	-0.132	-0.019
-378.902	95.648	-0.305	0.347
-377.888	-9.936	0.411	0.273
-376.873	-200.000	-0.032	0.340
-375.858	152.540	0.131	0.178
-374.844	698.766	-0.062	0.163
-373.829	-98.783	-0.075	0.019
-372.815	-200.000	0.001	-0.020
-371.800	-152.725	-0.328	-0.023
-370.785	104.086	0.192	0.225
-369.771	-200.000	-0.042	0.189
-368.756	-200.000	-0.052	0.299
-367.742	141.063	-0.055	0.073
-366.727	-126.665	0.256	0.038
-365.712	105.178	0.043	0.051
-364.698	-25.691	-0.185	-0.109
-363.683	-80.244	0.148	0.050
-362.669	64.818	0.103	-0.104
-361.654	-127.574	-0.330	-0.048
-360.639	-13.702	-0.237	0.153
-359.625	-176.588	0.346	0.009
-358.610	-81.913	-0.258	-0.084
-357.596	-56.700	-0.040	0.018
-356.581	146.018	0.046	0.062
-355.566	-39.207	-0.050	-0.026
-354.552	-200.000	-0.000	-0.242
-353.537	-200.000	-0.092	-0.411
-352.523	800.000	-0.138	-0.432
-351.508	-54.804	0.213	0.096
-350.493	552.564	0.014	0.034
-349.479	-43.276	-0.067	-0.034
-348.464	-108.897	0.314	-0.067
-347.450	-75.467	-0.137	0.049
-346.435	-138.118	0.129	-0.014
-345.420	-190.461	0.290	-0.003
-344.406	-73.918	-0.217	-0.079
-343.391	303.359	0.083	0.153
-342.377	800.000	-0.045	-0.182
-341.362	-80.222	0.364	-0.121
-340.348	-174.890	0.222	0.006
-339.333	714.590	-0.041	-0.109
-338.318	-41.410	-0.411	-0.211
-337.304	800.000	-0.082	-0.284
-336.289	12.899	-0.200	-0.154
-335.275	105.484	0.108	-0.127
-334.260	202.159	-0.182	-0.280
-333.245	-200.000	0.001	-0.133
-332.231	-200.000	-0.032	-0.237
-331.216	145.244	0.092	0.123
-330.202	-200.000	0.015	-0.076
-329.187	-110.949	0.139	-0.029
-328.172	-20.180	0.278	-0.171
-327.158	-200.000	0.018	-0.171
-326.143	340.751	0.182	0.354
-325.129	-200.000	-0.028	0.301
-324.114	709.022	0.017	-0.045
-323.099	532.194	0.062	-0.146
-322.085	-55.528	0.553	-0.247
-321.070	-27.123	-0.190	0.110
-320.056	-48.850	-0.204	0.097
-319.041	-200.000	0.009	0.073
-318.026	162.270	-0.112	-0.157
-317.012	-143.346	-0.155	0.015
-315.997	89.936	-0.067	0.075
-314.983	-180.825	-0.175	0.004
-313.968	-89.416	-0.172	-0.050
-312.953	109.757	0.235	0.280
-311.939	-200.000	0.025	0.235
-310.924	5.222	-0.141	0.104
-309.910	338.625	-0.137	-0.266
-308.895	-137.618	-0.102	-0.011
-307.880	-139.023	-0.348	0.038
-306.866	800.000	-0.126	-0.536
-305.851	120.605	-0.114	-0.140
-304.837	-200.000	-0.046	0.238
-303.822	-200.000	-0.011	0.186
-302.807	82.613	0.186	0.201
-301.793	-187.452	0.113	-0.002
-300.778	-200.000	0.015	0.208
-299.764	222.481	-0.199	0.319
-298.749	-200.000	-0.014	-0.314
-297.735	-200.000	-0.025	0.230
-296.720	-200.000	0.001	0.252
-295.705	-23.086	-0.314	-0.189
-294.691	-46.094	0.447	-0.219
-293.676	330.349	-0.028	0.053
-292.662	800.000	-0.052	-0.154
-291.647	800.000	0.122	0.425
-290.632	81.450	0.123	0.133
-289.618	137.339	0.163	-0.212
-288.603	-89.875	-0.107	0.031
-287.589	800.000	-0.050	0.185
-286.574	525.959	0.064	0.150
-285.559	38.900	-0.257	-0.228
-284.545	-200.000	0.061	-0.314
-283.530	-77.841	-0.207	0.071
-282.516	29.788	-0.274	-0.232
-281.501	-200.000	0.034	-0.195
-280.486	-150.446	0.085	0.007
-279.472	324.567	-0.131	-0.249
-278.457	26.782	-0.195	0.163
-277.443	-200.000	-0.028	-0.160
-276.428	228.291	-0.087	0.141
-275.413	12.405	-0.044	-0.033
-274.399	154.826	-0.083	-0.113
-273.384	-59.678	0.233	-0.099
-272.370	102.727	0.296	-0.344
-271.355	-65.374	0.162	0.065
-270.340	-15.825	-0.291	-0.184
-269.326	-92.792	0.145	0.040
-268.311	-126.725	-0.183	0.027
-267.297	31.061	-0.086	0.074
-266.282	29.757	-0.189	-0.160
-265.267	-200.000	0.056	0.404
-264.253	105.670	-0.189	0.222
-263.238	800.000	0.037	-0.151
-262.224	-170.040	-0.194	-0.007
-261.209	-91.371	-0.251	-0.071
-260.195	72.240	0.130	0.135
-259.180	-54.732	-0.194	0.087
-258.165	-148.487	-0.155	-0.013
-257.151	246.050	0.040	0.067
-256.136	617.585	0.103	0.257
-255.122	-200.000	-0.045	-0.270
-254.107	-93.585	-0.220	0.061
-253.092	-200.000	0.007	-0.080
-252.078	-26.329	-0.416	-0.243
-251.063	87.962	0.103	0.114
-250.049	263.709	0.122	-0.211
-249.034	-60.954	0.217	0.091
-248.019	50.910	-0.309	-0.291
-247.005	147.273	-0.059	-0.079
-245.990	-84.608	-0.041	0.013
-244.976	-4.902	-0.278	-0.190
-243.961	326.382	0.136	-0.259
-242.946	800.000	-0.003	0.009
-241.932	370.038	0.067	-0.135
-240.917	-179.863	-0.340	0.007
-239.903	-50.709	-0.291	0.136
-238.888	-96.086	0.061	0.016
-237.873	800.000	-0.042	0.139
-236.859	-74.367	-0.277	-0.099
-235.844	-33.798	-0.197	0.108
-234.830	433.011	-0.060	0.129
-233.815	668.602	-0.123	0.317
-232.800	-111.561	-0.423	-0.085
-231.786	-49.605	0.237	-0.112
-230.771	-164.526	-0.190	0.009
-229.757	-80.548	0.240	0.080
-228.742	-26.019	-0.145	-0.085
-227.727	-43.338	0.430	-0.216
-226.713	-200.000	-0.055	-0.279
-225.698	109.729	-0.079	0.094
-224.684	29.702	-0.079	0.067
-223.669	-43.958	0.185	-0.092
-222.655	501.665	-0.114	0.260
-221.640	-138.155	0.312	-0.034
-220.625	-36.781	-0.115	0.061
-219.611	133.789	0.101	0.130
-218.596	-200.000	-0.008	0.335
-217.582	-86.164	-0.188	0.057
-216.567	-79.909	-0.284	0.095
-215.552	-43.689	-0.182	-0.091
-214.538	121.914	-0.229	-0.283
-213.523	-124.326	0.267	-0.041
-212.509	0.987	-0.039	-0.028
-211.494	228.723	0.043	-0.069
-210.479	-164.672	-0.070	-0.003
-209.465	206.906	0.136	0.210
-208.450	368.714	0.066	-0.133
-207.436	-200.000	-0.050	0.318
-206.421	18.632	-0.252	-0.200
-205.406	-39.501	0.123	-0.064
-204.392	-67.225	-0.175	-0.068
-203.377	800.000	0.029	-0.096
-202.363	-108.865	-0.053	-0.011
-201.348	-200.000	-0.004	-0.053
-200.333	227.337	-0.111	0.179
-199.319	-200.000	0.000	-0.120
-198.304	287.220	-0.119	-0.214
-197.290	444.828	0.100	-0.217
-196.275	-200.000	-0.048	0.287
-195.260	65.045	-0.070	0.070
-194.246	-200.000	-0.036	0.221
-193.231	-107.578	0.193	-0.042
-192.217	-177.450	-0.148	-0.004
-191.202	18.353	0.116	-0.092
-190.187	-62.205	0.082	-0.034
-189.173	149.241	0.116	-0.155
-188.158	800.000	-0.128	0.483
-187.144	-74.273	0.099	-0.035
-186.129	12.883	0.088	-0.067
-185.114	186.143	0.038	-0.056
-184.100	-31.603	0.052	0.029
-183.085	244.491	-0.106	0.176
-182.071	256.196	0.130	0.220
-181.056	-19.769	-0.104	0.064
-180.042	221.472	0.132	-0.210
-179.027	-98.129	0.136	-0.035
-178.012	125.480	-0.087	0.108
-176.998	800.000	-0.089	0.270
-175.983	-12.801	0.257	-0.166
-174.969	43.194	0.204	-0.185
-173.954	-74.318	0.181	-0.065
-172.939	-200.000	0.029	0.237
-171.925	267.709	0.149	0.258
-170.910	-52.790	-0.084	0.039
-169.896	232.682	-0.139	0.226
-168.881	-25.632	0.160	-0.094
-167.866	-200.000	0.019	-0.086
-166.852	-57.318	-0.091	0.040
-165.837	215.346	0.225	0.354
-164.823	44.164	0.080	-0.073
-163.808	-200.000	0.072	0.464
-162.793	-29.173	-0.141	0.080
-161.779	-37.612	0.352	0.186
-160.764	7.770	0.264	-0.196
-159.750	-47.840	0.332	0.159
-158.735	800.000	-0.048	0.165
-157.720	642.308	0.041	0.103
-156.706	80.086	0.110	0.118
-155.691	17.796	0.251	-0.198
-154.677	-200.000	0.154	-0.000
-153.662	500.319	0.021	-0.048
-152.647	-94.634	-0.165	0.045
-151.633	33.891	0.123	0.106
-150.618	640.621	-0.073	0.185
-149.604	-171.712	0.416	-0.014
-148.589	-200.000	-0.051	-0.303
-147.574	-95.370	-0.291	0.077
-146.560	157.817	0.076	0.105
-145.545	523.731	0.074	-0.172
-144.531	-140.819	0.201	-0.021
-143.516	-164.361	-0.279	-0.013
-142.502	-4.457	-0.206	0.141
-141.487	179.377	0.101	0.147
-140.472	225.360	0.149	-0.239
-139.458	-74.475	0.121	0.043
-138.443	93.754	-0.053	-0.059
-137.429	205.220	0.160	-0.246
-136.414	800.000	0.044	0.168
-135.399	73.372	-0.089	0.092
-134.385	237.120	-0.089	-0.145
-133.370	60.130	0.223	0.218
-132.356	85.094	0.179	0.194
-131.341	392.094	0.084	0.173
-130.326	-195.479	-0.201	0.001
-129.312	800.000	0.064	-0.251
-128.297	-200.000	0.033	0.155
-127.283	-165.479	-0.130	0.006
-126.268	-38.319	0.037	0.019
-125.253	20.272	0.075	-0.060
-124.239	-34.087	0.129	-0.070
-123.224	97.420	0.335	-0.380
-122.210	800.000	0.088	-0.271
