DTS Sentinel unit serial number:	SN413079Multiplexer serial number:	ORYXHardware model number:	OX4-SRSoftware version number:	ORYX F/W v4.00 Oryx Data Collector v3.7.2.0data status	okinstallation	princeton_trtdifferential loss correction	single-endedforward channel	channel 4reverse channel	N/Adate	2019/09/12time	04:19:11forward acquisition time	60.00reverse acquisition time	0.00gamma	496.2192k internal	0.2310k external	0.2310temperature offset calibration	1.0097default loss term (dB/km)	0.3790temperature slope calibration	1.0000multiplexer offset coefficient	1.0000multiplexer slope coefficient	1.0000fibre end	0.00T internal ref (°C)	31.77T ext. ref 1 (°C)	2.23T ext. ref 2 (°C)	25.64length (m)	temperature (°C)	Stokes	anti-Stokes-747.200	579.924	-0.074	0.183
-746.185	88.262	-0.196	0.221
-745.171	-25.138	-0.162	0.097
-744.156	84.197	0.110	0.122
-743.142	-22.543	0.108	-0.066
-742.127	-44.782	0.114	-0.058
-741.112	24.309	-0.192	-0.161
-740.098	173.751	0.114	-0.167
-739.083	-185.223	-0.362	0.006
-738.069	-200.000	-0.102	0.518
-737.054	-200.000	-0.012	0.119
-736.039	-59.824	-0.251	-0.109
-735.025	20.618	-0.133	-0.109
-734.010	-42.248	0.296	0.153
-732.996	-125.687	-0.272	-0.042
-731.981	800.000	0.011	-0.035
-730.966	190.224	-0.169	0.258
-729.952	-73.612	0.178	-0.066
-728.937	321.805	-0.101	0.195
-727.923	-97.901	-0.057	-0.015
-726.908	56.925	-0.201	0.199
-725.894	-15.061	-0.224	-0.145
-724.879	-137.012	-0.089	-0.010
-723.864	-138.472	-0.390	0.044
-722.850	-200.000	-0.026	-0.155
-721.835	800.000	0.066	-0.216
-720.821	-151.194	0.249	0.019
-719.806	-200.000	0.028	-0.275
-718.791	-200.000	0.014	-0.072
-717.777	-68.253	0.398	-0.157
-716.762	-93.512	-0.126	0.035
-715.748	33.765	-0.164	-0.145
-714.733	17.888	-0.150	0.121
-713.718	-200.000	0.030	0.177
-712.704	256.308	0.030	-0.053
-711.689	-97.366	-0.183	0.048
-710.675	-18.592	-0.249	0.158
-709.660	23.045	-0.160	-0.133
-708.645	-200.000	0.014	-0.339
-707.631	800.000	-0.143	-0.511
-706.616	-200.000	0.028	-0.275
-705.602	-200.000	0.044	-0.204
-704.587	97.535	0.199	-0.232
-703.572	-74.125	-0.118	0.043
-702.558	-200.000	0.004	-0.099
-701.543	800.000	0.074	-0.210
-700.529	-92.005	-0.525	-0.151
-699.514	-104.290	-0.220	-0.052
-698.499	-200.000	-0.011	-0.093
-697.485	677.297	0.143	-0.377
-696.470	800.000	0.053	-0.148
-695.456	125.787	-0.066	-0.085
-694.441	224.773	0.166	-0.273
-693.426	800.000	-0.028	0.104
-692.412	127.147	-0.180	-0.231
-691.397	-200.000	0.034	-0.196
-690.383	-7.296	-0.173	0.119
-689.368	73.565	0.170	0.181
-688.354	800.000	-0.100	-0.397
-687.339	-65.242	0.184	-0.075
-686.324	-200.000	0.007	-0.230
-685.310	46.226	-0.161	0.151
-684.295	20.430	-0.197	0.162
-683.281	201.746	0.088	-0.138
-682.266	596.957	0.038	-0.096
-681.251	-8.062	0.228	0.156
-680.237	-46.473	0.421	0.209
-679.222	363.440	0.135	-0.275
-678.208	-7.035	-0.134	0.092
-677.193	-145.472	-0.276	0.025
-676.178	370.534	0.087	-0.179
-675.164	307.629	-0.193	-0.365
-674.149	-134.419	0.230	0.029
-673.135	-200.000	-0.010	0.393
-672.120	288.044	0.213	-0.391
-671.105	113.584	0.287	-0.353
-670.091	128.860	-0.092	-0.118
-669.076	214.889	-0.129	0.208
-668.062	99.964	-0.032	0.038
-667.047	2.675	0.119	-0.087
-666.032	5.460	-0.293	-0.219
-665.018	-148.273	-0.087	0.007
-664.003	-82.733	0.133	0.044
-662.989	140.490	0.112	-0.150
-661.974	-38.351	0.200	-0.107
-660.959	446.059	0.017	0.038
-659.945	15.335	0.102	0.081
-658.930	-185.813	-0.174	0.003
-657.916	-200.000	-0.010	0.073
-656.901	-66.626	0.161	-0.065
-655.886	-8.663	-0.274	-0.186
-654.872	-200.000	0.020	0.155
-653.857	-20.210	0.186	0.116
-652.843	-200.000	-0.041	-0.199
-651.828	109.271	-0.126	0.152
-650.814	-127.271	-0.318	0.047
-649.799	800.000	-0.087	-0.264
-648.784	55.789	0.174	0.171
-647.770	-200.000	0.012	-0.273
-646.755	-200.000	0.003	-0.368
-645.741	259.220	-0.062	0.108
-644.726	-200.000	-0.007	-0.124
-643.711	-147.824	-0.338	-0.029
-642.697	-37.677	-0.096	-0.052
-641.682	-148.694	-0.225	-0.018
-640.668	-200.000	0.030	0.198
-639.653	12.294	-0.177	-0.137
-638.638	-194.002	-0.119	0.001
-637.624	188.093	-0.066	0.100
-636.609	328.018	0.019	-0.038
-635.595	-59.172	0.061	-0.027
-634.580	-200.000	0.006	-0.161
-633.565	428.138	-0.151	0.330
-632.551	-47.474	0.199	-0.098
-631.536	-200.000	0.006	-0.060
-630.522	-200.000	-0.005	-0.035
-629.507	-200.000	0.058	-0.340
-628.492	-200.000	-0.046	-0.213
-627.478	505.240	0.062	-0.145
-626.463	104.027	0.175	0.208
-625.449	20.782	0.059	0.049
-624.434	-99.860	0.348	0.088
-623.419	220.031	-0.071	0.115
-622.405	-200.000	-0.026	0.349
-621.390	93.271	0.100	-0.114
-620.376	10.987	-0.451	0.348
-619.361	-82.122	0.038	0.013
-618.346	-170.599	-0.092	0.003
-617.332	-24.168	0.200	0.121
-616.317	83.270	0.247	0.272
-615.303	-200.000	-0.067	0.380
-614.288	-101.146	-0.344	-0.085
-613.273	-142.226	0.324	-0.032
-612.259	11.686	-0.149	-0.116
-611.244	133.919	0.022	-0.029
-610.230	-84.720	-0.270	0.086
-609.215	-68.929	0.242	0.094
-608.201	-200.000	-0.026	0.258
-607.186	51.802	0.110	0.105
-606.171	800.000	-0.087	0.251
-605.157	-200.000	-0.003	-0.094
-604.142	243.390	0.215	-0.365
-603.128	-3.882	-0.320	-0.224
-602.113	800.000	0.029	0.091
-601.098	2.983	0.134	0.099
-600.084	211.133	-0.116	-0.185
-599.069	-8.084	0.184	-0.125
-598.055	-200.000	-0.017	0.081
-597.040	800.000	0.079	0.321
-596.025	165.872	0.114	-0.163
-595.011	-100.381	0.238	0.060
-593.996	-200.000	-0.011	-0.261
-592.982	194.390	-0.193	-0.296
-591.967	-150.040	-0.149	0.012
-590.952	92.091	-0.108	0.123
-589.938	-159.396	0.169	-0.010
-588.923	-200.000	-0.233	0.001
-587.909	-48.251	-0.208	0.101
-586.894	800.000	0.077	0.263
-585.879	-111.128	0.176	0.036
-584.865	-83.183	0.155	0.050
-583.850	800.000	0.062	-0.220
-582.836	668.859	-0.088	0.229
-581.821	455.797	-0.103	0.231
-580.806	-200.000	-0.015	-0.100
-579.792	121.516	-0.156	-0.196
-578.777	-60.825	-0.355	-0.152
-577.763	-92.499	0.328	0.093
-576.748	-136.137	-0.090	0.011
-575.733	-59.383	-0.103	-0.045
-574.719	-48.134	-0.201	0.098
-573.704	-108.958	0.149	0.032
-572.690	-141.887	0.133	0.013
-571.675	19.177	0.240	0.194
-570.661	327.375	0.126	0.243
-569.646	56.540	0.329	-0.322
-568.631	54.234	-0.092	0.089
-567.617	-160.056	0.285	0.016
-566.602	22.389	0.175	0.144
-565.588	-157.276	0.184	0.011
-564.573	123.124	0.125	0.157
-563.558	462.171	0.084	-0.190
-562.544	-119.277	0.261	-0.046
-561.529	800.000	-0.081	0.244
-560.515	-134.577	0.093	-0.011
-559.500	73.233	0.136	-0.143
-558.485	-200.000	0.007	0.230
-557.471	-11.222	0.129	-0.085
-556.456	-110.279	0.091	-0.019
-555.442	800.000	-0.092	0.333
-554.427	-89.823	-0.016	0.005
-553.412	-62.783	-0.343	0.143
-552.398	409.529	-0.089	-0.190
-551.383	800.000	-0.055	-0.165
-550.369	99.576	0.057	0.067
-549.354	800.000	0.097	0.340
-548.339	-200.000	0.057	0.260
-547.325	103.079	-0.016	-0.019
-546.310	213.232	0.094	0.150
-545.296	-200.000	-0.005	-0.267
-544.281	-124.582	0.095	0.015
-543.266	40.150	-0.114	0.104
-542.252	-150.770	0.332	0.025
-541.237	-1.420	0.084	-0.059
-540.223	-131.837	0.173	-0.023
-539.208	-24.565	-0.304	-0.183
-538.193	800.000	-0.025	-0.108
-537.179	-124.827	-0.080	0.012
-536.164	200.257	0.007	0.010
-535.150	60.452	-0.263	-0.262
-534.135	21.493	0.063	0.052
-533.121	-25.336	-0.074	0.044
-532.106	291.345	0.113	-0.207
-531.091	-82.924	0.221	-0.072
-530.077	-93.808	-0.471	-0.131
-529.062	-53.320	-0.118	0.054
-528.048	-200.000	-0.001	0.091
-527.033	800.000	0.178	-0.515
-526.018	360.753	-0.081	0.163
-525.004	-200.000	0.053	-0.243
-523.989	-200.000	0.011	-0.123
-522.975	320.678	0.027	-0.051
-521.960	-58.345	0.243	0.106
-520.945	102.466	0.017	-0.019
-519.931	800.000	0.080	-0.251
-518.916	47.236	0.144	-0.135
-517.902	-200.000	0.027	-0.133
-516.887	800.000	0.104	0.307
-515.872	-200.000	0.043	0.346
-514.858	-64.700	-0.413	0.169
-513.843	35.926	-0.049	0.044
-512.829	34.893	0.387	0.341
-511.814	-122.732	-0.044	0.007
-510.799	99.623	-0.034	0.040
-509.785	-33.985	0.179	0.099
-508.770	-23.374	0.230	-0.139
-507.756	435.481	-0.024	-0.053
-506.741	-135.544	-0.198	0.024
-505.726	-97.779	0.412	0.107
-504.712	-23.152	0.251	0.152
-503.697	32.423	-0.070	0.061
-502.683	-200.000	-0.002	-0.363
-501.668	800.000	-0.018	-0.066
-500.653	459.607	-0.101	-0.225
-499.639	223.795	-0.141	-0.229
-498.624	-22.041	0.203	-0.124
-497.610	75.180	-0.123	-0.130
-496.595	106.572	-0.088	-0.104
-495.581	800.000	-0.022	0.066
-494.566	-4.616	0.137	0.095
-493.551	446.253	-0.139	0.307
-492.537	34.610	0.180	0.158
-491.522	-200.000	-0.069	-0.477
-490.508	-200.000	-0.030	0.135
-489.493	79.675	-0.175	-0.189
-488.478	-131.732	-0.094	-0.012
-487.464	157.503	-0.072	-0.100
-486.449	60.913	0.200	0.200
-485.435	117.605	-0.054	0.066
-484.420	399.320	-0.057	-0.119
-483.405	-51.487	-0.126	0.059
-482.391	238.387	0.211	-0.351
-481.376	-200.000	-0.017	-0.107
-480.362	-27.604	-0.161	-0.094
-479.347	-200.000	0.055	-0.309
-478.332	26.275	-0.185	-0.155
-477.318	-101.815	0.393	0.096
-476.303	-114.960	0.085	-0.016
-475.289	-65.523	0.207	0.083
-474.274	800.000	-0.004	-0.017
-473.259	-39.557	0.405	-0.213
-472.245	-111.459	0.271	-0.055
-471.230	345.965	-0.171	0.338
-470.216	92.074	-0.142	-0.161
-469.201	-154.583	-0.039	0.003
-468.186	-104.107	0.318	-0.074
-467.172	-139.843	0.128	-0.014
-466.157	-200.000	-0.031	0.339
-465.143	-200.000	0.010	0.158
-464.128	130.506	-0.111	-0.143
-463.113	-80.238	0.149	0.050
-462.099	800.000	-0.056	0.243
-461.084	40.882	0.219	-0.199
-460.070	-58.415	-0.354	-0.154
-459.055	800.000	-0.028	-0.079
-458.040	-200.000	-0.096	-0.532
-457.026	192.536	0.181	-0.274
-456.011	787.379	0.149	-0.411
-454.997	43.998	0.324	-0.298
-453.982	303.515	0.297	-0.553
-452.968	158.549	-0.204	-0.284
-451.953	226.067	-0.070	0.114
-450.938	-118.413	-0.141	0.025
-449.924	-200.000	-0.040	0.193
-448.909	-200.000	0.021	-0.119
-447.895	-200.000	-0.020	0.162
-446.880	-33.194	0.198	0.110
-445.865	800.000	-0.031	-0.120
-444.851	98.429	-0.016	0.018
-443.836	-127.941	0.165	0.024
-442.822	72.073	0.221	-0.231
-441.807	-200.000	-0.019	0.128
-440.792	49.690	-0.093	-0.088
-439.778	800.000	-0.109	0.327
-438.763	701.488	-0.144	-0.381
-437.749	229.767	0.052	0.086
-436.734	176.552	-0.190	-0.277
-435.719	-136.979	-0.284	-0.033
-434.705	-161.379	-0.170	-0.009
-433.690	-123.813	0.424	0.067
-432.676	-183.381	0.318	-0.006
-431.661	5.457	-0.152	0.112
-430.646	109.616	0.104	-0.125
-429.632	-113.948	0.262	-0.051
-428.617	339.674	-0.133	-0.260
-427.603	800.000	0.057	-0.165
-426.588	-72.284	-0.171	-0.063
-425.573	-200.000	-0.001	-0.050
-424.559	-73.878	0.231	0.084
-423.544	-39.125	-0.109	-0.058
-422.530	-67.030	-0.217	0.086
-421.515	-28.631	0.156	-0.090
-420.500	422.516	-0.109	-0.234
-419.486	722.827	0.170	-0.454
-418.471	-21.598	0.155	0.095
-417.457	-119.924	-0.193	0.033
-416.442	-94.834	-0.424	-0.115
-415.428	-200.000	0.048	0.217
-414.413	-200.000	0.044	-0.196
-413.398	-4.120	-0.068	0.047
-412.384	102.056	0.128	-0.150
-411.369	4.177	-0.065	-0.047
-410.355	-200.000	0.004	-0.214
-409.340	-153.760	0.157	0.011
-408.325	765.664	-0.109	-0.296
-407.311	21.905	0.221	0.180
-406.296	800.000	0.106	0.378
-405.282	-42.898	0.235	0.120
-404.267	106.542	0.056	0.067
-403.252	-197.886	-0.228	-0.001
-402.238	496.669	-0.130	0.300
-401.223	248.780	0.077	-0.130
-400.209	-200.000	-0.025	0.195
-399.194	-200.000	0.032	0.313
-398.179	800.000	0.039	-0.125
-397.165	-54.968	0.112	0.050
-396.150	-200.000	0.084	-0.384
-395.136	800.000	-0.123	0.396
-394.121	32.336	0.138	-0.119
-393.106	123.453	0.079	0.099
-392.092	365.045	-0.072	0.144
-391.077	79.625	0.089	0.096
-390.063	-104.561	0.308	0.071
-389.048	-147.449	0.324	-0.027
-388.033	-200.000	0.033	0.228
-387.019	86.769	-0.195	0.215
-386.004	-200.000	0.003	-0.282
-384.990	800.000	0.056	-0.174
-383.975	800.000	-0.082	0.294
-382.960	38.103	0.210	0.187
-381.946	-86.810	-0.089	0.027
-380.931	-200.000	-0.011	-0.101
-379.917	-95.981	0.237	0.063
-378.902	-171.458	-0.141	0.005
-377.888	800.000	-0.030	-0.112
-376.873	-200.000	-0.025	0.134
-375.858	176.136	-0.095	-0.139
-374.844	470.029	-0.096	-0.216
-373.829	196.924	0.121	0.184
-372.815	80.913	-0.065	-0.070
-371.800	-128.549	0.332	0.047
-370.785	800.000	0.062	-0.260
-369.771	68.285	0.055	0.056
-368.756	-116.398	-0.111	-0.020
-367.742	597.404	-0.038	-0.094
-366.727	800.000	-0.065	-0.271
-365.712	-25.927	-0.118	-0.069
-364.698	-94.993	-0.165	0.045
-363.683	-104.819	0.274	0.063
-362.669	85.571	0.116	0.127
-361.654	800.000	0.122	0.530
-360.639	378.095	0.210	0.430
-359.625	-22.696	0.264	0.160
-358.610	800.000	0.054	-0.178
-357.596	6.168	-0.141	-0.105
-356.581	107.385	-0.196	-0.233
-355.566	15.801	0.230	0.181
-354.552	-200.000	0.005	-0.224
-353.537	147.988	-0.070	-0.094
-352.523	-77.363	0.310	0.108
-351.508	-11.974	0.188	0.123
-350.493	-68.415	-0.354	-0.137
-349.479	29.788	-0.070	-0.060
-348.464	-200.000	0.014	0.234
-347.450	-68.028	-0.360	0.140
-346.435	-200.000	-0.005	0.146
-345.420	132.437	-0.068	0.088
-344.406	-48.768	-0.190	-0.091
-343.391	586.618	0.175	-0.430
-342.377	342.044	-0.137	-0.268
-341.362	325.533	-0.071	0.135
-340.348	184.009	-0.170	-0.252
-339.333	147.066	-0.141	-0.189
-338.318	6.950	-0.199	0.148
-337.304	-3.809	0.251	0.174
-336.289	16.464	-0.013	-0.010
-335.275	0.651	0.159	-0.114
-334.260	102.441	0.125	-0.146
-333.245	7.672	-0.237	-0.177
-332.231	-119.998	-0.434	-0.074
-331.216	40.686	0.162	0.146
-330.202	-53.889	0.158	0.072
-329.187	-128.317	-0.276	-0.039
-328.172	-159.162	-0.164	-0.009
-327.158	-9.130	-0.249	0.166
-326.143	564.860	0.101	-0.246
-325.129	50.620	-0.336	0.318
-324.114	612.910	0.052	-0.130
-323.099	-200.000	-0.006	0.080
-322.085	-200.000	0.017	0.369
-321.070	22.823	-0.309	0.253
-320.056	432.627	-0.044	0.096
-319.041	-55.661	-0.337	0.151
-318.026	-200.000	0.027	-0.212
-317.012	-155.718	0.339	0.022
-315.997	-200.000	0.472	0.001
-314.983	800.000	-0.023	-0.077
-313.968	-74.180	0.145	-0.053
-312.953	-45.478	0.089	0.044
-311.939	800.000	0.066	-0.195
-310.924	171.911	-0.096	0.138
-309.910	296.232	0.057	-0.105
-308.895	515.849	-0.105	0.246
-307.880	800.000	-0.156	-0.484
-306.866	-116.709	-0.234	0.043
-305.851	-100.254	-0.172	0.043
-304.837	-200.000	0.051	-0.226
-303.822	635.944	-0.033	-0.085
-302.807	50.424	0.078	-0.074
-301.793	123.235	0.111	-0.138
-300.778	-50.379	0.249	0.117
-299.764	-26.132	0.168	-0.098
-298.749	2.220	-0.278	0.200
-297.735	90.541	0.101	0.113
-296.720	-147.175	-0.208	0.018
-295.705	-95.498	-0.350	-0.094
-294.691	94.759	-0.305	0.346
-293.676	-47.400	-0.136	0.066
-292.662	-44.675	0.369	-0.184
-291.647	-164.196	0.139	-0.006
-290.632	203.542	0.197	0.304
-289.618	-74.343	-0.146	-0.053
-288.603	-37.261	-0.253	-0.135
-287.589	88.151	0.253	0.280
-286.574	-82.398	-0.151	-0.049
-285.559	-102.850	-0.102	0.024
-284.545	-180.292	0.515	0.011
-283.530	70.743	-0.305	0.315
-282.516	428.311	-0.122	-0.262
-281.501	409.734	-0.051	0.108
-280.486	-200.000	-0.043	0.188
-279.472	-186.270	-0.156	-0.002
-278.457	122.156	0.078	0.097
-277.443	-91.701	-0.110	-0.031
-276.428	352.389	0.056	0.111
-275.413	800.000	-0.036	-0.104
-274.399	-200.000	-0.006	-0.095
-273.384	-200.000	-0.014	0.151
-272.370	-200.000	0.032	0.148
-271.355	86.032	-0.121	0.133
-270.340	-61.351	0.044	-0.019
-269.326	-187.840	0.105	-0.001
-268.311	91.581	0.094	-0.105
-267.297	140.633	0.196	0.259
-266.282	-200.000	-0.010	-0.220
-265.267	800.000	-0.055	0.167
-264.253	55.854	-0.124	-0.120
-263.238	-86.481	-0.511	0.156
-262.224	95.691	0.172	0.196
-261.209	-63.670	-0.201	-0.082
-260.195	-110.680	-0.201	-0.041
-259.180	35.387	0.054	0.047
-258.165	57.068	0.139	0.135
-257.151	-77.437	0.108	-0.037
-256.136	-194.062	-0.279	0.002
-255.122	-200.000	-0.005	-0.090
-254.107	-200.000	-0.045	-0.432
-253.092	-200.000	0.025	0.166
-252.078	-17.669	0.077	-0.048
-251.063	800.000	-0.053	-0.184
-250.049	-132.517	-0.178	-0.023
-249.034	4.941	-0.178	0.131
-248.019	-82.174	-0.296	-0.096
-247.005	186.156	0.079	0.117
-245.990	280.713	-0.026	0.046
-244.976	-31.667	-0.221	0.124
-243.961	19.682	-0.167	-0.133
-242.946	19.182	0.297	-0.237
-241.932	32.893	-0.114	0.098
-240.917	-103.496	0.167	0.039
-239.903	800.000	0.116	-0.344
-238.888	-74.652	0.310	-0.111
-237.873	-200.000	-0.000	0.042
-236.859	-99.907	0.303	0.075
-235.844	800.000	0.108	0.331
-234.830	254.940	0.276	0.470
-233.815	-200.000	-0.007	0.083
-232.800	62.660	0.082	0.082
-231.786	84.965	0.162	-0.177
-230.771	-109.479	-0.563	-0.118
-229.757	3.822	0.200	-0.145
-228.742	-200.000	0.013	-0.236
-227.727	-71.313	0.157	-0.059
-226.713	800.000	0.062	0.234
-225.698	-53.743	-0.404	0.184
-224.684	423.845	-0.091	0.195
-223.669	94.079	-0.223	-0.252
-222.655	-151.221	-0.314	0.023
-221.640	-99.096	-0.119	0.030
-220.625	198.484	0.201	-0.306
-219.611	-200.000	0.004	0.207
-218.596	-6.030	-0.045	0.031
-217.582	-77.391	-0.100	0.035
-216.567	-62.103	-0.019	0.008
-215.552	-93.974	0.253	0.069
-214.538	-200.000	0.050	0.000
-213.523	136.391	-0.164	0.213
-212.509	-111.801	-0.132	0.027
-211.494	-169.218	-0.183	-0.007
-210.479	60.791	-0.087	-0.086
-209.465	84.697	0.066	-0.071
-208.450	287.751	-0.023	-0.041
-207.436	800.000	0.034	0.100
-206.421	92.550	0.183	0.205
-205.406	-77.050	0.279	-0.097
-204.392	-57.287	-0.252	-0.110
-203.377	-119.699	-0.358	-0.061
-202.363	-80.846	-0.474	-0.156
-201.348	132.529	-0.157	-0.201
-200.333	-200.000	-0.052	0.236
-199.319	-200.000	-0.049	-0.313
-198.304	-43.020	0.089	-0.045
-197.290	76.550	0.037	-0.039
-196.275	55.507	0.079	-0.076
-195.260	411.669	-0.159	-0.336
-194.246	800.000	-0.095	-0.337
-193.231	150.368	-0.099	-0.133
-192.217	-200.000	-0.002	-0.133
-191.202	-200.000	-0.009	-0.068
-190.187	339.348	0.143	0.277
-189.173	-152.325	0.251	0.018
-188.158	-200.000	-0.015	0.349
-187.144	-200.000	0.004	0.165
-186.129	4.537	-0.106	0.078
-185.114	-113.066	0.153	0.030
-184.100	69.917	0.218	0.223
-183.085	-200.000	0.012	0.089
-182.071	178.379	0.125	0.182
-181.056	800.000	-0.030	0.116
-180.042	701.565	-0.062	0.161
-179.027	28.594	-0.321	0.269
-178.012	678.881	0.118	0.305
-176.998	-14.361	-0.116	-0.074
-175.983	72.566	0.154	0.160
-174.969	-83.364	0.182	-0.058
-173.954	56.660	-0.345	-0.333
-172.939	-64.499	-0.072	-0.029
-171.925	429.644	0.052	-0.111
-170.910	326.343	0.161	0.306
-169.896	800.000	0.018	0.075
-168.881	398.516	-0.097	-0.202
-167.866	-200.000	-0.010	0.279
-166.852	-84.789	0.377	-0.118
-165.837	-89.327	-0.128	-0.037
-164.823	91.819	-0.284	0.317
-163.808	155.046	-0.124	0.169
-162.793	800.000	-0.070	0.267
-161.779	64.480	-0.219	0.219
-160.764	-102.048	0.077	0.018
-159.750	-176.912	0.149	-0.004
-158.735	-101.914	-0.249	0.060
-157.720	-45.459	-0.327	0.161
-156.706	-69.915	-0.030	0.011
-155.691	72.631	0.268	-0.278
-154.677	-200.000	0.000	0.033
-153.662	-200.000	-0.033	0.151
-152.647	-56.483	-0.171	0.075
-151.633	106.486	-0.082	-0.097
-150.618	800.000	-0.023	0.094
-149.604	613.942	-0.061	-0.152
-148.589	114.632	-0.123	-0.149
-147.574	800.000	0.027	0.094
-146.560	-123.142	0.634	-0.101
-145.545	800.000	0.043	0.184
-144.531	9.783	-0.208	-0.156
-143.516	-200.000	0.004	-0.133
-142.502	352.526	0.070	0.138
-141.487	800.000	0.078	0.271
-140.472	-107.883	-0.221	0.048
-139.458	-200.000	0.006	-0.058
-138.443	-200.000	-0.020	-0.254
-137.429	-200.000	0.025	-0.274
-136.414	97.508	0.276	-0.315
-135.399	-200.000	-0.009	0.314
-134.385	-71.027	0.138	0.052
-133.370	162.799	0.127	-0.176
-132.356	-200.000	0.008	0.113
-131.341	800.000	-0.072	-0.209
-130.326	-168.123	-0.148	-0.006
-129.312	-39.562	0.206	0.107
-128.297	-28.886	0.184	-0.105
-127.283	-200.000	-0.005	-0.082
-126.268	800.000	0.077	-0.286
-125.253	-200.000	0.018	-0.123
-124.239	-131.560	-0.354	-0.046
-123.224	800.000	-0.035	0.106
-122.210	800.000	-0.101	0.290
-121.195	-2.147	0.158	0.110
