DTS Sentinel unit serial number:	SN413079Multiplexer serial number:	ORYXHardware model number:	OX4-SRSoftware version number:	ORYX F/W v4.00 Oryx Data Collector v3.7.2.0data status	okinstallation	princeton_trtdifferential loss correction	single-endedforward channel	channel 4reverse channel	N/Adate	2019/09/11time	18:43:11forward acquisition time	60.00reverse acquisition time	0.00gamma	496.2192k internal	0.2279k external	0.2279temperature offset calibration	1.0027default loss term (dB/km)	0.3790temperature slope calibration	1.0000multiplexer offset coefficient	1.0000multiplexer slope coefficient	1.0000fibre end	0.00T internal ref (°C)	43.33T ext. ref 1 (°C)	1.19T ext. ref 2 (°C)	35.49length (m)	temperature (°C)	Stokes	anti-Stokes-747.200	-134.157	0.235	0.030
-746.185	287.441	-0.168	0.313
-745.171	785.502	-0.093	0.261
-744.156	-42.629	0.242	0.127
-743.142	-30.017	-0.306	0.179
-742.127	800.000	0.068	0.306
-741.112	68.283	0.304	0.320
-740.098	49.770	-0.144	0.139
-739.083	18.526	0.119	-0.098
-738.069	149.458	-0.058	-0.080
-737.054	5.057	-0.184	0.140
-736.039	800.000	-0.013	-0.047
-735.025	-76.531	0.176	-0.064
-734.010	187.740	0.131	0.201
-732.996	-74.870	0.280	0.103
-731.981	-57.805	-0.108	0.048
-730.966	800.000	-0.131	0.431
-729.952	-84.181	-0.235	-0.077
-728.937	-107.360	-0.187	-0.042
-727.923	-111.573	-0.014	-0.003
-726.908	224.982	-0.091	-0.151
-725.894	-145.119	-0.386	0.036
-724.879	12.513	-0.065	-0.051
-723.864	-200.000	-0.042	0.387
-722.850	-65.548	0.117	0.048
-721.835	1.042	0.109	0.080
-720.821	-86.442	0.262	-0.083
-719.806	46.654	-0.170	-0.163
-718.791	-33.593	0.240	0.136
-717.777	205.544	-0.235	-0.375
-716.762	-32.369	0.219	-0.125
-715.748	-112.106	0.121	0.025
-714.733	800.000	-0.048	-0.187
-713.718	-145.049	-0.100	0.009
-712.704	-27.291	-0.256	-0.154
-711.689	-200.000	-0.033	-0.169
-710.675	800.000	-0.052	-0.161
-709.660	157.300	-0.247	-0.351
-708.645	-2.773	-0.052	-0.038
-707.631	-144.414	0.047	-0.005
-706.616	-152.800	-0.249	-0.018
-705.602	-200.000	0.003	0.104
-704.587	203.933	0.298	0.474
-703.572	604.063	-0.050	-0.129
-702.558	-90.327	0.090	0.027
-701.543	29.269	-0.197	-0.172
-700.529	-133.438	0.159	0.020
-699.514	-45.578	0.226	0.115
-698.499	-200.000	-0.026	-0.249
-697.485	-31.532	-0.297	-0.172
-696.470	-20.513	-0.128	0.081
-695.456	800.000	-0.051	-0.144
-694.441	800.000	0.057	-0.169
-693.426	155.504	-0.106	-0.150
-692.412	-48.092	0.269	-0.134
-691.397	9.438	-0.263	0.204
-690.383	-78.762	-0.175	0.061
-689.368	800.000	0.058	0.219
-688.354	42.379	0.193	-0.180
-687.339	-55.853	0.176	-0.081
-686.324	506.316	-0.015	0.035
-685.310	95.247	0.233	-0.272
-684.295	-200.000	-0.077	-0.540
-683.281	431.051	-0.095	0.211
-682.266	-50.945	0.298	0.144
-681.251	6.091	0.061	-0.047
-680.237	800.000	0.073	0.234
-679.222	-110.100	-0.062	-0.013
-678.208	201.348	-0.032	-0.051
-677.193	-119.081	-0.317	0.057
-676.178	-163.962	-0.272	-0.013
-675.164	169.452	0.202	-0.296
-674.149	-85.173	0.127	-0.041
-673.135	-62.853	0.125	0.053
-672.120	416.279	-0.107	0.234
-671.105	-200.000	-0.013	-0.327
-670.091	470.426	-0.044	-0.102
-669.076	679.580	0.160	-0.427
-668.062	-200.000	-0.008	0.064
-667.047	-200.000	-0.012	0.100
-666.032	-200.000	0.004	-0.416
-665.018	-86.507	-0.057	0.018
-664.003	-128.869	0.124	-0.018
-662.989	57.519	-0.057	-0.057
-661.974	24.014	-0.272	-0.230
-660.959	-200.000	-0.021	0.410
-659.945	800.000	-0.005	-0.019
-658.930	-138.352	0.321	0.036
-657.916	800.000	0.094	-0.381
-656.901	-200.000	0.004	0.178
-655.886	73.340	-0.070	-0.075
-654.872	-200.000	-0.014	-0.074
-653.857	229.649	0.045	-0.075
-652.843	-200.000	0.003	0.217
-651.828	71.061	-0.030	-0.032
-650.814	-139.192	-0.119	-0.013
-649.799	14.796	-0.157	-0.126
-648.784	-109.991	0.260	0.056
-647.770	-123.348	-0.120	-0.020
-646.755	-200.000	-0.007	-0.155
-645.741	17.787	0.141	-0.115
-644.726	-146.893	0.244	0.022
-643.711	229.865	0.054	0.090
-642.697	129.292	0.140	-0.183
-641.682	27.451	-0.176	-0.152
-640.668	-200.000	-0.073	0.345
-639.653	-26.931	0.350	0.210
-638.638	408.931	0.096	-0.208
-637.624	-91.292	0.156	0.046
-636.609	-200.000	-0.041	-0.190
-635.595	-145.541	0.168	0.015
-634.580	-200.000	-0.030	-0.264
-633.565	-104.642	0.089	-0.021
-632.551	-101.613	0.037	-0.009
-631.536	118.171	-0.175	0.222
-630.522	738.452	0.025	0.068
-629.507	34.276	0.242	0.216
-628.492	-66.799	0.089	-0.036
-627.478	-113.204	0.478	0.096
-626.463	-100.169	-0.179	-0.046
-625.449	69.301	0.153	-0.161
-624.434	8.479	-0.097	-0.075
-623.419	248.928	-0.059	0.102
-622.405	-141.857	-0.248	0.025
-621.390	405.397	0.082	-0.177
-620.376	129.100	-0.225	0.294
-619.361	-200.000	0.030	-0.268
-618.346	-130.682	0.229	0.032
-617.332	66.796	0.194	-0.203
-616.317	-37.322	0.263	-0.144
-615.303	292.317	-0.085	-0.159
-614.288	-161.581	0.232	0.012
-613.273	333.680	0.200	-0.397
-612.259	800.000	0.040	0.177
-611.244	-39.260	-0.217	-0.117
-610.230	16.327	0.170	-0.138
-609.215	-74.488	-0.393	0.145
-608.201	8.141	0.111	-0.086
-607.186	-160.611	-0.064	-0.004
-606.171	-29.901	0.145	0.085
-605.157	-2.297	0.113	0.081
-604.142	-73.453	0.241	-0.090
-603.128	452.636	-0.062	-0.140
-602.113	22.853	-0.211	0.177
-601.098	-76.355	-0.150	-0.054
-600.084	8.520	-0.062	0.048
-599.069	303.472	0.104	0.197
-598.055	551.616	-0.026	-0.063
-597.040	276.822	-0.111	-0.201
-596.025	-63.717	0.148	0.062
-595.011	-123.204	-0.363	0.059
-593.996	-200.000	-0.081	0.367
-592.982	-58.296	-0.220	-0.098
-591.967	-200.000	0.038	-0.202
-590.952	167.588	0.157	-0.228
-589.938	-172.068	-0.284	0.009
-588.923	508.488	-0.030	-0.071
-587.909	586.254	-0.049	0.124
-586.894	-200.000	-0.013	-0.094
-585.879	-87.488	0.157	-0.049
-584.865	637.276	0.124	-0.321
-583.850	-0.584	-0.105	-0.076
-582.836	258.726	-0.055	-0.097
-581.821	216.763	-0.164	0.266
-580.806	426.761	-0.026	-0.058
-579.792	-61.403	-0.174	-0.075
-578.777	49.560	-0.235	0.226
-577.763	-176.605	-0.009	-0.000
-576.748	104.557	0.099	0.120
-575.733	-200.000	0.004	0.057
-574.719	-200.000	0.011	-0.256
-573.704	709.725	-0.144	0.390
-572.690	79.637	-0.172	0.189
-571.675	-200.000	0.014	0.449
-570.661	-47.629	-0.282	0.140
-569.646	69.697	-0.107	0.113
-568.631	-80.178	-0.248	-0.085
-567.617	746.253	0.106	-0.293
-566.602	-200.000	-0.012	0.255
-565.588	-17.246	-0.116	0.075
-564.573	7.875	-0.163	-0.125
-563.558	300.058	0.137	-0.258
-562.544	159.655	0.130	-0.185
-561.529	-60.152	-0.249	0.108
-560.515	208.100	-0.092	-0.147
-559.500	-73.737	0.383	0.143
-558.485	2.866	-0.162	0.120
-557.471	233.419	-0.107	0.180
-556.456	800.000	0.135	-0.393
-555.442	92.883	0.127	0.146
-554.427	800.000	0.082	0.248
-553.412	-76.517	-0.290	-0.104
-552.398	-22.304	0.154	0.095
-551.383	274.357	-0.087	0.158
-550.369	-200.000	0.008	0.340
-549.354	292.177	0.036	0.068
-548.339	314.276	0.100	-0.193
-547.325	366.556	-0.050	0.102
-546.310	800.000	0.063	-0.243
-545.296	-45.652	-0.275	-0.139
-544.281	144.330	0.137	0.187
-543.266	-81.791	-0.102	0.034
-542.252	-37.877	0.149	0.081
-541.237	-200.000	-0.011	-0.108
-540.223	119.206	0.083	0.105
-539.208	90.789	-0.132	0.151
-538.193	-112.711	-0.106	-0.021
-537.179	-200.000	0.014	0.146
-536.164	-101.026	0.205	0.051
-535.150	4.231	-0.229	-0.172
-534.135	108.687	-0.108	-0.131
-533.121	208.773	-0.194	-0.310
-532.106	-156.207	-0.102	0.007
-531.091	18.295	0.255	0.208
-530.077	-200.000	0.020	0.154
-529.062	-103.755	0.059	0.014
-528.048	800.000	-0.016	-0.058
-527.033	-35.410	-0.125	-0.070
-526.018	-50.091	0.149	0.072
-525.004	-13.241	-0.253	-0.168
-523.989	800.000	0.077	-0.262
-522.975	-56.804	0.464	-0.209
-521.960	-200.000	-0.042	0.228
-520.945	-200.000	0.008	0.046
-519.931	-200.000	0.005	0.136
-518.916	-16.949	0.123	0.079
-517.902	227.134	0.089	0.148
-516.887	-200.000	0.002	-0.082
-515.872	800.000	-0.018	0.068
-514.858	-42.051	0.310	0.162
-513.843	-154.849	-0.148	0.010
-512.829	66.843	-0.150	-0.156
-511.814	-27.520	-0.134	0.080
-510.799	75.319	-0.025	-0.027
-509.785	-200.000	0.014	-0.130
-508.770	32.912	0.113	-0.099
-507.756	-32.502	-0.230	-0.131
-506.741	-71.097	0.196	0.075
-505.726	-200.000	-0.017	0.168
-504.712	137.869	-0.156	-0.208
-503.697	-150.140	0.428	-0.034
-502.683	13.395	-0.154	-0.122
-501.668	-43.234	-0.195	-0.101
-500.653	490.884	0.067	-0.156
-499.639	-200.000	0.003	-0.183
-498.624	-135.567	0.191	-0.023
-497.610	-39.241	-0.126	0.068
-496.595	313.059	0.139	-0.267
-495.581	800.000	-0.039	0.164
-494.566	21.366	-0.299	0.247
-493.551	-164.646	-0.255	0.012
-492.537	-36.445	0.110	-0.060
-491.522	16.006	-0.132	-0.106
-490.508	-182.205	0.151	0.003
-489.493	56.140	0.101	-0.100
-488.478	-21.374	-0.069	0.043
-487.464	-137.921	0.112	0.013
-486.449	800.000	0.025	0.107
-485.435	80.597	0.061	0.067
-484.420	33.387	0.141	-0.125
-483.405	-200.000	0.009	0.194
-482.391	251.850	0.141	0.244
-481.376	58.483	0.098	-0.098
-480.362	-10.212	-0.121	-0.082
-479.347	-35.926	0.125	-0.069
-478.332	301.876	0.033	0.063
-477.318	-156.256	-0.188	0.012
-476.303	140.957	-0.188	-0.253
-475.289	-134.279	0.074	-0.009
-474.274	-90.970	0.169	-0.050
-473.259	103.933	-0.248	-0.297
-472.245	-78.575	-0.440	0.153
-471.230	202.246	0.026	0.040
-470.216	-200.000	0.002	-0.125
-469.201	196.977	-0.069	0.107
-468.186	800.000	-0.051	-0.152
-467.172	800.000	0.039	0.146
-466.157	26.554	0.199	0.169
-465.143	317.296	-0.128	0.247
-464.128	-63.483	-0.174	0.073
-463.113	-14.769	0.194	0.126
-462.099	798.951	-0.021	0.059
-461.084	-21.331	0.282	0.175
-460.070	-200.000	-0.017	0.433
-459.055	-200.000	-0.058	-0.281
-458.040	800.000	-0.061	-0.223
-457.026	114.796	0.156	0.193
-456.011	-29.819	-0.200	-0.116
-454.997	-26.897	0.268	-0.159
-453.982	-70.842	0.527	-0.202
-452.968	577.326	0.080	-0.200
-451.953	223.641	-0.110	-0.180
-450.938	-200.000	0.007	-0.234
-449.924	273.256	-0.005	0.009
-448.909	800.000	0.111	-0.323
-447.895	-200.000	0.014	0.143
-446.880	-200.000	-0.043	0.386
-445.865	90.292	-0.244	0.278
-444.851	-200.000	-0.005	0.231
-443.836	-97.094	-0.200	-0.053
-442.822	-34.827	-0.050	-0.028
-441.807	-22.294	-0.261	-0.161
-440.792	-141.228	-0.067	-0.007
-439.778	-122.930	-0.281	-0.046
-438.763	13.615	0.127	-0.100
-437.749	-168.186	-0.080	0.003
-436.734	716.954	-0.116	0.313
-435.719	-107.087	0.052	0.012
-434.705	800.000	0.055	-0.226
-433.690	338.645	-0.138	-0.273
-432.676	-144.692	-0.136	-0.013
-431.661	-67.074	0.043	0.017
-430.646	-200.000	-0.042	0.257
-429.632	800.000	-0.038	0.109
-428.617	-28.412	-0.021	-0.012
-427.603	-88.932	-0.231	-0.070
-426.588	-128.808	0.293	0.042
-425.573	-110.417	0.120	0.025
-424.559	-200.000	0.006	0.233
-423.544	-200.000	-0.029	-0.145
-422.530	800.000	-0.034	0.136
-421.515	-12.346	-0.104	0.069
-420.500	-83.751	0.055	0.018
-419.486	68.108	-0.242	0.252
-418.471	118.336	-0.140	0.176
-417.457	-162.967	0.209	-0.010
-416.442	-76.098	-0.139	-0.050
-415.428	-133.722	0.117	0.015
-414.413	800.000	0.039	-0.137
-413.398	-38.718	-0.181	0.097
-412.384	-200.000	0.044	0.310
-411.369	-50.169	0.230	-0.110
-410.355	-135.741	-0.028	-0.003
-409.340	77.567	-0.034	-0.037
-408.325	124.325	0.273	-0.349
-407.311	-200.000	0.037	0.314
-406.296	-54.507	-0.362	0.167
-405.282	50.948	-0.032	-0.031
-404.267	800.000	0.078	0.302
-403.252	509.590	-0.115	0.271
-402.238	341.913	0.118	-0.234
-401.223	-63.816	-0.278	0.115
-400.209	73.191	0.078	-0.083
-399.194	-34.227	-0.249	-0.139
-398.179	593.881	0.071	0.177
-397.165	-83.035	0.216	0.071
-396.150	-52.359	-0.333	0.157
-395.136	-151.267	0.120	-0.009
-394.121	800.000	-0.018	-0.070
-393.106	105.205	0.176	0.211
-392.092	216.974	-0.080	0.129
-391.077	-37.222	0.258	0.140
-390.063	-32.676	0.110	0.062
-389.048	103.618	-0.105	0.125
-388.033	42.649	0.119	-0.110
-387.019	-200.000	-0.019	-0.726
-386.004	-200.000	-0.001	-0.120
-384.990	-200.000	0.055	-0.302
-383.975	-97.190	-0.197	0.052
-382.960	-139.623	0.370	-0.040
-381.946	800.000	-0.027	0.080
-380.931	800.000	0.057	-0.174
-379.917	-159.339	0.306	0.017
-378.902	-200.000	0.007	0.047
-377.888	-131.043	0.222	-0.030
-376.873	-71.339	0.131	0.050
-375.858	-25.077	0.203	-0.122
-374.844	114.533	-0.043	0.053
-373.829	-200.000	0.036	0.209
-372.815	184.881	0.117	-0.177
-371.800	-200.000	0.021	-0.126
-370.785	-200.000	0.031	0.143
-369.771	379.966	0.181	0.376
-368.756	-88.769	0.208	0.063
-367.742	-140.903	-0.295	-0.031
-366.727	-35.197	0.196	0.108
-365.712	120.729	-0.009	0.012
-364.698	-178.213	0.152	-0.004
-363.683	9.726	0.169	0.130
-362.669	76.714	0.317	0.341
-361.654	149.644	-0.149	0.205
-360.639	-83.537	0.189	0.061
-359.625	-200.000	0.035	0.246
-358.610	800.000	0.027	0.075
-357.596	-200.000	-0.028	-0.180
-356.581	-152.089	0.240	-0.018
-355.566	800.000	-0.061	0.241
-354.552	182.119	-0.056	0.084
-353.537	40.429	-0.179	0.164
-352.523	-150.040	0.106	0.008
-351.508	505.872	0.120	-0.281
-350.493	-58.573	-0.112	-0.049
-349.479	-55.804	0.082	-0.037
-348.464	-66.564	-0.491	0.197
-347.450	-126.500	-0.141	0.021
-346.435	-52.654	-0.300	-0.140
-345.420	31.936	-0.079	0.069
-344.406	-3.910	-0.355	0.249
-343.391	550.068	0.085	0.205
-342.377	-200.000	0.006	-0.260
-341.362	-107.784	0.030	0.007
-340.348	-114.969	0.165	-0.032
-339.333	23.812	-0.084	-0.070
-338.318	-66.971	-0.096	0.038
-337.304	-105.456	0.191	-0.044
-336.289	132.298	0.160	-0.209
-335.275	439.158	-0.147	-0.325
-334.260	-159.128	-0.149	0.009
-333.245	-87.104	0.322	0.099
-332.231	52.647	-0.188	-0.182
-331.216	743.863	0.077	0.209
-330.202	800.000	0.119	-0.376
-329.187	800.000	-0.012	0.050
-328.172	-23.733	-0.296	0.180
-327.158	13.476	-0.197	-0.155
-326.143	162.641	-0.168	-0.239
-325.129	-200.000	-0.011	-0.119
-324.114	-112.937	0.274	0.055
-323.099	-48.103	0.098	-0.048
-322.085	173.375	0.163	-0.238
-321.070	-99.921	-0.076	0.019
-320.056	-84.998	0.170	0.054
-319.041	306.929	-0.226	-0.425
-318.026	-6.773	-0.204	-0.141
-317.012	582.757	-0.100	0.249
-315.997	-155.285	-0.156	0.010
-314.983	-105.143	0.316	0.073
-313.968	-200.000	0.018	0.175
-312.953	-54.070	0.143	-0.066
-311.939	-66.845	-0.112	-0.045
-310.924	175.900	-0.119	0.175
-309.910	37.071	-0.094	-0.084
-308.895	800.000	0.077	0.302
-307.880	800.000	-0.032	-0.131
-306.866	-200.000	0.009	0.222
-305.851	-44.397	-0.040	-0.020
-304.837	-83.793	-0.311	-0.100
-303.822	111.269	-0.308	-0.375
-302.807	95.289	-0.130	0.150
-301.793	309.158	-0.109	0.206
-300.778	211.587	0.149	0.237
-299.764	619.874	-0.139	-0.353
-298.749	-67.133	0.054	0.022
-297.735	-98.509	0.392	-0.101
-296.720	-23.365	-0.273	-0.166
-295.705	46.765	0.105	-0.099
-294.691	299.020	0.095	-0.177
-293.676	82.607	0.188	-0.207
-292.662	-29.433	0.294	-0.170
-291.647	-200.000	-0.038	0.335
-290.632	-200.000	0.030	-0.199
-289.618	-135.471	-0.379	-0.046
-288.603	-200.000	0.022	0.145
-287.589	-170.296	0.252	-0.009
-286.574	274.108	0.117	-0.210
-285.559	-200.000	-0.051	-0.539
-284.545	-142.799	0.343	-0.034
-283.530	161.830	-0.123	-0.175
-282.516	-79.452	-0.179	0.061
-281.501	-90.798	0.150	0.044
-280.486	245.331	0.166	-0.282
-279.472	-200.000	-0.008	0.262
-278.457	-139.696	-0.204	0.022
-277.443	-26.672	0.108	-0.064
-276.428	-46.373	0.328	-0.163
-275.413	6.034	-0.072	-0.054
-274.399	-61.540	0.233	0.099
-273.384	-22.494	-0.069	-0.042
-272.370	-126.579	-0.089	0.013
-271.355	-200.000	-0.008	-0.052
-270.340	800.000	-0.032	-0.141
-269.326	-200.000	-0.020	0.269
-268.311	-54.840	-0.497	0.227
-267.297	101.738	-0.313	0.369
-266.282	-49.792	0.109	0.052
-265.267	800.000	-0.161	0.459
-264.253	-200.000	-0.041	0.397
-263.238	-33.991	-0.133	0.074
-262.224	37.210	-0.058	-0.052
-261.209	-85.820	-0.088	0.028
-260.195	167.298	0.135	-0.193
-259.180	-33.446	0.065	0.036
-258.165	-70.241	0.389	-0.149
-257.151	-100.135	0.348	-0.087
-256.136	-200.000	0.029	0.233
-255.122	-200.000	0.013	0.060
-254.107	800.000	-0.129	-0.397
-253.092	-200.000	0.022	0.272
-252.078	-200.000	0.021	0.278
-251.063	-5.774	-0.144	-0.100
-250.049	82.439	-0.177	-0.194
-249.034	800.000	-0.038	-0.115
-248.019	74.539	0.221	-0.235
-247.005	800.000	0.080	-0.343
-245.990	-200.000	-0.062	-0.318
-244.976	-29.680	0.404	0.233
-243.961	177.056	0.132	-0.193
-242.946	800.000	0.063	-0.248
-241.932	184.672	-0.234	-0.350
-240.917	-200.000	0.022	-0.098
-239.903	-129.597	-0.204	-0.028
-238.888	306.991	-0.201	0.377
-237.873	316.562	0.187	0.356
-236.859	-24.523	-0.310	-0.186
-235.844	-187.968	-0.303	-0.004
-234.830	-79.355	0.056	-0.019
-233.815	135.335	0.256	0.336
-232.800	320.793	-0.103	-0.197
-231.786	800.000	-0.082	-0.237
-230.771	-200.000	0.022	0.160
-229.757	-200.000	0.040	-0.224
-228.742	561.833	0.131	0.320
-227.727	-200.000	0.005	-0.279
-226.713	-125.739	-0.147	0.022
-225.698	38.069	0.197	0.177
-224.684	20.197	-0.039	0.032
-223.669	800.000	-0.082	-0.335
-222.655	-200.000	-0.008	-0.178
-221.640	-73.039	-0.043	-0.016
-220.625	-200.000	-0.036	0.193
-219.611	-78.027	-0.426	-0.148
-218.596	-69.557	0.198	-0.077
-217.582	52.119	-0.299	0.287
-216.567	55.967	-0.116	0.114
-215.552	-174.538	0.214	-0.006
-214.538	-76.349	-0.220	-0.078
-213.523	186.417	-0.046	0.069
-212.509	-126.745	0.161	-0.024
-211.494	-62.980	0.190	-0.079
-210.479	-200.000	-0.002	-0.148
-209.465	293.106	0.122	0.224
-208.450	-200.000	-0.025	0.225
-207.436	-21.737	0.101	0.062
-206.421	-2.163	-0.155	-0.110
-205.406	88.468	-0.058	-0.065
-204.392	-20.339	0.305	-0.189
-203.377	127.729	-0.304	0.389
-202.363	-159.081	0.103	-0.006
-201.348	800.000	-0.065	0.197
-200.333	800.000	0.039	-0.123
-199.319	-200.000	-0.035	-0.276
-198.304	-63.201	-0.126	-0.052
-197.290	166.595	0.100	0.143
-196.275	-99.425	0.297	-0.075
-195.260	800.000	0.029	-0.107
-194.246	-137.405	0.125	-0.014
-193.231	-42.110	0.322	0.166
-192.217	-131.479	0.056	-0.007
-191.202	-28.698	-0.097	-0.056
-190.187	800.000	0.146	0.455
-189.173	-56.524	0.084	-0.037
-188.158	-40.588	0.108	-0.056
-187.144	-161.026	0.225	0.012
-186.129	-4.468	0.109	0.076
-185.114	-200.000	-0.016	0.207
-184.100	-183.737	0.185	0.003
-183.085	-200.000	-0.011	-0.059
-182.071	14.237	-0.268	-0.210
-181.056	19.174	-0.098	-0.079
-180.042	-151.472	0.294	0.022
-179.027	-102.767	-0.090	0.022
-178.012	-83.156	-0.326	-0.106
-176.998	357.864	-0.115	0.231
-175.983	191.186	0.048	0.073
-174.969	14.497	0.078	0.061
-173.954	-200.000	0.037	0.309
-172.939	-200.000	-0.038	-0.310
-171.925	-79.300	-0.291	-0.099
-170.910	-96.251	0.172	-0.046
-169.896	-68.728	0.175	0.068
-168.881	-200.000	-0.030	-0.169
-167.866	82.247	-0.097	-0.106
-166.852	-110.157	-0.177	-0.037
-165.837	-160.440	0.180	-0.010
-164.823	348.566	-0.086	0.171
-163.808	-200.000	-0.049	0.310
-162.793	20.679	-0.211	0.172
-161.779	54.989	0.198	0.193
-160.764	109.162	-0.233	-0.280
-159.750	-136.883	0.055	-0.006
-158.735	349.550	-0.189	0.375
-157.720	800.000	0.053	0.181
-156.706	153.963	0.017	0.024
-155.691	-200.000	0.019	-0.262
-154.677	187.844	-0.338	-0.508
-153.662	800.000	0.055	-0.218
-152.647	326.729	-0.069	0.132
-151.633	522.350	0.099	0.234
-150.618	-142.326	-0.272	0.027
-149.604	-68.737	-0.240	0.093
-148.589	420.437	0.141	-0.303
-147.574	163.901	-0.149	-0.211
-146.560	-138.399	0.099	0.011
-145.545	-38.184	0.211	0.113
-144.531	509.404	-0.048	0.112
-143.516	-200.000	-0.031	0.146
-142.502	347.292	0.015	-0.030
-141.487	165.286	0.116	0.164
-140.472	-153.477	0.203	-0.014
-139.458	800.000	0.104	0.312
-138.443	148.549	0.203	-0.275
-137.429	73.501	0.192	0.202
-136.414	-102.546	-0.194	-0.047
-135.399	-24.052	-0.253	0.152
-134.385	-18.447	0.263	0.165
-133.370	97.664	0.193	-0.223
-132.356	-173.420	-0.335	-0.010
-131.341	289.083	0.098	0.179
-130.326	-139.203	-0.146	-0.016
-129.312	800.000	-0.080	0.239
-128.297	800.000	0.039	0.167
-127.283	800.000	0.054	-0.195
-126.268	-96.343	0.146	-0.039
-125.253	-200.000	-0.084	0.437
-124.239	-200.000	-0.022	0.132
-123.224	-144.022	0.304	0.029
-122.210	-151.472	-0.156	-0.012
