DTS Sentinel unit serial number:	SN413079Multiplexer serial number:	ORYXHardware model number:	OX4-SRSoftware version number:	ORYX F/W v4.00 Oryx Data Collector v3.7.2.0data status	okinstallation	princeton_trtdifferential loss correction	single-endedforward channel	channel 4reverse channel	N/Adate	2019/09/12time	04:39:11forward acquisition time	60.00reverse acquisition time	0.00gamma	496.2192k internal	0.2311k external	0.2311temperature offset calibration	1.0141default loss term (dB/km)	0.3790temperature slope calibration	1.0000multiplexer offset coefficient	1.0000multiplexer slope coefficient	1.0000fibre end	0.00T internal ref (°C)	31.62T ext. ref 1 (°C)	2.77T ext. ref 2 (°C)	27.07length (m)	temperature (°C)	Stokes	anti-Stokes-747.200	-200.000	0.045	0.277
-746.185	-90.087	-0.330	0.097
-745.171	244.949	0.061	0.104
-744.156	800.000	-0.093	-0.273
-743.142	-132.553	0.165	0.022
-742.127	299.175	-0.166	-0.310
-741.112	153.746	-0.137	0.190
-740.098	800.000	-0.048	-0.153
-739.083	-40.520	0.281	-0.148
-738.069	-137.851	-0.298	0.034
-737.054	-200.000	0.023	-0.102
-736.039	-126.793	-0.295	-0.044
-735.025	-77.277	-0.281	-0.099
-734.010	-110.226	-0.081	-0.017
-732.996	800.000	0.109	-0.397
-731.981	-200.000	-0.022	-0.116
-730.966	-79.594	0.186	0.064
-729.952	-24.047	-0.172	-0.104
-728.937	-60.091	-0.167	-0.072
-727.923	255.392	0.058	0.101
-726.908	800.000	0.041	-0.130
-725.894	-82.337	-0.036	0.012
-724.879	166.337	0.117	-0.168
-723.864	97.305	-0.309	0.359
-722.850	-200.000	0.004	0.048
-721.835	-2.627	-0.061	-0.043
-720.821	-105.639	0.331	0.076
-719.806	18.531	-0.179	-0.145
-718.791	226.701	0.025	-0.040
-717.777	145.600	-0.242	-0.329
-716.762	205.639	0.082	-0.130
-715.748	-49.335	-0.098	0.047
-714.733	-112.932	-0.559	-0.112
-713.718	800.000	-0.035	-0.099
-712.704	217.644	-0.118	-0.191
-711.689	83.511	0.099	0.109
-710.675	312.397	-0.038	-0.073
-709.660	-200.000	-0.024	-0.293
-708.645	11.208	0.398	-0.309
-707.631	88.771	-0.059	-0.067
-706.616	-200.000	0.018	-0.244
-705.602	313.271	0.200	-0.382
-704.587	335.243	-0.056	0.110
-703.572	800.000	0.034	0.139
-702.558	-38.126	-0.185	0.100
-701.543	-147.736	0.334	0.028
-700.529	228.585	0.157	-0.259
-699.514	192.616	-0.089	0.136
-698.499	800.000	0.029	0.111
-697.485	414.411	-0.149	0.321
-696.470	-200.000	-0.013	-0.093
-695.456	-30.585	0.137	0.079
-694.441	-200.000	-0.019	0.186
-693.426	16.291	0.222	0.177
-692.412	23.462	0.098	0.082
-691.397	800.000	0.059	-0.210
-690.383	-200.000	0.012	0.091
-689.368	-34.216	-0.161	-0.090
-688.354	316.508	-0.103	0.197
-687.339	27.000	-0.249	-0.212
-686.324	340.197	-0.071	0.140
-685.310	-106.279	-0.211	0.048
-684.295	-200.000	-0.014	-0.145
-683.281	125.852	-0.156	-0.200
-682.266	-48.566	-0.147	-0.072
-681.251	-40.752	-0.140	-0.073
-680.237	800.000	-0.034	0.133
-679.222	-200.000	-0.004	0.086
-678.208	-4.076	0.026	0.018
-677.193	-124.793	0.229	-0.036
-676.178	-111.035	-0.140	0.029
-675.164	25.505	-0.033	0.028
-674.149	-74.849	-0.234	0.085
-673.135	800.000	-0.051	0.202
-672.120	247.376	0.030	-0.051
-671.105	-80.008	0.344	-0.117
-670.091	3.325	-0.292	0.215
-669.076	-21.280	-0.339	0.209
-668.062	-60.304	0.076	-0.033
-667.047	67.394	0.335	0.346
-666.032	-155.718	-0.315	-0.020
-665.018	800.000	0.029	0.102
-664.003	-110.128	-0.023	0.005
-662.989	-179.541	-0.203	-0.004
-661.974	277.344	-0.082	0.147
-660.959	-200.000	0.010	0.155
-659.945	-200.000	0.031	-0.267
-658.930	446.137	-0.177	0.394
-657.916	-9.555	0.340	0.229
-656.901	800.000	-0.081	-0.282
-655.886	-90.828	0.221	0.064
-654.872	-134.988	-0.111	0.014
-653.857	18.034	-0.095	-0.077
-652.843	-87.771	-0.214	-0.065
-651.828	-112.516	-0.153	-0.031
-650.814	-200.000	0.012	0.195
-649.799	136.840	-0.199	0.263
-648.784	-73.500	-0.327	-0.121
-647.770	800.000	0.049	0.151
-646.755	24.044	-0.114	-0.095
-645.741	56.896	-0.041	0.041
-644.726	-82.200	-0.122	-0.040
-643.711	-15.637	-0.154	-0.099
-642.697	-61.743	0.412	0.175
-641.682	-39.482	-0.144	0.077
-640.668	-133.938	-0.458	-0.057
-639.653	117.296	-0.155	0.193
-638.638	285.627	-0.145	0.264
-637.624	460.715	-0.041	-0.093
-636.609	426.658	-0.042	-0.093
-635.595	-200.000	0.060	-0.374
-634.580	-22.860	-0.036	0.022
-633.565	800.000	-0.046	-0.196
-632.551	800.000	0.089	-0.350
-631.536	800.000	0.062	-0.259
-630.522	-89.145	-0.050	-0.015
-629.507	348.891	0.052	0.104
-628.492	-26.510	0.101	-0.060
-627.478	-200.000	-0.015	0.076
-626.463	5.192	0.309	-0.230
-625.449	-200.000	0.006	0.114
-624.434	-63.704	0.099	0.041
-623.419	65.130	0.124	0.127
-622.405	48.094	-0.197	0.186
-621.390	-149.041	0.295	-0.024
-620.376	9.795	0.190	-0.146
-619.361	417.564	0.014	0.030
-618.346	214.887	0.313	-0.501
-617.332	76.801	0.116	-0.124
-616.317	-9.815	-0.148	-0.100
-615.303	800.000	-0.024	-0.076
-614.288	-148.684	0.315	0.026
-613.273	-7.954	-0.268	0.183
-612.259	-5.455	0.270	-0.187
-611.244	-200.000	0.037	0.418
-610.230	161.585	-0.176	-0.249
-609.215	-157.408	-0.101	0.006
-608.201	800.000	-0.054	0.205
-607.186	-29.223	-0.166	-0.096
-606.171	243.045	0.101	-0.171
-605.157	19.993	0.088	0.072
-604.142	367.144	-0.046	0.093
-603.128	142.504	0.145	0.194
-602.113	-200.000	-0.001	-0.013
-601.098	-200.000	0.034	0.249
-600.084	-200.000	0.019	0.331
-599.069	-200.000	-0.230	-0.001
-598.055	332.963	-0.088	-0.172
-597.040	-200.000	0.016	-0.237
-596.025	800.000	-0.035	0.135
-595.011	38.586	0.170	0.153
-593.996	-90.758	-0.203	0.059
-592.982	800.000	0.013	0.048
-591.967	-108.990	-0.245	-0.053
-590.952	29.046	0.095	-0.081
-589.938	6.997	-0.341	0.256
-588.923	800.000	0.028	-0.108
-587.909	156.092	0.221	0.308
-586.894	-13.595	-0.313	0.205
-585.879	670.015	0.047	0.124
-584.865	160.669	-0.299	-0.422
-583.850	800.000	0.062	-0.191
-582.836	-93.169	-0.238	0.067
-581.821	122.791	-0.162	-0.205
-580.806	-105.818	-0.022	0.005
-579.792	-200.000	0.088	0.415
-578.777	-200.000	-0.044	-0.260
-577.763	578.055	-0.024	-0.058
-576.748	-200.000	-0.021	0.149
-575.733	29.932	0.154	-0.133
-574.719	56.833	0.116	-0.114
-573.704	-102.108	0.311	-0.076
-572.690	38.287	0.333	-0.299
-571.675	272.646	0.033	0.059
-570.661	-40.726	-0.272	0.142
-569.646	1.084	-0.265	0.192
-568.631	171.785	0.059	-0.086
-567.617	-127.202	-0.084	0.012
-566.602	-200.000	0.019	-0.115
-565.588	115.821	-0.028	0.035
-564.573	359.659	0.086	-0.174
-563.558	-200.000	0.006	-0.196
-562.544	104.749	-0.155	0.184
-561.529	-200.000	0.008	-0.232
-560.515	66.513	0.266	-0.272
-559.500	-200.000	0.081	-0.413
-558.485	-126.917	0.054	0.008
-557.471	611.235	0.094	0.236
-556.456	-200.000	0.039	0.353
-555.442	-157.936	-0.071	-0.004
-554.427	25.740	-0.103	-0.086
-553.412	-24.036	0.142	-0.086
-552.398	-200.000	-0.048	0.299
-551.383	800.000	0.024	-0.091
-550.369	-107.440	-0.198	-0.044
-549.354	-91.703	0.116	-0.033
-548.339	-200.000	0.010	0.106
-547.325	-166.759	-0.236	-0.010
-546.310	26.442	-0.176	0.148
-545.296	-56.336	0.122	0.054
-544.281	800.000	-0.029	-0.112
-543.266	-34.288	0.273	-0.151
-542.252	48.645	0.285	0.269
-541.237	800.000	0.046	-0.130
-540.223	257.485	0.063	0.109
-539.208	-200.000	-0.028	-0.247
-538.193	-126.852	-0.255	0.038
-537.179	71.837	0.253	0.264
-536.164	-156.123	-0.322	0.020
-535.150	-166.634	0.289	0.012
-534.135	405.071	0.057	-0.122
-533.121	-42.414	-0.262	0.135
-532.106	-200.000	0.034	-0.261
-531.091	-200.000	-0.036	-0.176
-530.077	-42.162	0.211	0.109
-529.062	-200.000	-0.048	0.303
-528.048	-108.632	-0.164	0.035
-527.033	86.112	-0.159	-0.176
-526.018	-200.000	0.050	0.358
-525.004	800.000	0.064	-0.227
-523.989	-200.000	0.033	-0.207
-522.975	-200.000	-0.020	0.215
-521.960	195.305	-0.246	-0.376
-520.945	800.000	0.048	-0.162
-519.931	800.000	-0.100	-0.370
-518.916	81.651	-0.396	-0.431
-517.902	-200.000	-0.019	0.219
-516.887	333.820	0.073	0.142
-515.872	800.000	0.110	-0.325
-514.858	-200.000	0.003	0.130
-513.843	-200.000	0.006	0.074
-512.829	800.000	0.036	-0.112
-511.814	97.222	0.187	0.216
-510.799	800.000	0.048	0.171
-509.785	152.944	0.176	-0.242
-508.770	36.189	0.108	-0.096
-507.756	120.771	-0.197	0.246
-506.741	-8.494	-0.195	0.132
-505.726	800.000	-0.033	0.097
-504.712	74.779	-0.215	-0.228
-503.697	-101.838	-0.118	0.029
-502.683	143.696	0.120	0.160
-501.668	394.115	0.117	-0.245
-500.653	380.773	0.108	0.222
-499.639	-122.734	-0.178	0.029
-498.624	-163.314	-0.664	-0.032
-497.610	-200.000	0.030	0.221
-496.595	203.390	0.048	0.075
-495.581	-200.000	-0.031	0.366
-494.566	-200.000	-0.041	-0.238
-493.551	-88.191	0.351	0.106
-492.537	-200.000	-0.001	-0.101
-491.522	-34.679	-0.350	0.193
-490.508	-200.000	0.031	0.182
-489.493	-74.841	-0.035	0.013
-488.478	-111.068	0.314	-0.065
-487.464	-55.492	-0.108	-0.048
-486.449	-70.040	-0.316	-0.121
-485.435	-1.288	-0.051	0.036
-484.420	-23.283	-0.188	-0.114
-483.405	-156.588	-0.093	0.006
-482.391	-72.077	0.183	-0.068
-481.376	-85.070	0.304	0.096
-480.362	-3.828	0.294	0.205
-479.347	-62.144	-0.234	0.098
-478.332	-85.208	0.053	0.017
-477.318	-200.000	0.020	-0.164
-476.303	39.340	-0.217	-0.195
-475.289	-94.020	0.052	0.014
-474.274	800.000	0.063	-0.211
-473.259	800.000	-0.068	-0.197
-472.245	-39.301	0.284	-0.150
-471.230	172.447	0.121	-0.174
-470.216	-177.189	0.233	-0.006
-469.201	533.007	0.053	-0.126
-468.186	-114.954	-0.089	-0.017
-467.172	147.161	-0.085	-0.115
-466.157	742.210	-0.113	0.304
-465.143	156.931	0.247	-0.343
-464.128	416.524	0.046	-0.099
-463.113	-61.451	0.170	0.072
-462.099	800.000	0.017	0.067
-461.084	-103.306	0.163	-0.039
-460.070	-0.468	-0.173	0.124
-459.055	-37.085	-0.113	0.061
-458.040	-200.000	-0.005	-0.488
-457.026	414.163	-0.091	-0.195
-456.011	-200.000	0.100	0.466
-454.997	-127.018	-0.426	0.063
-453.982	562.964	0.065	-0.158
-452.968	-2.090	-0.096	-0.068
-451.953	394.610	-0.019	0.040
-450.938	-117.864	-0.303	0.055
-449.924	-200.000	-0.017	-0.324
-448.909	-51.891	-0.062	-0.029
-447.895	-2.854	-0.437	0.306
-446.880	42.960	-0.178	0.163
-445.865	-72.112	0.191	-0.071
-444.851	-18.974	-0.130	0.081
-443.836	-200.000	-0.026	0.345
-442.822	-23.565	-0.168	0.101
-441.807	-65.414	-0.242	-0.098
-440.792	-200.000	-0.009	0.181
-439.778	-59.949	-0.305	-0.131
-438.763	119.462	0.146	0.182
-437.749	80.024	-0.083	-0.090
-436.734	-200.000	-0.027	0.208
-435.719	-72.223	0.339	-0.126
-434.705	-200.000	0.059	0.270
-433.690	-36.949	0.129	0.070
-432.676	-200.000	0.003	0.164
-431.661	143.627	-0.140	0.186
-430.646	-200.000	-0.004	-0.060
-429.632	-101.316	-0.153	0.037
-428.617	-200.000	0.014	-0.311
-427.603	130.922	-0.082	-0.106
-426.588	-91.701	-0.312	-0.089
-425.573	-85.574	-0.086	-0.027
-424.559	-200.000	0.002	0.107
-423.544	140.174	-0.070	0.093
-422.530	-51.363	0.134	0.063
-421.515	273.765	0.102	-0.181
-420.500	800.000	0.054	-0.190
-419.486	257.763	0.172	-0.297
-418.471	-30.284	0.213	-0.121
-417.457	-50.082	-0.102	-0.049
-416.442	-74.660	0.106	0.038
-415.428	200.208	0.117	0.179
-414.413	444.026	-0.097	-0.212
-413.398	301.048	0.109	-0.201
-412.384	92.738	0.006	0.007
-411.369	-84.751	0.122	0.038
-410.355	77.897	-0.152	0.163
-409.340	99.291	0.133	0.154
-408.325	132.802	-0.273	-0.353
-407.311	800.000	0.064	-0.220
-406.296	29.874	0.242	0.207
-405.282	-58.878	0.073	-0.032
-404.267	-116.450	0.300	-0.055
-403.252	147.945	-0.103	-0.139
-402.238	-153.775	-0.159	-0.011
-401.223	-132.323	0.306	-0.040
-400.209	223.873	-0.027	0.043
-399.194	-200.000	0.036	0.191
-398.179	-36.565	-0.102	-0.055
-397.165	-200.000	0.039	0.190
-396.150	78.778	0.061	-0.065
-395.136	-69.077	-0.156	0.060
-394.121	-25.976	0.202	-0.119
-393.106	51.308	-0.137	0.131
-392.092	-12.595	-0.141	-0.092
-391.077	-200.000	-0.013	-0.417
-390.063	18.657	0.296	0.237
-389.048	45.272	-0.191	-0.177
-388.033	800.000	0.028	-0.092
-387.019	-32.222	0.175	0.098
-386.004	53.771	0.195	-0.187
-384.990	-86.737	-0.154	-0.047
-383.975	219.788	-0.078	-0.124
-382.960	340.226	0.072	-0.140
-381.946	800.000	-0.045	-0.126
-380.931	-85.257	-0.251	-0.079
-379.917	44.373	0.240	0.221
-378.902	-200.000	0.480	0.002
-377.888	204.174	0.149	0.232
-376.873	800.000	0.023	0.066
-375.858	368.594	0.050	0.102
-374.844	340.915	-0.221	-0.432
-373.829	-200.000	-0.003	0.123
-372.815	-200.000	-0.035	-0.187
-371.800	796.402	-0.071	0.196
-370.785	-58.419	-0.224	-0.098
-369.771	-28.585	-0.140	-0.081
-368.756	-125.721	0.127	-0.019
-367.742	-100.859	0.182	0.045
-366.727	800.000	0.051	-0.207
-365.712	800.000	-0.052	-0.180
-364.698	40.567	-0.090	0.081
-363.683	-2.354	-0.264	0.185
-362.669	55.111	-0.123	0.119
-361.654	800.000	0.069	-0.244
-360.639	-200.000	-0.059	-0.272
-359.625	-200.000	0.020	-0.339
-358.610	-50.899	-0.137	-0.064
-357.596	-86.945	-0.271	0.083
-356.581	-200.000	0.036	0.240
-355.566	-119.076	-0.162	0.028
-354.552	130.256	0.170	0.217
-353.537	-125.617	-0.327	0.050
-352.523	-2.488	-0.169	-0.118
-351.508	-23.656	0.374	0.224
-350.493	-8.322	0.235	0.158
-349.479	261.708	0.073	-0.126
-348.464	-200.000	0.418	-0.000
-347.450	-200.000	-0.006	0.211
-346.435	90.159	-0.056	0.062
-345.420	69.447	0.052	-0.053
-344.406	-43.000	0.072	0.036
-343.391	800.000	-0.143	-0.474
-342.377	221.124	-0.119	0.190
-341.362	115.392	0.134	-0.163
-340.348	-119.525	0.351	0.061
-339.333	-95.507	0.334	0.090
-338.318	-33.093	-0.122	0.068
-337.304	-71.333	0.311	0.117
-336.289	252.315	-0.075	0.128
-335.275	-82.602	0.276	-0.089
-334.260	-6.244	0.319	0.218
-333.245	-200.000	0.017	0.141
-332.231	-70.536	0.199	0.075
-331.216	693.875	-0.127	-0.333
-330.202	-147.435	-0.215	0.018
-329.187	-97.266	-0.207	0.054
-328.172	338.281	0.105	-0.203
-327.158	-27.529	0.109	-0.063
-326.143	-61.489	-0.106	0.045
-325.129	800.000	-0.038	0.107
-324.114	224.336	0.224	-0.361
-323.099	-94.705	0.189	0.051
-322.085	-105.938	-0.096	-0.022
-321.070	-77.599	0.085	-0.029
-320.056	-200.000	-0.019	0.103
-319.041	-50.278	0.276	0.130
-318.026	800.000	0.037	0.135
-317.012	-200.000	-0.041	-0.286
-315.997	23.757	0.149	-0.123
-314.983	-18.934	0.311	-0.193
-313.968	540.216	0.082	-0.195
-312.953	26.977	-0.064	0.053
-311.939	581.897	-0.115	0.281
-310.924	-200.000	0.009	0.341
-309.910	113.558	0.010	0.012
-308.895	800.000	0.049	0.156
-307.880	23.955	-0.272	-0.224
-306.866	-124.238	-0.368	-0.057
-305.851	43.232	0.057	-0.052
-304.837	-114.539	-0.026	-0.005
-303.822	25.693	-0.114	0.095
-302.807	235.413	0.094	-0.155
-301.793	-200.000	0.077	-0.342
-300.778	800.000	0.035	-0.149
-299.764	-163.062	0.155	-0.007
-298.749	153.497	0.123	0.167
-297.735	89.991	-0.144	0.160
-296.720	-200.000	-0.024	0.253
-295.705	-163.574	0.249	-0.012
-294.691	716.094	0.105	-0.278
-293.676	456.788	0.108	0.238
-292.662	-100.427	0.246	-0.061
-291.647	122.979	-0.071	0.089
-290.632	-151.658	0.273	0.020
-289.618	366.459	-0.136	-0.274
-288.603	800.000	0.070	-0.237
-287.589	33.104	0.073	-0.063
-286.574	160.953	-0.127	0.177
-285.559	-113.189	-0.157	0.031
-284.545	-61.551	-0.198	0.083
-283.530	1.815	0.132	-0.095
-282.516	-200.000	0.028	-0.244
-281.501	340.319	0.119	-0.231
-280.486	209.979	0.205	-0.320
-279.472	-13.073	0.024	-0.016
-278.457	-30.538	-0.042	-0.024
-277.443	264.475	0.058	0.101
-276.428	4.841	0.316	0.232
-275.413	511.088	-0.086	0.200
-274.399	-3.249	0.188	-0.130
-273.384	-155.209	0.085	-0.006
-272.370	92.114	-0.043	0.049
-271.355	-94.081	0.344	0.094
-270.340	11.017	-0.195	-0.148
-269.326	408.089	-0.095	0.200
-268.311	800.000	0.093	-0.261
-267.297	156.628	-0.100	0.137
-266.282	-94.593	0.215	0.058
-265.267	-200.000	-0.041	0.706
-264.253	-200.000	-0.037	-0.167
-263.238	15.305	0.283	-0.221
-262.224	-91.892	0.182	0.051
-261.209	-19.256	0.105	0.065
-260.195	400.601	0.159	0.332
-259.180	800.000	0.105	0.386
-258.165	444.968	-0.075	0.164
-257.151	-4.718	0.393	-0.270
-256.136	692.610	-0.107	0.280
-255.122	-136.587	-0.191	0.022
-254.107	680.576	-0.082	0.212
-253.092	71.643	0.145	-0.150
-252.078	-111.868	0.079	-0.016
-251.063	44.775	0.044	0.040
-250.049	-63.325	-0.226	0.093
-249.034	-142.076	-0.264	-0.026
-248.019	-94.656	0.143	0.039
-247.005	218.953	0.150	-0.239
-245.990	-200.000	-0.069	-0.343
-244.976	66.337	0.172	0.174
-243.961	-5.623	-0.201	-0.138
-242.946	-89.256	-0.381	-0.112
-241.932	-119.833	0.297	-0.051
-240.917	11.450	-0.204	-0.155
-239.903	-123.597	-0.227	-0.036
-238.888	-67.270	0.195	-0.076
-237.873	669.415	-0.058	-0.151
-236.859	-120.116	-0.119	-0.020
-235.844	71.961	0.143	-0.148
-234.830	-166.474	0.380	0.016
-233.815	-38.969	-0.146	0.077
-232.800	-200.000	-0.018	0.395
-231.786	-167.327	0.018	-0.001
-230.771	-169.944	-0.132	0.005
-229.757	182.150	-0.012	0.018
-228.742	-4.307	-0.256	-0.176
-227.727	12.312	-0.555	0.425
-226.713	-200.000	-0.009	0.466
-225.698	-15.881	0.351	-0.222
-224.684	525.060	0.035	0.081
-223.669	0.606	-0.224	0.160
-222.655	-84.849	0.091	0.029
-221.640	47.078	0.134	0.124
-220.625	134.806	0.037	-0.047
-219.611	113.897	-0.114	-0.138
-218.596	-200.000	-0.144	-0.000
-217.582	12.543	0.461	0.353
-216.567	358.506	0.069	0.137
-215.552	-85.047	-0.226	0.070
-214.538	-39.492	-0.153	-0.080
-213.523	46.812	-0.293	-0.271
-212.509	311.084	-0.151	0.281
-211.494	800.000	0.040	-0.113
-210.479	-200.000	-0.020	-0.114
-209.465	8.236	0.276	0.206
-208.450	348.239	0.087	0.170
-207.436	5.574	-0.167	-0.123
-206.421	173.190	-0.110	-0.157
-205.406	-121.167	0.088	-0.015
-204.392	-79.680	-0.306	0.103
-203.377	-200.000	-0.012	-0.054
-202.363	-200.000	0.008	-0.125
-201.348	-200.000	-0.039	-0.281
-200.333	800.000	-0.056	-0.237
-199.319	800.000	0.087	-0.242
-198.304	40.545	0.065	-0.058
-197.290	382.069	-0.084	0.172
-196.275	-108.820	0.238	0.051
-195.260	198.498	0.123	-0.187
-194.246	-116.219	-0.142	0.026
-193.231	220.897	0.055	-0.087
-192.217	-23.869	-0.311	0.185
-191.202	40.100	-0.228	-0.203
-190.187	-57.442	0.172	0.075
-189.173	-200.000	0.025	0.128
-188.158	-200.000	0.005	-0.095
-187.144	266.732	-0.205	-0.356
-186.129	800.000	0.045	-0.155
-185.114	-200.000	-0.016	0.284
-184.100	130.170	0.133	0.169
-183.085	-84.588	0.127	0.040
-182.071	182.030	-0.171	0.250
-181.056	800.000	-0.063	0.187
-180.042	-195.271	-0.346	-0.003
-179.027	-74.337	0.296	0.106
-178.012	800.000	-0.179	0.529
-176.998	-13.182	-0.293	-0.189
-175.983	664.769	-0.054	-0.137
-174.969	186.276	-0.083	0.122
-173.954	-72.579	0.123	-0.045
-172.939	-81.548	0.417	0.136
-171.925	145.264	-0.204	0.271
-170.910	374.480	0.024	-0.048
-169.896	234.836	0.155	-0.254
-168.881	94.559	-0.205	0.231
-167.866	542.396	-0.085	-0.200
-166.852	497.007	0.077	0.177
-165.837	-200.000	0.022	0.530
-164.823	-80.493	-0.205	-0.068
-163.808	-47.072	0.126	-0.061
-162.793	-14.993	0.078	0.050
-161.779	-44.956	-0.154	0.076
-160.764	218.300	0.101	0.160
-159.750	-157.144	0.218	0.013
-158.735	235.606	0.091	-0.150
-157.720	-39.059	0.196	0.102
-156.706	-82.709	0.297	0.095
-155.691	-200.000	-0.092	0.485
-154.677	42.336	-0.129	-0.116
-153.662	-25.383	-0.170	0.100
-152.647	26.834	-0.247	0.205
-151.633	-22.210	-0.225	0.135
-150.618	800.000	-0.027	0.087
-149.604	-26.603	0.078	-0.045
-148.589	217.246	-0.084	0.133
-147.574	-119.132	-0.143	0.025
-146.560	47.001	0.037	0.034
-145.545	59.090	0.195	0.190
-144.531	334.344	0.051	-0.097
-143.516	716.200	0.075	-0.198
-142.502	-200.000	0.020	-0.161
-141.487	-200.000	0.025	0.543
-140.472	733.063	-0.068	0.181
-139.458	55.186	-0.367	-0.352
-138.443	79.558	0.259	0.276
-137.429	-75.060	0.017	-0.006
-136.414	-200.000	-0.059	-0.469
-135.399	-6.471	0.370	-0.250
-134.385	-200.000	0.030	0.156
-133.370	62.820	-0.137	0.136
-132.356	-200.000	-0.016	-0.223
-131.341	800.000	-0.060	-0.173
-130.326	-200.000	0.017	0.099
-129.312	18.418	-0.529	0.419
-128.297	-86.242	0.134	0.041
-127.283	800.000	-0.218	-0.647
-126.268	63.889	-0.260	0.259
-125.253	34.720	0.149	0.130
-124.239	153.313	0.207	0.280
-123.224	800.000	-0.083	0.300
-122.210	258.178	0.159	0.271
-121.195	800.000	-0.116	-0.364
