DTS Sentinel unit serial number:	SN413079Multiplexer serial number:	ORYXHardware model number:	OX4-SRSoftware version number:	ORYX F/W v4.00 Oryx Data Collector v3.7.2.0data status	okinstallation	princeton_trtdifferential loss correction	single-endedforward channel	channel 4reverse channel	N/Adate	2019/09/11time	20:39:11forward acquisition time	60.00reverse acquisition time	0.00gamma	496.2192k internal	0.2303k external	0.2303temperature offset calibration	1.0063default loss term (dB/km)	0.3790temperature slope calibration	1.0000multiplexer offset coefficient	1.0000multiplexer slope coefficient	1.0000fibre end	0.00T internal ref (°C)	37.31T ext. ref 1 (°C)	1.55T ext. ref 2 (°C)	30.81length (m)	temperature (°C)	Stokes	anti-Stokes-747.200	34.078	-0.207	0.183
-746.185	115.917	0.065	0.081
-745.171	-200.000	0.002	0.170
-744.156	-86.729	-0.294	-0.092
-743.142	-189.693	-0.128	0.001
-742.127	800.000	0.080	0.266
-741.112	-44.587	0.052	-0.027
-740.098	-140.576	0.283	0.030
-739.083	11.894	-0.100	-0.078
-738.069	-48.764	-0.444	0.217
-737.054	712.938	-0.057	-0.154
-736.039	-200.000	-0.089	0.000
-735.025	800.000	-0.026	0.097
-734.010	-89.857	-0.121	-0.036
-732.996	-200.000	0.046	-0.395
-731.981	45.530	0.290	-0.272
-730.966	113.955	-0.139	-0.172
-729.952	275.842	0.140	-0.252
-728.937	-152.003	-0.164	-0.012
-727.923	309.014	-0.164	-0.312
-726.908	-151.554	-0.079	0.006
-725.894	-139.056	0.256	-0.028
-724.879	800.000	0.076	-0.219
-723.864	-69.178	0.287	-0.112
-722.850	-126.747	0.128	0.019
-721.835	-200.000	0.029	-0.227
-720.821	122.219	-0.144	-0.184
-719.806	-200.000	-0.030	0.472
-718.791	-85.258	-0.270	0.086
-717.777	-175.333	0.180	0.005
-716.762	-22.511	0.127	-0.078
-715.748	-119.094	0.104	-0.018
-714.733	-11.381	0.214	0.143
-713.718	190.433	0.162	-0.247
-712.704	-200.000	0.007	0.035
-711.689	290.882	-0.061	-0.114
-710.675	391.118	0.080	-0.168
-709.660	703.309	-0.115	0.308
-708.645	178.038	0.031	0.045
-707.631	-134.556	0.144	-0.018
-706.616	514.180	0.045	-0.107
-705.602	277.011	0.185	0.334
-704.587	-6.096	0.078	-0.054
-703.572	166.362	-0.134	0.193
-702.558	67.338	0.314	-0.326
-701.543	-49.000	-0.337	-0.164
-700.529	-130.421	-0.378	-0.052
-699.514	203.411	-0.109	-0.172
-698.499	-200.000	0.020	0.202
-697.485	73.344	-0.130	0.138
-696.470	-88.877	0.133	0.040
-695.456	275.053	0.038	0.068
-694.441	-111.101	-0.281	-0.058
-693.426	800.000	-0.057	0.190
-692.412	-32.982	0.112	0.063
-691.397	580.929	-0.039	-0.096
-690.383	147.678	-0.081	0.111
-689.368	669.927	-0.137	-0.361
-688.354	-38.766	-0.236	0.126
-687.339	-200.000	0.003	0.198
-686.324	-77.819	-0.395	-0.139
-685.310	436.545	-0.110	0.244
-684.295	-13.911	-0.215	0.141
-683.281	28.270	0.157	0.134
-682.266	-116.361	0.176	0.033
-681.251	-10.211	0.174	-0.117
-680.237	-200.000	0.025	-0.154
-679.222	-120.557	-0.311	-0.054
-678.208	22.800	-0.189	-0.157
-677.193	-8.028	-0.269	-0.184
-676.178	30.532	0.133	0.115
-675.164	800.000	0.036	-0.132
-674.149	-200.000	0.015	0.273
-673.135	-56.945	-0.393	-0.176
-672.120	-28.393	0.131	-0.077
-671.105	253.678	0.135	0.234
-670.091	-200.000	0.092	0.435
-669.076	-200.000	0.023	0.114
-668.062	4.757	0.156	-0.116
-667.047	-126.013	0.135	-0.021
-666.032	158.445	-0.114	0.160
-665.018	13.983	-0.134	0.106
-664.003	-80.249	0.330	-0.112
-662.989	-64.144	0.150	0.062
-661.974	80.845	-0.235	-0.257
-660.959	800.000	-0.065	-0.279
-659.945	440.648	-0.081	-0.179
-658.930	64.665	0.181	-0.185
-657.916	-39.064	-0.093	0.050
-656.901	-77.016	0.366	0.130
-655.886	800.000	0.101	-0.288
-654.872	152.197	-0.104	-0.144
-653.857	96.343	-0.185	-0.215
-652.843	72.557	-0.156	-0.165
-651.828	-200.000	0.003	0.106
-650.814	669.576	0.082	0.216
-649.799	-18.045	0.170	-0.108
-648.784	-25.820	-0.324	-0.194
-647.770	-68.700	0.133	-0.052
-646.755	-200.000	0.039	-0.237
-645.741	682.599	-0.013	-0.034
-644.726	332.924	-0.112	0.220
-643.711	-146.392	-0.517	-0.046
-642.697	-200.000	-0.034	-0.196
-641.682	650.513	-0.105	-0.272
-640.668	178.049	0.071	-0.104
-639.653	800.000	-0.024	0.072
-638.638	-22.628	-0.463	-0.284
-637.624	-66.953	-0.475	-0.190
-636.609	-116.804	0.242	0.045
-635.595	-30.405	-0.085	-0.049
-634.580	-200.000	0.086	0.434
-633.565	-108.271	-0.189	0.041
-632.551	-28.199	0.127	0.074
-631.536	110.518	0.076	-0.092
-630.522	-200.000	0.004	-0.049
-629.507	-200.000	-0.021	-0.234
-628.492	-99.290	0.299	-0.076
-627.478	104.129	0.267	0.319
-626.463	-125.187	0.171	-0.027
-625.449	-85.385	-0.142	0.045
-624.434	19.049	-0.208	0.169
-623.419	-200.000	-0.017	-0.351
-622.405	255.730	0.026	-0.045
-621.390	-191.456	0.304	-0.003
-620.376	7.310	-0.198	-0.150
-619.361	800.000	0.136	-0.439
-618.346	-136.732	0.231	0.027
-617.332	647.975	-0.099	0.257
-616.317	35.808	0.139	-0.124
-615.303	-109.071	-0.300	-0.065
-614.288	-3.516	-0.186	0.131
-613.273	-200.000	0.046	0.244
-612.259	75.164	-0.060	-0.064
-611.244	635.086	0.083	0.213
-610.230	-200.000	-0.024	0.153
-609.215	-99.014	-0.112	0.029
-608.201	800.000	0.035	-0.144
-607.186	22.772	0.190	-0.158
-606.171	-200.000	0.008	-0.221
-605.157	-63.356	0.343	0.143
-604.142	-32.554	-0.194	0.109
-603.128	-200.000	0.020	-0.208
-602.113	65.528	-0.134	0.138
-601.098	63.525	-0.059	-0.060
-600.084	-134.992	0.131	-0.016
-599.069	542.666	0.142	-0.343
-598.055	15.337	-0.465	0.369
-597.040	105.011	-0.126	-0.151
-596.025	41.005	-0.167	-0.153
-595.011	653.927	-0.067	-0.175
-593.996	-159.293	-0.313	0.018
-592.982	-200.000	-0.024	-0.125
-591.967	33.890	-0.054	0.047
-590.952	317.616	-0.089	-0.171
-589.938	259.425	-0.116	0.202
-588.923	800.000	0.037	-0.126
-587.909	37.611	0.184	-0.165
-586.894	31.062	-0.107	-0.093
-585.879	-22.602	0.198	0.121
-584.865	-112.867	-0.161	-0.032
-583.850	-200.000	-0.047	0.306
-582.836	-200.000	0.055	0.333
-581.821	-50.243	0.229	0.110
-580.806	59.492	0.098	0.098
-579.792	-157.277	-0.316	-0.019
-578.777	30.737	0.193	0.167
-577.763	-76.461	-0.047	0.017
-576.748	38.918	0.100	-0.090
-575.733	800.000	0.105	-0.310
-574.719	-121.683	-0.177	0.030
-573.704	380.472	0.141	0.293
-572.690	13.492	-0.124	0.097
-571.675	326.474	0.041	-0.079
-570.661	261.868	0.167	0.292
-569.646	800.000	0.062	0.179
-568.631	388.628	-0.041	0.087
-567.617	-110.092	-0.321	-0.068
-566.602	52.699	-0.064	0.062
-565.588	800.000	-0.062	0.229
-564.573	800.000	0.040	-0.177
-563.558	-158.895	0.129	-0.007
-562.544	133.662	-0.097	-0.128
-561.529	-23.168	-0.039	0.024
-560.515	-92.605	0.346	0.098
-559.500	800.000	0.064	-0.203
-558.485	6.492	0.316	-0.238
-557.471	4.351	-0.206	-0.152
-556.456	85.271	0.300	0.333
-555.442	-200.000	0.014	-0.232
-554.427	-101.104	-0.285	0.071
-553.412	-200.000	0.049	0.217
-552.398	15.703	-0.120	-0.096
-551.383	160.030	-0.075	0.105
-550.369	-26.150	0.178	0.106
-549.354	507.389	-0.099	-0.231
-548.339	-77.194	0.100	0.035
-547.325	-134.924	0.249	0.030
-546.310	218.241	-0.055	-0.088
-545.296	-96.269	0.133	0.036
-544.281	306.371	0.110	0.207
-543.266	-187.841	0.166	0.002
-542.252	-2.335	0.109	-0.077
-541.237	-200.000	-0.058	0.374
-540.223	-200.000	0.003	0.263
-539.208	-148.803	-0.156	0.013
-538.193	-200.000	-0.015	-0.088
-537.179	-14.783	-0.234	0.152
-536.164	-110.845	0.275	-0.057
-535.150	104.338	-0.237	0.282
-534.135	800.000	-0.021	0.071
-533.121	-128.054	0.201	-0.029
-532.106	-40.653	-0.033	-0.017
-531.091	159.868	0.096	-0.135
-530.077	-200.000	0.021	0.097
-529.062	-56.440	0.248	0.111
-528.048	27.597	0.403	0.343
-527.033	-200.000	0.007	0.082
-526.018	-200.000	0.005	0.080
-525.004	-99.289	0.363	0.092
-523.989	-200.000	-0.016	0.079
-522.975	258.090	0.109	-0.189
-521.960	-200.000	0.047	0.229
-520.945	-200.000	0.014	0.238
-519.931	-200.000	0.023	0.259
-518.916	-151.019	-0.537	-0.041
-517.902	58.823	-0.065	0.064
-516.887	169.199	0.094	-0.135
-515.872	44.566	-0.174	-0.161
-514.858	-200.000	0.021	-0.117
-513.843	-198.075	-0.225	0.001
-512.829	112.266	0.184	0.224
-511.814	40.437	-0.111	0.101
-510.799	800.000	-0.042	-0.166
-509.785	-58.333	-0.199	-0.087
-508.770	71.223	-0.092	0.096
-507.756	-4.805	-0.306	0.213
-506.741	98.253	0.050	0.058
-505.726	-200.000	-0.027	-0.315
-504.712	-98.365	-0.135	0.035
-503.697	139.494	0.177	0.235
-502.683	372.762	-0.162	0.332
-501.668	112.531	0.155	0.189
-500.653	-179.192	0.157	0.004
-499.639	-46.571	-0.245	-0.121
-498.624	-200.000	0.054	0.271
-497.610	-67.547	-0.045	0.018
-496.595	800.000	-0.029	-0.120
-495.581	-139.232	-0.123	0.013
-494.566	205.795	-0.191	0.300
-493.551	-200.000	0.072	-0.334
-492.537	32.841	-0.122	0.106
-491.522	-69.634	0.191	0.074
-490.508	-184.995	0.316	0.005
-489.493	-41.636	-0.497	-0.258
-488.478	-74.118	0.007	-0.003
-487.464	800.000	-0.034	0.126
-486.449	-200.000	0.020	-0.330
-485.435	-200.000	-0.003	0.085
-484.420	-83.057	0.160	0.052
-483.405	-142.921	-0.100	-0.010
-482.391	-5.723	0.042	-0.029
-481.376	-105.765	-0.081	-0.019
-480.362	800.000	-0.093	-0.266
-479.347	627.032	-0.154	-0.392
-478.332	800.000	-0.016	-0.056
-477.318	-49.490	0.233	-0.112
-476.303	800.000	0.072	-0.248
-475.289	101.096	-0.082	0.096
-474.274	-30.621	-0.187	0.107
-473.259	188.525	0.114	0.172
-472.245	-128.607	0.272	-0.039
-471.230	567.697	-0.047	0.114
-470.216	82.340	0.277	-0.303
-469.201	196.669	0.116	0.178
-468.186	800.000	-0.095	0.303
-467.172	-8.260	0.493	-0.334
-466.157	-91.299	-0.270	0.078
-465.143	567.474	0.105	-0.257
-464.128	-45.515	-0.262	-0.131
-463.113	-112.498	0.044	0.009
-462.099	-200.000	-0.019	0.168
-461.084	-200.000	-0.018	0.184
-460.070	-12.317	0.171	0.112
-459.055	-200.000	0.011	0.114
-458.040	-78.310	-0.252	-0.087
-457.026	281.107	-0.077	-0.140
-456.011	267.087	0.042	-0.074
-454.997	268.032	0.095	-0.168
-453.982	-113.354	0.239	0.047
-452.968	200.176	0.067	0.104
-451.953	145.710	0.018	-0.025
-450.938	32.976	-0.063	-0.055
-449.924	-1.866	0.325	0.231
-448.909	-200.000	0.076	0.363
-447.895	-118.272	-0.150	-0.027
-446.880	-200.000	0.005	-0.167
-445.865	800.000	-0.034	-0.095
-444.851	16.295	-0.104	-0.082
-443.836	6.008	0.106	0.079
-442.822	800.000	0.033	0.127
-441.807	-200.000	-0.056	-0.256
-440.792	693.622	0.093	-0.246
-439.778	-36.904	-0.037	-0.020
-438.763	-63.954	-0.300	0.124
-437.749	791.670	-0.109	0.301
-436.734	-7.895	0.135	0.092
-435.719	-200.000	-0.005	-0.044
-434.705	-200.000	-0.054	-0.288
-433.690	67.424	0.088	-0.091
-432.676	-123.335	0.108	0.017
-431.661	159.416	0.194	0.271
-430.646	-58.869	-0.098	0.042
-429.632	318.759	0.117	-0.224
-428.617	150.085	0.138	-0.188
-427.603	-104.591	0.518	-0.120
-426.588	278.416	0.152	-0.272
-425.573	248.138	-0.119	0.202
-424.559	-200.000	-0.032	-0.175
-423.544	-99.156	0.023	-0.006
-422.530	121.956	-0.328	0.412
-421.515	-100.479	0.246	0.061
-420.500	-49.984	0.140	-0.067
-419.486	-43.276	0.036	0.019
-418.471	9.187	0.169	0.129
-417.457	42.690	-0.222	0.203
-416.442	-120.526	0.191	0.033
-415.428	63.427	0.233	0.235
-414.413	-10.064	0.058	-0.039
-413.398	-94.012	-0.325	0.090
-412.384	24.495	0.113	0.094
-411.369	192.154	0.149	-0.226
-410.355	3.434	0.089	-0.065
-409.340	-30.592	-0.213	0.122
-408.325	800.000	0.036	-0.124
-407.311	800.000	0.050	0.220
-406.296	-200.000	-0.017	0.277
-405.282	-44.123	-0.126	0.064
-404.267	8.627	0.103	-0.078
-403.252	-190.069	-0.315	0.004
-402.238	-121.042	-0.370	0.062
-401.223	-200.000	0.001	0.152
-400.209	42.657	0.161	0.148
-399.194	-200.000	0.021	-0.111
-398.179	530.871	-0.138	-0.328
-397.165	-37.453	0.101	0.054
-396.150	70.090	0.118	0.122
-395.136	-129.892	0.057	-0.008
-394.121	-61.723	0.128	-0.054
-393.106	-76.802	-0.086	-0.030
-392.092	-96.120	-0.384	0.103
-391.077	-200.000	0.047	0.323
-390.063	-160.388	-0.102	-0.005
-389.048	-60.153	-0.180	-0.077
-388.033	-162.777	-0.088	0.004
-387.019	524.054	-0.039	0.093
-386.004	58.182	-0.192	0.189
-384.990	-39.640	-0.182	-0.096
-383.975	-8.838	0.219	0.147
-382.960	-4.736	-0.089	-0.062
-381.946	465.325	-0.184	-0.413
-380.931	-200.000	0.030	-0.292
-379.917	800.000	-0.094	0.384
-378.902	60.052	-0.165	-0.164
-377.888	-11.666	-0.118	-0.077
-376.873	-49.185	0.206	-0.099
-375.858	-122.280	-0.223	-0.037
-374.844	72.969	0.149	-0.156
-373.829	-200.000	-0.003	-0.018
-372.815	49.431	0.228	-0.215
-371.800	212.125	-0.070	0.110
-370.785	-67.940	-0.158	-0.062
-369.771	-68.379	0.369	0.144
-368.756	800.000	0.023	-0.097
-367.742	-157.515	-0.197	-0.012
-366.727	-22.193	0.302	-0.184
-365.712	-3.877	-0.208	-0.145
-364.698	-176.420	-0.244	0.006
-363.683	62.828	-0.132	-0.133
-362.669	67.314	-0.069	0.070
-361.654	-104.469	0.271	0.063
-360.639	75.017	-0.101	0.107
-359.625	-58.095	-0.427	0.187
-358.610	538.995	-0.041	0.097
-357.596	208.421	-0.140	-0.220
-356.581	-105.355	-0.156	-0.036
-355.566	-73.176	0.303	-0.111
-354.552	-132.325	-0.150	0.019
-353.537	-89.648	0.390	0.115
-352.523	-70.478	0.337	0.128
-351.508	-95.221	-0.091	-0.024
-350.493	8.171	-0.265	-0.200
-349.479	-141.723	-0.348	-0.035
-348.464	595.599	0.135	-0.335
-347.450	800.000	-0.046	-0.144
-346.435	-3.307	0.028	0.019
-345.420	35.280	0.179	0.157
-344.406	-54.249	-0.042	-0.019
-343.391	-126.084	-0.150	0.023
-342.377	-200.000	0.006	0.055
-341.362	299.128	-0.141	-0.259
-340.348	800.000	-0.014	-0.061
-339.333	-47.230	0.011	-0.005
-338.318	-91.841	0.160	0.046
-337.304	800.000	-0.035	0.114
-336.289	-200.000	-0.032	0.469
-335.275	391.378	0.060	0.125
-334.260	-94.798	0.093	-0.025
-333.245	-176.820	0.321	0.008
-332.231	63.554	-0.124	0.125
-331.216	140.230	0.200	0.264
-330.202	800.000	-0.020	0.060
-329.187	-59.728	-0.343	-0.147
-328.172	130.733	0.203	-0.260
-327.158	108.263	0.133	-0.159
-326.143	121.330	0.037	-0.046
-325.129	72.258	-0.182	0.190
-324.114	13.270	0.155	-0.121
-323.099	800.000	-0.064	0.271
-322.085	-33.266	0.040	0.022
-321.070	-187.374	-0.320	0.004
-320.056	516.742	0.103	0.241
-319.041	-200.000	0.008	0.098
-318.026	3.159	-0.143	-0.104
-317.012	79.566	-0.348	0.374
-315.997	6.850	0.113	0.084
-314.983	194.883	-0.054	-0.082
-313.968	-136.062	0.265	-0.031
-312.953	-200.000	-0.017	-0.151
-311.939	-11.260	0.234	-0.155
-310.924	-82.187	-0.317	-0.104
-309.910	480.796	-0.209	-0.475
-308.895	-200.000	-0.012	0.413
-307.880	-22.405	-0.086	0.052
-306.866	-188.756	-0.254	-0.003
-305.851	200.725	0.034	0.052
-304.837	-23.463	-0.085	-0.051
-303.822	62.754	0.232	-0.233
-302.807	481.512	-0.015	-0.034
-301.793	800.000	0.083	-0.291
-300.778	-4.981	-0.303	-0.209
-299.764	-37.601	-0.099	-0.053
-298.749	800.000	0.070	-0.222
-297.735	294.165	-0.259	-0.473
-296.720	-17.134	-0.293	-0.185
-295.705	-3.590	0.020	0.014
-294.691	400.435	0.048	0.100
-293.676	800.000	0.040	-0.150
-292.662	-77.684	-0.105	-0.036
-291.647	71.478	-0.126	0.130
-290.632	-75.651	0.205	0.073
-289.618	-200.000	-0.011	0.109
-288.603	1.707	0.138	0.099
-287.589	-200.000	0.042	0.254
-286.574	-93.395	0.250	0.069
-285.559	-92.524	-0.209	0.059
-284.545	-96.852	0.051	0.014
-283.530	-200.000	0.013	-0.073
-282.516	195.953	-0.166	0.252
-281.501	-75.277	0.078	0.028
-280.486	576.983	0.093	-0.227
-279.472	70.181	-0.201	-0.207
-278.457	-175.972	0.168	-0.004
-277.443	109.595	0.058	-0.070
-276.428	-15.349	0.156	0.100
-275.413	-65.809	0.265	-0.106
-274.399	347.609	-0.074	-0.145
-273.384	66.781	-0.104	-0.106
-272.370	117.596	0.112	0.137
-271.355	32.620	-0.182	0.157
-270.340	-124.821	0.149	-0.023
-269.326	800.000	-0.082	-0.302
-268.311	519.889	-0.081	-0.190
-267.297	129.314	0.105	-0.134
-266.282	151.896	-0.098	0.133
-265.267	-77.848	0.051	0.017
-264.253	800.000	0.073	-0.237
-263.238	186.166	0.147	0.218
-262.224	54.502	0.135	0.130
-261.209	3.512	-0.094	0.069
-260.195	-32.929	0.074	0.041
-259.180	-111.322	0.339	-0.069
-258.165	800.000	-0.010	0.034
-257.151	-200.000	0.031	-0.179
-256.136	146.144	0.110	-0.148
-255.122	469.051	0.108	0.243
-254.107	-112.756	-0.206	-0.041
-253.092	-200.000	-0.016	-0.103
-252.078	110.392	0.299	-0.359
-251.063	-114.132	0.351	0.068
-250.049	-36.266	0.131	-0.070
-249.034	-163.320	-0.259	-0.012
-248.019	106.850	0.248	0.294
-247.005	-104.395	-0.057	-0.013
-245.990	32.470	-0.140	0.121
-244.976	800.000	-0.043	-0.149
-243.961	-149.357	-0.192	-0.015
-242.946	373.606	0.088	-0.179
-241.932	-150.464	0.044	-0.003
-240.917	-73.917	0.141	-0.051
-239.903	-31.295	-0.416	0.234
-238.888	-27.560	-0.193	-0.112
-237.873	237.193	0.100	-0.165
-236.859	-137.763	-0.354	0.040
-235.844	298.858	-0.155	-0.285
-234.830	523.723	0.099	-0.232
-233.815	-200.000	-0.037	0.240
-232.800	783.177	0.056	0.153
-231.786	-73.677	-0.281	0.102
-230.771	-86.285	-0.271	-0.083
-229.757	-200.000	-0.058	-0.311
-228.742	231.006	-0.263	-0.429
-227.727	345.971	-0.051	-0.099
-226.713	-60.638	-0.057	-0.024
-225.698	9.009	0.244	0.184
-224.684	-78.616	0.209	0.071
-223.669	432.973	0.053	0.114
-222.655	-200.000	-0.016	-0.138
-221.640	-56.662	0.208	-0.092
-220.625	30.678	0.148	-0.127
-219.611	-32.031	-0.217	0.121
-218.596	-10.997	0.280	-0.185
-217.582	-85.986	-0.168	0.052
-216.567	-200.000	0.010	0.286
-215.552	63.656	0.366	0.367
-214.538	-127.834	0.486	-0.070
-213.523	-150.359	0.394	0.030
-212.509	800.000	-0.086	-0.312
-211.494	800.000	-0.102	-0.374
-210.479	-45.391	-0.270	0.134
-209.465	-114.139	-0.123	-0.024
-208.450	77.906	-0.097	-0.103
-207.436	-168.311	0.286	-0.011
-206.421	-150.989	-0.194	-0.015
-205.406	-66.774	0.263	-0.104
-204.392	-54.978	-0.171	0.077
-203.377	79.056	0.147	-0.157
-202.363	442.403	-0.077	-0.169
-201.348	-200.000	-0.014	-0.098
-200.333	800.000	0.044	0.187
-199.319	-14.954	0.136	-0.087
-198.304	120.050	0.145	0.179
-197.290	-200.000	-0.017	-0.113
-196.275	101.987	0.354	0.412
-195.260	190.489	-0.147	0.220
-194.246	130.724	0.163	-0.209
-193.231	30.352	-0.240	-0.205
-192.217	283.115	0.098	-0.176
-191.202	-107.230	-0.103	-0.023
-190.187	-200.000	0.015	-0.120
-189.173	-200.000	0.037	0.213
-188.158	-200.000	-0.009	0.514
-187.144	-35.659	0.061	-0.033
-186.129	451.636	0.122	0.268
-185.114	-200.000	-0.004	-0.153
-184.100	-40.332	-0.101	0.052
-183.085	126.351	-0.106	-0.133
-182.071	-145.803	0.252	-0.022
-181.056	-132.610	0.401	-0.051
-180.042	14.402	0.047	0.036
-179.027	400.927	0.183	-0.382
-178.012	-122.854	-0.277	-0.045
-176.998	-59.295	-0.225	-0.096
-175.983	-164.998	0.549	-0.024
-174.969	-134.195	0.380	-0.047
-173.954	-144.046	-0.098	0.009
-172.939	800.000	0.102	0.311
-171.925	23.221	-0.191	-0.157
-170.910	15.206	0.201	0.157
-169.896	-21.941	-0.138	-0.083
-168.881	-2.521	0.120	-0.084
-167.866	7.683	-0.250	0.187
-166.852	374.184	0.125	0.253
-165.837	111.648	0.039	-0.047
-164.823	-99.983	-0.104	0.026
-163.808	-166.870	-0.054	0.002
-162.793	391.700	0.100	0.207
-161.779	38.746	0.263	0.234
-160.764	212.585	-0.077	0.120
-159.750	12.625	0.106	-0.081
-158.735	-200.000	0.032	0.368
-157.720	-114.308	-0.327	0.063
-156.706	422.465	-0.026	0.056
-155.691	-6.120	-0.146	0.099
-154.677	111.187	-0.168	-0.202
-153.662	76.483	-0.143	0.151
-152.647	-132.915	0.077	-0.010
-151.633	151.865	-0.199	0.270
-150.618	84.384	-0.167	-0.182
-149.604	-200.000	0.017	0.096
-148.589	-7.513	-0.121	0.082
-147.574	-200.000	-0.045	0.375
-146.560	-118.757	-0.177	-0.031
-145.545	-200.000	-0.006	0.113
-144.531	-58.096	0.232	0.101
-143.516	-119.928	-0.148	0.025
-142.502	-200.000	-0.017	-0.140
-141.487	4.549	0.073	0.054
-140.472	-9.583	-0.043	-0.029
-139.458	-91.869	0.470	0.133
-138.443	-200.000	-0.018	0.097
-137.429	-108.875	0.352	0.075
-136.414	-200.000	0.046	-0.280
-135.399	-200.000	0.002	-0.249
-134.385	-200.000	0.044	0.209
-133.370	-42.936	0.052	0.026
-132.356	-116.409	-0.177	-0.033
-131.341	62.887	-0.171	-0.170
-130.326	34.238	0.061	0.053
-129.312	18.538	0.294	0.234
-128.297	800.000	-0.033	-0.121
-127.283	56.256	-0.131	0.126
-126.268	-200.000	-0.023	0.421
-125.253	178.401	0.112	0.163
-124.239	-93.362	0.163	0.045
-123.224	-167.271	0.104	-0.004
-122.210	707.500	0.107	-0.280
-121.195	-200.000	-0.033	0.295
