DTS Sentinel unit serial number:	SN413079Multiplexer serial number:	ORYXHardware model number:	OX4-SRSoftware version number:	ORYX F/W v4.00 Oryx Data Collector v3.7.2.0data status	okinstallation	princeton_trtdifferential loss correction	single-endedforward channel	channel 4reverse channel	N/Adate	2019/09/11time	20:03:10forward acquisition time	60.00reverse acquisition time	0.00gamma	496.2192k internal	0.2301k external	0.2301temperature offset calibration	1.0047default loss term (dB/km)	0.3790temperature slope calibration	1.0000multiplexer offset coefficient	1.0000multiplexer slope coefficient	1.0000fibre end	0.00T internal ref (°C)	38.69T ext. ref 1 (°C)	1.39T ext. ref 2 (°C)	31.99length (m)	temperature (°C)	Stokes	anti-Stokes-747.200	-37.081	0.138	-0.076
-746.185	-60.410	-0.270	0.117
-745.171	2.813	0.148	-0.109
-744.156	96.709	-0.067	0.078
-743.142	-200.000	0.026	0.335
-742.127	33.574	-0.323	0.287
-741.112	-200.000	-0.000	0.097
-740.098	210.772	-0.169	0.272
-739.083	14.149	0.231	0.183
-738.069	462.137	-0.079	-0.180
-737.054	301.210	-0.198	0.372
-736.039	-183.293	-0.364	0.006
-735.025	217.296	0.006	-0.009
-734.010	-191.374	-0.327	0.003
-732.996	78.918	-0.123	-0.134
-731.981	135.234	0.118	-0.157
-730.966	25.336	-0.154	-0.130
-729.952	-128.929	0.144	-0.021
-728.937	-27.230	0.061	0.036
-727.923	-143.523	0.187	0.018
-726.908	107.204	-0.053	-0.064
-725.894	-200.000	0.017	0.173
-724.879	33.620	-0.470	-0.416
-723.864	316.974	-0.050	0.095
-722.850	-34.723	0.417	-0.232
-721.835	38.892	-0.045	-0.041
-720.821	800.000	0.055	-0.211
-719.806	357.178	-0.086	0.174
-718.791	8.117	-0.270	0.207
-717.777	417.621	0.103	-0.225
-716.762	-100.218	0.320	-0.081
-715.748	6.890	0.348	-0.264
-714.733	215.537	0.127	-0.206
-713.718	-200.000	0.030	-0.281
-712.704	146.255	-0.092	0.126
-711.689	800.000	0.079	-0.296
-710.675	401.673	-0.046	-0.098
-709.660	-200.000	0.032	0.304
-708.645	800.000	0.045	0.169
-707.631	-50.474	-0.255	-0.122
-706.616	131.065	0.238	0.311
-705.602	-200.000	0.068	-0.460
-704.587	800.000	-0.095	-0.338
-703.572	-125.103	0.160	0.025
-702.558	800.000	0.094	-0.311
-701.543	-11.801	0.224	0.150
-700.529	-200.000	-0.030	-0.273
-699.514	800.000	-0.117	-0.345
-698.499	-44.672	0.162	-0.082
-697.485	-200.000	0.018	-0.204
-696.470	-76.336	0.273	-0.098
-695.456	1.867	-0.200	0.147
-694.441	800.000	-0.052	-0.199
-693.426	19.499	0.101	-0.083
-692.412	5.329	0.294	0.221
-691.397	-114.906	-0.183	0.035
-690.383	-200.000	-0.019	0.158
-689.368	-200.000	0.039	0.194
-688.354	11.558	0.113	-0.088
-687.339	-29.085	-0.062	-0.036
-686.324	77.698	0.023	-0.025
-685.310	-148.886	-0.220	-0.018
-684.295	-8.995	0.261	0.178
-683.281	-200.000	-0.029	-0.403
-682.266	18.322	0.244	0.198
-681.251	800.000	-0.056	-0.240
-680.237	261.956	0.031	0.054
-679.222	-200.000	-0.004	-0.099
-678.208	526.141	0.049	-0.117
-677.193	268.323	-0.114	-0.203
-676.178	248.732	0.110	0.189
-675.164	42.753	-0.208	0.193
-674.149	800.000	-0.018	0.072
-673.135	171.166	-0.117	-0.171
-672.120	146.811	0.049	0.067
-671.105	-44.507	0.434	0.221
-670.091	212.864	-0.076	0.122
-669.076	-200.000	-0.008	-0.268
-668.062	-136.728	-0.336	0.039
-667.047	678.778	-0.159	-0.422
-666.032	-150.947	-0.218	0.017
-665.018	-146.858	-0.139	-0.012
-664.003	7.093	-0.323	-0.245
-662.989	-54.928	0.194	-0.089
-661.974	63.679	0.071	-0.072
-660.959	-95.622	-0.065	0.018
-659.945	-200.000	-0.001	-0.189
-658.930	-186.273	0.213	-0.003
-657.916	-162.911	-0.275	0.014
-656.901	264.573	0.223	-0.394
-655.886	160.370	0.216	-0.306
-654.872	-90.561	-0.114	-0.034
-653.857	176.223	-0.093	-0.138
-652.843	269.522	-0.103	0.184
-651.828	-11.073	-0.110	0.073
-650.814	-138.742	0.342	0.038
-649.799	-200.000	0.038	0.283
-648.784	-85.007	-0.278	-0.089
-647.770	-17.939	-0.343	0.219
-646.755	-51.094	-0.037	0.017
-645.741	-200.000	-0.037	0.178
-644.726	-158.607	0.415	0.024
-643.711	-200.000	-0.023	-0.257
-642.697	800.000	0.088	-0.282
-641.682	544.266	0.120	-0.291
-640.668	-62.272	-0.093	0.039
-639.653	408.097	-0.079	-0.170
-638.638	-89.853	-0.230	-0.068
-637.624	-12.062	-0.147	-0.098
-636.609	687.802	-0.084	-0.222
-635.595	-149.661	0.050	-0.004
-634.580	298.362	0.170	-0.317
-633.565	-35.648	0.085	-0.047
-632.551	-41.722	0.205	-0.107
-631.536	-123.754	-0.171	0.027
-630.522	-200.000	-0.026	-0.161
-629.507	-77.753	0.227	0.080
-628.492	-71.678	-0.171	0.065
-627.478	-52.080	-0.119	0.056
-626.463	685.463	0.066	-0.174
-625.449	73.918	0.161	-0.171
-624.434	17.950	-0.163	-0.132
-623.419	-92.219	0.466	-0.133
-622.405	406.970	0.033	-0.070
-621.390	800.000	-0.048	0.163
-620.376	617.042	0.074	0.189
-619.361	800.000	0.027	-0.095
-618.346	-4.661	-0.082	0.057
-617.332	305.131	0.129	-0.244
-616.317	-24.631	-0.123	0.074
-615.303	-200.000	-0.022	0.117
-614.288	224.914	-0.126	0.206
-613.273	800.000	-0.038	-0.152
-612.259	-200.000	-0.015	-0.142
-611.244	-56.379	0.040	-0.018
-610.230	-113.619	0.135	0.027
-609.215	-5.802	0.136	0.094
-608.201	800.000	-0.108	-0.340
-607.186	371.808	-0.122	0.251
-606.171	-171.836	0.537	-0.018
-605.157	-78.337	-0.208	0.072
-604.142	-70.427	0.256	-0.098
-603.128	26.127	-0.220	-0.186
-602.113	333.538	-0.044	-0.086
-601.098	-84.919	0.251	-0.080
-600.084	30.893	-0.153	-0.133
-599.069	-91.911	0.204	0.059
-598.055	520.231	0.053	0.127
-597.040	-200.000	-0.034	0.154
-596.025	-66.719	0.052	-0.021
-595.011	-200.000	-0.003	0.207
-593.996	-200.000	-0.033	0.240
-592.982	27.521	0.155	0.132
-591.967	30.921	-0.143	-0.125
-590.952	-9.632	-0.107	-0.072
-589.938	-2.314	-0.191	0.136
-588.923	271.642	0.161	-0.288
-587.909	163.842	0.040	0.057
-586.894	54.620	0.101	0.098
-585.879	-200.000	-0.002	-0.060
-584.865	40.739	-0.152	-0.139
-583.850	46.805	-0.059	-0.055
-582.836	-200.000	-0.034	-0.153
-581.821	159.760	0.215	-0.304
-580.806	-74.179	-0.192	0.071
-579.792	-83.711	-0.232	-0.075
-578.777	800.000	0.050	0.193
-577.763	-200.000	0.007	-0.267
-576.748	6.593	-0.338	-0.254
-575.733	33.229	-0.041	0.036
-574.719	-200.000	0.019	0.368
-573.704	800.000	-0.045	0.182
-572.690	-169.914	-0.128	-0.005
-571.675	-145.722	0.136	0.012
-570.661	105.888	0.107	-0.128
-569.646	-43.537	0.179	0.091
-568.631	247.581	-0.004	-0.006
-567.617	-169.051	-0.447	0.017
-566.602	4.768	-0.089	-0.067
-565.588	-42.709	-0.167	-0.086
-564.573	309.846	0.169	0.320
-563.558	800.000	0.017	0.073
-562.544	-87.804	-0.227	0.069
-561.529	704.216	0.079	-0.211
-560.515	-68.467	-0.430	-0.169
-559.500	740.560	0.149	-0.405
-558.485	-200.000	0.039	-0.267
-557.471	-125.137	-0.311	-0.048
-556.456	-200.000	-0.014	-0.258
-555.442	-145.759	-0.257	-0.023
-554.427	-109.728	0.082	-0.018
-553.412	800.000	-0.039	-0.160
-552.398	-20.888	-0.197	-0.122
-551.383	29.946	0.232	0.200
-550.369	-9.071	0.271	-0.184
-549.354	-18.763	-0.238	-0.150
-548.339	76.313	0.278	0.298
-547.325	-138.705	-0.398	0.044
-546.310	-0.280	0.272	0.196
-545.296	-152.581	0.211	0.015
-544.281	-200.000	0.020	0.196
-543.266	488.208	0.096	-0.222
-542.252	71.971	0.276	-0.291
-541.237	252.737	0.147	-0.253
-540.223	-45.162	0.297	0.150
-539.208	-166.395	0.074	-0.003
-538.193	163.644	-0.025	0.035
-537.179	-7.749	-0.110	-0.075
-536.164	-200.000	-0.020	-0.170
-535.150	-200.000	0.002	0.166
-534.135	-149.568	-0.089	0.007
-533.121	-9.115	0.385	-0.260
-532.106	-87.733	-0.091	-0.028
-531.091	-53.887	-0.565	-0.260
-530.077	-90.560	0.275	0.080
-529.062	-52.593	0.234	0.109
-528.048	-77.665	0.155	0.054
-527.033	276.747	0.237	-0.425
-526.018	26.683	-0.103	-0.087
-525.004	0.892	0.099	0.072
-523.989	-9.098	-0.159	-0.107
-522.975	-37.074	0.168	-0.091
-521.960	207.436	-0.101	0.160
-520.945	1.324	0.154	-0.112
-519.931	499.320	-0.006	0.014
-518.916	-180.002	0.178	0.004
-517.902	253.640	-0.113	0.195
-516.887	83.617	-0.072	-0.080
-515.872	62.365	-0.264	0.266
-514.858	-96.923	0.165	-0.044
-513.843	-200.000	-0.023	-0.240
-512.829	-79.387	0.332	-0.113
-511.814	322.009	-0.125	0.240
-510.799	-45.796	-0.243	0.121
-509.785	98.744	-0.124	0.145
-508.770	41.117	0.210	0.192
-507.756	243.339	0.130	-0.220
-506.741	144.600	-0.034	-0.046
-505.726	-55.909	-0.398	0.180
-504.712	-115.238	0.217	-0.041
-503.697	60.017	0.122	0.122
-502.683	-200.000	0.001	-0.014
-501.668	-82.607	0.244	-0.080
-500.653	-78.472	0.109	0.038
-499.639	263.999	0.101	0.178
-498.624	50.512	0.071	-0.068
-497.610	18.441	0.113	0.091
-496.595	301.410	0.044	-0.083
-495.581	-200.000	-0.043	0.353
-494.566	-75.504	0.190	0.068
-493.551	346.533	-0.067	-0.133
-492.537	194.662	-0.086	0.131
-491.522	318.491	0.116	-0.221
-490.508	74.783	-0.186	-0.198
-489.493	98.599	0.167	-0.194
-488.478	-63.990	0.075	-0.031
-487.464	-35.713	0.084	0.046
-486.449	314.348	0.041	0.078
-485.435	-200.000	-0.007	-0.220
-484.420	-40.824	0.236	-0.123
-483.405	-200.000	-0.017	0.178
-482.391	-51.443	-0.271	0.128
-481.376	516.954	-0.029	0.068
-480.362	-94.114	-0.034	-0.009
-479.347	316.937	-0.055	0.105
-478.332	25.131	0.184	0.154
-477.318	-38.517	0.244	-0.130
-476.303	623.821	-0.071	0.181
-475.289	-57.149	-0.355	-0.158
-474.274	-109.833	0.118	-0.025
-473.259	39.778	-0.240	-0.218
-472.245	800.000	0.086	0.249
-471.230	-159.894	-0.328	-0.018
-470.216	-200.000	0.025	0.212
-469.201	-134.867	0.312	-0.038
-468.186	196.160	-0.060	0.092
-467.172	-84.723	0.199	0.063
-466.157	108.453	-0.162	0.195
-465.143	800.000	-0.021	0.076
-464.128	333.777	0.120	0.233
-463.113	-111.604	-0.232	-0.047
-462.099	-85.911	0.103	0.032
-461.084	-65.621	0.257	-0.104
-460.070	14.474	0.205	0.162
-459.055	212.409	-0.058	-0.092
-458.040	-92.817	0.178	0.050
-457.026	24.817	0.064	-0.054
-456.011	-111.885	-0.200	-0.041
-454.997	422.733	0.147	0.319
-453.982	-200.000	0.004	-0.127
-452.968	53.334	0.191	0.185
-451.953	-165.904	0.268	-0.012
-450.938	175.162	-0.051	-0.075
-449.924	-200.000	0.016	-0.089
-448.909	-200.000	-0.018	0.213
-447.895	-92.478	-0.149	0.042
-446.880	-158.522	0.231	0.013
-445.865	768.124	0.081	-0.223
-444.851	-200.000	-0.030	-0.133
-443.836	800.000	-0.075	-0.303
-442.822	-197.320	0.215	-0.001
-441.807	136.953	0.066	0.086
-440.792	800.000	0.049	-0.141
-439.778	-46.887	0.050	0.025
-438.763	-96.080	0.293	0.078
-437.749	629.253	0.063	0.161
-436.734	-55.062	-0.044	-0.020
-435.719	800.000	0.078	0.301
-434.705	-125.980	0.195	0.030
-433.690	14.499	0.149	0.117
-432.676	-200.000	0.072	0.390
-431.661	-184.769	0.444	-0.007
-430.646	21.056	-0.171	-0.139
-429.632	96.841	-0.086	-0.100
-428.617	69.969	-0.231	0.241
-427.603	352.589	0.022	0.044
-426.588	-150.384	-0.284	-0.022
-425.573	-78.032	-0.095	0.033
-424.559	641.209	-0.057	0.145
-423.544	800.000	-0.137	0.386
-422.530	-200.000	0.002	-0.312
-421.515	26.914	0.157	0.132
-420.500	93.648	0.177	0.202
-419.486	-132.165	0.101	-0.013
-418.471	148.251	-0.145	-0.197
-417.457	35.074	-0.221	0.195
-416.442	549.291	-0.056	-0.135
-415.428	488.141	-0.051	-0.117
-414.413	-200.000	-0.018	-0.293
-413.398	208.772	-0.098	0.155
-412.384	184.566	0.101	-0.151
-411.369	177.275	-0.055	0.080
-410.355	-158.678	-0.064	0.004
-409.340	-199.557	0.090	-0.000
-408.325	-109.549	0.504	0.107
-407.311	-119.321	-0.179	0.031
-406.296	438.482	0.018	0.039
-405.282	85.339	-0.217	-0.239
-404.267	-64.455	-0.064	0.026
-403.252	605.278	0.091	0.229
-402.238	-39.206	-0.381	-0.201
-401.223	-108.718	0.251	-0.054
-400.209	-83.108	-0.021	-0.007
-399.194	657.044	0.209	0.540
-398.179	-63.403	0.115	-0.048
-397.165	16.327	-0.136	0.108
-396.150	-200.000	0.059	-0.266
-395.136	-57.050	-0.558	-0.247
-394.121	-46.170	0.104	-0.052
-393.106	298.996	-0.157	-0.291
-392.092	-37.253	0.207	0.111
-391.077	-138.124	0.050	0.006
-390.063	-139.640	0.411	-0.044
-389.048	515.850	0.052	0.123
-388.033	378.500	-0.145	0.299
-387.019	85.406	-0.236	-0.261
-386.004	424.576	0.137	-0.297
-384.990	17.687	-0.117	-0.094
-383.975	194.977	0.084	0.127
-382.960	800.000	0.034	0.106
-381.946	-57.823	-0.295	-0.130
-380.931	-131.213	-0.179	0.024
-379.917	233.207	0.114	0.189
-378.902	317.848	0.097	-0.185
-377.888	-37.117	0.127	0.068
-376.873	411.720	0.007	0.015
-375.858	48.495	-0.104	0.098
-374.844	-174.953	-0.215	0.006
-373.829	-98.168	-0.205	-0.053
-372.815	800.000	-0.021	0.078
-371.800	-200.000	0.010	-0.049
-370.785	-50.272	0.314	-0.149
-369.771	110.862	-0.177	0.214
-368.756	-145.939	-0.423	0.038
-367.742	-93.980	0.216	0.060
-366.727	-12.069	0.182	0.120
-365.712	594.288	0.130	-0.322
-364.698	540.346	-0.044	0.105
-363.683	188.046	-0.033	-0.050
-362.669	188.938	-0.135	-0.203
-361.654	-72.045	0.139	-0.052
-360.639	196.267	-0.094	-0.144
-359.625	-28.834	0.163	0.094
-358.610	23.791	0.155	0.129
-357.596	12.856	0.093	0.072
-356.581	-57.334	-0.112	0.050
-355.566	21.535	0.026	-0.021
-354.552	-130.142	-0.358	-0.049
-353.537	-83.881	-0.259	-0.083
-352.523	800.000	0.103	0.346
-351.508	-200.000	-0.007	0.098
-350.493	-200.000	-0.014	-0.286
-349.479	800.000	0.027	-0.086
-348.464	11.324	0.131	0.100
-347.450	-91.157	0.212	0.061
-346.435	-71.307	-0.100	0.038
-345.420	-119.848	-0.131	-0.023
-344.406	171.864	0.075	-0.109
-343.391	-35.710	-0.134	0.073
-342.377	-200.000	0.029	0.293
-341.362	-6.017	0.142	0.098
-340.348	-4.259	-0.128	0.089
-339.333	-131.232	-0.246	0.033
-338.318	800.000	-0.058	0.165
-337.304	-56.893	-0.514	-0.228
-336.289	800.000	-0.013	-0.039
-335.275	-200.000	0.000	0.116
-334.260	10.647	-0.060	-0.046
-333.245	36.293	0.155	-0.137
-332.231	-133.481	0.139	0.017
-331.216	-54.037	0.129	0.059
-330.202	283.470	-0.122	-0.220
-329.187	725.500	-0.058	-0.154
-328.172	116.735	0.197	-0.243
-327.158	-134.129	0.279	-0.035
-326.143	-86.760	-0.275	0.084
-325.129	-49.070	-0.104	0.050
-324.114	-130.957	0.251	0.034
-323.099	436.333	-0.185	-0.403
-322.085	800.000	0.080	-0.236
-321.070	-95.303	-0.267	0.072
-320.056	-15.487	-0.106	-0.068
-319.041	-200.000	-0.049	0.333
-318.026	119.341	0.215	0.267
-317.012	-100.671	0.387	0.096
-315.997	-89.700	-0.079	0.023
-314.983	-114.050	-0.214	0.042
-313.968	-200.000	-0.262	0.000
-312.953	-26.055	-0.159	0.093
-311.939	230.319	0.163	0.268
-310.924	-107.768	0.181	0.040
-309.910	-18.936	-0.136	-0.085
-308.895	362.475	-0.090	0.182
-307.880	-200.000	-0.006	-0.123
-306.866	-200.000	0.031	-0.431
-305.851	-200.000	0.006	-0.273
-304.837	1.487	0.145	-0.104
-303.822	-200.000	-0.065	0.447
-302.807	239.280	0.046	0.076
-301.793	-84.300	-0.323	0.102
-300.778	-27.638	0.196	0.114
-299.764	-37.544	-0.147	-0.078
-298.749	-128.993	-0.179	-0.025
-297.735	-200.000	-0.004	0.358
-296.720	116.182	-0.120	0.147
-295.705	82.456	0.089	-0.097
-294.691	800.000	0.056	-0.174
-293.676	1.253	0.287	-0.206
-292.662	-109.983	-0.256	0.054
-291.647	-200.000	-0.015	-0.103
-290.632	-200.000	-0.002	0.257
-289.618	315.399	0.162	-0.305
-288.603	-200.000	0.009	0.124
-287.589	-93.227	0.026	-0.007
-286.574	469.885	0.065	-0.147
-285.559	-69.249	0.310	-0.119
-284.545	170.943	0.195	-0.280
-283.530	-200.000	-0.023	-0.227
-282.516	113.543	0.074	0.090
-281.501	-200.000	-0.029	0.204
-280.486	-200.000	-0.015	0.113
-279.472	-69.959	0.134	0.051
-278.457	-116.032	-0.175	0.033
-277.443	-140.039	0.229	0.024
-276.428	-106.682	-0.349	0.078
-275.413	-0.545	-0.151	-0.107
-274.399	203.104	0.121	-0.187
-273.384	-200.000	0.072	-0.373
-272.370	149.379	-0.128	-0.173
-271.355	332.525	0.119	0.229
-270.340	-112.387	-0.439	-0.088
-269.326	-71.225	-0.210	-0.079
-268.311	-46.732	0.258	0.127
-267.297	-32.359	-0.094	0.053
-266.282	735.004	0.204	-0.546
-265.267	139.660	0.071	0.094
-264.253	-83.980	0.270	-0.086
-263.238	-100.112	-0.317	0.079
-262.224	-141.523	0.260	-0.026
-261.209	410.828	0.062	-0.131
-260.195	132.449	0.155	0.199
-259.180	-61.664	0.212	-0.089
-258.165	-57.256	0.218	-0.096
-257.151	-200.000	0.062	-0.295
-256.136	164.341	0.127	-0.179
-255.122	90.492	-0.017	-0.019
-254.107	-117.509	-0.218	-0.039
-253.092	800.000	0.005	0.014
-252.078	800.000	0.118	0.427
-251.063	69.505	-0.072	0.074
-250.049	110.545	0.064	-0.077
-249.034	-118.255	0.219	0.039
-248.019	-87.161	-0.081	-0.025
-247.005	235.437	0.200	0.331
-245.990	-68.699	-0.089	-0.034
-244.976	-98.707	-0.277	0.071
-243.961	53.570	0.208	-0.200
-242.946	-200.000	-0.075	0.403
-241.932	285.904	-0.059	0.107
-240.917	-38.719	0.194	0.102
-239.903	-70.494	-0.366	0.138
-238.888	88.090	-0.024	0.026
-237.873	-180.287	-0.101	-0.002
-236.859	-22.564	-0.320	-0.194
-235.844	-136.848	-0.365	-0.042
-234.830	-104.865	-0.137	-0.031
-233.815	-178.208	-0.490	0.012
-232.800	147.304	0.253	0.340
-231.786	-27.220	-0.514	-0.299
-230.771	-111.458	-0.157	-0.032
-229.757	317.497	0.046	-0.088
-228.742	102.837	-0.139	-0.163
-227.727	-115.077	0.110	-0.021
-226.713	-69.477	-0.167	-0.064
-225.698	-200.000	0.058	0.304
-224.684	-135.728	-0.364	-0.043
-223.669	30.242	0.104	0.089
-222.655	556.168	0.042	0.102
-221.640	-200.000	-0.049	-0.223
-220.625	-142.265	-0.117	-0.012
-219.611	-60.310	-0.453	0.193
-218.596	800.000	0.046	0.158
-217.582	-39.842	-0.081	-0.042
-216.567	-37.991	-0.256	0.136
-215.552	-36.380	0.092	0.049
-214.538	104.662	0.162	0.191
-213.523	54.177	-0.199	-0.191
-212.509	800.000	-0.099	-0.354
-211.494	8.976	-0.242	0.182
-210.479	-37.201	0.204	0.109
-209.465	119.992	0.094	0.117
-208.450	-200.000	-0.025	0.200
-207.436	118.996	0.035	-0.043
-206.421	134.981	0.139	0.180
-205.406	-106.704	0.312	0.069
-204.392	-51.487	0.155	-0.072
-203.377	-93.810	0.130	0.036
-202.363	-52.439	0.150	0.069
-201.348	-104.125	0.269	0.063
-200.333	356.861	0.036	0.071
-199.319	-200.000	-0.016	-0.158
-198.304	-1.932	-0.106	-0.075
-197.290	-106.963	-0.217	0.048
-196.275	-191.117	0.117	-0.001
-195.260	145.998	-0.234	0.314
-194.246	269.518	-0.152	0.266
-193.231	800.000	0.022	0.084
-192.217	-140.926	-0.096	-0.010
-191.202	-200.000	-0.036	-0.176
-190.187	-91.556	0.067	-0.019
-189.173	-200.000	0.024	0.280
-188.158	-200.000	-0.025	-0.295
-187.144	91.803	-0.122	-0.137
-186.129	800.000	0.060	0.246
-185.114	76.859	0.019	0.020
-184.100	-58.270	-0.212	-0.092
-183.085	-64.274	0.336	0.136
-182.071	-67.320	0.501	0.196
-181.056	249.288	-0.078	0.132
-180.042	376.176	-0.073	-0.149
-179.027	19.054	0.173	-0.138
-178.012	800.000	-0.081	0.337
-176.998	180.353	-0.097	-0.143
-175.983	-60.964	-0.360	0.152
-174.969	396.559	-0.093	-0.193
-173.954	-52.837	0.126	0.058
-172.939	800.000	-0.035	0.140
-171.925	-87.520	0.488	-0.147
-170.910	-61.011	0.160	0.067
-169.896	800.000	0.055	-0.169
-168.881	77.702	0.045	-0.048
-167.866	53.306	-0.284	0.271
-166.852	-91.404	-0.161	0.046
-165.837	-166.720	-0.007	0.000
-164.823	-134.307	-0.055	0.007
-163.808	-38.256	0.197	0.104
-162.793	12.536	-0.104	-0.080
-161.779	800.000	-0.063	-0.180
-160.764	-200.000	-0.052	-0.357
-159.750	71.276	-0.196	-0.203
-158.735	800.000	-0.039	-0.153
-157.720	124.572	-0.332	0.416
-156.706	583.877	0.163	0.398
-155.691	147.926	0.080	-0.108
-154.677	82.868	0.170	0.184
-153.662	48.876	0.182	0.170
-152.647	440.860	0.096	0.210
-151.633	-84.357	-0.217	0.068
-150.618	800.000	-0.072	-0.220
-149.604	-102.105	0.125	-0.030
-148.589	-105.987	0.082	0.018
-147.574	699.354	-0.040	-0.104
-146.560	800.000	0.117	-0.479
-145.545	800.000	-0.070	0.278
-144.531	-43.381	0.175	0.088
-143.516	-61.922	-0.254	0.106
-142.502	-2.594	-0.018	-0.013
-141.487	64.339	0.173	-0.174
-140.472	-200.000	0.009	0.085
-139.458	338.417	-0.067	0.130
-138.443	800.000	0.083	0.253
-137.429	-200.000	0.049	0.273
-136.414	167.492	0.169	0.239
-135.399	486.725	0.107	-0.244
-134.385	53.033	-0.141	0.135
-133.370	-44.225	-0.071	0.035
-132.356	167.378	0.131	0.185
-131.341	800.000	-0.051	0.142
-130.326	-120.144	-0.116	0.020
-129.312	-200.000	0.063	-0.306
-128.297	-200.000	0.030	-0.225
-127.283	15.599	-0.031	-0.024
-126.268	446.916	-0.104	-0.228
-125.253	-48.177	0.168	-0.081
-124.239	-134.841	0.226	-0.027
-123.224	800.000	0.052	0.183
-122.210	3.089	0.224	0.162
-121.195	800.000	-0.049	-0.171
