DTS Sentinel unit serial number:	SN413079Multiplexer serial number:	ORYXHardware model number:	OX4-SRSoftware version number:	ORYX F/W v4.00 Oryx Data Collector v3.7.2.0data status	okinstallation	princeton_trtdifferential loss correction	single-endedforward channel	channel 4reverse channel	N/Adate	2019/09/10time	16:15:11forward acquisition time	60.00reverse acquisition time	0.00gamma	496.2192k internal	0.2294k external	0.2294temperature offset calibration	0.9933default loss term (dB/km)	0.3790temperature slope calibration	1.0000multiplexer offset coefficient	1.0000multiplexer slope coefficient	1.0000fibre end	0.00T internal ref (°C)	38.25T ext. ref 1 (°C)	-0.30T ext. ref 2 (°C)	31.38length (m)	temperature (°C)	Stokes	anti-Stokes-747.200	17.927	0.185	0.150
-746.185	-137.569	0.323	-0.037
-745.171	-30.663	0.076	0.044
-744.156	238.359	-0.102	0.173
-743.142	23.192	-0.168	0.141
-742.127	-62.038	0.202	0.086
-741.112	-165.312	-0.202	-0.009
-740.098	-138.602	0.245	0.027
-739.083	-27.193	0.236	0.141
-738.069	-187.073	-0.264	0.004
-737.054	-135.525	-0.195	0.024
-736.039	287.213	0.052	-0.096
-735.025	-66.252	-0.099	0.040
-734.010	-107.721	0.083	-0.019
-732.996	19.754	-0.181	-0.149
-731.981	800.000	0.069	-0.204
-730.966	800.000	0.033	-0.122
-729.952	422.958	-0.071	0.157
-728.937	-200.000	-0.035	-0.195
-727.923	-200.000	0.015	-0.154
-726.908	673.257	-0.057	-0.152
-725.894	15.891	-0.352	-0.284
-724.879	800.000	0.020	-0.062
-723.864	23.557	-0.120	0.101
-722.850	-165.494	-0.282	0.013
-721.835	-198.836	-0.236	-0.001
-720.821	800.000	-0.078	-0.261
-719.806	32.505	-0.144	-0.127
-718.791	-155.138	-0.553	-0.037
-717.777	-81.692	0.225	-0.076
-716.762	258.811	-0.078	-0.137
-715.748	-6.317	-0.179	-0.125
-714.733	-13.484	-0.277	0.184
-713.718	160.209	-0.162	0.231
-712.704	25.307	0.064	0.055
-711.689	-200.000	0.067	0.323
-710.675	-23.712	0.294	0.180
-709.660	103.034	-0.240	-0.287
-708.645	432.794	0.117	0.259
-707.631	175.001	-0.096	0.142
-706.616	14.605	-0.064	-0.051
-705.602	42.035	0.193	-0.179
-704.587	-55.520	0.159	0.073
-703.572	-145.941	-0.292	-0.026
-702.558	-35.921	0.280	-0.155
-701.543	-71.738	0.093	-0.036
-700.529	262.013	-0.148	0.262
-699.514	251.888	0.128	-0.223
-698.499	-21.763	-0.306	-0.190
-697.485	800.000	0.057	-0.222
-696.470	186.384	0.148	-0.224
-695.456	-101.233	0.524	0.131
-694.441	800.000	0.172	-0.510
-693.426	800.000	0.029	0.098
-692.412	-123.113	0.165	0.027
-691.397	-90.895	-0.272	0.080
-690.383	-34.159	0.283	0.159
-689.368	-94.624	0.157	-0.044
-688.354	-113.052	0.280	0.056
-687.339	104.402	-0.047	0.056
-686.324	-200.000	-0.010	0.130
-685.310	-134.730	0.270	0.034
-684.295	97.150	0.087	-0.102
-683.281	-28.137	-0.013	-0.008
-682.266	8.959	0.133	-0.103
-681.251	255.910	0.198	-0.346
-680.237	30.760	-0.149	0.130
-679.222	800.000	0.064	0.187
-678.208	-200.000	0.024	0.178
-677.193	43.865	-0.336	0.314
-676.178	-96.746	0.393	0.105
-675.164	-95.881	0.266	0.072
-674.149	4.867	-0.083	0.062
-673.135	-200.000	0.010	0.225
-672.120	-55.495	-0.198	-0.090
-671.105	216.745	-0.068	-0.110
-670.091	-200.000	-0.019	-0.109
-669.076	-61.957	-0.306	-0.130
-668.062	-11.263	-0.252	-0.169
-667.047	-200.000	-0.004	-0.153
-666.032	440.729	0.116	-0.259
-665.018	306.285	0.162	0.308
-664.003	-60.528	-0.115	-0.050
-662.989	-2.768	-0.107	-0.076
-661.974	-70.304	-0.148	-0.057
-660.959	-28.262	-0.238	-0.140
-659.945	-130.767	0.220	0.030
-658.930	24.438	0.221	0.186
-657.916	-200.000	-0.032	-0.143
-656.901	-190.144	-0.249	0.003
-655.886	-200.000	-0.015	0.163
-654.872	-148.321	-0.173	0.015
-653.857	-65.483	0.345	0.141
-652.843	-200.000	-0.016	0.459
-651.828	-29.807	0.337	-0.196
-650.814	251.850	0.058	-0.101
-649.799	259.615	-0.124	-0.218
-648.784	740.172	0.016	-0.044
-647.770	-99.892	0.270	0.069
-646.755	39.054	0.087	-0.079
-645.741	-85.939	-0.366	-0.115
-644.726	121.624	-0.167	0.213
-643.711	-197.403	0.367	0.002
-642.697	-200.000	0.001	-0.342
-641.682	119.735	-0.205	-0.259
-640.668	611.604	0.042	0.108
-639.653	-200.000	-0.101	-0.455
-638.638	-96.617	0.118	0.032
-637.624	-52.022	0.193	-0.091
-636.609	-66.107	0.123	-0.050
-635.595	-200.000	-0.032	-0.268
-634.580	-61.817	-0.112	0.048
-633.565	-49.689	-0.157	0.076
-632.551	403.767	-0.018	0.038
-631.536	800.000	0.130	-0.399
-630.522	8.975	-0.340	-0.261
-629.507	40.300	-0.123	-0.113
-628.492	-136.775	-0.446	-0.052
-627.478	-156.413	-0.121	0.008
-626.463	-4.204	0.093	-0.065
-625.449	300.344	-0.073	0.138
-624.434	278.789	0.146	0.266
-623.419	-111.212	0.211	-0.044
-622.405	41.395	-0.078	0.072
-621.390	-35.819	0.333	0.184
-620.376	104.440	-0.180	-0.216
-619.361	106.663	0.185	-0.223
-618.346	800.000	-0.052	-0.215
-617.332	-64.271	-0.097	0.040
-616.317	307.417	-0.106	-0.201
-615.303	800.000	-0.021	0.091
-614.288	38.757	-0.192	-0.175
-613.273	38.204	-0.030	0.027
-612.259	-200.000	0.033	0.195
-611.244	-200.000	0.004	0.052
-610.230	-49.305	-0.462	-0.224
-609.215	-27.374	0.310	0.183
-608.201	-86.287	-0.287	0.090
-607.186	-178.200	-0.098	0.002
-606.171	347.594	-0.050	0.100
-605.157	800.000	0.055	-0.234
-604.142	-71.891	0.219	-0.083
-603.128	-117.171	-0.240	0.044
-602.113	41.423	0.162	0.149
-601.098	381.423	-0.109	-0.227
-600.084	-96.039	-0.199	-0.054
-599.069	-26.526	0.321	0.191
-598.055	-200.000	0.031	-0.160
-597.040	159.285	-0.095	0.134
-596.025	-34.807	0.170	-0.095
-595.011	48.377	0.334	-0.318
-593.996	-7.471	0.169	0.116
-592.982	-63.237	0.191	0.080
-591.967	-51.950	-0.097	0.046
-590.952	274.717	0.120	0.215
-589.938	-140.291	0.233	-0.025
-588.923	-200.000	0.012	0.071
-587.909	208.193	0.167	-0.266
-586.894	-42.372	0.083	-0.043
-585.879	-16.001	0.265	0.172
-584.865	60.185	0.160	0.161
-583.850	-90.103	0.063	-0.019
-582.836	-200.000	-0.000	-0.072
-581.821	-119.148	-0.125	-0.022
-580.806	-200.000	0.002	-0.121
-579.792	-46.840	0.228	0.114
-578.777	477.170	0.119	-0.274
-577.763	-98.539	0.345	0.090
-576.748	-78.807	-0.499	-0.173
-575.733	36.541	-0.039	0.035
-574.719	-154.373	-0.020	-0.001
-573.704	-200.000	-0.001	0.010
-572.690	28.917	-0.022	-0.019
-571.675	-200.000	0.006	0.166
-570.661	674.035	-0.123	0.325
-569.646	-199.428	-0.251	-0.001
-568.631	187.241	-0.137	-0.207
-567.617	41.766	-0.127	0.117
-566.602	-200.000	0.046	0.280
-565.588	201.386	0.026	-0.041
-564.573	299.332	0.036	-0.067
-563.558	-17.772	-0.154	-0.098
-562.544	397.288	-0.078	-0.166
-561.529	71.606	-0.254	-0.268
-560.515	-200.000	0.053	-0.394
-559.500	185.243	0.026	0.039
-558.485	158.468	0.135	0.190
-557.471	-96.621	-0.243	-0.065
-556.456	141.639	0.065	0.088
-555.442	-17.790	0.182	-0.116
-554.427	-11.138	-0.093	-0.062
-553.412	423.147	0.149	-0.326
-552.398	-67.445	0.540	-0.215
-551.383	-73.973	-0.159	-0.058
-550.369	-200.000	0.052	-0.342
-549.354	284.416	0.093	-0.171
-548.339	-200.000	-0.027	0.139
-547.325	539.608	0.086	0.208
-546.310	-200.000	0.004	-0.451
-545.296	177.533	0.179	-0.265
-544.281	22.994	0.201	0.167
-543.266	800.000	-0.038	0.164
-542.252	501.956	-0.191	0.449
-541.237	153.023	-0.033	-0.046
-540.223	125.163	0.203	0.260
-539.208	194.476	0.168	0.259
-538.193	-99.537	-0.279	-0.071
-537.179	-11.668	-0.326	-0.217
-536.164	-108.500	0.209	-0.046
-535.150	-48.554	-0.097	-0.047
-534.135	-95.967	0.151	0.041
-533.121	800.000	-0.037	0.154
-532.106	387.725	-0.056	-0.117
-531.091	-118.061	0.215	0.039
-530.077	-200.000	-0.005	0.113
-529.062	800.000	-0.139	0.457
-528.048	-83.899	-0.279	-0.090
-527.033	200.287	0.086	-0.134
-526.018	-30.215	-0.156	0.090
-525.004	12.737	0.307	0.241
-523.989	-173.134	0.139	-0.004
-522.975	-59.249	-0.304	0.133
-521.960	-35.468	-0.287	-0.158
-520.945	607.053	0.093	0.234
-519.931	-139.043	-0.310	0.034
-518.916	177.355	-0.030	-0.044
-517.902	497.329	0.047	-0.111
-516.887	-200.000	0.011	0.112
-515.872	77.971	-0.119	0.129
-514.858	-100.836	-0.415	-0.104
-513.843	-162.174	-0.214	-0.011
-512.829	48.996	-0.408	-0.389
-511.814	-200.000	-0.020	-0.317
-510.799	-200.000	-0.010	0.048
-509.785	312.419	-0.054	0.103
-508.770	35.903	-0.330	-0.295
-507.756	-92.505	0.193	0.055
-506.741	-31.194	-0.015	0.008
-505.726	6.297	0.233	0.175
-504.712	-0.618	-0.267	-0.192
-503.697	-57.462	0.133	0.059
-502.683	107.824	0.069	-0.083
-501.668	214.095	-0.156	-0.250
-500.653	83.496	0.149	-0.165
-499.639	342.145	-0.150	0.298
-498.624	-200.000	0.135	-0.664
-497.610	75.975	0.319	-0.342
-496.595	-13.822	0.174	-0.114
-495.581	-190.843	-0.094	0.001
-494.566	73.684	-0.107	0.113
-493.551	557.673	0.101	-0.248
-492.537	-52.036	-0.095	0.045
-491.522	20.932	-0.149	-0.122
-490.508	-10.176	-0.365	-0.245
-489.493	25.639	-0.314	0.265
-488.478	-84.005	0.256	0.082
-487.464	84.106	-0.134	0.148
-486.449	-200.000	0.005	0.115
-485.435	-200.000	0.007	0.336
-484.420	-122.464	-0.154	-0.025
-483.405	-48.229	-0.189	-0.092
-482.391	289.508	0.169	-0.310
-481.376	242.728	0.197	0.335
-480.362	-200.000	-0.015	0.132
-479.347	-176.995	0.238	0.006
-478.332	134.188	0.173	-0.228
-477.318	32.190	-0.056	0.049
-476.303	-38.939	-0.268	0.143
-475.289	-173.142	0.214	0.007
-474.274	321.940	0.067	-0.129
-473.259	155.822	-0.082	-0.114
-472.245	88.081	0.343	0.385
-471.230	800.000	0.086	0.283
-470.216	-200.000	0.060	0.286
-469.201	800.000	-0.057	0.190
-468.186	12.704	-0.089	0.070
-467.172	-200.000	0.002	0.039
-466.157	-87.644	0.385	0.118
-465.143	-200.000	-0.014	0.256
-464.128	549.228	0.083	-0.202
-463.113	-116.343	0.126	0.024
-462.099	-200.000	0.024	-0.294
-461.084	59.075	-0.016	-0.016
-460.070	136.127	0.237	0.313
-459.055	-116.476	-0.362	0.068
-458.040	42.026	-0.186	-0.170
-457.026	7.255	-0.121	-0.092
-456.011	800.000	0.108	0.316
-454.997	-94.052	-0.084	0.023
-453.982	-70.405	0.113	0.043
-452.968	-102.309	-0.154	0.037
-451.953	-200.000	-0.033	0.338
-450.938	-140.159	0.182	-0.019
-449.924	730.480	-0.118	-0.318
-448.909	67.010	0.254	0.261
-447.895	-68.081	-0.107	0.042
-446.880	118.897	0.072	0.090
-445.865	-110.158	-0.109	0.023
-444.851	-44.432	-0.220	-0.111
-443.836	-164.028	-0.445	0.021
-442.822	-44.205	-0.063	0.032
-441.807	-142.643	-0.126	0.012
-440.792	-9.749	-0.092	0.062
-439.778	205.796	0.121	0.190
-438.763	-147.291	-0.157	-0.014
-437.749	-114.943	0.082	0.016
-436.734	709.600	-0.042	-0.112
-435.719	40.320	-0.258	0.235
-434.705	800.000	0.119	0.439
-433.690	-200.000	0.068	-0.364
-432.676	-123.219	0.260	-0.042
-431.661	-133.836	0.248	0.031
-430.646	298.673	-0.055	-0.102
-429.632	334.770	-0.095	-0.186
-428.617	107.368	-0.274	-0.329
-427.603	-105.485	0.109	0.025
-426.588	-169.853	0.103	-0.004
-425.573	574.993	-0.114	0.282
-424.559	-8.114	0.031	0.021
-423.544	-86.311	0.214	-0.066
-422.530	-97.969	-0.343	-0.089
-421.515	-200.000	0.032	-0.145
-420.500	-162.220	0.193	0.010
-419.486	-200.000	-0.076	0.394
-418.471	-86.160	0.067	0.021
-417.457	-173.492	-0.229	-0.007
-416.442	355.067	0.155	-0.311
-415.428	-61.654	0.254	0.108
-414.413	41.134	-0.152	0.139
-413.398	134.035	-0.177	0.231
-412.384	29.200	0.395	0.338
-411.369	-83.425	0.298	-0.096
-410.355	-13.193	-0.136	0.089
-409.340	42.253	0.161	0.148
-408.325	-200.000	0.011	-0.102
-407.311	-34.014	-0.126	0.070
-406.296	226.303	0.138	0.226
-405.282	-93.173	0.154	-0.043
-404.267	268.456	0.199	-0.353
-403.252	-54.962	0.183	-0.083
-402.238	-53.381	-0.308	0.142
-401.223	-53.798	-0.181	-0.083
-400.209	-107.235	0.124	0.028
-399.194	800.000	-0.062	0.234
-398.179	-72.500	0.158	0.059
-397.165	-200.000	0.026	0.283
-396.150	-15.720	0.084	-0.054
-395.136	-200.000	0.010	0.325
-394.121	111.430	-0.125	0.153
-393.106	-105.106	0.233	-0.054
-392.092	-31.555	-0.111	0.063
-391.077	114.985	0.050	0.062
-390.063	-153.139	0.062	0.004
-389.048	-28.554	0.163	0.095
-388.033	-136.652	-0.304	0.035
-387.019	86.114	-0.085	-0.094
-386.004	-200.000	-0.005	-0.156
-384.990	252.286	0.038	-0.066
-383.975	449.167	-0.090	-0.201
-382.960	-136.673	-0.274	-0.032
-381.946	800.000	0.031	0.099
-380.931	-200.000	-0.002	-0.215
-379.917	14.408	-0.205	-0.161
-378.902	-66.482	-0.113	0.045
-377.888	221.437	0.088	-0.142
-376.873	8.429	-0.029	0.022
-375.858	288.356	0.132	-0.241
-374.844	-78.849	-0.271	-0.093
-373.829	-64.461	0.395	0.162
-372.815	-52.925	0.054	-0.025
-371.800	82.061	0.081	0.088
-370.785	800.000	0.028	-0.106
-369.771	347.297	0.082	-0.163
-368.756	-200.000	0.029	-0.196
-367.742	101.723	-0.089	-0.105
-366.727	247.317	-0.022	-0.038
-365.712	-70.371	0.227	0.087
-364.698	187.528	-0.148	-0.223
-363.683	-41.352	-0.310	0.161
-362.669	-200.000	-0.026	0.130
-361.654	40.211	0.174	-0.158
-360.639	-19.616	0.249	0.155
-359.625	-62.285	0.034	0.014
-358.610	39.302	0.026	-0.023
-357.596	800.000	-0.032	0.100
-356.581	-200.000	0.063	-0.357
-355.566	289.688	-0.245	-0.447
-354.552	800.000	-0.055	-0.234
-353.537	-135.631	0.184	0.022
-352.523	-58.543	0.428	0.187
-351.508	240.813	0.036	-0.060
-350.493	185.233	0.122	0.183
-349.479	-200.000	0.020	-0.393
-348.464	800.000	-0.041	-0.167
-347.450	284.886	0.124	-0.225
-346.435	-200.000	0.045	0.339
-345.420	7.008	0.111	-0.083
-344.406	-200.000	-0.046	0.203
-343.391	-200.000	0.025	0.257
-342.377	-28.949	0.119	0.069
-341.362	126.687	0.037	-0.047
-340.348	38.287	-0.185	-0.166
-339.333	-42.514	-0.231	-0.119
-338.318	128.429	-0.258	0.331
-337.304	-97.380	0.225	-0.059
-336.289	-200.000	-0.048	0.409
-335.275	-132.291	0.362	0.047
-334.260	73.296	0.380	0.400
-333.245	-20.353	-0.350	0.217
-332.231	-12.462	0.323	0.212
-331.216	440.729	-0.123	0.271
-330.202	800.000	0.040	0.168
-329.187	686.112	0.105	0.276
-328.172	-171.716	0.560	0.019
-327.158	88.441	-0.327	0.366
-326.143	-97.821	-0.121	-0.032
-325.129	180.755	-0.164	-0.242
-324.114	-186.145	0.282	0.004
-323.099	-71.241	-0.291	-0.110
-322.085	55.067	-0.168	0.164
-321.070	-89.780	-0.323	-0.095
-320.056	476.066	0.035	-0.079
-319.041	11.527	0.151	0.116
-318.026	-200.000	0.016	0.210
-317.012	-81.015	-0.211	-0.070
-315.997	-109.214	0.113	0.024
-314.983	-193.989	-0.192	0.002
-313.968	800.000	0.120	0.333
-312.953	19.272	0.174	0.140
-311.939	800.000	0.085	-0.280
-310.924	-60.532	0.273	-0.117
-309.910	-200.000	0.175	0.001
-308.895	95.010	0.118	-0.135
-307.880	-90.918	0.086	0.025
-306.866	-65.950	0.215	0.087
-305.851	800.000	-0.108	-0.346
-304.837	-200.000	-0.045	-0.325
-303.822	11.562	0.509	0.392
-302.807	-148.817	-0.213	-0.017
-301.793	97.477	0.188	-0.217
-300.778	-81.979	-0.179	0.059
-299.764	-200.000	-0.025	-0.297
-298.749	34.415	-0.043	0.038
-297.735	-200.000	0.022	0.263
-296.720	314.945	-0.095	0.179
-295.705	800.000	-0.070	-0.202
-294.691	-92.424	0.035	0.010
-293.676	-2.209	0.080	-0.056
-292.662	13.918	-0.230	-0.180
-291.647	226.231	0.047	0.077
-290.632	-93.772	0.308	-0.085
-289.618	125.210	-0.130	-0.164
-288.603	-27.751	-0.184	0.107
-287.589	-200.000	-0.030	0.204
-286.574	-96.020	0.136	-0.036
-285.559	-200.000	-0.046	0.298
-284.545	-23.391	0.320	-0.193
-283.530	-200.000	0.012	0.060
-282.516	-200.000	0.018	0.170
-281.501	10.573	-0.082	0.063
-280.486	-94.869	-0.131	-0.036
-279.472	800.000	0.048	-0.201
-278.457	599.241	0.150	0.373
-277.443	5.926	0.089	0.066
-276.428	-68.244	-0.026	0.010
-275.413	-31.388	0.254	-0.143
-274.399	99.887	-0.062	0.072
-273.384	74.358	0.209	0.221
-272.370	162.916	-0.223	0.315
-271.355	-39.516	0.074	-0.039
-270.340	-124.787	0.454	-0.070
-269.326	35.608	0.246	-0.217
-268.311	-171.807	-0.321	-0.011
-267.297	-174.688	-0.026	0.001
-266.282	-134.568	-0.399	0.049
-265.267	350.141	-0.339	-0.673
-264.253	145.964	0.160	-0.216
-263.238	-50.082	0.358	0.170
-262.224	-200.000	-0.096	-0.467
-261.209	-200.000	-0.090	-0.398
-260.195	23.608	-0.297	0.246
-259.180	192.430	-0.220	0.334
-258.165	-200.000	0.033	-0.242
-257.151	662.126	0.047	0.122
-256.136	74.308	0.182	0.192
-255.122	-85.042	-0.146	-0.046
-254.107	31.407	0.179	0.154
-253.092	-72.402	-0.055	0.020
-252.078	-0.295	0.266	0.190
-251.063	-68.565	-0.231	-0.090
-250.049	234.830	0.118	-0.195
-249.034	63.044	0.123	0.124
-248.019	71.319	0.289	0.300
-247.005	-181.970	-0.319	0.006
-245.990	67.271	0.070	-0.072
-244.976	6.770	0.243	-0.181
-243.961	30.284	0.191	0.163
-242.946	-101.283	-0.225	-0.055
-241.932	-200.000	-0.002	-0.044
-240.917	-113.861	-0.135	-0.026
-239.903	7.022	-0.184	0.137
-238.888	-150.131	0.179	0.014
-237.873	-200.000	-0.056	0.546
-236.859	-99.479	0.157	-0.040
-235.844	-47.526	0.138	-0.067
-234.830	-91.808	-0.202	-0.058
-233.815	112.377	-0.295	-0.358
-232.800	-200.000	0.005	0.313
-231.786	-26.220	-0.114	0.067
-230.771	-98.695	-0.237	-0.060
-229.757	57.208	0.219	0.214
-228.742	-51.738	-0.173	0.081
-227.727	800.000	0.012	-0.043
-226.713	-22.718	0.219	0.133
-225.698	-7.704	0.130	0.088
-224.684	800.000	0.030	0.125
-223.669	219.017	0.077	0.123
-222.655	11.159	-0.227	-0.174
-221.640	-49.622	-0.106	0.051
-220.625	-80.093	-0.611	-0.205
-219.611	-1.438	-0.216	-0.153
-218.596	-200.000	0.035	-0.163
-217.582	139.470	0.194	0.255
-216.567	315.023	-0.001	-0.002
-215.552	105.881	-0.118	0.140
-214.538	40.470	0.052	0.047
-213.523	800.000	0.066	0.215
-212.509	-143.971	0.236	0.022
-211.494	65.888	0.052	0.053
-210.479	-49.470	0.214	0.102
-209.465	-95.434	0.090	0.024
-208.450	800.000	0.145	-0.521
-207.436	-37.187	-0.358	0.192
-206.421	-94.239	0.216	-0.059
-205.406	50.161	-0.151	-0.143
-204.392	191.225	-0.211	0.318
-203.377	453.959	-0.096	0.212
-202.363	-117.161	0.079	-0.014
-201.348	-110.798	-0.075	-0.015
-200.333	121.547	-0.215	-0.269
-199.319	171.002	-0.091	-0.131
-198.304	37.728	-0.307	-0.273
-197.290	90.585	0.078	0.087
-196.275	-200.000	0.007	0.114
-195.260	800.000	0.031	0.135
-194.246	-200.000	-0.009	-0.234
-193.231	-197.913	-0.128	-0.001
-192.217	508.930	0.157	-0.365
-191.202	235.725	0.156	-0.258
-190.187	701.748	0.101	0.266
-189.173	-103.617	-0.187	0.044
-188.158	-200.000	0.035	-0.280
-187.144	246.076	-0.144	0.243
-186.129	75.491	-0.219	0.231
-185.114	-32.037	-0.225	0.126
-184.100	1.576	-0.114	0.082
-183.085	-101.623	0.165	-0.040
-182.071	756.343	0.059	0.160
-181.056	82.399	-0.256	0.278
-180.042	-10.494	-0.236	0.156
-179.027	-44.480	-0.105	-0.052
-178.012	-4.270	-0.320	0.222
-176.998	-36.634	-0.093	-0.050
-175.983	-41.030	-0.120	-0.062
-174.969	-125.485	0.212	-0.032
-173.954	800.000	0.045	-0.158
-172.939	179.394	-0.252	-0.369
-171.925	-20.551	0.274	0.169
-170.910	-60.078	0.471	-0.201
-169.896	-98.275	0.139	0.036
-168.881	-52.851	-0.238	-0.110
-167.866	-119.225	0.223	-0.039
-166.852	290.082	0.079	-0.144
-165.837	-72.493	0.109	0.040
-164.823	-200.000	0.040	0.175
-163.808	-200.000	0.003	-0.027
-162.793	272.331	0.230	0.405
-161.779	-22.662	0.094	-0.057
-160.764	800.000	0.081	-0.309
-159.750	-95.354	-0.344	-0.092
-158.735	-105.288	0.072	0.016
-157.720	127.354	-0.016	-0.020
-156.706	-52.792	0.264	-0.122
-155.691	-200.000	0.006	0.349
-154.677	215.111	-0.284	-0.451
-153.662	-8.853	-0.051	-0.034
-152.647	441.009	0.080	0.175
-151.633	-102.889	-0.174	-0.041
-150.618	41.196	0.132	-0.119
-149.604	-149.914	-0.042	0.003
-148.589	540.391	-0.128	-0.305
-147.574	-42.447	-0.134	0.068
-146.560	187.014	-0.108	-0.160
-145.545	800.000	-0.090	-0.384
-144.531	787.558	0.072	-0.196
-143.516	419.872	-0.130	-0.279
-142.502	417.735	0.015	0.031
-141.487	-60.776	0.594	0.251
-140.472	-96.518	-0.218	0.057
-139.458	-178.789	0.124	-0.003
-138.443	265.187	-0.028	0.048
-137.429	-160.293	0.105	0.006
-136.414	104.496	0.149	0.175
-135.399	69.111	-0.118	-0.121
-134.385	800.000	-0.066	0.234
-133.370	207.098	0.093	0.145
-132.356	-19.130	-0.148	0.092
-131.341	-48.525	-0.158	-0.076
-130.326	-200.000	0.067	-0.337
-129.312	-126.682	-0.199	0.029
-128.297	3.749	-0.214	0.156
-127.283	800.000	0.114	-0.315
-126.268	116.700	0.358	-0.439
-125.253	742.929	-0.018	-0.048
-124.239	252.774	0.078	0.133
-123.224	359.296	-0.059	-0.117
-122.210	-61.230	0.095	-0.040
-121.195	463.603	0.130	0.290
-120.180	-121.739	-0.246	-0.041
