DTS Sentinel unit serial number:	SN413079Multiplexer serial number:	ORYXHardware model number:	OX4-SRSoftware version number:	ORYX F/W v4.00 Oryx Data Collector v3.7.2.0data status	okinstallation	princeton_trtdifferential loss correction	single-endedforward channel	channel 4reverse channel	N/Adate	2019/09/12time	01:07:11forward acquisition time	60.00reverse acquisition time	0.00gamma	496.2192k internal	0.2309k external	0.2309temperature offset calibration	1.0095default loss term (dB/km)	0.3790temperature slope calibration	1.0000multiplexer offset coefficient	1.0000multiplexer slope coefficient	1.0000fibre end	0.00T internal ref (°C)	33.11T ext. ref 1 (°C)	2.09T ext. ref 2 (°C)	27.37length (m)	temperature (°C)	Stokes	anti-Stokes-747.200	-200.000	-0.037	-0.194
-746.185	-74.033	0.374	0.138
-745.171	-160.458	0.249	0.014
-744.156	-107.845	-0.183	-0.040
-743.142	484.164	-0.163	0.378
-742.127	20.057	0.189	0.155
-741.112	-135.004	0.338	0.041
-740.098	76.398	0.124	-0.133
-739.083	87.920	-0.212	0.238
-738.069	-200.000	-0.026	0.297
-737.054	43.715	0.198	0.184
-736.039	-32.780	-0.167	-0.094
-735.025	405.976	-0.046	-0.099
-734.010	100.727	-0.200	-0.236
-732.996	238.798	-0.017	-0.028
-731.981	-200.000	-0.019	-0.411
-730.966	800.000	0.016	-0.056
-729.952	-161.307	-0.410	0.022
-728.937	-200.000	-0.007	0.035
-727.923	315.724	0.118	-0.225
-726.908	-70.459	-0.140	-0.054
-725.894	28.890	0.214	-0.184
-724.879	78.741	0.091	-0.099
-723.864	31.465	-0.146	-0.128
-722.850	551.476	0.092	0.224
-721.835	285.581	-0.101	-0.186
-720.821	12.112	-0.211	0.165
-719.806	800.000	0.089	0.285
-718.791	715.875	0.150	-0.404
-717.777	280.812	0.054	0.098
-716.762	341.070	0.134	0.265
-715.748	-80.423	-0.176	0.060
-714.733	697.122	0.070	-0.188
-713.718	106.188	0.237	0.285
-712.704	86.801	-0.133	-0.149
-711.689	-68.377	0.549	-0.216
-710.675	-200.000	-0.005	0.099
-709.660	265.735	-0.144	-0.255
-708.645	-200.000	0.030	-0.236
-707.631	-200.000	0.006	-0.112
-706.616	-131.881	-0.161	-0.021
-705.602	-162.064	0.242	-0.012
-704.587	-26.990	-0.226	0.134
-703.572	-115.933	0.368	0.070
-702.558	-6.209	-0.045	-0.031
-701.543	800.000	-0.061	-0.233
-700.529	601.351	0.053	0.133
-699.514	-48.991	-0.412	0.200
-698.499	800.000	-0.042	0.170
-697.485	-92.251	-0.082	-0.023
-696.470	229.126	-0.048	0.079
-695.456	-200.000	-0.022	-0.171
-694.441	-200.000	0.045	-0.263
-693.426	-133.041	0.089	-0.011
-692.412	-70.052	-0.240	0.093
-691.397	-114.183	-0.189	-0.037
-690.383	-4.682	0.057	-0.040
-689.368	-128.054	-0.109	-0.016
-688.354	-123.167	0.321	0.052
-687.339	-112.542	0.271	0.055
-686.324	-36.339	0.229	-0.125
-685.310	-54.471	-0.226	0.104
-684.295	7.022	0.235	-0.178
-683.281	-122.166	0.362	0.060
-682.266	363.060	0.179	0.363
-681.251	-200.000	-0.031	0.251
-680.237	227.349	0.137	-0.226
-679.222	800.000	0.032	-0.138
-678.208	333.408	-0.049	-0.096
-677.193	-156.396	0.250	0.016
-676.178	-96.399	-0.057	-0.015
-675.164	-200.000	0.003	0.200
-674.149	395.137	0.023	-0.048
-673.135	354.510	0.250	0.503
-672.120	-135.169	0.323	0.039
-671.105	-200.000	0.026	0.139
-670.091	55.608	0.056	0.055
-669.076	83.898	0.126	-0.139
-668.062	157.450	-0.171	-0.239
-667.047	30.940	0.102	0.089
-666.032	388.020	0.106	0.222
-665.018	60.976	0.112	0.112
-664.003	214.693	-0.037	0.059
-662.989	-200.000	0.013	-0.353
-661.974	800.000	-0.152	-0.454
-660.959	54.086	-0.160	-0.155
-659.945	-31.845	0.132	0.075
-658.930	10.993	-0.201	-0.156
-657.916	82.857	-0.146	-0.160
-656.901	-91.550	-0.154	-0.044
-655.886	-92.612	0.237	-0.067
-654.872	-56.255	0.165	-0.074
-653.857	138.536	-0.155	0.206
-652.843	-200.000	0.024	0.254
-651.828	-177.390	0.170	-0.004
-650.814	-91.666	0.149	0.043
-649.799	-11.654	-0.162	0.107
-648.784	-200.000	-0.019	-0.251
-647.770	-79.270	0.299	-0.103
-646.755	74.981	0.109	-0.116
-645.741	46.228	-0.200	-0.188
-644.726	26.176	-0.164	-0.138
-643.711	54.043	0.211	0.205
-642.697	-128.456	-0.141	0.020
-641.682	177.278	-0.155	0.229
-640.668	-200.000	0.017	-0.220
-639.653	15.787	0.193	-0.154
-638.638	341.084	-0.153	0.302
-637.624	800.000	-0.104	0.328
-636.609	94.681	-0.155	-0.178
-635.595	-54.936	0.030	-0.014
-634.580	-63.487	-0.422	0.175
-633.565	-200.000	0.000	0.145
-632.551	55.740	0.115	-0.113
-631.536	200.710	0.111	0.173
-630.522	-84.894	-0.093	0.030
-629.507	534.008	0.058	0.139
-628.492	-200.000	0.007	-0.098
-627.478	-200.000	-0.022	-0.134
-626.463	411.794	-0.068	-0.146
-625.449	354.132	-0.108	0.218
-624.434	-200.000	0.068	-0.401
-623.419	162.414	0.201	-0.285
-622.405	183.271	-0.124	-0.186
-621.390	143.585	0.106	-0.143
-620.376	-200.000	-0.003	-0.097
-619.361	54.973	0.322	0.314
-618.346	-50.484	-0.211	0.101
-617.332	800.000	0.069	0.269
-616.317	-74.897	0.086	-0.031
-615.303	39.401	0.105	-0.095
-614.288	-200.000	0.002	0.231
-613.273	147.011	0.160	-0.217
-612.259	113.492	0.164	-0.202
-611.244	-25.888	0.179	-0.106
-610.230	-111.919	0.210	-0.043
-609.215	-45.886	-0.097	-0.049
-608.201	-14.953	0.072	-0.046
-607.186	682.830	-0.058	-0.153
-606.171	7.712	-0.040	0.030
-605.157	-200.000	-0.003	0.055
-604.142	800.000	0.133	-0.382
-603.128	-92.351	-0.195	-0.055
-602.113	-0.484	0.119	-0.085
-601.098	-200.000	0.034	0.192
-600.084	800.000	0.058	0.192
-599.069	800.000	0.065	-0.280
-598.055	-124.812	-0.139	-0.022
-597.040	-200.000	-0.013	0.112
-596.025	-200.000	0.006	0.284
-595.011	-41.665	-0.116	0.060
-593.996	152.191	0.068	0.094
-592.982	-21.482	-0.178	0.110
-591.967	-144.541	0.155	0.014
-590.952	-0.716	-0.309	0.221
-589.938	-200.000	-0.029	0.375
-588.923	-124.220	-0.125	-0.020
-587.909	-23.947	0.235	0.142
-586.894	-200.000	0.049	0.327
-585.879	-88.598	-0.137	0.041
-584.865	-5.904	0.108	0.075
-583.850	358.282	-0.116	-0.235
-582.836	800.000	-0.053	0.220
-581.821	-200.000	0.011	0.179
-580.806	92.751	-0.213	-0.243
-579.792	-71.037	0.282	0.107
-578.777	49.933	0.072	0.068
-577.763	-113.734	-0.369	0.073
-576.748	-60.586	0.029	0.012
-575.733	21.283	0.273	0.224
-574.719	602.386	-0.063	0.158
-573.704	192.755	-0.142	-0.216
-572.690	507.872	0.055	-0.129
-571.675	21.990	0.476	-0.391
-570.661	800.000	0.047	-0.178
-569.646	-120.854	-0.286	0.049
-568.631	-200.000	-0.010	-0.196
-567.617	44.157	-0.054	-0.050
-566.602	-144.356	-0.186	0.017
-565.588	-104.560	-0.234	-0.054
-564.573	151.804	0.118	0.162
-563.558	-36.305	0.132	-0.072
-562.544	-33.164	-0.062	0.035
-561.529	681.039	0.149	-0.392
-560.515	-200.000	0.011	-0.168
-559.500	-200.000	0.002	0.224
-558.485	-90.055	-0.277	0.081
-557.471	800.000	-0.022	0.090
-556.456	92.506	0.045	-0.051
-555.442	-91.352	-0.075	-0.022
-554.427	800.000	-0.081	0.335
-553.412	-152.199	-0.228	-0.017
-552.398	-200.000	0.024	-0.224
-551.383	-200.000	-0.053	0.417
-550.369	-200.000	0.026	0.132
-549.354	-82.406	0.134	-0.044
-548.339	-60.998	0.185	-0.079
-547.325	-67.926	0.118	-0.046
-546.310	712.675	-0.115	0.308
-545.296	192.874	-0.205	0.312
-544.281	-33.510	0.341	0.190
-543.266	-115.919	-0.395	0.074
-542.252	175.902	0.242	-0.353
-541.237	40.450	0.177	-0.161
-540.223	-200.000	0.082	-0.415
-539.208	-157.371	0.187	-0.011
-538.193	-43.031	0.169	0.086
-537.179	-200.000	0.002	-0.321
-536.164	197.322	0.166	-0.256
-535.150	-56.372	-0.286	0.128
-534.135	27.313	-0.204	-0.173
-533.121	-138.470	-0.101	-0.011
-532.106	-200.000	-0.030	0.216
-531.091	27.072	0.321	-0.271
-530.077	68.451	0.099	0.102
-529.062	-200.000	0.002	-0.141
-528.048	-200.000	0.074	-0.431
-527.033	-144.847	0.170	0.016
-526.018	-200.000	-0.019	-0.170
-525.004	-0.136	0.173	-0.124
-523.989	-47.963	-0.131	-0.064
-522.975	207.476	0.124	-0.194
-521.960	211.218	-0.122	-0.193
-520.945	148.949	-0.110	-0.150
-519.931	-113.640	-0.115	-0.023
-518.916	237.656	0.044	0.073
-517.902	800.000	-0.072	0.212
-516.887	385.498	0.064	0.132
-515.872	-200.000	-0.002	0.147
-514.858	156.256	-0.071	0.099
-513.843	-200.000	-0.070	0.347
-512.829	-113.441	-0.073	0.014
-511.814	-34.681	-0.056	0.031
-510.799	800.000	0.054	-0.196
-509.785	-200.000	0.031	-0.364
-508.770	12.023	0.095	0.074
-507.756	-11.904	-0.033	-0.022
-506.741	408.330	-0.083	0.178
-505.726	756.880	-0.120	0.328
-504.712	-107.064	-0.083	0.018
-503.697	6.226	-0.179	-0.134
-502.683	-145.465	0.148	0.013
-501.668	800.000	0.093	-0.355
-500.653	-3.985	0.255	-0.178
-499.639	140.413	-0.112	0.148
-498.624	-87.842	0.180	-0.054
-497.610	237.495	-0.136	-0.227
-496.595	-46.963	0.139	-0.068
-495.581	-200.000	-0.034	-0.161
-494.566	-108.608	-0.374	-0.081
-493.551	142.867	-0.176	-0.235
-492.537	-36.510	0.389	0.210
-491.522	-76.741	-0.591	0.208
-490.508	-9.453	0.180	0.121
-489.493	800.000	-0.043	0.119
-488.478	228.308	0.075	0.123
-487.464	-190.190	0.260	-0.003
-486.449	93.003	0.025	-0.028
-485.435	-19.036	0.120	-0.075
-484.420	800.000	-0.105	-0.392
-483.405	-73.316	0.429	0.158
-482.391	800.000	0.044	-0.172
-481.376	-56.862	-0.198	0.088
-480.362	-64.935	-0.156	0.063
-479.347	-68.341	-0.091	-0.035
-478.332	-200.000	-0.010	0.105
-477.318	253.082	0.084	-0.144
-476.303	800.000	0.017	0.064
-475.289	800.000	0.075	0.256
-474.274	-145.070	0.335	0.031
-473.259	-200.000	-0.011	0.233
-472.245	-133.843	-0.195	0.024
-471.230	1.400	-0.116	0.084
-470.216	800.000	-0.054	0.189
-469.201	366.019	-0.071	0.144
-468.186	240.100	-0.010	-0.016
-467.172	322.885	-0.111	-0.213
-466.157	-200.000	-0.016	0.378
-465.143	-104.693	-0.099	0.023
-464.128	-147.308	-0.385	0.033
-463.113	-200.000	0.015	-0.083
-462.099	-100.035	0.138	-0.035
-461.084	-200.000	-0.012	0.135
-460.070	-134.248	-0.304	-0.038
-459.055	-200.000	-0.001	-0.391
-458.040	82.022	0.217	-0.236
-457.026	-200.000	0.022	0.121
-456.011	-62.283	-0.103	0.043
-454.997	-45.414	-0.258	-0.129
-453.982	107.756	0.047	-0.057
-452.968	-45.219	0.199	-0.099
-451.953	253.271	-0.073	0.125
-450.938	-200.000	0.033	0.178
-449.924	800.000	-0.092	0.374
-448.909	199.196	0.016	-0.024
-447.895	254.311	-0.091	0.156
-446.880	136.378	-0.185	0.243
-445.865	800.000	-0.048	0.135
-444.851	1.045	0.058	-0.042
-443.836	-40.072	0.134	-0.070
-442.822	203.329	0.098	-0.153
-441.807	3.821	0.146	-0.107
-440.792	74.643	0.060	0.064
-439.778	179.613	0.277	0.407
-438.763	-200.000	-0.015	0.103
-437.749	800.000	0.063	0.215
-436.734	-200.000	0.000	0.056
-435.719	37.830	0.080	0.071
-434.705	188.291	-0.081	0.121
-433.690	-103.931	0.192	0.045
-432.676	199.193	0.160	-0.245
-431.661	95.061	0.169	-0.193
-430.646	716.895	0.141	0.377
-429.632	-8.976	-0.286	-0.192
-428.617	-62.357	-0.132	0.055
-427.603	728.606	0.055	0.148
-426.588	70.905	-0.124	0.129
-425.573	36.757	0.151	0.134
-424.559	326.791	0.061	0.117
-423.544	111.312	0.204	0.247
-422.530	285.318	0.141	0.255
-421.515	-158.822	0.081	-0.005
-420.500	180.800	0.049	-0.073
-419.486	800.000	0.036	-0.110
-418.471	-137.728	-0.434	0.049
-417.457	-153.197	0.103	0.007
-416.442	-187.902	-0.188	0.002
-415.428	175.358	-0.070	0.102
-414.413	-131.479	-0.281	0.037
-413.398	162.427	-0.056	0.078
-412.384	11.967	0.163	0.125
-411.369	246.224	0.072	0.121
-410.355	47.861	0.164	-0.154
-409.340	53.432	0.186	0.179
-408.325	800.000	0.082	-0.337
-407.311	-13.042	0.199	0.130
-406.296	-52.823	-0.106	0.049
-405.282	75.334	-0.080	0.085
-404.267	22.219	-0.209	-0.172
-403.252	131.850	-0.131	0.170
-402.238	269.948	-0.126	0.222
-401.223	89.126	-0.133	0.148
-400.209	-200.000	-0.006	-0.273
-399.194	-46.098	0.174	0.086
-398.179	331.811	0.028	-0.055
-397.165	85.373	0.106	0.117
-396.150	-200.000	0.006	0.051
-395.136	-134.883	-0.248	0.030
-394.121	125.614	0.059	0.074
-393.106	-130.959	-0.215	0.029
-392.092	-200.000	-0.027	-0.125
-391.077	-78.858	-0.230	-0.079
-390.063	800.000	-0.105	-0.294
-389.048	-59.499	-0.233	0.100
-388.033	2.007	0.152	-0.110
-387.019	800.000	-0.075	-0.296
-386.004	-200.000	0.113	0.000
-384.990	19.713	0.083	0.067
-383.975	-20.173	0.056	-0.034
-382.960	-37.664	0.150	-0.080
-381.946	-11.060	0.100	0.066
-380.931	122.430	-0.148	-0.185
-379.917	154.518	0.025	-0.034
-378.902	268.745	0.105	0.184
-377.888	24.216	-0.171	0.141
-376.873	-67.601	-0.302	0.118
-375.858	-200.000	-0.021	0.129
-374.844	-98.129	0.127	-0.033
-373.829	88.039	0.194	0.216
-372.815	275.041	-0.095	-0.169
-371.800	65.892	-0.262	0.266
-370.785	46.151	0.254	0.235
-369.771	14.117	-0.432	-0.337
-368.756	800.000	-0.061	0.196
-367.742	-173.441	0.091	0.003
-366.727	24.175	-0.093	-0.077
-365.712	-200.000	0.022	0.173
-364.698	248.585	-0.176	-0.299
-363.683	-126.957	0.165	0.024
-362.669	-44.589	0.056	-0.028
-361.654	-83.462	-0.190	0.061
-360.639	-22.137	-0.112	-0.068
-359.625	103.252	-0.137	-0.161
-358.610	-200.000	0.005	-0.129
-357.596	50.729	0.241	-0.228
-356.581	-200.000	0.023	-0.116
-355.566	-124.696	0.143	-0.022
-354.552	46.798	-0.416	-0.387
-353.537	581.283	0.172	-0.422
-352.523	-41.534	-0.257	-0.132
-351.508	-44.444	-0.056	-0.028
-350.493	-200.000	0.009	0.049
-349.479	30.157	-0.214	0.183
-348.464	-200.000	0.016	-0.161
-347.450	239.876	-0.095	-0.158
-346.435	-200.000	0.008	-0.135
-345.420	-200.000	0.074	0.340
-344.406	-111.236	-0.330	0.067
-343.391	723.822	-0.193	0.515
-342.377	800.000	0.105	0.342
-341.362	-132.730	0.161	0.021
-340.348	-200.000	0.051	-0.252
-339.333	248.304	-0.044	-0.074
-338.318	-50.684	-0.200	0.094
-337.304	-200.000	0.047	-0.224
-336.289	-127.157	-0.148	-0.022
-335.275	-200.000	0.019	-0.262
-334.260	336.314	0.135	0.262
-333.245	747.730	0.064	-0.172
-332.231	-136.684	-0.603	0.070
-331.216	165.603	-0.036	-0.050
-330.202	-143.181	-0.206	-0.020
-329.187	-200.000	0.066	-0.368
-328.172	800.000	-0.084	0.289
-327.158	107.148	-0.077	0.091
-326.143	-140.813	0.083	0.009
-325.129	114.907	-0.080	-0.097
-324.114	800.000	0.036	0.130
-323.099	475.002	0.036	-0.080
-322.085	-200.000	0.150	0.000
-321.070	174.089	-0.249	0.359
-320.056	-79.760	0.094	0.032
-319.041	-148.725	0.304	0.025
-318.026	77.084	0.026	0.028
-317.012	-200.000	-0.018	0.172
-315.997	184.924	0.164	0.243
-314.983	-61.308	0.230	-0.097
-313.968	3.102	-0.250	-0.181
-312.953	-93.233	0.284	0.079
-311.939	401.360	-0.165	-0.347
-310.924	800.000	-0.049	0.176
-309.910	-39.775	0.319	-0.167
-308.895	152.169	-0.018	0.025
-307.880	4.208	-0.181	0.132
-306.866	19.332	0.251	0.202
-305.851	-183.129	0.130	-0.002
-304.837	-144.309	-0.297	-0.028
-303.822	-27.416	0.200	-0.116
-302.807	228.412	-0.213	0.346
-301.793	-190.863	0.374	0.004
-300.778	800.000	0.095	0.306
-299.764	17.910	0.258	0.205
-298.749	194.642	0.179	-0.271
-297.735	-5.609	-0.126	0.087
-296.720	241.735	0.152	0.254
-295.705	117.707	0.182	-0.223
-294.691	-62.093	-0.162	-0.068
-293.676	741.354	-0.107	-0.287
-292.662	-57.229	0.200	0.088
-291.647	-154.755	-0.176	0.012
-290.632	186.067	0.042	-0.062
-289.618	-77.063	0.192	-0.067
-288.603	768.161	0.185	-0.502
-287.589	800.000	0.068	0.238
-286.574	-200.000	-0.017	0.206
-285.559	7.274	0.353	0.263
-284.545	-23.125	-0.326	-0.196
-283.530	273.117	-0.086	0.151
-282.516	-200.000	0.085	0.565
-281.501	-194.484	-0.306	-0.002
-280.486	202.241	0.070	-0.108
-279.472	-99.809	-0.387	0.097
-278.457	-12.019	0.021	0.014
-277.443	-188.505	0.053	-0.001
-276.428	800.000	-0.126	0.394
-275.413	-128.981	-0.138	0.019
-274.399	137.614	-0.073	-0.095
-273.384	278.152	0.032	-0.057
-272.370	43.103	0.137	0.125
-271.355	-200.000	-0.014	-0.080
-270.340	159.455	0.268	-0.372
-269.326	800.000	0.048	0.207
-268.311	-200.000	-0.004	0.172
-267.297	-119.166	-0.390	0.068
-266.282	78.033	0.233	0.248
-265.267	43.505	-0.117	0.107
-264.253	124.028	-0.055	0.068
-263.238	800.000	-0.062	-0.194
-262.224	-200.000	0.055	-0.342
-261.209	130.093	0.123	0.157
-260.195	11.363	-0.075	-0.057
-259.180	124.437	0.283	-0.355
-258.165	-158.309	0.147	-0.009
-257.151	-55.877	0.223	0.099
-256.136	-47.590	-0.150	0.073
-255.122	357.212	0.131	0.261
-254.107	800.000	0.033	-0.107
-253.092	-139.435	0.063	0.007
-252.078	24.548	0.174	-0.144
-251.063	65.483	0.115	-0.116
-250.049	-200.000	-0.001	-0.057
-249.034	20.186	-0.113	-0.091
-248.019	-142.040	-0.280	-0.028
-247.005	385.457	-0.091	0.186
-245.990	-200.000	0.001	-0.226
-244.976	-19.717	-0.148	-0.091
-243.961	-15.821	-0.013	-0.008
-242.946	800.000	0.076	0.256
-241.932	-200.000	0.018	0.127
-240.917	232.558	0.047	-0.077
-239.903	-161.513	-0.213	-0.011
-238.888	305.624	-0.120	0.223
-237.873	-130.884	-0.228	-0.030
-236.859	-89.781	-0.231	-0.067
-235.844	34.181	-0.120	0.105
-234.830	-76.027	0.068	-0.024
-233.815	372.625	-0.110	-0.222
-232.800	23.562	-0.328	-0.269
-231.786	-125.948	0.159	-0.024
-230.771	362.677	-0.028	0.056
-229.757	155.093	0.090	-0.124
-228.742	-9.389	-0.376	-0.250
-227.727	-200.000	0.002	-0.021
-226.713	-200.000	-0.002	-0.208
-225.698	100.726	-0.190	0.220
-224.684	-200.000	0.077	0.491
-223.669	-200.000	0.008	-0.238
-222.655	285.105	-0.040	-0.071
-221.640	70.103	0.310	0.319
-220.625	126.529	0.138	-0.174
-219.611	0.574	-0.369	-0.263
-218.596	-89.522	0.046	-0.014
-217.582	-200.000	-0.006	-0.326
-216.567	-200.000	0.002	0.335
-215.552	-200.000	-0.041	-0.390
-214.538	-200.000	-0.084	-0.483
-213.523	-78.056	-0.159	0.054
-212.509	-154.112	0.133	-0.009
-211.494	-29.397	0.050	-0.028
-210.479	-133.413	0.316	-0.040
-209.465	-200.000	-0.015	-0.117
-208.450	7.531	-0.081	0.060
-207.436	-179.855	0.267	-0.006
-206.421	209.904	-0.141	-0.219
-205.406	454.350	-0.098	-0.216
-204.392	-200.000	0.045	-0.273
-203.377	-200.000	0.053	0.352
-202.363	-116.441	-0.159	0.029
-201.348	-200.000	-0.014	0.202
-200.333	-67.181	0.281	-0.110
-199.319	252.528	-0.094	0.160
-198.304	52.846	-0.151	-0.144
-197.290	-71.264	0.143	-0.053
-196.275	-200.000	-0.005	0.234
-195.260	-132.132	0.307	0.040
-194.246	-89.916	0.248	-0.072
-193.231	-200.000	-0.047	-0.317
-192.217	800.000	-0.009	-0.029
-191.202	-169.863	0.314	-0.011
-190.187	11.122	0.351	-0.267
-189.173	-2.170	-0.148	0.103
-188.158	-72.480	0.171	-0.063
-187.144	-200.000	-0.028	-0.182
-186.129	198.213	0.066	-0.100
-185.114	-165.231	0.249	0.011
-184.100	69.737	-0.038	0.038
-183.085	582.924	-0.043	-0.105
-182.071	-200.000	-0.037	-0.203
-181.056	75.270	-0.237	-0.248
-180.042	-66.251	-0.301	-0.119
-179.027	-3.821	-0.180	-0.124
-178.012	-152.100	0.247	-0.018
-176.998	-200.000	0.051	0.371
-175.983	56.408	-0.183	-0.177
-174.969	800.000	0.049	0.136
-173.954	471.511	0.113	0.253
-172.939	478.748	0.101	-0.227
-171.925	-93.068	0.224	0.062
-170.910	-32.712	-0.133	-0.073
-169.896	-200.000	0.042	-0.182
-168.881	295.091	-0.171	-0.311
-167.866	235.756	0.088	0.145
-166.852	-200.000	-0.016	-0.225
-165.837	-57.885	0.195	-0.084
-164.823	-200.000	0.051	-0.227
-163.808	701.759	0.013	0.035
-162.793	120.247	0.208	0.257
-161.779	-200.000	-0.083	-0.511
-160.764	-99.214	-0.170	-0.043
-159.750	-92.010	-0.128	-0.036
-158.735	232.413	0.177	0.289
-157.720	472.974	0.053	0.118
-156.706	252.412	0.315	0.533
-155.691	192.054	0.052	0.077
-154.677	-71.032	0.172	-0.064
-153.662	-200.000	-0.049	0.519
-152.647	-70.307	0.190	-0.072
-151.633	166.735	0.176	0.248
-150.618	267.892	0.260	0.452
-149.604	761.882	0.061	0.163
-148.589	172.996	0.227	0.325
-147.574	-29.713	-0.415	0.235
-146.560	-53.806	0.150	-0.068
-145.545	253.989	0.099	-0.168
-144.531	-46.099	0.418	0.204
-143.516	-131.729	0.240	-0.031
-142.502	297.186	-0.155	-0.282
-141.487	648.975	0.032	-0.080
-140.472	-200.000	-0.029	0.169
-139.458	-200.000	0.032	-0.347
-138.443	499.967	0.107	-0.245
-137.429	98.112	-0.105	-0.120
-136.414	-88.690	-0.158	-0.046
-135.399	26.624	-0.148	-0.123
-134.385	314.313	-0.119	-0.223
-133.370	-48.941	0.248	0.118
-132.356	7.338	-0.018	0.013
-131.341	493.678	-0.124	-0.281
-130.326	74.513	-0.049	-0.051
-129.312	-200.000	-0.020	-0.281
-128.297	77.114	0.088	0.092
-127.283	-59.218	0.183	0.078
-126.268	-25.482	-0.206	0.121
-125.253	64.582	0.130	0.130
-124.239	-82.307	0.117	0.038
-123.224	-200.000	-0.042	0.243
-122.210	-68.955	0.060	0.023
-121.195	24.376	0.132	-0.108
