DTS Sentinel unit serial number:	SN413079Multiplexer serial number:	ORYXHardware model number:	OX4-SRSoftware version number:	ORYX F/W v4.00 Oryx Data Collector v3.7.2.0data status	okinstallation	princeton_trtdifferential loss correction	single-endedforward channel	channel 4reverse channel	N/Adate	2019/09/12time	03:59:10forward acquisition time	60.00reverse acquisition time	0.00gamma	496.2192k internal	0.2309k external	0.2309temperature offset calibration	1.0101default loss term (dB/km)	0.3790temperature slope calibration	1.0000multiplexer offset coefficient	1.0000multiplexer slope coefficient	1.0000fibre end	0.00T internal ref (°C)	32.06T ext. ref 1 (°C)	2.16T ext. ref 2 (°C)	26.00length (m)	temperature (°C)	Stokes	anti-Stokes-747.200	-61.303	0.223	-0.095
-746.185	-200.000	-0.047	0.326
-745.171	-88.134	-0.074	-0.022
-744.156	-42.704	-0.070	0.036
-743.142	-200.000	0.045	0.223
-742.127	-33.414	-0.489	0.275
-741.112	-51.279	-0.219	0.104
-740.098	134.774	-0.391	0.516
-739.083	-32.942	-0.246	-0.139
-738.069	-171.875	0.160	0.005
-737.054	800.000	-0.092	0.267
-736.039	-178.266	-0.095	-0.002
-735.025	207.848	0.079	0.125
-734.010	181.708	0.125	-0.187
-732.996	-168.189	-0.427	0.017
-731.981	2.045	-0.290	-0.213
-730.966	60.639	-0.089	-0.089
-729.952	103.023	-0.160	0.190
-728.937	-200.000	0.039	-0.232
-727.923	122.539	0.080	-0.101
-726.908	800.000	-0.014	-0.041
-725.894	-56.151	0.146	-0.066
-724.879	-15.038	-0.126	0.082
-723.864	-31.836	0.335	-0.191
-722.850	342.383	-0.094	0.187
-721.835	129.476	-0.155	0.201
-720.821	-70.207	0.252	-0.097
-719.806	800.000	0.021	0.063
-718.791	634.806	-0.071	0.183
-717.777	61.526	-0.073	-0.074
-716.762	-200.000	0.078	-0.449
-715.748	182.354	-0.150	-0.224
-714.733	246.133	0.068	0.116
-713.718	44.749	-0.228	-0.213
-712.704	-45.068	0.315	0.159
-711.689	-98.514	0.052	0.014
-710.675	35.747	-0.197	0.176
-709.660	-200.000	-0.017	0.082
-708.645	-38.112	0.185	0.100
-707.631	-200.000	-0.039	0.345
-706.616	175.167	-0.140	-0.206
-705.602	-141.915	-0.262	-0.027
-704.587	-200.000	-0.014	0.081
-703.572	152.861	0.281	0.389
-702.558	-200.000	0.059	0.271
-701.543	-127.594	-0.125	0.018
-700.529	-117.305	0.074	0.014
-699.514	-200.000	-0.022	0.223
-698.499	-87.959	-0.211	-0.064
-697.485	222.988	0.202	-0.330
-696.470	-15.632	0.228	-0.148
-695.456	43.932	0.092	0.085
-694.441	474.152	0.130	0.298
-693.426	-200.000	0.010	0.049
-692.412	-58.699	-0.427	-0.187
-691.397	678.312	0.095	0.251
-690.383	800.000	-0.039	-0.108
-689.368	254.389	0.289	-0.501
-688.354	-92.073	-0.291	-0.084
-687.339	577.411	-0.101	-0.250
-686.324	-188.617	-0.032	-0.000
-685.310	-29.370	0.355	0.206
-684.295	-200.000	0.018	-0.262
-683.281	-200.000	-0.024	-0.681
-682.266	88.249	0.070	-0.078
-681.251	-60.895	0.218	0.094
-680.237	-116.674	-0.440	0.082
-679.222	63.349	-0.171	-0.174
-678.208	-37.359	0.119	-0.064
-677.193	-23.924	0.287	-0.174
-676.178	126.516	0.112	0.143
-675.164	425.360	0.037	0.081
-674.149	307.895	-0.070	-0.133
-673.135	-200.000	-0.011	0.056
-672.120	-200.000	-0.015	-0.068
-671.105	44.168	-0.111	0.103
-670.091	-200.000	0.049	-0.252
-669.076	307.306	-0.042	-0.079
-668.062	135.793	0.132	-0.174
-667.047	-127.931	-0.278	0.040
-666.032	264.627	-0.117	-0.206
-665.018	43.410	0.088	-0.081
-664.003	-71.374	-0.345	-0.131
-662.989	-57.923	0.257	-0.114
-661.974	159.639	-0.309	-0.436
-660.959	-89.570	-0.290	-0.086
-659.945	2.218	-0.134	-0.098
-658.930	128.169	0.037	-0.048
-657.916	-200.000	-0.047	-0.294
-656.901	-200.000	0.026	-0.171
-655.886	84.146	-0.228	0.252
-654.872	476.684	0.173	-0.395
-653.857	800.000	0.025	-0.100
-652.843	-200.000	-0.111	-0.510
-651.828	-89.904	0.126	-0.037
-650.814	45.794	0.283	-0.265
-649.799	-125.578	-0.462	0.071
-648.784	800.000	-0.057	0.189
-647.770	118.617	-0.011	-0.014
-646.755	-88.322	-0.460	-0.139
-645.741	45.026	-0.240	0.224
-644.726	800.000	-0.123	-0.384
-643.711	-168.909	0.151	-0.006
-642.697	-81.170	-0.247	-0.083
-641.682	-90.621	0.436	-0.127
-640.668	-200.000	0.010	0.119
-639.653	-151.085	-0.391	-0.030
-638.638	565.728	-0.039	0.096
-637.624	-119.540	-0.223	0.039
-636.609	6.317	-0.332	0.249
-635.595	-200.000	-0.027	-0.395
-634.580	730.711	-0.025	-0.067
-633.565	-137.559	0.222	-0.025
-632.551	-153.097	-0.312	-0.022
-631.536	264.318	0.030	-0.053
-630.522	13.131	-0.309	0.242
-629.507	213.249	-0.155	-0.247
-628.492	800.000	0.033	-0.091
-627.478	800.000	-0.090	-0.287
-626.463	800.000	0.056	-0.224
-625.449	1.655	0.071	-0.051
-624.434	-64.696	-0.193	0.079
-623.419	-79.990	0.185	-0.063
-622.405	-70.562	-0.088	0.034
-621.390	136.742	0.023	-0.030
-620.376	35.976	0.092	-0.082
-619.361	49.444	0.181	-0.172
-618.346	-200.000	-0.039	-0.223
-617.332	800.000	0.024	0.085
-616.317	748.180	0.115	0.312
-615.303	-200.000	0.021	0.251
-614.288	24.732	-0.333	0.279
-613.273	-132.428	-0.254	0.033
-612.259	375.893	0.142	-0.293
-611.244	-48.484	0.090	0.044
-610.230	-56.580	0.395	-0.177
-609.215	-119.304	0.087	0.015
-608.201	171.081	0.080	-0.116
-607.186	83.234	-0.155	-0.170
-606.171	-102.229	0.331	0.080
-605.157	21.107	-0.364	-0.299
-604.142	640.263	0.055	-0.142
-603.128	-20.190	-0.212	0.132
-602.113	800.000	0.092	-0.329
-601.098	-41.046	-0.103	-0.054
-600.084	501.331	0.078	0.182
-599.069	-200.000	0.001	-0.313
-598.055	590.993	-0.052	-0.128
-597.040	480.037	-0.061	0.140
-596.025	-160.259	0.134	-0.007
-595.011	800.000	-0.099	-0.343
-593.996	170.359	-0.159	0.229
-592.982	-108.720	-0.033	-0.007
-591.967	262.379	0.183	-0.320
-590.952	800.000	-0.005	-0.022
-589.938	800.000	-0.110	0.317
-588.923	-109.934	-0.208	0.044
-587.909	800.000	-0.020	0.071
-586.894	231.354	-0.164	-0.271
-585.879	644.822	0.017	0.045
-584.865	17.581	-0.071	-0.057
-583.850	-80.910	0.217	-0.073
-582.836	-89.024	0.174	-0.052
-581.821	141.922	-0.107	0.143
-580.806	625.560	-0.090	0.230
-579.792	-170.155	-0.275	-0.010
-578.777	264.175	-0.138	0.242
-577.763	-2.631	0.172	0.121
-576.748	84.948	-0.185	-0.205
-575.733	-39.603	-0.300	0.159
-574.719	191.724	0.109	0.165
-573.704	-200.000	0.003	-0.015
-572.690	298.887	0.075	0.138
-571.675	170.438	0.100	-0.145
-570.661	14.710	0.113	-0.089
-569.646	-200.000	0.011	-0.143
-568.631	-71.557	0.054	0.020
-567.617	-200.000	0.030	0.273
-566.602	244.356	0.192	-0.325
-565.588	-200.000	0.065	-0.503
-564.573	-49.555	0.200	-0.096
-563.558	-128.547	0.192	-0.027
-562.544	-200.000	0.067	-0.346
-561.529	375.731	0.121	0.248
-560.515	-51.251	-0.279	0.132
-559.500	11.121	-0.091	-0.070
-558.485	-200.000	-0.006	0.043
-557.471	157.301	-0.322	-0.449
-556.456	-200.000	0.035	-0.339
-555.442	-36.125	-0.096	0.052
-554.427	-200.000	0.058	-0.295
-553.412	34.573	-0.126	0.111
-552.398	34.877	-0.258	0.228
-551.383	24.067	0.352	0.293
-550.369	456.667	0.150	-0.336
-549.354	-31.321	0.172	-0.098
-548.339	-33.803	0.336	0.187
-547.325	-36.650	-0.238	0.129
-546.310	800.000	0.036	0.110
-545.296	292.324	-0.129	-0.236
-544.281	-114.040	0.230	0.045
-543.266	20.072	-0.269	-0.219
-542.252	-86.973	0.214	-0.066
-541.237	-107.856	0.159	0.035
-540.223	607.223	-0.086	0.216
-539.208	26.831	-0.252	-0.213
-538.193	-24.523	0.086	0.052
-537.179	290.655	0.026	0.047
-536.164	275.652	0.053	0.095
-535.150	60.670	-0.205	0.205
-534.135	189.093	0.163	-0.246
-533.121	-53.626	0.122	-0.056
-532.106	198.497	0.077	0.119
-531.091	180.828	-0.040	-0.060
-530.077	54.233	0.160	0.155
-529.062	-61.623	0.190	-0.080
-528.048	731.145	0.057	-0.154
-527.033	269.835	-0.150	0.266
-526.018	-119.571	0.061	-0.011
-525.004	32.974	-0.152	-0.132
-523.989	331.312	-0.108	-0.210
-522.975	-90.154	0.377	0.111
-521.960	-200.000	0.049	-0.306
-520.945	-41.209	-0.330	-0.172
-519.931	800.000	-0.055	0.168
-518.916	-100.213	-0.226	0.057
-517.902	800.000	0.075	-0.304
-516.887	186.022	-0.057	-0.086
-515.872	104.619	-0.196	-0.232
-514.858	-75.579	0.063	-0.023
-513.843	-125.547	-0.245	-0.037
-512.829	-200.000	-0.211	0.000
-511.814	-200.000	0.001	0.172
-510.799	536.105	-0.066	-0.159
-509.785	-157.119	-0.142	-0.009
-508.770	-133.758	-0.200	0.025
-507.756	-60.892	0.107	0.046
-506.741	-95.733	-0.202	-0.054
-505.726	-82.447	0.354	-0.116
-504.712	-174.746	0.199	-0.006
-503.697	2.031	-0.214	-0.156
-502.683	-178.113	-0.222	0.005
-501.668	-107.093	-0.155	-0.034
-500.653	-200.000	0.050	-0.285
-499.639	-135.433	0.134	-0.016
-498.624	28.765	0.065	0.055
-497.610	118.532	0.170	-0.211
-496.595	4.816	0.153	0.113
-495.581	-72.202	0.196	0.073
-494.566	-40.030	0.096	0.050
-493.551	-200.000	0.014	-0.120
-492.537	-157.926	-0.381	0.023
-491.522	272.456	-0.137	0.243
-490.508	278.428	0.065	0.116
-489.493	58.732	0.034	0.034
-488.478	-108.941	0.137	0.029
-487.464	-32.463	-0.119	0.067
-486.449	800.000	-0.046	-0.186
-485.435	79.960	-0.012	-0.013
-484.420	44.778	-0.213	-0.197
-483.405	800.000	-0.076	0.327
-482.391	214.162	0.144	0.229
-481.376	-20.920	0.315	0.194
-480.362	-200.000	-0.035	-0.230
-479.347	-196.406	0.102	-0.001
-478.332	800.000	-0.064	-0.241
-477.318	562.869	0.174	0.425
-476.303	687.338	0.067	0.177
-475.289	-200.000	0.004	-0.312
-474.274	-159.761	-0.055	0.003
-473.259	109.941	0.108	0.130
-472.245	13.469	-0.230	0.179
-471.230	-200.000	0.018	-0.298
-470.216	-181.699	0.148	-0.003
-469.201	800.000	-0.151	0.528
-468.186	84.814	0.028	-0.030
-467.172	26.196	-0.068	-0.057
-466.157	-150.439	0.184	0.014
-465.143	-66.819	0.149	0.059
-464.128	-118.417	-0.402	0.072
-463.113	800.000	-0.036	-0.130
-462.099	-88.843	0.224	0.067
-461.084	6.552	0.224	0.167
-460.070	-200.000	0.049	-0.270
-459.055	-49.262	0.050	-0.024
-458.040	-200.000	0.055	-0.272
-457.026	133.987	-0.338	-0.440
-456.011	-117.727	0.433	0.078
-454.997	-200.000	0.024	0.125
-453.982	-112.988	-0.108	-0.022
-452.968	-109.078	-0.089	0.019
-451.953	-200.000	0.020	-0.279
-450.938	-200.000	0.037	-0.312
-449.924	602.107	-0.147	-0.368
-448.909	79.660	-0.075	-0.081
-447.895	-25.991	-0.264	0.156
-446.880	-86.580	-0.122	-0.038
-445.865	-95.681	0.174	0.047
-444.851	-49.980	0.407	-0.194
-443.836	-200.000	0.015	0.293
-442.822	69.324	0.305	0.315
-441.807	161.130	0.038	-0.054
-440.792	188.673	0.043	-0.064
-439.778	-200.000	0.004	-0.088
-438.763	-182.567	-0.164	0.003
-437.749	-24.504	-0.199	0.119
-436.734	-12.432	-0.244	0.160
-435.719	-200.000	-0.257	0.001
-434.705	126.314	-0.068	-0.087
-433.690	-155.724	-0.290	0.019
-432.676	-96.183	-0.246	-0.066
-431.661	-122.626	0.627	0.102
-430.646	-127.651	0.152	0.022
-429.632	-36.559	0.156	-0.084
-428.617	800.000	-0.041	-0.143
-427.603	24.373	-0.148	-0.123
-426.588	96.081	-0.070	-0.081
-425.573	-126.602	0.065	0.010
-424.559	57.016	-0.133	0.130
-423.544	545.235	-0.108	0.259
-422.530	-166.860	0.311	-0.013
-421.515	86.097	-0.258	0.285
-420.500	-87.435	0.240	0.073
-419.486	141.895	-0.310	0.412
-418.471	223.700	-0.250	-0.405
-417.457	-97.753	-0.230	-0.060
-416.442	91.867	-0.189	0.214
-415.428	-20.082	-0.211	-0.130
-414.413	-200.000	-0.015	0.192
-413.398	87.925	-0.097	0.108
-412.384	24.203	-0.115	-0.095
-411.369	-200.000	-0.001	-0.200
-410.355	-200.000	0.038	-0.290
-409.340	-78.717	0.441	0.151
-408.325	-0.198	-0.264	0.188
-407.311	-167.745	-0.365	0.014
-406.296	-97.773	-0.088	0.023
-405.282	-61.994	0.104	-0.044
-404.267	9.867	-0.184	-0.140
-403.252	-81.512	0.215	-0.071
-402.238	-131.265	-0.045	-0.006
-401.223	127.745	0.100	0.127
-400.209	-33.904	0.170	-0.094
-399.194	66.902	0.215	0.220
-398.179	-14.189	0.192	-0.124
-397.165	-33.519	0.197	-0.109
-396.150	800.000	0.105	0.315
-395.136	-76.960	0.149	0.052
-394.121	-89.402	-0.117	0.035
-393.106	-200.000	-0.011	-0.338
-392.092	-124.117	-0.219	-0.034
-391.077	-122.464	0.258	-0.042
-390.063	800.000	-0.060	-0.216
-389.048	7.800	0.075	0.057
-388.033	-200.000	0.006	0.255
-387.019	794.866	-0.021	0.057
-386.004	-0.685	-0.191	-0.136
-384.990	-200.000	-0.025	0.340
-383.975	-30.577	0.109	0.062
-382.960	619.382	0.039	0.097
-381.946	365.105	0.106	0.213
-380.931	-56.931	0.148	0.065
-379.917	-60.769	0.085	-0.036
-378.902	27.100	-0.168	-0.141
-377.888	800.000	0.083	0.254
-376.873	-148.370	0.118	0.010
-375.858	257.378	0.050	-0.086
-374.844	116.129	-0.273	-0.335
-373.829	-11.719	-0.086	-0.056
-372.815	769.609	0.108	0.295
-371.800	178.116	0.079	0.115
-370.785	-200.000	0.011	0.440
-369.771	-200.000	0.003	0.070
-368.756	-84.026	0.155	0.049
-367.742	-74.763	0.349	0.126
-366.727	-60.067	0.140	-0.060
-365.712	340.858	-0.027	-0.053
-364.698	55.227	-0.093	-0.090
-363.683	800.000	-0.132	-0.462
-362.669	717.292	-0.083	-0.220
-361.654	81.530	-0.111	-0.120
-360.639	86.993	0.094	-0.104
-359.625	-200.000	0.020	-0.150
-358.610	-41.627	0.292	-0.150
-357.596	-85.676	-0.178	0.055
-356.581	260.762	-0.100	0.173
-355.566	33.577	-0.046	0.040
-354.552	800.000	0.081	-0.242
-353.537	397.769	0.130	0.272
-352.523	-89.253	-0.121	0.036
-351.508	63.612	0.175	0.176
-350.493	800.000	0.081	0.352
-349.479	-153.633	0.044	-0.003
-348.464	-168.400	0.311	0.012
-347.450	-140.281	0.124	0.013
-346.435	-200.000	-0.013	0.174
-345.420	-163.708	0.371	-0.017
-344.406	-200.000	-0.012	-0.056
-343.391	-7.823	0.182	0.123
-342.377	-200.000	0.006	-0.284
-341.362	-200.000	0.013	-0.131
-340.348	-25.735	0.109	-0.064
-339.333	-146.301	-0.344	-0.030
-338.318	-5.076	0.273	0.188
-337.304	-143.264	0.180	0.017
-336.289	78.357	-0.115	-0.123
-335.275	-61.127	-0.290	0.122
-334.260	80.118	-0.061	-0.065
-333.245	27.665	0.269	-0.226
-332.231	-200.000	-0.011	-0.461
-331.216	12.689	-0.161	0.124
-330.202	23.305	-0.061	0.050
-329.187	-172.376	-0.269	-0.009
-328.172	96.050	0.301	-0.344
-327.158	-129.651	0.082	-0.011
-326.143	-87.852	-0.170	0.051
-325.129	-76.477	-0.289	0.101
-324.114	-58.316	0.206	0.089
-323.099	132.061	-0.024	0.031
-322.085	-31.244	-0.247	0.139
-321.070	171.118	0.121	0.174
-320.056	-200.000	0.007	-0.258
-319.041	-32.880	0.318	0.177
-318.026	-7.458	0.158	0.107
-317.012	-200.000	0.004	0.147
-315.997	-41.123	-0.243	0.126
-314.983	-46.899	0.187	0.092
-313.968	-91.874	0.172	-0.049
-312.953	-200.000	0.008	-0.135
-311.939	-200.000	-0.036	0.170
-310.924	-42.356	0.342	-0.174
-309.910	-126.439	-0.406	-0.060
-308.895	15.224	0.254	0.199
-307.880	-87.103	-0.110	0.033
-306.866	800.000	-0.069	0.212
-305.851	328.969	0.150	-0.288
-304.837	-200.000	0.026	0.297
-303.822	241.792	-0.062	0.103
-302.807	735.720	-0.106	-0.284
-301.793	125.694	0.106	0.134
-300.778	800.000	-0.014	0.062
-299.764	-200.000	-0.016	-0.150
-298.749	-89.138	-0.187	-0.055
-297.735	-200.000	-0.047	-0.270
-296.720	-42.026	0.204	0.104
-295.705	186.379	-0.083	-0.124
-294.691	34.354	0.171	-0.149
-293.676	-200.000	-0.001	-0.023
-292.662	-200.000	0.003	-0.372
-291.647	-103.419	0.151	0.035
-290.632	-181.430	-0.184	0.004
-289.618	-99.239	0.256	-0.065
-288.603	-87.905	0.254	-0.076
-287.589	87.863	-0.237	-0.262
-286.574	-25.657	-0.155	-0.092
-285.559	323.217	-0.127	0.242
-284.545	800.000	0.045	-0.129
-283.530	-56.430	0.313	-0.138
-282.516	-200.000	0.034	-0.193
-281.501	-7.441	-0.218	-0.147
-280.486	99.311	-0.128	-0.148
-279.472	-48.782	0.209	-0.100
-278.457	-106.193	0.049	0.011
-277.443	-10.992	0.236	0.155
-276.428	-2.140	0.301	0.211
-275.413	84.687	-0.100	0.109
-274.399	-200.000	0.009	0.229
-273.384	-18.168	-0.029	-0.018
-272.370	-115.099	-0.252	-0.048
-271.355	-110.888	0.185	0.038
-270.340	800.000	-0.054	-0.175
-269.326	49.629	0.066	-0.062
-268.311	38.450	-0.144	0.128
-267.297	-89.166	-0.283	0.083
-266.282	800.000	0.034	-0.113
-265.267	-118.712	0.430	0.076
-264.253	-200.000	0.035	-0.254
-263.238	-25.830	-0.138	0.081
-262.224	58.524	0.047	0.046
-261.209	-87.091	-0.312	0.095
-260.195	800.000	0.064	0.186
-259.180	514.204	0.034	0.080
-258.165	-84.122	-0.347	-0.110
-257.151	1.791	0.197	0.142
-256.136	-146.110	-0.419	-0.037
-255.122	205.064	0.112	-0.173
-254.107	79.017	0.231	-0.246
-253.092	-64.197	-0.336	0.137
-252.078	212.714	-0.008	0.012
-251.063	800.000	0.033	-0.096
-250.049	114.989	-0.068	0.083
-249.034	-85.779	0.070	0.022
-248.019	185.459	0.262	0.388
-247.005	-131.960	-0.127	0.017
-245.990	126.582	-0.070	-0.088
-244.976	-200.000	0.013	0.171
-243.961	48.257	0.072	0.067
-242.946	343.141	0.046	0.091
-241.932	-48.797	0.325	0.155
-240.917	-32.592	-0.205	0.114
-239.903	-94.585	0.276	0.075
-238.888	-16.175	-0.152	0.096
-237.873	222.030	0.109	0.175
-236.859	-200.000	0.030	-0.158
-235.844	102.495	-0.025	0.029
-234.830	276.416	0.133	0.235
-233.815	800.000	-0.060	0.249
-232.800	74.601	0.168	-0.176
-231.786	-97.629	0.062	-0.016
-230.771	-81.452	0.094	-0.031
-229.757	-7.940	-0.108	-0.073
-228.742	-89.941	-0.121	0.035
-227.727	152.415	0.136	0.185
-226.713	-116.312	0.336	-0.062
-225.698	-90.544	-0.293	0.084
-224.684	-200.000	-0.004	0.358
-223.669	800.000	-0.085	0.262
-222.655	-141.790	0.241	-0.024
-221.640	75.512	-0.133	-0.140
-220.625	-200.000	0.045	-0.276
-219.611	-161.796	-0.241	0.012
-218.596	79.701	-0.223	0.238
-217.582	-200.000	0.009	0.300
-216.567	-40.990	0.185	0.095
-215.552	57.224	-0.111	0.108
-214.538	-86.454	-0.056	-0.017
-213.523	-173.828	-0.189	-0.006
-212.509	-30.570	0.336	0.189
-211.494	-81.676	-0.095	0.031
-210.479	-200.000	-0.005	0.088
-209.465	800.000	0.016	0.065
-208.450	89.753	0.321	-0.357
-207.436	7.030	-0.245	0.182
-206.421	-112.191	0.240	-0.048
-205.406	403.697	-0.151	-0.316
-204.392	-200.000	-0.030	-0.212
-203.377	38.113	-0.183	0.162
-202.363	129.554	-0.269	-0.342
-201.348	-30.548	0.071	-0.040
-200.333	24.956	0.077	-0.064
-199.319	-39.454	0.183	0.095
-198.304	-148.414	0.339	0.028
-197.290	-41.320	0.188	0.096
-196.275	-21.005	-0.246	-0.150
-195.260	140.171	-0.241	0.317
-194.246	800.000	-0.113	0.317
-193.231	205.523	0.076	-0.118
-192.217	41.042	-0.065	0.059
-191.202	-56.360	-0.104	-0.046
-190.187	800.000	-0.063	-0.271
-189.173	-61.837	0.137	0.057
-188.158	-175.626	0.053	0.001
-187.144	-77.523	-0.134	0.046
-186.129	-45.915	-0.283	0.139
-185.114	-200.000	-0.007	0.406
-184.100	-200.000	0.009	-0.136
-183.085	446.635	-0.042	-0.092
-182.071	-31.217	0.171	-0.096
-181.056	800.000	0.076	0.290
-180.042	236.748	-0.210	0.345
-179.027	-200.000	-0.002	0.137
-178.012	8.918	0.355	0.266
-176.998	36.032	0.056	0.049
-175.983	800.000	-0.095	0.292
-174.969	171.758	0.080	0.114
-173.954	-200.000	0.009	0.490
-172.939	-23.548	-0.027	-0.016
-171.925	485.105	0.189	-0.427
-170.910	-88.197	-0.141	-0.042
-169.896	-101.459	-0.065	-0.016
-168.881	43.151	-0.072	-0.065
-167.866	-105.911	0.209	-0.047
-166.852	72.001	0.288	0.298
-165.837	31.992	0.073	0.062
-164.823	-200.000	-0.022	-0.103
-163.808	70.263	0.172	0.177
-162.793	-123.062	0.312	0.050
-161.779	1.842	0.135	0.097
-160.764	281.498	-0.043	0.077
-159.750	230.499	-0.093	0.152
-158.735	89.484	0.067	-0.074
-157.720	800.000	-0.088	0.295
-156.706	87.865	-0.007	-0.008
-155.691	-127.145	0.078	0.011
-154.677	-164.104	-0.128	-0.006
-153.662	-127.321	-0.058	0.008
-152.647	491.831	-0.060	-0.138
-151.633	35.900	-0.024	0.021
-150.618	-146.776	-0.084	-0.007
-149.604	-115.506	-0.249	-0.047
-148.589	-83.341	-0.139	-0.044
-147.574	89.821	-0.192	0.213
-146.560	111.408	0.276	-0.331
-145.545	-104.912	0.219	0.050
-144.531	461.978	-0.048	0.106
-143.516	8.897	-0.196	-0.147
-142.502	-93.248	-0.104	-0.029
-141.487	-130.341	0.117	-0.016
-140.472	-200.000	0.003	-0.118
-139.458	800.000	0.032	-0.108
-138.443	800.000	0.125	-0.355
-137.429	245.582	-0.046	0.078
-136.414	482.521	-0.080	0.180
-135.399	-133.912	-0.071	0.009
-134.385	28.915	0.072	-0.061
-133.370	800.000	0.121	0.335
-132.356	3.556	0.131	-0.095
-131.341	45.577	-0.131	-0.120
-130.326	75.265	-0.393	0.411
-129.312	-200.000	-0.025	0.187
-128.297	352.079	0.087	-0.170
-127.283	-14.239	0.285	-0.182
-126.268	-200.000	0.012	-0.069
-125.253	-86.175	-0.200	0.061
-124.239	-125.186	0.059	0.009
-123.224	183.540	0.037	0.054
-122.210	800.000	0.076	0.285
-121.195	98.462	-0.099	0.113
-120.180	-140.217	-0.249	0.026
