DTS Sentinel unit serial number:	SN413079Multiplexer serial number:	ORYXHardware model number:	OX4-SRSoftware version number:	ORYX F/W v4.00 Oryx Data Collector v3.7.2.0data status	okinstallation	princeton_trtdifferential loss correction	single-endedforward channel	channel 4reverse channel	N/Adate	2019/09/10time	19:39:10forward acquisition time	60.00reverse acquisition time	0.00gamma	496.2192k internal	0.2310k external	0.2310temperature offset calibration	0.9944default loss term (dB/km)	0.3790temperature slope calibration	1.0000multiplexer offset coefficient	1.0000multiplexer slope coefficient	1.0000fibre end	0.00T internal ref (°C)	33.20T ext. ref 1 (°C)	-0.36T ext. ref 2 (°C)	25.98length (m)	temperature (°C)	Stokes	anti-Stokes-747.200	-83.362	-0.326	-0.106
-746.185	271.012	0.096	0.172
-745.171	-93.426	0.089	-0.025
-744.156	36.456	-0.191	0.171
-743.142	-39.288	0.288	0.154
-742.127	-90.449	-0.321	0.095
-741.112	149.969	0.099	-0.137
-740.098	24.525	0.026	-0.022
-739.083	-84.119	-0.187	0.060
-738.069	-95.577	-0.435	-0.118
-737.054	-129.813	0.239	0.033
-736.039	-97.586	-0.087	-0.023
-735.025	-200.000	0.021	0.188
-734.010	800.000	0.026	0.105
-732.996	99.955	-0.222	-0.261
-731.981	41.010	-0.300	-0.275
-730.966	515.495	0.028	-0.067
-729.952	-45.801	-0.148	-0.074
-728.937	-133.031	-0.200	-0.026
-727.923	-36.678	0.265	0.145
-726.908	800.000	-0.109	0.321
-725.894	-200.000	-0.029	-0.434
-724.879	52.983	-0.288	0.280
-723.864	800.000	-0.046	-0.201
-722.850	800.000	-0.026	0.085
-721.835	70.801	0.093	-0.098
-720.821	-51.724	0.088	-0.042
-719.806	157.013	0.211	-0.296
-718.791	32.560	0.174	0.152
-717.777	-55.216	-0.178	-0.081
-716.762	-61.351	0.404	-0.172
-715.748	20.403	-0.153	0.126
-714.733	-134.643	0.254	-0.031
-713.718	-200.000	0.024	-0.462
-712.704	64.377	-0.147	-0.151
-711.689	-200.000	0.011	-0.124
-710.675	5.477	-0.021	-0.016
-709.660	74.241	0.072	-0.077
-708.645	50.256	0.171	-0.164
-707.631	3.488	0.233	-0.172
-706.616	800.000	0.028	0.087
-705.602	131.084	0.154	-0.200
-704.587	28.297	0.172	-0.147
-703.572	-115.044	-0.181	-0.035
-702.558	54.596	-0.079	0.077
-701.543	-72.229	0.257	0.097
-700.529	98.197	-0.152	-0.177
-699.514	21.717	0.069	0.057
-698.499	-200.000	-0.016	0.112
-697.485	284.339	-0.048	0.087
-696.470	-68.818	0.160	-0.063
-695.456	-46.594	-0.073	-0.037
-694.441	-84.622	-0.156	0.050
-693.426	-91.116	0.324	-0.094
-692.412	800.000	0.079	0.231
-691.397	208.852	0.168	-0.267
-690.383	-106.033	-0.266	-0.061
-689.368	483.390	-0.114	-0.264
-688.354	-78.178	-0.113	-0.039
-687.339	-51.844	-0.251	-0.119
-686.324	10.677	-0.112	-0.086
-685.310	346.846	0.128	-0.256
-684.295	97.635	-0.104	0.121
-683.281	557.489	-0.051	-0.124
-682.266	4.128	-0.218	0.162
-681.251	126.241	0.214	-0.274
-680.237	145.509	-0.072	-0.097
-679.222	-142.696	0.050	-0.005
-678.208	233.695	-0.241	0.402
-677.193	-14.754	0.205	0.134
-676.178	-90.148	-0.193	-0.057
-675.164	-200.000	0.025	-0.286
-674.149	-200.000	-0.092	0.420
-673.135	-200.000	-0.036	-0.297
-672.120	-90.043	-0.112	-0.033
-671.105	621.825	-0.040	0.103
-670.091	-200.000	-0.011	-0.266
-669.076	-129.613	-0.111	0.016
-668.062	-146.232	0.176	-0.016
-667.047	530.973	-0.108	-0.260
-666.032	-200.000	-0.029	-0.222
-665.018	-200.000	0.042	0.401
-664.003	11.606	0.216	0.168
-662.989	-76.576	-0.307	-0.109
-661.974	310.282	-0.109	-0.207
-660.959	-144.175	-0.062	0.006
-659.945	117.987	0.067	-0.084
-658.930	-92.998	-0.325	-0.092
-657.916	-58.138	0.070	0.031
-656.901	7.481	0.348	-0.264
-655.886	24.828	-0.366	0.307
-654.872	-200.000	-0.011	0.440
-653.857	-68.317	-0.048	-0.019
-652.843	-116.771	0.199	-0.037
-651.828	-92.950	0.117	-0.033
-650.814	-35.569	-0.165	0.091
-649.799	27.141	0.111	0.094
-648.784	-98.087	-0.076	-0.020
-647.770	-137.180	-0.244	0.028
-646.755	-94.004	-0.591	0.164
-645.741	-200.000	0.036	-0.229
-644.726	-68.014	-0.247	-0.097
-643.711	194.651	0.153	-0.234
-642.697	238.019	-0.079	-0.133
-641.682	-56.269	0.161	-0.073
-640.668	153.903	0.136	0.188
-639.653	-73.028	0.437	0.162
-638.638	-200.000	0.040	0.198
-637.624	88.589	0.127	0.142
-636.609	-174.373	0.098	-0.003
-635.595	800.000	0.080	0.249
-634.580	-44.459	-0.266	0.135
-633.565	786.730	-0.107	0.296
-632.551	-95.204	0.106	-0.029
-631.536	-84.304	0.133	-0.043
-630.522	20.298	0.130	-0.106
-629.507	-35.835	-0.126	-0.069
-628.492	-5.635	0.260	0.181
-627.478	-89.189	0.207	0.062
-626.463	-168.713	0.158	0.006
-625.449	-159.579	-0.333	0.019
-624.434	110.158	0.093	0.113
-623.419	-200.000	0.012	0.120
-622.405	-33.738	-0.120	-0.067
-621.390	176.202	-0.171	-0.250
-620.376	40.140	0.138	0.125
-619.361	-200.000	0.272	-0.000
-618.346	-144.764	-0.214	-0.020
-617.332	23.283	-0.086	0.072
-616.317	-200.000	-0.013	-0.210
-615.303	130.399	0.192	0.249
-614.288	-89.540	-0.181	0.054
-613.273	800.000	-0.052	0.173
-612.259	0.294	0.239	-0.172
-611.244	65.087	-0.344	-0.351
-610.230	-99.693	-0.172	-0.044
-609.215	607.563	-0.136	0.342
-608.201	456.982	0.110	0.247
-607.186	-153.996	-0.148	-0.010
-606.171	35.913	0.294	-0.261
-605.157	-77.575	0.353	-0.123
-604.142	-200.000	-0.011	0.173
-603.128	5.517	-0.134	-0.100
-602.113	421.489	0.146	0.316
-601.098	-32.649	0.021	0.012
-600.084	303.705	-0.052	0.096
-599.069	-200.000	0.031	-0.209
-598.055	-200.000	-0.016	-0.210
-597.040	228.347	0.028	-0.047
-596.025	-97.209	0.307	0.081
-595.011	-200.000	0.225	-0.000
-593.996	-116.038	-0.258	0.048
-592.982	166.101	0.075	-0.107
-591.967	800.000	0.096	0.290
-590.952	50.091	-0.035	-0.034
-589.938	489.988	-0.121	-0.280
-588.923	-40.690	-0.316	0.165
-587.909	-131.944	0.136	0.018
-586.894	734.601	-0.107	-0.288
-585.879	-142.558	0.151	0.015
-584.865	-116.797	0.260	-0.048
-583.850	26.729	0.215	-0.182
-582.836	342.100	-0.007	-0.013
-581.821	800.000	0.061	0.203
-580.806	-110.288	-0.152	0.032
-579.792	800.000	0.011	-0.035
-578.777	-74.734	-0.159	0.058
-577.763	7.615	-0.083	-0.063
-576.748	-200.000	0.003	0.373
-575.733	-200.000	-0.016	0.247
-574.719	-200.000	0.017	0.213
-573.704	185.147	-0.115	0.172
-572.690	2.113	-0.115	-0.084
-571.675	800.000	-0.024	0.088
-570.661	-200.000	0.034	-0.245
-569.646	-200.000	0.016	-0.181
-568.631	-159.148	-0.211	-0.012
-567.617	238.961	-0.237	-0.397
-566.602	208.396	-0.098	-0.154
-565.588	-135.455	-0.059	0.007
-564.573	78.683	-0.111	0.120
-563.558	-167.326	0.141	0.006
-562.544	-108.309	0.091	0.020
-561.529	-200.000	0.033	-0.267
-560.515	-151.072	0.074	-0.006
-559.500	-64.136	0.379	0.156
-558.485	229.118	0.176	0.290
-557.471	19.896	-0.154	0.125
-556.456	800.000	-0.112	-0.468
-555.442	-155.412	0.517	0.034
-554.427	-81.902	-0.338	-0.111
-553.412	-58.179	-0.027	-0.012
-552.398	-146.157	-0.117	-0.010
-551.383	-200.000	-0.000	0.229
-550.369	23.920	0.246	0.204
-549.354	20.232	0.046	0.037
-548.339	-72.000	-0.067	0.025
-547.325	13.201	0.218	-0.170
-546.310	800.000	-0.095	0.315
-545.296	19.140	-0.152	-0.123
-544.281	-200.000	0.012	-0.194
-543.266	-91.100	0.223	-0.064
-542.252	-200.000	-0.023	-0.236
-541.237	-49.804	0.133	0.064
-540.223	-200.000	0.022	0.171
-539.208	-200.000	-0.040	0.269
-538.193	800.000	-0.081	0.248
-537.179	110.476	0.264	0.320
-536.164	-140.686	0.275	0.029
-535.150	800.000	0.019	0.059
-534.135	-131.124	-0.189	0.025
-533.121	19.587	-0.167	0.135
-532.106	43.886	0.246	-0.227
-531.091	125.787	-0.019	0.024
-530.077	122.355	0.228	-0.287
-529.062	424.476	0.056	0.121
-528.048	-33.051	-0.060	-0.034
-527.033	-144.816	-0.285	-0.026
-526.018	195.333	0.083	-0.127
-525.004	12.722	0.201	-0.156
-523.989	-200.000	0.046	-0.225
-522.975	-97.736	0.117	-0.030
-521.960	-63.111	0.098	-0.041
-520.945	800.000	0.089	0.333
-519.931	-90.237	-0.583	-0.171
-518.916	-121.754	0.305	0.051
-517.902	-149.701	0.282	-0.022
-516.887	310.917	0.200	-0.378
-515.872	132.124	0.027	-0.036
-514.858	255.762	-0.026	0.045
-513.843	54.086	0.164	-0.159
-512.829	97.181	-0.268	0.309
-511.814	482.106	-0.113	0.259
-510.799	-200.000	0.029	0.175
-509.785	-126.091	0.109	0.016
-508.770	-34.903	-0.234	0.128
-507.756	-144.939	0.111	0.010
-506.741	-119.840	0.274	-0.047
-505.726	65.091	-0.245	-0.249
-504.712	-177.077	-0.355	-0.009
-503.697	-141.439	0.269	0.027
-502.683	-200.000	-0.025	0.135
-501.668	-93.516	0.294	-0.082
-500.653	90.037	-0.305	-0.343
-499.639	198.402	0.024	-0.037
-498.624	140.601	0.083	0.110
-497.610	4.233	-0.158	0.117
-496.595	38.840	-0.359	0.322
-495.581	800.000	0.027	0.120
-494.566	-37.435	-0.200	0.108
-493.551	-129.078	0.159	-0.022
-492.537	-14.053	-0.045	0.029
-491.522	-131.108	-0.283	-0.038
-490.508	800.000	-0.102	-0.331
-489.493	-200.000	0.008	0.072
-488.478	104.378	-0.045	-0.053
-487.464	-89.262	0.137	0.040
-486.449	800.000	0.110	-0.337
-485.435	-83.919	0.125	0.040
-484.420	-200.000	-0.005	0.210
-483.405	178.937	0.155	0.228
-482.391	-143.932	0.185	-0.018
-481.376	-66.261	-0.147	-0.059
-480.362	-183.903	-0.120	0.002
-479.347	-200.000	0.046	-0.302
-478.332	-37.941	-0.178	0.095
-477.318	800.000	0.047	-0.131
-476.303	-200.000	-0.042	-0.236
-475.289	128.376	-0.087	-0.112
-474.274	526.780	-0.161	-0.381
-473.259	-9.659	0.119	-0.080
-472.245	800.000	-0.020	-0.068
-471.230	669.835	-0.075	0.196
-470.216	13.664	-0.199	0.155
-469.201	-130.615	-0.126	0.017
-468.186	-124.519	0.146	-0.023
-467.172	-172.948	-0.309	-0.010
-466.157	-69.421	-0.277	-0.107
-465.143	800.000	-0.034	-0.134
-464.128	34.932	0.148	-0.130
-463.113	40.410	-0.165	-0.149
-462.099	-117.819	0.169	-0.031
-461.084	-60.715	-0.190	-0.081
-460.070	156.566	0.133	-0.185
-459.055	-200.000	0.020	0.176
-458.040	212.171	-0.119	0.189
-457.026	-132.565	0.139	0.018
-456.011	800.000	-0.099	-0.288
-454.997	650.100	0.038	0.098
-453.982	99.970	0.279	-0.325
-452.968	218.156	0.091	-0.147
-451.953	89.032	0.106	0.118
-450.938	800.000	0.027	-0.116
-449.924	-129.754	-0.272	0.038
-448.909	249.460	-0.168	-0.286
-447.895	83.216	-0.036	-0.040
-446.880	800.000	-0.054	-0.178
-445.865	-29.260	0.207	-0.119
-444.851	-132.073	-0.143	-0.019
-443.836	59.761	0.149	-0.147
-442.822	-6.097	-0.284	0.195
-441.807	-159.808	-0.122	-0.007
-440.792	26.440	-0.044	0.037
-439.778	-99.646	-0.459	0.116
-438.763	-200.000	-0.039	0.194
-437.749	-66.442	0.243	0.097
-436.734	46.172	-0.084	0.078
-435.719	-200.000	-0.005	0.184
-434.705	473.869	-0.083	0.189
-433.690	-45.452	-0.170	-0.085
-432.676	465.536	-0.072	-0.161
-431.661	-12.612	-0.237	0.155
-430.646	-33.777	0.178	-0.099
-429.632	-91.521	-0.099	-0.028
-428.617	-98.138	0.454	0.117
-427.603	-200.000	-0.021	-0.243
-426.588	-130.675	-0.190	-0.026
-425.573	189.762	-0.121	0.182
-424.559	158.749	0.202	-0.281
-423.544	800.000	0.012	0.043
-422.530	-26.984	0.164	0.096
-421.515	615.233	0.111	-0.280
-420.500	-89.095	0.121	-0.036
-419.486	800.000	-0.029	0.088
-418.471	-92.718	0.066	0.018
-417.457	261.236	-0.074	-0.129
-416.442	39.261	-0.307	-0.276
-415.428	800.000	-0.066	-0.221
-414.413	-105.143	0.204	-0.047
-413.398	-200.000	0.005	-0.060
-412.384	800.000	0.056	-0.231
-411.369	-185.197	-0.193	-0.003
-410.355	-200.000	-0.017	0.353
-409.340	-133.620	-0.232	-0.029
-408.325	-142.885	-0.216	0.021
-407.311	22.408	-0.114	-0.094
-406.296	120.635	-0.111	-0.138
-405.282	-200.000	0.016	-0.230
-404.267	-61.189	0.131	-0.056
-403.252	-200.000	-0.049	0.277
-402.238	-115.466	-0.361	-0.068
-401.223	489.506	0.115	-0.264
-400.209	65.059	-0.188	-0.190
-399.194	274.102	-0.198	-0.351
-398.179	-200.000	-0.010	-0.172
-397.165	800.000	-0.073	0.268
-396.150	-15.741	-0.070	-0.045
-395.136	792.754	0.097	0.266
-394.121	-74.120	0.175	0.063
-393.106	38.664	0.202	-0.180
-392.092	55.509	-0.216	0.210
-391.077	-79.755	-0.215	0.073
-390.063	161.819	0.199	-0.279
-389.048	165.673	-0.150	0.212
-388.033	580.027	-0.095	0.234
-387.019	-200.000	0.015	-0.166
-386.004	428.419	0.022	-0.047
-384.990	547.891	0.143	0.342
-383.975	-110.480	-0.204	-0.042
-382.960	376.271	0.111	0.226
-381.946	659.382	-0.118	-0.305
-380.931	-47.341	0.306	-0.149
-379.917	579.444	0.105	-0.257
-378.902	800.000	-0.042	0.122
-377.888	-165.734	-0.260	-0.011
-376.873	-123.201	0.330	-0.053
-375.858	-66.354	0.109	-0.043
-374.844	-200.000	0.023	-0.187
-373.829	-19.620	-0.094	-0.058
-372.815	148.352	0.159	-0.215
-371.800	637.025	-0.130	0.330
-370.785	158.043	0.222	-0.309
-369.771	-200.000	0.013	-0.153
-368.756	-200.000	-0.007	0.285
-367.742	231.126	0.171	0.281
-366.727	-200.000	-0.029	0.423
-365.712	441.705	0.163	0.357
-364.698	-151.618	-0.287	-0.021
-363.683	293.331	-0.091	0.166
-362.669	-89.221	0.397	-0.117
-361.654	797.163	-0.080	-0.220
-360.639	800.000	-0.056	0.212
-359.625	-159.439	-0.279	0.016
-358.610	-35.937	0.214	-0.116
-357.596	-200.000	0.028	-0.269
-356.581	-160.889	-0.064	0.003
-355.566	15.712	0.035	-0.027
-354.552	66.320	-0.080	-0.081
-353.537	-43.750	-0.382	0.192
-352.523	-66.384	0.490	-0.195
-351.508	-200.000	-0.005	-0.061
-350.493	-200.000	-0.019	-0.243
-349.479	800.000	0.027	0.101
-348.464	-104.520	-0.101	0.023
-347.450	-50.768	0.167	-0.079
-346.435	-106.787	-0.285	-0.063
-345.420	-90.423	-0.055	0.016
-344.406	25.995	0.145	0.121
-343.391	496.387	0.082	-0.188
-342.377	-65.531	0.338	-0.136
-341.362	-21.989	-0.263	0.160
-340.348	83.807	-0.217	0.237
-339.333	15.508	0.143	0.112
-338.318	-200.000	-0.003	0.305
-337.304	-86.176	0.121	-0.037
-336.289	-169.384	-0.447	0.016
-335.275	-101.954	0.242	0.058
-334.260	14.878	0.330	0.258
-333.245	342.173	-0.180	-0.352
-332.231	-122.254	0.252	0.041
-331.216	-48.268	0.102	0.049
-330.202	-14.875	-0.088	-0.056
-329.187	300.099	-0.107	0.198
-328.172	20.230	0.119	0.096
-327.158	-87.967	0.196	0.059
-326.143	29.779	0.262	-0.223
-325.129	-6.105	0.255	-0.174
-324.114	-106.937	-0.263	0.058
-323.099	-117.038	-0.177	0.032
-322.085	-200.000	0.010	0.109
-321.070	-5.719	-0.142	0.097
-320.056	50.153	-0.096	0.091
-319.041	87.848	0.065	-0.072
-318.026	691.562	-0.104	-0.272
-317.012	-67.406	0.331	-0.130
-315.997	149.464	0.071	-0.096
-314.983	-129.192	0.164	-0.023
-313.968	-200.000	-0.087	0.392
-312.953	-200.000	0.046	0.208
-311.939	-36.987	-0.248	0.133
-310.924	30.253	0.228	-0.194
-309.910	800.000	0.134	-0.431
-308.895	386.303	0.052	-0.108
-307.880	2.549	-0.115	0.083
-306.866	-6.524	0.128	0.087
-305.851	-171.167	-0.267	0.009
-304.837	1.780	-0.236	-0.170
-303.822	44.926	-0.191	0.175
-302.807	-171.367	-0.306	-0.010
-301.793	104.002	0.081	0.095
-300.778	-72.953	-0.116	-0.043
-299.764	-63.234	-0.207	-0.085
-298.749	8.594	0.179	0.134
-297.735	-147.157	0.067	-0.006
-296.720	-200.000	-0.034	-0.300
-295.705	18.336	0.236	0.188
-294.691	-85.504	0.296	0.092
-293.676	47.443	0.096	-0.089
-292.662	-77.872	0.400	0.138
-291.647	-112.042	0.247	-0.050
-290.632	800.000	0.058	-0.221
-289.618	-24.071	0.146	0.087
-288.603	292.741	0.106	0.194
-287.589	20.863	0.314	0.254
-286.574	-135.698	-0.165	-0.020
-285.559	-200.000	-0.014	-0.283
-284.545	7.373	-0.175	-0.131
-283.530	-200.000	0.040	-0.393
-282.516	594.331	-0.074	0.182
-281.501	99.634	-0.205	-0.236
-280.486	351.546	-0.114	-0.225
-279.472	12.302	-0.114	-0.088
-278.457	-200.000	-0.022	-0.110
-277.443	35.602	0.254	0.223
-276.428	-200.000	0.004	0.180
-275.413	-102.578	-0.226	0.054
-274.399	-96.526	0.217	0.057
-273.384	-68.532	-0.341	0.132
-272.370	-200.000	-0.000	0.012
-271.355	-100.121	0.271	0.067
-270.340	-63.741	0.174	-0.071
-269.326	-200.000	-0.004	0.032
-268.311	188.896	0.177	0.264
-267.297	45.484	0.256	-0.235
-266.282	-200.000	-0.020	0.370
-265.267	800.000	-0.071	0.261
-264.253	6.468	0.163	-0.121
-263.238	23.360	0.149	-0.122
-262.224	184.247	0.165	-0.243
-261.209	27.395	-0.307	0.257
-260.195	-36.352	0.072	0.039
-259.180	148.546	0.073	0.098
-258.165	446.644	-0.138	0.302
-257.151	264.403	0.097	0.168
-256.136	281.678	0.081	0.145
-255.122	140.711	0.073	-0.097
-254.107	-58.365	-0.306	-0.132
-253.092	-200.000	0.021	0.315
-252.078	709.791	-0.129	0.339
-251.063	34.837	0.183	-0.159
-250.049	-126.512	0.049	-0.007
-249.034	-45.882	-0.136	0.067
-248.019	-200.000	0.002	0.019
-247.005	-200.000	-0.098	-0.448
-245.990	-76.279	-0.116	0.041
-244.976	116.508	0.016	-0.019
-243.961	762.215	0.104	0.280
-242.946	800.000	0.082	0.232
-241.932	44.389	0.123	-0.113
-240.917	241.835	-0.112	-0.186
-239.903	7.226	-0.054	-0.040
-238.888	365.728	0.113	-0.228
-237.873	-71.487	-0.273	0.102
-236.859	7.247	-0.117	0.087
-235.844	-200.000	-0.016	0.153
-234.830	-0.977	0.224	0.158
-233.815	-200.000	-0.047	0.401
-232.800	109.185	-0.198	0.235
-231.786	-61.405	-0.186	0.078
-230.771	-200.000	0.039	-0.339
-229.757	415.031	0.098	-0.208
-228.742	275.528	0.085	-0.149
-227.727	656.369	-0.150	0.383
-226.713	-113.567	0.497	0.097
-225.698	239.274	0.085	-0.141
-224.684	800.000	-0.070	0.290
-223.669	-44.180	-0.082	0.041
-222.655	6.131	-0.206	0.152
-221.640	-36.875	-0.218	-0.116
-220.625	-158.198	0.333	0.019
-219.611	27.237	-0.128	0.107
-218.596	738.839	-0.133	-0.354
-217.582	-200.000	0.011	-0.431
-216.567	-103.355	0.299	0.070
-215.552	69.207	0.058	0.060
-214.538	6.394	-0.356	0.263
-213.523	33.654	-0.176	0.152
-212.509	-106.024	-0.108	-0.024
-211.494	-81.631	0.310	0.101
-210.479	-200.000	-0.041	-0.212
-209.465	800.000	0.058	0.185
-208.450	-113.584	0.293	-0.057
-207.436	-15.241	-0.156	0.099
-206.421	-90.018	-0.116	0.034
-205.406	-0.912	0.155	-0.109
-204.392	-62.955	0.363	-0.149
-203.377	-14.550	0.187	0.120
-202.363	503.839	0.207	0.476
-201.348	-55.480	0.076	0.034
-200.333	157.070	0.188	0.258
-199.319	93.196	0.181	0.204
-198.304	-45.202	-0.051	0.025
-197.290	-200.000	-0.018	0.272
-196.275	-73.389	-0.243	0.088
-195.260	25.299	-0.042	0.034
-194.246	49.540	0.160	-0.150
-193.231	-175.725	0.443	-0.012
-192.217	18.736	-0.072	0.058
-191.202	183.775	0.062	0.090
-190.187	-54.588	-0.100	-0.045
-189.173	208.426	0.087	-0.135
-188.158	19.088	0.037	-0.029
-187.144	51.619	-0.194	-0.184
-186.129	800.000	0.125	-0.408
-185.114	-80.782	-0.345	-0.114
-184.100	800.000	0.090	-0.349
-183.085	-128.650	0.272	0.038
-182.071	90.289	-0.392	-0.435
-181.056	800.000	0.067	0.280
-180.042	239.865	-0.070	-0.116
-179.027	-24.857	-0.098	-0.058
-178.012	-103.512	-0.102	-0.024
-176.998	6.092	-0.259	-0.190
-175.983	800.000	-0.022	0.066
-174.969	282.032	0.120	0.214
-173.954	-121.473	-0.153	0.025
-172.939	290.933	-0.096	-0.174
-171.925	-18.258	-0.342	0.213
-170.910	-26.111	-0.088	-0.051
-169.896	-200.000	-0.085	0.391
-168.881	422.577	-0.100	0.212
-167.866	-105.476	-0.176	0.040
-166.852	-26.825	0.296	-0.172
-165.837	634.091	0.136	-0.342
-164.823	-136.159	0.244	0.028
-163.808	-200.000	0.040	-0.310
-162.793	-131.453	0.072	-0.009
-161.779	800.000	-0.030	-0.087
-160.764	-109.664	0.281	-0.059
-159.750	800.000	-0.077	0.212
-158.735	348.914	0.090	0.176
-157.720	74.398	-0.222	-0.231
-156.706	-169.122	-0.398	0.015
-155.691	-121.932	-0.276	0.045
-154.677	-30.855	-0.155	-0.087
-153.662	549.485	0.063	0.150
-152.647	-123.203	-0.211	0.034
-151.633	90.954	-0.161	-0.179
-150.618	-136.029	0.205	0.024
-149.604	-135.227	0.207	-0.025
-148.589	-86.042	0.165	0.051
-147.574	30.053	0.119	0.101
-146.560	167.668	-0.175	0.247
-145.545	42.265	0.124	-0.112
-144.531	-3.399	-0.015	-0.011
-143.516	-49.593	-0.099	-0.047
-142.502	441.782	-0.178	0.387
-141.487	800.000	0.021	-0.062
-140.472	-96.793	-0.409	-0.107
-139.458	-170.121	-0.064	-0.002
-138.443	-18.370	-0.272	-0.169
-137.429	152.722	-0.185	-0.250
-136.414	-119.514	0.163	0.028
-135.399	-63.383	0.178	0.073
-134.385	-200.000	-0.020	-0.295
-133.370	-200.000	0.005	0.081
-132.356	-101.463	0.210	-0.051
-131.341	-200.000	-0.023	-0.457
-130.326	227.870	0.183	0.295
-129.312	-200.000	-0.019	-0.130
-128.297	160.152	-0.249	0.345
-127.283	-51.987	0.163	-0.075
-126.268	-111.291	0.237	-0.048
-125.253	-73.241	-0.387	0.141
-124.239	516.763	0.049	-0.113
-123.224	-200.000	0.025	0.112
-122.210	771.903	0.073	-0.196
-121.195	-200.000	0.067	-0.320
