DTS Sentinel unit serial number:	SN413079Multiplexer serial number:	ORYXHardware model number:	OX4-SRSoftware version number:	ORYX F/W v4.00 Oryx Data Collector v3.7.2.0data status	okinstallation	princeton_trtdifferential loss correction	single-endedforward channel	channel 4reverse channel	N/Adate	2019/09/11time	21:43:11forward acquisition time	60.00reverse acquisition time	0.00gamma	496.2192k internal	0.2306k external	0.2306temperature offset calibration	1.0065default loss term (dB/km)	0.3790temperature slope calibration	1.0000multiplexer offset coefficient	1.0000multiplexer slope coefficient	1.0000fibre end	0.00T internal ref (°C)	35.80T ext. ref 1 (°C)	1.63T ext. ref 2 (°C)	30.19length (m)	temperature (°C)	Stokes	anti-Stokes-747.200	-27.864	0.095	0.056
-746.185	-97.346	-0.299	-0.079
-745.171	-166.181	-0.265	0.011
-744.156	109.971	0.168	0.205
-743.142	432.240	-0.084	0.185
-742.127	800.000	-0.029	0.085
-741.112	-22.523	0.233	0.144
-740.098	-141.080	-0.249	0.026
-739.083	-45.682	-0.164	0.083
-738.069	-200.000	0.075	0.411
-737.054	-10.545	0.061	-0.041
-736.039	286.671	-0.197	-0.361
-735.025	-200.000	0.017	0.091
-734.010	-200.000	0.025	-0.377
-732.996	-200.000	0.003	0.089
-731.981	-49.681	-0.037	-0.018
-730.966	800.000	0.098	-0.355
-729.952	-42.838	0.263	0.136
-728.937	-98.038	-0.165	0.043
-727.923	-147.202	-0.105	-0.009
-726.908	6.771	-0.335	-0.253
-725.894	-63.356	-0.248	0.104
-724.879	-100.085	0.429	-0.109
-723.864	219.967	-0.163	0.265
-722.850	-31.083	-0.108	-0.062
-721.835	-122.484	-0.315	0.052
-720.821	235.916	-0.149	0.250
-719.806	-200.000	0.019	0.254
-718.791	96.274	-0.212	-0.247
-717.777	166.526	-0.181	0.260
-716.762	800.000	0.013	-0.044
-715.748	-200.000	-0.033	0.408
-714.733	172.156	0.181	-0.265
-713.718	144.542	-0.054	0.074
-712.704	152.976	0.089	0.123
-711.689	30.250	-0.081	-0.070
-710.675	-100.283	-0.227	0.057
-709.660	-200.000	0.016	-0.397
-708.645	800.000	0.041	-0.172
-707.631	-85.251	0.229	-0.073
-706.616	800.000	-0.079	-0.232
-705.602	-200.000	0.042	-0.407
-704.587	-69.288	0.130	-0.051
-703.572	-200.000	-0.029	0.365
-702.558	2.942	0.133	0.098
-701.543	15.101	-0.259	0.206
-700.529	-200.000	-0.005	-0.190
-699.514	241.640	-0.165	0.279
-698.499	800.000	-0.053	0.234
-697.485	800.000	-0.051	0.171
-696.470	45.722	0.293	0.275
-695.456	-145.177	0.010	-0.001
-694.441	34.916	0.145	-0.129
-693.426	49.948	-0.027	0.026
-692.412	800.000	0.045	-0.161
-691.397	-83.577	0.102	-0.033
-690.383	116.251	0.167	0.208
-689.368	745.181	-0.061	-0.165
-688.354	206.851	0.109	0.172
-687.339	-200.000	0.035	-0.193
-686.324	-60.628	-0.243	-0.105
-685.310	-22.713	0.133	-0.082
-684.295	800.000	-0.043	0.162
-683.281	-200.000	0.017	0.199
-682.266	-200.000	-0.003	0.340
-681.251	-7.654	0.335	0.230
-680.237	-69.278	-0.187	-0.073
-679.222	-66.901	0.202	0.081
-678.208	-81.862	0.096	0.032
-677.193	588.711	-0.045	-0.113
-676.178	177.016	-0.109	-0.161
-675.164	9.720	0.077	-0.059
-674.149	-33.302	0.326	-0.183
-673.135	-200.000	0.031	-0.215
-672.120	-200.000	0.039	0.186
-671.105	399.460	-0.045	-0.096
-670.091	-42.966	0.171	-0.088
-669.076	-92.173	0.183	-0.052
-668.062	-62.568	-0.195	-0.082
-667.047	800.000	-0.003	0.010
-666.032	800.000	-0.086	-0.276
-665.018	-98.514	0.093	-0.024
-664.003	800.000	-0.044	0.135
-662.989	-200.000	0.001	-0.050
-661.974	-58.013	0.148	-0.066
-660.959	-18.348	-0.187	0.119
-659.945	-181.188	-0.021	-0.000
-658.930	800.000	-0.111	0.324
-657.916	800.000	-0.081	-0.306
-656.901	800.000	-0.060	0.230
-655.886	-200.000	-0.035	0.161
-654.872	-164.654	-0.080	0.004
-653.857	6.912	-0.065	-0.049
-652.843	25.016	0.135	0.113
-651.828	519.771	-0.143	0.340
-650.814	-200.000	0.017	-0.122
-649.799	-42.356	0.137	-0.071
-648.784	34.518	-0.185	-0.164
-647.770	349.642	-0.148	-0.297
-646.755	-104.323	0.088	-0.021
-645.741	-41.130	-0.302	-0.158
-644.726	101.395	0.125	0.148
-643.711	270.102	0.061	0.109
-642.697	62.878	0.018	-0.018
-641.682	800.000	0.067	-0.219
-640.668	405.443	0.073	0.157
-639.653	7.404	-0.258	-0.195
-638.638	145.594	0.153	-0.208
-637.624	-66.499	-0.139	-0.056
-636.609	69.091	-0.135	-0.141
-635.595	21.904	-0.029	-0.024
-634.580	55.202	-0.235	0.230
-633.565	-200.000	0.005	0.033
-632.551	533.968	-0.082	-0.198
-631.536	-98.640	-0.119	-0.031
-630.522	-122.884	0.186	-0.030
-629.507	42.676	-0.051	-0.047
-628.492	252.540	-0.136	0.234
-627.478	800.000	-0.179	0.672
-626.463	564.707	0.024	0.060
-625.449	490.834	-0.102	0.237
-624.434	434.858	-0.135	-0.297
-623.419	800.000	0.042	-0.139
-622.405	-36.922	-0.198	0.108
-621.390	393.464	0.103	0.218
-620.376	-141.235	-0.207	-0.021
-619.361	150.575	0.189	0.260
-618.346	-111.009	0.260	0.054
-617.332	2.904	-0.307	0.225
-616.317	-200.000	0.003	-0.115
-615.303	371.756	-0.189	-0.389
-614.288	-200.000	0.012	-0.100
-613.273	-10.987	0.173	0.116
-612.259	166.775	0.137	-0.197
-611.244	-151.007	-0.039	-0.003
-610.230	148.784	0.051	-0.069
-609.215	-200.000	-0.031	-0.429
-608.201	-99.141	0.120	0.031
-607.186	-166.715	0.208	-0.009
-606.171	67.341	0.093	0.096
-605.157	-155.617	0.198	-0.013
-604.142	-32.748	0.321	-0.181
-603.128	-88.644	-0.133	0.040
-602.113	297.389	0.153	-0.284
-601.098	50.052	-0.248	-0.237
-600.084	800.000	0.055	0.210
-599.069	-104.941	-0.216	0.050
-598.055	26.192	0.126	0.106
-597.040	-200.000	-0.021	0.175
-596.025	-51.074	0.171	0.081
-595.011	-49.984	-0.126	-0.061
-593.996	-142.256	0.108	0.011
-592.982	-131.746	0.430	-0.057
-591.967	85.892	0.167	-0.186
-590.952	-200.000	0.027	0.119
-589.938	4.120	0.110	0.081
-588.923	115.863	0.028	-0.034
-587.909	152.611	0.054	0.074
-586.894	11.267	-0.093	-0.072
-585.879	800.000	-0.066	-0.224
-584.865	-136.665	-0.390	0.046
-583.850	219.671	-0.368	-0.596
-582.836	-174.202	0.101	0.003
-581.821	447.978	0.111	0.246
-580.806	-167.698	-0.178	0.007
-579.792	15.163	-0.145	-0.115
-578.777	800.000	-0.036	-0.149
-577.763	-109.656	-0.286	-0.061
-576.748	-192.299	0.184	-0.002
-575.733	-200.000	-0.026	-0.301
-574.719	-109.099	-0.277	-0.060
-573.704	-200.000	0.022	-0.116
-572.690	187.543	0.060	0.090
-571.675	-92.238	0.259	0.074
-570.661	-9.454	0.238	-0.161
-569.646	-140.284	-0.216	0.023
-568.631	800.000	-0.053	0.215
-567.617	120.406	-0.317	-0.398
-566.602	-190.022	-0.169	-0.002
-565.588	196.655	-0.088	-0.136
-564.573	-145.338	0.283	-0.026
-563.558	-200.000	-0.010	0.234
-562.544	122.799	0.133	0.169
-561.529	-71.745	-0.062	0.024
-560.515	-200.000	-0.044	0.219
-559.500	41.082	-0.060	0.055
-558.485	-144.430	0.057	0.005
-557.471	-112.478	-0.081	-0.016
-556.456	59.240	-0.223	0.221
-555.442	-56.335	-0.321	0.144
-554.427	279.325	0.078	-0.141
-553.412	78.589	-0.105	0.113
-552.398	800.000	0.051	0.206
-551.383	-54.771	-0.187	-0.085
-550.369	-200.000	0.009	0.067
-549.354	499.316	-0.111	-0.259
-548.339	-131.342	0.378	0.051
-547.325	-48.374	0.121	-0.059
-546.310	800.000	0.112	-0.392
-545.296	800.000	0.051	-0.222
-544.281	264.202	-0.081	0.142
-543.266	800.000	0.053	-0.214
-542.252	-4.850	-0.330	0.230
-541.237	44.979	0.067	0.062
-540.223	800.000	0.040	-0.161
-539.208	-200.000	0.013	0.100
-538.193	800.000	0.041	0.148
-537.179	27.542	-0.194	0.165
-536.164	113.415	-0.039	0.048
-535.150	800.000	-0.026	-0.077
-534.135	632.735	-0.105	-0.270
-533.121	-122.946	0.267	-0.043
-532.106	-11.717	0.114	-0.076
-531.091	-4.735	-0.271	0.189
-530.077	126.543	-0.065	-0.084
-529.062	-140.471	0.239	-0.025
-528.048	155.432	0.204	0.284
-527.033	-57.060	0.236	-0.105
-526.018	46.693	0.074	-0.070
-525.004	22.901	-0.209	-0.173
-523.989	-77.943	-0.428	0.149
-522.975	-50.423	-0.293	-0.139
-521.960	78.988	0.053	0.057
-520.945	-44.451	-0.078	-0.039
-519.931	-200.000	-0.003	0.026
-518.916	-200.000	0.021	0.213
-517.902	293.664	-0.100	-0.184
-516.887	99.165	0.036	0.042
-515.872	5.499	-0.308	-0.230
-514.858	-72.430	-0.352	0.131
-513.843	-97.833	-0.088	0.023
-512.829	456.664	0.078	-0.176
-511.814	-8.657	-0.322	0.218
-510.799	-29.012	-0.066	-0.038
-509.785	304.041	-0.022	0.042
-508.770	156.536	0.097	0.135
-507.756	-200.000	-0.057	-0.258
-506.741	-7.823	-0.457	-0.311
-505.726	250.836	0.076	0.130
-504.712	-160.441	0.181	-0.010
-503.697	99.023	0.115	-0.134
-502.683	-200.000	0.027	0.497
-501.668	-114.588	0.160	0.031
-500.653	-58.442	-0.275	0.120
-499.639	20.354	0.358	0.291
-498.624	-200.000	0.005	0.155
-497.610	162.523	0.153	0.216
-496.595	800.000	0.081	0.267
-495.581	-108.632	-0.190	0.041
-494.566	103.118	0.078	-0.093
-493.551	80.882	0.159	-0.173
-492.537	-152.756	-0.223	0.016
-491.522	-96.547	-0.181	0.048
-490.508	-200.000	-0.026	0.159
-489.493	-200.000	-0.009	-0.229
-488.478	-200.000	0.014	-0.273
-487.464	-30.210	0.105	-0.060
-486.449	-62.779	-0.328	-0.137
-485.435	-200.000	0.005	0.029
-484.420	431.385	-0.148	0.323
-483.405	240.236	0.095	-0.159
-482.391	-200.000	0.041	-0.239
-481.376	106.078	-0.105	-0.125
-480.362	-114.368	-0.108	0.021
-479.347	-136.466	0.289	-0.034
-478.332	-154.199	-0.133	-0.009
-477.318	800.000	-0.091	-0.274
-476.303	-29.687	-0.259	-0.149
-475.289	-61.513	0.119	-0.050
-474.274	331.822	-0.101	0.196
-473.259	90.879	-0.052	-0.059
-472.245	-200.000	-0.011	0.061
-471.230	126.030	0.153	0.195
-470.216	800.000	0.069	0.197
-469.201	-200.000	-0.016	-0.158
-468.186	-96.203	0.319	-0.085
-467.172	-200.000	0.047	0.298
-466.157	-181.261	-0.188	-0.004
-465.143	-200.000	-0.081	0.365
-464.128	263.760	-0.104	-0.181
-463.113	-86.989	-0.221	0.068
-462.099	800.000	0.123	0.460
-461.084	-28.637	0.095	-0.055
-460.070	138.118	-0.053	-0.070
-459.055	800.000	-0.011	-0.043
-458.040	526.430	-0.072	-0.170
-457.026	-132.587	0.109	0.014
-456.011	-85.788	-0.186	-0.058
-454.997	27.886	-0.111	0.094
-453.982	-200.000	-0.030	0.360
-452.968	-200.000	0.020	-0.248
-451.953	477.525	-0.088	-0.200
-450.938	39.501	-0.067	-0.060
-449.924	372.885	-0.071	-0.145
-448.909	-200.000	0.012	0.082
-447.895	-200.000	0.054	0.328
-446.880	-54.321	0.065	0.030
-445.865	-12.620	-0.168	-0.110
-444.851	-45.501	0.361	-0.180
-443.836	-12.171	-0.272	-0.179
-442.822	-94.763	0.175	0.048
-441.807	714.167	-0.104	-0.277
-440.792	195.890	0.053	-0.081
-439.778	12.022	-0.190	-0.147
-438.763	800.000	0.060	0.219
-437.749	-160.059	-0.036	-0.002
-436.734	-87.650	-0.250	0.076
-435.719	-130.558	0.124	0.017
-434.705	-127.841	0.266	-0.039
-433.690	156.449	0.080	0.111
-432.676	-200.000	-0.072	0.430
-431.661	108.012	0.175	0.210
-430.646	-57.873	-0.587	-0.258
-429.632	-130.764	-0.089	0.012
-428.617	-200.000	-0.027	-0.183
-427.603	10.285	0.069	-0.053
-426.588	-200.000	-0.045	-0.520
-425.573	318.227	-0.110	-0.210
-424.559	-200.000	0.014	0.416
-423.544	111.633	-0.104	0.126
-422.530	-73.221	0.337	-0.124
-421.515	-11.457	0.135	0.089
-420.500	-83.508	0.382	-0.123
-419.486	-43.337	-0.074	-0.037
-418.471	142.876	-0.121	-0.161
-417.457	56.718	0.122	-0.120
-416.442	-170.473	-0.088	-0.003
-415.428	800.000	-0.051	0.217
-414.413	-200.000	-0.053	0.277
-413.398	14.934	0.260	0.204
-412.384	107.126	-0.131	-0.157
-411.369	309.424	0.069	-0.129
-410.355	315.183	-0.152	-0.289
-409.340	-15.892	-0.195	0.124
-408.325	-54.873	-0.041	-0.018
-407.311	413.359	0.056	0.119
-406.296	-83.813	-0.330	-0.106
-405.282	800.000	0.130	0.465
-404.267	-13.947	0.231	-0.150
-403.252	54.146	-0.233	0.225
-402.238	800.000	0.036	-0.146
-401.223	1.433	0.209	-0.151
-400.209	-143.309	-0.389	-0.037
-399.194	1.130	0.316	0.227
-398.179	-191.879	0.058	-0.001
-397.165	-200.000	-0.026	-0.253
-396.150	93.962	-0.234	-0.267
-395.136	-141.722	0.178	-0.018
-394.121	-14.281	0.170	0.110
-393.106	89.230	0.177	-0.197
-392.092	-63.567	-0.269	0.111
-391.077	-28.336	-0.216	-0.125
-390.063	-79.491	0.267	-0.090
-389.048	185.406	-0.087	-0.130
-388.033	-116.569	0.082	0.015
-387.019	144.499	-0.139	0.186
-386.004	761.446	0.041	-0.111
-384.990	800.000	0.116	-0.351
-383.975	426.072	-0.117	-0.254
-382.960	53.153	0.116	0.111
-381.946	-88.320	0.484	0.145
-380.931	-200.000	-0.033	-0.227
-379.917	-200.000	0.003	-0.291
-378.902	-86.156	0.454	0.140
-377.888	-127.777	0.258	-0.037
-376.873	-200.000	0.003	0.018
-375.858	-16.776	-0.108	0.068
-374.844	-74.895	0.270	0.097
-373.829	46.672	-0.089	-0.083
-372.815	43.619	-0.088	-0.081
-371.800	-34.439	-0.125	-0.068
-370.785	-29.526	-0.046	0.026
-369.771	26.982	0.330	0.278
-368.756	-62.584	0.130	-0.054
-367.742	44.491	0.091	0.084
-366.727	-121.882	0.328	-0.054
-365.712	28.989	-0.028	-0.024
-364.698	-46.379	-0.108	-0.053
-363.683	-81.082	-0.088	0.029
-362.669	-78.770	0.320	0.109
-361.654	800.000	-0.031	-0.088
-360.639	-92.329	-0.211	0.060
-359.625	-136.540	0.129	0.015
-358.610	-51.449	-0.201	0.094
-357.596	-121.975	-0.231	-0.038
-356.581	349.428	0.016	0.031
-355.566	800.000	0.018	0.075
-354.552	16.888	0.148	-0.117
-353.537	-200.000	-0.069	-0.313
-352.523	-134.220	-0.164	0.020
-351.508	68.598	-0.202	0.207
-350.493	4.977	-0.355	-0.262
-349.479	-41.749	0.372	-0.191
-348.464	-56.017	-0.039	-0.017
-347.450	-200.000	0.019	0.176
-346.435	517.109	0.090	0.212
-345.420	-99.959	-0.035	-0.009
-344.406	71.394	0.145	-0.151
-343.391	39.636	-0.088	-0.079
-342.377	86.156	-0.147	0.163
-341.362	55.859	0.127	-0.123
-340.348	800.000	-0.019	0.069
-339.333	137.509	0.226	0.296
-338.318	800.000	0.098	0.385
-337.304	220.413	0.103	-0.165
-336.289	800.000	-0.133	0.424
-335.275	-200.000	0.008	0.241
-334.260	511.674	-0.139	0.323
-333.245	-200.000	0.008	0.190
-332.231	-77.185	-0.100	-0.035
-331.216	-125.958	-0.113	-0.017
-330.202	-27.550	0.086	-0.050
-329.187	-122.531	0.227	0.037
-328.172	800.000	0.047	-0.154
-327.158	-120.326	0.118	-0.020
-326.143	-26.980	0.186	0.108
-325.129	-66.201	0.111	-0.044
-324.114	227.243	0.147	-0.240
-323.099	103.637	-0.120	-0.141
-322.085	-200.000	-0.009	0.092
-321.070	-200.000	-0.008	0.069
-320.056	800.000	-0.052	-0.180
-319.041	-79.820	0.204	0.069
-318.026	-121.367	-0.547	-0.091
-317.012	-59.037	-0.248	-0.107
-315.997	68.191	0.147	0.150
-314.983	220.326	0.120	0.192
-313.968	-63.801	0.138	0.056
-312.953	-195.021	0.216	0.002
-311.939	-174.555	0.105	-0.003
-310.924	19.583	0.022	0.017
-309.910	-102.054	0.207	-0.050
-308.895	-116.832	0.133	-0.024
-307.880	13.701	-0.339	0.264
-306.866	-106.853	-0.229	-0.051
-305.851	800.000	0.005	-0.015
-304.837	58.931	-0.136	0.134
-303.822	230.176	-0.019	0.031
-302.807	-12.111	-0.097	0.064
-301.793	-136.527	-0.101	0.012
-300.778	191.813	0.080	0.121
-299.764	800.000	-0.094	-0.271
-298.749	-200.000	-0.063	-0.331
-297.735	274.623	0.026	0.046
-296.720	-32.191	-0.298	-0.167
-295.705	-36.784	-0.168	0.090
-294.691	800.000	0.011	0.037
-293.676	-132.233	0.285	0.037
-292.662	-200.000	-0.023	-0.344
-291.647	38.652	-0.309	-0.275
-290.632	-101.907	-0.301	-0.073
-289.618	221.775	-0.147	0.236
-288.603	-117.545	-0.206	0.037
-287.589	23.969	0.175	-0.144
-286.574	-145.215	0.260	-0.024
-285.559	466.317	-0.183	0.411
-284.545	-200.000	0.001	-0.266
-283.530	-4.666	0.132	-0.091
-282.516	66.307	-0.193	-0.196
-281.501	-200.000	0.032	-0.195
-280.486	-76.821	-0.346	0.121
-279.472	-100.421	0.307	-0.076
-278.457	553.052	-0.111	0.267
-277.443	-106.770	-0.188	0.042
-276.428	-200.000	0.031	0.172
-275.413	-83.356	-0.157	0.050
-274.399	74.645	0.059	-0.062
-273.384	81.050	0.131	0.142
-272.370	17.926	-0.158	0.126
-271.355	-77.661	0.076	-0.026
-270.340	800.000	0.047	0.206
-269.326	99.564	0.129	0.149
-268.311	-42.870	0.176	-0.089
-267.297	-200.000	-0.001	0.116
-266.282	-73.902	0.216	-0.078
-265.267	216.267	0.098	-0.156
-264.253	800.000	-0.013	0.047
-263.238	-127.164	0.426	0.062
-262.224	86.331	0.096	0.105
-261.209	159.205	0.070	-0.097
-260.195	-20.297	0.155	-0.095
-259.180	-89.744	0.187	0.055
-258.165	318.005	0.130	-0.246
-257.151	95.604	-0.230	-0.262
-256.136	-112.665	0.297	0.059
-255.122	-200.000	0.016	-0.288
-254.107	5.689	0.207	0.153
-253.092	596.162	0.062	0.152
-252.078	-25.956	0.308	-0.181
-251.063	373.687	0.128	-0.259
-250.049	36.215	0.212	0.186
-249.034	81.309	-0.054	0.058
-248.019	-191.097	0.303	0.003
-247.005	-200.000	-0.017	-0.090
-245.990	195.398	-0.131	-0.199
-244.976	-104.434	0.227	0.052
-243.961	-87.941	-0.306	0.092
-242.946	-127.288	0.054	-0.008
-241.932	-55.813	-0.135	-0.060
-240.917	-24.646	0.201	0.120
-239.903	-129.772	-0.134	0.018
-238.888	-124.494	0.290	0.045
-237.873	-47.129	0.106	0.051
-236.859	-200.000	-0.001	-0.071
-235.844	-55.486	0.314	0.141
-234.830	-200.000	-0.059	0.479
-233.815	246.258	0.057	0.096
-232.800	139.101	-0.117	-0.153
-231.786	-60.487	-0.297	0.126
-230.771	499.588	-0.099	0.228
-229.757	-200.000	0.017	0.100
-228.742	-36.091	0.161	0.087
-227.727	-73.553	-0.224	-0.081
-226.713	48.667	0.095	0.089
-225.698	-200.000	0.020	0.411
-224.684	339.881	0.015	-0.030
-223.669	441.286	0.082	0.179
-222.655	-17.011	-0.048	-0.030
-221.640	-43.181	-0.189	-0.095
-220.625	-77.357	0.090	0.031
-219.611	374.662	0.137	0.278
-218.596	141.745	0.287	0.379
-217.582	-122.257	-0.087	-0.014
-216.567	-130.400	0.363	-0.049
-215.552	57.201	-0.078	-0.076
-214.538	495.566	0.085	-0.195
-213.523	-13.543	0.223	0.144
-212.509	-162.804	0.281	-0.014
-211.494	172.707	-0.038	-0.055
-210.479	800.000	0.133	-0.518
-209.465	800.000	-0.012	-0.045
-208.450	6.999	0.274	0.203
-207.436	-121.208	-0.239	0.040
-206.421	35.444	0.023	-0.020
-205.406	-170.509	0.167	0.006
-204.392	92.868	0.161	0.182
-203.377	63.731	-0.121	-0.121
-202.363	800.000	0.086	-0.313
-201.348	321.778	0.057	-0.108
-200.333	335.674	-0.042	0.080
-199.319	-200.000	-0.003	-0.186
-198.304	-28.398	-0.179	-0.103
-197.290	34.457	0.161	0.140
-196.275	244.673	-0.145	-0.242
-195.260	100.240	-0.249	-0.287
-194.246	258.985	0.157	0.270
-193.231	222.374	0.202	-0.324
-192.217	181.024	0.040	0.059
-191.202	800.000	0.129	0.453
-190.187	-43.018	-0.195	0.098
-189.173	-200.000	-0.003	0.074
-188.158	-126.086	-0.289	-0.043
-187.144	-195.524	0.084	0.001
-186.129	29.447	0.048	-0.040
-185.114	70.074	0.052	0.053
-184.100	-89.090	0.162	-0.048
-183.085	160.462	0.074	0.103
-182.071	-200.000	0.046	-0.308
-181.056	326.690	0.095	0.182
-180.042	-168.434	0.357	0.014
-179.027	-194.918	0.133	-0.001
-178.012	-119.492	-0.233	-0.040
-176.998	-167.410	-0.223	0.009
-175.983	48.932	0.141	0.132
-174.969	198.758	-0.130	0.198
-173.954	-146.071	-0.401	0.035
-172.939	142.917	-0.225	0.297
-171.925	486.328	0.021	0.049
-170.910	120.029	-0.020	-0.025
-169.896	800.000	0.089	0.302
-168.881	35.536	0.105	0.091
-167.866	136.306	-0.142	0.184
-166.852	-200.000	-0.011	0.052
-165.837	-200.000	0.006	0.168
-164.823	19.660	-0.306	0.245
-163.808	549.072	-0.023	0.054
-162.793	-94.829	0.174	0.047
-161.779	-85.811	0.141	-0.044
-160.764	-33.494	0.215	0.118
-159.750	697.653	0.040	-0.106
-158.735	160.199	0.245	-0.340
-157.720	-200.000	-0.041	-0.200
-156.706	800.000	0.030	-0.122
-155.691	-56.825	-0.251	0.110
-154.677	-200.000	-0.037	-0.290
-153.662	-56.317	-0.143	-0.063
-152.647	-54.589	-0.294	0.132
-151.633	800.000	-0.012	-0.040
-150.618	616.408	0.040	0.100
-149.604	800.000	0.039	0.158
-148.589	213.911	-0.187	0.295
-147.574	-100.409	-0.272	0.067
-146.560	575.947	-0.152	-0.369
-145.545	-152.871	-0.054	0.004
-144.531	-74.887	-0.184	0.066
-143.516	105.465	-0.199	0.233
-142.502	-200.000	0.054	-0.337
-141.487	-53.145	-0.262	-0.119
-140.472	306.523	-0.133	0.246
-139.458	800.000	0.062	0.206
-138.443	236.621	0.120	-0.197
-137.429	-200.000	0.033	-0.195
-136.414	-200.000	0.002	-0.246
-135.399	157.340	-0.247	0.340
-134.385	440.695	-0.033	0.072
-133.370	-26.413	0.142	-0.083
-132.356	70.967	0.144	-0.148
-131.341	800.000	-0.061	-0.257
-130.326	32.821	0.036	0.031
-129.312	6.523	0.018	-0.013
-128.297	160.353	-0.078	-0.108
-127.283	686.790	-0.091	-0.237
-126.268	-200.000	0.012	-0.200
-125.253	153.029	-0.105	-0.143
-124.239	341.742	-0.108	0.210
-123.224	-107.955	-0.082	-0.018
-122.210	-88.299	0.159	0.047
-121.195	-200.000	0.026	-0.199
