DTS Sentinel unit serial number:	SN413079Multiplexer serial number:	ORYXHardware model number:	OX4-SRSoftware version number:	ORYX F/W v4.00 Oryx Data Collector v3.7.2.0data status	okinstallation	princeton_trtdifferential loss correction	single-endedforward channel	channel 4reverse channel	N/Adate	2019/09/10time	22:23:10forward acquisition time	60.00reverse acquisition time	0.00gamma	496.2192k internal	0.2315k external	0.2315temperature offset calibration	0.9945default loss term (dB/km)	0.3790temperature slope calibration	1.0000multiplexer offset coefficient	1.0000multiplexer slope coefficient	1.0000fibre end	0.00T internal ref (°C)	30.44T ext. ref 1 (°C)	-0.32T ext. ref 2 (°C)	23.72length (m)	temperature (°C)	Stokes	anti-Stokes-747.200	-31.152	-0.128	-0.073
-746.185	-173.678	0.258	0.008
-745.171	-191.673	-0.191	-0.002
-744.156	-200.000	-0.001	-0.122
-743.142	800.000	0.073	0.224
-742.127	307.768	-0.166	0.314
-741.112	285.552	-0.092	-0.167
-740.098	800.000	0.110	0.344
-739.083	-39.301	0.263	-0.140
-738.069	800.000	0.078	0.323
-737.054	-200.000	-0.036	0.248
-736.039	-200.000	0.008	-0.259
-735.025	213.972	-0.038	0.060
-734.010	85.136	-0.381	-0.423
-732.996	800.000	0.104	-0.326
-731.981	-150.478	0.090	-0.007
-730.966	-38.397	-0.345	-0.185
-729.952	348.399	0.010	-0.020
-728.937	768.982	0.074	-0.205
-727.923	-200.000	0.003	-0.148
-726.908	-82.696	-0.183	-0.060
-725.894	231.117	-0.115	0.191
-724.879	-14.871	0.182	-0.118
-723.864	-131.103	-0.235	-0.032
-722.850	-43.109	-0.257	0.132
-721.835	160.120	0.173	-0.243
-720.821	422.673	0.110	-0.239
-719.806	54.008	-0.081	0.079
-718.791	-200.000	0.025	0.205
-717.777	-51.003	0.242	-0.115
-716.762	-164.050	-0.319	0.015
-715.748	-168.355	0.355	-0.014
-714.733	294.748	-0.051	-0.094
-713.718	-100.631	0.324	-0.081
-712.704	-7.145	0.184	-0.126
-711.689	469.294	-0.131	0.298
-710.675	183.070	-0.114	0.170
-709.660	48.227	-0.060	0.057
-708.645	-45.584	-0.195	0.098
-707.631	-120.977	0.358	0.061
-706.616	-33.600	-0.161	-0.090
-705.602	-200.000	-0.048	-0.352
-704.587	21.957	0.088	0.073
-703.572	-116.228	-0.085	-0.016
-702.558	-121.358	-0.130	-0.022
-701.543	129.342	0.139	-0.180
-700.529	-200.000	-0.040	0.495
-699.514	-82.935	0.458	0.150
-698.499	800.000	-0.101	-0.348
-697.485	800.000	0.008	0.032
-696.470	800.000	0.075	0.260
-695.456	475.119	-0.051	0.116
-694.441	-73.822	-0.080	-0.029
-693.426	4.319	0.247	-0.183
-692.412	222.543	-0.207	-0.338
-691.397	-200.000	0.040	0.274
-690.383	51.083	-0.208	-0.200
-689.368	81.618	0.064	0.071
-688.354	3.562	-0.319	0.235
-687.339	-200.000	-0.055	0.444
-686.324	195.060	0.226	-0.347
-685.310	800.000	0.091	-0.291
-684.295	104.779	-0.112	-0.133
-683.281	800.000	-0.034	-0.117
-682.266	132.351	-0.211	0.275
-681.251	-2.986	-0.055	-0.039
-680.237	20.913	-0.083	0.068
-679.222	222.561	0.116	-0.189
-678.208	-200.000	0.038	0.373
-677.193	-71.263	0.236	0.090
-676.178	500.255	0.017	0.040
-675.164	-161.918	-0.126	-0.006
-674.149	-143.895	-0.202	-0.019
-673.135	-8.272	0.156	0.106
-672.120	-81.242	0.119	-0.040
-671.105	-93.041	0.251	-0.071
-670.091	6.462	-0.082	0.062
-669.076	-200.000	-0.008	0.054
-668.062	155.554	0.064	-0.088
-667.047	800.000	0.074	-0.249
-666.032	-138.167	-0.128	0.014
-665.018	-20.247	0.104	0.065
-664.003	-70.164	0.152	-0.058
-662.989	352.115	0.113	0.225
-661.974	800.000	-0.025	0.086
-660.959	-41.517	0.198	-0.103
-659.945	137.156	0.159	0.210
-658.930	-200.000	0.021	-0.144
-657.916	42.187	-0.109	-0.100
-656.901	-134.742	-0.228	0.028
-655.886	1.973	-0.095	0.070
-654.872	134.025	0.036	0.046
-653.857	800.000	0.072	-0.213
-652.843	-56.007	0.065	0.029
-651.828	-105.707	-0.166	-0.038
-650.814	-67.710	0.121	-0.048
-649.799	6.904	-0.184	0.138
-648.784	71.680	-0.046	-0.048
-647.770	-72.749	0.053	0.020
-646.755	453.180	-0.162	-0.361
-645.741	-200.000	0.007	-0.144
-644.726	-125.054	0.144	-0.022
-643.711	800.000	0.039	0.148
-642.697	-200.000	-0.093	-0.426
-641.682	-94.826	-0.173	0.047
-640.668	-8.988	-0.100	0.068
-639.653	-92.901	-0.231	-0.065
-638.638	-114.672	-0.464	-0.090
-637.624	717.123	0.105	0.282
-636.609	324.077	0.129	-0.248
-635.595	-200.000	0.012	-0.063
-634.580	-200.000	-0.043	-0.196
-633.565	178.522	-0.179	-0.264
-632.551	4.780	-0.239	-0.177
-631.536	-70.050	-0.335	0.129
-630.522	-141.799	-0.121	0.012
-629.507	-75.245	-0.351	-0.126
-628.492	150.104	0.287	-0.392
-627.478	-157.017	-0.183	0.011
-626.463	342.254	-0.232	0.458
-625.449	-109.799	-0.196	0.042
-624.434	-174.621	0.337	-0.010
-623.419	-62.613	0.072	-0.030
-622.405	148.965	0.131	0.178
-621.390	49.743	-0.282	0.268
-620.376	-200.000	0.088	-0.426
-619.361	800.000	-0.076	-0.271
-618.346	-48.680	-0.121	-0.058
-617.332	-84.728	0.359	0.114
-616.317	-72.542	-0.123	-0.046
-615.303	293.988	0.064	-0.119
-614.288	354.401	-0.042	-0.084
-613.273	493.754	0.043	0.099
-612.259	-11.203	-0.425	0.282
-611.244	316.131	-0.164	-0.311
-610.230	301.124	0.017	-0.032
-609.215	215.448	-0.210	-0.336
-608.201	-14.438	0.239	0.155
-607.186	800.000	0.164	0.551
-606.171	222.647	0.072	-0.118
-605.157	149.964	-0.070	0.096
-604.142	505.361	0.169	-0.394
-603.128	447.936	-0.129	0.285
-602.113	-9.451	0.230	0.154
-601.098	-143.925	-0.301	-0.029
-600.084	-47.357	0.215	-0.105
-599.069	-189.817	-0.065	-0.001
-598.055	-74.526	-0.120	-0.043
-597.040	-200.000	0.058	-0.282
-596.025	-122.046	-0.019	-0.003
-595.011	704.931	0.139	-0.368
-593.996	-0.124	-0.231	0.166
-592.982	-125.270	0.106	0.016
-591.967	160.314	-0.188	-0.263
-590.952	800.000	0.075	0.290
-589.938	538.514	-0.092	-0.221
-588.923	-92.094	-0.288	0.082
-587.909	-134.943	0.277	-0.034
-586.894	177.145	-0.041	0.060
-585.879	131.787	-0.176	0.228
-584.865	-200.000	0.033	-0.188
-583.850	197.515	0.047	0.073
-582.836	-27.840	-0.201	-0.117
-581.821	682.719	0.053	0.139
-580.806	-40.662	0.083	-0.043
-579.792	-73.288	0.343	-0.126
-578.777	-32.627	-0.216	-0.121
-577.763	-162.747	-0.179	-0.009
-576.748	-200.000	0.062	0.338
-575.733	159.787	-0.130	0.183
-574.719	209.373	0.165	-0.260
-573.704	-200.000	-0.002	0.393
-572.690	184.004	-0.062	0.093
-571.675	60.991	0.051	-0.051
-570.661	800.000	0.061	0.182
-569.646	170.215	0.134	-0.193
-568.631	-6.982	0.047	-0.032
-567.617	322.976	-0.076	-0.146
-566.602	300.394	-0.100	0.186
-565.588	-14.105	0.206	0.134
-564.573	-200.000	0.003	0.088
-563.558	800.000	-0.051	0.145
-562.544	175.642	-0.136	-0.198
-561.529	-94.302	-0.306	0.084
-560.515	-200.000	-0.005	-0.092
-559.500	-200.000	0.044	-0.198
-558.485	120.683	0.128	0.160
-557.471	-200.000	0.007	0.084
-556.456	436.180	-0.170	-0.373
-555.442	-133.893	-0.284	0.036
-554.427	-76.021	-0.194	0.069
-553.412	-24.900	0.198	-0.118
-552.398	-200.000	0.012	-0.393
-551.383	-200.000	0.018	0.253
-550.369	-200.000	0.010	0.362
-549.354	-98.871	-0.341	-0.087
-548.339	-72.258	-0.006	0.002
-547.325	296.148	0.214	0.394
-546.310	-41.949	0.131	0.067
-545.296	-133.967	-0.161	-0.020
-544.281	-200.000	0.018	-0.177
-543.266	-200.000	-0.019	0.327
-542.252	-65.554	0.374	-0.151
-541.237	-38.531	0.145	0.077
-540.223	-81.970	0.140	-0.046
-539.208	800.000	0.027	0.107
-538.193	-165.181	0.347	-0.015
-537.179	126.851	-0.015	-0.019
-536.164	-33.804	-0.100	0.055
-535.150	728.379	-0.132	0.355
-534.135	223.906	-0.135	0.219
-533.121	-200.000	0.185	-0.001
-532.106	-108.534	-0.419	0.091
-531.091	-129.265	-0.041	-0.006
-530.077	285.637	0.088	0.159
-529.062	218.252	0.012	-0.020
-528.048	2.149	-0.127	0.092
-527.033	194.866	0.077	0.118
-526.018	-5.235	-0.230	-0.159
-525.004	-200.000	0.016	-0.169
-523.989	800.000	-0.019	-0.067
-522.975	268.480	-0.054	0.096
-521.960	-200.000	0.016	0.207
-520.945	294.200	-0.130	-0.238
-519.931	18.978	0.101	-0.081
-518.916	-142.837	0.262	-0.026
-517.902	-140.587	0.154	-0.016
-516.887	221.484	-0.275	-0.444
-515.872	79.713	-0.294	0.317
-514.858	302.749	0.178	0.330
-513.843	201.546	-0.172	0.267
-512.829	68.100	-0.103	0.106
-511.814	800.000	-0.034	-0.139
-510.799	8.783	0.217	-0.164
-509.785	43.606	-0.230	0.211
-508.770	-200.000	0.024	-0.139
-507.756	177.105	-0.181	-0.265
-506.741	-200.000	0.021	0.235
-505.726	591.380	-0.166	0.411
-504.712	234.246	0.058	-0.097
-503.697	-200.000	-0.006	-0.031
-502.683	-200.000	0.102	-0.492
-501.668	533.939	-0.040	0.094
-500.653	-68.329	-0.105	-0.041
-499.639	-101.233	0.302	0.074
-498.624	-84.693	-0.329	0.104
-497.610	379.627	-0.089	0.184
-496.595	-97.457	0.378	-0.099
-495.581	82.061	-0.202	-0.220
-494.566	-104.945	0.313	0.072
-493.551	-200.000	0.017	0.389
-492.537	-128.795	0.089	0.013
-491.522	-157.840	0.359	0.021
-490.508	388.272	0.094	0.194
-489.493	40.582	0.240	0.217
-488.478	800.000	0.067	-0.252
-487.464	3.357	0.236	-0.173
-486.449	104.797	0.061	-0.072
-485.435	-200.000	-0.034	-0.271
-484.420	21.722	-0.115	-0.094
-483.405	800.000	0.045	0.127
-482.391	-69.557	0.228	0.088
-481.376	-53.952	0.212	-0.097
-480.362	-200.000	0.001	-0.240
-479.347	430.340	0.059	0.129
-478.332	-169.839	-0.372	-0.013
-477.318	220.852	-0.124	-0.199
-476.303	-184.268	0.275	0.005
-475.289	-147.863	-0.120	0.010
-474.274	-64.541	0.344	0.140
-473.259	-3.441	-0.036	-0.025
-472.245	-200.000	-0.053	0.285
-471.230	437.206	0.068	0.148
-470.216	-108.415	0.072	-0.016
-469.201	226.413	0.105	-0.171
-468.186	-200.000	-0.025	0.385
-467.172	-124.173	-0.190	-0.030
-466.157	-200.000	-0.004	0.019
-465.143	-195.125	0.429	-0.003
-464.128	-98.053	-0.042	0.011
-463.113	-41.292	-0.221	-0.114
-462.099	800.000	0.029	-0.118
-461.084	111.186	0.200	0.241
-460.070	-30.179	0.161	0.092
-459.055	-82.028	0.232	0.076
-458.040	-200.000	-0.003	0.215
-457.026	-50.527	0.223	-0.105
-456.011	-200.000	0.030	-0.311
-454.997	-149.359	-0.310	-0.025
-453.982	-153.740	-0.016	-0.001
-452.968	800.000	-0.139	-0.472
-451.953	-28.774	-0.038	0.022
-450.938	-78.589	-0.168	-0.058
-449.924	184.255	0.120	0.178
-448.909	800.000	0.035	-0.133
-447.895	31.506	0.261	0.225
-446.880	-42.597	0.204	-0.104
-445.865	800.000	0.023	-0.085
-444.851	-59.718	-0.396	-0.170
-443.836	239.700	0.121	0.201
-442.822	0.518	0.041	-0.030
-441.807	610.163	0.155	-0.387
-440.792	188.513	-0.056	0.084
-439.778	-65.603	0.171	0.069
-438.763	800.000	-0.068	0.213
-437.749	25.748	-0.247	0.206
-436.734	378.273	-0.148	0.303
-435.719	50.599	-0.056	-0.053
-434.705	800.000	-0.026	0.090
-433.690	197.255	0.035	0.053
-432.676	-69.091	0.352	0.136
-431.661	800.000	0.064	-0.192
-430.646	800.000	0.068	-0.224
-429.632	800.000	-0.049	-0.205
-428.617	68.176	-0.122	0.125
-427.603	800.000	-0.041	0.142
-426.588	-200.000	0.007	-0.074
-425.573	-65.202	-0.239	-0.096
-424.559	-52.478	0.381	0.176
-423.544	-78.272	-0.085	0.029
-422.530	-200.000	-0.003	-0.151
-421.515	-200.000	-0.030	-0.212
-420.500	-200.000	-0.020	-0.303
-419.486	-200.000	0.040	0.218
-418.471	-11.685	0.390	-0.257
-417.457	35.386	-0.093	-0.082
-416.442	-193.203	0.251	-0.002
-415.428	74.768	0.143	0.150
-414.413	65.746	-0.277	0.281
-413.398	800.000	0.050	-0.156
-412.384	-119.287	-0.227	0.040
-411.369	-47.969	0.101	-0.049
-410.355	-116.980	0.183	-0.033
-409.340	-90.397	-0.097	0.028
-408.325	89.103	0.219	0.243
-407.311	243.605	-0.140	-0.234
-406.296	305.636	-0.137	0.255
-405.282	800.000	-0.060	-0.193
-404.267	-168.909	-0.249	0.009
-403.252	-17.860	0.092	0.058
-402.238	59.484	0.076	-0.075
-401.223	800.000	-0.083	-0.335
-400.209	-200.000	0.040	-0.197
-399.194	-200.000	0.005	0.171
-398.179	92.191	0.131	0.148
-397.165	206.696	-0.091	-0.141
-396.150	-64.850	-0.211	-0.086
-395.136	34.860	-0.095	-0.084
-394.121	-82.869	-0.185	0.060
-393.106	-95.249	-0.441	-0.119
-392.092	800.000	-0.050	0.151
-391.077	129.074	0.280	0.357
-390.063	40.975	-0.072	0.065
-389.048	-22.771	0.048	-0.029
-388.033	80.054	0.081	-0.087
-387.019	-41.606	0.216	0.111
-386.004	-148.884	-0.222	-0.018
-384.990	-200.000	-0.132	-0.000
-383.975	-51.973	0.286	0.133
-382.960	-186.161	0.098	0.001
-381.946	243.812	0.072	-0.120
-380.931	-200.000	-0.027	-0.123
-379.917	-200.000	-0.003	-0.154
-378.902	-126.097	-0.107	-0.016
-377.888	16.003	0.178	0.140
-376.873	44.539	0.154	0.141
-375.858	334.908	-0.192	0.372
-374.844	193.779	0.166	0.251
-373.829	-83.658	0.143	0.046
-372.815	-118.414	0.184	0.033
-371.800	-78.676	0.176	0.060
-370.785	-77.964	-0.323	0.111
-369.771	-21.787	0.139	0.084
-368.756	-89.628	-0.418	0.123
-367.742	147.274	-0.040	-0.054
-366.727	-11.654	-0.341	-0.223
-365.712	89.850	0.125	0.139
-364.698	590.119	0.052	0.128
-363.683	348.637	0.120	-0.236
-362.669	-200.000	0.022	-0.219
-361.654	-23.180	-0.117	0.070
-360.639	-200.000	0.002	0.218
-359.625	-124.248	-0.074	0.012
-358.610	55.197	0.175	-0.169
-357.596	65.834	-0.119	0.120
-356.581	-90.551	-0.153	-0.044
-355.566	461.401	0.028	0.062
-354.552	-46.765	-0.378	0.185
-353.537	-134.641	0.062	-0.008
-352.523	240.067	0.158	-0.262
-351.508	-200.000	-0.038	0.319
-350.493	145.671	0.013	-0.018
-349.479	-61.166	-0.355	0.149
-348.464	-17.764	-0.152	-0.095
-347.450	-200.000	0.045	0.251
-346.435	13.446	0.239	0.185
-345.420	32.408	0.150	0.130
-344.406	-105.922	-0.188	-0.042
-343.391	243.826	-0.021	0.035
-342.377	-75.190	-0.310	0.111
-341.362	-100.455	0.237	-0.059
-340.348	168.040	-0.165	0.234
-339.333	95.496	0.264	-0.300
-338.318	-176.138	-0.268	-0.007
-337.304	-111.243	-0.338	0.069
-336.289	-114.228	0.193	-0.037
-335.275	127.714	-0.167	0.211
-334.260	-103.341	-0.074	-0.017
-333.245	-77.348	0.216	0.075
-332.231	164.407	-0.046	0.064
-331.216	-164.463	0.219	0.010
-330.202	-108.798	-0.230	-0.049
-329.187	153.245	0.143	-0.195
-328.172	738.309	-0.140	0.375
-327.158	-107.205	0.125	-0.027
-326.143	-1.888	0.042	-0.030
-325.129	-66.179	-0.374	-0.149
-324.114	125.185	-0.119	0.150
-323.099	-200.000	-0.012	-0.144
-322.085	-200.000	0.019	-0.096
-321.070	800.000	-0.137	-0.405
-320.056	329.438	-0.083	0.159
-319.041	-79.540	0.301	0.101
-318.026	-138.869	0.114	-0.012
-317.012	334.704	0.203	-0.392
-315.997	-77.825	-0.071	0.025
-314.983	-200.000	-0.013	-0.097
-313.968	133.539	0.087	0.112
-312.953	49.053	-0.170	0.159
-311.939	-200.000	-0.081	-0.354
-310.924	800.000	-0.041	-0.157
-309.910	-164.699	0.427	0.019
-308.895	-35.580	0.092	-0.050
-307.880	35.416	0.189	-0.165
-306.866	-100.368	-0.154	0.038
-305.851	624.060	0.089	0.222
-304.837	-28.637	0.146	-0.084
-303.822	-50.209	-0.238	-0.112
-302.807	-200.000	-0.025	0.295
-301.793	-200.000	0.087	0.453
-300.778	-90.655	0.290	0.083
-299.764	-118.412	0.103	-0.018
-298.749	-200.000	-0.006	0.078
-297.735	-200.000	0.001	0.167
-296.720	800.000	0.014	0.050
-295.705	140.961	-0.225	-0.296
-294.691	106.528	0.122	-0.144
-293.676	-200.000	-0.028	-0.184
-292.662	-67.721	0.262	0.102
-291.647	-167.808	0.153	0.006
-290.632	-52.758	0.160	0.073
-289.618	379.500	-0.092	0.187
-288.603	-47.428	-0.198	0.096
-287.589	-200.000	-0.066	-0.447
-286.574	-123.622	-0.129	-0.020
-285.559	361.435	-0.055	0.110
-284.545	543.836	-0.020	0.047
-283.530	791.980	-0.014	0.037
-282.516	-63.532	-0.040	0.016
-281.501	-113.265	-0.272	-0.053
-280.486	-23.406	-0.312	0.187
-279.472	-200.000	0.049	-0.246
-278.457	800.000	-0.036	-0.126
-277.443	-11.246	-0.166	-0.109
-276.428	-125.999	-0.073	-0.011
-275.413	-51.063	-0.234	0.109
-274.399	800.000	0.055	-0.223
-273.384	-149.841	-0.214	0.017
-272.370	-74.967	-0.104	-0.037
-271.355	-114.039	0.230	0.044
-270.340	-120.638	-0.267	0.045
-269.326	-34.973	-0.015	-0.008
-268.311	-15.394	-0.056	0.036
-267.297	101.649	-0.082	0.095
-266.282	1.916	0.108	0.078
-265.267	-142.880	-0.076	-0.007
-264.253	329.358	0.106	-0.203
-263.238	237.202	0.132	0.217
-262.224	800.000	-0.066	0.219
-261.209	-176.474	-0.267	-0.007
-260.195	-200.000	0.034	-0.297
-259.180	-48.221	-0.124	0.060
-258.165	-200.000	0.007	-0.174
-257.151	-200.000	-0.007	-0.290
-256.136	430.174	0.034	0.072
-255.122	-2.401	0.112	0.078
-254.107	-108.212	-0.117	-0.025
-253.092	-31.942	-0.155	-0.086
-252.078	-15.527	0.180	0.114
-251.063	7.873	0.344	0.256
-250.049	-200.000	-0.020	-0.167
-249.034	-56.475	-0.156	-0.069
-248.019	415.418	0.057	-0.120
-247.005	77.103	-0.067	0.071
-245.990	663.411	-0.070	-0.180
-244.976	800.000	-0.047	0.140
-243.961	-107.178	0.208	-0.046
-242.946	103.612	-0.081	0.095
-241.932	-200.000	-0.017	0.125
-240.917	-98.243	0.194	-0.050
-239.903	272.939	0.132	-0.231
-238.888	112.854	0.069	0.083
-237.873	-88.451	-0.222	-0.066
-236.859	123.048	-0.108	0.135
-235.844	116.226	0.097	0.119
-234.830	800.000	0.108	-0.396
-233.815	-200.000	-0.217	0.001
-232.800	800.000	-0.014	0.043
-231.786	-84.362	-0.357	-0.112
-230.771	-139.290	0.274	0.029
-229.757	-39.624	0.201	-0.105
-228.742	-200.000	0.000	0.235
-227.727	38.491	0.265	-0.235
-226.713	-14.647	-0.127	-0.081
-225.698	100.371	0.006	0.007
-224.684	-23.124	0.268	0.160
-223.669	-200.000	0.086	0.381
-222.655	-16.376	0.131	-0.082
-221.640	-133.461	-0.359	0.045
-220.625	8.686	0.258	0.193
-219.611	295.806	-0.079	0.143
-218.596	114.737	0.201	-0.244
-217.582	800.000	0.024	-0.079
-216.567	95.159	-0.047	0.053
-215.552	800.000	-0.037	0.112
-214.538	-51.027	-0.035	0.016
-213.523	-35.111	0.214	0.116
-212.509	-200.000	-0.020	-0.387
-211.494	139.757	-0.242	0.317
-210.479	49.517	-0.114	0.106
-209.465	15.456	0.132	0.103
-208.450	-68.640	0.220	-0.085
-207.436	-31.849	-0.155	0.086
-206.421	-10.091	-0.156	0.103
-205.406	57.004	0.376	-0.363
-204.392	-106.484	-0.338	-0.075
-203.377	-200.000	0.003	-0.379
-202.363	58.367	-0.124	0.121
-201.348	-54.150	0.138	-0.062
-200.333	1.151	0.209	0.148
-199.319	336.991	0.093	-0.180
-198.304	800.000	-0.053	0.177
-197.290	800.000	-0.088	-0.341
-196.275	-200.000	0.059	0.357
-195.260	-62.601	0.123	-0.051
-194.246	800.000	-0.039	-0.162
-193.231	544.181	0.208	0.494
-192.217	800.000	0.082	0.314
-191.202	-89.494	0.307	-0.090
-190.187	-147.533	0.193	0.016
-189.173	-200.000	0.017	-0.576
-188.158	23.049	0.290	-0.236
-187.144	800.000	0.046	0.197
-186.129	291.733	0.232	0.419
-185.114	-68.895	0.172	0.066
-184.100	-200.000	0.040	0.179
-183.085	84.244	-0.123	-0.133
-182.071	209.451	0.040	0.062
-181.056	-5.754	-0.256	0.174
-180.042	775.907	-0.137	-0.370
-179.027	-62.117	0.157	-0.065
-178.012	654.639	0.102	0.260
-176.998	-103.518	-0.487	-0.113
-175.983	-9.830	-0.151	0.100
-174.969	-95.078	0.311	-0.083
-173.954	-34.056	-0.114	0.062
-172.939	458.611	0.163	-0.359
-171.925	-50.955	0.410	-0.191
-170.910	-107.801	0.198	-0.043
-169.896	109.960	0.192	-0.228
-168.881	481.357	0.018	0.040
-167.866	335.713	0.102	0.196
-166.852	-69.858	-0.174	-0.066
-165.837	49.288	0.120	-0.112
-164.823	-200.000	0.017	0.219
-163.808	-32.091	0.091	-0.050
-162.793	-66.010	0.364	0.144
-161.779	412.601	-0.041	-0.086
-160.764	-106.672	0.090	0.020
-159.750	166.087	-0.060	-0.084
-158.735	-97.576	-0.149	-0.038
-157.720	-200.000	-0.053	-0.255
-156.706	-200.000	-0.019	-0.247
-155.691	800.000	0.008	-0.034
-154.677	-61.333	0.272	0.113
-153.662	-31.420	0.172	0.096
-152.647	-58.180	-0.100	-0.043
-151.633	101.410	-0.239	-0.276
-150.618	-88.804	0.184	0.054
-149.604	-72.897	0.063	0.023
-148.589	-75.703	-0.283	0.099
-147.574	-96.557	-0.047	0.012
-146.560	188.807	-0.208	-0.308
-145.545	-2.561	0.411	-0.285
-144.531	-87.584	-0.183	-0.055
-143.516	58.229	0.444	-0.431
-142.502	484.595	-0.085	0.191
-141.487	286.767	0.031	0.055
-140.472	-93.440	-0.176	-0.048
-139.458	126.192	-0.107	-0.134
-138.443	35.161	-0.083	-0.072
-137.429	-7.305	0.046	-0.031
-136.414	667.046	0.032	0.082
-135.399	-92.095	0.269	-0.075
-134.385	-200.000	-0.011	0.046
-133.370	800.000	0.090	0.260
-132.356	-28.128	0.180	-0.103
-131.341	-200.000	-0.009	-0.080
-130.326	27.698	0.066	-0.055
-129.312	-11.087	0.298	-0.194
-128.297	-200.000	0.039	0.345
-127.283	399.116	-0.065	0.134
-126.268	800.000	-0.016	0.057
-125.253	-117.371	-0.160	0.029
-124.239	32.355	-0.057	-0.049
-123.224	36.798	0.161	0.141
-122.210	800.000	0.113	-0.356
-121.195	16.052	0.108	-0.084
