DTS Sentinel unit serial number:	SN413079Multiplexer serial number:	ORYXHardware model number:	OX4-SRSoftware version number:	ORYX F/W v4.00 Oryx Data Collector v3.7.2.0data status	okinstallation	princeton_trtdifferential loss correction	single-endedforward channel	channel 4reverse channel	N/Adate	2019/09/10time	20:47:10forward acquisition time	60.00reverse acquisition time	0.00gamma	496.2192k internal	0.2312k external	0.2312temperature offset calibration	0.9946default loss term (dB/km)	0.3790temperature slope calibration	1.0000multiplexer offset coefficient	1.0000multiplexer slope coefficient	1.0000fibre end	0.00T internal ref (°C)	31.78T ext. ref 1 (°C)	-0.31T ext. ref 2 (°C)	25.15length (m)	temperature (°C)	Stokes	anti-Stokes-747.200	45.518	0.158	0.148
-746.185	-51.569	-0.049	-0.023
-745.171	10.998	0.192	-0.149
-744.156	800.000	0.084	0.248
-743.142	190.617	-0.080	0.122
-742.127	-200.000	0.008	0.382
-741.112	64.289	0.131	0.134
-740.098	158.604	0.147	-0.208
-739.083	-147.252	0.174	-0.015
-738.069	-94.478	0.320	0.088
-737.054	209.172	0.111	0.176
-736.039	200.763	-0.058	0.091
-735.025	-110.848	-0.191	-0.040
-734.010	-43.168	-0.399	0.205
-732.996	-200.000	-0.000	0.192
-731.981	147.437	0.147	-0.201
-730.966	-72.651	0.142	-0.053
-729.952	-137.335	-0.067	0.008
-728.937	29.029	-0.050	0.043
-727.923	-184.139	0.176	0.003
-726.908	-200.000	-0.003	0.195
-725.894	203.512	-0.058	-0.091
-724.879	-85.785	-0.235	-0.074
-723.864	424.995	0.053	0.115
-722.850	-71.911	0.218	0.082
-721.835	607.912	0.042	-0.106
-720.821	-63.290	0.171	0.071
-719.806	-143.339	-0.481	0.047
-718.791	-153.593	-0.291	0.020
-717.777	-21.014	0.245	-0.152
-716.762	349.933	0.124	-0.248
-715.748	-200.000	-0.001	-0.173
-714.733	108.129	0.100	0.121
-713.718	257.639	0.165	-0.288
-712.704	647.492	-0.149	0.386
-711.689	719.119	0.050	-0.134
-710.675	-28.928	-0.281	-0.164
-709.660	-200.000	-0.018	-0.174
-708.645	76.535	0.172	-0.184
-707.631	-4.339	0.098	0.069
-706.616	-200.000	-0.054	0.264
-705.602	-200.000	0.004	0.087
-704.587	275.853	-0.076	0.136
-703.572	-136.195	0.348	-0.041
-702.558	-200.000	-0.010	0.081
-701.543	288.860	-0.032	0.059
-700.529	77.973	-0.059	-0.064
-699.514	145.427	0.122	0.165
-698.499	335.337	-0.167	0.328
-697.485	315.351	-0.024	-0.046
-696.470	-200.000	-0.110	-0.563
-695.456	-200.000	-0.016	0.092
-694.441	-90.928	-0.342	0.100
-693.426	-89.639	-0.229	0.068
-692.412	-200.000	0.084	0.422
-691.397	-90.936	-0.156	-0.045
-690.383	-54.157	-0.168	0.077
-689.368	-200.000	0.024	-0.153
-688.354	-191.353	0.182	0.002
-687.339	-200.000	-0.006	-0.437
-686.324	409.436	-0.094	-0.202
-685.310	800.000	0.024	-0.083
-684.295	300.474	-0.125	-0.233
-683.281	-48.762	-0.306	-0.149
-682.266	-103.121	-0.128	0.031
-681.251	-104.166	-0.204	0.048
-680.237	259.031	-0.223	-0.390
-679.222	-200.000	-0.181	-0.000
-678.208	-51.857	-0.217	0.102
-677.193	90.130	-0.255	-0.288
-676.178	-200.000	-0.030	0.159
-675.164	-114.556	-0.290	0.056
-674.149	162.461	0.063	-0.090
-673.135	800.000	-0.088	-0.310
-672.120	-200.000	-0.020	0.105
-671.105	624.179	0.110	-0.281
-670.091	74.501	-0.038	0.040
-669.076	-39.257	-0.187	0.099
-668.062	70.448	-0.230	0.241
-667.047	-151.423	-0.152	-0.011
-666.032	-27.174	-0.332	-0.195
-665.018	-71.754	0.292	0.110
-664.003	-200.000	0.018	0.124
-662.989	-200.000	0.025	-0.175
-661.974	-149.740	-0.180	0.014
-660.959	9.859	0.106	-0.081
-659.945	27.205	0.149	-0.126
-658.930	-2.467	0.190	-0.134
-657.916	247.666	-0.133	-0.227
-656.901	-200.000	0.020	-0.135
-655.886	-200.000	0.018	0.250
-654.872	23.920	-0.205	0.171
-653.857	-200.000	0.002	0.121
-652.843	-154.896	-0.256	0.017
-651.828	-200.000	-0.045	0.207
-650.814	17.027	-0.203	-0.163
-649.799	-76.750	-0.190	-0.067
-648.784	-109.270	-0.239	-0.051
-647.770	-200.000	-0.003	-0.038
-646.755	-89.698	0.088	-0.026
-645.741	-80.032	-0.169	-0.057
-644.726	495.166	-0.158	0.368
-643.711	263.716	0.141	0.247
-642.697	800.000	-0.151	-0.481
-641.682	-20.447	-0.340	0.211
-640.668	-200.000	-0.013	-0.127
-639.653	48.776	0.162	0.154
-638.638	-143.530	0.193	0.019
-637.624	-9.491	0.138	-0.093
-636.609	-28.595	-0.296	-0.172
-635.595	-47.574	-0.239	0.117
-634.580	-200.000	0.064	-0.549
-633.565	800.000	-0.030	-0.123
-632.551	22.819	-0.215	0.178
-631.536	800.000	-0.009	0.030
-630.522	-200.000	-0.008	-0.218
-629.507	208.391	-0.023	0.037
-628.492	-116.515	-0.197	0.037
-627.478	-60.802	-0.150	-0.064
-626.463	-72.651	0.135	-0.050
-625.449	50.317	0.163	-0.155
-624.434	120.463	-0.097	-0.122
-623.419	-27.336	-0.194	0.114
-622.405	121.244	-0.150	0.188
-621.390	189.667	-0.054	-0.082
-620.376	-50.568	-0.221	-0.105
-619.361	-200.000	0.028	-0.454
-618.346	-50.510	0.286	0.136
-617.332	512.423	0.105	0.246
-616.317	-72.662	-0.222	0.083
-615.303	-81.342	-0.152	0.051
-614.288	524.638	-0.091	0.216
-613.273	35.836	-0.162	0.144
-612.259	15.903	-0.211	-0.168
-611.244	-200.000	-0.021	-0.320
-610.230	-200.000	-0.019	0.183
-609.215	-200.000	0.003	-0.054
-608.201	-200.000	0.040	-0.222
-607.186	-200.000	0.024	0.121
-606.171	-37.192	0.153	0.083
-605.157	-146.143	0.211	0.019
-604.142	-54.264	-0.011	0.005
-603.128	-200.000	0.024	0.307
-602.113	800.000	-0.098	-0.429
-601.098	30.631	-0.243	-0.210
-600.084	800.000	0.066	0.251
-599.069	-12.199	-0.103	-0.068
-598.055	93.994	0.068	-0.078
-597.040	51.854	-0.209	-0.200
-596.025	487.245	0.124	-0.286
-595.011	237.420	0.194	-0.325
-593.996	55.631	0.256	0.250
-592.982	-200.000	-0.042	0.365
-591.967	-130.064	-0.245	-0.034
-590.952	-200.000	-0.078	-0.368
-589.938	236.006	-0.140	-0.233
-588.923	62.303	-0.183	0.184
-587.909	111.277	0.136	-0.166
-586.894	800.000	-0.056	0.183
-585.879	494.195	-0.039	0.090
-584.865	162.967	-0.223	-0.316
-583.850	800.000	-0.148	-0.427
-582.836	800.000	0.052	-0.166
-581.821	-3.388	-0.230	-0.161
-580.806	-158.847	-0.112	-0.006
-579.792	62.920	-0.341	0.344
-578.777	152.178	-0.089	0.123
-577.763	44.818	0.137	-0.127
-576.748	76.469	-0.332	-0.355
-575.733	80.013	-0.164	-0.178
-574.719	-127.306	0.492	-0.072
-573.704	800.000	0.062	-0.181
-572.690	-98.223	-0.034	0.009
-571.675	391.380	0.123	0.256
-570.661	69.891	0.108	-0.113
-569.646	-132.790	0.298	0.038
-568.631	-200.000	0.014	-0.101
-567.617	-108.155	-0.111	0.024
-566.602	-102.940	0.182	-0.044
-565.588	800.000	0.049	-0.162
-564.573	-200.000	-0.050	0.321
-563.558	214.880	-0.036	-0.057
-562.544	800.000	0.062	0.185
-561.529	-200.000	0.024	-0.364
-560.515	225.536	-0.205	0.334
-559.500	-1.308	-0.225	-0.160
-558.485	-200.000	-0.014	-0.067
-557.471	140.791	-0.125	0.166
-556.456	70.991	-0.044	-0.046
-555.442	-200.000	-0.031	0.257
-554.427	-52.125	0.176	0.082
-553.412	-154.106	0.230	0.016
-552.398	338.298	0.210	-0.411
-551.383	100.412	-0.195	-0.228
-550.369	-111.464	0.227	0.047
-549.354	26.979	-0.116	-0.098
-548.339	782.681	0.096	-0.263
-547.325	-200.000	-0.017	0.160
-546.310	-33.041	0.246	0.138
-545.296	-3.186	0.167	-0.118
-544.281	110.762	-0.301	0.365
-543.266	-200.000	0.016	0.202
-542.252	474.383	0.046	0.105
-541.237	8.869	0.217	-0.165
-540.223	435.215	-0.074	0.163
-539.208	-21.791	-0.118	-0.072
-538.193	33.240	0.128	-0.111
-537.179	45.849	-0.125	-0.116
-536.164	79.062	0.114	-0.123
-535.150	-129.667	0.154	0.021
-534.135	800.000	-0.113	0.373
-533.121	289.325	0.152	0.277
-532.106	-100.784	0.152	0.038
-531.091	147.425	-0.093	-0.126
-530.077	-182.465	0.115	-0.002
-529.062	-75.702	-0.238	-0.085
-528.048	575.307	0.032	0.078
-527.033	-21.988	-0.082	0.050
-526.018	39.771	0.142	0.128
-525.004	800.000	0.058	0.165
-523.989	-200.000	-0.015	-0.181
-522.975	268.649	0.022	-0.038
-521.960	-23.840	-0.102	-0.062
-520.945	-114.576	0.427	0.082
-519.931	-200.000	-0.011	-0.163
-518.916	-108.818	0.178	-0.038
-517.902	-44.549	-0.196	-0.098
-516.887	94.697	0.027	0.031
-515.872	-119.940	-0.037	0.006
-514.858	-117.667	0.176	-0.032
-513.843	-124.891	0.294	-0.046
-512.829	130.621	0.208	0.269
-511.814	-107.666	0.132	-0.029
-510.799	575.755	0.014	-0.035
-509.785	38.266	-0.174	-0.156
-508.770	146.510	0.092	0.124
-507.756	-73.556	0.287	0.105
-506.741	-186.603	-0.198	0.003
-505.726	-10.424	0.038	0.025
-504.712	-62.666	-0.226	0.094
-503.697	-76.285	0.111	-0.039
-502.683	-200.000	-0.011	-0.256
-501.668	-49.108	-0.287	-0.138
-500.653	-200.000	-0.052	-0.379
-499.639	-142.665	-0.013	-0.001
-498.624	85.665	-0.096	-0.106
-497.610	264.981	-0.057	0.099
-496.595	-131.364	0.134	0.018
-495.581	-26.735	0.101	-0.059
-494.566	52.568	-0.100	-0.096
-493.551	-98.019	0.291	0.075
-492.537	800.000	0.030	-0.112
-491.522	72.923	-0.127	0.133
-490.508	-41.264	-0.123	0.064
-489.493	37.541	-0.214	0.190
-488.478	800.000	0.140	0.570
-487.464	-200.000	0.035	0.297
-486.449	-200.000	-0.017	0.150
-485.435	-62.447	0.232	0.097
-484.420	-200.000	-0.003	0.077
-483.405	12.626	-0.174	-0.135
-482.391	32.161	-0.016	-0.014
-481.376	-51.506	0.143	-0.067
-480.362	-200.000	-0.018	0.112
-479.347	125.540	-0.178	-0.226
-478.332	84.682	0.266	-0.292
-477.318	344.288	-0.056	-0.110
-476.303	195.262	-0.106	-0.162
-475.289	507.160	0.105	-0.244
-474.274	-135.653	-0.060	0.007
-473.259	800.000	-0.080	-0.286
-472.245	-160.802	0.139	-0.007
-471.230	603.163	0.141	-0.353
-470.216	78.544	-0.238	0.255
-469.201	-85.650	0.159	-0.050
-468.186	568.355	-0.041	-0.099
-467.172	28.502	0.101	-0.086
-466.157	-69.608	0.286	-0.110
-465.143	104.445	0.112	0.132
-464.128	-200.000	-0.023	-0.141
-463.113	-133.768	-0.275	0.034
-462.099	800.000	-0.046	0.148
-461.084	-85.477	0.085	0.026
-460.070	-97.935	-0.135	-0.035
-459.055	46.276	0.112	0.104
-458.040	-139.304	0.313	0.034
-457.026	-200.000	-0.047	0.248
-456.011	263.283	0.078	0.136
-454.997	-200.000	-0.065	-0.304
-453.982	-140.332	-0.031	0.003
-452.968	800.000	-0.086	0.375
-451.953	159.034	-0.097	0.136
-450.938	-7.056	-0.251	-0.171
-449.924	213.141	0.023	0.036
-448.909	488.733	-0.060	0.137
-447.895	800.000	-0.068	-0.201
-446.880	-98.411	-0.387	0.099
-445.865	84.338	-0.047	-0.052
-444.851	109.524	-0.032	0.038
-443.836	-7.256	-0.164	0.112
-442.822	-167.410	0.267	-0.011
-441.807	-200.000	-0.003	0.226
-440.792	-154.987	0.085	0.006
-439.778	800.000	-0.050	-0.179
-438.763	-17.360	0.074	-0.047
-437.749	-200.000	-0.010	-0.217
-436.734	94.179	-0.124	0.141
-435.719	-34.740	0.028	0.016
-434.705	800.000	0.134	-0.402
-433.690	800.000	-0.031	0.124
-432.676	67.058	0.270	0.276
-431.661	800.000	-0.054	0.191
-430.646	-123.087	0.010	-0.002
-429.632	-135.010	0.439	0.053
-428.617	800.000	0.034	0.112
-427.603	-65.256	0.106	0.043
-426.588	-200.000	-0.007	0.129
-425.573	-144.265	0.251	0.023
-424.559	800.000	0.141	0.426
-423.544	-200.000	-0.024	-0.150
-422.530	186.633	0.162	0.242
-421.515	111.642	0.289	0.349
-420.500	-81.623	0.147	0.048
-419.486	800.000	-0.101	-0.441
-418.471	-106.529	0.292	0.065
-417.457	-149.645	-0.118	0.009
-416.442	-167.899	-0.212	-0.008
-415.428	-89.232	0.297	0.088
-414.413	800.000	0.059	-0.179
-413.398	-82.829	-0.215	-0.070
-412.384	268.444	-0.064	0.113
-411.369	-200.000	-0.062	0.307
-410.355	-200.000	0.004	-0.021
-409.340	13.132	-0.319	0.248
-408.325	-20.986	0.171	-0.105
-407.311	300.529	0.082	0.151
-406.296	-81.803	0.344	0.113
-405.282	-200.000	-0.006	-0.113
-404.267	-198.611	0.226	0.001
-403.252	-28.772	0.257	0.148
-402.238	-46.447	0.213	0.104
-401.223	451.713	-0.099	-0.218
-400.209	-200.000	0.040	-0.322
-399.194	-96.964	-0.211	-0.055
-398.179	118.604	0.101	0.124
-397.165	-50.860	0.138	-0.065
-396.150	36.971	0.309	0.274
-395.136	518.374	0.094	-0.219
-394.121	-128.951	0.204	0.029
-393.106	800.000	0.020	-0.073
-392.092	94.620	0.056	-0.064
-391.077	345.640	0.046	0.090
-390.063	800.000	0.080	0.268
-389.048	-61.385	0.213	-0.090
-388.033	213.519	0.168	0.265
-387.019	-83.897	0.439	0.140
-386.004	-200.000	-0.024	0.139
-384.990	-55.915	0.289	0.129
-383.975	317.867	0.091	-0.173
-382.960	-47.680	-0.314	-0.153
-381.946	800.000	-0.118	0.332
-380.931	-122.675	-0.443	0.072
-379.917	-40.433	-0.182	-0.095
-378.902	-200.000	0.000	-0.317
-377.888	351.735	-0.033	0.065
-376.873	-184.315	-0.082	0.001
-375.858	-107.635	-0.202	-0.044
-374.844	-179.548	0.292	0.006
-373.829	-87.395	0.113	-0.034
-372.815	-129.064	-0.444	0.062
-371.800	-52.465	0.019	-0.009
-370.785	499.283	0.031	-0.071
-369.771	-107.235	-0.303	-0.067
-368.756	-200.000	0.038	0.189
-367.742	-18.176	-0.113	-0.071
-366.727	-200.000	-0.056	0.246
-365.712	122.008	0.092	0.115
-364.698	606.897	-0.063	0.156
-363.683	-14.418	0.335	-0.215
-362.669	-90.525	0.210	0.061
-361.654	-168.084	0.052	0.002
-360.639	20.072	-0.164	-0.132
-359.625	-168.248	0.167	0.006
-358.610	-100.093	0.334	0.083
-357.596	1.097	0.226	-0.162
-356.581	204.318	0.099	0.153
-355.566	135.827	-0.181	0.235
-354.552	800.000	-0.083	-0.327
-353.537	-200.000	-0.010	-0.236
-352.523	709.963	0.020	0.052
-351.508	-200.000	0.023	-0.243
-350.493	800.000	-0.041	0.159
-349.479	-7.065	-0.073	0.050
-348.464	-200.000	-0.044	0.207
-347.450	-64.709	-0.190	0.077
-346.435	-93.847	0.388	0.107
-345.420	25.757	-0.192	0.160
-344.406	-189.800	0.209	0.002
-343.391	191.368	-0.193	0.290
-342.377	31.924	0.346	-0.298
-341.362	-161.802	-0.302	0.015
-340.348	-27.182	0.078	-0.045
-339.333	-200.000	0.041	0.230
-338.318	-98.657	-0.252	0.064
-337.304	299.969	-0.138	-0.254
-336.289	-200.000	-0.000	-0.208
-335.275	724.000	0.084	-0.224
-334.260	-200.000	-0.019	-0.173
-333.245	-200.000	0.068	-0.307
-332.231	-73.720	0.304	0.110
-331.216	88.904	-0.174	0.193
-330.202	-80.602	0.512	0.170
-329.187	-200.000	-0.077	0.365
-328.172	-0.508	-0.374	0.265
-327.158	113.762	0.045	0.054
-326.143	284.075	-0.197	0.354
-325.129	48.719	0.251	-0.235
-324.114	-69.042	-0.232	-0.089
-323.099	-134.363	0.085	0.010
-322.085	-62.047	-0.193	-0.080
-321.070	-65.711	-0.130	0.052
-320.056	-200.000	-0.021	-0.345
-319.041	-200.000	-0.044	-0.255
-318.026	-25.422	-0.206	-0.121
-317.012	-87.356	0.224	-0.068
-315.997	-104.840	0.188	0.043
-314.983	-165.184	0.318	0.014
-313.968	-106.147	0.197	0.044
-312.953	-62.537	0.039	-0.016
-311.939	-24.239	0.173	0.103
-310.924	-200.000	0.025	-0.184
-309.910	442.288	-0.155	0.338
-308.895	70.835	-0.293	-0.303
-307.880	-135.608	0.169	0.020
-306.866	800.000	0.019	0.060
-305.851	23.569	0.118	0.097
-304.837	-157.049	-0.330	0.020
-303.822	284.290	-0.206	0.369
-302.807	-200.000	0.002	0.242
-301.793	-120.908	-0.306	-0.051
-300.778	-119.458	0.254	-0.044
-299.764	28.311	0.073	0.062
-298.749	-119.943	-0.122	-0.021
-297.735	-95.304	-0.165	-0.044
-296.720	-200.000	-0.007	0.300
-295.705	50.230	0.175	-0.165
-294.691	29.656	-0.234	0.198
-293.676	340.694	-0.192	-0.374
-292.662	-199.478	0.183	-0.001
-291.647	-99.985	-0.132	-0.033
-290.632	75.399	0.106	0.111
-289.618	-200.000	0.010	-0.114
-288.603	-200.000	-0.002	-0.185
-287.589	127.283	-0.157	-0.198
-286.574	-200.000	0.016	0.094
-285.559	-128.395	0.081	0.011
-284.545	-137.805	0.181	-0.020
-283.530	127.451	0.185	0.234
-282.516	782.529	0.036	-0.099
-281.501	4.039	0.308	0.224
-280.486	667.415	-0.052	-0.135
-279.472	-104.380	-0.226	-0.052
-278.457	539.755	-0.083	0.196
-277.443	-19.776	-0.229	0.141
-276.428	-153.936	-0.247	-0.017
-275.413	-200.000	0.076	-0.413
-274.399	-200.000	0.020	0.123
-273.384	696.218	-0.023	0.059
-272.370	-44.477	-0.160	-0.080
-271.355	-76.485	-0.429	0.150
-270.340	800.000	0.024	-0.101
-269.326	-200.000	0.030	0.335
-268.311	-123.517	-0.173	-0.027
-267.297	-57.448	0.246	0.108
-266.282	-138.030	0.156	-0.017
-265.267	723.643	-0.100	0.265
-264.253	-98.093	0.217	0.056
-263.238	-200.000	0.004	-0.463
-262.224	275.039	0.136	-0.241
-261.209	5.193	-0.258	0.189
-260.195	-200.000	0.001	0.025
-259.180	179.677	-0.157	-0.230
-258.165	-109.708	0.305	-0.064
-257.151	-11.360	0.128	0.084
-256.136	-125.625	-0.279	0.042
-255.122	18.758	0.127	0.101
-254.107	132.230	-0.203	0.261
-253.092	-160.710	0.488	0.026
-252.078	55.602	0.103	0.099
-251.063	-89.979	0.242	0.070
-250.049	800.000	0.061	0.206
-249.034	-82.081	-0.177	-0.057
-248.019	46.094	-0.200	-0.184
-247.005	-111.732	0.124	0.025
-245.990	-38.980	-0.403	-0.211
-244.976	-52.904	-0.128	0.059
-243.961	-17.385	-0.266	-0.167
-242.946	160.512	-0.186	-0.258
-241.932	189.488	0.103	-0.153
-240.917	281.101	0.078	0.139
-239.903	-89.785	-0.285	-0.083
-238.888	337.252	0.107	0.208
-237.873	-34.158	-0.098	-0.053
-236.859	-13.581	0.290	-0.187
-235.844	-148.842	0.226	0.018
-234.830	-200.000	-0.015	-0.125
-233.815	800.000	-0.089	-0.246
-232.800	200.797	-0.023	-0.035
-231.786	-200.000	0.001	-0.035
-230.771	800.000	-0.013	0.040
-229.757	100.229	0.125	-0.145
-228.742	-200.000	-0.029	0.171
-227.727	399.273	0.056	-0.116
-226.713	501.065	-0.053	0.122
-225.698	57.740	-0.305	0.297
-224.684	24.054	-0.277	0.227
-223.669	800.000	-0.029	-0.111
-222.655	-2.832	0.208	-0.145
-221.640	-186.854	0.049	0.001
-220.625	207.509	0.067	0.103
-219.611	800.000	-0.098	0.407
-218.596	719.919	-0.066	0.174
-217.582	-144.940	-0.412	-0.037
-216.567	-115.746	0.197	-0.037
-215.552	202.495	0.052	-0.080
-214.538	494.805	0.073	0.166
-213.523	-42.658	-0.255	0.129
-212.509	-73.463	-0.160	-0.058
-211.494	-107.391	-0.216	-0.047
-210.479	10.747	0.275	-0.209
-209.465	265.677	0.227	-0.393
-208.450	-200.000	0.041	0.256
-207.436	81.584	-0.068	0.073
-206.421	-110.829	0.349	0.071
-205.406	-55.857	-0.124	0.055
-204.392	9.004	0.069	-0.051
-203.377	-200.000	-0.044	0.226
-202.363	-97.111	-0.234	-0.061
-201.348	-102.307	0.220	-0.053
-200.333	-101.802	-0.059	0.014
-199.319	18.084	0.252	-0.200
-198.304	-29.290	-0.331	-0.189
-197.290	-55.101	0.233	0.104
-196.275	-200.000	-0.053	0.235
-195.260	51.831	-0.110	0.104
-194.246	189.082	0.162	0.241
-193.231	133.499	0.123	0.158
-192.217	319.008	0.080	-0.150
-191.202	344.517	0.082	0.159
-190.187	-200.000	0.008	0.269
-189.173	-148.442	-0.189	0.015
-188.158	-130.611	0.201	0.027
-187.144	-200.000	0.000	0.027
-186.129	71.721	0.053	0.055
-185.114	-77.610	0.318	-0.109
-184.100	28.733	0.288	0.242
-183.085	-76.039	-0.279	-0.098
-182.071	-101.171	-0.445	0.108
-181.056	-110.444	-0.354	-0.073
-180.042	5.579	-0.230	0.169
-179.027	-65.463	0.099	-0.040
-178.012	-200.000	-0.073	-0.329
-176.998	219.813	0.156	0.248
-175.983	307.827	0.082	0.151
-174.969	800.000	-0.076	-0.231
-173.954	-200.000	-0.004	-0.165
-172.939	-24.331	-0.223	0.132
-171.925	-42.026	0.124	-0.063
-170.910	263.980	-0.118	0.205
-169.896	800.000	0.044	-0.183
-168.881	129.241	-0.046	0.058
-167.866	234.624	0.073	0.119
-166.852	-40.326	-0.077	-0.039
-165.837	-30.877	-0.265	-0.149
-164.823	-103.692	0.216	0.050
-163.808	167.189	-0.244	-0.343
-162.793	84.930	0.288	-0.313
-161.779	-200.000	0.019	-0.122
-160.764	-200.000	0.006	-0.345
-159.750	72.368	0.090	-0.093
-158.735	224.651	-0.181	-0.291
-157.720	23.573	0.079	0.064
-156.706	106.651	0.182	0.215
-155.691	-114.462	-0.251	-0.048
-154.677	-200.000	-0.016	0.177
-153.662	-200.000	0.053	0.233
-152.647	-200.000	0.009	-0.134
-151.633	-12.288	-0.233	-0.151
-150.618	-163.706	0.215	0.010
-149.604	-137.130	-0.199	0.023
-148.589	-31.101	0.250	-0.140
-147.574	800.000	0.032	-0.119
-146.560	-153.140	0.188	-0.013
-145.545	230.015	0.231	0.375
-144.531	-112.547	0.032	0.006
-143.516	800.000	0.030	0.090
-142.502	143.665	0.226	0.299
-141.487	126.827	-0.159	0.199
-140.472	-72.323	-0.212	0.078
-139.458	65.415	-0.037	-0.037
-138.443	-59.624	0.077	-0.033
-137.429	18.628	-0.084	0.066
-136.414	800.000	0.046	0.150
-135.399	-109.421	-0.244	0.051
-134.385	89.052	-0.134	0.148
-133.370	-200.000	0.083	-0.390
-132.356	24.442	0.244	-0.200
-131.341	227.178	0.168	-0.271
-130.326	800.000	0.056	-0.232
-129.312	-22.919	0.163	-0.097
-128.297	800.000	0.022	0.095
-127.283	-200.000	0.038	0.269
-126.268	496.698	-0.053	-0.121
-125.253	650.401	-0.130	-0.329
-124.239	85.442	-0.125	-0.136
-123.224	123.418	0.106	0.132
-122.210	472.763	0.154	0.343
