DTS Sentinel unit serial number:	SN413079Multiplexer serial number:	ORYXHardware model number:	OX4-SRSoftware version number:	ORYX F/W v4.00 Oryx Data Collector v3.7.2.0data status	okinstallation	princeton_trtdifferential loss correction	single-endedforward channel	channel 4reverse channel	N/Adate	2019/09/11time	08:55:11forward acquisition time	60.00reverse acquisition time	0.00gamma	496.2192k internal	0.2300k external	0.2300temperature offset calibration	0.9970default loss term (dB/km)	0.3790temperature slope calibration	1.0000multiplexer offset coefficient	1.0000multiplexer slope coefficient	1.0000fibre end	0.00T internal ref (°C)	33.95T ext. ref 1 (°C)	0.12T ext. ref 2 (°C)	30.64length (m)	temperature (°C)	Stokes	anti-Stokes-747.200	800.000	0.073	0.259
-746.185	-152.350	-0.313	0.023
-745.171	12.297	-0.193	-0.152
-744.156	82.605	-0.099	0.110
-743.142	-200.000	0.011	-0.246
-742.127	52.794	-0.189	-0.184
-741.112	-22.219	0.131	-0.081
-740.098	-92.369	0.163	-0.047
-739.083	118.149	-0.111	0.139
-738.069	263.587	0.258	0.457
-737.054	83.591	-0.288	-0.320
-736.039	411.711	-0.110	-0.238
-735.025	-200.000	0.012	0.252
-734.010	47.347	-0.407	-0.386
-732.996	297.629	-0.128	-0.239
-731.981	800.000	-0.052	-0.160
-730.966	11.376	-0.040	0.031
-729.952	-8.400	-0.435	0.298
-728.937	-200.000	0.033	0.289
-727.923	-100.672	-0.241	-0.061
-726.908	166.981	-0.311	-0.450
-725.894	-200.000	0.024	-0.225
-724.879	-174.050	-0.195	0.006
-723.864	65.855	-0.228	0.236
-722.850	-6.620	0.254	-0.176
-721.835	27.308	-0.153	-0.131
-720.821	5.810	-0.054	-0.040
-719.806	-90.425	0.080	-0.024
-718.791	80.285	0.033	-0.036
-717.777	76.480	-0.067	0.072
-716.762	157.562	0.033	0.047
-715.748	231.135	0.047	0.078
-714.733	-94.151	-0.089	-0.025
-713.718	800.000	-0.115	0.334
-712.704	144.270	0.104	0.141
-711.689	181.378	0.064	-0.096
-710.675	-161.946	-0.126	-0.006
-709.660	-200.000	0.025	0.156
-708.645	462.588	-0.177	0.402
-707.631	-200.000	0.034	0.178
-706.616	-97.733	-0.467	0.123
-705.602	-35.020	-0.334	-0.185
-704.587	12.611	-0.085	-0.067
-703.572	215.325	-0.125	-0.202
-702.558	81.856	0.184	-0.203
-701.543	8.013	-0.193	0.147
-700.529	-106.491	0.267	-0.061
-699.514	800.000	0.031	0.117
-698.499	-104.850	0.282	0.066
-697.485	-130.355	0.421	0.058
-696.470	198.246	-0.095	0.148
-695.456	-122.039	0.451	0.075
-694.441	-104.877	-0.005	-0.001
-693.426	-66.842	-0.222	-0.089
-692.412	800.000	-0.041	0.146
-691.397	26.415	0.392	0.333
-690.383	112.429	-0.182	0.224
-689.368	-25.095	0.126	0.076
-688.354	-31.288	0.069	0.040
-687.339	-37.588	0.089	0.048
-686.324	-129.045	-0.228	-0.032
-685.310	-39.087	-0.372	-0.199
-684.295	236.256	-0.032	0.054
-683.281	-51.828	0.129	-0.061
-682.266	156.083	0.087	0.122
-681.251	-200.000	-0.002	0.153
-680.237	-185.946	-0.203	-0.003
-679.222	-200.000	0.052	-0.261
-678.208	663.992	-0.046	-0.120
-677.193	44.292	0.138	-0.129
-676.178	144.228	-0.161	-0.218
-675.164	23.700	0.120	0.100
-674.149	38.046	-0.046	0.041
-673.135	139.136	0.058	0.078
-672.120	-94.116	-0.109	-0.030
-671.105	-41.725	0.226	-0.118
-670.091	-200.000	0.017	-0.264
-669.076	-196.455	-0.299	0.002
-668.062	128.859	0.097	0.126
-667.047	800.000	0.019	-0.058
-666.032	517.293	0.027	0.063
-665.018	-167.686	-0.264	0.011
-664.003	731.344	-0.118	-0.319
-662.989	158.113	-0.038	-0.054
-661.974	-200.000	-0.057	0.286
-660.959	31.197	-0.382	0.333
-659.945	89.487	-0.156	0.177
-658.930	64.791	0.069	0.071
-657.916	-156.643	0.050	0.003
-656.901	-126.354	-0.011	0.002
-655.886	148.158	-0.208	0.286
-654.872	144.362	0.074	0.100
-653.857	74.389	0.132	-0.141
-652.843	-29.781	-0.069	-0.040
-651.828	7.208	-0.248	-0.188
-650.814	-19.551	0.333	-0.210
-649.799	-200.000	-0.012	-0.069
-648.784	101.661	-0.038	-0.045
-647.770	-3.459	-0.041	-0.029
-646.755	-200.000	0.007	-0.228
-645.741	-200.000	0.009	-0.383
-644.726	-81.888	0.041	-0.014
-643.711	0.007	0.150	0.108
-642.697	-42.204	0.055	-0.028
-641.682	-96.480	0.331	-0.089
-640.668	58.686	-0.069	0.069
-639.653	-62.519	0.218	-0.092
-638.638	724.457	0.030	0.081
-637.624	-74.042	-0.111	0.041
-636.609	-9.695	-0.200	-0.135
-635.595	-116.290	0.234	0.044
-634.580	236.584	-0.133	-0.224
-633.565	0.575	0.207	-0.150
-632.551	298.582	0.192	-0.358
-631.536	199.391	0.083	-0.129
-630.522	800.000	-0.128	-0.438
-629.507	-111.680	-0.345	0.071
-628.492	238.959	0.130	-0.220
-627.478	800.000	0.007	-0.022
-626.463	13.685	0.212	-0.167
-625.449	-1.652	-0.100	0.071
-624.434	800.000	-0.104	0.406
-623.419	-134.802	0.064	0.008
-622.405	-42.605	-0.162	0.084
-621.390	158.157	-0.201	-0.283
-620.376	-138.097	-0.046	-0.005
-619.361	68.402	0.197	-0.205
-618.346	-95.249	-0.021	-0.006
-617.332	800.000	0.083	-0.241
-616.317	800.000	0.081	0.266
-615.303	800.000	-0.104	0.291
-614.288	155.143	-0.120	0.168
-613.273	220.988	0.135	-0.219
-612.259	350.378	-0.027	-0.054
-611.244	494.676	0.062	0.145
-610.230	-152.260	0.202	-0.015
-609.215	-200.000	0.022	0.172
-608.201	108.781	-0.122	-0.147
-607.186	-87.730	0.401	-0.123
-606.171	-59.931	-0.204	-0.089
-605.157	225.754	-0.066	0.108
-604.142	800.000	0.032	-0.112
-603.128	-72.223	-0.212	0.080
-602.113	229.089	0.076	-0.126
-601.098	-130.829	0.141	-0.019
-600.084	-28.386	-0.137	-0.080
-599.069	-39.827	0.346	-0.183
-598.055	-143.162	0.140	0.014
-597.040	-200.000	-0.002	0.195
-596.025	77.858	-0.116	-0.125
-595.011	159.639	-0.034	-0.048
-593.996	-68.444	-0.182	0.072
-592.982	-77.190	-0.196	0.069
-591.967	-160.901	0.264	-0.014
-590.952	-92.807	-0.202	0.057
-589.938	55.137	0.176	0.172
-588.923	-81.631	-0.177	0.059
-587.909	-63.361	0.164	-0.068
-586.894	-94.893	0.191	0.052
-585.879	-15.573	0.289	-0.187
-584.865	-166.162	-0.202	-0.009
-583.850	442.030	0.062	-0.138
-582.836	-95.915	0.218	-0.059
-581.821	713.311	-0.071	-0.189
-580.806	-113.604	0.060	-0.012
-579.792	94.039	0.141	0.162
-578.777	-200.000	-0.024	-0.174
-577.763	-7.275	0.176	-0.121
-576.748	-50.665	0.286	-0.136
-575.733	-200.000	-0.081	0.369
-574.719	-16.417	0.257	0.165
-573.704	321.628	-0.073	-0.141
-572.690	800.000	0.084	0.265
-571.675	15.422	-0.185	0.147
-570.661	-200.000	-0.014	-0.225
-569.646	-130.486	0.289	-0.040
-568.631	267.079	-0.214	-0.380
-567.617	-66.746	-0.393	-0.158
-566.602	-200.000	0.024	0.190
-565.588	126.687	-0.068	-0.087
-564.573	-9.838	-0.051	-0.034
-563.558	382.089	-0.075	0.156
-562.544	4.468	0.170	0.126
-561.529	-21.328	0.046	-0.028
-560.515	-13.555	0.262	-0.172
-559.500	155.351	-0.094	-0.131
-558.485	-117.542	-0.087	-0.016
-557.471	-200.000	0.008	-0.058
-556.456	-142.471	0.268	-0.027
-555.442	-200.000	-0.007	-0.322
-554.427	41.590	-0.148	0.136
-553.412	-102.024	-0.437	0.107
-552.398	444.021	-0.111	0.246
-551.383	-56.063	-0.160	-0.072
-550.369	101.189	-0.112	-0.132
-549.354	-157.018	-0.211	0.013
-548.339	-167.251	-0.164	0.007
-547.325	-200.000	0.020	-0.135
-546.310	-27.071	0.060	-0.035
-545.296	176.707	-0.130	0.192
-544.281	-60.327	-0.194	0.083
-543.266	-59.413	0.160	0.070
-542.252	-200.000	-0.009	-0.053
-541.237	800.000	-0.029	-0.118
-540.223	-51.769	-0.138	-0.065
-539.208	-94.855	0.371	0.102
-538.193	149.043	0.297	-0.406
-537.179	-154.831	0.251	-0.017
-536.164	-155.365	-0.151	-0.010
-535.150	-200.000	0.027	0.125
-534.135	8.311	-0.161	0.122
-533.121	19.849	0.197	-0.160
-532.106	54.855	0.110	-0.107
-531.091	-200.000	-0.013	0.400
-530.077	2.389	-0.132	-0.096
-529.062	282.143	-0.175	-0.318
-528.048	-200.000	-0.035	-0.330
-527.033	30.355	0.113	-0.098
-526.018	-2.137	-0.294	0.208
-525.004	183.693	-0.060	-0.090
-523.989	-57.557	-0.206	0.091
-522.975	484.617	0.131	0.301
-521.960	-137.689	-0.311	0.035
-520.945	-157.847	-0.126	-0.008
-519.931	-200.000	-0.035	-0.234
-518.916	-200.000	0.025	0.138
-517.902	10.245	0.315	-0.242
-516.887	281.321	0.143	-0.259
-515.872	-4.865	0.251	-0.175
-514.858	184.645	0.144	-0.216
-513.843	13.280	-0.238	0.187
-512.829	84.434	0.170	0.188
-511.814	496.418	0.129	0.299
-510.799	102.190	-0.060	-0.071
-509.785	800.000	-0.080	-0.352
-508.770	388.470	-0.071	-0.149
-507.756	-49.999	-0.126	-0.060
-506.741	646.178	0.066	0.171
-505.726	800.000	-0.083	-0.316
-504.712	619.965	0.035	0.089
-503.697	-71.508	-0.212	0.080
-502.683	61.005	0.062	-0.062
-501.668	-200.000	-0.005	-0.033
-500.653	800.000	0.056	0.169
-499.639	-93.324	0.391	-0.110
-498.624	-200.000	-0.027	-0.145
-497.610	184.088	0.249	-0.372
-496.595	-54.337	-0.058	-0.027
-495.581	-91.923	0.182	-0.052
-494.566	800.000	0.063	-0.180
-493.551	-23.064	-0.458	0.279
-492.537	99.443	0.093	0.108
-491.522	32.178	-0.218	0.190
-490.508	800.000	-0.058	0.187
-489.493	87.143	-0.204	-0.228
-488.478	-81.699	0.281	-0.093
-487.464	-29.910	-0.116	-0.067
-486.449	-200.000	0.015	0.324
-485.435	-22.923	0.161	-0.098
-484.420	-73.591	0.121	0.044
-483.405	157.495	0.123	-0.171
-482.391	-116.063	-0.189	-0.036
-481.376	-200.000	-0.051	0.230
-480.362	122.983	-0.161	0.203
-479.347	362.553	0.085	-0.173
-478.332	37.727	0.040	-0.036
-477.318	-15.247	-0.189	0.122
-476.303	-200.000	0.038	-0.190
-475.289	148.098	0.184	0.251
-474.274	800.000	0.145	0.420
-473.259	306.377	-0.084	-0.157
-472.245	-163.027	0.231	0.011
-471.230	0.464	0.242	0.174
-470.216	138.718	-0.068	0.091
-469.201	-200.000	0.019	-0.425
-468.186	214.549	0.144	0.229
-467.172	101.798	0.059	0.069
-466.157	173.750	0.083	0.121
-465.143	472.217	0.098	0.223
-464.128	-100.367	0.109	-0.027
-463.113	275.040	0.122	0.217
-462.099	-200.000	0.017	-0.282
-461.084	336.526	0.086	0.169
-460.070	-121.626	-0.233	-0.039
-459.055	800.000	0.030	-0.116
-458.040	800.000	-0.014	-0.051
-457.026	-56.473	-0.225	0.101
-456.011	51.918	-0.164	0.157
-454.997	-93.145	0.420	-0.118
-453.982	199.426	0.171	-0.264
-452.968	-131.994	-0.111	0.015
-451.953	-122.872	0.259	-0.042
-450.938	-13.246	0.245	-0.161
-449.924	-200.000	0.000	0.195
-448.909	-30.877	0.166	0.095
-447.895	-95.341	0.256	0.069
-446.880	35.085	-0.251	-0.222
-445.865	800.000	-0.033	0.123
-444.851	49.846	0.118	-0.112
-443.836	-98.338	-0.125	-0.032
-442.822	-19.275	0.016	0.010
-441.807	50.156	0.144	0.137
-440.792	-51.780	0.344	-0.161
-439.778	133.846	-0.061	0.079
-438.763	21.477	-0.135	-0.110
-437.749	-100.665	-0.126	-0.031
-436.734	219.159	-0.214	0.345
-435.719	34.263	0.198	-0.174
-434.705	215.484	0.084	0.134
-433.690	-200.000	0.040	-0.261
-432.676	153.453	-0.221	0.305
-431.661	-200.000	-0.000	-0.386
-430.646	72.811	-0.102	0.107
-429.632	638.813	0.065	-0.167
-428.617	-200.000	0.000	-0.143
-427.603	-14.998	0.089	-0.057
-426.588	-127.715	-0.133	0.019
-425.573	414.361	0.081	-0.174
-424.559	-200.000	-0.017	-0.127
-423.544	-112.796	0.110	0.022
-422.530	-9.024	0.239	-0.161
-421.515	-200.000	-0.002	0.350
-420.500	-40.788	-0.159	0.083
-419.486	-63.789	0.092	-0.038
-418.471	611.507	0.142	0.358
-417.457	-54.177	0.295	0.135
-416.442	21.050	0.099	-0.081
-415.428	-64.527	0.246	0.101
-414.413	-146.784	0.082	0.007
-413.398	800.000	-0.023	0.085
-412.384	-72.374	-0.024	0.009
-411.369	-200.000	-0.016	-0.382
-410.355	-200.000	0.011	0.092
-409.340	-69.783	-0.225	0.087
-408.325	-194.546	0.136	0.001
-407.311	-131.282	-0.051	0.007
-406.296	354.297	-0.023	0.046
-405.282	-32.708	-0.224	0.125
-404.267	613.902	-0.017	-0.044
-403.252	-66.408	-0.189	0.076
-402.238	-46.871	-0.245	-0.120
-401.223	369.421	-0.080	0.163
-400.209	-144.515	0.097	-0.009
-399.194	204.521	0.173	0.269
-398.179	366.656	-0.189	0.383
-397.165	-23.223	0.130	-0.079
-396.150	19.918	-0.075	-0.061
-395.136	217.995	-0.014	-0.023
-394.121	141.795	-0.179	-0.238
-393.106	-24.531	-0.130	-0.078
-392.092	44.899	-0.127	0.117
-391.077	-200.000	-0.007	0.130
-390.063	800.000	-0.057	-0.249
-389.048	105.509	-0.151	0.179
-388.033	424.793	0.063	0.136
-387.019	-162.308	-0.201	-0.010
-386.004	800.000	0.097	0.289
-384.990	-2.746	0.125	0.088
-383.975	300.015	0.040	0.074
-382.960	90.040	0.236	-0.265
-381.946	229.521	-0.137	0.226
-380.931	160.608	0.067	-0.093
-379.917	-17.227	0.236	0.150
-378.902	-28.589	0.390	0.226
-377.888	-167.985	-0.352	0.014
-376.873	-109.610	-0.153	0.032
-375.858	311.734	0.149	0.282
-374.844	249.847	-0.204	-0.348
-373.829	-87.938	0.312	-0.094
-372.815	-200.000	0.009	-0.161
-371.800	211.179	-0.212	0.334
-370.785	147.308	-0.278	-0.376
-369.771	331.163	0.145	0.280
-368.756	144.860	0.169	0.227
-367.742	-200.000	0.037	-0.208
-366.727	-69.130	-0.174	0.067
-365.712	-74.296	0.292	-0.106
-364.698	-17.990	-0.267	-0.168
-363.683	-200.000	0.039	-0.308
-362.669	442.356	-0.129	0.283
-361.654	-200.000	-0.015	-0.413
-360.639	-49.914	-0.178	-0.085
-359.625	-45.420	-0.406	-0.202
-358.610	122.891	0.097	-0.122
-357.596	73.955	0.155	0.163
-356.581	800.000	-0.068	-0.295
-355.566	16.013	-0.105	0.083
-354.552	707.324	-0.105	-0.278
-353.537	170.426	0.298	0.429
-352.523	800.000	-0.081	0.235
-351.508	-23.703	0.157	-0.095
-350.493	-200.000	-0.019	0.091
-349.479	-200.000	0.012	0.111
-348.464	-141.910	-0.274	-0.027
-347.450	26.749	-0.206	0.174
-346.435	-200.000	-0.036	0.248
-345.420	11.464	0.190	-0.146
-344.406	80.696	-0.187	0.203
-343.391	-150.499	0.367	0.028
-342.377	-157.020	-0.194	-0.012
-341.362	-143.629	0.195	-0.019
-340.348	-200.000	-0.054	-0.346
-339.333	-200.000	-0.037	-0.301
-338.318	106.316	0.235	0.279
-337.304	23.527	0.175	-0.144
-336.289	-109.296	0.251	-0.053
-335.275	800.000	0.077	-0.263
-334.260	-137.370	0.494	-0.056
-333.245	-180.769	-0.084	-0.002
-332.231	83.173	0.151	0.165
-331.216	-200.000	0.012	-0.179
-330.202	800.000	-0.089	-0.264
-329.187	332.091	-0.102	-0.198
-328.172	-64.995	-0.221	0.090
-327.158	-58.804	-0.228	-0.099
-326.143	800.000	-0.052	0.215
-325.129	38.571	0.060	-0.054
-324.114	-137.407	-0.258	0.029
-323.099	178.401	0.132	-0.193
-322.085	-200.000	-0.013	0.275
-321.070	800.000	-0.096	0.360
-320.056	-70.372	0.188	0.071
-319.041	-117.421	0.090	-0.016
-318.026	-82.905	-0.173	-0.056
-317.012	-77.592	0.310	-0.108
-315.997	128.292	0.188	0.239
-314.983	-110.054	-0.282	0.059
-313.968	84.759	0.160	-0.176
-312.953	-200.000	0.000	-0.103
-311.939	-174.469	0.319	0.009
-310.924	541.887	-0.055	0.132
-309.910	-101.290	0.452	0.111
-308.895	119.497	-0.047	-0.059
-307.880	-154.754	-0.488	0.032
-306.866	70.590	-0.023	0.023
-305.851	115.010	0.124	-0.152
-304.837	576.685	-0.034	0.082
-303.822	35.141	0.284	-0.249
-302.807	-38.842	-0.099	0.053
-301.793	-73.880	-0.159	0.058
-300.778	-108.883	-0.234	-0.050
-299.764	343.424	-0.156	0.306
-298.749	-40.395	0.290	0.151
-297.735	800.000	0.036	-0.153
-296.720	103.727	-0.096	-0.113
-295.705	27.406	-0.064	-0.054
-294.691	-200.000	0.032	0.310
-293.676	454.797	-0.129	0.286
-292.662	167.800	-0.105	0.149
-291.647	-6.288	0.028	0.019
-290.632	-200.000	-0.012	-0.061
-289.618	800.000	0.039	0.146
-288.603	-4.709	-0.229	0.158
-287.589	-19.015	0.120	0.075
-286.574	800.000	-0.015	-0.055
-285.559	350.846	-0.024	-0.047
-284.545	290.371	-0.188	-0.342
-283.530	-108.962	-0.164	0.035
-282.516	87.114	0.122	0.135
-281.501	-152.052	0.085	0.006
-280.486	109.033	-0.166	-0.199
-279.472	-63.246	-0.308	-0.127
-278.457	-69.858	-0.307	0.117
-277.443	-44.385	0.201	0.101
-276.428	183.931	0.073	0.109
-275.413	-200.000	-0.023	-0.218
-274.399	459.615	0.091	-0.204
-273.384	-65.176	0.458	0.185
-272.370	-111.901	0.420	0.085
-271.355	-135.989	0.215	-0.025
-270.340	42.037	-0.224	0.204
-269.326	-169.345	0.181	0.007
-268.311	302.043	-0.172	-0.318
-267.297	78.961	0.066	0.071
-266.282	-45.498	0.181	-0.090
-265.267	800.000	-0.040	-0.152
-264.253	423.124	-0.048	0.104
-263.238	-140.992	0.067	-0.007
-262.224	88.263	0.113	-0.125
-261.209	-118.378	-0.226	-0.040
-260.195	-150.853	-0.490	-0.037
-259.180	-96.877	-0.146	0.038
-258.165	592.919	-0.154	0.380
-257.151	-191.265	-0.419	0.004
-256.136	800.000	-0.058	-0.238
-255.122	19.851	-0.175	0.141
-254.107	10.353	0.079	0.060
-253.092	26.800	-0.215	0.181
-252.078	22.809	0.290	0.238
-251.063	-46.105	-0.131	-0.065
-250.049	-52.829	-0.288	0.133
-249.034	-120.258	-0.254	0.043
-248.019	-113.341	-0.190	0.037
-247.005	800.000	-0.065	0.221
-245.990	239.889	0.160	-0.267
-244.976	800.000	0.012	-0.037
-243.961	166.991	0.112	-0.158
-242.946	-200.000	-0.030	0.193
-241.932	153.124	0.067	0.092
-240.917	-135.715	-0.404	0.048
-239.903	-60.416	-0.247	-0.105
-238.888	-113.737	-0.211	-0.041
-237.873	-153.163	0.064	0.005
-236.859	800.000	0.072	-0.226
-235.844	-186.996	0.104	-0.001
-234.830	256.384	0.173	-0.297
-233.815	28.317	0.177	0.150
-232.800	-12.865	0.400	-0.261
-231.786	-200.000	-0.018	-0.184
-230.771	-117.737	-0.114	-0.020
-229.757	-181.736	-0.249	0.005
-228.742	187.156	-0.167	0.249
-227.727	-0.461	0.237	0.168
-226.713	240.376	-0.123	0.206
-225.698	102.114	0.075	0.087
-224.684	800.000	-0.164	-0.514
-223.669	-140.650	-0.075	-0.008
-222.655	354.525	0.031	-0.061
-221.640	-11.402	0.063	-0.042
-220.625	-78.574	0.198	0.068
-219.611	227.104	0.198	-0.321
-218.596	104.903	0.146	0.172
-217.582	63.145	-0.107	0.107
-216.567	-109.084	0.362	-0.077
-215.552	-200.000	-0.003	0.193
-214.538	38.610	-0.221	0.197
-213.523	-200.000	-0.049	0.216
-212.509	-74.727	0.112	-0.040
-211.494	5.440	-0.100	0.074
-210.479	219.850	-0.085	-0.136
-209.465	-59.775	-0.315	0.135
-208.450	297.443	-0.105	0.193
-207.436	595.586	0.021	-0.053
-206.421	148.444	0.123	0.166
-205.406	-19.294	0.189	0.117
-204.392	-37.120	-0.095	-0.051
-203.377	-36.477	0.470	-0.253
-202.363	-200.000	-0.023	0.331
-201.348	32.019	-0.102	0.088
-200.333	-84.383	-0.470	-0.148
-199.319	446.164	0.123	0.271
-198.304	-90.138	-0.376	0.109
-197.290	-117.481	-0.281	-0.051
-196.275	-95.881	0.429	-0.114
-195.260	-93.915	-0.372	0.102
-194.246	800.000	0.046	0.129
-193.231	-200.000	0.003	-0.189
-192.217	-100.875	-0.204	0.050
-191.202	8.735	-0.348	0.261
-190.187	-130.059	-0.138	-0.019
-189.173	-122.581	-0.240	0.039
-188.158	54.528	0.220	-0.212
-187.144	-99.359	0.402	0.101
-186.129	800.000	-0.089	0.339
-185.114	-200.000	0.026	0.375
-184.100	157.071	0.163	-0.225
-183.085	663.523	0.049	0.125
-182.071	456.542	0.052	0.116
-181.056	-91.993	0.315	-0.089
-180.042	37.749	-0.265	-0.235
-179.027	-85.733	-0.253	-0.078
-178.012	-155.864	0.448	0.028
-176.998	28.526	-0.175	-0.148
-175.983	800.000	-0.064	-0.186
-174.969	39.254	-0.142	-0.127
-173.954	800.000	-0.062	-0.253
-172.939	-58.433	-0.333	0.144
-171.925	-127.378	-0.155	0.023
-170.910	-200.000	-0.017	0.339
-169.896	283.337	-0.086	0.154
-168.881	-84.237	-0.335	-0.106
-167.866	-160.822	0.290	-0.015
-166.852	-200.000	-0.010	-0.321
-165.837	-155.905	-0.094	-0.006
-164.823	680.564	0.049	0.126
-163.808	-70.409	-0.073	0.028
-162.793	800.000	-0.034	0.093
-161.779	116.340	-0.091	0.111
-160.764	84.252	0.152	0.166
-159.750	184.006	-0.179	0.265
-158.735	-96.941	0.096	-0.025
-157.720	44.080	0.109	0.099
-156.706	-51.328	0.336	0.156
-155.691	-86.741	0.091	-0.028
-154.677	-139.186	0.101	0.011
-153.662	754.967	0.025	-0.068
-152.647	70.703	-0.354	0.365
-151.633	-200.000	0.000	0.252
-150.618	-123.582	-0.052	-0.008
-149.604	-106.248	-0.206	0.046
-148.589	-145.892	-0.069	0.006
-147.574	-114.467	0.067	-0.013
-146.560	-0.662	-0.142	-0.100
-145.545	-129.646	0.097	0.013
-144.531	-145.420	0.171	0.015
-143.516	-125.876	-0.313	0.047
-142.502	-54.244	0.297	-0.134
-141.487	142.204	-0.127	0.168
-140.472	72.595	0.118	0.123
-139.458	534.918	0.102	-0.241
-138.443	110.914	-0.061	0.073
-137.429	-111.125	-0.339	0.069
-136.414	39.686	-0.238	0.213
-135.399	-112.672	0.072	-0.014
-134.385	-151.581	0.138	0.010
-133.370	45.574	-0.221	-0.204
-132.356	-152.514	0.537	-0.038
-131.341	196.335	-0.128	0.194
-130.326	-36.661	-0.224	0.120
-129.312	-200.000	0.021	-0.175
-128.297	-30.812	0.121	0.068
-127.283	-200.000	-0.026	-0.200
-126.268	111.200	0.147	0.177
-125.253	581.474	-0.019	-0.045
-124.239	-200.000	-0.002	-0.241
-123.224	-82.604	0.132	-0.043
-122.210	187.259	0.194	0.289
-121.195	-200.000	-0.023	0.152
