DTS Sentinel unit serial number:	SN413079Multiplexer serial number:	ORYXHardware model number:	OX4-SRSoftware version number:	ORYX F/W v4.00 Oryx Data Collector v3.7.2.0data status	okinstallation	princeton_trtdifferential loss correction	single-endedforward channel	channel 4reverse channel	N/Adate	2019/09/11time	08:43:10forward acquisition time	60.00reverse acquisition time	0.00gamma	496.2192k internal	0.2302k external	0.2302temperature offset calibration	0.9972default loss term (dB/km)	0.3790temperature slope calibration	1.0000multiplexer offset coefficient	1.0000multiplexer slope coefficient	1.0000fibre end	0.00T internal ref (°C)	33.58T ext. ref 1 (°C)	0.12T ext. ref 2 (°C)	31.12length (m)	temperature (°C)	Stokes	anti-Stokes-747.200	-72.710	0.171	0.064
-746.185	174.460	-0.037	-0.055
-745.171	589.544	-0.114	-0.287
-744.156	94.508	0.159	-0.184
-743.142	309.060	0.094	-0.180
-742.127	-54.381	-0.224	-0.103
-741.112	-200.000	-0.045	-0.272
-740.098	347.381	0.106	-0.213
-739.083	-60.329	0.192	0.083
-738.069	81.723	-0.105	0.116
-737.054	8.394	-0.149	0.114
-736.039	278.199	-0.242	0.440
-735.025	-122.372	0.273	0.045
-734.010	17.606	-0.355	-0.288
-732.996	3.361	-0.018	-0.014
-731.981	-90.517	0.355	-0.105
-730.966	61.054	0.172	0.174
-729.952	-36.232	-0.176	0.097
-728.937	-44.656	-0.339	-0.173
-727.923	29.243	0.132	0.114
-726.908	-200.000	-0.047	-0.499
-725.894	-200.000	0.009	-0.090
-724.879	-152.919	-0.328	-0.024
-723.864	800.000	-0.043	-0.188
-722.850	-33.601	-0.061	0.034
-721.835	65.767	-0.017	0.017
-720.821	23.108	0.038	-0.032
-719.806	364.838	-0.073	-0.149
-718.791	76.582	-0.114	-0.123
-717.777	-55.485	-0.405	0.185
-716.762	-23.749	-0.043	-0.026
-715.748	-194.067	0.211	-0.002
-714.733	-200.000	0.027	-0.147
-713.718	-119.888	0.316	-0.055
-712.704	77.933	-0.211	-0.229
-711.689	-68.096	0.476	-0.189
-710.675	800.000	0.072	-0.269
-709.660	-108.644	0.100	-0.022
-708.645	-200.000	0.004	-0.230
-707.631	151.395	-0.113	0.157
-706.616	-99.959	-0.048	0.012
-705.602	-89.209	-0.192	0.058
-704.587	-48.241	0.186	-0.092
-703.572	-156.552	0.195	-0.012
-702.558	-200.000	-0.030	0.143
-701.543	51.429	0.060	0.058
-700.529	135.941	0.305	-0.404
-699.514	201.823	-0.050	0.078
-698.499	205.750	-0.009	-0.015
-697.485	101.178	0.153	-0.181
-696.470	800.000	-0.075	-0.284
-695.456	303.112	-0.157	-0.295
-694.441	-82.529	-0.233	-0.077
-693.426	800.000	0.054	-0.167
-692.412	-200.000	-0.009	-0.039
-691.397	-99.403	-0.207	0.053
-690.383	-200.000	0.018	-0.118
-689.368	26.111	0.223	0.189
-688.354	124.105	-0.106	0.136
-687.339	-32.614	-0.347	-0.196
-686.324	-200.000	-0.029	-0.178
-685.310	-72.122	0.148	0.056
-684.295	653.163	-0.013	-0.034
-683.281	70.477	-0.124	0.130
-682.266	-62.109	-0.380	0.161
-681.251	158.336	0.187	0.263
-680.237	-200.000	0.003	0.077
-679.222	800.000	-0.049	-0.156
-678.208	800.000	0.081	-0.260
-677.193	144.050	-0.181	0.245
-676.178	27.196	0.264	-0.226
-675.164	292.912	0.056	-0.103
-674.149	-200.000	-0.005	-0.051
-673.135	-144.601	-0.240	-0.023
-672.120	800.000	0.031	0.107
-671.105	-115.697	-0.266	0.051
-670.091	800.000	0.085	-0.298
-669.076	222.961	0.090	0.147
-668.062	76.701	0.024	0.026
-667.047	-200.000	-0.025	0.189
-666.032	-77.885	0.232	0.081
-665.018	-200.000	0.013	-0.067
-664.003	675.192	0.102	-0.270
-662.989	-200.000	-0.001	0.154
-661.974	-174.010	-0.419	-0.013
-660.959	198.781	0.187	-0.291
-659.945	107.457	0.062	0.075
-658.930	147.908	0.165	-0.225
-657.916	-24.933	0.179	-0.108
-656.901	329.948	0.056	0.109
-655.886	352.769	0.183	0.368
-654.872	79.396	-0.151	0.164
-653.857	31.521	-0.186	-0.163
-652.843	48.184	0.235	0.223
-651.828	-61.378	0.131	-0.056
-650.814	-75.221	-0.416	-0.151
-649.799	-87.545	0.112	-0.034
-648.784	71.140	-0.267	-0.281
-647.770	72.527	-0.177	-0.188
-646.755	-75.261	-0.283	-0.103
-645.741	248.580	-0.071	0.123
-644.726	17.531	-0.028	-0.023
-643.711	37.757	-0.256	-0.230
-642.697	-56.287	-0.192	0.087
-641.682	94.539	0.022	0.025
-640.668	-168.155	-0.207	-0.008
-639.653	-117.046	-0.162	0.030
-638.638	-126.239	-0.358	-0.054
-637.624	57.509	0.076	-0.075
-636.609	369.037	0.178	-0.365
-635.595	-127.290	-0.142	0.021
-634.580	-99.130	0.106	0.027
-633.565	37.480	0.109	-0.098
-632.551	293.064	-0.198	0.367
-631.536	-49.024	0.145	-0.070
-630.522	351.862	-0.066	0.133
-629.507	-42.671	0.137	-0.071
-628.492	593.310	0.106	0.267
-627.478	800.000	0.097	0.346
-626.463	-163.409	-0.132	0.006
-625.449	44.734	-0.227	0.212
-624.434	38.575	0.205	0.185
-623.419	800.000	-0.064	0.266
-622.405	-87.832	0.031	0.009
-621.390	528.742	0.028	-0.067
-620.376	800.000	0.019	-0.053
-619.361	-200.000	-0.000	0.013
-618.346	499.602	-0.080	-0.188
-617.332	-200.000	0.012	-0.080
-616.317	129.527	-0.078	-0.101
-615.303	19.914	0.081	0.066
-614.288	66.146	0.165	0.170
-613.273	82.764	0.053	-0.059
-612.259	97.646	-0.128	-0.149
-611.244	117.649	-0.155	-0.194
-610.230	67.788	0.222	-0.230
-609.215	-33.954	-0.287	0.160
-608.201	800.000	0.033	-0.125
-607.186	-52.128	0.222	0.104
-606.171	265.042	-0.146	-0.259
-605.157	18.041	0.276	-0.223
-604.142	398.013	0.107	0.227
-603.128	2.198	-0.234	-0.172
-602.113	-38.081	-0.133	0.071
-601.098	38.258	-0.326	-0.294
-600.084	-200.000	0.017	0.133
-599.069	-32.103	0.244	0.138
-598.055	-200.000	-0.071	-0.536
-597.040	-200.000	0.052	-0.302
-596.025	22.759	-0.186	0.154
-595.011	136.876	-0.175	0.232
-593.996	-112.770	0.342	0.069
-592.982	5.962	0.317	-0.238
-591.967	57.669	-0.037	0.036
-590.952	-129.460	0.104	-0.015
-589.938	800.000	0.023	0.080
-588.923	-200.000	-0.141	0.000
-587.909	663.313	-0.065	0.169
-586.894	357.552	-0.088	0.177
-585.879	800.000	0.040	0.135
-584.865	44.576	0.046	-0.043
-583.850	102.418	0.179	-0.212
-582.836	37.001	-0.086	0.077
-581.821	164.268	-0.163	-0.233
-580.806	-54.343	-0.032	-0.015
-579.792	-200.000	-0.008	0.105
-578.777	281.300	0.158	-0.287
-577.763	58.644	-0.035	0.035
-576.748	138.986	0.130	-0.173
-575.733	-10.130	-0.072	0.048
-574.719	47.983	-0.057	-0.054
-573.704	370.166	-0.187	-0.384
-572.690	741.405	-0.042	-0.115
-571.675	-41.157	-0.291	0.152
-570.661	148.391	0.166	-0.227
-569.646	521.280	0.040	-0.096
-568.631	18.954	-0.254	-0.206
-567.617	86.113	-0.233	-0.260
-566.602	-136.387	-0.164	-0.019
-565.588	-200.000	-0.019	-0.256
-564.573	162.078	-0.280	-0.397
-563.558	-200.000	-0.014	-0.448
-562.544	-25.770	0.179	0.107
-561.529	800.000	-0.105	-0.334
-560.515	282.780	0.100	0.181
-559.500	-26.588	-0.170	-0.100
-558.485	-79.698	0.146	-0.050
-557.471	-194.660	0.112	0.001
-556.456	451.889	-0.107	-0.239
-555.442	-200.000	0.026	-0.117
-554.427	-35.114	0.075	-0.042
-553.412	-200.000	-0.033	-0.238
-552.398	-68.824	0.148	-0.058
-551.383	-160.808	-0.164	0.009
-550.369	-125.425	-0.145	-0.022
-549.354	62.785	0.171	-0.173
-548.339	397.323	0.221	-0.467
-547.325	-159.045	-0.248	-0.014
-546.310	651.914	-0.118	-0.305
-545.296	-200.000	0.047	0.340
-544.281	447.501	0.038	-0.085
-543.266	-51.546	-0.263	0.124
-542.252	-148.149	-0.081	0.007
-541.237	-80.232	-0.344	-0.117
-540.223	315.523	0.110	0.209
-539.208	-135.834	-0.093	0.011
-538.193	-69.489	0.355	0.137
-537.179	-27.183	0.252	-0.148
-536.164	-11.500	0.368	-0.244
-535.150	-200.000	-0.018	-0.099
-534.135	-22.502	-0.124	0.076
-533.121	71.905	0.082	0.086
-532.106	-200.000	0.005	0.131
-531.091	-93.324	0.392	0.110
-530.077	11.227	-0.044	-0.034
-529.062	-200.000	-0.008	-0.204
-528.048	-17.534	-0.307	-0.195
-527.033	317.719	-0.099	-0.189
-526.018	-92.293	-0.052	0.015
-525.004	75.210	0.207	0.221
-523.989	800.000	0.088	0.250
-522.975	-169.915	0.188	0.007
-521.960	-22.564	-0.373	0.228
-520.945	800.000	-0.050	0.143
-519.931	46.289	0.168	-0.157
-518.916	-72.993	0.324	0.120
-517.902	-98.294	0.258	0.067
-516.887	-200.000	0.007	-0.223
-515.872	97.270	-0.086	0.100
-514.858	-132.734	0.104	0.013
-513.843	165.062	0.247	0.352
-512.829	-7.999	-0.194	0.132
-511.814	-140.189	-0.094	-0.010
-510.799	-200.000	0.026	0.185
-509.785	-15.026	0.182	-0.118
-508.770	261.127	-0.141	-0.246
-507.756	19.390	0.076	0.062
-506.741	72.203	-0.155	-0.162
-505.726	-25.255	0.229	-0.137
-504.712	109.283	0.175	-0.212
-503.697	-101.561	-0.214	0.053
-502.683	-200.000	-0.004	-0.096
-501.668	800.000	-0.094	-0.330
-500.653	800.000	-0.086	0.255
-499.639	800.000	0.052	0.221
-498.624	299.486	0.138	0.257
-497.610	157.300	-0.174	-0.242
-496.595	800.000	-0.062	-0.182
-495.581	135.934	-0.060	-0.079
-494.566	800.000	0.107	0.405
-493.551	20.662	0.182	0.149
-492.537	-200.000	0.015	-0.220
-491.522	-200.000	0.017	-0.107
-490.508	-80.626	0.381	0.128
-489.493	-200.000	0.059	-0.000
-488.478	22.072	0.259	-0.213
-487.464	-157.329	-0.040	-0.002
-486.449	48.589	-0.102	-0.096
-485.435	716.709	-0.121	-0.325
-484.420	-13.905	0.234	-0.153
-483.405	-112.652	-0.307	-0.062
-482.391	-107.360	-0.141	0.031
-481.376	125.047	-0.117	-0.149
-480.362	76.755	0.216	0.232
-479.347	800.000	0.042	0.119
-478.332	-46.507	-0.177	0.087
-477.318	58.176	0.166	0.164
-476.303	5.118	0.137	-0.102
-475.289	183.881	-0.135	-0.202
-474.274	-200.000	-0.003	-0.180
-473.259	-136.458	-0.393	-0.046
-472.245	151.838	-0.098	0.135
-471.230	-168.436	-0.159	-0.006
-470.216	122.972	-0.128	-0.161
-469.201	190.782	0.093	0.142
-468.186	11.901	-0.188	0.145
-467.172	800.000	-0.075	0.254
-466.157	-200.000	-0.014	0.073
-465.143	513.212	-0.094	0.220
-464.128	226.540	-0.106	0.174
-463.113	105.391	0.112	-0.133
-462.099	-24.653	-0.185	0.111
-461.084	800.000	0.065	-0.211
-460.070	-200.000	-0.044	0.242
-459.055	513.076	0.069	-0.161
-458.040	800.000	0.076	0.267
-457.026	-147.567	0.184	0.016
-456.011	-200.000	-0.002	0.243
-454.997	226.631	0.097	-0.159
-453.982	-200.000	-0.055	0.475
-452.968	-200.000	0.022	-0.170
-451.953	-45.994	-0.193	-0.096
-450.938	-4.147	-0.197	0.138
-449.924	-200.000	0.064	0.541
-448.909	248.024	-0.084	0.144
-447.895	-39.104	0.288	0.153
-446.880	800.000	0.036	-0.158
-445.865	-99.597	0.343	-0.087
-444.851	-200.000	-0.042	-0.339
-443.836	-200.000	-0.025	0.180
-442.822	161.579	0.053	0.075
-441.807	-8.360	0.105	-0.071
-440.792	364.921	-0.109	0.222
-439.778	-200.000	0.024	-0.218
-438.763	-200.000	-0.010	-0.269
-437.749	-200.000	-0.137	0.000
-436.734	800.000	0.107	0.355
-435.719	-66.533	-0.185	-0.074
-434.705	-45.862	-0.111	-0.055
-433.690	563.949	-0.070	-0.170
-432.676	-106.857	-0.194	0.043
-431.661	-17.140	-0.250	0.159
-430.646	-200.000	0.039	0.185
-429.632	418.764	-0.088	0.188
-428.617	368.881	-0.127	-0.259
-427.603	55.582	0.221	0.215
-426.588	-48.046	0.110	-0.053
-425.573	-200.000	-0.028	-0.171
-424.559	-200.000	-0.047	0.218
-423.544	-144.640	-0.259	0.024
-422.530	625.666	0.097	0.245
-421.515	-167.232	0.182	0.007
-420.500	800.000	0.023	0.073
-419.486	1.645	-0.243	-0.176
-418.471	-200.000	0.034	0.264
-417.457	-119.602	0.434	0.076
-416.442	114.796	-0.087	0.107
-415.428	-98.164	0.199	-0.051
-414.413	-177.238	-0.033	0.001
-413.398	94.166	-0.081	0.093
-412.384	112.337	0.135	0.164
-411.369	-158.651	-0.144	-0.008
-410.355	357.924	0.292	-0.586
-409.340	-82.256	-0.155	0.051
-408.325	21.987	-0.142	0.117
-407.311	28.833	-0.239	-0.204
-406.296	314.749	-0.075	-0.141
-405.282	-40.375	-0.293	0.153
-404.267	83.165	0.115	-0.126
-403.252	800.000	-0.114	0.320
-402.238	219.207	-0.103	0.166
-401.223	-164.291	0.209	-0.010
-400.209	800.000	0.102	0.344
-399.194	-46.760	0.268	-0.132
-398.179	-31.272	-0.259	0.146
-397.165	-200.000	-0.033	0.180
-396.150	-200.000	-0.027	0.162
-395.136	407.941	-0.135	-0.287
-394.121	129.295	-0.106	-0.136
-393.106	-123.591	-0.026	-0.004
-392.092	19.746	-0.100	0.081
-391.077	239.675	0.080	-0.134
-390.063	-10.281	0.270	-0.180
-389.048	556.204	-0.112	-0.271
-388.033	-109.532	-0.253	-0.054
-387.019	515.367	0.121	-0.284
-386.004	-94.837	0.147	-0.040
-384.990	132.650	0.043	-0.056
-383.975	-191.335	0.194	-0.002
-382.960	-200.000	-0.014	0.114
-381.946	-126.627	-0.272	-0.041
-380.931	66.497	-0.116	-0.118
-379.917	-139.650	0.145	-0.015
-378.902	-95.328	-0.144	0.039
-377.888	324.491	0.133	-0.256
-376.873	351.378	0.157	-0.313
-375.858	-140.754	-0.155	-0.016
-374.844	-100.178	-0.101	-0.025
-373.829	758.143	-0.039	-0.107
-372.815	-119.204	-0.117	-0.020
-371.800	-126.646	-0.450	-0.067
-370.785	-153.187	-0.196	-0.014
-369.771	800.000	0.032	0.094
-368.756	-152.896	0.113	0.008
-367.742	266.690	0.054	0.094
-366.727	731.848	-0.104	-0.278
-365.712	-12.511	-0.118	0.077
-364.698	-38.698	0.085	0.045
-363.683	-66.839	-0.133	0.053
-362.669	-200.000	0.050	-0.265
-361.654	-68.308	0.113	-0.044
-360.639	-46.814	0.246	0.121
-359.625	119.004	-0.191	0.237
-358.610	-5.662	0.129	0.089
-357.596	19.029	-0.106	-0.085
-356.581	-61.887	0.262	-0.110
-355.566	257.690	-0.144	0.249
-354.552	800.000	-0.067	0.209
-353.537	305.277	-0.068	0.126
-352.523	-86.708	0.530	0.163
-351.508	-46.128	0.140	-0.069
-350.493	-141.987	0.144	-0.014
-349.479	-124.522	0.170	0.026
-348.464	176.312	0.080	-0.117
-347.450	800.000	-0.024	0.072
-346.435	-16.105	-0.220	-0.141
-345.420	142.754	0.098	0.130
-344.406	-24.121	-0.259	0.155
-343.391	-171.671	-0.132	-0.004
-342.377	-200.000	-0.012	-0.250
-341.362	236.381	0.036	0.060
-340.348	-200.000	-0.007	0.121
-339.333	-77.994	-0.150	0.052
-338.318	-58.850	0.097	-0.042
-337.304	-38.612	-0.049	-0.026
-336.289	-124.203	-0.327	-0.051
-335.275	-107.476	0.275	-0.061
-334.260	-123.325	-0.403	-0.064
-333.245	-96.389	0.293	0.078
-332.231	800.000	0.159	-0.488
-331.216	33.305	0.284	0.247
-330.202	452.558	-0.130	0.288
-329.187	800.000	0.111	0.400
-328.172	46.879	-0.134	-0.125
-327.158	186.709	-0.092	0.137
-326.143	-82.523	0.065	-0.021
-325.129	597.768	-0.067	0.167
-324.114	-200.000	-0.016	0.384
-323.099	27.819	-0.177	0.150
-322.085	459.423	-0.117	0.261
-321.070	800.000	0.022	-0.072
-320.056	215.858	-0.161	0.257
-319.041	-80.404	0.274	0.092
-318.026	-97.525	0.063	0.016
-317.012	-111.581	0.292	-0.059
-315.997	-200.000	0.009	0.158
-314.983	-116.986	0.187	-0.034
-313.968	-99.043	0.183	0.046
-312.953	665.025	0.077	-0.200
-311.939	43.764	0.055	0.050
-310.924	73.959	-0.062	-0.065
-309.910	0.981	0.110	-0.079
-308.895	-145.313	0.370	0.033
-307.880	800.000	0.038	0.143
-306.866	-200.000	0.040	0.284
-305.851	-12.516	0.234	-0.153
-304.837	800.000	0.087	0.379
-303.822	-22.686	-0.221	0.134
-302.807	-200.000	-0.037	0.279
-301.793	-78.661	0.136	-0.047
-300.778	-116.432	-0.089	0.017
-299.764	-72.655	-0.170	0.063
-298.749	-69.793	0.021	0.008
-297.735	9.611	0.170	-0.129
-296.720	-146.931	-0.099	0.009
-295.705	11.764	0.144	-0.111
-294.691	-85.425	0.264	0.083
-293.676	800.000	0.042	-0.146
-292.662	800.000	0.085	-0.313
-291.647	52.766	-0.156	-0.150
-290.632	-135.015	0.051	-0.006
-289.618	545.513	0.081	-0.195
-288.603	61.771	-0.180	-0.179
-287.589	-65.855	0.296	-0.118
-286.574	-200.000	-0.025	0.160
-285.559	178.079	-0.226	0.330
-284.545	344.526	0.107	0.209
-283.530	-94.910	-0.199	0.054
-282.516	451.184	-0.122	0.270
-281.501	103.277	-0.217	0.254
-280.486	-28.681	-0.177	0.102
-279.472	631.786	-0.051	0.128
-278.457	152.668	0.084	0.115
-277.443	-60.365	-0.074	0.032
-276.428	130.316	0.205	-0.263
-275.413	-14.771	-0.138	0.088
-274.399	113.822	-0.120	0.146
-273.384	430.158	0.154	0.333
-272.370	-91.823	-0.226	0.064
-271.355	56.489	-0.078	0.076
-270.340	800.000	0.037	-0.141
-269.326	-57.863	0.178	-0.078
-268.311	152.506	0.211	0.289
-267.297	800.000	0.051	0.181
-266.282	-82.526	0.234	0.076
-265.267	-86.145	-0.294	-0.091
-264.253	55.093	-0.038	0.037
-263.238	144.831	0.249	-0.333
-262.224	-200.000	-0.056	-0.263
-261.209	-88.547	-0.291	-0.087
-260.195	208.511	-0.114	0.179
-259.180	-43.985	0.329	-0.165
-258.165	-30.534	0.486	0.276
-257.151	55.654	0.064	0.062
-256.136	-189.280	-0.070	0.001
-255.122	-200.000	-0.011	-0.076
-254.107	800.000	-0.103	0.330
-253.092	-127.610	0.147	0.021
-252.078	-3.742	0.024	-0.017
-251.063	800.000	0.065	0.212
-250.049	-51.141	-0.088	-0.041
-249.034	23.477	0.125	0.102
-248.019	605.283	-0.137	0.341
-247.005	-52.021	-0.119	0.055
-245.990	1.316	-0.232	-0.167
-244.976	-200.000	-0.006	-0.232
-243.961	-200.000	-0.008	-0.092
-242.946	-13.261	0.020	-0.013
-241.932	402.578	0.098	-0.207
-240.917	-54.555	0.071	0.032
-239.903	-149.024	-0.138	0.011
-238.888	178.843	0.080	0.117
-237.873	800.000	0.061	0.189
-236.859	31.579	-0.052	-0.045
-235.844	-43.486	-0.199	0.100
-234.830	-95.355	0.224	-0.060
-233.815	36.538	0.126	-0.111
-232.800	1.112	-0.542	0.388
-231.786	-124.503	-0.515	0.080
-230.771	-135.689	0.361	0.043
-229.757	-11.952	0.254	0.166
-228.742	9.561	0.076	0.057
-227.727	15.414	-0.231	-0.181
-226.713	-10.804	0.330	0.218
-225.698	-200.000	0.045	0.306
-224.684	-200.000	0.020	0.186
-223.669	800.000	0.015	0.045
-222.655	-91.461	0.247	-0.070
-221.640	-24.838	-0.317	-0.188
-220.625	-77.145	0.249	0.087
-219.611	-72.586	-0.233	0.086
-218.596	800.000	-0.039	-0.115
-217.582	800.000	-0.037	-0.145
-216.567	-165.640	-0.168	0.007
-215.552	-200.000	-0.052	-0.246
-214.538	800.000	0.088	0.328
-213.523	-200.000	0.036	-0.265
-212.509	800.000	-0.072	0.231
-211.494	-177.038	0.229	0.006
-210.479	-99.419	-0.233	-0.059
-209.465	6.986	0.195	-0.145
-208.450	12.184	0.204	-0.157
-207.436	285.552	-0.074	0.132
-206.421	35.362	0.237	0.208
-205.406	230.228	-0.082	-0.135
-204.392	-200.000	0.004	-0.173
-203.377	-98.147	-0.109	-0.028
-202.363	222.020	0.200	-0.322
-201.348	122.805	0.100	0.125
-200.333	92.350	0.168	0.189
-199.319	-63.281	0.326	0.134
-198.304	-32.978	-0.193	-0.107
-197.290	-169.985	-0.206	-0.007
-196.275	-200.000	-0.001	0.008
-195.260	-200.000	0.027	0.171
-194.246	-142.493	-0.150	-0.015
-193.231	-74.309	0.103	-0.037
-192.217	-2.298	-0.341	0.238
-191.202	472.972	0.065	-0.147
-190.187	800.000	0.020	0.067
-189.173	754.556	0.050	0.135
-188.158	-200.000	0.006	0.041
-187.144	224.768	-0.054	0.088
-186.129	-122.785	0.123	-0.020
-185.114	271.548	0.085	-0.149
-184.100	-69.820	0.174	0.066
-183.085	-51.063	-0.315	-0.147
-182.071	111.878	0.120	0.144
-181.056	-200.000	-0.006	-0.082
-180.042	-105.506	0.148	0.034
-179.027	767.630	0.099	0.270
-178.012	-88.795	0.025	0.007
-176.998	-200.000	0.020	-0.222
-175.983	688.487	0.067	-0.176
-174.969	-200.000	-0.055	-0.265
-173.954	-200.000	0.047	-0.354
-172.939	-200.000	-0.031	-0.345
-171.925	170.434	0.146	-0.208
-170.910	800.000	-0.024	0.079
-169.896	-200.000	-0.015	0.154
-168.881	-38.000	0.320	-0.169
-167.866	-200.000	0.013	-0.112
-166.852	287.987	-0.145	-0.262
-165.837	-38.668	-0.110	0.058
-164.823	89.087	-0.097	-0.107
-163.808	29.928	-0.139	-0.118
-162.793	-166.388	-0.165	0.007
-161.779	38.223	0.141	-0.125
-160.764	-129.539	0.376	0.052
-159.750	-42.511	0.287	-0.146
-158.735	800.000	-0.064	-0.181
-157.720	54.269	-0.220	0.211
-156.706	-40.230	0.576	0.298
-155.691	-200.000	0.055	-0.368
-154.677	-135.947	-0.079	-0.009
-153.662	536.101	0.102	0.242
-152.647	156.249	-0.125	0.171
-151.633	-200.000	-0.033	0.327
-150.618	800.000	0.080	0.298
-149.604	195.476	-0.130	-0.196
-148.589	-70.618	0.158	-0.059
-147.574	-80.102	0.314	-0.105
-146.560	-11.320	0.197	-0.129
-145.545	251.794	0.042	-0.071
-144.531	68.523	-0.202	-0.206
-143.516	194.982	-0.127	0.192
-142.502	-38.528	-0.034	0.018
-141.487	114.826	-0.090	-0.109
-140.472	-47.412	0.203	0.098
-139.458	800.000	-0.030	-0.096
-138.443	-114.668	-0.332	-0.063
-137.429	130.388	-0.208	-0.266
-136.414	-49.698	-0.210	0.100
-135.399	127.360	0.245	-0.309
-134.385	277.790	0.108	0.191
-133.370	-106.771	0.286	0.063
-132.356	93.934	-0.106	0.119
-131.341	178.195	0.146	0.212
-130.326	-119.362	-0.184	-0.032
-129.312	721.734	0.055	-0.147
-128.297	452.856	0.088	-0.193
-127.283	-133.256	0.107	-0.013
-126.268	-200.000	-0.065	-0.000
-125.253	-119.988	0.296	0.051
-124.239	16.047	0.178	0.139
-123.224	300.245	-0.152	0.278
-122.210	306.803	-0.179	0.332
-121.195	41.584	-0.255	0.230
