DTS Sentinel unit serial number:	SN413079Multiplexer serial number:	ORYXHardware model number:	OX4-SRSoftware version number:	ORYX F/W v4.00 Oryx Data Collector v3.7.2.0data status	okinstallation	princeton_trtdifferential loss correction	single-endedforward channel	channel 4reverse channel	N/Adate	2019/09/11time	10:35:11forward acquisition time	60.00reverse acquisition time	0.00gamma	496.2192k internal	0.2294k external	0.2294temperature offset calibration	0.9973default loss term (dB/km)	0.3790temperature slope calibration	1.0000multiplexer offset coefficient	1.0000multiplexer slope coefficient	1.0000fibre end	0.00T internal ref (°C)	36.50T ext. ref 1 (°C)	0.16T ext. ref 2 (°C)	33.56length (m)	temperature (°C)	Stokes	anti-Stokes-747.200	-149.957	-0.145	-0.012
-746.185	-200.000	0.018	0.264
-745.171	-200.000	-0.016	-0.349
-744.156	-138.562	-0.373	-0.042
-743.142	79.165	0.163	0.178
-742.127	800.000	0.023	0.069
-741.112	-7.500	0.233	0.161
-740.098	149.378	0.194	0.268
-739.083	-46.653	0.145	-0.072
-738.069	-200.000	0.047	-0.307
-737.054	800.000	0.011	-0.038
-736.039	800.000	-0.045	-0.180
-735.025	138.666	-0.030	0.040
-734.010	-200.000	-0.012	-0.172
-732.996	-133.795	-0.342	-0.044
-731.981	232.967	-0.129	-0.217
-730.966	-200.000	-0.038	-0.221
-729.952	-42.898	0.103	-0.053
-728.937	800.000	-0.127	-0.410
-727.923	122.202	0.087	0.112
-726.908	-200.000	0.001	0.100
-725.894	102.417	-0.072	-0.086
-724.879	-8.693	-0.263	0.181
-723.864	-131.796	0.419	-0.056
-722.850	800.000	-0.018	-0.074
-721.835	-40.322	-0.209	0.111
-720.821	-200.000	0.007	0.330
-719.806	-67.010	-0.252	0.101
-718.791	590.161	-0.020	0.051
-717.777	96.681	-0.172	0.201
-716.762	-89.583	-0.168	-0.050
-715.748	-74.515	-0.148	-0.054
-714.733	-103.267	-0.393	-0.095
-713.718	74.871	0.171	0.183
-712.704	800.000	0.104	-0.428
-711.689	174.309	-0.144	-0.213
-710.675	-167.018	-0.501	-0.021
-709.660	-135.461	-0.195	-0.024
-708.645	800.000	-0.083	-0.321
-707.631	-200.000	0.016	0.293
-706.616	145.204	0.059	0.081
-705.602	-84.577	-0.057	0.018
-704.587	19.608	-0.348	0.286
-703.572	102.070	0.206	-0.245
-702.558	14.433	-0.131	0.105
-701.543	-37.908	0.231	-0.126
-700.529	800.000	-0.033	-0.129
-699.514	8.879	0.276	-0.212
-698.499	800.000	0.032	0.115
-697.485	313.359	-0.043	-0.083
-696.470	155.653	0.167	-0.235
-695.456	203.111	0.053	0.083
-694.441	-151.714	-0.110	-0.008
-693.426	-55.607	0.368	0.168
-692.412	452.159	0.139	-0.315
-691.397	457.856	-0.007	0.016
-690.383	429.535	-0.041	0.090
-689.368	-146.187	-0.328	0.029
-688.354	-200.000	-0.047	-0.349
-687.339	269.112	-0.084	-0.150
-686.324	-165.096	-0.102	0.005
-685.310	-117.853	0.285	-0.052
-684.295	105.490	-0.128	-0.154
-683.281	-200.000	0.026	0.183
-682.266	-200.000	-0.008	0.294
-681.251	-63.036	0.227	0.096
-680.237	-117.147	0.186	0.035
-679.222	-120.453	-0.215	-0.037
-678.208	493.019	-0.186	0.436
-677.193	174.030	-0.114	-0.167
-676.178	-19.600	0.307	-0.194
-675.164	-200.000	0.017	-0.076
-674.149	-123.040	0.226	-0.037
-673.135	-5.696	-0.105	0.073
-672.120	45.155	0.227	0.213
-671.105	800.000	-0.063	-0.180
-670.091	-100.024	0.322	0.082
-669.076	612.172	0.160	-0.409
-668.062	12.167	-0.214	-0.168
-667.047	-170.244	-0.105	-0.004
-666.032	-58.057	0.042	-0.019
-665.018	-102.165	0.374	0.092
-664.003	-96.408	-0.210	0.057
-662.989	-15.436	0.128	-0.083
-661.974	-111.645	0.155	-0.032
-660.959	-159.050	-0.045	0.003
-659.945	-200.000	0.001	-0.217
-658.930	-200.000	-0.005	-0.262
-657.916	359.535	-0.075	-0.154
-656.901	-54.954	0.189	0.087
-655.886	-192.523	0.218	-0.002
-654.872	-63.666	-0.340	-0.142
-653.857	-153.975	0.126	0.009
-652.843	-135.635	0.197	-0.024
-651.828	800.000	-0.076	0.325
-650.814	-93.716	-0.103	-0.029
-649.799	-29.123	-0.211	0.123
-648.784	-85.379	-0.505	-0.160
-647.770	127.758	0.101	-0.131
-646.755	344.510	0.083	0.167
-645.741	-56.484	-0.276	0.125
-644.726	195.576	0.130	-0.202
-643.711	269.319	-0.139	-0.248
-642.697	167.204	0.127	0.183
-641.682	296.092	0.131	0.244
-640.668	251.715	-0.078	-0.136
-639.653	-54.014	-0.257	0.119
-638.638	-200.000	-0.003	-0.197
-637.624	116.406	0.140	-0.174
-636.609	187.634	-0.105	0.159
-635.595	-200.000	-0.011	0.188
-634.580	-57.323	-0.286	0.128
-633.565	-37.565	0.129	-0.070
-632.551	-7.985	-0.215	0.148
-631.536	-117.471	-0.366	-0.067
-630.522	-45.954	-0.210	-0.106
-629.507	-200.000	-0.018	0.179
-628.492	-8.317	-0.182	0.124
-627.478	-17.657	0.217	0.139
-626.463	34.413	0.222	0.198
-625.449	12.804	0.197	0.155
-624.434	-54.740	-0.186	0.085
-623.419	-157.926	-0.111	-0.007
-622.405	-200.000	0.001	0.089
-621.390	268.162	-0.039	-0.069
-620.376	-200.000	0.011	0.484
-619.361	-145.842	0.092	0.008
-618.346	-95.776	-0.245	-0.067
-617.332	17.831	-0.161	-0.131
-616.317	800.000	0.088	-0.247
-615.303	-7.218	-0.061	0.042
-614.288	-83.333	0.181	-0.059
-613.273	-200.000	-0.038	0.265
-612.259	800.000	-0.121	-0.485
-611.244	-200.000	0.013	0.173
-610.230	15.703	0.370	-0.296
-609.215	-147.988	-0.117	-0.010
-608.201	606.322	0.049	-0.125
-607.186	32.807	-0.153	-0.135
-606.171	800.000	0.012	-0.042
-605.157	-200.000	-0.014	-0.123
-604.142	-101.520	0.391	0.097
-603.128	-14.125	-0.156	0.102
-602.113	402.260	0.032	-0.068
-601.098	-200.000	0.007	-0.034
-600.084	102.055	0.152	-0.180
-599.069	360.666	-0.031	-0.063
-598.055	-200.000	0.036	-0.233
-597.040	10.890	0.149	-0.116
-596.025	540.751	-0.152	-0.368
-595.011	324.193	0.035	-0.068
-593.996	-200.000	-0.034	0.282
-592.982	-19.918	-0.017	-0.011
-591.967	-200.000	-0.016	0.133
-590.952	251.965	-0.113	-0.195
-589.938	608.968	0.017	-0.042
-588.923	44.826	0.211	-0.198
-587.909	400.416	0.093	-0.197
-586.894	-200.000	-0.011	0.163
-585.879	117.798	-0.122	0.153
-584.865	-20.708	0.299	-0.187
-583.850	-200.000	-0.017	-0.133
-582.836	-200.000	-0.028	-0.197
-581.821	800.000	0.098	-0.354
-580.806	95.030	-0.131	-0.152
-579.792	-115.517	-0.114	0.022
-578.777	-49.664	-0.185	-0.089
-577.763	413.947	0.094	0.204
-576.748	-102.058	0.190	-0.047
-575.733	-200.000	0.033	-0.252
-574.719	800.000	-0.024	-0.104
-573.704	-122.014	0.219	0.037
-572.690	-76.873	-0.380	-0.135
-571.675	-159.155	-0.182	-0.010
-570.661	51.540	-0.190	-0.183
-569.646	219.879	-0.074	0.121
-568.631	-200.000	-0.015	0.151
-567.617	-82.072	-0.170	-0.056
-566.602	14.611	-0.095	0.076
-565.588	147.844	-0.050	0.069
-564.573	157.017	-0.105	0.147
-563.558	50.877	-0.118	0.113
-562.544	-109.889	-0.277	0.059
-561.529	68.961	-0.096	0.100
-560.515	-181.416	0.261	0.005
-559.500	59.524	-0.129	-0.129
-558.485	-28.505	0.449	-0.263
-557.471	-56.771	0.260	-0.117
-556.456	-200.000	-0.003	-0.112
-555.442	-92.693	0.259	-0.074
-554.427	800.000	0.101	-0.376
-553.412	9.653	0.183	-0.140
-552.398	-200.000	-0.020	-0.446
-551.383	-13.742	-0.251	-0.165
-550.369	-50.302	0.263	0.126
-549.354	74.788	-0.247	-0.264
-548.339	-102.313	0.101	0.025
-547.325	-119.053	0.264	-0.047
-546.310	-101.117	0.113	0.028
-545.296	-200.000	-0.003	-0.250
-544.281	-84.075	-0.364	-0.117
-543.266	-200.000	0.014	0.206
-542.252	-200.000	0.032	-0.169
-541.237	-66.877	0.073	0.029
-540.223	435.067	-0.046	0.101
-539.208	56.969	0.106	-0.105
-538.193	16.343	-0.071	0.057
-537.179	330.830	-0.015	-0.029
-536.164	195.175	-0.223	-0.343
-535.150	-178.817	0.209	0.005
-534.135	-100.228	-0.266	0.067
-533.121	-95.153	0.128	0.035
-532.106	-148.909	0.016	0.001
-531.091	800.000	0.060	-0.181
-530.077	-3.854	0.253	0.178
-529.062	-78.932	-0.253	0.087
-528.048	-95.211	0.324	-0.089
-527.033	-75.883	-0.172	0.062
-526.018	-97.829	-0.115	-0.030
-525.004	-75.565	-0.303	-0.109
-523.989	800.000	-0.067	-0.216
-522.975	198.301	-0.055	-0.085
-521.960	464.701	0.116	-0.263
-520.945	-200.000	-0.010	0.109
-519.931	-127.462	0.205	-0.030
-518.916	-200.000	0.013	-0.186
-517.902	-2.657	0.162	0.115
-516.887	800.000	0.026	0.104
-515.872	-118.897	0.010	0.002
-514.858	-200.000	0.019	-0.247
-513.843	-130.070	-0.205	-0.028
-512.829	-108.832	0.269	0.058
-511.814	800.000	-0.075	0.250
-510.799	56.622	0.086	-0.085
-509.785	10.008	0.098	-0.075
-508.770	378.684	-0.051	0.106
-507.756	-53.533	0.106	-0.049
-506.741	-200.000	0.023	-0.125
-505.726	-105.981	0.224	-0.051
-504.712	-200.000	0.006	0.123
-503.697	11.984	0.252	-0.196
-502.683	0.967	-0.040	-0.029
-501.668	345.249	0.069	-0.138
-500.653	-160.404	-0.285	-0.015
-499.639	-8.216	0.185	0.126
-498.624	59.567	-0.137	0.137
-497.610	135.100	0.210	-0.277
-496.595	-98.054	-0.349	-0.091
-495.581	105.118	-0.128	-0.153
-494.566	-109.995	-0.223	0.047
-493.551	99.260	-0.206	-0.242
-492.537	-53.177	-0.044	-0.020
-491.522	46.938	0.114	-0.107
-490.508	-103.235	0.197	0.047
-489.493	-40.040	-0.321	0.169
-488.478	45.382	-0.034	0.032
-487.464	-200.000	-0.009	-0.065
-486.449	800.000	-0.128	0.360
-485.435	123.757	-0.192	0.244
-484.420	800.000	-0.047	0.155
-483.405	444.529	-0.170	0.377
-482.391	29.463	-0.203	0.175
-481.376	-79.349	0.186	0.064
-480.362	15.623	0.109	-0.087
-479.347	-132.669	-0.065	0.008
-478.332	-123.404	0.048	0.008
-477.318	-200.000	-0.014	-0.390
-476.303	-87.004	0.163	-0.050
-475.289	531.627	-0.029	-0.070
-474.274	-79.708	-0.173	-0.059
-473.259	586.141	-0.147	-0.366
-472.245	-89.320	0.035	0.010
-471.230	614.784	-0.130	0.330
-470.216	246.686	-0.065	-0.111
-469.201	604.469	0.059	0.149
-468.186	-200.000	0.030	-0.167
-467.172	-151.209	0.360	0.027
-466.157	-200.000	-0.006	-0.111
-465.143	-105.208	0.334	-0.077
-464.128	238.800	0.103	-0.173
-463.113	-200.000	0.017	0.191
-462.099	-176.356	-0.256	-0.007
-461.084	-200.000	0.001	-0.027
-460.070	-42.637	0.162	-0.083
-459.055	-6.171	-0.127	0.087
-458.040	-51.238	-0.049	-0.023
-457.026	-41.098	0.338	0.177
-456.011	-188.124	-0.235	0.003
-454.997	250.104	0.232	-0.397
-453.982	112.441	-0.066	0.081
-452.968	-39.614	-0.309	0.164
-451.953	800.000	-0.044	-0.162
-450.938	545.275	-0.100	0.243
-449.924	52.496	-0.064	-0.062
-448.909	-48.945	-0.386	-0.187
-447.895	-196.179	0.180	0.001
-446.880	800.000	0.029	0.121
-445.865	22.593	-0.260	-0.215
-444.851	-200.000	0.054	0.255
-443.836	66.301	-0.044	0.046
-442.822	-18.860	0.146	0.092
-441.807	42.122	-0.405	0.372
-440.792	-11.611	-0.109	-0.072
-439.778	-26.934	0.108	0.064
-438.763	800.000	0.104	0.340
-437.749	-146.027	-0.237	0.021
-436.734	-96.793	-0.282	-0.075
-435.719	-19.890	-0.157	-0.098
-434.705	-63.750	0.163	-0.067
-433.690	-200.000	0.021	0.241
-432.676	9.706	-0.051	-0.039
-431.661	265.932	-0.034	-0.060
-430.646	135.485	0.166	-0.218
-429.632	-106.005	0.130	0.030
-428.617	140.502	-0.140	-0.186
-427.603	297.103	0.054	-0.101
-426.588	-123.844	-0.040	0.006
-425.573	800.000	-0.056	0.196
-424.559	-109.947	-0.211	-0.045
-423.544	-27.536	-0.319	0.187
-422.530	-154.736	0.589	0.039
-421.515	-51.852	-0.014	-0.006
-420.500	-0.395	0.307	0.220
-419.486	800.000	0.058	-0.182
-418.471	800.000	-0.103	-0.378
-417.457	-200.000	-0.017	-0.264
-416.442	-116.341	0.172	-0.032
-415.428	-82.102	0.281	0.092
-414.413	121.493	0.084	-0.106
-413.398	635.882	-0.173	-0.442
-412.384	69.375	0.164	-0.170
-411.369	54.682	0.264	-0.257
-410.355	-66.799	0.157	0.063
-409.340	121.675	-0.315	0.397
-408.325	42.898	-0.091	-0.084
-407.311	-176.408	0.444	0.012
-406.296	800.000	-0.044	0.152
-405.282	-200.000	-0.003	0.126
-404.267	557.712	-0.090	-0.220
-403.252	-200.000	0.052	-0.230
-402.238	362.917	-0.226	0.458
-401.223	-109.608	0.149	-0.032
-400.209	68.758	0.025	-0.026
-399.194	143.282	0.085	-0.114
-398.179	-104.217	0.190	-0.044
-397.165	-200.000	-0.015	-0.211
-396.150	-1.719	-0.195	0.139
-395.136	-116.512	-0.176	0.033
-394.121	-200.000	-0.014	-0.164
-393.106	-200.000	0.018	-0.273
-392.092	91.612	0.178	-0.202
-391.077	222.455	0.062	-0.101
-390.063	-8.854	-0.241	0.163
-389.048	-200.000	0.043	0.282
-388.033	-108.746	0.105	-0.023
-387.019	111.850	-0.233	0.284
-386.004	235.788	-0.151	0.252
-384.990	-200.000	-0.007	-0.202
-383.975	-200.000	-0.007	-0.102
-382.960	-99.595	-0.109	0.027
-381.946	153.840	-0.100	-0.139
-380.931	-200.000	-0.025	0.305
-379.917	-118.213	0.271	-0.049
-378.902	-200.000	-0.033	0.220
-377.888	129.803	0.162	0.209
-376.873	2.010	-0.161	0.117
-375.858	163.336	0.227	-0.322
-374.844	56.354	0.168	0.165
-373.829	-35.821	-0.399	0.218
-372.815	-200.000	-0.053	-0.260
-371.800	-200.000	0.003	0.019
-370.785	-26.715	0.009	-0.005
-369.771	-71.472	-0.123	0.046
-368.756	-32.443	-0.340	0.191
-367.742	104.728	-0.076	-0.090
-366.727	-200.000	-0.060	-0.291
-365.712	-119.041	-0.198	-0.035
-364.698	-124.802	0.274	-0.043
-363.683	-102.121	0.268	0.065
-362.669	800.000	-0.023	0.074
-361.654	-104.216	-0.434	-0.102
-360.639	36.743	-0.092	-0.082
-359.625	74.684	-0.170	0.180
-358.610	-122.900	0.142	-0.023
-357.596	-200.000	0.017	-0.311
-356.581	800.000	-0.104	-0.337
-355.566	-63.769	-0.143	0.059
-354.552	147.415	-0.177	-0.240
-353.537	49.937	-0.149	-0.142
-352.523	-118.057	-0.149	0.027
-351.508	-78.344	0.162	-0.056
-350.493	-120.298	-0.316	0.054
-349.479	-16.379	0.236	0.150
-348.464	-200.000	0.033	0.227
-347.450	-139.425	-0.168	0.018
-346.435	133.674	0.173	-0.226
-345.420	-200.000	-0.018	-0.177
-344.406	-62.194	0.195	0.082
-343.391	165.246	0.072	0.102
-342.377	800.000	0.019	-0.053
-341.362	-5.734	-0.095	-0.066
-340.348	-200.000	0.086	0.406
-339.333	302.606	-0.109	0.202
-338.318	380.999	-0.066	0.137
-337.304	800.000	0.096	0.298
-336.289	531.349	0.027	-0.065
-335.275	215.432	-0.051	-0.081
-334.260	-127.997	0.212	0.031
-333.245	-200.000	-0.018	0.107
-332.231	125.431	-0.145	0.184
-331.216	223.260	-0.216	0.350
-330.202	249.045	0.216	0.369
-329.187	-200.000	-0.000	0.047
-328.172	225.885	-0.082	0.134
-327.158	-30.879	0.066	0.038
-326.143	124.075	0.177	-0.224
-325.129	-200.000	0.055	0.268
-324.114	692.501	-0.038	0.099
-323.099	-169.399	0.253	-0.009
-322.085	-80.756	0.258	-0.086
-321.070	5.910	-0.217	0.162
-320.056	-171.961	-0.093	0.003
-319.041	26.166	-0.314	-0.264
-318.026	-56.428	-0.143	0.064
-317.012	-91.531	0.387	0.111
-315.997	36.199	0.174	0.155
-314.983	232.791	-0.100	0.166
-313.968	-170.298	0.337	0.012
-312.953	-13.413	0.136	-0.089
-311.939	-103.210	0.487	0.116
-310.924	-5.682	-0.365	-0.252
-309.910	-119.376	-0.319	-0.056
-308.895	-59.545	-0.235	0.102
-307.880	-200.000	0.005	0.070
-306.866	507.557	-0.091	-0.213
-305.851	-139.558	0.280	0.030
-304.837	-200.000	-0.024	-0.267
-303.822	20.357	-0.091	0.074
-302.807	-17.217	0.157	0.099
-301.793	-143.914	-0.077	-0.007
-300.778	194.400	-0.055	0.084
-299.764	-186.781	0.205	-0.003
-298.749	83.633	0.097	-0.107
-297.735	254.544	-0.021	0.037
-296.720	-87.824	0.357	0.108
-295.705	98.732	0.203	-0.236
-294.691	800.000	-0.040	-0.162
-293.676	274.303	0.068	0.121
-292.662	135.610	-0.071	-0.093
-291.647	250.979	0.023	-0.039
-290.632	45.223	-0.177	0.164
-289.618	45.248	-0.323	-0.299
-288.603	-125.196	0.456	0.070
-287.589	-200.000	0.020	0.256
-286.574	-120.754	0.189	-0.032
-285.559	136.873	-0.154	0.202
-284.545	85.561	0.260	-0.287
-283.530	79.108	-0.133	-0.143
-282.516	800.000	0.080	-0.264
-281.501	111.820	0.228	0.276
-280.486	-0.418	0.247	-0.176
-279.472	-138.664	0.330	0.036
-278.457	7.975	0.059	-0.045
-277.443	800.000	-0.045	0.159
-276.428	57.494	-0.204	0.200
-275.413	-126.672	-0.084	0.013
-274.399	52.943	-0.152	-0.146
-273.384	64.737	0.160	-0.162
-272.370	273.878	0.247	0.439
-271.355	-1.622	0.127	0.090
-270.340	20.691	-0.046	0.037
-269.326	470.317	0.136	0.307
-268.311	11.093	-0.147	0.113
-267.297	800.000	-0.097	0.352
-266.282	-88.786	-0.374	0.112
-265.267	147.470	0.039	-0.052
-264.253	-200.000	-0.000	0.223
-263.238	31.681	-0.130	-0.113
-262.224	618.344	-0.073	-0.183
-261.209	-200.000	0.033	0.152
-260.195	-200.000	0.063	0.576
-259.180	800.000	0.018	-0.056
-258.165	356.374	-0.036	0.073
-257.151	-125.004	0.041	0.006
-256.136	-82.447	0.256	0.083
-255.122	526.350	0.116	-0.275
-254.107	10.555	-0.086	-0.066
-253.092	191.888	0.069	0.105
-252.078	-200.000	0.036	0.180
-251.063	256.354	0.226	-0.389
-250.049	32.886	0.373	0.324
-249.034	-101.336	0.307	-0.075
-248.019	215.645	0.056	-0.090
-247.005	8.528	0.201	0.152
-245.990	-200.000	0.023	0.146
-244.976	-200.000	-0.009	0.155
-243.961	158.205	-0.106	-0.148
-242.946	-200.000	0.037	-0.252
-241.932	148.406	0.110	-0.149
-240.917	71.205	-0.182	0.189
-239.903	-200.000	0.009	0.114
-238.888	800.000	0.164	0.511
-237.873	-200.000	-0.058	-0.372
-236.859	233.244	-0.124	-0.204
-235.844	358.305	0.086	-0.171
-234.830	29.993	-0.240	-0.205
-233.815	70.246	-0.053	-0.055
-232.800	-76.049	0.286	0.101
-231.786	76.239	0.143	0.152
-230.771	800.000	-0.066	-0.204
-229.757	-20.006	-0.086	0.053
-228.742	-70.409	0.247	0.094
-227.727	-180.170	0.218	0.005
-226.713	45.092	0.023	0.021
-225.698	-16.082	0.226	-0.144
-224.684	29.869	-0.036	0.030
-223.669	733.269	0.049	-0.131
-222.655	-57.834	-0.213	-0.093
-221.640	-128.758	0.284	-0.040
-220.625	-23.865	0.006	-0.003
-219.611	-31.300	0.181	-0.102
-218.596	800.000	0.074	0.248
-217.582	20.359	-0.248	0.201
-216.567	664.884	0.091	0.236
-215.552	800.000	-0.096	-0.284
-214.538	-25.876	-0.152	0.090
-213.523	800.000	0.034	-0.137
-212.509	86.182	0.152	-0.168
-211.494	273.687	-0.211	-0.373
-210.479	-41.201	-0.215	0.111
-209.465	-200.000	-0.004	-0.283
-208.450	-200.000	0.047	0.218
-207.436	-140.305	-0.143	0.015
-206.421	-200.000	-0.000	-0.212
-205.406	119.349	-0.091	-0.113
-204.392	-6.776	0.080	-0.055
-203.377	-74.341	0.170	0.062
-202.363	-42.933	0.228	-0.116
-201.348	-76.974	0.255	0.089
-200.333	-25.624	-0.282	-0.166
-199.319	235.720	-0.270	0.446
-198.304	-108.790	0.129	0.028
-197.290	-200.000	-0.020	0.245
-196.275	63.121	0.210	0.210
-195.260	-66.526	0.233	0.093
-194.246	5.538	0.156	0.116
-193.231	-79.447	-0.078	0.026
-192.217	737.247	0.045	-0.121
-191.202	-65.723	-0.295	-0.118
-190.187	-8.432	-0.140	-0.094
-189.173	89.238	-0.063	0.070
-188.158	-131.053	-0.054	0.007
-187.144	-87.241	0.061	0.019
-186.129	466.032	0.149	0.333
-185.114	800.000	-0.100	0.342
-184.100	317.697	-0.218	0.413
-183.085	-200.000	-0.058	0.400
-182.071	700.752	-0.051	-0.133
-181.056	-85.149	0.111	0.035
-180.042	-85.565	0.354	0.110
-179.027	800.000	-0.084	0.248
-178.012	537.672	-0.062	0.148
-176.998	-200.000	0.004	0.318
-175.983	-25.296	-0.220	0.131
-174.969	800.000	0.010	0.032
-173.954	78.459	-0.082	-0.088
-172.939	-193.502	-0.274	-0.002
-171.925	233.528	-0.272	-0.447
-170.910	-116.544	-0.209	-0.039
-169.896	-61.207	-0.120	0.051
-168.881	-81.319	-0.208	0.068
-167.866	251.345	-0.040	-0.068
-166.852	-157.232	0.200	-0.012
-165.837	-200.000	0.025	-0.284
-164.823	-51.139	0.073	-0.034
-163.808	118.828	0.162	0.200
-162.793	-200.000	0.009	-0.111
-161.779	-29.828	0.524	-0.299
-160.764	-200.000	0.055	0.373
-159.750	-99.665	-0.309	-0.078
-158.735	54.284	0.153	-0.147
-157.720	-6.333	0.241	0.164
-156.706	-200.000	0.016	-0.137
-155.691	-200.000	0.035	0.262
-154.677	228.216	-0.193	0.314
-153.662	-48.373	-0.247	-0.119
-152.647	800.000	-0.056	0.224
-151.633	363.863	0.185	0.371
-150.618	193.839	0.055	0.083
-149.604	-200.000	-0.036	0.183
-148.589	22.471	0.455	0.371
-147.574	67.672	-0.113	-0.116
-146.560	105.068	-0.118	-0.139
-145.545	-200.000	0.067	-0.453
-144.531	176.857	0.058	0.084
-143.516	-200.000	0.009	-0.145
-142.502	-200.000	-0.023	-0.165
-141.487	-0.307	0.252	0.179
-140.472	-74.485	-0.207	0.075
-139.458	800.000	-0.006	-0.022
-138.443	2.504	-0.124	0.090
-137.429	-200.000	-0.022	-0.171
-136.414	-30.418	-0.170	0.097
-135.399	-48.197	0.200	-0.096
-134.385	-200.000	0.067	0.409
-133.370	320.263	0.096	0.183
-132.356	125.543	0.113	-0.142
-131.341	681.848	0.110	-0.286
-130.326	53.495	-0.182	0.175
-129.312	-130.191	-0.326	0.044
-128.297	240.299	0.083	0.138
-127.283	344.667	-0.151	0.297
-126.268	-76.603	0.436	-0.153
-125.253	-58.775	0.231	-0.100
-124.239	-200.000	-0.016	0.080
-123.224	-75.087	-0.231	-0.082
-122.210	800.000	0.016	-0.052
