DTS Sentinel unit serial number:	SN413079Multiplexer serial number:	ORYXHardware model number:	OX4-SRSoftware version number:	ORYX F/W v4.00 Oryx Data Collector v3.7.2.0data status	okinstallation	princeton_trtdifferential loss correction	single-endedforward channel	channel 4reverse channel	N/Adate	2019/09/12time	05:59:10forward acquisition time	60.00reverse acquisition time	0.00gamma	496.2192k internal	0.2307k external	0.2307temperature offset calibration	1.0064default loss term (dB/km)	0.3790temperature slope calibration	1.0000multiplexer offset coefficient	1.0000multiplexer slope coefficient	1.0000fibre end	0.00T internal ref (°C)	32.06T ext. ref 1 (°C)	1.57T ext. ref 2 (°C)	27.41length (m)	temperature (°C)	Stokes	anti-Stokes-747.200	632.885	-0.119	0.306
-746.185	-22.779	-0.225	0.138
-745.171	800.000	-0.059	0.171
-744.156	-3.289	0.229	-0.162
-743.142	40.192	-0.078	-0.071
-742.127	-200.000	0.007	0.240
-741.112	-64.050	-0.406	0.169
-740.098	-52.592	-0.070	0.033
-739.083	160.907	0.160	-0.227
-738.069	5.434	0.026	0.019
-737.054	322.659	0.061	-0.119
-736.039	-37.344	-0.264	-0.143
-735.025	383.836	-0.101	0.211
-734.010	577.502	0.159	-0.395
-732.996	-190.634	-0.196	-0.002
-731.981	50.700	-0.169	-0.163
-730.966	705.764	0.110	-0.294
-729.952	164.088	-0.122	0.175
-728.937	-14.701	-0.179	-0.117
-727.923	800.000	-0.026	-0.074
-726.908	-58.020	0.160	-0.071
-725.894	-72.746	-0.194	-0.073
-724.879	417.640	-0.079	0.172
-723.864	-200.000	-0.002	0.122
-722.850	213.943	0.043	0.070
-721.835	11.390	0.087	0.068
-720.821	-105.215	-0.273	0.063
-719.806	-11.488	0.065	0.044
-718.791	85.337	-0.241	0.269
-717.777	440.758	0.069	-0.153
-716.762	-50.713	-0.435	0.208
-715.748	221.773	-0.084	0.136
-714.733	-129.047	-0.239	-0.034
-713.718	217.751	0.080	0.129
-712.704	56.992	0.108	-0.107
-711.689	724.467	-0.081	-0.221
-710.675	0.204	-0.240	0.174
-709.660	6.221	0.336	-0.253
-708.645	-200.000	0.025	0.151
-707.631	-105.427	-0.370	0.085
-706.616	345.642	-0.186	-0.371
-705.602	-200.000	-0.002	-0.272
-704.587	-200.000	0.026	-0.222
-703.572	-200.000	-0.068	-0.487
-702.558	-15.168	-0.174	-0.113
-701.543	102.620	-0.197	0.234
-700.529	-115.006	0.272	-0.053
-699.514	-200.000	-0.011	0.298
-698.499	99.451	-0.467	-0.548
-697.485	41.012	-0.144	-0.132
-696.470	121.040	-0.151	-0.190
-695.456	800.000	0.068	-0.268
-694.441	-200.000	0.001	-0.194
-693.426	-46.836	-0.176	0.088
-692.412	-157.726	0.382	0.023
-691.397	5.229	-0.108	0.081
-690.383	112.766	0.197	-0.242
-689.368	18.962	0.292	-0.237
-688.354	149.670	-0.018	-0.025
-687.339	644.458	-0.067	-0.174
-686.324	42.747	0.282	-0.261
-685.310	-70.003	0.081	-0.031
-684.295	514.115	-0.040	-0.094
-683.281	-111.079	0.130	0.027
-682.266	-118.593	-0.120	0.022
-681.251	-24.826	0.076	-0.046
-680.237	85.529	0.220	-0.245
-679.222	458.496	-0.099	0.224
-678.208	-83.318	-0.170	-0.055
-677.193	453.699	0.028	0.062
-676.178	426.624	-0.145	0.316
-675.164	52.255	-0.113	0.110
-674.149	177.290	-0.225	-0.332
-673.135	6.478	-0.275	0.207
-672.120	-200.000	0.031	-0.237
-671.105	93.865	-0.226	-0.260
-670.091	601.627	0.107	-0.270
-669.076	800.000	0.041	0.134
-668.062	-200.000	0.017	0.432
-667.047	-200.000	0.029	-0.516
-666.032	-200.000	0.166	-0.000
-665.018	800.000	0.082	-0.231
-664.003	-200.000	0.008	-0.125
-662.989	-105.021	-0.018	-0.004
-661.974	84.228	-0.164	-0.182
-660.959	372.346	0.065	-0.134
-659.945	800.000	0.099	-0.318
-658.930	-200.000	0.012	-0.196
-657.916	226.588	0.059	-0.097
-656.901	482.078	-0.013	-0.031
-655.886	-144.609	-0.064	0.006
-654.872	-36.844	-0.102	-0.056
-653.857	-200.000	-0.001	0.262
-652.843	9.015	-0.197	0.151
-651.828	104.420	0.450	-0.536
-650.814	18.270	-0.118	0.095
-649.799	-66.089	-0.040	0.016
-648.784	111.999	-0.086	-0.105
-647.770	213.887	-0.016	-0.026
-646.755	800.000	0.042	0.166
-645.741	-140.309	-0.132	0.014
-644.726	100.775	-0.280	-0.330
-643.711	8.493	-0.189	0.144
-642.697	413.067	0.143	-0.308
-641.682	84.915	-0.131	-0.145
-640.668	118.016	-0.139	-0.173
-639.653	-123.917	-0.087	-0.014
-638.638	-53.737	-0.184	-0.085
-637.624	-13.222	0.161	-0.106
-636.609	800.000	0.088	0.323
-635.595	170.140	-0.052	0.076
-634.580	-94.539	-0.133	0.037
-633.565	800.000	-0.145	0.409
-632.551	507.637	-0.115	0.269
-631.536	-41.699	-0.107	-0.056
-630.522	-120.831	-0.261	-0.045
-629.507	-200.000	-0.014	-0.112
-628.492	-45.088	-0.156	0.078
-627.478	-56.913	-0.069	0.031
-626.463	70.823	0.127	0.133
-625.449	1.298	-0.160	0.116
-624.434	189.139	0.191	0.290
-623.419	-73.886	-0.064	0.024
-622.405	-66.560	-0.283	0.114
-621.390	-200.000	0.013	0.403
-620.376	-73.003	0.091	0.034
-619.361	-200.000	0.053	0.270
-618.346	202.618	0.051	-0.080
-617.332	-200.000	-0.004	0.078
-616.317	-162.356	-0.281	0.014
-615.303	-103.181	-0.222	-0.053
-614.288	-200.000	-0.011	-0.086
-613.273	-130.562	-0.352	0.048
-612.259	800.000	0.020	0.067
-611.244	-200.000	-0.085	0.421
-610.230	-200.000	0.007	-0.370
-609.215	134.336	0.041	0.054
-608.201	-101.366	-0.505	-0.125
-607.186	55.994	-0.110	-0.108
-606.171	8.599	0.149	0.113
-605.157	800.000	0.039	0.140
-604.142	164.546	0.037	0.053
-603.128	419.684	0.052	0.113
-602.113	-72.353	0.134	-0.050
-601.098	172.771	-0.073	0.107
-600.084	-70.840	-0.218	-0.083
-599.069	-130.611	0.254	0.035
-598.055	446.469	-0.096	0.214
-597.040	-138.872	0.169	-0.019
-596.025	90.471	-0.072	0.081
-595.011	18.798	-0.132	-0.107
-593.996	800.000	0.072	0.217
-592.982	800.000	-0.016	0.056
-591.967	56.622	-0.300	-0.295
-590.952	-200.000	-0.020	0.143
-589.938	-81.970	0.250	-0.082
-588.923	-192.936	0.400	0.004
-587.909	-77.869	0.163	0.057
-586.894	-132.222	0.294	0.038
-585.879	800.000	0.018	0.069
-584.865	512.986	-0.079	0.187
-583.850	193.255	-0.016	0.024
-582.836	-200.000	0.250	-0.001
-581.821	-200.000	0.006	-0.066
-580.806	-84.194	0.274	0.088
-579.792	-200.000	-0.049	-0.254
-578.777	-200.000	0.040	0.181
-577.763	-122.546	0.378	0.062
-576.748	-200.000	0.257	0.001
-575.733	-200.000	-0.024	-0.271
-574.719	121.489	0.108	0.136
-573.704	-200.000	-0.010	-0.163
-572.690	166.588	0.137	0.197
-571.675	-101.415	0.316	-0.078
-570.661	-82.222	-0.138	-0.045
-569.646	-76.872	-0.102	0.036
-568.631	-71.914	0.150	-0.057
-567.617	-16.944	0.225	0.144
-566.602	-88.479	0.019	-0.006
-565.588	97.876	-0.124	0.144
-564.573	2.517	0.162	-0.118
-563.558	591.100	0.109	-0.273
-562.544	435.005	0.036	-0.078
-561.529	-200.000	0.010	-0.132
-560.515	800.000	0.044	-0.152
-559.500	-46.637	0.144	0.071
-558.485	-64.140	0.182	-0.075
-557.471	-200.000	0.041	-0.318
-556.456	194.956	0.019	-0.030
-555.442	525.287	0.161	-0.382
-554.427	800.000	-0.086	0.343
-553.412	-128.092	-0.438	0.063
-552.398	-200.000	0.003	-0.196
-551.383	213.158	0.194	0.310
-550.369	-71.084	0.176	-0.067
-549.354	-2.149	0.136	0.096
-548.339	-124.677	-0.328	-0.051
-547.325	800.000	0.090	-0.286
-546.310	800.000	0.071	0.212
-545.296	-69.999	-0.166	-0.064
-544.281	-200.000	-0.041	0.302
-543.266	-90.733	-0.246	-0.072
-542.252	800.000	0.026	-0.106
-541.237	-136.432	-0.186	-0.022
-540.223	800.000	-0.081	-0.281
-539.208	137.970	-0.054	-0.071
-538.193	11.044	0.312	0.240
-537.179	-200.000	0.041	-0.278
-536.164	-63.557	-0.146	0.060
-535.150	266.248	0.139	-0.244
-534.135	-179.541	-0.218	-0.005
-533.121	-3.504	-0.045	-0.032
-532.106	14.937	0.130	-0.103
-531.091	-200.000	0.027	0.434
-530.077	-144.970	-0.302	0.028
-529.062	-200.000	0.005	-0.049
-528.048	-83.686	-0.377	-0.121
-527.033	-62.934	-0.167	-0.069
-526.018	-142.438	0.455	0.045
-525.004	-200.000	0.047	-0.380
-523.989	26.371	-0.142	0.120
-522.975	-200.000	-0.010	-0.156
-521.960	800.000	0.029	-0.100
-520.945	-142.870	-0.078	-0.008
-519.931	-200.000	0.006	-0.065
-518.916	-131.047	-0.142	-0.019
-517.902	-200.000	0.006	0.334
-516.887	-200.000	-0.026	-0.238
-515.872	-102.898	-0.315	-0.075
-514.858	131.149	-0.173	0.224
-513.843	-114.000	-0.155	0.030
-512.829	800.000	-0.036	0.105
-511.814	-58.009	0.219	0.096
-510.799	105.163	-0.154	-0.183
-509.785	50.937	-0.190	-0.181
-508.770	-118.356	-0.204	0.037
-507.756	517.023	-0.131	-0.309
-506.741	-200.000	0.043	0.251
-505.726	-200.000	-0.053	-0.314
-504.712	800.000	-0.046	-0.145
-503.697	-200.000	0.003	0.229
-502.683	-134.212	0.330	-0.041
-501.668	3.632	0.431	-0.316
-500.653	400.738	0.029	-0.061
-499.639	685.291	-0.082	0.217
-498.624	-19.413	0.042	-0.026
-497.610	-67.147	-0.134	-0.053
-496.595	-91.691	0.086	0.025
-495.581	-164.660	-0.145	-0.007
-494.566	-200.000	0.237	-0.000
-493.551	294.259	-0.037	-0.068
-492.537	35.500	-0.069	0.061
-491.522	-14.428	0.254	-0.164
-490.508	277.137	0.056	0.100
-489.493	-200.000	-0.024	-0.145
-488.478	-200.000	-0.031	-0.336
-487.464	-15.019	0.192	-0.124
-486.449	-163.369	-0.159	0.008
-485.435	328.475	0.107	0.206
-484.420	52.678	0.209	-0.201
-483.405	138.252	0.287	0.378
-482.391	-200.000	0.005	0.266
-481.376	-62.935	-0.216	0.090
-480.362	-80.828	0.148	0.049
-479.347	-197.105	-0.124	-0.001
-478.332	-200.000	0.005	-0.069
-477.318	-20.784	0.351	0.217
-476.303	231.781	0.168	0.277
-475.289	-5.275	0.245	0.169
-474.274	313.969	0.157	-0.298
-473.259	370.960	-0.052	0.106
-472.245	-18.968	0.103	-0.064
-471.230	-71.308	-0.188	0.071
-470.216	-200.000	-0.085	0.378
-469.201	800.000	-0.038	0.137
-468.186	14.835	-0.147	0.116
-467.172	84.947	-0.206	0.227
-466.157	-100.462	-0.405	-0.101
-465.143	-150.238	-0.376	-0.029
-464.128	365.064	-0.148	-0.299
-463.113	-144.559	0.098	0.009
-462.099	323.872	-0.048	0.091
-461.084	46.532	0.176	-0.164
-460.070	-1.735	-0.092	-0.065
-459.055	-97.333	-0.356	0.093
-458.040	-200.000	-0.026	0.154
-457.026	-200.000	-0.023	-0.105
-456.011	45.801	0.130	0.121
-454.997	27.780	-0.243	0.206
-453.982	32.255	0.068	-0.059
-452.968	-60.696	-0.413	-0.176
-451.953	800.000	0.059	0.198
-450.938	66.150	0.208	-0.212
-449.924	-69.949	-0.274	0.105
-448.909	-200.000	-0.110	-0.000
-447.895	-17.847	0.248	0.156
-446.880	-200.000	0.008	-0.247
-445.865	-126.966	0.272	0.040
-444.851	-79.625	-0.443	-0.150
-443.836	209.911	0.177	0.279
-442.822	-200.000	0.033	0.191
-441.807	119.046	-0.057	-0.070
-440.792	196.409	-0.108	-0.165
-439.778	-200.000	0.002	-0.101
-438.763	442.925	0.150	-0.330
-437.749	-56.695	0.139	-0.062
-436.734	-19.311	-0.175	0.109
-435.719	-200.000	0.049	-0.337
-434.705	-200.000	-0.049	-0.396
-433.690	-200.000	-0.023	-0.203
-432.676	141.107	0.113	-0.150
-431.661	789.131	-0.107	0.296
-430.646	-40.619	-0.147	-0.077
-429.632	-135.966	0.246	-0.029
-428.617	-82.629	-0.205	-0.067
-427.603	-50.806	0.293	0.138
-426.588	-52.007	0.253	-0.118
-425.573	-200.000	-0.024	0.202
-424.559	-121.122	0.201	0.034
-423.544	-200.000	0.014	-0.112
-422.530	-66.621	0.178	-0.071
-421.515	-114.373	-0.036	-0.007
-420.500	-200.000	0.038	-0.290
-419.486	1.775	0.175	0.127
-418.471	-39.447	-0.437	0.230
-417.457	-41.756	-0.210	-0.108
-416.442	219.927	0.081	-0.131
-415.428	-123.387	-0.175	-0.028
-414.413	247.091	0.128	-0.217
-413.398	-48.227	0.153	0.074
-412.384	-38.246	-0.164	-0.087
-411.369	800.000	-0.056	0.216
-410.355	189.061	-0.136	0.204
-409.340	202.805	0.015	-0.023
-408.325	-150.967	-0.121	0.009
-407.311	-109.052	-0.340	-0.073
-406.296	-200.000	0.092	0.437
-405.282	-45.468	-0.155	0.077
-404.267	-163.568	-0.280	0.013
-403.252	151.664	-0.105	0.143
-402.238	-43.079	0.069	-0.035
-401.223	800.000	0.034	0.109
-400.209	-141.192	0.040	0.004
-399.194	-100.977	-0.145	-0.036
-398.179	142.538	0.195	0.260
-397.165	-156.413	0.122	0.008
-396.150	-28.786	0.248	-0.143
-395.136	-102.755	0.322	-0.077
-394.121	13.933	0.390	-0.305
-393.106	787.899	0.033	-0.090
-392.092	800.000	0.090	0.372
-391.077	306.660	0.148	-0.276
-390.063	-200.000	-0.005	0.113
-389.048	-200.000	-0.010	0.273
-388.033	-20.810	-0.237	0.146
-387.019	-34.659	-0.132	-0.072
-386.004	-89.277	-0.258	0.076
-384.990	652.913	0.032	-0.082
-383.975	-8.881	-0.130	-0.088
-382.960	-200.000	0.008	0.216
-381.946	230.927	0.011	-0.018
-380.931	-200.000	0.022	0.462
-379.917	-2.693	-0.276	0.194
-378.902	364.099	-0.047	-0.094
-377.888	-36.379	-0.199	-0.107
-376.873	-98.046	-0.178	-0.046
-375.858	86.975	0.139	-0.154
-374.844	410.705	-0.065	0.138
-373.829	650.381	0.067	-0.173
-372.815	-177.617	0.064	-0.002
-371.800	-200.000	-0.004	-0.397
-370.785	64.404	-0.292	-0.295
-369.771	362.991	-0.037	0.075
-368.756	-200.000	-0.019	0.301
-367.742	-20.209	0.214	-0.132
-366.727	25.367	-0.228	-0.190
-365.712	49.824	-0.197	-0.186
-364.698	193.742	0.117	0.177
-363.683	261.018	-0.036	-0.063
-362.669	394.689	-0.111	0.233
-361.654	758.898	-0.035	0.094
-360.639	425.012	-0.176	0.379
-359.625	-152.320	0.202	0.015
-358.610	-4.541	-0.073	0.050
-357.596	115.587	-0.178	-0.218
-356.581	-53.568	-0.157	0.072
-355.566	72.105	-0.029	0.030
-354.552	-200.000	-0.052	-0.293
-353.537	-26.938	-0.155	0.091
-352.523	38.759	0.264	-0.236
-351.508	216.014	0.083	0.132
-350.493	-200.000	0.058	0.258
-349.479	-8.414	-0.218	-0.147
-348.464	-200.000	0.035	0.201
-347.450	-200.000	-0.033	-0.516
-346.435	739.605	0.157	-0.422
-345.420	-200.000	0.044	-0.473
-344.406	107.973	0.044	-0.052
-343.391	-64.740	0.259	-0.105
-342.377	258.468	-0.131	-0.226
-341.362	-200.000	-0.007	-0.175
-340.348	800.000	-0.112	0.353
-339.333	-35.895	-0.119	-0.064
-338.318	-200.000	-0.070	0.387
-337.304	800.000	0.026	0.113
-336.289	-47.753	0.106	-0.052
-335.275	188.821	0.053	-0.079
-334.260	-138.301	0.097	-0.011
-333.245	96.182	-0.146	0.167
-332.231	6.495	-0.205	-0.152
-331.216	-200.000	-0.002	-0.048
-330.202	38.965	-0.101	0.090
-329.187	-200.000	-0.041	0.275
-328.172	78.495	0.226	0.242
-327.158	-200.000	-0.056	-0.292
-326.143	551.443	0.210	-0.504
-325.129	98.766	0.082	-0.095
-324.114	-200.000	0.018	0.392
-323.099	-200.000	0.062	-0.294
-322.085	-79.917	-0.139	-0.047
-321.070	-152.933	-0.092	0.006
-320.056	-74.666	0.165	0.060
-319.041	-108.730	-0.147	0.032
-318.026	329.136	-0.160	0.308
-317.012	173.225	0.114	0.165
-315.997	-200.000	0.023	0.232
-314.983	301.862	0.093	0.172
-313.968	-200.000	-0.016	-0.272
-312.953	304.898	-0.098	-0.183
-311.939	-200.000	0.021	-0.179
-310.924	273.957	-0.030	-0.053
-309.910	800.000	0.034	0.121
-308.895	246.212	0.200	-0.336
-307.880	44.761	-0.166	0.153
-306.866	-200.000	0.015	0.228
-305.851	-17.527	0.265	0.167
-304.837	339.118	-0.169	-0.329
-303.822	-61.082	0.166	-0.070
-302.807	422.150	0.066	-0.142
-301.793	216.309	0.013	0.020
-300.778	39.612	0.335	0.300
-299.764	-200.000	0.046	0.237
-298.749	75.039	0.223	-0.235
-297.735	-138.981	-0.397	0.043
-296.720	244.814	0.037	0.063
-295.705	12.192	-0.278	-0.214
-294.691	215.859	0.232	0.368
-293.676	1.586	-0.105	0.075
-292.662	317.914	-0.075	-0.141
-291.647	9.562	-0.110	0.084
-290.632	13.920	0.220	0.171
-289.618	1.647	-0.041	-0.030
-288.603	-162.900	0.124	0.006
-287.589	-116.155	0.192	0.036
-286.574	-68.614	-0.131	-0.051
-285.559	93.553	0.166	0.187
-284.545	-11.825	0.088	-0.058
-283.530	-200.000	0.002	-0.181
-282.516	-88.941	0.092	-0.027
-281.501	800.000	0.042	-0.141
-280.486	132.779	0.211	-0.272
-279.472	3.141	-0.138	0.100
-278.457	-104.075	-0.048	0.011
-277.443	8.370	-0.107	0.080
-276.428	-169.642	0.235	-0.009
-275.413	-163.753	0.039	-0.002
-274.399	-200.000	-0.003	-0.214
-273.384	255.088	-0.124	0.212
-272.370	-19.964	-0.138	-0.085
-271.355	113.612	-0.072	0.088
-270.340	699.696	-0.077	-0.203
-269.326	-85.596	0.085	0.026
-268.311	-51.380	-0.107	0.050
-267.297	560.804	-0.094	-0.227
-266.282	800.000	-0.040	0.121
-265.267	380.768	-0.041	0.084
-264.253	24.184	-0.153	-0.126
-263.238	-200.000	0.030	0.186
-262.224	184.411	-0.101	-0.149
-261.209	-158.802	-0.082	0.005
-260.195	-28.887	0.142	-0.081
-259.180	26.175	0.051	-0.043
-258.165	323.254	0.202	-0.385
-257.151	-87.834	-0.320	-0.096
-256.136	-10.050	-0.289	0.192
-255.122	800.000	0.109	-0.425
-254.107	-63.861	0.215	0.088
-253.092	-67.160	0.257	0.101
-252.078	800.000	0.036	0.107
-251.063	4.643	0.092	-0.068
-250.049	-177.462	-0.143	0.003
-249.034	175.017	-0.149	0.215
-248.019	71.366	-0.180	0.186
-247.005	800.000	-0.090	-0.266
-245.990	367.423	0.020	-0.040
-244.976	-95.116	0.366	0.099
-243.961	-16.300	-0.075	-0.047
-242.946	-43.255	0.155	-0.078
-241.932	371.026	0.113	-0.228
-240.917	800.000	0.068	-0.281
-239.903	151.736	0.253	0.344
-238.888	33.309	0.245	-0.212
-237.873	387.831	-0.084	0.174
-236.859	800.000	0.055	-0.212
-235.844	152.287	-0.021	-0.028
-234.830	5.186	0.136	0.100
-233.815	-65.521	0.352	0.141
-232.800	-106.376	0.260	-0.058
-231.786	359.640	-0.092	-0.183
-230.771	-32.046	-0.065	0.036
-229.757	-101.463	0.082	0.020
-228.742	-181.060	-0.338	-0.007
-227.727	-119.067	0.317	0.055
-226.713	395.248	-0.118	0.245
-225.698	-52.791	0.112	0.052
-224.684	-200.000	-0.072	-0.319
-223.669	438.946	-0.064	0.139
-222.655	481.127	0.058	-0.131
-221.640	-49.229	-0.304	-0.145
-220.625	-200.000	-0.017	0.115
-219.611	29.820	-0.023	-0.020
-218.596	-13.228	0.058	-0.037
-217.582	95.635	-0.066	-0.076
-216.567	-85.074	0.154	0.048
-215.552	-49.752	0.247	0.117
-214.538	-200.000	0.047	0.234
-213.523	75.950	-0.142	-0.150
-212.509	273.677	-0.091	-0.160
-211.494	58.059	0.158	0.154
-210.479	-200.000	0.006	0.132
-209.465	-200.000	0.032	-0.287
-208.450	29.011	0.230	0.195
-207.436	185.514	-0.069	-0.103
-206.421	800.000	0.072	-0.302
-205.406	329.794	0.076	-0.145
-204.392	-21.907	-0.018	-0.011
-203.377	-99.299	0.292	-0.073
-202.363	272.571	-0.168	-0.296
-201.348	406.355	0.088	0.184
-200.333	800.000	0.041	-0.169
-199.319	800.000	0.092	0.261
-198.304	-38.291	0.111	-0.058
-197.290	-200.000	-0.002	0.302
-196.275	-200.000	0.010	0.077
-195.260	-200.000	-0.028	-0.378
-194.246	410.679	-0.063	-0.133
-193.231	-86.018	-0.154	0.047
-192.217	433.095	-0.043	-0.092
-191.202	-103.170	0.180	-0.042
-190.187	-92.467	-0.131	-0.037
-189.173	659.292	-0.097	0.248
-188.158	79.789	0.085	0.091
-187.144	364.728	0.060	0.121
-186.129	-26.567	-0.150	0.087
-185.114	-51.256	0.084	0.039
-184.100	-110.604	0.082	0.017
-183.085	800.000	0.064	0.260
-182.071	-111.840	0.388	-0.078
-181.056	800.000	0.033	0.116
-180.042	235.954	0.199	0.328
-179.027	-33.079	0.118	0.065
-178.012	5.189	0.060	-0.044
-176.998	102.431	-0.075	-0.087
-175.983	162.474	0.061	-0.085
-174.969	164.653	-0.114	-0.160
-173.954	-53.994	-0.261	0.118
-172.939	-35.385	0.063	0.034
-171.925	800.000	0.056	-0.225
-170.910	9.955	-0.073	0.055
-169.896	-68.868	0.249	-0.095
-168.881	-200.000	-0.032	0.235
-167.866	-61.251	0.361	-0.151
-166.852	55.415	0.336	0.324
-165.837	23.585	0.161	0.132
-164.823	-33.525	-0.153	-0.084
-163.808	727.048	0.083	0.221
-162.793	243.930	0.095	0.159
-161.779	-200.000	0.016	0.325
-160.764	-170.003	-0.212	0.008
-159.750	-22.204	-0.056	-0.034
-158.735	-173.239	-0.261	-0.008
-157.720	62.044	-0.052	0.051
-156.706	800.000	0.048	-0.148
-155.691	-121.316	0.290	-0.048
-154.677	-0.538	0.024	-0.017
-153.662	-52.883	-0.359	0.164
-152.647	200.559	-0.113	0.173
-151.633	64.096	-0.063	0.063
-150.618	-19.181	0.316	0.195
-149.604	-156.608	0.114	0.007
-148.589	800.000	0.096	-0.376
-147.574	197.074	-0.205	0.311
-146.560	84.658	-0.032	-0.035
-145.545	-200.000	0.003	-0.437
-144.531	-94.872	-0.119	-0.032
-143.516	307.395	0.120	0.222
-142.502	209.139	-0.042	0.066
-141.487	530.235	-0.078	0.183
-140.472	-181.013	0.419	-0.008
-139.458	-90.314	0.006	-0.002
-138.443	-154.383	0.074	-0.005
-137.429	157.268	0.104	-0.143
-136.414	800.000	0.058	0.179
-135.399	-200.000	-0.006	0.049
-134.385	-17.369	-0.207	0.129
-133.370	-200.000	0.054	0.340
-132.356	-38.695	-0.166	-0.087
-131.341	24.171	0.318	-0.261
-130.326	-77.883	0.151	-0.052
-129.312	-95.560	0.265	-0.070
-128.297	-13.685	0.312	0.200
-127.283	455.672	-0.172	-0.379
-126.268	800.000	0.166	0.489
-125.253	800.000	-0.110	0.397
-124.239	-200.000	0.015	0.093
-123.224	800.000	-0.055	0.156
-122.210	152.509	-0.124	0.168
-121.195	-200.000	-0.001	0.382
