DTS Sentinel unit serial number:	SN413079Multiplexer serial number:	ORYXHardware model number:	OX4-SRSoftware version number:	ORYX F/W v4.00 Oryx Data Collector v3.7.2.0data status	okinstallation	princeton_trtdifferential loss correction	single-endedforward channel	channel 4reverse channel	N/Adate	2019/09/10time	21:27:11forward acquisition time	60.00reverse acquisition time	0.00gamma	496.2192k internal	0.2313k external	0.2313temperature offset calibration	0.9948default loss term (dB/km)	0.3790temperature slope calibration	1.0000multiplexer offset coefficient	1.0000multiplexer slope coefficient	1.0000fibre end	0.00T internal ref (°C)	31.19T ext. ref 1 (°C)	-0.31T ext. ref 2 (°C)	24.32length (m)	temperature (°C)	Stokes	anti-Stokes-747.200	24.690	0.425	0.357
-746.185	562.734	0.057	0.140
-745.171	-61.146	-0.194	0.083
-744.156	-200.000	-0.021	0.128
-743.142	-80.074	0.213	-0.073
-742.127	-200.000	0.044	-0.199
-741.112	800.000	0.041	-0.158
-740.098	-30.412	0.270	0.156
-739.083	-200.000	-0.037	-0.210
-738.069	505.804	-0.091	0.213
-737.054	-200.000	0.043	0.202
-736.039	-132.515	-0.151	0.020
-735.025	-122.076	0.317	0.053
-734.010	-200.000	-0.053	-0.304
-732.996	165.796	0.218	-0.313
-731.981	92.470	0.087	0.100
-730.966	-111.835	-0.093	0.019
-729.952	-26.646	-0.062	-0.037
-728.937	9.000	-0.173	-0.133
-727.923	-40.467	0.342	0.180
-726.908	-3.135	-0.391	0.277
-725.894	-82.965	0.124	0.041
-724.879	7.748	-0.146	-0.111
-723.864	609.135	-0.120	0.304
-722.850	-71.234	-0.086	0.033
-721.835	-180.711	-0.087	0.002
-720.821	-165.884	0.210	0.009
-719.806	800.000	-0.042	-0.135
-718.791	800.000	0.107	-0.353
-717.777	58.498	0.076	-0.076
-716.762	-111.860	-0.073	-0.015
-715.748	-137.043	0.419	0.048
-714.733	-48.980	-0.271	-0.132
-713.718	-35.453	-0.114	-0.063
-712.704	800.000	0.059	0.177
-711.689	-36.587	0.236	0.129
-710.675	93.032	0.107	-0.122
-709.660	-110.281	0.303	0.064
-708.645	150.495	-0.255	-0.350
-707.631	256.660	0.145	-0.253
-706.616	-19.053	0.320	-0.201
-705.602	-200.000	-0.040	-0.242
-704.587	-128.097	-0.077	0.011
-703.572	-106.768	0.109	-0.025
-702.558	-40.116	-0.181	0.096
-701.543	136.391	0.121	0.160
-700.529	34.425	0.167	0.148
-699.514	-200.000	-0.039	-0.226
-698.499	800.000	-0.118	-0.348
-697.485	-91.253	0.079	-0.023
-696.470	290.248	-0.139	-0.256
-695.456	38.176	0.076	0.068
-694.441	-123.923	0.192	0.031
-693.426	-57.903	-0.159	0.070
-692.412	-79.424	0.374	-0.128
-691.397	94.237	-0.136	-0.157
-690.383	-200.000	0.016	-0.143
-689.368	32.167	-0.310	0.271
-688.354	800.000	0.029	0.117
-687.339	-167.436	0.332	-0.013
-686.324	140.111	-0.190	-0.254
-685.310	-200.000	0.045	-0.348
-684.295	71.008	0.152	0.160
-683.281	362.298	0.074	-0.151
-682.266	-81.526	-0.151	0.050
-681.251	38.469	0.184	0.166
-680.237	800.000	0.021	-0.072
-679.222	64.324	0.358	-0.364
-678.208	298.653	0.095	-0.178
-677.193	-200.000	-0.030	0.160
-676.178	547.319	-0.051	-0.123
-675.164	54.576	0.089	-0.086
-674.149	8.307	-0.150	0.114
-673.135	-31.087	0.382	0.218
-672.120	-200.000	0.003	0.178
-671.105	291.343	-0.073	0.134
-670.091	-66.519	-0.188	-0.075
-669.076	389.069	0.048	0.100
-668.062	800.000	0.038	0.133
-667.047	-200.000	0.038	-0.215
-666.032	-58.842	-0.321	0.140
-665.018	-168.272	0.212	-0.008
-664.003	267.617	-0.173	-0.307
-662.989	-115.774	0.125	-0.024
-661.974	221.649	0.069	-0.113
-660.959	-74.089	0.127	-0.047
-659.945	-24.776	0.213	-0.128
-658.930	-80.908	0.177	0.059
-657.916	800.000	0.035	-0.115
-656.901	-21.057	0.173	0.107
-655.886	104.758	0.124	-0.148
-654.872	39.198	0.102	0.092
-653.857	-89.518	-0.411	-0.122
-652.843	465.553	-0.080	-0.181
-651.828	-128.315	-0.442	0.064
-650.814	-28.883	0.188	-0.109
-649.799	265.712	-0.061	-0.108
-648.784	-56.304	0.146	0.066
-647.770	55.292	0.073	0.071
-646.755	128.219	-0.106	-0.136
-645.741	800.000	0.041	0.138
-644.726	-200.000	-0.010	-0.110
-643.711	-0.733	-0.110	-0.079
-642.697	354.961	0.007	0.014
-641.682	-51.089	0.176	-0.083
-640.668	-61.410	-0.243	0.103
-639.653	-160.262	-0.246	0.013
-638.638	-41.562	-0.149	-0.077
-637.624	-58.067	-0.154	0.068
-636.609	800.000	0.025	-0.088
-635.595	-60.299	-0.260	0.112
-634.580	-186.982	0.391	-0.005
-633.565	-200.000	-0.034	-0.269
-632.551	-120.841	-0.504	0.086
-631.536	-15.872	0.281	0.180
-630.522	-49.858	0.092	0.044
-629.507	324.952	-0.048	-0.092
-628.492	2.835	-0.149	-0.109
-627.478	24.693	0.170	-0.142
-626.463	-200.000	-0.005	0.072
-625.449	-200.000	0.064	0.328
-624.434	800.000	-0.058	-0.237
-623.419	-200.000	0.018	-0.088
-622.405	-96.204	0.214	0.057
-621.390	-92.596	0.276	0.078
-620.376	-112.134	-0.161	0.033
-619.361	-15.681	-0.015	-0.010
-618.346	500.977	0.017	-0.040
-617.332	141.484	-0.162	-0.216
-616.317	145.274	-0.066	-0.090
-615.303	3.509	0.198	-0.146
-614.288	210.491	-0.147	0.233
-613.273	-7.157	-0.304	0.208
-612.259	-200.000	-0.036	0.250
-611.244	7.979	-0.143	0.108
-610.230	-36.121	0.327	-0.178
-609.215	214.304	0.042	-0.067
-608.201	800.000	0.098	-0.368
-607.186	-91.542	-0.352	0.101
-606.171	-107.620	-0.344	-0.076
-605.157	-13.252	-0.222	0.146
-604.142	241.916	-0.057	0.097
-603.128	-180.098	-0.155	-0.003
-602.113	800.000	-0.036	-0.149
-601.098	257.156	0.064	-0.110
-600.084	616.762	0.092	0.232
-599.069	20.595	0.115	0.094
-598.055	-57.246	0.058	-0.026
-597.040	-125.692	0.241	0.037
-596.025	800.000	-0.052	-0.186
-595.011	-200.000	0.015	-0.076
-593.996	-1.556	0.138	0.098
-592.982	259.554	0.106	0.184
-591.967	215.954	0.015	0.024
-590.952	-20.194	0.168	-0.104
-589.938	657.239	0.140	0.363
-588.923	125.222	0.134	-0.170
-587.909	-200.000	0.187	0.001
-586.894	-200.000	-0.024	-0.187
-585.879	592.019	-0.058	-0.143
-584.865	-94.832	-0.131	0.036
-583.850	-5.498	0.299	0.207
-582.836	-200.000	-0.031	0.149
-581.821	-35.619	0.223	0.122
-580.806	-183.487	0.303	0.005
-579.792	152.942	-0.156	0.215
-578.777	139.513	-0.051	-0.068
-577.763	-200.000	0.017	0.108
-576.748	-39.805	0.209	0.110
-575.733	-37.968	0.106	0.057
-574.719	-134.883	0.216	0.026
-573.704	-200.000	-0.160	-0.000
-572.690	-79.652	0.054	-0.018
-571.675	-200.000	-0.004	-0.098
-570.661	800.000	-0.098	-0.328
-569.646	219.472	-0.122	-0.197
-568.631	-93.511	-0.208	0.058
-567.617	800.000	0.028	-0.089
-566.602	-57.390	-0.169	-0.075
-565.588	-7.204	0.146	-0.100
-564.573	267.222	-0.011	0.020
-563.558	-11.883	-0.133	0.088
-562.544	493.489	-0.135	0.313
-561.529	36.476	-0.250	0.222
-560.515	421.200	0.046	0.098
-559.500	440.670	0.066	-0.145
-558.485	-179.726	-0.131	-0.003
-557.471	146.442	0.075	-0.101
-556.456	-200.000	-0.090	0.395
-555.442	230.263	0.028	-0.046
-554.427	800.000	0.107	-0.317
-553.412	82.425	-0.140	0.152
-552.398	800.000	-0.056	-0.192
-551.383	175.139	-0.144	0.211
-550.369	237.334	0.163	0.272
-549.354	114.437	-0.141	0.172
-548.339	5.590	-0.154	0.115
-547.325	-43.349	0.221	0.113
-546.310	-200.000	-0.001	-0.039
-545.296	552.904	-0.090	-0.218
-544.281	280.827	-0.050	-0.089
-543.266	740.487	-0.034	0.092
-542.252	39.469	0.211	0.190
-541.237	329.036	0.022	-0.043
-540.223	-5.464	-0.252	-0.174
-539.208	21.482	-0.090	0.074
-538.193	-200.000	-0.003	-0.057
-537.179	800.000	-0.033	-0.143
-536.164	-200.000	-0.023	0.214
-535.150	-92.438	-0.138	0.039
-534.135	-122.087	-0.259	-0.043
-533.121	800.000	0.152	0.427
-532.106	-28.906	0.317	-0.183
-531.091	141.256	0.089	-0.119
-530.077	800.000	0.118	-0.353
-529.062	70.120	-0.093	0.097
-528.048	290.943	0.106	0.194
-527.033	-200.000	0.003	-0.259
-526.018	536.216	0.129	-0.307
-525.004	-200.000	-0.003	-0.266
-523.989	42.093	-0.151	-0.138
-522.975	800.000	-0.024	-0.085
-521.960	28.501	-0.160	0.136
-520.945	800.000	0.104	0.435
-519.931	-9.365	-0.106	0.071
-518.916	800.000	-0.068	-0.208
-517.902	274.093	-0.098	0.174
-516.887	-98.514	0.174	-0.045
-515.872	9.809	0.139	0.106
-514.858	446.191	-0.071	-0.156
-513.843	24.838	0.116	-0.097
-512.829	-157.930	0.147	-0.009
-511.814	-138.925	0.234	-0.026
-510.799	-66.739	-0.272	-0.108
-509.785	24.920	0.096	0.080
-508.770	-73.925	0.061	0.022
-507.756	-200.000	-0.039	0.363
-506.741	566.166	0.114	-0.279
-505.726	-123.351	0.113	0.018
-504.712	-200.000	-0.002	-0.091
-503.697	-8.165	-0.044	-0.030
-502.683	227.799	0.217	-0.355
-501.668	174.043	-0.210	-0.304
-500.653	59.011	-0.177	-0.175
-499.639	-86.922	0.117	0.036
-498.624	-114.147	0.227	-0.044
-497.610	-108.175	-0.147	-0.032
-496.595	441.870	0.097	-0.214
-495.581	-125.178	0.158	0.024
-494.566	118.647	0.215	-0.266
-493.551	-191.094	0.033	-0.000
-492.537	800.000	0.049	0.200
-491.522	-82.077	0.399	-0.131
-490.508	-15.106	0.105	0.068
-489.493	-189.945	0.153	0.002
-488.478	-45.540	0.096	0.048
-487.464	-200.000	-0.033	0.167
-486.449	788.410	0.047	-0.129
-485.435	-200.000	0.001	-0.169
-484.420	154.345	-0.182	0.251
-483.405	-113.805	-0.317	0.062
-482.391	-15.335	-0.139	0.089
-481.376	70.676	-0.101	-0.105
-480.362	75.135	0.110	-0.116
-479.347	-51.193	0.469	0.221
-478.332	-31.606	0.221	-0.125
-477.318	-200.000	0.023	0.120
-476.303	18.907	0.219	-0.176
-475.289	800.000	-0.118	-0.410
-474.274	-127.646	0.270	-0.039
-473.259	40.417	0.077	0.070
-472.245	-200.000	0.019	-0.149
-471.230	-100.304	-0.301	-0.075
-470.216	-42.997	0.189	-0.096
-469.201	707.992	0.055	0.147
-468.186	225.275	-0.041	0.067
-467.172	-200.000	-0.072	-0.319
-466.157	475.400	-0.042	-0.096
-465.143	-200.000	-0.016	0.081
-464.128	-180.772	-0.328	0.007
-463.113	198.672	-0.060	-0.092
-462.099	-94.400	-0.097	-0.027
-461.084	-74.905	0.293	-0.105
-460.070	81.219	-0.048	0.052
-459.055	-200.000	0.045	0.247
-458.040	48.541	-0.142	0.134
-457.026	515.577	-0.111	-0.260
-456.011	-40.521	0.086	-0.045
-454.997	-200.000	-0.026	-0.233
-453.982	-100.155	0.096	0.024
-452.968	-0.785	0.127	0.090
-451.953	-96.005	0.178	0.047
-450.938	480.749	-0.183	-0.417
-449.924	800.000	-0.038	0.131
-448.909	-200.000	-0.021	-0.267
-447.895	-200.000	-0.058	0.453
-446.880	-127.035	0.080	-0.012
-445.865	3.824	-0.157	-0.115
-444.851	146.710	0.190	0.255
-443.836	-200.000	0.053	0.384
-442.822	104.241	0.104	0.123
-441.807	483.243	0.071	0.162
-440.792	-130.316	-0.091	0.012
-439.778	381.088	-0.054	-0.111
-438.763	-200.000	0.005	-0.325
-437.749	-200.000	-0.004	-0.436
-436.734	-83.721	-0.321	-0.103
-435.719	-200.000	0.019	0.099
-434.705	-200.000	-0.049	0.284
-433.690	-147.737	0.270	0.023
-432.676	-43.479	0.367	0.186
-431.661	800.000	-0.014	-0.049
-430.646	-29.902	0.123	0.070
-429.632	-43.462	0.073	-0.037
-428.617	-4.696	0.147	0.102
-427.603	143.485	-0.097	0.129
-426.588	30.107	0.211	0.180
-425.573	301.718	-0.023	-0.043
-424.559	-49.751	0.280	0.133
-423.544	261.181	0.056	-0.096
-422.530	-7.804	0.213	0.144
-421.515	-200.000	0.015	-0.215
-420.500	800.000	-0.062	0.221
-419.486	94.293	-0.166	0.188
-418.471	-93.855	-0.158	-0.044
-417.457	-95.367	0.102	0.027
-416.442	131.334	0.176	0.227
-415.428	-200.000	0.028	0.184
-414.413	-85.878	-0.237	0.073
-413.398	800.000	-0.047	-0.152
-412.384	38.707	-0.227	0.203
-411.369	-200.000	0.042	0.350
-410.355	-114.692	-0.237	0.045
-409.340	-24.481	0.218	0.130
-408.325	19.236	0.248	-0.199
-407.311	107.668	0.218	0.259
-406.296	30.854	0.142	-0.122
-405.282	800.000	0.051	0.205
-404.267	-126.358	0.096	0.014
-403.252	-92.904	-0.078	-0.022
-402.238	-92.192	-0.445	-0.126
-401.223	54.998	-0.088	0.085
-400.209	-35.562	0.013	-0.007
-399.194	-125.600	-0.213	-0.032
-398.179	-169.422	-0.098	-0.004
-397.165	17.364	-0.054	-0.043
-396.150	-200.000	0.027	-0.120
-395.136	141.383	0.144	0.191
-394.121	-104.850	-0.194	-0.045
-393.106	-200.000	-0.007	0.040
-392.092	-150.110	0.139	0.011
-391.077	-145.750	0.464	-0.041
-390.063	103.827	-0.187	0.220
-389.048	800.000	0.005	-0.020
-388.033	14.067	-0.048	-0.037
-387.019	65.515	0.148	0.150
-386.004	-72.016	0.086	-0.032
-384.990	-75.539	-0.156	-0.055
-383.975	777.451	-0.062	-0.169
-382.960	-131.616	0.123	-0.016
-381.946	17.326	0.265	-0.210
-380.931	800.000	0.096	0.286
-379.917	275.346	0.113	0.200
-378.902	-139.482	-0.220	-0.024
-377.888	-106.529	-0.272	0.061
-376.873	-82.750	0.218	-0.071
-375.858	-200.000	0.028	-0.173
-374.844	800.000	-0.063	-0.268
-373.829	-23.937	-0.212	-0.127
-372.815	-133.546	0.085	-0.011
-371.800	-200.000	-0.041	0.000
-370.785	-8.741	-0.188	0.126
-369.771	-46.961	-0.111	0.054
-368.756	-139.001	0.198	-0.021
-367.742	2.022	0.076	-0.055
-366.727	-80.120	-0.015	-0.005
-365.712	800.000	0.041	-0.154
-364.698	38.156	-0.089	-0.079
-363.683	-200.000	-0.032	0.297
-362.669	142.402	0.251	-0.333
-361.654	144.009	-0.060	-0.080
-360.639	-200.000	-0.035	0.181
-359.625	800.000	-0.042	-0.169
-358.610	-200.000	0.024	-0.141
-357.596	-200.000	0.110	0.515
-356.581	-130.638	0.235	0.032
-355.566	180.754	-0.154	-0.227
-354.552	-97.384	0.487	-0.127
-353.537	-31.585	0.145	-0.082
-352.523	800.000	-0.039	0.114
-351.508	-200.000	-0.007	0.241
-350.493	-200.000	-0.052	0.331
-349.479	19.979	0.080	0.064
-348.464	-66.890	-0.179	0.071
-347.450	122.999	0.087	-0.109
-346.435	800.000	-0.004	-0.017
-345.420	728.862	0.061	-0.162
-344.406	-99.488	-0.044	0.011
-343.391	340.924	-0.094	-0.182
-342.377	-43.522	0.045	0.023
-341.362	251.762	-0.160	0.271
-340.348	-102.174	-0.422	-0.101
-339.333	-200.000	0.027	-0.241
-338.318	800.000	-0.168	-0.548
-337.304	413.125	0.084	-0.179
-336.289	24.033	-0.093	-0.077
-335.275	101.653	0.134	-0.155
-334.260	177.458	-0.149	0.217
-333.245	72.726	-0.094	-0.098
-332.231	-127.335	-0.549	0.080
-331.216	99.083	0.069	0.079
-330.202	7.540	-0.029	-0.022
-329.187	119.421	-0.159	-0.196
-328.172	135.290	0.085	0.110
-327.158	316.271	-0.017	0.032
-326.143	-136.670	-0.304	0.035
-325.129	800.000	0.054	0.149
-324.114	178.082	0.120	0.175
-323.099	55.859	-0.187	0.181
-322.085	181.238	0.223	-0.327
-321.070	83.270	0.142	-0.154
-320.056	-200.000	0.008	0.075
-319.041	-167.481	-0.177	0.007
-318.026	-200.000	-0.003	-0.023
-317.012	226.830	0.031	0.051
-315.997	-131.003	-0.240	-0.032
-314.983	3.205	-0.227	0.165
-313.968	-200.000	-0.010	-0.238
-312.953	24.285	0.250	-0.206
-311.939	278.213	0.132	-0.234
-310.924	-123.628	-0.156	0.025
-309.910	-107.799	0.306	-0.067
-308.895	-102.256	-0.302	-0.072
-307.880	-200.000	0.040	-0.208
-306.866	-65.622	0.204	-0.082
-305.851	-115.876	0.162	0.030
-304.837	-122.382	0.078	-0.013
-303.822	216.499	-0.152	0.241
-302.807	138.164	-0.154	-0.201
-301.793	-176.688	-0.168	-0.004
-300.778	25.554	-0.051	-0.042
-299.764	0.837	-0.128	-0.091
-298.749	473.584	0.067	0.150
-297.735	800.000	-0.054	-0.152
-296.720	493.139	-0.095	-0.218
-295.705	800.000	0.039	0.125
-294.691	-73.526	-0.169	0.061
-293.676	-80.300	0.278	-0.092
-292.662	195.692	-0.122	-0.185
-291.647	-131.606	0.064	-0.008
-290.632	4.617	-0.301	-0.220
-289.618	658.229	0.045	-0.114
-288.603	44.402	0.099	-0.090
-287.589	800.000	-0.048	0.136
-286.574	-200.000	0.001	0.205
-285.559	-200.000	0.009	0.106
-284.545	164.676	-0.196	0.275
-283.530	-45.068	-0.342	0.170
-282.516	-82.068	-0.169	-0.055
-281.501	-200.000	0.006	0.042
-280.486	-116.100	-0.133	-0.025
-279.472	-200.000	0.038	-0.302
-278.457	9.190	0.167	-0.126
-277.443	148.659	0.090	-0.121
-276.428	-171.980	0.235	-0.008
-275.413	-70.849	0.119	0.045
-274.399	-63.328	-0.152	-0.062
-273.384	-200.000	-0.005	0.173
-272.370	11.048	-0.130	0.099
-271.355	579.163	0.100	-0.245
-270.340	69.829	0.041	-0.042
-269.326	-123.878	-0.256	-0.040
-268.311	-200.000	0.002	0.202
-267.297	-200.000	-0.002	0.055
-266.282	-170.936	0.285	-0.010
-265.267	-39.802	0.157	0.082
-264.253	52.651	-0.248	0.236
-263.238	-200.000	0.001	0.173
-262.224	-66.260	0.042	-0.016
-261.209	243.371	0.151	0.252
-260.195	-77.585	-0.116	-0.040
-259.180	800.000	0.035	0.124
-258.165	200.227	0.187	0.286
-257.151	-109.030	-0.095	0.020
-256.136	-50.532	-0.307	0.144
-255.122	-51.034	0.171	0.080
-254.107	334.130	0.024	0.047
-253.092	652.874	0.113	0.287
-252.078	-200.000	-0.040	0.290
-251.063	287.702	-0.073	-0.131
-250.049	-149.044	-0.049	-0.004
-249.034	-200.000	-0.078	0.602
-248.019	-54.806	-0.232	-0.104
-247.005	-200.000	-0.001	0.082
-245.990	129.041	0.175	0.222
-244.976	58.249	0.395	-0.385
-243.961	21.111	0.033	-0.026
-242.946	800.000	-0.143	0.434
-241.932	-66.826	-0.227	-0.089
-240.917	-126.486	-0.285	-0.042
-239.903	-175.965	-0.054	0.001
-238.888	800.000	-0.099	0.281
-237.873	9.774	0.296	-0.223
-236.859	49.205	0.043	-0.040
-235.844	-200.000	0.059	-0.363
-234.830	67.966	0.123	-0.125
-233.815	163.219	-0.241	0.336
-232.800	134.699	-0.081	-0.105
-231.786	-75.542	-0.176	-0.062
-230.771	190.302	0.228	0.341
-229.757	-200.000	0.068	-0.342
-228.742	-47.522	0.152	-0.073
-227.727	106.649	0.240	-0.283
-226.713	-200.000	-0.026	-0.293
-225.698	800.000	0.179	0.565
-224.684	800.000	0.092	0.324
-223.669	33.482	-0.252	0.217
-222.655	-150.733	-0.114	0.009
-221.640	115.603	-0.109	-0.133
-220.625	-26.737	-0.389	-0.226
-219.611	362.712	0.063	0.125
-218.596	89.215	-0.065	0.072
-217.582	-178.609	0.199	0.005
-216.567	800.000	0.047	0.161
-215.552	-62.908	-0.266	0.109
-214.538	800.000	-0.113	0.326
-213.523	-200.000	0.080	-0.348
-212.509	2.457	-0.264	0.190
-211.494	-170.562	0.183	0.006
-210.479	-107.761	-0.228	0.049
-209.465	-16.271	0.127	0.080
-208.450	84.039	-0.067	0.072
-207.436	74.721	-0.133	-0.139
-206.421	697.486	-0.058	-0.152
-205.406	521.214	0.062	-0.145
-204.392	419.642	-0.055	-0.117
-203.377	-62.592	-0.375	0.155
-202.363	6.139	0.157	-0.115
-201.348	-18.771	0.012	-0.008
-200.333	-63.820	-0.111	-0.045
-199.319	-179.301	0.180	0.004
-198.304	800.000	-0.069	-0.266
-197.290	-200.000	0.001	-0.098
-196.275	0.841	-0.395	-0.281
-195.260	28.639	-0.114	0.096
-194.246	14.341	-0.184	0.142
-193.231	87.599	0.131	-0.144
-192.217	800.000	-0.045	0.178
-191.202	57.069	-0.131	-0.127
-190.187	94.654	-0.069	0.078
-189.173	84.123	0.149	0.162
-188.158	-135.931	0.240	-0.028
-187.144	800.000	0.041	0.176
-186.129	211.730	-0.031	-0.049
-185.114	45.249	0.086	0.079
-184.100	-149.349	-0.132	0.010
-183.085	8.450	-0.246	-0.184
-182.071	355.686	0.145	-0.285
-181.056	419.650	0.066	-0.141
-180.042	224.251	-0.180	0.288
-179.027	399.795	0.075	0.155
-178.012	-81.121	-0.246	0.081
-176.998	-110.737	0.179	0.037
-175.983	166.383	0.075	-0.105
-174.969	-23.782	0.217	0.129
-173.954	800.000	-0.048	-0.159
-172.939	385.165	0.181	0.371
-171.925	800.000	-0.072	-0.284
-170.910	800.000	0.025	0.109
-169.896	-174.447	0.245	0.007
-168.881	-200.000	-0.025	0.173
-167.866	800.000	0.023	0.098
-166.852	109.284	-0.304	0.360
-165.837	-200.000	-0.030	-0.130
-164.823	-154.640	0.181	0.012
-163.808	325.852	0.181	0.343
-162.793	-13.694	-0.030	0.019
-161.779	45.483	-0.023	0.021
-160.764	746.135	-0.113	-0.301
-159.750	161.094	-0.119	-0.165
-158.735	-69.416	0.285	-0.108
-157.720	800.000	-0.139	-0.393
-156.706	-99.577	0.223	0.056
-155.691	161.157	0.074	-0.102
-154.677	-129.024	0.209	-0.029
-153.662	-62.877	-0.359	-0.147
-152.647	398.247	0.148	-0.307
-151.633	-22.433	0.421	-0.253
-150.618	-113.972	0.317	-0.061
-149.604	-18.090	0.066	-0.041
-148.589	264.567	-0.033	-0.057
-147.574	-79.772	0.173	-0.058
-146.560	-75.472	0.067	0.024
-145.545	4.068	0.138	-0.100
-144.531	-9.117	0.160	0.106
-143.516	-112.054	-0.346	-0.069
-142.502	427.344	-0.083	-0.178
-141.487	-102.911	0.076	0.018
-140.472	800.000	0.042	-0.123
-139.458	-77.035	0.389	0.134
-138.443	320.611	0.062	0.116
-137.429	-120.096	0.461	-0.078
-136.414	232.479	-0.203	0.330
-135.399	49.419	-0.157	-0.146
-134.385	-96.770	-0.169	-0.044
-133.370	-157.518	0.085	0.005
-132.356	-200.000	-0.022	0.181
-131.341	11.083	0.110	-0.084
-130.326	-36.618	-0.264	0.141
-129.312	-106.580	0.439	-0.097
-128.297	-200.000	0.009	0.132
-127.283	-200.000	0.014	-0.227
-126.268	-71.959	-0.276	-0.102
-125.253	-102.093	-0.268	-0.064
-124.239	411.609	-0.065	0.137
-123.224	605.430	-0.080	0.197
-122.210	800.000	-0.017	-0.047
-121.195	77.206	-0.128	0.135
