DTS Sentinel unit serial number:	SN413079Multiplexer serial number:	ORYXHardware model number:	OX4-SRSoftware version number:	ORYX F/W v4.00 Oryx Data Collector v3.7.2.0data status	okinstallation	princeton_trtdifferential loss correction	single-endedforward channel	channel 4reverse channel	N/Adate	2019/09/11time	18:51:10forward acquisition time	60.00reverse acquisition time	0.00gamma	496.2192k internal	0.2282k external	0.2282temperature offset calibration	1.0030default loss term (dB/km)	0.3790temperature slope calibration	1.0000multiplexer offset coefficient	1.0000multiplexer slope coefficient	1.0000fibre end	0.00T internal ref (°C)	42.86T ext. ref 1 (°C)	1.25T ext. ref 2 (°C)	35.07length (m)	temperature (°C)	Stokes	anti-Stokes-747.200	-200.000	-0.010	-0.065
-746.185	-29.575	-0.028	-0.016
-745.171	-200.000	0.034	-0.209
-744.156	-200.000	-0.014	0.431
-743.142	-200.000	-0.014	0.156
-742.127	30.132	0.274	0.241
-741.112	-200.000	0.019	0.087
-740.098	63.675	0.283	0.292
-739.083	800.000	-0.061	-0.187
-738.069	-93.557	0.252	0.072
-737.054	-49.670	-0.247	-0.121
-736.039	-200.000	-0.015	-0.171
-735.025	-1.933	0.231	-0.167
-734.010	-200.000	-0.031	0.445
-732.996	68.091	-0.227	0.238
-731.981	594.423	-0.076	-0.192
-730.966	244.477	0.165	-0.285
-729.952	-29.683	0.199	-0.117
-728.937	800.000	-0.102	-0.327
-727.923	-11.902	-0.217	0.146
-726.908	-200.000	-0.057	0.443
-725.894	-200.000	0.244	0.001
-724.879	432.625	0.076	-0.169
-723.864	-200.000	0.006	0.026
-722.850	-81.203	-0.240	-0.082
-721.835	-7.034	0.043	0.030
-720.821	-27.012	-0.161	0.097
-719.806	-35.370	0.060	0.033
-718.791	-136.377	-0.301	-0.036
-717.777	521.924	-0.048	0.116
-716.762	-26.634	-0.378	0.227
-715.748	19.244	-0.254	0.209
-714.733	11.171	-0.209	-0.165
-713.718	63.867	-0.206	-0.213
-712.704	-200.000	-0.016	0.254
-711.689	-5.342	0.015	0.010
-710.675	800.000	-0.039	-0.110
-709.660	-200.000	0.002	0.036
-708.645	-174.683	0.198	-0.006
-707.631	-157.439	0.309	0.019
-706.616	-152.139	-0.342	-0.025
-705.602	-133.837	-0.086	0.011
-704.587	-75.800	-0.264	0.096
-703.572	65.102	0.127	-0.132
-702.558	-62.341	0.393	-0.168
-701.543	-75.325	-0.164	0.060
-700.529	393.796	0.026	-0.055
-699.514	606.461	-0.064	-0.164
-698.499	-165.831	-0.339	0.015
-697.485	511.289	-0.198	0.473
-696.470	-200.000	-0.046	0.281
-695.456	9.826	0.070	-0.055
-694.441	75.452	0.107	-0.116
-693.426	-143.758	-0.037	-0.004
-692.412	239.690	0.028	-0.047
-691.397	61.151	-0.244	0.249
-690.383	-0.470	0.222	0.162
-689.368	-50.181	-0.062	-0.030
-688.354	67.028	-0.230	0.241
-687.339	-64.519	0.140	-0.058
-686.324	82.919	-0.109	-0.122
-685.310	56.834	0.161	-0.160
-684.295	276.246	-0.111	-0.202
-683.281	557.770	-0.160	-0.397
-682.266	779.973	0.097	-0.272
-681.251	-158.350	-0.243	0.014
-680.237	-88.384	0.281	-0.086
-679.222	32.855	-0.092	-0.081
-678.208	-69.892	0.261	-0.102
-677.193	-15.504	-0.125	0.082
-676.178	629.277	0.109	0.282
-675.164	800.000	-0.046	0.153
-674.149	-90.732	0.197	-0.058
-673.135	800.000	-0.134	0.387
-672.120	-53.122	0.077	0.036
-671.105	94.630	-0.135	0.158
-670.091	-157.281	-0.110	0.007
-669.076	-157.709	-0.067	0.004
-668.062	267.473	-0.113	-0.203
-667.047	-10.055	0.224	0.153
-666.032	800.000	0.050	0.175
-665.018	-200.000	0.013	0.068
-664.003	135.761	-0.159	-0.212
-662.989	-200.000	0.021	-0.200
-661.974	285.479	0.027	0.050
-660.959	-98.715	0.199	-0.052
-659.945	118.564	-0.197	-0.249
-658.930	-91.499	-0.282	0.083
-657.916	53.792	-0.138	0.136
-656.901	-200.000	-0.018	0.147
-655.886	129.697	0.191	0.251
-654.872	-200.000	0.094	-0.426
-653.857	-200.000	-0.015	0.176
-652.843	354.165	-0.069	0.141
-651.828	89.220	0.070	-0.080
-650.814	800.000	0.034	-0.110
-649.799	46.747	0.199	-0.189
-648.784	-200.000	-0.023	-0.112
-647.770	-113.454	-0.190	0.038
-646.755	-22.127	0.100	0.062
-645.741	517.119	-0.059	0.142
-644.726	-84.675	0.377	-0.122
-643.711	-200.000	0.017	-0.159
-642.697	569.920	0.064	-0.158
-641.682	51.155	-0.202	-0.196
-640.668	197.499	-0.108	0.170
-639.653	-200.000	0.012	0.075
-638.638	175.914	0.211	0.313
-637.624	136.063	-0.099	0.132
-636.609	359.531	0.130	-0.267
-635.595	44.565	0.301	-0.283
-634.580	-200.000	0.011	0.208
-633.565	800.000	-0.040	-0.128
-632.551	20.855	0.132	0.109
-631.536	-121.290	0.127	-0.022
-630.522	-200.000	-0.018	0.157
-629.507	158.954	-0.078	-0.111
-628.492	-50.962	0.190	-0.091
-627.478	-200.000	0.035	0.229
-626.463	-200.000	-0.025	-0.213
-625.449	800.000	-0.060	0.255
-624.434	800.000	-0.032	-0.096
-623.419	-200.000	0.073	0.345
-622.405	128.038	0.163	0.211
-621.390	-96.709	-0.132	0.035
-620.376	154.878	0.029	-0.041
-619.361	218.888	-0.104	-0.171
-618.346	-121.050	0.204	-0.035
-617.332	-195.382	-0.409	-0.003
-616.317	-68.465	0.111	0.044
-615.303	800.000	-0.032	-0.114
-614.288	800.000	-0.035	0.139
-613.273	-110.346	-0.057	0.012
-612.259	28.147	-0.126	-0.109
-611.244	5.573	-0.252	-0.190
-610.230	42.290	-0.180	0.168
-609.215	-127.965	0.353	0.052
-608.201	800.000	0.074	-0.226
-607.186	-138.814	0.251	-0.028
-606.171	18.330	-0.092	-0.075
-605.157	55.148	-0.088	-0.087
-604.142	212.908	-0.173	-0.280
-603.128	297.263	0.103	-0.193
-602.113	59.419	0.266	0.268
-601.098	130.975	0.162	-0.212
-600.084	49.383	-0.224	0.216
-599.069	33.246	0.155	-0.137
-598.055	-200.000	0.005	-0.103
-597.040	433.610	0.144	-0.320
-596.025	-5.578	-0.083	0.058
-595.011	800.000	-0.061	-0.186
-593.996	-83.749	0.295	-0.096
-592.982	-36.040	-0.184	-0.102
-591.967	-141.272	0.224	-0.023
-590.952	-65.268	0.375	-0.154
-589.938	-200.000	0.043	0.492
-588.923	-200.000	0.237	-0.000
-587.909	-52.018	-0.405	0.192
-586.894	-200.000	-0.016	-0.137
-585.879	133.500	-0.082	-0.109
-584.865	131.045	0.125	0.164
-583.850	59.616	-0.088	-0.089
-582.836	-45.677	0.236	-0.119
-581.821	286.330	-0.064	-0.117
-580.806	602.670	-0.029	0.074
-579.792	-47.437	0.175	0.087
-578.777	-164.631	-0.109	0.005
-577.763	-50.827	-0.106	-0.051
-576.748	-33.847	0.377	-0.212
-575.733	800.000	0.116	-0.440
-574.719	57.113	-0.104	0.103
-573.704	1.688	-0.250	-0.184
-572.690	-168.898	-0.120	-0.005
-571.675	-61.029	0.303	-0.131
-570.661	25.269	-0.225	0.190
-569.646	423.677	-0.037	-0.082
-568.631	-154.452	-0.126	0.009
-567.617	-130.243	-0.266	-0.037
-566.602	-61.861	-0.130	-0.056
-565.588	-200.000	-0.011	-0.193
-564.573	800.000	-0.041	-0.117
-563.558	-127.790	-0.392	-0.058
-562.544	780.317	-0.043	-0.119
-561.529	-200.000	0.002	0.085
-560.515	-61.764	-0.245	0.105
-559.500	5.549	-0.116	0.088
-558.485	-200.000	-0.025	-0.279
-557.471	49.600	-0.303	-0.291
-556.456	176.383	0.221	-0.328
-555.442	178.304	0.118	-0.175
-554.427	367.815	-0.140	-0.288
-553.412	-120.478	0.261	0.045
-552.398	800.000	0.027	-0.117
-551.383	15.073	-0.252	-0.201
-550.369	83.953	-0.085	0.094
-549.354	142.936	-0.148	0.201
-548.339	800.000	-0.100	0.319
-547.325	-7.627	0.106	0.073
-546.310	800.000	0.086	0.367
-545.296	-44.107	-0.091	0.046
-544.281	-200.000	-0.009	0.053
-543.266	-200.000	0.009	0.116
-542.252	5.348	-0.074	0.055
-541.237	100.100	0.094	0.111
-540.223	-169.005	0.319	0.012
-539.208	-5.899	-0.228	0.159
-538.193	344.683	-0.119	-0.238
-537.179	164.340	-0.076	0.110
-536.164	32.445	0.163	0.144
-535.150	-116.883	0.324	-0.061
-534.135	-200.000	0.012	0.119
-533.121	310.748	0.131	0.251
-532.106	-6.781	-0.124	-0.086
-531.091	254.184	0.122	0.212
-530.077	4.217	-0.181	-0.135
-529.062	442.926	0.052	0.116
-528.048	359.539	-0.162	0.330
-527.033	134.314	-0.171	-0.226
-526.018	-89.599	0.215	0.064
-525.004	-0.313	0.048	-0.035
-523.989	-21.699	0.313	0.194
-522.975	-200.000	-0.029	-0.179
-521.960	45.870	0.236	-0.222
-520.945	126.099	0.198	-0.255
-519.931	542.461	-0.049	-0.120
-518.916	91.527	0.139	-0.159
-517.902	-150.833	0.196	0.015
-516.887	-66.364	-0.186	0.075
-515.872	-200.000	-0.020	-0.105
-514.858	638.310	0.067	0.173
-513.843	800.000	-0.075	-0.238
-512.829	-152.346	-0.026	0.002
-511.814	-90.779	0.122	-0.036
-510.799	97.578	-0.311	0.364
-509.785	-200.000	0.016	-0.084
-508.770	-80.910	0.355	0.120
-507.756	-200.000	0.031	0.494
-506.741	-5.841	0.135	0.094
-505.726	-4.801	0.103	0.072
-504.712	-26.668	-0.214	-0.128
-503.697	274.725	-0.056	0.101
-502.683	800.000	0.078	-0.339
-501.668	800.000	-0.090	-0.306
-500.653	-195.242	-0.082	-0.001
-499.639	-79.843	-0.048	-0.016
-498.624	62.497	0.176	0.179
-497.610	40.703	-0.226	-0.207
-496.595	148.037	0.049	0.068
-495.581	622.638	0.020	0.052
-494.566	-48.635	0.240	0.118
-493.551	-76.723	-0.209	-0.075
-492.537	-200.000	0.033	0.152
-491.522	-83.356	0.158	0.052
-490.508	-19.815	-0.122	0.077
-489.493	-200.000	-0.033	-0.359
-488.478	-129.029	0.254	-0.036
-487.464	136.792	0.135	0.179
-486.449	80.404	-0.166	-0.182
-485.435	-200.000	0.026	0.268
-484.420	-96.350	-0.223	0.060
-483.405	116.846	-0.128	-0.160
-482.391	-142.005	-0.052	-0.005
-481.376	172.267	0.191	-0.280
-480.362	-200.000	0.022	-0.153
-479.347	26.177	-0.108	0.092
-478.332	415.095	0.146	-0.317
-477.318	-162.299	-0.356	-0.018
-476.303	800.000	0.081	-0.308
-475.289	-98.692	-0.278	-0.072
-474.274	-113.584	0.205	-0.041
-473.259	800.000	-0.075	-0.217
-472.245	-200.000	-0.044	-0.197
-471.230	73.426	0.213	0.227
-470.216	-75.253	-0.162	0.059
-469.201	128.455	-0.138	0.179
-468.186	-0.138	-0.285	0.207
-467.172	-5.214	-0.186	0.130
-466.157	-151.650	0.280	0.021
-465.143	31.808	0.145	-0.127
-464.128	-9.673	-0.140	0.095
-463.113	800.000	0.041	0.117
-462.099	-36.541	-0.067	0.037
-461.084	291.559	0.052	-0.096
-460.070	84.868	0.112	0.125
-459.055	329.995	0.035	0.068
-458.040	-161.337	-0.216	0.011
-457.026	-78.154	-0.127	-0.044
-456.011	255.993	-0.017	-0.029
-454.997	771.070	-0.007	0.019
-453.982	-111.546	-0.081	0.017
-452.968	95.953	0.177	0.205
-451.953	-200.000	0.252	-0.000
-450.938	592.235	-0.056	-0.141
-449.924	800.000	-0.130	-0.381
-448.909	-200.000	-0.037	-0.247
-447.895	230.953	0.049	-0.082
-446.880	428.925	0.037	0.081
-445.865	-200.000	-0.030	0.379
-444.851	-84.502	-0.185	-0.059
-443.836	93.708	-0.285	0.328
-442.822	253.125	0.096	0.166
-441.807	462.072	-0.044	-0.099
-440.792	17.724	-0.259	-0.209
-439.778	-40.745	0.102	0.054
-438.763	-165.353	-0.199	-0.009
-437.749	-93.186	0.142	-0.040
-436.734	55.150	-0.024	-0.024
-435.719	-84.160	-0.235	-0.076
-434.705	-191.031	-0.195	-0.002
-433.690	800.000	-0.083	-0.270
-432.676	-200.000	-0.011	-0.213
-431.661	800.000	0.056	-0.179
-430.646	57.339	-0.154	-0.153
-429.632	-33.212	0.106	-0.059
-428.617	15.112	0.028	0.022
-427.603	201.230	-0.059	0.093
-426.588	325.886	0.108	-0.209
-425.573	-95.759	0.162	0.044
-424.559	424.636	0.046	-0.099
-423.544	-200.000	-0.044	0.277
-422.530	-140.143	0.342	-0.036
-421.515	583.073	0.097	-0.242
-420.500	-82.892	0.436	0.143
-419.486	-61.974	0.193	-0.082
-418.471	576.212	-0.037	0.093
-417.457	360.814	-0.064	0.131
-416.442	-78.635	-0.160	-0.056
-415.428	225.749	0.125	0.205
-414.413	-100.302	-0.124	0.031
-413.398	-88.429	-0.042	-0.013
-412.384	-20.327	-0.098	-0.061
-411.369	55.374	0.184	0.180
-410.355	523.720	-0.028	-0.067
-409.340	739.556	0.096	-0.263
-408.325	434.910	0.083	-0.182
-407.311	249.301	0.067	-0.116
-406.296	-46.492	0.078	-0.039
-405.282	-200.000	0.015	-0.211
-404.267	84.280	-0.186	-0.207
-403.252	-70.865	-0.195	-0.075
-402.238	-8.841	0.037	0.025
-401.223	-81.117	0.306	0.103
-400.209	362.253	0.083	-0.168
-399.194	-56.270	0.041	-0.018
-398.179	800.000	0.122	0.470
-397.165	800.000	-0.041	0.142
-396.150	17.951	-0.191	0.155
-395.136	348.421	-0.207	-0.414
-394.121	453.239	0.144	-0.323
-393.106	80.189	0.161	0.175
-392.092	320.374	0.076	0.146
-391.077	38.221	-0.289	0.261
-390.063	180.498	-0.171	-0.254
-389.048	-54.710	0.328	0.150
-388.033	32.705	-0.300	0.263
-387.019	796.135	-0.037	0.103
-386.004	677.664	-0.093	0.244
-384.990	-200.000	-0.079	-0.397
-383.975	800.000	0.075	-0.287
-382.960	-68.669	-0.273	-0.107
-381.946	800.000	0.052	-0.158
-380.931	-44.359	-0.105	0.053
-379.917	-148.647	-0.167	0.014
-378.902	-200.000	0.019	-0.114
-377.888	-173.737	-0.216	-0.007
-376.873	-200.000	-0.001	0.210
-375.858	-141.607	-0.164	-0.017
-374.844	-200.000	-0.009	0.153
-373.829	800.000	-0.088	0.271
-372.815	11.227	-0.249	0.193
-371.800	-52.568	-0.157	0.074
-370.785	-40.827	-0.227	0.119
-369.771	4.250	0.274	0.203
-368.756	-121.039	-0.315	-0.054
-367.742	-72.310	-0.083	-0.031
-366.727	-200.000	0.003	0.324
-365.712	-74.797	-0.138	-0.050
-364.698	581.021	-0.076	-0.190
-363.683	-200.000	-0.010	0.238
-362.669	-17.943	-0.195	0.124
-361.654	-200.000	-0.031	0.233
-360.639	-21.203	0.178	0.110
-359.625	-114.412	-0.043	0.008
-358.610	12.566	-0.039	-0.030
-357.596	-35.941	0.156	-0.086
-356.581	-200.000	-0.020	0.137
-355.566	-13.163	-0.228	0.150
-354.552	316.604	0.051	-0.098
-353.537	761.564	0.035	-0.095
-352.523	-174.925	-0.221	-0.006
-351.508	116.259	-0.161	-0.200
-350.493	-200.000	0.082	-0.372
-349.479	800.000	0.089	0.358
-348.464	81.589	-0.036	0.039
-347.450	123.801	0.186	-0.236
-346.435	-127.512	0.121	-0.018
-345.420	-200.000	0.042	-0.251
-344.406	-79.893	0.284	-0.097
-343.391	63.044	0.087	0.089
-342.377	-113.999	0.114	0.022
-341.362	-169.158	-0.320	-0.012
-340.348	800.000	0.050	-0.208
-339.333	-200.000	0.041	0.192
-338.318	-89.951	-0.172	0.051
-337.304	520.487	-0.045	0.108
-336.289	21.176	0.113	0.093
-335.275	-135.799	-0.172	0.021
-334.260	-68.713	-0.120	-0.047
-333.245	800.000	0.085	0.335
-332.231	-200.000	-0.174	0.000
-331.216	-82.526	0.181	0.059
-330.202	207.835	0.081	-0.127
-329.187	-200.000	-0.076	0.455
-328.172	-200.000	-0.040	0.395
-327.158	-29.750	0.179	0.103
-326.143	170.447	-0.042	0.061
-325.129	-200.000	0.004	0.071
-324.114	-61.581	-0.318	0.135
-323.099	-200.000	-0.005	-0.097
-322.085	-72.219	-0.261	-0.098
-321.070	-9.103	-0.130	-0.088
-320.056	-58.919	-0.303	-0.132
-319.041	267.339	-0.148	-0.262
-318.026	-11.732	0.187	-0.124
-317.012	53.050	0.152	-0.147
-315.997	220.762	0.130	0.210
-314.983	114.920	0.081	-0.100
-313.968	-127.725	0.043	-0.006
-312.953	126.635	0.036	0.047
-311.939	-82.588	-0.247	0.081
-310.924	-200.000	0.039	0.255
-309.910	-200.000	-0.015	0.077
-308.895	-108.643	0.258	0.056
-307.880	-179.401	0.231	0.005
-306.866	21.479	-0.118	0.097
-305.851	-84.949	-0.221	-0.070
-304.837	-200.000	0.021	0.512
-303.822	-0.087	0.111	0.080
-302.807	-200.000	-0.048	-0.289
-301.793	-8.911	0.334	0.226
-300.778	-200.000	-0.012	-0.080
-299.764	114.673	0.197	0.242
-298.749	800.000	0.076	0.330
-297.735	-32.877	-0.082	0.046
-296.720	-28.952	-0.340	0.197
-295.705	-191.904	0.485	-0.005
-294.691	-79.348	-0.144	0.049
-293.676	371.946	0.094	0.192
-292.662	-63.496	-0.252	0.105
-291.647	259.270	0.151	0.263
-290.632	-90.661	0.527	-0.154
-289.618	-200.000	0.008	-0.085
-288.603	415.586	0.182	0.392
-287.589	-4.453	-0.010	-0.007
-286.574	-200.000	0.006	0.196
-285.559	800.000	-0.075	-0.320
-284.545	800.000	0.021	0.062
-283.530	-33.437	-0.282	-0.158
-282.516	800.000	-0.068	-0.195
-281.501	167.936	0.176	0.253
-280.486	408.985	-0.048	0.102
-279.472	-63.833	-0.095	0.039
-278.457	232.073	0.070	0.115
-277.443	-141.867	0.171	0.017
-276.428	649.616	-0.062	0.160
-275.413	311.785	0.110	0.208
-274.399	800.000	0.080	-0.350
-273.384	-130.882	0.087	-0.012
-272.370	-179.919	0.310	0.007
-271.355	121.136	0.147	0.185
-270.340	800.000	0.031	-0.134
-269.326	-200.000	-0.016	0.431
-268.311	-200.000	0.005	0.156
-267.297	578.937	-0.066	0.162
-266.282	16.499	-0.091	-0.072
-265.267	-176.469	0.203	0.005
-264.253	37.742	0.150	0.134
-263.238	-138.803	-0.347	-0.038
-262.224	-24.594	0.077	0.046
-261.209	213.372	0.090	-0.144
-260.195	-77.184	-0.207	0.073
-259.180	-126.605	-0.190	-0.028
-258.165	533.589	-0.097	0.232
-257.151	681.895	0.131	0.345
-256.136	-54.298	0.241	-0.110
-255.122	165.386	-0.027	-0.039
-254.107	-127.090	-0.129	0.019
-253.092	-72.877	-0.176	-0.065
-252.078	800.000	-0.116	-0.402
-251.063	-200.000	-0.043	-0.276
-250.049	89.249	-0.058	-0.065
-249.034	-124.450	0.266	0.042
-248.019	61.508	-0.053	-0.053
-247.005	-106.357	0.023	-0.005
-245.990	651.995	-0.046	0.118
-244.976	-200.000	0.006	0.076
-243.961	765.346	-0.079	-0.218
-242.946	-200.000	-0.048	0.456
-241.932	-63.209	0.347	0.144
-240.917	-107.603	0.372	0.082
-239.903	-14.109	0.301	-0.196
-238.888	800.000	0.086	-0.370
-237.873	38.435	0.314	-0.282
-236.859	-94.870	-0.158	-0.043
-235.844	387.299	-0.177	0.369
-234.830	-200.000	0.068	-0.336
-233.815	-46.483	-0.232	-0.115
-232.800	132.345	0.150	-0.195
-231.786	86.669	-0.169	0.188
-230.771	-116.951	-0.541	0.100
-229.757	800.000	-0.024	-0.066
-228.742	479.642	-0.132	-0.302
-227.727	-200.000	0.009	-0.099
-226.713	79.667	0.083	0.089
-225.698	527.250	0.081	-0.193
-224.684	-148.571	-0.405	0.033
-223.669	-200.000	0.011	0.131
-222.655	-152.889	0.111	-0.008
-221.640	-77.295	0.416	-0.146
-220.625	139.377	0.059	-0.078
-219.611	412.452	-0.028	0.060
-218.596	-200.000	0.003	0.022
-217.582	-200.000	0.042	-0.304
-216.567	45.415	-0.046	0.043
-215.552	81.529	0.248	0.270
-214.538	97.967	-0.128	-0.148
-213.523	-186.369	-0.132	-0.002
-212.509	-61.140	-0.126	0.054
-211.494	-200.000	0.041	0.220
-210.479	-16.413	-0.342	-0.218
-209.465	-9.559	0.131	-0.088
-208.450	5.914	0.148	-0.110
-207.436	87.815	-0.042	-0.047
-206.421	325.101	-0.076	0.146
-205.406	-200.000	0.024	0.142
-204.392	-200.000	0.087	-0.000
-203.377	386.295	-0.069	0.143
-202.363	500.314	-0.171	-0.398
-201.348	39.346	0.068	-0.061
-200.333	-200.000	-0.004	-0.196
-199.319	-53.047	-0.028	-0.013
-198.304	416.537	-0.115	-0.246
-197.290	-119.342	-0.128	0.022
-196.275	163.177	0.110	0.155
-195.260	-65.976	0.205	0.083
-194.246	-200.000	0.020	0.176
-193.231	228.909	-0.214	0.351
-192.217	-200.000	-0.026	-0.175
-191.202	-84.324	0.117	-0.037
-190.187	556.774	-0.041	0.099
-189.173	-71.748	0.296	0.111
-188.158	-200.000	-0.000	0.149
-187.144	800.000	0.135	0.423
-186.129	393.961	0.118	0.246
-185.114	265.316	0.067	0.117
-184.100	147.005	-0.158	-0.213
-183.085	365.563	-0.057	-0.116
-182.071	117.183	0.149	-0.184
-181.056	375.061	0.027	0.054
-180.042	-82.757	-0.143	0.046
-179.027	506.178	0.060	-0.141
-178.012	8.993	0.062	0.047
-176.998	-32.428	0.279	0.157
-175.983	429.039	-0.074	-0.162
-174.969	-123.189	0.134	0.022
-173.954	-200.000	-0.012	-0.297
-172.939	-62.129	-0.198	-0.083
-171.925	-79.708	-0.366	-0.124
-170.910	-180.576	-0.222	0.005
-169.896	110.930	0.179	-0.216
-168.881	-200.000	0.056	0.368
-167.866	-46.112	0.207	0.102
-166.852	23.869	0.284	-0.236
-165.837	-110.352	0.122	-0.026
-164.823	412.793	-0.129	-0.275
-163.808	-200.000	0.077	0.371
-162.793	-200.000	-0.007	-0.058
-161.779	-6.962	-0.090	0.061
-160.764	5.060	-0.258	-0.191
-159.750	800.000	-0.021	0.083
-158.735	496.665	-0.080	-0.184
-157.720	-200.000	0.035	-0.233
-156.706	-127.817	0.047	0.007
-155.691	-200.000	0.062	0.330
-154.677	43.626	-0.058	0.054
-153.662	231.145	0.151	-0.248
-152.647	35.213	-0.264	0.232
-151.633	-200.000	0.331	-0.000
-150.618	-128.825	0.180	0.026
-149.604	800.000	0.115	-0.391
-148.589	-94.536	-0.231	-0.063
-147.574	279.087	0.074	-0.132
-146.560	-159.525	0.170	-0.009
-145.545	343.069	0.100	-0.196
-144.531	17.194	-0.559	-0.445
-143.516	-56.243	0.327	0.146
-142.502	-200.000	0.042	-0.289
-141.487	-200.000	-0.034	0.223
-140.472	-98.599	-0.155	0.040
-139.458	-200.000	-0.028	-0.172
-138.443	-96.925	0.039	0.010
-137.429	-50.280	-0.211	-0.100
-136.414	-147.928	0.115	0.010
-135.399	-41.602	-0.316	-0.163
-134.385	330.795	-0.033	-0.064
-133.370	-123.236	0.154	0.025
-132.356	800.000	0.080	0.258
-131.341	134.501	0.228	0.297
-130.326	33.047	-0.027	0.024
-129.312	326.267	-0.129	-0.248
-128.297	14.113	0.327	0.256
-127.283	664.488	0.064	0.166
-126.268	-200.000	0.051	-0.399
-125.253	94.923	0.152	-0.174
-124.239	353.321	0.039	-0.077
-123.224	-87.508	0.144	0.044
-122.210	47.295	-0.190	0.177
-121.195	-108.608	0.069	-0.015
