DTS Sentinel unit serial number:	SN413079Multiplexer serial number:	ORYXHardware model number:	OX4-SRSoftware version number:	ORYX F/W v4.00 Oryx Data Collector v3.7.2.0data status	okinstallation	princeton_trtdifferential loss correction	single-endedforward channel	channel 4reverse channel	N/Adate	2019/09/11time	03:35:10forward acquisition time	60.00reverse acquisition time	0.00gamma	496.2192k internal	0.2316k external	0.2316temperature offset calibration	0.9945default loss term (dB/km)	0.3790temperature slope calibration	1.0000multiplexer offset coefficient	1.0000multiplexer slope coefficient	1.0000fibre end	0.00T internal ref (°C)	29.50T ext. ref 1 (°C)	-0.28T ext. ref 2 (°C)	23.93length (m)	temperature (°C)	Stokes	anti-Stokes-747.200	-132.277	0.309	0.041
-746.185	-39.020	0.199	0.106
-745.171	98.795	0.092	0.108
-744.156	-186.335	-0.359	0.005
-743.142	800.000	-0.019	-0.074
-742.127	-135.703	0.173	0.021
-741.112	154.402	-0.142	0.197
-740.098	-179.279	-0.352	0.008
-739.083	-94.112	0.143	0.040
-738.069	-40.839	-0.276	-0.144
-737.054	280.356	0.129	-0.234
-736.039	122.505	-0.099	-0.126
-735.025	-107.753	0.540	0.119
-734.010	497.105	-0.033	-0.076
-732.996	-111.811	-0.285	-0.058
-731.981	-48.656	-0.315	0.153
-730.966	85.918	0.113	-0.126
-729.952	-178.360	-0.374	-0.009
-728.937	-69.411	0.174	0.068
-727.923	-116.972	-0.200	0.037
-726.908	451.214	0.038	0.085
-725.894	7.685	-0.221	-0.167
-724.879	-121.978	-0.107	0.018
-723.864	-200.000	-0.000	0.073
-722.850	800.000	0.031	0.131
-721.835	800.000	-0.038	-0.109
-720.821	-101.728	-0.344	0.084
-719.806	-200.000	0.015	0.081
-718.791	-19.400	0.214	-0.134
-717.777	-60.064	0.402	-0.174
-716.762	-200.000	0.013	0.191
-715.748	-119.791	-0.212	-0.037
-714.733	-30.302	0.093	0.053
-713.718	-69.234	-0.122	0.048
-712.704	175.154	-0.099	0.145
-711.689	-177.881	0.186	0.005
-710.675	-157.288	-0.120	-0.007
-709.660	-59.293	0.205	0.089
-708.645	1.497	0.089	0.065
-707.631	800.000	-0.082	-0.322
-706.616	-83.812	-0.046	0.015
-705.602	-112.560	-0.226	0.046
-704.587	800.000	-0.068	0.204
-703.572	-4.479	-0.196	-0.137
-702.558	64.591	0.114	0.116
-701.543	453.590	-0.040	0.090
-700.529	-54.453	-0.054	-0.025
-699.514	-200.000	-0.041	-0.225
-698.499	146.081	-0.269	-0.365
-697.485	-137.803	0.202	-0.023
-696.470	172.005	0.109	-0.159
-695.456	-45.815	-0.136	-0.068
-694.441	-132.273	0.140	-0.018
-693.426	-200.000	0.000	-0.176
-692.412	58.222	-0.196	-0.194
-691.397	-172.428	0.117	0.004
-690.383	-129.322	-0.209	0.029
-689.368	-75.243	-0.333	-0.120
-688.354	175.482	-0.140	-0.206
-687.339	321.762	0.137	0.263
-686.324	-145.026	-0.117	-0.011
-685.310	185.457	-0.074	0.112
-684.295	-65.523	-0.254	-0.103
-683.281	-44.056	0.128	0.065
-682.266	-4.773	-0.285	-0.198
-681.251	34.280	0.191	-0.169
-680.237	-91.115	0.236	-0.069
-679.222	-145.625	0.190	-0.017
-678.208	-49.949	-0.214	0.102
-677.193	109.087	-0.240	0.290
-676.178	-56.509	-0.253	-0.113
-675.164	118.258	0.285	0.355
-674.149	-200.000	-0.040	-0.201
-673.135	-80.606	-0.244	0.082
-672.120	-169.346	0.305	0.011
-671.105	25.410	0.119	-0.100
-670.091	-44.992	-0.112	0.057
-669.076	-200.000	-0.013	-0.081
-668.062	17.093	-0.147	-0.118
-667.047	-1.061	-0.106	0.076
-666.032	177.684	0.214	-0.315
-665.018	-200.000	-0.010	0.092
-664.003	-28.914	0.127	-0.074
-662.989	-25.718	0.323	-0.192
-661.974	-43.156	-0.112	0.057
-660.959	67.051	-0.278	0.286
-659.945	317.893	0.075	-0.143
-658.930	-17.803	-0.122	0.077
-657.916	-200.000	-0.010	-0.172
-656.901	-44.084	0.177	-0.090
-655.886	150.868	-0.173	0.238
-654.872	59.745	0.120	-0.119
-653.857	-148.479	0.121	-0.010
-652.843	-19.117	-0.238	-0.150
-651.828	68.456	0.022	0.022
-650.814	22.953	0.117	0.097
-649.799	-200.000	-0.004	-0.097
-648.784	63.448	0.211	0.214
-647.770	-200.000	0.005	0.140
-646.755	-127.815	-0.438	-0.064
-645.741	246.248	-0.093	-0.159
-644.726	-200.000	0.045	-0.215
-643.711	-79.584	0.287	0.098
-642.697	-200.000	-0.059	-0.324
-641.682	-58.631	0.252	0.110
-640.668	-159.726	-0.303	-0.017
-639.653	-17.236	0.203	0.129
-638.638	-96.403	-0.066	-0.018
-637.624	510.498	0.071	-0.166
-636.609	475.639	0.079	0.181
-635.595	800.000	-0.106	-0.466
-634.580	-97.675	0.169	0.044
-633.565	-84.642	-0.191	0.061
-632.551	-34.082	0.199	0.110
-631.536	-200.000	0.003	0.088
-630.522	-110.685	0.355	0.074
-629.507	361.042	-0.088	0.178
-628.492	651.836	0.146	-0.376
-627.478	149.618	0.096	-0.132
-626.463	28.854	0.213	-0.182
-625.449	-200.000	0.014	0.318
-624.434	-106.225	-0.147	0.033
-623.419	-200.000	-0.050	-0.252
-622.405	-139.989	0.278	-0.030
-621.390	795.303	-0.109	-0.304
-620.376	145.302	0.195	-0.263
-619.361	-72.607	-0.331	0.123
-618.346	-200.000	-0.065	-0.293
-617.332	800.000	-0.045	-0.187
-616.317	-200.000	-0.014	-0.261
-615.303	-200.000	0.016	0.236
-614.288	486.530	0.158	-0.363
-613.273	48.765	0.314	-0.297
-612.259	-160.143	-0.118	0.006
-611.244	604.528	0.103	0.259
-610.230	-140.064	0.371	0.039
-609.215	2.875	0.070	-0.051
-608.201	23.247	-0.165	-0.136
-607.186	800.000	0.055	-0.195
-606.171	-92.041	0.388	0.110
-605.157	51.449	-0.197	-0.189
-604.142	-200.000	0.007	-0.191
-603.128	-200.000	-0.045	-0.229
-602.113	393.660	-0.047	0.098
-601.098	253.120	0.232	-0.399
-600.084	-17.302	0.263	0.167
-599.069	59.795	0.334	0.332
-598.055	-200.000	-0.006	-0.090
-597.040	134.347	-0.106	0.139
-596.025	-200.000	0.023	0.173
-595.011	-35.823	-0.247	0.135
-593.996	-86.133	0.062	0.019
-592.982	800.000	-0.042	-0.169
-591.967	800.000	-0.077	0.275
-590.952	29.757	0.128	-0.109
-589.938	-143.960	0.306	0.029
-588.923	-13.110	-0.254	0.166
-587.909	-200.000	-0.065	-0.376
-586.894	-28.186	0.522	-0.304
-585.879	234.146	0.144	-0.238
-584.865	298.222	-0.047	-0.088
-583.850	-200.000	0.014	0.176
-582.836	-200.000	0.011	0.055
-581.821	-27.315	-0.152	-0.089
-580.806	383.682	0.129	0.268
-579.792	70.451	0.087	0.090
-578.777	-126.095	0.270	0.041
-577.763	96.967	-0.084	-0.097
-576.748	-200.000	0.001	-0.109
-575.733	-149.302	-0.199	-0.016
-574.719	800.000	-0.035	0.103
-573.704	-65.838	-0.319	-0.128
-572.690	225.290	-0.200	0.325
-571.675	-55.720	-0.133	0.060
-570.661	11.674	-0.152	-0.117
-569.646	-88.853	0.266	0.079
-568.631	-200.000	0.007	0.219
-567.617	800.000	-0.034	0.122
-566.602	-200.000	0.004	0.098
-565.588	51.523	0.213	0.204
-564.573	-200.000	-0.029	0.169
-563.558	-26.371	0.158	0.093
-562.544	-50.435	-0.219	-0.104
-561.529	-200.000	0.005	0.130
-560.515	-32.355	-0.445	0.250
-559.500	273.021	0.183	0.325
-558.485	205.865	-0.099	0.155
-557.471	-109.855	-0.238	0.050
-556.456	648.073	0.040	0.102
-555.442	61.978	0.260	-0.261
-554.427	-53.308	-0.427	-0.197
-553.412	-120.618	0.176	0.030
-552.398	-0.616	0.384	-0.274
-551.383	-200.000	0.043	0.328
-550.369	-145.911	0.235	0.021
-549.354	125.014	0.040	0.051
-548.339	-154.122	-0.016	-0.001
-547.325	397.492	0.045	0.095
-546.310	-74.603	-0.304	-0.110
-545.296	800.000	-0.054	0.191
-544.281	12.323	-0.154	0.119
-543.266	32.433	-0.126	-0.109
-542.252	-33.947	-0.138	0.077
-541.237	800.000	-0.156	0.645
-540.223	-200.000	-0.049	-0.262
-539.208	-17.321	-0.066	-0.042
-538.193	-36.796	-0.078	-0.042
-537.179	630.291	0.045	0.114
-536.164	-60.744	-0.359	0.153
-535.150	800.000	0.059	-0.172
-534.135	-15.632	-0.170	-0.109
-533.121	5.179	0.168	0.125
-532.106	-200.000	-0.024	0.279
-531.091	88.122	-0.140	-0.156
-530.077	-17.537	0.287	0.182
-529.062	494.803	-0.058	-0.134
-528.048	-200.000	-0.085	0.000
-527.033	567.149	-0.090	0.219
-526.018	-141.076	0.027	-0.003
-525.004	800.000	0.058	0.205
-523.989	-10.795	-0.242	0.161
-522.975	274.095	-0.076	-0.135
-521.960	-160.713	0.321	-0.017
-520.945	-73.642	0.159	0.058
-519.931	29.823	0.220	0.188
-518.916	-51.171	0.183	0.086
-517.902	-65.350	-0.230	-0.093
-516.887	-6.158	0.241	-0.165
-515.872	800.000	-0.078	-0.249
-514.858	-15.442	0.053	0.034
-513.843	72.520	0.200	-0.209
-512.829	84.086	-0.089	-0.098
-511.814	-116.992	0.081	-0.015
-510.799	20.586	-0.188	-0.153
-509.785	-5.856	-0.112	-0.077
-508.770	506.708	0.072	0.169
-507.756	50.574	0.064	0.061
-506.741	83.524	-0.126	0.138
-505.726	-7.975	-0.088	0.060
-504.712	-200.000	0.013	0.180
-503.697	231.563	0.137	-0.226
-502.683	-97.578	0.060	-0.016
-501.668	209.017	0.286	-0.450
-500.653	-200.000	0.000	-0.118
-499.639	11.292	-0.188	0.144
-498.624	-200.000	0.074	-0.401
-497.610	-119.826	0.426	0.074
-496.595	386.895	-0.286	-0.592
-495.581	249.628	0.089	-0.152
-494.566	-106.913	-0.021	0.005
-493.551	-200.000	0.004	-0.124
-492.537	-97.236	-0.268	-0.070
-491.522	86.662	0.143	-0.159
-490.508	155.814	-0.168	-0.232
-489.493	-29.081	-0.328	0.189
-488.478	338.740	0.132	0.258
-487.464	-163.270	0.384	-0.018
-486.449	-160.237	0.136	-0.007
-485.435	185.025	0.091	0.135
-484.420	-37.261	0.300	0.161
-483.405	3.423	-0.109	-0.080
-482.391	323.164	-0.111	0.212
-481.376	-200.000	-0.041	-0.183
-480.362	-107.146	-0.132	0.029
-479.347	-149.646	-0.170	0.013
-478.332	-200.000	0.030	0.262
-477.318	-195.834	0.032	-0.000
-476.303	176.449	-0.150	-0.219
-475.289	-41.870	0.158	0.081
-474.274	249.161	-0.109	-0.185
-473.259	252.674	-0.088	0.150
-472.245	-40.428	-0.175	-0.091
-471.230	-108.783	0.329	0.070
-470.216	-200.000	-0.008	-0.104
-469.201	97.039	0.123	0.142
-468.186	-20.858	0.276	0.170
-467.172	-25.444	-0.179	0.106
-466.157	-200.000	-0.080	-0.393
-465.143	-38.209	0.227	0.121
-464.128	800.000	-0.043	0.125
-463.113	-156.378	-0.231	0.014
-462.099	-200.000	0.009	-0.411
-461.084	504.914	0.081	-0.187
-460.070	-128.562	0.172	0.024
-459.055	-175.171	0.056	0.002
-458.040	125.225	-0.079	-0.100
-457.026	396.242	0.037	-0.077
-456.011	627.210	-0.059	0.149
-454.997	-88.986	-0.326	0.097
-453.982	26.742	0.179	0.150
-452.968	41.407	-0.348	0.315
-451.953	-147.933	-0.154	-0.013
-450.938	-200.000	-0.024	-0.221
-449.924	-200.000	-0.007	-0.051
-448.909	800.000	0.058	-0.222
-447.895	-45.461	-0.209	0.104
-446.880	-200.000	0.031	0.279
-445.865	12.584	0.181	0.140
-444.851	214.522	0.061	-0.097
-443.836	-81.430	-0.217	0.072
-442.822	128.871	-0.313	-0.400
-441.807	-23.139	-0.207	0.125
-440.792	188.119	-0.069	0.104
-439.778	-72.737	-0.342	-0.126
-438.763	-145.300	0.370	-0.033
-437.749	-75.209	-0.196	0.070
-436.734	800.000	0.056	0.219
-435.719	-80.278	-0.382	-0.128
-434.705	-104.263	-0.264	-0.061
-433.690	55.647	-0.115	-0.112
-432.676	-138.927	0.496	-0.054
-431.661	67.594	0.166	0.170
-430.646	156.330	-0.125	0.172
-429.632	341.354	0.040	0.077
-428.617	-200.000	-0.028	0.209
-427.603	-0.847	0.077	0.055
-426.588	111.566	-0.140	0.169
-425.573	-162.679	0.144	-0.007
-424.559	165.915	-0.179	0.254
-423.544	800.000	0.081	0.291
-422.530	-128.456	0.247	-0.035
-421.515	239.376	-0.033	0.055
-420.500	505.133	0.030	0.070
-419.486	97.718	0.100	-0.115
-418.471	-139.490	-0.243	-0.026
-417.457	191.307	0.118	0.177
-416.442	-153.461	-0.262	-0.018
-415.428	-200.000	-0.036	0.243
-414.413	67.994	0.129	-0.132
-413.398	-66.301	-0.192	-0.076
-412.384	-200.000	0.029	-0.189
-411.369	314.437	-0.038	0.072
-410.355	579.743	-0.072	-0.176
-409.340	190.862	0.143	0.215
-408.325	-140.251	-0.223	-0.023
-407.311	8.392	0.201	-0.151
-406.296	-38.816	-0.439	0.232
-405.282	96.545	0.100	-0.114
-404.267	-158.033	0.117	-0.007
-403.252	800.000	-0.026	-0.091
-402.238	800.000	0.010	0.045
-401.223	-117.367	-0.161	-0.029
-400.209	-48.706	-0.162	0.078
-399.194	-200.000	-0.069	-0.387
-398.179	-41.454	-0.157	0.081
-397.165	-200.000	0.184	-0.000
-396.150	606.770	-0.134	-0.335
-395.136	-200.000	-0.007	-0.204
-394.121	421.237	-0.032	-0.068
-393.106	187.805	-0.246	-0.367
-392.092	552.064	0.063	0.152
-391.077	-81.897	-0.188	-0.062
-390.063	627.340	-0.142	0.358
-389.048	-90.673	-0.173	0.050
-388.033	10.548	0.184	-0.140
-387.019	173.363	-0.134	0.192
-386.004	215.770	0.124	-0.196
-384.990	17.775	0.129	0.102
-383.975	90.010	-0.149	0.167
-382.960	-100.126	-0.297	-0.074
-381.946	-42.928	-0.343	0.174
-380.931	557.367	0.098	-0.236
-379.917	-108.187	0.136	0.029
-378.902	510.346	0.085	0.198
-377.888	-173.298	-0.256	-0.008
-376.873	8.107	-0.324	0.243
-375.858	-200.000	0.000	-0.182
-374.844	2.059	0.145	0.104
-373.829	366.617	0.133	0.268
-372.815	334.364	0.086	0.166
-371.800	-100.870	0.272	-0.067
-370.785	225.094	-0.073	-0.117
-369.771	596.770	0.135	-0.333
-368.756	-82.051	-0.264	-0.086
-367.742	76.936	-0.247	-0.262
-366.727	-115.957	0.087	0.016
-365.712	95.959	-0.183	0.208
-364.698	-129.755	-0.164	0.023
-363.683	20.053	-0.155	0.125
-362.669	-21.718	-0.354	0.215
-361.654	-200.000	0.057	0.284
-360.639	-142.353	-0.322	-0.032
-359.625	81.385	0.115	-0.124
-358.610	800.000	-0.011	-0.034
-357.596	-74.673	0.080	0.029
-356.581	432.308	-0.076	-0.165
-355.566	-3.697	-0.191	-0.132
-354.552	19.059	0.310	-0.248
-353.537	-200.000	-0.006	-0.154
-352.523	-163.048	0.124	0.006
-351.508	78.530	0.348	-0.371
-350.493	-200.000	0.000	0.364
-349.479	-33.764	0.341	-0.188
-348.464	707.700	0.093	-0.246
-347.450	800.000	0.057	0.165
-346.435	-11.307	-0.113	0.074
-345.420	800.000	-0.111	-0.344
-344.406	-128.789	0.507	0.071
-343.391	-200.000	0.037	0.430
-342.377	-3.252	0.130	-0.091
-341.362	377.586	-0.063	0.129
-340.348	-57.875	-0.185	-0.081
-339.333	248.074	0.034	0.058
-338.318	-16.069	-0.369	0.234
-337.304	353.458	0.128	0.253
-336.289	-88.253	-0.182	-0.054
-335.275	9.047	-0.552	0.415
-334.260	-62.992	0.210	0.087
-333.245	-6.865	-0.296	0.200
-332.231	-200.000	0.004	-0.218
-331.216	76.118	-0.143	-0.151
-330.202	137.580	0.181	-0.236
-329.187	399.351	-0.093	-0.195
-328.172	800.000	-0.031	0.092
-327.158	157.293	0.183	-0.252
-326.143	98.075	0.112	0.128
-325.129	-41.361	0.365	0.188
-324.114	27.834	-0.341	-0.286
-323.099	-89.403	0.282	0.083
-322.085	800.000	-0.069	0.196
-321.070	800.000	0.052	0.172
-320.056	239.515	0.104	-0.172
-319.041	-158.090	0.166	0.010
-318.026	-27.456	-0.180	0.104
-317.012	-200.000	0.025	0.131
-315.997	-200.000	-0.023	-0.219
-314.983	-200.000	-0.035	-0.172
-313.968	-88.762	-0.200	0.059
-312.953	-85.921	-0.201	0.062
-311.939	-81.330	0.266	0.087
-310.924	-200.000	-0.039	0.331
-309.910	-42.067	0.135	-0.069
-308.895	56.929	0.110	0.106
-307.880	-111.911	-0.164	-0.033
-306.866	740.075	0.016	0.043
-305.851	-39.169	-0.141	0.074
-304.837	436.171	-0.071	-0.154
-303.822	-0.829	-0.097	0.068
-302.807	-81.716	0.154	0.050
-301.793	800.000	-0.014	0.044
-300.778	-200.000	-0.065	0.410
-299.764	8.771	-0.062	0.047
-298.749	40.490	-0.169	0.152
-297.735	45.335	-0.110	-0.101
-296.720	-200.000	-0.010	-0.093
-295.705	-24.754	0.176	0.104
-294.691	213.422	0.156	-0.245
-293.676	152.997	0.122	-0.165
-292.662	800.000	-0.099	-0.326
-291.647	-66.084	-0.036	0.014
-290.632	800.000	0.049	0.142
-289.618	613.789	-0.068	-0.170
-288.603	128.738	-0.127	-0.161
-287.589	800.000	0.036	-0.109
-286.574	-200.000	-0.050	-0.392
-285.559	-130.321	-0.098	-0.013
-284.545	671.236	0.055	0.143
-283.530	800.000	0.091	-0.317
-282.516	-200.000	-0.048	-0.282
-281.501	800.000	-0.038	0.125
-280.486	-187.209	0.060	0.001
-279.472	-145.143	-0.344	0.031
-278.457	800.000	-0.074	-0.263
-277.443	-59.951	0.178	0.076
-276.428	-200.000	-0.057	0.286
-275.413	800.000	0.109	0.408
-274.399	680.935	-0.011	0.029
-273.384	95.005	-0.245	0.277
-272.370	-17.450	-0.210	0.131
-271.355	140.060	0.179	0.235
-270.340	51.523	-0.159	-0.150
-269.326	116.484	-0.093	-0.113
-268.311	77.829	-0.139	-0.147
-267.297	-56.582	0.138	-0.061
-266.282	75.633	-0.094	0.099
-265.267	-110.549	-0.248	0.051
-264.253	-14.725	0.255	0.163
-263.238	10.457	0.225	-0.170
-262.224	800.000	-0.025	-0.091
-261.209	367.278	0.178	-0.357
-260.195	-50.409	-0.202	-0.095
-259.180	77.155	0.184	-0.194
-258.165	-34.786	-0.039	-0.021
-257.151	-110.435	0.363	0.075
-256.136	139.775	-0.068	-0.088
-255.122	-49.922	-0.496	0.234
-254.107	-91.016	-0.189	-0.054
-253.092	800.000	0.055	0.210
-252.078	394.437	-0.066	-0.136
-251.063	-200.000	0.023	-0.309
-250.049	705.766	0.121	0.318
-249.034	-200.000	0.001	0.018
-248.019	-95.419	0.294	0.078
-247.005	131.633	0.136	0.174
-245.990	-200.000	-0.023	0.153
-244.976	800.000	-0.032	0.130
-243.961	-41.209	0.171	0.088
-242.946	-108.061	-0.335	0.072
-241.932	-170.689	0.382	0.013
-240.917	-62.702	-0.119	-0.049
-239.903	211.792	0.103	-0.161
-238.888	-172.566	0.201	0.006
-237.873	-110.853	-0.409	0.084
-236.859	96.478	0.206	0.234
-235.844	73.865	-0.132	0.138
-234.830	-50.423	0.241	-0.113
-233.815	-200.000	-0.043	0.253
-232.800	-31.197	0.157	0.088
-231.786	-106.802	-0.249	0.055
-230.771	-200.000	-0.001	-0.013
-229.757	37.306	0.294	-0.259
-228.742	-200.000	-0.008	0.167
-227.727	391.141	0.202	0.415
-226.713	-156.350	0.163	0.010
-225.698	638.962	-0.061	-0.154
-224.684	427.567	-0.067	0.145
-223.669	548.652	0.131	-0.312
-222.655	800.000	0.051	0.219
-221.640	-32.445	0.450	0.249
-220.625	-142.815	0.197	-0.019
-219.611	34.867	-0.109	0.095
-218.596	-200.000	0.038	0.172
-217.582	199.840	-0.081	0.124
-216.567	346.985	0.231	0.452
-215.552	10.480	-0.133	0.101
-214.538	-140.822	-0.228	0.023
-213.523	-200.000	-0.007	-0.056
-212.509	9.040	0.100	-0.075
-211.494	292.050	0.141	0.254
-210.479	692.791	-0.040	0.104
-209.465	77.552	-0.196	0.207
-208.450	328.608	-0.165	-0.314
-207.436	233.193	-0.016	-0.026
-206.421	96.242	-0.246	-0.278
-205.406	-174.522	0.540	0.015
-204.392	-44.106	-0.219	-0.109
-203.377	-21.698	0.084	0.051
-202.363	-200.000	0.019	-0.326
-201.348	197.979	0.194	-0.295
-200.333	-65.621	0.068	-0.027
-199.319	-111.079	0.205	-0.042
-198.304	800.000	0.113	-0.346
-197.290	-183.831	-0.146	-0.002
-196.275	679.849	0.056	-0.144
-195.260	-75.348	0.439	-0.155
-194.246	86.812	-0.283	0.309
-193.231	-168.039	0.163	-0.006
-192.217	174.099	-0.177	0.254
-191.202	-82.727	-0.330	0.106
-190.187	-172.728	0.193	0.006
-189.173	-200.000	-0.009	-0.254
-188.158	800.000	0.039	-0.153
-187.144	-200.000	0.013	-0.089
-186.129	-200.000	-0.003	-0.120
-185.114	-86.350	-0.097	0.030
-184.100	-105.203	-0.193	0.044
-183.085	88.815	0.303	-0.334
-182.071	-200.000	0.007	0.060
-181.056	800.000	-0.085	-0.256
-180.042	-200.000	-0.056	0.271
-179.027	-62.742	0.102	0.042
-178.012	11.705	0.176	0.134
-176.998	800.000	0.065	0.218
-175.983	-121.101	0.172	0.029
-174.969	261.571	-0.093	0.160
-173.954	-18.141	0.149	-0.092
-172.939	-200.000	-0.021	-0.211
-171.925	-1.268	0.109	0.076
-170.910	-200.000	0.042	-0.282
-169.896	84.768	0.267	-0.290
-168.881	135.454	0.114	-0.147
-167.866	271.216	0.168	0.294
-166.852	-200.000	-0.007	0.277
-165.837	-200.000	-0.001	-0.252
-164.823	-14.983	0.272	0.173
-163.808	-200.000	-0.028	0.176
-162.793	75.779	-0.092	0.096
-161.779	131.488	-0.275	0.350
-160.764	-63.502	-0.264	-0.107
-159.750	-66.498	0.147	-0.058
-158.735	50.274	0.357	-0.334
-157.720	-115.472	0.032	0.006
-156.706	41.939	-0.060	0.054
-155.691	-167.966	-0.189	0.007
-154.677	-200.000	-0.009	-0.119
-153.662	89.885	0.122	0.135
-152.647	-56.110	-0.166	-0.073
-151.633	107.467	-0.267	-0.315
-150.618	29.703	-0.061	0.052
-149.604	-75.787	-0.119	-0.042
-148.589	800.000	0.006	-0.021
-147.574	580.789	0.007	-0.017
-146.560	-108.652	0.058	0.012
-145.545	-71.753	0.178	0.066
-144.531	510.536	0.127	0.293
-143.516	-144.459	-0.374	-0.034
-142.502	-200.000	0.020	0.201
-141.487	-200.000	0.020	-0.146
-140.472	-45.035	-0.160	-0.079
-139.458	149.127	-0.085	0.114
-138.443	84.412	-0.070	-0.076
-137.429	-130.592	0.086	-0.012
-136.414	-200.000	0.030	0.143
-135.399	800.000	0.035	0.109
-134.385	-200.000	0.059	-0.264
-133.370	37.878	0.040	0.035
-132.356	-143.546	0.339	0.032
-131.341	-150.242	0.315	-0.024
-130.326	389.309	0.057	0.116
-129.312	800.000	0.060	0.194
-128.297	-91.590	0.346	0.098
-127.283	245.115	-0.118	0.197
-126.268	-128.678	-0.125	-0.017
-125.253	-145.406	-0.129	-0.012
-124.239	-92.871	0.271	-0.075
-123.224	395.610	0.126	-0.260
-122.210	-193.332	-0.008	0.000
-121.195	-131.624	0.030	-0.004
