DTS Sentinel unit serial number:	SN413079Multiplexer serial number:	ORYXHardware model number:	OX4-SRSoftware version number:	ORYX F/W v4.00 Oryx Data Collector v3.7.2.0data status	okinstallation	princeton_trtdifferential loss correction	single-endedforward channel	channel 4reverse channel	N/Adate	2019/09/12time	03:31:11forward acquisition time	60.00reverse acquisition time	0.00gamma	496.2192k internal	0.2309k external	0.2309temperature offset calibration	1.0095default loss term (dB/km)	0.3790temperature slope calibration	1.0000multiplexer offset coefficient	1.0000multiplexer slope coefficient	1.0000fibre end	0.00T internal ref (°C)	32.19T ext. ref 1 (°C)	2.14T ext. ref 2 (°C)	27.34length (m)	temperature (°C)	Stokes	anti-Stokes-747.200	800.000	0.061	-0.249
-746.185	-102.729	-0.325	-0.079
-745.171	-200.000	-0.003	-0.018
-744.156	800.000	-0.025	0.089
-743.142	800.000	0.041	0.171
-742.127	-61.092	-0.414	0.178
-741.112	158.182	0.174	0.244
-740.098	410.149	-0.027	-0.057
-739.083	-70.484	-0.140	0.054
-738.069	17.464	-0.086	0.069
-737.054	-155.384	0.261	-0.017
-736.039	-200.000	-0.059	0.286
-735.025	-200.000	0.057	0.278
-734.010	-111.900	-0.187	-0.038
-732.996	-20.924	-0.242	-0.151
-731.981	22.256	0.223	-0.185
-730.966	-129.303	0.355	0.050
-729.952	269.836	0.142	-0.254
-728.937	800.000	-0.084	0.326
-727.923	38.796	-0.251	0.227
-726.908	96.251	-0.241	0.280
-725.894	84.463	0.169	-0.187
-724.879	-200.000	0.014	-0.326
-723.864	180.768	0.178	-0.266
-722.850	-72.107	-0.364	0.137
-721.835	-53.897	0.288	0.133
-720.821	-193.285	-0.179	-0.002
-719.806	-200.000	0.037	-0.195
-718.791	-40.034	0.294	-0.156
-717.777	-200.000	0.025	0.149
-716.762	800.000	-0.064	-0.245
-715.748	349.769	0.085	-0.171
-714.733	-73.300	-0.151	-0.056
-713.718	1.745	-0.254	-0.186
-712.704	57.751	0.088	0.087
-711.689	-154.081	-0.381	-0.026
-710.675	-200.000	0.029	-0.373
-709.660	106.438	0.133	-0.160
-708.645	-69.903	-0.189	-0.073
-707.631	800.000	-0.169	-0.601
-706.616	-48.240	0.254	0.124
-705.602	-92.916	-0.184	0.052
-704.587	-10.353	0.197	-0.133
-703.572	-147.755	-0.203	-0.017
-702.558	155.050	0.114	0.159
-701.543	-200.000	-0.024	0.114
-700.529	-185.278	-0.078	0.001
-699.514	800.000	0.013	-0.048
-698.499	14.572	0.170	-0.135
-697.485	-160.529	0.268	0.015
-696.470	-200.000	-0.017	0.414
-695.456	-55.205	0.275	0.125
-694.441	90.017	0.292	0.331
-693.426	109.652	-0.092	0.112
-692.412	-200.000	-0.000	-0.130
-691.397	256.786	-0.120	-0.208
-690.383	2.694	-0.469	-0.344
-689.368	800.000	-0.030	0.118
-688.354	800.000	-0.050	0.146
-687.339	40.251	-0.200	-0.182
-686.324	-72.565	0.263	-0.098
-685.310	306.096	-0.085	0.161
-684.295	156.243	0.073	-0.102
-683.281	132.593	0.085	0.111
-682.266	-40.439	-0.227	-0.120
-681.251	56.925	0.274	-0.270
-680.237	-84.735	-0.543	0.173
-679.222	-200.000	-0.029	-0.166
-678.208	97.206	-0.163	0.189
-677.193	-200.000	-0.005	-0.386
-676.178	800.000	-0.031	-0.108
-675.164	7.882	0.168	0.128
-674.149	5.046	-0.179	0.134
-673.135	135.599	0.221	-0.291
-672.120	-200.000	0.050	-0.270
-671.105	93.042	0.181	-0.207
-670.091	56.663	-0.310	-0.306
-669.076	-94.768	-0.184	0.051
-668.062	65.622	0.158	0.162
-667.047	800.000	0.093	-0.377
-666.032	96.697	-0.099	-0.114
-665.018	37.263	0.295	0.264
-664.003	800.000	-0.028	0.085
-662.989	-200.000	-0.022	-0.170
-661.974	135.942	0.086	-0.113
-660.959	-200.000	-0.008	0.213
-659.945	45.265	-0.115	-0.108
-658.930	316.226	-0.076	-0.146
-657.916	282.438	0.065	-0.118
-656.901	-88.817	0.316	-0.095
-655.886	-88.692	-0.150	-0.045
-654.872	-125.988	0.158	0.024
-653.857	-108.799	0.158	0.034
-652.843	37.010	0.104	-0.093
-651.828	468.957	-0.128	-0.292
-650.814	-200.000	-0.010	-0.421
-649.799	86.030	-0.118	0.132
-648.784	-77.127	0.220	0.078
-647.770	-71.510	-0.102	-0.039
-646.755	-45.808	-0.056	0.028
-645.741	66.056	0.075	0.077
-644.726	59.875	-0.199	0.199
-643.711	308.823	0.088	0.166
-642.697	-200.000	-0.001	-0.017
-641.682	-95.044	0.172	-0.047
-640.668	-144.568	-0.338	-0.032
-639.653	-200.000	0.025	-0.224
-638.638	186.755	0.112	-0.169
-637.624	361.102	0.232	0.471
-636.609	-181.074	-0.228	-0.005
-635.595	-149.287	0.304	0.024
-634.580	-0.469	0.094	-0.067
-633.565	800.000	-0.081	-0.293
-632.551	-41.152	-0.025	-0.013
-631.536	184.974	-0.142	0.212
-630.522	543.297	-0.066	0.159
-629.507	216.264	-0.155	-0.250
-628.492	-200.000	0.009	0.300
-627.478	452.787	0.163	-0.364
-626.463	140.754	-0.097	0.129
-625.449	536.066	-0.066	-0.158
-624.434	-97.496	0.221	-0.058
-623.419	-200.000	-0.003	-0.181
-622.405	800.000	0.074	0.228
-621.390	-43.672	0.273	0.139
-620.376	246.188	-0.132	-0.225
-619.361	-125.903	0.093	-0.014
-618.346	8.488	0.049	0.037
-617.332	64.178	-0.136	0.138
-616.317	-55.172	0.307	-0.140
-615.303	38.174	0.109	0.098
-614.288	-200.000	-0.032	-0.286
-613.273	102.968	0.185	-0.219
-612.259	238.803	0.220	-0.369
-611.244	-76.875	0.273	0.097
-610.230	63.514	-0.045	-0.046
-609.215	-92.989	0.340	0.096
-608.201	6.064	-0.305	0.228
-607.186	151.199	-0.037	-0.051
-606.171	-80.378	0.086	-0.029
-605.157	-100.968	-0.424	0.105
-604.142	-87.996	0.072	0.022
-603.128	-200.000	0.008	-0.133
-602.113	800.000	-0.101	0.337
-601.098	-200.000	0.035	-0.276
-600.084	55.650	-0.095	-0.093
-599.069	5.281	-0.155	-0.115
-598.055	-16.132	0.186	-0.120
-597.040	-65.279	-0.280	-0.114
-596.025	514.707	-0.108	0.255
-595.011	32.909	0.178	0.156
-593.996	-100.959	0.012	0.003
-592.982	-200.000	-0.012	-0.210
-591.967	-141.778	-0.197	0.020
-590.952	-200.000	0.031	0.171
-589.938	99.762	0.123	0.144
-588.923	32.548	0.027	0.024
-587.909	-79.646	0.242	-0.082
-586.894	-126.936	0.055	-0.008
-585.879	-89.909	0.107	-0.031
-584.865	-200.000	0.027	-0.148
-583.850	378.632	-0.161	-0.332
-582.836	155.986	0.102	-0.142
-581.821	-200.000	0.068	0.415
-580.806	3.048	-0.111	0.081
-579.792	71.088	-0.062	-0.065
-578.777	-20.182	-0.112	-0.070
-577.763	-200.000	0.018	0.194
-576.748	-72.342	-0.380	-0.142
-575.733	742.975	0.098	-0.265
-574.719	209.872	0.001	0.002
-573.704	410.450	-0.116	-0.249
-572.690	342.248	0.136	-0.269
-571.675	-103.951	-0.105	-0.025
-570.661	800.000	0.043	-0.179
-569.646	439.468	-0.214	-0.473
-568.631	131.175	0.061	-0.079
-567.617	-200.000	0.007	0.102
-566.602	334.147	0.104	0.203
-565.588	62.356	0.182	-0.184
-564.573	-119.036	0.180	0.032
-563.558	7.277	-0.092	-0.069
-562.544	-156.402	-0.269	0.017
-561.529	17.473	0.099	-0.080
-560.515	800.000	0.056	-0.226
-559.500	-200.000	0.067	0.340
-558.485	390.149	0.172	-0.360
-557.471	-109.792	-0.149	-0.032
-556.456	-68.732	-0.286	0.112
-555.442	-71.343	-0.142	-0.054
-554.427	-145.005	0.203	0.019
-553.412	-200.000	0.008	-0.065
-552.398	147.468	0.082	0.111
-551.383	800.000	-0.032	0.092
-550.369	253.444	0.091	0.156
-549.354	-66.991	0.216	-0.086
-548.339	-132.895	-0.089	0.011
-547.325	-200.000	0.001	-0.153
-546.310	-200.000	-0.039	-0.235
-545.296	-16.022	0.029	0.018
-544.281	-126.476	-0.277	0.042
-543.266	-87.910	0.119	-0.036
-542.252	-74.088	-0.190	0.069
-541.237	-67.227	0.108	-0.043
-540.223	19.235	-0.259	0.209
-539.208	138.878	0.155	-0.206
-538.193	732.514	-0.120	-0.323
-537.179	227.760	0.203	-0.332
-536.164	-36.062	0.324	0.177
-535.150	424.728	0.141	-0.305
-534.135	171.809	-0.154	0.223
-533.121	395.909	-0.169	0.355
-532.106	-200.000	0.020	0.288
-531.091	310.013	0.018	-0.035
-530.077	800.000	0.069	0.286
-529.062	800.000	-0.044	-0.159
-528.048	800.000	0.114	-0.385
-527.033	-200.000	0.038	0.234
-526.018	-200.000	-0.005	0.043
-525.004	-111.358	0.271	0.056
-523.989	-77.736	0.072	0.025
-522.975	132.001	-0.117	-0.152
-521.960	-12.133	-0.409	0.270
-520.945	800.000	-0.054	0.184
-519.931	-137.116	-0.072	-0.008
-518.916	202.331	-0.053	-0.083
-517.902	800.000	0.052	-0.173
-516.887	476.295	0.074	-0.167
-515.872	217.401	0.110	0.177
-514.858	43.602	-0.234	0.216
-513.843	-200.000	0.040	0.595
-512.829	68.716	-0.157	0.162
-511.814	-172.202	0.180	0.006
-510.799	362.613	0.090	-0.182
-509.785	-200.000	-0.044	0.316
-508.770	800.000	0.031	0.115
-507.756	109.952	-0.189	-0.229
-506.741	-37.524	-0.265	0.142
-505.726	369.865	0.244	-0.498
-504.712	-200.000	-0.063	0.341
-503.697	-200.000	-0.016	0.300
-502.683	-52.558	0.132	0.062
-501.668	109.093	-0.148	0.178
-500.653	-200.000	-0.014	-0.114
-499.639	-140.646	0.236	-0.025
-498.624	-94.885	-0.054	0.015
-497.610	30.719	0.230	0.198
-496.595	-27.662	0.341	-0.199
-495.581	22.871	-0.200	0.165
-494.566	276.243	-0.125	0.223
-493.551	495.410	0.118	-0.272
-492.537	19.972	0.244	0.198
-491.522	345.633	-0.075	-0.148
-490.508	-142.522	-0.198	0.020
-489.493	-200.000	0.045	0.376
-488.478	-200.000	0.019	-0.169
-487.464	-200.000	-0.032	0.195
-486.449	-200.000	-0.020	-0.162
-485.435	800.000	0.095	0.279
-484.420	21.632	-0.141	0.116
-483.405	-24.831	0.292	-0.174
-482.391	-105.358	0.272	-0.062
-481.376	62.246	-0.341	0.342
-480.362	116.591	-0.177	0.218
-479.347	-67.466	-0.237	0.094
-478.332	187.823	-0.073	0.110
-477.318	-101.860	-0.229	0.056
-476.303	-68.795	-0.157	-0.061
-475.289	-152.178	-0.184	0.013
-474.274	120.287	0.095	-0.119
-473.259	-200.000	0.016	0.144
-472.245	53.712	0.273	0.264
-471.230	64.751	-0.146	0.148
-470.216	-85.219	0.113	-0.035
-469.201	202.158	0.171	0.265
-468.186	800.000	-0.135	-0.394
-467.172	-200.000	-0.025	-0.330
-466.157	800.000	-0.042	0.146
-465.143	539.877	-0.164	0.393
-464.128	78.966	0.258	0.277
-463.113	445.342	0.078	0.172
-462.099	507.770	0.029	0.068
-461.084	-175.374	-0.244	0.007
-460.070	61.133	0.390	-0.389
-459.055	-61.449	0.197	-0.083
-458.040	-31.768	0.111	-0.063
-457.026	-71.907	-0.557	0.208
-456.011	-45.385	-0.024	-0.012
-454.997	-137.953	-0.096	-0.011
-453.982	6.145	0.056	-0.042
-452.968	315.938	0.114	0.216
-451.953	-41.930	-0.321	-0.165
-450.938	-17.043	-0.042	0.027
-449.924	-86.838	-0.084	0.026
-448.909	62.868	-0.135	-0.136
-447.895	800.000	-0.038	0.116
-446.880	800.000	-0.075	0.275
-445.865	-200.000	0.016	0.192
-444.851	800.000	0.111	-0.351
-443.836	-5.247	-0.222	0.154
-442.822	-196.927	-0.435	0.003
-441.807	1.259	-0.127	0.092
-440.792	-69.231	-0.123	0.048
-439.778	9.699	0.030	-0.023
-438.763	-83.868	0.113	0.036
-437.749	31.710	-0.052	0.045
-436.734	-21.870	-0.089	0.054
-435.719	-63.079	-0.175	-0.073
-434.705	268.754	0.084	-0.148
-433.690	51.814	-0.207	-0.198
-432.676	0.800	-0.149	-0.107
-431.661	72.618	-0.067	0.070
-430.646	-15.863	-0.204	0.130
-429.632	-100.159	0.201	0.050
-428.617	-4.805	-0.221	0.153
-427.603	50.169	-0.178	0.168
-426.588	-35.493	-0.195	-0.106
-425.573	53.540	0.091	-0.088
-424.559	800.000	0.022	-0.076
-423.544	-115.179	-0.207	0.039
-422.530	-200.000	0.003	-0.037
-421.515	800.000	0.086	0.270
-420.500	-200.000	0.061	0.409
-419.486	-64.046	-0.221	0.091
-418.471	-152.257	0.179	-0.013
-417.457	-200.000	-0.179	0.001
-416.442	-88.099	0.449	0.135
-415.428	38.087	0.114	-0.102
-414.413	-78.204	0.181	-0.062
-413.398	-110.484	0.165	-0.034
-412.384	-59.073	-0.065	-0.028
-411.369	-79.557	-0.083	0.028
-410.355	-200.000	0.070	0.354
-409.340	290.309	-0.106	-0.192
-408.325	-134.409	0.214	-0.026
-407.311	11.139	-0.095	-0.073
-406.296	77.559	0.239	0.255
-405.282	-70.776	0.343	-0.130
-404.267	-159.666	0.173	-0.010
-403.252	136.682	0.085	-0.112
-402.238	10.133	-0.155	-0.118
-401.223	107.030	0.291	-0.346
-400.209	221.382	0.172	0.278
-399.194	279.018	-0.208	-0.372
-398.179	-200.000	0.030	-0.278
-397.165	-45.573	0.125	0.062
-396.150	-80.927	0.140	0.046
-395.136	-41.142	-0.225	-0.117
-394.121	-17.935	0.134	-0.084
-393.106	-131.895	0.103	-0.014
-392.092	58.609	0.198	0.194
-391.077	271.841	0.145	-0.257
-390.063	-110.099	-0.085	-0.018
-389.048	272.734	0.110	-0.195
-388.033	-200.000	-0.001	-0.272
-387.019	-11.020	0.168	0.111
-386.004	-200.000	-0.004	-0.318
-384.990	100.859	-0.306	-0.356
-383.975	195.893	-0.120	0.183
-382.960	356.814	0.054	-0.108
-381.946	296.824	-0.100	0.183
-380.931	-200.000	0.030	0.161
-379.917	-137.994	-0.084	0.009
-378.902	156.926	-0.087	-0.120
-377.888	800.000	0.041	0.153
-376.873	-99.581	0.149	-0.038
-375.858	-58.485	0.099	0.043
-374.844	-108.323	-0.124	0.027
-373.829	31.927	-0.224	-0.193
-372.815	-124.567	0.287	-0.045
-371.800	-25.187	0.196	0.116
-370.785	-67.357	-0.207	0.081
-369.771	21.329	-0.088	0.072
-368.756	-200.000	-0.007	0.072
-367.742	-174.411	-0.078	0.002
-366.727	201.497	-0.034	0.053
-365.712	-200.000	-0.002	-0.299
-364.698	-200.000	0.021	0.159
-363.683	-81.001	-0.071	0.023
-362.669	-86.564	0.269	-0.083
-361.654	7.980	0.386	0.289
-360.639	-13.715	0.266	0.173
-359.625	-43.164	0.147	0.075
-358.610	-56.695	-0.154	-0.068
-357.596	-133.515	0.078	0.010
-356.581	-200.000	0.029	0.137
-355.566	145.428	-0.065	0.087
-354.552	-66.530	-0.162	-0.065
-353.537	800.000	0.007	-0.025
-352.523	-200.000	-0.018	-0.157
-351.508	-147.180	0.408	-0.035
-350.493	-4.972	0.325	-0.224
-349.479	800.000	0.045	-0.146
-348.464	300.437	0.080	-0.147
-347.450	-166.470	-0.084	-0.004
-346.435	-114.839	0.149	-0.028
-345.420	-71.202	-0.073	0.027
-344.406	-144.472	0.225	0.021
-343.391	-48.704	-0.267	0.128
-342.377	-200.000	0.345	0.001
-341.362	230.473	0.145	-0.237
-340.348	227.684	-0.256	0.417
-339.333	-7.110	0.124	-0.084
-338.318	219.541	0.180	0.289
-337.304	800.000	-0.055	-0.214
-336.289	-36.118	0.194	0.105
-335.275	-102.588	0.483	0.115
-334.260	80.283	0.234	-0.252
-333.245	216.956	-0.151	-0.241
-332.231	131.744	0.026	0.034
-331.216	227.594	-0.097	0.157
-330.202	339.027	-0.072	-0.140
-329.187	81.179	-0.213	-0.230
-328.172	-200.000	0.026	-0.153
-327.158	213.763	-0.093	0.148
-326.143	-34.745	-0.368	0.201
-325.129	262.528	-0.144	-0.250
-324.114	-3.961	0.300	0.208
-323.099	301.047	-0.018	-0.033
-322.085	-132.558	-0.160	0.021
-321.070	598.522	0.084	0.209
-320.056	-15.180	0.133	-0.085
-319.041	771.371	-0.084	0.228
-318.026	-34.660	-0.095	0.052
-317.012	-111.114	0.381	-0.078
-315.997	-125.953	0.039	0.006
-314.983	-200.000	-0.018	0.142
-313.968	-64.162	0.120	0.049
-312.953	-200.000	0.009	0.125
-311.939	790.354	0.062	-0.171
-310.924	-200.000	-0.012	-0.189
-309.910	423.661	0.101	0.217
-308.895	-138.630	0.172	-0.019
-307.880	-200.000	-0.016	0.272
-306.866	-200.000	-0.002	0.077
-305.851	-200.000	-0.043	-0.298
-304.837	800.000	0.106	0.331
-303.822	-27.516	0.127	0.074
-302.807	-39.362	-0.103	0.054
-301.793	-200.000	-0.034	0.177
-300.778	-162.555	-0.066	-0.003
-299.764	-48.232	-0.132	-0.064
-298.749	-200.000	0.002	-0.019
-297.735	-186.689	-0.212	-0.003
-296.720	-200.000	-0.027	-0.181
-295.705	-27.906	0.281	-0.163
-294.691	-80.596	-0.636	-0.212
-293.676	105.001	-0.248	0.292
-292.662	207.285	0.180	-0.281
-291.647	-16.654	-0.318	-0.201
-290.632	-39.259	-0.191	0.100
-289.618	-42.355	0.107	0.055
-288.603	70.960	-0.065	0.067
-287.589	257.318	-0.122	-0.209
-286.574	-200.000	0.009	0.213
-285.559	161.213	-0.112	-0.157
-284.545	-200.000	0.059	-0.290
-283.530	-32.267	-0.297	-0.166
-282.516	800.000	0.038	-0.140
-281.501	-68.570	0.318	-0.123
-280.486	-143.748	0.281	-0.027
-279.472	-200.000	-0.013	-0.100
-278.457	-54.710	0.160	-0.072
-277.443	-164.274	-0.476	-0.022
-276.428	-139.807	0.067	-0.007
-275.413	-159.874	0.117	-0.006
-274.399	20.799	-0.019	0.015
-273.384	-139.495	-0.185	-0.020
-272.370	552.664	-0.152	-0.364
-271.355	33.733	-0.273	0.237
-270.340	46.819	-0.312	-0.289
-269.326	-84.805	-0.252	0.079
-268.311	-139.445	-0.288	-0.031
-267.297	168.250	-0.142	-0.202
-266.282	-200.000	0.033	0.231
-265.267	-97.923	-0.271	0.070
-264.253	-200.000	-0.060	-0.468
-263.238	-74.777	-0.157	-0.056
-262.224	-55.413	-0.052	0.023
-261.209	-200.000	-0.040	0.270
-260.195	-200.000	-0.036	0.240
-259.180	-200.000	0.014	0.171
-258.165	-186.412	-0.195	-0.003
-257.151	596.815	0.043	0.107
-256.136	-135.485	0.121	-0.014
-255.122	-200.000	-0.021	0.219
-254.107	274.594	-0.137	-0.241
-253.092	-46.860	0.327	-0.159
-252.078	-200.000	0.023	-0.345
-251.063	-82.667	-0.141	-0.046
-250.049	210.777	-0.130	-0.204
-249.034	-187.808	0.286	-0.004
-248.019	56.520	0.192	-0.186
-247.005	489.833	0.031	0.071
-245.990	432.969	0.187	0.405
-244.976	800.000	0.147	-0.487
-243.961	-20.899	0.194	-0.119
-242.946	139.926	0.241	0.317
-241.932	-25.101	-0.285	-0.168
-240.917	800.000	-0.056	0.211
-239.903	-72.694	-0.193	-0.071
-238.888	-76.255	-0.214	0.075
-237.873	-25.567	0.065	-0.039
-236.859	-116.070	-0.287	-0.053
-235.844	-39.796	0.358	0.187
-234.830	117.375	0.081	-0.099
-233.815	-200.000	0.031	-0.239
-232.800	-182.037	0.149	0.003
-231.786	-101.744	-0.217	-0.052
-230.771	-96.233	-0.216	-0.057
-229.757	-141.577	-0.067	0.007
-228.742	710.090	0.087	-0.230
-227.727	-62.851	-0.080	0.033
-226.713	-29.650	0.336	0.191
-225.698	467.890	-0.142	-0.317
-224.684	-146.638	-0.183	0.016
-223.669	-8.197	-0.281	-0.188
-222.655	-94.879	0.110	-0.030
-221.640	17.412	0.050	-0.040
-220.625	-108.995	0.348	-0.074
-219.611	-26.061	0.213	0.124
-218.596	-18.764	-0.388	0.240
-217.582	34.225	0.281	-0.244
-216.567	621.802	-0.101	-0.252
-215.552	-200.000	0.040	-0.190
-214.538	122.877	-0.258	0.321
-213.523	800.000	0.014	-0.054
-212.509	-92.635	0.274	-0.076
-211.494	283.985	-0.075	0.134
-210.479	-200.000	-0.015	0.289
-209.465	-65.700	-0.320	-0.128
-208.450	289.160	0.062	0.112
-207.436	203.258	-0.025	-0.038
-206.421	143.772	-0.128	0.170
-205.406	800.000	0.026	0.096
-204.392	-200.000	-0.012	-0.194
-203.377	-47.925	0.056	-0.027
-202.363	800.000	-0.022	0.070
-201.348	-81.311	0.264	-0.087
-200.333	-200.000	0.064	-0.304
-199.319	-8.197	0.249	0.167
-198.304	800.000	-0.078	0.279
-197.290	-87.138	-0.363	-0.110
-196.275	-14.262	-0.125	-0.080
-195.260	-104.865	0.225	-0.051
-194.246	106.695	-0.134	-0.158
-193.231	-47.886	0.338	-0.163
-192.217	-32.212	-0.241	-0.134
-191.202	301.737	0.067	0.123
-190.187	-72.100	0.188	0.070
-189.173	16.480	0.110	-0.087
-188.158	-196.090	0.019	0.000
-187.144	-80.299	-0.374	0.124
-186.129	44.574	0.082	-0.075
-185.114	18.115	0.187	-0.148
-184.100	-142.419	-0.306	-0.030
-183.085	-200.000	0.005	0.169
-182.071	118.857	0.242	-0.297
-181.056	-200.000	-0.040	0.205
-180.042	-200.000	-0.072	0.338
-179.027	-200.000	0.007	-0.170
-178.012	-200.000	0.010	-0.167
-176.998	90.249	-0.096	0.106
-175.983	-200.000	-0.038	0.309
-174.969	800.000	0.126	0.421
-173.954	-23.967	-0.392	0.233
-172.939	95.271	0.250	-0.284
-171.925	-84.987	0.233	-0.073
-170.910	-103.635	0.273	0.064
-169.896	-200.000	-0.023	-0.216
-168.881	61.374	0.136	0.134
-167.866	-200.000	-0.029	0.169
-166.852	800.000	-0.052	-0.190
-165.837	-116.087	0.372	-0.069
-164.823	-10.182	-0.217	0.143
-163.808	389.281	-0.104	0.214
-162.793	-110.714	-0.198	0.041
-161.779	299.552	0.037	0.068
-160.764	82.280	0.177	-0.191
-159.750	-200.000	-0.016	0.187
-158.735	665.290	-0.013	0.033
-157.720	186.578	0.167	0.247
-156.706	-103.114	-0.268	0.063
-155.691	234.551	-0.100	0.164
-154.677	305.504	0.198	0.365
-153.662	800.000	-0.024	-0.067
-152.647	176.273	-0.211	-0.304
-151.633	9.356	0.197	0.148
-150.618	262.345	-0.085	0.147
-149.604	800.000	0.014	-0.059
-148.589	800.000	-0.058	-0.190
-147.574	-148.764	0.291	-0.023
-146.560	-44.384	0.177	0.088
-145.545	-22.509	0.403	0.242
-144.531	800.000	-0.077	0.280
-143.516	-0.102	0.365	-0.258
-142.502	-200.000	0.045	-0.303
-141.487	-44.681	-0.115	0.057
-140.472	39.050	0.125	0.111
-139.458	54.946	0.097	0.092
-138.443	160.241	-0.193	0.267
-137.429	-11.229	0.115	-0.075
-136.414	271.077	0.088	0.155
-135.399	-17.064	-0.207	-0.130
-134.385	-8.399	-0.149	0.100
-133.370	8.807	0.087	0.065
-132.356	-18.862	0.142	0.088
-131.341	-3.236	0.126	-0.087
-130.326	-100.778	0.288	-0.070
-129.312	135.969	0.127	0.164
-128.297	-49.099	0.308	0.146
-127.283	-161.213	-0.265	-0.014
-126.268	270.287	0.138	-0.241
-125.253	438.931	0.014	0.030
-124.239	104.913	0.178	0.208
-123.224	46.150	0.220	-0.202
-122.210	-105.232	0.262	0.059
-121.195	-200.000	0.059	0.431
