DTS Sentinel unit serial number:	SN413079Multiplexer serial number:	ORYXHardware model number:	OX4-SRSoftware version number:	ORYX F/W v4.00 Oryx Data Collector v3.7.2.0data status	okinstallation	princeton_trtdifferential loss correction	single-endedforward channel	channel 4reverse channel	N/Adate	2019/09/10time	22:11:11forward acquisition time	60.00reverse acquisition time	0.00gamma	496.2192k internal	0.2315k external	0.2315temperature offset calibration	0.9946default loss term (dB/km)	0.3790temperature slope calibration	1.0000multiplexer offset coefficient	1.0000multiplexer slope coefficient	1.0000fibre end	0.00T internal ref (°C)	30.56T ext. ref 1 (°C)	-0.31T ext. ref 2 (°C)	23.90length (m)	temperature (°C)	Stokes	anti-Stokes-747.200	-200.000	0.086	0.596
-746.185	-121.135	-0.330	0.056
-745.171	781.709	0.087	0.242
-744.156	65.713	0.174	0.179
-743.142	-87.948	0.092	0.028
-742.127	163.326	0.108	0.154
-741.112	-200.000	-0.016	-0.080
-740.098	99.378	-0.127	-0.149
-739.083	249.047	-0.140	-0.241
-738.069	800.000	-0.028	-0.082
-737.054	-200.000	0.020	0.125
-736.039	-92.627	-0.224	0.064
-735.025	681.905	-0.071	0.187
-734.010	106.459	-0.149	-0.179
-732.996	-200.000	0.041	-0.249
-731.981	80.704	0.077	-0.084
-730.966	800.000	0.083	-0.259
-729.952	-34.728	-0.043	-0.024
-728.937	-115.335	-0.116	-0.022
-727.923	-105.296	-0.053	-0.012
-726.908	800.000	-0.057	0.182
-725.894	-133.352	-0.432	0.055
-724.879	-38.925	-0.478	0.255
-723.864	132.082	-0.111	-0.145
-722.850	-154.572	0.099	-0.007
-721.835	151.695	-0.157	0.216
-720.821	-139.816	-0.399	-0.043
-719.806	149.423	-0.108	0.148
-718.791	285.188	0.042	0.077
-717.777	-45.684	0.188	-0.094
-716.762	-85.086	-0.109	-0.034
-715.748	95.600	-0.148	-0.171
-714.733	-73.760	-0.297	-0.109
-713.718	199.249	-0.085	-0.132
-712.704	-164.549	-0.228	0.010
-711.689	732.741	0.084	-0.228
-710.675	162.878	-0.183	0.261
-709.660	-200.000	-0.070	-0.364
-708.645	800.000	0.134	-0.382
-707.631	-200.000	-0.034	-0.239
-706.616	-136.488	-0.070	-0.008
-705.602	800.000	0.059	-0.221
-704.587	772.847	-0.055	-0.151
-703.572	407.902	0.059	-0.126
-702.558	140.274	0.103	0.138
-701.543	63.636	0.154	0.156
-700.529	-22.243	0.099	-0.061
-699.514	-200.000	0.028	-0.143
-698.499	-19.959	0.225	-0.141
-697.485	-192.225	0.217	-0.002
-696.470	7.025	0.190	0.144
-695.456	-67.452	0.158	-0.063
-694.441	800.000	-0.038	0.150
-693.426	-162.675	0.376	0.019
-692.412	-105.903	-0.220	0.050
-691.397	275.463	0.073	0.131
-690.383	-71.329	-0.374	-0.142
-689.368	49.956	0.069	0.066
-688.354	68.259	-0.225	-0.233
-687.339	271.854	0.114	0.204
-686.324	4.446	0.160	0.119
-685.310	-190.494	0.391	0.004
-684.295	-9.554	0.084	-0.057
-683.281	-0.180	-0.083	-0.060
-682.266	19.890	0.029	0.023
-681.251	-59.716	-0.153	-0.066
-680.237	584.698	0.128	-0.318
-679.222	14.318	0.061	0.048
-678.208	-200.000	-0.028	0.225
-677.193	-200.000	0.040	-0.281
-676.178	-7.111	-0.230	0.158
-675.164	-100.634	0.144	0.036
-674.149	243.759	0.104	0.176
-673.135	-140.609	-0.187	-0.020
-672.120	120.950	-0.140	-0.176
-671.105	800.000	0.086	0.306
-670.091	-38.955	0.111	0.059
-669.076	122.762	0.144	0.182
-668.062	407.896	0.063	-0.136
-667.047	-200.000	0.015	0.100
-666.032	282.632	0.114	0.207
-665.018	66.997	-0.158	-0.163
-664.003	-68.543	-0.170	-0.066
-662.989	-73.090	-0.233	0.086
-661.974	199.886	0.093	0.144
-660.959	800.000	0.106	-0.312
-659.945	339.209	0.087	-0.171
-658.930	792.531	0.092	0.257
-657.916	67.476	-0.223	0.230
-656.901	-90.357	-0.051	0.015
-655.886	-98.352	-0.205	0.053
-654.872	-200.000	0.050	-0.221
-653.857	165.367	-0.046	-0.066
-652.843	141.376	-0.092	-0.123
-651.828	9.850	-0.396	0.303
-650.814	-81.527	-0.096	-0.032
-649.799	-70.187	0.062	0.024
-648.784	-44.465	0.119	0.060
-647.770	-142.588	-0.350	0.035
-646.755	479.428	0.049	0.111
-645.741	-200.000	0.017	0.108
-644.726	86.275	0.339	0.377
-643.711	607.850	0.153	0.386
-642.697	-105.243	-0.236	-0.054
-641.682	-121.856	-0.184	0.031
-640.668	-45.626	-0.078	-0.039
-639.653	-88.579	0.044	0.013
-638.638	-69.180	-0.142	0.055
-637.624	-200.000	-0.011	0.214
-636.609	-53.613	-0.128	0.059
-635.595	-200.000	-0.006	0.154
-634.580	-200.000	0.015	0.258
-633.565	88.673	0.090	0.101
-632.551	-180.391	-0.296	0.006
-631.536	-92.108	0.166	-0.047
-630.522	-86.930	-0.124	0.038
-629.507	28.552	0.042	0.036
-628.492	-38.963	0.054	-0.029
-627.478	-185.045	-0.119	0.002
-626.463	-200.000	0.018	-0.257
-625.449	-86.456	-0.437	-0.136
-624.434	-200.000	-0.036	0.178
-623.419	57.228	0.110	0.108
-622.405	-32.146	-0.130	-0.074
-621.390	-200.000	-0.004	0.096
-620.376	230.168	0.036	0.059
-619.361	605.140	-0.124	0.312
-618.346	-174.415	0.113	-0.003
-617.332	800.000	-0.099	0.317
-616.317	353.936	-0.084	-0.168
-615.303	6.716	-0.301	-0.226
-614.288	-62.606	0.192	-0.080
-613.273	-105.099	-0.248	-0.057
-612.259	-119.115	-0.550	-0.097
-611.244	-107.321	0.118	-0.026
-610.230	-20.194	0.206	-0.128
-609.215	-71.886	0.069	-0.026
-608.201	-200.000	0.002	-0.032
-607.186	1.818	0.087	0.063
-606.171	800.000	0.084	0.318
-605.157	-61.616	-0.218	-0.092
-604.142	-9.622	-0.150	0.101
-603.128	568.565	0.096	-0.234
-602.113	-13.989	-0.079	-0.051
-601.098	-22.051	-0.197	-0.121
-600.084	-67.949	0.081	-0.032
-599.069	-200.000	-0.025	-0.242
-598.055	800.000	0.017	0.049
-597.040	-74.976	-0.129	0.047
-596.025	63.397	0.081	-0.081
-595.011	780.173	0.012	0.034
-593.996	-72.959	-0.237	0.088
-592.982	37.968	-0.155	0.139
-591.967	800.000	-0.011	-0.039
-590.952	-6.448	0.258	-0.177
-589.938	-200.000	-0.062	-0.335
-588.923	-164.482	0.112	0.005
-587.909	-200.000	0.022	0.268
-586.894	360.251	-0.071	-0.144
-585.879	-200.000	-0.011	0.277
-584.865	-97.518	0.392	0.103
-583.850	-108.457	0.283	-0.061
-582.836	-104.008	-0.096	-0.023
-581.821	157.352	-0.119	-0.166
-580.806	148.170	0.363	-0.493
-579.792	-157.774	0.129	-0.008
-578.777	54.616	-0.153	0.149
-577.763	494.026	0.170	0.393
-576.748	-200.000	0.031	-0.219
-575.733	-67.721	-0.226	0.089
-574.719	-48.894	-0.218	-0.105
-573.704	326.982	-0.104	-0.201
-572.690	800.000	-0.063	-0.220
-571.675	-28.033	-0.079	-0.046
-570.661	19.547	-0.030	0.025
-569.646	-51.707	-0.137	0.064
-568.631	515.273	0.111	0.260
-567.617	800.000	0.025	-0.097
-566.602	28.145	0.206	0.175
-565.588	-12.541	-0.187	0.123
-564.573	60.293	-0.243	0.242
-563.558	-108.950	-0.098	-0.021
-562.544	-191.212	0.420	-0.004
-561.529	-200.000	-0.011	-0.135
-560.515	-161.510	-0.127	-0.007
-559.500	316.740	-0.089	-0.169
-558.485	800.000	0.062	-0.252
-557.471	-200.000	0.004	-0.267
-556.456	0.058	0.237	-0.170
-555.442	-18.888	0.297	-0.186
-554.427	193.417	-0.049	-0.075
-553.412	800.000	0.022	0.072
-552.398	191.370	0.159	0.241
-551.383	218.910	-0.122	0.196
-550.369	-19.717	-0.257	-0.160
-549.354	238.147	-0.086	-0.144
-548.339	-45.246	-0.348	-0.174
-547.325	-200.000	-0.019	-0.252
-546.310	-78.111	-0.338	0.117
-545.296	36.148	0.099	-0.088
-544.281	-200.000	-0.003	0.126
-543.266	505.630	0.085	-0.197
-542.252	-200.000	0.019	-0.231
-541.237	-156.236	-0.279	0.018
-540.223	82.919	-0.301	-0.329
-539.208	-179.873	0.228	-0.005
-538.193	-57.780	0.185	-0.081
-537.179	180.660	-0.193	0.286
-536.164	-37.703	-0.193	-0.103
-535.150	71.543	0.220	0.230
-534.135	-109.666	0.061	-0.013
-533.121	-200.000	-0.003	-0.098
-532.106	462.058	0.067	0.151
-531.091	255.712	0.105	-0.181
-530.077	-55.432	0.193	0.087
-529.062	-180.749	0.137	0.003
-528.048	515.053	-0.024	0.057
-527.033	130.784	-0.202	0.260
-526.018	-40.235	0.239	-0.125
-525.004	-116.645	-0.084	-0.016
-523.989	-83.040	0.290	-0.094
-522.975	61.943	0.164	0.165
-521.960	61.132	-0.269	0.268
-520.945	7.645	0.177	-0.133
-519.931	-60.899	-0.318	0.135
-518.916	141.449	-0.157	0.209
-517.902	335.371	-0.067	0.130
-516.887	800.000	0.038	0.144
-515.872	800.000	0.045	-0.166
-514.858	-2.853	0.130	-0.091
-513.843	-61.693	-0.234	-0.099
-512.829	-200.000	-0.026	0.140
-511.814	-138.904	0.326	-0.036
-510.799	78.721	-0.141	-0.151
-509.785	-200.000	-0.021	0.281
-508.770	519.523	-0.132	0.310
-507.756	67.380	-0.311	0.319
-506.741	98.912	0.218	0.253
-505.726	-94.130	0.124	0.034
-504.712	757.194	-0.056	0.153
-503.697	115.751	-0.164	0.202
-502.683	-59.705	-0.132	-0.057
-501.668	121.239	-0.127	0.159
-500.653	-9.286	-0.105	-0.070
-499.639	636.804	0.061	-0.155
-498.624	5.822	0.104	-0.077
-497.610	800.000	0.051	0.147
-496.595	3.137	0.272	-0.199
-495.581	-99.292	0.480	0.122
-494.566	800.000	-0.085	0.259
-493.551	-200.000	-0.012	0.503
-492.537	-91.760	0.266	0.076
-491.522	713.985	0.156	-0.416
-490.508	-47.918	0.179	0.087
-489.493	-92.534	-0.161	0.045
-488.478	-134.799	-0.141	0.017
-487.464	-200.000	0.014	-0.226
-486.449	-200.000	-0.027	0.313
-485.435	87.549	-0.134	0.149
-484.420	442.942	0.056	0.124
-483.405	467.157	-0.064	-0.143
-482.391	-138.466	0.167	-0.018
-481.376	-200.000	-0.029	-0.246
-480.362	800.000	0.053	-0.181
-479.347	114.168	0.088	0.108
-478.332	-200.000	-0.059	0.325
-477.318	365.439	-0.139	0.280
-476.303	533.200	-0.030	0.072
-475.289	173.328	-0.183	0.265
-474.274	-200.000	-0.073	-0.355
-473.259	-200.000	0.032	-0.164
-472.245	361.788	0.083	0.167
-471.230	18.882	0.274	-0.220
-470.216	79.833	0.116	0.125
-469.201	358.055	0.088	0.175
-468.186	104.379	0.070	0.082
-467.172	-75.879	-0.096	0.034
-466.157	800.000	0.059	0.169
-465.143	83.084	0.065	-0.071
-464.128	-7.545	0.089	-0.060
-463.113	-28.438	0.171	0.099
-462.099	-16.266	0.183	0.117
-461.084	-200.000	-0.006	0.100
-460.070	-34.868	-0.315	0.172
-459.055	-200.000	0.013	0.200
-458.040	-16.930	-0.208	-0.132
-457.026	123.863	0.232	-0.292
-456.011	39.723	-0.213	0.191
-454.997	708.675	0.044	0.116
-453.982	-58.313	-0.232	0.101
-452.968	-200.000	0.018	0.275
-451.953	-89.630	0.209	-0.062
-450.938	800.000	0.044	0.152
-449.924	786.470	-0.070	-0.193
-448.909	-200.000	0.011	0.125
-447.895	153.913	-0.181	-0.249
-446.880	53.921	0.126	0.122
-445.865	-115.988	0.178	-0.033
-444.851	-200.000	0.013	-0.390
-443.836	124.552	-0.095	-0.120
-442.822	16.473	-0.274	0.217
-441.807	-116.882	0.194	0.036
-440.792	67.452	0.075	0.077
-439.778	-200.000	-0.008	-0.243
-438.763	-200.000	0.063	-0.279
-437.749	91.686	-0.196	0.221
-436.734	-100.384	0.287	0.071
-435.719	-17.081	0.349	-0.220
-434.705	800.000	-0.039	-0.147
-433.690	800.000	-0.044	-0.153
-432.676	-33.005	0.283	-0.157
-431.661	528.401	0.066	0.156
-430.646	460.247	0.069	-0.153
-429.632	-98.226	-0.212	-0.054
-428.617	-76.105	-0.184	0.065
-427.603	-10.732	-0.148	0.098
-426.588	-82.966	0.270	-0.087
-425.573	800.000	0.090	0.254
-424.559	-14.564	-0.115	-0.074
-423.544	-56.495	0.290	0.129
-422.530	273.021	-0.102	-0.181
-421.515	-47.056	0.145	0.071
-420.500	-11.145	0.143	0.094
-419.486	-23.729	-0.416	-0.249
-418.471	239.702	0.262	-0.437
-417.457	-105.031	-0.116	-0.027
-416.442	145.073	-0.096	-0.128
-415.428	-0.846	0.202	-0.143
-414.413	28.481	0.187	0.158
-413.398	-200.000	0.004	-0.060
-412.384	-200.000	-0.005	0.442
-411.369	118.792	0.029	-0.036
-410.355	378.813	-0.041	0.085
-409.340	-200.000	-0.038	-0.182
-408.325	-174.736	-0.213	0.006
-407.311	800.000	-0.087	-0.325
-406.296	-200.000	-0.031	-0.364
-405.282	-145.638	-0.066	0.006
-404.267	-119.547	-0.055	0.009
-403.252	153.863	-0.134	0.183
-402.238	-64.240	0.090	0.037
-401.223	-96.927	-0.349	-0.092
-400.209	800.000	0.060	-0.166
-399.194	-51.050	0.237	0.111
-398.179	-15.846	-0.127	0.081
-397.165	-33.362	0.094	0.052
-396.150	-75.425	0.259	-0.092
-395.136	-140.519	-0.302	0.031
-394.121	-64.464	-0.207	-0.084
-393.106	419.444	-0.148	-0.317
-392.092	-200.000	-0.017	-0.099
-391.077	-49.689	0.186	0.088
-390.063	-4.424	0.067	-0.046
-389.048	-53.249	-0.062	-0.028
-388.033	-45.740	0.400	0.198
-387.019	114.939	-0.086	-0.105
-386.004	21.324	-0.127	-0.103
-384.990	-200.000	0.033	-0.298
-383.975	-60.687	0.296	0.126
-382.960	2.084	-0.078	0.056
-381.946	84.767	0.092	0.100
-380.931	-92.563	-0.158	-0.044
-379.917	99.116	0.116	0.134
-378.902	800.000	0.077	-0.213
-377.888	-200.000	-0.073	-0.351
-376.873	288.622	0.102	-0.185
-375.858	-200.000	0.006	0.130
-374.844	133.031	-0.036	0.046
-373.829	-200.000	-0.073	-0.348
-372.815	121.940	-0.155	-0.194
-371.800	-38.549	0.171	-0.090
-370.785	30.619	0.190	0.162
-369.771	692.191	0.093	0.244
-368.756	-0.077	-0.170	0.121
-367.742	-154.089	-0.231	0.016
-366.727	800.000	0.062	0.255
-365.712	90.920	-0.252	-0.282
-364.698	-200.000	0.015	-0.074
-363.683	473.772	0.147	0.332
-362.669	39.173	-0.126	0.113
-361.654	-51.529	0.337	-0.157
-360.639	-136.273	0.374	0.044
-359.625	175.715	-0.063	0.091
-358.610	-36.801	-0.314	-0.168
-357.596	-140.182	0.080	-0.008
-356.581	462.107	0.082	0.183
-355.566	-118.984	-0.248	0.043
-354.552	33.692	-0.147	0.128
-353.537	-200.000	0.035	-0.220
-352.523	-11.038	0.129	0.085
-351.508	800.000	0.054	0.174
-350.493	-200.000	0.038	0.307
-349.479	-200.000	-0.034	0.237
-348.464	50.547	0.094	0.089
-347.450	800.000	0.035	0.104
-346.435	-137.415	-0.143	-0.016
-345.420	-93.959	0.148	-0.041
-344.406	-7.830	0.169	0.114
-343.391	-54.776	0.091	-0.041
-342.377	208.132	0.081	0.127
-341.362	663.963	0.035	0.089
-340.348	248.990	0.213	-0.360
-339.333	38.504	-0.119	-0.105
-338.318	-5.702	0.108	0.074
-337.304	-200.000	0.002	0.132
-336.289	128.216	0.199	0.253
-335.275	-128.345	-0.093	0.013
-334.260	84.369	0.322	0.352
-333.245	-150.516	-0.270	-0.021
-332.231	444.743	-0.023	-0.051
-331.216	-200.000	-0.029	-0.144
-330.202	800.000	-0.053	0.221
-329.187	155.239	0.118	-0.162
-328.172	800.000	-0.082	-0.321
-327.158	-12.129	0.028	-0.018
-326.143	24.661	0.232	-0.192
-325.129	-92.243	-0.230	-0.065
-324.114	800.000	-0.046	0.132
-323.099	-55.281	-0.089	0.040
-322.085	800.000	0.087	-0.310
-321.070	-169.917	-0.358	-0.013
-320.056	-93.067	-0.239	0.066
-319.041	-200.000	0.016	-0.144
-318.026	-97.893	0.161	-0.042
-317.012	-95.108	0.270	-0.073
-315.997	-68.802	-0.213	-0.082
-314.983	200.786	0.065	-0.099
-313.968	186.709	-0.114	-0.169
-312.953	-84.468	0.323	0.102
-311.939	-88.642	0.174	0.052
-310.924	-200.000	-0.044	0.212
-309.910	800.000	-0.048	0.145
-308.895	250.870	0.144	-0.245
-307.880	27.156	0.445	-0.373
-306.866	800.000	-0.173	-0.577
-305.851	-59.617	0.160	-0.069
-304.837	-78.525	-0.253	-0.086
-303.822	-200.000	-0.022	0.162
-302.807	-87.525	-0.236	0.071
-301.793	237.754	0.010	0.016
-300.778	-158.122	-0.119	0.007
-299.764	45.111	-0.274	-0.251
-298.749	-200.000	-0.061	-0.313
-297.735	36.296	0.080	-0.071
-296.720	-45.859	-0.173	0.085
-295.705	10.282	0.156	0.118
-294.691	-89.221	0.179	0.053
-293.676	469.841	0.181	-0.404
-292.662	11.584	0.115	0.088
-291.647	-160.831	-0.022	0.001
-290.632	8.657	-0.284	-0.213
-289.618	800.000	-0.082	-0.276
-288.603	-200.000	0.046	0.292
-287.589	103.413	0.215	-0.251
-286.574	32.513	-0.046	-0.040
-285.559	-15.958	-0.074	0.047
-284.545	468.819	-0.141	-0.316
-283.530	800.000	-0.039	-0.128
-282.516	-117.425	0.217	0.039
-281.501	625.964	0.126	-0.318
-280.486	367.090	0.107	-0.215
-279.472	-140.225	0.263	0.027
-278.457	217.231	-0.212	-0.337
-277.443	-174.754	-0.268	0.008
-276.428	-200.000	0.056	0.271
-275.413	187.267	0.206	0.306
-274.399	-200.000	0.002	0.147
-273.384	459.393	-0.096	0.212
-272.370	175.783	0.097	0.140
-271.355	112.495	0.152	-0.184
-270.340	395.718	-0.019	-0.040
-269.326	-148.942	0.379	-0.030
-268.311	-146.275	0.063	-0.006
-267.297	5.523	0.218	-0.160
-266.282	473.774	-0.126	0.282
-265.267	-200.000	0.035	0.000
-264.253	-95.396	0.293	0.078
-263.238	30.627	0.044	-0.037
-262.224	-98.294	0.082	0.021
-261.209	-83.765	0.217	0.069
-260.195	-200.000	-0.002	-0.105
-259.180	133.190	-0.201	-0.258
-258.165	511.560	-0.089	0.207
-257.151	330.520	0.080	0.153
-256.136	-200.000	-0.001	0.299
-255.122	27.268	0.168	-0.140
-254.107	-111.571	-0.230	-0.046
-253.092	-200.000	-0.032	0.259
-252.078	355.862	0.180	0.355
-251.063	-99.514	0.241	-0.060
-250.049	642.131	-0.087	0.221
-249.034	383.485	-0.138	-0.282
-248.019	-200.000	-0.012	0.072
-247.005	-200.000	0.020	0.166
-245.990	-35.789	-0.210	-0.113
-244.976	62.293	-0.030	-0.030
-243.961	130.463	-0.095	-0.121
-242.946	404.770	-0.120	-0.252
-241.932	-200.000	0.018	-0.148
-240.917	-45.218	0.265	0.131
-239.903	-200.000	0.022	0.161
-238.888	-200.000	-0.031	0.326
-237.873	-200.000	0.089	0.398
-236.859	33.860	0.224	0.194
-235.844	-200.000	0.001	-0.350
-234.830	108.703	0.207	0.246
-233.815	486.381	-0.022	-0.051
-232.800	15.937	0.291	-0.228
-231.786	403.595	-0.262	-0.548
-230.771	142.612	-0.059	0.077
-229.757	-200.000	-0.062	-0.305
-228.742	149.307	0.123	-0.165
-227.727	-49.766	0.055	0.026
-226.713	-53.022	0.303	0.138
-225.698	-50.308	-0.105	0.049
-224.684	-200.000	0.030	-0.150
-223.669	-63.324	-0.111	0.045
-222.655	800.000	-0.079	-0.228
-221.640	312.910	-0.077	-0.145
-220.625	172.371	-0.287	-0.410
-219.611	532.685	0.065	-0.153
-218.596	161.750	-0.182	0.253
-217.582	-31.592	0.197	0.110
-216.567	153.070	-0.207	-0.281
-215.552	161.618	-0.088	0.122
-214.538	-135.998	-0.147	-0.017
-213.523	-25.259	0.251	0.148
-212.509	-141.237	0.254	-0.026
-211.494	22.177	-0.198	0.160
-210.479	48.427	-0.088	-0.081
-209.465	90.019	0.128	-0.141
-208.450	0.194	-0.116	-0.082
-207.436	-200.000	0.016	0.123
-206.421	-84.796	-0.276	0.086
-205.406	-200.000	-0.016	0.138
-204.392	-200.000	0.005	-0.037
-203.377	23.332	-0.070	-0.057
-202.363	38.518	-0.072	0.064
-201.348	-50.776	-0.327	-0.152
-200.333	-175.744	0.084	-0.002
-199.319	800.000	0.145	-0.423
-198.304	-123.068	-0.187	0.030
-197.290	-200.000	-0.014	0.166
-196.275	-130.885	-0.171	0.023
-195.260	-128.444	-0.203	0.029
-194.246	-200.000	-0.074	-0.373
-193.231	-200.000	0.012	-0.139
-192.217	279.498	0.101	0.178
-191.202	-76.995	0.246	-0.085
-190.187	340.751	-0.036	0.071
-189.173	-120.797	0.428	-0.072
-188.158	416.361	-0.089	0.188
-187.144	-127.559	0.016	-0.002
-186.129	-200.000	0.011	0.138
-185.114	-133.510	0.205	-0.026
-184.100	37.369	-0.308	0.271
-183.085	-34.570	-0.105	0.057
-182.071	-45.512	0.135	-0.066
-181.056	-127.108	0.326	-0.047
-180.042	-200.000	-0.004	0.409
-179.027	185.930	0.146	-0.215
-178.012	215.258	0.119	0.188
-176.998	-79.286	-0.085	0.029
-175.983	-104.639	-0.158	0.036
-174.969	340.726	-0.090	-0.173
-173.954	-3.206	0.061	-0.042
-172.939	446.765	-0.123	-0.267
-171.925	-155.816	-0.175	0.011
-170.910	-200.000	-0.072	0.458
-169.896	31.792	-0.188	0.160
-168.881	189.669	0.170	0.253
-167.866	493.190	-0.074	0.169
-166.852	201.980	0.250	0.382
-165.837	34.743	0.169	-0.146
-164.823	103.234	-0.151	0.176
-163.808	45.976	-0.287	-0.263
-162.793	55.174	0.130	-0.124
-161.779	-195.732	-0.184	0.001
-160.764	800.000	-0.078	0.221
-159.750	-100.497	-0.169	0.041
-158.735	-140.496	0.218	-0.022
-157.720	-111.212	0.203	0.041
-156.706	800.000	-0.013	0.053
-155.691	-15.044	0.093	-0.059
-154.677	-79.425	-0.220	0.074
-153.662	-41.402	-0.253	0.129
-152.647	-146.178	-0.376	-0.033
-151.633	168.729	-0.215	-0.303
-150.618	-112.768	-0.091	-0.018
-149.604	176.276	0.057	0.082
-148.589	9.482	0.144	0.108
-147.574	-34.933	0.158	-0.085
-146.560	33.495	0.361	0.311
-145.545	-28.616	-0.153	0.087
-144.531	-112.391	0.224	0.044
-143.516	13.513	0.196	-0.150
-142.502	263.814	0.118	0.204
-141.487	264.382	0.013	-0.023
-140.472	-85.253	-0.274	0.085
-139.458	-128.125	-0.116	0.016
-138.443	44.419	0.093	-0.085
-137.429	-75.272	-0.438	-0.155
-136.414	-200.000	0.033	0.220
-135.399	-71.961	-0.154	-0.057
-134.385	-200.000	-0.010	0.057
-133.370	-77.146	-0.270	0.093
-132.356	4.989	0.102	-0.074
-131.341	-115.004	-0.183	0.034
-130.326	161.433	0.076	-0.106
-129.312	34.441	0.236	0.204
-128.297	297.124	0.064	0.116
-127.283	94.354	0.168	-0.188
-126.268	-200.000	-0.034	0.239
-125.253	-70.020	-0.251	0.095
-124.239	57.128	0.279	-0.269
-123.224	-200.000	0.017	-0.332
-122.210	800.000	-0.157	0.439
-121.195	-15.106	0.084	-0.053
