DTS Sentinel unit serial number:	SN413079Multiplexer serial number:	ORYXHardware model number:	OX4-SRSoftware version number:	ORYX F/W v4.00 Oryx Data Collector v3.7.2.0data status	okinstallation	princeton_trtdifferential loss correction	single-endedforward channel	channel 4reverse channel	N/Adate	2019/09/11time	18:59:10forward acquisition time	60.00reverse acquisition time	0.00gamma	496.2192k internal	0.2285k external	0.2285temperature offset calibration	1.0031default loss term (dB/km)	0.3790temperature slope calibration	1.0000multiplexer offset coefficient	1.0000multiplexer slope coefficient	1.0000fibre end	0.00T internal ref (°C)	42.37T ext. ref 1 (°C)	1.26T ext. ref 2 (°C)	34.68length (m)	temperature (°C)	Stokes	anti-Stokes-747.200	-35.520	0.298	0.166
-746.185	-200.000	-0.006	0.227
-745.171	-160.138	0.176	-0.010
-744.156	34.731	0.140	-0.126
-743.142	-6.192	-0.100	0.070
-742.127	-200.000	0.001	0.203
-741.112	-200.000	-0.047	-0.325
-740.098	-100.878	0.154	-0.039
-739.083	800.000	-0.043	0.174
-738.069	530.923	0.074	0.179
-737.054	-76.596	0.163	-0.059
-736.039	-118.797	-0.284	-0.051
-735.025	495.061	0.125	0.294
-734.010	-76.469	-0.063	0.023
-732.996	-97.692	0.206	0.055
-731.981	-120.038	0.284	-0.050
-730.966	226.067	-0.066	-0.110
-729.952	81.128	-0.170	-0.189
-728.937	-120.423	-0.297	-0.052
-727.923	665.815	-0.044	0.117
-726.908	12.051	-0.322	-0.254
-725.894	-110.379	-0.201	-0.043
-724.879	168.406	-0.185	-0.270
-723.864	77.452	-0.083	-0.090
-722.850	415.169	-0.022	0.047
-721.835	-38.157	-0.170	-0.092
-720.821	158.189	-0.015	0.021
-719.806	315.381	-0.050	0.096
-718.791	-34.791	0.024	0.013
-717.777	-148.036	-0.338	0.029
-716.762	-6.837	0.111	-0.078
-715.748	165.216	0.170	0.246
-714.733	-52.296	-0.192	0.091
-713.718	-74.173	-0.335	-0.124
-712.704	-54.200	-0.202	-0.094
-711.689	88.401	-0.190	0.216
-710.675	-56.706	-0.401	-0.182
-709.660	-146.250	-0.321	0.029
-708.645	-54.678	0.100	-0.047
-707.631	-66.000	0.207	-0.085
-706.616	-200.000	0.005	0.054
-705.602	-200.000	0.004	-0.121
-704.587	-51.804	-0.200	-0.095
-703.572	-13.609	-0.223	-0.148
-702.558	-0.451	-0.203	-0.148
-701.543	492.775	0.106	-0.250
-700.529	-87.811	0.426	-0.132
-699.514	201.585	-0.111	-0.176
-698.499	499.144	-0.078	-0.183
-697.485	247.959	0.198	-0.343
-696.470	-161.849	0.054	0.003
-695.456	-150.778	0.288	0.022
-694.441	-200.000	-0.001	-0.046
-693.426	-200.000	-0.017	0.524
-692.412	800.000	0.042	-0.119
-691.397	800.000	0.055	0.172
-690.383	-157.767	-0.341	-0.021
-689.368	164.214	0.039	-0.056
-688.354	8.167	-0.142	0.109
-687.339	-200.000	0.005	-0.120
-686.324	-200.000	0.037	0.283
-685.310	545.462	-0.051	-0.124
-684.295	-13.210	-0.106	0.070
-683.281	153.913	-0.089	-0.125
-682.266	-32.491	0.153	-0.087
-681.251	-88.555	-0.164	-0.050
-680.237	800.000	-0.090	0.339
-679.222	-51.981	-0.368	0.175
-678.208	-106.596	-0.147	-0.034
-677.193	-125.392	-0.107	-0.017
-676.178	-51.103	-0.150	-0.072
-675.164	187.641	-0.258	-0.395
-674.149	734.997	0.085	0.232
-673.135	-115.763	0.190	-0.036
-672.120	-110.355	-0.102	-0.022
-671.105	104.648	0.148	0.178
-670.091	104.240	0.266	0.321
-669.076	-175.123	0.121	0.003
-668.062	69.102	-0.195	0.205
-667.047	-200.000	-0.020	0.216
-666.032	800.000	0.047	0.167
-665.018	2.873	0.142	-0.105
-664.003	289.166	-0.131	-0.243
-662.989	-49.826	0.121	-0.059
-661.974	206.920	0.106	-0.169
-660.959	135.259	-0.088	-0.116
-659.945	-70.082	0.209	-0.082
-658.930	-55.974	0.238	0.109
-657.916	15.828	0.156	-0.125
-656.901	-118.979	0.026	-0.005
-655.886	201.320	-0.091	-0.143
-654.872	-71.994	0.074	0.028
-653.857	-72.558	-0.197	0.075
-652.843	78.270	0.105	-0.115
-651.828	67.110	0.126	0.131
-650.814	29.494	-0.068	0.059
-649.799	-63.578	0.072	-0.030
-648.784	-110.149	-0.122	0.026
-647.770	-200.000	0.005	0.155
-646.755	-165.782	-0.199	0.009
-645.741	-47.491	0.272	0.135
-644.726	7.894	0.214	-0.164
-643.711	-13.484	0.222	-0.147
-642.697	-86.277	-0.089	-0.028
-641.682	-73.788	0.089	-0.033
-640.668	197.259	0.036	-0.057
-639.653	173.288	0.029	0.043
-638.638	-89.482	0.282	0.085
-637.624	57.692	0.300	-0.300
-636.609	800.000	0.061	-0.228
-635.595	800.000	0.044	0.148
-634.580	5.368	0.261	-0.197
-633.565	-67.791	0.220	-0.088
-632.551	25.602	0.132	-0.112
-631.536	-34.732	-0.278	-0.156
-630.522	693.403	0.115	-0.307
-629.507	188.106	-0.157	0.240
-628.492	-200.000	-0.054	0.247
-627.478	78.057	-0.126	-0.138
-626.463	-58.792	-0.176	0.078
-625.449	-86.984	-0.068	-0.021
-624.434	516.672	-0.031	-0.074
-623.419	800.000	0.076	0.324
-622.405	800.000	-0.016	0.064
-621.390	-99.891	-0.221	-0.056
-620.376	-200.000	-0.047	0.292
-619.361	-102.183	-0.364	-0.089
-618.346	148.107	-0.140	-0.193
-617.332	-200.000	0.035	-0.188
-616.317	-63.691	0.268	-0.112
-615.303	710.377	0.055	-0.149
-614.288	-194.687	-0.107	-0.001
-613.273	-39.004	0.111	-0.060
-612.259	117.296	-0.124	-0.155
-611.244	177.073	-0.021	-0.032
-610.230	-150.554	-0.137	0.011
-609.215	-40.160	0.244	0.130
-608.201	-164.836	0.478	-0.022
-607.186	-6.834	0.167	0.116
-606.171	-36.672	-0.306	0.168
-605.157	-52.912	-0.281	-0.132
-604.142	231.012	-0.132	0.221
-603.128	-26.366	-0.195	-0.117
-602.113	24.213	-0.100	0.084
-601.098	-86.649	-0.357	-0.112
-600.084	800.000	-0.061	-0.254
-599.069	102.681	0.311	0.372
-598.055	-200.000	0.000	0.173
-597.040	-80.450	-0.088	-0.030
-596.025	-200.000	-0.033	-0.233
-595.011	-200.000	-0.003	-0.091
-593.996	158.300	-0.109	0.154
-592.982	800.000	0.036	-0.138
-591.967	670.238	-0.102	0.271
-590.952	589.116	-0.158	0.398
-589.938	-200.000	0.022	-0.301
-588.923	-135.950	0.158	0.019
-587.909	-114.932	0.157	0.030
-586.894	25.773	0.151	-0.128
-585.879	800.000	0.053	0.178
-584.865	-102.903	-0.156	-0.038
-583.850	-130.369	-0.378	0.052
-582.836	318.659	0.082	-0.159
-581.821	800.000	0.059	-0.203
-580.806	-27.701	-0.220	0.130
-579.792	800.000	-0.033	-0.146
-578.777	800.000	0.058	0.217
-577.763	-166.356	-0.238	-0.010
-576.748	-111.806	-0.175	0.036
-575.733	63.536	0.072	-0.074
-574.719	-25.918	-0.258	0.155
-573.704	-188.420	-0.346	-0.004
-572.690	657.231	0.083	0.219
-571.675	-111.120	0.273	0.057
-570.661	-144.938	-0.135	0.013
-569.646	-40.874	-0.169	-0.089
-568.631	-200.000	0.012	-0.165
-567.617	539.715	0.122	0.296
-566.602	45.092	0.178	0.167
-565.588	768.512	-0.108	-0.301
-564.573	-56.041	0.173	-0.079
-563.558	387.508	-0.101	-0.213
-562.544	79.616	-0.201	-0.220
-561.529	800.000	0.022	-0.074
-560.515	-172.139	-0.158	-0.005
-559.500	-200.000	-0.027	-0.130
-558.485	9.581	0.160	-0.123
-557.471	-106.835	-0.167	0.038
-556.456	592.786	-0.056	-0.141
-555.442	-22.838	-0.098	0.061
-554.427	-51.626	-0.082	-0.039
-553.412	31.944	-0.150	0.132
-552.398	-200.000	-0.000	0.029
-551.383	-200.000	0.004	0.068
-550.369	-200.000	-0.010	0.118
-549.354	72.143	0.199	-0.211
-548.339	160.534	-0.187	-0.265
-547.325	-27.462	0.105	0.062
-546.310	571.575	-0.108	0.268
-545.296	-200.000	-0.039	-0.353
-544.281	-32.330	0.477	-0.271
-543.266	792.604	-0.032	-0.088
-542.252	227.952	0.122	0.203
-541.237	-125.737	-0.162	0.025
-540.223	-200.000	-0.022	0.117
-539.208	117.371	-0.084	0.106
-538.193	65.740	-0.207	0.213
-537.179	112.781	0.078	-0.096
-536.164	23.571	-0.099	-0.083
-535.150	-58.420	0.272	-0.120
-534.135	149.873	0.130	0.179
-533.121	-75.110	-0.266	0.097
-532.106	-82.360	-0.189	0.063
-531.091	376.038	-0.065	0.135
-530.077	28.109	0.173	-0.149
-529.062	-58.769	0.302	-0.133
-528.048	182.202	0.130	-0.194
-527.033	-44.274	-0.128	0.065
-526.018	-100.733	0.211	0.053
-525.004	-200.000	-0.016	-0.104
-523.989	-54.412	-0.032	0.015
-522.975	407.465	-0.189	0.407
-521.960	-85.663	0.113	-0.036
-520.945	-200.000	0.004	-0.138
-519.931	-200.000	0.032	0.216
-518.916	-160.662	0.116	0.006
-517.902	-200.000	-0.021	0.144
-516.887	-45.525	0.239	0.121
-515.872	56.564	0.111	-0.110
-514.858	-20.351	-0.301	0.189
-513.843	341.028	0.134	0.265
-512.829	-78.830	0.341	0.118
-511.814	-173.299	0.268	0.008
-510.799	-200.000	-0.004	-0.057
-509.785	-200.000	-0.048	-0.432
-508.770	-26.697	0.173	0.103
-507.756	-200.000	-0.001	-0.217
-506.741	-200.000	-0.034	0.220
-505.726	148.688	0.225	0.309
-504.712	-140.623	-0.114	-0.012
-503.697	-172.809	0.144	0.005
-502.683	-97.095	0.024	0.006
-501.668	132.503	-0.168	-0.221
-500.653	7.908	0.318	-0.242
-499.639	-142.568	-0.202	-0.020
-498.624	599.147	0.114	-0.288
-497.610	-40.955	0.223	-0.117
-496.595	-25.685	-0.159	0.095
-495.581	14.391	0.109	-0.087
-494.566	-85.485	-0.115	0.036
-493.551	-98.855	-0.142	0.037
-492.537	-200.000	-0.090	0.418
-491.522	-160.374	0.390	0.021
-490.508	-40.118	-0.198	-0.105
-489.493	-50.525	0.230	0.110
-488.478	800.000	-0.120	0.375
-487.464	-74.507	0.063	0.023
-486.449	-100.569	0.250	-0.063
-485.435	800.000	0.020	0.078
-484.420	800.000	0.079	-0.333
-483.405	-130.701	0.179	-0.024
-482.391	-53.480	0.280	-0.130
-481.376	-141.837	-0.150	-0.015
-480.362	-200.000	0.054	-0.284
-479.347	51.942	0.226	-0.219
-478.332	119.066	-0.062	0.077
-477.318	54.445	0.088	-0.086
-476.303	-176.085	-0.106	0.003
-475.289	88.271	-0.162	-0.183
-474.274	-0.671	-0.254	-0.183
-473.259	-2.262	-0.192	-0.137
-472.245	34.280	-0.238	-0.211
-471.230	122.010	0.025	-0.032
-470.216	94.630	-0.026	-0.030
-469.201	800.000	0.035	-0.150
-468.186	-147.360	0.297	-0.026
-467.172	198.308	0.113	-0.175
-466.157	-200.000	-0.016	0.120
-465.143	37.190	-0.199	0.179
-464.128	64.277	0.188	-0.192
-463.113	0.875	-0.365	0.266
-462.099	38.030	-0.053	0.048
-461.084	-1.734	-0.286	0.204
-460.070	-200.000	-0.010	0.138
-459.055	-200.000	-0.018	0.203
-458.040	-200.000	0.018	-0.103
-457.026	-77.503	-0.284	-0.100
-456.011	800.000	0.091	-0.307
-454.997	0.257	0.253	0.183
-453.982	-125.134	-0.033	-0.005
-452.968	72.886	-0.214	-0.227
-451.953	-71.399	-0.121	-0.046
-450.938	88.420	-0.118	0.133
-449.924	74.054	-0.054	0.057
-448.909	800.000	-0.152	-0.659
-447.895	-200.000	0.047	0.271
-446.880	490.423	-0.100	0.232
-445.865	204.833	-0.105	0.165
-444.851	-78.891	-0.170	0.059
-443.836	-110.014	0.242	0.051
-442.822	-129.603	-0.085	-0.012
-441.807	9.429	-0.059	-0.045
-440.792	-200.000	-0.019	-0.224
-439.778	800.000	0.059	0.220
-438.763	-200.000	0.030	-0.177
-437.749	-42.780	-0.024	-0.012
-436.734	192.757	-0.173	-0.265
-435.719	151.454	-0.145	0.201
-434.705	35.999	0.255	-0.228
-433.690	-144.242	-0.037	-0.004
-432.676	-88.854	0.194	-0.058
-431.661	-200.000	0.025	-0.457
-430.646	298.489	0.078	-0.146
-429.632	187.451	-0.129	-0.195
-428.617	-120.748	0.499	-0.086
-427.603	229.199	0.051	-0.084
-426.588	25.042	0.072	0.060
-425.573	99.295	0.063	-0.074
-424.559	-200.000	0.058	-0.276
-423.544	-200.000	-0.036	-0.232
-422.530	-30.297	0.054	-0.031
-421.515	81.483	0.070	-0.077
-420.500	800.000	-0.034	-0.137
-419.486	57.917	0.373	-0.370
-418.471	-118.093	-0.178	0.032
-417.457	-51.566	-0.300	-0.142
-416.442	62.658	0.181	0.183
-415.428	-98.310	0.413	-0.107
-414.413	800.000	-0.059	-0.211
-413.398	-58.182	0.190	0.084
-412.384	-200.000	-0.023	0.103
-411.369	-39.110	-0.299	0.160
-410.355	-200.000	0.313	0.001
-409.340	37.222	0.274	-0.246
-408.325	138.528	-0.094	-0.125
-407.311	800.000	0.028	0.093
-406.296	-200.000	0.005	0.259
-405.282	37.762	-0.104	0.094
-404.267	-135.715	0.439	-0.053
-403.252	384.291	0.136	0.283
-402.238	800.000	0.057	0.170
-401.223	800.000	0.010	0.035
-400.209	174.444	0.086	-0.125
-399.194	57.599	-0.235	-0.233
-398.179	-147.351	0.326	0.028
-397.165	197.573	0.136	-0.211
-396.150	567.838	-0.192	0.472
-395.136	147.822	0.088	0.121
-394.121	-34.201	0.327	0.182
-393.106	54.260	-0.116	-0.114
-392.092	800.000	-0.045	0.150
-391.077	78.091	0.177	0.191
-390.063	194.902	-0.238	-0.365
-389.048	800.000	0.070	-0.286
-388.033	-200.000	-0.004	-0.199
-387.019	-82.501	-0.179	-0.059
-386.004	-200.000	-0.056	0.379
-384.990	263.760	-0.137	0.242
-383.975	98.860	-0.078	0.091
-382.960	600.408	0.061	-0.153
-381.946	-14.777	-0.352	-0.228
-380.931	159.120	0.232	0.327
-379.917	-200.000	0.037	0.244
-378.902	-49.766	-0.149	0.072
-377.888	-200.000	-0.057	-0.275
-376.873	258.696	-0.149	0.260
-375.858	-39.282	0.017	0.009
-374.844	-9.269	-0.145	0.098
-373.829	800.000	0.002	0.008
-372.815	-103.251	0.125	-0.030
-371.800	-67.471	0.300	0.119
-370.785	22.167	0.256	-0.211
-369.771	-200.000	0.008	-0.060
-368.756	-70.275	-0.105	0.040
-367.742	1.290	-0.054	-0.039
-366.727	-200.000	0.017	0.140
-365.712	39.182	-0.068	0.061
-364.698	-83.504	-0.037	0.012
-363.683	-200.000	0.025	-0.144
-362.669	88.162	0.139	0.156
-361.654	-200.000	0.022	0.234
-360.639	-0.304	0.180	-0.130
-359.625	800.000	0.027	-0.112
-358.610	-200.000	-0.005	0.200
-357.596	-200.000	0.025	0.118
-356.581	-55.922	0.068	0.031
-355.566	146.389	-0.195	0.265
-354.552	190.939	-0.254	0.386
-353.537	-200.000	-0.018	0.139
-352.523	800.000	-0.069	-0.213
-351.508	-200.000	0.001	-0.161
-350.493	195.798	-0.043	-0.066
-349.479	-200.000	-0.011	0.076
-348.464	132.003	0.143	0.185
-347.450	-200.000	0.025	0.337
-346.435	89.215	0.134	0.151
-345.420	-200.000	0.068	-0.365
-344.406	22.459	-0.335	0.276
-343.391	-94.973	0.271	-0.074
-342.377	99.342	0.042	-0.049
-341.362	-53.036	-0.324	0.151
-340.348	53.450	0.214	-0.207
-339.333	70.131	-0.135	0.141
-338.318	800.000	0.065	0.222
-337.304	-111.370	0.072	-0.015
-336.289	-41.028	0.195	0.102
-335.275	-200.000	0.013	-0.077
-334.260	65.835	-0.210	-0.215
-333.245	-34.585	-0.398	-0.220
-332.231	-200.000	0.045	-0.210
-331.216	-200.000	0.099	-0.462
-330.202	-170.377	0.193	0.007
-329.187	-200.000	0.015	-0.131
-328.172	-182.595	0.111	-0.002
-327.158	-52.291	0.360	-0.168
-326.143	800.000	0.063	0.201
-325.129	155.861	-0.257	0.358
-324.114	-51.785	0.022	0.011
-323.099	442.652	0.080	-0.177
-322.085	463.800	0.061	-0.138
-321.070	462.865	-0.168	-0.378
-320.056	173.875	0.139	0.203
-319.041	-200.000	-0.032	0.206
-318.026	-70.892	0.312	-0.119
-317.012	-36.055	-0.172	-0.094
-315.997	7.754	-0.188	-0.142
-314.983	331.788	0.054	-0.106
-313.968	239.446	0.260	0.436
-312.953	42.488	0.203	0.186
-311.939	800.000	0.073	0.240
-310.924	224.605	-0.052	-0.085
-309.910	-48.507	-0.172	0.084
-308.895	207.824	0.042	-0.066
-307.880	419.418	-0.109	-0.235
-306.866	-33.399	0.129	-0.072
-305.851	7.275	0.064	-0.048
-304.837	-200.000	-0.012	0.127
-303.822	-43.063	-0.178	-0.091
-302.807	-58.873	0.203	-0.089
-301.793	-200.000	0.003	-0.185
-300.778	-70.429	-0.167	0.064
-299.764	-200.000	-0.012	0.106
-298.749	150.161	-0.072	-0.098
-297.735	800.000	0.022	-0.075
-296.720	176.833	-0.047	-0.070
-295.705	-200.000	-0.034	0.293
-294.691	41.218	0.243	0.222
-293.676	-200.000	0.007	0.129
-292.662	-200.000	0.032	0.160
-291.647	-133.615	-0.333	0.042
-290.632	74.630	0.161	0.171
-289.618	321.133	-0.096	-0.184
-288.603	-200.000	-0.008	-0.409
-287.589	-85.519	0.076	0.024
-286.574	-100.686	-0.254	0.063
-285.559	-29.096	0.250	0.145
-284.545	47.094	0.047	0.044
-283.530	-131.702	-0.262	0.035
-282.516	-156.338	-0.202	-0.013
-281.501	709.603	0.070	-0.187
-280.486	-163.352	-0.213	-0.010
-279.472	-200.000	-0.019	-0.104
-278.457	-114.146	0.106	-0.021
-277.443	-13.940	-0.112	-0.073
-276.428	286.502	0.101	-0.183
-275.413	87.304	-0.057	0.064
-274.399	-55.134	0.043	0.019
-273.384	-200.000	0.008	0.585
-272.370	89.776	0.032	0.036
-271.355	-186.009	0.327	-0.005
-270.340	-91.549	0.216	0.062
-269.326	621.359	0.105	0.267
-268.311	-20.164	-0.148	0.092
-267.297	-64.672	-0.089	-0.036
-266.282	203.231	0.061	0.095
-265.267	241.930	0.084	-0.141
-264.253	-104.448	0.451	0.105
-263.238	-58.932	0.329	0.143
-262.224	-38.630	0.193	-0.103
-261.209	-200.000	-0.066	-0.307
-260.195	-6.581	0.065	0.044
-259.180	710.522	0.051	-0.136
-258.165	-200.000	-0.020	-0.229
-257.151	615.686	0.023	-0.058
-256.136	-200.000	-0.022	0.121
-255.122	-68.819	-0.224	-0.087
-254.107	800.000	-0.109	-0.337
-253.092	-52.590	0.185	-0.086
-252.078	94.648	-0.118	0.135
-251.063	163.704	-0.091	-0.130
-250.049	366.199	0.120	0.243
-249.034	-200.000	0.014	-0.109
-248.019	-115.446	-0.106	0.020
-247.005	57.133	0.158	0.156
-245.990	380.483	-0.060	-0.124
-244.976	51.804	0.188	0.180
-243.961	-107.131	0.165	-0.037
-242.946	-60.294	-0.184	-0.079
-241.932	492.974	-0.049	-0.114
-240.917	-39.215	-0.184	0.098
-239.903	-63.387	0.118	0.049
-238.888	22.456	-0.088	-0.072
-237.873	-200.000	0.099	-0.519
-236.859	443.394	-0.105	0.231
-235.844	-200.000	0.021	0.168
-234.830	-68.311	-0.065	0.025
-233.815	141.757	0.042	0.056
-232.800	679.126	0.117	0.305
-231.786	-49.351	-0.289	-0.139
-230.771	-200.000	-0.015	0.228
-229.757	303.130	-0.077	0.143
-228.742	70.541	0.140	-0.146
-227.727	146.534	-0.151	0.204
-226.713	-45.450	-0.229	-0.114
-225.698	-38.522	0.064	-0.034
-224.684	-37.220	0.218	0.117
-223.669	-31.209	0.076	0.043
-222.655	-200.000	0.006	-0.163
-221.640	5.311	-0.044	-0.032
-220.625	228.041	0.089	0.145
-219.611	-36.521	0.320	0.173
-218.596	11.460	-0.232	-0.179
-217.582	-3.086	0.040	0.028
-216.567	-58.044	-0.277	-0.122
-215.552	-120.636	-0.201	0.034
-214.538	-200.000	-0.043	0.191
-213.523	800.000	0.098	0.329
-212.509	-10.707	0.099	0.066
-211.494	-90.755	0.128	-0.037
-210.479	21.699	0.134	-0.110
-209.465	298.524	-0.220	0.407
-208.450	800.000	-0.141	-0.463
-207.436	800.000	0.060	-0.243
-206.421	-111.209	-0.211	0.043
-205.406	-63.520	0.037	-0.015
-204.392	336.275	0.080	0.157
-203.377	-200.000	-0.131	0.000
-202.363	800.000	0.039	0.166
-201.348	12.600	0.119	0.093
-200.333	800.000	0.121	0.355
-199.319	75.764	0.151	0.160
-198.304	800.000	-0.086	-0.370
-197.290	-200.000	0.052	-0.243
-196.275	-200.000	0.013	0.228
-195.260	-1.514	-0.315	-0.224
-194.246	86.606	-0.199	0.221
-193.231	-26.142	0.190	-0.112
-192.217	6.393	0.205	-0.153
-191.202	122.090	-0.126	0.158
-190.187	140.231	0.161	-0.213
-189.173	36.513	-0.195	0.173
-188.158	-109.133	-0.327	-0.070
-187.144	-133.048	0.128	-0.016
-186.129	-31.693	0.550	0.310
-185.114	800.000	-0.107	0.402
-184.100	-43.475	-0.364	0.184
-183.085	-87.269	-0.283	-0.086
-182.071	144.176	0.030	0.041
-181.056	-200.000	0.025	0.156
-180.042	45.328	-0.139	-0.128
-179.027	-200.000	-0.000	0.359
-178.012	737.360	-0.139	0.375
-176.998	-200.000	0.002	-0.040
-175.983	310.427	-0.041	0.077
-174.969	-200.000	-0.031	0.279
-173.954	-25.436	-0.177	0.105
-172.939	-28.863	-0.130	-0.075
-171.925	-200.000	0.015	-0.243
-170.910	180.165	0.031	-0.046
-169.896	30.776	0.266	-0.229
-168.881	-103.708	-0.473	-0.111
-167.866	-1.699	0.121	-0.086
-166.852	-200.000	-0.055	0.287
-165.837	-18.399	-0.138	0.087
-164.823	-170.327	-0.340	0.012
-163.808	-200.000	0.013	0.150
-162.793	291.647	-0.169	0.309
-161.779	-52.874	-0.267	0.124
-160.764	-200.000	0.049	-0.236
-159.750	-200.000	-0.009	-0.126
-158.735	47.416	-0.131	-0.122
-157.720	313.217	-0.129	0.243
-156.706	632.013	-0.090	0.230
-155.691	132.825	0.199	-0.258
-154.677	-152.659	-0.093	-0.007
-153.662	204.606	-0.140	-0.218
-152.647	-90.935	-0.092	0.027
-151.633	-200.000	0.007	-0.117
-150.618	-51.408	0.256	-0.120
-149.604	-49.575	-0.203	0.097
-148.589	-200.000	-0.015	0.246
-147.574	609.189	0.096	0.240
-146.560	800.000	0.151	-0.480
-145.545	71.255	0.296	-0.308
-144.531	16.501	0.303	-0.240
-143.516	172.503	-0.143	0.206
-142.502	531.093	-0.179	-0.425
-141.487	-94.378	-0.105	-0.029
-140.472	-157.872	-0.337	0.020
-139.458	-100.593	0.154	0.038
-138.443	-200.000	-0.020	-0.322
-137.429	-200.000	0.026	0.142
-136.414	40.216	0.183	0.165
-135.399	-145.666	-0.252	0.023
-134.385	-70.840	0.364	-0.137
-133.370	-200.000	-0.076	0.379
-132.356	-61.074	0.037	0.016
-131.341	-104.533	-0.190	0.044
-130.326	57.263	0.310	0.304
-129.312	-126.506	0.168	-0.025
-128.297	-60.274	0.299	0.127
-127.283	60.965	-0.066	0.065
-126.268	608.807	-0.184	0.461
-125.253	237.074	0.088	-0.146
-124.239	-37.942	0.076	0.040
-123.224	-200.000	0.048	0.220
-122.210	-200.000	0.055	0.299
-121.195	96.864	-0.161	-0.185
