DTS Sentinel unit serial number:	SN413079Multiplexer serial number:	ORYXHardware model number:	OX4-SRSoftware version number:	ORYX F/W v4.00 Oryx Data Collector v3.7.2.0data status	okinstallation	princeton_trtdifferential loss correction	single-endedforward channel	channel 4reverse channel	N/Adate	2019/09/11time	14:11:11forward acquisition time	60.00reverse acquisition time	0.00gamma	496.2192k internal	0.2282k external	0.2282temperature offset calibration	1.0006default loss term (dB/km)	0.3790temperature slope calibration	1.0000multiplexer offset coefficient	1.0000multiplexer slope coefficient	1.0000fibre end	0.00T internal ref (°C)	41.87T ext. ref 1 (°C)	0.88T ext. ref 2 (°C)	37.24length (m)	temperature (°C)	Stokes	anti-Stokes-747.200	-33.795	-0.262	0.148
-746.185	-129.952	-0.166	0.023
-745.171	59.925	-0.076	0.077
-744.156	-81.701	0.119	-0.040
-743.142	-25.751	0.211	0.128
-742.127	-200.000	0.009	0.275
-741.112	236.611	0.027	0.046
-740.098	800.000	-0.122	0.389
-739.083	297.030	-0.134	-0.252
-738.069	-187.637	0.429	-0.006
-737.054	332.534	0.152	-0.301
-736.039	-184.197	-0.336	0.006
-735.025	93.718	0.256	0.298
-734.010	687.008	0.065	-0.175
-732.996	-200.000	-0.046	-0.298
-731.981	9.732	-0.057	-0.044
-730.966	-136.999	-0.145	0.017
-729.952	-187.140	-0.270	0.004
-728.937	51.676	-0.207	0.202
-727.923	-55.246	-0.311	0.144
-726.908	669.341	-0.119	0.317
-725.894	259.316	0.054	0.095
-724.879	-109.958	-0.099	0.021
-723.864	100.800	-0.104	0.124
-722.850	1.343	0.307	-0.227
-721.835	800.000	-0.044	0.181
-720.821	769.986	-0.034	0.096
-719.806	-200.000	-0.076	-0.532
-718.791	-62.429	-0.187	0.080
-717.777	-77.239	0.169	-0.060
-716.762	800.000	-0.081	-0.250
-715.748	252.070	-0.168	-0.294
-714.733	800.000	-0.062	-0.222
-713.718	-200.000	0.011	-0.098
-712.704	153.978	0.104	0.147
-711.689	-101.983	-0.112	0.028
-710.675	-162.073	-0.289	0.015
-709.660	800.000	-0.069	0.200
-708.645	-53.704	-0.182	-0.085
-707.631	-76.056	0.318	0.115
-706.616	-200.000	0.019	-0.384
-705.602	293.980	0.049	0.093
-704.587	-200.000	0.024	0.107
-703.572	-195.695	-0.267	-0.002
-702.558	800.000	0.057	0.202
-701.543	-99.631	0.312	0.080
-700.529	311.127	0.096	-0.184
-699.514	-200.000	0.047	-0.266
-698.499	-133.415	-0.155	-0.020
-697.485	-60.328	-0.269	0.118
-696.470	-133.805	-0.167	0.021
-695.456	-158.846	-0.145	-0.008
-694.441	-11.349	0.129	0.087
-693.426	239.274	-0.123	-0.210
-692.412	233.629	0.040	-0.067
-691.397	243.983	0.020	-0.035
-690.383	525.084	-0.145	-0.351
-689.368	34.148	-0.054	-0.049
-688.354	186.800	-0.097	0.149
-687.339	677.091	-0.070	-0.186
-686.324	-110.286	0.076	0.016
-685.310	-17.347	-0.148	-0.096
-684.295	-200.000	0.059	0.308
-683.281	-106.482	-0.211	0.048
-682.266	-200.000	0.005	-0.289
-681.251	800.000	-0.015	0.046
-680.237	-200.000	0.027	0.263
-679.222	-22.818	-0.113	0.070
-678.208	116.328	0.112	-0.141
-677.193	111.982	-0.154	-0.191
-676.178	782.196	0.176	-0.495
-675.164	103.364	0.144	-0.173
-674.149	88.834	-0.172	-0.196
-673.135	-14.606	-0.290	-0.191
-672.120	-6.783	-0.212	0.148
-671.105	-28.609	0.547	0.323
-670.091	-90.932	-0.520	-0.153
-669.076	180.532	-0.184	0.277
-668.062	-200.000	0.057	0.434
-667.047	-118.017	-0.070	-0.013
-666.032	-22.628	-0.214	-0.133
-665.018	-28.436	-0.218	-0.129
-664.003	-200.000	-0.024	0.189
-662.989	-168.711	0.231	0.009
-661.974	-142.081	-0.196	-0.020
-660.959	-200.000	-0.016	0.142
-659.945	95.740	0.143	-0.168
-658.930	403.745	0.080	0.172
-657.916	800.000	-0.119	-0.427
-656.901	-77.915	0.151	-0.053
-655.886	-158.712	-0.098	-0.006
-654.872	11.877	-0.350	-0.275
-653.857	37.407	0.195	-0.177
-652.843	-13.681	-0.165	-0.109
-651.828	598.992	-0.044	-0.111
-650.814	-163.437	-0.254	0.012
-649.799	-59.212	-0.387	-0.171
-648.784	-59.971	-0.241	-0.106
-647.770	40.771	0.267	0.247
-646.755	757.252	0.094	0.260
-645.741	82.221	-0.074	-0.082
-644.726	-173.095	0.270	-0.008
-643.711	800.000	0.169	-0.569
-642.697	63.506	0.102	0.105
-641.682	-200.000	-0.031	-0.217
-640.668	-38.577	-0.247	-0.134
-639.653	-138.825	-0.202	0.022
-638.638	-64.291	0.200	0.083
-637.624	-45.405	-0.264	-0.134
-636.609	-49.186	0.113	0.055
-635.595	-200.000	-0.100	0.545
-634.580	-53.087	0.167	-0.079
-633.565	800.000	-0.068	-0.243
-632.551	21.774	-0.104	0.087
-631.536	800.000	-0.045	-0.180
-630.522	-175.371	0.156	0.004
-629.507	-75.885	0.285	0.103
-628.492	125.704	-0.181	-0.234
-627.478	12.850	0.078	0.062
-626.463	72.081	-0.089	-0.095
-625.449	216.789	-0.125	0.204
-624.434	-185.932	-0.240	0.004
-623.419	-146.538	0.165	-0.015
-622.405	304.950	0.155	-0.295
-621.390	-69.454	0.261	-0.102
-620.376	654.625	0.045	-0.118
-619.361	-78.475	0.108	-0.038
-618.346	42.733	-0.077	0.072
-617.332	661.589	0.071	0.187
-616.317	22.415	-0.121	-0.101
-615.303	-81.007	-0.053	0.018
-614.288	706.044	-0.056	0.152
-613.273	800.000	-0.050	-0.175
-612.259	-18.699	0.199	-0.127
-611.244	569.970	0.086	0.215
-610.230	-200.000	0.016	0.315
-609.215	138.335	-0.125	0.168
-608.201	-200.000	0.002	-0.169
-607.186	-200.000	-0.019	-0.261
-606.171	-143.045	-0.408	-0.040
-605.157	-54.260	-0.403	-0.187
-604.142	79.729	-0.049	-0.053
-603.128	639.595	0.094	-0.244
-602.113	-200.000	0.008	0.184
-601.098	189.387	0.138	-0.211
-600.084	-200.000	-0.028	-0.146
-599.069	-200.000	0.026	0.319
-598.055	800.000	-0.026	0.099
-597.040	242.756	-0.099	0.169
-596.025	8.172	-0.174	0.133
-595.011	-198.456	0.176	0.001
-593.996	-200.000	0.043	-0.237
-592.982	800.000	-0.086	-0.253
-591.967	-200.000	-0.028	-0.301
-590.952	-200.000	-0.004	-0.063
-589.938	152.306	0.163	0.227
-588.923	-175.798	0.087	-0.002
-587.909	-125.566	-0.314	0.049
-586.894	-200.000	0.032	0.168
-585.879	8.418	0.217	0.167
-584.865	90.194	-0.104	0.119
-583.850	-200.000	0.001	0.070
-582.836	164.465	0.169	-0.243
-581.821	46.298	0.251	-0.238
-580.806	800.000	-0.063	0.189
-579.792	398.374	-0.130	0.279
-578.777	-200.000	0.013	-0.230
-577.763	42.755	-0.194	0.181
-576.748	-59.187	0.091	-0.040
-575.733	239.815	0.027	0.045
-574.719	-200.000	0.003	0.081
-573.704	-27.059	-0.434	-0.258
-572.690	-78.685	0.086	0.030
-571.675	-18.720	-0.134	-0.085
-570.661	800.000	0.067	0.269
-569.646	-200.000	0.015	0.139
-568.631	800.000	0.016	0.045
-567.617	44.310	-0.103	0.096
-566.602	25.963	-0.170	-0.145
-565.588	-157.099	0.296	-0.018
-564.573	598.676	-0.070	-0.178
-563.558	-200.000	0.028	-0.158
-562.544	800.000	0.085	-0.265
-561.529	57.833	0.138	-0.138
-560.515	-79.509	-0.100	-0.034
-559.500	-200.000	-0.016	-0.117
-558.485	-18.333	-0.237	0.151
-557.471	-200.000	0.000	0.188
-556.456	-76.017	0.168	-0.061
-555.442	252.650	-0.079	-0.137
-554.427	52.400	-0.174	-0.169
-553.412	-74.410	0.210	0.077
-552.398	-200.000	-0.009	-0.071
-551.383	89.909	-0.062	-0.070
-550.369	50.785	-0.311	0.300
-549.354	-130.036	0.629	-0.088
-548.339	-95.486	-0.029	0.008
-547.325	-200.000	0.026	-0.258
-546.310	14.674	-0.036	0.029
-545.296	-75.193	0.234	0.085
-544.281	800.000	0.046	0.187
-543.266	-52.887	-0.044	0.021
-542.252	-86.546	-0.080	0.025
-541.237	491.733	0.092	-0.215
-540.223	-102.588	-0.304	-0.074
-539.208	-118.618	-0.148	0.027
-538.193	-138.999	0.230	0.025
-537.179	179.839	-0.117	0.175
-536.164	800.000	0.088	0.368
-535.150	127.139	0.105	-0.136
-534.135	-39.862	-0.219	-0.117
-533.121	176.575	0.106	0.157
-532.106	105.393	-0.064	-0.077
-531.091	209.717	-0.219	-0.350
-530.077	-100.420	0.070	0.018
-529.062	-14.497	0.047	-0.031
-528.048	-200.000	0.009	-0.248
-527.033	-123.676	-0.367	-0.059
-526.018	114.209	0.260	0.322
-525.004	37.549	0.148	0.134
-523.989	-200.000	0.024	-0.212
-522.975	21.405	-0.181	0.150
-521.960	-76.901	-0.272	-0.097
-520.945	-140.177	0.044	0.005
-519.931	447.374	0.106	-0.237
-518.916	25.914	0.274	0.232
-517.902	-200.000	-0.008	-0.303
-516.887	800.000	-0.100	-0.399
-515.872	-12.914	0.057	0.038
-514.858	-200.000	0.004	-0.286
-513.843	-21.670	-0.265	0.165
-512.829	77.081	-0.106	-0.115
-511.814	337.070	0.085	0.168
-510.799	800.000	0.036	0.106
-509.785	435.972	0.030	-0.067
-508.770	800.000	0.058	-0.257
-507.756	311.931	0.209	-0.399
-506.741	96.142	-0.305	-0.355
-505.726	0.955	0.105	-0.076
-504.712	108.898	0.176	-0.214
-503.697	-62.169	-0.155	0.066
-502.683	-76.586	0.034	-0.012
-501.668	-45.597	-0.052	0.026
-500.653	76.656	0.250	-0.270
-499.639	143.505	-0.099	-0.134
-498.624	-51.414	0.146	0.069
-497.610	-200.000	0.035	0.266
-496.595	497.419	0.091	-0.213
-495.581	29.551	-0.125	-0.108
-494.566	-127.646	0.156	-0.023
-493.551	26.938	-0.242	-0.206
-492.537	152.072	0.016	-0.022
-491.522	-35.916	-0.235	0.129
-490.508	-53.480	-0.255	-0.119
-489.493	57.379	0.091	-0.091
-488.478	84.681	0.095	-0.106
-487.464	120.697	0.049	-0.062
-486.449	-200.000	0.012	-0.113
-485.435	-148.932	0.518	-0.043
-484.420	-7.351	-0.303	-0.209
-483.405	800.000	-0.025	-0.073
-482.391	-178.886	-0.190	0.004
-481.376	648.644	-0.081	0.210
-480.362	800.000	0.043	0.160
-479.347	-71.263	0.209	-0.080
-478.332	-87.754	0.132	-0.041
-477.318	-130.373	0.389	-0.054
-476.303	-133.427	0.106	0.014
-475.289	-200.000	-0.022	-0.158
-474.274	800.000	-0.114	0.500
-473.259	5.268	0.108	-0.081
-472.245	309.338	-0.109	0.208
-471.230	-11.034	0.071	-0.047
-470.216	62.147	-0.083	-0.084
-469.201	-200.000	-0.006	-0.053
-468.186	288.434	-0.101	-0.186
-467.172	800.000	-0.102	-0.447
-466.157	107.310	-0.079	-0.096
-465.143	130.416	-0.087	-0.113
-464.128	-200.000	-0.029	-0.133
-463.113	-45.874	0.125	-0.063
-462.099	800.000	-0.087	0.351
-461.084	93.764	0.151	-0.174
-460.070	-200.000	0.042	0.212
-459.055	-43.443	-0.086	0.044
-458.040	-57.448	-0.090	-0.040
-457.026	-200.000	-0.017	-0.249
-456.011	-200.000	-0.017	0.125
-454.997	741.861	-0.025	0.070
-453.982	800.000	0.104	-0.446
-452.968	71.260	-0.156	-0.164
-451.953	-86.571	0.178	-0.056
-450.938	-119.826	-0.184	-0.032
-449.924	-15.835	-0.200	0.130
-448.909	-78.419	-0.077	-0.027
-447.895	-200.000	-0.018	-0.209
-446.880	220.270	-0.122	-0.198
-445.865	-151.560	0.241	-0.018
-444.851	41.083	-0.178	0.164
-443.836	-200.000	0.011	0.408
-442.822	-200.000	0.039	0.287
-441.807	634.743	0.039	-0.100
-440.792	-200.000	0.024	-0.206
-439.778	136.688	0.265	-0.351
-438.763	-200.000	0.017	-0.372
-437.749	-0.462	-0.159	-0.115
-436.734	-200.000	0.035	0.295
-435.719	471.134	0.037	0.083
-434.705	-151.162	-0.167	-0.013
-433.690	-10.813	-0.291	-0.196
-432.676	-200.000	0.004	0.106
-431.661	-143.552	-0.190	-0.018
-430.646	-5.012	0.099	-0.069
-429.632	671.469	0.167	0.439
-428.617	-74.102	-0.157	0.058
-427.603	800.000	0.044	0.136
-426.588	45.607	-0.093	0.087
-425.573	0.191	0.202	-0.146
-424.559	-62.886	-0.238	0.100
-423.544	-18.682	0.127	-0.080
-422.530	374.561	0.123	0.255
-421.515	-128.322	-0.140	-0.020
-420.500	-113.441	-0.357	-0.071
-419.486	-70.073	0.163	-0.063
-418.471	45.177	0.255	0.239
-417.457	-117.465	0.367	-0.067
-416.442	-99.218	-0.208	-0.053
-415.428	-107.346	-0.085	-0.019
-414.413	55.993	-0.040	0.039
-413.398	326.464	0.130	0.253
-412.384	800.000	0.001	0.003
-411.369	93.513	0.141	0.162
-410.355	-120.781	0.361	0.062
-409.340	-103.658	0.135	0.032
-408.325	268.064	0.143	0.254
-407.311	-115.331	0.013	-0.003
-406.296	172.020	0.073	-0.107
-405.282	272.138	-0.045	-0.081
-404.267	-200.000	0.036	0.441
-403.252	-200.000	0.018	0.344
-402.238	800.000	0.083	0.235
-401.223	-119.062	-0.152	0.027
-400.209	-10.044	0.366	-0.246
-399.194	-200.000	-0.006	-0.125
-398.179	94.818	-0.128	-0.148
-397.165	-184.373	0.291	0.005
-396.150	106.224	0.148	0.178
-395.136	175.847	-0.108	-0.160
-394.121	800.000	-0.069	-0.276
-393.106	800.000	-0.083	-0.329
-392.092	221.987	-0.215	-0.351
-391.077	47.596	0.142	-0.135
-390.063	156.893	-0.152	0.213
-389.048	-145.837	0.283	-0.026
-388.033	-174.087	0.284	0.008
-387.019	-65.249	-0.173	-0.071
-386.004	113.258	-0.053	-0.065
-384.990	51.449	0.112	0.108
-383.975	800.000	-0.068	0.289
-382.960	14.046	-0.234	0.185
-381.946	89.179	-0.109	0.123
-380.931	800.000	0.067	0.193
-379.917	-200.000	0.004	-0.117
-378.902	-63.446	0.179	-0.075
-377.888	345.560	0.062	-0.123
-376.873	322.062	0.237	0.456
-375.858	800.000	-0.066	0.207
-374.844	-101.486	-0.180	-0.044
-373.829	-97.770	0.251	-0.066
-372.815	695.018	0.123	-0.326
-371.800	-200.000	0.002	-0.018
-370.785	-114.842	-0.088	-0.017
-369.771	-83.305	-0.108	-0.035
-368.756	55.132	-0.126	-0.123
-367.742	-36.081	-0.299	0.164
-366.727	-200.000	-0.001	0.134
-365.712	-35.895	-0.248	0.136
-364.698	-102.402	-0.317	0.077
-363.683	-51.830	-0.239	0.113
-362.669	10.683	-0.112	-0.086
-361.654	800.000	0.123	-0.421
-360.639	29.051	-0.214	-0.184
-359.625	-45.195	0.402	0.202
-358.610	23.891	0.266	-0.222
-357.596	288.864	0.059	0.108
-356.581	-113.366	-0.332	0.066
-355.566	559.825	0.032	-0.077
-354.552	-36.396	-0.230	0.125
-353.537	-12.454	-0.173	0.114
-352.523	800.000	-0.008	-0.035
-351.508	35.376	0.132	0.117
-350.493	663.750	0.072	0.189
-349.479	2.689	-0.102	0.075
-348.464	597.744	-0.077	0.193
-347.450	-125.568	-0.151	-0.023
-346.435	-72.905	-0.188	-0.070
-345.420	-176.453	0.294	-0.008
-344.406	-106.001	0.092	-0.021
-343.391	-200.000	-0.026	-0.255
-342.377	169.523	0.093	0.135
-341.362	12.619	-0.022	-0.017
-340.348	418.864	-0.123	0.265
-339.333	210.222	0.174	-0.277
-338.318	104.346	-0.171	0.204
-337.304	-25.039	0.168	-0.101
-336.289	449.644	-0.076	-0.170
-335.275	50.873	0.182	0.174
-334.260	800.000	-0.037	0.123
-333.245	800.000	0.131	0.397
-332.231	747.315	-0.155	-0.422
-331.216	-200.000	0.010	-0.152
-330.202	68.223	-0.116	-0.120
-329.187	-172.538	-0.176	-0.006
-328.172	110.079	0.115	0.139
-327.158	62.854	0.151	-0.153
-326.143	28.429	0.246	-0.210
-325.129	-200.000	0.010	0.323
-324.114	800.000	-0.052	0.161
-323.099	-200.000	-0.057	-0.316
-322.085	260.233	-0.133	0.232
-321.070	-200.000	-0.011	0.103
-320.056	-200.000	-0.051	0.315
-319.041	-74.335	-0.157	0.057
-318.026	191.415	0.059	-0.090
-317.012	24.111	-0.079	0.066
-315.997	173.682	-0.105	-0.153
-314.983	92.559	0.148	0.168
-313.968	-200.000	-0.007	0.119
-312.953	244.476	-0.171	0.291
-311.939	-8.298	0.186	0.126
-310.924	-42.760	0.192	0.099
-309.910	62.320	0.230	-0.232
-308.895	-94.128	-0.469	0.130
-307.880	-200.000	0.059	0.276
-306.866	-126.968	0.013	-0.002
-305.851	189.033	0.063	0.095
-304.837	-22.972	0.094	0.057
-303.822	184.981	-0.061	-0.092
-302.807	-200.000	-0.019	0.133
-301.793	-128.016	-0.176	-0.026
-300.778	-3.467	-0.110	-0.077
-299.764	109.879	-0.132	0.160
-298.749	-59.747	0.189	0.082
-297.735	-200.000	0.016	0.116
-296.720	-200.000	0.000	0.212
-295.705	-200.000	0.045	0.201
-294.691	-200.000	-0.042	0.402
-293.676	-81.239	0.092	0.031
-292.662	244.797	-0.122	0.207
-291.647	-7.118	0.217	-0.149
-290.632	800.000	0.066	0.226
-289.618	-121.397	0.328	0.055
-288.603	800.000	-0.019	-0.063
-287.589	285.348	0.075	0.137
-286.574	-105.915	-0.129	0.029
-285.559	168.960	-0.092	0.132
-284.545	780.794	-0.058	-0.160
-283.530	401.162	-0.127	0.269
-282.516	-98.801	0.061	-0.016
-281.501	64.048	-0.184	-0.187
-280.486	373.854	-0.186	0.381
-279.472	-14.130	-0.279	0.182
-278.457	800.000	0.055	-0.181
-277.443	66.063	-0.303	0.310
-276.428	218.253	-0.171	0.275
-275.413	800.000	-0.031	-0.091
-274.399	557.534	-0.076	-0.184
-273.384	-200.000	-0.062	0.308
-272.370	-22.495	-0.235	0.143
-271.355	100.785	-0.137	-0.161
-270.340	14.682	0.183	0.145
-269.326	-57.120	-0.154	-0.069
-268.311	-200.000	0.003	-0.026
-267.297	-74.727	0.148	-0.054
-266.282	800.000	-0.041	-0.179
-265.267	555.345	0.088	-0.213
-264.253	-43.552	0.327	-0.166
-263.238	272.035	-0.110	-0.196
-262.224	-142.875	-0.275	-0.027
-261.209	-154.675	0.171	0.011
-260.195	214.917	-0.188	-0.300
-259.180	16.723	0.134	-0.107
-258.165	-129.718	0.203	-0.028
-257.151	295.305	0.124	0.228
-256.136	11.188	0.305	-0.235
-255.122	-17.820	-0.113	0.072
-254.107	-165.553	-0.179	-0.008
-253.092	25.470	-0.076	0.064
-252.078	250.482	0.087	-0.150
-251.063	92.844	0.156	-0.177
-250.049	-32.191	0.230	-0.130
-249.034	800.000	0.029	0.108
-248.019	-135.192	0.247	-0.030
-247.005	-124.038	-0.311	0.049
-245.990	229.637	-0.129	0.213
-244.976	-200.000	-0.029	-0.187
-243.961	-52.083	0.129	-0.060
-242.946	800.000	-0.052	-0.210
-241.932	-77.903	0.466	-0.162
-240.917	-107.913	-0.212	-0.047
-239.903	479.775	-0.114	-0.261
-238.888	800.000	-0.054	0.207
-237.873	95.892	-0.182	0.210
-236.859	-87.121	0.289	0.089
-235.844	75.148	-0.192	0.204
-234.830	267.863	0.076	0.134
-233.815	114.681	-0.202	0.249
-232.800	183.648	0.097	-0.144
-231.786	6.699	0.337	0.253
-230.771	61.441	-0.193	0.193
-229.757	-200.000	-0.045	-0.549
-228.742	-122.293	0.226	-0.037
-227.727	-200.000	-0.007	-0.115
-226.713	705.293	-0.074	-0.197
-225.698	-200.000	0.075	0.339
-224.684	-179.849	0.203	0.004
-223.669	-107.696	0.138	0.030
-222.655	-200.000	-0.041	-0.309
-221.640	94.041	0.256	0.292
-220.625	-11.039	-0.261	-0.174
-219.611	-200.000	0.025	0.141
-218.596	104.978	0.051	0.061
-217.582	19.745	0.130	0.105
-216.567	122.157	-0.126	-0.158
-215.552	-200.000	-0.036	-0.526
-214.538	-65.574	-0.135	-0.055
-213.523	-40.064	0.251	0.131
-212.509	-83.836	0.380	-0.122
-211.494	151.380	-0.151	-0.207
-210.479	8.543	-0.109	0.083
-209.465	800.000	-0.052	-0.165
-208.450	329.035	0.056	0.109
-207.436	77.893	-0.071	-0.076
-206.421	-35.342	0.229	0.126
-205.406	-38.229	-0.361	0.192
-204.392	10.555	-0.143	0.110
-203.377	-76.387	-0.123	0.044
-202.363	800.000	-0.016	-0.058
-201.348	20.485	0.183	-0.149
-200.333	56.679	0.310	0.303
-199.319	-200.000	0.019	0.112
-198.304	-129.647	0.145	0.020
-197.290	-58.131	0.291	-0.128
-196.275	50.278	0.186	0.177
-195.260	800.000	0.034	-0.098
-194.246	-200.000	0.036	0.251
-193.231	13.129	0.169	0.132
-192.217	76.741	0.031	0.033
-191.202	-10.555	-0.157	-0.105
-190.187	-200.000	-0.023	0.105
-189.173	511.234	-0.088	-0.206
-188.158	340.390	0.076	-0.149
-187.144	-200.000	-0.017	0.131
-186.129	-144.469	0.018	0.002
-185.114	800.000	-0.072	-0.224
-184.100	-150.654	-0.271	-0.021
-183.085	800.000	-0.025	0.074
-182.071	800.000	0.027	0.115
-181.056	-200.000	0.017	0.133
-180.042	-200.000	-0.011	0.054
-179.027	164.439	0.112	-0.158
-178.012	-99.872	-0.116	-0.029
-176.998	4.029	-0.210	0.154
-175.983	-114.793	0.316	0.061
-174.969	-55.415	0.294	-0.133
-173.954	-24.143	0.207	-0.124
-172.939	343.193	-0.091	-0.179
-171.925	55.001	-0.262	0.254
-170.910	800.000	-0.066	0.283
-169.896	800.000	-0.014	0.060
-168.881	103.527	0.172	0.202
-167.866	85.525	-0.235	0.260
-166.852	-17.152	-0.221	0.140
-165.837	174.243	-0.204	-0.296
-164.823	-200.000	-0.032	0.152
-163.808	75.466	0.142	0.150
-162.793	-200.000	0.293	0.001
-161.779	113.574	-0.037	0.045
-160.764	349.917	-0.161	0.320
-159.750	-200.000	-0.018	-0.203
-158.735	-200.000	-0.032	0.266
-157.720	-150.674	0.309	0.024
-156.706	-200.000	-0.016	0.073
-155.691	-110.804	0.130	-0.027
-154.677	449.202	0.011	0.025
-153.662	234.255	-0.084	0.139
-152.647	686.129	0.150	-0.394
-151.633	70.955	-0.049	0.051
-150.618	-200.000	-0.039	-0.251
-149.604	-21.397	0.132	0.081
-148.589	-106.779	-0.222	0.049
-147.574	444.904	0.054	0.118
-146.560	-102.030	0.269	0.065
-145.545	-200.000	-0.053	-0.283
-144.531	800.000	-0.051	-0.145
-143.516	145.528	-0.030	-0.040
-142.502	-7.110	-0.078	-0.053
-141.487	-135.205	0.475	-0.057
-140.472	124.164	0.082	-0.103
-139.458	603.015	0.126	-0.313
-138.443	31.508	-0.071	0.062
-137.429	3.376	0.130	-0.095
-136.414	279.194	0.053	-0.095
-135.399	130.997	-0.015	0.019
-134.385	-200.000	-0.029	0.290
-133.370	44.206	-0.189	-0.174
-132.356	73.132	0.049	-0.051
-131.341	72.559	-0.277	0.290
-130.326	232.000	0.153	0.252
-129.312	479.596	-0.023	0.052
-128.297	-2.275	-0.169	0.119
-127.283	-81.419	-0.277	-0.091
-126.268	-200.000	-0.019	0.096
-125.253	117.841	-0.111	-0.137
-124.239	-79.017	0.188	0.064
-123.224	-150.783	-0.190	0.014
-122.210	194.379	0.200	-0.305
