DTS Sentinel unit serial number:	SN413079Multiplexer serial number:	ORYXHardware model number:	OX4-SRSoftware version number:	ORYX F/W v4.00 Oryx Data Collector v3.7.2.0data status	okinstallation	princeton_trtdifferential loss correction	single-endedforward channel	channel 4reverse channel	N/Adate	2019/09/11time	14:23:11forward acquisition time	60.00reverse acquisition time	0.00gamma	496.2192k internal	0.2281k external	0.2281temperature offset calibration	1.0004default loss term (dB/km)	0.3790temperature slope calibration	1.0000multiplexer offset coefficient	1.0000multiplexer slope coefficient	1.0000fibre end	0.00T internal ref (°C)	42.06T ext. ref 1 (°C)	0.86T ext. ref 2 (°C)	37.27length (m)	temperature (°C)	Stokes	anti-Stokes-747.200	-15.312	0.112	0.074
-746.185	75.931	0.088	0.096
-745.171	-97.072	0.270	0.073
-744.156	800.000	-0.120	0.368
-743.142	-43.037	-0.053	0.027
-742.127	-195.017	0.231	-0.002
-741.112	-9.903	-0.098	0.067
-740.098	-132.733	-0.253	-0.033
-739.083	-200.000	-0.008	-0.075
-738.069	201.328	-0.152	0.240
-737.054	202.928	-0.154	0.245
-736.039	18.529	0.204	0.168
-735.025	64.128	-0.316	0.327
-734.010	45.863	-0.301	-0.286
-732.996	-126.417	-0.366	0.056
-731.981	-107.258	-0.268	-0.061
-730.966	-198.525	0.124	0.001
-729.952	57.987	0.244	-0.246
-728.937	-137.854	0.177	-0.020
-727.923	39.234	0.079	-0.072
-726.908	-200.000	0.009	0.047
-725.894	800.000	0.075	-0.288
-724.879	236.005	-0.061	-0.104
-723.864	-200.000	0.005	-0.150
-722.850	0.385	0.224	-0.164
-721.835	35.064	-0.028	-0.025
-720.821	-25.254	0.120	-0.073
-719.806	-127.221	-0.366	-0.055
-718.791	-5.122	0.263	0.186
-717.777	-158.542	-0.327	0.019
-716.762	-200.000	0.020	-0.352
-715.748	93.928	0.205	-0.238
-714.733	-1.101	-0.120	-0.087
-713.718	122.648	0.122	0.156
-712.704	-132.129	0.454	0.061
-711.689	179.823	0.125	-0.188
-710.675	6.946	-0.293	0.225
-709.660	-105.798	-0.235	0.055
-708.645	295.691	-0.159	0.300
-707.631	-66.847	-0.049	-0.020
-706.616	-200.000	-0.017	-0.188
-705.602	130.057	-0.111	-0.146
-704.587	-200.000	-0.017	-0.174
-703.572	-28.903	-0.167	0.098
-702.558	-169.483	-0.115	-0.004
-701.543	-200.000	0.073	0.469
-700.529	352.466	0.054	0.111
-699.514	282.358	-0.166	0.305
-698.499	-63.659	0.117	-0.049
-697.485	51.540	-0.230	-0.225
-696.470	78.977	-0.299	0.328
-695.456	-200.000	0.024	-0.252
-694.441	642.660	-0.084	-0.220
-693.426	-15.440	0.222	0.146
-692.412	235.944	-0.120	-0.204
-691.397	-111.451	-0.242	0.051
-690.383	30.895	-0.139	0.123
-689.368	-106.689	0.341	-0.078
-688.354	-79.664	-0.364	0.126
-687.339	-200.000	-0.008	0.131
-686.324	304.128	-0.115	-0.218
-685.310	-68.207	-0.203	-0.081
-684.295	-50.318	-0.151	0.073
-683.281	393.804	0.022	0.047
-682.266	-137.332	-0.094	0.011
-681.251	296.134	0.099	-0.187
-680.237	-125.741	-0.270	-0.042
-679.222	13.725	0.119	-0.095
-678.208	-36.293	-0.159	0.088
-677.193	-71.796	0.065	0.025
-676.178	-48.800	0.040	-0.020
-675.164	-103.243	-0.097	0.023
-674.149	-108.716	0.168	-0.037
-673.135	-200.000	-0.067	0.519
-672.120	-124.908	0.237	-0.038
-671.105	6.325	0.222	-0.169
-670.091	243.773	-0.053	0.090
-669.076	340.310	-0.062	0.125
-668.062	-25.695	0.205	-0.124
-667.047	719.998	-0.052	-0.142
-666.032	-70.314	0.152	-0.059
-665.018	67.077	0.150	-0.157
-664.003	128.834	0.265	-0.347
-662.989	-200.000	0.043	0.335
-661.974	302.187	-0.105	-0.199
-660.959	-200.000	-0.005	0.383
-659.945	800.000	0.066	0.282
-658.930	51.874	-0.079	-0.077
-657.916	-139.728	0.419	0.046
-656.901	-35.586	-0.142	0.079
-655.886	800.000	0.023	-0.097
-654.872	-135.207	-0.321	0.040
-653.857	15.680	0.178	-0.143
-652.843	36.175	-0.020	0.018
-651.828	800.000	-0.070	-0.203
-650.814	472.829	-0.122	-0.282
-649.799	22.614	0.267	0.224
-648.784	127.702	0.204	0.265
-647.770	-200.000	-0.031	0.314
-646.755	455.638	-0.042	-0.096
-645.741	168.919	0.071	-0.103
-644.726	-62.012	0.183	0.079
-643.711	-165.856	-0.272	0.012
-642.697	-86.510	-0.131	-0.041
-641.682	-11.999	0.116	0.078
-640.668	800.000	-0.148	-0.569
-639.653	-105.552	-0.221	0.051
-638.638	-200.000	-0.023	0.266
-637.624	800.000	0.059	-0.260
-636.609	15.574	0.280	-0.226
-635.595	800.000	0.015	0.048
-634.580	-200.000	-0.006	-0.109
-633.565	87.875	-0.295	-0.335
-632.551	800.000	0.154	0.552
-631.536	800.000	0.086	0.269
-630.522	594.955	-0.082	0.209
-629.507	286.722	-0.137	0.254
-628.492	58.086	-0.162	-0.163
-627.478	-54.633	-0.185	-0.086
-626.463	-200.000	0.010	-0.277
-625.449	-200.000	-0.044	0.393
-624.434	0.969	0.090	0.066
-623.419	-200.000	-0.022	0.170
-622.405	-4.208	0.031	-0.022
-621.390	-200.000	-0.082	-0.421
-620.376	800.000	-0.041	-0.181
-619.361	281.940	0.173	0.317
-618.346	-56.785	-0.243	0.110
-617.332	87.984	-0.091	0.103
-616.317	-98.895	0.328	0.085
-615.303	30.874	0.177	0.155
-614.288	-71.097	-0.300	-0.116
-613.273	-32.271	-0.277	-0.158
-612.259	174.412	0.135	-0.200
-611.244	-42.264	0.443	-0.231
-610.230	-70.295	-0.486	-0.189
-609.215	-200.000	-0.005	-0.338
-608.201	237.632	0.082	-0.140
-607.186	-100.345	0.159	0.040
-606.171	77.049	0.246	-0.267
-605.157	-118.950	-0.087	0.016
-604.142	-82.633	-0.122	0.040
-603.128	-108.590	0.428	-0.094
-602.113	61.690	0.221	0.225
-601.098	6.330	-0.078	0.059
-600.084	173.300	0.188	0.278
-599.069	651.777	-0.104	0.274
-598.055	-49.249	0.316	0.154
-597.040	457.458	-0.043	-0.098
-596.025	-200.000	0.014	0.070
-595.011	-84.203	-0.092	-0.030
-593.996	125.120	0.072	0.093
-592.982	368.575	0.104	-0.215
-591.967	-43.829	-0.215	-0.111
-590.952	-133.926	0.096	-0.012
-589.938	-47.523	0.204	-0.101
-588.923	20.822	-0.285	-0.236
-587.909	156.299	-0.191	0.269
-586.894	-15.000	0.054	-0.035
-585.879	-200.000	0.006	0.302
-584.865	400.846	0.043	0.092
-583.850	-76.719	-0.316	0.113
-582.836	545.367	-0.076	0.187
-581.821	-94.300	0.019	-0.005
-580.806	-33.568	0.241	-0.136
-579.792	328.719	-0.171	0.336
-578.777	29.788	0.086	0.075
-577.763	194.714	0.185	-0.287
-576.748	-174.037	0.174	-0.005
-575.733	-11.078	-0.087	0.059
-574.719	-20.157	-0.158	0.099
-573.704	-139.281	-0.302	-0.033
-572.690	538.091	-0.132	-0.320
-571.675	108.130	-0.250	0.304
-570.661	-162.523	0.214	0.011
-569.646	148.995	0.159	0.220
-568.631	-70.393	-0.209	-0.081
-567.617	-18.525	0.130	-0.083
-566.602	590.165	0.149	0.375
-565.588	-200.000	-0.019	-0.240
-564.573	126.891	-0.301	-0.389
-563.558	-200.000	0.038	0.176
-562.544	-43.428	0.232	-0.119
-561.529	285.696	-0.040	0.073
-560.515	-61.037	-0.407	-0.176
-559.500	800.000	-0.022	0.074
-558.485	16.376	0.113	-0.091
-557.471	800.000	0.039	0.133
-556.456	-200.000	0.150	-0.742
-555.442	800.000	-0.110	-0.441
-554.427	124.362	0.276	-0.354
-553.412	-149.513	0.166	-0.013
-552.398	-200.000	-0.026	0.284
-551.383	-116.133	0.122	-0.023
-550.369	-200.000	0.009	0.080
-549.354	-35.629	-0.162	-0.090
-548.339	-200.000	-0.017	-0.097
-547.325	28.561	0.117	-0.101
-546.310	346.209	0.092	-0.184
-545.296	789.318	-0.129	-0.361
-544.281	34.328	-0.173	-0.154
-543.266	777.724	0.027	-0.076
-542.252	-76.963	-0.099	0.035
-541.237	-200.000	0.030	-0.148
-540.223	298.676	0.187	-0.350
-539.208	-97.179	0.311	-0.083
-538.193	-200.000	0.100	-0.000
-537.179	28.848	-0.070	-0.060
-536.164	-172.037	-0.171	-0.006
-535.150	-68.410	0.227	0.090
-534.135	171.056	0.047	0.069
-533.121	42.273	0.142	0.131
-532.106	-75.136	0.319	-0.116
-531.091	-165.174	-0.287	-0.013
-530.077	21.526	-0.133	-0.111
-529.062	7.082	-0.252	-0.192
-528.048	-200.000	-0.092	0.465
-527.033	-108.100	0.134	0.030
-526.018	-142.813	-0.118	-0.012
-525.004	-200.000	-0.016	0.323
-523.989	-200.000	0.037	-0.192
-522.975	-115.098	-0.043	0.008
-521.960	35.369	-0.034	-0.031
-520.945	-105.963	0.174	0.040
-519.931	-200.000	-0.016	-0.262
-518.916	179.742	0.075	-0.112
-517.902	200.679	-0.082	0.128
-516.887	79.356	0.049	-0.053
-515.872	-11.567	-0.126	-0.084
-514.858	-49.417	-0.184	-0.089
-513.843	-69.011	-0.088	-0.035
-512.829	79.646	0.146	-0.160
-511.814	-83.857	-0.153	-0.050
-510.799	800.000	0.137	-0.453
-509.785	-94.241	-0.256	-0.071
-508.770	-135.022	0.167	-0.020
-507.756	177.169	0.167	0.248
-506.741	448.571	-0.033	-0.073
-505.726	-43.607	-0.127	-0.065
-504.712	-16.825	0.102	0.065
-503.697	37.138	0.078	0.070
-502.683	-200.000	0.014	0.170
-501.668	80.207	-0.079	0.087
-500.653	-200.000	0.028	-0.196
-499.639	512.891	-0.127	0.301
-498.624	-85.144	-0.179	0.057
-497.610	12.841	0.238	-0.188
-496.595	-200.000	-0.013	0.128
-495.581	7.997	-0.339	-0.259
-494.566	800.000	0.097	-0.430
-493.551	-184.752	-0.283	-0.005
-492.537	366.253	-0.154	0.316
-491.522	-200.000	-0.064	0.338
-490.508	-200.000	0.015	-0.079
-489.493	-34.827	0.169	0.094
-488.478	-200.000	0.003	-0.020
-487.464	8.079	0.406	-0.310
-486.449	-79.636	0.160	0.055
-485.435	113.658	-0.089	-0.110
-484.420	304.701	-0.154	-0.290
-483.405	72.826	-0.098	0.104
-482.391	-100.472	0.250	0.063
-481.376	168.094	-0.270	0.391
-480.362	-129.491	0.098	0.014
-479.347	-16.251	0.231	0.149
-478.332	-47.268	-0.098	-0.048
-477.318	-109.807	0.132	-0.028
-476.303	275.784	-0.010	0.019
-475.289	3.484	-0.182	0.135
-474.274	-40.663	-0.187	-0.098
-473.259	39.215	-0.172	0.156
-472.245	-200.000	0.006	0.367
-471.230	-68.121	0.482	0.191
-470.216	800.000	0.012	-0.053
-469.201	-149.648	-0.170	0.014
-468.186	434.202	-0.069	0.152
-467.172	-200.000	0.048	-0.406
-466.157	-32.219	0.061	0.035
-465.143	44.236	-0.070	0.066
-464.128	219.725	-0.051	-0.083
-463.113	63.351	-0.086	-0.088
-462.099	80.065	-0.127	-0.139
-461.084	275.352	-0.082	-0.148
-460.070	-178.216	-0.373	-0.009
-459.055	-130.912	-0.211	0.029
-458.040	139.886	0.144	0.193
-457.026	-200.000	0.009	-0.069
-456.011	-90.263	0.125	0.037
-454.997	-31.869	-0.165	0.094
-453.982	800.000	-0.045	-0.195
-452.968	-169.717	-0.391	0.014
-451.953	-152.032	-0.333	-0.025
-450.938	-200.000	-0.027	0.174
-449.924	693.453	0.102	-0.272
-448.909	595.019	-0.100	0.252
-447.895	800.000	-0.043	0.153
-446.880	473.480	0.123	-0.281
-445.865	281.829	0.166	-0.303
-444.851	492.386	-0.104	0.241
-443.836	-200.000	0.009	-0.328
-442.822	-155.104	0.269	0.018
-441.807	-169.302	0.070	0.003
-440.792	-142.838	-0.162	0.016
-439.778	800.000	0.010	0.036
-438.763	-35.240	-0.035	-0.019
-437.749	614.068	0.049	-0.124
-436.734	99.323	0.304	0.357
-435.719	105.851	0.063	-0.076
-434.705	132.032	0.333	-0.435
-433.690	189.758	-0.204	-0.311
-432.676	47.659	0.170	0.161
-431.661	-104.866	0.119	0.028
-430.646	8.391	0.249	-0.190
-429.632	-150.521	0.364	-0.028
-428.617	3.994	0.260	0.193
-427.603	800.000	-0.115	0.332
-426.588	-80.829	0.156	0.053
-425.573	101.682	-0.183	0.217
-424.559	800.000	-0.062	0.251
-423.544	190.196	-0.131	0.200
-422.530	153.038	0.136	-0.188
-421.515	-35.688	-0.087	-0.048
-420.500	-103.380	-0.149	0.036
-419.486	-200.000	0.029	0.228
-418.471	-200.000	-0.003	0.085
-417.457	-200.000	0.007	0.120
-416.442	800.000	-0.035	-0.103
-415.428	-151.999	0.178	0.013
-414.413	-108.171	-0.358	-0.079
-413.398	77.734	0.227	-0.245
-412.384	313.618	-0.211	-0.402
-411.369	-200.000	-0.036	0.338
-410.355	-133.210	-0.133	0.017
-409.340	48.177	-0.152	-0.144
-408.325	-200.000	0.031	0.316
-407.311	-141.002	-0.092	0.010
-406.296	151.756	0.014	0.020
-405.282	21.490	-0.232	0.191
-404.267	-73.221	0.310	-0.115
-403.252	-200.000	0.015	0.100
-402.238	-200.000	0.003	0.335
-401.223	167.127	-0.223	0.321
-400.209	592.123	-0.113	0.284
-399.194	-66.071	0.233	-0.094
-398.179	295.656	0.065	0.120
-397.165	-51.100	-0.112	0.053
-396.150	-193.687	0.226	-0.002
-395.136	-33.523	0.198	0.111
-394.121	-151.672	0.359	0.027
-393.106	800.000	-0.036	-0.109
-392.092	600.518	0.017	0.042
-391.077	-114.663	0.123	-0.024
-390.063	24.136	-0.036	0.030
-389.048	274.422	-0.046	0.083
-388.033	-101.579	0.290	0.071
-387.019	763.336	-0.087	-0.240
-386.004	-43.231	-0.238	-0.122
-384.990	800.000	-0.082	0.293
-383.975	-144.469	-0.181	0.017
-382.960	-111.591	-0.317	0.065
-381.946	632.036	-0.028	-0.073
-380.931	-200.000	0.014	0.070
-379.917	292.390	-0.070	-0.129
-378.902	-200.000	0.235	0.000
-377.888	-114.846	0.023	0.004
-376.873	239.685	0.039	-0.066
-375.858	-85.472	0.344	0.109
-374.844	-200.000	-0.005	0.039
-373.829	-200.000	0.000	0.111
-372.815	-200.000	-0.023	0.426
-371.800	-200.000	0.020	0.183
-370.785	226.322	-0.128	-0.211
-369.771	-13.250	0.100	0.065
-368.756	196.013	0.090	0.139
-367.742	313.015	0.048	0.092
-366.727	-46.982	0.266	0.132
-365.712	-82.302	0.221	-0.073
-364.698	-44.806	0.233	-0.118
-363.683	77.400	0.113	0.122
-362.669	-155.192	0.126	-0.008
-361.654	-23.199	-0.033	0.020
-360.639	-37.594	-0.238	-0.128
-359.625	68.515	-0.090	-0.094
-358.610	-77.813	-0.280	0.098
-357.596	800.000	0.076	-0.283
-356.581	290.182	0.086	0.158
-355.566	76.212	-0.065	-0.070
-354.552	78.535	0.150	-0.163
-353.537	225.641	0.075	0.123
-352.523	-134.841	0.121	-0.015
-351.508	496.982	0.042	-0.098
-350.493	-64.456	0.112	-0.046
-349.479	-200.000	-0.029	-0.282
-348.464	800.000	-0.097	-0.301
-347.450	109.512	0.130	0.158
-346.435	-145.940	0.087	0.008
-345.420	148.863	-0.070	0.096
-344.406	298.648	0.180	0.335
-343.391	-200.000	0.067	0.309
-342.377	218.126	-0.119	0.193
-341.362	91.405	0.272	-0.309
-340.348	-185.476	0.386	-0.006
-339.333	-17.727	0.142	0.090
-338.318	-153.179	0.165	0.012
-337.304	-36.608	0.142	-0.077
-336.289	35.036	-0.237	-0.210
-335.275	346.654	0.083	-0.166
-334.260	-68.916	0.117	-0.046
-333.245	180.698	-0.171	0.254
-332.231	-120.980	0.239	0.041
-331.216	800.000	0.059	0.203
-330.202	37.446	0.101	0.091
-329.187	299.694	0.104	0.194
-328.172	800.000	0.033	-0.137
-327.158	-200.000	-0.022	-0.248
-326.143	572.347	0.083	-0.206
-325.129	-71.299	-0.160	0.061
-324.114	36.523	-0.218	0.194
-323.099	-200.000	0.025	-0.113
-322.085	-168.394	0.188	-0.007
-321.070	63.046	-0.088	-0.089
-320.056	-200.000	-0.007	0.193
-319.041	63.103	0.222	-0.225
-318.026	-200.000	0.004	-0.609
-317.012	40.577	0.273	-0.248
-315.997	-25.284	-0.204	-0.122
-314.983	-154.371	-0.476	-0.032
-313.968	-102.445	0.117	0.028
-312.953	31.885	-0.196	-0.170
-311.939	-60.309	-0.165	0.071
-310.924	-185.100	-0.292	-0.005
-309.910	-200.000	0.005	-0.387
-308.895	69.680	-0.343	-0.357
-307.880	-52.894	0.117	0.054
-306.866	-134.117	-0.266	-0.033
-305.851	89.349	-0.065	0.073
-304.837	-200.000	-0.017	-0.078
-303.822	210.189	0.100	0.159
-302.807	65.906	-0.056	0.057
-301.793	-200.000	0.024	0.155
-300.778	-200.000	-0.006	-0.112
-299.764	402.114	-0.102	-0.216
-298.749	163.058	-0.080	-0.114
-297.735	-111.780	-0.152	-0.031
-296.720	102.348	0.088	-0.104
-295.705	-200.000	0.028	-0.152
-294.691	72.309	0.296	0.312
-293.676	399.147	-0.075	-0.159
-292.662	-200.000	0.005	-0.307
-291.647	253.371	0.169	0.291
-290.632	23.046	0.253	0.209
-289.618	-200.000	-0.002	-0.316
-288.603	393.503	-0.077	-0.161
-287.589	-129.680	0.184	-0.026
-286.574	-87.712	-0.102	0.031
-285.559	-40.766	-0.283	0.148
-284.545	-200.000	0.024	-0.184
-283.530	101.160	-0.373	0.438
-282.516	-200.000	0.026	-0.258
-281.501	-200.000	0.048	-0.224
-280.486	-200.000	-0.006	-0.233
-279.472	-200.000	-0.002	-0.166
-278.457	129.038	0.148	0.190
-277.443	-120.471	-0.377	-0.065
-276.428	102.443	-0.161	-0.191
-275.413	-40.945	0.234	0.122
-274.399	165.388	0.163	-0.233
-273.384	-200.000	-0.005	-0.170
-272.370	90.952	-0.140	0.158
-271.355	-200.000	0.025	-0.249
-270.340	-200.000	0.056	0.524
-269.326	-138.581	-0.108	0.012
-268.311	-16.878	-0.112	0.072
-267.297	514.150	-0.108	0.254
-266.282	47.335	0.168	0.158
-265.267	77.856	-0.159	-0.171
-264.253	-99.416	0.273	-0.069
-263.238	-200.000	-0.004	0.103
-262.224	-19.831	-0.147	0.092
-261.209	-151.253	0.189	-0.014
-260.195	-200.000	-0.078	0.492
-259.180	377.145	0.022	0.045
-258.165	-200.000	0.001	0.170
-257.151	15.405	0.077	-0.061
-256.136	32.650	-0.284	-0.248
-255.122	-114.325	-0.171	0.033
-254.107	800.000	0.085	-0.312
-253.092	-200.000	-0.011	-0.124
-252.078	86.467	0.092	0.102
-251.063	569.778	-0.083	0.204
-250.049	80.776	-0.080	0.087
-249.034	-200.000	-0.007	-0.038
-248.019	-200.000	-0.021	0.213
-247.005	800.000	0.014	-0.054
-245.990	-200.000	0.023	-0.116
-244.976	55.413	0.173	0.168
-243.961	-200.000	-0.009	-0.155
-242.946	-141.874	-0.092	0.009
-241.932	-10.696	-0.088	0.059
-240.917	-12.204	0.095	0.063
-239.903	-66.192	0.254	-0.102
-238.888	-200.000	0.022	0.122
-237.873	-200.000	-0.016	-0.275
-236.859	-154.230	0.241	0.016
-235.844	-9.515	0.138	-0.093
-234.830	-100.678	-0.227	-0.057
-233.815	309.032	0.091	-0.172
-232.800	113.616	0.202	0.248
-231.786	85.365	-0.206	0.228
-230.771	-200.000	0.020	0.366
-229.757	207.699	0.085	-0.134
-228.742	50.810	0.246	-0.235
-227.727	-132.392	-0.520	-0.068
-226.713	-200.000	-0.038	0.521
-225.698	-200.000	0.052	0.245
-224.684	426.497	-0.082	0.178
-223.669	-102.736	-0.138	0.033
-222.655	59.395	-0.123	-0.122
-221.640	-200.000	0.029	-0.197
-220.625	-47.588	0.208	0.102
-219.611	106.574	-0.101	-0.121
-218.596	-136.710	0.199	0.023
-217.582	401.885	-0.140	0.296
-216.567	-187.688	-0.343	0.005
-215.552	90.051	0.200	0.225
-214.538	75.396	0.272	-0.289
-213.523	181.700	-0.035	-0.051
-212.509	256.906	-0.141	-0.245
-211.494	118.181	0.108	0.134
-210.479	-64.481	-0.307	0.126
-209.465	31.265	0.190	0.164
-208.450	800.000	0.016	0.045
-207.436	800.000	0.088	0.315
-206.421	-96.207	-0.153	-0.041
-205.406	-159.275	-0.207	0.012
-204.392	-72.893	-0.227	-0.084
-203.377	13.827	-0.255	-0.200
-202.363	-52.995	-0.299	0.138
-201.348	-37.536	0.080	-0.043
-200.333	128.587	-0.211	0.271
-199.319	-135.241	-0.341	-0.041
-198.304	21.386	-0.212	0.174
-197.290	-200.000	-0.027	0.147
-196.275	288.503	0.222	-0.405
-195.260	-84.220	-0.242	-0.077
-194.246	-47.897	-0.050	-0.024
-193.231	-20.346	-0.058	0.036
-192.217	-89.297	-0.133	0.040
-191.202	-200.000	0.011	0.100
-190.187	67.576	0.179	-0.184
-189.173	-53.634	-0.127	0.058
-188.158	-53.094	-0.047	0.022
-187.144	718.327	0.142	0.380
-186.129	800.000	0.079	0.226
-185.114	-92.942	0.255	-0.072
-184.100	69.432	-0.217	-0.224
-183.085	34.608	-0.167	0.147
-182.071	202.073	-0.134	0.207
-181.056	29.112	0.053	0.045
-180.042	-106.675	0.163	-0.037
-179.027	320.538	-0.069	-0.133
-178.012	423.635	0.092	0.200
-176.998	671.297	-0.065	0.168
-175.983	50.678	0.102	0.097
-174.969	-55.808	0.300	0.135
-173.954	800.000	-0.011	-0.035
-172.939	-200.000	0.035	-0.176
-171.925	33.206	0.340	-0.297
-170.910	800.000	-0.029	0.097
-169.896	74.995	0.221	-0.234
-168.881	-34.901	0.223	-0.122
-167.866	-200.000	0.036	0.000
-166.852	-200.000	0.014	0.496
-165.837	53.492	-0.089	0.086
-164.823	103.305	0.260	0.306
-163.808	131.594	-0.104	-0.135
-162.793	26.809	-0.076	-0.064
-161.779	800.000	-0.099	0.381
-160.764	96.109	-0.082	0.094
-159.750	-54.847	-0.309	0.140
-158.735	182.658	0.044	-0.065
-157.720	-200.000	-0.023	0.173
-156.706	-111.969	0.110	0.022
-155.691	693.748	0.099	-0.260
-154.677	201.674	-0.202	-0.312
-153.662	400.217	0.114	-0.241
-152.647	685.401	0.105	-0.276
-151.633	-121.114	-0.049	-0.008
-150.618	108.264	0.030	-0.035
-149.604	-73.226	0.438	0.161
-148.589	-200.000	0.024	0.134
-147.574	-122.048	0.165	-0.027
-146.560	-200.000	0.064	-0.445
-145.545	178.633	0.098	-0.144
-144.531	236.782	0.032	-0.053
-143.516	2.745	0.056	-0.041
-142.502	-55.414	-0.147	-0.066
-141.487	-73.124	0.136	-0.050
-140.472	257.734	-0.017	-0.029
-139.458	399.269	-0.098	-0.207
-138.443	-9.448	-0.142	-0.095
-137.429	203.102	-0.101	0.156
-136.414	800.000	0.076	-0.315
-135.399	-73.409	-0.229	-0.084
-134.385	-99.427	0.155	-0.039
-133.370	-194.566	-0.228	-0.002
-132.356	-153.759	0.129	-0.009
-131.341	74.953	-0.138	0.146
-130.326	241.763	0.043	0.073
-129.312	-200.000	-0.005	-0.106
-128.297	-78.069	0.189	0.065
-127.283	10.616	0.149	-0.114
-126.268	98.046	-0.154	-0.178
-125.253	81.590	0.255	-0.276
-124.239	-106.248	0.194	0.044
-123.224	-111.081	-0.181	0.037
-122.210	-190.939	0.181	0.002
-121.195	-59.315	-0.277	0.120
