DTS Sentinel unit serial number:	SN413079Multiplexer serial number:	ORYXHardware model number:	OX4-SRSoftware version number:	ORYX F/W v4.00 Oryx Data Collector v3.7.2.0data status	okinstallation	princeton_trtdifferential loss correction	single-endedforward channel	channel 4reverse channel	N/Adate	2019/09/11time	11:59:11forward acquisition time	60.00reverse acquisition time	0.00gamma	496.2192k internal	0.2288k external	0.2288temperature offset calibration	0.9969default loss term (dB/km)	0.3790temperature slope calibration	1.0000multiplexer offset coefficient	1.0000multiplexer slope coefficient	1.0000fibre end	0.00T internal ref (°C)	39.22T ext. ref 1 (°C)	0.21T ext. ref 2 (°C)	36.83length (m)	temperature (°C)	Stokes	anti-Stokes-747.200	800.000	-0.065	0.231
-746.185	-82.492	0.220	0.073
-745.171	254.975	-0.078	-0.137
-744.156	-200.000	0.089	0.476
-743.142	-200.000	0.014	-0.279
-742.127	543.818	0.023	-0.055
-741.112	236.693	-0.144	0.244
-740.098	800.000	0.052	0.169
-739.083	-142.335	0.317	-0.032
-738.069	-124.701	-0.021	-0.003
-737.054	800.000	-0.053	0.155
-736.039	-107.824	0.053	-0.012
-735.025	509.073	0.166	-0.396
-734.010	156.157	0.104	0.147
-732.996	-200.000	-0.014	0.135
-731.981	-27.260	-0.093	0.056
-730.966	-82.273	0.121	0.040
-729.952	-47.032	-0.220	0.110
-728.937	-22.463	0.277	-0.172
-727.923	-200.000	-0.027	0.338
-726.908	110.426	-0.116	0.143
-725.894	-60.867	0.346	0.150
-724.879	-81.525	-0.331	0.111
-723.864	262.237	0.107	-0.190
-722.850	-67.048	-0.140	0.057
-721.835	-11.456	0.044	-0.030
-720.821	102.264	-0.304	-0.364
-719.806	-78.977	0.256	0.089
-718.791	-118.061	-0.162	-0.030
-717.777	-75.058	0.415	-0.152
-716.762	237.582	0.179	0.305
-715.748	27.595	0.139	-0.120
-714.733	-200.000	-0.004	0.159
-713.718	800.000	-0.099	-0.441
-712.704	104.126	0.195	-0.235
-711.689	-120.465	0.049	-0.008
-710.675	-20.714	-0.055	-0.035
-709.660	800.000	0.040	0.171
-708.645	-157.651	0.144	0.009
-707.631	-200.000	-0.339	0.001
-706.616	-18.521	-0.125	-0.080
-705.602	-128.037	-0.087	0.013
-704.587	800.000	-0.075	-0.277
-703.572	331.172	-0.058	0.115
-702.558	740.225	0.037	0.100
-701.543	-188.805	-0.224	0.003
-700.529	186.281	-0.185	-0.282
-699.514	67.831	-0.083	0.087
-698.499	-113.325	-0.113	-0.023
-697.485	-200.000	-0.030	0.143
-696.470	800.000	0.045	-0.193
-695.456	190.597	-0.054	0.083
-694.441	-200.000	0.077	0.509
-693.426	5.273	-0.070	0.053
-692.412	59.261	0.135	-0.136
-691.397	-200.000	0.050	0.266
-690.383	-200.000	0.025	0.232
-689.368	800.000	-0.122	0.358
-688.354	52.272	-0.099	-0.096
-687.339	-21.897	-0.145	0.090
-686.324	195.852	-0.139	0.217
-685.310	-0.778	-0.134	-0.097
-684.295	-28.531	-0.485	-0.286
-683.281	12.152	0.178	0.140
-682.266	335.221	-0.007	0.014
-681.251	-200.000	0.017	-0.419
-680.237	137.087	-0.055	-0.073
-679.222	-185.124	-0.252	-0.004
-678.208	-15.630	-0.137	0.089
-677.193	237.142	-0.208	0.352
-676.178	-61.320	-0.095	-0.041
-675.164	-112.861	0.300	0.061
-674.149	-126.655	-0.249	-0.038
-673.135	364.911	-0.110	0.226
-672.120	-123.736	-0.195	-0.032
-671.105	13.050	-0.213	0.169
-670.091	-181.396	0.292	-0.006
-669.076	-197.232	0.323	-0.002
-668.062	-12.791	-0.253	-0.168
-667.047	-200.000	0.047	-0.247
-666.032	-140.072	0.298	-0.032
-665.018	303.083	0.174	0.330
-664.003	-160.503	0.129	-0.007
-662.989	415.135	-0.076	-0.165
-661.974	12.747	0.202	-0.160
-660.959	-200.000	-0.071	-0.411
-659.945	151.937	-0.077	0.108
-658.930	-200.000	-0.077	0.563
-657.916	120.776	-0.040	0.051
-656.901	-200.000	0.010	0.093
-655.886	-117.482	0.151	-0.028
-654.872	789.617	0.098	-0.275
-653.857	421.497	-0.099	-0.217
-652.843	5.550	0.143	-0.108
-651.828	-75.140	0.317	-0.116
-650.814	-200.000	0.044	-0.371
-649.799	5.132	0.176	0.132
-648.784	-169.044	-0.117	-0.004
-647.770	311.222	0.180	-0.345
-646.755	24.995	0.249	0.211
-645.741	458.690	0.106	-0.241
-644.726	292.605	-0.080	0.149
-643.711	-51.648	0.208	-0.099
-642.697	-140.989	-0.258	-0.027
-641.682	50.891	-0.106	-0.103
-640.668	-188.102	0.157	0.002
-639.653	87.860	-0.244	-0.276
-638.638	475.854	-0.041	-0.094
-637.624	379.542	-0.092	-0.193
-636.609	185.829	0.022	0.034
-635.595	-117.534	0.331	0.061
-634.580	55.664	0.175	0.173
-633.565	-200.000	-0.011	-0.293
-632.551	583.083	-0.066	-0.165
-631.536	13.719	0.073	0.058
-630.522	-200.000	0.031	0.000
-629.507	3.378	-0.163	0.121
-628.492	14.919	-0.129	-0.103
-627.478	70.694	-0.076	-0.080
-626.463	-91.900	0.118	0.034
-625.449	-34.936	0.305	-0.170
-624.434	-79.644	0.348	-0.120
-623.419	800.000	0.030	-0.124
-622.405	14.263	-0.290	-0.231
-621.390	-155.360	-0.332	0.022
-620.376	333.263	-0.100	0.198
-619.361	-59.765	-0.310	0.135
-618.346	384.894	-0.035	0.074
-617.332	-200.000	0.015	-0.222
-616.317	-200.000	-0.003	-0.307
-615.303	694.630	0.033	0.087
-614.288	-30.241	0.164	-0.095
-613.273	0.332	-0.052	-0.038
-612.259	46.195	0.293	-0.277
-611.244	133.072	0.155	-0.204
-610.230	131.425	-0.182	-0.239
-609.215	800.000	0.067	-0.207
-608.201	-200.000	-0.081	0.392
-607.186	16.018	-0.131	0.105
-606.171	-200.000	0.065	-0.470
-605.157	154.354	0.087	-0.122
-604.142	-19.070	-0.193	0.122
-603.128	800.000	-0.046	0.167
-602.113	800.000	0.040	-0.116
-601.098	-140.928	0.402	0.042
-600.084	-153.572	-0.336	0.024
-599.069	296.783	0.154	-0.288
-598.055	-11.255	0.313	0.210
-597.040	-150.015	0.046	-0.004
-596.025	-200.000	-0.039	-0.249
-595.011	-96.390	-0.218	0.059
-593.996	-108.602	-0.322	0.070
-592.982	686.213	-0.088	-0.234
-591.967	-200.000	-0.033	0.232
-590.952	-72.177	-0.272	0.103
-589.938	-44.680	-0.305	0.155
-588.923	78.208	-0.168	0.183
-587.909	-98.348	0.266	0.070
-586.894	568.830	-0.114	-0.283
-585.879	-200.000	-0.048	-0.314
-584.865	-54.810	0.283	-0.130
-583.850	15.319	0.092	0.074
-582.836	-144.341	-0.099	-0.009
-581.821	89.982	0.209	0.238
-580.806	800.000	-0.027	-0.100
-579.792	-129.550	0.416	-0.059
-578.777	-200.000	0.023	-0.216
-577.763	190.740	0.172	-0.264
-576.748	800.000	-0.044	0.151
-575.733	192.788	0.119	0.183
-574.719	138.039	-0.208	0.277
-573.704	-15.029	-0.106	0.069
-572.690	-48.343	0.070	0.034
-571.675	11.848	0.136	-0.106
-570.661	-200.000	-0.019	0.163
-569.646	29.901	0.108	-0.094
-568.631	-157.484	-0.178	0.011
-567.617	-200.000	-0.137	0.000
-566.602	296.279	0.097	-0.181
-565.588	-80.172	0.333	-0.113
-564.573	1.428	-0.242	-0.177
-563.558	540.334	-0.085	-0.206
-562.544	-33.169	0.135	0.076
-561.529	276.519	-0.065	-0.118
-560.515	-121.343	-0.357	0.061
-559.500	-0.458	0.195	-0.141
-558.485	-86.372	-0.163	-0.051
-557.471	-8.559	0.160	0.110
-556.456	800.000	-0.046	-0.138
-555.442	280.989	-0.135	0.246
-554.427	-84.582	-0.148	-0.048
-553.412	-62.499	-0.290	-0.123
-552.398	-200.000	-0.071	-0.435
-551.383	174.479	0.168	0.248
-550.369	-139.477	0.080	0.009
-549.354	-74.068	0.199	0.074
-548.339	3.660	-0.171	0.127
-547.325	-200.000	-0.027	0.123
-546.310	59.738	-0.068	-0.068
-545.296	-200.000	-0.040	-0.415
-544.281	-200.000	0.007	0.348
-543.266	-200.000	-0.020	-0.197
-542.252	262.451	0.085	0.150
-541.237	-34.819	-0.239	0.133
-540.223	-29.140	0.091	0.053
-539.208	-200.000	-0.021	-0.166
-538.193	-125.517	-0.116	-0.018
-537.179	307.393	-0.120	0.228
-536.164	-79.161	-0.145	-0.050
-535.150	-66.047	0.203	-0.083
-534.135	100.711	0.293	-0.347
-533.121	-110.370	-0.264	0.056
-532.106	-46.269	-0.199	-0.100
-531.091	-200.000	-0.019	0.234
-530.077	-6.553	0.320	0.222
-529.062	-82.925	0.104	0.034
-528.048	-29.882	0.250	0.145
-527.033	-75.143	-0.124	0.045
-526.018	-200.000	-0.007	-0.048
-525.004	66.398	-0.025	-0.026
-523.989	30.208	-0.288	-0.250
-522.975	336.316	0.038	-0.074
-521.960	-200.000	0.003	-0.054
-520.945	-47.460	-0.140	0.069
-519.931	-32.359	0.218	-0.124
-518.916	412.509	0.006	0.014
-517.902	-33.815	-0.157	-0.088
-516.887	70.558	0.071	-0.075
-515.872	-0.677	-0.059	0.042
-514.858	800.000	0.077	-0.242
-513.843	-63.601	0.246	0.103
-512.829	-0.925	-0.403	-0.290
-511.814	-65.633	0.095	-0.039
-510.799	-200.000	-0.013	0.087
-509.785	282.702	-0.233	-0.425
-508.770	-5.951	-0.141	-0.098
-507.756	226.996	0.032	-0.053
-506.741	70.870	-0.166	-0.175
-505.726	13.286	-0.199	-0.156
-504.712	-72.154	0.424	-0.160
-503.697	174.192	0.086	-0.127
-502.683	800.000	0.112	-0.395
-501.668	441.301	0.127	-0.283
-500.653	-87.992	0.040	0.012
-499.639	-40.074	0.124	0.066
-498.624	238.933	0.079	0.133
-497.610	346.618	0.227	0.454
-496.595	52.107	-0.284	-0.274
-495.581	-89.079	0.400	0.120
-494.566	-115.197	-0.229	0.044
-493.551	-156.340	-0.174	-0.011
-492.537	758.700	0.143	0.392
-491.522	285.045	-0.048	0.087
-490.508	-48.781	-0.387	-0.188
-489.493	-96.503	-0.042	-0.011
-488.478	-14.260	0.110	-0.072
-487.464	-77.597	0.196	0.069
-486.449	-26.289	0.063	-0.038
-485.435	800.000	0.047	0.154
-484.420	-52.227	-0.199	0.094
-483.405	22.205	0.279	-0.231
-482.391	-71.639	-0.160	0.061
-481.376	-90.864	-0.236	0.069
-480.362	-42.084	0.062	0.032
-479.347	-130.785	-0.028	0.004
-478.332	-113.058	-0.254	0.051
-477.318	800.000	0.017	-0.058
-476.303	-81.479	-0.075	0.025
-475.289	186.722	0.128	-0.194
-474.274	-200.000	0.011	0.207
-473.259	84.518	-0.345	0.383
-472.245	654.980	-0.034	-0.087
-471.230	-151.669	-0.254	0.019
-470.216	-56.811	-0.218	-0.098
-469.201	245.219	-0.086	0.147
-468.186	-123.293	0.154	0.025
-467.172	-81.000	-0.113	-0.038
-466.157	110.732	-0.123	-0.150
-465.143	800.000	0.087	0.314
-464.128	800.000	0.077	0.333
-463.113	73.458	-0.112	0.119
-462.099	-200.000	-0.047	0.304
-461.084	-200.000	0.019	-0.162
-460.070	-131.947	0.398	-0.053
-459.055	-200.000	-0.037	0.339
-458.040	-30.417	-0.270	0.155
-457.026	171.779	-0.132	0.192
-456.011	-152.383	0.193	0.014
-454.997	98.722	-0.061	-0.071
-453.982	62.678	0.115	-0.117
-452.968	272.195	0.135	0.241
-451.953	327.145	-0.230	0.447
-450.938	-200.000	-0.018	0.100
-449.924	405.830	-0.111	-0.237
-448.909	-98.623	0.081	-0.021
-447.895	-69.314	0.130	0.051
-446.880	-200.000	0.021	-0.280
-445.865	-200.000	-0.004	-0.080
-444.851	-5.343	0.224	0.156
-443.836	800.000	-0.065	0.214
-442.822	-200.000	0.003	0.150
-441.807	92.916	-0.101	-0.116
-440.792	-55.376	0.122	0.056
-439.778	261.769	0.249	0.438
-438.763	-200.000	-0.126	-0.567
-437.749	355.504	-0.117	-0.237
-436.734	-167.075	-0.389	0.016
-435.719	160.915	-0.094	-0.133
-434.705	289.263	-0.049	-0.090
-433.690	699.342	0.136	-0.363
-432.676	-0.069	0.045	-0.033
-431.661	67.257	-0.119	-0.122
-430.646	-37.052	0.043	-0.023
-429.632	342.459	-0.042	-0.083
-428.617	-3.997	-0.247	-0.174
-427.603	227.784	0.069	-0.114
-426.588	800.000	0.081	0.266
-425.573	-101.755	-0.250	0.061
-424.559	347.535	0.128	-0.255
-423.544	-85.788	0.565	0.177
-422.530	-56.573	0.185	0.083
-421.515	800.000	-0.042	0.182
-420.500	-200.000	0.055	0.381
-419.486	-200.000	0.052	0.233
-418.471	161.042	-0.039	-0.055
-417.457	41.550	-0.126	0.115
-416.442	-200.000	-0.006	-0.135
-415.428	342.936	0.094	0.186
-414.413	57.272	0.172	-0.170
-413.398	-200.000	0.029	0.381
-412.384	800.000	-0.081	0.272
-411.369	282.297	0.125	-0.227
-410.355	248.006	0.070	-0.120
-409.340	-200.000	0.027	0.206
-408.325	-200.000	0.002	-0.230
-407.311	147.626	0.127	0.173
-406.296	166.775	0.243	0.348
-405.282	-114.716	-0.422	-0.082
-404.267	-50.902	-0.074	-0.035
-403.252	219.359	-0.171	0.277
-402.238	800.000	-0.115	-0.392
-401.223	-200.000	-0.010	-0.259
-400.209	568.331	-0.052	-0.127
-399.194	137.879	-0.153	-0.203
-398.179	-200.000	-0.020	-0.129
-397.165	800.000	0.070	0.200
-396.150	-200.000	-0.017	-0.086
-395.136	-115.796	-0.337	-0.064
-394.121	446.032	-0.209	-0.464
-393.106	-35.293	-0.111	0.061
-392.092	-88.008	0.425	-0.129
-391.077	26.899	0.382	-0.324
-390.063	-36.163	-0.173	-0.095
-389.048	-47.270	0.382	-0.188
-388.033	183.003	0.087	-0.130
-387.019	-184.854	0.082	0.001
-386.004	-88.736	0.351	0.106
-384.990	645.564	-0.110	-0.284
-383.975	23.226	-0.083	0.069
-382.960	-15.683	0.130	-0.084
-381.946	-64.195	0.061	-0.025
-380.931	-134.883	0.112	0.014
-379.917	13.357	-0.362	0.284
-378.902	-13.362	-0.256	0.168
-377.888	800.000	-0.067	0.250
-376.873	800.000	-0.012	0.044
-375.858	31.436	0.105	0.091
-374.844	-44.043	0.021	0.011
-373.829	249.725	-0.123	-0.212
-372.815	401.501	0.029	0.062
-371.800	-200.000	-0.001	0.137
-370.785	191.442	-0.088	0.134
-369.771	10.550	-0.051	0.039
-368.756	-16.815	-0.119	0.076
-367.742	-65.277	-0.406	-0.165
-366.727	-71.473	-0.396	-0.150
-365.712	-114.434	-0.293	-0.057
-364.698	260.107	-0.050	0.088
-363.683	86.969	-0.150	0.168
-362.669	-30.492	-0.105	-0.060
-361.654	-200.000	-0.067	0.306
-360.639	4.356	0.174	-0.129
-359.625	230.615	-0.148	0.244
-358.610	800.000	0.089	-0.259
-357.596	-200.000	0.026	0.195
-356.581	274.867	-0.084	-0.150
-355.566	-129.514	0.284	-0.040
-354.552	-200.000	-0.009	-0.065
-353.537	-200.000	-0.026	-0.115
-352.523	-7.169	0.058	0.040
-351.508	-152.339	-0.080	0.006
-350.493	-122.320	0.294	-0.049
-349.479	78.378	0.153	-0.165
-348.464	322.457	0.126	0.242
-347.450	217.525	-0.145	-0.234
-346.435	-104.450	0.317	-0.074
-345.420	140.117	-0.088	0.117
-344.406	41.897	-0.096	-0.088
-343.391	-200.000	-0.009	0.056
-342.377	-76.436	-0.080	0.028
-341.362	-200.000	0.038	-0.221
-340.348	-80.459	-0.358	-0.120
-339.333	800.000	0.039	0.157
-338.318	-96.431	-0.147	0.039
-337.304	-24.156	0.105	0.063
-336.289	-200.000	-0.015	-0.084
-335.275	402.706	0.122	0.259
-334.260	572.043	-0.125	0.307
-333.245	375.195	0.054	0.111
-332.231	-42.534	0.210	0.108
-331.216	-200.000	0.013	-0.124
-330.202	-35.811	0.201	-0.110
-329.187	800.000	0.145	0.510
-328.172	43.263	-0.107	0.099
-327.158	152.835	0.037	-0.051
-326.143	-174.173	0.193	-0.006
-325.129	110.970	0.042	-0.050
-324.114	800.000	-0.053	-0.157
-323.099	366.328	-0.057	-0.117
-322.085	-53.057	-0.153	0.071
-321.070	-118.067	0.119	0.021
-320.056	214.532	-0.172	0.275
-319.041	-47.064	0.129	0.064
-318.026	107.475	-0.227	0.272
-317.012	290.594	-0.211	0.386
-315.997	800.000	0.033	0.103
-314.983	9.589	0.239	0.183
-313.968	-106.145	-0.258	0.058
-312.953	99.409	0.093	0.108
-311.939	72.638	-0.093	-0.098
-310.924	-81.183	0.170	-0.057
-309.910	-158.822	-0.023	0.001
-308.895	85.753	0.109	0.121
-307.880	524.590	-0.139	-0.329
-306.866	-126.547	-0.293	-0.044
-305.851	-200.000	-0.039	0.185
-304.837	-200.000	-0.089	-0.466
-303.822	-200.000	0.021	-0.308
-302.807	-133.610	0.308	-0.039
-301.793	8.356	0.257	0.195
-300.778	18.234	-0.191	-0.154
-299.764	-100.885	-0.446	-0.111
-298.749	800.000	0.039	0.131
-297.735	-2.120	-0.110	0.078
-296.720	-200.000	-0.020	0.101
-295.705	-114.052	0.059	-0.012
-294.691	108.630	-0.258	0.310
-293.676	126.326	0.037	0.048
-292.662	-121.205	0.298	0.050
-291.647	48.842	0.156	0.148
-290.632	19.198	-0.167	-0.135
-289.618	22.282	0.027	-0.022
-288.603	29.376	-0.092	-0.079
-287.589	-81.409	0.293	-0.097
-286.574	113.918	0.074	0.091
-285.559	-106.229	-0.163	0.037
-284.545	-18.761	0.135	0.084
-283.530	-68.523	0.283	0.110
-282.516	253.907	0.043	0.074
-281.501	213.006	0.030	-0.047
-280.486	82.241	0.256	0.279
-279.472	-60.100	0.121	0.052
-278.457	-168.103	-0.278	0.011
-277.443	-103.186	-0.211	-0.050
-276.428	89.023	0.093	-0.105
-275.413	90.890	-0.236	0.267
-274.399	-153.994	0.237	-0.016
-273.384	-70.059	-0.064	-0.025
-272.370	613.863	0.045	0.113
-271.355	55.750	0.071	0.069
-270.340	-200.000	0.000	0.056
-269.326	-55.609	0.160	-0.072
-268.311	51.410	0.128	-0.122
-267.297	55.376	-0.220	0.214
-266.282	-57.958	0.096	-0.042
-265.267	-4.151	-0.023	0.016
-264.253	-57.463	0.169	-0.075
-263.238	257.023	0.054	-0.093
-262.224	-82.468	-0.251	0.082
-261.209	-200.000	0.020	0.159
-260.195	-126.139	-0.240	-0.036
-259.180	-34.819	0.070	-0.038
-258.165	-200.000	0.001	0.011
-257.151	-72.063	0.177	0.066
-256.136	-105.593	-0.165	-0.038
-255.122	-200.000	-0.022	-0.284
-254.107	-200.000	-0.028	0.166
-253.092	-108.749	0.323	0.070
-252.078	800.000	0.050	0.172
-251.063	-73.484	0.121	-0.045
-250.049	-200.000	-0.034	-0.345
-249.034	-60.199	-0.054	-0.023
-248.019	180.187	0.187	-0.276
-247.005	147.530	-0.070	-0.094
-245.990	6.053	0.151	0.112
-244.976	-200.000	0.025	-0.179
-243.961	-162.146	-0.292	0.015
-242.946	104.836	0.103	-0.122
-241.932	265.752	-0.146	-0.256
-240.917	23.059	0.064	-0.053
-239.903	108.038	-0.054	0.065
-238.888	-200.000	0.033	-0.338
-237.873	-67.805	0.054	0.021
-236.859	-39.508	0.488	0.257
-235.844	-48.917	-0.203	0.098
-234.830	800.000	-0.041	-0.128
-233.815	-200.000	-0.005	0.122
-232.800	-151.373	-0.130	0.010
-231.786	-66.326	0.216	-0.086
-230.771	5.364	0.256	-0.190
-229.757	460.011	-0.137	-0.307
-228.742	-161.169	0.391	-0.020
-227.727	800.000	-0.029	0.089
-226.713	-200.000	-0.028	-0.267
-225.698	-152.147	0.247	-0.018
-224.684	-84.604	-0.159	0.050
-223.669	344.126	0.057	-0.112
-222.655	-200.000	-0.024	0.129
-221.640	-200.000	-0.001	-0.193
-220.625	-61.891	-0.303	-0.127
-219.611	-174.523	-0.271	-0.008
-218.596	184.197	-0.163	-0.242
-217.582	800.000	-0.057	0.194
-216.567	168.232	0.139	0.198
-215.552	-95.956	0.332	0.089
-214.538	239.277	0.100	-0.166
-213.523	614.831	-0.151	0.380
-212.509	-113.122	-0.200	-0.040
-211.494	-200.000	-0.056	0.285
-210.479	24.013	0.120	-0.100
-209.465	-110.562	0.140	0.029
-208.450	-51.482	0.422	0.198
-207.436	-1.145	0.154	-0.109
-206.421	-200.000	0.009	0.082
-205.406	800.000	0.033	-0.101
-204.392	211.130	-0.115	-0.181
-203.377	401.394	0.161	0.340
-202.363	800.000	0.017	-0.068
-201.348	142.513	0.214	0.285
-200.333	198.988	0.226	0.347
-199.319	-200.000	0.029	0.198
-198.304	95.852	0.210	0.241
-197.290	69.156	0.075	-0.077
-196.275	-118.710	-0.351	-0.062
-195.260	-61.516	-0.202	0.085
-194.246	-200.000	0.021	0.094
-193.231	-114.556	0.322	-0.062
-192.217	-26.840	0.174	0.102
-191.202	207.802	-0.224	-0.351
-190.187	-200.000	0.045	0.255
-189.173	259.200	0.092	-0.159
-188.158	-19.035	-0.041	-0.026
-187.144	-200.000	-0.017	0.110
-186.129	-86.627	-0.139	0.043
-185.114	334.823	-0.031	0.060
-184.100	-79.958	-0.176	-0.059
-183.085	-35.039	0.166	0.091
-182.071	-200.000	-0.051	0.300
-181.056	239.529	0.182	-0.303
-180.042	114.774	0.083	0.101
-179.027	-200.000	-0.014	0.168
-178.012	-200.000	-0.050	0.364
-176.998	-96.429	-0.242	0.064
-175.983	104.301	-0.170	0.201
-174.969	143.898	0.073	0.098
-173.954	-87.143	-0.103	-0.031
-172.939	800.000	0.022	-0.073
-171.925	10.632	0.119	0.091
-170.910	140.902	-0.304	0.403
-169.896	225.029	0.154	-0.250
-168.881	-200.000	-0.016	-0.211
-167.866	291.650	0.114	0.209
-166.852	-200.000	-0.054	0.000
-165.837	63.217	0.206	-0.207
-164.823	-200.000	0.023	0.135
-163.808	4.652	0.110	0.081
-162.793	-107.816	-0.026	-0.006
-161.779	556.047	0.053	0.129
-160.764	108.456	-0.084	0.100
-159.750	-88.025	0.138	-0.041
-158.735	323.158	-0.128	0.244
-157.720	312.823	-0.122	-0.229
-156.706	-146.519	0.292	-0.025
-155.691	-68.568	-0.221	0.086
-154.677	-127.747	-0.062	0.009
-153.662	-89.859	-0.529	-0.155
-152.647	-200.000	0.047	0.287
-151.633	-170.963	0.438	0.015
-150.618	36.234	-0.284	-0.251
-149.604	-73.296	-0.166	-0.061
-148.589	193.703	-0.104	-0.158
-147.574	800.000	0.095	-0.331
-146.560	-135.923	-0.168	-0.020
-145.545	405.544	0.087	-0.184
-144.531	571.707	0.161	-0.392
-143.516	427.825	-0.151	-0.326
-142.502	-21.180	-0.383	0.235
-141.487	-136.121	-0.377	0.044
-140.472	-137.573	-0.211	0.024
-139.458	-150.232	0.077	-0.006
-138.443	-68.249	0.325	0.127
-137.429	-75.339	0.027	-0.010
-136.414	-119.285	0.200	-0.035
-135.399	43.286	-0.053	0.049
-134.385	-72.450	-0.297	0.110
-133.370	340.500	-0.085	-0.165
-132.356	-135.271	0.129	-0.016
-131.341	-200.000	-0.031	0.166
-130.326	310.802	0.227	0.425
-129.312	605.295	0.087	0.218
-128.297	116.441	-0.072	-0.088
-127.283	-200.000	-0.011	-0.229
-126.268	-77.406	-0.290	-0.101
-125.253	-200.000	0.023	0.119
-124.239	102.060	-0.184	0.215
-123.224	285.551	0.073	-0.132
-122.210	418.123	0.156	-0.334
