DTS Sentinel unit serial number:	SN413079Multiplexer serial number:	ORYXHardware model number:	OX4-SRSoftware version number:	ORYX F/W v4.00 Oryx Data Collector v3.7.2.0data status	okinstallation	princeton_trtdifferential loss correction	single-endedforward channel	channel 4reverse channel	N/Adate	2019/09/11time	20:55:10forward acquisition time	60.00reverse acquisition time	0.00gamma	496.2192k internal	0.2305k external	0.2305temperature offset calibration	1.0062default loss term (dB/km)	0.3790temperature slope calibration	1.0000multiplexer offset coefficient	1.0000multiplexer slope coefficient	1.0000fibre end	0.00T internal ref (°C)	36.81T ext. ref 1 (°C)	1.58T ext. ref 2 (°C)	30.80length (m)	temperature (°C)	Stokes	anti-Stokes-747.200	800.000	-0.053	-0.174
-746.185	-6.889	0.241	0.166
-745.171	-133.621	0.233	0.030
-744.156	-200.000	0.034	0.171
-743.142	33.622	0.441	-0.390
-742.127	800.000	-0.001	0.002
-741.112	-151.111	0.208	0.016
-740.098	-85.756	0.142	0.045
-739.083	-112.455	-0.269	0.055
-738.069	85.852	-0.109	0.122
-737.054	418.198	-0.137	0.298
-736.039	-75.994	-0.238	0.086
-735.025	125.530	0.059	0.076
-734.010	322.832	-0.080	0.156
-732.996	-22.988	-0.392	-0.241
-731.981	55.797	-0.167	0.165
-730.966	-200.000	-0.020	0.129
-729.952	-139.144	0.236	0.026
-728.937	-39.080	0.157	-0.084
-727.923	624.579	-0.104	-0.266
-726.908	-200.000	-0.128	-0.659
-725.894	-26.857	0.053	0.032
-724.879	800.000	0.111	0.340
-723.864	-95.790	-0.039	-0.010
-722.850	-81.849	-0.279	-0.093
-721.835	633.431	0.034	0.087
-720.821	-200.000	-0.047	0.266
-719.806	-76.407	-0.202	-0.072
-718.791	-200.000	-0.020	0.245
-717.777	-140.341	0.082	-0.009
-716.762	451.736	0.106	0.238
-715.748	-16.518	0.051	0.033
-714.733	-169.133	0.332	-0.013
-713.718	465.896	0.151	-0.343
-712.704	71.443	-0.217	0.229
-711.689	7.698	0.252	-0.192
-710.675	32.948	0.240	-0.211
-709.660	-200.000	0.027	0.273
-708.645	-95.494	0.302	0.082
-707.631	-177.510	0.231	-0.006
-706.616	128.654	0.397	-0.514
-705.602	67.412	0.140	-0.146
-704.587	29.897	-0.164	0.142
-703.572	-144.318	0.394	-0.037
-702.558	121.678	0.142	0.180
-701.543	-9.540	-0.147	0.100
-700.529	168.538	-0.213	-0.308
-699.514	652.034	-0.152	0.397
-698.499	800.000	-0.014	-0.054
-697.485	-76.539	0.145	0.052
-696.470	-133.606	-0.226	-0.029
-695.456	149.476	-0.070	0.096
-694.441	-4.641	0.102	-0.072
-693.426	135.745	0.079	0.104
-692.412	141.012	-0.123	-0.166
-691.397	-62.071	0.065	0.028
-690.383	-116.782	0.374	-0.070
-689.368	800.000	0.087	-0.346
-688.354	26.969	-0.139	0.118
-687.339	-106.230	-0.213	-0.049
-686.324	800.000	-0.155	0.484
-685.310	193.962	-0.183	0.282
-684.295	-37.188	-0.326	-0.177
-683.281	-52.135	-0.297	-0.140
-682.266	-200.000	-0.019	0.379
-681.251	-49.544	0.144	-0.070
-680.237	8.274	-0.169	0.129
-679.222	-200.000	-0.022	-0.130
-678.208	-200.000	-0.001	-0.178
-677.193	-57.775	0.326	0.145
-676.178	-63.067	-0.420	0.176
-675.164	800.000	0.046	0.132
-674.149	-29.768	-0.229	-0.133
-673.135	800.000	0.009	0.027
-672.120	-200.000	0.044	-0.483
-671.105	147.920	0.042	-0.057
-670.091	715.730	0.106	0.286
-669.076	-62.540	-0.460	0.194
-668.062	602.167	-0.130	-0.328
-667.047	145.802	0.169	-0.230
-666.032	-200.000	-0.004	-0.248
-665.018	173.170	-0.019	0.027
-664.003	319.213	-0.283	0.544
-662.989	499.725	-0.080	0.187
-661.974	800.000	-0.162	0.586
-660.959	-200.000	0.014	-0.139
-659.945	-200.000	-0.010	-0.046
-658.930	-74.670	-0.283	-0.103
-657.916	800.000	0.071	-0.201
-656.901	127.148	0.183	0.235
-655.886	216.647	0.068	-0.110
-654.872	-84.316	0.161	-0.052
-653.857	95.563	0.082	0.095
-652.843	12.801	0.213	-0.167
-651.828	-91.702	-0.346	-0.100
-650.814	-22.459	-0.111	-0.068
-649.799	33.767	0.130	0.115
-648.784	800.000	0.047	-0.201
-647.770	-200.000	-0.037	0.181
-646.755	-5.577	-0.370	-0.257
-645.741	115.599	0.055	0.068
-644.726	75.775	0.053	-0.056
-643.711	-200.000	0.008	0.168
-642.697	-85.408	-0.235	-0.074
-641.682	276.654	-0.069	-0.124
-640.668	538.263	-0.019	-0.047
-639.653	-57.305	0.086	-0.038
-638.638	175.890	0.071	-0.104
-637.624	71.807	0.145	-0.152
-636.609	-200.000	0.012	0.086
-635.595	-18.107	0.371	-0.235
-634.580	-181.516	0.047	0.001
-633.565	-200.000	0.051	-0.246
-632.551	-200.000	0.014	-0.128
-631.536	-33.480	-0.175	-0.098
-630.522	393.163	-0.019	0.040
-629.507	66.269	0.105	0.108
-628.492	743.360	-0.021	0.057
-627.478	542.454	-0.066	-0.158
-626.463	111.472	0.253	-0.309
-625.449	800.000	-0.025	-0.094
-624.434	-10.237	-0.172	-0.116
-623.419	43.741	0.068	-0.063
-622.405	-20.449	-0.219	0.137
-621.390	33.371	-0.214	0.188
-620.376	800.000	0.058	-0.250
-619.361	243.715	-0.115	-0.196
-618.346	-200.000	-0.045	-0.295
-617.332	409.871	-0.070	0.150
-616.317	-88.600	-0.328	-0.099
-615.303	367.462	-0.190	0.388
-614.288	-80.219	-0.226	-0.076
-613.273	-200.000	-0.061	0.343
-612.259	-49.820	-0.192	-0.092
-611.244	269.215	0.304	-0.540
-610.230	-105.267	0.290	0.067
-609.215	800.000	-0.039	-0.160
-608.201	800.000	0.073	-0.233
-607.186	391.392	-0.062	0.131
-606.171	-138.754	0.333	0.037
-605.157	-200.000	-0.020	0.125
-604.142	423.374	0.078	-0.171
-603.128	94.835	-0.179	0.206
-602.113	-168.539	-0.133	-0.005
-601.098	-114.748	0.145	0.028
-600.084	800.000	-0.042	0.150
-599.069	232.598	-0.067	0.112
-598.055	91.895	-0.158	0.180
-597.040	-200.000	-0.040	-0.296
-596.025	-200.000	0.099	-0.564
-595.011	-147.752	-0.298	-0.025
-593.996	-200.000	-0.000	0.279
-592.982	-52.259	-0.244	-0.115
-591.967	350.619	-0.065	-0.131
-590.952	-29.175	-0.201	-0.116
-589.938	-200.000	-0.111	-0.519
-588.923	137.270	0.166	0.220
-587.909	-42.784	-0.295	-0.152
-586.894	-78.503	0.347	0.120
-585.879	-200.000	0.018	-0.148
-584.865	800.000	-0.034	0.099
-583.850	800.000	0.076	0.230
-582.836	412.785	0.062	0.133
-581.821	800.000	0.042	0.130
-580.806	800.000	0.052	-0.158
-579.792	-200.000	0.012	0.062
-578.777	-32.430	-0.104	-0.059
-577.763	-80.000	-0.062	-0.021
-576.748	-54.461	-0.144	0.066
-575.733	-200.000	-0.002	0.030
-574.719	18.081	-0.102	0.082
-573.704	-200.000	0.004	-0.058
-572.690	-101.485	-0.059	0.014
-571.675	800.000	0.072	0.203
-570.661	-71.105	-0.138	0.052
-569.646	-48.435	-0.063	0.031
-568.631	84.481	0.012	0.013
-567.617	13.426	0.320	0.251
-566.602	-200.000	-0.004	-0.226
-565.588	107.154	0.037	0.045
-564.573	306.788	0.104	0.195
-563.558	58.272	-0.194	-0.193
-562.544	-200.000	0.021	-0.253
-561.529	83.801	0.096	0.106
-560.515	-200.000	-0.033	0.220
-559.500	-136.054	0.246	-0.029
-558.485	-75.816	0.138	-0.050
-557.471	-147.148	-0.293	-0.025
-556.456	-200.000	0.064	0.329
-555.442	23.808	-0.247	0.205
-554.427	-121.276	0.170	0.029
-553.412	-112.686	-0.228	0.046
-552.398	-200.000	0.024	0.142
-551.383	25.747	-0.059	-0.049
-550.369	-170.730	-0.445	0.015
-549.354	800.000	-0.032	0.097
-548.339	-76.543	-0.328	0.116
-547.325	360.399	0.102	0.206
-546.310	-141.917	-0.346	-0.035
-545.296	-2.824	0.167	0.118
-544.281	91.993	0.260	0.296
-543.266	260.540	0.101	-0.176
-542.252	-200.000	-0.031	-0.254
-541.237	628.984	0.050	-0.127
-540.223	-200.000	-0.041	-0.265
-539.208	27.741	0.242	-0.205
-538.193	151.351	0.124	-0.171
-537.179	13.844	0.197	0.154
-536.164	800.000	0.112	-0.446
-535.150	800.000	0.019	-0.074
-534.135	13.293	0.429	-0.336
-533.121	232.654	-0.126	-0.209
-532.106	-155.268	-0.089	-0.006
-531.091	-84.244	-0.089	-0.028
-530.077	-50.873	-0.117	0.055
-529.062	-99.571	-0.251	-0.064
-528.048	318.408	-0.072	-0.137
-527.033	-200.000	0.053	-0.386
-526.018	381.056	-0.069	-0.143
-525.004	800.000	-0.034	0.135
-523.989	800.000	0.061	0.191
-522.975	65.076	-0.042	0.043
-521.960	-155.332	-0.216	0.014
-520.945	105.174	0.141	-0.169
-519.931	-200.000	0.063	0.321
-518.916	100.704	-0.065	-0.077
-517.902	28.592	0.071	0.061
-516.887	79.830	0.033	0.036
-515.872	92.906	0.099	-0.113
-514.858	222.230	-0.194	-0.315
-513.843	-102.790	0.198	-0.048
-512.829	-56.264	-0.186	0.083
-511.814	166.097	-0.163	0.232
-510.799	-82.737	-0.058	-0.019
-509.785	-200.000	-0.018	-0.156
-508.770	-127.987	0.098	0.014
-507.756	480.968	-0.011	-0.025
-506.741	-200.000	0.001	-0.112
-505.726	-97.326	0.122	-0.032
-504.712	155.178	-0.186	-0.258
-503.697	-134.938	0.041	-0.005
-502.683	-99.841	0.179	-0.045
-501.668	-78.963	-0.183	-0.063
-500.653	-76.001	0.234	-0.083
-499.639	103.942	-0.051	-0.060
-498.624	-200.000	0.016	0.099
-497.610	-43.290	0.141	-0.072
-496.595	-200.000	0.069	-0.318
-495.581	-161.244	0.117	0.006
-494.566	-47.424	0.348	-0.171
-493.551	-200.000	-0.007	-0.080
-492.537	177.373	-0.194	-0.284
-491.522	-8.287	-0.140	-0.095
-490.508	-73.035	-0.079	-0.029
-489.493	-33.731	-0.346	0.192
-488.478	800.000	0.054	0.223
-487.464	217.788	-0.154	-0.247
-486.449	-20.194	-0.319	-0.198
-485.435	194.508	0.038	-0.059
-484.420	-87.032	-0.388	-0.119
-483.405	-137.583	-0.276	-0.031
-482.391	-61.689	-0.213	-0.090
-481.376	-16.113	0.187	-0.120
-480.362	83.998	0.288	0.317
-479.347	800.000	0.091	0.337
-478.332	173.746	0.199	-0.289
-477.318	-14.491	-0.154	-0.100
-476.303	-200.000	-0.009	-0.124
-475.289	-79.634	-0.202	-0.069
-474.274	75.105	0.140	-0.149
-473.259	-67.226	-0.236	0.094
-472.245	-200.000	-0.027	0.266
-471.230	800.000	-0.085	0.282
-470.216	-153.981	0.222	-0.015
-469.201	-65.084	-0.107	0.044
-468.186	-18.536	0.220	-0.139
-467.172	-101.485	-0.054	0.013
-466.157	-200.000	0.030	-0.176
-465.143	21.291	0.106	0.087
-464.128	-111.729	0.177	0.036
-463.113	-10.576	0.080	-0.053
-462.099	-83.820	0.177	0.057
-461.084	46.356	-0.113	-0.105
-460.070	13.803	-0.146	0.114
-459.055	15.629	-0.196	0.155
-458.040	-200.000	0.046	0.272
-457.026	-37.479	-0.133	-0.072
-456.011	-112.602	0.369	-0.074
-454.997	-148.910	-0.329	0.027
-453.982	138.829	-0.081	-0.108
-452.968	-96.540	-0.240	0.064
-451.953	-56.043	-0.143	0.064
-450.938	-125.212	0.105	-0.016
-449.924	85.321	0.025	-0.027
-448.909	421.260	-0.035	0.075
-447.895	800.000	-0.053	-0.148
-446.880	14.347	0.188	0.148
-445.865	-42.702	0.394	0.202
-444.851	-23.474	-0.249	-0.150
-443.836	-200.000	0.020	0.156
-442.822	-200.000	-0.019	-0.219
-441.807	49.999	0.151	-0.143
-440.792	-90.340	0.121	-0.035
-439.778	800.000	0.041	-0.135
-438.763	7.902	0.169	0.127
-437.749	-77.953	-0.190	0.066
-436.734	-14.831	-0.198	-0.128
-435.719	-2.277	0.200	0.141
-434.705	800.000	0.080	0.224
-433.690	236.643	-0.066	0.110
-432.676	92.851	-0.220	-0.250
-431.661	-84.886	0.120	0.038
-430.646	60.531	-0.169	-0.168
-429.632	88.489	-0.206	0.230
-428.617	-102.836	0.331	-0.079
-427.603	91.934	0.324	0.367
-426.588	800.000	-0.026	0.109
-425.573	-166.982	-0.304	0.012
-424.559	-200.000	-0.045	-0.235
-423.544	26.896	-0.102	-0.086
-422.530	284.490	0.174	-0.315
-421.515	-67.826	0.133	0.052
-420.500	-9.174	-0.207	0.139
-419.486	18.637	0.069	-0.055
-418.471	-129.258	0.195	-0.027
-417.457	-200.000	-0.049	0.266
-416.442	184.904	-0.098	0.146
-415.428	800.000	0.100	-0.439
-414.413	47.059	-0.120	-0.112
-413.398	-11.584	-0.127	-0.084
-412.384	235.775	-0.202	0.336
-411.369	484.646	0.080	0.182
-410.355	-179.000	-0.180	-0.004
-409.340	-124.612	0.236	-0.037
-408.325	-151.344	-0.430	0.032
-407.311	739.380	-0.094	0.252
-406.296	56.725	0.096	-0.094
-405.282	800.000	0.067	-0.270
-404.267	779.792	-0.059	-0.163
-403.252	157.976	-0.231	0.321
-402.238	-45.115	-0.308	-0.154
-401.223	800.000	0.021	-0.078
-400.209	-90.138	0.303	-0.089
-399.194	-90.767	-0.221	0.064
-398.179	-173.734	0.176	0.005
-397.165	97.513	-0.058	-0.067
-396.150	-166.415	0.171	-0.007
-395.136	186.003	-0.091	0.135
-394.121	84.103	0.088	-0.097
-393.106	-13.955	0.080	-0.052
-392.092	-40.611	-0.124	-0.065
-391.077	-149.572	0.157	0.012
-390.063	206.613	-0.120	-0.188
-389.048	227.966	0.130	-0.213
-388.033	35.534	0.269	-0.237
-387.019	48.506	0.113	-0.107
-386.004	-200.000	0.051	-0.290
-384.990	-188.594	0.510	-0.006
-383.975	-24.859	-0.023	-0.014
-382.960	800.000	0.129	0.438
-381.946	-200.000	-0.045	0.407
-380.931	-121.010	0.373	-0.063
-379.917	-31.368	-0.455	-0.257
-378.902	18.960	-0.211	0.170
-377.888	-56.076	0.171	-0.076
-376.873	14.276	-0.135	-0.105
-375.858	28.550	0.194	0.165
-374.844	-30.058	0.130	-0.074
-373.829	-74.694	0.189	0.068
-372.815	-113.869	0.354	-0.069
-371.800	5.981	0.146	0.108
-370.785	-200.000	-0.009	0.235
-369.771	-200.000	-0.053	-0.406
-368.756	-24.325	0.194	-0.116
-367.742	240.845	-0.170	-0.284
-366.727	800.000	0.119	-0.400
-365.712	800.000	-0.066	0.231
-364.698	-87.767	-0.143	0.043
-363.683	-12.372	0.044	-0.029
-362.669	21.565	-0.096	-0.078
-361.654	22.526	-0.053	0.044
-360.639	800.000	0.058	0.199
-359.625	-17.898	0.110	-0.069
-358.610	-147.507	0.161	0.014
-357.596	-200.000	-0.047	0.294
-356.581	-200.000	-0.029	0.260
-355.566	-174.769	-0.050	0.001
-354.552	-200.000	0.002	-0.136
-353.537	800.000	0.179	-0.612
-352.523	-82.157	0.274	0.089
-351.508	800.000	0.035	0.098
-350.493	800.000	-0.125	0.489
-349.479	-139.969	0.312	-0.033
-348.464	800.000	-0.164	-0.620
-347.450	-61.587	0.119	-0.050
-346.435	-200.000	-0.043	0.328
-345.420	214.057	0.132	0.210
-344.406	-142.162	-0.286	-0.028
-343.391	-200.000	-0.005	-0.129
-342.377	-200.000	0.044	0.280
-341.362	272.608	0.028	0.050
-340.348	-71.511	0.064	-0.024
-339.333	-26.355	0.137	0.080
-338.318	-200.000	0.023	-0.108
-337.304	-81.525	0.068	-0.022
-336.289	-22.563	-0.105	-0.064
-335.275	26.852	0.121	0.102
-334.260	800.000	-0.053	-0.181
-333.245	-22.049	0.281	0.171
-332.231	50.451	0.251	-0.238
-331.216	-97.528	-0.218	-0.057
-330.202	-18.047	0.219	0.138
-329.187	105.466	0.067	0.079
-328.172	-50.610	-0.418	0.197
-327.158	-200.000	0.014	0.097
-326.143	800.000	-0.189	-0.539
-325.129	-31.738	0.083	0.047
-324.114	800.000	0.112	0.311
-323.099	800.000	0.096	0.314
-322.085	-159.221	0.431	-0.024
-321.070	-64.865	-0.205	0.083
-320.056	-124.508	0.115	0.018
-319.041	288.074	0.107	-0.193
-318.026	140.345	-0.033	-0.043
-317.012	-200.000	0.013	0.255
-315.997	230.754	0.048	0.078
-314.983	-200.000	-0.009	-0.149
-313.968	448.867	-0.107	0.235
-312.953	173.814	-0.126	0.183
-311.939	-25.495	-0.367	-0.217
-310.924	-131.790	0.254	0.033
-309.910	800.000	-0.066	-0.271
-308.895	-139.760	0.123	0.013
-307.880	800.000	-0.059	0.223
-306.866	6.016	0.163	-0.121
-305.851	-96.233	-0.174	0.046
-304.837	210.647	-0.050	-0.078
-303.822	196.381	0.110	-0.168
-302.807	-50.358	-0.144	0.068
-301.793	-74.087	-0.404	0.146
-300.778	162.276	0.208	0.292
-299.764	46.192	-0.119	-0.110
-298.749	-36.034	-0.016	0.009
-297.735	-200.000	0.004	0.451
-296.720	454.423	0.023	-0.052
-295.705	-21.776	0.168	-0.103
-294.691	135.629	-0.250	0.325
-293.676	139.249	-0.123	0.162
-292.662	-34.622	-0.083	0.045
-291.647	-125.494	0.254	-0.039
-290.632	206.775	-0.104	0.161
-289.618	-110.349	-0.371	-0.077
-288.603	246.624	-0.197	0.332
-287.589	-50.621	-0.322	0.152
-286.574	139.224	-0.102	-0.134
-285.559	-50.023	0.100	0.047
-284.545	1.612	0.192	0.138
-283.530	153.910	0.207	0.283
-282.516	91.847	-0.095	-0.107
-281.501	149.888	-0.087	0.118
-280.486	800.000	-0.063	-0.200
-279.472	30.578	0.047	-0.040
-278.457	675.789	0.131	0.339
-277.443	-67.872	0.099	-0.039
-276.428	-7.070	0.239	0.162
-275.413	247.282	0.088	0.149
-274.399	33.301	0.045	0.039
-273.384	800.000	0.059	-0.174
-272.370	-100.479	-0.197	-0.049
-271.355	800.000	0.051	-0.208
-270.340	66.710	0.165	-0.168
-269.326	99.511	0.179	-0.207
-268.311	-91.033	-0.066	-0.019
-267.297	55.615	0.134	0.130
-266.282	-200.000	-0.062	0.286
-265.267	96.813	-0.168	0.193
-264.253	114.680	0.105	0.127
-263.238	-90.797	-0.196	0.057
-262.224	-46.235	0.068	0.033
-261.209	-89.825	-0.194	0.057
-260.195	-4.221	0.348	0.240
-259.180	407.699	0.185	0.391
-258.165	-165.287	0.099	0.004
-257.151	-147.234	-0.203	0.017
-256.136	25.966	-0.121	0.101
-255.122	205.151	0.154	-0.239
-254.107	5.350	0.098	-0.072
-253.092	57.040	0.200	-0.194
-252.078	800.000	-0.074	-0.249
-251.063	-200.000	-0.060	-0.538
-250.049	117.746	0.131	-0.161
-249.034	800.000	-0.106	0.365
-248.019	81.812	0.157	0.170
-247.005	21.559	-0.198	0.161
-245.990	112.434	-0.115	-0.139
-244.976	-85.525	-0.262	0.081
-243.961	-195.018	-0.184	0.001
-242.946	-94.303	0.068	-0.018
-241.932	-200.000	0.007	-0.052
-240.917	-200.000	0.023	0.124
-239.903	274.460	0.104	-0.185
-238.888	68.295	0.042	-0.043
-237.873	-200.000	0.021	0.347
-236.859	-37.714	0.142	0.075
-235.844	-24.057	0.192	0.115
-234.830	5.937	-0.226	0.167
-233.815	-200.000	-0.013	0.217
-232.800	392.297	0.054	-0.112
-231.786	84.868	-0.194	0.212
-230.771	-200.000	0.035	0.224
-229.757	-93.347	0.333	-0.092
-228.742	-18.410	-0.340	-0.212
-227.727	-200.000	-0.035	-0.200
-226.713	-136.898	0.345	0.039
-225.698	-85.990	0.163	0.050
-224.684	564.593	0.032	-0.076
-223.669	299.686	-0.199	-0.366
-222.655	800.000	0.058	0.212
-221.640	-55.073	-0.378	0.170
-220.625	-46.501	-0.154	-0.075
-219.611	-40.702	-0.382	0.198
-218.596	-200.000	0.006	0.079
-217.582	800.000	0.078	0.218
-216.567	21.549	-0.133	-0.108
-215.552	42.760	-0.022	-0.020
-214.538	309.479	-0.088	0.165
-213.523	-39.038	-0.198	-0.104
-212.509	-95.497	-0.164	-0.044
-211.494	-39.031	0.245	0.128
-210.479	-191.543	-0.211	0.002
-209.465	29.963	-0.198	0.168
-208.450	800.000	0.087	0.283
-207.436	-67.592	0.131	0.051
-206.421	-23.949	0.216	0.129
-205.406	584.138	0.109	-0.266
-204.392	-105.998	-0.045	-0.010
-203.377	800.000	-0.037	-0.151
-202.363	-22.381	0.063	-0.038
-201.348	-74.906	-0.167	-0.060
-200.333	-167.046	0.185	-0.008
-199.319	121.731	0.066	-0.082
-198.304	19.816	0.040	0.032
-197.290	72.910	0.184	0.192
-196.275	-36.168	0.069	-0.037
-195.260	-118.542	0.122	-0.021
-194.246	-16.890	-0.175	0.110
-193.231	104.311	-0.097	0.114
-192.217	36.133	0.222	0.194
-191.202	-200.000	-0.031	-0.207
-190.187	-200.000	-0.072	0.512
-189.173	-200.000	0.010	-0.131
-188.158	-25.310	-0.162	-0.095
-187.144	-200.000	0.042	0.282
-186.129	-200.000	0.014	0.147
-185.114	184.794	-0.084	-0.125
-184.100	-109.120	0.131	-0.028
-183.085	-16.624	0.304	0.192
-182.071	206.212	0.092	-0.142
-181.056	203.325	0.122	-0.187
-180.042	170.847	0.191	0.272
-179.027	-60.503	-0.262	-0.111
-178.012	-168.122	0.093	0.004
-176.998	32.876	0.210	-0.181
-175.983	-200.000	0.009	0.230
-174.969	66.734	-0.117	0.118
-173.954	380.589	0.149	-0.303
-172.939	22.976	0.168	-0.137
-171.925	-48.893	-0.416	0.199
-170.910	342.542	-0.265	0.517
-169.896	-162.912	0.269	-0.013
-168.881	-114.087	0.473	-0.091
-167.866	-200.000	0.016	-0.260
-166.852	-60.536	0.089	-0.038
-165.837	227.623	-0.150	-0.242
-164.823	-200.000	0.006	0.069
-163.808	283.668	-0.212	0.380
-162.793	-92.214	-0.151	0.042
-161.779	406.920	-0.155	-0.326
-160.764	74.866	0.074	0.077
-159.750	97.557	-0.243	0.278
-158.735	45.331	0.181	-0.166
-157.720	800.000	-0.130	0.479
-156.706	-86.371	0.312	-0.096
-155.691	59.721	0.074	0.073
-154.677	79.107	0.289	-0.308
-153.662	-71.287	-0.030	0.011
-152.647	365.421	0.114	-0.227
-151.633	-200.000	0.024	0.219
-150.618	5.844	-0.197	0.145
-149.604	-200.000	-0.044	-0.610
-148.589	28.843	-0.080	-0.067
-147.574	663.313	0.089	0.229
-146.560	66.909	-0.085	0.086
-145.545	96.063	-0.027	-0.031
-144.531	-2.726	0.182	-0.126
-143.516	102.053	-0.252	-0.292
-142.502	-200.000	-0.010	0.109
-141.487	-43.327	0.209	0.105
-140.472	-200.000	-0.000	-0.082
-139.458	-13.927	0.147	-0.094
-138.443	273.836	-0.083	-0.147
-137.429	-200.000	0.033	0.295
-136.414	278.321	0.161	-0.286
-135.399	173.229	-0.131	-0.187
-134.385	435.052	-0.030	-0.064
-133.370	-49.627	0.271	-0.128
-132.356	66.081	0.202	-0.204
-131.341	48.507	-0.289	0.269
-130.326	-78.063	-0.264	-0.090
-129.312	-61.200	0.388	-0.163
-128.297	-172.076	0.118	0.004
-127.283	-200.000	-0.005	-0.276
-126.268	-159.410	0.196	-0.011
-125.253	-53.878	0.371	-0.168
-124.239	-125.183	-0.123	-0.019
-123.224	-104.778	-0.446	-0.102
-122.210	-62.726	-0.217	-0.089
-121.195	-75.231	-0.258	-0.091
