DTS Sentinel unit serial number:	SN413079Multiplexer serial number:	ORYXHardware model number:	OX4-SRSoftware version number:	ORYX F/W v4.00 Oryx Data Collector v3.7.2.0data status	okinstallation	princeton_trtdifferential loss correction	single-endedforward channel	channel 4reverse channel	N/Adate	2019/09/11time	13:03:11forward acquisition time	60.00reverse acquisition time	0.00gamma	496.2192k internal	0.2282k external	0.2282temperature offset calibration	0.9968default loss term (dB/km)	0.3790temperature slope calibration	1.0000multiplexer offset coefficient	1.0000multiplexer slope coefficient	1.0000fibre end	0.00T internal ref (°C)	41.64T ext. ref 1 (°C)	0.23T ext. ref 2 (°C)	38.94length (m)	temperature (°C)	Stokes	anti-Stokes-747.200	0.794	0.065	-0.048
-746.185	-200.000	0.036	0.219
-745.171	-37.120	-0.229	0.126
-744.156	8.026	-0.261	0.201
-743.142	-108.445	0.142	0.031
-742.127	-30.636	-0.332	0.193
-741.112	495.050	0.133	0.315
-740.098	102.581	0.081	0.097
-739.083	-105.105	0.358	0.084
-738.069	592.543	-0.050	0.126
-737.054	183.470	-0.245	-0.372
-736.039	800.000	-0.031	-0.132
-735.025	48.143	0.101	-0.097
-734.010	-140.833	-0.307	-0.033
-732.996	230.620	0.058	-0.098
-731.981	-200.000	0.007	-0.192
-730.966	-75.845	-0.233	-0.085
-729.952	22.244	-0.237	-0.199
-728.937	62.563	-0.276	-0.284
-727.923	-177.803	0.296	0.007
-726.908	-116.959	0.218	0.041
-725.894	-200.000	0.010	-0.299
-724.879	-135.121	-0.100	0.012
-723.864	-83.699	-0.458	0.150
-722.850	-200.000	0.050	-0.460
-721.835	-200.000	-0.002	-0.096
-720.821	354.431	-0.086	-0.175
-719.806	44.275	0.061	-0.057
-718.791	-74.882	-0.307	-0.113
-717.777	322.100	0.157	0.307
-716.762	-94.050	-0.139	0.039
-715.748	-21.355	0.116	0.073
-714.733	-123.544	0.121	-0.020
-713.718	-24.400	-0.197	0.121
-712.704	443.205	0.100	-0.226
-711.689	-200.000	0.057	0.376
-710.675	284.023	-0.037	0.068
-709.660	-135.402	0.141	0.017
-708.645	-98.174	-0.244	0.064
-707.631	36.641	0.173	-0.157
-706.616	-104.877	0.093	-0.022
-705.602	-197.464	-0.154	-0.001
-704.587	90.065	-0.087	0.100
-703.572	800.000	-0.054	0.197
-702.558	-74.197	-0.087	0.032
-701.543	-82.616	-0.218	0.073
-700.529	-200.000	0.019	0.177
-699.514	800.000	-0.017	0.063
-698.499	1.746	0.317	-0.235
-697.485	-120.222	0.481	-0.084
-696.470	-73.994	-0.225	-0.084
-695.456	82.925	-0.038	-0.043
-694.441	-81.343	0.370	0.125
-693.426	-111.375	0.360	-0.075
-692.412	-43.866	0.064	-0.033
-691.397	800.000	0.043	0.169
-690.383	-94.993	0.055	-0.015
-689.368	89.607	0.138	-0.158
-688.354	198.858	-0.088	0.139
-687.339	395.241	-0.056	0.120
-686.324	800.000	0.062	0.180
-685.310	-200.000	0.036	0.198
-684.295	87.992	-0.010	0.012
-683.281	-200.000	0.082	0.375
-682.266	-200.000	0.111	0.512
-681.251	800.000	0.087	0.363
-680.237	267.883	0.045	0.080
-679.222	-200.000	-0.002	-0.070
-678.208	-37.665	-0.183	0.100
-677.193	28.901	-0.320	0.278
-676.178	-142.531	-0.195	-0.020
-675.164	268.555	0.190	-0.342
-674.149	-149.142	0.059	0.005
-673.135	-32.043	-0.062	-0.035
-672.120	509.002	0.038	0.091
-671.105	-75.810	0.120	-0.043
-670.091	171.541	0.093	0.137
-669.076	-134.488	0.203	0.025
-668.062	323.505	0.084	-0.164
-667.047	-82.980	-0.214	0.071
-666.032	174.372	0.100	0.149
-665.018	16.873	0.071	0.058
-664.003	221.085	-0.165	0.271
-662.989	-52.615	0.302	0.143
-661.974	271.875	0.175	-0.316
-660.959	-200.000	-0.022	-0.338
-659.945	322.595	0.091	0.177
-658.930	-200.000	0.014	-0.185
-657.916	-200.000	-0.054	-0.278
-656.901	-200.000	0.008	-0.137
-655.886	-57.410	0.286	0.129
-654.872	37.395	-0.152	0.138
-653.857	475.960	-0.143	0.330
-652.843	-17.666	0.283	0.182
-651.828	-200.000	-0.043	0.304
-650.814	33.585	0.126	0.112
-649.799	-39.247	0.215	-0.116
-648.784	-80.768	-0.302	-0.103
-647.770	43.293	-0.372	-0.347
-646.755	-176.878	-0.311	0.008
-645.741	86.846	0.223	-0.252
-644.726	39.990	0.201	0.185
-643.711	170.511	-0.137	-0.201
-642.697	35.945	-0.108	-0.097
-641.682	800.000	-0.066	-0.258
-640.668	209.325	-0.174	0.280
-639.653	-147.685	-0.211	0.018
-638.638	-200.000	-0.053	-0.302
-637.624	488.171	0.038	-0.089
-636.609	-200.000	0.022	-0.131
-635.595	-46.103	-0.127	0.064
-634.580	-119.712	-0.212	-0.037
-633.565	-121.500	0.187	-0.032
-632.551	-37.753	0.042	-0.023
-631.536	198.146	0.102	0.159
-630.522	-63.018	-0.399	-0.169
-629.507	-54.764	-0.096	-0.044
-628.492	269.059	-0.099	0.177
-627.478	-58.347	0.477	-0.212
-626.463	-84.120	-0.074	-0.024
-625.449	533.822	-0.030	-0.073
-624.434	-197.401	0.171	0.001
-623.419	223.907	-0.187	0.308
-622.405	249.017	0.041	-0.071
-621.390	-164.230	-0.348	-0.016
-620.376	-136.360	-0.176	-0.021
-619.361	553.617	0.044	0.108
-618.346	725.430	-0.151	0.412
-617.332	-112.391	-0.274	-0.056
-616.317	117.303	-0.273	-0.344
-615.303	19.937	-0.232	-0.191
-614.288	-22.873	-0.337	0.208
-613.273	730.548	0.074	-0.201
-612.259	-20.419	-0.270	0.170
-611.244	-200.000	0.010	0.281
-610.230	800.000	0.020	-0.081
-609.215	80.558	0.082	0.091
-608.201	22.353	-0.251	-0.209
-607.186	-170.133	0.129	-0.005
-606.171	-200.000	-0.063	-0.000
-605.157	800.000	0.085	0.282
-604.142	-200.000	-0.027	-0.137
-603.128	-8.695	-0.140	-0.096
-602.113	-159.487	-0.152	0.009
-601.098	-150.744	-0.113	0.009
-600.084	61.000	-0.246	-0.249
-599.069	112.046	0.055	-0.068
-598.055	-77.801	-0.228	0.080
-597.040	586.095	-0.051	-0.128
-596.025	-85.084	-0.181	-0.058
-595.011	428.896	0.081	0.180
-593.996	-21.747	-0.188	0.117
-592.982	800.000	0.073	0.234
-591.967	316.659	0.136	0.262
-590.952	753.219	0.144	-0.398
-589.938	-191.553	-0.328	-0.003
-588.923	-16.302	-0.273	-0.177
-587.909	-200.000	0.045	0.259
-586.894	573.118	0.048	0.118
-585.879	-66.793	-0.068	-0.027
-584.865	36.181	-0.273	0.246
-583.850	373.393	0.023	-0.049
-582.836	-31.242	-0.237	-0.136
-581.821	-200.000	0.001	0.056
-580.806	-2.962	-0.121	-0.086
-579.792	-101.961	0.329	0.081
-578.777	161.493	0.103	-0.147
-577.763	-4.347	0.204	0.144
-576.748	-26.194	0.168	0.101
-575.733	114.382	0.199	-0.248
-574.719	328.531	0.159	0.311
-573.704	-92.455	0.245	-0.070
-572.690	13.071	-0.221	0.174
-571.675	800.000	0.053	0.187
-570.661	-200.000	0.004	-0.103
-569.646	412.893	0.139	-0.301
-568.631	-200.000	0.030	-0.190
-567.617	28.366	0.224	-0.193
-566.602	225.756	-0.025	-0.041
-565.588	800.000	-0.065	-0.231
-564.573	122.763	0.107	0.136
-563.558	-20.679	-0.086	-0.054
-562.544	-117.630	-0.317	0.058
-561.529	21.423	0.278	0.231
-560.515	153.508	0.215	-0.300
-559.500	95.710	-0.230	-0.268
-558.485	-36.865	-0.023	-0.013
-557.471	116.518	-0.216	-0.270
-556.456	800.000	0.041	-0.123
-555.442	-132.906	0.041	-0.005
-554.427	-97.652	0.051	-0.013
-553.412	800.000	-0.094	-0.267
-552.398	43.520	0.123	-0.114
-551.383	-157.326	-0.196	-0.012
-550.369	-200.000	0.004	-0.263
-549.354	169.393	-0.093	0.135
-548.339	-20.713	0.153	0.096
-547.325	-96.616	0.219	0.059
-546.310	-105.017	-0.239	0.056
-545.296	760.555	-0.009	-0.024
-544.281	-11.475	0.266	0.179
-543.266	-149.290	-0.076	-0.006
-542.252	-200.000	-0.008	0.066
-541.237	800.000	0.052	0.194
-540.223	261.030	0.102	0.181
-539.208	-75.117	0.015	-0.006
-538.193	-122.415	-0.268	-0.045
-537.179	437.508	-0.160	0.356
-536.164	-90.660	0.353	-0.104
-535.150	-112.814	0.270	0.055
-534.135	800.000	-0.081	0.357
-533.121	-200.000	0.010	0.145
-532.106	52.462	0.163	-0.158
-531.091	664.266	-0.023	-0.060
-530.077	590.523	-0.059	0.148
-529.062	-200.000	-0.074	-0.340
-528.048	111.241	-0.159	0.195
-527.033	-142.194	-0.285	0.029
-526.018	-200.000	0.052	0.308
-525.004	-15.204	0.326	-0.213
-523.989	77.948	-0.059	0.064
-522.975	-140.334	0.300	-0.032
-521.960	-200.000	-0.077	-0.358
-520.945	132.415	0.128	0.168
-519.931	-55.017	-0.101	-0.046
-518.916	-44.716	0.247	0.126
-517.902	-85.266	-0.155	-0.049
-516.887	-99.284	0.358	0.092
-515.872	-34.290	-0.159	0.089
-514.858	800.000	-0.060	-0.196
-513.843	-200.000	0.035	-0.463
-512.829	-73.379	0.264	0.098
-511.814	-75.829	0.117	-0.042
-510.799	151.059	0.129	0.179
-509.785	-100.978	0.377	-0.094
-508.770	-66.446	-0.319	0.129
-507.756	-63.177	-0.191	-0.080
-506.741	149.709	0.058	-0.080
-505.726	-43.348	-0.238	-0.123
-504.712	138.048	-0.089	-0.119
-503.697	41.956	-0.252	-0.233
-502.683	308.094	-0.083	-0.157
-501.668	-58.107	-0.205	-0.091
-500.653	-97.024	0.155	0.041
-499.639	400.865	0.112	0.240
-498.624	-77.038	0.491	0.175
-497.610	800.000	0.075	0.269
-496.595	168.520	-0.096	0.140
-495.581	125.572	-0.080	-0.103
-494.566	-121.687	-0.240	0.040
-493.551	-200.000	0.011	0.252
-492.537	590.768	-0.032	0.079
-491.522	800.000	-0.053	0.176
-490.508	243.016	0.170	0.290
-489.493	-200.000	0.005	0.355
-488.478	782.329	-0.137	0.381
-487.464	800.000	0.011	-0.033
-486.449	-80.162	-0.061	0.021
-485.435	-111.921	0.114	0.023
-484.420	-200.000	0.053	-0.340
-483.405	-132.859	0.085	-0.011
-482.391	414.231	-0.049	-0.106
-481.376	-200.000	-0.010	-0.105
-480.362	46.641	-0.081	-0.076
-479.347	-200.000	0.022	0.177
-478.332	800.000	0.069	-0.278
-477.318	-13.695	0.192	0.127
-476.303	36.590	0.171	-0.153
-475.289	800.000	-0.053	0.219
-474.274	-200.000	0.056	0.310
-473.259	318.380	-0.077	-0.148
-472.245	-115.447	-0.208	0.040
-471.230	-121.331	0.060	0.010
-470.216	-54.694	0.056	0.026
-469.201	-102.821	0.142	0.034
-468.186	-165.535	-0.487	-0.022
-467.172	271.722	-0.148	0.266
-466.157	800.000	0.113	0.343
-465.143	-200.000	0.029	-0.132
-464.128	-52.340	0.292	-0.137
-463.113	-200.000	-0.024	0.236
-462.099	-180.172	0.196	0.004
-461.084	189.634	-0.122	-0.186
-460.070	-104.629	0.040	-0.009
-459.055	-103.518	-0.315	-0.075
-458.040	-28.472	0.069	-0.040
-457.026	-81.883	0.047	-0.015
-456.011	352.828	0.047	0.096
-454.997	156.602	-0.308	-0.432
-453.982	-200.000	0.003	-0.318
-452.968	146.530	0.113	-0.154
-451.953	-122.204	0.271	0.045
-450.938	153.196	0.101	-0.141
-449.924	79.822	-0.092	-0.100
-448.909	65.436	-0.092	-0.095
-447.895	-200.000	-0.050	0.253
-446.880	80.937	-0.047	0.052
-445.865	800.000	-0.045	0.149
-444.851	315.664	-0.155	0.297
-443.836	-62.671	-0.305	0.128
-442.822	800.000	0.070	-0.278
-441.807	-200.000	-0.058	-0.488
-440.792	136.410	0.190	-0.251
-439.778	-200.000	0.028	-0.208
-438.763	76.139	-0.141	-0.152
-437.749	-18.271	-0.178	0.113
-436.734	158.379	0.266	-0.375
-435.719	-200.000	0.041	0.341
-434.705	384.598	-0.046	-0.096
-433.690	129.875	-0.221	-0.288
-432.676	69.900	0.267	-0.280
-431.661	18.632	-0.019	-0.015
-430.646	-73.158	-0.187	-0.069
-429.632	-43.202	0.137	-0.070
-428.617	-82.533	0.169	-0.056
-427.603	-4.771	0.254	-0.178
-426.588	-101.707	-0.372	0.091
-425.573	-200.000	0.005	0.226
-424.559	-149.301	0.202	-0.016
-423.544	263.469	-0.217	-0.383
-422.530	-200.000	-0.008	0.407
-421.515	-108.589	-0.178	0.039
-420.500	532.081	-0.141	-0.338
-419.486	-46.769	0.100	0.050
-418.471	-200.000	0.024	0.248
-417.457	-16.586	0.176	0.113
-416.442	-200.000	-0.037	0.231
-415.428	-150.764	0.101	0.008
-414.413	100.642	0.207	-0.244
-413.398	-200.000	0.062	-0.335
-412.384	-156.510	-0.123	-0.008
-411.369	134.618	0.148	0.195
-410.355	33.117	0.138	0.122
-409.340	-26.421	-0.137	0.081
-408.325	-44.686	-0.332	0.168
-407.311	-65.178	-0.095	-0.039
-406.296	450.497	0.058	0.130
-405.282	-105.789	0.167	-0.038
-404.267	740.540	-0.082	-0.223
-403.252	56.832	-0.140	0.138
-402.238	-72.793	-0.098	0.037
-401.223	-200.000	-0.167	-0.000
-400.209	5.731	0.081	-0.061
-399.194	-200.000	0.034	-0.166
-398.179	800.000	0.107	0.375
-397.165	-46.579	0.090	0.045
-396.150	285.198	-0.080	0.146
-395.136	205.159	-0.232	-0.365
-394.121	-35.594	0.254	-0.140
-393.106	228.504	-0.013	0.022
-392.092	516.449	-0.063	0.149
-391.077	273.835	0.182	0.326
-390.063	-41.417	-0.082	0.043
-389.048	-147.521	0.198	0.017
-388.033	-113.668	0.293	-0.058
-387.019	-107.022	0.293	0.066
-386.004	-12.167	0.264	-0.175
-384.990	779.831	0.081	-0.225
-383.975	-113.707	0.042	0.008
-382.960	-129.665	0.089	-0.012
-381.946	24.296	0.240	0.201
-380.931	800.000	-0.091	0.293
-379.917	-108.165	-0.387	0.085
-378.902	142.558	0.128	-0.172
-377.888	455.135	-0.064	-0.143
-376.873	62.694	-0.122	-0.124
-375.858	-141.261	0.211	0.022
-374.844	-30.702	0.161	-0.092
-373.829	102.114	0.266	-0.314
-372.815	-200.000	-0.021	-0.102
-371.800	-160.428	0.094	0.005
-370.785	800.000	0.052	-0.166
-369.771	-77.239	0.513	0.181
-368.756	766.226	0.162	0.447
-367.742	-80.235	0.280	0.095
-366.727	10.672	-0.266	0.205
-365.712	-200.000	-0.054	0.255
-364.698	-200.000	-0.055	0.283
-363.683	-28.523	-0.119	-0.069
-362.669	-42.387	0.369	-0.191
-361.654	-67.285	0.044	0.017
-360.639	-47.898	-0.207	-0.102
-359.625	33.691	0.118	0.104
-358.610	209.082	0.182	0.288
-357.596	-15.618	-0.151	0.097
-356.581	-106.247	0.121	-0.027
-355.566	-200.000	-0.013	-0.308
-354.552	167.503	-0.052	-0.075
-353.537	-200.000	-0.024	-0.392
-352.523	-97.525	-0.142	-0.037
-351.508	127.521	0.124	0.160
-350.493	45.246	0.135	0.126
-349.479	-2.341	0.162	-0.115
-348.464	408.440	0.082	0.175
-347.450	-55.864	0.117	-0.053
-346.435	800.000	0.029	-0.088
-345.420	-121.853	-0.441	-0.074
-344.406	-92.525	0.125	0.035
-343.391	58.705	0.113	-0.112
-342.377	-118.950	-0.130	-0.023
-341.362	122.277	0.103	0.130
-340.348	192.861	0.145	-0.221
-339.333	800.000	0.172	0.548
-338.318	800.000	-0.073	0.251
-337.304	-137.087	0.230	-0.027
-336.289	154.976	0.153	0.213
-335.275	800.000	0.074	-0.279
-334.260	281.700	-0.169	0.306
-333.245	-24.126	0.053	0.032
-332.231	19.370	0.098	-0.079
-331.216	-87.335	-0.417	0.128
-330.202	90.728	0.150	0.170
-329.187	135.976	-0.111	-0.146
-328.172	654.704	0.063	-0.163
-327.158	57.308	-0.063	-0.062
-326.143	800.000	0.085	0.375
-325.129	-56.478	0.197	0.089
-324.114	29.144	0.033	0.028
-323.099	-200.000	-0.013	-0.194
-322.085	664.314	-0.107	-0.280
-321.070	-200.000	-0.014	0.074
-320.056	113.401	-0.149	-0.183
-319.041	-160.605	0.254	0.014
-318.026	800.000	-0.039	0.115
-317.012	800.000	-0.018	-0.061
-315.997	6.201	0.106	-0.079
-314.983	349.411	0.163	0.324
-313.968	-200.000	0.010	-0.054
-312.953	-164.811	0.044	0.002
-311.939	168.013	-0.028	0.041
-310.924	-55.149	0.129	-0.059
-309.910	112.015	-0.169	0.206
-308.895	46.318	-0.158	-0.148
-307.880	26.131	-0.270	0.228
-306.866	-13.319	-0.227	0.149
-305.851	150.202	0.072	-0.099
-304.837	-44.139	0.093	-0.047
-303.822	-200.000	0.001	0.347
-302.807	-200.000	0.037	-0.176
-301.793	800.000	0.028	0.091
-300.778	800.000	-0.011	0.037
-299.764	208.364	0.190	0.300
-298.749	352.579	0.023	0.047
-297.735	-60.083	-0.348	-0.150
-296.720	-91.108	0.049	0.014
-295.705	800.000	-0.076	0.235
-294.691	-200.000	-0.072	0.448
-293.676	800.000	0.083	0.270
-292.662	436.971	-0.060	-0.133
-291.647	-62.695	-0.235	0.098
-290.632	57.793	-0.212	0.209
-289.618	542.773	-0.153	-0.370
-288.603	-28.944	0.321	0.186
-287.589	-131.847	0.205	-0.027
-286.574	-72.531	0.123	0.046
-285.559	63.750	0.130	-0.132
-284.545	-200.000	-0.048	0.220
-283.530	-14.821	0.159	-0.103
-282.516	35.788	0.289	0.257
-281.501	6.408	-0.088	0.066
-280.486	-181.303	-0.175	-0.003
-279.472	-200.000	-0.005	-0.143
-278.457	-200.000	0.004	0.136
-277.443	75.923	0.284	0.304
-276.428	-200.000	0.000	0.116
-275.413	-200.000	0.002	0.221
-274.399	-147.988	0.163	-0.014
-273.384	-200.000	-0.021	0.230
-272.370	-78.538	-0.250	0.086
-271.355	-134.084	0.260	-0.032
-270.340	800.000	-0.076	-0.235
-269.326	78.565	0.087	0.094
-268.311	485.779	0.043	0.098
-267.297	57.108	0.134	-0.131
-266.282	-115.873	0.147	0.028
-265.267	-149.312	0.397	-0.032
-264.253	5.308	-0.173	0.129
-263.238	800.000	0.022	0.095
-262.224	211.751	-0.105	-0.167
-261.209	234.891	-0.080	-0.134
-260.195	26.800	0.192	0.162
-259.180	296.924	-0.167	0.309
-258.165	-200.000	0.023	0.158
-257.151	111.433	0.050	0.060
-256.136	-115.679	-0.198	-0.037
-255.122	-104.796	-0.058	0.013
-254.107	344.121	-0.069	-0.136
-253.092	66.296	0.168	-0.173
-252.078	37.846	0.142	0.127
-251.063	213.918	0.109	0.173
-250.049	-139.892	-0.344	0.037
-249.034	202.091	-0.066	-0.102
-248.019	-200.000	-0.016	-0.318
-247.005	-51.847	-0.099	0.046
-245.990	205.876	-0.099	-0.155
-244.976	213.641	0.053	-0.084
-243.961	96.994	-0.243	-0.281
-242.946	110.264	-0.281	-0.341
-241.932	-200.000	-0.044	0.211
-240.917	-200.000	0.022	0.172
-239.903	-163.879	0.335	0.016
-238.888	183.466	-0.205	-0.305
-237.873	-44.585	-0.306	-0.154
-236.859	-10.142	0.305	0.204
-235.844	-84.640	0.026	0.008
-234.830	-26.577	0.202	-0.119
-233.815	800.000	-0.005	0.021
-232.800	365.479	-0.113	0.230
-231.786	-80.040	-0.262	0.089
-230.771	-200.000	-0.003	-0.078
-229.757	-20.881	0.212	0.131
-228.742	317.548	0.061	0.116
-227.727	-54.581	0.297	0.135
-226.713	114.211	0.266	-0.326
-225.698	-75.568	-0.179	0.064
-224.684	35.267	-0.053	-0.047
-223.669	1.930	-0.089	-0.064
-222.655	455.744	-0.043	-0.096
-221.640	-4.534	0.150	-0.105
-220.625	-149.850	0.035	-0.003
-219.611	800.000	0.061	-0.202
-218.596	120.030	-0.088	0.110
-217.582	380.366	0.060	-0.125
-216.567	567.188	-0.063	0.154
-215.552	-200.000	-0.004	-0.118
-214.538	-126.257	-0.279	-0.042
-213.523	-168.075	-0.304	0.012
-212.509	-155.907	0.119	-0.008
-211.494	310.540	-0.109	-0.205
-210.479	296.919	-0.128	-0.236
-209.465	26.567	0.175	-0.148
-208.450	-41.640	-0.002	-0.001
-207.436	-52.645	0.340	-0.158
-206.421	-200.000	0.029	0.235
-205.406	-200.000	-0.019	0.177
-204.392	-193.835	0.252	0.002
-203.377	-178.393	-0.161	0.004
-202.363	-4.832	0.217	0.150
-201.348	800.000	0.097	0.371
-200.333	-99.139	-0.182	0.046
-199.319	-76.792	0.028	0.010
-198.304	-200.000	-0.035	-0.239
-197.290	-114.734	-0.075	-0.014
-196.275	-200.000	-0.001	-0.086
-195.260	-200.000	0.016	0.211
-194.246	-200.000	-0.013	-0.536
-193.231	53.668	0.093	-0.090
-192.217	263.361	-0.073	-0.128
-191.202	-48.184	0.159	0.077
-190.187	-109.638	0.107	-0.023
-189.173	-84.087	-0.390	0.125
-188.158	302.434	-0.079	-0.147
-187.144	-89.814	-0.136	-0.040
-186.129	-154.971	-0.158	0.010
-185.114	-173.286	-0.230	-0.007
-184.100	503.930	0.158	-0.367
-183.085	48.986	0.227	-0.214
-182.071	601.300	-0.029	-0.071
-181.056	369.127	-0.003	0.006
-180.042	-155.603	-0.125	-0.008
-179.027	-139.370	-0.124	0.013
-178.012	23.824	-0.383	-0.317
-176.998	-83.193	0.120	-0.039
-175.983	-180.848	0.177	0.004
-174.969	-200.000	-0.050	0.233
-173.954	-6.270	0.217	-0.149
-172.939	305.354	-0.155	0.290
-171.925	463.298	-0.073	0.164
-170.910	-14.120	0.372	0.241
-169.896	-4.625	-0.115	0.080
-168.881	-102.335	-0.121	-0.029
-167.866	-200.000	-0.019	-0.321
-166.852	272.025	0.048	-0.085
-165.837	-138.900	-0.147	0.016
-164.823	-160.512	-0.213	-0.011
-163.808	-128.373	0.336	0.048
-162.793	-122.203	0.043	0.007
-161.779	-141.159	0.111	-0.011
-160.764	-200.000	-0.049	0.343
-159.750	-115.309	-0.191	-0.036
-158.735	351.568	0.104	-0.207
-157.720	267.622	0.090	0.158
-156.706	-0.900	-0.247	-0.175
-155.691	-31.780	0.110	-0.062
-154.677	-105.843	0.323	-0.073
-153.662	-137.302	-0.042	0.005
-152.647	-200.000	0.016	-0.206
-151.633	195.905	-0.089	0.136
-150.618	800.000	-0.018	-0.054
-149.604	219.669	-0.221	-0.355
-148.589	-27.519	0.214	-0.125
-147.574	-49.195	-0.170	0.082
-146.560	137.373	0.220	-0.289
-145.545	-59.987	0.280	0.120
-144.531	-200.000	-0.009	0.109
-143.516	314.468	-0.251	0.475
-142.502	132.094	0.086	0.111
-141.487	-65.067	-0.397	-0.161
-140.472	47.904	-0.191	-0.179
-139.458	160.981	-0.207	0.290
-138.443	800.000	-0.088	-0.331
-137.429	-131.913	-0.393	0.051
-136.414	-200.000	0.022	-0.107
-135.399	-53.864	0.107	0.049
-134.385	356.335	-0.065	0.129
-133.370	6.386	-0.092	0.068
-132.356	-71.442	0.160	-0.060
-131.341	-200.000	0.022	-0.150
-130.326	-47.526	-0.112	0.055
-129.312	-13.269	-0.307	-0.200
-128.297	-160.124	-0.159	0.009
-127.283	-21.753	0.208	0.127
-126.268	-138.192	-0.171	-0.019
-125.253	-34.806	0.409	0.224
-124.239	-97.671	-0.082	0.021
-123.224	46.317	0.219	0.204
-122.210	246.165	-0.178	0.301
