DTS Sentinel unit serial number:	SN413079Multiplexer serial number:	ORYXHardware model number:	OX4-SRSoftware version number:	ORYX F/W v4.00 Oryx Data Collector v3.7.2.0data status	okinstallation	princeton_trtdifferential loss correction	single-endedforward channel	channel 4reverse channel	N/Adate	2019/09/11time	23:23:11forward acquisition time	60.00reverse acquisition time	0.00gamma	496.2192k internal	0.2308k external	0.2308temperature offset calibration	1.0077default loss term (dB/km)	0.3790temperature slope calibration	1.0000multiplexer offset coefficient	1.0000multiplexer slope coefficient	1.0000fibre end	0.00T internal ref (°C)	34.31T ext. ref 1 (°C)	1.86T ext. ref 2 (°C)	28.94length (m)	temperature (°C)	Stokes	anti-Stokes-747.200	96.162	0.243	0.283
-746.185	99.022	-0.373	0.438
-745.171	-151.556	0.184	0.014
-744.156	-49.829	-0.066	-0.032
-743.142	40.823	-0.223	-0.204
-742.127	-42.538	-0.108	0.056
-741.112	-200.000	-0.024	0.225
-740.098	339.591	-0.128	0.254
-739.083	-200.000	0.028	-0.134
-738.069	307.469	0.228	-0.432
-737.054	454.024	0.158	-0.355
-736.039	-155.047	0.224	-0.015
-735.025	451.566	-0.045	-0.102
-734.010	229.889	-0.243	0.403
-732.996	-200.000	0.012	0.150
-731.981	-185.277	-0.339	-0.005
-730.966	358.408	-0.196	-0.398
-729.952	31.426	-0.261	0.228
-728.937	14.331	0.165	-0.131
-727.923	-66.401	0.159	-0.064
-726.908	-94.078	-0.185	-0.051
-725.894	561.974	0.088	0.217
-724.879	11.768	-0.058	0.045
-723.864	-1.657	-0.265	-0.189
-722.850	-200.000	-0.027	0.218
-721.835	156.765	-0.284	-0.398
-720.821	-38.169	-0.103	-0.056
-719.806	-118.302	-0.140	0.025
-718.791	-5.036	0.243	-0.170
-717.777	-200.000	0.027	-0.432
-716.762	-82.739	-0.096	-0.031
-715.748	-155.810	0.188	0.012
-714.733	-11.055	0.210	0.140
-713.718	-200.000	-0.023	0.211
-712.704	143.666	0.141	-0.191
-711.689	45.945	-0.184	-0.173
-710.675	-87.192	-0.165	0.051
-709.660	26.596	-0.116	-0.098
-708.645	314.004	0.123	-0.235
-707.631	-200.000	0.089	0.409
-706.616	208.637	0.133	-0.211
-705.602	75.125	-0.191	-0.204
-704.587	-200.000	-0.035	-0.305
-703.572	-200.000	-0.005	0.131
-702.558	61.374	0.095	-0.096
-701.543	267.924	0.115	-0.205
-700.529	-57.265	0.147	-0.066
-699.514	-200.000	0.008	0.149
-698.499	800.000	0.040	-0.170
-697.485	-181.793	-0.359	0.007
-696.470	53.209	-0.121	-0.118
-695.456	465.241	0.220	-0.500
-694.441	-110.637	0.194	0.041
-693.426	-200.000	-0.006	-0.279
-692.412	-200.000	0.028	0.367
-691.397	-103.007	0.173	-0.042
-690.383	800.000	0.052	0.194
-689.368	-88.887	-0.145	0.044
-688.354	-174.804	0.020	-0.001
-687.339	-49.009	-0.202	-0.098
-686.324	450.210	0.199	-0.445
-685.310	2.830	0.376	0.277
-684.295	52.055	-0.280	-0.270
-683.281	526.227	-0.175	-0.418
-682.266	-49.348	0.182	0.088
-681.251	121.789	-0.121	-0.153
-680.237	274.684	0.052	-0.093
-679.222	42.453	0.214	0.198
-678.208	614.187	0.026	-0.066
-677.193	114.344	0.147	-0.181
-676.178	-42.578	-0.090	-0.046
-675.164	73.756	0.155	-0.164
-674.149	-102.008	-0.106	-0.026
-673.135	-16.433	0.194	-0.124
-672.120	-200.000	-0.021	-0.189
-671.105	46.776	0.177	-0.167
-670.091	-77.177	0.229	-0.081
-669.076	-13.431	-0.032	0.021
-668.062	-200.000	-0.034	-0.240
-667.047	-34.752	-0.323	0.179
-666.032	-45.260	-0.228	-0.115
-665.018	11.649	0.173	0.134
-664.003	-95.571	0.119	-0.032
-662.989	-103.304	0.437	-0.104
-661.974	74.331	0.101	0.108
-660.959	800.000	-0.128	-0.419
-659.945	800.000	-0.103	-0.303
-658.930	141.843	-0.077	0.104
-657.916	-28.969	-0.062	-0.036
-656.901	514.063	-0.061	-0.143
-655.886	163.595	-0.185	-0.264
-654.872	734.934	0.131	-0.356
-653.857	-14.929	0.187	-0.122
-652.843	-169.416	0.052	0.002
-651.828	-29.159	-0.412	0.239
-650.814	800.000	-0.044	0.183
-649.799	800.000	-0.053	-0.197
-648.784	115.187	0.055	-0.068
-647.770	-12.960	0.107	-0.071
-646.755	434.538	0.041	-0.090
-645.741	-7.431	-0.493	-0.338
-644.726	76.495	-0.253	0.272
-643.711	-200.000	-0.043	0.244
-642.697	-135.826	0.026	-0.003
-641.682	62.343	0.098	0.099
-640.668	208.503	-0.095	-0.150
-639.653	205.151	-0.033	0.052
-638.638	-33.106	-0.117	-0.066
-637.624	254.008	-0.178	-0.309
-636.609	-141.666	-0.251	0.026
-635.595	134.949	0.100	0.131
-634.580	-200.000	-0.037	-0.218
-633.565	308.711	-0.240	-0.453
-632.551	-52.265	-0.142	-0.067
-631.536	1.978	0.086	0.063
-630.522	-200.000	-0.011	-0.074
-629.507	130.202	-0.114	-0.147
-628.492	-200.000	0.001	0.086
-627.478	800.000	-0.100	0.292
-626.463	125.297	0.095	-0.121
-625.449	105.467	-0.146	-0.175
-624.434	-145.400	-0.156	-0.014
-623.419	-31.700	0.142	-0.080
-622.405	294.684	-0.029	-0.054
-621.390	-121.961	0.147	-0.024
-620.376	648.051	-0.049	0.127
-619.361	-146.823	-0.225	0.020
-618.346	-200.000	-0.019	0.103
-617.332	167.610	0.302	-0.434
-616.317	800.000	-0.069	-0.233
-615.303	256.967	0.043	0.075
-614.288	-63.870	-0.186	0.077
-613.273	-155.965	0.298	0.019
-612.259	800.000	0.096	0.416
-611.244	-187.087	0.088	0.001
-610.230	304.708	0.091	-0.171
-609.215	-109.862	-0.308	-0.065
-608.201	-39.582	-0.318	-0.168
-607.186	200.715	0.140	-0.218
-606.171	365.647	0.081	-0.166
-605.157	800.000	0.098	-0.312
-604.142	2.068	-0.210	-0.154
-603.128	344.882	0.118	-0.234
-602.113	-53.351	0.263	0.122
-601.098	395.376	-0.049	-0.104
-600.084	695.942	-0.088	-0.233
-599.069	800.000	0.069	0.194
-598.055	-65.375	-0.148	-0.060
-597.040	-89.277	0.286	0.085
-596.025	345.235	-0.061	0.120
-595.011	541.959	0.079	-0.190
-593.996	-38.140	-0.113	-0.060
-592.982	21.044	0.241	-0.198
-591.967	236.746	-0.133	-0.223
-590.952	280.269	-0.037	-0.067
-589.938	164.884	0.228	-0.325
-588.923	-5.997	-0.081	-0.056
-587.909	140.875	-0.053	-0.071
-586.894	800.000	-0.127	-0.389
-585.879	47.811	0.130	0.122
-584.865	-52.256	0.141	0.066
-583.850	-117.272	0.315	0.058
-582.836	-200.000	-0.005	-0.039
-581.821	47.792	-0.192	0.181
-580.806	199.031	-0.069	-0.107
-579.792	-80.853	0.190	-0.064
-578.777	-102.135	0.076	0.019
-577.763	-75.053	-0.227	0.082
-576.748	256.211	0.204	-0.354
-575.733	-79.999	-0.125	0.042
-574.719	11.008	-0.083	0.064
-573.704	-173.279	-0.227	0.007
-572.690	162.181	0.145	0.205
-571.675	-200.000	0.010	0.093
-570.661	136.083	-0.056	-0.073
-569.646	800.000	0.051	-0.217
-568.631	591.644	0.175	0.436
-567.617	-160.528	0.450	-0.024
-566.602	364.833	0.235	-0.478
-565.588	85.298	0.148	0.164
-564.573	800.000	0.040	0.167
-563.558	263.815	0.249	0.437
-562.544	-107.676	0.058	-0.013
-561.529	-88.229	-0.226	-0.068
-560.515	452.403	0.238	0.532
-559.500	-14.739	-0.354	-0.230
-558.485	460.930	-0.079	-0.178
-557.471	-49.279	-0.257	0.124
-556.456	800.000	-0.047	0.156
-555.442	212.282	0.209	0.333
-554.427	800.000	-0.018	0.056
-553.412	656.266	-0.132	-0.341
-552.398	-126.895	0.134	-0.020
-551.383	-123.903	0.376	0.060
-550.369	800.000	0.038	-0.153
-549.354	-200.000	0.062	0.319
-548.339	-151.693	-0.170	0.013
-547.325	114.274	0.192	0.236
-546.310	51.130	-0.112	0.107
-545.296	-200.000	-0.005	0.049
-544.281	-146.238	-0.351	-0.031
-543.266	800.000	0.028	0.102
-542.252	800.000	-0.032	-0.109
-541.237	-119.059	-0.119	0.021
-540.223	-200.000	-0.010	-0.166
-539.208	334.069	0.114	0.222
-538.193	-7.856	-0.066	-0.045
-537.179	-74.281	0.072	0.026
-536.164	159.873	-0.095	-0.134
-535.150	131.396	-0.022	0.028
-534.135	-0.206	-0.147	0.105
-533.121	267.928	-0.156	-0.275
-532.106	19.502	-0.293	0.237
-531.091	238.538	0.114	0.191
-530.077	28.603	-0.092	-0.078
-529.062	117.761	-0.112	-0.139
-528.048	-200.000	-0.026	-0.240
-527.033	135.570	-0.047	-0.062
-526.018	-118.412	-0.433	-0.077
-525.004	759.088	-0.023	-0.064
-523.989	199.593	-0.041	-0.063
-522.975	-111.980	0.091	0.019
-521.960	-115.131	-0.317	0.061
-520.945	800.000	0.045	-0.199
-519.931	-65.271	0.175	-0.071
-518.916	-49.212	-0.181	-0.087
-517.902	137.354	0.074	-0.098
-516.887	477.363	0.061	0.139
-515.872	-200.000	-0.041	0.195
-514.858	306.528	0.186	-0.349
-513.843	-121.164	-0.173	0.029
-512.829	-200.000	-0.031	-0.300
-511.814	-200.000	0.006	0.444
-510.799	-158.523	-0.352	0.020
-509.785	72.688	0.034	-0.036
-508.770	673.419	0.080	-0.208
-507.756	800.000	-0.066	-0.207
-506.741	286.241	-0.124	0.224
-505.726	84.632	0.170	0.187
-504.712	-200.000	-0.001	-0.154
-503.697	514.405	-0.094	0.222
-502.683	405.926	0.077	-0.163
-501.668	-73.622	-0.135	-0.049
-500.653	-200.000	-0.006	-0.269
-499.639	84.217	0.186	0.205
-498.624	-83.979	0.210	-0.067
-497.610	761.717	-0.103	-0.282
-496.595	234.806	-0.204	0.339
-495.581	-200.000	-0.055	0.379
-494.566	413.020	-0.102	-0.219
-493.551	-90.311	-0.206	-0.060
-492.537	187.774	0.049	0.074
-491.522	800.000	-0.029	0.092
-490.508	800.000	0.034	0.144
-489.493	-200.000	-0.073	-0.473
-488.478	-53.671	-0.024	0.011
-487.464	53.769	0.242	0.234
-486.449	800.000	-0.102	-0.306
-485.435	-98.494	0.156	0.040
-484.420	-25.705	0.301	0.179
-483.405	197.178	-0.047	0.072
-482.391	309.940	-0.145	0.273
-481.376	-200.000	-0.015	0.120
-480.362	-200.000	-0.010	0.130
-479.347	348.938	-0.153	0.304
-478.332	148.897	0.147	-0.200
-477.318	193.005	0.059	-0.090
-476.303	-86.031	-0.350	0.109
-475.289	279.230	-0.019	0.034
-474.274	-100.685	0.232	-0.058
-473.259	68.411	-0.166	0.171
-472.245	-133.757	-0.171	-0.021
-471.230	-125.697	0.129	-0.020
-470.216	-200.000	0.032	-0.327
-469.201	120.929	0.311	0.389
-468.186	596.528	0.068	-0.170
-467.172	128.330	-0.237	0.303
-466.157	-146.031	-0.295	0.026
-465.143	-200.000	-0.063	-0.304
-464.128	60.803	-0.200	-0.199
-463.113	-69.412	-0.045	-0.017
-462.099	-53.214	-0.257	0.119
-461.084	-29.993	-0.055	0.031
-460.070	-75.516	-0.246	0.088
-459.055	800.000	0.062	0.214
-458.040	-200.000	0.019	-0.226
-457.026	-200.000	-0.008	-0.204
-456.011	362.583	-0.106	-0.214
-454.997	-7.457	-0.262	0.178
-453.982	-20.067	0.111	0.069
-452.968	-157.104	-0.193	-0.012
-451.953	-200.000	0.009	-0.131
-450.938	-71.462	-0.114	0.043
-449.924	-8.176	-0.046	-0.031
-448.909	-133.517	-0.159	-0.020
-447.895	752.922	0.073	0.197
-446.880	49.784	-0.221	-0.209
-445.865	-63.425	0.312	0.129
-444.851	800.000	0.101	-0.329
-443.836	-53.072	0.030	0.014
-442.822	800.000	-0.070	0.241
-441.807	-184.660	-0.082	-0.001
-440.792	-1.876	0.150	0.106
-439.778	100.049	0.107	-0.124
-438.763	208.081	0.031	0.049
-437.749	142.082	-0.195	0.259
-436.734	-83.139	0.031	0.010
-435.719	-23.114	-0.276	0.167
-434.705	-151.668	0.206	-0.015
-433.690	-77.683	0.177	0.061
-432.676	235.386	-0.119	0.197
-431.661	-79.422	0.212	-0.072
-430.646	-63.486	0.200	0.082
-429.632	-153.506	0.051	-0.004
-428.617	75.426	0.080	0.085
-427.603	-71.173	-0.062	-0.023
-426.588	-76.365	-0.122	-0.043
-425.573	48.376	-0.264	-0.248
-424.559	686.959	-0.054	0.143
-423.544	-26.997	-0.077	-0.045
-422.530	521.949	0.033	-0.078
-421.515	-200.000	0.001	0.035
-420.500	131.452	-0.030	0.039
-419.486	-160.929	-0.039	-0.002
-418.471	-69.049	-0.398	-0.154
-417.457	161.644	0.033	0.046
-416.442	277.605	-0.285	0.508
-415.428	-64.154	0.096	0.039
-414.413	-200.000	-0.052	-0.541
-413.398	712.579	-0.126	-0.335
-412.384	-96.063	0.124	-0.033
-411.369	800.000	0.068	-0.250
-410.355	-15.294	0.130	-0.083
-409.340	209.025	0.062	-0.098
-408.325	338.379	-0.006	-0.012
-407.311	-200.000	-0.037	0.239
-406.296	73.174	-0.269	0.282
-405.282	307.235	0.096	-0.179
-404.267	58.354	0.190	0.187
-403.252	2.084	-0.097	0.070
-402.238	-65.548	-0.250	0.101
-401.223	-200.000	0.015	-0.319
-400.209	-85.045	-0.145	0.046
-399.194	800.000	-0.012	-0.047
-398.179	92.612	-0.102	0.115
-397.165	800.000	0.027	-0.103
-396.150	-78.473	0.165	0.057
-395.136	-98.164	0.238	-0.061
-394.121	527.030	0.026	-0.060
-393.106	158.294	0.026	0.036
-392.092	249.190	0.142	-0.242
-391.077	-97.315	0.446	0.117
-390.063	-79.472	-0.403	0.137
-389.048	-200.000	-0.027	0.197
-388.033	-81.546	-0.119	0.039
-387.019	15.256	-0.068	-0.053
-386.004	-38.797	0.063	0.033
-384.990	122.811	0.130	0.163
-383.975	-120.013	-0.120	0.021
-382.960	800.000	0.057	0.242
-381.946	-200.000	-0.022	-0.276
-380.931	49.152	-0.123	-0.115
-379.917	222.623	-0.083	-0.134
-378.902	205.445	0.142	0.221
-377.888	-160.295	0.265	-0.014
-376.873	-41.462	-0.089	-0.046
-375.858	120.404	-0.138	-0.171
-374.844	-200.000	0.005	0.022
-373.829	800.000	-0.057	0.246
-372.815	-175.362	-0.249	0.007
-371.800	800.000	0.123	-0.382
-370.785	-158.252	-0.180	-0.011
-369.771	391.577	-0.096	-0.200
-368.756	-91.080	-0.179	0.051
-367.742	128.987	0.216	0.276
-366.727	-146.286	0.174	-0.015
-365.712	-3.198	0.048	0.033
-364.698	-159.658	0.123	-0.007
-363.683	-18.539	0.211	0.132
-362.669	-160.686	0.270	0.014
-361.654	-200.000	0.026	0.229
-360.639	511.616	0.030	0.069
-359.625	-29.885	0.237	-0.135
-358.610	470.192	0.062	-0.140
-357.596	800.000	0.027	0.097
-356.581	-49.325	-0.202	-0.096
-355.566	-84.378	-0.121	0.038
-354.552	800.000	0.059	-0.183
-353.537	-166.100	-0.159	-0.007
-352.523	-75.750	0.248	-0.088
-351.508	-29.611	-0.114	0.065
-350.493	-9.419	0.071	-0.047
-349.479	-76.537	0.218	-0.077
-348.464	17.186	0.376	0.298
-347.450	438.693	0.060	-0.131
-346.435	-200.000	0.040	-0.275
-345.420	120.176	0.048	-0.059
-344.406	166.664	0.050	0.071
-343.391	800.000	-0.033	0.120
-342.377	-200.000	-0.027	-0.192
-341.362	180.738	0.184	-0.271
-340.348	-69.842	-0.347	0.132
-339.333	-101.288	0.181	-0.044
-338.318	-63.650	0.074	-0.031
-337.304	-200.000	0.013	0.114
-336.289	282.946	-0.029	0.052
-335.275	-0.207	0.140	-0.100
-334.260	-200.000	0.054	-0.346
-333.245	97.906	-0.068	-0.078
-332.231	128.103	0.049	-0.062
-331.216	-145.970	0.112	-0.010
-330.202	-57.824	-0.167	0.073
-329.187	-172.156	0.225	-0.007
-328.172	-13.041	0.378	0.246
-327.158	35.721	0.221	-0.194
-326.143	61.546	-0.087	0.087
-325.129	-48.942	-0.104	0.050
-324.114	-140.183	-0.078	0.008
-323.099	331.350	-0.149	-0.288
-322.085	-21.225	-0.147	-0.090
-321.070	800.000	0.064	0.252
-320.056	800.000	-0.071	-0.225
-319.041	-42.136	0.181	-0.093
-318.026	-20.542	0.169	0.104
-317.012	-139.449	0.362	0.039
-315.997	-200.000	0.032	0.158
-314.983	-42.212	-0.088	-0.045
-313.968	294.703	0.083	-0.152
-312.953	-196.106	-0.165	-0.001
-311.939	-24.052	0.143	0.085
-310.924	-200.000	-0.012	-0.351
-309.910	-200.000	-0.023	0.196
-308.895	-122.264	0.114	-0.019
-307.880	800.000	-0.063	-0.173
-306.866	800.000	0.086	-0.300
-305.851	-200.000	-0.014	0.310
-304.837	800.000	0.043	0.145
-303.822	69.113	0.144	0.148
-302.807	-138.476	-0.147	-0.016
-301.793	-200.000	-0.043	0.348
-300.778	-200.000	-0.042	0.638
-299.764	195.180	-0.094	0.143
-298.749	-200.000	0.036	0.322
-297.735	64.103	0.253	0.255
-296.720	-99.009	-0.410	0.104
-295.705	21.813	0.339	-0.276
-294.691	0.316	-0.188	-0.134
-293.676	-106.547	-0.469	0.104
-292.662	-50.501	0.268	0.126
-291.647	-200.000	-0.022	-0.218
-290.632	-127.798	0.454	0.065
-289.618	-82.958	0.068	0.022
-288.603	-102.030	-0.240	0.058
-287.589	-0.404	0.209	-0.148
-286.574	-23.935	-0.225	-0.134
-285.559	293.862	0.149	0.271
-284.545	800.000	0.048	-0.168
-283.530	795.866	-0.071	0.194
-282.516	-181.969	-0.268	0.005
-281.501	-130.950	0.156	0.021
-280.486	-200.000	-0.005	0.336
-279.472	60.748	0.138	-0.137
-278.457	800.000	-0.020	0.059
-277.443	-65.090	-0.386	-0.156
-276.428	-52.898	-0.231	0.106
-275.413	-155.453	0.360	-0.023
-274.399	-200.000	0.018	0.182
-273.384	25.853	0.448	0.373
-272.370	374.623	0.135	-0.275
-271.355	-40.394	0.286	0.148
-270.340	-200.000	-0.019	0.091
-269.326	-200.000	-0.022	0.245
-268.311	800.000	-0.075	0.291
-267.297	-136.245	0.149	0.017
-266.282	-200.000	-0.004	0.097
-265.267	-200.000	-0.036	0.170
-264.253	-115.981	0.557	-0.104
-263.238	-200.000	0.036	0.343
-262.224	116.206	-0.092	0.113
-261.209	-200.000	0.052	0.253
-260.195	480.751	0.046	-0.104
-259.180	-200.000	0.022	0.270
-258.165	292.437	0.011	0.021
-257.151	720.533	0.072	-0.191
-256.136	800.000	0.033	0.138
-255.122	-147.856	-0.354	-0.029
-254.107	800.000	-0.045	0.159
-253.092	631.749	0.031	0.077
-252.078	800.000	-0.095	0.317
-251.063	-0.889	0.140	0.099
-250.049	16.042	0.237	-0.186
-249.034	518.898	-0.083	0.194
-248.019	274.477	-0.198	0.350
-247.005	46.980	0.066	0.062
-245.990	-54.909	0.124	-0.056
-244.976	-115.714	-0.040	0.007
-243.961	12.512	-0.076	-0.059
-242.946	39.447	0.166	-0.148
-241.932	-162.409	0.194	-0.010
-240.917	-22.772	-0.168	-0.101
-239.903	410.024	-0.065	-0.137
-238.888	-25.287	-0.133	0.078
-237.873	-194.001	0.229	-0.002
-236.859	-140.652	0.201	0.021
-235.844	-61.932	0.069	0.029
-234.830	431.597	-0.080	0.173
-233.815	174.927	0.063	0.091
-232.800	67.768	0.341	-0.348
-231.786	-73.378	0.079	0.029
-230.771	-113.013	-0.311	-0.061
-229.757	-21.831	-0.096	-0.058
-228.742	-200.000	0.012	-0.266
-227.727	800.000	0.067	0.249
-226.713	-95.695	0.316	0.084
-225.698	800.000	-0.021	0.059
-224.684	800.000	-0.061	-0.189
-223.669	-200.000	-0.025	0.273
-222.655	800.000	-0.033	0.144
-221.640	-200.000	-0.053	-0.243
-220.625	659.744	-0.006	-0.015
-219.611	153.528	0.225	0.307
-218.596	25.480	0.008	-0.006
-217.582	-35.359	-0.231	0.125
-216.567	-200.000	-0.048	0.291
-215.552	800.000	0.055	-0.173
-214.538	-200.000	0.017	-0.156
-213.523	-1.712	0.305	0.214
-212.509	40.009	-0.169	-0.151
-211.494	254.209	0.057	-0.096
-210.479	146.618	0.150	0.201
-209.465	-200.000	0.003	-0.297
-208.450	299.187	0.069	0.127
-207.436	-144.091	0.053	0.005
-206.421	-95.211	-0.331	0.089
-205.406	-52.307	-0.132	0.061
-204.392	800.000	-0.087	-0.347
-203.377	289.362	-0.086	-0.155
-202.363	546.605	-0.031	-0.074
-201.348	-35.146	0.068	-0.037
-200.333	-120.930	-0.111	-0.019
-199.319	-17.429	0.268	0.168
-198.304	115.801	0.103	-0.126
-197.290	-98.404	0.308	0.079
-196.275	14.241	-0.216	0.167
-195.260	-70.259	0.134	-0.051
-194.246	-112.807	-0.189	-0.037
-193.231	-200.000	0.020	-0.149
-192.217	-58.441	0.095	-0.041
-191.202	174.858	0.311	-0.447
-190.187	20.751	-0.229	0.184
-189.173	164.395	-0.170	-0.238
-188.158	-160.351	0.197	0.011
-187.144	123.196	-0.158	0.196
-186.129	281.947	0.143	-0.256
-185.114	-60.373	-0.222	-0.094
-184.100	123.756	0.030	0.038
-183.085	-190.490	0.154	0.002
-182.071	175.238	0.194	-0.279
-181.056	65.346	0.276	-0.278
-180.042	-71.659	-0.153	0.057
-179.027	186.969	0.265	0.393
-178.012	-4.521	0.122	0.084
-176.998	208.488	0.071	-0.110
-175.983	-135.402	-0.229	0.027
-174.969	-47.291	-0.284	-0.138
-173.954	800.000	0.128	0.388
-172.939	-33.377	0.082	0.045
-171.925	-94.599	-0.408	-0.110
-170.910	-89.869	-0.270	0.078
-169.896	-200.000	-0.002	-0.185
-168.881	53.157	0.191	-0.182
-167.866	328.861	-0.097	0.185
-166.852	35.274	0.220	0.192
-165.837	800.000	-0.113	-0.409
-164.823	-46.864	-0.148	-0.072
-163.808	-126.225	-0.212	0.031
-162.793	-103.450	-0.327	-0.076
-161.779	190.251	0.115	-0.172
-160.764	800.000	0.050	0.184
-159.750	-127.660	0.135	-0.019
-158.735	25.474	0.177	-0.146
-157.720	-200.000	0.073	0.366
-156.706	500.621	-0.103	-0.236
-155.691	56.566	0.253	0.245
-154.677	-45.982	-0.199	0.097
-153.662	-143.392	-0.146	-0.014
-152.647	-60.562	-0.146	0.062
-151.633	800.000	0.013	-0.044
-150.618	554.262	0.091	0.217
-149.604	-200.000	-0.006	0.415
-148.589	22.773	0.133	0.109
-147.574	334.551	-0.097	0.186
-146.560	15.884	0.110	0.086
-145.545	-112.708	-0.246	0.049
-144.531	11.043	-0.155	0.118
-143.516	43.653	-0.138	-0.125
-142.502	275.454	-0.261	0.459
-141.487	615.501	0.102	0.254
-140.472	-124.382	-0.247	0.038
-139.458	-200.000	-0.002	-0.106
-138.443	800.000	-0.070	-0.221
-137.429	-150.362	0.165	-0.013
-136.414	800.000	0.012	0.040
-135.399	-6.073	0.143	0.097
-134.385	285.038	0.201	-0.359
-133.370	319.201	0.230	-0.432
-132.356	285.879	-0.131	0.235
-131.341	-79.781	-0.217	0.072
-130.326	5.389	-0.125	0.092
-129.312	-200.000	-0.018	0.342
-128.297	-200.000	-0.083	0.447
-127.283	-87.310	-0.036	-0.011
-126.268	-99.041	0.199	0.050
-125.253	89.315	-0.217	0.240
-124.239	-178.515	-0.202	0.005
-123.224	-200.000	-0.044	0.294
-122.210	-200.000	-0.039	-0.208
