DTS Sentinel unit serial number:	SN413079Multiplexer serial number:	ORYXHardware model number:	OX4-SRSoftware version number:	ORYX F/W v4.00 Oryx Data Collector v3.7.2.0data status	okinstallation	princeton_trtdifferential loss correction	single-endedforward channel	channel 4reverse channel	N/Adate	2019/09/11time	02:59:11forward acquisition time	60.00reverse acquisition time	0.00gamma	496.2192k internal	0.2318k external	0.2318temperature offset calibration	0.9946default loss term (dB/km)	0.3790temperature slope calibration	1.0000multiplexer offset coefficient	1.0000multiplexer slope coefficient	1.0000fibre end	0.00T internal ref (°C)	29.30T ext. ref 1 (°C)	-0.30T ext. ref 2 (°C)	23.92length (m)	temperature (°C)	Stokes	anti-Stokes-747.200	-200.000	0.042	-0.236
-746.185	98.872	-0.116	0.136
-745.171	381.953	-0.135	-0.281
-744.156	-200.000	-0.028	0.346
-743.142	-72.273	-0.173	-0.065
-742.127	2.334	-0.092	0.068
-741.112	141.147	0.079	-0.106
-740.098	-26.363	-0.365	0.217
-739.083	156.321	0.060	-0.084
-738.069	-81.391	-0.100	0.033
-737.054	17.363	0.156	0.126
-736.039	-121.815	-0.410	-0.068
-735.025	256.070	0.106	0.184
-734.010	713.993	0.140	0.374
-732.996	203.169	-0.240	-0.375
-731.981	-200.000	-0.023	-0.125
-730.966	-109.820	-0.147	0.031
-729.952	-40.088	-0.188	-0.099
-728.937	-200.000	-0.004	0.114
-727.923	80.365	-0.150	0.163
-726.908	425.860	0.041	-0.090
-725.894	159.388	-0.190	-0.268
-724.879	18.972	0.159	0.129
-723.864	-146.666	-0.046	-0.004
-722.850	159.191	-0.195	-0.274
-721.835	56.858	-0.180	0.178
-720.821	8.983	-0.216	-0.165
-719.806	-200.000	-0.035	0.178
-718.791	37.502	-0.189	0.169
-717.777	79.581	-0.090	-0.098
-716.762	-200.000	0.007	-0.068
-715.748	-74.730	-0.195	-0.071
-714.733	-200.000	-0.020	0.426
-713.718	800.000	-0.128	0.457
-712.704	800.000	-0.076	-0.283
-711.689	-65.410	0.190	0.077
-710.675	-103.029	0.524	-0.126
-709.660	-200.000	-0.004	0.111
-708.645	-96.941	-0.290	-0.077
-707.631	-163.140	0.255	0.012
-706.616	19.108	-0.114	-0.093
-705.602	21.887	0.115	-0.095
-704.587	99.654	0.070	0.082
-703.572	47.893	-0.080	-0.076
-702.558	-140.310	-0.280	0.030
-701.543	-200.000	-0.056	-0.256
-700.529	-194.993	-0.053	-0.000
-699.514	800.000	0.041	-0.119
-698.499	-142.273	0.282	0.028
-697.485	800.000	0.050	-0.160
-696.470	457.933	-0.111	-0.249
-695.456	-133.745	0.203	0.026
-694.441	655.398	0.037	0.095
-693.426	-100.503	-0.127	0.032
-692.412	-82.441	0.149	0.049
-691.397	-200.000	0.007	0.311
-690.383	698.844	-0.117	-0.311
-689.368	41.719	0.352	-0.322
-688.354	-21.576	0.233	0.143
-687.339	-20.401	-0.353	0.220
-686.324	-7.757	-0.039	-0.026
-685.310	-200.000	-0.020	0.126
-684.295	-54.330	-0.087	-0.040
-683.281	-36.329	-0.089	0.049
-682.266	441.286	-0.190	-0.419
-681.251	-5.059	-0.219	0.152
-680.237	79.031	0.109	0.118
-679.222	-56.835	0.205	-0.091
-678.208	-9.454	0.158	0.106
-677.193	-200.000	-0.014	0.097
-676.178	800.000	0.042	-0.143
-675.164	-81.550	-0.266	0.088
-674.149	-105.351	0.089	-0.020
-673.135	498.713	0.153	-0.356
-672.120	-56.382	0.136	0.061
-671.105	-112.441	0.394	-0.080
-670.091	-107.792	-0.429	-0.094
-669.076	800.000	0.060	-0.237
-668.062	22.816	0.278	0.230
-667.047	130.183	0.043	0.055
-666.032	-17.275	0.227	-0.144
-665.018	88.378	0.015	0.017
-664.003	288.972	-0.164	-0.300
-662.989	-200.000	0.007	-0.124
-661.974	0.086	-0.161	0.116
-660.959	3.765	0.163	0.120
-659.945	-111.605	0.376	0.077
-658.930	800.000	0.084	-0.240
-657.916	87.077	-0.209	-0.233
-656.901	-23.674	-0.273	-0.165
-655.886	522.633	0.141	-0.334
-654.872	76.993	-0.224	0.240
-653.857	-74.049	-0.167	-0.061
-652.843	351.179	-0.109	-0.219
-651.828	-200.000	-0.011	-0.193
-650.814	77.815	0.157	0.169
-649.799	-72.478	-0.176	-0.066
-648.784	-36.567	0.090	-0.049
-647.770	470.915	0.046	-0.104
-646.755	-32.373	0.092	0.052
-645.741	-200.000	-0.061	-0.373
-644.726	-98.553	0.195	0.050
-643.711	563.652	0.054	-0.132
-642.697	32.640	0.279	-0.243
-641.682	-73.311	0.350	-0.129
-640.668	-200.000	0.020	-0.323
-639.653	416.559	-0.088	-0.189
-638.638	-62.804	0.096	-0.040
-637.624	334.836	0.087	0.169
-636.609	-40.076	0.259	0.136
-635.595	72.957	-0.068	-0.071
-634.580	-62.882	0.286	-0.119
-633.565	-24.056	0.370	0.223
-632.551	-83.563	-0.314	0.101
-631.536	-200.000	0.052	-0.271
-630.522	800.000	-0.093	0.286
-629.507	160.847	0.028	-0.039
-628.492	-7.438	0.067	0.046
-627.478	-96.825	-0.284	0.075
-626.463	-40.213	-0.258	-0.135
-625.449	800.000	0.099	-0.417
-624.434	-200.000	0.008	-0.129
-623.419	-200.000	0.039	0.246
-622.405	325.155	-0.146	-0.281
-621.390	74.141	-0.078	-0.082
-620.376	74.165	-0.033	-0.035
-619.361	382.356	0.075	0.154
-618.346	800.000	-0.014	0.048
-617.332	-95.316	-0.078	0.021
-616.317	-200.000	0.046	-0.342
-615.303	-200.000	0.000	-0.002
-614.288	-200.000	-0.030	-0.242
-613.273	105.770	0.029	-0.035
-612.259	-200.000	0.000	0.226
-611.244	-152.552	-0.196	0.014
-610.230	-120.623	-0.063	-0.011
-609.215	-82.427	0.247	-0.081
-608.201	107.165	-0.121	0.145
-607.186	-147.808	0.243	-0.020
-606.171	165.077	0.128	0.182
-605.157	0.837	-0.440	0.317
-604.142	350.753	-0.164	0.326
-603.128	-61.135	0.326	-0.138
-602.113	161.762	0.146	-0.205
-601.098	9.855	0.224	0.171
-600.084	114.885	0.160	0.197
-599.069	-158.912	0.188	-0.011
-598.055	85.093	-0.107	-0.118
-597.040	-103.297	-0.102	-0.024
-596.025	-154.674	-0.057	0.004
-595.011	522.046	0.053	-0.126
-593.996	-47.041	-0.218	-0.107
-592.982	-200.000	-0.014	0.485
-591.967	-200.000	-0.063	-0.282
-590.952	-158.028	0.267	-0.016
-589.938	-91.910	0.182	-0.052
-588.923	-85.480	-0.195	0.061
-587.909	415.866	0.184	-0.395
-586.894	99.294	-0.171	0.199
-585.879	-138.223	-0.050	-0.006
-584.865	-11.032	0.078	-0.052
-583.850	669.425	-0.040	0.104
-582.836	-200.000	-0.011	0.136
-581.821	-39.723	0.068	0.036
-580.806	800.000	-0.077	-0.223
-579.792	-77.218	-0.328	-0.115
-578.777	800.000	0.088	-0.269
-577.763	-113.719	-0.215	0.042
-576.748	800.000	0.088	-0.278
-575.733	-127.449	0.125	0.018
-574.719	-144.339	0.149	-0.014
-573.704	-14.192	0.153	-0.099
-572.690	69.553	0.106	-0.110
-571.675	526.830	-0.122	0.289
-570.661	-49.736	-0.061	0.029
-569.646	152.748	0.063	-0.087
-568.631	-200.000	0.060	0.364
-567.617	90.872	-0.185	-0.209
-566.602	772.893	-0.122	-0.335
-565.588	-30.350	-0.081	0.046
-564.573	66.909	0.131	0.134
-563.558	-200.000	-0.011	0.144
-562.544	155.616	-0.045	0.062
-561.529	27.189	-0.235	0.199
-560.515	-200.000	-0.001	0.256
-559.500	50.429	0.140	-0.133
-558.485	35.957	-0.378	0.334
-557.471	-69.216	0.204	-0.079
-556.456	46.026	0.105	-0.098
-555.442	-8.905	-0.155	0.104
-554.427	108.526	-0.060	-0.071
-553.412	800.000	-0.081	0.326
-552.398	800.000	-0.034	-0.146
-551.383	-88.762	-0.114	-0.034
-550.369	-200.000	0.004	0.083
-549.354	-116.587	-0.278	-0.051
-548.339	67.674	-0.105	0.108
-547.325	-27.823	0.368	0.214
-546.310	359.555	0.032	-0.065
-545.296	-200.000	-0.043	0.193
-544.281	-200.000	0.012	0.324
-543.266	-49.343	0.319	0.153
-542.252	40.984	-0.186	0.169
-541.237	697.075	0.031	-0.082
-540.223	10.731	0.197	0.151
-539.208	-116.083	0.061	-0.011
-538.193	-101.285	0.133	-0.033
-537.179	-11.054	-0.177	-0.117
-536.164	-63.958	0.064	0.026
-535.150	-200.000	0.014	-0.119
-534.135	-136.390	-0.238	0.028
-533.121	438.517	0.126	0.276
-532.106	352.387	0.102	-0.204
-531.091	154.143	0.038	-0.053
-530.077	-87.805	0.094	0.028
-529.062	-200.000	0.003	0.067
-528.048	19.601	0.172	-0.139
-527.033	800.000	0.051	0.192
-526.018	-99.496	0.220	-0.056
-525.004	-51.215	-0.071	-0.034
-523.989	-24.808	0.254	-0.151
-522.975	-159.293	-0.465	0.026
-521.960	25.705	0.121	-0.102
-520.945	-181.916	0.096	-0.002
-519.931	751.581	-0.018	0.048
-518.916	564.064	-0.046	-0.112
-517.902	-164.956	0.259	0.012
-516.887	-11.459	0.085	-0.056
-515.872	1.875	0.154	-0.112
-514.858	-155.529	0.272	0.018
-513.843	-59.357	0.096	0.042
-512.829	170.858	0.030	0.042
-511.814	138.128	0.085	-0.112
-510.799	-200.000	0.001	0.348
-509.785	-61.275	0.100	-0.042
-508.770	-200.000	-0.042	0.193
-507.756	-105.196	0.230	-0.053
-506.741	-111.256	-0.216	0.044
-505.726	181.072	-0.068	-0.101
-504.712	8.147	-0.124	-0.094
-503.697	-2.888	0.173	0.121
-502.683	-200.000	0.097	-0.551
-501.668	-200.000	0.019	-0.174
-500.653	-200.000	-0.094	0.474
-499.639	568.999	-0.039	0.096
-498.624	22.356	-0.333	0.273
-497.610	-7.838	0.129	-0.087
-496.595	-133.040	-0.242	0.031
-495.581	444.082	0.043	0.094
-494.566	105.713	-0.085	0.100
-493.551	266.957	0.075	0.131
-492.537	-200.000	0.080	0.358
-491.522	143.213	0.107	-0.142
-490.508	-59.186	0.178	0.077
-489.493	164.986	0.062	-0.087
-488.478	448.402	-0.040	0.087
-487.464	156.469	0.123	-0.170
-486.449	-200.000	0.063	0.440
-485.435	204.094	0.144	-0.223
-484.420	-200.000	-0.018	-0.108
-483.405	-85.117	-0.132	0.042
-482.391	-119.147	0.163	0.029
-481.376	80.061	-0.131	-0.141
-480.362	40.103	-0.255	0.229
-479.347	22.392	0.050	-0.041
-478.332	284.128	0.133	-0.239
-477.318	-24.835	-0.177	-0.105
-476.303	53.335	0.356	-0.342
-475.289	-49.007	-0.182	0.087
-474.274	-60.431	-0.186	-0.079
-473.259	-200.000	-0.033	-0.300
-472.245	-72.732	0.206	-0.076
-471.230	48.847	-0.206	-0.194
-470.216	140.509	-0.077	-0.101
-469.201	-59.252	0.214	-0.092
-468.186	-159.416	0.237	-0.013
-467.172	-29.487	-0.180	-0.103
-466.157	185.240	0.205	-0.304
-465.143	-110.284	-0.041	0.008
-464.128	341.298	-0.121	0.237
-463.113	-200.000	-0.015	0.249
-462.099	25.906	0.183	0.152
-461.084	-200.000	-0.001	-0.055
-460.070	75.193	0.215	0.226
-459.055	-200.000	0.054	-0.253
-458.040	-108.295	-0.329	-0.071
-457.026	329.612	-0.098	-0.189
-456.011	-140.247	0.220	-0.023
-454.997	115.311	0.089	-0.109
-453.982	-140.813	0.247	0.025
-452.968	-50.715	0.043	0.020
-451.953	574.590	0.029	-0.072
-450.938	5.485	-0.079	0.058
-449.924	-99.207	0.331	0.084
-448.909	17.050	-0.006	-0.005
-447.895	-0.068	-0.191	0.136
-446.880	-22.605	0.117	-0.071
-445.865	41.460	-0.099	-0.090
-444.851	-200.000	-0.035	0.165
-443.836	-17.956	-0.270	0.170
-442.822	-45.616	-0.452	0.224
-441.807	-11.229	0.184	0.121
-440.792	-200.000	0.007	0.052
-439.778	-200.000	0.009	-0.061
-438.763	194.779	-0.074	0.113
-437.749	800.000	-0.066	-0.194
-436.734	-77.645	0.543	-0.188
-435.719	-200.000	0.022	0.329
-434.705	-147.862	0.325	-0.027
-433.690	-179.751	0.106	-0.002
-432.676	-72.117	-0.135	-0.050
-431.661	-49.419	-0.155	0.074
-430.646	-70.248	-0.194	-0.073
-429.632	-200.000	-0.059	-0.315
-428.617	125.563	-0.313	-0.395
-427.603	638.294	-0.083	-0.212
-426.588	800.000	0.027	0.083
-425.573	-200.000	-0.019	-0.139
-424.559	492.669	-0.089	0.203
-423.544	-60.742	0.332	0.140
-422.530	-200.000	-0.035	0.344
-421.515	-47.631	0.112	-0.054
-420.500	-119.841	0.539	0.093
-419.486	-200.000	-0.015	-0.181
-418.471	30.353	0.372	0.318
-417.457	441.928	-0.138	-0.301
-416.442	28.473	-0.213	0.180
-415.428	-137.144	0.184	0.021
-414.413	4.998	0.186	-0.137
-413.398	-200.000	-0.050	-0.408
-412.384	-157.661	-0.151	-0.009
-411.369	25.522	-0.161	-0.134
-410.355	-49.838	-0.212	0.101
-409.340	208.247	-0.042	0.066
-408.325	-200.000	0.005	0.155
-407.311	-200.000	0.011	-0.096
-406.296	-49.728	-0.174	-0.083
-405.282	135.567	0.062	-0.081
-404.267	334.777	0.139	-0.269
-403.252	238.627	0.132	-0.219
-402.238	-123.437	-0.343	0.055
-401.223	78.066	-0.136	0.145
-400.209	-200.000	-0.026	-0.316
-399.194	126.443	-0.266	0.336
-398.179	28.533	0.105	0.089
-397.165	-128.270	-0.402	0.057
-396.150	139.633	0.089	0.117
-395.136	-90.842	0.174	-0.050
-394.121	-200.000	0.009	0.130
-393.106	-49.547	-0.259	0.123
-392.092	800.000	0.027	0.113
-391.077	-82.017	0.258	0.084
-390.063	-145.317	0.254	-0.023
-389.048	-117.686	-0.474	0.085
-388.033	361.030	-0.131	0.262
-387.019	555.595	-0.075	-0.181
-386.004	-59.619	0.422	0.181
-384.990	-99.886	0.123	-0.031
-383.975	16.540	-0.273	-0.215
-382.960	-200.000	0.022	-0.287
-381.946	-43.847	-0.261	-0.131
-380.931	101.879	0.098	0.115
-379.917	-31.999	0.317	-0.177
-378.902	-132.273	-0.232	-0.030
-377.888	156.097	0.249	0.342
-376.873	-75.906	0.210	-0.074
-375.858	-49.161	-0.326	0.156
-374.844	721.192	0.008	0.022
-373.829	-8.827	0.240	-0.160
-372.815	800.000	0.016	0.062
-371.800	-200.000	-0.010	-0.235
-370.785	-200.000	-0.005	-0.213
-369.771	203.676	0.104	0.160
-368.756	-200.000	-0.011	0.217
-367.742	139.401	0.189	0.248
-366.727	-62.612	-0.132	-0.054
-365.712	-200.000	-0.018	0.205
-364.698	352.369	-0.088	-0.175
-363.683	-200.000	-0.009	0.128
-362.669	163.338	-0.073	-0.102
-361.654	800.000	-0.155	0.561
-360.639	-200.000	-0.008	0.115
-359.625	-66.079	-0.259	-0.103
-358.610	-120.864	0.118	0.020
-357.596	183.177	0.080	-0.118
-356.581	-55.081	0.142	0.064
-355.566	519.460	-0.130	-0.303
-354.552	800.000	0.106	-0.395
-353.537	-200.000	-0.042	0.254
-352.523	-85.491	-0.146	0.045
-351.508	30.919	-0.152	0.130
-350.493	-33.276	0.108	0.060
-349.479	11.679	-0.220	-0.168
-348.464	-200.000	0.042	0.296
-347.450	-61.874	0.145	-0.060
-346.435	1.071	0.266	0.190
-345.420	58.909	-0.238	0.233
-344.406	-98.598	0.314	-0.080
-343.391	-200.000	-0.001	-0.147
-342.377	-200.000	0.045	-0.259
-341.362	184.690	-0.117	0.172
-340.348	73.581	-0.112	0.117
-339.333	12.115	-0.143	0.110
-338.318	800.000	-0.016	0.050
-337.304	-72.655	-0.341	0.125
-336.289	175.661	0.167	-0.241
-335.275	-200.000	0.019	-0.194
-334.260	-24.989	-0.144	-0.085
-333.245	-84.187	-0.135	0.043
-332.231	-200.000	-0.004	0.338
-331.216	245.627	0.061	0.103
-330.202	800.000	-0.028	-0.120
-329.187	115.833	-0.069	-0.084
-328.172	-200.000	0.012	0.081
-327.158	-52.636	0.068	-0.031
-326.143	687.322	-0.093	-0.243
-325.129	107.746	-0.339	0.402
-324.114	-108.817	0.177	-0.038
-323.099	30.165	-0.363	0.309
-322.085	-110.868	0.235	-0.048
-321.070	677.649	0.147	0.380
-320.056	40.900	0.213	-0.191
-319.041	403.172	-0.106	-0.222
-318.026	153.583	-0.129	-0.176
-317.012	-109.025	0.253	-0.054
-315.997	286.752	-0.117	-0.211
-314.983	-122.797	0.156	0.025
-313.968	-174.604	-0.259	0.007
-312.953	-140.490	-0.260	-0.027
-311.939	-44.925	0.162	0.080
-310.924	683.015	0.090	-0.233
-309.910	-146.430	-0.081	-0.007
-308.895	-77.787	-0.169	0.058
-307.880	197.058	0.087	-0.132
-306.866	96.336	0.209	0.238
-305.851	-67.291	-0.352	-0.138
-304.837	104.810	-0.120	0.140
-303.822	103.352	0.192	0.224
-302.807	-200.000	0.000	-0.350
-301.793	-107.726	-0.009	0.002
-300.778	-200.000	0.010	-0.194
-299.764	-200.000	-0.000	0.242
-298.749	668.436	-0.035	-0.090
-297.735	202.327	-0.200	0.307
-296.720	125.421	-0.234	0.293
-295.705	-54.127	0.222	0.100
-294.691	-95.967	-0.308	-0.082
-293.676	84.162	-0.147	-0.159
-292.662	51.973	-0.086	-0.082
-291.647	-200.000	0.035	-0.157
-290.632	229.151	0.199	-0.322
-289.618	173.304	-0.093	0.133
-288.603	152.132	0.249	0.338
-287.589	88.528	-0.168	-0.185
-286.574	-73.823	-0.101	0.036
-285.559	3.717	-0.423	-0.307
-284.545	347.268	-0.159	-0.312
-283.530	800.000	0.057	-0.230
-282.516	-63.282	-0.163	0.067
-281.501	366.012	0.213	-0.428
-280.486	14.482	0.209	-0.162
-279.472	-96.019	-0.384	-0.102
-278.457	-101.687	0.118	0.028
-277.443	800.000	-0.051	-0.184
-276.428	800.000	0.032	-0.103
-275.413	-200.000	-0.004	0.165
-274.399	140.789	0.071	0.093
-273.384	-40.233	-0.033	0.017
-272.370	-96.332	0.169	-0.044
-271.355	-192.210	-0.272	-0.003
-270.340	800.000	-0.077	0.265
-269.326	-200.000	-0.025	0.319
-268.311	-66.657	-0.259	0.102
-267.297	-200.000	-0.064	-0.293
-266.282	-200.000	-0.021	0.237
-265.267	-53.525	0.125	-0.057
-264.253	0.241	-0.186	-0.132
-263.238	-200.000	-0.003	0.115
-262.224	675.862	0.059	0.151
-261.209	60.599	0.118	0.116
-260.195	214.166	0.097	-0.152
-259.180	800.000	0.067	0.209
-258.165	69.608	-0.142	-0.146
-257.151	-102.553	-0.226	-0.054
-256.136	-52.675	-0.285	0.130
-255.122	252.703	0.064	0.109
-254.107	305.870	-0.187	-0.345
-253.092	-81.737	-0.342	-0.111
-252.078	7.570	-0.142	-0.106
-251.063	63.759	-0.071	-0.071
-250.049	800.000	-0.080	-0.280
-249.034	-157.951	0.153	0.009
-248.019	-63.274	0.167	0.068
-247.005	533.488	-0.013	-0.031
-245.990	-200.000	-0.049	-0.370
-244.976	457.678	-0.057	-0.126
-243.961	-36.450	0.378	0.202
-242.946	-39.700	-0.150	0.078
-241.932	-200.000	0.031	-0.371
-240.917	25.102	0.264	0.217
-239.903	160.222	-0.241	0.334
-238.888	9.278	-0.239	0.179
-237.873	-87.635	-0.339	0.102
-236.859	711.883	-0.059	0.156
-235.844	316.942	0.115	-0.216
-234.830	286.361	0.113	0.202
-233.815	-197.418	-0.268	0.002
-232.800	238.777	-0.094	0.155
-231.786	137.062	0.049	-0.064
-230.771	800.000	0.036	-0.119
-229.757	800.000	-0.092	-0.359
-228.742	360.601	-0.206	0.410
-227.727	-12.037	0.271	0.176
-226.713	-65.711	-0.072	0.029
-225.698	416.885	-0.179	0.380
-224.684	-156.956	-0.277	0.017
-223.669	-200.000	0.012	0.125
-222.655	381.420	0.048	-0.097
-221.640	-200.000	0.003	-0.125
-220.625	-58.519	-0.088	-0.038
-219.611	800.000	-0.091	0.256
-218.596	194.225	0.164	0.247
-217.582	800.000	0.121	0.339
-216.567	144.266	0.120	-0.158
-215.552	150.735	-0.033	0.044
-214.538	-90.453	-0.087	-0.025
-213.523	252.262	-0.117	0.197
-212.509	247.688	0.093	-0.156
-211.494	-29.803	-0.172	-0.098
-210.479	-58.448	-0.311	0.134
-209.465	-200.000	-0.010	0.141
-208.450	800.000	0.105	0.343
-207.436	-190.094	0.110	0.001
-206.421	-200.000	0.030	0.156
-205.406	-200.000	-0.013	-0.127
-204.392	181.561	0.085	0.124
-203.377	-143.507	-0.413	0.039
-202.363	-3.222	-0.058	0.040
-201.348	800.000	0.084	0.263
-200.333	429.484	0.184	0.394
-199.319	-69.716	0.232	0.088
-198.304	-134.100	-0.281	-0.034
-197.290	-105.260	-0.203	0.046
-196.275	-4.686	-0.091	0.062
-195.260	-138.902	-0.062	-0.007
-194.246	150.358	0.184	0.247
-193.231	-39.770	0.363	-0.188
-192.217	-200.000	-0.080	0.387
-191.202	645.278	-0.131	-0.332
-190.187	8.211	0.251	0.186
-189.173	-27.360	0.432	-0.249
-188.158	-82.324	-0.140	-0.045
-187.144	-13.349	-0.128	0.082
-186.129	14.745	0.173	0.134
-185.114	800.000	-0.023	0.071
-184.100	7.413	-0.024	-0.017
-183.085	-168.721	0.262	0.010
-182.071	-87.751	0.222	-0.066
-181.056	76.388	-0.173	-0.181
-180.042	-9.009	0.091	0.061
-179.027	-52.681	-0.181	0.083
-178.012	-33.206	0.020	0.011
-176.998	315.445	0.208	-0.389
-175.983	3.316	-0.098	-0.070
-174.969	-200.000	0.026	0.185
-173.954	84.791	0.127	-0.137
-172.939	416.818	-0.170	-0.360
-171.925	800.000	0.090	-0.348
-170.910	16.073	0.200	0.156
-169.896	-184.851	-0.109	0.002
-168.881	108.666	0.093	0.109
-167.866	260.513	0.079	-0.136
-166.852	-75.561	0.122	-0.043
-165.837	44.168	0.244	-0.222
-164.823	-134.394	-0.280	-0.034
-163.808	51.116	0.149	-0.140
-162.793	-10.376	0.233	0.153
-161.779	-33.873	0.103	-0.056
-160.764	451.568	0.041	0.090
-159.750	24.681	0.377	-0.309
-158.735	-29.254	-0.093	0.053
-157.720	30.246	-0.099	-0.084
-156.706	-114.025	0.290	0.056
-155.691	-156.105	0.324	-0.020
-154.677	251.774	-0.144	0.243
-153.662	789.436	-0.047	-0.129
-152.647	410.740	-0.204	-0.428
-151.633	-104.175	0.118	0.027
-150.618	-2.822	-0.280	-0.193
-149.604	113.391	0.082	-0.099
-148.589	-90.122	0.043	-0.012
-147.574	-20.821	-0.010	-0.006
-146.560	800.000	0.129	-0.418
-145.545	-200.000	0.043	0.329
-144.531	-200.000	-0.044	-0.406
-143.516	-171.720	-0.262	-0.009
-142.502	27.791	0.094	0.078
-141.487	-200.000	-0.010	0.397
-140.472	-11.618	-0.146	0.095
-139.458	800.000	-0.028	0.120
-138.443	-200.000	0.019	-0.120
-137.429	800.000	-0.054	-0.175
-136.414	725.659	0.191	0.504
-135.399	88.973	0.092	0.101
-134.385	-200.000	0.021	0.259
-133.370	-19.912	0.173	0.105
-132.356	800.000	-0.042	0.143
-131.341	11.995	0.155	0.118
-130.326	-60.685	-0.199	0.083
-129.312	-43.116	0.180	0.090
-128.297	27.653	-0.153	0.127
-127.283	-150.183	0.137	0.010
-126.268	-79.110	-0.324	-0.109
-125.253	348.523	-0.072	-0.140
-124.239	-200.000	-0.019	0.085
-123.224	-37.570	-0.356	-0.187
-122.210	-129.087	-0.123	-0.017
-121.195	-71.920	0.105	-0.039
