DTS Sentinel unit serial number:	SN413079Multiplexer serial number:	ORYXHardware model number:	OX4-SRSoftware version number:	ORYX F/W v4.00 Oryx Data Collector v3.7.2.0data status	okinstallation	princeton_trtdifferential loss correction	single-endedforward channel	channel 4reverse channel	N/Adate	2019/09/11time	18:03:10forward acquisition time	60.00reverse acquisition time	0.00gamma	496.2192k internal	0.2275k external	0.2275temperature offset calibration	1.0026default loss term (dB/km)	0.3790temperature slope calibration	1.0000multiplexer offset coefficient	1.0000multiplexer slope coefficient	1.0000fibre end	0.00T internal ref (°C)	44.03T ext. ref 1 (°C)	1.15T ext. ref 2 (°C)	39.00length (m)	temperature (°C)	Stokes	anti-Stokes-747.200	57.136	0.235	0.236
-746.185	454.057	-0.091	0.208
-745.171	62.130	0.074	0.076
-744.156	-200.000	-0.022	0.205
-743.142	-200.000	-0.042	-0.497
-742.127	132.570	0.045	0.060
-741.112	-124.156	0.167	-0.027
-740.098	-33.640	-0.225	0.128
-739.083	512.026	0.212	0.508
-738.069	-73.324	-0.049	0.018
-737.054	-196.178	0.261	0.002
-736.039	800.000	-0.047	0.167
-735.025	24.163	0.198	0.168
-734.010	-112.667	-0.192	-0.039
-732.996	-200.000	0.009	0.187
-731.981	55.631	-0.187	-0.187
-730.966	-140.473	-0.365	-0.039
-729.952	274.490	-0.052	0.095
-728.937	-61.972	-0.277	0.120
-727.923	-87.608	-0.139	-0.043
-726.908	-200.000	0.001	0.249
-725.894	116.226	-0.159	0.201
-724.879	216.271	0.055	0.090
-723.864	374.804	-0.105	0.221
-722.850	56.104	0.231	0.231
-721.835	-158.218	-0.491	0.030
-720.821	-112.712	0.085	0.017
-719.806	-200.000	0.018	0.110
-718.791	598.691	0.049	0.126
-717.777	-81.344	-0.126	0.043
-716.762	51.844	0.126	0.124
-715.748	-44.382	-0.209	-0.108
-714.733	210.380	0.073	0.118
-713.718	59.673	-0.257	0.261
-712.704	-200.000	-0.456	0.000
-711.689	129.989	-0.171	0.225
-710.675	106.270	0.294	0.359
-709.660	-131.042	-0.591	-0.081
-708.645	-200.000	0.004	-0.560
-707.631	-200.000	-0.034	0.413
-706.616	-161.063	0.290	0.016
-705.602	800.000	-0.059	-0.264
-704.587	1.592	-0.178	-0.132
-703.572	-99.541	0.196	-0.051
-702.558	47.374	0.200	-0.192
-701.543	-163.479	-0.138	-0.007
-700.529	22.816	0.193	-0.163
-699.514	12.870	-0.197	0.157
-698.499	-100.377	0.308	-0.079
-697.485	-99.572	-0.118	0.031
-696.470	283.215	0.234	-0.433
-695.456	800.000	-0.161	-0.494
-694.441	-75.272	0.222	-0.082
-693.426	-45.398	0.176	-0.090
-692.412	0.406	-0.090	0.066
-691.397	729.720	0.150	0.414
-690.383	188.119	-0.093	0.143
-689.368	44.959	-0.028	-0.027
-688.354	-200.000	0.067	0.483
-687.339	-12.453	0.285	0.192
-686.324	618.792	-0.091	-0.235
-685.310	48.118	0.097	-0.094
-684.295	34.978	-0.138	-0.124
-683.281	201.763	0.096	-0.152
-682.266	38.669	-0.134	-0.123
-681.251	93.977	-0.143	0.167
-680.237	800.000	0.043	0.141
-679.222	800.000	-0.092	0.397
-678.208	-62.383	-0.077	-0.033
-677.193	-51.392	-0.157	0.076
-676.178	132.892	-0.176	-0.234
-675.164	320.382	-0.134	0.262
-674.149	-200.000	-0.030	-0.439
-673.135	-200.000	-0.049	-0.223
-672.120	115.667	-0.096	0.121
-671.105	48.444	0.036	0.034
-670.091	-200.000	0.009	-0.110
-669.076	-170.267	-0.076	-0.003
-668.062	-200.000	0.064	-0.313
-667.047	168.495	0.149	-0.218
-666.032	-200.000	-0.036	0.359
-665.018	-134.522	0.107	0.013
-664.003	277.337	-0.133	0.243
-662.989	800.000	-0.062	-0.194
-661.974	800.000	-0.024	0.089
-660.959	164.137	-0.098	-0.141
-659.945	293.440	-0.197	-0.369
-658.930	117.519	-0.258	-0.326
-657.916	-200.000	-0.017	-0.177
-656.901	800.000	0.049	-0.199
-655.886	139.161	-0.130	-0.175
-654.872	-51.593	0.178	-0.086
-653.857	-18.869	-0.159	-0.102
-652.843	-200.000	-0.019	0.169
-651.828	-200.000	0.042	-0.255
-650.814	-200.000	-0.005	0.085
-649.799	27.969	-0.174	0.151
-648.784	272.199	-0.045	-0.082
-647.770	11.355	0.192	-0.151
-646.755	456.822	-0.066	-0.151
-645.741	800.000	0.187	0.585
-644.726	63.358	-0.093	0.096
-643.711	410.487	0.171	0.372
-642.697	350.741	0.205	-0.416
-641.682	132.735	-0.136	-0.180
-640.668	-59.829	0.114	-0.050
-639.653	462.035	0.043	-0.098
-638.638	305.902	0.122	-0.234
-637.624	-137.965	0.325	-0.037
-636.609	162.728	0.067	0.097
-635.595	625.292	-0.059	0.152
-634.580	-200.000	0.025	0.343
-633.565	15.934	0.127	0.102
-632.551	146.021	-0.053	-0.074
-631.536	-120.445	0.121	0.021
-630.522	128.493	0.129	0.169
-629.507	-50.808	0.168	0.081
-628.492	-49.937	0.276	0.134
-627.478	-8.752	-0.285	-0.196
-626.463	-3.404	-0.199	-0.142
-625.449	-74.329	0.138	-0.051
-624.434	-200.000	-0.001	0.245
-623.419	-200.000	0.027	0.181
-622.405	79.935	0.183	0.202
-621.390	76.114	0.059	0.064
-620.376	394.587	-0.098	-0.209
-619.361	800.000	-0.012	-0.038
-618.346	-83.818	-0.251	-0.082
-617.332	27.242	0.257	0.221
-616.317	-113.116	-0.137	0.028
-615.303	266.140	-0.064	0.114
-614.288	-180.725	-0.364	-0.008
-613.273	11.233	-0.061	0.048
-612.259	88.619	-0.091	0.104
-611.244	-198.795	-0.375	-0.002
-610.230	-200.000	0.037	0.245
-609.215	-66.868	0.396	-0.161
-608.201	-126.676	-0.111	0.017
-607.186	800.000	-0.038	-0.151
-606.171	800.000	0.153	-0.565
-605.157	-149.921	-0.297	0.024
-604.142	278.641	0.111	0.202
-603.128	-64.823	0.186	0.077
-602.113	524.918	0.121	-0.292
-601.098	-200.000	0.025	0.119
-600.084	-60.960	-0.253	-0.110
-599.069	669.953	-0.053	-0.142
-598.055	239.817	0.087	-0.149
-597.040	-193.934	-0.249	-0.002
-596.025	800.000	0.066	-0.266
-595.011	40.642	-0.057	0.052
-593.996	-118.891	0.527	-0.095
-592.982	-10.042	-0.168	-0.115
-591.967	-200.000	0.015	0.080
-590.952	632.325	-0.180	0.467
-589.938	-43.421	0.288	0.149
-588.923	800.000	0.086	-0.295
-587.909	-83.929	-0.412	-0.134
-586.894	-138.381	-0.185	-0.021
-585.879	-106.926	0.366	0.083
-584.865	23.061	-0.196	0.164
-583.850	-200.000	0.044	-0.211
-582.836	-200.000	0.002	-0.176
-581.821	791.791	-0.158	0.446
-580.806	-159.412	-0.118	0.007
-579.792	-17.768	0.177	0.114
-578.777	54.368	0.166	-0.164
-577.763	21.926	-0.226	-0.189
-576.748	-88.678	0.228	-0.070
-575.733	-163.450	0.227	-0.011
-574.719	-32.677	-0.261	-0.149
-573.704	800.000	0.023	0.067
-572.690	-125.226	-0.175	-0.027
-571.675	181.741	-0.042	-0.064
-570.661	31.649	0.045	-0.039
-569.646	673.908	-0.127	-0.337
-568.631	53.907	-0.168	0.166
-567.617	189.680	0.243	0.374
-566.602	-78.642	0.248	0.087
-565.588	6.993	-0.267	-0.204
-564.573	51.120	-0.160	0.155
-563.558	-122.982	-0.212	0.035
-562.544	-34.741	-0.121	0.068
-561.529	-200.000	-0.006	-0.112
-560.515	50.915	0.109	-0.106
-559.500	86.402	-0.110	-0.124
-558.485	51.240	0.099	-0.096
-557.471	-200.000	0.004	-0.253
-556.456	-200.000	0.186	0.000
-555.442	65.792	0.139	-0.144
-554.427	800.000	0.081	-0.232
-553.412	-12.123	0.169	0.113
-552.398	501.515	0.044	0.103
-551.383	-100.069	0.071	0.018
-550.369	33.451	0.063	-0.056
-549.354	-59.327	-0.360	0.158
-548.339	-128.794	-0.195	0.028
-547.325	8.009	0.111	0.085
-546.310	-92.786	-0.043	0.012
-545.296	800.000	-0.071	-0.214
-544.281	132.017	0.180	0.237
-543.266	592.335	0.041	-0.104
-542.252	800.000	-0.061	0.234
-541.237	-200.000	-0.056	0.371
-540.223	-180.628	-0.130	-0.003
-539.208	246.774	-0.073	-0.126
-538.193	-25.558	-0.367	-0.222
-537.179	174.148	-0.066	-0.098
-536.164	-200.000	-0.042	-0.344
-535.150	-200.000	-0.013	0.096
-534.135	-97.872	0.087	-0.023
-533.121	-179.771	-0.084	-0.002
-532.106	785.717	-0.102	0.285
-531.091	695.949	-0.062	0.166
-530.077	132.242	-0.070	-0.092
-529.062	-27.388	-0.307	0.183
-528.048	183.648	0.029	-0.044
-527.033	-200.000	-0.027	-0.332
-526.018	-200.000	-0.011	-0.217
-525.004	239.012	0.082	-0.139
-523.989	550.419	0.059	-0.144
-522.975	159.762	-0.194	-0.276
-521.960	75.846	-0.259	-0.279
-520.945	523.451	0.189	0.454
-519.931	-72.690	-0.446	0.168
-518.916	-104.277	0.108	0.026
-517.902	191.834	0.067	-0.103
-516.887	-38.090	0.027	-0.015
-515.872	112.944	-0.080	0.099
-514.858	116.726	-0.231	0.290
-513.843	800.000	-0.037	0.111
-512.829	-198.766	0.170	0.001
-511.814	-73.267	-0.165	-0.062
-510.799	-44.833	0.020	-0.010
-509.785	-19.676	-0.219	-0.138
-508.770	-117.265	-0.195	-0.036
-507.756	-110.319	-0.129	0.027
-506.741	6.601	0.207	-0.157
-505.726	800.000	-0.034	-0.143
-504.712	800.000	-0.053	0.166
-503.697	-200.000	-0.007	-0.078
-502.683	-200.000	-0.058	-0.369
-501.668	-200.000	0.010	-0.339
-500.653	-8.552	-0.123	-0.085
-499.639	-55.145	-0.223	-0.102
-498.624	-60.236	0.239	-0.104
-497.610	-24.433	0.118	0.072
-496.595	654.902	-0.061	-0.160
-495.581	-25.924	-0.356	-0.214
-494.566	-200.000	-0.012	0.208
-493.551	-200.000	-0.020	-0.354
-492.537	35.371	0.094	0.084
-491.522	591.466	-0.109	-0.274
-490.508	227.657	0.057	0.095
-489.493	-170.233	-0.167	0.006
-488.478	17.910	0.224	0.182
-487.464	-64.682	0.313	-0.129
-486.449	-47.757	0.193	-0.095
-485.435	653.973	0.083	-0.219
-484.420	-200.000	0.043	-0.194
-483.405	-89.556	-0.281	-0.084
-482.391	-200.000	-0.017	-0.240
-481.376	-158.195	-0.160	-0.010
-480.362	1.856	-0.271	0.199
-479.347	-182.462	-0.131	0.002
-478.332	324.511	0.103	-0.201
-477.318	-160.039	0.140	0.008
-476.303	31.266	0.055	-0.048
-475.289	549.870	0.053	-0.129
-474.274	800.000	-0.086	-0.357
-473.259	800.000	-0.043	0.184
-472.245	-200.000	0.004	0.129
-471.230	149.123	0.105	-0.145
-470.216	800.000	0.054	0.167
-469.201	-75.309	-0.110	0.040
-468.186	-78.992	-0.170	0.059
-467.172	800.000	-0.037	-0.109
-466.157	43.844	-0.212	-0.198
-465.143	-112.560	-0.049	0.010
-464.128	-200.000	0.000	0.118
-463.113	51.927	0.296	0.287
-462.099	-109.753	0.134	0.029
-461.084	216.618	-0.128	-0.208
-460.070	-200.000	0.006	0.113
-459.055	190.712	0.145	-0.223
-458.040	-38.953	-0.181	-0.097
-457.026	800.000	0.037	0.135
-456.011	-12.456	-0.362	-0.241
-454.997	-200.000	-0.017	0.138
-453.982	142.081	0.065	0.088
-452.968	714.622	0.111	-0.299
-451.953	1.741	-0.410	-0.301
-450.938	123.410	0.082	-0.104
-449.924	437.008	-0.075	-0.166
-448.909	-89.761	-0.212	0.063
-447.895	-172.725	-0.337	-0.011
-446.880	-126.400	0.307	-0.047
-445.865	-88.661	-0.204	0.062
-444.851	-111.504	0.278	0.058
-443.836	75.346	-0.274	-0.295
-442.822	-200.000	0.034	0.344
-441.807	-66.594	0.084	0.034
-440.792	-186.709	0.203	0.003
-439.778	-64.380	0.304	0.126
-438.763	709.040	0.038	0.104
-437.749	-181.308	-0.092	-0.002
-436.734	283.288	0.140	0.257
-435.719	12.860	0.121	0.096
-434.705	-94.315	0.174	-0.048
-433.690	-153.904	-0.329	-0.023
-432.676	194.461	0.137	0.211
-431.661	111.406	-0.093	0.114
-430.646	-46.618	-0.235	0.117
-429.632	202.356	0.032	0.050
-428.617	-200.000	-0.054	0.337
-427.603	800.000	0.064	0.253
-426.588	7.070	0.088	0.067
-425.573	189.495	0.107	0.164
-424.559	-200.000	0.021	-0.228
-423.544	322.923	-0.039	-0.076
-422.530	-200.000	0.020	0.107
-421.515	56.635	0.080	-0.079
-420.500	310.729	-0.052	0.099
-419.486	134.910	-0.227	0.300
-418.471	-156.689	0.202	0.013
-417.457	-200.000	-0.021	-0.140
-416.442	249.059	0.029	-0.050
-415.428	23.745	0.051	0.043
-414.413	-200.000	-0.048	-0.244
-413.398	-18.078	0.114	0.073
-412.384	-200.000	0.007	0.172
-411.369	21.422	-0.078	0.065
-410.355	800.000	0.031	0.097
-409.340	154.246	-0.071	-0.100
-408.325	126.139	0.301	-0.388
-407.311	-200.000	0.061	0.470
-406.296	-200.000	-0.029	0.196
-405.282	16.546	-0.053	0.043
-404.267	-200.000	-0.064	-0.323
-403.252	260.398	0.111	0.195
-402.238	-128.260	-0.174	0.025
-401.223	-124.324	0.173	-0.027
-400.209	84.413	-0.106	-0.118
-399.194	-200.000	0.019	0.212
-398.179	88.188	0.046	-0.052
-397.165	277.067	0.096	-0.173
-396.150	49.700	0.203	-0.194
-395.136	-129.939	-0.317	0.044
-394.121	-70.557	0.378	0.146
-393.106	-81.334	0.222	0.074
-392.092	-200.000	-0.036	0.261
-391.077	152.211	-0.103	0.143
-390.063	-88.703	-0.253	-0.077
-389.048	-200.000	-0.039	0.237
-388.033	800.000	0.053	0.212
-387.019	800.000	-0.052	0.191
-386.004	297.087	0.173	0.323
-384.990	88.843	0.198	-0.224
-383.975	-3.257	0.185	-0.131
-382.960	74.273	0.188	0.201
-381.946	427.832	-0.063	-0.139
-380.931	-36.642	-0.168	-0.092
-379.917	-200.000	0.006	0.044
-378.902	-200.000	0.005	-0.344
-377.888	183.760	-0.147	-0.221
-376.873	-200.000	-0.072	0.000
-375.858	-30.129	0.254	0.147
-374.844	1.429	0.026	-0.019
-373.829	-200.000	-0.029	0.133
-372.815	54.916	-0.119	0.116
-371.800	-76.514	0.200	-0.071
-370.785	-200.000	-0.005	-0.510
-369.771	-200.000	-0.002	-0.208
-368.756	800.000	0.052	-0.179
-367.742	-200.000	-0.002	-0.369
-366.727	-28.058	-0.181	0.106
-365.712	213.539	-0.074	0.119
-364.698	-59.084	0.326	0.143
-363.683	800.000	0.064	0.183
-362.669	-200.000	-0.034	0.157
-361.654	-58.288	0.081	0.036
-360.639	288.716	0.163	-0.300
-359.625	800.000	-0.072	-0.287
-358.610	-76.147	-0.041	0.015
-357.596	453.192	-0.093	0.209
-356.581	-156.235	0.080	0.005
-355.566	-200.000	-0.021	0.136
-354.552	-89.614	0.293	-0.087
-353.537	-28.047	-0.052	0.031
-352.523	-145.515	-0.154	0.014
-351.508	232.810	0.060	-0.099
-350.493	-123.731	0.349	-0.056
-349.479	357.254	0.058	-0.117
-348.464	-114.041	-0.198	-0.039
-347.450	387.531	-0.140	0.293
-346.435	-90.539	-0.179	0.053
-345.420	700.746	-0.102	-0.273
-344.406	-185.064	0.219	0.003
-343.391	-200.000	0.068	-0.509
-342.377	-200.000	0.018	0.120
-341.362	-200.000	0.003	-0.252
-340.348	-97.226	-0.128	0.034
-339.333	-161.612	-0.290	0.015
-338.318	-22.274	0.101	-0.062
-337.304	-200.000	-0.029	-0.348
-336.289	-200.000	-0.006	-0.409
-335.275	77.268	0.054	-0.059
-334.260	458.606	0.109	0.246
-333.245	297.379	-0.112	0.209
-332.231	262.846	-0.039	0.069
-331.216	-54.250	0.098	0.045
-330.202	379.203	0.037	0.078
-329.187	-200.000	0.040	0.294
-328.172	-56.546	0.086	0.039
-327.158	-72.579	0.073	-0.027
-326.143	385.034	-0.078	0.164
-325.129	144.410	0.144	0.196
-324.114	800.000	0.046	-0.178
-323.099	-25.591	0.154	-0.092
-322.085	7.263	0.171	-0.129
-321.070	-200.000	-0.008	0.098
-320.056	-153.400	-0.333	0.023
-319.041	565.693	-0.078	0.193
-318.026	-93.824	0.269	-0.075
-317.012	-124.389	0.255	-0.040
-315.997	-34.432	-0.245	0.136
-314.983	120.429	0.119	0.150
-313.968	178.970	-0.024	0.035
-312.953	-18.660	-0.152	-0.096
-311.939	21.901	0.173	-0.143
-310.924	-140.029	-0.290	-0.031
-309.910	-200.000	-0.013	-0.116
-308.895	800.000	0.127	-0.449
-307.880	-200.000	0.053	0.356
-306.866	-200.000	-0.011	-0.145
-305.851	73.383	-0.163	0.173
-304.837	-133.693	0.057	0.007
-303.822	-106.330	0.456	0.103
-302.807	-64.877	-0.163	0.067
-301.793	-94.607	-0.177	0.049
-300.778	-164.263	-0.163	-0.008
-299.764	189.452	-0.146	-0.221
-298.749	-134.672	-0.097	0.012
-297.735	134.169	-0.148	0.194
-296.720	371.061	-0.172	-0.354
-295.705	-32.705	0.242	0.137
-294.691	-150.142	0.119	-0.009
-293.676	800.000	-0.043	0.131
-292.662	-28.405	0.175	0.102
-291.647	-200.000	0.007	0.055
-290.632	-43.937	-0.080	-0.041
-289.618	-128.601	0.265	-0.038
-288.603	-15.476	-0.535	0.346
-287.589	411.950	0.101	0.217
-286.574	800.000	0.038	-0.134
-285.559	-170.323	-0.281	0.010
-284.545	-100.289	-0.175	0.044
-283.530	800.000	-0.044	0.146
-282.516	-200.000	-0.056	0.321
-281.501	-200.000	0.029	-0.183
-280.486	-119.025	0.349	-0.062
-279.472	-79.798	-0.178	0.061
-278.457	170.727	0.210	0.304
-277.443	-133.510	0.211	-0.027
-276.428	697.755	-0.071	-0.189
-275.413	-27.155	-0.180	0.106
-274.399	42.904	-0.163	0.151
-273.384	64.432	0.216	0.220
-272.370	800.000	-0.128	0.464
-271.355	-197.294	0.267	0.002
-270.340	-35.482	-0.198	-0.109
-269.326	-200.000	0.028	-0.184
-268.311	363.851	-0.226	0.459
-267.297	349.250	0.107	0.213
-266.282	-12.197	0.318	-0.210
-265.267	790.567	0.108	0.301
-264.253	-23.307	0.221	0.134
-263.238	-200.000	-0.002	0.402
-262.224	-200.000	-0.001	-0.092
-261.209	-200.000	-0.029	0.196
-260.195	-78.981	0.347	0.119
-259.180	800.000	0.093	-0.299
-258.165	800.000	-0.038	0.158
-257.151	-200.000	0.243	0.000
-256.136	135.847	0.123	-0.162
-255.122	217.591	-0.109	-0.176
-254.107	800.000	0.079	-0.233
-253.092	516.119	0.032	0.075
-252.078	800.000	-0.070	-0.230
-251.063	-88.647	0.235	0.071
-250.049	800.000	-0.043	0.150
-249.034	3.188	0.192	0.141
-248.019	387.794	-0.039	0.082
-247.005	-200.000	0.005	0.184
-245.990	-64.624	0.146	0.060
-244.976	-85.701	0.097	-0.030
-243.961	189.611	-0.122	-0.185
-242.946	800.000	0.026	-0.102
-241.932	371.409	-0.104	0.214
-240.917	-97.069	0.230	-0.061
-239.903	-152.618	-0.105	-0.008
-238.888	276.436	0.158	-0.285
-237.873	-18.383	0.115	-0.073
-236.859	72.208	-0.135	0.142
-235.844	-137.581	-0.180	0.021
-234.830	-200.000	0.013	0.101
-233.815	-124.431	-0.353	-0.056
-232.800	53.194	0.074	0.072
-231.786	-104.619	-0.178	0.041
-230.771	127.740	0.205	-0.263
-229.757	-115.892	-0.249	-0.047
-228.742	109.815	0.263	-0.319
-227.727	-200.000	-0.006	0.110
-226.713	24.338	0.079	-0.066
-225.698	-34.945	-0.437	-0.241
-224.684	1.129	0.051	-0.037
-223.669	-134.967	0.279	0.034
-222.655	-154.675	0.321	-0.022
-221.640	-65.474	0.270	0.110
-220.625	800.000	0.037	-0.130
-219.611	-84.837	-0.105	0.033
-218.596	25.880	-0.116	-0.098
-217.582	-45.682	0.108	-0.054
-216.567	800.000	0.090	-0.260
-215.552	-200.000	0.016	-0.210
-214.538	40.504	-0.115	-0.105
-213.523	800.000	-0.030	0.085
-212.509	-200.000	-0.053	0.237
-211.494	68.824	0.137	-0.142
-210.479	1.945	-0.357	-0.260
-209.465	279.970	0.101	0.183
-208.450	-135.004	-0.334	0.041
-207.436	-200.000	0.011	0.153
-206.421	86.898	-0.106	0.118
-205.406	-27.797	0.143	-0.083
-204.392	-191.755	-0.275	-0.003
-203.377	60.180	0.234	0.234
-202.363	336.990	-0.056	0.110
-201.348	229.864	0.193	-0.318
-200.333	-89.412	0.298	-0.089
-199.319	-58.598	0.309	-0.135
-198.304	-17.094	0.380	0.242
-197.290	-89.333	-0.077	0.023
-196.275	444.067	0.109	-0.242
-195.260	-142.072	0.098	-0.010
-194.246	-200.000	0.042	0.204
-193.231	800.000	-0.109	0.316
-192.217	-51.718	-0.051	0.024
-191.202	-200.000	0.009	-0.077
-190.187	-200.000	0.035	0.262
-189.173	-10.888	0.276	0.184
-188.158	-134.617	0.050	0.006
-187.144	-49.631	0.179	0.086
-186.129	101.522	-0.186	0.219
-185.114	5.295	-0.075	0.056
-184.100	-169.851	0.247	0.009
-183.085	601.615	-0.085	-0.213
-182.071	-200.000	0.003	0.173
-181.056	-25.375	0.281	0.168
-180.042	-49.263	-0.282	0.136
-179.027	312.101	0.153	-0.289
-178.012	449.006	-0.129	-0.286
-176.998	800.000	0.163	0.514
-175.983	-158.718	-0.235	-0.014
-174.969	800.000	-0.020	-0.078
-173.954	-188.167	-0.202	0.003
-172.939	-17.060	-0.117	0.074
-171.925	-2.870	0.219	-0.154
-170.910	363.360	-0.030	0.061
-169.896	-200.000	0.007	0.127
-168.881	295.120	0.082	-0.152
-167.866	-156.630	-0.464	-0.029
-166.852	-37.371	0.144	0.078
-165.837	259.961	0.048	0.083
-164.823	-200.000	0.002	0.088
-163.808	-61.708	-0.166	-0.070
-162.793	284.827	0.099	0.180
-161.779	-18.827	-0.087	0.054
-160.764	663.990	0.112	0.292
-159.750	-200.000	-0.047	-0.222
-158.735	-72.071	-0.282	-0.106
-157.720	-34.879	-0.161	0.089
-156.706	-64.028	-0.322	0.133
-155.691	-43.434	-0.174	0.089
-154.677	-113.292	-0.059	-0.012
-153.662	-200.000	0.042	-0.200
-152.647	-200.000	0.021	-0.216
-151.633	800.000	-0.051	-0.224
-150.618	-87.868	-0.200	0.061
-149.604	-151.492	0.300	-0.022
-148.589	800.000	-0.025	0.081
-147.574	10.192	0.163	-0.125
-146.560	76.742	-0.094	-0.101
-145.545	36.441	0.215	-0.191
-144.531	-124.145	0.374	-0.059
-143.516	-63.404	-0.227	-0.094
-142.502	242.613	0.107	0.180
-141.487	-200.000	0.359	0.001
-140.472	-200.000	-0.033	0.375
-139.458	198.710	-0.034	0.053
-138.443	-53.948	0.237	0.109
-137.429	403.139	-0.134	-0.285
-136.414	408.411	-0.164	0.350
-135.399	-200.000	-0.008	0.112
-134.385	800.000	0.097	-0.394
-133.370	800.000	-0.129	-0.391
-132.356	800.000	-0.152	-0.437
-131.341	183.811	-0.244	0.363
-130.326	-131.026	0.174	0.023
-129.312	374.910	-0.094	-0.193
-128.297	-110.354	-0.385	0.081
-127.283	-200.000	-0.010	-0.368
-126.268	98.206	-0.029	0.033
-125.253	241.276	-0.037	-0.063
-124.239	-200.000	0.021	-0.131
-123.224	-200.000	-0.027	-0.143
-122.210	-49.833	0.108	0.052
