DTS Sentinel unit serial number:	SN413079Multiplexer serial number:	ORYXHardware model number:	OX4-SRSoftware version number:	ORYX F/W v4.00 Oryx Data Collector v3.7.2.0data status	okinstallation	princeton_trtdifferential loss correction	single-endedforward channel	channel 4reverse channel	N/Adate	2019/09/11time	23:43:10forward acquisition time	60.00reverse acquisition time	0.00gamma	496.2192k internal	0.2309k external	0.2309temperature offset calibration	1.0084default loss term (dB/km)	0.3790temperature slope calibration	1.0000multiplexer offset coefficient	1.0000multiplexer slope coefficient	1.0000fibre end	0.00T internal ref (°C)	34.06T ext. ref 1 (°C)	1.92T ext. ref 2 (°C)	27.80length (m)	temperature (°C)	Stokes	anti-Stokes-747.200	313.602	-0.085	0.162
-746.185	198.101	-0.163	0.253
-745.171	800.000	-0.103	0.383
-744.156	334.169	0.118	0.232
-743.142	800.000	-0.056	0.221
-742.127	-113.652	-0.063	0.013
-741.112	-200.000	0.001	0.007
-740.098	-155.140	-0.174	0.012
-739.083	487.269	-0.187	-0.434
-738.069	29.866	0.117	-0.101
-737.054	800.000	0.051	0.178
-736.039	52.355	-0.280	-0.272
-735.025	-136.645	0.409	0.048
-734.010	-77.303	0.016	-0.006
-732.996	-2.079	-0.247	-0.176
-731.981	561.145	-0.079	-0.195
-730.966	278.880	0.113	0.205
-729.952	-200.000	0.010	0.056
-728.937	-150.714	-0.304	-0.023
-727.923	293.449	0.034	0.063
-726.908	-96.493	-0.174	-0.047
-725.894	-88.969	-0.405	-0.122
-724.879	-200.000	-0.010	0.077
-723.864	305.534	0.069	-0.130
-722.850	-78.787	-0.341	0.118
-721.835	22.324	-0.171	-0.142
-720.821	-200.000	0.015	-0.325
-719.806	-56.057	-0.240	-0.109
-718.791	-135.273	-0.403	0.049
-717.777	-26.666	-0.192	0.114
-716.762	-200.000	-0.008	0.132
-715.748	-200.000	0.032	-0.347
-714.733	7.723	-0.173	0.131
-713.718	-65.422	-0.282	-0.115
-712.704	-96.963	0.270	-0.072
-711.689	-200.000	0.025	-0.388
-710.675	791.383	-0.060	-0.168
-709.660	60.421	0.303	-0.304
-708.645	-120.705	0.425	0.073
-707.631	22.176	-0.176	-0.146
-706.616	-200.000	-0.044	0.239
-705.602	-73.715	0.193	0.071
-704.587	-42.613	0.103	0.053
-703.572	-200.000	-0.039	-0.172
-702.558	560.409	-0.055	-0.135
-701.543	-114.329	-0.094	0.018
-700.529	-18.635	-0.117	0.074
-699.514	156.367	0.059	0.083
-698.499	-165.210	-0.071	0.003
-697.485	800.000	0.027	0.087
-696.470	-200.000	-0.018	0.114
-695.456	-87.993	-0.078	-0.024
-694.441	113.464	0.271	-0.334
-693.426	34.237	-0.226	-0.200
-692.412	211.237	0.062	-0.098
-691.397	-68.553	-0.262	0.103
-690.383	-85.693	-0.085	0.027
-689.368	800.000	-0.075	0.219
-688.354	800.000	-0.106	-0.309
-687.339	604.016	0.040	0.102
-686.324	-1.609	0.114	-0.081
-685.310	24.133	-0.138	-0.115
-684.295	379.934	-0.128	-0.267
-683.281	800.000	0.060	-0.248
-682.266	800.000	-0.044	0.138
-681.251	411.329	0.065	-0.139
-680.237	800.000	-0.052	-0.198
-679.222	228.982	0.074	-0.123
-678.208	131.795	0.181	-0.236
-677.193	433.945	-0.136	-0.300
-676.178	-200.000	0.003	0.033
-675.164	-200.000	-0.016	0.090
-674.149	-29.097	-0.148	-0.086
-673.135	-106.335	-0.140	-0.032
-672.120	403.147	-0.116	-0.248
-671.105	495.703	-0.101	-0.235
-670.091	-161.045	0.256	0.014
-669.076	-65.053	0.221	0.090
-668.062	27.032	-0.125	-0.106
-667.047	296.136	-0.073	-0.135
-666.032	-76.211	-0.216	-0.077
-665.018	7.124	0.365	-0.276
-664.003	-89.473	0.211	-0.063
-662.989	215.085	-0.058	-0.093
-661.974	800.000	-0.084	-0.294
-660.959	44.715	-0.185	-0.172
-659.945	22.303	0.124	-0.103
-658.930	-18.342	-0.272	0.172
-657.916	94.140	-0.308	-0.354
-656.901	-200.000	-0.007	0.041
-655.886	-29.012	-0.148	0.086
-654.872	-41.605	0.184	0.096
-653.857	800.000	0.061	-0.262
-652.843	-45.611	0.316	0.158
-651.828	14.274	-0.169	-0.133
-650.814	80.177	-0.202	-0.220
-649.799	-110.507	0.014	-0.003
-648.784	-11.539	-0.213	0.142
-647.770	46.928	0.058	-0.054
-646.755	280.376	-0.108	0.195
-645.741	-200.000	0.060	0.519
-644.726	-35.604	0.129	0.071
-643.711	686.979	-0.105	0.277
-642.697	-97.632	-0.236	-0.062
-641.682	-195.375	-0.127	-0.001
-640.668	-42.510	0.340	-0.176
-639.653	-83.380	0.209	0.068
-638.638	507.667	0.172	0.403
-637.624	667.355	-0.093	-0.244
-636.609	-200.000	-0.013	-0.094
-635.595	-0.944	0.028	0.020
-634.580	-200.000	0.039	-0.361
-633.565	241.047	-0.067	-0.113
-632.551	-34.557	0.153	-0.085
-631.536	-200.000	-0.006	0.123
-630.522	-74.601	0.216	0.079
-629.507	-76.333	0.327	-0.116
-628.492	631.483	-0.108	-0.277
-627.478	-41.097	0.195	-0.102
-626.463	-17.138	0.091	0.058
-625.449	-200.000	0.039	0.287
-624.434	-57.353	0.259	-0.115
-623.419	-200.000	0.004	0.104
-622.405	-144.851	0.265	0.025
-621.390	800.000	0.039	-0.136
-620.376	-43.435	-0.061	0.031
-619.361	11.424	-0.263	0.204
-618.346	-200.000	-0.059	-0.277
-617.332	82.123	-0.183	-0.201
-616.317	153.155	0.112	-0.155
-615.303	221.350	0.040	0.065
-614.288	218.334	0.064	-0.104
-613.273	472.925	0.016	-0.036
-612.259	800.000	0.061	-0.212
-611.244	253.799	0.151	-0.261
-610.230	-16.170	0.040	0.026
-609.215	-200.000	-0.032	-0.313
-608.201	-62.581	0.389	0.163
-607.186	-117.841	0.220	-0.040
-606.171	-190.228	0.184	0.002
-605.157	106.934	0.090	0.108
-604.142	-200.000	-0.297	0.001
-603.128	-200.000	-0.008	-0.046
-602.113	-66.335	0.105	0.042
-601.098	-200.000	0.049	0.361
-600.084	63.828	-0.218	-0.222
-599.069	-23.996	-0.057	0.034
-598.055	-200.000	-0.000	0.012
-597.040	-200.000	-0.021	-0.246
-596.025	-181.255	-0.098	-0.002
-595.011	94.956	-0.121	-0.139
-593.996	-200.000	0.023	0.245
-592.982	118.937	0.153	-0.191
-591.967	-98.201	-0.096	0.025
-590.952	-200.000	-0.070	0.320
-589.938	181.715	-0.087	-0.129
-588.923	125.469	0.131	-0.167
-587.909	121.445	-0.050	-0.062
-586.894	560.577	0.077	-0.189
-585.879	-90.526	-0.098	0.029
-584.865	633.105	0.095	-0.243
-583.850	800.000	0.061	-0.196
-582.836	-74.853	0.094	-0.034
-581.821	-86.287	0.063	-0.020
-580.806	800.000	-0.033	-0.137
-579.792	224.294	0.054	-0.088
-578.777	274.425	0.097	0.173
-577.763	-68.001	0.044	0.017
-576.748	-102.411	-0.242	0.058
-575.733	-44.112	-0.187	0.095
-574.719	-200.000	-0.036	0.259
-573.704	56.971	-0.041	-0.041
-572.690	39.764	0.105	-0.095
-571.675	-55.378	-0.106	-0.048
-570.661	429.118	-0.075	0.164
-569.646	-200.000	-0.009	0.134
-568.631	163.925	-0.104	0.147
-567.617	334.783	-0.064	0.125
-566.602	-96.424	-0.265	0.071
-565.588	800.000	0.037	0.137
-564.573	-25.674	-0.199	0.118
-563.558	-200.000	-0.080	-0.000
-562.544	800.000	0.084	-0.241
-561.529	414.547	-0.149	-0.320
-560.515	160.748	0.028	-0.039
-559.500	-145.702	-0.232	-0.021
-558.485	227.963	-0.068	-0.111
-557.471	-200.000	0.038	0.293
-556.456	-200.000	-0.043	-0.290
-555.442	-40.841	-0.367	0.192
-554.427	-200.000	-0.035	-0.239
-553.412	60.655	0.223	-0.223
-552.398	-140.203	-0.218	-0.023
-551.383	-60.063	-0.374	-0.161
-550.369	-200.000	-0.009	-0.152
-549.354	800.000	-0.027	0.086
-548.339	800.000	-0.111	-0.408
-547.325	-18.085	0.231	0.146
-546.310	-60.621	0.327	-0.140
-545.296	54.905	-0.155	0.151
-544.281	-29.670	0.082	0.047
-543.266	400.362	0.068	-0.145
-542.252	-40.435	0.177	-0.093
-541.237	35.925	-0.202	0.179
-540.223	-200.000	-0.025	0.169
-539.208	45.825	0.083	-0.077
-538.193	33.990	-0.105	-0.092
-537.179	-37.411	0.312	-0.168
-536.164	800.000	0.037	-0.143
-535.150	-32.876	0.082	-0.046
-534.135	-200.000	-0.008	-0.317
-533.121	800.000	0.138	-0.488
-532.106	374.775	0.079	0.161
-531.091	-200.000	-0.015	0.081
-530.077	339.904	0.047	0.092
-529.062	-39.109	-0.283	-0.150
-528.048	-21.226	0.318	-0.196
-527.033	755.044	-0.025	-0.069
-526.018	-68.655	-0.363	-0.141
-525.004	800.000	0.062	0.259
-523.989	-53.283	0.192	-0.089
-522.975	43.570	-0.065	-0.060
-521.960	-200.000	-0.049	0.223
-520.945	-64.926	0.093	-0.038
-519.931	9.578	0.247	0.189
-518.916	301.946	-0.092	0.171
-517.902	181.527	0.249	-0.369
-516.887	-200.000	-0.052	-0.372
-515.872	101.432	-0.164	0.193
-514.858	42.992	-0.138	0.126
-513.843	-41.176	0.060	0.031
-512.829	-95.564	-0.243	-0.066
-511.814	69.960	-0.065	0.067
-510.799	-65.184	-0.324	-0.131
-509.785	800.000	0.074	0.290
-508.770	53.853	0.109	-0.105
-507.756	-74.085	-0.165	-0.060
-506.741	-200.000	-0.025	-0.131
-505.726	-146.417	-0.193	-0.017
-504.712	543.549	0.187	0.448
-503.697	96.671	0.143	-0.165
-502.683	270.039	-0.176	-0.311
-501.668	-125.714	-0.140	0.021
-500.653	-149.188	0.304	-0.024
-499.639	-88.955	-0.160	0.048
-498.624	-200.000	0.081	0.450
-497.610	-123.049	0.068	0.011
-496.595	64.582	-0.165	0.167
-495.581	120.171	0.248	-0.310
-494.566	-136.426	-0.342	0.040
-493.551	662.272	0.023	-0.060
-492.537	800.000	-0.087	0.358
-491.522	713.987	0.056	-0.149
-490.508	-55.597	0.172	-0.077
-489.493	21.819	0.207	-0.170
-488.478	-200.000	0.023	0.278
-487.464	-93.958	-0.076	-0.021
-486.449	156.516	-0.056	-0.078
-485.435	102.964	-0.286	0.337
-484.420	-200.000	0.016	0.106
-483.405	622.557	0.017	-0.042
-482.391	497.157	0.089	0.206
-481.376	-200.000	-0.044	0.280
-480.362	-113.633	0.172	0.034
-479.347	19.940	0.098	-0.080
-478.332	512.783	0.104	0.243
-477.318	48.443	0.167	0.157
-476.303	-97.346	0.288	-0.075
-475.289	-200.000	0.014	-0.077
-474.274	-44.570	-0.135	-0.068
-473.259	-197.405	-0.175	-0.001
-472.245	59.966	0.108	-0.108
-471.230	-200.000	-0.072	0.340
-470.216	800.000	0.047	0.161
-469.201	119.909	-0.201	-0.250
-468.186	-58.076	-0.102	-0.044
-467.172	-7.957	-0.098	0.066
-466.157	-136.229	0.245	0.029
-465.143	-138.179	0.089	0.010
-464.128	-200.000	0.003	0.037
-463.113	-12.715	-0.068	-0.045
-462.099	-16.320	0.070	-0.045
-461.084	369.666	-0.155	-0.315
-460.070	12.007	-0.207	0.160
-459.055	37.434	-0.421	0.375
-458.040	-18.941	-0.186	-0.117
-457.026	-200.000	0.002	0.163
-456.011	-200.000	-0.032	-0.247
-454.997	-29.653	-0.242	0.139
-453.982	-200.000	-0.016	-0.429
-452.968	90.534	0.069	0.078
-451.953	407.491	-0.020	0.042
-450.938	9.242	0.155	-0.117
-449.924	-4.038	-0.249	0.174
-448.909	-122.188	0.164	0.027
-447.895	-70.941	0.130	-0.049
-446.880	-200.000	0.021	-0.283
-445.865	61.706	0.237	0.237
-444.851	-200.000	-0.015	-0.105
-443.836	104.479	0.142	-0.168
-442.822	800.000	-0.071	-0.305
-441.807	-46.355	0.286	0.141
-440.792	-200.000	-0.002	0.106
-439.778	-158.457	-0.011	-0.001
-438.763	800.000	0.013	0.048
-437.749	55.423	-0.275	0.267
-436.734	31.299	-0.316	-0.272
-435.719	-30.992	-0.201	-0.114
-434.705	-151.780	0.371	0.027
-433.690	-60.625	-0.085	-0.036
-432.676	449.514	-0.030	0.066
-431.661	154.117	0.227	0.313
-430.646	36.736	-0.147	-0.130
-429.632	800.000	-0.085	-0.314
-428.617	-190.877	0.022	0.000
-427.603	-73.135	-0.374	-0.138
-426.588	800.000	0.055	0.167
-425.573	26.733	0.317	0.266
-424.559	-33.100	0.273	-0.152
-423.544	1.537	-0.104	0.075
-422.530	-116.382	-0.099	-0.018
-421.515	24.442	-0.252	0.209
-420.500	-42.051	0.137	0.070
-419.486	11.863	-0.419	0.323
-418.471	18.298	-0.249	-0.199
-417.457	-129.820	-0.063	0.009
-416.442	-152.208	-0.268	-0.019
-415.428	70.967	-0.186	0.193
-414.413	235.626	0.110	-0.183
-413.398	-68.374	-0.118	-0.046
-412.384	-161.084	0.250	0.013
-411.369	-94.458	0.116	-0.032
-410.355	27.625	0.295	-0.249
-409.340	651.600	0.041	-0.105
-408.325	800.000	0.074	0.229
-407.311	-35.326	-0.340	0.185
-406.296	302.329	-0.165	-0.307
-405.282	800.000	-0.009	0.032
-404.267	800.000	0.012	0.037
-403.252	-57.259	-0.302	0.133
-402.238	140.611	-0.129	-0.171
-401.223	-84.036	-0.134	0.043
-400.209	-200.000	-0.001	0.279
-399.194	459.941	-0.085	-0.189
-398.179	67.874	-0.154	0.158
-397.165	-200.000	0.007	0.322
-396.150	-104.484	0.253	0.059
-395.136	44.518	-0.064	0.059
-394.121	-200.000	-0.001	-0.142
-393.106	32.858	0.269	-0.233
-392.092	-104.628	-0.280	-0.065
-391.077	-200.000	-0.004	-0.247
-390.063	-200.000	0.025	0.535
-389.048	351.772	-0.127	-0.253
-388.033	205.489	-0.022	0.035
-387.019	-85.345	-0.213	-0.066
-386.004	49.201	0.116	0.109
-384.990	-200.000	-0.028	-0.211
-383.975	-124.669	-0.303	-0.047
-382.960	17.140	0.288	0.229
-381.946	800.000	0.022	0.084
-380.931	-71.584	-0.094	0.035
-379.917	-200.000	0.002	0.215
-378.902	634.462	-0.062	0.158
-377.888	94.265	0.049	0.056
-376.873	800.000	-0.097	-0.390
-375.858	49.771	0.015	0.014
-374.844	-200.000	-0.060	0.274
-373.829	-22.862	-0.251	0.151
-372.815	-200.000	0.006	0.140
-371.800	412.631	0.109	0.232
-370.785	52.512	-0.178	0.170
-369.771	-200.000	-0.011	0.140
-368.756	-127.241	0.347	-0.051
-367.742	-155.994	-0.274	-0.017
-366.727	29.150	0.280	-0.238
-365.712	74.638	0.137	-0.144
-364.698	312.623	0.108	0.204
-363.683	-99.660	-0.330	-0.083
-362.669	86.101	0.139	0.153
-361.654	800.000	-0.063	0.217
-360.639	800.000	-0.088	-0.370
-359.625	-101.671	-0.234	0.057
-358.610	-200.000	0.012	0.080
-357.596	-104.125	0.183	0.043
-356.581	108.889	-0.078	-0.093
-355.566	-125.799	-0.514	0.078
-354.552	-14.490	0.069	-0.044
-353.537	272.630	0.119	0.211
-352.523	-200.000	0.002	-0.187
-351.508	104.018	0.084	0.098
-350.493	-200.000	0.001	-0.092
-349.479	-117.869	0.299	0.054
-348.464	-200.000	0.099	0.586
-347.450	126.615	-0.032	-0.040
-346.435	93.287	0.216	-0.245
-345.420	800.000	0.019	-0.055
-344.406	-200.000	0.038	-0.431
-343.391	421.867	-0.045	0.096
-342.377	-15.643	0.167	-0.107
-341.362	-183.675	-0.135	0.002
-340.348	234.060	0.120	-0.197
-339.333	135.845	-0.077	-0.101
-338.318	58.490	-0.230	0.225
-337.304	-107.463	-0.219	-0.048
-336.289	-82.627	-0.249	0.081
-335.275	40.704	-0.140	0.126
-334.260	-55.512	-0.020	0.009
-333.245	-92.424	0.298	0.084
-332.231	-200.000	-0.011	0.203
-331.216	167.493	-0.105	-0.149
-330.202	382.296	-0.130	-0.266
-329.187	-25.661	0.177	-0.104
-328.172	-171.140	0.084	-0.003
-327.158	68.453	0.230	0.236
-326.143	101.209	0.169	0.197
-325.129	64.372	0.226	0.227
-324.114	-50.248	0.270	0.128
-323.099	-24.410	-0.197	-0.117
-322.085	26.452	0.123	-0.103
-321.070	483.261	0.194	-0.440
-320.056	110.313	0.175	-0.210
-319.041	104.739	-0.193	0.227
-318.026	331.233	0.023	0.045
-317.012	152.382	0.058	-0.079
-315.997	94.208	-0.098	-0.111
-314.983	-54.120	-0.158	0.072
-313.968	-97.414	-0.296	0.077
-312.953	475.379	0.127	-0.286
-311.939	70.194	-0.221	0.228
-310.924	461.289	0.121	0.269
-309.910	330.240	-0.021	0.040
-308.895	-88.648	0.304	-0.090
-307.880	-58.701	0.346	-0.150
-306.866	-53.481	0.144	0.066
-305.851	-50.441	0.316	-0.149
-304.837	433.297	-0.173	0.376
-303.822	-18.473	0.222	0.139
-302.807	-200.000	-0.010	-0.144
-301.793	11.677	-0.122	-0.093
-300.778	-101.062	-0.120	-0.029
-299.764	-91.106	0.174	-0.050
-298.749	300.621	-0.077	0.142
-297.735	-15.937	0.100	0.063
-296.720	58.441	-0.146	0.143
-295.705	237.271	-0.067	-0.110
-294.691	-114.447	-0.221	-0.042
-293.676	149.142	0.064	0.087
-292.662	-103.803	-0.115	-0.027
-291.647	-32.474	0.096	0.054
-290.632	565.097	0.102	-0.247
-289.618	409.951	-0.238	-0.503
-288.603	-77.459	0.057	-0.020
-287.589	222.291	-0.236	0.378
-286.574	6.303	-0.200	0.148
-285.559	199.715	0.092	-0.141
-284.545	800.000	0.082	0.275
-283.530	800.000	-0.082	0.246
-282.516	-57.875	-0.294	0.128
-281.501	-104.577	0.176	-0.040
-280.486	-100.658	0.361	0.089
-279.472	-99.048	-0.065	-0.016
-278.457	-82.012	0.221	-0.072
-277.443	510.467	0.078	-0.181
-276.428	800.000	0.078	0.244
-275.413	-200.000	-0.024	0.328
-274.399	-25.513	0.146	-0.086
-273.384	10.359	0.162	0.123
-272.370	-200.000	0.089	0.419
-271.355	-54.122	0.079	0.036
-270.340	38.809	0.212	0.189
-269.326	155.031	0.154	0.211
-268.311	-75.946	0.126	-0.045
-267.297	16.896	-0.198	-0.156
-266.282	-20.111	-0.098	-0.060
-265.267	-18.405	0.183	0.114
-264.253	-64.044	0.204	0.083
-263.238	395.210	0.096	0.199
-262.224	21.435	0.310	0.252
-261.209	-72.419	0.377	-0.139
-260.195	-127.197	-0.103	0.015
-259.180	-189.589	-0.337	-0.004
-258.165	800.000	-0.059	-0.185
-257.151	-200.000	-0.009	0.193
-256.136	251.278	0.012	0.021
-255.122	800.000	0.037	-0.106
-254.107	275.749	-0.332	-0.586
-253.092	800.000	0.141	0.428
-252.078	-101.970	-0.247	-0.060
-251.063	-91.278	0.333	-0.095
-250.049	800.000	0.041	0.121
-249.034	795.567	0.104	0.287
-248.019	289.541	0.094	-0.170
-247.005	203.672	-0.148	0.229
-245.990	138.788	-0.148	0.193
-244.976	-83.705	-0.534	0.170
-243.961	800.000	0.083	-0.304
-242.946	43.144	-0.143	-0.130
-241.932	60.124	0.234	-0.230
-240.917	-4.595	0.168	-0.115
-239.903	-27.936	-0.213	-0.123
-238.888	104.504	0.126	0.147
-237.873	-55.940	0.420	0.187
-236.859	800.000	0.054	-0.217
-235.844	-200.000	0.038	-0.362
-234.830	172.899	-0.248	-0.356
-233.815	5.567	0.303	0.223
-232.800	-80.737	0.248	-0.082
-231.786	800.000	0.081	-0.227
-230.771	358.602	-0.119	0.237
-229.757	103.467	0.164	0.192
-228.742	-146.542	-0.339	-0.029
-227.727	-182.399	-0.166	0.003
-226.713	686.087	0.031	-0.081
-225.698	-144.792	0.335	-0.031
-224.684	208.560	0.032	-0.050
-223.669	11.145	-0.160	-0.122
-222.655	800.000	-0.091	-0.323
-221.640	320.649	0.251	-0.474
-220.625	57.947	-0.322	-0.314
-219.611	-200.000	-0.023	0.133
-218.596	-99.194	-0.287	0.072
-217.582	-18.931	0.242	0.150
-216.567	38.807	-0.124	0.110
-215.552	117.323	-0.140	0.172
-214.538	350.077	0.055	-0.108
-213.523	383.525	-0.136	0.280
-212.509	17.307	-0.249	-0.196
-211.494	102.961	-0.251	0.292
-210.479	-200.000	0.000	0.365
-209.465	140.874	0.111	-0.145
-208.450	151.328	-0.048	0.065
-207.436	800.000	-0.031	-0.099
-206.421	800.000	0.036	0.125
-205.406	-86.947	-0.149	-0.045
-204.392	-80.558	-0.213	-0.071
-203.377	-45.559	0.051	0.025
-202.363	800.000	0.087	-0.289
-201.348	334.187	-0.036	-0.068
-200.333	36.846	-0.233	-0.205
-199.319	-43.111	-0.335	-0.169
-198.304	-16.359	0.346	-0.219
-197.290	-200.000	-0.012	-0.350
-196.275	269.361	-0.110	-0.192
-195.260	194.261	0.106	0.160
-194.246	800.000	0.074	0.219
-193.231	-131.391	0.245	-0.032
-192.217	222.322	0.016	0.026
-191.202	9.515	-0.163	-0.123
-190.187	-200.000	-0.013	0.194
-189.173	-104.281	-0.393	0.091
-188.158	-200.000	0.051	0.467
-187.144	-73.176	-0.190	0.069
-186.129	-200.000	-0.003	0.180
-185.114	120.057	-0.240	0.296
-184.100	-93.412	0.166	0.046
-183.085	-200.000	0.083	0.414
-182.071	38.149	0.167	-0.148
-181.056	140.469	-0.293	-0.384
-180.042	-30.832	0.319	-0.179
-179.027	-200.000	-0.008	0.039
-178.012	-200.000	-0.044	-0.215
-176.998	739.083	-0.108	0.289
-175.983	-85.373	-0.426	-0.132
-174.969	800.000	-0.012	0.043
-173.954	235.778	0.058	-0.095
-172.939	-120.637	-0.144	-0.024
-171.925	138.748	-0.095	-0.124
-170.910	-200.000	-0.022	-0.172
-169.896	-200.000	-0.049	-0.224
-168.881	-200.000	-0.036	0.276
-167.866	-181.669	0.138	0.003
-166.852	800.000	-0.053	-0.174
-165.837	88.647	-0.107	-0.118
-164.823	800.000	-0.026	0.105
-163.808	800.000	0.098	-0.319
-162.793	-50.201	0.272	-0.128
-161.779	-41.896	-0.131	0.067
-160.764	-20.590	0.238	-0.145
-159.750	169.343	0.108	0.153
-158.735	800.000	0.045	-0.153
-157.720	13.903	0.231	0.179
-156.706	-67.004	0.163	0.064
-155.691	-72.719	0.461	0.169
-154.677	9.721	0.037	-0.027
-153.662	-86.246	0.193	-0.059
-152.647	-153.716	0.384	0.026
-151.633	-51.818	0.283	0.131
-150.618	233.009	-0.270	-0.440
-149.604	-187.634	0.258	0.003
-148.589	357.690	-0.075	0.148
-147.574	-200.000	-0.039	-0.262
-146.560	800.000	0.071	0.225
-145.545	-14.781	0.156	0.099
-144.531	10.031	-0.072	-0.055
-143.516	-79.029	0.088	-0.030
-142.502	-105.411	0.348	0.078
-141.487	420.360	0.044	-0.094
-140.472	-34.606	-0.059	-0.032
-139.458	800.000	-0.049	0.193
-138.443	-96.474	-0.106	0.028
-137.429	-38.753	-0.291	0.153
-136.414	-176.819	0.362	-0.009
-135.399	-200.000	-0.017	0.149
-134.385	205.585	0.105	-0.161
-133.370	-73.056	-0.214	0.078
-132.356	-104.700	0.027	-0.006
-131.341	-21.625	0.163	-0.098
-130.326	695.647	0.058	-0.151
-129.312	-200.000	0.042	-0.323
-128.297	38.686	-0.055	-0.048
-127.283	682.702	-0.141	0.364
-126.268	-163.636	-0.176	0.008
-125.253	265.096	0.027	-0.047
-124.239	-144.696	0.340	0.031
-123.224	240.179	0.041	-0.068
-122.210	-200.000	-0.015	0.097
-121.195	-24.900	-0.228	-0.134
