DTS Sentinel unit serial number:	SN413079Multiplexer serial number:	ORYXHardware model number:	OX4-SRSoftware version number:	ORYX F/W v4.00 Oryx Data Collector v3.7.2.0data status	okinstallation	princeton_trtdifferential loss correction	single-endedforward channel	channel 4reverse channel	N/Adate	2019/09/11time	06:55:11forward acquisition time	60.00reverse acquisition time	0.00gamma	496.2192k internal	0.2313k external	0.2313temperature offset calibration	0.9943default loss term (dB/km)	0.3790temperature slope calibration	1.0000multiplexer offset coefficient	1.0000multiplexer slope coefficient	1.0000fibre end	0.00T internal ref (°C)	30.03T ext. ref 1 (°C)	-0.11T ext. ref 2 (°C)	25.44length (m)	temperature (°C)	Stokes	anti-Stokes-747.200	186.991	-0.066	0.100
-746.185	68.198	-0.113	-0.118
-745.171	62.541	-0.083	0.084
-744.156	-153.756	-0.324	-0.023
-743.142	-119.182	0.143	-0.025
-742.127	-200.000	-0.030	0.382
-741.112	142.703	0.127	0.171
-740.098	429.885	0.060	0.133
-739.083	-200.000	-0.005	0.085
-738.069	-102.933	-0.125	-0.030
-737.054	31.536	-0.167	0.145
-736.039	800.000	0.040	0.139
-735.025	-157.394	0.428	0.026
-734.010	800.000	0.130	-0.476
-732.996	19.995	0.019	-0.016
-731.981	-131.500	-0.194	-0.026
-730.966	188.921	-0.157	-0.239
-729.952	310.176	-0.071	-0.134
-728.937	-200.000	-0.088	-0.395
-727.923	-43.424	0.288	0.147
-726.908	-200.000	-0.002	0.220
-725.894	672.985	-0.029	-0.075
-724.879	226.738	0.193	-0.317
-723.864	-200.000	-0.005	-0.254
-722.850	800.000	0.053	0.183
-721.835	-109.496	-0.284	0.061
-720.821	230.692	-0.179	-0.296
-719.806	178.061	-0.090	-0.134
-718.791	37.515	0.163	0.146
-717.777	-32.942	-0.223	0.125
-716.762	67.608	-0.198	0.205
-715.748	-119.640	-0.327	0.057
-714.733	800.000	0.048	-0.156
-713.718	-137.603	-0.062	0.007
-712.704	34.132	0.303	-0.268
-711.689	800.000	-0.096	0.319
-710.675	-200.000	0.102	-0.459
-709.660	-60.435	-0.280	-0.121
-708.645	310.595	-0.142	0.270
-707.631	126.387	0.063	0.081
-706.616	800.000	0.040	-0.139
-705.602	800.000	0.075	-0.255
-704.587	23.268	0.347	-0.289
-703.572	24.693	-0.173	-0.145
-702.558	-200.000	0.032	-0.316
-701.543	-200.000	-0.015	-0.090
-700.529	-55.195	0.106	0.048
-699.514	-65.976	0.265	0.107
-698.499	-72.934	-0.326	-0.121
-697.485	-200.000	-0.008	0.254
-696.470	54.832	-0.148	-0.145
-695.456	271.523	-0.062	-0.111
-694.441	108.159	-0.209	-0.252
-693.426	-200.000	0.004	-0.100
-692.412	111.997	0.181	0.222
-691.397	248.904	0.087	-0.149
-690.383	-200.000	-0.075	-0.349
-689.368	192.493	0.181	-0.277
-688.354	-126.646	-0.180	0.027
-687.339	-75.522	0.182	0.065
-686.324	800.000	0.095	-0.266
-685.310	-11.009	-0.143	0.096
-684.295	193.862	-0.017	0.027
-683.281	26.809	-0.158	0.134
-682.266	235.770	-0.107	-0.179
-681.251	-48.731	-0.043	-0.021
-680.237	-26.459	0.244	0.145
-679.222	-168.999	-0.109	0.004
-678.208	-113.480	-0.086	0.017
-677.193	-68.103	0.068	0.027
-676.178	19.155	-0.117	-0.095
-675.164	179.350	0.137	-0.202
-674.149	-150.668	0.201	-0.016
-673.135	115.623	-0.112	-0.139
-672.120	-108.048	-0.404	-0.089
-671.105	92.602	0.111	-0.127
-670.091	10.035	0.198	-0.152
-669.076	-147.179	0.359	-0.031
-668.062	336.772	-0.052	-0.102
-667.047	-133.563	0.073	-0.009
-666.032	-49.932	-0.253	-0.122
-665.018	93.097	0.082	0.094
-664.003	164.291	0.084	-0.119
-662.989	800.000	-0.054	-0.160
-661.974	746.210	-0.058	-0.159
-660.959	66.090	-0.175	-0.179
-659.945	179.837	0.066	0.097
-658.930	-123.199	-0.293	-0.047
-657.916	180.720	0.102	0.151
-656.901	-200.000	0.014	-0.196
-655.886	47.894	-0.065	0.061
-654.872	104.787	0.126	0.150
-653.857	204.169	0.217	0.340
-652.843	-195.049	-0.271	-0.002
-651.828	296.847	-0.165	-0.306
-650.814	800.000	-0.014	0.042
-649.799	758.325	-0.034	0.094
-648.784	38.354	0.103	0.093
-647.770	-200.000	-0.003	0.082
-646.755	-118.749	0.337	-0.060
-645.741	446.666	-0.035	0.079
-644.726	-81.224	-0.186	0.062
-643.711	156.783	0.081	0.113
-642.697	306.884	0.070	-0.131
-641.682	-132.337	-0.119	-0.016
-640.668	-76.340	0.230	0.082
-639.653	0.047	-0.185	-0.133
-638.638	-85.130	0.187	-0.059
-637.624	101.520	0.135	-0.159
-636.609	-157.715	-0.190	-0.011
-635.595	299.818	-0.119	-0.222
-634.580	-112.508	0.151	0.030
-633.565	-123.553	-0.283	0.045
-632.551	-70.333	0.068	0.026
-631.536	-9.919	-0.419	-0.281
-630.522	212.987	-0.150	-0.239
-629.507	18.997	0.161	-0.130
-628.492	-25.082	-0.186	-0.111
-627.478	60.730	-0.108	0.108
-626.463	-3.815	-0.292	0.205
-625.449	-29.921	0.045	-0.026
-624.434	-200.000	0.027	-0.180
-623.419	-25.157	0.290	0.173
-622.405	-109.195	0.131	0.028
-621.390	-200.000	0.076	0.424
-620.376	-200.000	-0.014	-0.395
-619.361	272.994	-0.144	-0.257
-618.346	168.839	-0.126	0.182
-617.332	-200.000	-0.013	0.078
-616.317	142.976	0.119	0.160
-615.303	800.000	-0.085	-0.253
-614.288	800.000	-0.048	-0.152
-613.273	407.377	0.176	-0.374
-612.259	800.000	0.080	-0.282
-611.244	-8.655	-0.188	0.128
-610.230	-72.762	0.286	-0.106
-609.215	800.000	0.059	-0.205
-608.201	332.484	-0.038	0.074
-607.186	569.049	-0.123	0.301
-606.171	-137.983	0.329	0.037
-605.157	30.606	0.165	-0.142
-604.142	-89.224	-0.168	-0.050
-603.128	-13.879	-0.445	0.290
-602.113	123.539	-0.144	-0.182
-601.098	-200.000	-0.021	-0.158
-600.084	7.476	-0.244	-0.184
-599.069	2.918	-0.012	0.009
-598.055	800.000	0.057	-0.172
-597.040	19.351	0.450	-0.365
-596.025	-200.000	-0.036	-0.274
-595.011	-78.167	-0.197	-0.068
-593.996	-96.788	0.185	0.049
-592.982	-81.071	-0.182	0.061
-591.967	-86.718	-0.172	-0.053
-590.952	-77.448	-0.079	-0.028
-589.938	644.888	-0.082	-0.210
-588.923	-200.000	0.034	0.240
-587.909	704.125	0.159	-0.421
-586.894	-161.114	-0.295	-0.016
-585.879	240.921	-0.106	-0.179
-584.865	145.919	-0.091	-0.123
-583.850	-97.862	-0.221	0.057
-582.836	-118.734	-0.165	0.029
-581.821	237.391	0.143	-0.239
-580.806	177.893	-0.067	0.099
-579.792	180.953	-0.118	0.175
-578.777	-136.410	0.241	-0.028
-577.763	-89.937	-0.082	0.024
-576.748	800.000	-0.021	0.069
-575.733	352.397	0.151	-0.302
-574.719	-94.860	0.263	0.072
-573.704	-106.406	-0.242	-0.054
-572.690	-200.000	-0.003	0.092
-571.675	708.924	-0.131	0.349
-570.661	-99.326	0.185	0.047
-569.646	-200.000	-0.016	0.164
-568.631	-179.528	-0.123	0.003
-567.617	232.685	-0.180	0.299
-566.602	105.467	-0.260	0.310
-565.588	781.433	0.062	-0.170
-564.573	68.597	-0.032	-0.033
-563.558	-52.775	0.305	0.142
-562.544	34.380	0.257	-0.226
-561.529	800.000	-0.056	-0.176
-560.515	194.808	0.059	-0.090
-559.500	-200.000	-0.000	0.212
-558.485	-96.696	-0.060	0.016
-557.471	637.903	-0.091	-0.233
-556.456	-19.164	-0.150	-0.093
-555.442	103.477	0.072	0.085
-554.427	27.978	-0.182	-0.154
-553.412	56.545	0.031	-0.030
-552.398	800.000	0.075	0.315
-551.383	-95.648	-0.038	-0.010
-550.369	-79.583	0.084	-0.028
-549.354	-48.449	0.047	0.023
-548.339	96.236	-0.371	-0.427
-547.325	57.991	-0.301	-0.297
-546.310	-65.903	0.133	0.054
-545.296	238.972	0.054	0.090
-544.281	-102.522	-0.407	-0.098
-543.266	-121.953	0.202	-0.034
-542.252	-79.528	-0.366	-0.124
-541.237	91.140	-0.058	0.065
-540.223	-34.972	-0.162	0.089
-539.208	171.769	0.199	0.287
-538.193	600.489	-0.029	-0.072
-537.179	-113.731	0.067	-0.013
-536.164	41.459	-0.158	0.144
-535.150	672.717	-0.142	0.370
-534.135	140.841	0.278	0.369
-533.121	-125.925	0.095	0.014
-532.106	-200.000	0.018	0.150
-531.091	-185.168	0.143	-0.002
-530.077	800.000	-0.124	0.350
-529.062	-140.086	0.095	0.010
-528.048	134.356	-0.133	0.173
-527.033	-91.002	-0.032	0.009
-526.018	-33.501	0.052	0.029
-525.004	-34.268	-0.351	0.194
-523.989	800.000	-0.037	0.126
-522.975	1.785	-0.273	0.198
-521.960	-55.108	0.081	0.037
-520.945	109.972	0.321	-0.387
-519.931	76.860	0.102	-0.109
-518.916	-128.940	0.264	-0.037
-517.902	-102.713	-0.167	0.040
-516.887	-93.165	-0.224	-0.063
-515.872	-200.000	-0.030	0.223
-514.858	-98.071	-0.046	-0.012
-513.843	-100.226	-0.141	-0.035
-512.829	331.932	0.100	-0.194
-511.814	725.015	-0.069	-0.186
-510.799	50.719	-0.130	-0.123
-509.785	-38.535	0.159	0.085
-508.770	-66.065	-0.248	0.099
-507.756	-200.000	-0.031	-0.153
-506.741	-152.816	0.137	0.010
-505.726	800.000	-0.050	-0.179
-504.712	342.219	0.121	0.238
-503.697	-200.000	-0.029	0.154
-502.683	-200.000	0.011	0.080
-501.668	-91.040	0.187	-0.054
-500.653	-200.000	0.005	-0.047
-499.639	12.696	0.092	0.071
-498.624	232.677	-0.128	0.211
-497.610	-30.085	0.148	0.085
-496.595	-200.000	-0.002	0.178
-495.581	167.060	-0.045	-0.065
-494.566	56.650	-0.154	-0.151
-493.551	-76.933	0.387	-0.136
-492.537	-74.479	0.220	-0.080
-491.522	8.751	0.128	-0.097
-490.508	-200.000	0.022	-0.129
-489.493	-24.401	0.090	-0.054
-488.478	264.433	0.055	-0.095
-487.464	91.793	-0.114	0.129
-486.449	-147.761	-0.522	-0.044
-485.435	115.309	0.158	0.194
-484.420	255.183	0.105	0.181
-483.405	54.104	0.005	0.005
-482.391	-46.363	0.378	-0.186
-481.376	-161.420	0.185	-0.010
-480.362	-158.629	-0.183	-0.011
-479.347	257.155	0.070	0.122
-478.332	-138.912	-0.244	0.027
-477.318	-125.594	0.131	0.020
-476.303	-118.019	-0.142	0.025
-475.289	-200.000	-0.021	-0.194
-474.274	342.455	0.087	0.170
-473.259	27.647	-0.078	-0.066
-472.245	800.000	-0.040	0.141
-471.230	46.943	-0.166	-0.155
-470.216	-36.540	-0.221	0.119
-469.201	-200.000	-0.004	0.229
-468.186	-71.078	0.292	-0.110
-467.172	769.567	0.046	0.126
-466.157	6.339	-0.064	0.048
-465.143	89.712	-0.348	-0.389
-464.128	-28.708	0.524	-0.303
-463.113	-200.000	-0.045	0.246
-462.099	-200.000	-0.016	0.185
-461.084	-200.000	-0.030	0.192
-460.070	-200.000	-0.042	-0.329
-459.055	137.661	-0.107	-0.140
-458.040	800.000	0.039	-0.149
-457.026	89.245	-0.425	-0.475
-456.011	-173.025	0.560	0.017
-454.997	-200.000	0.018	0.195
-453.982	569.215	-0.082	-0.200
-452.968	321.462	0.022	0.041
-451.953	376.721	-0.059	-0.122
-450.938	276.745	0.125	0.224
-449.924	-39.479	0.117	0.062
-448.909	-200.000	0.185	0.000
-447.895	171.561	0.230	-0.331
-446.880	-25.644	-0.068	-0.040
-445.865	-1.167	0.080	-0.056
-444.851	-200.000	0.001	-0.012
-443.836	-77.879	-0.074	0.026
-442.822	-200.000	-0.010	0.323
-441.807	-136.989	-0.074	-0.008
-440.792	240.575	0.172	-0.288
-439.778	-77.205	-0.091	-0.032
-438.763	-52.189	-0.226	0.105
-437.749	-114.085	0.291	0.056
-436.734	32.641	0.114	-0.099
-435.719	800.000	-0.020	-0.066
-434.705	31.213	0.254	-0.218
-433.690	-8.369	-0.065	0.044
-432.676	-78.678	-0.180	-0.062
-431.661	-33.151	-0.192	-0.107
-430.646	255.830	0.137	0.235
-429.632	120.885	-0.059	-0.073
-428.617	-58.109	0.298	0.130
-427.603	253.215	-0.076	0.130
-426.588	-200.000	-0.021	-0.157
-425.573	-131.410	-0.161	0.021
-424.559	-41.302	-0.154	-0.080
-423.544	117.146	-0.155	0.191
-422.530	-200.000	-0.001	-0.316
-421.515	-1.261	0.253	-0.179
-420.500	318.977	0.138	-0.263
-419.486	182.691	0.134	0.197
-418.471	-200.000	-0.004	0.082
-417.457	-200.000	-0.032	-0.186
-416.442	5.060	-0.212	-0.156
-415.428	-25.856	0.087	-0.051
-414.413	-137.118	0.350	-0.040
-413.398	-129.974	0.160	-0.022
-412.384	22.881	-0.193	0.158
-411.369	148.288	0.169	0.228
-410.355	222.295	0.215	0.346
-409.340	-200.000	0.049	-0.260
-408.325	67.587	-0.107	-0.109
-407.311	-134.491	-0.363	0.044
-406.296	43.029	-0.209	0.190
-405.282	-10.290	0.142	-0.094
-404.267	800.000	-0.037	0.155
-403.252	800.000	-0.082	0.277
-402.238	-27.307	0.293	-0.170
-401.223	800.000	-0.005	0.016
-400.209	312.742	-0.017	-0.031
-399.194	-200.000	-0.007	0.183
-398.179	-200.000	-0.280	0.001
-397.165	137.369	-0.233	-0.306
-396.150	-200.000	-0.040	-0.213
-395.136	40.320	-0.112	-0.101
-394.121	-15.530	-0.140	-0.089
-393.106	-37.651	-0.262	-0.140
-392.092	-0.068	0.086	0.061
-391.077	-183.327	-0.408	-0.007
-390.063	3.501	-0.113	0.083
-389.048	-58.014	-0.126	0.055
-388.033	20.667	0.150	0.122
-387.019	404.016	-0.124	0.261
-386.004	-200.000	-0.041	0.269
-384.990	82.275	0.274	-0.297
-383.975	-7.076	0.171	0.116
-382.960	-200.000	-0.010	0.293
-381.946	559.831	-0.066	0.160
-380.931	147.922	-0.190	-0.257
-379.917	54.549	-0.204	-0.197
-378.902	119.888	-0.311	0.386
-377.888	518.332	-0.134	0.314
-376.873	0.245	-0.262	0.187
-375.858	11.336	0.076	-0.058
-374.844	-39.728	0.109	0.057
-373.829	-1.475	0.217	0.153
-372.815	32.753	0.065	-0.056
-371.800	38.948	0.096	0.086
-370.785	402.091	0.130	-0.274
-369.771	-200.000	0.002	0.427
-368.756	-21.770	-0.092	0.056
-367.742	-163.647	-0.108	0.005
-366.727	119.746	0.166	0.206
-365.712	-38.519	-0.335	0.177
-364.698	22.397	0.094	-0.077
-363.683	-39.533	0.089	0.047
-362.669	-48.941	0.305	-0.146
-361.654	-95.482	0.093	-0.025
-360.639	98.344	0.104	-0.119
-359.625	-94.018	-0.214	0.059
-358.610	-60.547	0.164	-0.069
-357.596	356.740	-0.009	-0.018
-356.581	-125.924	0.079	-0.012
-355.566	20.623	-0.213	-0.172
-354.552	102.669	0.074	-0.087
-353.537	-5.768	0.320	-0.219
-352.523	-80.822	-0.227	0.075
-351.508	42.008	0.236	0.214
-350.493	-200.000	-0.051	0.331
-349.479	-50.473	0.090	0.042
-348.464	-24.168	0.072	-0.043
-347.450	89.644	0.170	-0.190
-346.435	-200.000	0.020	-0.164
-345.420	-28.143	-0.201	0.116
-344.406	-35.764	-0.116	0.063
-343.391	393.531	0.096	-0.200
-342.377	-200.000	-0.029	0.428
-341.362	800.000	0.016	0.063
-340.348	-65.540	-0.163	0.066
-339.333	-200.000	0.020	0.110
-338.318	17.264	-0.190	0.150
-337.304	43.145	-0.211	-0.193
-336.289	149.000	0.188	0.253
-335.275	-200.000	0.049	0.221
-334.260	-200.000	0.031	0.391
-333.245	120.065	0.121	-0.150
-332.231	354.513	-0.172	-0.340
-331.216	-200.000	0.014	0.187
-330.202	-200.000	-0.033	-0.206
-329.187	-200.000	0.031	-0.248
-328.172	205.968	0.162	-0.251
-327.158	651.636	0.062	-0.159
-326.143	800.000	0.065	-0.218
-325.129	82.147	-0.175	0.189
-324.114	-73.939	-0.053	-0.019
-323.099	-77.067	-0.413	-0.144
-322.085	-1.234	-0.212	0.149
-321.070	21.750	-0.231	0.188
-320.056	163.528	0.117	0.165
-319.041	55.860	-0.099	-0.096
-318.026	-109.713	0.528	-0.111
-317.012	15.600	0.296	-0.232
-315.997	-161.452	0.308	0.016
-314.983	-200.000	0.012	-0.152
-313.968	56.336	0.103	-0.100
-312.953	45.922	-0.029	-0.026
-311.939	800.000	-0.082	0.315
-310.924	113.776	0.025	0.030
-309.910	5.408	-0.142	-0.104
-308.895	-200.000	0.152	-0.000
-307.880	-37.214	-0.058	0.031
-306.866	-98.896	0.243	0.062
-305.851	-178.544	-0.057	0.001
-304.837	81.138	-0.192	-0.206
-303.822	62.506	0.171	0.170
-302.807	-77.629	-0.057	-0.020
-301.793	-20.584	-0.208	-0.127
-300.778	-159.894	-0.153	0.008
-299.764	-200.000	0.015	0.538
-298.749	666.061	-0.102	0.263
-297.735	-9.796	-0.249	0.165
-296.720	-200.000	-0.011	0.090
-295.705	304.760	-0.086	-0.160
-294.691	-107.683	-0.216	0.047
-293.676	800.000	-0.089	0.269
-292.662	-65.655	-0.213	-0.085
-291.647	800.000	0.023	-0.071
-290.632	-88.432	-0.270	-0.080
-289.618	-200.000	0.005	0.232
-288.603	-48.173	-0.184	0.089
-287.589	-86.466	-0.451	0.138
-286.574	-173.537	-0.172	-0.005
-285.559	-200.000	0.034	0.230
-284.545	800.000	-0.037	-0.138
-283.530	165.486	-0.086	-0.121
-282.516	800.000	-0.134	0.396
-281.501	-4.528	0.117	0.080
-280.486	302.875	-0.060	-0.111
-279.472	-87.579	-0.264	0.080
-278.457	248.001	0.103	-0.174
-277.443	720.118	-0.127	-0.335
-276.428	-38.492	-0.250	-0.132
-275.413	800.000	0.100	0.364
-274.399	117.451	-0.126	0.154
-273.384	97.390	-0.169	-0.193
-272.370	800.000	0.069	0.207
-271.355	-17.770	-0.114	-0.071
-270.340	165.852	0.016	0.022
-269.326	163.150	0.077	0.107
-268.311	800.000	0.043	-0.127
-267.297	-200.000	0.005	0.391
-266.282	78.206	0.320	0.340
-265.267	-168.405	0.287	-0.011
-264.253	-200.000	0.026	0.154
-263.238	-95.596	-0.368	0.098
-262.224	-77.821	-0.234	-0.080
-261.209	-200.000	0.068	0.311
-260.195	800.000	0.050	0.143
-259.180	65.947	0.150	0.151
-258.165	-116.233	0.159	-0.029
-257.151	363.601	-0.018	-0.036
-256.136	25.325	-0.115	0.095
-255.122	-140.062	0.167	-0.018
-254.107	-198.969	0.212	-0.001
-253.092	-200.000	0.021	0.367
-252.078	-150.043	0.258	-0.020
-251.063	-200.000	-0.044	0.211
-250.049	-200.000	-0.010	-0.075
-249.034	-171.788	0.332	-0.011
-248.019	132.486	-0.061	0.078
-247.005	651.437	0.107	-0.273
-245.990	403.643	0.017	0.035
-244.976	-200.000	0.045	-0.251
-243.961	-2.714	0.145	0.101
-242.946	-200.000	-0.004	0.232
-241.932	-173.398	0.198	0.006
-240.917	-197.256	-0.308	-0.002
-239.903	800.000	0.110	-0.466
-238.888	53.513	-0.134	0.128
-237.873	429.525	0.099	-0.212
-236.859	-92.757	0.117	0.032
-235.844	-85.894	-0.062	0.019
-234.830	-186.889	-0.108	-0.001
-233.815	800.000	0.069	-0.238
-232.800	-126.121	-0.113	-0.017
-231.786	59.908	-0.064	-0.063
-230.771	299.371	-0.165	-0.302
-229.757	-23.866	-0.133	-0.079
-228.742	15.820	0.143	0.112
-227.727	-124.531	-0.136	0.021
-226.713	140.055	0.090	-0.118
-225.698	-171.343	-0.375	0.012
-224.684	-30.365	0.052	-0.029
-223.669	-200.000	0.013	-0.183
-222.655	-60.180	0.258	-0.109
-221.640	-200.000	0.042	-0.438
-220.625	290.722	0.072	-0.129
-219.611	-97.350	-0.345	-0.089
-218.596	-76.758	0.179	-0.062
-217.582	-200.000	-0.016	0.252
-216.567	-65.758	0.379	0.151
-215.552	-137.978	-0.306	-0.034
-214.538	-200.000	-0.026	-0.232
-213.523	16.775	0.158	0.124
-212.509	800.000	0.043	-0.154
-211.494	48.803	0.227	0.211
-210.479	104.123	-0.251	0.293
-209.465	-131.688	0.064	0.008
-208.450	244.837	0.193	-0.322
-207.436	-86.038	0.228	-0.070
-206.421	-133.476	-0.470	0.059
-205.406	-200.000	-0.035	0.227
-204.392	-76.887	0.606	0.210
-203.377	47.357	0.203	-0.188
-202.363	66.725	0.094	-0.095
-201.348	-157.381	0.228	0.014
-200.333	20.973	0.248	-0.200
-199.319	-25.172	0.252	0.148
-198.304	-93.830	0.148	-0.040
-197.290	280.331	0.149	-0.264
-196.275	800.000	-0.070	-0.228
-195.260	-132.278	-0.099	-0.013
-194.246	305.789	-0.081	0.150
-193.231	-78.438	0.366	0.125
-192.217	461.480	-0.146	0.324
-191.202	149.529	-0.036	0.049
-190.187	-104.752	-0.206	0.047
-189.173	-200.000	-0.054	0.258
-188.158	-67.175	-0.143	0.056
-187.144	-135.534	0.192	0.023
-186.129	800.000	0.057	-0.171
-185.114	-200.000	0.005	0.029
-184.100	800.000	-0.081	-0.304
-183.085	279.618	0.265	-0.469
-182.071	24.657	-0.132	-0.108
-181.056	-65.876	0.530	-0.210
-180.042	800.000	-0.027	-0.102
-179.027	-95.891	0.232	0.061
-178.012	-11.123	-0.296	0.193
-176.998	-200.000	-0.016	-0.150
-175.983	800.000	0.081	-0.313
-174.969	-200.000	-0.013	-0.125
-173.954	31.594	-0.291	0.248
-172.939	185.463	-0.160	0.236
-171.925	-100.433	0.427	-0.105
-170.910	800.000	0.050	-0.164
-169.896	31.735	-0.064	0.055
-168.881	36.942	0.206	0.181
-167.866	18.412	0.158	-0.125
-166.852	800.000	0.083	-0.322
-165.837	128.910	-0.032	-0.041
-164.823	800.000	-0.058	0.235
-163.808	-23.302	0.288	0.172
-162.793	149.098	0.183	-0.246
-161.779	-200.000	-0.022	0.237
-160.764	-200.000	0.012	-0.085
-159.750	-200.000	0.008	0.202
-158.735	-102.969	0.405	0.095
-157.720	247.329	-0.192	0.321
-156.706	-61.746	0.355	-0.148
-155.691	-120.801	0.130	0.022
-154.677	-105.419	0.358	-0.081
-153.662	-200.000	0.043	-0.202
-152.647	800.000	-0.107	0.311
-151.633	800.000	0.038	-0.135
-150.618	800.000	-0.060	0.221
-149.604	-139.236	-0.282	-0.030
-148.589	465.695	0.117	-0.259
-147.574	-94.355	0.202	0.055
-146.560	37.329	0.111	0.097
-145.545	179.000	-0.087	0.126
-144.531	-129.840	-0.159	0.022
-143.516	-124.635	0.136	-0.021
-142.502	96.467	0.171	0.193
-141.487	186.716	-0.063	0.093
-140.472	-200.000	-0.005	0.219
-139.458	-200.000	-0.070	-0.349
-138.443	-148.592	0.633	-0.051
-137.429	84.339	-0.218	0.236
-136.414	800.000	-0.023	-0.099
-135.399	-64.709	-0.181	-0.073
-134.385	67.054	-0.147	-0.148
-133.370	199.843	0.134	-0.204
-132.356	16.144	0.041	-0.032
-131.341	179.555	0.063	0.091
-130.326	644.270	0.098	0.248
-129.312	-129.289	0.171	-0.024
-128.297	800.000	0.104	0.349
-127.283	800.000	0.083	0.245
-126.268	-82.288	0.083	0.027
-125.253	-200.000	-0.064	-0.310
-124.239	-200.000	-0.021	-0.272
-123.224	-9.847	-0.161	0.106
-122.210	-200.000	0.010	0.253
