DTS Sentinel unit serial number:	SN413079Multiplexer serial number:	ORYXHardware model number:	OX4-SRSoftware version number:	ORYX F/W v4.00 Oryx Data Collector v3.7.2.0data status	okinstallation	princeton_trtdifferential loss correction	single-endedforward channel	channel 4reverse channel	N/Adate	2019/09/11time	06:15:11forward acquisition time	60.00reverse acquisition time	0.00gamma	496.2192k internal	0.2316k external	0.2316temperature offset calibration	0.9946default loss term (dB/km)	0.3790temperature slope calibration	1.0000multiplexer offset coefficient	1.0000multiplexer slope coefficient	1.0000fibre end	0.00T internal ref (°C)	29.50T ext. ref 1 (°C)	-0.22T ext. ref 2 (°C)	23.81length (m)	temperature (°C)	Stokes	anti-Stokes-747.200	5.303	-0.191	-0.143
-746.185	8.755	0.118	0.090
-745.171	-103.312	-0.231	0.055
-744.156	-123.156	-0.231	0.038
-743.142	-8.272	-0.199	-0.136
-742.127	-128.895	0.132	-0.019
-741.112	-200.000	-0.005	-0.261
-740.098	501.112	0.147	0.344
-739.083	65.196	0.239	0.245
-738.069	130.469	-0.313	0.406
-737.054	89.882	0.170	-0.192
-736.039	-200.000	0.013	-0.193
-735.025	178.602	0.289	0.428
-734.010	-35.777	-0.371	0.204
-732.996	-13.304	0.138	0.091
-731.981	-200.000	0.013	0.217
-730.966	33.259	-0.256	-0.225
-729.952	-160.677	-0.171	-0.009
-728.937	84.006	-0.133	0.147
-727.923	99.361	0.265	0.310
-726.908	-200.000	0.016	-0.315
-725.894	-42.203	-0.399	-0.206
-724.879	-66.969	-0.347	-0.139
-723.864	-99.539	0.021	0.005
-722.850	8.223	0.133	0.101
-721.835	56.369	0.076	-0.074
-720.821	-8.538	-0.334	0.227
-719.806	-200.000	-0.022	-0.180
-718.791	-74.083	-0.168	-0.061
-717.777	513.895	0.067	0.157
-716.762	86.058	-0.213	0.237
-715.748	80.062	-0.178	-0.194
-714.733	226.541	0.089	0.146
-713.718	18.105	0.165	-0.133
-712.704	-75.868	0.195	0.070
-711.689	245.128	0.100	0.170
-710.675	-31.740	-0.325	0.185
-709.660	-200.000	-0.015	-0.135
-708.645	-80.275	-0.365	-0.124
-707.631	150.336	0.084	-0.116
-706.616	-117.096	0.173	-0.032
-705.602	-200.000	-0.000	-0.368
-704.587	136.522	-0.202	0.266
-703.572	800.000	0.091	-0.265
-702.558	-109.613	-0.188	-0.040
-701.543	239.997	0.172	0.290
-700.529	-200.000	-0.002	-0.413
-699.514	-124.149	0.251	0.040
-698.499	-200.000	-0.004	-0.141
-697.485	-26.209	-0.173	-0.103
-696.470	409.879	0.102	-0.219
-695.456	72.989	0.045	0.047
-694.441	-200.000	0.024	-0.112
-693.426	-133.584	0.155	0.020
-692.412	-26.814	-0.222	-0.131
-691.397	800.000	-0.076	-0.232
-690.383	168.548	0.125	-0.180
-689.368	-152.592	-0.232	-0.017
-688.354	51.598	-0.058	0.056
-687.339	-70.207	0.389	0.149
-686.324	-117.047	-0.141	0.026
-685.310	107.415	-0.127	0.153
-684.295	-4.218	-0.011	-0.007
-683.281	219.986	0.173	-0.281
-682.266	351.303	-0.108	-0.216
-681.251	-6.680	0.264	0.182
-680.237	-200.000	-0.034	0.154
-679.222	-86.876	-0.182	0.056
-678.208	-134.192	0.251	-0.031
-677.193	800.000	0.063	-0.272
-676.178	105.808	0.129	-0.155
-675.164	800.000	-0.070	-0.218
-674.149	-49.361	-0.316	-0.152
-673.135	76.722	0.282	-0.303
-672.120	-89.069	-0.239	-0.071
-671.105	6.797	0.326	0.245
-670.091	-200.000	-0.005	-0.111
-669.076	-200.000	-0.006	0.174
-668.062	-16.177	-0.226	-0.145
-667.047	800.000	0.010	0.035
-666.032	142.976	-0.122	0.164
-665.018	114.339	-0.099	-0.122
-664.003	-200.000	0.020	-0.460
-662.989	550.910	0.157	-0.379
-661.974	-133.889	0.215	0.027
-660.959	514.047	-0.053	0.124
-659.945	-47.229	0.161	-0.079
-658.930	511.073	-0.089	-0.209
-657.916	77.662	0.182	0.196
-656.901	187.937	0.186	-0.280
-655.886	800.000	0.004	0.015
-654.872	56.246	-0.217	-0.212
-653.857	389.233	0.173	-0.361
-652.843	-106.750	0.035	0.008
-651.828	-200.000	-0.025	-0.202
-650.814	-32.117	0.272	0.153
-649.799	-30.330	-0.138	-0.079
-648.784	-77.757	-0.281	-0.098
-647.770	-7.596	0.280	-0.191
-646.755	243.553	0.095	0.161
-645.741	146.776	0.087	-0.118
-644.726	46.411	0.116	-0.109
-643.711	-182.003	-0.207	0.004
-642.697	800.000	-0.125	0.356
-641.682	-37.243	-0.259	0.140
-640.668	-117.614	-0.076	0.014
-639.653	-200.000	-0.018	0.352
-638.638	197.455	-0.295	-0.454
-637.624	94.945	0.114	-0.131
-636.609	-114.060	-0.326	-0.064
-635.595	67.704	0.131	-0.135
-634.580	792.165	0.141	-0.391
-633.565	146.777	0.111	-0.151
-632.551	-132.151	-0.382	-0.050
-631.536	-200.000	0.019	0.098
-630.522	-19.329	-0.155	0.097
-629.507	32.074	-0.332	0.288
-628.492	-200.000	0.008	-0.065
-627.478	-200.000	0.006	-0.164
-626.463	-163.258	-0.556	0.027
-625.449	-105.781	0.133	0.030
-624.434	208.057	-0.065	-0.102
-623.419	-98.828	0.284	0.073
-622.405	-152.306	0.017	0.001
-621.390	317.643	-0.070	-0.133
-620.376	25.361	0.128	0.107
-619.361	-77.067	0.113	0.040
-618.346	79.012	0.136	0.147
-617.332	-50.699	0.453	0.215
-616.317	-4.255	0.284	-0.198
-615.303	-200.000	0.006	0.251
-614.288	75.445	0.035	0.037
-613.273	-58.516	-0.322	-0.141
-612.259	276.133	-0.041	0.074
-611.244	61.195	-0.179	-0.179
-610.230	-50.601	-0.283	-0.134
-609.215	590.078	-0.018	0.045
-608.201	738.263	0.119	-0.323
-607.186	5.056	-0.163	-0.121
-606.171	-72.566	-0.135	0.050
-605.157	-106.106	-0.074	0.017
-604.142	256.604	-0.026	0.045
-603.128	67.038	0.102	-0.105
-602.113	-127.926	-0.277	0.040
-601.098	-130.779	-0.141	0.019
-600.084	-106.736	-0.234	0.052
-599.069	223.568	0.094	0.153
-598.055	-200.000	-0.035	-0.226
-597.040	-62.700	-0.249	-0.104
-596.025	-200.000	0.015	0.255
-595.011	-73.805	-0.301	0.110
-593.996	-27.627	-0.212	-0.124
-592.982	-83.044	0.207	0.067
-591.967	-63.658	0.279	-0.115
-590.952	-49.500	-0.228	0.109
-589.938	72.320	-0.132	-0.139
-588.923	800.000	-0.059	0.179
-587.909	6.297	0.212	0.158
-586.894	800.000	-0.044	0.142
-585.879	138.123	-0.167	0.220
-584.865	79.213	0.121	0.131
-583.850	-28.619	-0.122	0.071
-582.836	-200.000	-0.406	-0.002
-581.821	-126.591	0.157	-0.023
-580.806	-200.000	0.049	-0.277
-579.792	364.378	-0.277	0.561
-578.777	481.206	-0.249	0.569
-577.763	-21.193	0.209	0.129
-576.748	-39.635	-0.209	0.110
-575.733	-200.000	0.015	-0.136
-574.719	112.645	0.081	-0.099
-573.704	-173.700	0.080	0.002
-572.690	-127.698	-0.167	-0.024
-571.675	-46.581	0.083	-0.041
-570.661	-11.841	0.359	0.237
-569.646	-80.713	0.137	0.046
-568.631	-143.268	-0.345	-0.033
-567.617	-200.000	0.078	-0.390
-566.602	755.258	-0.127	-0.347
-565.588	-123.644	-0.221	-0.035
-564.573	-84.222	0.037	-0.012
-563.558	-200.000	0.025	-0.406
-562.544	21.785	0.182	-0.149
-561.529	-148.355	0.097	0.008
-560.515	800.000	0.026	0.111
-559.500	731.073	0.035	0.095
-558.485	44.766	0.289	0.267
-557.471	-200.000	0.051	0.353
-556.456	-200.000	0.061	-0.494
-555.442	-105.009	0.317	-0.073
-554.427	-111.347	-0.295	-0.061
-553.412	800.000	0.094	-0.262
-552.398	800.000	-0.042	-0.183
-551.383	-59.716	0.025	-0.011
-550.369	203.097	0.216	-0.335
-549.354	-119.883	-0.264	0.046
-548.339	-159.664	-0.118	-0.007
-547.325	-200.000	0.004	0.109
-546.310	-77.535	0.211	-0.074
-545.296	65.473	0.295	-0.300
-544.281	-200.000	0.011	0.061
-543.266	-126.893	-0.094	0.014
-542.252	157.038	0.114	-0.158
-541.237	-200.000	0.012	-0.221
-540.223	-200.000	0.005	0.112
-539.208	-24.669	-0.081	0.048
-538.193	112.422	-0.077	-0.093
-537.179	-55.041	0.176	-0.080
-536.164	-200.000	0.031	-0.175
-535.150	-138.730	0.230	-0.025
-534.135	-42.823	0.145	-0.074
-533.121	-61.976	-0.091	0.038
-532.106	-200.000	-0.018	-0.167
-531.091	135.455	-0.115	-0.150
-530.077	-122.953	-0.251	-0.041
-529.062	-143.731	0.091	0.009
-528.048	-62.119	0.185	-0.078
-527.033	-200.000	-0.058	-0.299
-526.018	-178.689	-0.172	0.004
-525.004	-19.556	0.044	0.027
-523.989	-200.000	-0.029	0.209
-522.975	-70.393	0.386	-0.147
-521.960	800.000	-0.104	-0.297
-520.945	-48.811	-0.186	0.090
-519.931	343.259	-0.061	0.119
-518.916	-126.500	-0.321	0.048
-517.902	148.279	0.062	-0.084
-516.887	-19.702	-0.109	-0.068
-515.872	-31.958	-0.329	0.185
-514.858	546.696	0.122	0.293
-513.843	800.000	-0.040	0.169
-512.829	800.000	-0.059	-0.169
-511.814	-26.478	-0.316	0.186
-510.799	-8.645	-0.175	-0.118
-509.785	-171.121	0.086	0.003
-508.770	25.836	0.096	-0.080
-507.756	142.364	-0.157	-0.210
-506.741	-200.000	0.026	-0.333
-505.726	-112.873	0.144	-0.029
-504.712	-12.666	-0.340	0.222
-503.697	-144.877	0.350	-0.032
-502.683	36.148	0.291	-0.257
-501.668	41.560	0.152	-0.138
-500.653	-37.774	-0.238	0.127
-499.639	-142.418	-0.274	-0.027
-498.624	4.731	-0.115	-0.085
-497.610	-139.265	0.114	0.012
-496.595	66.119	-0.091	0.092
-495.581	-27.258	0.075	-0.044
-494.566	164.411	0.274	-0.388
-493.551	120.575	-0.144	-0.180
-492.537	-200.000	0.029	0.377
-491.522	-90.252	-0.226	0.066
-490.508	-200.000	0.006	0.297
-489.493	17.017	-0.247	0.196
-488.478	-200.000	0.009	0.137
-487.464	-92.697	-0.232	0.065
-486.449	-43.103	-0.203	-0.103
-485.435	75.414	0.144	0.152
-484.420	158.468	0.069	0.095
-483.405	800.000	-0.043	0.165
-482.391	251.596	-0.006	0.010
-481.376	-200.000	-0.164	0.000
-480.362	-200.000	0.016	-0.191
-479.347	-188.098	-0.073	-0.001
-478.332	800.000	0.058	-0.252
-477.318	36.813	-0.088	-0.078
-476.303	-200.000	0.052	0.356
-475.289	113.620	-0.191	0.233
-474.274	-200.000	0.003	-0.101
-473.259	87.642	-0.090	0.100
-472.245	29.352	-0.232	0.198
-471.230	-200.000	0.004	-0.021
-470.216	454.005	-0.087	0.192
-469.201	-200.000	0.005	-0.389
-468.186	-164.327	0.184	-0.008
-467.172	164.016	-0.195	-0.276
-466.157	83.435	-0.066	0.073
-465.143	-200.000	-0.060	0.296
-464.128	-59.736	-0.213	0.091
-463.113	-123.310	-0.104	-0.017
-462.099	-139.653	-0.125	-0.013
-461.084	-34.437	-0.239	0.131
-460.070	17.806	0.259	0.206
-459.055	800.000	-0.112	-0.339
-458.040	-200.000	-0.006	-0.158
-457.026	800.000	0.025	0.088
-456.011	109.171	-0.193	0.231
-454.997	-200.000	-0.007	-0.122
-453.982	-89.698	0.360	-0.106
-452.968	800.000	0.040	-0.165
-451.953	-91.143	0.295	-0.085
-450.938	-56.709	0.451	0.200
-449.924	546.282	-0.078	-0.188
-448.909	408.140	0.010	0.020
-447.895	-90.573	0.298	-0.086
-446.880	-6.986	-0.283	0.192
-445.865	-6.031	-0.244	-0.167
-444.851	800.000	0.058	-0.247
-443.836	-51.572	0.332	-0.155
-442.822	-200.000	0.046	0.230
-441.807	800.000	0.059	0.190
-440.792	59.884	-0.175	0.173
-439.778	5.542	0.159	0.118
-438.763	184.530	0.225	-0.334
-437.749	114.388	0.096	0.117
-436.734	-71.026	-0.129	0.049
-435.719	-40.034	-0.076	0.039
-434.705	-41.040	0.270	0.139
-433.690	99.589	-0.035	0.040
-432.676	-200.000	0.002	0.019
-431.661	800.000	0.071	-0.196
-430.646	-35.661	0.079	-0.043
-429.632	-200.000	0.049	0.323
-428.617	59.091	-0.227	0.223
-427.603	-11.527	-0.116	0.076
-426.588	-200.000	-0.084	0.393
-425.573	-117.267	-0.233	-0.042
-424.559	-200.000	-0.030	-0.375
-423.544	-20.421	0.319	0.196
-422.530	158.800	0.120	-0.167
-421.515	-121.053	0.454	0.076
-420.500	-95.794	0.222	-0.059
-419.486	-54.786	0.082	-0.037
-418.471	800.000	-0.082	-0.321
-417.457	174.743	-0.068	-0.098
-416.442	-200.000	-0.049	0.293
-415.428	60.548	-0.123	0.122
-414.413	800.000	0.122	-0.342
-413.398	-78.718	-0.113	0.039
-412.384	409.989	0.099	-0.209
-411.369	-200.000	0.020	0.297
-410.355	-50.731	-0.100	0.047
-409.340	-32.027	0.201	-0.113
-408.325	-92.262	-0.242	0.068
-407.311	-200.000	-0.004	-0.160
-406.296	-54.455	0.148	-0.067
-405.282	-89.293	-0.508	-0.150
-404.267	-13.322	0.200	0.130
-403.252	-108.871	-0.166	-0.035
-402.238	-131.421	0.232	0.031
-401.223	800.000	0.064	0.180
-400.209	800.000	0.077	0.249
-399.194	26.595	-0.180	-0.150
-398.179	225.646	-0.158	-0.256
-397.165	-200.000	0.038	-0.302
-396.150	-89.158	0.200	-0.059
-395.136	11.846	-0.079	0.061
-394.121	-33.195	-0.076	-0.042
-393.106	-36.052	-0.286	0.155
-392.092	-200.000	0.070	0.397
-391.077	-200.000	0.001	0.040
-390.063	-104.806	0.200	0.046
-389.048	85.659	-0.038	0.042
-388.033	-61.262	-0.164	-0.069
-387.019	769.186	-0.094	-0.255
-386.004	353.713	-0.204	-0.404
-384.990	800.000	-0.068	0.204
-383.975	227.592	-0.082	0.133
-382.960	-53.010	0.144	0.066
-381.946	90.127	0.041	-0.046
-380.931	-7.654	0.291	0.197
-379.917	87.172	-0.060	-0.067
-378.902	-54.041	-0.253	-0.115
-377.888	72.291	-0.071	-0.074
-376.873	153.131	0.179	0.245
-375.858	-150.363	0.201	-0.015
-374.844	72.170	0.249	-0.259
-373.829	147.588	-0.042	0.056
-372.815	119.761	0.065	-0.080
-371.800	-111.492	-0.123	0.025
-370.785	62.671	0.190	-0.190
-369.771	-200.000	0.013	-0.115
-368.756	-7.609	0.073	-0.049
-367.742	-200.000	-0.001	-0.128
-366.727	-69.190	-0.207	-0.079
-365.712	1.835	0.137	-0.099
-364.698	542.425	-0.068	0.163
-363.683	-29.104	-0.242	0.138
-362.669	-35.850	0.154	-0.083
-361.654	-99.886	0.386	0.096
-360.639	185.394	0.082	0.121
-359.625	-157.507	0.381	0.023
-358.610	136.682	0.229	-0.299
-357.596	-86.929	-0.116	-0.035
-356.581	-129.587	-0.081	0.011
-355.566	800.000	0.107	0.361
-354.552	253.041	-0.163	0.278
-353.537	-135.868	0.337	-0.040
-352.523	-116.744	-0.501	-0.092
-351.508	-200.000	-0.035	-0.224
-350.493	337.903	0.180	0.349
-349.479	-200.000	-0.011	-0.088
-348.464	-23.493	0.209	0.125
-347.450	-30.550	-0.301	-0.170
-346.435	395.691	-0.041	0.085
-345.420	-66.951	-0.147	-0.058
-344.406	800.000	0.064	0.200
-343.391	42.602	-0.228	-0.207
-342.377	-18.260	-0.161	-0.100
-341.362	800.000	0.046	0.177
-340.348	-13.775	-0.076	0.049
-339.333	-60.277	-0.237	0.101
-338.318	-99.515	0.266	0.067
-337.304	162.379	-0.034	-0.047
-336.289	213.653	0.077	0.121
-335.275	164.304	-0.031	0.044
-334.260	238.358	-0.198	-0.329
-333.245	60.412	-0.230	0.227
-332.231	-49.404	0.071	-0.034
-331.216	-200.000	-0.000	0.287
-330.202	-72.817	-0.198	0.073
-329.187	-100.399	0.307	0.076
-328.172	138.185	0.069	-0.091
-327.158	-9.084	0.125	0.083
-326.143	-147.711	-0.195	-0.016
-325.129	134.511	0.131	-0.169
-324.114	-57.661	0.231	-0.101
-323.099	-101.468	0.339	0.082
-322.085	142.961	-0.163	-0.216
-321.070	61.429	0.137	0.135
-320.056	378.089	-0.060	0.122
-319.041	-27.650	0.119	-0.069
-318.026	800.000	0.029	-0.105
-317.012	-64.361	0.297	0.120
-315.997	-82.673	0.168	0.054
-314.983	191.395	0.144	0.215
-313.968	35.788	0.272	0.239
-312.953	-181.942	-0.316	-0.006
-311.939	2.754	-0.108	0.078
-310.924	63.878	0.074	0.074
-309.910	-200.000	0.009	-0.121
-308.895	-109.569	-0.094	0.020
-307.880	16.793	0.117	0.092
-306.866	-65.290	-0.304	-0.122
-305.851	277.287	-0.136	0.241
-304.837	152.436	-0.027	-0.036
-303.822	256.312	0.097	-0.165
-302.807	800.000	0.086	0.270
-301.793	-88.100	-0.082	0.025
-300.778	240.914	-0.200	0.333
-299.764	800.000	-0.076	-0.258
-298.749	606.574	-0.070	-0.174
-297.735	-200.000	0.015	0.259
-296.720	-96.705	0.427	0.112
-295.705	-50.865	-0.202	-0.095
-294.691	129.200	0.106	-0.135
-293.676	269.658	-0.143	-0.250
-292.662	221.965	0.171	-0.274
-291.647	-98.544	-0.364	-0.093
-290.632	77.003	0.151	-0.160
-289.618	-200.000	-0.008	-0.503
-288.603	-200.000	-0.011	-0.137
-287.589	-200.000	0.041	-0.180
-286.574	94.529	-0.137	0.155
-285.559	-41.662	0.075	0.038
-284.545	-200.000	0.035	-0.254
-283.530	-183.208	0.120	0.002
-282.516	-102.670	-0.060	0.014
-281.501	-132.889	0.233	0.030
-280.486	800.000	-0.042	-0.159
-279.472	-163.779	-0.187	-0.009
-278.457	-111.887	-0.250	-0.050
-277.443	-200.000	-0.001	-0.073
-276.428	-88.362	-0.142	-0.042
-275.413	-128.596	0.225	-0.032
-274.399	55.105	0.055	0.053
-273.384	-75.164	-0.311	0.111
-272.370	-14.325	0.176	0.113
-271.355	-193.602	0.194	0.002
-270.340	-10.327	-0.169	0.111
-269.326	165.991	0.071	0.099
-268.311	16.995	0.027	0.021
-267.297	-200.000	0.020	0.131
-266.282	-129.743	0.355	0.049
-265.267	-84.522	0.078	0.024
-264.253	-200.000	0.015	-0.080
-263.238	101.589	0.123	-0.143
-262.224	-62.259	0.313	0.130
-261.209	-61.362	0.231	-0.097
-260.195	-50.370	0.155	-0.073
-259.180	-40.390	0.411	0.212
-258.165	-103.318	0.217	-0.051
-257.151	-178.951	0.213	0.005
-256.136	4.638	-0.148	0.108
-255.122	-72.834	0.249	-0.091
-254.107	-27.764	0.061	-0.035
-253.092	-120.666	-0.252	0.042
-252.078	-53.408	0.173	-0.079
-251.063	355.246	0.032	0.063
-250.049	47.371	0.093	0.086
-249.034	-134.772	-0.231	-0.028
-248.019	-200.000	-0.020	0.264
-247.005	62.973	0.083	0.082
-245.990	800.000	-0.116	-0.423
-244.976	130.078	0.048	-0.061
-243.961	-200.000	0.003	-0.025
-242.946	1.729	-0.157	-0.112
-241.932	-200.000	0.006	0.090
-240.917	-200.000	0.006	0.245
-239.903	-200.000	-0.029	0.247
-238.888	3.722	0.306	-0.222
-237.873	89.038	0.299	-0.331
-236.859	-83.922	0.091	-0.029
-235.844	2.496	0.096	0.069
-234.830	-15.422	-0.226	0.143
-233.815	800.000	0.063	0.257
-232.800	-65.113	-0.092	0.037
-231.786	393.309	-0.153	0.316
-230.771	-9.094	-0.274	-0.182
-229.757	427.790	-0.100	-0.214
-228.742	370.111	0.026	0.052
-227.727	9.886	-0.088	-0.067
-226.713	17.949	-0.192	0.152
-225.698	386.219	-0.017	0.035
-224.684	-79.621	-0.207	-0.069
-223.669	51.793	0.222	-0.209
-222.655	-89.755	0.141	-0.041
-221.640	77.762	-0.148	-0.156
-220.625	51.439	0.145	0.137
-219.611	-149.211	-0.018	-0.001
-218.596	-34.927	0.122	-0.066
-217.582	64.509	0.157	-0.158
-216.567	-134.716	-0.408	-0.049
-215.552	800.000	0.052	0.151
-214.538	219.775	0.227	-0.361
-213.523	-200.000	0.014	0.286
-212.509	-147.982	0.151	-0.012
-211.494	113.397	-0.071	0.085
-210.479	-200.000	0.001	0.342
-209.465	-127.845	-0.160	0.023
-208.450	-200.000	0.009	-0.111
-207.436	800.000	-0.030	-0.109
-206.421	10.152	0.145	0.109
-205.406	-122.723	-0.206	0.033
-204.392	103.733	0.084	0.098
-203.377	503.252	-0.073	-0.168
-202.363	456.085	0.072	0.158
-201.348	67.898	0.099	0.101
-200.333	62.213	-0.058	-0.058
-199.319	800.000	0.065	0.229
-198.304	367.860	0.068	-0.135
-197.290	-58.219	-0.100	-0.043
-196.275	19.787	0.236	-0.188
-195.260	-106.212	0.081	0.018
-194.246	3.658	0.135	0.098
-193.231	-156.987	0.116	-0.007
-192.217	95.964	0.250	-0.284
-191.202	-121.683	-0.214	0.035
-190.187	-139.193	-0.168	0.018
-189.173	-200.000	0.021	-0.371
-188.158	561.026	0.063	0.151
-187.144	300.788	0.211	0.386
-186.129	800.000	0.037	0.140
-185.114	291.367	-0.149	0.268
-184.100	-200.000	0.009	0.118
-183.085	-51.395	-0.113	0.052
-182.071	-200.000	0.005	0.037
-181.056	100.479	-0.135	0.155
-180.042	27.238	0.111	0.093
-179.027	302.545	0.021	0.038
-178.012	-123.140	-0.127	0.020
-176.998	351.652	0.160	-0.314
-175.983	800.000	0.075	0.300
-174.969	-83.049	-0.161	0.051
-173.954	-40.266	0.371	-0.191
-172.939	-160.278	0.278	-0.015
-171.925	800.000	-0.035	0.141
-170.910	-200.000	0.006	-0.297
-169.896	590.531	-0.064	0.156
-168.881	37.933	-0.242	-0.213
-167.866	180.083	-0.132	-0.192
-166.852	71.191	0.138	-0.142
-165.837	-197.226	-0.499	0.003
-164.823	0.262	0.247	0.174
-163.808	800.000	-0.071	0.245
-162.793	-29.772	-0.299	-0.169
-161.779	33.996	-0.056	-0.049
-160.764	-154.052	0.184	0.012
-159.750	-57.874	-0.165	-0.071
-158.735	-123.209	0.270	-0.043
-157.720	43.575	0.289	0.262
-156.706	164.145	0.069	0.096
-155.691	143.273	0.110	0.145
-154.677	526.961	0.131	0.305
-153.662	-200.000	-0.039	0.175
-152.647	-81.151	0.163	0.053
-151.633	800.000	-0.040	0.171
-150.618	18.184	0.108	-0.086
-149.604	66.588	0.113	0.114
-148.589	220.590	0.074	0.117
-147.574	69.261	0.113	-0.115
-146.560	-200.000	0.012	-0.149
-145.545	118.479	-0.177	-0.216
-144.531	139.889	0.261	-0.340
-143.516	324.684	-0.167	-0.316
-142.502	193.309	0.061	0.091
-141.487	800.000	0.052	0.178
-140.472	87.836	0.185	-0.203
-139.458	800.000	-0.053	0.167
-138.443	45.556	0.239	-0.218
-137.429	-200.000	0.010	-0.115
-136.414	800.000	0.107	-0.332
-135.399	79.668	-0.141	-0.150
-134.385	186.785	-0.079	-0.117
-133.370	800.000	-0.111	-0.361
-132.356	-76.185	0.433	-0.151
-131.341	253.543	0.061	0.103
-130.326	-200.000	0.031	0.146
-129.312	-83.344	-0.116	0.037
-128.297	-94.750	-0.242	0.065
-127.283	175.938	0.104	0.150
-126.268	800.000	0.016	0.051
-125.253	-97.639	-0.188	-0.048
-124.239	148.661	0.239	-0.320
-123.224	-200.000	-0.005	0.167
-122.210	-200.000	-0.003	0.097
-121.195	68.002	-0.156	0.157
-120.180	-144.679	-0.299	-0.027
