DTS Sentinel unit serial number:	SN413079Multiplexer serial number:	ORYXHardware model number:	OX4-SRSoftware version number:	ORYX F/W v4.00 Oryx Data Collector v3.7.2.0data status	okinstallation	princeton_trtdifferential loss correction	single-endedforward channel	channel 4reverse channel	N/Adate	2019/09/11time	13:55:11forward acquisition time	60.00reverse acquisition time	0.00gamma	496.2192k internal	0.2283k external	0.2283temperature offset calibration	1.0001default loss term (dB/km)	0.3790temperature slope calibration	1.0000multiplexer offset coefficient	1.0000multiplexer slope coefficient	1.0000fibre end	0.00T internal ref (°C)	41.87T ext. ref 1 (°C)	0.83T ext. ref 2 (°C)	36.72length (m)	temperature (°C)	Stokes	anti-Stokes-747.200	251.374	-0.165	-0.288
-746.185	367.765	0.089	-0.184
-745.171	-182.686	-0.108	0.002
-744.156	337.873	0.096	0.192
-743.142	800.000	-0.069	0.237
-742.127	800.000	0.022	-0.087
-741.112	28.034	-0.259	-0.224
-740.098	-38.644	-0.111	0.060
-739.083	303.832	0.054	0.103
-738.069	57.886	-0.208	0.209
-737.054	-200.000	-0.040	0.328
-736.039	39.399	0.122	0.112
-735.025	-200.000	0.013	0.283
-734.010	27.000	-0.190	-0.163
-732.996	461.244	0.081	0.186
-731.981	-67.878	0.055	-0.022
-730.966	-89.825	-0.152	0.046
-729.952	179.379	0.208	0.313
-728.937	-200.000	0.012	-0.191
-727.923	-102.187	-0.316	-0.078
-726.908	800.000	-0.041	-0.141
-725.894	288.304	0.146	-0.271
-724.879	800.000	-0.141	0.426
-723.864	110.274	0.062	0.077
-722.850	-44.340	0.136	-0.070
-721.835	15.621	-0.290	-0.234
-720.821	-200.000	-0.023	-0.118
-719.806	26.265	0.198	0.169
-718.791	6.628	-0.434	-0.331
-717.777	414.247	-0.071	0.155
-716.762	-140.383	-0.249	-0.027
-715.748	91.082	-0.067	0.077
-714.733	-131.320	-0.238	-0.032
-713.718	55.275	-0.082	-0.081
-712.704	491.792	-0.057	-0.134
-711.689	800.000	0.194	0.639
-710.675	238.093	0.100	-0.170
-709.660	392.438	0.150	-0.319
-708.645	-70.417	-0.351	-0.136
-707.631	-44.693	0.056	-0.029
-706.616	73.758	0.067	0.072
-705.602	70.288	-0.197	0.209
-704.587	142.108	0.178	-0.243
-703.572	368.784	0.179	-0.372
-702.558	-144.552	0.320	0.030
-701.543	-133.151	0.267	-0.035
-700.529	-161.661	0.236	-0.012
-699.514	-128.280	-0.132	-0.019
-698.499	-166.337	0.325	0.014
-697.485	-157.659	0.100	0.006
-696.470	-200.000	0.046	0.238
-695.456	-63.903	0.222	-0.093
-694.441	128.298	0.178	0.233
-693.426	-90.299	0.159	0.047
-692.412	19.891	-0.218	-0.180
-691.397	-3.322	0.237	-0.169
-690.383	234.388	-0.164	-0.278
-689.368	-111.172	0.178	-0.037
-688.354	-200.000	0.039	-0.177
-687.339	79.211	0.182	0.200
-686.324	-200.000	-0.017	-0.171
-685.310	31.096	-0.206	-0.182
-684.295	61.022	-0.343	0.349
-683.281	-42.860	-0.221	-0.115
-682.266	-121.545	0.204	-0.035
-681.251	3.828	-0.077	-0.058
-680.237	69.385	-0.071	0.075
-679.222	-186.193	0.261	0.004
-678.208	-12.995	0.081	-0.054
-677.193	-200.000	-0.068	-0.449
-676.178	-200.000	0.034	-0.172
-675.164	9.831	-0.296	-0.230
-674.149	800.000	-0.073	-0.219
-673.135	63.587	-0.044	0.045
-672.120	800.000	0.170	-0.511
-671.105	-143.386	-0.136	-0.013
-670.091	800.000	-0.124	-0.419
-669.076	-135.137	0.265	-0.033
-668.062	77.296	-0.103	0.113
-667.047	-110.920	-0.195	-0.041
-666.032	800.000	-0.012	-0.035
-665.018	215.096	-0.211	0.342
-664.003	800.000	0.018	0.057
-662.989	48.081	0.232	-0.222
-661.974	11.550	-0.080	0.063
-660.959	-105.191	-0.117	-0.027
-659.945	-37.264	-0.229	-0.125
-658.930	155.948	0.144	0.204
-657.916	-5.242	0.205	0.144
-656.901	-85.520	0.281	0.089
-655.886	28.969	0.135	-0.117
-654.872	-200.000	0.047	0.213
-653.857	-99.357	-0.259	0.067
-652.843	540.283	0.137	0.335
-651.828	-200.000	0.013	-0.164
-650.814	-200.000	-0.013	0.090
-649.799	58.391	-0.038	-0.038
-648.784	47.705	0.056	0.053
-647.770	-1.804	0.292	0.211
-646.755	-25.296	0.162	-0.098
-645.741	-200.000	-0.041	-0.437
-644.726	-84.436	-0.238	-0.077
-643.711	-115.647	0.458	0.088
-642.697	-140.690	0.099	0.010
-641.682	0.045	0.202	0.147
-640.668	198.714	0.036	0.056
-639.653	-101.016	0.250	0.063
-638.638	207.827	-0.176	-0.282
-637.624	-37.649	-0.116	0.063
-636.609	-17.583	0.285	-0.183
-635.595	-200.000	-0.087	-0.485
-634.580	-136.596	-0.127	-0.015
-633.565	257.101	-0.141	0.248
-632.551	-56.647	-0.200	-0.090
-631.536	-132.205	-0.125	-0.017
-630.522	-29.078	-0.217	-0.127
-629.507	-200.000	0.037	0.341
-628.492	64.923	0.075	-0.078
-627.478	-126.553	0.305	-0.046
-626.463	59.413	-0.092	-0.092
-625.449	-151.206	0.036	0.003
-624.434	192.772	-0.119	-0.184
-623.419	-38.295	-0.078	0.042
-622.405	474.385	-0.128	-0.294
-621.390	-72.874	-0.384	-0.144
-620.376	345.765	0.084	-0.169
-619.361	-96.716	-0.109	0.029
-618.346	-114.944	-0.062	-0.012
-617.332	800.000	-0.035	-0.132
-616.317	-83.866	-0.082	-0.027
-615.303	-175.962	0.221	-0.006
-614.288	-92.881	0.179	0.051
-613.273	-31.402	-0.079	0.045
-612.259	800.000	-0.109	0.310
-611.244	-34.025	-0.197	-0.111
-610.230	-200.000	-0.002	-0.175
-609.215	-141.347	-0.129	-0.013
-608.201	424.185	-0.032	-0.071
-607.186	-185.336	0.126	-0.002
-606.171	-148.190	0.153	0.013
-605.157	-139.433	0.182	-0.020
-604.142	5.982	-0.100	-0.075
-603.128	377.649	0.196	-0.409
-602.113	-200.000	0.001	-0.150
-601.098	-200.000	0.032	0.318
-600.084	-18.909	-0.554	0.352
-599.069	281.118	0.081	0.148
-598.055	-124.521	0.168	0.027
-597.040	800.000	-0.088	-0.255
-596.025	-91.544	-0.116	-0.034
-595.011	-142.533	0.278	0.028
-593.996	800.000	-0.063	0.218
-592.982	98.326	-0.129	-0.152
-591.967	113.199	-0.048	-0.060
-590.952	-149.732	-0.160	0.013
-589.938	-76.633	0.162	0.058
-588.923	800.000	-0.076	0.281
-587.909	359.057	0.126	0.258
-586.894	458.397	-0.042	-0.095
-585.879	-31.807	-0.272	0.156
-584.865	-106.229	-0.137	0.031
-583.850	-53.095	0.237	0.111
-582.836	-156.958	0.101	-0.006
-581.821	-60.211	-0.433	-0.188
-580.806	-69.897	0.162	-0.063
-579.792	-200.000	0.004	-0.182
-578.777	-20.467	-0.194	0.122
-577.763	423.024	-0.163	0.357
-576.748	413.136	0.154	0.335
-575.733	-25.794	0.057	-0.034
-574.719	168.364	-0.082	-0.119
-573.704	23.882	-0.027	-0.023
-572.690	-30.374	0.234	0.135
-571.675	800.000	0.031	0.092
-570.661	-121.233	-0.198	-0.034
-569.646	-16.009	0.113	-0.074
-568.631	-5.287	-0.101	-0.071
-567.617	86.399	-0.179	-0.202
-566.602	-148.995	-0.181	-0.015
-565.588	-200.000	0.020	-0.193
-564.573	-20.154	0.331	0.208
-563.558	404.502	0.107	-0.229
-562.544	324.735	0.169	0.329
-561.529	-200.000	0.014	-0.085
-560.515	-77.750	-0.071	-0.025
-559.500	308.184	-0.210	0.399
-558.485	-22.475	0.055	0.034
-557.471	-109.287	0.201	-0.043
-556.456	-200.000	0.013	-0.204
-555.442	800.000	-0.149	-0.453
-554.427	-200.000	-0.005	0.128
-553.412	800.000	-0.067	0.263
-552.398	24.900	-0.222	0.187
-551.383	130.775	0.112	0.147
-550.369	-44.886	0.150	0.076
-549.354	43.557	-0.155	0.145
-548.339	800.000	-0.164	-0.635
-547.325	56.559	0.316	-0.314
-546.310	-200.000	0.013	0.098
-545.296	-200.000	-0.029	0.193
-544.281	-79.755	0.055	0.019
-543.266	-152.779	-0.115	0.008
-542.252	-49.331	0.258	-0.125
-541.237	-126.608	-0.179	-0.027
-540.223	-200.000	0.015	0.381
-539.208	-200.000	-0.005	0.194
-538.193	-94.392	-0.196	-0.055
-537.179	-116.500	-0.298	0.056
-536.164	510.805	-0.160	-0.380
-535.150	168.388	0.044	-0.064
-534.135	-200.000	-0.010	-0.353
-533.121	-200.000	0.059	-0.394
-532.106	405.914	0.212	-0.455
-531.091	741.578	0.153	0.418
-530.077	800.000	-0.026	0.114
-529.062	-31.809	0.163	-0.093
-528.048	800.000	0.005	0.022
-527.033	800.000	0.049	0.186
-526.018	18.593	-0.390	0.318
-525.004	-59.918	-0.272	-0.118
-523.989	54.857	0.099	-0.097
-522.975	17.157	-0.046	-0.037
-521.960	339.903	0.140	0.277
-520.945	107.496	-0.096	-0.116
-519.931	-47.672	0.262	-0.129
-518.916	98.612	0.250	-0.294
-517.902	-79.868	0.150	-0.051
-516.887	242.557	0.084	-0.143
-515.872	-200.000	-0.040	0.270
-514.858	-112.851	0.274	0.055
-513.843	-19.097	0.078	0.049
-512.829	800.000	0.110	-0.331
-511.814	359.245	0.197	-0.401
-510.799	-200.000	0.017	-0.318
-509.785	800.000	0.059	0.176
-508.770	800.000	-0.079	0.276
-507.756	119.988	0.136	-0.171
-506.741	11.709	0.083	0.065
-505.726	44.610	-0.125	-0.117
-504.712	16.773	-0.110	0.089
-503.697	-33.348	-0.237	0.133
-502.683	214.155	0.110	-0.178
-501.668	371.663	0.104	-0.215
-500.653	783.356	-0.031	0.086
-499.639	-83.645	-0.392	-0.127
-498.624	314.392	-0.210	0.402
-497.610	800.000	0.063	-0.210
-496.595	569.121	0.054	0.133
-495.581	561.202	0.080	-0.196
-494.566	6.272	-0.137	-0.103
-493.551	161.349	-0.044	-0.062
-492.537	205.859	-0.047	0.074
-491.522	-16.360	-0.253	-0.163
-490.508	-200.000	-0.023	0.338
-489.493	-52.330	-0.099	-0.047
-488.478	90.690	-0.357	-0.407
-487.464	-200.000	0.020	-0.312
-486.449	171.840	0.149	0.218
-485.435	40.276	-0.239	0.218
-484.420	191.494	-0.192	0.294
-483.405	-140.218	0.230	-0.025
-482.391	34.225	0.142	-0.126
-481.376	28.359	-0.140	-0.121
-480.362	-103.137	0.217	0.052
-479.347	-200.000	-0.010	0.293
-478.332	178.597	-0.248	0.369
-477.318	404.319	-0.065	0.139
-476.303	85.736	-0.248	-0.277
-475.289	-200.000	0.004	-0.137
-474.274	800.000	-0.077	0.240
-473.259	125.342	-0.133	0.170
-472.245	468.182	0.100	-0.227
-471.230	-199.810	0.132	0.001
-470.216	-101.317	-0.186	0.046
-469.201	15.653	0.041	-0.033
-468.186	342.916	-0.061	-0.122
-467.172	124.761	0.217	-0.277
-466.157	-200.000	0.013	-0.158
-465.143	28.861	0.101	-0.087
-464.128	-16.749	-0.135	0.087
-463.113	24.401	-0.104	0.087
-462.099	95.172	-0.202	0.234
-461.084	140.619	-0.070	0.094
-460.070	-89.007	0.105	-0.032
-459.055	800.000	-0.030	-0.087
-458.040	-176.570	-0.155	0.004
-457.026	-160.289	0.207	0.011
-456.011	800.000	0.104	-0.339
-454.997	-154.508	0.110	0.008
-453.982	-200.000	0.014	-0.231
-452.968	358.397	0.053	0.108
-451.953	-130.090	0.381	0.053
-450.938	-159.968	-0.159	0.009
-449.924	-200.000	-0.009	-0.213
-448.909	297.817	-0.113	-0.212
-447.895	-79.798	-0.025	-0.008
-446.880	800.000	-0.107	-0.468
-445.865	-49.436	0.168	-0.081
-444.851	-19.003	-0.193	-0.122
-443.836	-200.000	-0.021	0.181
-442.822	-40.930	0.309	0.162
-441.807	722.534	-0.045	0.122
-440.792	97.355	-0.106	-0.123
-439.778	-85.866	-0.222	0.070
-438.763	-118.383	-0.287	0.052
-437.749	-132.976	0.212	-0.027
-436.734	-88.287	0.066	-0.020
-435.719	225.580	0.051	0.084
-434.705	42.821	0.168	0.155
-433.690	-200.000	0.065	0.357
-432.676	-105.636	0.116	-0.027
-431.661	263.655	-0.160	-0.282
-430.646	-117.147	0.251	0.046
-429.632	-54.968	0.172	0.079
-428.617	-4.602	0.028	0.020
-427.603	-26.176	-0.239	0.142
-426.588	375.164	0.149	0.307
-425.573	-121.672	-0.099	-0.017
-424.559	-161.725	0.306	0.016
-423.544	-31.889	0.024	0.014
-422.530	115.342	-0.128	0.158
-421.515	-13.232	0.420	0.277
-420.500	-132.665	0.032	-0.004
-419.486	13.267	-0.124	-0.097
-418.471	-29.856	0.242	0.140
-417.457	-97.020	0.260	-0.069
-416.442	641.616	-0.081	-0.211
-415.428	75.386	0.154	0.165
-414.413	-142.261	-0.119	0.012
-413.398	-39.052	0.180	0.096
-412.384	-110.114	-0.248	0.052
-411.369	31.984	0.251	-0.219
-410.355	-127.290	0.138	0.020
-409.340	566.192	-0.085	-0.210
-408.325	22.886	0.114	-0.094
-407.311	322.442	0.231	0.446
-406.296	139.256	-0.273	-0.365
-405.282	-63.139	0.248	-0.104
-404.267	-39.879	-0.305	0.161
-403.252	319.723	-0.117	0.226
-402.238	163.068	0.131	0.186
-401.223	-200.000	0.029	-0.307
-400.209	188.481	-0.120	0.182
-399.194	241.386	-0.156	0.264
-398.179	282.178	-0.052	0.095
-397.165	-50.351	-0.117	0.056
-396.150	800.000	-0.031	0.105
-395.136	74.484	0.114	0.121
-394.121	717.895	0.095	0.255
-393.106	19.278	-0.050	0.041
-392.092	154.629	0.132	0.183
-391.077	150.404	-0.179	-0.247
-390.063	644.280	-0.045	-0.117
-389.048	692.986	0.058	-0.155
-388.033	-87.551	0.271	0.083
-387.019	83.653	-0.158	0.174
-386.004	-100.683	0.114	0.028
-384.990	130.189	0.176	0.228
-383.975	236.054	-0.194	-0.325
-382.960	696.860	-0.081	-0.217
-381.946	-103.328	0.329	0.079
-380.931	800.000	0.041	0.119
-379.917	58.824	0.073	-0.073
-378.902	331.828	-0.162	-0.317
-377.888	-34.347	0.134	0.075
-376.873	444.753	-0.192	-0.427
-375.858	7.131	-0.091	-0.069
-374.844	-132.752	-0.111	-0.014
-373.829	-200.000	0.039	0.216
-372.815	112.877	-0.137	0.168
-371.800	330.620	0.107	-0.209
-370.785	-80.684	-0.147	-0.049
-369.771	-107.004	0.253	0.057
-368.756	-49.265	-0.282	-0.136
-367.742	-29.091	0.314	-0.183
-366.727	15.355	-0.168	0.133
-365.712	-200.000	0.008	0.205
-364.698	-200.000	0.016	0.115
-363.683	-106.693	-0.338	-0.076
-362.669	-116.887	0.209	-0.039
-361.654	-31.121	-0.151	0.086
-360.639	29.279	-0.049	-0.042
-359.625	122.682	0.163	0.206
-358.610	800.000	0.075	0.262
-357.596	-200.000	-0.006	0.205
-356.581	601.007	-0.055	-0.139
-355.566	800.000	-0.111	-0.396
-354.552	253.782	0.068	0.118
-353.537	-111.527	-0.373	0.077
-352.523	245.041	-0.048	-0.081
-351.508	-200.000	0.032	0.151
-350.493	51.477	0.166	-0.160
-349.479	15.500	-0.094	-0.075
-348.464	36.532	0.239	0.214
-347.450	53.213	-0.205	0.199
-346.435	-6.831	-0.186	0.128
-345.420	689.491	0.074	0.195
-344.406	800.000	0.103	0.358
-343.391	28.427	-0.125	-0.107
-342.377	-80.040	-0.166	0.056
-341.362	-200.000	0.040	0.182
-340.348	722.371	0.108	-0.290
-339.333	-200.000	0.021	-0.232
-338.318	267.531	0.100	0.177
-337.304	-112.623	0.244	0.049
-336.289	-200.000	-0.014	-0.373
-335.275	67.832	0.096	-0.099
-334.260	-200.000	0.048	-0.280
-333.245	542.548	0.108	0.260
-332.231	58.044	-0.168	-0.167
-331.216	-56.569	-0.419	-0.188
-330.202	-151.230	0.152	-0.012
-329.187	50.325	0.213	-0.203
-328.172	800.000	0.026	-0.100
-327.158	-200.000	0.006	0.173
-326.143	-73.845	-0.248	-0.091
-325.129	-200.000	-0.025	-0.231
-324.114	504.056	0.102	-0.239
-323.099	800.000	-0.052	-0.153
-322.085	3.279	-0.128	-0.094
-321.070	-200.000	0.010	0.075
-320.056	52.520	0.036	-0.034
-319.041	800.000	0.064	-0.208
-318.026	800.000	-0.155	0.518
-317.012	-113.941	-0.111	0.022
-315.997	138.624	0.005	0.006
-314.983	-8.906	-0.188	0.127
-313.968	-135.052	-0.370	-0.045
-312.953	522.849	-0.007	-0.017
-311.939	-51.962	0.209	-0.098
-310.924	-200.000	0.010	-0.169
-309.910	-200.000	0.037	0.165
-308.895	800.000	0.075	-0.280
-307.880	150.923	0.070	-0.096
-306.866	-118.304	-0.276	-0.050
-305.851	-48.412	0.338	-0.164
-304.837	73.697	-0.059	-0.062
-303.822	-74.584	-0.564	0.205
-302.807	88.188	0.083	-0.093
-301.793	-112.309	0.094	-0.019
-300.778	60.837	-0.110	-0.110
-299.764	224.822	-0.149	0.243
-298.749	800.000	0.051	-0.150
-297.735	-150.449	-0.209	0.016
-296.720	-95.583	-0.316	-0.085
-295.705	-150.683	-0.242	0.019
-294.691	-110.798	-0.293	0.061
-293.676	-82.285	-0.154	-0.051
-292.662	316.438	-0.076	0.145
-291.647	-42.446	0.092	-0.047
-290.632	-157.740	0.103	0.006
-289.618	-200.000	-0.012	-0.108
-288.603	724.634	-0.108	0.290
-287.589	-91.077	-0.169	-0.049
-286.574	97.150	0.117	0.136
-285.559	-54.215	-0.140	-0.064
-284.545	51.019	-0.161	-0.154
-283.530	-87.133	0.234	-0.072
-282.516	542.717	0.167	0.401
-281.501	770.920	0.122	0.334
-280.486	800.000	0.087	-0.256
-279.472	-31.731	0.176	-0.099
-278.457	-42.782	-0.245	-0.126
-277.443	95.363	0.125	-0.144
-276.428	63.277	0.142	-0.143
-275.413	-134.196	0.344	0.043
-274.399	-200.000	-0.012	0.070
-273.384	-146.756	0.143	0.013
-272.370	-23.727	-0.246	-0.149
-271.355	718.029	0.056	0.151
-270.340	13.749	-0.175	0.137
-269.326	609.634	-0.182	0.458
-268.311	18.396	-0.076	0.061
-267.297	-55.768	-0.212	-0.095
-266.282	-167.669	0.421	0.017
-265.267	81.558	0.205	0.223
-264.253	33.872	0.163	0.143
-263.238	131.853	0.005	-0.006
-262.224	-28.989	-0.090	0.052
-261.209	-51.910	0.355	-0.167
-260.195	800.000	0.011	0.036
-259.180	-200.000	0.019	0.182
-258.165	-200.000	-0.033	0.312
-257.151	170.850	0.199	0.288
-256.136	-77.280	0.116	-0.041
-255.122	124.830	0.175	0.222
-254.107	154.919	-0.114	-0.158
-253.092	-148.805	0.319	0.026
-252.078	-98.740	0.303	0.078
-251.063	-200.000	-0.097	-0.430
-250.049	-200.000	0.027	-0.393
-249.034	171.993	0.100	-0.145
-248.019	62.424	0.041	-0.042
-247.005	48.896	0.122	-0.115
-245.990	41.031	-0.354	-0.322
-244.976	95.518	0.128	-0.147
-243.961	1.962	-0.034	0.024
-242.946	48.073	-0.125	-0.118
-241.932	-32.472	-0.150	0.084
-240.917	-107.240	0.296	-0.066
-239.903	351.776	0.149	-0.297
-238.888	-164.326	0.205	-0.009
-237.873	-93.754	-0.302	0.084
-236.859	-21.470	0.166	0.102
-235.844	-75.534	0.386	-0.138
-234.830	98.938	0.145	-0.169
-233.815	-200.000	0.005	-0.205
-232.800	-168.603	0.443	0.017
-231.786	-102.918	0.155	0.037
-230.771	-200.000	0.359	0.001
-229.757	41.340	-0.145	-0.132
-228.742	174.975	0.172	0.251
-227.727	-200.000	0.045	0.339
-226.713	-200.000	-0.016	0.227
-225.698	101.766	-0.239	0.281
-224.684	94.336	-0.214	-0.245
-223.669	111.768	0.121	0.146
-222.655	-140.197	-0.383	0.040
-221.640	-9.517	-0.172	0.116
-220.625	-92.202	0.233	-0.066
-219.611	57.214	-0.131	0.129
-218.596	-200.000	0.026	-0.151
-217.582	-190.828	-0.189	0.002
-216.567	-46.505	0.153	-0.076
-215.552	162.004	0.032	-0.045
-214.538	-20.160	-0.155	-0.096
-213.523	800.000	-0.114	0.346
-212.509	52.282	0.147	0.141
-211.494	-200.000	-0.065	0.322
-210.479	800.000	0.056	0.185
-209.465	-200.000	-0.014	0.333
-208.450	800.000	0.102	0.383
-207.436	800.000	-0.081	0.309
-206.421	-94.489	0.241	0.066
-205.406	-108.077	0.204	-0.044
-204.392	126.516	-0.191	-0.244
-203.377	6.630	-0.412	-0.308
-202.363	-200.000	0.000	-0.258
-201.348	364.856	-0.111	-0.226
-200.333	-28.209	-0.144	-0.084
-199.319	-113.700	-0.281	0.055
-198.304	-26.940	-0.273	0.160
-197.290	-68.849	-0.166	0.064
-196.275	-200.000	-0.072	0.344
-195.260	145.442	-0.158	0.212
-194.246	131.585	0.124	-0.161
-193.231	-200.000	0.040	-0.287
-192.217	146.601	0.083	0.112
-191.202	14.734	0.084	0.066
-190.187	66.576	-0.244	-0.249
-189.173	73.582	0.213	0.224
-188.158	800.000	0.079	-0.271
-187.144	69.733	0.213	-0.220
-186.129	581.567	0.066	-0.162
-185.114	-118.438	0.216	-0.038
-184.100	150.765	-0.129	0.176
-183.085	10.807	-0.412	-0.316
-182.071	-75.714	0.173	-0.062
-181.056	-123.682	0.253	0.040
-180.042	-1.579	-0.090	0.064
-179.027	-108.915	0.239	-0.051
-178.012	-47.271	-0.170	0.083
-176.998	84.044	-0.201	-0.220
-175.983	-128.627	0.063	-0.009
-174.969	442.009	0.004	0.009
-173.954	346.920	0.046	0.092
-172.939	38.968	0.410	0.368
-171.925	-7.101	-0.174	-0.119
-170.910	-77.965	-0.225	0.078
-169.896	-108.113	-0.229	0.050
-168.881	-116.160	-0.178	-0.033
-167.866	-125.795	-0.053	0.008
-166.852	376.492	0.053	-0.109
-165.837	-27.958	-0.213	0.124
-164.823	264.424	0.127	0.221
-163.808	800.000	0.097	0.284
-162.793	-122.106	0.408	-0.067
-161.779	800.000	0.119	0.331
-160.764	48.151	-0.075	0.071
-159.750	-68.363	0.110	0.043
-158.735	74.523	0.103	-0.109
-157.720	-14.593	0.272	-0.176
-156.706	24.032	0.139	0.115
-155.691	2.893	0.178	0.130
-154.677	-67.372	-0.141	0.056
-153.662	7.534	-0.299	-0.225
-152.647	691.263	0.159	0.418
-151.633	-200.000	0.027	0.202
-150.618	150.871	0.083	-0.113
-149.604	-36.260	0.072	0.039
-148.589	-155.750	0.352	-0.023
-147.574	604.719	-0.150	-0.374
-146.560	-200.000	-0.033	0.276
-145.545	800.000	-0.081	0.270
-144.531	-120.287	-0.138	-0.024
-143.516	-200.000	0.020	0.259
-142.502	-11.947	0.146	-0.096
-141.487	-109.351	0.305	-0.065
-140.472	-200.000	0.007	-0.309
-139.458	-74.921	-0.566	0.204
-138.443	-155.529	0.228	-0.015
-137.429	800.000	0.034	0.111
-136.414	-200.000	0.044	-0.211
-135.399	-200.000	-0.070	0.398
-134.385	-39.808	-0.265	-0.139
-133.370	-132.749	0.173	-0.022
-132.356	81.362	0.211	0.229
-131.341	-95.657	0.084	-0.023
-130.326	-62.793	-0.277	0.115
-129.312	-200.000	0.014	-0.136
-128.297	-130.424	0.180	0.024
-127.283	28.387	0.147	-0.125
-126.268	-69.125	0.107	-0.041
-125.253	-92.121	-0.237	0.067
-124.239	-2.046	0.059	0.042
-123.224	4.401	0.064	-0.047
-122.210	-115.419	-0.106	-0.020
-121.195	-200.000	-0.029	0.186
-120.180	518.524	0.116	-0.272
