DTS Sentinel unit serial number:	SN413079Multiplexer serial number:	ORYXHardware model number:	OX4-SRSoftware version number:	ORYX F/W v4.00 Oryx Data Collector v3.7.2.0data status	okinstallation	princeton_trtdifferential loss correction	single-endedforward channel	channel 4reverse channel	N/Adate	2019/09/12time	06:03:10forward acquisition time	60.00reverse acquisition time	0.00gamma	496.2192k internal	0.2308k external	0.2308temperature offset calibration	1.0060default loss term (dB/km)	0.3790temperature slope calibration	1.0000multiplexer offset coefficient	1.0000multiplexer slope coefficient	1.0000fibre end	0.00T internal ref (°C)	32.11T ext. ref 1 (°C)	1.57T ext. ref 2 (°C)	27.39length (m)	temperature (°C)	Stokes	anti-Stokes-747.200	262.233	0.132	0.234
-746.185	-78.192	0.225	0.079
-745.171	800.000	-0.012	0.042
-744.156	-121.876	-0.243	0.041
-743.142	114.701	0.139	0.172
-742.127	95.276	-0.236	0.273
-741.112	56.749	0.144	0.142
-740.098	291.406	0.111	0.206
-739.083	-127.051	-0.364	0.054
-738.069	90.540	0.144	0.164
-737.054	-200.000	0.053	0.342
-736.039	800.000	0.031	-0.108
-735.025	-126.758	0.264	-0.040
-734.010	445.296	-0.122	0.272
-732.996	-200.000	-0.026	0.164
-731.981	-87.580	0.226	-0.069
-730.966	-200.000	0.017	-0.115
-729.952	2.710	-0.229	0.169
-728.937	176.888	-0.336	-0.497
-727.923	41.361	0.197	-0.181
-726.908	-200.000	0.039	-0.342
-725.894	-119.554	-0.037	-0.006
-724.879	-81.443	0.225	0.075
-723.864	-55.848	-0.056	0.026
-722.850	-57.959	0.018	-0.008
-721.835	-152.682	-0.326	0.024
-720.821	-58.478	-0.189	0.083
-719.806	88.747	0.039	-0.045
-718.791	-85.245	-0.302	-0.096
-717.777	-38.231	-0.095	-0.051
-716.762	13.811	-0.270	-0.213
-715.748	100.457	-0.135	-0.159
-714.733	-107.490	-0.208	0.046
-713.718	-128.272	-0.138	-0.020
-712.704	-10.454	0.173	0.116
-711.689	-200.000	0.041	-0.215
-710.675	262.268	-0.101	0.177
-709.660	-99.760	-0.133	-0.034
-708.645	201.564	-0.117	0.183
-707.631	800.000	0.087	-0.301
-706.616	800.000	0.036	-0.140
-705.602	5.550	0.191	-0.143
-704.587	-162.227	0.405	0.021
-703.572	-80.950	-0.107	-0.036
-702.558	198.904	-0.144	0.224
-701.543	-165.613	-0.164	-0.007
-700.529	67.801	0.039	0.041
-699.514	27.657	0.146	0.125
-698.499	206.863	0.314	-0.496
-697.485	-141.629	-0.297	-0.030
-696.470	546.441	-0.341	-0.827
-695.456	-87.893	-0.246	0.075
-694.441	-200.000	0.018	0.258
-693.426	800.000	0.028	0.086
-692.412	800.000	-0.051	-0.171
-691.397	118.352	-0.220	-0.275
-690.383	781.199	-0.169	-0.468
-689.368	-45.004	-0.027	-0.014
-688.354	-94.681	0.074	0.021
-687.339	584.096	-0.143	-0.356
-686.324	76.943	-0.223	-0.241
-685.310	800.000	-0.099	0.327
-684.295	800.000	0.034	0.135
-683.281	-100.959	0.265	-0.066
-682.266	800.000	0.095	-0.269
-681.251	-46.087	-0.203	-0.102
-680.237	-200.000	-0.028	0.287
-679.222	205.901	0.035	-0.056
-678.208	800.000	0.044	-0.166
-677.193	245.569	-0.067	0.114
-676.178	-200.000	-0.006	0.092
-675.164	189.735	0.182	0.277
-674.149	-73.275	-0.437	-0.162
-673.135	800.000	-0.139	0.414
-672.120	175.416	0.105	0.155
-671.105	123.816	-0.108	0.137
-670.091	63.664	0.357	-0.363
-669.076	-15.355	-0.202	0.131
-668.062	800.000	0.042	-0.169
-667.047	-200.000	-0.002	0.042
-666.032	-103.649	-0.182	0.043
-665.018	800.000	-0.047	0.173
-664.003	-200.000	0.006	-0.362
-662.989	254.803	-0.034	0.058
-661.974	41.653	-0.052	-0.048
-660.959	800.000	0.134	0.428
-659.945	523.016	-0.079	0.189
-658.930	-119.674	-0.123	-0.022
-657.916	-88.936	0.097	0.029
-656.901	-200.000	-0.068	-0.322
-655.886	-177.855	0.296	0.007
-654.872	800.000	0.055	0.167
-653.857	28.651	0.109	0.094
-652.843	-74.355	-0.076	0.028
-651.828	45.239	-0.218	0.203
-650.814	-200.000	0.007	-0.145
-649.799	-115.189	0.119	0.023
-648.784	331.565	0.015	-0.030
-647.770	800.000	0.013	-0.058
-646.755	-165.781	-0.222	0.010
-645.741	-46.327	-0.338	0.168
-644.726	172.529	0.179	-0.261
-643.711	-81.511	0.363	0.121
-642.697	-200.000	-0.068	0.385
-641.682	-200.000	-0.022	0.148
-640.668	621.684	-0.105	-0.268
-639.653	-118.272	-0.177	-0.032
-638.638	-127.195	-0.154	0.023
-637.624	103.734	0.091	-0.108
-636.609	-1.150	0.139	0.099
-635.595	-40.704	0.089	0.047
-634.580	-139.447	0.277	-0.030
-633.565	-160.062	-0.087	-0.005
-632.551	88.457	0.189	0.213
-631.536	-37.261	0.086	0.046
-630.522	-127.436	0.181	-0.027
-629.507	-54.524	-0.075	0.034
-628.492	-63.511	-0.257	-0.107
-627.478	-103.363	-0.250	0.060
-626.463	784.046	-0.075	-0.209
-625.449	-51.665	0.162	0.076
-624.434	-42.513	-0.037	0.019
-623.419	386.649	-0.067	0.140
-622.405	6.452	0.100	0.075
-621.390	-200.000	-0.004	0.192
-620.376	-200.000	-0.003	0.062
-619.361	-27.635	0.171	0.100
-618.346	-200.000	-0.038	0.326
-617.332	-54.613	-0.202	0.092
-616.317	-200.000	0.009	-0.317
-615.303	70.412	0.182	0.191
-614.288	800.000	0.087	0.382
-613.273	-53.463	-0.171	-0.079
-612.259	-32.640	0.024	0.013
-611.244	-86.068	0.261	0.081
-610.230	-62.396	-0.165	0.069
-609.215	-71.931	0.274	0.103
-608.201	504.417	0.106	-0.248
-607.186	-104.675	0.273	-0.064
-606.171	27.973	-0.208	0.177
-605.157	34.490	-0.078	0.069
-604.142	37.995	0.182	0.164
-603.128	-200.000	-0.014	-0.151
-602.113	640.209	-0.126	0.325
-601.098	800.000	0.123	0.368
-600.084	6.365	-0.238	0.179
-599.069	-70.850	0.230	0.088
-598.055	103.194	-0.105	0.125
-597.040	-6.976	0.096	-0.066
-596.025	-96.495	0.236	-0.063
-595.011	27.493	0.104	-0.088
-593.996	590.620	0.084	-0.209
-592.982	800.000	-0.053	0.191
-591.967	-109.530	-0.288	0.061
-590.952	-34.342	0.147	0.081
-589.938	-63.047	-0.228	0.095
-588.923	77.950	0.038	-0.041
-587.909	-200.000	0.037	0.195
-586.894	21.851	0.037	-0.030
-585.879	17.830	-0.183	-0.147
-584.865	143.663	0.071	-0.096
-583.850	50.608	-0.070	-0.067
-582.836	800.000	-0.049	-0.177
-581.821	-102.654	-0.201	0.048
-580.806	457.398	-0.095	0.212
-579.792	119.439	0.258	0.323
-578.777	-144.869	0.294	0.027
-577.763	-10.136	-0.095	-0.064
-576.748	454.762	0.010	-0.023
-575.733	99.839	-0.107	-0.125
-574.719	-200.000	-0.011	-0.263
-573.704	-6.140	-0.226	-0.156
-572.690	322.102	0.112	-0.215
-571.675	-200.000	-0.024	0.163
-570.661	158.216	0.049	0.068
-569.646	-200.000	0.020	-0.108
-568.631	691.046	0.029	-0.076
-567.617	-110.462	0.086	-0.018
-566.602	-200.000	0.056	0.314
-565.588	356.759	0.208	0.418
-564.573	-143.258	0.109	0.011
-563.558	800.000	0.042	-0.167
-562.544	-117.306	0.125	0.023
-561.529	275.195	-0.061	0.108
-560.515	61.639	-0.168	-0.169
-559.500	800.000	0.109	-0.383
-558.485	6.093	-0.110	0.083
-557.471	-200.000	-0.036	-0.450
-556.456	-98.592	0.084	-0.022
-555.442	-200.000	0.016	-0.144
-554.427	478.743	0.194	-0.442
-553.412	-96.531	-0.167	-0.044
-552.398	20.507	-0.126	-0.103
-551.383	450.485	0.095	0.212
-550.369	-134.023	-0.385	-0.048
-549.354	292.872	-0.142	-0.261
-548.339	-89.636	-0.316	0.094
-547.325	-200.000	0.069	-0.408
-546.310	375.383	0.193	-0.396
-545.296	-27.625	0.227	0.133
-544.281	800.000	-0.021	0.081
-543.266	-192.781	-0.310	0.003
-542.252	-65.763	-0.245	-0.099
-541.237	-91.210	0.273	-0.079
-540.223	-123.322	-0.099	-0.016
-539.208	513.004	-0.025	0.059
-538.193	-178.711	-0.324	0.007
-537.179	110.235	0.154	-0.187
-536.164	800.000	-0.010	-0.033
-535.150	-200.000	0.033	-0.416
-534.135	-200.000	0.026	-0.137
-533.121	82.840	0.276	0.303
-532.106	46.967	-0.201	0.189
-531.091	95.011	0.228	-0.262
-530.077	159.159	-0.086	0.121
-529.062	-200.000	0.036	-0.442
-528.048	53.245	-0.008	0.008
-527.033	117.199	0.110	0.137
-526.018	-64.073	0.050	-0.021
-525.004	35.087	0.210	0.185
-523.989	-177.028	-0.401	-0.010
-522.975	-25.440	0.190	0.113
-521.960	253.555	-0.085	0.146
-520.945	96.974	-0.176	-0.203
-519.931	561.281	0.044	-0.107
-518.916	-133.526	-0.158	0.020
-517.902	-103.723	0.322	-0.076
-516.887	-78.271	-0.105	0.037
-515.872	-122.305	0.201	0.033
-514.858	-192.463	0.256	0.002
-513.843	263.521	-0.042	0.073
-512.829	42.904	0.098	0.090
-511.814	-11.770	-0.139	-0.092
-510.799	258.808	-0.066	0.114
-509.785	-82.183	-0.078	-0.026
-508.770	-66.968	0.505	0.201
-507.756	187.530	0.106	-0.159
-506.741	-200.000	-0.049	0.517
-505.726	-200.000	0.051	-0.276
-504.712	800.000	0.014	-0.050
-503.697	-21.869	0.109	-0.067
-502.683	-31.775	-0.177	0.100
-501.668	-200.000	0.013	-0.101
-500.653	-108.460	-0.166	-0.036
-499.639	-56.378	0.201	-0.090
-498.624	800.000	0.038	-0.140
-497.610	-200.000	-0.003	0.043
-496.595	-106.410	0.305	0.069
-495.581	-160.145	-0.186	-0.010
-494.566	432.704	-0.106	-0.231
-493.551	121.753	0.179	0.225
-492.537	-57.173	0.341	-0.151
-491.522	-200.000	0.005	-0.157
-490.508	184.693	-0.052	-0.077
-489.493	-124.545	-0.471	-0.074
-488.478	172.036	-0.207	-0.300
-487.464	19.727	-0.416	-0.337
-486.449	77.734	-0.072	-0.077
-485.435	219.140	-0.117	-0.188
-484.420	-48.837	0.042	-0.020
-483.405	18.660	-0.076	0.061
-482.391	32.845	0.047	-0.041
-481.376	35.863	-0.114	0.101
-480.362	207.749	-0.124	0.194
-479.347	28.867	0.120	-0.102
-478.332	36.435	0.216	0.192
-477.318	751.627	-0.042	-0.115
-476.303	-200.000	0.004	-0.055
-475.289	64.222	-0.072	-0.073
-474.274	2.418	0.098	0.071
-473.259	-78.571	-0.014	-0.005
-472.245	-200.000	0.017	0.129
-471.230	-12.508	0.420	0.276
-470.216	285.769	0.065	0.117
-469.201	3.060	0.062	-0.045
-468.186	-142.479	0.099	0.010
-467.172	756.141	0.088	0.239
-466.157	43.666	-0.300	-0.276
-465.143	-26.946	-0.023	-0.013
-464.128	84.396	-0.065	0.071
-463.113	-86.071	-0.121	-0.038
-462.099	227.874	0.053	0.087
-461.084	-162.482	-0.159	-0.008
-460.070	34.866	-0.206	0.181
-459.055	-56.482	-0.084	-0.038
-458.040	-98.190	0.173	-0.045
-457.026	-182.960	0.136	-0.002
-456.011	-53.684	0.181	0.083
-454.997	-87.740	0.322	0.097
-453.982	800.000	-0.114	-0.335
-452.968	800.000	-0.049	-0.174
-451.953	101.351	-0.181	-0.212
-450.938	800.000	0.075	0.271
-449.924	191.519	0.069	0.105
-448.909	-200.000	-0.056	-0.262
-447.895	-11.240	0.046	-0.031
-446.880	119.283	0.181	-0.225
-445.865	-72.783	-0.084	-0.031
-444.851	-200.000	0.021	-0.263
-443.836	-15.907	-0.197	-0.126
-442.822	-30.414	-0.072	0.041
-441.807	-115.683	-0.199	-0.037
-440.792	73.491	0.192	0.202
-439.778	-89.056	-0.434	0.129
-438.763	235.109	0.121	-0.201
-437.749	-200.000	-0.014	-0.229
-436.734	-17.752	-0.169	-0.107
-435.719	81.032	0.138	-0.150
-434.705	-54.579	-0.111	0.051
-433.690	-43.780	0.274	-0.139
-432.676	-76.114	-0.228	0.081
-431.661	105.099	0.071	-0.084
-430.646	127.101	-0.233	0.297
-429.632	800.000	0.086	0.258
-428.617	-120.369	0.239	-0.041
-427.603	-108.998	0.312	0.067
-426.588	-82.376	0.342	-0.112
-425.573	-2.508	-0.310	-0.218
-424.559	800.000	-0.154	0.454
-423.544	-200.000	-0.036	-0.198
-422.530	-47.582	-0.208	0.102
-421.515	-153.502	0.381	-0.026
-420.500	-94.766	0.155	0.042
-419.486	-11.590	-0.350	0.231
-418.471	-200.000	0.020	-0.345
-417.457	-189.292	-0.185	-0.002
-416.442	-200.000	-0.005	0.150
-415.428	-162.227	0.277	-0.014
-414.413	-100.116	-0.096	0.024
-413.398	-0.475	0.166	0.118
-412.384	-87.216	-0.482	-0.147
-411.369	731.753	-0.042	0.113
-410.355	-46.436	-0.166	-0.082
-409.340	-200.000	-0.004	-0.035
-408.325	115.908	0.194	-0.238
-407.311	42.479	-0.290	-0.264
-406.296	580.772	-0.110	0.272
-405.282	800.000	-0.057	0.207
-404.267	16.060	-0.069	-0.054
-403.252	-144.298	-0.154	-0.014
-402.238	-200.000	-0.010	-0.124
-401.223	-60.354	-0.170	0.073
-400.209	-70.871	0.037	-0.014
-399.194	401.057	-0.055	0.115
-398.179	800.000	-0.051	0.220
-397.165	-200.000	0.026	-0.116
-396.150	12.137	0.337	0.260
-395.136	80.820	-0.028	0.031
-394.121	-72.915	-0.264	0.097
-393.106	777.952	-0.033	-0.090
-392.092	-200.000	-0.076	-0.419
-391.077	-23.790	-0.463	0.278
-390.063	-200.000	0.046	0.292
-389.048	78.203	-0.139	0.149
-388.033	39.306	-0.107	0.096
-387.019	587.533	-0.156	-0.386
-386.004	-14.587	0.142	-0.091
-384.990	-200.000	0.026	0.119
-383.975	800.000	-0.070	0.204
-382.960	561.545	0.142	0.345
-381.946	-57.154	-0.214	0.095
-380.931	-173.534	-0.365	0.011
-379.917	-73.260	-0.127	0.047
-378.902	5.046	-0.321	0.237
-377.888	-118.151	-0.157	0.028
-376.873	108.069	0.161	0.193
-375.858	-121.126	0.344	0.058
-374.844	-53.024	0.145	-0.067
-373.829	-105.104	0.152	0.035
-372.815	-191.485	-0.239	0.002
-371.800	-114.491	-0.030	0.006
-370.785	-161.927	0.283	-0.014
-369.771	-187.776	0.175	-0.002
-368.756	-78.063	-0.218	0.075
-367.742	24.247	-0.272	-0.225
-366.727	116.291	0.056	-0.069
-365.712	-66.108	-0.067	0.027
-364.698	-32.706	0.171	-0.095
-363.683	483.620	-0.137	0.313
-362.669	-100.313	-0.476	-0.118
-361.654	-59.976	0.250	0.107
-360.639	-63.572	-0.174	-0.072
-359.625	800.000	0.022	-0.072
-358.610	-200.000	-0.009	-0.308
-357.596	-28.492	0.110	-0.063
-356.581	-200.000	-0.007	0.337
-355.566	177.721	0.131	0.191
-354.552	-22.152	0.079	-0.048
-353.537	-58.365	-0.193	-0.084
-352.523	-56.788	0.203	0.090
-351.508	-43.658	-0.199	0.100
-350.493	35.808	0.116	-0.102
-349.479	-139.802	-0.283	-0.030
-348.464	800.000	-0.105	-0.291
-347.450	191.753	-0.241	0.363
-346.435	-133.077	0.337	0.043
-345.420	519.402	0.059	-0.137
-344.406	-165.120	-0.280	-0.012
-343.391	-112.761	0.332	0.066
-342.377	187.475	-0.060	-0.089
-341.362	-90.740	-0.083	0.024
-340.348	-112.636	-0.168	0.034
-339.333	800.000	-0.074	-0.246
-338.318	420.998	0.034	0.074
-337.304	-95.986	0.092	-0.024
-336.289	-200.000	0.026	-0.313
-335.275	11.383	-0.304	0.233
-334.260	-137.310	0.137	-0.016
-333.245	216.710	-0.127	0.202
-332.231	46.813	-0.146	0.136
-331.216	-109.232	0.560	-0.119
-330.202	75.768	0.161	0.170
-329.187	800.000	0.087	0.267
-328.172	292.078	-0.117	0.213
-327.158	595.367	0.058	0.145
-326.143	637.533	0.042	0.106
-325.129	-200.000	-0.027	-0.281
-324.114	-200.000	0.000	-0.237
-323.099	119.598	-0.177	0.219
-322.085	-90.471	0.081	0.023
-321.070	72.952	-0.273	-0.286
-320.056	70.048	0.251	0.259
-319.041	-200.000	-0.006	-0.047
-318.026	153.340	0.080	0.109
-317.012	499.842	-0.036	0.082
-315.997	-94.437	-0.486	-0.133
-314.983	-200.000	0.030	-0.214
-313.968	114.797	0.263	0.321
-312.953	142.525	-0.133	0.177
-311.939	-9.348	0.172	0.115
-310.924	542.751	-0.017	0.041
-309.910	-200.000	0.010	-0.098
-308.895	16.674	-0.138	0.109
-307.880	661.161	-0.067	-0.172
-306.866	14.559	-0.092	-0.072
-305.851	19.178	-0.211	0.169
-304.837	-92.815	-0.173	-0.048
-303.822	-97.349	-0.268	-0.070
-302.807	189.894	0.158	-0.236
-301.793	-200.000	0.044	-0.257
-300.778	647.075	-0.081	0.207
-299.764	800.000	0.037	0.109
-298.749	800.000	-0.093	0.310
-297.735	-150.786	0.077	0.006
-296.720	-63.582	0.202	-0.083
-295.705	-200.000	-0.012	0.132
-294.691	-200.000	-0.038	-0.266
-293.676	800.000	0.093	-0.286
-292.662	-15.611	-0.120	0.076
-291.647	-200.000	-0.104	-0.592
-290.632	-200.000	0.003	-0.206
-289.618	-71.204	-0.184	0.069
-288.603	-89.414	-0.104	0.030
-287.589	-80.412	0.132	-0.044
-286.574	-109.426	-0.231	0.049
-285.559	-200.000	0.030	-0.225
-284.545	800.000	-0.060	-0.176
-283.530	-200.000	-0.004	0.059
-282.516	405.195	0.217	0.456
-281.501	-139.400	-0.291	0.031
-280.486	15.425	-0.214	-0.167
-279.472	-42.918	0.112	-0.057
-278.457	-80.173	-0.217	0.072
-277.443	-86.787	0.097	0.030
-276.428	-84.195	-0.123	0.039
-275.413	800.000	-0.101	0.321
-274.399	-84.065	-0.206	-0.065
-273.384	-144.346	-0.310	0.029
-272.370	800.000	-0.031	0.110
-271.355	270.016	-0.139	0.243
-270.340	800.000	-0.148	-0.426
-269.326	508.945	-0.071	-0.163
-268.311	366.307	0.139	0.279
-267.297	-144.606	0.220	-0.020
-266.282	159.573	0.244	-0.338
-265.267	-17.823	-0.116	0.073
-264.253	83.528	-0.049	-0.054
-263.238	-200.000	0.040	0.293
-262.224	307.145	-0.073	0.135
-261.209	150.239	0.086	0.116
-260.195	-58.975	-0.224	-0.097
-259.180	800.000	0.131	-0.410
-258.165	-39.953	0.277	0.144
-257.151	-58.654	0.190	-0.082
-256.136	165.602	-0.254	-0.358
-255.122	800.000	0.028	-0.088
-254.107	758.986	-0.086	0.233
-253.092	-103.765	-0.254	0.059
-252.078	-93.687	0.404	-0.111
-251.063	-200.000	0.061	0.283
-250.049	148.046	0.302	0.407
-249.034	-200.000	0.080	-0.518
-248.019	-200.000	-0.011	-0.264
-247.005	-43.688	0.272	0.137
-245.990	76.683	-0.209	-0.221
-244.976	634.753	0.021	0.052
-243.961	-79.952	0.568	0.190
-242.946	457.318	0.058	-0.127
-241.932	88.462	-0.116	-0.129
-240.917	-189.096	-0.364	0.004
-239.903	215.210	-0.101	0.159
-238.888	213.925	0.078	-0.123
-237.873	77.407	0.042	-0.044
-236.859	778.957	0.073	-0.200
-235.844	-183.057	0.113	-0.002
-234.830	467.524	-0.062	-0.139
-233.815	620.055	-0.131	-0.327
-232.800	-154.088	0.139	0.009
-231.786	-53.201	0.152	0.070
-230.771	-200.000	-0.021	0.102
-229.757	-200.000	0.009	-0.206
-228.742	-59.723	-0.120	-0.051
-227.727	-73.439	0.069	-0.025
-226.713	-157.341	0.364	-0.022
-225.698	-51.621	-0.349	-0.162
-224.684	782.301	0.064	-0.175
-223.669	-42.582	-0.138	-0.070
-222.655	800.000	0.072	0.223
-221.640	-200.000	-0.030	0.281
-220.625	138.478	0.159	0.208
-219.611	-90.063	-0.128	-0.037
-218.596	351.404	-0.262	-0.517
-217.582	613.482	0.140	-0.349
-216.567	-68.894	0.139	0.053
-215.552	78.716	-0.137	-0.146
-214.538	202.477	-0.372	0.571
-213.523	-15.611	0.132	-0.084
-212.509	-107.286	-0.333	0.073
-211.494	326.949	-0.092	0.176
-210.479	-200.000	0.030	0.232
-209.465	316.655	0.197	-0.370
-208.450	-165.867	0.289	0.012
-207.436	-37.960	0.163	0.086
-206.421	-2.607	0.138	0.096
-205.406	12.154	0.093	0.071
-204.392	146.687	0.126	0.169
-203.377	9.866	0.338	-0.255
-202.363	-130.322	0.071	-0.010
-201.348	695.197	-0.022	0.059
-200.333	800.000	0.115	0.369
-199.319	-22.937	0.237	-0.142
-198.304	800.000	-0.126	0.412
-197.290	148.983	0.176	-0.237
-196.275	-44.705	0.242	-0.120
-195.260	195.120	0.050	0.075
-194.246	45.320	-0.241	0.221
-193.231	-129.344	0.051	0.007
-192.217	-200.000	-0.020	0.280
-191.202	253.217	0.200	0.339
-190.187	800.000	0.054	0.155
-189.173	-144.768	0.176	-0.016
-188.158	-26.893	0.367	-0.213
-187.144	26.799	-0.054	0.045
-186.129	-83.466	0.287	-0.091
-185.114	-200.000	0.007	0.080
-184.100	361.316	-0.115	0.229
-183.085	55.831	0.104	0.100
-182.071	-164.079	0.451	0.021
-181.056	-200.000	0.023	0.152
-180.042	-67.526	-0.102	0.040
-179.027	-189.237	0.270	-0.003
-178.012	38.944	-0.244	-0.217
-176.998	-26.190	0.163	0.095
-175.983	-200.000	0.003	-0.045
-174.969	800.000	-0.072	0.290
-173.954	-107.012	0.484	-0.106
-172.939	800.000	-0.092	-0.281
-171.925	-54.206	-0.055	-0.025
-170.910	-63.436	0.066	0.027
-169.896	616.073	0.139	-0.347
-168.881	240.730	0.176	-0.292
-167.866	800.000	0.031	0.097
-166.852	-80.885	-0.173	0.057
-165.837	-200.000	-0.034	-0.204
-164.823	506.389	-0.033	0.075
-163.808	-5.837	0.116	0.079
-162.793	548.506	-0.026	0.062
-161.779	-51.957	-0.222	-0.103
-160.764	-200.000	-0.010	0.221
-159.750	97.824	0.100	-0.115
-158.735	-82.253	-0.065	-0.021
-157.720	258.624	0.051	-0.087
-156.706	561.081	-0.032	-0.076
-155.691	800.000	-0.064	-0.186
-154.677	92.861	0.145	-0.162
-153.662	-200.000	-0.019	0.136
-152.647	152.037	0.234	0.316
-151.633	-30.908	-0.085	0.047
-150.618	-200.000	-0.005	-0.087
-149.604	-12.001	0.023	-0.015
-148.589	-57.527	-0.042	-0.018
-147.574	-157.772	0.144	0.008
-146.560	-200.000	0.001	-0.030
-145.545	-187.275	-0.284	-0.004
-144.531	-82.642	0.085	0.027
-143.516	800.000	0.003	0.010
-142.502	-95.210	0.204	0.054
-141.487	125.456	0.075	-0.094
-140.472	-200.000	-0.019	0.091
-139.458	212.105	0.072	0.113
-138.443	1.889	-0.102	-0.073
-137.429	-33.363	0.282	0.155
-136.414	541.351	0.086	-0.204
-135.399	-42.751	0.207	0.104
-134.385	-90.520	0.108	-0.031
-133.370	-200.000	-0.047	-0.336
-132.356	14.445	0.183	0.142
-131.341	21.870	-0.283	0.229
-130.326	380.985	0.123	-0.251
-129.312	158.555	-0.080	0.111
-128.297	-51.052	0.141	-0.066
-127.283	89.773	0.041	-0.045
-126.268	-200.000	0.007	0.253
-125.253	-74.305	0.414	0.148
-124.239	-200.000	0.028	0.217
-123.224	-102.363	0.252	-0.060
-122.210	-142.939	-0.200	0.019
-121.195	474.976	-0.157	0.352
