DTS Sentinel unit serial number:	SN413079Multiplexer serial number:	ORYXHardware model number:	OX4-SRSoftware version number:	ORYX F/W v4.00 Oryx Data Collector v3.7.2.0data status	okinstallation	princeton_trtdifferential loss correction	single-endedforward channel	channel 4reverse channel	N/Adate	2019/09/11time	06:39:11forward acquisition time	60.00reverse acquisition time	0.00gamma	496.2192k internal	0.2315k external	0.2315temperature offset calibration	0.9946default loss term (dB/km)	0.3790temperature slope calibration	1.0000multiplexer offset coefficient	1.0000multiplexer slope coefficient	1.0000fibre end	0.00T internal ref (°C)	29.73T ext. ref 1 (°C)	-0.16T ext. ref 2 (°C)	24.65length (m)	temperature (°C)	Stokes	anti-Stokes-747.200	-200.000	-0.002	0.016
-746.185	-37.732	-0.356	0.192
-745.171	-74.884	-0.181	0.066
-744.156	166.917	0.107	0.153
-743.142	800.000	0.070	-0.217
-742.127	-200.000	0.007	-0.051
-741.112	-66.654	-0.278	-0.112
-740.098	57.871	-0.128	0.127
-739.083	78.778	0.155	0.168
-738.069	560.370	-0.065	0.158
-737.054	-72.135	0.259	0.097
-736.039	800.000	-0.064	0.274
-735.025	-137.293	0.367	-0.042
-734.010	-77.005	-0.490	0.173
-732.996	257.933	-0.234	0.408
-731.981	-200.000	0.010	-0.124
-730.966	-94.156	-0.174	0.048
-729.952	-43.262	0.080	-0.041
-728.937	-200.000	-0.012	-0.187
-727.923	-71.180	0.591	0.225
-726.908	-133.689	-0.169	-0.021
-725.894	-52.388	0.212	-0.100
-724.879	-200.000	-0.002	0.221
-723.864	-100.996	-0.263	0.065
-722.850	122.031	-0.088	0.112
-721.835	-61.901	-0.172	-0.073
-720.821	665.679	-0.155	-0.406
-719.806	800.000	-0.052	-0.194
-718.791	-0.812	-0.097	-0.070
-717.777	-136.021	0.220	-0.026
-716.762	-103.822	0.119	-0.028
-715.748	-200.000	-0.021	0.239
-714.733	-200.000	-0.034	0.211
-713.718	349.955	-0.086	0.172
-712.704	231.930	-0.230	0.382
-711.689	82.127	0.175	-0.192
-710.675	-200.000	-0.006	-0.050
-709.660	-27.363	-0.106	0.062
-708.645	-28.712	-0.274	-0.159
-707.631	458.059	0.056	0.127
-706.616	-34.617	0.152	0.084
-705.602	259.991	-0.075	0.132
-704.587	-77.342	-0.389	0.137
-703.572	800.000	-0.063	-0.280
-702.558	-10.417	0.151	-0.101
-701.543	-157.304	0.224	0.014
-700.529	800.000	-0.021	0.065
-699.514	-128.218	-0.155	0.022
-698.499	-28.920	0.353	-0.205
-697.485	33.035	-0.158	-0.138
-696.470	157.508	-0.129	0.181
-695.456	-18.775	-0.264	-0.166
-694.441	-110.869	0.078	-0.016
-693.426	-81.239	-0.069	0.023
-692.412	574.624	-0.128	-0.315
-691.397	-200.000	-0.006	-0.055
-690.383	-118.449	0.085	0.015
-689.368	380.834	-0.072	0.148
-688.354	-127.367	-0.137	-0.020
-687.339	-108.904	-0.280	0.060
-686.324	36.333	0.404	-0.360
-685.310	-26.841	-0.273	-0.161
-684.295	-59.768	0.092	0.040
-683.281	-69.501	-0.153	-0.059
-682.266	-86.465	-0.167	-0.052
-681.251	-19.994	0.331	0.207
-680.237	342.012	-0.116	0.229
-679.222	-114.504	0.210	-0.041
-678.208	-143.460	-0.120	-0.012
-677.193	-82.444	-0.120	-0.039
-676.178	800.000	-0.074	0.213
-675.164	-200.000	-0.014	0.108
-674.149	-200.000	-0.051	-0.298
-673.135	-109.650	0.163	-0.035
-672.120	-84.434	0.400	-0.128
-671.105	-25.296	-0.254	0.152
-670.091	800.000	0.100	-0.286
-669.076	365.386	-0.121	-0.247
-668.062	-9.771	-0.130	-0.088
-667.047	-60.011	-0.123	-0.053
-666.032	-58.045	-0.189	-0.083
-665.018	-200.000	0.006	-0.044
-664.003	-52.624	0.160	-0.075
-662.989	-181.713	0.240	-0.005
-661.974	68.183	0.073	0.075
-660.959	-107.476	-0.168	-0.037
-659.945	33.865	0.234	-0.206
-658.930	235.163	0.204	0.340
-657.916	-124.151	0.107	-0.017
-656.901	-29.132	-0.393	0.228
-655.886	800.000	-0.090	0.297
-654.872	102.950	0.067	0.080
-653.857	-200.000	0.031	-0.158
-652.843	800.000	-0.109	0.318
-651.828	-34.082	0.092	0.051
-650.814	-200.000	-0.004	-0.077
-649.799	173.035	0.165	-0.240
-648.784	127.041	-0.081	0.104
-647.770	-5.804	0.268	0.185
-646.755	113.838	0.173	-0.212
-645.741	112.838	0.085	-0.104
-644.726	-200.000	-0.003	-0.333
-643.711	-86.257	-0.179	0.056
-642.697	81.310	-0.116	0.126
-641.682	266.103	-0.132	0.233
-640.668	-200.000	0.027	0.340
-639.653	-145.562	-0.283	0.026
-638.638	-183.088	-0.211	0.004
-637.624	55.917	0.241	0.236
-636.609	54.420	0.058	-0.056
-635.595	165.805	-0.121	-0.173
-634.580	415.572	0.102	0.219
-633.565	369.701	0.159	-0.325
-632.551	4.004	-0.237	-0.175
-631.536	-200.000	-0.015	-0.206
-630.522	-28.898	0.147	0.085
-629.507	65.810	0.088	-0.090
-628.492	54.443	0.190	-0.185
-627.478	-54.804	0.239	-0.109
-626.463	-200.000	0.052	-0.461
-625.449	355.984	0.131	-0.262
-624.434	103.693	-0.068	0.081
-623.419	45.728	-0.384	-0.358
-622.405	217.572	-0.065	-0.105
-621.390	238.553	-0.181	-0.304
-620.376	509.086	0.125	-0.292
-619.361	214.265	-0.218	-0.349
-618.346	191.507	0.234	0.355
-617.332	82.787	0.200	0.219
-616.317	59.684	-0.093	0.093
-615.303	-200.000	-0.011	-0.114
-614.288	165.329	0.206	-0.293
-613.273	-200.000	0.007	0.053
-612.259	-61.325	-0.293	-0.124
-611.244	-113.754	-0.131	0.026
-610.230	-174.553	-0.250	-0.007
-609.215	-14.455	0.068	0.044
-608.201	800.000	-0.063	0.244
-607.186	229.500	-0.081	0.134
-606.171	-137.115	-0.357	0.041
-605.157	-160.448	0.240	0.013
-604.142	27.147	-0.140	-0.118
-603.128	86.889	-0.072	-0.080
-602.113	562.300	0.199	0.484
-601.098	-49.276	-0.142	0.068
-600.084	-73.347	-0.091	0.034
-599.069	-168.950	0.372	0.014
-598.055	35.488	-0.157	-0.139
-597.040	-200.000	-0.088	-0.396
-596.025	-97.732	-0.294	0.077
-595.011	455.142	-0.034	-0.075
-593.996	10.110	0.407	-0.312
-592.982	-76.095	-0.164	-0.058
-591.967	69.065	0.080	0.083
-590.952	-104.867	-0.282	-0.065
-589.938	293.729	-0.060	-0.110
-588.923	33.718	-0.161	-0.141
-587.909	-60.979	0.316	-0.134
-586.894	79.818	-0.313	0.339
-585.879	-200.000	-0.016	0.131
-584.865	-35.320	-0.148	-0.081
-583.850	509.358	0.132	0.309
-582.836	98.880	-0.272	0.316
-581.821	-110.437	0.171	-0.036
-580.806	-82.960	-0.221	-0.072
-579.792	-200.000	0.002	-0.342
-578.777	800.000	0.057	0.249
-577.763	-53.562	0.256	-0.118
-576.748	-99.114	-0.462	-0.118
-575.733	-200.000	-0.022	0.390
-574.719	-137.768	0.158	0.018
-573.704	243.520	-0.164	-0.277
-572.690	26.050	0.128	-0.108
-571.675	800.000	-0.055	-0.184
-570.661	-110.878	0.248	-0.051
-569.646	-174.712	-0.112	-0.003
-568.631	-33.655	-0.199	0.111
-567.617	124.525	-0.140	-0.177
-566.602	800.000	-0.028	-0.079
-565.588	-1.855	0.087	0.061
-564.573	576.652	0.080	0.196
-563.558	-49.750	-0.153	-0.073
-562.544	125.883	-0.270	-0.344
-561.529	800.000	-0.045	-0.166
-560.515	-37.507	-0.198	0.106
-559.500	-81.276	0.148	0.049
-558.485	-77.807	-0.058	0.020
-557.471	764.255	0.107	0.292
-556.456	-13.176	0.165	0.108
-555.442	17.992	0.082	-0.066
-554.427	6.716	0.108	-0.081
-553.412	-161.706	-0.134	-0.007
-552.398	-117.826	0.476	-0.086
-551.383	800.000	-0.047	-0.151
-550.369	-140.575	0.183	0.019
-549.354	-71.043	0.321	-0.121
-548.339	47.372	0.284	-0.266
-547.325	-200.000	0.022	0.273
-546.310	-200.000	0.024	-0.289
-545.296	-200.000	-0.087	-0.464
-544.281	800.000	0.094	-0.286
-543.266	-200.000	-0.100	0.487
-542.252	-200.000	-0.021	-0.437
-541.237	-200.000	0.039	-0.203
-540.223	-62.839	0.075	0.031
-539.208	29.394	-0.193	0.165
-538.193	-200.000	-0.019	-0.192
-537.179	-154.950	0.140	0.009
-536.164	800.000	-0.060	-0.211
-535.150	-135.512	-0.378	-0.045
-534.135	-17.976	-0.126	-0.079
-533.121	-95.197	-0.132	0.036
-532.106	800.000	-0.040	-0.133
-531.091	-200.000	-0.038	-0.228
-530.077	-163.350	0.128	-0.006
-529.062	427.526	0.107	-0.232
-528.048	434.786	-0.089	-0.194
-527.033	159.466	0.099	-0.138
-526.018	-200.000	0.004	-0.077
-525.004	-114.711	-0.317	0.061
-523.989	71.628	-0.155	-0.162
-522.975	-134.043	-0.098	0.012
-521.960	296.757	-0.127	0.235
-520.945	-66.710	0.344	-0.137
-519.931	299.578	-0.125	-0.232
-518.916	-200.000	0.007	0.115
-517.902	-2.075	-0.102	0.072
-516.887	115.065	-0.260	-0.319
-515.872	-200.000	0.030	0.219
-514.858	-200.000	0.011	0.098
-513.843	-117.789	-0.282	0.051
-512.829	-200.000	-0.006	-0.147
-511.814	-81.597	0.424	0.140
-510.799	-114.636	-0.328	0.063
-509.785	184.233	-0.080	-0.120
-508.770	-27.747	0.116	-0.068
-507.756	-200.000	0.009	-0.047
-506.741	16.955	0.117	-0.093
-505.726	148.893	0.101	0.137
-504.712	80.725	0.192	0.208
-503.697	-146.351	0.293	0.026
-502.683	-134.800	0.194	0.024
-501.668	138.295	-0.169	-0.223
-500.653	-200.000	0.007	-0.046
-499.639	31.156	-0.178	-0.154
-498.624	-61.099	-0.097	-0.041
-497.610	237.107	0.114	0.189
-496.595	158.881	-0.321	-0.447
-495.581	112.789	0.022	0.027
-494.566	-59.264	-0.196	-0.085
-493.551	-200.000	-0.007	0.137
-492.537	-63.933	-0.135	0.056
-491.522	165.223	-0.067	0.095
-490.508	-16.313	0.137	0.087
-489.493	106.865	-0.099	0.119
-488.478	-144.918	0.051	-0.005
-487.464	-200.000	0.032	0.234
-486.449	-154.684	0.117	0.008
-485.435	170.181	0.173	-0.248
-484.420	-136.783	-0.148	-0.017
-483.405	24.731	0.114	0.095
-482.391	443.546	-0.116	0.255
-481.376	-200.000	0.005	0.098
-480.362	-29.462	0.123	-0.071
-479.347	-75.463	0.330	-0.118
-478.332	286.250	-0.066	-0.120
-477.318	537.438	-0.034	-0.082
-476.303	-108.271	-0.253	-0.055
-475.289	-9.803	-0.220	0.147
-474.274	204.851	0.307	0.478
-473.259	313.667	0.176	0.332
-472.245	123.443	0.086	-0.108
-471.230	323.035	-0.207	0.396
-470.216	-4.406	0.405	0.281
-469.201	800.000	0.171	-0.489
-468.186	218.041	0.322	0.514
-467.172	-200.000	0.067	0.314
-466.157	-85.825	0.281	0.087
-465.143	240.299	-0.153	0.256
-464.128	139.012	-0.048	-0.063
-463.113	330.978	-0.110	0.213
-462.099	118.177	0.163	0.201
-461.084	40.582	0.318	-0.287
-460.070	-200.000	0.010	0.077
-459.055	-200.000	-0.015	-0.103
-458.040	-200.000	-0.004	-0.044
-457.026	-71.789	0.102	-0.038
-456.011	-147.136	0.223	0.019
-454.997	800.000	0.010	-0.040
-453.982	-200.000	0.023	0.252
-452.968	-147.416	-0.292	-0.025
-451.953	-86.260	0.200	0.062
-450.938	105.432	0.042	-0.050
-449.924	216.256	-0.248	-0.395
-448.909	193.899	-0.051	0.077
-447.895	-200.000	-0.025	-0.210
-446.880	617.833	-0.022	-0.056
-445.865	-200.000	0.041	0.209
-444.851	347.883	-0.073	0.144
-443.836	-200.000	-0.007	-0.269
-442.822	-75.390	-0.336	0.120
-441.807	-119.236	0.243	-0.042
-440.792	-134.557	0.316	0.039
-439.778	-200.000	0.201	0.001
-438.763	-200.000	-0.027	0.219
-437.749	664.653	-0.043	0.112
-436.734	-75.981	0.147	-0.052
-435.719	800.000	-0.014	-0.046
-434.705	-58.262	-0.236	0.103
-433.690	-74.289	-0.248	0.090
-432.676	-200.000	-0.001	-0.357
-431.661	-107.656	-0.132	-0.029
-430.646	-200.000	0.013	0.220
-429.632	-131.792	0.236	0.031
-428.617	265.156	0.172	-0.299
-427.603	-80.275	-0.063	0.021
-426.588	-200.000	-0.031	0.210
-425.573	128.248	-0.088	0.112
-424.559	-41.213	0.163	-0.084
-423.544	800.000	-0.054	0.151
-422.530	-103.827	0.086	0.020
-421.515	-13.397	-0.222	0.144
-420.500	-119.043	-0.055	0.010
-419.486	-159.946	-0.248	-0.014
-418.471	-66.208	0.392	-0.156
-417.457	-9.579	0.145	-0.097
-416.442	800.000	-0.066	-0.219
-415.428	-200.000	0.012	-0.385
-414.413	141.789	-0.199	0.263
-413.398	-16.894	0.233	-0.147
-412.384	13.599	-0.104	0.081
-411.369	-85.874	0.151	0.047
-410.355	-78.015	0.035	-0.012
-409.340	-200.000	-0.044	0.353
-408.325	-200.000	0.013	-0.078
-407.311	-61.876	-0.104	0.044
-406.296	-56.324	0.041	0.018
-405.282	71.184	0.132	-0.137
-404.267	44.964	-0.202	0.186
-403.252	69.239	-0.108	0.111
-402.238	74.588	0.262	-0.275
-401.223	31.998	-0.192	-0.166
-400.209	50.268	0.176	-0.166
-399.194	800.000	0.061	-0.196
-398.179	-32.465	0.358	-0.200
-397.165	132.049	-0.153	-0.197
-396.150	131.807	-0.254	-0.327
-395.136	163.164	-0.122	-0.172
-394.121	-158.277	0.217	-0.013
-393.106	-200.000	-0.060	-0.592
-392.092	27.716	-0.117	0.098
-391.077	-200.000	-0.064	-0.472
-390.063	782.750	0.085	-0.234
-389.048	-0.269	-0.249	-0.177
-388.033	-200.000	0.007	0.112
-387.019	-0.118	0.201	-0.143
-386.004	303.318	-0.126	-0.233
-384.990	-5.709	-0.118	0.081
-383.975	-200.000	0.007	0.255
-382.960	-88.036	0.377	-0.113
-381.946	-21.090	0.215	0.132
-380.931	142.639	0.150	-0.200
-379.917	800.000	-0.104	-0.319
-378.902	527.452	-0.082	-0.194
-377.888	-17.575	-0.175	0.110
-376.873	-200.000	0.018	-0.085
-375.858	164.671	-0.042	-0.059
-374.844	-113.920	0.217	-0.042
-373.829	-28.283	-0.050	0.029
-372.815	-160.254	-0.229	0.012
-371.800	-38.859	-0.119	-0.063
-370.785	47.935	-0.220	0.205
-369.771	-200.000	-0.024	0.146
-368.756	-62.683	0.098	-0.041
-367.742	-150.873	0.305	0.023
-366.727	119.618	-0.164	-0.203
-365.712	143.912	-0.237	-0.316
-364.698	50.303	-0.253	0.238
-363.683	67.216	-0.126	0.128
-362.669	82.231	0.145	-0.157
-361.654	106.879	-0.112	0.133
-360.639	-12.544	0.169	0.110
-359.625	-150.418	0.244	-0.019
-358.610	-200.000	0.003	-0.059
-357.596	-108.835	0.103	0.022
-356.581	-90.040	-0.199	-0.058
-355.566	-172.927	-0.251	-0.008
-354.552	-200.000	-0.030	-0.140
-353.537	-33.538	0.072	-0.040
-352.523	158.429	-0.002	-0.003
-351.508	-7.742	0.262	-0.177
-350.493	-200.000	0.013	-0.074
-349.479	-200.000	-0.039	0.382
-348.464	103.782	0.143	-0.168
-347.450	-200.000	-0.017	0.144
-346.435	23.740	0.154	-0.127
-345.420	-34.105	-0.072	0.040
-344.406	631.679	-0.002	0.006
-343.391	238.787	-0.188	-0.313
-342.377	-171.530	0.208	0.007
-341.362	-49.481	0.035	0.016
-340.348	-51.665	0.260	-0.121
-339.333	-159.814	0.051	0.003
-338.318	-200.000	0.006	0.140
-337.304	-137.548	-0.122	-0.014
-336.289	-80.141	-0.049	-0.017
-335.275	-89.339	-0.165	0.049
-334.260	533.911	0.210	0.497
-333.245	138.418	0.075	-0.098
-332.231	800.000	0.109	0.424
-331.216	-200.000	-0.012	0.120
-330.202	32.572	0.164	0.142
-329.187	-200.000	0.001	0.214
-328.172	-128.538	-0.112	0.016
-327.158	-83.016	-0.211	0.068
-326.143	560.639	-0.044	0.105
-325.129	10.197	-0.122	0.093
-324.114	-60.037	0.339	0.144
-323.099	-177.482	-0.283	0.007
-322.085	-200.000	-0.006	-0.135
-321.070	-108.065	-0.163	-0.035
-320.056	34.896	0.102	0.089
-319.041	108.121	-0.187	0.222
-318.026	800.000	-0.106	0.307
-317.012	-42.816	0.191	-0.097
-315.997	246.064	0.076	-0.128
-314.983	13.729	-0.186	-0.144
-313.968	65.746	-0.163	0.164
-312.953	-123.776	0.266	-0.042
-311.939	-37.338	0.200	0.107
-310.924	353.443	0.015	-0.030
-309.910	-200.000	0.019	0.083
-308.895	74.938	-0.199	0.209
-307.880	722.061	-0.078	0.207
-306.866	-97.694	-0.110	-0.028
-305.851	-200.000	0.023	-0.170
-304.837	-101.429	-0.256	0.062
-303.822	-200.000	0.020	-0.095
-302.807	596.117	-0.059	0.145
-301.793	-12.553	0.123	-0.080
-300.778	-78.963	-0.244	0.083
-299.764	385.507	-0.033	-0.068
-298.749	346.972	-0.061	-0.119
-297.735	-15.474	-0.309	-0.196
-296.720	-200.000	-0.019	0.226
-295.705	39.835	0.148	0.132
-294.691	157.253	-0.023	0.031
-293.676	3.206	0.089	-0.064
-292.662	-97.505	-0.216	-0.056
-291.647	-45.151	-0.172	-0.085
-290.632	14.329	0.133	0.104
-289.618	-50.993	-0.370	0.173
-288.603	450.569	0.146	0.321
-287.589	-171.447	-0.141	-0.005
-286.574	-46.059	-0.076	-0.037
-285.559	18.771	-0.080	-0.064
-284.545	64.956	-0.070	0.070
-283.530	442.167	0.077	0.167
-282.516	-185.197	0.141	0.002
-281.501	80.310	-0.162	-0.173
-280.486	751.448	-0.144	0.387
-279.472	-47.324	-0.395	0.191
-278.457	45.159	0.063	0.058
-277.443	146.381	0.052	0.070
-276.428	-34.727	0.249	-0.135
-275.413	21.744	0.167	0.136
-274.399	-134.117	-0.181	0.022
-273.384	-128.059	0.165	-0.023
-272.370	800.000	-0.070	-0.264
-271.355	81.505	-0.150	0.161
-270.340	-200.000	-0.052	0.262
-269.326	-81.040	0.134	0.044
-268.311	57.426	0.159	-0.155
-267.297	-65.194	-0.133	0.053
-266.282	109.466	0.195	0.232
-265.267	-200.000	0.061	0.288
-264.253	-66.807	-0.287	0.113
-263.238	32.018	-0.097	-0.083
-262.224	-131.624	0.082	0.011
-261.209	40.520	-0.117	0.105
-260.195	-95.176	-0.225	-0.060
-259.180	-200.000	-0.244	-0.000
-258.165	-117.560	0.283	0.051
-257.151	800.000	0.093	-0.319
-256.136	-146.371	-0.347	0.030
-255.122	-44.689	-0.160	-0.079
-254.107	305.328	0.061	-0.112
-253.092	21.484	0.274	-0.222
-252.078	69.063	0.108	0.110
-251.063	-109.567	-0.091	0.019
-250.049	231.066	0.120	0.196
-249.034	76.226	0.082	0.086
-248.019	-159.595	-0.126	0.007
-247.005	-36.785	0.237	0.126
-245.990	-174.142	0.457	-0.013
-244.976	800.000	0.054	0.191
-243.961	28.507	0.102	-0.086
-242.946	477.010	0.033	0.075
-241.932	-69.050	-0.152	0.058
-240.917	98.502	-0.188	-0.215
-239.903	22.993	0.056	-0.045
-238.888	-90.499	-0.220	0.063
-237.873	148.279	0.055	-0.073
-236.859	-200.000	0.004	0.204
-235.844	313.029	0.185	0.346
-234.830	-200.000	-0.006	0.281
-233.815	800.000	0.071	0.203
-232.800	-33.479	0.191	0.105
-231.786	-155.788	0.146	0.009
-230.771	211.555	0.138	0.216
-229.757	-35.900	0.043	-0.023
-228.742	-73.373	0.072	0.026
-227.727	-94.436	0.359	-0.097
-226.713	-114.016	-0.246	0.047
-225.698	-151.640	0.257	-0.019
-224.684	236.344	0.158	-0.260
-223.669	-74.087	0.178	-0.064
-222.655	-200.000	0.037	-0.212
-221.640	162.657	-0.155	0.217
-220.625	-200.000	-0.011	-0.081
-219.611	-166.617	0.240	0.010
-218.596	102.212	0.090	-0.104
-217.582	800.000	-0.086	0.296
-216.567	63.673	0.143	0.142
-215.552	-143.877	0.186	-0.017
-214.538	-78.167	0.068	0.023
-213.523	451.630	-0.099	0.217
-212.509	55.231	-0.152	-0.146
-211.494	335.400	-0.098	-0.189
-210.479	144.449	0.181	0.240
-209.465	-120.399	0.037	0.006
-208.450	-160.220	-0.208	0.011
-207.436	-42.596	-0.225	-0.114
-206.421	-79.251	-0.474	-0.159
-205.406	-200.000	-0.007	-0.199
-204.392	-34.440	0.241	0.131
-203.377	800.000	0.081	0.343
-202.363	-200.000	0.016	0.098
-201.348	151.176	0.246	0.333
-200.333	-200.000	-0.064	0.461
-199.319	-163.727	0.370	-0.017
-198.304	-116.277	-0.154	-0.028
-197.290	800.000	0.061	-0.235
-196.275	800.000	0.071	0.301
-195.260	-200.000	-0.040	0.330
-194.246	-79.032	-0.288	0.097
-193.231	-20.981	0.048	0.029
-192.217	184.864	-0.125	0.183
-191.202	-94.425	-0.108	-0.029
-190.187	-200.000	-0.009	0.167
-189.173	-138.058	-0.097	-0.011
-188.158	30.116	0.128	-0.108
-187.144	154.886	0.127	-0.173
-186.129	-169.232	-0.192	-0.007
-185.114	800.000	0.034	-0.116
-184.100	255.487	0.167	0.283
-183.085	22.478	0.324	0.263
-182.071	-200.000	0.037	-0.236
-181.056	800.000	0.144	0.509
-180.042	116.239	0.077	0.094
-179.027	74.293	0.131	-0.136
-178.012	-200.000	0.021	0.116
-176.998	-200.000	0.016	0.241
-175.983	-140.670	0.232	-0.024
-174.969	-200.000	0.028	-0.410
-173.954	161.375	-0.049	0.069
-172.939	-55.077	0.163	-0.073
-171.925	-200.000	0.003	-0.058
-170.910	-131.159	-0.307	-0.041
-169.896	-6.941	0.073	-0.049
-168.881	-5.351	-0.094	0.064
-167.866	10.331	0.193	-0.146
-166.852	37.407	-0.132	0.116
-165.837	159.241	-0.111	0.152
-164.823	77.027	-0.185	0.195
-163.808	-22.258	-0.149	0.089
-162.793	-80.962	-0.367	-0.120
-161.779	366.461	-0.067	-0.133
-160.764	-37.273	-0.141	0.075
-159.750	-22.610	0.130	-0.078
-158.735	-165.161	0.266	0.012
-157.720	-26.543	-0.225	0.130
-156.706	-69.335	0.032	-0.012
-155.691	-200.000	0.054	-0.327
-154.677	800.000	0.047	-0.140
-153.662	800.000	-0.107	0.404
-152.647	-200.000	0.035	-0.194
-151.633	85.001	0.180	-0.196
-150.618	-160.436	0.124	-0.007
-149.604	32.698	-0.238	0.204
-148.589	-106.262	0.147	0.033
-147.574	106.853	-0.169	0.198
-146.560	256.116	0.020	0.034
-145.545	800.000	0.033	-0.098
-144.531	-133.879	-0.145	0.018
-143.516	284.977	-0.023	-0.041
-142.502	81.248	-0.144	0.154
-141.487	26.338	-0.087	0.072
-140.472	-120.018	0.208	0.035
-139.458	-200.000	0.030	0.278
-138.443	800.000	-0.052	-0.170
-137.429	800.000	0.081	-0.250
-136.414	111.332	0.027	0.032
-135.399	-67.247	-0.222	0.087
-134.385	-200.000	0.088	-0.389
-133.370	-42.387	-0.231	-0.117
-132.356	800.000	0.016	-0.046
-131.341	-42.372	-0.050	0.025
-130.326	33.786	0.012	0.010
-129.312	-67.465	-0.199	-0.077
-128.297	-0.644	-0.232	-0.163
-127.283	800.000	-0.009	0.026
-126.268	-200.000	0.024	-0.127
-125.253	43.542	-0.224	0.203
-124.239	-82.329	-0.386	0.124
-123.224	800.000	0.040	0.142
-122.210	-124.003	0.296	0.046
