DTS Sentinel unit serial number:	SN413079Multiplexer serial number:	ORYXHardware model number:	OX4-SRSoftware version number:	ORYX F/W v4.00 Oryx Data Collector v3.7.2.0data status	okinstallation	princeton_trtdifferential loss correction	single-endedforward channel	channel 4reverse channel	N/Adate	2019/09/11time	04:07:10forward acquisition time	60.00reverse acquisition time	0.00gamma	496.2192k internal	0.2315k external	0.2315temperature offset calibration	0.9946default loss term (dB/km)	0.3790temperature slope calibration	1.0000multiplexer offset coefficient	1.0000multiplexer slope coefficient	1.0000fibre end	0.00T internal ref (°C)	29.56T ext. ref 1 (°C)	-0.29T ext. ref 2 (°C)	23.56length (m)	temperature (°C)	Stokes	anti-Stokes-747.200	164.666	-0.092	0.131
-746.185	-105.418	-0.168	-0.039
-745.171	-126.487	0.052	0.008
-744.156	122.514	-0.024	-0.030
-743.142	-83.860	0.445	-0.144
-742.127	-133.215	-0.440	-0.056
-741.112	-189.662	0.168	-0.002
-740.098	-87.156	-0.421	-0.130
-739.083	323.560	-0.039	-0.076
-738.069	-65.351	0.122	-0.050
-737.054	800.000	-0.113	-0.340
-736.039	-145.984	-0.223	0.020
-735.025	800.000	-0.088	0.304
-734.010	209.127	-0.060	0.096
-732.996	800.000	-0.123	0.403
-731.981	800.000	0.036	0.122
-730.966	-39.796	-0.036	0.019
-729.952	23.460	-0.210	-0.175
-728.937	-37.456	0.249	0.135
-727.923	-95.666	-0.261	-0.071
-726.908	53.386	0.230	-0.224
-725.894	419.697	0.081	-0.175
-724.879	-88.605	-0.376	0.113
-723.864	-5.142	-0.371	-0.259
-722.850	-53.550	-0.012	0.005
-721.835	117.160	-0.270	-0.336
-720.821	-200.000	-0.026	-0.315
-719.806	112.715	-0.150	0.184
-718.791	-165.309	0.339	0.015
-717.777	314.390	-0.093	-0.178
-716.762	12.157	-0.151	-0.117
-715.748	-200.000	-0.005	-0.142
-714.733	800.000	0.035	0.147
-713.718	-200.000	0.017	0.133
-712.704	-200.000	-0.023	-0.376
-711.689	22.332	-0.025	-0.021
-710.675	373.214	-0.039	-0.080
-709.660	-112.667	-0.250	-0.050
-708.645	177.808	0.105	0.156
-707.631	61.439	-0.189	-0.190
-706.616	-72.497	0.203	0.076
-705.602	136.689	0.261	-0.344
-704.587	-120.691	0.316	-0.054
-703.572	45.593	0.066	-0.062
-702.558	800.000	0.043	0.156
-701.543	-48.596	-0.126	-0.061
-700.529	153.511	-0.112	0.156
-699.514	-20.565	0.381	0.237
-698.499	-116.933	-0.303	0.056
-697.485	82.863	-0.080	-0.088
-696.470	800.000	0.133	-0.387
-695.456	-7.505	0.065	-0.045
-694.441	120.322	-0.113	-0.142
-693.426	-200.000	-0.015	-0.180
-692.412	503.863	0.083	-0.195
-691.397	-74.288	0.078	-0.028
-690.383	-75.773	-0.035	0.013
-689.368	-88.885	-0.113	-0.034
-688.354	-200.000	0.041	-0.256
-687.339	82.314	0.144	0.158
-686.324	422.763	-0.079	0.172
-685.310	-200.000	0.001	0.216
-684.295	-103.231	-0.155	-0.037
-683.281	165.251	0.175	-0.250
-682.266	-200.000	0.033	-0.187
-681.251	800.000	0.106	-0.363
-680.237	800.000	0.075	0.269
-679.222	11.842	-0.032	0.025
-678.208	-90.464	-0.235	-0.069
-677.193	-83.698	-0.168	-0.054
-676.178	8.664	-0.126	-0.096
-675.164	-165.727	0.363	-0.016
-674.149	-34.101	-0.120	0.067
-673.135	132.421	0.093	-0.121
-672.120	71.943	0.230	-0.242
-671.105	171.032	-0.232	-0.335
-670.091	58.233	0.151	0.149
-669.076	-87.587	-0.209	0.064
-668.062	69.021	0.241	0.251
-667.047	800.000	-0.015	-0.052
-666.032	111.205	0.200	-0.244
-665.018	800.000	-0.066	0.194
-664.003	800.000	0.074	-0.207
-662.989	-49.806	-0.165	0.079
-661.974	-112.900	0.149	-0.030
-660.959	124.154	0.123	0.156
-659.945	9.144	0.178	0.135
-658.930	-27.117	0.264	0.155
-657.916	-69.311	-0.083	-0.032
-656.901	-47.010	0.251	-0.124
-655.886	-67.488	-0.073	-0.029
-654.872	-200.000	0.028	0.258
-653.857	-200.000	-0.063	-0.311
-652.843	-117.780	0.270	0.049
-651.828	133.395	0.189	-0.246
-650.814	-200.000	0.032	0.245
-649.799	174.130	-0.096	-0.139
-648.784	-101.357	-0.044	0.011
-647.770	3.095	-0.130	0.095
-646.755	538.225	-0.071	-0.170
-645.741	800.000	0.023	-0.071
-644.726	-128.665	-0.425	-0.061
-643.711	-66.039	0.052	0.021
-642.697	212.258	-0.115	-0.182
-641.682	-85.815	-0.333	0.104
-640.668	-200.000	0.006	-0.086
-639.653	-164.635	-0.194	0.009
-638.638	459.518	0.093	-0.209
-637.624	5.618	-0.267	0.199
-636.609	82.557	-0.260	-0.285
-635.595	-103.531	-0.216	-0.051
-634.580	-118.909	-0.447	0.079
-633.565	-96.147	0.375	-0.100
-632.551	-193.294	0.169	0.001
-631.536	-80.321	-0.574	-0.194
-630.522	-130.327	-0.178	-0.024
-629.507	800.000	-0.032	-0.130
-628.492	-49.925	0.093	0.045
-627.478	-200.000	0.063	-0.364
-626.463	-45.946	0.120	0.060
-625.449	-200.000	-0.011	-0.169
-624.434	-156.940	0.156	-0.010
-623.419	-9.374	0.082	0.055
-622.405	-149.194	-0.347	0.028
-621.390	-123.657	-0.012	-0.002
-620.376	-119.674	0.454	-0.079
-619.361	-161.755	0.407	-0.021
-618.346	12.388	-0.192	0.149
-617.332	-200.000	0.046	-0.244
-616.317	-200.000	-0.003	-0.050
-615.303	-69.697	-0.120	-0.046
-614.288	-87.626	0.193	-0.059
-613.273	-200.000	-0.017	-0.110
-612.259	-200.000	-0.017	-0.211
-611.244	262.026	0.120	0.210
-610.230	-45.891	0.178	0.089
-609.215	-200.000	0.009	0.340
-608.201	-5.451	-0.189	0.130
-607.186	25.967	-0.056	0.047
-606.171	-35.435	-0.324	0.177
-605.157	-15.386	-0.091	-0.059
-604.142	187.163	0.111	0.168
-603.128	-88.974	-0.237	0.071
-602.113	98.696	-0.110	0.127
-601.098	-24.570	-0.482	-0.289
-600.084	800.000	0.031	0.134
-599.069	16.310	0.055	0.044
-598.055	13.792	0.125	-0.098
-597.040	-200.000	0.006	-0.059
-596.025	-200.000	0.032	-0.169
-595.011	775.176	-0.157	-0.432
-593.996	-200.000	-0.003	-0.294
-592.982	19.286	0.176	0.142
-591.967	-56.845	0.084	-0.037
-590.952	178.472	-0.110	-0.162
-589.938	286.907	-0.155	0.282
-588.923	-200.000	0.001	0.028
-587.909	260.945	-0.109	-0.190
-586.894	298.544	-0.106	0.196
-585.879	-151.764	0.022	-0.002
-584.865	-159.439	0.203	0.011
-583.850	-200.000	-0.001	-0.027
-582.836	-74.496	0.078	-0.028
-581.821	15.086	-0.258	-0.204
-580.806	-84.550	-0.334	-0.106
-579.792	-122.999	0.103	-0.017
-578.777	294.508	0.086	-0.159
-577.763	-165.517	-0.273	-0.012
-576.748	-162.375	0.084	-0.004
-575.733	-142.721	-0.208	0.020
-574.719	-200.000	0.055	0.277
-573.704	-102.966	-0.138	0.033
-572.690	31.766	-0.088	0.077
-571.675	222.638	0.104	-0.168
-570.661	-105.658	0.057	-0.013
-569.646	10.743	0.164	-0.126
-568.631	23.809	-0.238	0.197
-567.617	-74.744	0.219	0.079
-566.602	83.561	0.136	0.150
-565.588	-73.814	-0.155	-0.057
-564.573	60.652	-0.139	0.138
-563.558	-200.000	-0.002	-0.114
-562.544	-200.000	0.060	0.268
-561.529	-10.133	0.376	0.251
-560.515	-200.000	0.001	0.163
-559.500	-200.000	-0.061	-0.335
-558.485	-112.579	-0.265	0.053
-557.471	-200.000	-0.021	0.182
-556.456	12.811	0.071	-0.055
-555.442	573.843	-0.118	0.291
-554.427	-200.000	-0.012	-0.349
-553.412	800.000	-0.020	-0.080
-552.398	-200.000	0.012	-0.371
-551.383	-57.462	-0.346	-0.153
-550.369	-200.000	-0.022	-0.299
-549.354	372.688	0.057	-0.116
-548.339	285.212	-0.061	-0.111
-547.325	20.621	-0.090	-0.073
-546.310	-200.000	-0.063	-0.362
-545.296	119.119	-0.201	-0.250
-544.281	-170.972	-0.217	-0.007
-543.266	-52.851	-0.082	0.038
-542.252	-108.002	0.069	-0.015
-541.237	65.336	0.147	-0.150
-540.223	123.081	0.052	0.065
-539.208	-49.565	0.257	0.123
-538.193	25.173	0.079	0.066
-537.179	192.914	-0.112	0.170
-536.164	-60.614	-0.130	0.055
-535.150	246.205	-0.195	0.330
-534.135	-13.173	0.230	0.150
-533.121	-111.018	-0.194	0.040
-532.106	425.601	-0.081	0.175
-531.091	-30.766	0.209	0.119
-530.077	15.022	0.188	0.148
-529.062	97.433	-0.189	-0.218
-528.048	-91.054	0.238	-0.069
-527.033	-200.000	-0.049	0.243
-526.018	560.295	-0.099	0.240
-525.004	800.000	-0.033	0.131
-523.989	0.916	-0.134	0.096
-522.975	-31.049	0.216	-0.122
-521.960	611.875	-0.136	0.341
-520.945	-104.741	-0.235	0.054
-519.931	-200.000	0.048	0.278
-518.916	703.751	-0.059	-0.156
-517.902	-117.880	-0.461	0.083
-516.887	-200.000	0.005	0.108
-515.872	-162.357	0.148	0.007
-514.858	171.291	0.207	-0.299
-513.843	-49.107	0.355	0.171
-512.829	-200.000	0.027	-0.148
-511.814	-37.220	-0.190	-0.102
-510.799	-128.306	-0.299	-0.043
-509.785	265.072	-0.180	0.315
-508.770	554.357	-0.103	0.248
-507.756	-24.434	0.239	-0.143
-506.741	-98.660	0.076	0.019
-505.726	668.143	-0.118	0.307
-504.712	-200.000	0.046	0.226
-503.697	800.000	0.059	-0.166
-502.683	-200.000	-0.041	-0.340
-501.668	48.901	-0.170	-0.160
-500.653	-6.602	-0.212	0.145
-499.639	800.000	-0.086	-0.248
-498.624	11.399	0.157	-0.121
-497.610	-193.135	-0.180	0.002
-496.595	-3.279	0.181	-0.127
-495.581	-161.212	0.198	0.010
-494.566	-0.210	0.102	-0.073
-493.551	599.744	-0.161	0.400
-492.537	36.121	0.082	0.072
-491.522	40.432	-0.199	0.180
-490.508	17.001	0.100	-0.079
-489.493	127.809	0.167	0.212
-488.478	-15.501	0.243	0.156
-487.464	-200.000	-0.006	-0.197
-486.449	-200.000	0.012	0.213
-485.435	-103.916	-0.103	-0.024
-484.420	-150.057	-0.202	0.016
-483.405	-115.870	0.149	0.028
-482.391	288.093	0.065	0.118
-481.376	800.000	0.041	-0.127
-480.362	-57.207	-0.173	0.077
-479.347	395.987	0.093	0.195
-478.332	-132.937	-0.305	-0.039
-477.318	-60.203	-0.040	-0.017
-476.303	-60.879	0.262	0.111
-475.289	97.072	-0.113	0.130
-474.274	-90.439	0.123	0.036
-473.259	-124.260	0.109	0.017
-472.245	-82.157	-0.187	-0.061
-471.230	-86.500	0.126	0.039
-470.216	-64.322	-0.353	-0.144
-469.201	-200.000	-0.006	0.266
-468.186	16.368	0.088	0.070
-467.172	-118.805	0.070	0.012
-466.157	-200.000	-0.016	0.197
-465.143	800.000	-0.038	-0.132
-464.128	219.031	-0.035	-0.057
-463.113	201.618	0.156	0.241
-462.099	36.832	0.170	-0.151
-461.084	-200.000	0.002	-0.026
-460.070	-74.560	0.292	0.106
-459.055	-130.941	0.388	-0.052
-458.040	199.886	-0.287	0.442
-457.026	661.528	0.143	-0.370
-456.011	61.178	-0.064	-0.063
-454.997	366.676	0.164	0.331
-453.982	76.997	-0.155	0.165
-452.968	-200.000	-0.033	-0.295
-451.953	-108.993	-0.530	0.113
-450.938	551.825	0.058	-0.140
-449.924	-19.094	-0.155	0.097
-448.909	-200.000	-0.072	0.401
-447.895	-12.997	0.090	-0.059
-446.880	672.670	-0.035	0.091
-445.865	-200.000	-0.005	-0.073
-444.851	21.549	0.174	-0.142
-443.836	202.559	0.082	0.126
-442.822	-140.534	0.372	0.039
-441.807	381.030	0.099	-0.203
-440.792	-136.726	0.211	-0.024
-439.778	-113.744	0.143	0.028
-438.763	-200.000	-0.006	-0.059
-437.749	-116.340	-0.063	0.012
-436.734	55.654	0.254	-0.246
-435.719	20.888	0.024	-0.019
-434.705	487.377	0.051	-0.116
-433.690	800.000	-0.069	0.238
-432.676	800.000	-0.031	0.089
-431.661	95.645	-0.144	-0.164
-430.646	-136.102	-0.204	0.024
-429.632	-113.879	0.306	0.060
-428.617	-73.856	0.366	0.133
-427.603	800.000	-0.046	0.154
-426.588	-80.072	-0.064	0.021
-425.573	106.985	0.150	-0.178
-424.559	88.181	-0.117	0.130
-423.544	-55.792	0.311	-0.139
-422.530	-200.000	-0.021	0.202
-421.515	168.778	-0.126	-0.180
-420.500	215.934	0.106	-0.168
-419.486	-126.135	0.294	0.044
-418.471	221.552	-0.215	0.346
-417.457	271.156	-0.076	0.133
-416.442	800.000	-0.064	0.268
-415.428	-75.832	-0.090	-0.032
-414.413	-160.621	-0.422	0.023
-413.398	800.000	0.064	-0.223
-412.384	-200.000	0.014	-0.334
-411.369	-182.250	-0.176	0.003
-410.355	308.169	0.061	0.114
-409.340	-145.582	0.415	0.037
-408.325	-93.719	0.405	-0.112
-407.311	-161.743	-0.221	-0.011
-406.296	-200.000	0.009	0.130
-405.282	6.153	0.115	-0.086
-404.267	-81.906	-0.249	0.081
-403.252	-151.087	-0.055	-0.004
-402.238	12.754	-0.183	-0.141
-401.223	600.719	0.081	-0.201
-400.209	14.216	-0.038	-0.030
-399.194	800.000	-0.054	-0.201
-398.179	2.312	0.158	-0.114
-397.165	47.819	0.058	0.054
-396.150	-200.000	-0.001	-0.279
-395.136	-99.026	0.156	0.040
-394.121	101.946	-0.182	-0.212
-393.106	-7.601	0.118	0.080
-392.092	356.219	0.013	-0.027
-391.077	-108.300	-0.284	-0.061
-390.063	-200.000	-0.064	0.305
-389.048	-71.105	-0.092	0.034
-388.033	45.421	0.146	0.135
-387.019	-89.526	-0.463	0.136
-386.004	800.000	-0.072	-0.217
-384.990	241.816	0.215	-0.359
-383.975	-61.280	0.065	0.028
-382.960	-110.640	0.235	-0.048
-381.946	-200.000	0.021	-0.103
-380.931	-108.398	0.207	-0.045
-379.917	152.005	0.067	-0.091
-378.902	-115.317	-0.214	0.040
-377.888	-74.750	-0.176	-0.063
-376.873	-200.000	-0.004	-0.201
-375.858	-107.881	-0.172	0.037
-374.844	519.739	0.100	0.234
-373.829	-35.887	0.148	0.080
-372.815	-52.525	-0.198	0.092
-371.800	-108.284	0.101	0.022
-370.785	150.985	0.163	0.221
-369.771	391.359	-0.175	-0.364
-368.756	-200.000	0.004	-0.127
-367.742	211.784	-0.170	0.267
-366.727	342.846	0.007	-0.015
-365.712	-11.116	0.209	0.138
-364.698	800.000	0.085	0.313
-363.683	79.741	-0.058	0.062
-362.669	-200.000	-0.030	0.169
-361.654	-200.000	0.029	-0.225
-360.639	291.988	0.028	-0.051
-359.625	-50.060	0.189	0.090
-358.610	-59.451	-0.189	-0.081
-357.596	24.133	-0.221	0.182
-356.581	-200.000	-0.018	-0.119
-355.566	-44.175	-0.086	-0.043
-354.552	-153.187	0.113	0.008
-353.537	800.000	0.120	0.377
-352.523	-95.261	0.329	0.089
-351.508	738.860	-0.108	0.289
-350.493	-9.740	0.263	0.175
-349.479	-59.596	0.199	-0.085
-348.464	-103.557	0.346	-0.081
-347.450	67.912	-0.212	0.217
-346.435	3.775	-0.271	-0.198
-345.420	-95.725	-0.088	0.024
-344.406	35.187	-0.158	-0.138
-343.391	800.000	-0.030	0.083
-342.377	-200.000	-0.032	-0.259
-341.362	165.621	0.149	0.210
-340.348	112.040	-0.056	0.068
-339.333	149.661	0.101	0.137
-338.318	-200.000	0.026	-0.133
-337.304	-14.263	0.162	-0.104
-336.289	-122.411	-0.291	0.047
-335.275	-162.469	0.241	-0.012
-334.260	-176.482	0.367	-0.009
-333.245	576.037	-0.062	0.151
-332.231	16.017	-0.250	-0.197
-331.216	-200.000	-0.006	0.156
-330.202	463.491	0.051	-0.114
-329.187	-121.820	-0.194	0.032
-328.172	-123.167	0.313	0.050
-327.158	135.173	0.092	-0.119
-326.143	-83.201	0.151	-0.048
-325.129	144.381	-0.171	-0.228
-324.114	225.610	0.145	-0.235
-323.099	-54.069	-0.301	-0.137
-322.085	-22.453	0.158	-0.095
-321.070	-22.437	0.132	-0.079
-320.056	60.632	0.023	0.023
-319.041	286.933	0.073	0.131
-318.026	153.725	0.063	0.086
-317.012	-200.000	0.006	-0.341
-315.997	54.927	-0.144	0.139
-314.983	-200.000	0.045	-0.251
-313.968	-135.569	0.305	0.036
-312.953	-34.462	0.139	0.076
-311.939	800.000	0.054	0.152
-310.924	-73.814	-0.233	0.084
-309.910	-160.687	0.145	-0.008
-308.895	-17.587	-0.059	0.037
-307.880	800.000	-0.057	-0.223
-306.866	32.695	-0.208	0.179
-305.851	-65.992	0.185	-0.074
-304.837	109.380	-0.206	0.246
-303.822	800.000	0.075	0.221
-302.807	-15.197	0.113	0.072
-301.793	-195.070	0.471	0.004
-300.778	800.000	-0.075	0.256
-299.764	111.905	-0.192	0.231
-298.749	378.754	0.109	-0.222
-297.735	180.200	0.146	0.213
-296.720	180.808	-0.150	-0.220
-295.705	-191.059	0.185	-0.002
-294.691	-135.170	-0.423	-0.051
-293.676	56.671	-0.181	0.176
-292.662	-200.000	-0.001	0.113
-291.647	-13.683	-0.076	-0.049
-290.632	-87.033	-0.240	0.073
-289.618	-200.000	0.036	-0.289
-288.603	800.000	-0.068	-0.216
-287.589	263.622	-0.103	0.178
-286.574	800.000	0.092	-0.300
-285.559	2.387	0.214	0.154
-284.545	9.827	-0.225	-0.170
-283.530	-72.887	0.120	0.044
-282.516	-200.000	-0.034	0.408
-281.501	-83.982	-0.165	-0.052
-280.486	-200.000	-0.050	0.250
-279.472	-155.690	-0.142	0.009
-278.457	-1.535	-0.091	0.064
-277.443	-200.000	-0.018	0.121
-276.428	-173.033	0.267	-0.008
-275.413	-89.406	-0.225	-0.066
-274.399	144.537	0.117	0.156
-273.384	-200.000	-0.037	-0.187
-272.370	-200.000	0.004	-0.096
-271.355	-134.921	-0.186	0.022
-270.340	108.556	0.314	-0.373
-269.326	-140.982	0.109	0.011
-268.311	781.802	-0.175	-0.477
-267.297	28.465	-0.399	0.335
-266.282	65.355	0.080	0.080
-265.267	-42.985	-0.245	0.124
-264.253	-89.784	0.144	-0.042
-263.238	32.117	0.204	0.175
-262.224	-200.000	-0.029	-0.173
-261.209	52.519	0.123	0.117
-260.195	70.216	-0.134	0.137
-259.180	702.436	0.041	0.108
-258.165	255.316	0.063	-0.107
-257.151	-3.403	0.103	0.071
-256.136	-137.411	0.225	-0.025
-255.122	92.087	0.263	0.294
-254.107	-98.934	-0.043	0.011
-253.092	43.130	-0.163	0.148
-252.078	-200.000	0.012	-0.212
-251.063	130.464	0.125	-0.159
-250.049	-200.000	0.013	0.237
-249.034	-140.331	-0.204	0.021
-248.019	-148.697	-0.198	0.016
-247.005	-200.000	0.015	0.076
-245.990	-16.014	0.105	0.067
-244.976	-200.000	-0.009	-0.209
-243.961	-13.989	-0.076	0.049
-242.946	110.546	-0.083	0.099
-241.932	800.000	0.105	-0.409
-240.917	800.000	0.086	0.262
-239.903	-20.963	0.130	-0.079
-238.888	-110.375	-0.171	-0.035
-237.873	187.978	-0.168	-0.250
-236.859	-117.181	0.162	0.029
-235.844	800.000	-0.076	0.298
-234.830	800.000	-0.044	0.171
-233.815	375.031	-0.054	0.109
-232.800	-200.000	0.066	-0.464
-231.786	-56.183	0.370	-0.163
-230.771	-132.899	-0.260	-0.033
-229.757	800.000	0.076	0.309
-228.742	-200.000	-0.019	0.086
-227.727	-85.343	-0.236	0.073
-226.713	-35.669	0.175	-0.094
-225.698	800.000	0.042	0.164
-224.684	183.304	0.136	-0.200
-223.669	266.412	0.138	-0.239
-222.655	-182.563	-0.195	-0.004
-221.640	240.923	-0.342	-0.566
-220.625	-190.623	0.127	0.001
-219.611	430.700	0.041	-0.088
-218.596	800.000	-0.081	-0.281
-217.582	-87.417	0.135	0.041
-216.567	800.000	-0.068	0.204
-215.552	6.675	0.143	-0.106
-214.538	-25.614	0.266	0.156
-213.523	218.339	-0.223	-0.354
-212.509	-130.496	-0.273	-0.037
-211.494	78.522	0.107	-0.113
-210.479	-98.665	0.343	-0.087
-209.465	797.654	0.070	-0.191
-208.450	111.238	0.078	-0.093
-207.436	19.998	-0.293	0.234
-206.421	268.156	-0.080	-0.139
-205.406	121.045	-0.147	-0.181
-204.392	-200.000	0.040	0.240
-203.377	294.130	0.134	0.243
-202.363	624.801	-0.054	-0.134
-201.348	-98.405	0.052	0.013
-200.333	197.303	-0.056	0.084
-199.319	-200.000	-0.011	-0.096
-198.304	-158.549	0.456	0.026
-197.290	-94.291	0.219	-0.059
-196.275	308.728	0.052	-0.097
-195.260	-19.841	-0.200	0.123
-194.246	126.951	-0.080	0.101
-193.231	306.744	0.231	0.427
-192.217	-115.470	-0.046	-0.009
-191.202	100.112	0.110	0.127
-190.187	246.810	0.038	0.064
-189.173	387.702	0.128	0.263
-188.158	-100.873	0.266	-0.065
-187.144	-20.445	0.376	0.229
-186.129	-137.006	0.186	0.021
-185.114	-56.426	0.277	-0.122
-184.100	-200.000	0.003	-0.153
-183.085	-200.000	0.022	-0.146
-182.071	-149.289	0.210	0.017
-181.056	405.415	0.059	-0.124
-180.042	-105.514	-0.182	0.041
-179.027	-200.000	0.048	0.296
-178.012	-200.000	-0.057	0.310
-176.998	-160.625	-0.099	-0.005
-175.983	800.000	-0.047	-0.194
-174.969	-124.174	0.168	-0.026
-173.954	387.474	0.033	-0.067
-172.939	8.349	-0.359	-0.268
-171.925	-114.174	0.377	0.072
-170.910	-103.442	0.221	-0.051
-169.896	-200.000	0.006	-0.091
-168.881	687.551	0.158	-0.409
-167.866	800.000	-0.049	-0.170
-166.852	132.279	-0.129	0.165
-165.837	-200.000	-0.003	0.112
-164.823	-96.187	0.318	0.084
-163.808	-54.145	0.240	0.108
-162.793	-87.467	0.372	0.112
-161.779	-94.652	-0.667	-0.179
-160.764	407.749	0.128	-0.268
-159.750	-2.751	-0.226	0.156
-158.735	-135.300	-0.206	0.024
-157.720	-200.000	0.037	0.203
-156.706	252.352	0.238	-0.401
-155.691	187.391	0.041	-0.060
-154.677	-185.256	0.192	0.003
-153.662	-161.110	-0.078	0.004
-152.647	-78.805	-0.045	0.015
-151.633	-200.000	-0.019	-0.136
-150.618	-46.713	0.050	-0.024
-149.604	368.080	-0.167	-0.334
-148.589	-62.558	0.184	0.076
-147.574	119.758	-0.210	0.257
-146.560	-22.596	-0.224	-0.134
-145.545	-25.106	0.227	0.133
-144.531	139.144	-0.143	0.186
-143.516	-92.888	0.118	0.033
-142.502	800.000	-0.113	0.422
-141.487	461.235	-0.014	-0.032
-140.472	259.151	0.083	0.141
-139.458	-200.000	0.117	-0.000
-138.443	-128.890	0.391	0.054
-137.429	800.000	-0.085	-0.360
-136.414	13.849	0.301	-0.232
-135.399	763.458	0.058	-0.155
-134.385	311.104	-0.104	0.193
-133.370	501.930	0.115	-0.262
-132.356	-200.000	-0.075	-0.445
-131.341	-76.135	-0.212	0.074
-130.326	-200.000	0.020	0.312
-129.312	-86.334	0.321	-0.098
-128.297	-137.428	-0.208	0.023
-127.283	313.205	-0.105	0.196
-126.268	198.083	0.005	-0.008
-125.253	800.000	-0.126	-0.367
-124.239	70.963	0.122	0.125
-123.224	46.989	0.200	-0.184
-122.210	-30.021	-0.013	0.007
