DTS Sentinel unit serial number:	SN413079Multiplexer serial number:	ORYXHardware model number:	OX4-SRSoftware version number:	ORYX F/W v4.00 Oryx Data Collector v3.7.2.0data status	okinstallation	princeton_trtdifferential loss correction	single-endedforward channel	channel 4reverse channel	N/Adate	2019/09/12time	04:03:11forward acquisition time	60.00reverse acquisition time	0.00gamma	496.2192k internal	0.2310k external	0.2310temperature offset calibration	1.0096default loss term (dB/km)	0.3790temperature slope calibration	1.0000multiplexer offset coefficient	1.0000multiplexer slope coefficient	1.0000fibre end	0.00T internal ref (°C)	32.06T ext. ref 1 (°C)	2.18T ext. ref 2 (°C)	25.79length (m)	temperature (°C)	Stokes	anti-Stokes-747.200	-112.439	-0.144	-0.029
-746.185	147.861	-0.194	0.265
-745.171	600.386	-0.120	0.302
-744.156	-113.870	-0.152	-0.030
-743.142	800.000	0.097	0.324
-742.127	214.496	-0.213	0.343
-741.112	7.561	-0.057	-0.043
-740.098	800.000	-0.125	0.399
-739.083	-169.953	-0.272	-0.010
-738.069	598.803	-0.081	0.204
-737.054	136.030	-0.050	-0.066
-736.039	-200.000	-0.006	-0.280
-735.025	-5.144	-0.187	0.131
-734.010	13.146	-0.090	0.071
-732.996	25.791	-0.190	-0.160
-731.981	559.190	-0.120	0.294
-730.966	-128.163	0.296	-0.043
-729.952	-12.391	-0.206	-0.137
-728.937	-1.078	-0.119	0.085
-727.923	-170.103	-0.285	-0.010
-726.908	800.000	-0.051	0.148
-725.894	-200.000	-0.006	-0.297
-724.879	500.340	-0.189	-0.442
-723.864	-39.916	0.182	0.097
-722.850	-200.000	0.005	-0.238
-721.835	800.000	0.038	0.150
-720.821	-200.000	-0.027	-0.188
-719.806	-17.631	-0.214	0.136
-718.791	-94.932	-0.122	-0.033
-717.777	20.138	-0.096	0.079
-716.762	-67.922	0.153	0.060
-715.748	21.422	0.230	-0.189
-714.733	-200.000	-0.030	-0.221
-713.718	-35.319	0.130	-0.072
-712.704	-16.923	-0.125	-0.080
-711.689	-90.434	0.223	0.066
-710.675	10.142	0.335	-0.258
-709.660	-200.000	-0.055	0.279
-708.645	-136.901	0.161	-0.019
-707.631	-200.000	0.011	0.157
-706.616	800.000	-0.094	-0.361
-705.602	-87.647	-0.225	-0.069
-704.587	80.003	0.160	-0.174
-703.572	81.978	-0.267	-0.294
-702.558	-23.667	0.163	0.099
-701.543	293.666	0.180	-0.334
-700.529	169.461	0.090	-0.130
-699.514	47.772	0.222	-0.210
-698.499	157.219	-0.026	0.036
-697.485	286.495	-0.079	-0.145
-696.470	49.007	-0.123	-0.117
-695.456	-27.399	0.149	0.088
-694.441	49.370	0.131	0.125
-693.426	-32.452	-0.092	-0.052
-692.412	-200.000	0.058	-0.347
-691.397	-57.475	0.136	0.060
-690.383	-131.345	0.161	0.022
-689.368	-41.626	-0.265	0.138
-688.354	-148.751	0.380	0.031
-687.339	59.897	-0.434	0.435
-686.324	444.814	-0.068	-0.151
-685.310	800.000	-0.057	0.162
-684.295	800.000	0.039	-0.138
-683.281	-31.760	-0.332	-0.189
-682.266	-61.005	-0.117	0.050
-681.251	-200.000	-0.003	0.112
-680.237	-85.316	0.203	0.064
-679.222	-52.177	-0.214	-0.101
-678.208	51.342	0.020	0.019
-677.193	-64.550	0.031	0.013
-676.178	-13.339	0.232	-0.152
-675.164	-21.253	-0.201	-0.125
-674.149	140.562	-0.175	-0.235
-673.135	-200.000	-0.032	0.164
-672.120	393.131	0.020	-0.043
-671.105	38.737	-0.187	0.169
-670.091	800.000	-0.042	0.153
-669.076	-122.702	-0.217	-0.036
-668.062	265.710	-0.008	0.014
-667.047	-36.718	-0.206	0.112
-666.032	113.963	0.092	-0.114
-665.018	800.000	-0.072	-0.270
-664.003	-200.000	-0.029	-0.236
-662.989	-96.545	-0.185	-0.049
-661.974	500.852	0.099	0.230
-660.959	-200.000	0.032	0.193
-659.945	372.151	-0.043	0.089
-658.930	93.792	0.085	0.097
-657.916	545.704	-0.118	-0.284
-656.901	-82.670	-0.408	0.134
-655.886	-42.448	-0.330	-0.170
-654.872	-54.953	0.125	0.057
-653.857	198.052	0.055	-0.085
-652.843	800.000	-0.042	0.124
-651.828	-200.000	-0.075	-0.399
-650.814	328.144	0.099	0.192
-649.799	-183.616	-0.140	0.002
-648.784	123.086	0.181	-0.230
-647.770	-59.230	0.102	-0.044
-646.755	62.522	-0.255	-0.258
-645.741	126.751	0.191	-0.244
-644.726	-200.000	0.014	0.260
-643.711	183.033	0.077	0.114
-642.697	-39.316	0.165	-0.088
-641.682	-84.315	-0.225	-0.072
-640.668	-200.000	0.002	-0.113
-639.653	127.717	0.082	-0.106
-638.638	-28.845	-0.320	0.186
-637.624	155.917	-0.140	-0.196
-636.609	-49.759	0.157	0.076
-635.595	-43.605	0.349	-0.178
-634.580	209.392	-0.168	-0.267
-633.565	117.196	-0.197	0.245
-632.551	-51.065	0.084	-0.040
-631.536	-200.000	0.037	0.391
-630.522	-8.957	-0.233	-0.158
-629.507	429.002	0.118	-0.258
-628.492	120.607	-0.156	-0.195
-627.478	126.833	0.078	-0.099
-626.463	-200.000	-0.006	-0.077
-625.449	30.160	-0.176	-0.152
-624.434	-44.279	0.289	0.146
-623.419	686.492	-0.077	0.204
-622.405	800.000	0.085	0.275
-621.390	800.000	-0.026	-0.087
-620.376	-200.000	0.040	-0.315
-619.361	-200.000	0.047	-0.277
-618.346	85.232	0.105	-0.116
-617.332	129.711	0.076	0.098
-616.317	271.254	0.041	0.072
-615.303	163.954	0.192	-0.274
-614.288	176.695	0.101	-0.149
-613.273	-200.000	0.023	-0.126
-612.259	-200.000	0.032	-0.352
-611.244	211.937	-0.051	-0.082
-610.230	-15.756	0.138	-0.089
-609.215	-200.000	0.023	0.139
-608.201	502.081	0.021	-0.048
-607.186	419.812	0.090	0.194
-606.171	-200.000	-0.015	0.216
-605.157	9.003	0.286	-0.218
-604.142	315.413	-0.022	0.042
-603.128	119.644	-0.177	0.222
-602.113	160.523	0.162	0.228
-601.098	57.968	0.239	0.236
-600.084	-108.099	-0.432	0.095
-599.069	-149.766	0.141	-0.011
-598.055	100.786	-0.154	0.181
-597.040	-68.034	-0.034	0.013
-596.025	-139.490	-0.370	-0.040
-595.011	131.908	-0.189	0.246
-593.996	79.788	-0.137	-0.148
-592.982	-71.655	0.161	0.061
-591.967	437.898	-0.120	-0.265
-590.952	101.952	-0.146	-0.173
-589.938	-113.573	0.200	0.039
-588.923	-102.506	0.277	0.067
-587.909	183.465	-0.046	0.068
-586.894	-101.100	0.148	-0.037
-585.879	346.752	0.062	-0.124
-584.865	-200.000	0.060	-0.379
-583.850	517.096	-0.095	0.225
-582.836	26.602	0.114	-0.097
-581.821	406.614	-0.193	0.412
-580.806	266.812	0.211	0.373
-579.792	461.743	-0.122	0.275
-578.777	53.737	-0.176	-0.171
-577.763	-200.000	-0.005	-0.051
-576.748	-195.024	0.142	0.001
-575.733	207.798	-0.077	0.121
-574.719	-200.000	0.011	0.115
-573.704	800.000	0.082	-0.338
-572.690	184.928	-0.077	0.115
-571.675	-200.000	0.018	0.165
-570.661	800.000	-0.077	-0.251
-569.646	-97.316	0.128	0.034
-568.631	419.241	-0.065	-0.140
-567.617	-200.000	0.020	-0.127
-566.602	-13.712	-0.047	-0.031
-565.588	115.660	0.152	0.188
-564.573	-6.225	0.110	-0.076
-563.558	-49.637	0.229	-0.110
-562.544	-25.626	0.137	0.082
-561.529	-200.000	-0.004	-0.205
-560.515	-2.886	-0.099	0.070
-559.500	-200.000	-0.003	0.134
-558.485	345.178	-0.116	-0.229
-557.471	151.654	0.237	-0.326
-556.456	-75.473	0.092	-0.033
-555.442	800.000	-0.066	0.238
-554.427	-83.709	-0.207	0.067
-553.412	-24.605	-0.420	0.252
-552.398	800.000	0.060	-0.204
-551.383	-120.161	-0.147	-0.025
-550.369	-200.000	0.000	-0.076
-549.354	1.368	0.142	-0.103
-548.339	-152.514	0.149	-0.011
-547.325	597.478	0.030	-0.075
-546.310	98.285	0.097	-0.113
-545.296	-200.000	-0.007	0.439
-544.281	89.664	-0.265	0.298
-543.266	-126.670	-0.215	-0.032
-542.252	203.011	-0.066	-0.102
-541.237	398.216	-0.050	0.106
-540.223	-200.000	0.012	0.143
-539.208	62.111	-0.223	0.224
-538.193	50.330	-0.022	0.021
-537.179	-45.604	0.054	-0.027
-536.164	83.676	0.066	-0.073
-535.150	-119.746	0.083	0.015
-534.135	800.000	0.035	-0.106
-533.121	800.000	0.030	-0.096
-532.106	-25.018	-0.132	-0.079
-531.091	-75.168	-0.030	-0.011
-530.077	171.786	0.173	-0.250
-529.062	-200.000	0.008	-0.212
-528.048	-106.648	-0.315	-0.071
-527.033	-36.879	0.264	-0.142
-526.018	72.240	-0.267	0.280
-525.004	119.044	0.211	-0.262
-523.989	3.209	-0.062	-0.045
-522.975	-100.178	-0.208	0.052
-521.960	-200.000	-0.006	-0.150
-520.945	-14.576	0.198	-0.128
-519.931	-22.896	0.262	-0.159
-518.916	-43.927	0.213	0.108
-517.902	-77.544	-0.317	-0.111
-516.887	-123.245	-0.202	0.032
-515.872	-72.461	-0.351	-0.131
-514.858	-13.583	-0.221	0.144
-513.843	-200.000	-0.017	-0.278
-512.829	-92.641	-0.071	0.020
-511.814	-200.000	-0.018	0.123
-510.799	202.329	-0.059	0.091
-509.785	-200.000	-0.042	0.255
-508.770	452.224	0.120	-0.266
-507.756	206.907	-0.047	-0.074
-506.741	8.967	0.101	0.077
-505.726	401.734	0.099	0.209
-504.712	120.197	-0.093	0.116
-503.697	-57.672	-0.282	-0.124
-502.683	30.517	-0.086	0.074
-501.668	-200.000	-0.039	-0.255
-500.653	-16.334	-0.237	0.152
-499.639	-200.000	0.048	-0.242
-498.624	-93.487	0.243	0.068
-497.610	-39.264	0.081	-0.043
-496.595	80.307	0.188	-0.204
-495.581	192.286	-0.138	-0.209
-494.566	386.699	-0.146	-0.303
-493.551	-114.931	-0.328	0.063
-492.537	185.414	-0.154	-0.230
-491.522	43.882	-0.192	-0.177
-490.508	-200.000	-0.130	0.000
-489.493	-115.507	-0.324	0.061
-488.478	12.480	0.201	0.156
-487.464	30.450	0.188	-0.161
-486.449	-200.000	0.051	-0.348
-485.435	800.000	0.098	-0.290
-484.420	-200.000	-0.110	-0.570
-483.405	-36.879	0.175	-0.094
-482.391	-193.004	-0.382	-0.003
-481.376	-200.000	-0.064	-0.490
-480.362	-139.570	-0.124	0.013
-479.347	-99.378	0.168	0.042
-478.332	-71.553	0.219	0.082
-477.318	800.000	-0.086	-0.250
-476.303	-111.444	-0.122	0.025
-475.289	14.683	-0.384	0.302
-474.274	26.876	-0.055	-0.046
-473.259	61.637	-0.054	-0.054
-472.245	10.895	0.309	0.237
-471.230	35.868	-0.219	-0.194
-470.216	-200.000	0.041	0.191
-469.201	463.419	-0.051	-0.115
-468.186	-200.000	0.037	0.164
-467.172	-200.000	0.065	-0.472
-466.157	-113.043	-0.052	0.010
-465.143	-21.392	-0.092	0.057
-464.128	-200.000	0.020	-0.250
-463.113	-21.862	-0.098	0.060
-462.099	319.589	0.100	-0.191
-461.084	17.653	0.207	-0.165
-460.070	-60.430	0.230	-0.098
-459.055	-200.000	0.024	0.154
-458.040	49.409	0.084	-0.080
-457.026	113.723	0.336	0.410
-456.011	426.970	-0.151	-0.328
-454.997	96.810	-0.145	0.166
-453.982	8.903	0.275	0.208
-452.968	-16.185	-0.310	-0.198
-451.953	-90.772	0.342	0.099
-450.938	-200.000	0.015	-0.288
-449.924	8.919	-0.117	-0.089
-448.909	-200.000	0.042	-0.192
-447.895	77.950	0.212	-0.227
-446.880	230.350	0.110	-0.180
-445.865	-132.016	-0.154	0.020
-444.851	-200.000	0.001	-0.033
-443.836	391.042	0.077	-0.160
-442.822	-136.954	0.163	0.019
-441.807	405.487	0.121	-0.256
-440.792	42.855	-0.175	-0.160
-439.778	-116.345	-0.195	0.036
-438.763	294.936	0.195	0.357
-437.749	-200.000	-0.005	-0.303
-436.734	2.518	-0.345	0.251
-435.719	201.983	0.155	0.240
-434.705	573.384	0.080	-0.196
-433.690	-13.779	-0.132	-0.086
-432.676	-200.000	0.009	0.211
-431.661	-200.000	0.029	-0.141
-430.646	-200.000	0.014	0.093
-429.632	2.616	-0.280	-0.204
-428.617	24.650	0.101	-0.084
-427.603	800.000	-0.120	0.377
-426.588	-78.805	0.282	0.096
-425.573	800.000	0.063	0.211
-424.559	800.000	-0.021	-0.078
-423.544	1.744	-0.203	0.147
-422.530	8.997	-0.157	-0.119
-421.515	800.000	0.044	0.136
-420.500	-73.760	0.356	0.130
-419.486	7.033	0.323	0.241
-418.471	636.390	-0.070	-0.177
-417.457	-44.242	-0.187	-0.094
-416.442	-200.000	0.013	-0.346
-415.428	391.349	0.041	0.086
-414.413	800.000	0.077	-0.231
-413.398	-36.408	-0.281	-0.152
-412.384	233.460	0.362	0.598
-411.369	366.884	0.076	0.153
-410.355	-136.618	-0.565	-0.066
-409.340	39.063	0.107	0.096
-408.325	565.434	-0.067	-0.162
-407.311	800.000	-0.066	0.252
-406.296	44.076	0.097	0.089
-405.282	82.258	-0.058	0.063
-404.267	-200.000	-0.016	0.348
-403.252	-200.000	-0.025	-0.212
-402.238	126.744	-0.079	0.100
-401.223	-142.855	0.274	0.027
-400.209	431.991	0.065	0.141
-399.194	-97.301	0.256	-0.067
-398.179	177.076	-0.092	0.134
-397.165	136.269	-0.092	0.120
-396.150	309.060	0.021	0.040
-395.136	169.473	-0.116	-0.165
-394.121	-52.136	0.301	0.140
-393.106	142.968	-0.084	-0.112
-392.092	-200.000	-0.010	0.059
-391.077	-200.000	-0.012	0.389
-390.063	125.513	-0.173	0.219
-389.048	67.652	0.053	0.054
-388.033	31.788	-0.056	0.048
-387.019	-81.032	0.077	-0.026
-386.004	-7.216	0.103	-0.070
-384.990	-64.952	-0.243	0.098
-383.975	-57.811	0.187	0.082
-382.960	-200.000	-0.001	0.192
-381.946	800.000	-0.035	0.148
-380.931	-143.780	-0.051	-0.005
-379.917	89.638	0.129	0.144
-378.902	-170.804	-0.256	-0.009
-377.888	-84.139	-0.187	0.060
-376.873	-40.723	-0.119	0.062
-375.858	800.000	-0.048	0.133
-374.844	-115.963	0.140	0.026
-373.829	-80.761	-0.117	-0.039
-372.815	135.714	0.144	0.187
-371.800	-200.000	-0.005	0.287
-370.785	-200.000	-0.020	-0.211
-369.771	-130.735	0.175	0.023
-368.756	-116.933	0.230	0.042
-367.742	-200.000	0.082	-0.533
-366.727	-200.000	0.002	0.141
-365.712	-171.939	-0.085	-0.003
-364.698	800.000	0.048	-0.148
-363.683	-171.077	0.435	-0.015
-362.669	294.912	-0.170	0.311
-361.654	-45.460	0.076	-0.038
-360.639	-82.647	-0.118	0.038
-359.625	800.000	-0.081	-0.281
-358.610	-81.890	0.309	0.101
-357.596	800.000	0.062	-0.220
-356.581	800.000	-0.049	-0.180
-355.566	-200.000	-0.065	0.286
-354.552	71.831	0.060	0.063
-353.537	-45.181	-0.196	0.097
-352.523	-27.682	-0.205	0.119
-351.508	524.989	0.059	-0.138
-350.493	-200.000	0.020	0.321
-349.479	-19.370	0.294	-0.183
-348.464	-200.000	-0.009	-0.229
-347.450	800.000	-0.120	0.333
-346.435	800.000	0.046	0.169
-345.420	68.873	0.288	-0.296
-344.406	-0.837	0.040	0.028
-343.391	-30.754	-0.083	-0.047
-342.377	-149.866	-0.169	-0.013
-341.362	-66.534	0.118	0.047
-340.348	-200.000	-0.033	-0.337
-339.333	-144.656	0.059	-0.005
-338.318	-145.805	-0.199	-0.018
-337.304	109.853	-0.063	-0.075
-336.289	-5.764	-0.359	-0.246
-335.275	-115.244	-0.164	-0.031
-334.260	182.898	-0.135	0.199
-333.245	-200.000	0.035	0.221
-332.231	-128.088	-0.433	0.062
-331.216	414.565	-0.136	0.289
-330.202	800.000	0.051	0.183
-329.187	255.177	-0.081	0.138
-328.172	-16.300	-0.133	-0.084
-327.158	105.610	-0.134	-0.159
-326.143	-12.411	-0.136	-0.089
-325.129	-99.662	0.237	0.059
-324.114	-98.956	-0.203	0.052
-323.099	6.572	-0.233	0.173
-322.085	85.105	0.118	0.130
-321.070	800.000	-0.013	-0.046
-320.056	140.002	0.142	-0.187
-319.041	-79.505	0.223	0.075
-318.026	423.330	0.118	0.254
-317.012	384.721	-0.027	-0.055
-315.997	1.045	-0.104	-0.075
-314.983	800.000	0.051	-0.143
-313.968	-25.755	0.175	-0.103
-312.953	-200.000	-0.020	0.246
-311.939	133.231	0.314	-0.405
-310.924	331.771	-0.122	0.236
-309.910	-66.623	0.244	0.097
-308.895	800.000	0.114	0.315
-307.880	-200.000	-0.076	-0.426
-306.866	-200.000	-0.005	-0.076
-305.851	-53.292	-0.171	0.078
-304.837	-118.014	-0.192	-0.034
-303.822	197.189	-0.245	-0.374
-302.807	800.000	0.068	-0.192
-301.793	68.708	-0.151	-0.154
-300.778	74.733	0.265	0.278
-299.764	36.006	-0.034	-0.030
-298.749	-134.137	-0.089	-0.011
-297.735	128.173	-0.084	-0.107
-296.720	-88.494	0.179	0.053
-295.705	-79.255	-0.202	-0.068
-294.691	38.338	0.282	-0.250
-293.676	90.760	-0.162	0.181
-292.662	-16.574	0.240	-0.152
-291.647	245.978	0.032	-0.054
-290.632	-49.278	0.111	-0.053
-289.618	443.079	0.035	0.076
-288.603	-92.537	0.136	-0.038
-287.589	-146.941	0.101	-0.009
-286.574	776.644	-0.090	0.246
-285.559	-17.656	0.047	-0.030
-284.545	-82.415	-0.061	0.020
-283.530	-118.235	0.197	0.035
-282.516	718.555	0.104	0.275
-281.501	-200.000	-0.028	-0.165
-280.486	-200.000	0.031	-0.440
-279.472	-200.000	0.107	-0.479
-278.457	-67.113	-0.216	0.085
-277.443	-88.365	-0.125	0.037
-276.428	-75.371	-0.343	0.122
-275.413	-107.120	0.184	-0.040
-274.399	159.563	-0.107	-0.149
-273.384	-101.905	-0.248	-0.060
-272.370	-59.961	-0.182	-0.078
-271.355	-200.000	-0.040	0.430
-270.340	56.183	-0.094	0.091
-269.326	-200.000	-0.006	-0.423
-268.311	-200.000	-0.036	0.227
-267.297	157.730	0.134	0.185
-266.282	800.000	-0.052	0.209
-265.267	17.738	0.180	0.143
-264.253	-109.211	-0.138	-0.029
-263.238	-72.416	0.250	-0.092
-262.224	-13.108	0.181	-0.117
-261.209	-200.000	0.045	0.229
-260.195	800.000	-0.083	-0.277
-259.180	-142.682	0.325	-0.032
-258.165	-91.961	0.389	-0.110
-257.151	-22.498	-0.230	0.139
-256.136	-102.262	-0.146	0.035
-255.122	-58.798	0.227	-0.098
-254.107	-200.000	-0.037	0.379
-253.092	349.498	-0.115	0.227
-252.078	800.000	0.101	0.318
-251.063	363.894	0.107	-0.215
-250.049	-200.000	-0.314	-0.001
-249.034	119.192	0.134	0.166
-248.019	800.000	-0.079	-0.246
-247.005	26.258	0.213	-0.177
-245.990	-73.381	-0.120	-0.044
-244.976	800.000	-0.067	-0.193
-243.961	0.128	-0.284	0.202
-242.946	-27.032	-0.271	0.157
-241.932	-200.000	-0.026	0.160
-240.917	-177.583	0.411	-0.010
-239.903	-120.394	-0.081	-0.014
-238.888	13.325	0.172	-0.133
-237.873	581.435	0.155	-0.378
-236.859	1.762	-0.204	-0.146
-235.844	347.924	-0.074	0.144
-234.830	44.450	0.274	0.250
-233.815	800.000	0.025	0.102
-232.800	-74.553	0.015	0.005
-231.786	-113.518	0.312	-0.061
-230.771	800.000	-0.130	0.492
-229.757	-200.000	-0.013	-0.134
-228.742	690.822	0.107	0.278
-227.727	12.277	0.360	0.276
-226.713	-200.000	-0.034	0.167
-225.698	-48.200	0.044	0.021
-224.684	800.000	-0.059	0.182
-223.669	-200.000	-0.012	0.137
-222.655	106.078	0.122	0.143
-221.640	505.132	-0.036	-0.084
-220.625	-2.149	-0.174	-0.122
-219.611	129.090	-0.261	-0.332
-218.596	-73.455	-0.091	-0.033
-217.582	269.732	-0.022	0.038
-216.567	-133.783	-0.009	-0.001
-215.552	-37.896	-0.135	-0.072
-214.538	-55.021	0.046	-0.021
-213.523	-200.000	-0.030	0.302
-212.509	92.117	0.069	0.078
-211.494	45.752	-0.088	-0.081
-210.479	740.168	0.076	0.203
-209.465	337.998	0.076	0.148
-208.450	4.308	-0.017	-0.012
-207.436	-200.000	-0.032	-0.193
-206.421	34.386	-0.261	-0.226
-205.406	-112.659	-0.204	-0.040
-204.392	-20.050	-0.141	-0.087
-203.377	-35.966	0.290	-0.156
-202.363	-192.905	-0.177	0.002
-201.348	800.000	-0.095	0.296
-200.333	17.354	0.129	0.102
-199.319	122.254	0.058	-0.072
-198.304	144.828	-0.171	-0.228
-197.290	-200.000	-0.012	-0.210
-196.275	161.084	0.198	0.274
-195.260	-200.000	0.031	-0.464
-194.246	19.213	0.113	0.090
-193.231	-200.000	-0.008	-0.057
-192.217	142.428	-0.200	0.264
-191.202	236.931	0.040	-0.065
-190.187	-30.514	0.259	0.146
-189.173	301.201	-0.111	0.205
-188.158	44.653	0.317	-0.289
-187.144	800.000	-0.044	0.182
-186.129	-0.780	-0.215	-0.151
-185.114	-200.000	0.031	-0.319
-184.100	333.903	-0.021	-0.039
-183.085	-5.069	0.153	0.105
-182.071	124.836	0.138	0.173
-181.056	-200.000	-0.017	-0.183
-180.042	-120.997	0.228	-0.038
-179.027	-200.000	-0.032	0.272
-178.012	-122.974	0.174	0.028
-176.998	49.646	0.251	0.235
-175.983	27.692	0.157	-0.131
-174.969	-200.000	-0.059	0.400
-173.954	-78.616	-0.333	0.113
-172.939	-12.223	-0.128	0.083
-171.925	-51.753	0.089	0.041
-170.910	-134.477	-0.230	0.028
-169.896	-90.471	0.341	-0.098
-168.881	83.453	0.229	0.248
-167.866	139.734	0.147	-0.193
-166.852	398.237	-0.186	0.386
-165.837	343.329	0.170	-0.331
-164.823	-166.111	0.082	0.003
-163.808	-200.000	-0.035	0.419
-162.793	53.433	0.090	0.085
-161.779	800.000	0.029	0.084
-160.764	800.000	-0.087	0.331
-159.750	-138.125	-0.302	0.033
-158.735	11.975	0.094	0.072
-157.720	79.551	0.162	0.173
-156.706	800.000	0.162	0.586
-155.691	800.000	0.052	0.195
-154.677	492.559	0.060	0.136
-153.662	-131.476	-0.026	-0.003
-152.647	366.276	0.091	-0.183
-151.633	-95.524	-0.135	0.036
-150.618	404.680	0.040	0.084
-149.604	5.923	-0.300	-0.220
-148.589	51.296	0.087	0.082
-147.574	-81.789	-0.155	-0.050
-146.560	278.488	0.157	-0.278
-145.545	137.222	0.128	-0.166
-144.531	-30.029	0.129	-0.073
-143.516	92.352	0.114	0.128
-142.502	800.000	0.014	0.053
-141.487	19.191	0.115	0.092
-140.472	-101.533	-0.160	0.039
-139.458	17.075	-0.083	-0.066
-138.443	-121.358	0.260	0.043
-137.429	299.818	0.063	0.115
-136.414	-200.000	-0.007	0.168
-135.399	177.230	0.165	0.238
-134.385	499.086	0.064	0.146
-133.370	800.000	0.006	-0.019
-132.356	459.357	0.066	0.145
-131.341	721.196	0.027	0.071
-130.326	800.000	-0.081	-0.227
-129.312	313.702	0.130	0.242
-128.297	57.765	0.083	-0.080
-127.283	560.986	-0.116	-0.277
-126.268	-200.000	-0.006	-0.042
-125.253	-200.000	-0.026	-0.261
-124.239	-4.410	-0.063	-0.043
-123.224	108.314	0.256	0.303
-122.210	721.162	-0.080	0.210
-121.195	800.000	-0.043	0.178
