DTS Sentinel unit serial number:	SN413079Multiplexer serial number:	ORYXHardware model number:	OX4-SRSoftware version number:	ORYX F/W v4.00 Oryx Data Collector v3.7.2.0data status	okinstallation	princeton_trtdifferential loss correction	single-endedforward channel	channel 4reverse channel	N/Adate	2019/09/12time	00:03:10forward acquisition time	60.00reverse acquisition time	0.00gamma	496.2192k internal	0.2309k external	0.2309temperature offset calibration	1.0092default loss term (dB/km)	0.3790temperature slope calibration	1.0000multiplexer offset coefficient	1.0000multiplexer slope coefficient	1.0000fibre end	0.00T internal ref (°C)	33.70T ext. ref 1 (°C)	2.01T ext. ref 2 (°C)	28.18length (m)	temperature (°C)	Stokes	anti-Stokes-747.200	-74.983	0.195	0.071
-746.185	783.042	0.039	0.108
-745.171	-15.791	0.209	-0.135
-744.156	-107.960	-0.117	-0.026
-743.142	-200.000	0.056	0.263
-742.127	188.219	-0.146	0.221
-741.112	-50.788	0.095	-0.045
-740.098	-68.290	-0.107	-0.042
-739.083	-200.000	-0.024	0.115
-738.069	155.464	-0.133	0.185
-737.054	97.338	-0.211	-0.246
-736.039	-0.978	-0.016	-0.012
-735.025	800.000	0.116	0.371
-734.010	61.241	-0.179	-0.180
-732.996	79.375	-0.099	-0.108
-731.981	-43.713	0.325	-0.167
-730.966	116.674	0.106	-0.132
-729.952	245.313	-0.112	0.192
-728.937	-142.136	-0.186	-0.019
-727.923	-55.450	-0.292	0.133
-726.908	800.000	0.131	-0.377
-725.894	-51.063	-0.425	-0.203
-724.879	-47.973	0.187	-0.092
-723.864	54.260	0.144	0.140
-722.850	530.873	0.149	-0.358
-721.835	431.518	-0.059	0.129
-720.821	125.559	0.041	0.053
-719.806	66.573	-0.105	-0.109
-718.791	-5.548	-0.444	-0.309
-717.777	-10.704	-0.069	0.046
-716.762	108.521	-0.148	-0.179
-715.748	752.106	-0.029	0.080
-714.733	-29.702	0.113	0.065
-713.718	634.540	0.111	-0.285
-712.704	800.000	-0.119	-0.426
-711.689	28.058	0.139	0.119
-710.675	-200.000	-0.006	-0.035
-709.660	-32.548	-0.212	0.120
-708.645	-200.000	0.007	0.137
-707.631	137.416	-0.189	0.251
-706.616	-68.814	-0.064	-0.025
-705.602	-35.754	-0.370	0.203
-704.587	-46.842	-0.404	0.200
-703.572	800.000	0.065	-0.187
-702.558	-11.757	-0.076	-0.051
-701.543	-111.358	-0.107	-0.022
-700.529	-200.000	-0.006	-0.071
-699.514	800.000	0.032	-0.139
-698.499	-26.831	-0.102	0.060
-697.485	-42.239	0.182	-0.094
-696.470	-200.000	-0.015	0.208
-695.456	533.717	-0.024	-0.058
-694.441	800.000	0.018	0.064
-693.426	-116.156	-0.430	0.081
-692.412	-167.245	-0.041	-0.002
-691.397	-162.165	0.017	0.001
-690.383	-132.354	-0.084	-0.011
-689.368	-80.401	0.419	-0.142
-688.354	56.968	-0.405	-0.400
-687.339	19.218	-0.288	-0.235
-686.324	-27.616	-0.365	-0.215
-685.310	88.985	0.182	0.206
-684.295	-200.000	0.038	-0.221
-683.281	-95.704	-0.193	0.052
-682.266	259.649	0.101	-0.176
-681.251	9.718	-0.234	0.180
-680.237	11.391	-0.128	-0.100
-679.222	-200.000	0.013	0.121
-678.208	-49.589	-0.165	-0.079
-677.193	198.039	0.112	-0.174
-676.178	187.647	-0.238	0.359
-675.164	176.370	0.096	0.141
-674.149	800.000	0.068	0.259
-673.135	-145.905	-0.230	0.021
-672.120	278.537	-0.070	-0.127
-671.105	-133.881	-0.307	0.039
-670.091	58.260	0.127	-0.126
-669.076	-164.529	0.517	0.024
-668.062	-37.574	-0.298	0.161
-667.047	604.632	0.120	0.302
-666.032	-77.722	-0.084	0.029
-665.018	600.766	-0.086	0.216
-664.003	116.417	-0.162	-0.201
-662.989	432.463	-0.137	-0.301
-661.974	84.832	0.190	0.210
-660.959	-148.486	-0.278	-0.023
-659.945	147.875	-0.038	0.051
-658.930	-31.303	-0.250	0.143
-657.916	-128.644	-0.067	0.010
-656.901	-140.340	0.109	0.012
-655.886	-200.000	0.011	-0.153
-654.872	50.682	-0.164	-0.157
-653.857	-200.000	0.028	0.272
-652.843	132.152	-0.248	-0.323
-651.828	536.017	0.073	-0.176
-650.814	-22.685	0.517	-0.316
-649.799	161.718	-0.104	0.147
-648.784	-200.000	-0.005	-0.119
-647.770	-200.000	0.017	-0.154
-646.755	-99.800	-0.337	0.085
-645.741	800.000	0.054	0.175
-644.726	360.496	0.079	0.160
-643.711	-84.563	0.129	-0.041
-642.697	-6.952	-0.146	0.100
-641.682	-200.000	0.070	-0.316
-640.668	-200.000	0.029	0.151
-639.653	180.898	0.092	0.136
-638.638	-200.000	0.021	-0.102
-637.624	-200.000	-0.007	-0.182
-636.609	-58.062	-0.106	-0.047
-635.595	73.437	-0.060	0.063
-634.580	593.178	-0.074	-0.184
-633.565	-50.065	0.156	-0.075
-632.551	165.535	0.045	0.065
-631.536	-200.000	-0.069	-0.445
-630.522	200.023	-0.078	-0.121
-629.507	-124.805	0.420	-0.066
-628.492	544.899	0.139	-0.337
-627.478	800.000	-0.047	-0.142
-626.463	736.688	0.041	0.112
-625.449	542.711	-0.075	-0.181
-624.434	800.000	0.047	0.135
-623.419	132.916	0.099	-0.129
-622.405	196.594	0.126	-0.194
-621.390	197.508	-0.104	-0.161
-620.376	135.493	0.117	-0.154
-619.361	207.988	0.187	-0.296
-618.346	386.985	-0.052	0.108
-617.332	-51.279	-0.096	0.046
-616.317	-58.869	-0.120	-0.053
-615.303	22.132	-0.176	0.145
-614.288	-200.000	-0.045	0.310
-613.273	461.137	0.111	-0.250
-612.259	38.771	-0.102	-0.092
-611.244	28.215	0.142	-0.122
-610.230	-41.013	-0.047	0.025
-609.215	-27.118	0.318	0.187
-608.201	-72.548	-0.105	0.039
-607.186	-161.413	-0.138	-0.007
-606.171	44.852	0.144	0.134
-605.157	-46.474	-0.053	-0.026
-604.142	-133.072	-0.162	0.021
-603.128	111.711	-0.178	0.217
-602.113	-137.237	-0.432	-0.050
-601.098	-200.000	0.017	0.563
-600.084	-53.253	-0.156	0.072
-599.069	178.022	0.198	0.292
-598.055	32.339	-0.245	-0.214
-597.040	545.445	-0.021	-0.050
-596.025	-200.000	-0.007	-0.268
-595.011	-200.000	0.025	0.299
-593.996	662.207	0.090	0.235
-592.982	170.340	-0.092	-0.133
-591.967	119.113	0.068	-0.084
-590.952	403.604	0.086	0.183
-589.938	-162.456	0.333	-0.017
-588.923	-82.134	-0.166	0.055
-587.909	226.301	-0.032	0.052
-586.894	73.663	-0.083	-0.088
-585.879	800.000	0.050	-0.176
-584.865	-35.812	-0.217	-0.119
-583.850	10.796	-0.144	-0.111
-582.836	-27.613	-0.263	-0.154
-581.821	-23.985	0.135	0.081
-580.806	-200.000	-0.057	0.314
-579.792	290.050	0.042	0.078
-578.777	415.518	-0.103	-0.222
-577.763	20.912	-0.069	-0.056
-576.748	-200.000	-0.012	-0.076
-575.733	90.470	0.171	-0.193
-574.719	-200.000	-0.026	0.233
-573.704	57.329	0.192	0.190
-572.690	800.000	0.065	0.214
-571.675	-200.000	-0.010	0.181
-570.661	-200.000	0.047	0.289
-569.646	-200.000	0.032	0.205
-568.631	-81.257	0.129	0.043
-567.617	-200.000	-0.034	-0.175
-566.602	185.433	0.030	0.045
-565.588	800.000	0.109	-0.305
-564.573	150.995	0.036	0.050
-563.558	-200.000	-0.007	-0.101
-562.544	-154.302	0.036	0.002
-561.529	-28.529	-0.306	-0.178
-560.515	17.682	0.365	-0.293
-559.500	508.781	-0.009	-0.022
-558.485	306.740	0.082	-0.153
-557.471	327.112	0.047	-0.092
-556.456	-73.017	-0.137	-0.051
-555.442	-200.000	-0.019	-0.099
-554.427	113.572	-0.063	0.077
-553.412	-189.301	-0.165	-0.002
-552.398	-95.804	0.394	-0.106
-551.383	375.433	-0.073	-0.151
-550.369	-200.000	-0.009	-0.383
-549.354	-200.000	0.035	0.315
-548.339	168.001	0.098	0.141
-547.325	-83.565	0.098	0.032
-546.310	-95.533	0.401	0.108
-545.296	177.628	-0.054	0.080
-544.281	299.700	0.108	-0.201
-543.266	139.812	0.077	0.103
-542.252	-200.000	0.038	-0.223
-541.237	109.084	-0.053	-0.064
-540.223	88.517	0.041	0.046
-539.208	345.305	-0.154	0.304
-538.193	437.498	0.039	0.086
-537.179	-51.473	0.202	-0.095
-536.164	-200.000	-0.008	-0.202
-535.150	-200.000	-0.174	0.000
-534.135	-69.777	0.330	0.127
-533.121	-75.755	-0.272	0.097
-532.106	33.806	-0.217	-0.190
-531.091	-52.235	0.102	-0.048
-530.077	234.458	0.059	0.097
-529.062	-200.000	-0.015	-0.181
-528.048	541.949	0.078	-0.187
-527.033	140.897	-0.028	0.037
-526.018	222.866	-0.047	-0.077
-525.004	800.000	-0.037	0.113
-523.989	800.000	0.034	0.141
-522.975	101.688	0.072	0.085
-521.960	-120.971	-0.396	0.067
-520.945	-200.000	0.023	-0.352
-519.931	800.000	0.019	0.081
-518.916	800.000	0.106	0.357
-517.902	40.651	-0.119	-0.108
-516.887	45.576	-0.114	0.106
-515.872	800.000	0.037	0.112
-514.858	62.164	0.193	0.194
-513.843	153.699	-0.202	0.278
-512.829	-64.785	-0.238	0.097
-511.814	415.337	-0.136	0.292
-510.799	130.858	-0.261	-0.337
-509.785	134.637	0.069	-0.090
-508.770	436.067	-0.043	0.094
-507.756	26.912	0.165	-0.139
-506.741	177.075	0.155	0.227
-505.726	-30.789	-0.127	-0.073
-504.712	-132.003	-0.365	-0.048
-503.697	-26.662	0.066	-0.039
-502.683	-40.777	0.278	-0.145
-501.668	800.000	-0.105	-0.318
-500.653	56.701	0.091	-0.089
-499.639	111.486	0.030	-0.036
-498.624	-115.389	-0.154	0.029
-497.610	-200.000	-0.066	0.308
-496.595	243.013	-0.057	-0.097
-495.581	-64.477	0.200	0.082
-494.566	-197.653	-0.042	0.000
-493.551	-200.000	0.008	0.149
-492.537	-54.758	-0.376	-0.171
-491.522	800.000	0.048	0.197
-490.508	-120.726	0.220	0.037
-489.493	218.618	-0.149	0.239
-488.478	265.166	0.210	-0.368
-487.464	266.432	-0.140	-0.247
-486.449	-200.000	-0.027	-0.280
-485.435	160.504	-0.198	-0.278
-484.420	-93.551	0.376	-0.105
-483.405	-36.013	-0.395	0.215
-482.391	800.000	0.014	-0.057
-481.376	650.573	0.124	0.319
-480.362	4.853	-0.302	-0.223
-479.347	800.000	-0.050	-0.163
-478.332	106.847	-0.165	-0.197
-477.318	-114.230	0.145	-0.028
-476.303	90.537	0.144	-0.163
-475.289	-170.354	0.141	0.005
-474.274	699.202	-0.057	-0.151
-473.259	34.168	-0.186	0.163
-472.245	-117.707	0.273	0.049
-471.230	42.438	0.089	0.082
-470.216	61.217	-0.110	-0.110
-469.201	-200.000	-0.052	-0.283
-468.186	-200.000	0.313	0.000
-467.172	33.433	-0.176	0.154
-466.157	-114.325	0.058	-0.011
-465.143	-200.000	0.054	-0.399
-464.128	77.324	0.108	0.115
-463.113	-52.032	-0.082	-0.038
-462.099	304.714	-0.209	-0.390
-461.084	87.496	0.136	-0.152
-460.070	263.382	0.226	-0.394
-459.055	-150.242	0.133	-0.010
-458.040	180.516	-0.104	0.153
-457.026	226.239	-0.138	-0.225
-456.011	-142.426	0.213	-0.021
-454.997	-111.544	-0.132	0.027
-453.982	-116.017	-0.090	-0.017
-452.968	377.943	-0.150	-0.308
-451.953	-200.000	0.103	-0.469
-450.938	379.184	-0.094	0.192
-449.924	-200.000	-0.000	0.044
-448.909	-96.804	0.247	0.065
-447.895	136.433	0.208	0.273
-446.880	-67.775	0.096	-0.038
-445.865	137.365	0.148	-0.194
-444.851	108.732	0.178	-0.214
-443.836	-56.125	-0.134	-0.060
-442.822	800.000	0.081	-0.255
-441.807	39.469	-0.156	0.140
-440.792	-67.096	-0.246	-0.097
-439.778	-16.990	0.234	0.148
-438.763	453.398	-0.143	-0.317
-437.749	64.857	0.242	0.246
-436.734	-126.187	0.215	0.032
-435.719	331.315	0.115	0.222
-434.705	123.576	-0.357	0.449
-433.690	800.000	-0.016	0.044
-432.676	166.347	-0.086	0.122
-431.661	-89.032	0.259	0.077
-430.646	40.237	-0.231	-0.208
-429.632	-159.226	-0.398	0.022
-428.617	-200.000	-0.008	0.102
-427.603	-34.991	0.250	-0.137
-426.588	-44.581	-0.102	-0.051
-425.573	77.696	0.224	0.239
-424.559	-6.438	0.249	0.170
-423.544	-186.183	0.088	0.001
-422.530	-200.000	0.001	-0.148
-421.515	-148.491	0.050	0.004
-420.500	154.431	-0.217	0.298
-419.486	82.634	-0.028	-0.031
-418.471	26.406	0.209	0.176
-417.457	187.015	-0.303	0.453
-416.442	15.502	0.295	0.233
-415.428	87.829	0.242	-0.269
-414.413	-6.360	0.177	-0.121
-413.398	545.513	-0.088	-0.211
-412.384	-21.198	-0.059	0.036
-411.369	642.697	-0.124	0.316
-410.355	-200.000	-0.039	0.433
-409.340	209.000	0.099	-0.155
-408.325	-83.176	0.167	0.054
-407.311	542.062	-0.120	-0.286
-406.296	-200.000	0.066	0.379
-405.282	-82.540	-0.111	0.036
-404.267	-197.129	-0.218	-0.001
-403.252	-200.000	0.008	0.314
-402.238	-200.000	-0.001	0.248
-401.223	-73.448	0.147	0.054
-400.209	800.000	-0.044	0.141
-399.194	180.669	-0.069	-0.102
-398.179	-39.614	-0.067	-0.035
-397.165	-45.599	-0.207	-0.103
-396.150	-200.000	0.009	0.055
-395.136	-6.438	0.254	0.173
-394.121	565.547	-0.142	0.344
-393.106	-157.163	-0.422	-0.026
-392.092	34.575	-0.093	0.082
-391.077	15.775	0.174	-0.137
-390.063	-20.652	0.209	-0.128
-389.048	-113.380	0.347	0.068
-388.033	-131.361	-0.049	-0.006
-387.019	196.221	-0.049	-0.074
-386.004	-147.088	-0.269	0.023
-384.990	-200.000	-0.044	-0.205
-383.975	174.295	-0.219	-0.318
-382.960	334.564	0.139	-0.270
-381.946	101.808	-0.257	0.301
-380.931	-3.882	-0.393	0.273
-379.917	122.975	-0.108	0.136
-378.902	14.033	0.324	0.253
-377.888	-151.392	0.365	-0.027
-376.873	-37.045	0.223	0.119
-375.858	-200.000	-0.026	-0.182
-374.844	276.288	0.151	-0.269
-373.829	800.000	0.118	-0.362
-372.815	578.740	0.092	-0.226
-371.800	-200.000	-0.110	-0.555
-370.785	-77.258	0.031	0.011
-369.771	800.000	0.084	-0.308
-368.756	478.358	0.167	0.378
-367.742	148.411	0.137	0.185
-366.727	-159.352	-0.046	-0.003
-365.712	800.000	-0.053	0.167
-364.698	123.755	-0.145	0.182
-363.683	-141.780	-0.265	-0.027
-362.669	-200.000	-0.029	-0.551
-361.654	-165.605	0.131	0.006
-360.639	387.837	0.142	0.294
-359.625	-20.866	-0.150	0.092
-358.610	283.524	-0.178	-0.321
-357.596	-62.520	-0.214	-0.089
-356.581	190.043	0.174	0.261
-355.566	298.718	0.033	0.060
-354.552	800.000	-0.039	0.121
-353.537	-182.676	-0.207	-0.004
-352.523	-200.000	0.021	-0.266
-351.508	-157.992	0.051	-0.003
-350.493	-67.306	0.155	0.061
-349.479	-92.019	0.229	-0.065
-348.464	-164.086	-0.174	-0.008
-347.450	101.189	0.283	0.330
-346.435	215.345	-0.301	0.478
-345.420	800.000	-0.036	-0.120
-344.406	198.514	-0.253	-0.387
-343.391	-113.540	0.047	-0.009
-342.377	-200.000	-0.031	-0.327
-341.362	-14.051	0.355	-0.229
-340.348	-198.693	-0.140	-0.001
-339.333	78.556	-0.264	0.282
-338.318	-41.073	0.187	0.097
-337.304	316.005	-0.087	0.164
-336.289	753.810	-0.045	-0.121
-335.275	61.071	-0.272	-0.270
-334.260	-109.077	0.351	-0.075
-333.245	309.378	-0.022	-0.040
-332.231	800.000	-0.076	0.315
-331.216	-200.000	0.017	-0.375
-330.202	-141.945	0.300	0.030
-329.187	-200.000	-0.001	0.260
-328.172	-103.357	-0.272	-0.064
-327.158	800.000	-0.200	0.613
-326.143	-143.012	0.409	0.040
-325.129	-83.373	-0.276	-0.088
-324.114	-106.543	0.167	0.037
-323.099	1.314	-0.091	0.065
-322.085	406.600	0.163	0.343
-321.070	-96.612	0.394	-0.104
-320.056	42.182	-0.087	-0.079
-319.041	773.141	-0.072	0.197
-318.026	-171.919	-0.384	-0.012
-317.012	-200.000	0.080	0.372
-315.997	800.000	-0.089	0.359
-314.983	-1.530	0.285	0.201
-313.968	-71.851	0.240	-0.089
-312.953	214.101	-0.064	0.101
-311.939	-75.778	-0.129	-0.046
-310.924	-80.593	-0.183	-0.061
-309.910	-134.560	0.174	-0.021
-308.895	86.550	0.114	-0.126
-307.880	800.000	-0.105	0.408
-306.866	139.567	-0.124	-0.164
-305.851	-125.239	-0.110	-0.017
-304.837	82.492	-0.091	0.099
-303.822	-37.316	-0.234	-0.125
-302.807	38.827	-0.039	-0.035
-301.793	657.229	-0.058	0.148
-300.778	-200.000	0.018	0.109
-299.764	-200.000	0.008	0.089
-298.749	292.928	0.064	-0.116
-297.735	800.000	0.065	0.207
-296.720	-13.128	0.256	0.166
-295.705	-200.000	0.010	0.058
-294.691	-53.012	-0.100	-0.046
-293.676	-106.277	-0.354	-0.079
-292.662	-200.000	0.013	-0.135
-291.647	459.583	-0.093	-0.206
-290.632	146.500	-0.063	0.085
-289.618	-200.000	0.052	-0.365
-288.603	43.262	0.134	-0.122
-287.589	227.058	-0.056	0.091
-286.574	-200.000	0.004	-0.020
-285.559	-200.000	-0.001	-0.092
-284.545	-63.351	-0.115	-0.047
-283.530	166.053	0.115	0.162
-282.516	100.296	-0.080	-0.093
-281.501	-200.000	0.003	-0.232
-280.486	800.000	-0.045	0.144
-279.472	-22.506	0.207	0.125
-278.457	80.671	0.058	0.062
-277.443	-139.820	-0.369	-0.039
-276.428	612.810	-0.208	0.519
-275.413	316.637	-0.140	0.264
-274.399	-185.737	0.213	-0.003
-273.384	384.980	0.035	0.072
-272.370	800.000	0.052	0.149
-271.355	46.025	0.125	-0.115
-270.340	-58.955	-0.277	-0.119
-269.326	-28.483	0.146	-0.084
-268.311	89.060	-0.406	-0.451
-267.297	-144.629	-0.009	0.001
-266.282	-137.030	-0.146	-0.017
-265.267	54.017	-0.148	-0.142
-264.253	-49.965	-0.298	0.141
-263.238	53.727	0.126	0.120
-262.224	21.384	0.079	0.064
-261.209	-78.899	-0.252	0.085
-260.195	-80.171	-0.310	-0.104
-259.180	-85.587	0.037	0.012
-258.165	125.282	-0.204	0.256
-257.151	-200.000	-0.009	0.310
-256.136	800.000	-0.071	0.270
-255.122	-127.701	-0.307	0.044
-254.107	800.000	-0.045	0.134
-253.092	800.000	0.016	0.052
-252.078	-143.149	-0.150	-0.014
-251.063	296.793	-0.100	0.183
-250.049	-200.000	0.010	-0.077
-249.034	124.165	-0.188	0.235
-248.019	-102.688	-0.138	-0.033
-247.005	-130.650	0.139	0.019
-245.990	512.762	0.005	0.011
-244.976	-70.661	0.108	-0.041
-243.961	-138.306	-0.151	0.017
-242.946	186.804	-0.110	-0.164
-241.932	-200.000	0.001	-0.351
-240.917	148.378	0.172	0.231
-239.903	517.545	-0.069	0.160
-238.888	613.742	0.169	0.423
-237.873	177.349	0.116	0.168
-236.859	-24.099	0.233	-0.139
-235.844	61.234	-0.161	-0.160
-234.830	-146.425	-0.117	0.010
-233.815	751.214	0.100	-0.269
-232.800	-35.118	-0.037	-0.020
-231.786	800.000	0.114	-0.346
-230.771	389.475	-0.038	0.078
-229.757	85.608	-0.223	0.244
-228.742	-75.922	-0.343	0.121
-227.727	18.607	0.237	0.189
-226.713	194.565	0.089	0.135
-225.698	37.518	0.081	-0.072
-224.684	283.710	0.114	0.204
-223.669	16.558	0.268	0.211
-222.655	-16.462	0.235	-0.148
-221.640	-107.547	-0.159	-0.035
-220.625	-39.196	0.147	0.077
-219.611	144.128	0.136	-0.181
-218.596	678.652	0.178	-0.460
-217.582	-103.061	0.254	0.060
-216.567	156.701	0.244	0.335
-215.552	-73.659	-0.208	0.075
-214.538	58.810	-0.044	0.043
-213.523	-57.462	-0.342	-0.149
-212.509	103.345	-0.153	0.178
-211.494	-78.204	0.177	-0.061
-210.479	-200.000	-0.003	0.246
-209.465	800.000	0.045	-0.144
-208.450	179.228	-0.093	0.135
-207.436	800.000	-0.049	-0.146
-206.421	156.837	-0.113	-0.155
-205.406	-56.319	-0.301	0.133
-204.392	159.496	-0.057	-0.078
-203.377	86.105	-0.180	0.197
-202.363	-200.000	0.009	0.143
-201.348	800.000	-0.071	-0.302
-200.333	-50.501	0.295	-0.138
-199.319	-87.253	0.270	-0.081
-198.304	-133.734	0.171	0.021
-197.290	43.098	0.217	0.197
-196.275	62.501	-0.070	-0.069
-195.260	294.886	0.138	0.252
-194.246	55.032	-0.124	-0.120
-193.231	-200.000	0.044	-0.220
-192.217	800.000	0.013	0.037
-191.202	-200.000	0.007	-0.095
-190.187	71.996	0.242	-0.250
-189.173	482.918	0.088	0.200
-188.158	35.506	0.196	-0.171
-187.144	30.815	0.337	-0.287
-186.129	-53.184	0.152	0.069
-185.114	449.892	0.068	-0.150
-184.100	616.423	0.127	-0.317
-183.085	-200.000	0.078	-0.344
-182.071	35.366	0.283	-0.247
-181.056	-63.707	0.339	0.138
-180.042	-115.266	-0.243	0.046
-179.027	622.290	-0.141	-0.352
-178.012	800.000	-0.068	0.292
-176.998	-132.822	0.192	0.024
-175.983	-42.281	-0.061	0.031
-174.969	23.561	-0.147	0.120
-173.954	-148.827	-0.260	-0.021
-172.939	-9.391	0.435	-0.288
-171.925	-141.568	-0.121	0.012
-170.910	510.435	0.067	-0.155
-169.896	85.493	0.188	0.206
-168.881	-125.498	0.322	0.049
-167.866	303.773	-0.050	0.093
-166.852	62.701	0.060	0.060
-165.837	26.296	-0.324	-0.269
-164.823	800.000	-0.058	-0.222
-163.808	-92.508	-0.136	-0.038
-162.793	132.742	0.066	-0.085
-161.779	3.366	-0.042	0.030
-160.764	-33.529	-0.325	-0.178
-159.750	535.586	0.060	-0.142
-158.735	240.127	0.099	0.164
-157.720	246.381	-0.097	0.162
-156.706	50.514	0.165	0.155
-155.691	93.043	-0.078	0.088
-154.677	-99.554	0.338	0.084
-153.662	800.000	-0.061	0.184
-152.647	193.478	0.083	0.125
-151.633	195.653	0.081	-0.122
-150.618	94.912	0.172	0.194
-149.604	75.892	-0.201	0.211
-148.589	800.000	-0.082	0.353
-147.574	98.372	0.187	0.214
-146.560	6.631	-0.198	0.146
-145.545	-43.059	0.175	0.088
-144.531	105.865	0.206	-0.242
-143.516	60.747	0.142	-0.140
-142.502	800.000	0.070	0.197
-141.487	102.119	-0.092	0.106
-140.472	36.934	-0.092	-0.081
-139.458	-200.000	0.036	0.335
-138.443	-55.111	-0.258	0.115
-137.429	-123.462	0.196	-0.031
-136.414	52.432	0.198	-0.187
-135.399	32.237	-0.231	0.198
-134.385	800.000	0.058	0.193
-133.370	-124.938	-0.123	0.019
-132.356	70.301	-0.182	0.187
-131.341	196.826	-0.094	0.143
-130.326	157.219	0.002	0.003
-129.312	303.646	0.052	0.096
-128.297	-200.000	-0.040	0.260
-127.283	214.815	-0.101	-0.158
-126.268	484.379	0.096	0.216
-125.253	2.538	0.305	0.219
-124.239	-77.471	-0.315	0.108
-123.224	-150.328	-0.214	-0.016
-122.210	-132.898	-0.077	0.010
-121.195	283.892	-0.123	0.219
