DTS Sentinel unit serial number:	SN413079Multiplexer serial number:	ORYXHardware model number:	OX4-SRSoftware version number:	ORYX F/W v4.00 Oryx Data Collector v3.7.2.0data status	okinstallation	princeton_trtdifferential loss correction	single-endedforward channel	channel 4reverse channel	N/Adate	2019/09/11time	04:15:11forward acquisition time	60.00reverse acquisition time	0.00gamma	496.2192k internal	0.2315k external	0.2315temperature offset calibration	0.9945default loss term (dB/km)	0.3790temperature slope calibration	1.0000multiplexer offset coefficient	1.0000multiplexer slope coefficient	1.0000fibre end	0.00T internal ref (°C)	29.56T ext. ref 1 (°C)	-0.30T ext. ref 2 (°C)	23.51length (m)	temperature (°C)	Stokes	anti-Stokes-747.200	-200.000	0.020	0.207
-746.185	78.617	-0.142	0.154
-745.171	168.677	-0.090	0.131
-744.156	83.345	0.096	0.106
-743.142	-60.168	0.068	0.030
-742.127	-89.261	0.393	-0.117
-741.112	-67.272	0.276	0.110
-740.098	3.714	-0.138	0.102
-739.083	800.000	0.090	0.278
-738.069	-100.238	-0.033	-0.008
-737.054	-92.240	-0.127	0.036
-736.039	158.543	-0.042	0.060
-735.025	-200.000	0.024	0.460
-734.010	207.396	0.248	0.392
-732.996	-200.000	0.044	-0.221
-731.981	-132.898	-0.148	0.019
-730.966	-200.000	0.017	-0.310
-729.952	-68.680	0.190	-0.074
-728.937	-108.684	-0.248	-0.054
-727.923	47.406	0.109	0.103
-726.908	-52.593	0.109	-0.051
-725.894	-21.596	0.159	-0.098
-724.879	186.468	0.149	-0.225
-723.864	-200.000	-0.004	0.077
-722.850	58.842	0.122	-0.121
-721.835	-200.000	-0.006	-0.232
-720.821	-125.250	-0.137	-0.021
-719.806	102.485	-0.121	-0.143
-718.791	-166.375	0.040	0.002
-717.777	-139.804	-0.255	0.027
-716.762	-200.000	0.014	0.106
-715.748	-67.462	0.232	0.092
-714.733	294.852	-0.129	0.238
-713.718	284.749	-0.076	-0.138
-712.704	-200.000	-0.017	0.182
-711.689	-82.050	0.191	0.063
-710.675	20.342	-0.097	-0.080
-709.660	763.290	-0.126	0.345
-708.645	-200.000	-0.024	-0.338
-707.631	360.905	0.048	-0.097
-706.616	-87.936	0.118	0.036
-705.602	69.755	0.171	0.178
-704.587	574.705	-0.197	0.487
-703.572	47.610	-0.251	-0.237
-702.558	-96.406	-0.097	-0.026
-701.543	316.736	-0.236	0.451
-700.529	-37.663	0.157	0.085
-699.514	-200.000	-0.020	0.154
-698.499	273.158	0.085	-0.152
-697.485	-142.486	-0.344	-0.034
-696.470	233.151	0.092	0.153
-695.456	-147.350	-0.598	-0.051
-694.441	753.992	0.140	0.384
-693.426	277.491	-0.205	0.369
-692.412	-44.971	-0.095	0.048
-691.397	-200.000	0.002	0.154
-690.383	-200.000	-0.002	-0.056
-689.368	-200.000	-0.052	0.394
-688.354	-200.000	0.011	-0.182
-687.339	391.794	-0.069	-0.146
-686.324	-81.190	-0.306	0.102
-685.310	-1.473	-0.173	-0.124
-684.295	800.000	0.128	0.363
-683.281	396.672	0.058	-0.123
-682.266	233.734	0.170	-0.282
-681.251	436.366	-0.042	0.093
-680.237	-6.391	0.230	0.158
-679.222	784.943	0.115	-0.320
-678.208	48.263	0.074	0.070
-677.193	451.702	-0.059	-0.132
-676.178	451.584	-0.072	0.160
-675.164	253.844	-0.132	-0.228
-674.149	-200.000	-0.033	-0.271
-673.135	-73.192	-0.148	-0.055
-672.120	328.606	-0.128	-0.249
-671.105	-75.927	0.364	-0.130
-670.091	-200.000	0.061	0.332
-669.076	-155.233	-0.097	-0.006
-668.062	-161.392	0.104	-0.005
-667.047	272.009	-0.074	-0.132
-666.032	-200.000	0.062	-0.287
-665.018	68.270	0.086	-0.089
-664.003	15.542	0.142	-0.113
-662.989	-86.928	0.073	-0.023
-661.974	352.779	-0.149	-0.299
-660.959	-178.627	0.168	-0.004
-659.945	-63.891	-0.356	0.147
-658.930	418.734	0.114	0.247
-657.916	517.267	0.048	0.114
-656.901	36.553	0.161	-0.143
-655.886	-2.415	-0.201	-0.142
-654.872	-104.591	-0.299	-0.070
-653.857	-200.000	0.053	0.261
-652.843	-200.000	0.047	-0.221
-651.828	800.000	-0.125	0.399
-650.814	-37.244	-0.248	-0.134
-649.799	-76.985	0.269	-0.095
-648.784	1.416	0.075	-0.054
-647.770	480.818	-0.067	-0.154
-646.755	22.735	-0.094	0.078
-645.741	-123.396	0.271	0.044
-644.726	-46.183	0.249	0.124
-643.711	-200.000	-0.064	-0.324
-642.697	-200.000	-0.071	-0.315
-641.682	800.000	-0.085	0.277
-640.668	92.260	-0.139	-0.158
-639.653	-200.000	0.010	0.114
-638.638	74.434	-0.153	-0.163
-637.624	690.584	0.092	-0.244
-636.609	800.000	-0.040	0.119
-635.595	240.488	-0.015	-0.026
-634.580	102.954	0.117	-0.138
-633.565	-200.000	0.001	0.398
-632.551	118.477	-0.189	0.236
-631.536	800.000	-0.053	-0.178
-630.522	-9.452	-0.239	0.161
-629.507	168.352	-0.188	0.270
-628.492	-120.541	0.195	0.033
-627.478	101.638	-0.062	-0.073
-626.463	15.128	-0.129	-0.102
-625.449	-29.908	0.245	0.141
-624.434	-46.215	0.151	-0.075
-623.419	-200.000	-0.028	-0.174
-622.405	-32.166	-0.127	-0.071
-621.390	-200.000	-0.066	0.562
-620.376	496.199	-0.061	0.141
-619.361	-32.503	0.066	0.037
-618.346	-42.902	0.100	0.051
-617.332	-2.081	0.150	-0.107
-616.317	174.248	0.104	-0.152
-615.303	156.722	-0.179	-0.249
-614.288	463.532	0.060	-0.136
-613.273	108.569	0.196	-0.236
-612.259	130.548	-0.089	0.115
-611.244	-150.673	-0.348	0.027
-610.230	-144.990	0.109	0.010
-609.215	-65.983	0.206	-0.083
-608.201	141.500	-0.272	-0.363
-607.186	9.109	0.011	-0.009
-606.171	16.891	-0.164	0.131
-605.157	-117.413	-0.260	-0.047
-604.142	-200.000	0.081	0.451
-603.128	-61.072	-0.193	-0.082
-602.113	-38.043	-0.358	-0.192
-601.098	-20.147	-0.151	-0.093
-600.084	104.344	0.032	-0.038
-599.069	-67.540	-0.310	-0.122
-598.055	-200.000	-0.019	-0.275
-597.040	-125.266	-0.246	-0.038
-596.025	192.864	0.019	-0.029
-595.011	-200.000	-0.086	0.000
-593.996	118.807	0.217	0.270
-592.982	-13.665	-0.246	-0.160
-591.967	-195.278	0.092	0.001
-590.952	39.603	0.344	-0.310
-589.938	-200.000	-0.055	0.327
-588.923	125.589	-0.107	-0.136
-587.909	-183.100	0.302	-0.005
-586.894	800.000	0.133	0.400
-585.879	-1.320	-0.093	0.066
-584.865	160.633	0.056	-0.079
-583.850	-121.000	-0.112	-0.019
-582.836	-39.097	-0.389	-0.206
-581.821	379.954	-0.088	-0.183
-580.806	-103.817	0.094	0.022
-579.792	-112.329	0.077	-0.016
-578.777	-200.000	-0.006	-0.108
-577.763	71.549	-0.140	0.147
-576.748	-91.289	-0.039	-0.011
-575.733	-200.000	0.031	-0.268
-574.719	236.350	0.052	-0.086
-573.704	-80.232	0.123	-0.041
-572.690	-90.793	0.051	0.015
-571.675	43.742	0.113	-0.104
-570.661	439.438	-0.088	0.192
-569.646	82.601	-0.075	0.082
-568.631	152.473	0.077	0.106
-567.617	-90.141	-0.113	-0.033
-566.602	0.160	-0.047	0.034
-565.588	245.616	0.090	0.152
-564.573	33.221	-0.026	0.022
-563.558	-107.881	0.292	0.064
-562.544	-60.347	0.315	-0.135
-561.529	-106.561	0.157	0.035
-560.515	-129.404	0.077	0.011
-559.500	-41.777	-0.086	0.044
-558.485	302.214	0.100	-0.185
-557.471	-200.000	0.013	-0.130
-556.456	58.511	-0.103	0.102
-555.442	38.680	-0.203	-0.182
-554.427	-66.091	-0.080	-0.032
-553.412	-108.380	0.129	-0.028
-552.398	-132.183	0.050	0.007
-551.383	-20.497	-0.273	-0.169
-550.369	711.676	0.030	0.081
-549.354	186.365	-0.076	0.113
-548.339	-59.614	-0.162	-0.070
-547.325	730.077	0.176	0.474
-546.310	-157.562	0.122	-0.007
-545.296	-119.482	-0.160	-0.028
-544.281	800.000	-0.109	-0.344
-543.266	134.780	-0.196	-0.255
-542.252	-71.767	-0.145	0.054
-541.237	-200.000	-0.021	-0.205
-540.223	493.171	-0.124	0.285
-539.208	38.673	0.171	0.153
-538.193	230.098	0.121	-0.200
-537.179	-12.669	-0.185	0.121
-536.164	-50.032	-0.146	0.069
-535.150	-113.087	0.228	-0.045
-534.135	800.000	-0.101	0.431
-533.121	-32.736	-0.296	0.166
-532.106	333.788	0.126	-0.245
-531.091	301.517	-0.115	0.214
-530.077	461.054	-0.078	-0.176
-529.062	-81.924	-0.059	0.019
-528.048	-70.326	0.259	0.099
-527.033	-99.111	-0.150	-0.038
-526.018	24.760	0.193	0.160
-525.004	-34.903	0.169	-0.093
-523.989	-84.036	0.209	-0.067
-522.975	-91.510	-0.120	0.034
-521.960	800.000	-0.040	0.124
-520.945	230.448	0.059	-0.098
-519.931	-13.463	-0.111	-0.072
-518.916	-63.905	-0.042	-0.017
-517.902	-123.217	-0.033	0.005
-516.887	187.467	0.148	-0.222
-515.872	88.590	-0.143	-0.160
-514.858	-121.098	-0.472	0.079
-513.843	325.543	0.196	-0.376
-512.829	-60.150	0.215	-0.092
-511.814	800.000	0.074	-0.251
-510.799	-107.255	0.318	0.070
-509.785	-43.678	0.067	-0.034
-508.770	-86.988	0.089	-0.027
-507.756	213.513	-0.158	0.251
-506.741	63.870	-0.176	-0.178
-505.726	-200.000	-0.371	-0.001
-504.712	-63.826	-0.335	0.138
-503.697	14.665	0.075	-0.059
-502.683	308.099	0.106	-0.199
-501.668	-53.494	-0.214	0.098
-500.653	-55.536	-0.096	0.043
-499.639	111.233	0.080	-0.097
-498.624	-150.791	0.178	-0.014
-497.610	46.700	0.107	-0.100
-496.595	-200.000	0.019	-0.275
-495.581	485.831	-0.167	-0.381
-494.566	343.948	0.040	0.079
-493.551	-137.133	0.099	0.011
-492.537	-200.000	-0.022	-0.180
-491.522	-200.000	-0.058	-0.261
-490.508	46.840	0.330	0.307
-489.493	-200.000	-0.005	-0.047
-488.478	81.578	0.082	-0.089
-487.464	5.381	-0.359	0.265
-486.449	-200.000	0.009	0.094
-485.435	-177.972	0.300	0.007
-484.420	-118.923	0.136	-0.024
-483.405	-200.000	0.008	0.247
-482.391	-200.000	-0.010	-0.075
-481.376	15.979	-0.112	-0.088
-480.362	-200.000	-0.023	-0.112
-479.347	351.287	-0.130	0.258
-478.332	800.000	0.070	0.209
-477.318	-200.000	0.019	-0.289
-476.303	-136.928	0.440	-0.051
-475.289	243.479	-0.107	0.179
-474.274	-56.258	0.159	0.071
-473.259	-122.240	0.337	0.055
-472.245	-131.202	-0.226	0.030
-471.230	800.000	-0.055	0.193
-470.216	86.524	-0.191	-0.211
-469.201	-39.014	0.205	0.108
-468.186	31.620	-0.274	0.236
-467.172	-200.000	-0.002	-0.330
-466.157	-169.670	-0.248	0.009
-465.143	-113.383	0.245	0.048
-464.128	-73.834	0.447	-0.163
-463.113	-54.011	-0.136	-0.062
-462.099	-100.622	0.145	-0.036
-461.084	800.000	-0.058	0.207
-460.070	58.646	-0.263	-0.259
-459.055	142.832	0.104	0.138
-458.040	-58.524	0.127	0.055
-457.026	76.873	-0.177	0.189
-456.011	-166.669	0.369	-0.015
-454.997	-109.585	0.343	0.072
-453.982	-86.285	0.203	0.063
-452.968	184.532	0.062	0.092
-451.953	-96.034	0.127	0.034
-450.938	-57.283	0.176	-0.078
-449.924	176.590	-0.144	0.210
-448.909	-170.322	-0.331	-0.012
-447.895	402.538	-0.052	-0.109
-446.880	74.749	-0.165	0.174
-445.865	-61.046	0.067	0.028
-444.851	-200.000	-0.032	0.272
-443.836	457.646	-0.042	0.094
-442.822	-5.653	0.163	0.112
-441.807	-102.326	-0.362	-0.087
-440.792	-56.404	0.299	-0.133
-439.778	-118.966	-0.215	0.038
-438.763	570.614	-0.147	0.357
-437.749	-59.211	-0.269	-0.116
-436.734	9.689	-0.189	-0.143
-435.719	709.771	-0.116	-0.306
-434.705	-200.000	-0.041	-0.199
-433.690	-194.928	0.244	0.002
-432.676	-17.122	-0.163	0.103
-431.661	764.314	0.043	0.116
-430.646	367.977	-0.032	-0.065
-429.632	-63.204	0.181	-0.075
-428.617	490.448	-0.067	-0.155
-427.603	234.240	0.052	-0.086
-426.588	-200.000	0.010	0.096
-425.573	127.177	-0.235	0.299
-424.559	227.265	0.041	-0.067
-423.544	-200.000	0.013	-0.109
-422.530	22.279	0.136	-0.111
-421.515	346.691	-0.117	0.230
-420.500	-97.898	-0.343	-0.089
-419.486	100.852	-0.111	-0.129
-418.471	-200.000	0.034	0.169
-417.457	-69.925	0.252	0.096
-416.442	-5.632	0.176	0.120
-415.428	-7.637	-0.178	-0.121
-414.413	-200.000	0.082	0.426
-413.398	-200.000	0.017	0.174
-412.384	-38.770	-0.147	0.077
-411.369	-125.766	-0.151	0.023
-410.355	33.687	-0.093	0.081
-409.340	-179.920	0.310	0.007
-408.325	261.936	-0.173	0.300
-407.311	-138.802	-0.150	-0.016
-406.296	-200.000	-0.004	-0.180
-405.282	240.005	0.078	0.130
-404.267	-16.237	-0.201	-0.128
-403.252	-74.504	-0.370	-0.133
-402.238	-56.932	0.347	-0.153
-401.223	-52.742	-0.244	-0.112
-400.209	-134.076	-0.376	0.046
-399.194	-89.102	0.135	0.040
-398.179	487.765	0.053	0.120
-397.165	86.504	0.115	0.127
-396.150	-30.441	-0.096	0.054
-395.136	106.860	-0.097	-0.115
-394.121	10.919	-0.186	-0.142
-393.106	190.911	0.113	-0.170
-392.092	-35.147	0.149	0.081
-391.077	-37.743	-0.310	0.165
-390.063	35.711	0.293	-0.258
-389.048	-200.000	0.034	-0.191
-388.033	-128.941	0.249	0.035
-387.019	-143.870	-0.435	0.041
-386.004	27.573	0.143	0.120
-384.990	-200.000	-0.348	-0.001
-383.975	-200.000	0.040	-0.391
-382.960	-200.000	-0.038	-0.293
-381.946	-17.475	0.236	-0.148
-380.931	-174.739	-0.339	0.010
-379.917	-96.977	-0.121	0.032
-378.902	170.066	-0.215	0.308
-377.888	-200.000	-0.029	-0.244
-376.873	-200.000	-0.054	0.375
-375.858	800.000	0.080	-0.254
-374.844	800.000	0.044	-0.181
-373.829	317.942	0.142	-0.269
-372.815	74.388	0.040	0.042
-371.800	-200.000	-0.015	-0.111
-370.785	-200.000	0.006	-0.282
-369.771	-34.428	0.202	0.111
-368.756	-61.748	0.160	0.067
-367.742	119.386	-0.137	-0.169
-366.727	-15.158	0.247	-0.158
-365.712	-135.477	0.199	0.024
-364.698	280.348	0.097	-0.172
-363.683	-183.191	-0.308	-0.005
-362.669	-200.000	0.062	0.316
-361.654	15.446	-0.066	0.051
-360.639	-11.891	-0.083	0.054
-359.625	356.450	0.203	0.404
-358.610	403.935	0.083	0.175
-357.596	342.073	-0.087	-0.170
-356.581	-36.175	0.234	0.126
-355.566	-77.136	0.339	-0.118
-354.552	-200.000	-0.003	-0.128
-353.537	800.000	-0.021	0.078
-352.523	-2.293	-0.144	0.101
-351.508	-42.150	0.132	0.068
-350.493	19.587	0.352	0.282
-349.479	-200.000	-0.000	0.308
-348.464	-4.607	-0.251	-0.173
-347.450	94.730	-0.202	0.229
-346.435	-73.675	0.374	0.136
-345.420	-200.000	0.005	-0.157
-344.406	-38.561	0.097	-0.051
-343.391	-126.902	-0.230	0.034
-342.377	247.133	0.062	-0.104
-341.362	-99.375	0.124	-0.031
-340.348	800.000	-0.043	0.168
-339.333	800.000	-0.078	0.224
-338.318	159.720	0.035	-0.049
-337.304	800.000	0.119	0.409
-336.289	9.803	-0.070	-0.053
-335.275	-200.000	0.023	0.170
-334.260	800.000	0.105	0.397
-333.245	-200.000	-0.022	0.293
-332.231	-14.927	0.139	-0.089
-331.216	-30.693	-0.158	-0.089
-330.202	-122.504	-0.186	0.030
-329.187	38.586	0.229	0.204
-328.172	800.000	0.124	-0.420
-327.158	32.868	0.076	0.066
-326.143	3.809	0.188	-0.137
-325.129	-114.234	-0.235	-0.045
-324.114	-153.686	-0.410	0.028
-323.099	800.000	0.036	0.112
-322.085	73.987	0.245	0.256
-321.070	-200.000	-0.015	0.371
-320.056	59.243	-0.079	0.078
-319.041	-127.543	0.078	0.011
-318.026	2.183	-0.122	0.088
-317.012	139.544	-0.127	0.167
-315.997	15.658	0.238	0.186
-314.983	-162.832	0.163	-0.008
-313.968	93.449	-0.100	0.113
-312.953	30.545	0.060	0.051
-311.939	-156.929	-0.247	0.015
-310.924	-30.832	-0.285	-0.160
-309.910	-32.033	-0.099	-0.055
-308.895	-91.114	-0.293	-0.084
-307.880	-124.242	-0.226	-0.035
-306.866	144.704	-0.356	0.474
-305.851	123.978	-0.110	-0.137
-304.837	46.471	-0.101	0.093
-303.822	-44.551	-0.186	0.093
-302.807	800.000	-0.021	0.089
-301.793	27.968	-0.111	0.093
-300.778	-159.378	0.214	0.012
-299.764	-30.612	-0.399	-0.225
-298.749	1.201	-0.239	0.171
-297.735	475.393	0.084	0.189
-296.720	-107.598	-0.331	-0.072
-295.705	-200.000	-0.023	0.145
-294.691	-200.000	0.012	0.297
-293.676	-78.054	0.128	-0.044
-292.662	-59.893	-0.015	-0.006
-291.647	58.111	-0.217	-0.212
-290.632	-200.000	0.001	-0.107
-289.618	82.463	-0.076	0.082
-288.603	93.281	0.108	-0.122
-287.589	-101.875	0.131	-0.031
-286.574	119.962	-0.077	0.095
-285.559	-163.670	-0.150	-0.007
-284.545	42.654	-0.179	-0.163
-283.530	623.717	0.041	-0.103
-282.516	190.675	-0.004	0.006
-281.501	40.220	-0.219	0.196
-280.486	147.530	-0.271	0.363
-279.472	41.938	-0.096	0.087
-278.457	-200.000	0.021	-0.146
-277.443	-146.121	0.092	-0.008
-276.428	-164.623	-0.084	0.004
-275.413	-72.451	-0.279	0.103
-274.399	-200.000	0.024	-0.237
-273.384	-200.000	0.032	-0.303
-272.370	-126.535	0.324	0.048
-271.355	-138.976	0.233	0.025
-270.340	-152.634	0.246	-0.017
-269.326	-200.000	-0.020	0.096
-268.311	161.433	0.311	0.433
-267.297	-6.437	-0.247	0.168
-266.282	349.637	0.098	-0.193
-265.267	276.254	0.040	-0.071
-264.253	7.860	0.196	0.146
-263.238	-91.684	-0.330	-0.093
-262.224	80.721	-0.215	0.230
-261.209	218.539	0.182	0.288
-260.195	-200.000	0.001	0.027
-259.180	-109.289	0.132	0.028
-258.165	800.000	0.106	-0.436
-257.151	-200.000	-0.038	-0.274
-256.136	29.113	0.227	0.192
-255.122	-144.243	0.288	-0.027
-254.107	-17.565	0.128	-0.080
-253.092	-200.000	0.013	0.436
-252.078	-29.598	0.089	0.050
-251.063	-200.000	-0.047	-0.362
-250.049	-200.000	-0.013	-0.308
-249.034	-76.530	-0.215	-0.075
-248.019	55.869	0.082	-0.079
-247.005	745.903	0.109	-0.290
-245.990	-200.000	0.032	-0.161
-244.976	-150.360	0.322	-0.025
-243.961	648.136	0.053	-0.135
-242.946	36.742	-0.116	-0.102
-241.932	-45.504	0.330	0.163
-240.917	-37.357	0.389	0.207
-239.903	-187.211	0.125	0.002
-238.888	-89.626	-0.085	-0.025
-237.873	136.486	0.113	-0.146
-236.859	116.042	0.238	-0.289
-235.844	-96.691	0.348	-0.091
-234.830	245.474	0.202	-0.338
-233.815	-200.000	0.005	0.269
-232.800	-134.982	-0.125	-0.015
-231.786	800.000	0.054	-0.188
-230.771	-43.576	-0.202	-0.101
-229.757	613.067	0.017	0.043
-228.742	554.067	-0.127	-0.304
-227.727	800.000	-0.065	-0.189
-226.713	572.171	-0.099	-0.240
-225.698	800.000	-0.041	-0.130
-224.684	195.999	-0.114	0.172
-223.669	210.141	-0.120	-0.187
-222.655	155.556	-0.170	0.233
-221.640	-112.368	0.386	0.077
-220.625	-200.000	0.023	0.169
-219.611	113.705	0.217	-0.262
-218.596	11.338	0.085	-0.065
-217.582	262.116	0.134	-0.231
-216.567	-0.848	0.213	-0.149
-215.552	39.680	-0.260	0.232
-214.538	-3.058	0.121	0.084
-213.523	-200.000	-0.009	0.287
-212.509	800.000	0.082	0.304
-211.494	67.327	-0.015	-0.015
-210.479	-21.429	-0.340	0.206
-209.465	800.000	-0.052	0.153
-208.450	-127.444	0.281	-0.041
-207.436	284.866	-0.089	-0.159
-206.421	586.371	0.146	0.356
-205.406	-23.239	-0.112	0.067
-204.392	-128.618	0.112	0.016
-203.377	-40.581	-0.417	0.215
-202.363	292.127	0.123	0.222
-201.348	-100.258	0.322	-0.079
-200.333	-200.000	0.075	0.593
-199.319	800.000	-0.089	0.289
-198.304	800.000	-0.062	0.195
-197.290	213.463	-0.178	0.279
-196.275	-200.000	-0.018	-0.485
-195.260	-30.263	-0.207	-0.117
-194.246	-36.983	-0.101	-0.054
-193.231	-101.712	-0.228	-0.055
-192.217	713.921	-0.029	-0.076
-191.202	-186.593	0.415	0.006
-190.187	800.000	0.050	-0.217
-189.173	800.000	-0.022	-0.081
-188.158	-5.931	0.154	-0.105
-187.144	-120.210	-0.315	0.053
-186.129	107.697	-0.114	-0.134
-185.114	-200.000	0.049	0.227
-184.100	53.172	0.236	0.224
-183.085	98.550	0.256	0.293
-182.071	101.221	0.175	0.202
-181.056	-59.652	-0.201	0.085
-180.042	-128.539	0.232	0.033
-179.027	800.000	0.044	-0.175
-178.012	-12.586	0.164	0.106
-176.998	378.909	0.105	-0.213
-175.983	-200.000	0.033	-0.212
-174.969	-0.177	-0.202	-0.143
-173.954	9.561	0.163	-0.122
-172.939	-200.000	-0.001	-0.192
-171.925	-87.980	0.096	-0.029
-170.910	148.396	0.053	0.071
-169.896	-200.000	0.360	0.000
-168.881	-200.000	-0.059	-0.627
-167.866	229.422	0.050	-0.082
-166.852	-78.659	0.253	-0.085
-165.837	-115.826	0.206	0.038
-164.823	-200.000	0.024	0.398
-163.808	25.489	-0.090	-0.074
-162.793	-200.000	0.088	-0.402
-161.779	-180.663	-0.156	-0.003
-160.764	-157.295	0.145	0.009
-159.750	155.343	0.152	-0.207
-158.735	286.513	0.126	-0.226
-157.720	-0.760	-0.076	0.053
-156.706	45.469	-0.152	0.139
-155.691	-200.000	-0.025	0.127
-154.677	-15.270	-0.224	-0.142
-153.662	-97.120	0.124	0.032
-152.647	-200.000	0.040	-0.492
-151.633	-151.026	0.415	0.031
-150.618	181.191	-0.073	-0.106
-149.604	193.422	0.043	0.064
-148.589	-138.092	0.075	0.008
-147.574	-200.000	-0.007	-0.311
-146.560	45.760	0.105	-0.096
-145.545	-200.000	-0.048	-0.350
-144.531	340.394	0.201	-0.388
-143.516	310.109	-0.144	-0.267
-142.502	-85.850	0.435	-0.133
-141.487	-200.000	0.007	-0.104
-140.472	-200.000	-0.071	-0.314
-139.458	247.047	-0.130	-0.216
-138.443	57.704	0.193	0.187
-137.429	-168.815	0.264	-0.010
-136.414	450.641	0.189	0.414
-135.399	117.479	-0.081	0.098
-134.385	119.791	-0.064	-0.079
-133.370	-200.000	-0.017	0.197
-132.356	405.343	0.185	-0.386
-131.341	-136.115	-0.101	0.012
-130.326	-169.238	0.379	-0.014
-129.312	-50.413	0.276	-0.129
-128.297	-62.559	0.195	-0.080
-127.283	-166.288	0.244	0.010
-126.268	-200.000	0.050	-0.256
-125.253	-200.000	-0.005	-0.480
-124.239	115.467	-0.181	0.218
-123.224	149.495	0.098	0.131
-122.210	-83.790	-0.095	-0.030
