DTS Sentinel unit serial number:	SN413079Multiplexer serial number:	ORYXHardware model number:	OX4-SRSoftware version number:	ORYX F/W v4.00 Oryx Data Collector v3.7.2.0data status	okinstallation	princeton_trtdifferential loss correction	single-endedforward channel	channel 4reverse channel	N/Adate	2019/09/12time	03:15:11forward acquisition time	60.00reverse acquisition time	0.00gamma	496.2192k internal	0.2309k external	0.2309temperature offset calibration	1.0093default loss term (dB/km)	0.3790temperature slope calibration	1.0000multiplexer offset coefficient	1.0000multiplexer slope coefficient	1.0000fibre end	0.00T internal ref (°C)	32.27T ext. ref 1 (°C)	2.12T ext. ref 2 (°C)	27.25length (m)	temperature (°C)	Stokes	anti-Stokes-747.200	18.353	-0.247	-0.200
-746.185	-83.153	-0.379	0.124
-745.171	211.959	0.157	-0.251
-744.156	-61.465	-0.038	-0.016
-743.142	-151.712	0.036	-0.003
-742.127	45.284	0.076	0.071
-741.112	-200.000	0.030	-0.162
-740.098	-66.469	-0.276	-0.111
-739.083	800.000	0.096	0.357
-738.069	410.564	-0.189	0.407
-737.054	119.685	0.047	-0.059
-736.039	-200.000	-0.033	-0.262
-735.025	377.763	0.141	0.292
-734.010	800.000	-0.088	-0.315
-732.996	111.929	0.049	0.059
-731.981	-66.337	0.137	-0.055
-730.966	-27.680	-0.241	-0.142
-729.952	-151.529	-0.289	-0.022
-728.937	-22.527	0.188	0.115
-727.923	181.183	-0.202	-0.301
-726.908	16.456	-0.216	-0.173
-725.894	-124.820	-0.332	-0.052
-724.879	-61.245	0.173	0.074
-723.864	-117.882	0.117	0.021
-722.850	-200.000	-0.006	-0.034
-721.835	-97.877	-0.284	0.075
-720.821	9.140	0.098	-0.075
-719.806	-200.000	0.038	-0.322
-718.791	-90.619	-0.033	-0.010
-717.777	-132.543	-0.416	-0.054
-716.762	-83.690	0.322	-0.104
-715.748	274.117	-0.069	-0.124
-714.733	559.134	-0.054	-0.133
-713.718	74.300	-0.191	0.204
-712.704	800.000	-0.133	0.454
-711.689	800.000	-0.065	-0.216
-710.675	51.263	-0.168	-0.162
-709.660	-23.909	-0.155	-0.094
-708.645	-27.816	-0.277	-0.163
-707.631	5.182	-0.299	-0.224
-706.616	-200.000	0.016	0.324
-705.602	-200.000	-0.013	-0.273
-704.587	276.717	0.087	0.157
-703.572	800.000	0.054	0.160
-702.558	-135.224	0.197	0.024
-701.543	-135.127	0.239	0.029
-700.529	-18.844	-0.225	0.142
-699.514	-200.000	-0.009	-0.264
-698.499	-200.000	0.006	0.147
-697.485	263.949	0.235	-0.414
-696.470	-72.097	-0.156	0.059
-695.456	-35.374	0.040	-0.022
-694.441	-113.960	0.262	-0.051
-693.426	-200.000	-0.008	-0.355
-692.412	-200.000	-0.005	-0.289
-691.397	252.847	0.066	-0.114
-690.383	462.811	-0.139	-0.314
-689.368	333.047	-0.048	-0.093
-688.354	89.843	0.206	0.233
-687.339	-160.633	-0.389	0.021
-686.324	24.323	-0.185	-0.155
-685.310	-118.460	-0.446	-0.080
-684.295	-36.505	-0.181	0.099
-683.281	170.658	0.246	-0.358
-682.266	99.324	0.196	-0.230
-681.251	323.717	0.035	0.068
-680.237	76.758	0.111	0.119
-679.222	-131.141	-0.082	-0.011
-678.208	-44.133	-0.112	0.057
-677.193	800.000	-0.028	-0.119
-676.178	800.000	-0.080	-0.263
-675.164	69.137	0.146	-0.152
-674.149	-200.000	-0.021	0.141
-673.135	-83.269	-0.211	0.069
-672.120	17.188	-0.158	0.127
-671.105	-77.846	0.304	-0.106
-670.091	800.000	-0.055	0.160
-669.076	-63.236	0.141	0.059
-668.062	-106.822	-0.136	-0.031
-667.047	-66.813	-0.297	0.119
-666.032	-70.102	0.244	-0.094
-665.018	154.700	0.122	0.169
-664.003	126.402	-0.131	0.168
-662.989	279.038	-0.110	-0.198
-661.974	-200.000	-0.045	-0.203
-660.959	-171.148	-0.107	-0.004
-659.945	-67.914	-0.289	-0.114
-658.930	-90.246	-0.471	-0.139
-657.916	-80.137	0.405	-0.137
-656.901	-200.000	-0.032	0.382
-655.886	17.003	0.183	0.147
-654.872	93.124	0.154	-0.176
-653.857	352.097	0.185	-0.372
-652.843	34.618	-0.182	-0.161
-651.828	-167.007	-0.172	-0.007
-650.814	230.320	-0.055	0.091
-649.799	13.587	0.185	-0.145
-648.784	-200.000	0.010	-0.145
-647.770	-118.639	0.334	-0.060
-646.755	612.197	-0.103	0.260
-645.741	-137.802	-0.442	-0.050
-644.726	-200.000	0.023	-0.126
-643.711	438.458	0.135	-0.298
-642.697	-8.295	-0.088	0.060
-641.682	-200.000	0.041	0.190
-640.668	-200.000	-0.028	0.133
-639.653	23.986	-0.061	-0.051
-638.638	50.605	0.095	0.091
-637.624	800.000	-0.065	-0.181
-636.609	-17.900	-0.115	-0.073
-635.595	-200.000	0.001	-0.275
-634.580	-121.252	0.369	0.062
-633.565	-200.000	-0.001	0.035
-632.551	478.192	0.059	0.135
-631.536	-87.323	0.026	0.008
-630.522	423.747	0.030	0.065
-629.507	124.237	0.196	-0.250
-628.492	96.339	0.057	-0.066
-627.478	800.000	0.088	-0.264
-626.463	-97.274	0.029	0.008
-625.449	-109.512	0.151	-0.032
-624.434	-116.666	-0.150	0.028
-623.419	-18.028	-0.206	0.130
-622.405	-112.201	-0.205	0.042
-621.390	800.000	-0.038	0.131
-620.376	800.000	-0.055	0.236
-619.361	-139.041	-0.156	0.017
-618.346	-117.032	0.223	0.041
-617.332	-47.646	0.226	-0.111
-616.317	19.671	-0.145	-0.118
-615.303	-200.000	0.008	-0.107
-614.288	247.784	0.083	-0.141
-613.273	94.993	-0.124	0.143
-612.259	235.722	-0.174	-0.291
-611.244	-10.391	-0.104	-0.070
-610.230	97.787	0.091	0.106
-609.215	393.705	-0.070	-0.147
-608.201	-95.073	0.368	0.100
-607.186	800.000	0.071	-0.275
-606.171	800.000	0.104	-0.368
-605.157	197.294	0.027	0.041
-604.142	131.130	-0.238	-0.309
-603.128	-141.877	0.288	0.029
-602.113	175.049	-0.103	0.151
-601.098	-200.000	0.042	0.287
-600.084	-112.085	0.260	-0.053
-599.069	-134.191	0.187	0.023
-598.055	78.889	-0.257	-0.278
-597.040	126.963	0.228	0.292
-596.025	800.000	-0.057	0.168
-595.011	295.390	-0.169	-0.312
-593.996	800.000	-0.067	0.186
-592.982	800.000	0.089	-0.358
-591.967	47.143	0.210	0.198
-590.952	-144.161	-0.217	0.020
-589.938	-184.977	-0.155	-0.002
-588.923	-17.216	-0.135	0.086
-587.909	-84.051	0.223	-0.072
-586.894	-27.369	0.193	-0.114
-585.879	-92.613	0.160	-0.045
-584.865	-77.353	-0.212	-0.074
-583.850	119.156	-0.009	0.011
-582.836	-200.000	0.008	-0.109
-581.821	800.000	0.093	-0.270
-580.806	-112.457	-0.195	0.039
-579.792	265.631	-0.089	-0.157
-578.777	-200.000	-0.028	-0.204
-577.763	453.837	-0.077	0.172
-576.748	-192.288	0.108	0.001
-575.733	-9.627	0.147	0.099
-574.719	472.887	-0.179	0.408
-573.704	-200.000	0.014	-0.200
-572.690	800.000	-0.035	-0.146
-571.675	-170.764	0.109	-0.004
-570.661	-200.000	0.012	0.081
-569.646	9.237	0.098	0.075
-568.631	-90.385	-0.296	0.087
-567.617	-97.120	-0.229	-0.060
-566.602	-200.000	0.019	0.287
-565.588	120.137	-0.263	-0.329
-564.573	-115.675	0.439	-0.083
-563.558	800.000	0.164	-0.631
-562.544	59.125	-0.062	0.062
-561.529	-200.000	0.006	0.096
-560.515	-102.872	-0.318	-0.076
-559.500	626.941	-0.037	-0.095
-558.485	37.616	-0.089	0.080
-557.471	-200.000	-0.060	-0.342
-556.456	-57.388	-0.300	-0.133
-555.442	-10.261	-0.143	-0.096
-554.427	109.054	0.107	0.129
-553.412	354.884	0.095	0.191
-552.398	136.597	0.160	0.210
-551.383	-200.000	0.002	0.041
-550.369	-86.907	-0.270	-0.083
-549.354	-102.698	0.116	0.028
-548.339	-54.757	-0.155	0.070
-547.325	-56.074	0.211	0.095
-546.310	318.905	0.046	-0.088
-545.296	-12.759	-0.388	-0.255
-544.281	-93.172	-0.091	-0.025
-543.266	-200.000	-0.008	-0.122
-542.252	-200.000	-0.004	-0.056
-541.237	-181.622	0.071	0.001
-540.223	63.861	0.174	-0.176
-539.208	110.126	-0.156	0.189
-538.193	-116.624	-0.257	0.048
-537.179	620.087	0.113	0.286
-536.164	-200.000	-0.014	0.197
-535.150	800.000	-0.121	-0.440
-534.135	-200.000	0.017	-0.181
-533.121	-41.018	0.296	0.154
-532.106	-200.000	0.026	0.284
-531.091	133.731	0.205	-0.267
-530.077	119.354	-0.254	-0.316
-529.062	147.973	0.073	-0.100
-528.048	51.111	-0.256	-0.245
-527.033	-110.888	-0.092	-0.019
-526.018	800.000	0.010	-0.032
-525.004	-200.000	-0.031	-0.153
-523.989	-113.521	-0.084	0.016
-522.975	-46.745	0.248	-0.122
-521.960	800.000	0.059	0.171
-520.945	573.959	0.096	0.235
-519.931	4.988	-0.133	-0.099
-518.916	800.000	0.098	-0.325
-517.902	-200.000	0.007	0.052
-516.887	-52.246	0.080	0.037
-515.872	109.875	0.237	-0.287
-514.858	425.556	-0.126	-0.273
-513.843	-16.149	0.092	0.059
-512.829	358.407	0.019	-0.039
-511.814	-200.000	0.006	-0.120
-510.799	148.125	0.244	0.332
-509.785	64.285	0.220	0.223
-508.770	800.000	0.062	-0.193
-507.756	22.360	0.338	-0.278
-506.741	-74.759	-0.241	0.087
-505.726	-75.425	-0.195	-0.070
-504.712	253.376	0.090	0.155
-503.697	183.841	-0.086	-0.128
-502.683	249.375	-0.067	0.115
-501.668	34.074	-0.092	-0.080
-500.653	-200.000	-0.079	-0.562
-499.639	-57.471	-0.126	-0.056
-498.624	800.000	-0.040	-0.116
-497.610	148.646	0.071	-0.096
-496.595	-21.475	0.132	0.081
-495.581	195.874	0.157	-0.241
-494.566	207.884	-0.068	-0.107
-493.551	253.347	0.175	0.301
-492.537	-97.407	-0.265	0.069
-491.522	757.802	0.061	0.166
-490.508	800.000	0.043	0.187
-489.493	-200.000	0.000	0.081
-488.478	-200.000	0.011	0.065
-487.464	-6.509	-0.090	-0.062
-486.449	-200.000	-0.008	-0.210
-485.435	-24.474	0.155	0.093
-484.420	-66.911	-0.140	-0.055
-483.405	171.978	0.047	-0.068
-482.391	-182.355	-0.274	0.005
-481.376	69.656	0.153	0.158
-480.362	-4.114	0.175	0.122
-479.347	-40.571	0.220	-0.115
-478.332	-147.372	-0.171	0.015
-477.318	-200.000	-0.022	0.359
-476.303	-144.673	-0.079	0.007
-475.289	-47.101	0.138	-0.068
-474.274	800.000	-0.045	-0.160
-473.259	229.513	-0.055	-0.090
-472.245	-156.374	0.395	0.025
-471.230	-200.000	-0.006	-0.103
-470.216	-200.000	0.037	-0.344
-469.201	-200.000	0.020	0.119
-468.186	-200.000	0.021	0.156
-467.172	85.529	-0.107	0.118
-466.157	-153.179	-0.444	0.031
-465.143	-167.724	-0.146	-0.006
-464.128	800.000	-0.057	0.176
-463.113	-151.064	-0.467	0.035
-462.099	-106.986	-0.113	-0.025
-461.084	-16.993	-0.203	0.128
-460.070	609.822	-0.042	-0.106
-459.055	163.126	0.162	0.228
-458.040	106.224	-0.316	0.376
-457.026	-38.221	-0.112	-0.060
-456.011	73.311	0.294	-0.309
-454.997	95.637	-0.177	0.203
-453.982	60.201	0.269	0.267
-452.968	280.972	0.124	-0.222
-451.953	102.603	0.342	0.402
-450.938	180.210	-0.085	0.125
-449.924	177.660	0.148	-0.217
-448.909	-26.047	-0.385	0.227
-447.895	-74.824	0.095	-0.034
-446.880	-25.273	0.030	-0.018
-445.865	205.103	0.054	0.084
-444.851	-111.337	-0.151	-0.031
-443.836	-124.610	-0.283	-0.044
-442.822	187.007	-0.223	-0.334
-441.807	114.969	0.067	-0.082
-440.792	297.580	0.046	-0.086
-439.778	361.586	0.098	-0.197
-438.763	44.277	0.143	-0.132
-437.749	-135.541	0.200	-0.024
-436.734	-111.314	0.193	-0.040
-435.719	20.168	-0.208	0.168
-434.705	800.000	-0.029	0.091
-433.690	-71.695	-0.187	0.070
-432.676	-48.340	-0.064	0.031
-431.661	-46.468	0.124	-0.061
-430.646	-7.452	0.204	0.139
-429.632	-36.445	0.100	0.054
-428.617	-23.513	0.309	-0.186
-427.603	270.968	0.113	0.199
-426.588	-200.000	0.031	0.211
-425.573	301.595	-0.174	0.323
-424.559	200.296	-0.045	0.069
-423.544	149.784	-0.272	0.370
-422.530	378.410	-0.105	-0.215
-421.515	-200.000	-0.005	-0.367
-420.500	-108.102	-0.171	-0.037
-419.486	4.817	-0.271	0.200
-418.471	145.553	-0.208	0.279
-417.457	-182.692	-0.117	0.002
-416.442	24.834	-0.116	-0.096
-415.428	80.654	-0.219	-0.236
-414.413	151.248	-0.147	0.201
-413.398	180.320	-0.087	-0.128
-412.384	350.314	-0.043	0.085
-411.369	403.271	0.087	0.183
-410.355	-106.376	-0.242	0.054
-409.340	-200.000	-0.029	0.191
-408.325	-21.876	-0.153	-0.093
-407.311	-178.954	-0.140	0.003
-406.296	-200.000	0.005	0.164
-405.282	-144.380	-0.148	-0.014
-404.267	800.000	0.031	0.133
-403.252	-200.000	0.004	0.061
-402.238	224.519	0.022	0.036
-401.223	127.634	0.056	0.072
-400.209	-200.000	0.004	-0.463
-399.194	-200.000	-0.012	-0.066
-398.179	-128.861	-0.068	0.010
-397.165	0.720	-0.077	0.055
-396.150	-97.923	-0.211	-0.054
-395.136	60.390	0.131	0.130
-394.121	6.285	0.280	-0.208
-393.106	1.805	0.193	-0.140
-392.092	-158.559	-0.116	-0.007
-391.077	-13.103	0.209	0.136
-390.063	-46.212	0.390	-0.192
-389.048	-116.422	-0.144	-0.027
-388.033	-183.316	-0.508	-0.009
-387.019	-126.232	-0.424	0.064
-386.004	40.771	-0.151	-0.136
-384.990	-200.000	0.004	-0.292
-383.975	620.729	0.009	0.022
-382.960	-51.840	0.158	0.074
-381.946	238.977	0.069	0.114
-380.931	-42.485	-0.263	0.134
-379.917	-200.000	-0.003	-0.097
-378.902	-87.619	0.137	0.041
-377.888	-200.000	0.054	0.368
-376.873	505.957	0.222	-0.515
-375.858	-91.466	-0.189	0.054
-374.844	93.293	-0.023	0.027
-373.829	326.634	0.128	0.246
-372.815	-200.000	-0.006	-0.036
-371.800	-147.144	0.330	-0.028
-370.785	625.834	0.038	-0.095
-369.771	-145.909	0.334	0.030
-368.756	-200.000	0.004	0.181
-367.742	-200.000	0.031	0.260
-366.727	800.000	0.062	0.224
-365.712	-110.825	0.058	-0.012
-364.698	-71.970	-0.088	-0.033
-363.683	-62.197	-0.060	-0.025
-362.669	16.650	-0.148	-0.117
-361.654	288.085	0.222	-0.403
-360.639	387.300	-0.123	-0.255
-359.625	34.975	-0.297	-0.260
-358.610	-69.750	0.424	-0.162
-357.596	781.438	0.070	-0.193
-356.581	551.432	0.093	-0.223
-355.566	800.000	0.062	0.269
-354.552	161.562	0.208	0.292
-353.537	640.561	-0.036	0.092
-352.523	-200.000	-0.018	-0.085
-351.508	-107.197	0.289	0.064
-350.493	75.415	0.093	0.098
-349.479	53.595	0.192	0.184
-348.464	103.928	-0.111	0.130
-347.450	-112.878	0.162	-0.032
-346.435	-125.792	-0.198	-0.030
-345.420	132.425	0.056	0.072
-344.406	17.149	0.406	0.322
-343.391	44.332	-0.279	0.256
-342.377	-33.134	-0.313	0.174
-341.362	231.190	0.122	-0.200
-340.348	-81.851	0.129	0.042
-339.333	-86.283	0.293	0.090
-338.318	-6.770	0.298	0.203
-337.304	255.819	0.301	-0.516
-336.289	-42.251	0.197	-0.101
-335.275	-191.154	0.029	-0.000
-334.260	-16.805	-0.332	-0.210
-333.245	-74.507	-0.358	-0.129
-332.231	59.672	0.258	-0.254
-331.216	-200.000	-0.000	-0.074
-330.202	-200.000	-0.029	0.152
-329.187	-200.000	0.052	0.231
-328.172	5.004	-0.025	0.018
-327.158	-11.362	0.124	-0.081
-326.143	-148.232	0.073	-0.006
-325.129	193.726	0.164	-0.249
-324.114	33.168	-0.054	-0.047
-323.099	155.460	-0.035	0.048
-322.085	-42.644	0.096	0.049
-321.070	222.460	0.042	0.068
-320.056	800.000	0.084	0.272
-319.041	792.475	0.064	0.176
-318.026	15.811	0.026	-0.021
-317.012	-200.000	0.040	0.478
-315.997	-200.000	0.020	0.297
-314.983	-44.555	-0.254	0.127
-313.968	425.445	-0.079	0.170
-312.953	-63.961	0.058	-0.024
-311.939	10.342	0.350	-0.266
-310.924	-85.791	-0.247	0.076
-309.910	-57.749	0.106	0.046
-308.895	-54.786	0.053	0.024
-307.880	136.916	-0.078	0.102
-306.866	126.637	0.079	-0.100
-305.851	800.000	0.032	-0.135
-304.837	-200.000	-0.001	-0.017
-303.822	-180.556	0.062	-0.001
-302.807	-37.374	-0.408	0.218
-301.793	205.913	-0.128	-0.199
-300.778	-37.423	0.414	-0.221
-299.764	-69.125	-0.440	0.169
-298.749	344.388	-0.104	0.204
-297.735	51.727	-0.308	-0.293
-296.720	-200.000	-0.061	-0.337
-295.705	-86.323	0.156	-0.048
-294.691	-71.702	0.178	-0.066
-293.676	-116.581	-0.171	0.032
-292.662	28.846	-0.146	-0.124
-291.647	331.186	0.199	0.382
-290.632	572.278	-0.047	-0.114
-289.618	-142.525	0.272	0.027
-288.603	1.935	-0.100	-0.072
-287.589	26.070	0.189	0.157
-286.574	-200.000	0.032	0.294
-285.559	800.000	-0.019	0.062
-284.545	-153.251	0.266	0.019
-283.530	2.840	-0.120	-0.087
-282.516	-123.332	0.385	-0.061
-281.501	-112.421	-0.130	0.026
-280.486	9.175	0.059	0.045
-279.472	-23.515	-0.226	-0.135
-278.457	39.313	-0.038	0.034
-277.443	-200.000	0.036	0.223
-276.428	161.495	-0.107	0.149
-275.413	363.654	-0.057	-0.114
-274.399	-79.001	0.295	-0.100
-273.384	-159.509	0.052	-0.003
-272.370	-47.255	-0.194	0.094
-271.355	-200.000	-0.095	0.447
-270.340	-200.000	-0.001	0.080
-269.326	800.000	0.045	0.186
-268.311	-200.000	-0.002	0.057
-267.297	-80.517	-0.286	-0.095
-266.282	194.629	-0.071	0.107
-265.267	120.593	-0.101	0.125
-264.253	-200.000	-0.035	-0.194
-263.238	-182.347	0.125	-0.002
-262.224	-65.343	0.137	0.055
-261.209	99.001	0.225	-0.259
-260.195	-92.331	-0.169	-0.047
-259.180	435.830	-0.114	-0.247
-258.165	285.296	0.145	-0.260
-257.151	-144.478	-0.150	0.014
-256.136	316.594	0.087	0.164
-255.122	-168.998	0.297	-0.011
-254.107	-126.772	-0.206	-0.030
-253.092	800.000	-0.044	0.134
-252.078	-164.631	0.220	0.010
-251.063	-17.312	-0.133	0.083
-250.049	800.000	-0.064	-0.229
-249.034	397.055	0.143	0.298
-248.019	43.157	0.074	0.067
-247.005	-120.522	-0.333	-0.056
-245.990	-55.544	-0.113	-0.051
-244.976	800.000	0.062	-0.235
-243.961	-169.992	0.117	0.004
-242.946	319.588	0.085	0.160
-241.932	-154.979	0.206	0.013
-240.917	-119.524	-0.329	-0.057
-239.903	800.000	-0.047	0.157
-238.888	-200.000	0.042	0.210
-237.873	-80.094	-0.264	0.088
-236.859	-85.412	0.241	-0.075
-235.844	84.562	0.216	0.236
-234.830	800.000	-0.028	0.084
-233.815	800.000	0.055	0.171
-232.800	77.376	0.053	-0.056
-231.786	121.868	0.157	0.195
-230.771	113.607	-0.053	0.064
-229.757	332.744	0.081	-0.156
-228.742	-155.227	0.552	0.036
-227.727	800.000	0.079	0.245
-226.713	322.077	-0.094	0.178
-225.698	-200.000	0.009	0.150
-224.684	-54.451	-0.154	0.069
-223.669	800.000	0.052	-0.187
-222.655	-86.903	-0.285	-0.087
-221.640	37.857	0.195	0.173
-220.625	552.942	-0.065	-0.157
-219.611	107.986	0.143	0.169
-218.596	-14.535	-0.042	0.027
-217.582	-70.065	-0.225	0.085
-216.567	784.941	0.135	0.368
-215.552	101.833	-0.062	0.072
-214.538	800.000	-0.009	-0.037
-213.523	-144.364	0.071	-0.007
-212.509	-200.000	0.017	-0.083
-211.494	-109.555	-0.196	0.041
-210.479	81.959	-0.250	-0.270
-209.465	-84.379	-0.243	-0.076
-208.450	-109.151	0.416	0.088
-207.436	-10.289	-0.339	-0.223
-206.421	118.486	0.265	0.325
-205.406	11.014	-0.272	-0.207
-204.392	800.000	0.117	0.406
-203.377	-91.165	-0.124	0.035
-202.363	-200.000	0.038	0.173
-201.348	774.075	0.123	0.334
-200.333	-115.575	-0.186	-0.035
-199.319	-69.634	0.270	-0.103
-198.304	86.615	0.124	-0.136
-197.290	173.008	0.172	0.246
-196.275	136.712	-0.142	-0.184
-195.260	-46.573	0.136	-0.066
-194.246	110.672	0.344	0.411
-193.231	77.882	0.065	0.069
-192.217	131.618	-0.208	0.266
-191.202	-53.023	-0.095	0.044
-190.187	-106.093	0.088	0.020
-189.173	-200.000	-0.006	-0.095
-188.158	-186.470	0.119	0.002
-187.144	-128.478	0.139	-0.020
-186.129	201.200	0.089	0.136
-185.114	22.743	-0.126	0.103
-184.100	800.000	-0.099	-0.403
-183.085	378.478	-0.022	0.044
-182.071	31.907	-0.054	-0.047
-181.056	343.809	-0.074	-0.145
-180.042	-152.326	0.188	-0.013
-179.027	40.732	-0.221	-0.198
-178.012	-200.000	-0.033	0.180
-176.998	-132.319	-0.196	-0.025
-175.983	-77.655	-0.111	0.038
-174.969	22.882	0.017	0.014
-173.954	105.662	-0.055	0.065
-172.939	-62.272	-0.115	0.048
-171.925	-96.406	-0.126	0.033
-170.910	9.445	-0.135	0.102
-169.896	-200.000	-0.002	0.059
-168.881	-88.407	0.405	-0.120
-167.866	800.000	0.047	-0.194
-166.852	350.355	-0.106	-0.208
-165.837	288.691	-0.052	0.094
-164.823	-200.000	-0.013	0.283
-163.808	-200.000	0.048	-0.321
-162.793	-8.467	0.271	0.181
-161.779	17.232	0.159	-0.126
-160.764	800.000	-0.051	0.143
-159.750	-105.688	-0.183	-0.041
-158.735	-119.451	0.239	0.041
-157.720	-84.580	-0.395	-0.124
-156.706	-51.162	-0.120	-0.056
-155.691	800.000	-0.078	-0.313
-154.677	800.000	0.066	-0.183
-153.662	800.000	-0.103	-0.281
-152.647	298.337	-0.044	-0.081
-151.633	65.478	-0.194	0.195
-150.618	745.679	0.048	0.129
-149.604	800.000	0.010	0.034
-148.589	440.990	0.068	-0.147
-147.574	157.339	0.152	-0.209
-146.560	5.915	-0.051	-0.037
-145.545	52.239	0.103	0.097
-144.531	187.453	0.129	0.191
-143.516	-200.000	-0.011	-0.316
-142.502	-84.977	-0.199	0.062
-141.487	103.235	0.026	-0.031
-140.472	115.436	-0.117	-0.142
-139.458	-34.589	0.385	0.209
-138.443	-172.888	-0.111	-0.003
-137.429	96.476	0.053	-0.060
-136.414	-1.156	0.292	0.205
-135.399	-178.060	-0.136	-0.003
-134.385	-200.000	-0.090	0.472
-133.370	-200.000	0.004	0.024
-132.356	68.897	0.056	0.057
-131.341	-200.000	-0.001	0.024
-130.326	-200.000	0.001	-0.250
-129.312	339.741	-0.093	0.179
-128.297	-200.000	0.007	0.096
-127.283	405.188	0.100	-0.210
-126.268	800.000	-0.077	-0.235
-125.253	-69.427	-0.203	0.077
-124.239	29.627	-0.272	-0.230
-123.224	-150.901	-0.210	0.016
-122.210	-72.035	-0.051	-0.019
-121.195	-51.950	0.218	0.101
