DTS Sentinel unit serial number:	SN413079Multiplexer serial number:	ORYXHardware model number:	OX4-SRSoftware version number:	ORYX F/W v4.00 Oryx Data Collector v3.7.2.0data status	okinstallation	princeton_trtdifferential loss correction	single-endedforward channel	channel 4reverse channel	N/Adate	2019/09/11time	02:27:10forward acquisition time	60.00reverse acquisition time	0.00gamma	496.2192k internal	0.2318k external	0.2318temperature offset calibration	0.9946default loss term (dB/km)	0.3790temperature slope calibration	1.0000multiplexer offset coefficient	1.0000multiplexer slope coefficient	1.0000fibre end	0.00T internal ref (°C)	29.25T ext. ref 1 (°C)	-0.29T ext. ref 2 (°C)	23.49length (m)	temperature (°C)	Stokes	anti-Stokes-747.200	231.760	-0.156	0.259
-746.185	-63.488	-0.298	0.124
-745.171	-200.000	-0.008	0.262
-744.156	800.000	-0.070	0.236
-743.142	-200.000	0.001	0.275
-742.127	634.949	-0.083	0.214
-741.112	-31.931	-0.207	-0.117
-740.098	75.342	0.200	-0.214
-739.083	-99.850	0.074	0.019
-738.069	-72.955	-0.243	-0.090
-737.054	-200.000	-0.002	0.022
-736.039	-83.212	-0.096	-0.031
-735.025	435.083	0.080	0.175
-734.010	362.461	-0.043	0.087
-732.996	-200.000	0.009	-0.331
-731.981	800.000	-0.058	0.239
-730.966	12.133	0.322	0.251
-729.952	-87.147	0.039	0.012
-728.937	685.081	-0.061	-0.161
-727.923	676.990	-0.051	0.134
-726.908	-200.000	-0.011	-0.054
-725.894	800.000	0.086	-0.367
-724.879	147.114	-0.115	-0.156
-723.864	16.619	-0.453	-0.362
-722.850	253.080	0.030	-0.052
-721.835	-11.710	0.217	-0.144
-720.821	73.377	-0.171	0.181
-719.806	-200.000	0.038	0.183
-718.791	192.924	-0.133	0.204
-717.777	-10.995	-0.109	0.073
-716.762	800.000	0.014	-0.042
-715.748	233.976	0.132	-0.219
-714.733	800.000	0.053	-0.179
-713.718	212.502	-0.064	-0.101
-712.704	-124.350	0.273	-0.043
-711.689	-136.058	-0.216	-0.026
-710.675	-91.716	0.182	-0.052
-709.660	71.876	0.105	-0.111
-708.645	46.652	-0.097	-0.091
-707.631	243.553	-0.091	-0.154
-706.616	-52.248	-0.112	-0.052
-705.602	-200.000	-0.006	-0.257
-704.587	176.867	-0.165	-0.243
-703.572	-200.000	-0.013	-0.080
-702.558	800.000	-0.043	0.141
-701.543	-74.588	0.224	0.081
-700.529	-157.234	-0.112	0.007
-699.514	-50.735	0.063	-0.030
-698.499	-200.000	0.013	-0.363
-697.485	-175.567	-0.436	-0.012
-696.470	-146.497	-0.185	-0.016
-695.456	81.797	-0.101	-0.111
-694.441	-60.612	-0.085	0.036
-693.426	-200.000	-0.022	-0.153
-692.412	-94.713	0.270	-0.074
-691.397	-51.054	-0.191	-0.091
-690.383	800.000	0.036	0.108
-689.368	-200.000	0.015	0.259
-688.354	213.749	-0.105	-0.168
-687.339	-200.000	0.003	-0.263
-686.324	-137.100	-0.176	0.020
-685.310	-104.390	0.022	0.005
-684.295	-141.046	0.047	-0.005
-683.281	68.464	0.124	-0.128
-682.266	44.073	-0.113	-0.104
-681.251	149.084	0.227	0.309
-680.237	800.000	-0.059	0.233
-679.222	191.184	-0.147	0.224
-678.208	-8.055	0.024	-0.016
-677.193	-29.258	0.299	-0.173
-676.178	355.618	-0.098	0.196
-675.164	-200.000	-0.070	0.359
-674.149	800.000	0.016	0.049
-673.135	302.873	-0.216	0.403
-672.120	-200.000	0.022	-0.193
-671.105	381.595	0.105	-0.217
-670.091	-18.995	0.112	0.071
-669.076	-200.000	-0.071	-0.351
-668.062	-200.000	-0.032	-0.252
-667.047	141.454	-0.055	-0.074
-666.032	-63.126	0.038	-0.016
-665.018	103.510	0.023	0.028
-664.003	23.444	0.194	0.161
-662.989	800.000	-0.057	0.165
-661.974	-3.599	0.029	-0.021
-660.959	-200.000	-0.039	-0.203
-659.945	118.095	-0.185	-0.230
-658.930	37.022	-0.170	-0.152
-657.916	-200.000	-0.006	0.111
-656.901	-65.162	-0.323	-0.131
-655.886	-35.343	0.455	0.250
-654.872	19.355	0.221	-0.179
-653.857	-200.000	0.032	-0.297
-652.843	23.470	-0.114	-0.095
-651.828	-53.232	0.240	-0.111
-650.814	-3.517	0.215	-0.151
-649.799	-85.586	-0.189	-0.059
-648.784	-40.051	0.188	-0.099
-647.770	-45.753	-0.074	-0.037
-646.755	198.905	0.226	-0.349
-645.741	14.000	0.039	0.031
-644.726	-13.075	-0.223	-0.146
-643.711	6.250	-0.205	0.153
-642.697	-99.384	0.102	0.026
-641.682	307.747	0.156	0.293
-640.668	800.000	0.176	0.716
-639.653	168.525	-0.102	0.146
-638.638	430.444	-0.025	-0.054
-637.624	-200.000	0.009	0.138
-636.609	-162.313	-0.037	-0.002
-635.595	-50.137	0.514	0.246
-634.580	103.846	-0.109	0.129
-633.565	-200.000	-0.009	-0.090
-632.551	-53.482	-0.294	0.136
-631.536	437.760	-0.045	0.099
-630.522	-26.789	0.208	-0.123
-629.507	-200.000	-0.003	0.042
-628.492	-97.749	-0.319	-0.083
-627.478	-200.000	-0.019	-0.138
-626.463	341.186	0.038	0.074
-625.449	233.776	-0.107	-0.178
-624.434	97.557	0.104	-0.120
-623.419	-40.313	0.067	0.035
-622.405	38.448	0.107	-0.096
-621.390	-9.548	0.256	-0.172
-620.376	-200.000	0.031	0.185
-619.361	-13.703	0.136	0.089
-618.346	-39.113	0.061	0.033
-617.332	-76.821	0.031	0.011
-616.317	-38.543	-0.224	-0.119
-615.303	5.792	-0.025	-0.019
-614.288	-45.053	-0.253	-0.127
-613.273	-51.531	-0.225	-0.106
-612.259	-126.771	-0.352	-0.052
-611.244	800.000	-0.165	-0.504
-610.230	-109.982	-0.155	-0.033
-609.215	179.042	0.128	-0.189
-608.201	763.682	0.090	-0.245
-607.186	800.000	0.048	0.181
-606.171	-148.364	-0.159	-0.013
-605.157	-25.908	-0.132	0.078
-604.142	-3.693	-0.017	0.012
-603.128	-200.000	-0.008	0.138
-602.113	-200.000	-0.020	-0.192
-601.098	195.797	-0.181	-0.277
-600.084	-158.145	-0.263	-0.016
-599.069	-102.227	0.086	0.021
-598.055	-82.190	-0.183	-0.060
-597.040	20.896	-0.126	-0.103
-596.025	-43.058	-0.149	-0.076
-595.011	-130.074	0.221	-0.030
-593.996	800.000	0.105	0.326
-592.982	611.729	-0.071	0.179
-591.967	114.852	0.156	0.192
-590.952	72.596	0.115	0.121
-589.938	32.681	-0.192	-0.167
-588.923	122.329	-0.151	-0.190
-587.909	226.490	0.247	-0.404
-586.894	151.933	-0.352	-0.483
-585.879	800.000	0.070	-0.253
-584.865	446.239	0.134	-0.295
-583.850	107.660	0.184	-0.220
-582.836	92.381	0.160	0.181
-581.821	-13.252	0.276	0.180
-580.806	214.113	-0.149	-0.237
-579.792	-22.950	0.105	-0.063
-578.777	347.403	-0.092	0.182
-577.763	-12.242	0.218	0.144
-576.748	-200.000	-0.016	0.365
-575.733	133.885	0.110	0.143
-574.719	526.232	0.069	-0.163
-573.704	-200.000	0.020	-0.262
-572.690	800.000	-0.124	-0.367
-571.675	-83.128	0.132	-0.043
-570.661	-200.000	-0.017	-0.240
-569.646	-53.391	-0.207	-0.096
-568.631	46.560	0.175	-0.163
-567.617	-136.146	-0.170	0.020
-566.602	257.381	-0.148	0.256
-565.588	-64.651	-0.284	-0.116
-564.573	800.000	0.131	0.363
-563.558	69.272	0.142	-0.147
-562.544	-200.000	0.008	0.260
-561.529	-200.000	-0.118	0.000
-560.515	-16.455	0.410	-0.261
-559.500	-56.685	-0.262	-0.117
-558.485	74.883	0.179	-0.189
-557.471	-48.159	0.147	0.071
-556.456	-152.018	0.313	-0.023
-555.442	-200.000	-0.013	0.221
-554.427	-200.000	-0.015	0.220
-553.412	-200.000	-0.031	0.240
-552.398	110.889	-0.143	-0.173
-551.383	-144.308	-0.145	-0.014
-550.369	203.643	0.053	0.082
-549.354	772.156	0.094	-0.257
-548.339	191.901	-0.132	-0.200
-547.325	-59.895	-0.117	-0.050
-546.310	146.411	0.198	-0.267
-545.296	800.000	-0.002	-0.008
-544.281	-200.000	0.038	-0.266
-543.266	25.950	-0.333	-0.279
-542.252	-127.825	0.211	-0.031
-541.237	-105.769	-0.476	-0.108
-540.223	-67.023	0.256	-0.101
-539.208	-200.000	0.038	-0.297
-538.193	735.525	-0.199	-0.534
-537.179	-200.000	0.020	-0.175
-536.164	314.899	0.053	0.099
-535.150	-37.297	-0.277	-0.149
-534.135	800.000	0.066	0.185
-533.121	-14.436	-0.321	-0.207
-532.106	-67.636	-0.134	-0.053
-531.091	69.701	0.126	0.130
-530.077	2.234	0.502	-0.364
-529.062	-102.341	-0.173	-0.042
-528.048	-122.199	0.025	0.004
-527.033	-7.445	0.275	0.187
-526.018	-98.467	-0.264	-0.068
-525.004	-45.261	-0.132	0.066
-523.989	-58.479	-0.198	0.086
-522.975	-65.505	-0.103	0.042
-521.960	444.411	-0.057	0.126
-520.945	-196.986	-0.464	0.003
-519.931	-94.190	-0.225	-0.062
-518.916	-42.857	0.327	0.167
-517.902	114.571	0.128	0.156
-516.887	76.627	-0.185	-0.197
-515.872	-200.000	0.028	-0.126
-514.858	800.000	0.086	-0.286
-513.843	-29.219	0.318	-0.183
-512.829	53.472	0.023	0.022
-511.814	-44.345	0.020	0.010
-510.799	340.961	0.126	0.247
-509.785	800.000	-0.027	0.119
-508.770	142.748	0.259	0.345
-507.756	-95.982	-0.290	0.077
-506.741	7.836	0.231	0.173
-505.726	-25.170	0.407	-0.242
-504.712	190.995	0.183	-0.276
-503.697	102.361	0.079	0.092
-502.683	-122.334	0.033	0.005
-501.668	-200.000	-0.069	-0.426
-500.653	173.514	0.024	-0.035
-499.639	800.000	-0.033	0.141
-498.624	-79.421	0.195	-0.066
-497.610	275.990	0.062	-0.111
-496.595	213.858	-0.092	0.146
-495.581	23.783	0.117	-0.096
-494.566	24.218	-0.134	-0.111
-493.551	-90.674	0.387	-0.112
-492.537	-137.735	0.166	0.019
-491.522	-200.000	-0.007	-0.304
-490.508	-136.043	-0.114	0.013
-489.493	737.956	0.089	0.239
-488.478	-56.631	-0.178	0.079
-487.464	-92.551	0.174	0.049
-486.449	-91.608	-0.308	0.088
-485.435	800.000	0.106	0.353
-484.420	800.000	0.065	-0.246
-483.405	630.257	0.018	0.045
-482.391	-23.373	-0.129	-0.078
-481.376	800.000	0.100	-0.285
-480.362	6.523	0.240	-0.179
-479.347	132.078	0.143	0.184
-478.332	-47.133	-0.151	-0.074
-477.318	296.152	0.079	-0.146
-476.303	-48.048	-0.124	-0.060
-475.289	-90.767	-0.164	0.047
-474.274	800.000	0.096	0.393
-473.259	-152.358	0.083	0.006
-472.245	-172.338	-0.183	0.006
-471.230	204.983	0.127	0.198
-470.216	800.000	-0.052	-0.226
-469.201	-200.000	-0.049	-0.415
-468.186	800.000	0.110	-0.388
-467.172	23.931	0.151	-0.125
-466.157	-7.956	-0.413	-0.279
-465.143	-200.000	-0.019	0.232
-464.128	-1.799	-0.107	-0.076
-463.113	-36.921	0.096	-0.052
-462.099	-44.510	0.238	-0.119
-461.084	-23.065	0.213	0.129
-460.070	-62.607	-0.299	0.124
-459.055	-91.342	0.174	0.050
-458.040	-3.183	-0.061	-0.042
-457.026	4.735	0.127	0.094
-456.011	-200.000	-0.020	0.089
-454.997	114.538	0.188	-0.229
-453.982	-61.052	-0.105	-0.044
-452.968	-79.865	-0.221	-0.075
-451.953	204.007	0.239	-0.371
-450.938	-79.017	0.489	-0.166
-449.924	75.009	-0.068	-0.072
-448.909	-37.884	-0.333	0.177
-447.895	248.938	-0.119	-0.201
-446.880	-6.377	0.188	-0.128
-445.865	-200.000	-0.022	-0.237
-444.851	527.314	0.046	0.108
-443.836	-20.031	-0.129	0.080
-442.822	-10.165	-0.240	-0.159
-441.807	800.000	0.067	0.261
-440.792	800.000	-0.034	0.105
-439.778	-90.664	-0.179	-0.052
-438.763	-200.000	-0.023	0.227
-437.749	162.222	0.121	0.170
-436.734	-44.868	0.300	-0.150
-435.719	-29.251	-0.304	-0.174
-434.705	-178.795	-0.203	0.005
-433.690	800.000	0.079	-0.221
-432.676	-41.461	-0.139	-0.072
-431.661	-77.225	0.262	0.091
-430.646	-114.036	-0.265	-0.051
-429.632	-64.056	-0.052	0.021
-428.617	304.636	0.108	0.201
-427.603	-165.790	-0.070	0.003
-426.588	180.682	-0.133	0.195
-425.573	129.987	-0.157	-0.200
-424.559	249.880	0.053	0.090
-423.544	800.000	-0.051	-0.150
-422.530	94.506	-0.037	0.042
-421.515	-23.539	0.246	-0.147
-420.500	-200.000	-0.069	-0.306
-419.486	-113.962	-0.153	-0.030
-418.471	-83.869	0.204	0.065
-417.457	-44.605	0.104	-0.052
-416.442	265.308	-0.067	0.116
-415.428	117.664	-0.194	0.238
-414.413	-57.807	0.374	0.163
-413.398	-113.832	0.357	-0.069
-412.384	736.441	0.023	0.061
-411.369	528.568	-0.076	0.179
-410.355	158.046	-0.135	0.187
-409.340	20.225	0.083	-0.067
-408.325	34.134	0.072	0.062
-407.311	-66.396	-0.236	0.094
-406.296	-200.000	0.009	-0.138
-405.282	-200.000	0.051	-0.260
-404.267	-15.725	0.142	-0.091
-403.252	-106.461	0.175	0.039
-402.238	-56.155	0.131	0.058
-401.223	-68.716	-0.204	-0.079
-400.209	-200.000	-0.010	-0.164
-399.194	-184.678	-0.292	-0.005
-398.179	-200.000	-0.026	0.227
-397.165	-200.000	-0.007	0.276
-396.150	131.624	-0.344	0.442
-395.136	65.622	0.242	0.244
-394.121	4.480	-0.166	-0.122
-393.106	77.948	0.274	0.292
-392.092	321.170	0.024	0.045
-391.077	170.034	0.168	0.240
-390.063	-200.000	0.010	0.246
-389.048	-19.238	0.260	-0.161
-388.033	159.255	-0.042	0.059
-387.019	322.550	-0.099	0.189
-386.004	-7.526	-0.135	0.091
-384.990	324.308	0.044	-0.083
-383.975	-134.946	0.100	-0.012
-382.960	197.317	0.075	0.114
-381.946	-15.805	-0.169	0.107
-380.931	-200.000	0.072	-0.514
-379.917	800.000	-0.094	-0.344
-378.902	158.469	0.104	-0.144
-377.888	33.052	-0.332	0.287
-376.873	-58.159	0.277	-0.120
-375.858	14.403	-0.269	0.209
-374.844	357.703	-0.129	0.256
-373.829	-0.464	-0.041	-0.029
-372.815	-21.541	-0.039	-0.024
-371.800	-45.303	-0.102	0.050
-370.785	142.394	-0.160	0.212
-369.771	15.504	-0.071	-0.055
-368.756	33.629	0.291	0.252
-367.742	-82.251	0.162	0.053
-366.727	180.574	-0.170	-0.249
-365.712	-88.823	-0.386	0.114
-364.698	47.709	0.203	0.189
-363.683	-95.458	0.141	0.038
-362.669	-155.889	-0.186	-0.012
-361.654	529.470	0.120	0.282
-360.639	-114.246	0.284	-0.055
-359.625	163.289	-0.022	0.031
-358.610	163.450	0.290	-0.406
-357.596	800.000	0.062	0.203
-356.581	112.523	0.108	0.130
-355.566	-44.711	0.011	0.005
-354.552	60.135	0.200	-0.197
-353.537	156.697	-0.176	-0.242
-352.523	-89.057	-0.283	0.084
-351.508	-1.609	-0.247	0.173
-350.493	161.788	0.166	0.231
-349.479	-7.460	-0.268	-0.181
-348.464	-200.000	0.038	0.372
-347.450	41.959	0.115	0.104
-346.435	800.000	-0.071	0.237
-345.420	360.750	-0.075	0.149
-344.406	-6.677	0.166	0.112
-343.391	-116.336	-0.172	-0.032
-342.377	115.038	0.222	-0.270
-341.362	1.982	-0.261	-0.188
-340.348	-200.000	0.023	0.177
-339.333	800.000	-0.008	-0.031
-338.318	72.916	-0.145	0.151
-337.304	148.581	-0.048	0.065
-336.289	12.415	0.334	0.256
-335.275	-169.709	0.164	-0.006
-334.260	3.422	-0.033	-0.024
-333.245	-138.273	-0.459	0.051
-332.231	-146.607	0.155	-0.013
-331.216	158.446	0.133	0.184
-330.202	38.793	0.139	0.124
-329.187	283.924	-0.181	0.324
-328.172	-200.000	0.003	0.520
-327.158	83.014	0.083	0.090
-326.143	-48.463	-0.194	0.093
-325.129	800.000	0.052	0.205
-324.114	-200.000	0.015	0.244
-323.099	-6.087	0.220	0.149
-322.085	-156.935	0.256	0.016
-321.070	-84.859	-0.346	0.108
-320.056	800.000	-0.125	-0.390
-319.041	-200.000	0.003	-0.243
-318.026	-152.943	0.140	0.010
-317.012	-63.076	0.112	-0.046
-315.997	-30.503	-0.131	-0.074
-314.983	-157.414	-0.158	-0.009
-313.968	159.354	-0.158	0.218
-312.953	-200.000	0.015	-0.284
-311.939	259.146	-0.142	-0.243
-310.924	-200.000	0.005	0.121
-309.910	-105.271	-0.356	0.081
-308.895	-200.000	0.020	-0.292
-307.880	30.033	-0.455	-0.386
-306.866	-192.011	0.158	0.002
-305.851	153.474	0.067	0.091
-304.837	-141.186	0.280	-0.028
-303.822	-200.000	-0.051	0.343
-302.807	-182.689	-0.236	-0.004
-301.793	-200.000	-0.005	-0.096
-300.778	-200.000	0.032	0.301
-299.764	-13.208	0.159	0.103
-298.749	-121.060	-0.448	-0.075
-297.735	-119.384	-0.061	0.011
-296.720	-102.205	0.146	0.035
-295.705	-88.310	0.332	0.099
-294.691	-25.522	-0.169	-0.099
-293.676	236.680	-0.026	0.043
-292.662	-42.626	-0.182	0.092
-291.647	-200.000	0.046	-0.364
-290.632	-45.046	-0.292	0.145
-289.618	-83.715	-0.203	0.064
-288.603	-116.939	0.103	-0.019
-287.589	450.735	-0.049	0.108
-286.574	-200.000	-0.018	-0.211
-285.559	-125.266	0.300	0.046
-284.545	-200.000	-0.026	0.132
-283.530	225.407	-0.114	0.183
-282.516	-84.561	-0.071	0.022
-281.501	168.426	0.021	0.030
-280.486	222.765	0.162	-0.259
-279.472	5.943	-0.191	-0.140
-278.457	-91.549	-0.290	-0.082
-277.443	555.571	-0.038	0.091
-276.428	247.640	0.155	0.261
-275.413	112.969	0.100	-0.120
-274.399	-82.967	-0.325	-0.104
-273.384	42.785	0.192	0.174
-272.370	800.000	0.136	-0.426
-271.355	-200.000	0.065	0.455
-270.340	800.000	0.061	0.221
-269.326	-35.583	0.266	-0.143
-268.311	1.395	-0.327	0.233
-267.297	690.838	0.101	0.262
-266.282	-70.881	-0.399	-0.149
-265.267	-168.205	0.055	0.002
-264.253	-102.248	-0.281	0.067
-263.238	-200.000	-0.269	-0.001
-262.224	-58.234	0.185	-0.080
-261.209	308.928	-0.111	0.206
-260.195	84.063	-0.169	-0.183
-259.180	-16.954	0.300	0.188
-258.165	-151.171	0.114	0.008
-257.151	83.806	0.182	-0.197
-256.136	66.196	-0.202	0.204
-255.122	-91.001	0.379	0.108
-254.107	-200.000	0.072	0.494
-253.092	-17.433	0.155	0.097
-252.078	-1.863	-0.166	-0.116
-251.063	-0.500	0.368	-0.260
-250.049	-40.807	0.263	0.135
-249.034	602.861	-0.074	-0.184
-248.019	-200.000	0.004	0.090
-247.005	54.405	0.249	0.238
-245.990	233.965	0.142	-0.232
-244.976	800.000	0.084	0.275
-243.961	-72.155	0.238	-0.088
-242.946	30.824	-0.159	-0.135
-241.932	-52.047	-0.041	-0.019
-240.917	-99.468	0.268	0.067
-239.903	-151.133	0.182	0.014
-238.888	-93.618	-0.272	0.074
-237.873	-32.213	0.099	0.055
-236.859	800.000	0.011	0.043
-235.844	498.182	-0.066	0.150
-234.830	-87.448	-0.154	0.046
-233.815	-170.554	0.104	0.004
-232.800	800.000	-0.067	0.189
-231.786	553.917	0.088	0.210
-230.771	-101.985	0.090	0.022
-229.757	7.775	0.082	-0.061
-228.742	-87.375	0.088	0.026
-227.727	74.096	0.153	0.159
-226.713	401.026	-0.043	0.090
-225.698	800.000	-0.012	0.041
-224.684	11.677	-0.198	0.151
-223.669	94.043	0.090	-0.101
-222.655	-108.385	-0.187	0.040
-221.640	-200.000	-0.028	0.179
-220.625	200.222	0.064	0.098
-219.611	-41.276	0.171	0.087
-218.596	-136.699	-0.396	-0.045
-217.582	-90.826	-0.118	-0.034
-216.567	-200.000	0.013	-0.265
-215.552	-8.665	-0.118	-0.079
-214.538	679.715	0.047	0.122
-213.523	-52.035	-0.121	-0.056
-212.509	22.643	-0.210	-0.170
-211.494	168.201	0.090	0.127
-210.479	800.000	-0.048	-0.162
-209.465	800.000	0.049	-0.211
-208.450	217.773	0.171	-0.270
-207.436	-155.183	-0.259	0.017
-206.421	-200.000	0.000	0.064
-205.406	800.000	0.024	0.081
-204.392	151.939	0.166	-0.224
-203.377	9.536	-0.036	0.027
-202.363	11.816	0.405	-0.309
-201.348	29.457	0.150	-0.126
-200.333	-200.000	0.003	0.060
-199.319	99.062	-0.234	0.268
-198.304	167.955	0.281	0.397
-197.290	800.000	-0.077	-0.250
-196.275	82.763	0.179	-0.192
-195.260	-84.296	0.218	0.069
-194.246	-49.181	0.120	-0.057
-193.231	421.139	-0.072	-0.154
-192.217	337.216	-0.184	0.354
-191.202	-189.111	0.172	-0.002
-190.187	-200.000	0.026	0.139
-189.173	-94.597	0.217	0.059
-188.158	20.970	-0.077	0.062
-187.144	220.595	0.110	0.175
-186.129	-200.000	-0.001	0.281
-185.114	-54.454	0.123	0.055
-184.100	61.336	-0.085	-0.084
-183.085	-31.579	-0.186	0.104
-182.071	-86.282	0.220	0.067
-181.056	-65.795	0.083	0.033
-180.042	-69.712	-0.221	0.084
-179.027	16.258	-0.258	-0.202
-178.012	-200.000	0.026	0.439
-176.998	439.390	0.084	-0.183
-175.983	90.289	0.302	-0.334
-174.969	112.661	-0.175	-0.210
-173.954	132.599	-0.131	-0.167
-172.939	-200.000	-0.041	-0.202
-171.925	-200.000	-0.015	-0.247
-170.910	-90.345	0.070	0.020
-169.896	-26.198	0.144	-0.084
-168.881	475.398	-0.078	-0.174
-167.866	78.359	0.107	0.113
-166.852	88.717	-0.071	0.078
-165.837	-101.620	-0.313	-0.075
-164.823	-32.862	0.228	-0.125
-163.808	192.680	0.012	0.018
-162.793	-86.285	0.175	-0.053
-161.779	-38.014	-0.333	0.175
-160.764	-20.173	0.176	-0.107
-159.750	-57.130	0.344	0.150
-158.735	112.809	-0.185	0.222
-157.720	3.478	-0.124	-0.090
-156.706	-64.122	-0.163	-0.066
-155.691	-200.000	-0.048	0.230
-154.677	800.000	0.028	0.093
-153.662	-0.421	0.052	-0.036
-152.647	305.598	0.103	0.190
-151.633	-102.269	-0.181	-0.043
-150.618	-55.538	-0.402	-0.178
-149.604	-174.669	0.104	-0.003
-148.589	-200.000	-0.012	0.067
-147.574	282.651	-0.025	-0.044
-146.560	-0.121	-0.117	-0.083
-145.545	-103.997	-0.447	0.103
-144.531	669.422	0.086	0.220
-143.516	5.382	-0.335	-0.245
-142.502	-137.956	-0.252	-0.028
-141.487	-43.215	0.234	0.117
-140.472	-121.293	-0.203	0.034
-139.458	-200.000	-0.003	0.146
-138.443	217.099	0.221	-0.347
-137.429	20.859	0.312	-0.250
-136.414	-126.685	0.266	0.039
-135.399	549.564	0.092	-0.217
-134.385	-0.732	0.023	-0.016
-133.370	88.669	0.056	0.061
-132.356	-1.869	-0.103	0.072
-131.341	31.226	-0.079	0.067
-130.326	800.000	0.100	0.417
-129.312	39.305	-0.217	0.192
-128.297	-91.102	-0.279	0.079
-127.283	85.275	0.234	0.254
-126.268	-100.265	-0.331	0.081
-125.253	-123.754	0.233	0.036
-124.239	460.516	-0.066	-0.145
-123.224	104.664	0.218	0.254
-122.210	-200.000	-0.029	0.228
-121.195	-200.000	0.044	-0.269
-120.180	505.539	-0.088	-0.201
