DTS Sentinel unit serial number:	SN413079Multiplexer serial number:	ORYXHardware model number:	OX4-SRSoftware version number:	ORYX F/W v4.00 Oryx Data Collector v3.7.2.0data status	okinstallation	princeton_trtdifferential loss correction	single-endedforward channel	channel 4reverse channel	N/Adate	2019/09/11time	09:27:11forward acquisition time	60.00reverse acquisition time	0.00gamma	496.2192k internal	0.2298k external	0.2298temperature offset calibration	0.9969default loss term (dB/km)	0.3790temperature slope calibration	1.0000multiplexer offset coefficient	1.0000multiplexer slope coefficient	1.0000fibre end	0.00T internal ref (°C)	34.62T ext. ref 1 (°C)	0.13T ext. ref 2 (°C)	31.40length (m)	temperature (°C)	Stokes	anti-Stokes-747.200	-200.000	0.001	0.105
-746.185	99.490	0.149	0.176
-745.171	-100.189	-0.315	0.080
-744.156	-6.230	-0.233	-0.162
-743.142	800.000	0.037	-0.147
-742.127	9.352	0.215	0.166
-741.112	-121.511	-0.028	-0.005
-740.098	186.431	0.097	0.148
-739.083	-200.000	0.023	-0.435
-738.069	-200.000	0.015	-0.447
-737.054	-200.000	-0.009	0.264
-736.039	305.658	-0.185	0.351
-735.025	189.233	0.098	0.149
-734.010	-96.739	-0.023	0.006
-732.996	118.508	-0.179	-0.225
-731.981	-127.981	-0.224	0.033
-730.966	86.614	-0.183	-0.206
-729.952	150.283	-0.242	-0.335
-728.937	-200.000	-0.022	0.200
-727.923	-128.447	0.166	0.024
-726.908	-9.958	-0.370	-0.251
-725.894	-200.000	0.010	-0.236
-724.879	22.236	0.208	-0.173
-723.864	105.343	0.226	-0.272
-722.850	-79.414	0.205	-0.071
-721.835	-167.217	0.026	-0.001
-720.821	-118.002	-0.257	-0.047
-719.806	-87.965	-0.698	-0.214
-718.791	-68.188	-0.391	-0.155
-717.777	51.006	-0.278	-0.269
-716.762	-73.028	0.159	-0.059
-715.748	-59.921	-0.066	-0.029
-714.733	100.142	0.101	0.119
-713.718	67.665	-0.239	0.249
-712.704	800.000	0.099	0.342
-711.689	-200.000	0.011	-0.121
-710.675	-189.509	-0.281	-0.003
-709.660	-200.000	-0.001	-0.212
-708.645	189.247	-0.039	0.059
-707.631	-11.900	-0.210	-0.141
-706.616	-147.974	0.102	0.009
-705.602	90.655	-0.119	0.136
-704.587	158.104	-0.225	-0.318
-703.572	-191.904	-0.153	-0.002
-702.558	-184.596	-0.130	-0.002
-701.543	66.509	0.153	0.159
-700.529	70.288	0.350	-0.368
-699.514	512.738	-0.116	0.276
-698.499	-23.289	-0.026	0.016
-697.485	201.539	-0.138	-0.217
-696.470	800.000	0.061	-0.215
-695.456	611.857	0.094	0.240
-694.441	508.217	0.074	-0.175
-693.426	411.313	-0.156	0.337
-692.412	-30.126	-0.139	-0.080
-691.397	-31.381	0.018	0.010
-690.383	502.105	0.080	0.189
-689.368	12.211	-0.201	0.157
-688.354	205.132	-0.158	-0.250
-687.339	-106.939	0.143	0.032
-686.324	-148.530	-0.134	-0.011
-685.310	25.855	-0.190	0.161
-684.295	154.758	-0.139	-0.195
-683.281	-200.000	-0.007	-0.177
-682.266	582.159	-0.114	0.286
-681.251	-200.000	-0.002	-0.062
-680.237	-22.139	-0.036	0.022
-679.222	55.636	-0.090	-0.089
-678.208	-200.000	0.069	0.310
-677.193	-200.000	-0.064	-0.328
-676.178	-168.701	0.144	-0.006
-675.164	248.024	-0.109	0.188
-674.149	1.016	0.111	-0.081
-673.135	302.592	-0.117	0.220
-672.120	800.000	-0.099	0.315
-671.105	-129.702	0.237	-0.033
-670.091	286.949	-0.161	-0.296
-669.076	27.062	0.332	-0.284
-668.062	84.942	0.018	0.020
-667.047	-47.220	-0.274	0.136
-666.032	-15.191	-0.074	0.048
-665.018	-200.000	0.001	-0.312
-664.003	-200.000	0.052	0.313
-662.989	60.532	0.348	0.351
-661.974	272.361	0.225	-0.403
-660.959	-122.491	0.250	-0.041
-659.945	109.015	0.124	0.150
-658.930	533.897	-0.059	0.142
-657.916	-106.873	-0.211	0.048
-656.901	-26.413	-0.127	-0.075
-655.886	-200.000	0.032	0.524
-654.872	-85.598	0.187	-0.059
-653.857	-200.000	-0.016	-0.131
-652.843	-200.000	-0.047	-0.241
-651.828	-61.489	0.243	-0.104
-650.814	800.000	0.021	0.079
-649.799	321.660	0.091	-0.177
-648.784	-5.366	-0.116	0.081
-647.770	29.612	0.036	-0.031
-646.755	394.516	-0.132	-0.280
-645.741	-34.142	-0.049	-0.027
-644.726	33.692	0.233	0.206
-643.711	-26.982	-0.128	0.076
-642.697	-82.635	0.202	0.067
-641.682	-200.000	-0.008	-0.308
-640.668	24.986	-0.133	-0.112
-639.653	800.000	0.014	-0.060
-638.638	85.027	-0.095	0.106
-637.624	800.000	0.041	0.139
-636.609	177.994	0.072	-0.107
-635.595	-200.000	0.023	-0.359
-634.580	-88.364	0.088	-0.027
-633.565	513.904	-0.074	0.174
-632.551	-79.036	-0.284	-0.098
-631.536	800.000	-0.046	0.176
-630.522	-161.769	0.147	-0.008
-629.507	800.000	0.082	-0.359
-628.492	-20.771	0.114	0.071
-627.478	-152.189	0.233	0.017
-626.463	175.943	0.102	0.151
-625.449	60.994	-0.180	-0.181
-624.434	301.725	0.091	-0.170
-623.419	-46.407	0.138	-0.069
-622.405	-148.683	-0.167	-0.014
-621.390	-120.088	-0.149	0.026
-620.376	-200.000	-0.022	-0.246
-619.361	100.596	0.127	-0.150
-618.346	140.739	-0.275	-0.369
-617.332	-59.047	-0.123	0.054
-616.317	-55.941	0.038	0.017
-615.303	333.870	-0.183	-0.360
-614.288	-143.397	-0.157	0.015
-613.273	-200.000	0.013	-0.318
-612.259	-200.000	-0.115	-0.551
-611.244	145.924	0.072	-0.098
-610.230	-57.559	0.235	0.104
-609.215	-27.535	-0.148	-0.087
-608.201	117.518	0.057	0.071
-607.186	800.000	0.098	0.296
-606.171	-10.458	0.181	0.122
-605.157	240.819	-0.067	0.114
-604.142	28.812	-0.046	-0.039
-603.128	-40.376	-0.269	-0.142
-602.113	-200.000	-0.046	0.335
-601.098	-153.163	0.318	0.023
-600.084	-31.754	0.293	0.167
-599.069	-200.000	-0.006	0.164
-598.055	38.358	0.162	0.147
-597.040	-200.000	0.004	0.053
-596.025	-200.000	0.004	-0.032
-595.011	178.730	0.176	-0.261
-593.996	-98.170	-0.165	-0.043
-592.982	90.347	0.034	-0.038
-591.967	-200.000	0.041	0.206
-590.952	137.406	-0.093	-0.124
-589.938	-200.000	-0.075	-0.360
-588.923	61.971	-0.120	-0.121
-587.909	-175.346	0.063	0.002
-586.894	-118.301	-0.220	0.040
-585.879	-105.185	0.227	-0.053
-584.865	272.427	-0.088	-0.157
-583.850	353.825	-0.140	0.283
-582.836	127.849	0.130	-0.168
-581.821	124.374	0.116	-0.147
-580.806	-200.000	0.027	-0.406
-579.792	250.042	0.149	-0.257
-578.777	-78.904	-0.070	-0.024
-577.763	-68.355	-0.085	0.034
-576.748	-127.895	0.292	0.043
-575.733	-8.033	0.080	0.054
-574.719	-39.709	0.172	0.091
-573.704	45.855	-0.213	-0.200
-572.690	144.161	-0.134	-0.182
-571.675	-200.000	0.030	-0.220
-570.661	0.175	0.215	-0.156
-569.646	129.056	-0.273	0.353
-568.631	198.034	-0.290	0.449
-567.617	-29.859	0.114	0.066
-566.602	146.835	-0.072	-0.099
-565.588	-132.796	0.269	0.035
-564.573	41.250	-0.104	0.095
-563.558	-36.251	-0.139	0.076
-562.544	-138.679	0.344	0.038
-561.529	136.022	0.023	-0.031
-560.515	63.215	0.159	0.161
-559.500	206.365	-0.175	0.277
-558.485	29.087	-0.098	0.084
-557.471	17.954	-0.036	-0.029
-556.456	-80.128	0.235	-0.080
-555.442	-136.472	-0.378	0.044
-554.427	117.730	-0.148	0.185
-553.412	-28.463	-0.134	0.078
-552.398	1.400	-0.267	0.195
-551.383	-200.000	0.012	-0.316
-550.369	800.000	0.012	-0.053
-549.354	-200.000	-0.028	-0.125
-548.339	724.411	0.043	-0.117
-547.325	412.141	0.096	0.206
-546.310	-200.000	-0.025	0.230
-545.296	-125.757	-0.102	0.016
-544.281	-61.610	0.321	0.136
-543.266	-55.679	0.100	-0.045
-542.252	-58.980	-0.320	-0.140
-541.237	-17.203	0.176	-0.112
-540.223	-87.941	-0.112	0.034
-539.208	259.409	0.016	0.028
-538.193	27.507	-0.152	0.129
-537.179	75.387	0.271	0.290
-536.164	175.786	-0.155	-0.228
-535.150	-87.796	0.373	-0.114
-534.135	-200.000	0.048	0.253
-533.121	800.000	0.030	0.130
-532.106	-9.294	0.107	0.073
-531.091	146.447	-0.135	-0.184
-530.077	305.810	0.016	0.031
-529.062	-200.000	0.041	-0.306
-528.048	57.423	-0.061	0.060
-527.033	294.335	0.152	-0.281
-526.018	-30.919	-0.119	0.068
-525.004	93.228	-0.045	0.052
-523.989	62.007	-0.121	0.123
-522.975	-200.000	0.040	0.225
-521.960	-94.990	0.219	0.060
-520.945	-55.785	-0.146	-0.066
-519.931	-179.804	-0.357	-0.008
-518.916	26.395	-0.109	0.093
-517.902	665.158	0.058	-0.152
-516.887	-200.000	-0.007	-0.439
-515.872	4.517	0.099	-0.073
-514.858	-92.449	0.178	-0.051
-513.843	-200.000	-0.028	-0.171
-512.829	237.317	-0.056	0.093
-511.814	183.482	0.098	-0.146
-510.799	-191.861	-0.086	0.001
-509.785	48.973	0.118	0.112
-508.770	-92.979	-0.092	-0.026
-507.756	-66.858	0.141	0.056
-506.741	60.343	0.059	0.059
-505.726	86.696	0.138	0.154
-504.712	800.000	0.088	0.289
-503.697	-200.000	-0.003	-0.093
-502.683	-112.386	-0.164	-0.033
-501.668	-200.000	0.033	-0.164
-500.653	128.387	-0.191	0.246
-499.639	-136.068	0.314	-0.037
-498.624	800.000	-0.102	0.371
-497.610	-99.697	0.197	0.050
-496.595	-156.433	0.304	-0.019
-495.581	207.829	0.046	0.073
-494.566	78.060	-0.173	0.186
-493.551	43.227	0.108	0.100
-492.537	80.857	-0.102	0.111
-491.522	458.148	0.041	0.093
-490.508	800.000	0.044	0.151
-489.493	142.975	-0.113	-0.152
-488.478	800.000	0.096	0.362
-487.464	-32.545	-0.382	0.215
-486.449	172.713	-0.134	-0.195
-485.435	800.000	0.054	-0.229
-484.420	-200.000	-0.009	0.126
-483.405	800.000	-0.082	-0.350
-482.391	283.732	-0.120	0.219
-481.376	-66.158	0.244	0.098
-480.362	-144.205	0.192	-0.018
-479.347	670.832	-0.076	-0.200
-478.332	-121.839	-0.247	-0.041
-477.318	-119.412	-0.283	-0.050
-476.303	167.993	-0.063	0.090
-475.289	204.901	-0.153	0.240
-474.274	-200.000	-0.057	0.372
-473.259	524.490	0.038	0.090
-472.245	-200.000	0.043	-0.312
-471.230	-124.752	0.417	0.065
-470.216	-125.276	0.179	-0.028
-469.201	-200.000	0.020	-0.229
-468.186	-106.270	-0.194	-0.044
-467.172	-200.000	-0.029	-0.250
-466.157	-141.406	-0.259	0.026
-465.143	-179.225	0.108	-0.002
-464.128	112.371	0.104	-0.127
-463.113	-123.944	-0.141	-0.022
-462.099	-111.611	-0.236	-0.048
-461.084	-0.915	0.277	0.198
-460.070	-31.677	0.168	-0.095
-459.055	-11.171	-0.119	0.079
-458.040	-103.411	-0.098	0.023
-457.026	-110.977	0.244	0.051
-456.011	-70.133	0.248	0.095
-454.997	-22.153	0.135	0.083
-453.982	-178.743	-0.217	0.005
-452.968	-90.497	0.066	0.019
-451.953	16.475	0.130	-0.104
-450.938	29.385	0.075	0.064
-449.924	64.337	-0.138	0.140
-448.909	-9.698	0.200	-0.135
-447.895	-74.647	-0.146	0.053
-446.880	-16.493	-0.082	0.052
-445.865	-118.930	0.233	-0.041
-444.851	-160.063	-0.112	-0.006
-443.836	72.675	0.046	0.048
-442.822	25.353	-0.116	-0.097
-441.807	275.842	-0.149	0.267
-440.792	-132.103	0.158	-0.021
-439.778	-200.000	-0.021	0.181
-438.763	-119.132	-0.096	0.017
-437.749	800.000	-0.023	-0.069
-436.734	-75.998	-0.100	0.036
-435.719	-200.000	-0.005	-0.203
-434.705	-73.616	0.086	-0.032
-433.690	-200.000	-0.021	0.097
-432.676	275.811	-0.122	-0.218
-431.661	-115.475	0.216	0.041
-430.646	-63.813	-0.086	0.036
-429.632	800.000	-0.108	-0.414
-428.617	30.696	0.061	0.052
-427.603	800.000	0.081	0.305
-426.588	-102.626	0.427	0.103
-425.573	399.760	-0.079	-0.167
-424.559	56.117	0.120	0.117
-423.544	-200.000	0.017	-0.198
-422.530	-46.813	-0.069	-0.034
-421.515	150.703	0.217	0.298
-420.500	176.577	-0.091	0.133
-419.486	-22.488	-0.102	-0.062
-418.471	-36.959	-0.108	0.058
-417.457	-200.000	0.033	0.208
-416.442	-88.150	0.202	0.061
-415.428	800.000	0.049	-0.142
-414.413	-69.021	-0.157	0.061
-413.398	49.747	-0.139	-0.132
-412.384	-86.605	-0.275	0.085
-411.369	157.388	-0.099	-0.138
-410.355	-154.073	-0.064	-0.004
-409.340	202.373	0.099	-0.154
-408.325	132.481	0.089	-0.115
-407.311	800.000	0.064	0.254
-406.296	-149.751	-0.053	-0.004
-405.282	-200.000	-0.033	-0.271
-404.267	-120.250	-0.264	-0.045
-403.252	-200.000	-0.040	-0.396
-402.238	65.772	0.126	-0.129
-401.223	800.000	-0.102	0.294
-400.209	-19.119	-0.128	0.080
-399.194	-200.000	0.002	-0.227
-398.179	78.108	0.183	-0.196
-397.165	24.237	0.125	0.104
-396.150	-89.799	-0.086	0.025
-395.136	-200.000	0.024	0.307
-394.121	19.195	-0.287	0.232
-393.106	-89.359	-0.283	-0.084
-392.092	280.388	0.158	0.284
-391.077	-64.650	0.374	0.153
-390.063	152.104	-0.088	-0.121
-389.048	-33.288	0.325	0.181
-388.033	-200.000	-0.008	-0.132
-387.019	-200.000	0.058	-0.291
-386.004	-19.051	-0.182	0.114
-384.990	-49.297	-0.153	-0.074
-383.975	800.000	0.038	-0.131
-382.960	145.747	0.139	-0.188
-381.946	106.642	0.280	0.334
-380.931	-0.247	-0.250	-0.179
-379.917	800.000	0.061	-0.174
-378.902	800.000	-0.021	0.087
-377.888	-148.497	0.374	-0.031
-376.873	-200.000	0.007	0.140
-375.858	701.187	0.132	0.350
-374.844	27.551	-0.123	-0.104
-373.829	-191.050	-0.446	-0.005
-372.815	67.870	-0.248	0.255
-371.800	-200.000	-0.051	-0.465
-370.785	505.174	0.109	-0.255
-369.771	-200.000	-0.014	0.097
-368.756	48.369	-0.212	-0.200
-367.742	129.246	-0.133	-0.170
-366.727	-6.462	0.109	-0.075
-365.712	428.145	-0.093	-0.202
-364.698	108.654	0.383	-0.460
-363.683	-58.059	0.173	0.076
-362.669	17.813	-0.385	0.308
-361.654	304.978	0.106	0.199
-360.639	800.000	0.071	0.240
-359.625	-145.622	-0.241	-0.022
-358.610	-200.000	0.144	-0.712
-357.596	-35.779	0.158	0.086
-356.581	169.503	-0.142	0.203
-355.566	57.240	0.073	-0.072
-354.552	169.822	-0.079	0.114
-353.537	-50.449	-0.224	0.107
-352.523	-200.000	-0.000	-0.133
-351.508	-2.129	-0.277	-0.195
-350.493	-88.321	-0.312	-0.094
-349.479	17.044	0.115	0.092
-348.464	-118.990	-0.431	0.076
-347.450	-200.000	-0.029	-0.142
-346.435	98.698	-0.164	-0.190
-345.420	-166.167	0.072	0.003
-344.406	100.157	0.263	0.306
-343.391	132.730	-0.061	0.079
-342.377	174.385	0.149	0.217
-341.362	-188.721	-0.234	-0.003
-340.348	-200.000	-0.016	-0.089
-339.333	-200.000	0.010	0.136
-338.318	800.000	-0.097	0.415
-337.304	-86.240	-0.104	-0.032
-336.289	-109.348	-0.450	-0.096
-335.275	34.682	-0.057	0.050
-334.260	649.792	-0.138	0.355
-333.245	800.000	-0.081	-0.281
-332.231	-13.395	0.415	-0.271
-331.216	35.519	-0.237	-0.209
-330.202	-200.000	-0.015	-0.165
-329.187	109.984	-0.081	0.098
-328.172	-163.972	0.212	0.010
-327.158	661.774	-0.047	0.121
-326.143	83.794	-0.123	0.134
-325.129	800.000	-0.008	0.029
-324.114	-102.334	0.160	0.039
-323.099	484.402	-0.079	-0.180
-322.085	-135.695	0.410	-0.049
-321.070	-193.283	0.245	0.002
-320.056	-200.000	0.042	0.323
-319.041	134.241	0.021	-0.027
-318.026	800.000	-0.047	-0.199
-317.012	-111.166	-0.404	0.083
-315.997	-200.000	-0.010	0.292
-314.983	-200.000	0.030	-0.156
-313.968	800.000	0.066	-0.223
-312.953	-194.493	0.452	-0.004
-311.939	48.099	-0.211	0.198
-310.924	-77.947	-0.106	0.037
-309.910	-169.323	-0.131	0.005
-308.895	-200.000	0.021	-0.109
-307.880	-100.321	-0.175	-0.044
-306.866	800.000	0.038	0.112
-305.851	-154.036	0.178	0.012
-304.837	-200.000	-0.156	0.709
-303.822	800.000	0.040	0.131
-302.807	-200.000	0.006	-0.413
-301.793	-58.240	-0.370	-0.161
-300.778	-131.781	0.098	0.013
-299.764	167.497	0.129	-0.184
-298.749	105.267	0.052	-0.062
-297.735	427.959	0.152	0.329
-296.720	-200.000	-0.003	-0.039
-295.705	-200.000	0.010	0.060
-294.691	800.000	0.050	0.187
-293.676	-115.296	0.461	0.087
-292.662	800.000	0.050	-0.141
-291.647	800.000	0.038	-0.165
-290.632	-200.000	0.043	-0.259
-289.618	-93.095	-0.314	0.088
-288.603	-200.000	0.019	0.219
-287.589	-29.485	0.246	-0.141
-286.574	-7.458	0.214	0.145
-285.559	-200.000	0.024	0.237
-284.545	342.839	-0.088	0.173
-283.530	-195.420	-0.145	-0.001
-282.516	125.801	-0.089	-0.113
-281.501	61.343	-0.201	0.200
-280.486	800.000	0.025	0.100
-279.472	-25.962	-0.257	-0.152
-278.457	-162.526	0.355	-0.018
-277.443	183.416	-0.068	0.101
-276.428	800.000	-0.053	-0.178
-275.413	-38.854	-0.199	-0.105
-274.399	-16.211	0.153	-0.097
-273.384	-31.385	0.191	-0.108
-272.370	251.746	0.007	-0.012
-271.355	-148.108	-0.136	-0.011
-270.340	481.668	-0.086	-0.195
-269.326	20.467	0.100	0.081
-268.311	-144.521	-0.297	-0.027
-267.297	-79.529	0.343	-0.116
-266.282	800.000	-0.028	-0.092
-265.267	447.987	0.174	-0.385
-264.253	-27.117	-0.175	-0.102
-263.238	131.048	-0.042	-0.054
-262.224	-6.682	-0.157	0.107
-261.209	-200.000	0.033	-0.146
-260.195	-200.000	-0.028	-0.275
-259.180	106.041	-0.081	0.096
-258.165	-126.483	-0.177	0.026
-257.151	79.381	0.078	-0.083
-256.136	-3.366	-0.219	0.153
-255.122	260.526	0.089	0.154
-254.107	-34.605	0.297	0.163
-253.092	800.000	0.043	0.133
-252.078	-200.000	-0.017	0.153
-251.063	-200.000	-0.041	-0.281
-250.049	-171.862	0.138	-0.005
-249.034	-163.712	0.169	0.008
-248.019	346.845	0.090	0.177
-247.005	96.037	-0.157	-0.180
-245.990	-115.439	0.159	0.030
-244.976	-73.466	0.145	-0.053
-243.961	41.392	-0.080	0.072
-242.946	31.038	0.021	-0.018
-241.932	-117.041	0.337	-0.062
-240.917	-200.000	0.013	-0.143
-239.903	10.506	-0.180	-0.137
-238.888	-200.000	0.012	-0.089
-237.873	-182.306	-0.067	-0.001
-236.859	-61.314	0.237	-0.100
-235.844	146.244	0.065	0.087
-234.830	-81.574	-0.092	0.030
-233.815	-200.000	-0.015	0.112
-232.800	-70.304	-0.513	0.195
-231.786	-72.859	-0.078	-0.029
-230.771	417.211	0.206	-0.439
-229.757	-175.040	-0.205	0.006
-228.742	-95.819	0.234	0.063
-227.727	-67.618	-0.061	-0.024
-226.713	800.000	-0.027	0.094
-225.698	-174.748	-0.223	0.006
-224.684	-96.963	0.413	0.108
-223.669	602.938	-0.208	0.518
-222.655	86.628	-0.115	0.127
-221.640	-28.575	0.298	0.172
-220.625	157.312	-0.070	0.096
-219.611	-200.000	0.002	-0.103
-218.596	90.649	0.242	-0.271
-217.582	-200.000	0.014	0.097
-216.567	35.704	0.064	-0.056
-215.552	24.490	0.191	0.158
-214.538	-200.000	0.007	0.105
-213.523	236.138	0.084	-0.139
-212.509	99.286	0.082	-0.094
-211.494	800.000	-0.144	0.493
-210.479	800.000	-0.083	0.254
-209.465	-0.897	0.163	0.116
-208.450	-63.973	-0.191	-0.078
-207.436	60.690	0.225	0.223
-206.421	160.174	0.226	0.315
-205.406	800.000	0.117	-0.371
-204.392	57.859	-0.330	0.322
-203.377	-200.000	-0.042	0.425
-202.363	-96.874	-0.152	-0.040
-201.348	509.838	-0.108	-0.250
-200.333	-121.139	-0.175	-0.029
-199.319	186.203	-0.259	-0.385
-198.304	-144.745	0.218	0.020
-197.290	249.630	-0.137	0.232
-196.275	11.180	0.343	0.262
-195.260	-20.882	0.350	0.214
-194.246	673.574	0.104	-0.268
-193.231	-163.568	-0.064	-0.003
-192.217	79.224	0.076	0.082
-191.202	800.000	-0.083	-0.245
-190.187	-11.946	-0.144	-0.094
-189.173	199.973	0.186	-0.285
-188.158	-69.856	0.135	0.052
-187.144	79.419	-0.161	0.172
-186.129	-200.000	-0.013	-0.116
-185.114	-58.650	0.267	0.116
-184.100	8.873	-0.141	-0.106
-183.085	14.747	0.166	-0.129
-182.071	-200.000	-0.013	-0.427
-181.056	129.896	-0.154	0.197
-180.042	-200.000	-0.031	-0.238
-179.027	25.329	0.203	-0.169
-178.012	38.337	0.134	0.119
-176.998	9.621	0.102	0.077
-175.983	-102.469	-0.099	0.024
-174.969	-200.000	-0.018	0.310
-173.954	225.760	-0.123	0.199
-172.939	-127.669	-0.217	-0.031
-171.925	-22.796	0.178	-0.108
-170.910	100.496	-0.059	-0.068
-169.896	638.705	0.063	0.160
-168.881	441.913	0.038	0.083
-167.866	394.080	-0.071	0.147
-166.852	-200.000	0.024	0.151
-165.837	-104.596	0.365	0.084
-164.823	-142.583	0.395	-0.039
-163.808	-200.000	-0.058	-0.339
-162.793	-200.000	-0.028	-0.175
-161.779	-93.198	-0.144	-0.040
-160.764	-48.936	-0.156	0.075
-159.750	364.903	-0.234	0.469
-158.735	27.618	-0.109	0.091
-157.720	-28.928	0.201	0.115
-156.706	212.179	-0.024	-0.037
-155.691	250.589	-0.188	-0.318
-154.677	47.886	-0.082	0.076
-153.662	-87.543	-0.226	0.068
-152.647	-68.978	-0.021	0.008
-151.633	117.495	0.113	0.139
-150.618	-148.039	-0.262	0.022
-149.604	-24.789	0.358	-0.212
-148.589	-25.473	0.295	-0.174
-147.574	12.477	0.155	0.119
-146.560	-32.570	0.138	-0.077
-145.545	138.308	0.020	-0.026
-144.531	-78.762	-0.122	-0.042
-143.516	3.722	0.144	0.105
-142.502	65.729	0.140	-0.142
-141.487	-18.583	0.391	-0.243
-140.472	-5.987	0.118	0.080
-139.458	-125.291	0.141	-0.022
-138.443	-6.698	0.215	0.146
-137.429	87.483	0.115	-0.126
-136.414	773.632	-0.032	0.086
-135.399	319.951	0.060	-0.113
-134.385	-2.042	0.272	0.190
-133.370	-200.000	-0.047	0.298
-132.356	-89.462	0.335	0.098
-131.341	-42.653	-0.429	-0.218
-130.326	594.429	-0.032	0.079
-129.312	115.391	-0.185	0.225
-128.297	45.966	0.141	0.130
-127.283	28.855	-0.336	-0.283
-126.268	94.500	0.154	-0.175
-125.253	-99.409	0.315	0.079
-124.239	489.459	-0.094	0.214
-123.224	800.000	0.098	0.344
-122.210	257.379	0.075	0.129
-121.195	240.601	-0.099	-0.164
