DTS Sentinel unit serial number:	SN413079Multiplexer serial number:	ORYXHardware model number:	OX4-SRSoftware version number:	ORYX F/W v4.00 Oryx Data Collector v3.7.2.0data status	okinstallation	princeton_trtdifferential loss correction	single-endedforward channel	channel 4reverse channel	N/Adate	2019/09/10time	16:11:10forward acquisition time	60.00reverse acquisition time	0.00gamma	496.2192k internal	0.2294k external	0.2294temperature offset calibration	0.9939default loss term (dB/km)	0.3790temperature slope calibration	1.0000multiplexer offset coefficient	1.0000multiplexer slope coefficient	1.0000fibre end	0.00T internal ref (°C)	38.28T ext. ref 1 (°C)	-0.28T ext. ref 2 (°C)	31.01length (m)	temperature (°C)	Stokes	anti-Stokes-747.200	800.000	-0.102	-0.337
-746.185	-116.584	-0.091	-0.017
-745.171	312.760	-0.028	0.053
-744.156	247.716	-0.331	0.572
-743.142	726.987	0.028	-0.078
-742.127	50.681	0.171	0.165
-741.112	-151.512	0.200	-0.015
-740.098	-80.974	0.191	0.065
-739.083	800.000	0.046	0.189
-738.069	800.000	-0.043	0.144
-737.054	-200.000	-0.003	0.055
-736.039	-200.000	-0.028	0.281
-735.025	763.670	-0.092	0.254
-734.010	800.000	0.056	0.168
-732.996	-6.966	-0.172	-0.119
-731.981	68.687	0.313	0.328
-730.966	-105.584	-0.263	-0.061
-729.952	503.408	-0.194	-0.460
-728.937	241.624	-0.210	-0.358
-727.923	725.165	0.077	-0.211
-726.908	83.919	0.280	-0.313
-725.894	171.188	0.143	-0.209
-724.879	-15.070	-0.188	-0.123
-723.864	123.678	-0.103	-0.132
-722.850	-36.957	-0.180	-0.098
-721.835	744.257	-0.107	0.295
-720.821	-145.641	0.149	0.014
-719.806	-200.000	-0.005	0.049
-718.791	227.132	-0.024	-0.040
-717.777	-66.221	0.337	0.137
-716.762	165.357	0.112	-0.162
-715.748	-200.000	0.000	-0.101
-714.733	-104.202	-0.183	0.044
-713.718	116.445	0.115	-0.144
-712.704	307.103	-0.163	-0.310
-711.689	275.369	-0.180	-0.326
-710.675	-150.638	-0.292	-0.023
-709.660	-200.000	-0.011	0.366
-708.645	-97.755	0.154	0.041
-707.631	-142.465	0.230	-0.023
-706.616	148.893	-0.192	-0.265
-705.602	523.542	-0.083	-0.198
-704.587	158.476	-0.155	0.219
-703.572	499.664	0.083	-0.196
-702.558	-80.622	0.201	-0.068
-701.543	-200.000	-0.009	-0.366
-700.529	-76.006	-0.279	-0.101
-699.514	-92.191	0.231	-0.067
-698.499	283.396	-0.230	0.421
-697.485	3.640	-0.186	-0.139
-696.470	800.000	0.084	-0.351
-695.456	-121.757	0.358	0.060
-694.441	-66.635	0.108	-0.044
-693.426	-157.434	-0.126	0.008
-692.412	22.233	0.069	-0.057
-691.397	-85.977	-0.125	0.039
-690.383	-200.000	0.020	0.216
-689.368	800.000	-0.087	-0.297
-688.354	-176.290	0.059	0.002
-687.339	-42.275	-0.214	-0.112
-686.324	45.270	-0.237	0.223
-685.310	24.713	0.042	-0.036
-684.295	800.000	0.107	-0.441
-683.281	-200.000	0.019	-0.122
-682.266	-21.756	-0.214	-0.133
-681.251	129.686	0.078	0.102
-680.237	524.821	0.063	-0.150
-679.222	139.750	0.080	-0.108
-678.208	-200.000	-0.006	-0.180
-677.193	451.172	0.038	-0.086
-676.178	-42.784	-0.454	-0.235
-675.164	138.994	-0.049	0.066
-674.149	-67.134	-0.119	0.048
-673.135	-140.699	-0.169	-0.018
-672.120	800.000	0.060	-0.220
-671.105	-200.000	-0.037	-0.201
-670.091	658.444	-0.066	0.172
-669.076	-200.000	0.035	-0.215
-668.062	800.000	0.100	0.332
-667.047	-100.689	0.256	-0.064
-666.032	38.818	-0.157	-0.143
-665.018	-159.725	-0.134	-0.008
-664.003	-78.615	-0.292	0.102
-662.989	18.924	-0.249	0.204
-661.974	-183.208	0.112	0.002
-660.959	800.000	0.038	0.130
-659.945	-72.301	-0.133	0.050
-658.930	160.357	0.116	0.165
-657.916	368.009	0.067	-0.137
-656.901	-45.770	-0.249	-0.125
-655.886	-121.584	-0.267	-0.045
-654.872	35.192	-0.126	0.113
-653.857	-86.387	-0.179	-0.056
-652.843	-66.267	0.126	-0.051
-651.828	-200.000	-0.042	0.238
-650.814	-92.563	0.418	-0.119
-649.799	42.256	0.188	-0.174
-648.784	-138.412	0.339	0.038
-647.770	-153.033	-0.396	0.028
-646.755	-184.979	0.332	-0.005
-645.741	235.027	-0.150	-0.252
-644.726	-132.240	0.166	-0.022
-643.711	-122.389	0.217	0.036
-642.697	53.290	-0.228	-0.223
-641.682	202.567	-0.018	-0.028
-640.668	104.856	0.252	-0.303
-639.653	-79.110	0.255	0.088
-638.638	800.000	0.038	-0.125
-637.624	-24.506	0.138	0.084
-636.609	-200.000	0.033	-0.256
-635.595	-200.000	0.023	-0.175
-634.580	107.274	-0.191	0.232
-633.565	50.958	-0.168	-0.162
-632.551	340.216	0.111	-0.220
-631.536	78.920	0.108	-0.118
-630.522	76.765	0.271	-0.293
-629.507	-96.559	0.192	0.052
-628.492	-200.000	0.021	-0.180
-627.478	-200.000	-0.016	0.166
-626.463	-47.333	-0.179	0.088
-625.449	800.000	0.047	0.181
-624.434	387.120	-0.079	0.166
-623.419	800.000	-0.076	-0.263
-622.405	654.506	0.061	0.159
-621.390	46.805	-0.179	0.169
-620.376	-200.000	0.044	-0.337
-619.361	130.857	-0.053	0.069
-618.346	-200.000	-0.049	0.247
-617.332	-29.141	0.041	0.024
-616.317	77.362	-0.087	0.094
-615.303	-65.910	-0.166	0.068
-614.288	-28.113	0.105	-0.062
-613.273	751.721	0.093	-0.256
-612.259	555.231	0.084	0.206
-611.244	215.467	-0.154	-0.249
-610.230	233.051	0.354	-0.592
-609.215	231.979	-0.132	-0.221
-608.201	572.065	0.117	-0.291
-607.186	-74.244	0.381	-0.140
-606.171	800.000	0.082	-0.285
-605.157	-7.131	-0.026	-0.018
-604.142	-200.000	-0.039	-0.221
-603.128	6.440	-0.156	-0.117
-602.113	143.252	-0.134	0.182
-601.098	-144.820	0.238	0.022
-600.084	-200.000	-0.007	0.058
-599.069	-88.976	-0.433	0.131
-598.055	-192.141	-0.335	-0.003
-597.040	11.257	0.147	-0.115
-596.025	-62.082	-0.163	0.069
-595.011	-104.145	-0.151	-0.036
-593.996	97.489	0.133	-0.155
-592.982	-61.432	0.309	-0.132
-591.967	199.153	-0.028	0.044
-590.952	-83.825	-0.067	-0.022
-589.938	521.313	0.136	0.324
-588.923	-59.703	-0.192	0.084
-587.909	-96.812	-0.248	-0.066
-586.894	216.475	-0.045	0.073
-585.879	60.923	-0.181	-0.182
-584.865	-200.000	-0.002	0.075
-583.850	711.453	-0.088	0.236
-582.836	-200.000	0.005	0.370
-581.821	-75.859	0.243	0.087
-580.806	800.000	0.045	-0.172
-579.792	614.973	0.106	-0.269
-578.777	800.000	-0.028	-0.080
-577.763	-102.103	0.181	-0.044
-576.748	-145.515	0.139	0.013
-575.733	-93.426	0.328	0.092
-574.719	-200.000	-0.019	-0.346
-573.704	-85.691	0.041	-0.013
-572.690	33.806	0.382	0.337
-571.675	-200.000	-0.019	0.264
-570.661	3.911	-0.202	0.150
-569.646	-200.000	-0.013	-0.209
-568.631	-200.000	0.020	0.176
-567.617	305.492	0.098	0.184
-566.602	-21.077	-0.172	0.107
-565.588	-144.460	-0.487	-0.046
-564.573	-200.000	0.023	-0.107
-563.558	-105.494	0.279	-0.064
-562.544	377.708	-0.189	0.392
-561.529	-39.107	-0.190	-0.102
-560.515	153.357	-0.047	0.065
-559.500	159.447	-0.099	0.140
-558.485	800.000	0.049	-0.196
-557.471	82.220	-0.076	-0.084
-556.456	-1.460	-0.194	0.139
-555.442	-200.000	0.003	0.074
-554.427	123.642	0.047	0.060
-553.412	73.764	0.190	0.202
-552.398	-200.000	0.021	0.290
-551.383	800.000	-0.095	-0.295
-550.369	800.000	-0.138	-0.559
-549.354	9.784	-0.075	0.058
-548.339	-200.000	0.007	-0.292
-547.325	62.901	0.123	-0.125
-546.310	352.220	-0.018	0.036
-545.296	703.948	0.032	0.084
-544.281	-2.603	0.211	0.150
-543.266	162.850	-0.044	0.063
-542.252	800.000	-0.034	0.125
-541.237	15.818	-0.327	-0.261
-540.223	-200.000	-0.046	0.232
-539.208	-82.843	-0.131	0.043
-538.193	800.000	-0.052	0.209
-537.179	79.333	0.129	0.140
-536.164	-127.964	-0.425	-0.062
-535.150	-42.674	0.179	0.092
-534.135	-55.253	0.260	-0.118
-533.121	-92.758	0.092	-0.026
-532.106	-63.822	-0.248	-0.103
-531.091	-200.000	-0.001	-0.301
-530.077	-12.195	0.381	0.253
-529.062	87.215	0.035	-0.040
-528.048	88.480	-0.040	0.045
-527.033	800.000	-0.052	0.206
-526.018	421.171	0.118	0.257
-525.004	-79.178	-0.093	-0.032
-523.989	341.275	-0.075	0.149
-522.975	-35.819	-0.189	0.104
-521.960	-81.189	0.205	-0.069
-520.945	711.138	-0.050	-0.134
-519.931	800.000	-0.031	-0.103
-518.916	800.000	-0.099	0.288
-517.902	800.000	-0.069	0.249
-516.887	-80.792	0.496	-0.167
-515.872	147.336	-0.092	-0.126
-514.858	34.956	0.125	-0.111
-513.843	28.393	0.424	-0.363
-512.829	-154.890	-0.222	-0.015
-511.814	-135.577	0.382	-0.046
-510.799	16.073	-0.382	0.305
-509.785	6.889	-0.160	-0.121
-508.770	-200.000	0.001	0.087
-507.756	-200.000	-0.019	-0.334
-506.741	766.001	-0.065	0.179
-505.726	-200.000	0.033	0.196
-504.712	-102.151	-0.107	0.026
-503.697	-2.104	0.349	-0.248
-502.683	-102.541	0.057	0.014
-501.668	-28.796	-0.178	-0.104
-500.653	-77.974	-0.194	-0.068
-499.639	-65.221	0.286	0.117
-498.624	-120.751	0.379	0.065
-497.610	136.532	-0.106	-0.140
-496.595	-69.774	0.092	0.036
-495.581	350.488	0.172	0.344
-494.566	-72.643	-0.208	-0.078
-493.551	281.953	-0.063	0.114
-492.537	-57.963	-0.229	-0.101
-491.522	349.991	0.126	-0.252
-490.508	-70.426	-0.107	-0.041
-489.493	-68.451	-0.015	0.006
-488.478	115.619	-0.191	0.237
-487.464	-200.000	-0.037	0.339
-486.449	800.000	0.088	-0.281
-485.435	-200.000	-0.013	-0.300
-484.420	87.789	0.151	-0.169
-483.405	-200.000	0.012	0.149
-482.391	-170.179	-0.228	-0.008
-481.376	-200.000	-0.018	-0.477
-480.362	-160.776	0.390	-0.021
-479.347	50.060	-0.061	0.059
-478.332	-146.975	-0.056	-0.005
-477.318	455.218	0.090	0.202
-476.303	666.980	-0.141	0.368
-475.289	-58.839	-0.038	0.017
-474.274	-33.734	-0.151	-0.084
-473.259	-124.296	-0.283	0.045
-472.245	-200.000	0.026	-0.178
-471.230	-47.394	0.074	0.036
-470.216	-61.518	-0.171	0.073
-469.201	-55.345	-0.202	0.092
-468.186	76.146	-0.036	0.038
-467.172	-69.430	0.237	-0.092
-466.157	-148.132	0.189	0.016
-465.143	112.697	0.186	0.227
-464.128	40.474	0.191	0.174
-463.113	-200.000	-0.164	-0.001
-462.099	97.251	0.321	-0.372
-461.084	11.452	0.127	0.098
-460.070	-77.311	0.194	-0.068
-459.055	-104.005	0.015	0.003
-458.040	-200.000	-0.051	0.309
-457.026	800.000	0.043	-0.133
-456.011	800.000	0.042	-0.152
-454.997	-200.000	0.024	0.140
-453.982	25.738	0.345	-0.290
-452.968	129.673	-0.127	-0.164
-451.953	-12.411	0.184	0.122
-450.938	-44.465	0.102	-0.052
-449.924	-165.503	-0.148	-0.007
-448.909	-87.228	0.113	0.035
-447.895	-171.320	-0.424	-0.014
-446.880	5.056	-0.111	-0.083
-445.865	230.999	0.035	-0.058
-444.851	-139.800	0.273	0.029
-443.836	-200.000	0.151	-0.000
-442.822	-200.000	0.017	0.214
-441.807	-63.845	-0.216	-0.089
-440.792	-200.000	0.047	-0.231
-439.778	-67.797	0.177	0.070
-438.763	214.276	0.104	0.167
-437.749	-15.180	-0.156	-0.101
-436.734	-20.166	0.189	-0.118
-435.719	-200.000	-0.069	0.342
-434.705	39.135	0.014	0.013
-433.690	287.359	-0.079	-0.145
-432.676	780.741	-0.117	-0.323
-431.661	17.155	0.265	0.212
-430.646	-24.216	0.056	-0.034
-429.632	-21.077	0.154	0.095
-428.617	-200.000	-0.006	-0.236
-427.603	-91.308	0.078	-0.023
-426.588	403.486	0.162	-0.343
-425.573	93.704	-0.121	-0.139
-424.559	800.000	0.085	0.250
-423.544	-22.845	0.154	0.094
-422.530	-63.159	-0.228	-0.095
-421.515	-200.000	-0.021	0.252
-420.500	-200.000	0.006	0.101
-419.486	734.011	0.127	0.344
-418.471	-189.656	0.084	0.001
-417.457	77.072	-0.406	-0.436
-416.442	-134.274	0.094	-0.012
-415.428	130.761	-0.166	-0.216
-414.413	95.016	0.120	0.138
-413.398	-107.092	0.108	0.024
-412.384	-200.000	-0.013	-0.287
-411.369	68.380	0.112	-0.116
-410.355	-149.401	0.199	0.016
-409.340	232.865	-0.202	-0.336
-408.325	-65.053	0.292	0.119
-407.311	174.838	0.187	-0.273
-406.296	-200.000	0.014	0.075
-405.282	538.721	-0.034	0.081
-404.267	-200.000	-0.068	-0.303
-403.252	-41.712	0.176	-0.091
-402.238	800.000	0.035	-0.117
-401.223	-163.114	0.076	-0.004
-400.209	-122.135	-0.121	-0.020
-399.194	137.308	0.123	0.162
-398.179	-73.180	0.098	0.036
-397.165	-29.202	-0.209	0.121
-396.150	274.851	0.070	0.125
-395.136	206.910	-0.162	0.255
-394.121	103.372	-0.149	0.177
-393.106	-200.000	-0.023	-0.233
-392.092	-200.000	0.017	0.355
-391.077	-200.000	0.019	0.245
-390.063	-28.152	0.156	-0.091
-389.048	-127.220	-0.237	0.035
-388.033	-22.716	-0.256	0.156
-387.019	-200.000	-0.000	0.002
-386.004	-83.629	-0.069	0.022
-384.990	-200.000	0.008	0.102
-383.975	201.466	-0.211	-0.327
-382.960	127.617	0.121	0.155
-381.946	-163.328	0.045	0.002
-380.931	-128.165	-0.101	-0.015
-379.917	678.856	0.114	0.300
-378.902	-39.041	0.176	-0.093
-377.888	298.236	-0.176	0.325
-376.873	-161.028	-0.429	0.023
-375.858	800.000	-0.016	-0.050
-374.844	-176.323	-0.220	-0.006
-373.829	-104.172	-0.296	0.069
-372.815	-190.238	-0.374	-0.004
-371.800	563.800	-0.109	0.267
-370.785	-200.000	-0.016	0.250
-369.771	628.393	0.141	-0.360
-368.756	800.000	-0.070	0.238
-367.742	-200.000	0.006	-0.111
-366.727	-200.000	-0.046	0.214
-365.712	334.015	-0.067	0.130
-364.698	800.000	0.011	-0.039
-363.683	84.129	-0.265	-0.292
-362.669	553.093	-0.121	0.293
-361.654	800.000	0.075	0.298
-360.639	54.787	0.080	-0.077
-359.625	53.964	0.123	0.119
-358.610	-64.353	-0.201	-0.083
-357.596	-200.000	-0.044	0.212
-356.581	-200.000	-0.035	0.207
-355.566	-27.730	0.186	-0.108
-354.552	341.566	0.052	-0.103
-353.537	658.972	0.114	0.294
-352.523	44.498	0.115	-0.106
-351.508	-200.000	-0.028	-0.360
-350.493	19.965	0.267	0.217
-349.479	596.517	0.096	0.240
-348.464	310.600	0.053	0.100
-347.450	-200.000	-0.060	-0.329
-346.435	-111.638	-0.289	0.059
-345.420	800.000	-0.067	0.210
-344.406	-180.196	-0.224	0.005
-343.391	-200.000	-0.054	-0.306
-342.377	117.121	-0.101	0.125
-341.362	-200.000	-0.001	0.028
-340.348	77.581	-0.249	-0.266
-339.333	-31.695	0.258	-0.146
-338.318	171.085	-0.267	-0.386
-337.304	614.872	-0.046	0.115
-336.289	-135.515	0.439	0.053
-335.275	279.784	0.206	0.370
-334.260	55.352	0.067	0.066
-333.245	-67.174	0.370	-0.147
-332.231	-66.915	0.085	-0.034
-331.216	112.493	0.268	-0.326
-330.202	561.242	0.125	0.304
-329.187	254.308	0.047	0.081
-328.172	-200.000	0.011	-0.168
-327.158	-200.000	-0.034	0.151
-326.143	-178.222	0.188	-0.004
-325.129	-200.000	0.001	0.212
-324.114	-44.504	0.118	0.059
-323.099	-32.059	-0.104	0.058
-322.085	-153.912	0.127	0.009
-321.070	-200.000	-0.038	-0.228
-320.056	-135.467	0.080	-0.010
-319.041	-162.543	-0.279	-0.014
-318.026	800.000	-0.036	-0.146
-317.012	-36.493	-0.244	-0.132
-315.997	159.863	-0.013	-0.018
-314.983	311.988	-0.204	-0.385
-313.968	-200.000	0.001	-0.068
-312.953	-176.350	0.082	0.002
-311.939	24.134	0.098	-0.081
-310.924	105.879	0.013	0.015
-309.910	-144.024	0.392	0.037
-308.895	-190.183	0.193	-0.002
-307.880	497.728	-0.048	-0.110
-306.866	800.000	-0.095	-0.328
-305.851	800.000	0.016	0.052
-304.837	-200.000	0.020	-0.407
-303.822	-90.485	0.227	-0.066
-302.807	800.000	0.022	-0.093
-301.793	591.641	-0.092	-0.229
-300.778	-83.820	0.376	0.120
-299.764	-200.000	-0.046	0.396
-298.749	-200.000	-0.001	-0.032
-297.735	-145.027	0.390	-0.036
-296.720	-32.067	-0.129	0.072
-295.705	115.875	-0.088	0.109
-294.691	230.420	0.021	-0.035
-293.676	-22.965	-0.135	0.082
-292.662	-32.032	0.173	-0.097
-291.647	-200.000	0.033	0.252
-290.632	-140.779	-0.456	0.047
-289.618	130.954	-0.179	-0.231
-288.603	-200.000	-0.010	0.153
-287.589	-147.669	-0.072	0.006
-286.574	-200.000	-0.031	0.348
-285.559	800.000	-0.114	0.347
-284.545	127.390	-0.295	0.376
-283.530	381.775	0.052	-0.107
-282.516	104.225	0.139	0.164
-281.501	-125.553	-0.208	-0.032
-280.486	-7.840	-0.255	-0.173
-279.472	534.366	0.064	0.153
-278.457	-24.191	-0.340	0.204
-277.443	-44.960	-0.162	-0.081
-276.428	-128.858	-0.350	0.049
-275.413	-85.001	0.138	0.044
-274.399	-44.567	-0.153	-0.077
-273.384	-142.006	-0.089	-0.009
-272.370	-64.821	0.192	0.078
-271.355	-200.000	0.020	-0.092
-270.340	189.290	0.078	-0.117
-269.326	-168.970	-0.158	0.006
-268.311	800.000	-0.091	0.335
-267.297	108.724	0.123	0.148
-266.282	614.259	0.071	-0.180
-265.267	-3.677	-0.264	0.184
-264.253	126.893	0.130	0.165
-263.238	140.033	-0.110	0.146
-262.224	28.925	-0.050	-0.043
-261.209	-137.509	-0.163	0.019
-260.195	-200.000	-0.000	-0.152
-259.180	-200.000	0.088	0.428
-258.165	-200.000	0.026	0.337
-257.151	-93.569	-0.129	0.036
-256.136	270.643	0.087	0.153
-255.122	-200.000	-0.015	0.116
-254.107	-39.235	-0.072	0.038
-253.092	-120.682	0.232	0.039
-252.078	-20.463	-0.059	0.036
-251.063	-84.495	0.051	-0.016
-250.049	-24.696	0.074	0.044
-249.034	-82.120	-0.032	-0.010
-248.019	-48.246	-0.189	-0.091
-247.005	-33.829	-0.082	-0.045
-245.990	62.963	-0.164	-0.165
-244.976	299.515	0.162	-0.300
-243.961	-14.234	-0.100	-0.064
-242.946	633.623	-0.052	-0.131
-241.932	359.554	0.022	0.043
-240.917	800.000	0.026	0.108
-239.903	-30.378	-0.100	0.057
-238.888	-73.576	0.127	-0.047
-237.873	800.000	-0.021	-0.080
-236.859	-66.695	0.245	0.097
-235.844	24.197	0.144	0.119
-234.830	-200.000	-0.021	0.268
-233.815	122.541	0.096	-0.121
-232.800	153.932	-0.148	-0.203
-231.786	-36.681	0.127	-0.068
-230.771	342.863	-0.082	-0.161
-229.757	-200.000	0.008	-0.215
-228.742	43.420	0.159	-0.145
-227.727	-32.386	0.311	0.174
-226.713	-85.059	0.051	0.016
-225.698	15.304	-0.229	-0.180
-224.684	-18.261	0.066	-0.041
-223.669	289.507	0.133	-0.241
-222.655	-53.312	-0.348	-0.160
-221.640	-90.475	-0.209	0.061
-220.625	-133.910	-0.086	-0.011
-219.611	175.137	-0.260	-0.377
-218.596	-106.041	-0.230	-0.052
-217.582	-20.071	0.164	-0.101
-216.567	-34.392	0.345	-0.189
-215.552	-61.394	-0.147	-0.062
-214.538	77.118	-0.348	0.370
-213.523	-100.167	-0.042	0.010
-212.509	800.000	-0.086	0.344
-211.494	800.000	-0.068	0.189
-210.479	72.788	-0.228	-0.239
-209.465	138.708	-0.076	0.100
-208.450	-73.960	0.104	0.038
-207.436	-156.950	0.115	-0.007
-206.421	-134.426	-0.277	-0.034
-205.406	508.446	0.047	-0.110
-204.392	24.568	-0.137	-0.114
-203.377	251.055	0.126	-0.215
-202.363	-176.178	-0.423	-0.011
-201.348	800.000	-0.071	0.257
-200.333	8.332	0.359	0.270
-199.319	-58.439	0.102	-0.045
-198.304	295.966	-0.135	0.247
-197.290	354.037	-0.084	-0.168
-196.275	-200.000	0.049	-0.232
-195.260	-81.694	-0.415	0.136
-194.246	604.215	-0.113	0.281
-193.231	-91.666	0.022	0.006
-192.217	-46.341	0.254	0.125
-191.202	-14.374	-0.257	-0.166
-190.187	800.000	-0.077	-0.294
-189.173	129.598	0.120	0.154
-188.158	36.953	0.074	0.065
-187.144	62.995	0.140	0.141
-186.129	-200.000	-0.001	-0.083
-185.114	165.138	-0.182	0.258
-184.100	-34.134	0.214	0.118
-183.085	-88.219	0.337	0.101
-182.071	775.881	-0.088	-0.239
-181.056	-56.925	-0.389	0.172
-180.042	-87.209	0.348	0.106
-179.027	301.705	0.116	0.214
-178.012	227.845	-0.053	0.086
-176.998	800.000	-0.036	-0.155
-175.983	12.635	0.140	0.108
-174.969	-96.011	0.329	0.088
-173.954	800.000	0.048	-0.171
-172.939	-200.000	-0.016	0.101
-171.925	800.000	0.093	0.335
-170.910	800.000	-0.078	-0.223
-169.896	-35.864	-0.113	-0.061
-168.881	521.210	0.057	-0.133
-167.866	-27.822	-0.143	0.083
-166.852	55.865	-0.032	0.031
-165.837	177.624	0.059	0.086
-164.823	244.427	-0.138	0.231
-163.808	105.158	0.240	-0.283
-162.793	291.643	0.068	-0.124
-161.779	672.472	0.123	-0.319
-160.764	69.797	-0.182	-0.187
-159.750	-73.028	0.149	-0.055
-158.735	240.263	-0.134	-0.224
-157.720	-200.000	-0.038	-0.349
-156.706	28.874	0.102	0.086
-155.691	-200.000	0.005	-0.346
-154.677	546.384	0.092	0.221
-153.662	101.361	0.097	0.113
-152.647	800.000	-0.073	0.278
-151.633	-200.000	-0.040	0.410
-150.618	-200.000	-0.004	-0.126
-149.604	320.083	0.063	-0.120
-148.589	123.758	-0.273	0.343
-147.574	693.679	-0.041	0.107
-146.560	169.807	-0.216	-0.308
-145.545	-200.000	0.068	-0.320
-144.531	-68.204	-0.210	-0.082
-143.516	800.000	-0.077	-0.264
-142.502	-91.748	-0.104	-0.029
-141.487	210.335	-0.247	-0.388
-140.472	-200.000	-0.010	-0.447
-139.458	-200.000	0.045	0.238
-138.443	12.608	0.117	-0.090
-137.429	180.552	-0.069	0.101
-136.414	-16.075	0.178	0.113
-135.399	436.632	-0.043	0.092
-134.385	-9.530	-0.123	0.082
-133.370	-108.609	0.268	0.057
-132.356	800.000	0.037	0.161
-131.341	63.066	0.050	-0.050
-130.326	2.126	-0.251	-0.181
-129.312	-35.190	-0.012	-0.007
-128.297	-138.490	-0.025	-0.003
-127.283	-122.883	0.048	0.008
-126.268	492.638	-0.105	-0.239
-125.253	-200.000	-0.044	0.221
-124.239	450.732	0.154	-0.338
-123.224	188.476	-0.079	0.118
-122.210	-78.905	0.215	-0.073
