DTS Sentinel unit serial number:	SN413079Multiplexer serial number:	ORYXHardware model number:	OX4-SRSoftware version number:	ORYX F/W v4.00 Oryx Data Collector v3.7.2.0data status	okinstallation	princeton_trtdifferential loss correction	single-endedforward channel	channel 4reverse channel	N/Adate	2019/09/12time	05:43:11forward acquisition time	60.00reverse acquisition time	0.00gamma	496.2192k internal	0.2308k external	0.2308temperature offset calibration	1.0063default loss term (dB/km)	0.3790temperature slope calibration	1.0000multiplexer offset coefficient	1.0000multiplexer slope coefficient	1.0000fibre end	0.00T internal ref (°C)	32.00T ext. ref 1 (°C)	1.58T ext. ref 2 (°C)	27.52length (m)	temperature (°C)	Stokes	anti-Stokes-747.200	-155.819	-0.315	-0.020
-746.185	-200.000	-0.062	0.406
-745.171	-200.000	-0.029	-0.156
-744.156	135.354	0.254	0.335
-743.142	-200.000	-0.026	0.186
-742.127	109.387	-0.293	0.357
-741.112	-200.000	0.021	-0.145
-740.098	800.000	-0.038	0.112
-739.083	486.749	0.122	0.283
-738.069	224.617	-0.123	0.201
-737.054	35.028	0.278	0.247
-736.039	-8.768	-0.200	0.136
-735.025	800.000	0.047	0.184
-734.010	-39.299	-0.395	0.211
-732.996	-200.000	0.040	-0.337
-731.981	-200.000	0.087	-0.388
-730.966	800.000	-0.100	0.408
-729.952	-175.353	-0.398	-0.011
-728.937	-200.000	-0.067	-0.529
-727.923	276.022	-0.169	-0.305
-726.908	-200.000	0.007	-0.219
-725.894	-200.000	-0.008	-0.284
-724.879	-31.350	0.239	0.137
-723.864	50.835	0.065	0.063
-722.850	-200.000	-0.012	0.135
-721.835	-32.163	-0.188	-0.107
-720.821	11.992	0.298	-0.233
-719.806	-15.681	0.129	-0.084
-718.791	392.364	-0.119	-0.250
-717.777	433.714	-0.131	-0.288
-716.762	-61.101	-0.062	0.026
-715.748	-200.000	-0.002	-0.144
-714.733	-20.815	-0.203	-0.126
-713.718	-63.405	-0.183	0.076
-712.704	-86.089	0.340	-0.107
-711.689	-129.589	-0.271	0.038
-710.675	-144.806	0.136	0.013
-709.660	-12.147	-0.136	0.091
-708.645	-20.204	-0.021	0.013
-707.631	-200.000	-0.020	0.336
-706.616	-48.483	-0.081	0.040
-705.602	280.778	-0.017	-0.031
-704.587	101.965	-0.082	-0.097
-703.572	-200.000	-0.051	-0.311
-702.558	-61.697	-0.117	0.050
-701.543	224.140	0.076	0.124
-700.529	-200.000	-0.071	-0.381
-699.514	-126.898	0.083	-0.012
-698.499	800.000	0.063	-0.260
-697.485	-165.774	0.059	0.003
-696.470	-62.392	0.182	-0.077
-695.456	248.757	0.111	0.191
-694.441	65.545	-0.187	-0.192
-693.426	-89.413	0.301	-0.090
-692.412	-183.453	-0.333	0.006
-691.397	377.031	-0.090	-0.186
-690.383	800.000	0.051	0.148
-689.368	-157.541	-0.257	0.016
-688.354	333.099	0.070	0.137
-687.339	759.050	-0.019	0.051
-686.324	-200.000	0.056	0.307
-685.310	231.658	0.112	0.185
-684.295	800.000	0.108	-0.323
-683.281	-74.805	0.304	0.111
-682.266	-117.107	0.182	0.034
-681.251	379.582	0.082	-0.170
-680.237	-108.762	-0.625	0.136
-679.222	-14.691	0.306	-0.200
-678.208	697.806	0.111	0.296
-677.193	109.353	0.136	-0.165
-676.178	-200.000	-0.003	0.167
-675.164	65.795	0.024	0.024
-674.149	101.996	-0.099	-0.117
-673.135	7.431	-0.147	0.111
-672.120	-128.993	0.185	-0.026
-671.105	190.009	0.190	-0.290
-670.091	407.904	0.108	-0.232
-669.076	-87.867	0.292	-0.089
-668.062	-200.000	-0.026	0.278
-667.047	-63.136	-0.165	-0.069
-666.032	84.983	-0.395	0.439
-665.018	-85.236	0.216	0.068
-664.003	-12.261	-0.115	-0.076
-662.989	-169.660	-0.272	0.010
-661.974	78.088	0.147	0.158
-660.959	126.752	-0.179	0.230
-659.945	512.744	-0.064	-0.151
-658.930	175.064	-0.049	-0.072
-657.916	238.871	-0.097	0.163
-656.901	18.517	-0.056	0.045
-655.886	277.199	0.125	-0.224
-654.872	407.386	0.102	-0.218
-653.857	-4.682	-0.200	0.140
-652.843	-160.101	0.417	-0.023
-651.828	542.555	-0.085	-0.205
-650.814	64.839	-0.131	-0.134
-649.799	-54.833	0.065	-0.030
-648.784	228.096	-0.192	0.316
-647.770	56.902	0.134	0.133
-646.755	100.894	0.171	-0.202
-645.741	-42.582	0.239	-0.123
-644.726	-176.566	-0.361	0.009
-643.711	800.000	-0.024	-0.072
-642.697	-200.000	0.049	-0.244
-641.682	-60.337	-0.422	-0.182
-640.668	-112.157	-0.438	-0.089
-639.653	-20.262	0.262	-0.164
-638.638	-27.049	0.331	0.195
-637.624	-146.755	0.148	0.013
-636.609	51.692	-0.289	0.278
-635.595	73.883	0.181	-0.192
-634.580	-56.612	-0.255	0.114
-633.565	-200.000	-0.013	0.197
-632.551	-158.508	0.166	0.010
-631.536	8.315	-0.234	-0.178
-630.522	-12.296	0.276	-0.183
-629.507	-3.927	0.299	0.210
-628.492	-200.000	0.005	0.285
-627.478	-33.122	-0.165	-0.093
-626.463	165.105	-0.061	0.087
-625.449	800.000	0.021	-0.060
-624.434	-53.530	0.126	0.058
-623.419	32.403	-0.139	0.121
-622.405	77.162	0.198	0.213
-621.390	-51.290	0.200	-0.095
-620.376	-200.000	0.020	-0.089
-619.361	-89.844	-0.139	-0.041
-618.346	-200.000	0.003	0.157
-617.332	-99.581	0.338	0.086
-616.317	82.889	-0.127	-0.140
-615.303	-137.140	-0.185	-0.021
-614.288	9.009	-0.126	-0.096
-613.273	-73.184	-0.115	-0.043
-612.259	307.380	0.034	0.065
-611.244	66.409	0.102	-0.105
-610.230	-102.017	0.186	0.045
-609.215	-45.645	-0.141	0.070
-608.201	-140.218	0.151	-0.016
-607.186	176.701	-0.070	0.103
-606.171	-200.000	0.010	0.137
-605.157	-200.000	-0.002	-0.098
-604.142	403.378	0.121	0.257
-603.128	263.868	0.148	-0.260
-602.113	800.000	-0.093	-0.407
-601.098	-200.000	-0.012	-0.162
-600.084	-9.886	-0.211	0.142
-599.069	-200.000	-0.002	-0.016
-598.055	398.885	-0.062	-0.131
-597.040	422.133	0.080	-0.174
-596.025	440.153	-0.214	-0.472
-595.011	-2.096	-0.189	0.134
-593.996	-33.179	-0.116	0.065
-592.982	-63.825	-0.118	0.049
-591.967	26.930	-0.201	-0.171
-590.952	16.632	0.027	0.022
-589.938	-166.334	0.090	-0.004
-588.923	-120.882	-0.285	-0.048
-587.909	800.000	-0.049	-0.190
-586.894	-200.000	0.023	-0.209
-585.879	358.354	-0.091	-0.183
-584.865	-200.000	-0.017	0.227
-583.850	-30.743	-0.074	0.042
-582.836	95.115	0.081	-0.093
-581.821	800.000	-0.070	-0.199
-580.806	414.599	-0.063	-0.135
-579.792	-200.000	0.038	-0.169
-578.777	110.003	-0.215	-0.261
-577.763	113.181	0.155	-0.190
-576.748	25.741	0.120	0.101
-575.733	-25.039	-0.166	-0.099
-574.719	-200.000	0.003	0.122
-573.704	-24.547	0.118	-0.071
-572.690	0.998	0.063	-0.046
-571.675	83.203	-0.223	0.246
-570.661	162.032	0.194	0.274
-569.646	-98.047	0.227	0.059
-568.631	147.332	0.083	-0.113
-567.617	-200.000	-0.026	-0.142
-566.602	-11.387	0.141	-0.094
-565.588	800.000	0.079	-0.253
-564.573	-104.685	0.294	0.068
-563.558	80.249	0.156	0.169
-562.544	-200.000	0.014	0.094
-561.529	49.018	-0.217	-0.206
-560.515	-36.613	0.157	0.085
-559.500	800.000	0.124	0.364
-558.485	800.000	0.019	-0.055
-557.471	-98.186	0.289	-0.075
-556.456	236.198	-0.121	-0.202
-555.442	11.157	0.198	-0.153
-554.427	-88.683	-0.028	0.009
-553.412	-52.198	0.052	-0.024
-552.398	265.592	0.267	-0.469
-551.383	-91.131	0.204	0.059
-550.369	121.868	0.101	-0.127
-549.354	-47.684	-0.081	-0.040
-548.339	-76.842	-0.359	0.127
-547.325	-200.000	-0.001	0.227
-546.310	-143.198	0.111	-0.011
-545.296	-128.223	0.080	0.011
-544.281	317.209	-0.171	-0.325
-543.266	800.000	-0.035	0.109
-542.252	614.232	0.154	-0.390
-541.237	800.000	-0.025	0.102
-540.223	800.000	0.053	-0.162
-539.208	-200.000	0.024	-0.187
-538.193	48.583	-0.364	0.344
-537.179	61.118	-0.164	0.164
-536.164	800.000	0.044	0.140
-535.150	-200.000	-0.040	0.206
-534.135	88.425	0.245	0.274
-533.121	-75.995	0.322	0.115
-532.106	44.068	0.278	-0.257
-531.091	222.566	-0.104	-0.168
-530.077	-200.000	0.001	-0.015
-529.062	-3.488	0.114	-0.080
-528.048	-125.569	-0.136	-0.021
-527.033	-76.220	0.415	0.147
-526.018	-2.270	0.334	-0.236
-525.004	310.863	-0.046	-0.086
-523.989	-185.240	-0.517	0.008
-522.975	800.000	0.058	0.174
-521.960	-66.098	0.103	-0.041
-520.945	11.939	0.309	-0.239
-519.931	-133.321	0.150	0.019
-518.916	-144.040	0.039	-0.004
-517.902	-200.000	0.019	-0.160
-516.887	57.856	0.206	0.203
-515.872	70.681	-0.262	0.273
-514.858	-106.616	-0.297	0.067
-513.843	-200.000	-0.026	0.182
-512.829	68.373	-0.095	-0.098
-511.814	-37.878	-0.157	0.084
-510.799	-200.000	-0.026	-0.193
-509.785	-200.000	0.020	-0.150
-508.770	-37.902	0.282	0.151
-507.756	-200.000	-0.008	-0.087
-506.741	53.844	0.131	0.126
-505.726	-200.000	-0.024	0.392
-504.712	-200.000	-0.006	0.325
-503.697	11.306	-0.378	0.291
-502.683	483.229	-0.065	-0.150
-501.668	800.000	0.078	0.314
-500.653	-30.129	0.158	0.091
-499.639	-181.375	-0.296	0.006
-498.624	9.885	-0.186	-0.142
-497.610	800.000	-0.050	0.173
-496.595	-185.453	0.199	-0.003
-495.581	68.470	0.125	-0.129
-494.566	-136.359	-0.181	-0.021
-493.551	269.536	-0.099	0.175
-492.537	107.440	-0.196	0.234
-491.522	-81.904	0.342	-0.113
-490.508	-120.058	0.285	0.049
-489.493	-110.948	-0.124	0.026
-488.478	12.144	0.273	0.212
-487.464	-200.000	0.035	-0.300
-486.449	220.102	-0.162	-0.261
-485.435	-107.601	-0.099	0.022
-484.420	-52.291	-0.275	0.128
-483.405	270.800	-0.077	0.137
-482.391	-132.828	0.255	-0.033
-481.376	-21.019	-0.357	-0.220
-480.362	22.929	0.052	0.043
-479.347	328.999	-0.030	0.058
-478.332	-172.449	0.159	0.005
-477.318	8.072	-0.114	-0.086
-476.303	-77.922	-0.105	-0.036
-475.289	-200.000	0.012	0.172
-474.274	143.071	-0.155	-0.208
-473.259	728.149	-0.061	-0.164
-472.245	323.940	0.150	-0.287
-471.230	-165.125	0.218	-0.010
-470.216	-69.604	-0.117	-0.045
-469.201	-127.989	-0.133	-0.019
-468.186	-195.603	0.148	0.001
-467.172	-200.000	-0.077	-0.410
-466.157	-56.501	-0.109	-0.049
-465.143	800.000	0.051	-0.144
-464.128	-81.581	-0.034	-0.011
-463.113	-126.050	-0.148	0.022
-462.099	243.473	0.107	-0.180
-461.084	-200.000	0.015	-0.136
-460.070	6.359	0.254	0.189
-459.055	-121.009	0.262	-0.044
-458.040	107.283	0.026	-0.032
-457.026	-200.000	0.057	0.413
-456.011	144.306	-0.132	0.177
-454.997	-185.784	0.103	0.002
-453.982	-39.081	-0.134	0.071
-452.968	800.000	0.045	0.131
-451.953	-111.339	0.261	0.053
-450.938	646.963	-0.019	0.050
-449.924	-167.678	-0.043	-0.002
-448.909	-75.664	-0.307	0.110
-447.895	-133.450	-0.193	0.024
-446.880	-16.791	-0.111	0.071
-445.865	111.535	-0.096	0.116
-444.851	-126.093	-0.101	-0.015
-443.836	122.163	-0.149	0.187
-442.822	-200.000	0.172	-0.000
-441.807	-71.347	0.213	-0.080
-440.792	387.508	0.097	0.202
-439.778	196.483	0.383	-0.585
-438.763	117.099	-0.225	-0.277
-437.749	357.555	-0.010	0.020
-436.734	680.635	0.054	-0.141
-435.719	-173.545	-0.301	0.009
-434.705	195.265	0.021	0.032
-433.690	-69.270	-0.320	0.123
-432.676	-26.023	0.146	0.086
-431.661	-200.000	0.026	0.326
-430.646	-200.000	0.003	-0.099
-429.632	-13.947	-0.132	0.085
-428.617	342.051	-0.091	0.180
-427.603	-200.000	-0.037	-0.427
-426.588	97.391	-0.173	0.199
-425.573	-189.238	-0.316	0.004
-424.559	-200.000	-0.009	0.153
-423.544	581.462	-0.043	0.106
-422.530	-200.000	-0.009	0.418
-421.515	800.000	0.059	-0.215
-420.500	133.822	0.118	-0.154
-419.486	-32.974	0.322	0.179
-418.471	-200.000	0.016	0.108
-417.457	-46.450	-0.217	0.107
-416.442	-25.346	-0.104	-0.062
-415.428	169.050	-0.125	-0.179
-414.413	-105.623	0.163	-0.037
-413.398	-81.794	0.054	0.018
-412.384	153.605	-0.062	0.086
-411.369	-200.000	-0.017	-0.149
-410.355	-84.112	-0.155	-0.049
-409.340	-200.000	-0.042	0.256
-408.325	94.347	-0.107	0.121
-407.311	2.200	-0.029	-0.021
-406.296	97.278	0.315	-0.362
-405.282	215.222	-0.136	0.216
-404.267	-89.202	-0.181	0.053
-403.252	39.708	-0.135	-0.122
-402.238	-200.000	0.002	0.287
-401.223	800.000	-0.063	-0.183
-400.209	142.185	0.081	-0.107
-399.194	-27.206	0.095	-0.056
-398.179	527.945	0.040	-0.095
-397.165	-67.944	0.271	0.106
-396.150	210.879	-0.088	0.139
-395.136	-134.671	0.179	0.022
-394.121	392.406	-0.105	-0.219
-393.106	-156.901	0.132	-0.008
-392.092	-200.000	-0.016	0.089
-391.077	257.756	-0.112	0.192
-390.063	-127.036	0.214	0.032
-389.048	-6.428	0.342	-0.234
-388.033	-200.000	-0.028	-0.318
-387.019	-200.000	-0.024	-0.255
-386.004	-200.000	-0.018	0.214
-384.990	-61.376	-0.466	0.196
-383.975	51.190	-0.139	-0.132
-382.960	41.884	0.229	0.208
-381.946	-12.963	0.244	0.159
-380.931	-200.000	-0.032	0.263
-379.917	153.317	-0.076	-0.105
-378.902	75.811	0.085	-0.090
-377.888	-200.000	-0.052	0.419
-376.873	73.049	-0.114	0.120
-375.858	463.109	-0.080	0.180
-374.844	426.831	0.076	0.164
-373.829	800.000	0.039	-0.119
-372.815	800.000	0.064	0.183
-371.800	800.000	0.047	0.164
-370.785	487.979	-0.103	0.234
-369.771	-200.000	0.046	-0.476
-368.756	800.000	-0.042	-0.123
-367.742	-200.000	-0.054	0.478
-366.727	-62.974	-0.148	0.061
-365.712	13.739	0.139	0.108
-364.698	85.179	0.163	-0.180
-363.683	-200.000	-0.019	-0.239
-362.669	-83.996	-0.172	0.055
-361.654	613.381	0.021	0.054
-360.639	359.082	-0.025	0.050
-359.625	37.841	0.281	-0.250
-358.610	227.380	-0.091	0.148
-357.596	-92.127	-0.150	0.042
-356.581	-200.000	0.016	-0.070
-355.566	328.674	-0.074	0.143
-354.552	-92.146	-0.021	0.006
-353.537	-137.749	0.277	0.031
-352.523	357.430	0.101	-0.203
-351.508	53.172	-0.182	-0.175
-350.493	-125.586	0.238	-0.036
-349.479	-136.317	-0.179	-0.021
-348.464	160.956	-0.110	0.153
-347.450	-153.429	0.010	-0.001
-346.435	-54.629	0.231	0.104
-345.420	-200.000	-0.011	0.196
-344.406	38.995	0.171	0.153
-343.391	-66.419	-0.226	-0.090
-342.377	271.200	-0.105	0.185
-341.362	223.404	-0.114	-0.184
-340.348	-200.000	0.016	-0.238
-339.333	406.362	-0.088	0.186
-338.318	266.712	-0.140	0.245
-337.304	290.340	0.211	0.383
-336.289	-13.280	0.301	0.195
-335.275	800.000	0.005	-0.014
-334.260	-161.691	-0.352	0.018
-333.245	-200.000	0.020	-0.330
-332.231	-52.319	-0.261	0.121
-331.216	41.086	0.195	-0.176
-330.202	-117.030	0.203	-0.037
-329.187	-35.017	-0.287	0.156
-328.172	231.421	-0.095	-0.155
-327.158	800.000	-0.072	0.225
-326.143	452.830	-0.085	0.188
-325.129	318.693	0.036	0.068
-324.114	-200.000	-0.002	-0.208
-323.099	414.939	-0.116	-0.247
-322.085	144.481	0.220	-0.294
-321.070	-200.000	-0.024	-0.390
-320.056	-89.906	0.247	-0.072
-319.041	-81.237	0.345	-0.114
-318.026	512.346	0.128	0.299
-317.012	260.131	0.080	0.139
-315.997	632.601	0.078	0.196
-314.983	800.000	0.088	0.331
-313.968	-200.000	-0.052	-0.386
-312.953	51.033	0.122	0.116
-311.939	-106.456	0.184	-0.041
-310.924	-142.118	0.156	-0.016
-309.910	-146.048	0.146	-0.013
-308.895	329.986	-0.163	-0.313
-307.880	511.054	0.030	-0.069
-306.866	-84.177	0.229	0.073
-305.851	97.776	0.140	-0.161
-304.837	59.090	0.035	-0.035
-303.822	-93.245	0.231	0.064
-302.807	53.230	-0.107	0.102
-301.793	800.000	0.013	-0.049
-300.778	-42.482	0.091	0.046
-299.764	369.043	-0.086	0.174
-298.749	-200.000	-0.001	0.033
-297.735	285.478	-0.159	-0.287
-296.720	-200.000	0.086	-0.416
-295.705	-16.877	-0.275	0.174
-294.691	79.348	-0.272	0.292
-293.676	762.159	-0.041	-0.111
-292.662	-200.000	0.044	0.305
-291.647	-12.758	-0.118	-0.077
-290.632	-21.765	-0.086	-0.052
-289.618	24.006	-0.232	0.191
-288.603	-200.000	-0.004	-0.080
-287.589	768.663	-0.063	0.172
-286.574	800.000	-0.102	0.300
-285.559	-104.048	-0.139	-0.032
-284.545	800.000	0.085	0.249
-283.530	-200.000	-0.061	-0.293
-282.516	-24.351	-0.240	-0.143
-281.501	-45.263	0.263	0.130
-280.486	-200.000	-0.011	-0.345
-279.472	483.067	0.051	-0.115
-278.457	800.000	-0.087	-0.249
-277.443	800.000	0.069	0.203
-276.428	13.463	-0.326	-0.252
-275.413	224.380	-0.054	0.086
-274.399	395.586	0.105	0.219
-273.384	17.924	0.144	-0.115
-272.370	8.915	0.390	-0.294
-271.355	-200.000	-0.025	-0.131
-270.340	-53.799	0.122	0.056
-269.326	-117.798	-0.202	0.036
-268.311	-200.000	-0.044	0.306
-267.297	-147.295	0.307	0.026
-266.282	-158.564	0.344	-0.020
-265.267	-30.609	0.123	-0.069
-264.253	278.688	-0.192	0.342
-263.238	665.371	0.155	0.400
-262.224	-89.649	0.256	0.075
-261.209	-54.247	-0.326	-0.148
-260.195	-95.961	0.167	0.044
-259.180	-45.302	0.069	-0.034
-258.165	309.952	-0.057	-0.106
-257.151	800.000	-0.028	0.090
-256.136	-200.000	-0.016	-0.413
-255.122	-63.139	-0.087	-0.036
-254.107	800.000	0.048	-0.200
-253.092	-38.015	-0.215	0.114
-252.078	800.000	-0.087	0.261
-251.063	-200.000	0.006	0.072
-250.049	-200.000	-0.017	-0.335
-249.034	80.630	0.065	0.069
-248.019	-105.991	0.223	0.050
-247.005	-189.028	-0.561	0.007
-245.990	231.332	0.095	-0.156
-244.976	-84.502	-0.220	0.069
-243.961	-200.000	-0.029	0.165
-242.946	113.623	-0.073	0.089
-241.932	280.575	-0.072	-0.129
-240.917	-200.000	-0.072	-0.333
-239.903	-16.613	0.041	0.026
-238.888	16.380	0.309	-0.243
-237.873	9.118	0.230	0.173
-236.859	130.637	-0.077	-0.099
-235.844	-116.153	-0.354	-0.066
-234.830	4.285	-0.142	0.104
-233.815	-182.777	-0.078	0.001
-232.800	109.727	0.119	0.142
-231.786	476.707	0.122	0.276
-230.771	-17.676	-0.121	0.076
-229.757	105.520	0.197	0.232
-228.742	63.815	0.109	-0.109
-227.727	141.834	0.025	-0.033
-226.713	277.938	-0.087	-0.154
-225.698	-200.000	-0.011	0.057
-224.684	-52.147	-0.238	-0.110
-223.669	-151.660	-0.265	0.019
-222.655	-12.251	-0.169	-0.110
-221.640	-73.732	0.275	0.100
-220.625	139.239	0.230	-0.301
-219.611	-159.262	0.168	0.009
-218.596	-200.000	-0.026	0.308
-217.582	-200.000	0.035	0.157
-216.567	483.350	-0.013	0.030
-215.552	147.795	-0.201	0.269
-214.538	-72.309	-0.295	0.109
-213.523	-42.222	-0.125	-0.063
-212.509	-130.120	0.186	0.025
-211.494	800.000	-0.068	0.240
-210.479	14.900	0.204	-0.159
-209.465	-46.917	0.289	0.141
-208.450	610.856	0.040	-0.099
-207.436	800.000	-0.020	-0.083
-206.421	800.000	-0.027	0.092
-205.406	-200.000	0.005	-0.197
-204.392	294.763	0.066	0.121
-203.377	-95.792	-0.255	0.068
-202.363	435.295	-0.057	-0.124
-201.348	429.398	0.120	-0.258
-200.333	-200.000	0.056	-0.326
-199.319	251.565	-0.125	-0.212
-198.304	34.535	0.206	-0.179
-197.290	-139.763	-0.161	0.017
-196.275	89.602	0.011	0.013
-195.260	-200.000	-0.001	-0.134
-194.246	-144.898	-0.205	-0.019
-193.231	4.864	0.315	-0.231
-192.217	80.305	0.277	-0.296
-191.202	-200.000	0.042	0.197
-190.187	-200.000	0.017	-0.362
-189.173	205.463	-0.132	-0.204
-188.158	120.813	0.077	0.095
-187.144	-200.000	-0.036	-0.269
-186.129	-102.946	0.193	-0.045
-185.114	132.001	-0.030	0.039
-184.100	17.942	0.132	-0.105
-183.085	-56.219	0.254	0.113
-182.071	-88.717	-0.225	0.067
-181.056	-167.453	0.054	0.002
-180.042	27.245	0.156	0.130
-179.027	-137.370	-0.202	-0.023
-178.012	-146.516	0.187	0.016
-176.998	-200.000	-0.030	0.355
-175.983	10.814	-0.179	-0.136
-174.969	-79.208	0.189	0.064
-173.954	-200.000	0.073	0.333
-172.939	636.361	0.078	-0.198
-171.925	-65.636	0.176	-0.070
-170.910	-126.785	-0.248	0.036
-169.896	-106.908	-0.414	0.091
-168.881	-156.699	0.030	0.002
-167.866	-200.000	-0.036	0.190
-166.852	-2.953	0.146	-0.101
-165.837	-167.809	0.050	0.002
-164.823	216.158	0.154	0.243
-163.808	-136.295	-0.555	0.064
-162.793	82.174	-0.067	-0.073
-161.779	-142.776	0.244	0.024
-160.764	251.436	-0.059	0.099
-159.750	-103.635	-0.317	0.074
-158.735	576.264	-0.017	-0.042
-157.720	-74.664	-0.097	-0.035
-156.706	108.450	-0.274	0.325
-155.691	-21.374	0.229	0.139
-154.677	-72.888	-0.410	0.150
-153.662	-200.000	0.077	-0.401
-152.647	11.571	0.144	-0.110
-151.633	-21.062	-0.237	0.144
-150.618	-96.299	0.118	-0.031
-149.604	228.157	0.111	-0.179
-148.589	-133.499	0.309	0.038
-147.574	-12.580	-0.140	-0.091
-146.560	-166.459	-0.234	-0.010
-145.545	170.154	0.087	0.123
-144.531	22.917	0.076	0.062
-143.516	37.085	0.211	-0.185
-142.502	-161.294	0.264	-0.014
-141.487	-9.608	0.441	0.292
-140.472	-81.582	-0.307	0.100
-139.458	800.000	0.094	-0.263
-138.443	154.869	-0.032	-0.043
-137.429	185.014	-0.155	0.228
-136.414	-104.390	0.067	-0.015
-135.399	231.024	0.052	-0.085
-134.385	-111.247	0.135	-0.027
-133.370	-192.778	0.185	0.002
-132.356	-64.328	-0.360	-0.145
-131.341	436.257	0.124	-0.267
-130.326	149.797	0.126	0.169
-129.312	26.883	-0.115	0.096
-128.297	458.140	-0.179	-0.395
-127.283	44.257	0.056	0.051
-126.268	-34.764	0.103	-0.056
-125.253	-200.000	-0.016	0.176
-124.239	-114.442	0.234	0.045
-123.224	218.092	-0.104	0.165
-122.210	173.945	-0.051	0.073
