DTS Sentinel unit serial number:	SN413079Multiplexer serial number:	ORYXHardware model number:	OX4-SRSoftware version number:	ORYX F/W v4.00 Oryx Data Collector v3.7.2.0data status	okinstallation	princeton_trtdifferential loss correction	single-endedforward channel	channel 4reverse channel	N/Adate	2019/09/12time	01:15:10forward acquisition time	60.00reverse acquisition time	0.00gamma	496.2192k internal	0.2309k external	0.2309temperature offset calibration	1.0093default loss term (dB/km)	0.3790temperature slope calibration	1.0000multiplexer offset coefficient	1.0000multiplexer slope coefficient	1.0000fibre end	0.00T internal ref (°C)	33.05T ext. ref 1 (°C)	2.08T ext. ref 2 (°C)	27.91length (m)	temperature (°C)	Stokes	anti-Stokes-747.200	94.542	0.190	0.220
-746.185	-200.000	-0.023	-0.118
-745.171	800.000	0.053	0.208
-744.156	-101.659	-0.091	0.023
-743.142	-114.053	-0.216	0.042
-742.127	800.000	-0.108	0.348
-741.112	-125.919	-0.267	-0.041
-740.098	283.059	-0.209	0.381
-739.083	218.691	-0.027	-0.045
-738.069	-134.376	-0.175	-0.022
-737.054	-110.020	-0.087	-0.019
-736.039	6.214	-0.150	0.113
-735.025	798.724	-0.026	0.073
-734.010	-20.841	-0.138	-0.086
-732.996	224.347	-0.043	0.071
-731.981	800.000	-0.017	0.054
-730.966	326.486	0.131	-0.254
-729.952	-0.706	-0.279	-0.201
-728.937	-23.443	-0.389	-0.237
-727.923	245.952	-0.157	-0.268
-726.908	204.636	-0.165	-0.260
-725.894	-72.740	-0.437	-0.163
-724.879	65.483	0.210	-0.216
-723.864	-81.909	-0.318	0.106
-722.850	-200.000	-0.031	-0.210
-721.835	591.952	-0.116	-0.291
-720.821	-200.000	0.006	0.106
-719.806	-87.381	-0.360	-0.111
-718.791	-86.759	0.248	-0.077
-717.777	-200.000	0.068	0.357
-716.762	-200.000	-0.038	-0.262
-715.748	34.021	0.128	-0.113
-714.733	-39.157	0.395	-0.211
-713.718	277.044	-0.034	0.061
-712.704	-200.000	0.071	-0.323
-711.689	305.571	0.098	0.185
-710.675	-200.000	-0.108	-0.496
-709.660	762.865	-0.060	-0.164
-708.645	558.838	0.060	0.148
-707.631	-200.000	-0.056	0.298
-706.616	-33.403	-0.086	0.048
-705.602	67.941	0.189	0.196
-704.587	-25.817	-0.272	0.163
-703.572	645.887	0.041	-0.107
-702.558	-21.761	0.046	0.028
-701.543	-13.962	-0.117	-0.077
-700.529	-47.668	-0.225	0.111
-699.514	800.000	0.048	0.156
-698.499	-200.000	-0.014	-0.067
-697.485	-61.613	-0.118	-0.050
-696.470	-200.000	0.001	0.210
-695.456	-91.142	-0.185	0.054
-694.441	-200.000	0.003	-0.124
-693.426	-78.719	-0.211	-0.073
-692.412	-119.057	-0.067	-0.012
-691.397	-52.775	-0.294	-0.138
-690.383	-200.000	-0.016	-0.301
-689.368	800.000	0.119	0.333
-688.354	128.408	0.054	0.069
-687.339	-147.885	-0.189	-0.016
-686.324	800.000	0.040	-0.131
-685.310	-200.000	0.007	0.145
-684.295	50.577	-0.393	-0.377
-683.281	-200.000	0.018	0.155
-682.266	-66.575	0.155	0.062
-681.251	348.388	0.027	-0.054
-680.237	-88.454	-0.096	0.029
-679.222	55.915	0.106	-0.104
-678.208	-152.381	-0.154	-0.011
-677.193	-51.672	0.100	-0.047
-676.178	252.403	-0.125	-0.217
-675.164	800.000	-0.016	0.052
-674.149	-113.628	-0.315	0.062
-673.135	-168.417	0.183	-0.007
-672.120	23.710	-0.169	0.141
-671.105	-41.627	-0.216	-0.112
-670.091	-52.165	0.284	-0.134
-669.076	800.000	0.028	0.112
-668.062	800.000	-0.075	-0.323
-667.047	396.283	0.049	0.103
-666.032	-13.198	-0.239	0.157
-665.018	800.000	0.091	0.323
-664.003	165.310	0.026	-0.037
-662.989	128.241	0.289	-0.372
-661.974	-108.481	0.248	0.054
-660.959	-137.007	-0.100	-0.012
-659.945	-200.000	-0.018	0.099
-658.930	-200.000	0.055	-0.291
-657.916	215.108	-0.017	-0.027
-656.901	-120.620	-0.167	-0.029
-655.886	-37.380	0.163	0.088
-654.872	-167.613	-0.268	-0.011
-653.857	800.000	0.081	0.278
-652.843	-200.000	-0.046	0.335
-651.828	-155.478	0.241	0.016
-650.814	197.048	-0.099	-0.154
-649.799	-61.394	0.064	-0.027
-648.784	684.779	0.121	-0.319
-647.770	-105.923	-0.303	0.069
-646.755	-13.421	-0.068	-0.045
-645.741	800.000	-0.056	-0.175
-644.726	-3.793	-0.198	0.139
-643.711	267.724	-0.087	0.155
-642.697	-99.832	0.123	-0.031
-641.682	7.175	0.088	-0.067
-640.668	800.000	-0.091	-0.403
-639.653	15.214	0.272	-0.216
-638.638	121.099	-0.226	-0.285
-637.624	95.021	0.105	-0.120
-636.609	-59.055	-0.141	0.062
-635.595	60.136	0.351	0.351
-634.580	-88.077	-0.092	0.028
-633.565	-93.755	0.079	-0.022
-632.551	8.160	0.210	0.159
-631.536	-134.277	-0.026	0.003
-630.522	-143.288	0.031	0.003
-629.507	55.017	0.128	-0.125
-628.492	-128.070	0.155	-0.023
-627.478	800.000	-0.136	-0.499
-626.463	-142.643	0.315	0.031
-625.449	123.223	-0.250	0.317
-624.434	-200.000	-0.005	0.114
-623.419	248.785	0.035	-0.060
-622.405	-47.689	0.088	-0.043
-621.390	85.193	0.026	0.029
-620.376	-80.282	0.250	0.085
-619.361	6.903	0.217	0.164
-618.346	545.352	-0.021	0.050
-617.332	408.903	-0.106	0.228
-616.317	81.235	-0.153	-0.167
-615.303	125.881	-0.062	0.080
-614.288	31.019	0.145	-0.125
-613.273	-121.281	0.240	0.040
-612.259	-113.478	0.185	0.037
-611.244	-115.186	-0.386	0.074
-610.230	800.000	-0.146	-0.451
-609.215	429.274	-0.053	0.116
-608.201	-28.861	-0.121	0.070
-607.186	737.567	-0.049	0.132
-606.171	800.000	0.070	0.305
-605.157	123.115	-0.124	-0.156
-604.142	118.006	0.045	0.056
-603.128	14.934	0.164	0.130
-602.113	-17.748	0.321	0.204
-601.098	-20.070	-0.102	-0.064
-600.084	23.149	0.379	-0.314
-599.069	-73.476	-0.041	-0.015
-598.055	-2.964	-0.151	-0.107
-597.040	-154.534	0.103	-0.007
-596.025	242.270	-0.100	0.170
-595.011	-1.040	-0.430	0.307
-593.996	-177.214	0.449	0.011
-592.982	-200.000	0.059	0.474
-591.967	223.971	-0.181	0.295
-590.952	50.559	0.085	0.081
-589.938	-200.000	0.002	0.019
-588.923	-131.589	-0.138	0.018
-587.909	-70.219	0.366	0.140
-586.894	438.527	-0.046	0.102
-585.879	205.839	0.100	0.158
-584.865	800.000	0.045	-0.172
-583.850	388.996	-0.039	-0.082
-582.836	13.885	0.036	0.028
-581.821	90.081	-0.296	0.334
-580.806	5.088	-0.151	-0.112
-579.792	257.581	-0.097	-0.168
-578.777	99.986	0.093	0.109
-577.763	124.742	-0.175	0.223
-576.748	-200.000	0.014	-0.220
-575.733	671.504	-0.077	-0.202
-574.719	-145.465	-0.214	-0.019
-573.704	800.000	0.104	-0.404
-572.690	-121.739	0.200	0.033
-571.675	-173.193	0.302	-0.009
-570.661	320.930	-0.090	-0.173
-569.646	-137.014	-0.128	-0.015
-568.631	347.300	0.098	-0.195
-567.617	-32.992	-0.152	0.085
-566.602	242.214	0.156	0.263
-565.588	800.000	-0.050	0.158
-564.573	-200.000	0.036	0.236
-563.558	-53.274	-0.137	0.063
-562.544	-200.000	-0.008	-0.052
-561.529	188.096	-0.060	-0.091
-560.515	236.440	0.025	0.041
-559.500	-11.184	-0.214	0.142
-558.485	-72.134	-0.166	0.062
-557.471	-174.331	-0.433	0.013
-556.456	-127.648	-0.084	-0.012
-555.442	-12.994	-0.127	-0.083
-554.427	156.034	0.055	-0.077
-553.412	-42.032	0.119	0.062
-552.398	-200.000	-0.021	0.159
-551.383	-200.000	-0.017	0.143
-550.369	-20.081	-0.066	0.041
-549.354	566.366	0.061	0.149
-548.339	373.371	0.035	0.071
-547.325	-200.000	0.035	0.257
-546.310	-22.935	-0.192	0.117
-545.296	137.695	-0.090	-0.119
-544.281	119.572	0.064	0.080
-543.266	-200.000	0.008	0.062
-542.252	-200.000	-0.055	-0.353
-541.237	624.120	0.100	0.255
-540.223	-200.000	0.008	0.160
-539.208	-81.089	-0.199	0.066
-538.193	757.538	-0.078	-0.212
-537.179	800.000	-0.097	0.345
-536.164	106.711	0.229	-0.274
-535.150	156.123	0.097	-0.134
-534.135	236.234	0.064	0.106
-533.121	289.361	0.018	-0.033
-532.106	9.011	-0.065	0.050
-531.091	394.355	-0.079	-0.166
-530.077	-156.161	0.215	0.014
-529.062	-9.299	0.103	-0.069
-528.048	-200.000	-0.019	0.181
-527.033	-21.138	-0.151	0.093
-526.018	146.690	-0.216	0.292
-525.004	126.496	0.194	-0.248
-523.989	44.475	0.405	-0.375
-522.975	-200.000	-0.013	0.191
-521.960	-31.534	0.231	-0.131
-520.945	104.143	0.165	-0.196
-519.931	-200.000	0.017	-0.110
-518.916	800.000	0.038	-0.155
-517.902	-200.000	-0.044	-0.247
-516.887	-43.490	-0.080	0.041
-515.872	57.200	0.227	-0.223
-514.858	90.475	0.171	0.193
-513.843	-200.000	-0.030	0.133
-512.829	-118.290	-0.185	0.033
-511.814	113.175	0.038	0.046
-510.799	-54.656	-0.121	0.055
-509.785	-97.230	-0.254	0.067
-508.770	327.185	-0.044	-0.086
-507.756	-143.691	-0.374	-0.036
-506.741	21.915	0.058	0.047
-505.726	461.387	-0.083	0.186
-504.712	-51.363	-0.282	-0.133
-503.697	47.587	0.301	0.283
-502.683	-59.228	-0.195	0.085
-501.668	-80.587	0.128	-0.043
-500.653	678.960	0.073	-0.191
-499.639	-200.000	-0.000	0.241
-498.624	800.000	-0.143	0.514
-497.610	166.435	0.100	0.142
-496.595	-200.000	0.011	-0.170
-495.581	443.269	-0.087	-0.191
-494.566	-110.422	-0.344	0.072
-493.551	385.909	-0.020	0.042
-492.537	-100.910	-0.138	-0.034
-491.522	-153.527	-0.092	0.006
-490.508	306.287	0.032	0.061
-489.493	-119.224	-0.025	0.004
-488.478	-159.835	0.199	0.011
-487.464	-102.780	0.290	-0.069
-486.449	-168.165	-0.193	-0.008
-485.435	-141.651	-0.202	-0.020
-484.420	11.576	0.268	0.206
-483.405	45.562	-0.149	-0.138
-482.391	15.786	0.280	-0.221
-481.376	28.709	0.068	-0.058
-480.362	602.009	-0.051	0.127
-479.347	32.672	-0.031	-0.027
-478.332	-200.000	0.016	0.317
-477.318	133.745	-0.176	-0.229
-476.303	-90.915	0.724	0.210
-475.289	80.459	0.256	-0.278
-474.274	-151.198	0.130	-0.010
-473.259	800.000	-0.092	0.265
-472.245	800.000	0.167	0.651
-471.230	-87.051	-0.428	-0.131
-470.216	30.314	-0.104	-0.089
-469.201	470.538	0.050	-0.113
-468.186	-29.719	0.432	0.248
-467.172	-134.418	0.202	0.025
-466.157	153.887	-0.100	-0.138
-465.143	-200.000	-0.022	-0.196
-464.128	60.408	0.061	-0.061
-463.113	120.341	-0.215	-0.268
-462.099	-74.328	-0.135	-0.049
-461.084	50.812	-0.066	-0.063
-460.070	263.000	-0.131	-0.228
-459.055	33.718	0.033	-0.029
-458.040	140.772	0.255	0.339
-457.026	800.000	-0.089	0.306
-456.011	4.561	-0.167	-0.123
-454.997	574.592	-0.089	0.219
-453.982	-200.000	-0.056	0.567
-452.968	800.000	0.106	-0.306
-451.953	-107.909	0.203	0.044
-450.938	-13.879	-0.108	0.070
-449.924	-87.429	0.136	-0.041
-448.909	18.027	0.270	-0.216
-447.895	25.676	-0.092	0.077
-446.880	800.000	0.015	0.060
-445.865	-8.739	0.107	0.072
-444.851	680.662	-0.047	-0.124
-443.836	-14.556	0.309	0.200
-442.822	800.000	-0.074	-0.233
-441.807	141.713	0.172	-0.229
-440.792	-17.796	0.166	-0.105
-439.778	-179.439	-0.196	0.004
-438.763	175.186	0.041	-0.060
-437.749	-82.386	-0.117	0.038
-436.734	186.429	-0.222	-0.332
-435.719	-200.000	-0.021	-0.178
-434.705	800.000	0.055	-0.155
-433.690	-200.000	-0.060	-0.391
-432.676	-57.636	-0.058	-0.025
-431.661	-86.946	-0.275	-0.084
-430.646	-87.727	-0.216	-0.065
-429.632	-200.000	-0.043	-0.200
-428.617	355.523	0.025	-0.049
-427.603	294.168	0.084	0.154
-426.588	-152.452	-0.377	0.027
-425.573	800.000	0.035	-0.147
-424.559	800.000	0.134	-0.456
-423.544	103.758	0.077	-0.091
-422.530	-143.878	-0.205	0.019
-421.515	145.753	-0.081	0.109
-420.500	800.000	0.137	-0.393
-419.486	-200.000	-0.017	-0.190
-418.471	-137.122	0.233	-0.027
-417.457	59.632	0.141	0.139
-416.442	-8.333	0.044	0.030
-415.428	213.036	0.064	-0.102
-414.413	9.786	-0.171	0.130
-413.398	-200.000	0.049	0.287
-412.384	-200.000	-0.021	0.326
-411.369	-111.736	-0.081	0.016
-410.355	-57.315	0.167	-0.074
-409.340	-34.163	-0.099	-0.054
-408.325	1.053	0.093	0.067
-407.311	-200.000	0.001	-0.473
-406.296	-200.000	0.012	-0.151
-405.282	181.586	-0.062	0.091
-404.267	-85.693	0.343	0.107
-403.252	89.787	0.315	0.353
-402.238	-36.873	-0.092	0.050
-401.223	-9.322	-0.137	0.092
-400.209	-9.657	0.005	-0.003
-399.194	429.591	-0.048	-0.103
-398.179	-200.000	-0.038	-0.176
-397.165	310.829	-0.129	0.243
-396.150	563.962	-0.129	-0.314
-395.136	800.000	0.062	-0.205
-394.121	-78.303	-0.158	0.054
-393.106	800.000	0.129	-0.366
-392.092	-79.131	0.234	0.080
-391.077	33.579	0.088	0.077
-390.063	14.968	0.178	0.140
-389.048	-200.000	0.018	0.118
-388.033	-104.743	-0.212	-0.049
-387.019	-137.415	-0.056	0.006
-386.004	-200.000	0.003	0.072
-384.990	-34.930	0.036	-0.020
-383.975	800.000	0.063	-0.225
-382.960	-66.841	-0.095	0.038
-381.946	-103.333	-0.105	-0.025
-380.931	-105.206	-0.205	-0.047
-379.917	256.985	-0.082	0.141
-378.902	-200.000	0.016	0.098
-377.888	326.384	-0.101	-0.194
-376.873	-6.237	-0.146	0.100
-375.858	-163.641	0.163	-0.008
-374.844	-200.000	-0.014	0.221
-373.829	86.272	0.177	0.196
-372.815	-200.000	0.017	-0.093
-371.800	-55.091	0.118	0.053
-370.785	223.360	-0.174	0.282
-369.771	-10.353	0.290	-0.192
-368.756	-34.390	-0.127	0.070
-367.742	84.522	-0.092	-0.101
-366.727	-95.732	0.153	-0.041
-365.712	-200.000	-0.022	-0.178
-364.698	-1.560	-0.236	0.167
-363.683	-16.337	0.339	0.215
-362.669	-200.000	-0.010	0.198
-361.654	800.000	0.042	-0.118
-360.639	273.230	0.146	0.258
-359.625	92.185	0.070	0.079
-358.610	-200.000	-0.002	-0.180
-357.596	-69.161	-0.150	-0.058
-356.581	407.523	0.227	-0.481
-355.566	-7.365	-0.181	0.123
-354.552	288.248	-0.095	0.172
-353.537	202.576	-0.154	-0.238
-352.523	-200.000	-0.007	0.442
-351.508	800.000	0.048	0.161
-350.493	800.000	0.049	-0.208
-349.479	-75.939	0.116	-0.041
-348.464	-28.249	-0.054	-0.031
-347.450	529.437	-0.053	-0.126
-346.435	-16.780	0.094	-0.059
-345.420	-200.000	0.013	0.105
-344.406	-200.000	-0.072	0.326
-343.391	-200.000	0.035	0.332
-342.377	651.991	-0.137	-0.352
-341.362	0.059	-0.054	-0.039
-340.348	124.038	0.194	-0.244
-339.333	800.000	0.068	0.235
-338.318	-143.346	-0.283	-0.027
-337.304	196.410	0.072	0.110
-336.289	35.506	0.323	0.283
-335.275	-200.000	-0.011	0.196
-334.260	-142.558	-0.195	0.019
-333.245	-106.293	0.322	0.072
-332.231	-97.997	-0.252	-0.065
-331.216	-200.000	0.025	-0.558
-330.202	145.702	0.151	-0.203
-329.187	131.146	0.054	-0.069
-328.172	510.299	-0.046	-0.107
-327.158	53.809	0.151	0.145
-326.143	-17.803	-0.363	0.228
-325.129	78.440	-0.218	-0.232
-324.114	161.300	-0.267	0.374
-323.099	800.000	0.035	-0.139
-322.085	87.108	-0.156	-0.172
-321.070	-96.339	0.292	-0.077
-320.056	-65.848	-0.261	0.105
-319.041	-4.738	-0.172	-0.118
-318.026	-200.000	-0.020	0.102
-317.012	149.649	0.142	0.192
-315.997	131.064	-0.205	-0.263
-314.983	188.782	-0.038	-0.057
-313.968	800.000	0.092	-0.377
-312.953	116.183	-0.155	-0.189
-311.939	540.240	-0.109	0.258
-310.924	539.005	0.042	0.099
-309.910	-200.000	-0.031	0.180
-308.895	-53.043	-0.298	-0.137
-307.880	151.864	-0.048	0.065
-306.866	-5.749	0.172	0.118
-305.851	64.935	0.018	0.018
-304.837	-2.173	0.060	-0.042
-303.822	53.881	0.180	-0.173
-302.807	11.756	0.219	0.168
-301.793	-21.361	0.229	-0.140
-300.778	26.348	-0.248	0.207
-299.764	460.554	-0.227	-0.505
-298.749	-98.893	-0.090	-0.023
-297.735	75.269	-0.106	-0.112
-296.720	-97.903	-0.391	-0.101
-295.705	-117.609	-0.418	0.075
-294.691	-182.200	0.041	0.001
-293.676	-200.000	0.004	0.202
-292.662	21.042	-0.166	0.134
-291.647	190.391	0.149	0.223
-290.632	778.594	-0.026	0.071
-289.618	100.256	0.088	-0.102
-288.603	800.000	0.105	0.291
-287.589	-154.829	-0.193	0.013
-286.574	-101.370	-0.399	0.097
-285.559	-104.397	0.263	-0.061
-284.545	-136.974	0.070	-0.008
-283.530	-4.267	-0.102	0.070
-282.516	-63.030	-0.310	-0.128
-281.501	-200.000	-0.001	-0.492
-280.486	288.804	0.087	0.156
-279.472	-66.795	-0.182	-0.072
-278.457	35.596	-0.133	0.117
-277.443	747.441	0.021	-0.057
-276.428	97.823	0.119	0.137
-275.413	800.000	0.040	0.139
-274.399	-104.243	0.180	-0.042
-273.384	41.585	0.164	0.148
-272.370	161.553	-0.079	0.110
-271.355	59.733	-0.095	-0.093
-270.340	-133.367	0.201	0.025
-269.326	281.580	0.156	-0.278
-268.311	-3.473	-0.078	0.054
-267.297	22.143	-0.147	0.120
-266.282	363.708	-0.175	0.350
-265.267	-135.742	-0.314	-0.037
-264.253	-57.216	0.199	0.087
-263.238	-170.803	0.203	-0.007
-262.224	-200.000	-0.043	0.196
-261.209	-83.029	0.240	0.077
-260.195	-114.601	-0.097	0.019
-259.180	-137.881	0.324	-0.036
-258.165	-200.000	-0.023	-0.200
-257.151	-166.482	-0.224	0.009
-256.136	-167.299	0.217	-0.009
-255.122	-38.032	0.118	-0.063
-254.107	-31.603	-0.076	-0.043
-253.092	0.769	-0.308	0.220
-252.078	6.783	-0.095	-0.071
-251.063	53.552	0.091	0.087
-250.049	335.922	-0.075	0.144
-249.034	-200.000	0.050	0.278
-248.019	300.704	0.118	0.217
-247.005	83.238	-0.434	-0.471
-245.990	-148.645	0.232	0.019
-244.976	-95.264	0.167	0.045
-243.961	423.663	-0.070	-0.150
-242.946	800.000	0.053	-0.189
-241.932	-125.138	-0.182	0.028
-240.917	-96.235	0.433	0.114
-239.903	-131.783	-0.038	0.005
-238.888	-140.414	-0.347	0.036
-237.873	-130.002	-0.384	0.052
-236.859	126.354	-0.057	-0.072
-235.844	208.205	-0.121	-0.188
-234.830	74.292	-0.336	-0.352
-233.815	-45.173	0.148	-0.073
-232.800	-130.063	-0.451	-0.061
-231.786	-200.000	-0.023	-0.133
-230.771	-200.000	0.071	-0.407
-229.757	-32.490	-0.372	-0.206
-228.742	-66.283	0.077	-0.031
-227.727	109.829	0.202	-0.242
-226.713	41.025	0.194	-0.175
-225.698	-154.083	0.393	0.027
-224.684	259.114	-0.131	0.226
-223.669	127.930	0.095	0.120
-222.655	19.292	0.291	-0.232
-221.640	-98.563	0.300	-0.076
-220.625	14.559	0.362	0.282
-219.611	64.896	-0.085	0.086
-218.596	-200.000	0.054	-0.256
-217.582	135.477	-0.289	0.374
-216.567	-26.690	-0.029	0.017
-215.552	134.697	-0.196	-0.253
-214.538	800.000	-0.066	0.214
-213.523	-69.905	0.122	-0.046
-212.509	60.625	0.116	0.114
-211.494	18.972	0.131	0.104
-210.479	-39.319	0.211	0.110
-209.465	-85.926	0.276	-0.085
-208.450	-200.000	0.018	-0.102
-207.436	-82.940	0.252	0.081
-206.421	-189.434	-0.231	0.003
-205.406	-91.833	0.127	0.036
-204.392	-20.277	0.173	-0.106
-203.377	-34.991	0.245	0.133
-202.363	199.440	0.035	0.054
-201.348	-21.447	0.068	0.042
-200.333	-200.000	0.058	-0.338
-199.319	-126.311	0.074	0.011
-198.304	583.127	-0.012	-0.030
-197.290	-200.000	-0.043	-0.211
-196.275	-200.000	-0.080	-0.352
-195.260	482.690	0.011	0.024
-194.246	755.253	0.163	0.438
-193.231	-200.000	-0.013	-0.170
-192.217	-7.748	-0.087	-0.058
-191.202	-12.589	-0.207	-0.135
-190.187	-79.293	-0.159	0.054
-189.173	29.939	-0.545	0.462
-188.158	88.859	-0.169	0.187
-187.144	208.098	0.029	-0.045
-186.129	-200.000	0.016	-0.334
-185.114	-151.709	-0.348	-0.025
-184.100	61.402	-0.086	0.085
-183.085	-95.269	-0.061	-0.016
-182.071	756.078	-0.115	-0.309
-181.056	-67.349	0.068	0.027
-180.042	619.220	0.068	-0.171
-179.027	511.609	-0.063	0.146
-178.012	-200.000	-0.017	-0.108
-176.998	182.053	0.237	0.346
-175.983	56.667	0.257	0.248
-174.969	71.124	0.125	0.129
-173.954	-157.593	0.252	-0.015
-172.939	644.991	0.126	0.321
-171.925	-86.851	0.125	-0.038
-170.910	355.041	-0.120	0.236
-169.896	-43.890	0.093	-0.047
-168.881	153.860	0.097	-0.132
-167.866	-100.539	0.149	0.037
-166.852	-161.468	0.076	0.004
-165.837	-41.781	0.032	0.016
-164.823	-200.000	0.009	0.052
-163.808	165.782	-0.255	0.358
-162.793	-130.847	0.355	0.047
-161.779	626.175	0.077	-0.193
-160.764	-97.289	-0.078	-0.020
-159.750	-7.918	0.178	0.119
-158.735	547.332	0.111	-0.263
-157.720	34.111	0.172	-0.149
-156.706	-93.120	-0.221	0.061
-155.691	-87.358	0.140	0.042
-154.677	5.061	0.061	0.044
-153.662	548.918	0.058	-0.138
-152.647	-200.000	-0.062	-0.310
-151.633	248.651	-0.194	-0.327
-150.618	-200.000	0.019	0.109
-149.604	102.413	0.261	0.303
-148.589	-29.917	-0.263	-0.149
-147.574	67.944	-0.040	0.041
-146.560	163.266	-0.242	0.338
-145.545	295.535	-0.113	0.206
-144.531	-35.163	-0.132	0.071
-143.516	-200.000	0.053	-0.263
-142.502	-80.210	0.303	0.101
-141.487	-48.455	0.141	-0.067
-140.472	-124.747	0.493	-0.076
-139.458	629.102	0.060	0.150
-138.443	-200.000	-0.016	0.109
-137.429	255.527	0.118	0.200
-136.414	214.672	0.119	0.187
-135.399	-47.597	0.272	-0.131
-134.385	-200.000	0.043	-0.422
-133.370	-200.000	0.005	0.306
-132.356	141.138	-0.267	0.351
-131.341	-59.214	0.149	0.064
-130.326	70.607	-0.033	0.034
-129.312	-113.078	-0.144	0.028
-128.297	-90.800	0.296	0.085
-127.283	800.000	-0.014	0.040
-126.268	79.143	0.091	-0.096
-125.253	-200.000	-0.091	0.423
-124.239	383.319	0.201	0.410
-123.224	52.818	0.089	0.084
-122.210	-12.610	-0.208	-0.135
-121.195	151.213	-0.119	0.160
-120.180	-200.000	0.002	-0.213
