DTS Sentinel unit serial number:	SN413079Multiplexer serial number:	ORYXHardware model number:	OX4-SRSoftware version number:	ORYX F/W v4.00 Oryx Data Collector v3.7.2.0data status	okinstallation	princeton_trtdifferential loss correction	single-endedforward channel	channel 4reverse channel	N/Adate	2019/09/11time	04:23:10forward acquisition time	60.00reverse acquisition time	0.00gamma	496.2192k internal	0.2316k external	0.2316temperature offset calibration	0.9943default loss term (dB/km)	0.3790temperature slope calibration	1.0000multiplexer offset coefficient	1.0000multiplexer slope coefficient	1.0000fibre end	0.00T internal ref (°C)	29.56T ext. ref 1 (°C)	-0.28T ext. ref 2 (°C)	23.33length (m)	temperature (°C)	Stokes	anti-Stokes-747.200	-92.658	0.530	-0.151
-746.185	343.404	-0.068	0.134
-745.171	201.411	0.116	0.181
-744.156	-41.988	-0.158	-0.082
-743.142	-135.351	-0.134	-0.016
-742.127	739.906	0.174	0.475
-741.112	166.037	0.114	-0.164
-740.098	-22.270	-0.089	0.055
-739.083	-117.497	-0.199	-0.036
-738.069	-200.000	0.035	0.253
-737.054	-54.893	0.100	0.046
-736.039	-95.109	-0.153	-0.042
-735.025	34.903	-0.212	-0.188
-734.010	140.823	-0.206	-0.276
-732.996	-200.000	-0.075	-0.344
-731.981	-16.077	0.119	-0.077
-730.966	-3.737	-0.093	0.065
-729.952	58.100	-0.062	-0.061
-728.937	-19.626	-0.203	-0.127
-727.923	-42.770	-0.395	0.203
-726.908	230.955	-0.136	-0.226
-725.894	-38.865	-0.330	-0.176
-724.879	69.461	-0.283	0.295
-723.864	-106.341	-0.467	-0.106
-722.850	-38.787	0.072	0.038
-721.835	-200.000	0.009	0.252
-720.821	800.000	0.063	-0.242
-719.806	800.000	-0.042	-0.156
-718.791	4.328	-0.248	0.184
-717.777	-12.784	-0.109	-0.072
-716.762	-200.000	-0.056	0.262
-715.748	257.291	-0.069	-0.119
-714.733	-96.429	0.169	0.045
-713.718	-200.000	-0.020	-0.546
-712.704	-52.571	-0.212	-0.099
-711.689	420.411	-0.034	0.073
-710.675	761.673	-0.155	0.426
-709.660	-72.162	0.110	-0.041
-708.645	161.387	-0.082	-0.117
-707.631	19.050	-0.114	0.093
-706.616	97.838	0.250	0.290
-705.602	73.632	-0.046	-0.049
-704.587	251.597	0.106	-0.183
-703.572	34.152	0.106	0.094
-702.558	-200.000	0.039	0.289
-701.543	112.285	0.092	0.112
-700.529	-75.320	0.303	0.109
-699.514	-200.000	0.030	0.155
-698.499	-200.000	0.036	0.346
-697.485	-64.901	0.213	-0.087
-696.470	291.100	0.113	0.208
-695.456	-200.000	-0.083	-0.580
-694.441	256.606	0.089	0.154
-693.426	-76.102	0.087	0.031
-692.412	-47.400	0.210	-0.103
-691.397	-200.000	-0.003	-0.095
-690.383	800.000	-0.026	0.102
-689.368	-140.772	0.251	0.026
-688.354	90.107	-0.083	-0.094
-687.339	800.000	0.116	0.350
-686.324	-60.645	0.308	0.132
-685.310	-53.986	-0.102	-0.047
-684.295	800.000	-0.124	0.398
-683.281	41.081	-0.119	0.108
-682.266	44.860	-0.183	0.171
-681.251	-200.000	-0.042	0.190
-680.237	-100.643	0.142	-0.035
-679.222	10.218	0.230	0.177
-678.208	-200.000	-0.016	-0.224
-677.193	-200.000	0.010	0.211
-676.178	-175.629	-0.117	-0.003
-675.164	86.314	0.288	0.321
-674.149	-26.019	-0.203	0.120
-673.135	-98.166	0.208	-0.054
-672.120	-84.692	-0.297	0.094
-671.105	-104.766	-0.180	-0.042
-670.091	140.674	0.261	-0.349
-669.076	361.406	0.052	-0.104
-668.062	184.289	0.102	0.153
-667.047	-91.244	0.195	-0.056
-666.032	-26.681	0.195	-0.115
-665.018	370.149	-0.200	-0.410
-664.003	-54.591	-0.269	0.123
-662.989	-61.792	0.308	-0.130
-661.974	-108.202	-0.211	-0.046
-660.959	800.000	-0.071	-0.234
-659.945	-200.000	0.064	0.414
-658.930	101.979	-0.251	-0.296
-657.916	-122.472	0.386	-0.063
-656.901	123.863	0.087	0.110
-655.886	800.000	-0.071	0.296
-654.872	-200.000	-0.035	0.307
-653.857	174.653	0.257	-0.375
-652.843	13.188	0.145	0.113
-651.828	105.111	-0.206	-0.245
-650.814	20.148	-0.102	-0.083
-649.799	800.000	0.066	0.229
-648.784	-3.753	-0.044	0.031
-647.770	800.000	-0.034	-0.102
-646.755	800.000	0.054	0.158
-645.741	-200.000	-0.035	-0.262
-644.726	516.082	-0.042	0.098
-643.711	-200.000	-0.018	0.156
-642.697	-57.017	-0.375	-0.167
-641.682	-200.000	0.020	0.175
-640.668	-124.041	0.122	-0.019
-639.653	-107.219	0.100	0.022
-638.638	216.628	0.060	-0.097
-637.624	-108.674	0.207	0.045
-636.609	2.198	-0.088	0.065
-635.595	-54.430	-0.428	-0.196
-634.580	-111.716	-0.224	-0.046
-633.565	231.024	0.055	0.091
-632.551	17.341	0.084	-0.067
-631.536	-200.000	-0.028	0.392
-630.522	-200.000	-0.001	-0.076
-629.507	70.088	0.167	0.174
-628.492	398.818	0.108	-0.229
-627.478	-200.000	-0.048	-0.351
-626.463	-179.752	-0.179	0.004
-625.449	27.285	-0.158	-0.134
-624.434	-200.000	0.002	0.102
-623.419	-91.952	0.169	0.048
-622.405	34.036	-0.202	-0.177
-621.390	-81.056	0.438	0.146
-620.376	477.380	-0.103	0.234
-619.361	263.280	0.082	-0.144
-618.346	-200.000	0.028	0.336
-617.332	800.000	-0.039	-0.127
-616.317	-90.011	-0.189	0.055
-615.303	-100.877	-0.153	0.038
-614.288	-1.577	0.043	0.030
-613.273	86.538	-0.172	0.191
-612.259	-46.167	-0.260	0.129
-611.244	-200.000	-0.005	-0.046
-610.230	481.008	0.015	-0.034
-609.215	-64.793	0.306	0.125
-608.201	-14.040	0.126	-0.082
-607.186	-70.170	-0.162	0.062
-606.171	-64.526	0.248	-0.101
-605.157	-200.000	0.047	0.368
-604.142	396.088	0.074	-0.156
-603.128	-58.493	0.057	-0.025
-602.113	142.604	-0.089	-0.119
-601.098	-54.958	0.146	-0.066
-600.084	-200.000	-0.028	-0.255
-599.069	-146.078	0.221	0.020
-598.055	283.855	0.149	-0.269
-597.040	237.818	0.070	-0.117
-596.025	-98.554	0.196	-0.050
-595.011	-39.145	0.301	-0.160
-593.996	-112.027	-0.109	0.022
-592.982	178.243	-0.201	-0.296
-591.967	94.137	0.203	-0.232
-590.952	-76.245	-0.027	0.009
-589.938	16.093	0.138	-0.110
-588.923	5.121	-0.083	0.061
-587.909	-200.000	0.230	0.000
-586.894	-133.628	0.238	0.030
-585.879	263.877	0.117	-0.205
-584.865	90.418	0.256	-0.289
-583.850	-67.086	-0.213	-0.085
-582.836	-17.115	-0.204	0.130
-581.821	-169.627	0.120	-0.004
-580.806	-71.265	-0.426	-0.161
-579.792	-58.988	0.122	-0.053
-578.777	338.642	-0.038	0.074
-577.763	800.000	-0.058	-0.249
-576.748	133.490	-0.075	-0.097
-575.733	-6.347	-0.225	0.155
-574.719	-72.865	-0.451	0.167
-573.704	-69.715	0.063	0.024
-572.690	236.797	0.103	-0.172
-571.675	-44.614	0.096	0.049
-570.661	-43.016	0.063	-0.032
-569.646	5.851	0.184	0.137
-568.631	-8.761	-0.155	0.105
-567.617	94.522	0.183	0.210
-566.602	-200.000	-0.057	-0.274
-565.588	800.000	0.057	-0.218
-564.573	800.000	-0.035	-0.107
-563.558	-200.000	-0.006	-0.203
-562.544	-134.032	-0.245	-0.030
-561.529	-105.348	-0.101	-0.023
-560.515	-150.955	0.223	0.017
-559.500	539.735	-0.155	-0.370
-558.485	-200.000	-0.034	0.162
-557.471	578.902	0.036	-0.088
-556.456	-200.000	0.010	0.114
-555.442	778.524	-0.107	-0.295
-554.427	98.101	-0.041	0.048
-553.412	254.646	0.237	0.407
-552.398	-90.583	0.116	0.034
-551.383	302.114	-0.124	-0.230
-550.369	-60.238	0.020	0.009
-549.354	-200.000	-0.040	0.372
-548.339	-41.446	-0.280	0.145
-547.325	-168.070	-0.241	-0.009
-546.310	-200.000	0.018	-0.151
-545.296	-71.534	-0.302	-0.113
-544.281	-85.979	-0.139	-0.043
-543.266	609.219	-0.071	0.178
-542.252	760.587	0.098	0.266
-541.237	-90.082	-0.151	0.044
-540.223	-123.073	0.320	0.052
-539.208	800.000	-0.103	0.307
-538.193	-105.777	-0.242	-0.055
-537.179	-94.601	-0.050	0.014
-536.164	-200.000	-0.020	-0.227
-535.150	1.118	-0.056	0.041
-534.135	-42.274	-0.141	-0.072
-533.121	228.231	0.100	0.163
-532.106	661.274	0.099	-0.258
-531.091	-9.281	-0.365	-0.245
-530.077	44.700	-0.203	0.188
-529.062	-102.199	-0.117	0.028
-528.048	-200.000	0.005	0.236
-527.033	262.403	-0.096	0.167
-526.018	-49.728	0.325	-0.155
-525.004	-103.651	0.101	-0.024
-523.989	-131.898	0.293	-0.038
-522.975	-126.782	-0.148	0.022
-521.960	-157.559	-0.122	0.007
-520.945	-200.000	0.014	-0.176
-519.931	490.868	-0.124	-0.284
-518.916	-200.000	0.040	-0.222
-517.902	-200.000	0.041	-0.268
-516.887	256.961	0.127	0.219
-515.872	457.313	-0.056	-0.125
-514.858	12.140	0.075	-0.058
-513.843	482.060	-0.143	-0.325
-512.829	-200.000	0.033	-0.215
-511.814	-164.502	-0.164	0.007
-510.799	462.777	-0.123	-0.275
-509.785	-75.518	0.197	0.070
-508.770	-200.000	-0.007	0.477
-507.756	49.338	0.283	-0.267
-506.741	-200.000	-0.046	-0.241
-505.726	800.000	0.057	-0.216
-504.712	-131.688	0.094	-0.012
-503.697	238.677	0.136	0.227
-502.683	-1.691	0.360	-0.255
-501.668	-151.645	-0.239	-0.018
-500.653	559.190	0.016	0.038
-499.639	-82.738	0.293	-0.095
-498.624	-175.959	0.499	-0.013
-497.610	-140.182	-0.315	-0.033
-496.595	84.044	-0.197	0.216
-495.581	210.192	0.122	-0.193
-494.566	-88.404	0.287	-0.086
-493.551	-200.000	-0.004	0.312
-492.537	57.397	0.112	-0.109
-491.522	87.766	0.139	0.154
-490.508	-76.727	0.265	0.093
-489.493	-145.171	0.287	0.026
-488.478	458.331	-0.134	-0.300
-487.464	37.955	-0.241	-0.215
-486.449	304.532	0.097	0.181
-485.435	-200.000	-0.008	-0.168
-484.420	-8.039	0.105	0.071
-483.405	172.468	-0.038	0.055
-482.391	-101.494	0.460	-0.112
-481.376	356.823	0.109	0.217
-480.362	92.613	-0.156	0.176
-479.347	-10.391	-0.414	-0.275
-478.332	274.867	0.134	-0.238
-477.318	-115.633	0.055	0.010
-476.303	21.975	-0.137	-0.112
-475.289	148.737	0.070	-0.095
-474.274	-200.000	0.048	0.283
-473.259	70.542	-0.168	-0.174
-472.245	-27.510	-0.141	0.082
-471.230	777.816	0.024	-0.065
-470.216	34.365	-0.165	0.145
-469.201	-14.904	-0.275	0.177
-468.186	190.014	0.098	0.147
-467.172	-181.391	0.170	-0.003
-466.157	-200.000	0.016	-0.169
-465.143	34.540	0.084	0.074
-464.128	-35.478	-0.214	0.116
-463.113	486.458	0.187	0.427
-462.099	37.364	0.088	-0.078
-461.084	800.000	0.092	-0.353
-460.070	-164.332	-0.183	-0.008
-459.055	-140.591	0.185	-0.019
-458.040	-84.111	0.377	-0.120
-457.026	195.115	0.172	0.261
-456.011	-200.000	-0.021	-0.271
-454.997	800.000	0.075	-0.261
-453.982	197.389	-0.149	-0.228
-452.968	332.615	0.104	-0.201
-451.953	-39.423	0.046	0.024
-450.938	41.057	0.184	-0.167
-449.924	-200.000	0.002	-0.268
-448.909	-200.000	0.031	-0.291
-447.895	47.559	-0.141	0.131
-446.880	26.854	0.215	0.180
-445.865	28.848	-0.073	0.062
-444.851	-200.000	0.002	-0.040
-443.836	-78.026	-0.212	0.073
-442.822	-22.657	0.074	0.045
-441.807	-111.788	0.292	0.059
-440.792	-125.557	-0.301	-0.046
-439.778	480.347	0.077	-0.175
-438.763	-107.781	-0.233	0.051
-437.749	76.561	-0.201	0.214
-436.734	-25.779	0.120	0.071
-435.719	-20.431	-0.134	0.082
-434.705	-200.000	0.030	0.278
-433.690	-200.000	-0.015	-0.120
-432.676	-121.496	0.382	-0.064
-431.661	181.346	0.253	0.372
-430.646	28.914	0.028	0.024
-429.632	-87.234	0.190	-0.058
-428.617	-118.263	-0.406	-0.072
-427.603	800.000	0.029	0.114
-426.588	155.653	0.079	-0.109
-425.573	800.000	0.052	-0.146
-424.559	121.502	-0.155	-0.193
-423.544	-128.505	-0.127	0.018
-422.530	9.480	0.092	-0.070
-421.515	-200.000	-0.000	-0.294
-420.500	-200.000	0.003	-0.240
-419.486	494.969	-0.121	0.279
-418.471	800.000	0.032	0.131
-417.457	-97.199	-0.327	-0.085
-416.442	-75.485	-0.200	-0.071
-415.428	-200.000	0.048	-0.380
-414.413	-190.916	-0.530	-0.006
-413.398	-31.017	-0.188	-0.106
-412.384	-35.542	-0.076	0.041
-411.369	161.452	-0.180	0.252
-410.355	-185.435	0.412	0.006
-409.340	800.000	-0.042	0.162
-408.325	22.034	-0.164	0.134
-407.311	-127.569	0.173	0.025
-406.296	-200.000	-0.027	-0.246
-405.282	-3.119	-0.328	-0.229
-404.267	-88.551	0.213	0.064
-403.252	-200.000	-0.012	0.266
-402.238	320.015	0.081	-0.153
-401.223	-60.550	-0.151	-0.064
-400.209	-118.277	0.312	-0.056
-399.194	-200.000	0.037	0.274
-398.179	800.000	-0.105	0.290
-397.165	-153.596	-0.211	0.015
-396.150	-129.275	-0.181	0.025
-395.136	69.362	-0.257	0.264
-394.121	181.981	0.120	0.177
-393.106	800.000	0.062	0.255
-392.092	-200.000	-0.010	0.207
-391.077	793.271	0.032	0.087
-390.063	251.989	0.016	-0.028
-389.048	-159.128	-0.354	-0.020
-388.033	45.799	0.182	0.168
-387.019	616.114	0.023	0.058
-386.004	-160.845	-0.488	-0.026
-384.990	38.061	-0.016	0.014
-383.975	157.994	-0.147	-0.204
-382.960	-164.103	0.207	-0.010
-381.946	244.788	-0.156	0.262
-380.931	-1.025	-0.104	-0.073
-379.917	-43.304	-0.171	0.086
-378.902	-54.908	0.189	-0.085
-377.888	-62.007	0.077	0.032
-376.873	-200.000	0.039	0.320
-375.858	17.877	0.245	0.195
-374.844	-46.469	-0.314	-0.154
-373.829	63.421	0.117	-0.118
-372.815	800.000	-0.030	-0.102
-371.800	800.000	-0.032	0.099
-370.785	800.000	0.030	-0.109
-369.771	16.949	-0.248	-0.196
-368.756	220.005	-0.256	0.410
-367.742	800.000	0.081	0.294
-366.727	329.359	-0.171	0.328
-365.712	-102.005	0.203	0.049
-364.698	788.355	0.113	0.310
-363.683	-196.618	0.321	0.002
-362.669	-200.000	0.038	0.270
-361.654	-114.155	0.263	0.051
-360.639	320.879	0.122	0.231
-359.625	-96.636	-0.075	0.020
-358.610	98.115	-0.106	-0.122
-357.596	-87.003	0.170	0.052
-356.581	-200.000	-0.016	0.309
-355.566	100.656	0.296	-0.343
-354.552	88.293	-0.061	0.067
-353.537	-111.070	-0.131	0.027
-352.523	-96.159	0.128	0.034
-351.508	-139.817	0.162	-0.017
-350.493	0.329	0.027	0.019
-349.479	239.769	0.217	-0.360
-348.464	800.000	0.025	0.078
-347.450	-69.618	0.013	-0.005
-346.435	-200.000	-0.040	-0.285
-345.420	-78.810	-0.071	-0.024
-344.406	800.000	0.131	-0.469
-343.391	22.441	-0.138	0.112
-342.377	209.139	-0.173	0.270
-341.362	800.000	0.041	0.168
-340.348	453.502	0.114	-0.252
-339.333	22.890	0.271	-0.222
-338.318	-67.933	0.198	0.077
-337.304	217.704	-0.091	0.145
-336.289	47.074	-0.226	-0.210
-335.275	449.936	-0.105	0.232
-334.260	-68.819	-0.255	-0.098
-333.245	169.018	-0.105	0.150
-332.231	2.381	0.248	0.179
-331.216	634.897	0.054	0.135
-330.202	-89.944	0.201	-0.059
-329.187	0.246	0.322	-0.229
-328.172	193.038	-0.151	-0.227
-327.158	-110.640	-0.159	-0.033
-326.143	206.911	0.100	-0.156
-325.129	800.000	0.033	0.109
-324.114	800.000	0.042	0.145
-323.099	-74.843	-0.251	0.090
-322.085	35.825	-0.004	-0.004
-321.070	-139.913	-0.510	-0.054
-320.056	-17.009	-0.087	0.055
-319.041	-107.585	-0.230	-0.050
-318.026	224.374	-0.178	-0.287
-317.012	229.918	0.065	-0.105
-315.997	-100.816	0.149	-0.037
-314.983	436.742	0.147	0.318
-313.968	800.000	0.026	0.094
-312.953	-200.000	-0.033	-0.447
-311.939	290.520	0.149	0.270
-310.924	-200.000	0.006	0.544
-309.910	-79.645	0.134	-0.045
-308.895	453.665	-0.133	-0.293
-307.880	-77.041	0.097	0.034
-306.866	-155.620	-0.291	-0.019
-305.851	368.595	0.014	0.029
-304.837	800.000	0.083	-0.230
-303.822	170.946	0.127	0.181
-302.807	-200.000	-0.000	0.223
-301.793	427.948	-0.015	0.033
-300.778	-200.000	-0.039	-0.285
-299.764	-177.303	0.177	0.004
-298.749	238.049	0.093	-0.154
-297.735	-200.000	-0.009	-0.143
-296.720	-18.545	0.154	0.096
-295.705	800.000	0.092	-0.340
-294.691	-24.634	0.196	0.116
-293.676	435.124	0.135	0.293
-292.662	158.850	-0.056	0.077
-291.647	-52.622	-0.309	0.142
-290.632	-115.035	0.347	0.066
-289.618	295.627	0.099	-0.180
-288.603	-14.462	0.187	0.120
-287.589	-62.307	0.110	0.046
-286.574	99.059	0.113	-0.130
-285.559	-14.150	0.179	-0.115
-284.545	-1.034	0.247	-0.174
-283.530	-34.708	-0.146	0.079
-282.516	-9.281	-0.312	-0.207
-281.501	-99.349	0.071	-0.018
-280.486	87.230	-0.210	0.231
-279.472	-44.922	0.193	0.096
-278.457	-200.000	-0.005	-0.120
-277.443	-200.000	0.006	-0.181
-276.428	12.604	0.277	0.212
-275.413	-200.000	-0.024	-0.144
-274.399	32.439	-0.037	-0.032
-273.384	-117.268	0.200	0.036
-272.370	-99.172	-0.078	-0.020
-271.355	618.199	0.047	-0.117
-270.340	36.469	-0.054	0.047
-269.326	36.811	0.161	0.142
-268.311	356.447	0.118	0.233
-267.297	-74.827	-0.320	-0.114
-266.282	539.088	0.106	0.250
-265.267	-33.763	-0.135	0.074
-264.253	800.000	0.063	0.261
-263.238	-7.839	-0.032	0.021
-262.224	31.835	0.236	0.202
-261.209	-69.318	0.339	0.130
-260.195	97.715	0.087	-0.100
-259.180	-200.000	-0.012	0.094
-258.165	161.315	0.113	0.157
-257.151	85.425	-0.094	0.103
-256.136	-106.814	-0.358	0.079
-255.122	39.404	-0.179	0.160
-254.107	800.000	0.077	0.224
-253.092	10.440	-0.151	0.114
-252.078	-155.807	-0.092	-0.006
-251.063	-186.996	0.094	-0.001
-250.049	-49.406	-0.301	0.143
-249.034	-127.853	0.346	0.050
-248.019	215.698	-0.202	0.318
-247.005	229.956	0.036	-0.058
-245.990	218.662	-0.070	-0.111
-244.976	-49.867	-0.151	-0.071
-243.961	-123.599	0.243	0.038
-242.946	-35.162	0.075	0.041
-241.932	47.170	-0.136	0.126
-240.917	103.970	0.101	0.118
-239.903	102.655	0.226	0.263
-238.888	-174.858	0.439	-0.012
-237.873	-84.584	0.274	-0.086
-236.859	-200.000	-0.019	-0.099
-235.844	315.403	-0.048	0.090
-234.830	-14.449	-0.245	0.156
-233.815	-200.000	0.016	0.221
-232.800	-200.000	-0.010	0.200
-231.786	-120.533	-0.247	0.042
-230.771	178.768	0.186	0.270
-229.757	9.514	-0.261	0.196
-228.742	788.677	0.087	-0.237
-227.727	90.061	-0.112	-0.124
-226.713	-48.261	0.027	-0.013
-225.698	519.664	0.084	-0.195
-224.684	-200.000	-0.002	-0.081
-223.669	-110.975	0.129	-0.026
-222.655	-124.482	-0.183	0.028
-221.640	-106.813	0.039	-0.009
-220.625	25.722	0.059	-0.049
-219.611	-17.158	-0.209	-0.131
-218.596	800.000	0.049	-0.204
-217.582	121.949	-0.072	0.089
-216.567	800.000	-0.018	0.076
-215.552	249.473	0.178	0.300
-214.538	-41.842	-0.252	-0.128
-213.523	378.030	-0.116	-0.235
-212.509	-200.000	-0.031	0.188
-211.494	-68.879	-0.153	0.058
-210.479	-136.609	-0.179	-0.021
-209.465	-39.896	0.131	0.068
-208.450	-35.184	-0.118	-0.064
-207.436	-174.856	-0.056	-0.002
-206.421	-1.085	-0.058	0.041
-205.406	-19.382	-0.049	0.030
-204.392	35.059	-0.196	0.171
-203.377	128.764	-0.194	-0.245
-202.363	20.773	0.092	-0.074
-201.348	-200.000	0.054	-0.263
-200.333	-200.000	0.003	-0.316
-199.319	19.533	-0.383	0.306
-198.304	186.195	0.070	0.103
-197.290	80.945	0.020	-0.021
-196.275	98.808	-0.210	-0.240
-195.260	-118.245	-0.254	-0.045
-194.246	-124.676	0.152	0.023
-193.231	-67.980	-0.380	-0.147
-192.217	678.826	-0.055	-0.142
-191.202	-148.804	0.051	0.004
-190.187	146.236	-0.163	-0.217
-189.173	256.103	-0.060	0.101
-188.158	-200.000	-0.033	0.295
-187.144	800.000	0.061	-0.259
-186.129	-106.047	0.233	-0.052
-185.114	-38.914	0.193	0.101
-184.100	-200.000	-0.031	-0.227
-183.085	800.000	-0.073	0.207
-182.071	-58.652	-0.250	0.107
-181.056	-76.555	-0.174	-0.061
-180.042	3.748	-0.203	-0.147
-179.027	-150.241	0.206	-0.016
-178.012	-33.810	-0.398	0.217
-176.998	-200.000	-0.038	0.187
-175.983	111.844	0.162	0.193
-174.969	559.356	0.070	-0.167
-173.954	-89.262	0.244	-0.071
-172.939	166.620	-0.030	0.042
-171.925	-200.000	-0.025	0.317
-170.910	563.551	-0.198	0.475
-169.896	287.152	-0.042	0.074
-168.881	360.873	0.084	-0.167
-167.866	-147.146	0.139	0.012
-166.852	50.793	-0.168	-0.158
-165.837	58.139	0.137	-0.133
-164.823	291.867	0.108	-0.195
-163.808	257.609	-0.097	0.165
-162.793	156.513	0.181	0.248
-161.779	11.802	0.152	0.116
-160.764	-200.000	0.030	-0.307
-159.750	149.691	0.432	-0.580
-158.735	47.018	-0.250	-0.230
-157.720	800.000	-0.043	0.166
-156.706	-200.000	-0.052	-0.298
-155.691	-86.898	0.244	-0.074
-154.677	-9.458	0.291	-0.192
-153.662	800.000	0.132	0.363
-152.647	-40.744	-0.232	0.119
-151.633	-200.000	-0.069	-0.301
-150.618	-116.958	-0.014	-0.003
-149.604	-200.000	-0.010	0.088
-148.589	-17.367	0.125	-0.078
-147.574	-200.000	0.023	-0.111
-146.560	165.314	-0.203	0.284
-145.545	211.663	-0.214	-0.334
-144.531	-128.073	-0.204	-0.029
-143.516	353.523	0.194	0.381
-142.502	-57.081	0.260	-0.114
-141.487	-154.257	-0.126	-0.008
-140.472	-177.637	0.416	0.010
-139.458	-135.685	0.141	0.017
-138.443	-200.000	-0.005	-0.344
-137.429	-76.851	-0.113	-0.039
-136.414	-16.153	-0.104	0.066
-135.399	800.000	-0.063	0.205
-134.385	199.418	-0.033	0.050
-133.370	-127.153	-0.164	0.024
-132.356	-200.000	-0.048	-0.326
-131.341	66.633	0.186	-0.187
-130.326	-200.000	-0.021	-0.292
-129.312	-200.000	-0.007	0.175
-128.297	-35.681	0.206	-0.111
-127.283	56.815	-0.257	0.247
-126.268	-200.000	0.025	0.214
-125.253	504.908	0.143	0.328
-124.239	-200.000	-0.061	0.411
-123.224	-148.360	-0.165	-0.013
-122.210	-70.513	-0.317	0.119
-121.195	-114.576	-0.078	0.015
