DTS Sentinel unit serial number:	SN413079Multiplexer serial number:	ORYXHardware model number:	OX4-SRSoftware version number:	ORYX F/W v4.00 Oryx Data Collector v3.7.2.0data status	okinstallation	princeton_trtdifferential loss correction	single-endedforward channel	channel 4reverse channel	N/Adate	2019/09/11time	18:55:11forward acquisition time	60.00reverse acquisition time	0.00gamma	496.2192k internal	0.2284k external	0.2284temperature offset calibration	1.0034default loss term (dB/km)	0.3790temperature slope calibration	1.0000multiplexer offset coefficient	1.0000multiplexer slope coefficient	1.0000fibre end	0.00T internal ref (°C)	42.64T ext. ref 1 (°C)	1.29T ext. ref 2 (°C)	34.83length (m)	temperature (°C)	Stokes	anti-Stokes-747.200	-200.000	-0.010	0.121
-746.185	-200.000	0.038	0.425
-745.171	156.290	-0.188	-0.267
-744.156	8.271	-0.156	-0.120
-743.142	-200.000	0.007	0.093
-742.127	140.856	-0.113	0.154
-741.112	-158.728	0.230	-0.014
-740.098	-52.974	-0.239	0.113
-739.083	800.000	0.063	-0.237
-738.069	-52.401	0.042	-0.020
-737.054	74.036	0.101	0.108
-736.039	-60.123	-0.168	-0.074
-735.025	765.641	-0.084	-0.235
-734.010	-200.000	0.075	0.357
-732.996	-65.091	0.058	0.024
-731.981	-57.621	0.072	0.033
-730.966	-72.230	-0.153	-0.058
-729.952	104.379	-0.162	-0.196
-728.937	103.395	0.191	-0.230
-727.923	670.491	0.108	-0.287
-726.908	-98.185	-0.223	0.059
-725.894	-45.098	-0.419	-0.214
-724.879	49.226	-0.323	0.312
-723.864	800.000	0.007	-0.020
-722.850	213.575	-0.090	-0.146
-721.835	194.276	0.122	-0.190
-720.821	171.864	-0.057	-0.084
-719.806	-47.537	0.150	-0.075
-718.791	647.890	0.057	0.150
-717.777	-200.000	-0.004	-0.175
-716.762	-200.000	-0.006	-0.240
-715.748	-200.000	0.074	-0.359
-714.733	9.567	-0.143	0.111
-713.718	-200.000	-0.062	-0.384
-712.704	51.853	-0.153	0.150
-711.689	61.960	0.208	0.213
-710.675	271.257	-0.107	0.193
-709.660	-156.678	-0.041	0.003
-708.645	-79.666	-0.309	0.107
-707.631	575.763	-0.165	0.413
-706.616	-200.000	-0.043	0.247
-705.602	21.489	0.146	0.122
-704.587	-200.000	0.054	-0.529
-703.572	298.946	-0.103	-0.195
-702.558	109.329	-0.262	0.322
-701.543	280.852	-0.111	-0.205
-700.529	490.841	0.143	-0.336
-699.514	34.510	-0.169	0.151
-698.499	141.318	0.071	-0.096
-697.485	-109.355	0.233	0.051
-696.470	-133.974	-0.130	-0.016
-695.456	-42.815	0.215	-0.112
-694.441	-108.198	-0.177	-0.039
-693.426	327.736	0.095	0.187
-692.412	479.696	0.037	-0.086
-691.397	-86.978	-0.401	-0.125
-690.383	-174.273	-0.301	-0.009
-689.368	-161.809	-0.152	-0.008
-688.354	76.410	0.089	0.097
-687.339	177.619	-0.091	0.137
-686.324	64.593	0.300	0.310
-685.310	-200.000	-0.036	0.264
-684.295	-8.378	-0.143	0.099
-683.281	705.614	-0.081	0.220
-682.266	-200.000	0.071	-0.404
-681.251	4.042	-0.162	-0.121
-680.237	-40.690	-0.109	0.058
-679.222	151.942	-0.079	-0.110
-678.208	660.075	-0.076	0.201
-677.193	46.375	0.135	0.128
-676.178	-200.000	0.123	-0.560
-675.164	99.434	0.109	-0.129
-674.149	800.000	0.099	-0.413
-673.135	203.600	0.196	-0.311
-672.120	41.479	-0.247	0.229
-671.105	-200.000	0.067	0.363
-670.091	46.431	0.042	0.040
-669.076	800.000	-0.092	-0.269
-668.062	-125.113	-0.168	-0.026
-667.047	96.149	-0.044	-0.051
-666.032	112.454	0.054	-0.067
-665.018	450.726	0.040	-0.090
-664.003	-49.296	0.091	0.044
-662.989	-35.627	0.167	-0.093
-661.974	81.783	0.041	-0.046
-660.959	382.463	0.102	0.214
-659.945	-15.859	-0.167	-0.109
-658.930	-65.691	0.173	0.071
-657.916	-200.000	0.028	0.289
-656.901	23.431	0.087	-0.073
-655.886	-75.445	0.035	0.013
-654.872	-103.493	0.116	-0.028
-653.857	24.162	0.105	0.089
-652.843	585.723	0.022	-0.055
-651.828	517.215	-0.069	0.164
-650.814	800.000	-0.068	-0.233
-649.799	314.366	0.006	-0.012
-648.784	-200.000	-0.065	0.356
-647.770	37.715	-0.108	0.098
-646.755	182.070	-0.111	0.168
-645.741	-49.982	-0.250	-0.121
-644.726	20.019	-0.434	-0.359
-643.711	-68.780	0.286	-0.113
-642.697	-30.073	-0.098	0.057
-641.682	-97.945	-0.269	0.071
-640.668	-88.958	-0.258	-0.078
-639.653	112.537	0.200	0.248
-638.638	70.961	0.195	0.206
-637.624	800.000	-0.081	-0.281
-636.609	204.741	-0.154	-0.244
-635.595	-80.477	0.166	0.056
-634.580	-200.000	-0.007	-0.233
-633.565	6.785	-0.039	-0.030
-632.551	-82.262	0.231	-0.077
-631.536	-200.000	0.004	-0.189
-630.522	-50.712	0.184	-0.088
-629.507	-200.000	0.069	0.359
-628.492	-200.000	0.065	-0.292
-627.478	800.000	-0.076	-0.268
-626.463	-200.000	0.025	-0.133
-625.449	72.279	0.239	-0.254
-624.434	70.842	0.188	0.199
-623.419	-65.507	0.178	-0.073
-622.405	-186.776	0.202	-0.003
-621.390	-114.205	-0.208	-0.041
-620.376	-76.712	-0.235	-0.084
-619.361	546.645	0.012	-0.030
-618.346	-146.822	0.337	-0.030
-617.332	-42.326	-0.117	-0.061
-616.317	12.688	0.399	-0.315
-615.303	43.910	0.130	-0.122
-614.288	-76.140	-0.198	-0.072
-613.273	800.000	0.039	-0.120
-612.259	800.000	-0.064	-0.237
-611.244	-18.891	0.035	0.022
-610.230	-200.000	-0.000	-0.142
-609.215	1.341	-0.124	-0.091
-608.201	-145.790	-0.185	-0.017
-607.186	-142.033	-0.294	0.030
-606.171	-200.000	-0.028	0.178
-605.157	800.000	0.026	0.098
-604.142	-78.607	-0.239	0.084
-603.128	800.000	0.009	-0.025
-602.113	31.037	0.240	-0.210
-601.098	166.238	-0.042	0.061
-600.084	434.575	0.067	0.149
-599.069	800.000	-0.055	0.187
-598.055	364.641	-0.091	-0.186
-597.040	-48.005	-0.420	0.207
-596.025	-200.000	-0.010	0.077
-595.011	-84.781	-0.324	0.104
-593.996	-200.000	-0.026	0.377
-592.982	64.901	0.085	0.087
-591.967	-86.889	-0.148	-0.046
-590.952	294.523	0.096	-0.179
-589.938	-200.000	0.003	0.025
-588.923	-70.020	0.054	-0.021
-587.909	59.044	0.120	-0.121
-586.894	-64.166	-0.301	-0.125
-585.879	-31.905	-0.018	-0.010
-584.865	-200.000	-0.007	-0.034
-583.850	-161.145	-0.082	0.004
-582.836	-200.000	0.030	-0.191
-581.821	1.290	-0.252	-0.185
-580.806	121.569	0.151	-0.193
-579.792	-165.108	0.202	0.009
-578.777	255.110	-0.210	0.367
-577.763	79.957	0.244	-0.268
-576.748	800.000	0.058	0.187
-575.733	-146.417	0.500	0.045
-574.719	-171.187	0.249	0.009
-573.704	800.000	0.031	-0.090
-572.690	-200.000	0.037	0.169
-571.675	65.484	-0.164	0.170
-570.661	-57.269	0.166	0.075
-569.646	35.881	-0.205	0.184
-568.631	44.330	-0.159	0.149
-567.617	189.096	-0.204	-0.312
-566.602	214.701	-0.100	-0.161
-565.588	-31.930	0.370	-0.211
-564.573	-105.689	0.298	-0.069
-563.558	-164.215	0.131	0.006
-562.544	-200.000	-0.011	0.113
-561.529	-44.847	0.194	0.099
-560.515	-200.000	0.008	-0.133
-559.500	78.145	-0.200	-0.218
-558.485	-167.317	-0.214	-0.009
-557.471	-144.430	-0.333	0.032
-556.456	800.000	0.077	-0.290
-555.442	-80.746	-0.243	0.082
-554.427	-200.000	-0.071	0.487
-553.412	-52.912	-0.115	0.054
-552.398	-76.110	-0.134	-0.048
-551.383	-94.726	-0.050	0.014
-550.369	334.619	0.041	-0.081
-549.354	-3.191	-0.298	-0.212
-548.339	10.646	0.281	-0.218
-547.325	-30.576	0.173	-0.100
-546.310	84.574	-0.338	-0.377
-545.296	-62.946	-0.140	0.059
-544.281	-93.510	0.189	-0.053
-543.266	295.815	0.018	0.033
-542.252	-200.000	-0.014	0.315
-541.237	-44.510	0.177	0.090
-540.223	-200.000	-0.052	0.284
-539.208	32.987	-0.120	-0.106
-538.193	-30.772	0.192	-0.110
-537.179	-117.362	0.370	-0.068
-536.164	99.463	-0.231	-0.272
-535.150	-25.170	-0.139	0.084
-534.135	147.152	-0.054	-0.074
-533.121	-3.515	0.253	-0.180
-532.106	608.440	-0.063	0.159
-531.091	-24.950	-0.069	-0.042
-530.077	-200.000	0.038	0.361
-529.062	85.253	0.298	0.333
-528.048	-19.229	-0.181	0.114
-527.033	-41.176	0.120	0.063
-526.018	-134.139	0.142	-0.018
-525.004	-200.000	0.036	-0.261
-523.989	98.635	0.147	0.172
-522.975	-200.000	0.008	-0.217
-521.960	2.269	0.123	0.090
-520.945	708.754	0.082	0.222
-519.931	-200.000	0.006	-0.045
-518.916	-128.610	0.255	-0.037
-517.902	-180.710	0.148	0.003
-516.887	-60.101	-0.104	0.045
-515.872	51.870	-0.203	0.197
-514.858	36.690	-0.171	0.153
-513.843	159.823	-0.088	0.125
-512.829	-129.570	-0.211	-0.030
-511.814	8.725	0.170	-0.130
-510.799	-45.907	0.225	0.113
-509.785	-47.481	-0.448	-0.222
-508.770	51.001	0.145	0.140
-507.756	5.685	0.030	0.023
-506.741	95.438	0.155	-0.180
-505.726	449.220	-0.059	0.132
-504.712	-58.722	-0.260	0.114
-503.697	-17.089	0.319	0.205
-502.683	-131.496	0.155	0.021
-501.668	133.455	-0.111	0.146
-500.653	-37.737	0.144	0.078
-499.639	-121.584	-0.069	0.012
-498.624	-160.498	-0.241	0.013
-497.610	800.000	-0.057	-0.198
-496.595	-176.981	-0.426	0.011
-495.581	-53.185	-0.058	-0.027
-494.566	102.426	-0.072	-0.086
-493.551	2.862	-0.131	-0.097
-492.537	-3.000	-0.209	-0.149
-491.522	-8.181	0.146	0.100
-490.508	0.511	0.177	-0.129
-489.493	-61.942	-0.093	-0.039
-488.478	800.000	-0.121	0.351
-487.464	-121.868	0.124	-0.021
-486.449	-166.596	-0.272	0.012
-485.435	800.000	0.054	-0.215
-484.420	17.722	0.195	0.158
-483.405	800.000	0.066	-0.287
-482.391	-103.413	0.165	0.039
-481.376	-35.261	0.176	-0.097
-480.362	110.977	0.240	-0.294
-479.347	-31.040	-0.144	0.083
-478.332	45.320	0.041	-0.039
-477.318	800.000	0.014	0.062
-476.303	44.602	0.175	0.164
-475.289	-123.840	0.277	0.044
-474.274	-200.000	0.034	-0.211
-473.259	555.853	0.054	0.132
-472.245	-200.000	-0.009	0.560
-471.230	-79.391	-0.217	0.075
-470.216	45.229	0.206	0.193
-469.201	-100.263	0.139	0.035
-468.186	223.654	-0.103	0.170
-467.172	-136.392	0.280	0.033
-466.157	116.931	0.171	0.213
-465.143	78.165	0.145	0.158
-464.128	800.000	0.079	0.293
-463.113	190.706	0.136	0.207
-462.099	-38.395	0.301	-0.162
-461.084	-5.103	-0.318	-0.222
-460.070	51.231	0.072	-0.069
-459.055	-28.597	0.065	-0.038
-458.040	-94.166	0.302	-0.084
-457.026	-116.177	-0.159	0.030
-456.011	800.000	0.109	-0.323
-454.997	-47.875	0.224	-0.110
-453.982	-177.670	-0.141	-0.003
-452.968	384.888	-0.059	-0.124
-451.953	54.798	0.114	0.111
-450.938	284.562	0.054	-0.099
-449.924	-200.000	-0.015	0.093
-448.909	800.000	-0.008	0.025
-447.895	-114.914	-0.191	0.037
-446.880	800.000	0.138	-0.492
-445.865	-35.363	-0.044	0.024
-444.851	99.168	-0.142	-0.167
-443.836	-200.000	-0.013	0.214
-442.822	247.309	0.102	0.175
-441.807	-47.364	-0.250	0.124
-440.792	587.531	-0.093	0.233
-439.778	126.116	0.228	-0.293
-438.763	-179.582	-0.189	-0.004
-437.749	155.002	-0.022	-0.030
-436.734	-200.000	0.004	0.140
-435.719	135.053	-0.134	-0.177
-434.705	800.000	0.129	0.381
-433.690	95.826	0.124	0.144
-432.676	-77.303	0.203	-0.072
-431.661	-200.000	-0.011	0.131
-430.646	-142.752	-0.109	0.011
-429.632	-53.834	-0.060	0.028
-428.617	67.134	-0.096	-0.099
-427.603	-30.608	0.298	-0.171
-426.588	8.909	-0.116	0.089
-425.573	130.099	0.217	-0.282
-424.559	-200.000	0.325	-0.001
-423.544	-73.565	-0.161	-0.060
-422.530	-47.229	-0.186	0.092
-421.515	278.321	0.211	0.380
-420.500	-200.000	0.030	0.211
-419.486	633.327	-0.071	-0.182
-418.471	540.924	-0.039	-0.094
-417.457	82.021	0.049	-0.054
-416.442	128.691	-0.147	0.191
-415.428	-200.000	0.018	0.129
-414.413	55.399	-0.192	0.188
-413.398	-200.000	-0.021	-0.135
-412.384	-200.000	-0.007	0.145
-411.369	9.790	-0.074	0.057
-410.355	-65.167	-0.257	-0.105
-409.340	-57.183	0.239	0.107
-408.325	36.037	0.047	0.042
-407.311	-181.463	-0.131	0.003
-406.296	800.000	0.010	-0.039
-405.282	-200.000	-0.005	-0.081
-404.267	254.186	-0.124	0.214
-403.252	83.551	0.118	0.131
-402.238	110.949	-0.081	-0.099
-401.223	-115.485	-0.258	0.049
-400.209	130.717	0.301	-0.392
-399.194	-151.250	0.228	-0.017
-398.179	-62.194	-0.230	0.097
-397.165	54.541	-0.126	-0.123
-396.150	-135.858	0.174	-0.021
-395.136	-56.120	0.123	-0.056
-394.121	800.000	-0.061	-0.192
-393.106	432.128	0.161	-0.354
-392.092	577.704	-0.172	-0.426
-391.077	800.000	0.062	-0.200
-390.063	207.521	-0.045	0.071
-389.048	-200.000	0.004	-0.019
-388.033	-128.187	0.206	0.030
-387.019	-147.904	-0.159	-0.013
-386.004	-200.000	0.020	-0.106
-384.990	11.393	-0.059	-0.046
-383.975	-19.329	0.184	-0.116
-382.960	-13.975	-0.123	-0.080
-381.946	-96.136	-0.209	-0.056
-380.931	14.108	0.195	0.154
-379.917	481.523	-0.087	0.201
-378.902	-23.931	0.221	0.134
-377.888	84.591	-0.205	0.227
-376.873	-59.719	0.196	0.085
-375.858	182.662	0.272	0.407
-374.844	800.000	0.017	-0.073
-373.829	-43.504	0.219	-0.112
-372.815	800.000	-0.099	0.345
-371.800	-100.253	-0.239	-0.060
-370.785	51.407	0.113	0.109
-369.771	-48.542	-0.197	-0.096
-368.756	111.796	-0.063	-0.077
-367.742	226.174	0.092	0.151
-366.727	-61.933	0.163	0.069
-365.712	-104.201	-0.343	-0.081
-364.698	-190.949	-0.231	-0.002
-363.683	800.000	0.099	0.292
-362.669	800.000	-0.045	-0.176
-361.654	393.845	0.283	-0.597
-360.639	-200.000	-0.062	0.398
-359.625	-82.431	0.180	0.059
-358.610	800.000	0.003	-0.011
-357.596	358.262	0.062	0.126
-356.581	309.798	0.079	0.149
-355.566	-72.507	-0.068	0.025
-354.552	-90.140	0.179	-0.053
-353.537	-34.062	0.367	0.204
-352.523	-112.664	-0.146	0.029
-351.508	-18.727	-0.105	-0.066
-350.493	-15.004	0.190	-0.123
-349.479	167.686	0.152	-0.219
-348.464	-106.161	-0.219	-0.050
-347.450	-9.546	0.212	0.143
-346.435	-200.000	-0.020	0.367
-345.420	34.494	-0.198	0.175
-344.406	225.723	-0.062	0.101
-343.391	-94.865	-0.180	0.049
-342.377	-116.364	0.148	-0.028
-341.362	-200.000	-0.013	0.311
-340.348	-28.204	0.121	-0.071
-339.333	800.000	-0.026	-0.074
-338.318	-1.833	0.191	0.136
-337.304	-136.706	0.149	0.017
-336.289	-114.559	0.211	-0.041
-335.275	-8.325	0.210	-0.143
-334.260	426.571	-0.135	-0.293
-333.245	-55.994	0.235	-0.106
-332.231	90.913	-0.109	-0.124
-331.216	555.829	0.047	-0.116
-330.202	-200.000	0.063	-0.321
-329.187	372.031	0.112	0.230
-328.172	-200.000	0.074	0.332
-327.158	800.000	0.043	0.171
-326.143	602.591	-0.069	-0.172
-325.129	-45.469	0.133	0.066
-324.114	132.455	0.254	0.331
-323.099	-45.214	-0.163	-0.082
-322.085	-30.754	-0.191	0.109
-321.070	-200.000	-0.032	0.210
-320.056	-200.000	-0.023	0.337
-319.041	18.434	-0.156	0.126
-318.026	800.000	0.049	-0.210
-317.012	36.546	-0.205	-0.183
-315.997	21.069	-0.040	-0.033
-314.983	689.273	-0.093	0.245
-313.968	63.656	-0.241	0.244
-312.953	-173.260	0.083	-0.003
-311.939	-103.234	-0.082	0.020
-310.924	29.626	-0.108	-0.093
-309.910	-67.489	-0.105	0.041
-308.895	-154.505	0.283	0.019
-307.880	-45.193	-0.151	-0.076
-306.866	-150.206	0.433	-0.034
-305.851	-123.444	0.227	0.037
-304.837	-200.000	-0.015	-0.230
-303.822	-180.332	-0.243	0.005
-302.807	-107.056	0.084	0.019
-301.793	-80.359	-0.177	-0.060
-300.778	-116.896	-0.284	0.052
-299.764	84.273	0.287	-0.317
-298.749	275.898	-0.102	-0.182
-297.735	-67.023	0.179	0.071
-296.720	-1.453	0.216	0.154
-295.705	-147.104	0.262	-0.023
-294.691	-104.266	0.208	-0.049
-293.676	50.700	0.235	-0.224
-292.662	4.704	0.134	0.100
-291.647	-200.000	0.001	0.343
-290.632	-40.238	-0.208	0.109
-289.618	10.709	0.085	0.066
-288.603	108.064	0.273	-0.328
-287.589	-156.638	-0.257	-0.016
-286.574	9.040	0.184	0.140
-285.559	161.579	-0.247	-0.348
-284.545	-87.348	0.099	-0.030
-283.530	800.000	-0.064	-0.232
-282.516	164.604	0.037	-0.052
-281.501	795.385	0.024	0.067
-280.486	171.939	-0.074	-0.108
-279.472	21.929	0.109	0.090
-278.457	-200.000	-0.013	0.063
-277.443	-133.600	-0.130	-0.016
-276.428	460.188	0.056	-0.126
-275.413	-36.528	-0.410	-0.223
-274.399	-185.672	0.304	-0.005
-273.384	-47.322	0.180	-0.088
-272.370	-16.247	0.220	-0.141
-271.355	-200.000	-0.024	-0.169
-270.340	-163.869	-0.229	0.011
-269.326	-100.735	-0.454	0.113
-268.311	207.545	-0.095	0.150
-267.297	-97.976	-0.324	-0.084
-266.282	-83.839	0.080	-0.026
-265.267	-179.771	-0.051	0.001
-264.253	49.428	0.329	-0.312
-263.238	-200.000	-0.033	-0.155
-262.224	5.553	-0.141	0.105
-261.209	-200.000	0.027	0.301
-260.195	425.832	-0.073	0.158
-259.180	404.017	0.140	0.298
-258.165	21.460	-0.094	-0.077
-257.151	-12.667	-0.179	-0.118
-256.136	-200.000	-0.052	-0.325
-255.122	-99.324	-0.398	-0.101
-254.107	-200.000	-0.005	0.236
-253.092	35.882	-0.219	-0.194
-252.078	-200.000	0.024	0.224
-251.063	89.252	0.153	0.172
-250.049	800.000	-0.022	0.071
-249.034	-143.892	-0.154	0.015
-248.019	71.207	-0.080	-0.084
-247.005	-200.000	-0.035	0.000
-245.990	-200.000	-0.050	-0.246
-244.976	-56.435	-0.118	-0.053
-243.961	286.643	-0.038	-0.070
-242.946	-54.136	-0.265	0.121
-241.932	-51.078	-0.069	-0.033
-240.917	10.912	-0.073	-0.056
-239.903	-114.275	-0.010	-0.002
-238.888	-68.022	-0.223	-0.088
-237.873	-43.557	-0.121	-0.061
-236.859	63.389	-0.122	0.123
-235.844	-98.326	0.399	-0.103
-234.830	314.078	-0.180	-0.341
-233.815	-200.000	0.017	-0.124
-232.800	242.387	0.039	0.066
-231.786	74.508	0.328	0.347
-230.771	70.695	-0.111	0.115
-229.757	-200.000	0.009	-0.221
-228.742	103.222	0.129	-0.152
-227.727	47.063	-0.094	0.088
-226.713	480.402	0.102	-0.233
-225.698	29.126	-0.290	-0.248
-224.684	20.215	-0.266	0.216
-223.669	85.730	-0.142	-0.157
-222.655	-200.000	-0.023	0.118
-221.640	29.310	0.167	0.143
-220.625	-86.955	0.169	0.052
-219.611	-200.000	-0.008	0.078
-218.596	330.016	-0.193	0.374
-217.582	163.778	0.093	-0.132
-216.567	-200.000	0.028	-0.235
-215.552	-200.000	0.034	0.363
-214.538	-114.096	-0.608	-0.118
-213.523	800.000	0.072	-0.251
-212.509	-200.000	-0.021	-0.107
-211.494	479.262	0.029	-0.065
-210.479	20.932	0.090	0.074
-209.465	15.962	-0.244	0.193
-208.450	800.000	-0.061	0.170
-207.436	-200.000	-0.038	0.183
-206.421	-200.000	0.029	0.264
-205.406	-58.851	-0.158	-0.069
-204.392	800.000	0.115	0.457
-203.377	-35.376	-0.310	-0.169
-202.363	-24.297	-0.080	0.048
-201.348	-63.631	-0.181	-0.075
-200.333	-86.266	0.241	0.075
-199.319	-149.447	-0.467	-0.037
-198.304	-137.577	0.109	0.012
-197.290	-200.000	0.002	0.040
-196.275	-64.317	-0.201	0.082
-195.260	-200.000	-0.013	0.207
-194.246	-2.677	0.128	0.090
-193.231	-200.000	0.038	0.245
-192.217	623.851	0.106	0.270
-191.202	-200.000	-0.049	-0.299
-190.187	-99.116	0.158	-0.040
-189.173	-82.508	0.268	-0.087
-188.158	36.500	0.147	0.131
-187.144	-96.404	0.061	0.016
-186.129	541.813	0.061	0.146
-185.114	-86.768	0.182	-0.056
-184.100	715.559	-0.090	0.241
-183.085	-200.000	-0.314	-0.002
-182.071	-70.507	-0.190	-0.072
-181.056	-200.000	0.033	0.149
-180.042	-148.933	0.297	0.024
-179.027	330.850	-0.008	-0.016
-178.012	66.846	0.082	-0.084
-176.998	-200.000	-0.040	0.251
-175.983	199.769	0.124	-0.191
-174.969	-200.000	-0.075	-0.559
-173.954	262.451	-0.200	-0.348
-172.939	-51.724	0.281	-0.132
-171.925	-129.660	0.112	-0.016
-170.910	-84.017	-0.273	0.087
-169.896	-49.659	0.204	-0.098
-168.881	179.031	-0.179	0.263
-167.866	800.000	0.054	-0.211
-166.852	188.650	-0.160	0.241
-165.837	-102.087	-0.088	0.021
-164.823	800.000	0.019	-0.065
-163.808	-0.649	-0.177	-0.126
-162.793	-134.105	0.167	0.021
-161.779	664.918	-0.135	0.351
-160.764	800.000	-0.073	-0.243
-159.750	-200.000	-0.024	-0.121
-158.735	-200.000	-0.007	0.055
-157.720	-27.473	0.102	-0.060
-156.706	2.436	0.143	-0.104
-155.691	-123.718	-0.116	-0.018
-154.677	3.167	0.044	-0.032
-153.662	12.426	0.265	-0.205
-152.647	115.714	-0.080	-0.098
-151.633	800.000	0.036	0.117
-150.618	-65.743	-0.225	-0.091
-149.604	-18.520	-0.210	-0.132
-148.589	-9.964	0.082	0.055
-147.574	5.801	0.243	-0.180
-146.560	47.407	-0.063	-0.059
-145.545	165.608	0.200	-0.284
-144.531	800.000	-0.048	0.143
-143.516	313.087	0.100	0.189
-142.502	-128.020	-0.441	0.063
-141.487	125.001	0.083	0.106
-140.472	271.708	-0.201	-0.355
-139.458	-200.000	-0.000	-0.050
-138.443	-200.000	0.016	0.161
-137.429	-44.995	-0.169	-0.084
-136.414	26.928	0.094	-0.079
-135.399	56.890	0.048	-0.047
-134.385	387.981	-0.098	-0.203
-133.370	800.000	0.034	-0.146
-132.356	-111.407	-0.208	0.043
-131.341	-65.181	-0.234	-0.095
-130.326	15.108	0.045	0.035
-129.312	-15.257	-0.053	-0.034
-128.297	33.272	-0.038	0.033
-127.283	85.330	-0.212	-0.234
-126.268	57.734	0.041	0.040
-125.253	-200.000	0.012	0.260
-124.239	-200.000	0.037	0.187
-123.224	-26.672	-0.173	0.101
-122.210	-133.883	-0.224	-0.028
-121.195	229.367	-0.039	-0.063
