DTS Sentinel unit serial number:	SN413079Multiplexer serial number:	ORYXHardware model number:	OX4-SRSoftware version number:	ORYX F/W v4.00 Oryx Data Collector v3.7.2.0data status	okinstallation	princeton_trtdifferential loss correction	single-endedforward channel	channel 4reverse channel	N/Adate	2019/09/12time	00:15:11forward acquisition time	60.00reverse acquisition time	0.00gamma	496.2192k internal	0.2308k external	0.2308temperature offset calibration	1.0088default loss term (dB/km)	0.3790temperature slope calibration	1.0000multiplexer offset coefficient	1.0000multiplexer slope coefficient	1.0000fibre end	0.00T internal ref (°C)	33.56T ext. ref 1 (°C)	2.01T ext. ref 2 (°C)	27.85length (m)	temperature (°C)	Stokes	anti-Stokes-747.200	222.216	-0.160	-0.261
-746.185	151.007	0.093	0.128
-745.171	375.963	-0.034	0.070
-744.156	-7.103	0.210	0.145
-743.142	-143.732	-0.230	-0.022
-742.127	-200.000	-0.525	-0.001
-741.112	-3.898	-0.276	0.194
-740.098	-200.000	-0.010	0.259
-739.083	-124.265	-0.220	0.035
-738.069	293.576	0.063	-0.117
-737.054	65.331	-0.275	0.283
-736.039	78.362	0.073	-0.080
-735.025	60.346	-0.019	-0.019
-734.010	419.208	-0.020	0.044
-732.996	-33.936	0.112	-0.063
-731.981	-46.956	0.263	0.131
-730.966	-107.957	0.203	0.045
-729.952	-112.926	-0.268	-0.054
-728.937	29.606	0.075	0.065
-727.923	258.892	-0.099	0.174
-726.908	51.018	-0.170	-0.163
-725.894	-156.527	-0.216	-0.014
-724.879	800.000	0.093	-0.263
-723.864	-200.000	-0.026	0.305
-722.850	293.204	-0.106	0.196
-721.835	-165.136	0.099	-0.004
-720.821	253.575	-0.067	-0.115
-719.806	-77.907	-0.451	0.158
-718.791	-200.000	0.045	0.251
-717.777	-67.397	0.056	0.022
-716.762	497.443	0.047	-0.109
-715.748	288.777	-0.103	0.189
-714.733	265.315	0.051	0.090
-713.718	-123.870	0.200	-0.032
-712.704	-200.000	0.024	0.155
-711.689	-132.340	0.047	0.006
-710.675	181.412	-0.079	0.118
-709.660	-117.356	-0.351	-0.065
-708.645	78.173	0.045	-0.049
-707.631	-13.540	-0.083	-0.054
-706.616	-62.686	-0.244	-0.103
-705.602	10.882	-0.215	0.167
-704.587	800.000	-0.065	0.286
-703.572	-200.000	0.039	0.279
-702.558	-200.000	-0.065	0.297
-701.543	479.964	0.134	0.308
-700.529	-200.000	-0.029	-0.487
-699.514	-113.317	-0.040	-0.008
-698.499	139.304	0.054	-0.072
-697.485	3.761	0.098	-0.073
-696.470	51.112	-0.202	-0.194
-695.456	254.180	0.030	0.052
-694.441	-70.498	-0.219	-0.084
-693.426	109.888	0.198	-0.241
-692.412	-96.951	-0.347	-0.092
-691.397	-23.924	-0.188	-0.114
-690.383	-200.000	-0.015	-0.188
-689.368	175.582	-0.133	-0.195
-688.354	438.482	0.066	0.145
-687.339	82.758	-0.230	0.254
-686.324	-200.000	-0.015	-0.095
-685.310	22.794	0.182	-0.151
-684.295	-11.943	-0.160	-0.107
-683.281	-67.711	0.116	0.046
-682.266	-108.716	-0.229	0.050
-681.251	-16.743	-0.110	-0.071
-680.237	-48.861	0.092	-0.045
-679.222	-200.000	0.025	0.159
-678.208	-200.000	-0.003	0.156
-677.193	60.897	0.109	-0.109
-676.178	-32.529	0.149	-0.084
-675.164	91.022	-0.419	0.477
-674.149	-121.390	-0.308	-0.052
-673.135	-122.230	0.187	-0.031
-672.120	800.000	-0.054	-0.217
-671.105	104.960	-0.088	-0.105
-670.091	-130.882	0.198	-0.027
-669.076	-163.379	-0.525	-0.025
-668.062	243.486	-0.156	-0.265
-667.047	86.588	0.189	-0.211
-666.032	52.180	0.012	0.011
-665.018	-157.459	0.114	0.007
-664.003	-167.627	0.282	-0.011
-662.989	-53.812	0.122	0.056
-661.974	578.570	0.067	-0.167
-660.959	-200.000	0.060	-0.290
-659.945	-69.819	0.255	-0.099
-658.930	470.724	-0.166	-0.379
-657.916	86.614	-0.238	-0.266
-656.901	800.000	0.064	-0.278
-655.886	108.606	0.131	-0.158
-654.872	-197.765	0.047	0.000
-653.857	-41.765	0.029	0.015
-652.843	-136.979	-0.212	-0.025
-651.828	-81.307	0.363	-0.121
-650.814	-19.949	0.195	0.122
-649.799	-78.331	-0.212	-0.074
-648.784	-2.034	-0.190	-0.135
-647.770	800.000	-0.060	-0.173
-646.755	260.947	0.186	-0.326
-645.741	59.789	-0.382	-0.382
-644.726	-115.791	-0.192	0.036
-643.711	-65.204	-0.196	-0.080
-642.697	-62.884	-0.144	0.060
-641.682	-139.613	-0.131	-0.014
-640.668	-136.105	0.299	-0.035
-639.653	-123.909	0.098	-0.016
-638.638	-61.728	0.314	0.133
-637.624	-154.378	-0.317	0.022
-636.609	10.631	-0.059	0.045
-635.595	15.485	0.115	0.092
-634.580	-200.000	-0.006	-0.114
-633.565	-10.937	0.214	-0.143
-632.551	800.000	-0.005	0.014
-631.536	-200.000	0.002	-0.031
-630.522	97.818	0.145	-0.169
-629.507	-158.590	0.276	0.016
-628.492	-61.024	-0.181	-0.077
-627.478	-64.947	-0.215	-0.088
-626.463	11.972	-0.142	-0.111
-625.449	673.416	-0.111	-0.292
-624.434	121.438	-0.112	-0.141
-623.419	330.558	-0.142	-0.276
-622.405	-69.002	0.288	-0.112
-621.390	130.866	-0.110	0.143
-620.376	-58.483	-0.238	0.105
-619.361	-200.000	0.003	-0.138
-618.346	33.035	0.065	-0.057
-617.332	650.996	0.062	0.161
-616.317	800.000	0.100	0.285
-615.303	-116.699	-0.107	0.020
-614.288	-200.000	0.016	0.334
-613.273	764.827	0.093	0.256
-612.259	249.801	-0.119	-0.204
-611.244	-116.374	0.218	-0.041
-610.230	-142.564	0.073	-0.007
-609.215	-17.941	-0.252	0.160
-608.201	-99.412	-0.435	-0.111
-607.186	-93.747	0.078	0.022
-606.171	68.502	0.106	-0.110
-605.157	221.221	-0.131	0.213
-604.142	-120.813	-0.295	0.050
-603.128	479.072	-0.037	-0.084
-602.113	208.530	-0.154	0.244
-601.098	-200.000	0.008	0.222
-600.084	-127.068	0.183	0.027
-599.069	18.772	0.032	-0.026
-598.055	-0.889	-0.139	0.099
-597.040	-200.000	0.333	-0.001
-596.025	-64.073	-0.171	0.071
-595.011	-134.616	0.094	0.012
-593.996	-200.000	-0.033	-0.234
-592.982	407.156	-0.125	0.267
-591.967	-72.223	0.347	0.130
-590.952	318.145	-0.155	-0.296
-589.938	183.129	0.035	0.053
-588.923	-150.171	-0.323	-0.025
-587.909	-200.000	-0.021	-0.230
-586.894	11.363	-0.157	0.121
-585.879	128.434	0.266	0.342
-584.865	-49.700	-0.203	-0.098
-583.850	637.876	-0.034	-0.086
-582.836	119.736	0.344	-0.431
-581.821	800.000	0.040	-0.157
-580.806	-6.171	0.275	0.190
-579.792	-157.036	-0.156	-0.010
-578.777	-31.317	0.225	-0.128
-577.763	-200.000	-0.032	-0.229
-576.748	-200.000	0.025	0.188
-575.733	299.510	0.086	0.159
-574.719	800.000	-0.149	0.518
-573.704	-200.000	-0.019	0.481
-572.690	-200.000	0.031	0.209
-571.675	-65.413	-0.360	0.146
-570.661	182.452	0.056	0.083
-569.646	-28.223	0.295	0.172
-568.631	-25.344	0.231	-0.138
-567.617	-149.326	-0.146	-0.012
-566.602	800.000	0.095	0.328
-565.588	-200.000	0.012	0.114
-564.573	-200.000	-0.042	-0.306
-563.558	-158.697	-0.489	-0.028
-562.544	-122.943	0.061	-0.010
-561.529	-200.000	-0.035	0.203
-560.515	37.151	0.263	0.235
-559.500	11.163	-0.311	0.240
-558.485	-200.000	-0.018	-0.352
-557.471	800.000	-0.044	0.156
-556.456	-148.179	0.196	-0.016
-555.442	-64.004	0.229	-0.095
-554.427	45.960	-0.235	-0.220
-553.412	-10.586	0.254	-0.170
-552.398	-200.000	-0.005	-0.088
-551.383	294.866	-0.015	-0.027
-550.369	-94.781	-0.227	0.062
-549.354	800.000	0.014	-0.040
-548.339	800.000	-0.054	-0.188
-547.325	-2.433	-0.209	-0.148
-546.310	756.744	-0.132	0.359
-545.296	94.363	0.120	0.138
-544.281	21.403	-0.077	0.063
-543.266	-49.874	-0.172	0.082
-542.252	-87.573	-0.122	0.037
-541.237	1.958	-0.055	-0.040
-540.223	-200.000	0.000	0.009
-539.208	346.851	0.112	-0.223
-538.193	-29.605	0.164	-0.094
-537.179	-31.040	0.199	0.113
-536.164	155.870	-0.168	-0.234
-535.150	-42.524	0.125	-0.064
-534.135	-170.755	-0.391	-0.014
-533.121	11.942	-0.144	0.111
-532.106	10.477	0.193	0.148
-531.091	-200.000	0.075	0.375
-530.077	-36.044	0.164	-0.089
-529.062	57.485	0.057	0.056
-528.048	-35.577	0.229	-0.125
-527.033	800.000	-0.047	-0.174
-526.018	601.156	-0.042	-0.105
-525.004	196.709	-0.249	0.383
-523.989	-111.161	-0.213	0.044
-522.975	39.512	0.144	-0.130
-521.960	-200.000	-0.035	0.296
-520.945	-20.179	-0.051	-0.032
-519.931	310.450	-0.037	0.069
-518.916	-89.652	0.333	0.098
-517.902	800.000	0.051	-0.175
-516.887	72.305	0.030	-0.032
-515.872	800.000	-0.107	0.303
-514.858	104.744	-0.135	0.161
-513.843	-199.886	0.337	0.002
-512.829	-200.000	0.024	0.257
-511.814	-23.960	0.200	0.121
-510.799	-6.920	-0.159	-0.109
-509.785	-89.454	0.396	-0.117
-508.770	-186.841	0.115	0.002
-507.756	-200.000	0.015	-0.076
-506.741	-200.000	0.010	-0.439
-505.726	-2.199	-0.155	-0.109
-504.712	221.038	0.061	-0.099
-503.697	-57.323	-0.160	-0.071
-502.683	-200.000	-0.004	0.220
-501.668	800.000	-0.045	0.188
-500.653	-88.688	-0.074	-0.022
-499.639	-200.000	-0.356	0.000
-498.624	105.050	0.034	-0.040
-497.610	246.885	-0.059	0.100
-496.595	-200.000	-0.003	-0.017
-495.581	386.297	-0.087	-0.181
-494.566	-51.929	0.160	0.075
-493.551	-200.000	-0.312	0.001
-492.537	800.000	0.032	-0.133
-491.522	-200.000	-0.016	-0.320
-490.508	-64.334	0.254	-0.104
-489.493	-9.603	-0.240	0.161
-488.478	800.000	-0.105	0.413
-487.464	25.293	-0.132	-0.111
-486.449	-200.000	-0.057	-0.313
-485.435	-73.615	0.175	0.064
-484.420	18.983	0.137	0.111
-483.405	-1.486	0.351	0.249
-482.391	-200.000	-0.028	0.142
-481.376	158.733	-0.088	-0.123
-480.362	800.000	-0.068	-0.281
-479.347	-165.140	-0.165	-0.007
-478.332	24.236	-0.090	0.075
-477.318	-189.624	0.313	-0.004
-476.303	800.000	-0.035	0.124
-475.289	-99.715	0.050	-0.013
-474.274	206.655	-0.066	0.104
-473.259	89.021	0.121	-0.135
-472.245	800.000	0.049	-0.210
-471.230	-21.839	0.247	-0.151
-470.216	684.637	-0.050	0.130
-469.201	-200.000	0.014	0.091
-468.186	-200.000	0.006	0.042
-467.172	-29.837	-0.289	-0.166
-466.157	-200.000	-0.011	-0.131
-465.143	-63.904	0.109	-0.045
-464.128	177.670	-0.112	-0.164
-463.113	39.112	0.177	-0.159
-462.099	332.329	-0.076	-0.147
-461.084	57.888	-0.058	0.057
-460.070	-28.909	-0.116	0.067
-459.055	-76.002	0.081	0.029
-458.040	-59.824	-0.066	-0.028
-457.026	-109.578	-0.044	-0.009
-456.011	-179.130	0.231	0.005
-454.997	-109.144	-0.263	0.056
-453.982	32.932	-0.255	0.222
-452.968	72.263	0.105	0.110
-451.953	-51.117	-0.198	-0.093
-450.938	-17.155	-0.377	0.239
-449.924	-65.601	0.057	0.023
-448.909	-200.000	0.005	-0.328
-447.895	131.295	0.124	0.160
-446.880	-189.690	0.161	-0.002
-445.865	-89.445	0.162	0.048
-444.851	608.409	-0.103	-0.257
-443.836	-200.000	-0.001	-0.145
-442.822	-62.948	-0.220	-0.092
-441.807	-135.771	0.010	0.001
-440.792	-200.000	0.054	0.271
-439.778	67.804	-0.242	0.249
-438.763	-20.651	-0.345	0.213
-437.749	-75.346	0.252	-0.090
-436.734	-112.489	-0.215	-0.043
-435.719	-89.478	0.284	-0.084
-434.705	-50.405	0.087	-0.041
-433.690	-40.914	-0.343	0.178
-432.676	127.003	0.120	0.153
-431.661	800.000	0.037	-0.121
-430.646	-130.994	0.053	0.007
-429.632	98.639	0.141	-0.163
-428.617	-200.000	0.016	0.261
-427.603	-79.129	0.144	0.049
-426.588	-106.476	-0.223	0.050
-425.573	70.158	0.268	-0.278
-424.559	426.788	0.096	0.209
-423.544	-15.668	0.078	0.050
-422.530	-159.880	0.273	-0.015
-421.515	125.271	-0.087	0.111
-420.500	58.414	0.180	-0.177
-419.486	151.317	0.087	-0.118
-418.471	44.799	0.040	0.037
-417.457	-16.167	-0.102	-0.065
-416.442	-92.683	0.046	-0.013
-415.428	-103.898	-0.301	-0.070
-414.413	800.000	-0.008	0.025
-413.398	-200.000	0.015	-0.154
-412.384	-83.543	-0.005	0.002
-411.369	-200.000	0.022	-0.146
-410.355	-4.942	0.117	-0.081
-409.340	132.668	-0.133	-0.172
-408.325	-109.744	-0.151	-0.032
-407.311	800.000	0.108	-0.379
-406.296	-11.097	0.028	0.019
-405.282	-200.000	-0.000	0.049
-404.267	422.176	0.141	0.303
-403.252	-52.191	0.202	-0.094
-402.238	-37.620	-0.342	-0.183
-401.223	287.172	-0.057	-0.103
-400.209	550.979	-0.090	-0.216
-399.194	-95.504	-0.105	0.028
-398.179	5.538	0.136	-0.101
-397.165	-20.310	0.260	-0.160
-396.150	-79.754	-0.178	0.060
-395.136	-200.000	0.021	-0.238
-394.121	-107.042	-0.188	-0.042
-393.106	800.000	-0.132	-0.392
-392.092	-150.835	0.245	-0.019
-391.077	-200.000	0.037	0.175
-390.063	-200.000	0.016	-0.120
-389.048	17.626	0.055	-0.044
-388.033	-74.771	0.110	0.040
-387.019	800.000	0.057	-0.193
-386.004	154.928	-0.134	-0.185
-384.990	-200.000	0.045	-0.281
-383.975	-113.870	0.353	0.069
-382.960	-34.872	-0.356	0.195
-381.946	-59.467	0.211	0.091
-380.931	-200.000	0.025	0.270
-379.917	-200.000	0.003	-0.173
-378.902	234.099	-0.083	0.137
-377.888	-200.000	0.027	0.219
-376.873	228.408	0.194	0.317
-375.858	12.078	-0.308	0.237
-374.844	-29.174	0.170	0.097
-373.829	39.648	0.128	-0.115
-372.815	800.000	0.040	0.119
-371.800	-200.000	-0.034	0.193
-370.785	36.169	0.106	0.093
-369.771	-90.837	0.154	0.045
-368.756	-200.000	0.020	-0.097
-367.742	-28.812	0.298	0.171
-366.727	243.069	0.106	-0.178
-365.712	-50.761	0.091	0.043
-364.698	165.016	-0.192	-0.271
-363.683	148.564	0.301	-0.407
-362.669	84.060	0.092	0.100
-361.654	-135.522	-0.060	-0.007
-360.639	-81.985	-0.032	-0.011
-359.625	29.378	0.140	-0.119
-358.610	197.572	-0.184	-0.282
-357.596	140.962	-0.070	0.093
-356.581	716.046	-0.144	0.383
-355.566	-119.774	-0.413	0.071
-354.552	-200.000	0.032	-0.228
-353.537	800.000	-0.040	0.144
-352.523	74.787	-0.204	-0.215
-351.508	4.531	-0.137	-0.101
-350.493	-127.349	-0.236	0.034
-349.479	-200.000	-0.003	0.189
-348.464	9.955	-0.199	0.151
-347.450	-36.145	0.209	-0.113
-346.435	657.148	-0.055	-0.141
-345.420	-93.963	-0.193	0.053
-344.406	653.852	-0.048	0.123
-343.391	136.974	-0.178	-0.232
-342.377	800.000	-0.076	-0.290
-341.362	235.701	-0.084	-0.139
-340.348	-113.661	-0.005	-0.001
-339.333	-200.000	-0.002	0.155
-338.318	-200.000	0.010	-0.054
-337.304	-26.061	-0.178	-0.105
-336.289	381.240	0.115	-0.235
-335.275	245.567	0.067	-0.114
-334.260	-42.572	0.049	-0.025
-333.245	-151.749	-0.066	0.005
-332.231	-200.000	-0.008	0.205
-331.216	-200.000	0.032	0.196
-330.202	-146.925	-0.073	-0.006
-329.187	266.970	-0.070	-0.122
-328.172	-50.824	0.191	-0.090
-327.158	-29.173	0.265	-0.152
-326.143	-200.000	0.113	0.000
-325.129	-26.515	-0.261	-0.153
-324.114	294.554	0.042	0.077
-323.099	-85.904	-0.318	-0.098
-322.085	-85.027	-0.263	0.082
-321.070	104.989	-0.184	0.217
-320.056	-19.106	-0.137	-0.085
-319.041	-113.915	0.236	-0.046
-318.026	32.487	-0.096	0.083
-317.012	138.120	0.166	-0.217
-315.997	-200.000	0.016	-0.079
-314.983	732.895	-0.064	0.170
-313.968	781.015	0.127	0.349
-312.953	528.483	-0.149	0.351
-311.939	800.000	0.091	0.266
-310.924	800.000	0.083	0.252
-309.910	800.000	-0.005	0.018
-308.895	24.572	-0.148	-0.122
-307.880	-200.000	0.016	-0.325
-306.866	61.687	-0.204	0.203
-305.851	-53.660	0.131	0.060
-304.837	-47.935	-0.071	0.034
-303.822	243.271	-0.077	-0.129
-302.807	275.517	0.047	0.083
-301.793	121.311	-0.241	0.300
-300.778	142.522	0.120	-0.159
-299.764	-118.671	-0.169	0.030
-298.749	99.383	-0.075	0.087
-297.735	95.466	-0.210	-0.239
-296.720	800.000	0.086	-0.238
-295.705	-194.905	0.232	-0.002
-294.691	-138.505	0.171	0.019
-293.676	-5.419	-0.117	-0.080
-292.662	-154.525	-0.106	-0.007
-291.647	119.448	0.152	-0.188
-290.632	554.567	0.015	-0.036
-289.618	-113.508	0.413	0.081
-288.603	52.291	-0.141	-0.134
-287.589	689.923	0.147	0.384
-286.574	-142.698	-0.335	-0.033
-285.559	120.901	0.075	0.093
-284.545	-200.000	0.080	0.377
-283.530	352.487	-0.108	0.214
-282.516	-27.095	0.077	-0.045
-281.501	-19.534	-0.167	0.103
-280.486	129.252	0.152	0.194
-279.472	-48.594	0.206	0.099
-278.457	97.883	0.128	0.147
-277.443	800.000	0.012	0.039
-276.428	-200.000	-0.006	0.165
-275.413	136.256	-0.181	-0.236
-274.399	37.654	-0.267	-0.236
-273.384	-70.250	0.018	-0.007
-272.370	155.817	0.184	0.253
-271.355	328.116	-0.042	-0.081
-270.340	800.000	-0.111	0.340
-269.326	-200.000	0.060	0.269
-268.311	-155.823	0.071	-0.005
-267.297	-200.000	0.052	0.282
-266.282	-200.000	0.002	0.253
-265.267	169.948	-0.111	0.159
-264.253	-94.994	-0.494	-0.133
-263.238	590.066	-0.101	-0.247
-262.224	-103.982	0.439	0.102
-261.209	-107.956	-0.382	0.083
-260.195	-49.715	0.222	0.105
-259.180	42.515	0.198	-0.180
-258.165	-200.000	-0.006	0.184
-257.151	800.000	-0.048	0.169
-256.136	13.473	0.092	-0.071
-255.122	-6.920	-0.130	0.088
-254.107	-122.687	0.087	0.014
-253.092	316.711	0.089	0.168
-252.078	767.415	-0.043	-0.116
-251.063	800.000	0.035	0.100
-250.049	-200.000	-0.069	-0.453
-249.034	-114.503	0.367	-0.070
-248.019	-200.000	0.050	-0.438
-247.005	11.668	0.048	-0.037
-245.990	-200.000	0.026	-0.277
-244.976	-119.238	0.019	-0.003
-243.961	800.000	0.092	-0.390
-242.946	-162.727	0.337	-0.016
-241.932	-11.926	-0.255	-0.166
-240.917	-60.468	0.237	-0.101
-239.903	79.879	0.135	-0.144
-238.888	16.586	-0.281	0.221
-237.873	415.229	0.131	-0.278
-236.859	-200.000	0.005	-0.080
-235.844	-200.000	0.018	0.185
-234.830	-200.000	-0.004	0.089
-233.815	243.087	0.095	0.158
-232.800	-158.390	0.218	0.013
-231.786	-200.000	0.051	0.323
-230.771	-21.358	0.166	-0.101
-229.757	2.604	0.166	0.120
-228.742	-118.278	-0.209	-0.037
-227.727	-200.000	-0.011	-0.132
-226.713	800.000	0.019	0.074
-225.698	351.781	0.173	0.342
-224.684	49.509	0.247	-0.231
-223.669	186.986	0.078	0.116
-222.655	-48.083	0.177	-0.085
-221.640	800.000	-0.042	-0.176
-220.625	-80.177	-0.355	-0.118
-219.611	-166.668	0.224	0.009
-218.596	-200.000	-0.003	-0.343
-217.582	-55.192	-0.136	-0.061
-216.567	178.011	0.062	0.090
-215.552	-104.880	0.089	-0.020
-214.538	142.517	-0.076	-0.101
-213.523	800.000	0.036	0.115
-212.509	-128.759	0.013	-0.002
-211.494	549.722	-0.069	0.166
-210.479	-146.558	-0.113	-0.010
-209.465	800.000	-0.092	-0.363
-208.450	-77.215	0.206	0.071
-207.436	-83.652	-0.226	-0.072
-206.421	-43.894	0.321	0.161
-205.406	-200.000	0.058	-0.254
-204.392	307.672	0.263	-0.488
-203.377	-8.655	-0.298	-0.199
-202.363	8.001	-0.205	0.153
-201.348	25.544	0.069	-0.057
-200.333	1.649	0.361	-0.259
-199.319	-96.694	-0.333	0.087
-198.304	800.000	-0.011	-0.038
-197.290	-87.022	0.188	0.057
-196.275	-13.848	0.062	-0.040
-195.260	-30.678	0.251	-0.141
-194.246	-200.000	0.033	0.265
-193.231	708.846	-0.035	0.092
-192.217	-200.000	-0.026	0.492
-191.202	-75.820	-0.169	0.060
-190.187	32.195	-0.059	-0.050
-189.173	-24.534	0.194	-0.115
-188.158	95.566	-0.057	-0.065
-187.144	667.867	0.236	0.608
-186.129	-24.761	0.059	0.035
-185.114	1.569	0.151	-0.108
-184.100	196.631	0.158	-0.239
-183.085	-200.000	-0.007	0.186
-182.071	800.000	-0.066	0.236
-181.056	447.252	0.150	-0.328
-180.042	-200.000	0.024	-0.384
-179.027	-200.000	0.070	0.364
-178.012	-200.000	0.035	-0.300
-176.998	-200.000	-0.029	0.198
-175.983	308.635	0.054	-0.101
-174.969	-157.716	-0.192	-0.011
-173.954	119.465	-0.069	0.085
-172.939	766.472	0.058	-0.158
-171.925	563.436	-0.042	0.101
-170.910	1.277	0.104	-0.074
-169.896	348.815	-0.070	0.136
-168.881	180.238	0.176	-0.256
-167.866	292.887	-0.074	0.135
-166.852	119.761	-0.132	-0.163
-165.837	154.096	0.078	-0.106
-164.823	6.822	0.305	0.226
-163.808	263.833	0.199	0.345
-162.793	-200.000	-0.009	0.248
-161.779	800.000	0.068	0.252
-160.764	244.518	0.300	0.500
-159.750	-90.246	-0.224	0.065
-158.735	-88.240	-0.076	-0.023
-157.720	-80.706	-0.168	0.056
-156.706	234.551	0.064	0.105
-155.691	-200.000	-0.001	-0.231
-154.677	-200.000	0.024	-0.182
-153.662	-85.873	-0.438	0.135
-152.647	430.190	0.119	-0.257
-151.633	-121.477	0.105	-0.017
-150.618	-128.707	-0.247	-0.035
-149.604	243.497	-0.165	-0.275
-148.589	-92.409	0.195	0.054
-147.574	-200.000	-0.006	0.430
-146.560	-200.000	-0.000	0.047
-145.545	-200.000	0.012	0.101
-144.531	73.229	0.140	-0.146
-143.516	21.270	0.214	0.172
-142.502	-129.828	-0.086	-0.012
-141.487	-200.000	0.024	-0.153
-140.472	347.846	0.064	0.125
-139.458	50.867	-0.050	-0.047
-138.443	458.934	-0.077	-0.170
-137.429	-100.451	-0.219	-0.054
-136.414	343.602	-0.036	-0.069
-135.399	113.172	-0.126	0.151
-134.385	-131.688	-0.147	0.019
-133.370	14.440	0.307	-0.238
-132.356	-150.633	0.122	-0.009
-131.341	-52.917	0.199	-0.091
-130.326	46.009	0.238	0.218
-129.312	-123.320	-0.400	-0.063
-128.297	457.100	0.100	-0.220
-127.283	286.784	0.103	0.184
-126.268	89.114	-0.042	0.046
-125.253	-71.994	0.306	-0.113
-124.239	800.000	-0.076	0.210
-123.224	-37.827	-0.184	0.097
-122.210	140.090	0.252	0.329
