DTS Sentinel unit serial number:	SN413079Multiplexer serial number:	ORYXHardware model number:	OX4-SRSoftware version number:	ORYX F/W v4.00 Oryx Data Collector v3.7.2.0data status	okinstallation	princeton_trtdifferential loss correction	single-endedforward channel	channel 4reverse channel	N/Adate	2019/09/11time	15:19:11forward acquisition time	60.00reverse acquisition time	0.00gamma	496.2192k internal	0.2278k external	0.2278temperature offset calibration	1.0016default loss term (dB/km)	0.3790temperature slope calibration	1.0000multiplexer offset coefficient	1.0000multiplexer slope coefficient	1.0000fibre end	0.00T internal ref (°C)	42.89T ext. ref 1 (°C)	0.99T ext. ref 2 (°C)	35.55length (m)	temperature (°C)	Stokes	anti-Stokes-747.200	47.831	-0.178	-0.171
-746.185	44.435	-0.141	0.134
-745.171	-200.000	-0.005	0.111
-744.156	-200.000	0.058	0.354
-743.142	40.370	-0.112	0.103
-742.127	-38.048	0.185	0.101
-741.112	-200.000	0.041	0.411
-740.098	-2.794	0.087	-0.063
-739.083	-72.916	0.032	0.012
-738.069	353.066	-0.092	0.187
-737.054	-51.756	0.366	0.176
-736.039	800.000	0.053	-0.225
-735.025	-28.601	-0.158	0.093
-734.010	-28.610	0.187	0.111
-732.996	74.479	0.186	-0.201
-731.981	141.864	0.147	-0.200
-730.966	1.371	-0.110	-0.081
-729.952	-101.730	0.222	-0.055
-728.937	-56.057	-0.156	-0.071
-727.923	-200.000	0.057	-0.348
-726.908	209.021	0.210	-0.338
-725.894	70.480	-0.220	-0.234
-724.879	146.763	0.062	0.086
-723.864	18.263	0.187	-0.153
-722.850	301.768	-0.104	-0.199
-721.835	-87.694	-0.425	0.132
-720.821	-15.400	0.245	-0.161
-719.806	383.892	-0.062	0.131
-718.791	-77.450	0.078	-0.028
-717.777	31.767	0.199	0.176
-716.762	91.031	0.164	-0.189
-715.748	604.562	-0.064	-0.164
-714.733	-200.000	0.002	0.337
-713.718	-200.000	-0.001	-0.177
-712.704	-200.000	-0.029	-0.484
-711.689	800.000	-0.093	0.326
-710.675	335.455	0.093	0.186
-709.660	260.011	-0.109	0.193
-708.645	-113.106	-0.212	0.043
-707.631	-113.590	0.286	0.058
-706.616	143.143	0.158	-0.216
-705.602	-138.851	-0.108	0.012
-704.587	46.947	-0.209	-0.200
-703.572	26.759	-0.285	-0.245
-702.558	-200.000	-0.027	-0.304
-701.543	764.816	-0.106	0.295
-700.529	800.000	-0.054	-0.160
-699.514	545.057	0.060	0.148
-698.499	-116.275	0.187	0.036
-697.485	33.892	0.072	-0.065
-696.470	4.049	0.143	0.107
-695.456	427.389	0.043	-0.096
-694.441	-200.000	-0.008	-0.171
-693.426	149.588	-0.130	-0.181
-692.412	148.959	0.125	-0.173
-691.397	-200.000	-0.049	-0.247
-690.383	-77.955	0.316	-0.112
-689.368	-142.006	0.179	0.018
-688.354	130.722	-0.180	0.237
-687.339	583.740	-0.070	-0.176
-686.324	-179.320	-0.274	-0.006
-685.310	800.000	0.045	-0.189
-684.295	-159.308	-0.347	0.020
-683.281	192.064	-0.120	0.186
-682.266	300.363	-0.020	0.038
-681.251	-165.415	-0.258	-0.012
-680.237	546.417	-0.121	-0.296
-679.222	344.507	0.106	0.214
-678.208	409.448	-0.145	-0.315
-677.193	800.000	0.012	-0.047
-676.178	648.892	-0.055	-0.144
-675.164	-89.937	0.258	0.077
-674.149	2.722	0.201	-0.149
-673.135	-39.774	0.111	-0.059
-672.120	117.968	-0.185	0.234
-671.105	548.413	0.051	-0.127
-670.091	430.692	-0.040	-0.088
-669.076	-200.000	0.013	0.063
-668.062	-37.917	-0.262	-0.143
-667.047	800.000	0.145	-0.429
-666.032	-47.068	0.092	-0.046
-665.018	1.843	-0.159	0.118
-664.003	-200.000	-0.026	0.196
-662.989	-7.732	-0.334	0.231
-661.974	-118.127	-0.234	-0.043
-660.959	492.093	0.053	-0.125
-659.945	-105.448	-0.346	0.081
-658.930	800.000	-0.060	0.229
-657.916	679.645	-0.071	0.190
-656.901	-76.803	-0.139	-0.050
-655.886	-59.298	-0.158	-0.070
-654.872	-38.713	0.030	-0.016
-653.857	800.000	0.040	-0.167
-652.843	308.296	-0.169	0.323
-651.828	255.107	-0.029	0.052
-650.814	800.000	-0.171	-0.521
-649.799	800.000	-0.020	-0.079
-648.784	-7.724	-0.098	0.068
-647.770	-147.057	0.255	-0.022
-646.755	-118.715	-0.348	0.063
-645.741	50.299	-0.247	0.239
-644.726	362.789	0.077	0.159
-643.711	286.784	-0.138	0.256
-642.697	123.635	-0.103	0.132
-641.682	-113.433	-0.155	0.031
-640.668	-62.847	0.036	0.015
-639.653	711.604	0.033	0.088
-638.638	-200.000	-0.044	0.405
-637.624	249.355	-0.083	0.144
-636.609	49.524	0.197	0.190
-635.595	273.745	-0.141	0.255
-634.580	-25.763	-0.274	0.165
-633.565	-72.877	0.140	-0.053
-632.551	161.149	-0.049	-0.070
-631.536	762.140	0.196	-0.544
-630.522	-200.000	-0.004	-0.135
-629.507	-96.740	-0.060	-0.016
-628.492	-57.336	-0.100	0.045
-627.478	800.000	-0.073	0.227
-626.463	-57.979	0.205	0.092
-625.449	7.157	0.149	-0.114
-624.434	115.941	-0.207	-0.260
-623.419	-200.000	0.049	0.361
-622.405	-54.726	0.077	0.036
-621.390	-1.450	0.073	-0.053
-620.376	-200.000	0.010	0.355
-619.361	355.596	0.008	0.017
-618.346	800.000	0.066	-0.197
-617.332	-90.801	0.203	-0.060
-616.317	-108.051	0.055	0.012
-615.303	-84.398	-0.273	-0.088
-614.288	-200.000	-0.011	0.429
-613.273	-25.388	0.090	-0.054
-612.259	-33.884	0.087	0.049
-611.244	800.000	-0.042	0.122
-610.230	148.495	-0.082	0.113
-609.215	13.761	-0.166	0.132
-608.201	-200.000	0.032	0.295
-607.186	-96.737	0.340	-0.092
-606.171	-13.486	-0.345	-0.229
-605.157	229.049	0.055	0.091
-604.142	49.157	-0.085	0.082
-603.128	-26.428	0.362	0.218
-602.113	-101.873	-0.133	0.033
-601.098	30.163	0.257	-0.224
-600.084	129.744	-0.111	0.145
-599.069	396.204	0.048	0.102
-598.055	-46.357	0.236	-0.119
-597.040	46.174	-0.256	-0.243
-596.025	26.642	0.071	-0.061
-595.011	-200.000	0.008	-0.132
-593.996	233.310	0.106	0.178
-592.982	-48.383	-0.065	-0.032
-591.967	0.894	-0.344	0.252
-590.952	126.331	0.228	-0.295
-589.938	-200.000	-0.015	-0.165
-588.923	-55.796	0.302	0.138
-587.909	-200.000	-0.002	-0.020
-586.894	-132.059	-0.404	0.054
-585.879	-91.266	-0.169	-0.050
-584.865	-48.583	0.112	0.055
-583.850	-117.757	0.114	0.021
-582.836	-66.551	-0.301	-0.122
-581.821	140.669	-0.079	0.106
-580.806	41.447	-0.042	0.039
-579.792	112.902	-0.057	-0.071
-578.777	-131.503	-0.453	0.061
-577.763	-200.000	-0.035	0.178
-576.748	-69.885	0.141	-0.055
-575.733	-9.610	0.253	-0.172
-574.719	800.000	0.043	-0.180
-573.704	95.803	0.007	0.008
-572.690	350.283	-0.072	0.145
-571.675	-72.983	0.257	-0.096
-570.661	-134.859	-0.197	-0.024
-569.646	52.932	0.284	-0.278
-568.631	481.129	0.076	-0.177
-567.617	76.313	0.179	-0.194
-566.602	146.199	0.070	-0.097
-565.588	-14.477	0.226	0.149
-564.573	-200.000	0.014	0.246
-563.558	-19.609	-0.110	0.070
-562.544	30.884	-0.167	-0.146
-561.529	100.394	-0.121	0.143
-560.515	-55.187	-0.087	0.040
-559.500	-168.471	-0.369	0.014
-558.485	-175.953	0.322	-0.009
-557.471	-32.126	-0.337	0.193
-556.456	-145.265	-0.114	0.011
-555.442	62.493	0.248	-0.254
-554.427	-55.019	0.069	-0.032
-553.412	362.136	0.082	0.168
-552.398	25.429	0.392	-0.333
-551.383	-200.000	-0.006	0.323
-550.369	96.970	-0.342	-0.401
-549.354	-200.000	0.004	-0.291
-548.339	-107.866	0.287	-0.064
-547.325	-79.439	-0.128	0.044
-546.310	-54.796	-0.196	0.090
-545.296	-163.011	0.399	-0.020
-544.281	-123.780	0.164	0.026
-543.266	-200.000	0.015	0.325
-542.252	-200.000	0.022	0.174
-541.237	322.919	0.012	-0.023
-540.223	-200.000	-0.182	0.000
-539.208	62.304	0.102	-0.104
-538.193	-93.575	0.127	0.036
-537.179	-200.000	0.027	-0.173
-536.164	800.000	0.105	0.349
-535.150	179.861	0.090	0.134
-534.135	-200.000	0.026	0.306
-533.121	-113.835	-0.264	0.053
-532.106	236.920	-0.038	0.064
-531.091	-200.000	0.022	-0.321
-530.077	-200.000	-0.039	-0.256
-529.062	363.277	-0.028	-0.058
-528.048	-200.000	-0.090	-0.490
-527.033	-200.000	0.018	-0.161
-526.018	-200.000	-0.019	0.121
-525.004	-34.008	0.073	-0.041
-523.989	-126.839	0.139	-0.021
-522.975	-115.318	0.251	0.048
-521.960	-68.117	0.146	-0.058
-520.945	-79.614	0.125	0.043
-519.931	-47.673	-0.217	-0.108
-518.916	-26.703	0.149	0.089
-517.902	-88.253	0.280	0.086
-516.887	800.000	0.094	-0.351
-515.872	-154.084	-0.325	-0.023
-514.858	800.000	0.024	0.099
-513.843	-66.694	-0.241	0.097
-512.829	173.284	-0.094	0.138
-511.814	164.129	0.054	-0.077
-510.799	-61.813	0.192	0.082
-509.785	-153.957	-0.215	0.015
-508.770	-200.000	-0.031	-0.379
-507.756	800.000	-0.041	-0.147
-506.741	-78.774	-0.200	0.070
-505.726	-41.426	0.306	0.160
-504.712	-145.225	0.047	0.004
-503.697	-200.000	-0.007	0.170
-502.683	-178.985	0.242	0.006
-501.668	-33.522	0.188	0.106
-500.653	-131.158	0.131	0.018
-499.639	782.813	0.113	-0.316
-498.624	-109.306	-0.379	-0.082
-497.610	-200.000	-0.012	0.113
-496.595	-51.169	0.195	-0.093
-495.581	-25.466	-0.043	-0.026
-494.566	-3.844	-0.097	0.068
-493.551	-93.236	-0.523	-0.148
-492.537	536.741	-0.125	-0.303
-491.522	-87.073	-0.403	-0.125
-490.508	128.159	0.044	0.057
-489.493	128.265	-0.199	0.259
-488.478	147.376	-0.122	0.167
-487.464	-66.074	-0.106	-0.043
-486.449	22.847	0.186	-0.155
-485.435	29.681	-0.341	0.296
-484.420	-200.000	0.005	0.026
-483.405	-187.432	0.055	-0.001
-482.391	-42.384	0.055	-0.029
-481.376	189.997	-0.161	0.246
-480.362	-38.408	0.028	-0.015
-479.347	800.000	-0.076	0.297
-478.332	-124.513	0.322	-0.051
-477.318	800.000	0.052	-0.160
-476.303	-90.695	0.161	-0.047
-475.289	-16.466	-0.344	-0.222
-474.274	-200.000	0.002	-0.239
-473.259	800.000	0.073	-0.236
-472.245	-78.830	0.149	0.052
-471.230	-200.000	-0.014	0.482
-470.216	75.257	-0.063	0.067
-469.201	77.486	0.167	-0.182
-468.186	540.423	0.097	-0.234
-467.172	-18.332	0.280	-0.178
-466.157	-21.781	-0.266	0.165
-465.143	90.308	-0.066	0.075
-464.128	-120.007	0.279	-0.049
-463.113	-40.085	0.272	-0.144
-462.099	166.046	0.322	0.464
-461.084	-110.717	0.436	0.092
-460.070	600.983	0.034	0.085
-459.055	12.757	-0.118	-0.093
-458.040	-200.000	-0.013	-0.447
-457.026	-47.525	-0.171	0.085
-456.011	-15.205	-0.314	0.205
-454.997	-128.868	0.384	-0.055
-453.982	696.693	-0.077	0.206
-452.968	-69.280	-0.357	0.140
-451.953	-135.197	0.065	0.008
-450.938	26.490	0.182	0.155
-449.924	72.470	0.270	0.287
-448.909	113.447	0.094	-0.116
-447.895	800.000	-0.051	-0.171
-446.880	280.011	0.060	0.110
-445.865	19.258	0.280	0.228
-444.851	-66.715	-0.175	-0.070
-443.836	800.000	0.085	-0.377
-442.822	-30.124	-0.274	-0.158
-441.807	-121.079	0.170	-0.029
-440.792	-112.370	0.305	-0.062
-439.778	128.045	0.133	0.172
-438.763	-5.657	-0.387	-0.270
-437.749	-200.000	-0.001	0.067
-436.734	-79.311	-0.079	-0.027
-435.719	-29.063	-0.109	-0.064
-434.705	-61.405	-0.254	0.109
-433.690	-171.440	0.146	-0.005
-432.676	-123.507	-0.105	-0.017
-431.661	570.144	-0.092	-0.227
-430.646	800.000	-0.125	0.493
-429.632	800.000	0.074	0.323
-428.617	-200.000	0.100	-0.500
-427.603	800.000	-0.043	0.157
-426.588	-17.741	-0.124	0.079
-425.573	338.788	-0.253	-0.500
-424.559	-200.000	-0.026	0.179
-423.544	-1.657	-0.274	0.197
-422.530	66.029	-0.416	-0.429
-421.515	-2.491	-0.200	-0.142
-420.500	-200.000	-0.046	-0.458
-419.486	84.129	-0.160	-0.178
-418.471	-52.270	-0.252	-0.119
-417.457	800.000	0.003	0.008
-416.442	800.000	-0.019	0.063
-415.428	-12.000	0.260	0.173
-414.413	800.000	0.054	-0.188
-413.398	-40.878	-0.050	-0.026
-412.384	147.202	-0.296	-0.405
-411.369	-200.000	0.017	-0.272
-410.355	255.248	-0.098	0.171
-409.340	-23.378	-0.171	-0.104
-408.325	-200.000	-0.008	0.073
-407.311	800.000	-0.022	0.072
-406.296	-37.146	-0.123	0.067
-405.282	389.726	0.164	0.346
-404.267	800.000	-0.068	0.221
-403.252	-110.772	0.681	-0.143
-402.238	-139.258	-0.122	0.013
-401.223	-116.725	-0.160	-0.030
-400.209	-111.423	-0.119	-0.025
-399.194	-120.787	-0.153	0.026
-398.179	116.460	-0.125	0.155
-397.165	86.034	0.071	-0.079
-396.150	-200.000	-0.025	0.225
-395.136	-138.655	0.346	0.038
-394.121	-63.980	-0.191	0.079
-393.106	383.090	0.144	0.301
-392.092	305.095	0.155	-0.293
-391.077	-58.349	0.237	-0.105
-390.063	739.392	-0.060	0.163
-389.048	235.416	-0.172	0.288
-388.033	-74.914	0.346	0.126
-387.019	-5.591	-0.033	-0.023
-386.004	26.321	-0.170	0.145
-384.990	76.832	0.101	0.108
-383.975	97.498	-0.263	0.307
-382.960	-37.813	0.113	0.061
-381.946	-131.018	-0.370	0.050
-380.931	800.000	0.123	0.507
-379.917	-4.261	0.098	0.069
-378.902	-200.000	0.010	0.195
-377.888	71.158	-0.208	0.219
-376.873	73.404	-0.380	-0.404
-375.858	-104.960	0.113	-0.026
-374.844	27.783	-0.168	0.144
-373.829	-87.236	0.215	0.066
-372.815	-149.132	-0.134	0.011
-371.800	-9.214	0.226	0.153
-370.785	-84.583	0.185	0.059
-369.771	800.000	-0.077	0.276
-368.756	-200.000	-0.000	0.206
-367.742	184.818	0.150	0.225
-366.727	-97.256	0.185	-0.049
-365.712	-16.662	0.239	0.153
-364.698	800.000	-0.046	0.178
-363.683	-200.000	0.002	0.108
-362.669	159.400	0.158	-0.223
-361.654	329.549	0.142	-0.277
-360.639	219.627	-0.057	0.092
-359.625	550.347	-0.058	0.142
-358.610	-163.540	0.417	-0.020
-357.596	-98.130	0.317	-0.083
-356.581	-60.948	0.329	-0.141
-355.566	-74.113	0.282	-0.104
-354.552	184.974	0.151	0.227
-353.537	187.171	0.064	-0.097
-352.523	-23.437	0.309	-0.188
-351.508	101.814	0.202	-0.239
-350.493	99.440	0.119	-0.140
-349.479	62.609	-0.031	0.031
-348.464	-200.000	0.003	0.051
-347.450	-161.409	-0.060	-0.003
-346.435	-170.562	-0.112	0.004
-345.420	-200.000	-0.015	-0.386
-344.406	-112.628	-0.057	-0.011
-343.391	-200.000	-0.005	0.139
-342.377	800.000	-0.082	-0.282
-341.362	-166.093	0.020	0.001
-340.348	165.775	-0.017	0.025
-339.333	-200.000	-0.003	-0.018
-338.318	-113.215	0.230	0.046
-337.304	113.354	0.229	-0.282
-336.289	800.000	-0.021	-0.073
-335.275	800.000	0.087	0.250
-334.260	800.000	-0.042	-0.173
-333.245	-93.375	0.309	-0.087
-332.231	115.327	0.129	-0.159
-331.216	800.000	-0.035	-0.140
-330.202	-100.940	-0.154	-0.038
-329.187	800.000	-0.039	-0.132
-328.172	178.672	-0.150	-0.222
-327.158	-62.347	-0.135	-0.057
-326.143	800.000	0.043	-0.155
-325.129	288.939	0.233	-0.429
-324.114	-200.000	0.030	0.172
-323.099	-90.257	0.053	-0.016
-322.085	17.718	0.148	-0.119
-321.070	17.299	0.100	0.080
-320.056	707.446	0.043	-0.116
-319.041	229.963	-0.135	0.224
-318.026	-73.029	-0.199	-0.074
-317.012	66.607	0.163	0.168
-315.997	379.978	0.043	0.090
-314.983	-200.000	0.012	-0.057
-313.968	-130.473	-0.301	-0.041
-312.953	637.164	-0.076	-0.196
-311.939	-8.987	-0.103	-0.070
-310.924	800.000	0.082	0.244
-309.910	-200.000	0.036	-0.270
-308.895	-200.000	-0.030	-0.226
-307.880	2.407	-0.314	0.230
-306.866	-122.038	0.264	0.044
-305.851	19.267	-0.149	-0.121
-304.837	-200.000	0.043	-0.213
-303.822	-200.000	0.002	-0.287
-302.807	63.130	-0.136	0.138
-301.793	-20.406	0.231	-0.144
-300.778	-199.867	-0.118	-0.001
-299.764	800.000	-0.050	-0.142
-298.749	800.000	0.017	-0.074
-297.735	-37.309	0.083	0.045
-296.720	19.462	-0.215	0.175
-295.705	-200.000	0.030	0.224
-294.691	-16.180	0.024	-0.015
-293.676	57.820	0.061	0.060
-292.662	184.281	-0.235	0.353
-291.647	-13.468	-0.330	-0.217
-290.632	61.953	0.037	0.037
-289.618	198.325	-0.135	-0.209
-288.603	15.533	-0.201	0.159
-287.589	22.276	0.240	0.198
-286.574	-200.000	0.004	-0.084
-285.559	-75.723	0.542	-0.195
-284.545	179.701	-0.118	0.174
-283.530	-16.972	0.087	-0.056
-282.516	-115.006	0.361	-0.069
-281.501	-200.000	-0.031	-0.296
-280.486	800.000	-0.062	-0.230
-279.472	-70.888	-0.279	0.106
-278.457	-7.398	-0.202	-0.138
-277.443	-200.000	-0.019	0.191
-276.428	-200.000	-0.015	-0.143
-275.413	35.101	-0.184	-0.163
-274.399	800.000	0.068	0.278
-273.384	42.566	-0.279	0.256
-272.370	800.000	-0.047	-0.197
-271.355	-97.774	-0.328	-0.086
-270.340	-166.607	0.092	-0.004
-269.326	108.672	-0.191	-0.230
-268.311	-123.825	0.286	-0.046
-267.297	98.344	-0.317	0.369
-266.282	72.775	0.059	0.063
-265.267	595.674	0.087	-0.218
-264.253	-44.490	-0.040	-0.020
-263.238	800.000	-0.055	0.158
-262.224	45.481	-0.287	-0.268
-261.209	40.291	0.052	0.048
-260.195	172.836	-0.265	-0.386
-259.180	-100.529	-0.178	0.044
-258.165	-169.139	0.146	-0.005
-257.151	-19.186	0.380	0.239
-256.136	800.000	0.061	0.231
-255.122	800.000	-0.008	0.033
-254.107	-200.000	-0.002	0.047
-253.092	107.894	-0.071	-0.085
-252.078	161.459	0.210	0.297
-251.063	262.539	0.232	-0.406
-250.049	74.832	-0.084	0.089
-249.034	-70.587	-0.286	-0.109
-248.019	53.562	0.066	-0.064
-247.005	54.567	0.280	0.273
-245.990	-134.660	0.269	-0.033
-244.976	221.566	-0.165	-0.267
-243.961	-6.643	-0.156	-0.108
-242.946	45.914	0.176	-0.165
-241.932	-126.090	-0.238	0.036
-240.917	-58.868	0.228	0.100
-239.903	438.776	0.087	0.191
-238.888	316.905	0.066	-0.127
-237.873	-70.740	-0.067	0.025
-236.859	-65.393	-0.351	-0.142
-235.844	275.168	-0.088	0.158
-234.830	-200.000	0.006	0.132
-233.815	-22.143	-0.128	0.078
-232.800	-150.166	-0.082	-0.006
-231.786	800.000	0.047	-0.169
-230.771	800.000	0.066	0.215
-229.757	-47.906	0.103	0.050
-228.742	115.172	-0.194	-0.239
-227.727	800.000	0.097	-0.374
-226.713	-2.126	-0.322	-0.228
-225.698	282.000	0.057	0.103
-224.684	-54.197	0.086	0.040
-223.669	-200.000	0.017	0.101
-222.655	78.482	-0.076	-0.082
-221.640	-177.231	0.343	-0.009
-220.625	-104.055	-0.080	0.019
-219.611	-79.738	0.330	-0.112
-218.596	-196.641	-0.206	-0.001
-217.582	136.663	0.255	0.336
-216.567	-103.640	-0.080	-0.019
-215.552	18.506	0.175	0.141
-214.538	-97.685	-0.387	0.101
-213.523	-200.000	0.004	-0.087
-212.509	-97.538	0.049	0.013
-211.494	800.000	-0.047	0.208
-210.479	-200.000	-0.026	-0.276
-209.465	-200.000	0.021	0.265
-208.450	-169.291	0.253	0.009
-207.436	-64.648	0.028	-0.012
-206.421	141.797	-0.021	-0.028
-205.406	-88.502	-0.130	0.039
-204.392	75.811	-0.208	0.222
-203.377	-76.918	0.195	-0.069
-202.363	-200.000	0.027	0.170
-201.348	-29.108	-0.112	0.065
-200.333	-200.000	0.026	-0.237
-199.319	-101.736	0.296	-0.072
-198.304	-155.895	0.048	0.003
-197.290	63.598	-0.086	-0.087
-196.275	800.000	-0.041	0.121
-195.260	-200.000	-0.001	-0.178
-194.246	-200.000	0.037	0.365
-193.231	-91.490	-0.131	0.038
-192.217	-200.000	-0.027	-0.133
-191.202	-154.061	0.024	0.002
-190.187	-38.358	0.217	-0.116
-189.173	-200.000	0.061	-0.272
-188.158	-178.035	0.214	0.005
-187.144	-200.000	0.003	-0.169
-186.129	577.596	0.101	0.249
-185.114	-150.267	0.382	0.030
-184.100	-71.522	0.062	0.023
-183.085	43.078	0.258	0.237
-182.071	305.791	-0.188	0.352
-181.056	87.010	-0.094	-0.105
-180.042	-85.935	-0.274	0.085
-179.027	224.883	0.111	0.181
-178.012	-55.258	0.144	0.065
-176.998	83.686	-0.219	-0.241
-175.983	558.515	0.047	-0.114
-174.969	-132.828	-0.166	0.021
-173.954	-67.128	-0.053	-0.021
-172.939	-109.371	0.244	0.052
-171.925	-200.000	0.028	-0.263
-170.910	171.126	0.105	-0.152
-169.896	-191.011	-0.108	0.001
-168.881	-43.230	-0.183	-0.093
-167.866	492.010	-0.151	-0.349
-166.852	-200.000	0.020	-0.307
-165.837	-11.064	-0.208	0.138
-164.823	-200.000	0.100	0.538
-163.808	-102.405	-0.221	0.053
-162.793	-154.227	-0.113	0.008
-161.779	455.838	-0.057	-0.128
-160.764	-31.396	0.215	-0.122
-159.750	165.448	0.134	-0.190
-158.735	363.393	-0.025	-0.051
-157.720	-30.784	-0.322	-0.183
-156.706	-200.000	0.006	-0.059
-155.691	-8.268	0.076	0.051
-154.677	103.959	0.101	0.119
-153.662	593.032	-0.123	0.305
-152.647	-102.190	-0.348	0.084
-151.633	-20.770	-0.275	0.170
-150.618	71.258	-0.081	0.084
-149.604	-64.501	0.487	-0.199
-148.589	86.279	0.127	0.141
-147.574	-200.000	-0.016	0.285
-146.560	-76.889	-0.174	0.061
-145.545	145.056	-0.255	-0.344
-144.531	-52.973	-0.213	-0.099
-143.516	251.004	0.056	0.095
-142.502	-132.328	0.420	0.055
-141.487	-153.385	-0.137	0.010
-140.472	-200.000	0.036	0.373
-139.458	-47.017	-0.235	-0.115
-138.443	-140.488	-0.113	0.012
-137.429	228.259	0.116	-0.190
-136.414	-33.918	-0.440	-0.244
-135.399	175.302	0.114	0.166
-134.385	336.687	0.024	0.048
-133.370	-60.298	-0.183	-0.078
-132.356	640.101	0.088	-0.225
-131.341	-26.743	0.179	-0.105
-130.326	-92.558	-0.187	0.053
-129.312	-200.000	-0.043	-0.312
-128.297	-95.245	-0.272	0.074
-127.283	-100.109	0.206	0.051
-126.268	-36.405	0.220	-0.119
-125.253	-114.742	0.216	-0.042
-124.239	223.751	0.069	0.111
-123.224	-151.638	0.208	-0.015
-122.210	-12.582	-0.096	-0.063
-121.195	-121.894	0.335	-0.055
