DTS Sentinel unit serial number:	SN413079Multiplexer serial number:	ORYXHardware model number:	OX4-SRSoftware version number:	ORYX F/W v4.00 Oryx Data Collector v3.7.2.0data status	okinstallation	princeton_trtdifferential loss correction	single-endedforward channel	channel 4reverse channel	N/Adate	2019/09/11time	12:39:11forward acquisition time	60.00reverse acquisition time	0.00gamma	496.2192k internal	0.2285k external	0.2285temperature offset calibration	0.9968default loss term (dB/km)	0.3790temperature slope calibration	1.0000multiplexer offset coefficient	1.0000multiplexer slope coefficient	1.0000fibre end	0.00T internal ref (°C)	40.81T ext. ref 1 (°C)	0.23T ext. ref 2 (°C)	38.50length (m)	temperature (°C)	Stokes	anti-Stokes-747.200	-46.997	-0.215	-0.108
-746.185	11.831	-0.156	0.123
-745.171	-200.000	0.050	0.312
-744.156	26.829	-0.139	0.119
-743.142	-13.128	-0.119	-0.079
-742.127	-142.862	-0.170	-0.017
-741.112	-159.925	0.348	-0.020
-740.098	800.000	-0.051	0.149
-739.083	-200.000	0.026	0.245
-738.069	313.423	-0.105	0.202
-737.054	-200.000	-0.048	-0.390
-736.039	9.572	-0.324	-0.252
-735.025	-200.000	-0.020	0.185
-734.010	-200.000	-0.053	-0.258
-732.996	23.840	-0.227	-0.192
-731.981	-173.719	-0.586	0.018
-730.966	-146.391	0.341	-0.031
-729.952	491.618	-0.060	0.141
-728.937	800.000	-0.039	-0.151
-727.923	90.666	-0.294	-0.338
-726.908	-149.248	0.182	0.015
-725.894	50.288	0.056	0.054
-724.879	-126.036	-0.067	-0.010
-723.864	-140.756	0.179	0.019
-722.850	-200.000	-0.052	-0.421
-721.835	285.941	0.080	-0.148
-720.821	-122.128	-0.458	-0.077
-719.806	144.834	-0.060	-0.082
-718.791	36.975	0.323	-0.293
-717.777	-156.726	-0.223	-0.014
-716.762	171.725	-0.179	0.264
-715.748	12.393	0.009	-0.007
-714.733	-111.036	0.252	0.053
-713.718	301.657	-0.196	0.371
-712.704	-31.138	0.242	0.140
-711.689	-111.795	-0.206	0.043
-710.675	-58.985	0.225	0.100
-709.660	261.665	0.096	-0.170
-708.645	70.908	0.270	-0.287
-707.631	-104.906	-0.146	0.034
-706.616	-161.983	-0.146	-0.008
-705.602	394.846	-0.068	0.145
-704.587	-45.552	0.200	0.102
-703.572	-115.184	-0.148	0.029
-702.558	80.763	0.352	0.389
-701.543	-60.777	-0.263	0.114
-700.529	-115.159	-0.085	0.017
-699.514	-78.389	-0.365	-0.128
-698.499	-200.000	0.019	0.174
-697.485	-139.729	0.122	0.013
-696.470	-190.820	0.245	0.003
-695.456	-141.925	0.124	0.013
-694.441	-62.858	-0.290	-0.123
-693.426	-6.647	-0.058	0.041
-692.412	-200.000	0.024	0.244
-691.397	-137.289	0.173	0.020
-690.383	-128.613	-0.336	0.049
-689.368	-54.621	0.415	0.192
-688.354	-166.091	-0.201	-0.009
-687.339	366.119	-0.088	-0.181
-686.324	255.898	-0.114	0.201
-685.310	-14.833	-0.147	0.097
-684.295	177.995	-0.245	0.367
-683.281	-28.040	-0.124	0.074
-682.266	-200.000	0.091	0.407
-681.251	66.592	0.081	-0.084
-680.237	-200.000	0.023	-0.116
-679.222	-200.000	0.075	0.449
-678.208	-200.000	-0.066	-0.342
-677.193	78.793	0.128	-0.141
-676.178	380.040	0.076	-0.160
-675.164	47.017	-0.179	-0.171
-674.149	61.510	0.113	-0.115
-673.135	-7.774	0.057	0.040
-672.120	-18.972	-0.183	-0.117
-671.105	-34.144	-0.245	0.138
-670.091	-105.046	-0.065	0.015
-669.076	800.000	0.063	0.223
-668.062	286.300	0.103	0.191
-667.047	-76.940	0.134	-0.048
-666.032	-143.447	-0.038	-0.004
-665.018	32.655	0.037	-0.032
-664.003	-25.679	0.220	-0.133
-662.989	-200.000	-0.005	0.229
-661.974	-10.419	-0.319	0.217
-660.959	-102.748	0.179	-0.044
-659.945	481.006	-0.047	-0.108
-658.930	189.512	-0.084	0.130
-657.916	-144.965	0.072	-0.007
-656.901	4.101	-0.193	-0.144
-655.886	322.255	0.150	0.292
-654.872	110.155	-0.208	-0.255
-653.857	-200.000	0.028	-0.300
-652.843	30.831	-0.232	-0.203
-651.828	-58.042	0.202	0.090
-650.814	703.012	-0.043	0.116
-649.799	-52.977	0.204	-0.096
-648.784	143.833	-0.041	-0.055
-647.770	200.266	-0.134	-0.211
-646.755	-24.404	-0.204	0.124
-645.741	-94.515	0.345	-0.096
-644.726	360.899	-0.084	-0.173
-643.711	40.177	0.205	-0.188
-642.697	447.840	-0.116	0.261
-641.682	800.000	0.152	0.446
-640.668	-139.060	0.060	-0.007
-639.653	236.800	-0.096	-0.162
-638.638	580.540	0.059	-0.147
-637.624	68.944	-0.065	-0.069
-636.609	314.482	0.013	-0.026
-635.595	358.159	-0.227	-0.463
-634.580	-80.713	0.572	0.194
-633.565	290.893	0.102	0.189
-632.551	-200.000	0.047	-0.272
-631.536	-85.245	-0.327	0.104
-630.522	800.000	0.026	-0.105
-629.507	800.000	-0.088	0.357
-628.492	-10.270	0.152	-0.103
-627.478	208.624	-0.081	-0.130
-626.463	121.097	-0.034	0.044
-625.449	-100.747	0.152	0.038
-624.434	-36.553	-0.385	0.212
-623.419	201.090	-0.174	-0.273
-622.405	-125.870	0.336	-0.052
-621.390	307.877	-0.069	-0.132
-620.376	-13.049	0.046	0.031
-619.361	12.886	-0.288	-0.228
-618.346	-200.000	-0.030	0.218
-617.332	148.023	-0.122	-0.168
-616.317	228.218	0.038	0.064
-615.303	800.000	-0.073	-0.276
-614.288	-24.502	0.139	-0.084
-613.273	630.313	0.211	-0.545
-612.259	115.925	0.090	-0.113
-611.244	800.000	-0.076	0.226
-610.230	-200.000	-0.029	0.234
-609.215	800.000	0.084	-0.275
-608.201	273.395	-0.197	-0.356
-607.186	29.729	0.085	-0.074
-606.171	-66.715	-0.196	0.079
-605.157	733.550	-0.040	0.109
-604.142	65.778	-0.104	-0.108
-603.128	-41.849	0.040	0.021
-602.113	245.355	-0.093	-0.160
-601.098	-83.291	0.104	-0.034
-600.084	63.983	-0.040	0.041
-599.069	380.930	-0.165	0.347
-598.055	-200.000	-0.015	0.106
-597.040	15.672	0.143	0.115
-596.025	668.641	0.031	0.083
-595.011	-200.000	-0.008	-0.142
-593.996	-200.000	0.023	-0.191
-592.982	-199.327	0.031	-0.000
-591.967	155.586	0.115	-0.161
-590.952	138.286	0.076	0.102
-589.938	800.000	0.089	-0.375
-588.923	-165.743	-0.088	-0.004
-587.909	-200.000	0.009	-0.393
-586.894	39.562	-0.084	0.076
-585.879	-200.000	-0.015	0.237
-584.865	-200.000	0.095	0.477
-583.850	800.000	0.029	0.092
-582.836	-200.000	-0.017	-0.131
-581.821	-200.000	0.045	-0.330
-580.806	89.086	-0.186	0.212
-579.792	-50.168	-0.307	0.148
-578.777	24.118	0.086	-0.073
-577.763	-124.627	-0.050	0.008
-576.748	-200.000	-0.028	-0.265
-575.733	-109.055	-0.020	0.004
-574.719	-126.245	-0.239	-0.036
-573.704	317.619	-0.141	-0.272
-572.690	446.357	-0.101	-0.227
-571.675	178.192	0.244	0.363
-570.661	-119.371	0.092	-0.016
-569.646	-78.905	0.301	-0.104
-568.631	-131.380	-0.245	-0.033
-567.617	800.000	-0.059	-0.188
-566.602	-85.467	0.193	0.061
-565.588	-200.000	0.014	0.158
-564.573	136.206	0.168	-0.223
-563.558	183.641	-0.108	0.162
-562.544	42.654	-0.072	-0.067
-561.529	-114.517	-0.035	-0.007
-560.515	-200.000	0.046	0.429
-559.500	568.349	0.095	-0.234
-558.485	351.505	-0.124	-0.250
-557.471	492.565	-0.076	0.178
-556.456	-5.649	0.324	-0.227
-555.442	-117.164	-0.160	0.030
-554.427	93.388	-0.227	-0.262
-553.412	237.948	-0.119	-0.201
-552.398	-70.513	0.178	-0.069
-551.383	752.261	-0.064	0.176
-550.369	-200.000	0.105	-0.000
-549.354	-66.658	0.326	0.132
-548.339	-200.000	0.002	-0.152
-547.325	-31.378	-0.108	0.062
-546.310	-85.620	0.029	-0.009
-545.296	-140.641	-0.020	-0.002
-544.281	-84.060	-0.063	0.020
-543.266	118.838	-0.146	-0.184
-542.252	-129.989	-0.075	-0.010
-541.237	117.699	0.098	-0.123
-540.223	-200.000	-0.045	-0.267
-539.208	-74.460	-0.256	0.094
-538.193	396.835	0.090	0.192
-537.179	37.110	0.240	0.217
-536.164	460.546	-0.139	0.316
-535.150	-31.857	0.129	0.074
-534.135	-5.070	0.138	0.097
-533.121	39.588	-0.154	-0.141
-532.106	-57.084	0.298	0.134
-531.091	-99.301	-0.345	0.089
-530.077	800.000	-0.027	-0.117
-529.062	800.000	0.018	0.069
-528.048	800.000	0.036	-0.136
-527.033	27.968	-0.242	0.208
-526.018	-200.000	-0.005	0.173
-525.004	23.409	-0.247	0.207
-523.989	50.095	0.130	0.124
-522.975	63.063	-0.261	0.266
-521.960	-66.450	0.332	-0.134
-520.945	-166.769	0.138	-0.006
-519.931	800.000	0.116	-0.347
-518.916	547.368	-0.135	-0.329
-517.902	800.000	-0.080	-0.279
-516.887	800.000	0.093	-0.297
-515.872	792.145	0.020	-0.056
-514.858	17.015	0.159	0.128
-513.843	-150.408	-0.084	-0.007
-512.829	-119.795	-0.090	0.016
-511.814	275.917	0.183	0.331
-510.799	-145.202	-0.116	0.011
-509.785	-67.735	-0.402	0.160
-508.770	667.439	0.082	0.215
-507.756	56.820	0.095	-0.095
-506.741	800.000	-0.053	0.185
-505.726	-1.570	0.292	0.209
-504.712	391.153	-0.082	-0.173
-503.697	368.328	0.055	-0.114
-502.683	177.682	-0.034	0.051
-501.668	90.731	-0.070	-0.080
-500.653	142.586	0.242	-0.327
-499.639	-32.236	0.021	-0.012
-498.624	-115.557	-0.172	0.033
-497.610	-86.858	-0.098	0.031
-496.595	-200.000	0.028	-0.301
-495.581	105.779	0.186	0.223
-494.566	-41.205	0.128	0.067
-493.551	-200.000	0.021	-0.197
-492.537	-144.199	0.098	-0.009
-491.522	262.520	-0.063	-0.111
-490.508	-174.852	0.151	-0.004
-489.493	-200.000	-0.032	-0.162
-488.478	-200.000	-0.006	0.050
-487.464	800.000	-0.121	-0.355
-486.449	-143.806	0.466	0.045
-485.435	-146.567	0.368	-0.032
-484.420	-172.393	-0.119	0.004
-483.405	-200.000	0.084	0.390
-482.391	-97.160	-0.228	-0.061
-481.376	-16.394	0.423	0.272
-480.362	-200.000	-0.030	-0.321
-479.347	-94.234	-0.108	-0.030
-478.332	-200.000	-0.015	-0.085
-477.318	-200.000	-0.015	0.293
-476.303	800.000	0.067	-0.262
-475.289	-147.353	0.167	0.014
-474.274	-59.583	0.133	-0.058
-473.259	-151.534	0.193	-0.015
-472.245	55.157	-0.070	-0.069
-471.230	-67.740	-0.314	0.125
-470.216	-33.760	-0.179	0.100
-469.201	-200.000	0.007	-0.286
-468.186	48.923	-0.171	0.163
-467.172	-172.572	0.221	0.007
-466.157	-200.000	-0.007	-0.121
-465.143	800.000	0.095	0.303
-464.128	-200.000	0.027	0.276
-463.113	-200.000	-0.048	-0.263
-462.099	-162.207	0.499	-0.025
-461.084	800.000	-0.068	0.236
-460.070	-15.177	-0.156	0.101
-459.055	745.156	-0.096	0.262
-458.040	-136.160	-0.092	0.011
-457.026	800.000	0.116	-0.402
-456.011	-62.990	0.119	0.050
-454.997	-96.815	0.311	0.083
-453.982	223.399	-0.128	0.209
-452.968	140.654	-0.203	0.272
-451.953	-159.576	0.274	-0.015
-450.938	-200.000	-0.023	-0.125
-449.924	-0.953	0.134	0.097
-448.909	800.000	0.091	0.334
-447.895	-94.293	-0.246	0.068
-446.880	-157.069	-0.029	-0.002
-445.865	-65.759	0.515	-0.209
-444.851	-200.000	0.040	-0.239
-443.836	-13.802	-0.140	0.092
-442.822	-58.811	0.173	0.076
-441.807	-46.768	-0.391	0.194
-440.792	-85.298	0.175	-0.055
-439.778	-103.517	-0.285	-0.068
-438.763	-185.220	-0.180	-0.003
-437.749	318.599	0.219	-0.422
-436.734	-64.245	-0.164	-0.068
-435.719	-200.000	0.021	0.133
-434.705	-112.980	-0.448	0.090
-433.690	199.816	0.072	0.111
-432.676	221.687	0.127	-0.207
-431.661	-200.000	-0.053	0.273
-430.646	626.409	0.126	-0.323
-429.632	-200.000	-0.015	0.098
-428.617	102.931	-0.250	0.297
-427.603	800.000	0.049	0.146
-426.588	166.737	-0.180	0.259
-425.573	-35.962	0.217	-0.119
-424.559	-90.178	-0.350	0.103
-423.544	-190.723	0.276	-0.003
-422.530	-154.593	0.320	0.022
-421.515	-9.663	0.334	0.226
-420.500	-179.194	-0.060	-0.001
-419.486	-200.000	0.062	0.360
-418.471	-166.223	0.010	0.000
-417.457	-64.691	0.222	0.091
-416.442	10.068	0.235	0.181
-415.428	75.863	0.078	-0.084
-414.413	65.344	0.188	-0.193
-413.398	63.849	0.181	-0.184
-412.384	-200.000	-0.013	-0.064
-411.369	-59.236	0.193	-0.084
-410.355	-200.000	-0.031	0.170
-409.340	-94.905	-0.024	0.007
-408.325	-97.581	0.075	0.020
-407.311	800.000	0.018	0.052
-406.296	312.062	0.105	-0.200
-405.282	-42.902	0.152	-0.078
-404.267	-200.000	0.083	0.387
-403.252	220.825	-0.018	-0.029
-402.238	-124.628	0.350	0.055
-401.223	6.242	-0.234	0.176
-400.209	-186.284	-0.383	0.006
-399.194	-200.000	0.013	0.074
-398.179	55.342	-0.065	-0.064
-397.165	562.335	-0.030	-0.073
-396.150	155.295	-0.088	0.123
-395.136	-200.000	0.079	0.000
-394.121	122.442	-0.211	-0.268
-393.106	-200.000	-0.026	-0.333
-392.092	17.919	-0.157	-0.127
-391.077	-200.000	-0.020	-0.326
-390.063	100.221	-0.087	-0.102
-389.048	319.595	0.080	-0.154
-388.033	800.000	-0.043	-0.184
-387.019	-14.982	0.192	-0.125
-386.004	-200.000	-0.001	0.188
-384.990	800.000	0.037	-0.113
-383.975	-132.606	0.268	0.035
-382.960	-54.766	-0.093	0.043
-381.946	-139.943	0.355	-0.038
-380.931	800.000	0.032	0.133
-379.917	-200.000	0.021	-0.154
-378.902	-200.000	-0.009	-0.588
-377.888	116.010	-0.039	-0.048
-376.873	4.231	0.146	0.108
-375.858	800.000	0.061	0.241
-374.844	-106.676	0.257	0.058
-373.829	-89.097	0.196	-0.059
-372.815	56.472	-0.174	0.171
-371.800	-200.000	-0.012	-0.252
-370.785	-187.905	-0.249	-0.003
-369.771	248.538	-0.148	-0.253
-368.756	-30.375	0.017	-0.010
-367.742	-32.812	-0.058	0.033
-366.727	293.542	-0.044	-0.081
-365.712	-200.000	-0.019	-0.183
-364.698	-58.285	0.233	-0.103
-363.683	800.000	0.072	0.250
-362.669	-200.000	0.005	0.237
-361.654	-27.773	0.422	0.248
-360.639	-97.845	0.105	0.027
-359.625	-68.870	-0.176	-0.069
-358.610	-200.000	0.034	0.253
-357.596	-200.000	-0.000	-0.157
-356.581	13.476	-0.274	0.215
-355.566	-114.703	0.088	0.017
-354.552	110.711	0.284	-0.346
-353.537	268.228	-0.132	-0.235
-352.523	8.089	0.118	-0.089
-351.508	800.000	0.044	-0.147
-350.493	-200.000	-0.022	-0.115
-349.479	-93.247	0.053	-0.015
-348.464	-63.595	-0.290	0.120
-347.450	800.000	-0.047	-0.136
-346.435	395.391	0.149	-0.315
-345.420	755.006	-0.138	0.377
-344.406	-200.000	-0.033	-0.253
-343.391	-18.725	-0.163	0.103
-342.377	0.301	-0.030	0.022
-341.362	17.042	-0.337	0.270
-340.348	-200.000	0.006	0.095
-339.333	238.068	0.210	0.353
-338.318	-51.944	-0.108	0.051
-337.304	800.000	0.074	0.215
-336.289	0.027	-0.174	-0.126
-335.275	259.254	-0.091	-0.158
-334.260	108.396	-0.128	-0.155
-333.245	-84.193	-0.242	-0.078
-332.231	-200.000	0.015	-0.078
-331.216	20.926	-0.201	0.164
-330.202	265.504	-0.087	0.154
-329.187	-87.957	-0.054	-0.016
-328.172	-93.364	0.171	-0.048
-327.158	800.000	-0.007	0.028
-326.143	-123.131	0.152	-0.025
-325.129	-200.000	-0.021	-0.095
-324.114	11.625	0.196	-0.152
-323.099	130.798	0.091	-0.118
-322.085	-130.697	0.478	-0.065
-321.070	-114.309	0.261	-0.051
-320.056	46.727	-0.136	0.127
-319.041	114.951	-0.130	0.161
-318.026	24.173	0.094	-0.078
-317.012	185.631	0.092	-0.138
-315.997	-65.654	-0.107	0.043
-314.983	-85.226	0.274	-0.086
-313.968	-200.000	-0.014	0.104
-312.953	-100.889	0.092	0.023
-311.939	6.675	-0.293	0.220
-310.924	144.596	-0.054	0.073
-309.910	76.205	0.299	0.319
-308.895	11.254	-0.261	-0.202
-307.880	-126.834	-0.183	-0.027
-306.866	-49.578	0.171	-0.082
-305.851	-161.556	-0.132	-0.007
-304.837	-157.190	0.240	-0.015
-303.822	-141.446	-0.221	-0.023
-302.807	148.740	-0.209	0.285
-301.793	-127.863	0.285	0.041
-300.778	-200.000	-0.062	-0.281
-299.764	109.713	-0.118	0.143
-298.749	-200.000	0.026	0.244
-297.735	21.381	-0.228	-0.187
-296.720	-16.556	-0.174	-0.111
-295.705	-78.315	-0.203	0.070
-294.691	-200.000	-0.002	0.053
-293.676	355.507	-0.052	0.105
-292.662	-135.072	0.112	-0.014
-291.647	-200.000	0.002	0.291
-290.632	-48.809	-0.174	-0.084
-289.618	81.878	-0.060	-0.066
-288.603	106.685	0.200	0.240
-287.589	-200.000	0.009	-0.122
-286.574	-108.611	-0.122	0.027
-285.559	-200.000	-0.013	-0.424
-284.545	-13.340	0.091	-0.060
-283.530	291.896	0.056	0.103
-282.516	38.465	0.185	-0.166
-281.501	-156.399	-0.360	0.023
-280.486	-69.425	-0.166	-0.064
-279.472	-190.726	-0.084	-0.001
-278.457	-25.230	-0.034	0.020
-277.443	-200.000	0.051	-0.323
-276.428	247.250	0.120	0.204
-275.413	-200.000	0.066	0.357
-274.399	800.000	0.050	0.156
-273.384	106.796	0.252	-0.302
-272.370	-161.661	-0.330	0.017
-271.355	57.532	-0.321	0.316
-270.340	-28.022	-0.225	0.131
-269.326	132.049	-0.107	0.138
-268.311	576.781	-0.075	-0.185
-267.297	260.028	-0.008	-0.014
-266.282	-21.950	0.165	0.101
-265.267	-2.156	-0.106	0.075
-264.253	-34.339	0.107	-0.059
-263.238	-86.677	-0.286	0.088
-262.224	18.492	-0.148	-0.119
-261.209	800.000	0.072	0.280
-260.195	-1.247	-0.346	-0.246
-259.180	76.645	0.205	-0.219
-258.165	800.000	0.083	-0.340
-257.151	800.000	-0.026	0.094
-256.136	-200.000	0.056	0.000
-255.122	-200.000	0.010	-0.138
-254.107	-2.526	-0.270	0.190
-253.092	-13.451	-0.165	0.108
-252.078	-21.003	-0.154	0.095
-251.063	-151.118	-0.249	0.019
-250.049	-200.000	0.030	-0.145
-249.034	-75.307	-0.270	-0.097
-248.019	-200.000	-0.024	0.258
-247.005	205.077	-0.167	0.262
-245.990	-200.000	0.013	-0.154
-244.976	-61.912	-0.435	0.183
-243.961	-200.000	-0.015	0.163
-242.946	800.000	-0.066	-0.247
-241.932	-200.000	0.018	-0.093
-240.917	-200.000	-0.039	-0.468
-239.903	-16.506	-0.175	-0.112
-238.888	-200.000	0.024	-0.216
-237.873	-200.000	0.003	0.412
-236.859	800.000	-0.030	-0.114
-235.844	-42.790	0.234	0.120
-234.830	-135.828	0.099	-0.012
-233.815	-60.944	0.220	0.094
-232.800	800.000	0.065	-0.278
-231.786	2.495	-0.180	0.131
-230.771	-71.665	0.250	0.094
-229.757	-200.000	0.017	0.194
-228.742	-90.633	0.124	-0.036
-227.727	-109.596	-0.339	0.072
-226.713	-60.173	-0.142	-0.061
-225.698	-173.412	0.307	-0.009
-224.684	-19.406	0.232	-0.145
-223.669	-124.534	0.235	0.037
-222.655	91.016	-0.347	-0.391
-221.640	-200.000	0.006	-0.257
-220.625	246.349	-0.048	0.082
-219.611	-200.000	-0.036	-0.304
-218.596	-26.930	0.197	-0.115
-217.582	201.405	-0.154	0.239
-216.567	111.295	0.325	-0.394
-215.552	-200.000	0.055	-0.381
-214.538	-118.436	0.329	-0.059
-213.523	-32.355	0.067	-0.038
-212.509	-18.766	0.116	0.072
-211.494	269.184	0.083	-0.147
-210.479	-156.140	-0.290	-0.018
-209.465	34.401	-0.108	-0.094
-208.450	-175.751	0.105	-0.003
-207.436	-200.000	-0.004	-0.204
-206.421	-49.651	0.331	0.158
-205.406	-130.302	0.125	-0.017
-204.392	-61.554	-0.065	0.027
-203.377	66.530	-0.167	0.171
-202.363	-140.575	-0.159	0.017
-201.348	459.483	0.091	-0.203
-200.333	7.787	0.243	0.183
-199.319	800.000	0.052	0.172
-198.304	183.560	0.091	0.135
-197.290	598.907	0.046	0.115
-196.275	-62.337	-0.067	-0.028
-195.260	40.780	0.273	0.247
-194.246	800.000	-0.090	0.297
-193.231	226.486	-0.165	-0.269
-192.217	83.975	0.033	0.036
-191.202	-177.369	0.556	0.014
-190.187	69.762	0.143	0.148
-189.173	202.795	-0.215	0.334
-188.158	-2.951	-0.294	-0.206
-187.144	-200.000	-0.037	0.349
-186.129	-56.151	-0.289	0.129
-185.114	150.013	-0.370	0.505
-184.100	800.000	-0.095	0.278
-183.085	89.706	-0.128	0.144
-182.071	-94.887	0.356	-0.097
-181.056	-74.349	-0.161	-0.058
-180.042	290.843	-0.053	0.097
-179.027	-128.799	-0.211	-0.030
-178.012	-174.862	0.126	-0.004
-176.998	58.476	0.142	-0.140
-175.983	389.120	-0.127	0.265
-174.969	82.872	-0.097	0.106
-173.954	-200.000	0.076	0.400
-172.939	98.741	0.043	0.050
-171.925	7.153	0.195	0.146
-170.910	234.862	-0.150	0.248
-169.896	120.116	0.145	0.180
-168.881	93.432	0.011	-0.012
-167.866	-200.000	-0.002	0.092
-166.852	-79.461	-0.126	-0.043
-165.837	75.638	-0.163	0.173
-164.823	-148.228	0.182	0.015
-163.808	800.000	0.038	0.129
-162.793	-50.671	-0.071	0.034
-161.779	101.966	-0.042	0.049
-160.764	800.000	-0.029	0.083
-159.750	449.399	-0.092	0.205
-158.735	-108.476	0.221	0.048
-157.720	-31.870	0.242	0.136
-156.706	255.616	-0.136	0.233
-155.691	-59.252	-0.142	-0.062
-154.677	-8.271	-0.323	-0.218
-153.662	-145.125	-0.356	-0.032
-152.647	41.334	-0.049	-0.045
-151.633	-200.000	0.009	-0.207
-150.618	690.364	0.094	0.247
-149.604	-200.000	-0.044	-0.354
-148.589	800.000	-0.033	-0.126
-147.574	800.000	0.052	-0.171
-146.560	-49.391	-0.044	-0.021
-145.545	-73.160	-0.237	0.087
-144.531	-33.156	-0.114	0.063
-143.516	61.691	0.026	-0.026
-142.502	-138.530	0.207	-0.023
-141.487	154.717	-0.052	-0.072
-140.472	-1.394	-0.138	-0.098
-139.458	42.453	-0.179	-0.164
-138.443	462.255	0.211	0.473
-137.429	64.804	-0.143	-0.145
-136.414	-57.247	-0.101	0.045
-135.399	-50.635	-0.334	-0.158
-134.385	242.135	-0.214	-0.358
-133.370	800.000	-0.011	-0.047
-132.356	167.274	-0.161	0.230
-131.341	158.096	0.074	0.102
-130.326	800.000	-0.049	0.162
-129.312	-200.000	0.014	-0.133
-128.297	-68.971	0.289	-0.112
-127.283	-200.000	-0.008	-0.089
-126.268	-38.782	0.208	-0.110
-125.253	-4.986	0.274	-0.189
-124.239	32.933	0.156	0.136
-123.224	-89.699	-0.511	-0.150
