DTS Sentinel unit serial number:	SN413079Multiplexer serial number:	ORYXHardware model number:	OX4-SRSoftware version number:	ORYX F/W v4.00 Oryx Data Collector v3.7.2.0data status	okinstallation	princeton_trtdifferential loss correction	single-endedforward channel	channel 4reverse channel	N/Adate	2019/09/11time	22:15:11forward acquisition time	60.00reverse acquisition time	0.00gamma	496.2192k internal	0.2306k external	0.2306temperature offset calibration	1.0075default loss term (dB/km)	0.3790temperature slope calibration	1.0000multiplexer offset coefficient	1.0000multiplexer slope coefficient	1.0000fibre end	0.00T internal ref (°C)	35.31T ext. ref 1 (°C)	1.76T ext. ref 2 (°C)	29.70length (m)	temperature (°C)	Stokes	anti-Stokes-747.200	-200.000	-0.000	-0.047
-746.185	-80.745	0.137	0.046
-745.171	60.827	-0.032	-0.033
-744.156	422.346	-0.056	0.123
-743.142	-200.000	0.018	0.367
-742.127	277.115	-0.038	0.069
-741.112	-53.270	-0.251	0.117
-740.098	800.000	-0.071	0.285
-739.083	-37.424	0.240	-0.130
-738.069	800.000	-0.105	0.334
-737.054	-162.909	-0.258	-0.013
-736.039	-142.822	-0.249	0.025
-735.025	195.250	0.104	-0.160
-734.010	4.143	-0.145	-0.108
-732.996	-81.063	-0.170	0.057
-731.981	-151.047	0.122	0.009
-730.966	88.740	0.076	-0.086
-729.952	60.867	0.121	0.122
-728.937	-200.000	-0.021	0.118
-727.923	63.578	-0.270	-0.276
-726.908	61.379	0.128	0.129
-725.894	-105.548	0.115	-0.027
-724.879	157.079	0.070	-0.099
-723.864	200.889	-0.087	0.136
-722.850	800.000	0.050	-0.183
-721.835	-69.235	-0.309	-0.121
-720.821	477.571	0.037	0.084
-719.806	-200.000	-0.030	0.163
-718.791	149.178	0.237	-0.326
-717.777	-73.561	-0.147	-0.055
-716.762	53.428	-0.203	0.197
-715.748	32.778	0.116	0.102
-714.733	-42.254	0.175	0.091
-713.718	-15.307	0.170	-0.110
-712.704	37.379	-0.097	0.087
-711.689	-158.693	0.089	0.005
-710.675	61.966	0.096	-0.098
-709.660	-145.804	-0.334	-0.030
-708.645	-114.482	-0.110	0.021
-707.631	23.062	0.380	-0.316
-706.616	18.816	0.198	-0.161
-705.602	591.065	0.116	-0.291
-704.587	41.129	0.084	-0.077
-703.572	-200.000	0.040	0.319
-702.558	407.148	0.094	0.201
-701.543	40.566	0.149	-0.136
-700.529	800.000	0.020	0.072
-699.514	551.123	-0.069	-0.167
-698.499	-200.000	-0.011	-0.168
-697.485	32.896	-0.273	-0.240
-696.470	-71.225	0.103	-0.039
-695.456	-200.000	0.035	0.171
-694.441	-40.567	0.144	-0.076
-693.426	-200.000	-0.039	0.218
-692.412	-68.647	0.222	-0.087
-691.397	-58.648	-0.179	-0.079
-690.383	800.000	0.039	0.112
-689.368	-170.204	-0.289	-0.010
-688.354	279.846	-0.103	-0.187
-687.339	800.000	-0.094	-0.313
-686.324	106.336	-0.099	0.119
-685.310	174.013	-0.069	0.101
-684.295	279.390	0.133	-0.242
-683.281	-104.605	-0.447	0.105
-682.266	-171.992	-0.126	-0.004
-681.251	196.934	-0.121	-0.187
-680.237	-200.000	-0.016	0.108
-679.222	800.000	-0.043	-0.122
-678.208	-200.000	0.001	0.006
-677.193	-52.037	-0.088	0.042
-676.178	587.293	-0.063	-0.157
-675.164	-12.998	0.222	-0.146
-674.149	-136.581	0.148	0.017
-673.135	237.925	-0.132	0.221
-672.120	-104.339	0.248	0.058
-671.105	-134.472	0.208	0.026
-670.091	614.761	0.126	-0.321
-669.076	-81.176	0.336	-0.112
-668.062	237.152	-0.048	-0.081
-667.047	29.645	0.085	-0.073
-666.032	-57.142	0.228	-0.102
-665.018	-12.821	0.179	-0.118
-664.003	-88.828	-0.161	0.048
-662.989	-133.622	-0.131	0.017
-661.974	-123.814	0.388	0.062
-660.959	406.888	-0.011	-0.024
-659.945	42.232	0.088	-0.081
-658.930	53.331	-0.083	-0.080
-657.916	-50.172	-0.243	-0.117
-656.901	-62.477	0.103	-0.044
-655.886	-149.803	-0.144	0.011
-654.872	-94.045	0.322	-0.090
-653.857	44.726	-0.182	0.170
-652.843	800.000	0.140	-0.454
-651.828	436.957	-0.156	-0.344
-650.814	-200.000	0.023	-0.279
-649.799	-154.169	0.618	-0.042
-648.784	11.191	-0.198	0.154
-647.770	800.000	-0.054	-0.214
-646.755	37.435	0.110	-0.099
-645.741	-69.967	-0.135	-0.052
-644.726	-53.953	-0.079	-0.036
-643.711	411.212	0.085	-0.183
-642.697	-124.049	-0.261	-0.041
-641.682	800.000	0.037	-0.128
-640.668	-125.182	-0.225	-0.035
-639.653	-70.059	-0.151	0.058
-638.638	113.097	-0.286	0.351
-637.624	800.000	0.034	0.105
-636.609	-12.830	-0.219	-0.145
-635.595	-159.624	0.132	-0.007
-634.580	33.766	0.066	0.058
-633.565	110.054	-0.069	-0.084
-632.551	-126.674	-0.252	-0.038
-631.536	800.000	-0.033	-0.099
-630.522	407.835	0.137	-0.292
-629.507	134.599	-0.131	0.172
-628.492	800.000	0.082	-0.294
-627.478	203.860	-0.121	-0.190
-626.463	153.549	0.073	0.101
-625.449	-35.947	0.149	0.082
-624.434	-75.033	0.279	0.101
-623.419	-178.265	0.443	-0.011
-622.405	107.800	-0.186	-0.224
-621.390	-200.000	0.009	0.055
-620.376	-200.000	-0.023	0.172
-619.361	222.921	-0.054	-0.087
-618.346	-27.047	-0.163	0.096
-617.332	379.313	-0.233	-0.483
-616.317	-53.531	-0.165	0.076
-615.303	-149.382	-0.219	-0.018
-614.288	800.000	0.157	-0.524
-613.273	-32.794	0.265	-0.149
-612.259	-186.652	0.271	0.004
-611.244	104.720	0.038	0.045
-610.230	-153.836	-0.261	0.018
-609.215	62.961	0.070	0.071
-608.201	-84.100	0.061	0.019
-607.186	-37.909	0.216	0.116
-606.171	-103.328	0.175	0.042
-605.157	-40.487	0.170	0.089
-604.142	-54.143	0.048	0.022
-603.128	462.596	0.072	0.164
-602.113	82.204	0.091	-0.100
-601.098	226.338	0.141	0.231
-600.084	-200.000	-0.030	-0.159
-599.069	136.489	-0.104	0.137
-598.055	-152.679	0.218	0.016
-597.040	-147.820	0.110	0.009
-596.025	-27.168	-0.159	-0.094
-595.011	95.102	0.274	-0.315
-593.996	-55.929	-0.175	-0.079
-592.982	-49.322	-0.176	-0.085
-591.967	58.747	-0.237	0.235
-590.952	-132.043	-0.557	0.073
-589.938	84.372	0.031	-0.035
-588.923	800.000	0.041	0.149
-587.909	53.867	-0.184	0.178
-586.894	335.730	0.011	0.021
-585.879	-200.000	0.074	-0.488
-584.865	164.147	0.149	-0.212
-583.850	-11.811	0.223	-0.148
-582.836	6.411	0.197	-0.148
-581.821	69.954	-0.099	0.103
-580.806	567.704	-0.175	-0.430
-579.792	17.801	-0.290	-0.233
-578.777	-200.000	-0.009	-0.136
-577.763	-80.383	0.347	0.117
-576.748	-90.528	-0.217	0.063
-575.733	-200.000	-0.004	0.112
-574.719	215.845	0.197	0.315
-573.704	-174.597	0.032	0.001
-572.690	-8.440	0.099	0.067
-571.675	-31.666	-0.216	-0.123
-570.661	317.874	-0.063	-0.120
-569.646	19.430	0.096	0.078
-568.631	-172.265	-0.201	0.007
-567.617	676.777	-0.081	-0.212
-566.602	-132.587	0.342	-0.044
-565.588	5.363	-0.127	-0.094
-564.573	-27.967	-0.122	0.071
-563.558	-200.000	-0.021	-0.140
-562.544	-150.179	0.082	-0.006
-561.529	87.848	-0.188	-0.210
-560.515	31.083	-0.157	-0.136
-559.500	-200.000	0.005	0.217
-558.485	800.000	0.067	-0.225
-557.471	-93.840	-0.029	-0.008
-556.456	800.000	0.059	-0.230
-555.442	85.625	-0.085	0.094
-554.427	-200.000	0.014	0.148
-553.412	-160.395	-0.286	-0.016
-552.398	-69.706	0.019	0.007
-551.383	800.000	0.070	-0.256
-550.369	308.484	-0.151	-0.284
-549.354	-39.891	-0.235	0.124
-548.339	-127.719	-0.313	-0.046
-547.325	324.655	-0.121	-0.233
-546.310	78.480	-0.191	-0.206
-545.296	-125.338	0.028	0.004
-544.281	-104.210	0.173	-0.041
-543.266	131.186	-0.205	0.265
-542.252	-104.655	-0.162	-0.038
-541.237	800.000	-0.044	-0.126
-540.223	-3.609	0.187	0.131
-539.208	-142.466	-0.063	-0.006
-538.193	-84.754	0.134	0.042
-537.179	-27.254	-0.065	0.038
-536.164	141.663	0.051	0.068
-535.150	-200.000	-0.170	-0.001
-534.135	-93.246	0.310	-0.087
-533.121	-152.970	0.159	0.011
-532.106	800.000	0.056	0.181
-531.091	51.170	0.081	-0.078
-530.077	213.444	-0.045	0.072
-529.062	-132.150	0.173	-0.023
-528.048	-30.734	-0.230	-0.131
-527.033	443.160	0.193	0.427
-526.018	504.750	0.131	0.305
-525.004	-120.857	-0.200	-0.034
-523.989	469.072	0.126	0.285
-522.975	-63.839	-0.269	-0.111
-521.960	473.669	-0.076	-0.172
-520.945	36.378	-0.258	-0.229
-519.931	-23.969	-0.130	0.078
-518.916	-14.347	-0.097	0.063
-517.902	33.496	0.258	0.226
-516.887	-200.000	0.004	-0.295
-515.872	-200.000	-0.003	0.132
-514.858	-103.659	-0.184	-0.043
-513.843	-188.488	-0.341	0.004
-512.829	-71.897	0.349	0.131
-511.814	-106.689	0.413	-0.093
-510.799	474.286	0.033	0.076
-509.785	-70.273	-0.303	0.116
-508.770	-76.773	-0.139	0.049
-507.756	85.833	-0.312	-0.345
-506.741	-22.617	0.117	0.071
-505.726	-200.000	-0.075	0.446
-504.712	212.540	-0.223	-0.355
-503.697	-200.000	0.056	0.284
-502.683	259.683	-0.039	0.067
-501.668	-200.000	0.020	0.158
-500.653	-200.000	0.020	-0.254
-499.639	247.644	-0.159	0.271
-498.624	-200.000	-0.074	0.488
-497.610	-179.851	-0.041	0.001
-496.595	211.807	0.183	-0.290
-495.581	-200.000	0.331	0.001
-494.566	-96.184	0.048	0.013
-493.551	249.336	-0.115	0.196
-492.537	186.709	0.113	0.170
-491.522	-82.296	-0.161	-0.053
-490.508	82.021	-0.246	0.268
-489.493	196.776	-0.166	-0.256
-488.478	-23.388	0.069	-0.042
-487.464	27.951	0.204	0.173
-486.449	-11.058	-0.102	0.068
-485.435	169.742	-0.081	0.116
-484.420	-69.129	-0.070	0.027
-483.405	-76.688	-0.088	-0.031
-482.391	109.341	-0.104	-0.125
-481.376	-162.569	-0.170	-0.008
-480.362	231.942	-0.074	0.122
-479.347	-200.000	0.023	-0.251
-478.332	419.112	0.106	-0.228
-477.318	-49.801	-0.082	-0.039
-476.303	454.099	0.103	0.230
-475.289	-122.959	-0.080	-0.013
-474.274	-200.000	-0.090	-0.444
-473.259	102.607	-0.146	-0.172
-472.245	-200.000	0.043	-0.249
-471.230	63.446	0.032	0.032
-470.216	-121.014	0.442	-0.075
-469.201	263.222	0.085	-0.149
-468.186	586.019	-0.058	0.144
-467.172	636.035	-0.105	0.269
-466.157	-47.759	-0.441	-0.215
-465.143	3.141	0.139	-0.101
-464.128	-87.283	0.210	-0.064
-463.113	758.528	-0.024	-0.065
-462.099	-152.209	-0.217	-0.016
-461.084	154.021	0.245	-0.338
-460.070	-101.718	-0.295	0.072
-459.055	-35.388	-0.204	0.112
-458.040	-154.115	0.435	0.030
-457.026	280.733	-0.261	-0.469
-456.011	800.000	0.033	-0.094
-454.997	-200.000	0.019	0.159
-453.982	331.441	0.192	0.373
-452.968	39.501	-0.210	0.189
-451.953	472.920	-0.045	0.101
-450.938	-19.148	0.086	0.054
-449.924	240.523	0.080	-0.135
-448.909	800.000	-0.096	0.356
-447.895	481.437	0.164	0.375
-446.880	-200.000	0.032	-0.288
-445.865	-37.298	-0.184	0.099
-444.851	122.074	0.191	0.240
-443.836	1.679	0.225	0.163
-442.822	800.000	0.023	-0.096
-441.807	-74.798	-0.266	-0.096
-440.792	-96.568	0.122	0.032
-439.778	87.116	0.107	0.118
-438.763	-178.650	-0.109	0.003
-437.749	800.000	-0.026	0.082
-436.734	-200.000	0.043	0.310
-435.719	-62.103	-0.119	-0.050
-434.705	360.732	-0.136	-0.275
-433.690	240.338	0.061	0.103
-432.676	117.166	0.131	-0.161
-431.661	800.000	-0.017	-0.050
-430.646	298.349	-0.065	-0.121
-429.632	-200.000	-0.024	0.296
-428.617	30.992	-0.325	-0.280
-427.603	-139.244	0.153	-0.017
-426.588	123.556	-0.195	0.246
-425.573	-86.350	-0.094	0.029
-424.559	371.060	0.060	-0.123
-423.544	-95.684	0.180	-0.048
-422.530	-60.188	0.249	-0.106
-421.515	173.836	0.164	-0.238
-420.500	162.890	-0.090	0.126
-419.486	33.627	-0.297	0.259
-418.471	-55.552	0.052	0.023
-417.457	287.952	0.137	-0.249
-416.442	-71.403	0.250	-0.094
-415.428	28.570	0.084	0.071
-414.413	181.315	-0.206	-0.304
-413.398	-99.951	-0.056	0.014
-412.384	800.000	-0.035	-0.128
-411.369	-200.000	-0.021	-0.278
-410.355	165.435	0.110	0.156
-409.340	-117.446	0.446	0.081
-408.325	800.000	0.035	0.101
-407.311	28.817	0.118	-0.101
-406.296	-105.578	0.147	-0.034
-405.282	-97.661	-0.044	0.011
-404.267	-137.929	0.209	-0.023
-403.252	-188.887	0.148	0.002
-402.238	25.660	-0.114	-0.095
-401.223	-69.923	0.207	0.079
-400.209	41.978	-0.206	-0.187
-399.194	22.065	-0.220	-0.180
-398.179	-35.480	-0.107	-0.058
-397.165	228.936	-0.201	-0.329
-396.150	-53.837	-0.140	-0.064
-395.136	552.398	0.048	-0.116
-394.121	38.794	0.179	-0.161
-393.106	-200.000	0.006	0.033
-392.092	-200.000	-0.007	0.113
-391.077	279.630	-0.136	-0.244
-390.063	238.419	-0.094	0.156
-389.048	101.705	-0.211	0.247
-388.033	86.314	-0.104	-0.115
-387.019	-200.000	0.050	-0.229
-386.004	-200.000	-0.006	0.206
-384.990	-178.445	0.082	-0.002
-383.975	-200.000	-0.003	0.015
-382.960	-88.078	0.280	0.084
-381.946	-200.000	0.010	-0.178
-380.931	-96.679	0.233	0.062
-379.917	-53.123	-0.138	-0.063
-378.902	209.805	0.057	0.090
-377.888	226.426	-0.187	0.305
-376.873	223.421	-0.133	-0.215
-375.858	-200.000	0.025	-0.338
-374.844	247.520	-0.179	-0.303
-373.829	-5.886	-0.223	-0.153
-372.815	30.321	0.261	0.224
-371.800	-200.000	0.025	-0.229
-370.785	-33.403	-0.036	0.020
-369.771	417.101	0.125	-0.267
-368.756	422.108	0.094	0.203
-367.742	-66.676	-0.290	0.115
-366.727	-161.119	-0.345	-0.018
-365.712	303.655	0.270	0.501
-364.698	3.761	-0.242	0.177
-363.683	-35.059	-0.064	0.035
-362.669	62.577	0.143	-0.143
-361.654	-188.193	-0.093	-0.001
-360.639	169.338	-0.038	-0.054
-359.625	800.000	-0.056	-0.190
-358.610	8.302	0.371	-0.280
-357.596	-140.225	-0.143	-0.015
-356.581	44.880	0.142	-0.131
-355.566	-158.170	-0.167	0.010
-354.552	-160.062	0.372	-0.020
-353.537	122.282	0.067	-0.083
-352.523	1.014	-0.361	-0.260
-351.508	-24.244	-0.111	-0.066
-350.493	51.081	0.353	0.335
-349.479	111.864	-0.076	0.091
-348.464	-54.086	0.185	-0.084
-347.450	122.548	-0.076	-0.096
-346.435	-200.000	0.032	0.312
-345.420	-200.000	-0.040	-0.204
-344.406	-57.043	-0.209	-0.092
-343.391	312.467	-0.030	-0.056
-342.377	-23.326	0.149	-0.090
-341.362	104.180	-0.181	-0.213
-340.348	-37.348	-0.259	0.138
-339.333	15.430	0.132	0.104
-338.318	-200.000	0.004	0.442
-337.304	-35.891	-0.113	0.061
-336.289	160.769	-0.132	0.185
-335.275	711.909	0.098	-0.259
-334.260	-56.765	0.309	-0.137
-333.245	-136.632	0.065	-0.008
-332.231	800.000	-0.057	0.242
-331.216	39.846	-0.302	0.272
-330.202	158.400	-0.072	-0.100
-329.187	-149.132	-0.067	-0.005
-328.172	19.272	0.279	0.224
-327.158	182.927	0.158	0.234
-326.143	104.392	-0.161	-0.190
-325.129	-92.154	0.132	0.037
-324.114	-150.538	-0.378	0.029
-323.099	-200.000	-0.015	-0.069
-322.085	-200.000	0.075	0.340
-321.070	-81.889	-0.068	0.022
-320.056	-144.656	0.322	0.030
-319.041	-92.626	0.513	-0.144
-318.026	-28.954	-0.236	-0.135
-317.012	-65.453	0.091	0.037
-315.997	3.909	0.226	0.165
-314.983	175.123	-0.255	0.370
-313.968	800.000	0.042	0.119
-312.953	-22.937	0.218	0.131
-311.939	-165.677	0.051	-0.002
-310.924	-200.000	-0.056	0.301
-309.910	-37.317	0.246	-0.132
-308.895	304.574	-0.116	-0.215
-307.880	-37.105	-0.426	-0.228
-306.866	51.777	0.134	-0.127
-305.851	-143.536	0.169	-0.016
-304.837	53.210	-0.190	0.182
-303.822	800.000	0.020	-0.086
-302.807	468.862	0.115	0.257
-301.793	-105.805	0.196	-0.044
-300.778	-143.236	-0.134	0.013
-299.764	150.189	0.115	0.156
-298.749	-107.114	0.030	0.007
-297.735	198.234	-0.137	-0.209
-296.720	189.899	-0.102	-0.153
-295.705	-120.880	-0.199	-0.033
-294.691	-8.295	-0.190	0.128
-293.676	657.634	-0.052	-0.133
-292.662	224.600	-0.159	-0.257
-291.647	800.000	-0.023	-0.089
-290.632	-45.653	-0.264	-0.130
-289.618	446.803	-0.082	0.179
-288.603	6.248	-0.128	-0.095
-287.589	40.510	0.178	0.160
-286.574	800.000	-0.115	-0.461
-285.559	-200.000	0.025	-0.232
-284.545	24.802	0.259	0.214
-283.530	-26.037	0.147	-0.086
-282.516	-170.146	0.398	0.014
-281.501	-47.006	0.423	-0.206
-280.486	-136.392	0.057	0.007
-279.472	-159.408	-0.119	-0.007
-278.457	-85.086	-0.106	0.033
-277.443	373.492	0.213	0.433
-276.428	-1.496	0.240	0.169
-275.413	-168.956	0.036	0.001
-274.399	60.381	-0.129	0.128
-273.384	36.230	-0.134	0.118
-272.370	-191.906	-0.197	0.002
-271.355	-122.721	-0.197	0.032
-270.340	-134.994	0.150	0.018
-269.326	-200.000	-0.009	0.070
-268.311	-103.109	-0.082	0.019
-267.297	-9.880	0.194	-0.129
-266.282	-200.000	0.045	-0.264
-265.267	-104.108	0.333	-0.077
-264.253	103.763	0.147	-0.172
-263.238	-200.000	0.009	-0.154
-262.224	-200.000	0.053	0.270
-261.209	-86.195	-0.286	-0.088
-260.195	-96.549	-0.125	-0.033
-259.180	48.264	0.041	0.038
-258.165	34.252	0.115	0.101
-257.151	-38.782	-0.025	0.013
-256.136	-107.744	-0.410	0.089
-255.122	-192.507	0.236	-0.002
-254.107	-181.882	0.249	0.005
-253.092	-124.923	-0.181	-0.028
-252.078	-200.000	0.009	0.123
-251.063	2.236	0.184	-0.133
-250.049	-146.280	0.034	-0.003
-249.034	-200.000	0.017	-0.399
-248.019	-119.083	0.268	-0.047
-247.005	-31.045	-0.275	0.155
-245.990	271.159	-0.120	0.211
-244.976	761.675	-0.055	0.148
-243.961	-200.000	0.021	0.402
-242.946	-54.415	-0.075	0.034
-241.932	-200.000	0.047	-0.241
-240.917	-200.000	-0.013	-0.066
-239.903	471.526	0.091	-0.203
-238.888	323.553	0.110	0.210
-237.873	102.112	-0.081	0.094
-236.859	261.900	0.107	-0.185
-235.844	56.487	0.156	-0.151
-234.830	-58.140	-0.114	0.049
-233.815	-104.871	-0.298	0.068
-232.800	-69.321	0.330	-0.126
-231.786	-10.487	-0.107	0.070
-230.771	525.539	0.112	-0.264
-229.757	-107.930	-0.501	0.109
-228.742	-60.321	0.192	-0.081
-227.727	28.818	0.203	-0.171
-226.713	522.027	0.124	0.289
-225.698	319.368	-0.107	0.202
-224.684	485.627	-0.110	0.250
-223.669	-129.083	0.097	-0.013
-222.655	-200.000	0.023	-0.272
-221.640	-200.000	0.030	0.223
-220.625	-182.013	0.211	-0.004
-219.611	685.892	-0.108	-0.281
-218.596	-69.216	0.192	0.073
-217.582	132.305	0.143	0.184
-216.567	-88.436	0.261	0.078
-215.552	-54.563	-0.020	-0.009
-214.538	320.991	0.048	0.091
-213.523	53.695	-0.106	-0.101
-212.509	457.025	0.034	-0.074
-211.494	800.000	0.096	-0.297
-210.479	800.000	0.098	0.388
-209.465	-89.303	0.252	0.074
-208.450	-200.000	-0.034	0.408
-207.436	33.124	0.368	0.318
-206.421	-40.667	-0.422	-0.218
-205.406	-21.973	0.280	0.169
-204.392	-200.000	0.009	0.316
-203.377	34.004	0.168	0.145
-202.363	-200.000	-0.004	-0.278
-201.348	71.582	0.138	0.143
-200.333	800.000	-0.050	0.155
-199.319	-36.785	0.437	0.234
-198.304	-159.747	0.173	0.010
-197.290	-64.475	0.472	0.191
-196.275	6.796	-0.234	-0.173
-195.260	25.298	0.092	0.076
-194.246	252.251	-0.047	-0.080
-193.231	-45.148	-0.102	-0.050
-192.217	-200.000	0.023	0.285
-191.202	247.402	0.090	-0.151
-190.187	211.024	0.262	0.410
-189.173	-150.216	-0.183	0.014
-188.158	800.000	0.028	-0.095
-187.144	390.338	-0.057	0.118
-186.129	-22.856	-0.106	0.064
-185.114	-137.595	0.078	0.009
-184.100	278.974	0.086	0.153
-183.085	193.863	-0.105	0.158
-182.071	398.450	-0.063	0.130
-181.056	800.000	-0.102	0.307
-180.042	-130.681	0.135	0.018
-179.027	-111.386	0.196	0.040
-178.012	-161.548	0.122	0.006
-176.998	800.000	0.113	0.488
-175.983	-200.000	-0.004	0.017
-174.969	-8.803	0.186	-0.124
-173.954	248.917	0.108	-0.181
-172.939	-200.000	0.041	-0.231
-171.925	101.007	0.022	-0.026
-170.910	-200.000	-0.056	0.350
-169.896	237.195	0.119	0.196
-168.881	-200.000	-0.016	-0.363
-167.866	32.553	0.077	0.066
-166.852	-120.222	-0.161	0.027
-165.837	-37.260	0.185	0.098
-164.823	376.889	-0.119	-0.242
-163.808	13.503	-0.133	-0.103
-162.793	-177.453	0.237	0.006
-161.779	-77.653	-0.436	0.150
-160.764	311.310	-0.120	-0.224
-159.750	-104.364	-0.328	-0.076
-158.735	175.614	-0.073	-0.105
-157.720	-40.771	-0.153	0.079
-156.706	800.000	0.070	-0.227
-155.691	174.373	-0.114	0.164
-154.677	2.333	0.039	-0.028
-153.662	524.917	-0.065	-0.152
-152.647	343.975	-0.241	0.470
-151.633	800.000	-0.088	0.361
-150.618	735.758	0.121	0.323
-149.604	-200.000	0.211	-0.001
-148.589	31.264	0.133	0.114
-147.574	223.405	0.112	0.179
-146.560	-121.497	0.211	0.035
-145.545	-78.317	-0.353	-0.120
-144.531	800.000	0.100	-0.326
-143.516	-96.372	-0.225	0.059
-142.502	45.234	0.189	-0.173
-141.487	-63.599	-0.088	-0.036
-140.472	-51.438	-0.112	0.052
-139.458	-38.914	-0.182	-0.095
-138.443	-20.712	-0.097	0.059
-137.429	557.707	0.079	0.189
-136.414	313.474	0.158	0.295
-135.399	9.887	0.050	-0.037
-134.385	800.000	-0.114	0.401
-133.370	-46.399	-0.148	0.072
-132.356	70.669	0.204	-0.210
-131.341	61.313	-0.146	-0.144
-130.326	-53.498	0.115	0.052
-129.312	-83.844	0.113	-0.036
-128.297	-138.989	-0.266	-0.029
-127.283	181.326	0.100	0.146
-126.268	-142.651	0.285	0.028
-125.253	-104.457	0.149	0.034
-124.239	-200.000	0.020	-0.184
-123.224	-73.989	0.235	0.085
-122.210	144.202	0.192	0.255
-121.195	800.000	0.103	-0.291
