DTS Sentinel unit serial number:	SN413079Multiplexer serial number:	ORYXHardware model number:	OX4-SRSoftware version number:	ORYX F/W v4.00 Oryx Data Collector v3.7.2.0data status	okinstallation	princeton_trtdifferential loss correction	single-endedforward channel	channel 4reverse channel	N/Adate	2019/09/11time	07:55:11forward acquisition time	60.00reverse acquisition time	0.00gamma	496.2192k internal	0.2306k external	0.2306temperature offset calibration	1.0789default loss term (dB/km)	0.3790temperature slope calibration	1.0000multiplexer offset coefficient	1.0000multiplexer slope coefficient	1.0000fibre end	0.00T internal ref (°C)	31.94T ext. ref 1 (°C)	12.47T ext. ref 2 (°C)	28.81length (m)	temperature (°C)	Stokes	anti-Stokes-747.200	-55.295	-0.078	0.036
-746.185	-26.477	0.400	0.239
-745.171	800.000	-0.076	0.323
-744.156	800.000	-0.050	0.205
-743.142	-123.014	0.121	0.020
-742.127	-8.019	0.342	0.235
-741.112	-89.242	-0.335	-0.101
-740.098	800.000	-0.069	0.290
-739.083	800.000	0.047	0.138
-738.069	308.292	-0.217	0.412
-737.054	68.099	-0.360	0.374
-736.039	-138.554	0.227	0.025
-735.025	216.940	0.069	0.111
-734.010	93.096	-0.165	-0.190
-732.996	643.280	-0.065	-0.168
-731.981	-200.000	0.028	0.390
-730.966	15.892	-0.204	0.163
-729.952	413.030	-0.053	-0.115
-728.937	-200.000	-0.018	0.201
-727.923	-200.000	0.032	0.149
-726.908	-190.956	-0.103	0.001
-725.894	105.073	0.235	-0.282
-724.879	86.747	-0.148	0.166
-723.864	-200.000	0.003	-0.097
-722.850	404.629	0.111	-0.238
-721.835	526.013	-0.049	0.117
-720.821	7.042	-0.266	-0.202
-719.806	-200.000	-0.039	0.245
-718.791	-200.000	-0.021	0.263
-717.777	-13.298	0.070	-0.046
-716.762	-174.553	-0.258	0.007
-715.748	-48.245	-0.017	0.008
-714.733	148.625	-0.057	0.078
-713.718	-37.631	0.250	-0.135
-712.704	-200.000	0.004	-0.160
-711.689	199.281	-0.304	-0.473
-710.675	-9.689	-0.142	-0.096
-709.660	222.045	-0.085	-0.139
-708.645	238.509	-0.171	-0.289
-707.631	-148.478	-0.454	0.038
-706.616	-165.399	-0.412	-0.018
-705.602	-200.000	-0.032	-0.423
-704.587	-17.692	-0.177	-0.113
-703.572	347.257	-0.078	0.155
-702.558	-150.100	0.283	0.022
-701.543	38.198	-0.122	0.110
-700.529	-78.328	-0.241	-0.084
-699.514	-200.000	0.006	0.045
-698.499	-150.495	-0.037	0.003
-697.485	-110.748	-0.044	-0.009
-696.470	145.653	-0.023	-0.032
-695.456	-200.000	0.016	-0.124
-694.441	14.317	0.060	0.048
-693.426	-113.132	-0.479	-0.096
-692.412	-200.000	0.042	-0.464
-691.397	47.428	-0.088	-0.083
-690.383	-118.244	-0.073	0.013
-689.368	-35.283	-0.161	-0.089
-688.354	-26.053	-0.214	-0.128
-687.339	-97.631	0.198	0.052
-686.324	-200.000	-0.029	-0.274
-685.310	98.256	-0.171	0.200
-684.295	-88.665	-0.110	0.033
-683.281	-164.273	-0.422	0.020
-682.266	-53.075	-0.182	0.085
-681.251	98.912	0.181	-0.213
-680.237	112.987	-0.230	0.283
-679.222	-57.222	-0.199	-0.089
-678.208	-79.288	-0.137	0.047
-677.193	243.708	-0.105	0.179
-676.178	171.535	-0.208	0.302
-675.164	800.000	0.054	0.161
-674.149	800.000	-0.029	-0.120
-673.135	230.115	-0.100	-0.166
-672.120	93.930	-0.049	0.056
-671.105	800.000	0.081	0.299
-670.091	-200.000	-0.010	-0.216
-669.076	232.154	0.181	0.302
-668.062	-128.251	0.234	-0.034
-667.047	48.604	-0.308	-0.293
-666.032	81.697	-0.119	-0.131
-665.018	-200.000	-0.021	0.131
-664.003	-200.000	0.048	-0.373
-662.989	29.000	-0.050	-0.043
-661.974	-188.400	0.063	0.001
-660.959	-76.881	0.100	0.036
-659.945	-144.248	-0.564	-0.053
-658.930	-200.000	-0.009	-0.121
-657.916	800.000	0.054	0.201
-656.901	239.752	0.085	-0.144
-655.886	133.007	-0.140	0.184
-654.872	191.049	-0.228	-0.348
-653.857	25.802	-0.262	0.221
-652.843	194.151	0.153	-0.235
-651.828	72.296	-0.229	-0.242
-650.814	-173.619	0.286	-0.009
-649.799	16.438	0.275	-0.220
-648.784	-135.668	0.129	0.016
-647.770	-200.000	-0.015	0.109
-646.755	118.897	-0.200	-0.250
-645.741	86.157	-0.275	-0.306
-644.726	43.679	0.119	0.110
-643.711	60.614	-0.083	0.083
-642.697	50.352	0.151	0.145
-641.682	-107.041	-0.018	-0.004
-640.668	94.662	0.255	-0.294
-639.653	-79.094	0.105	-0.036
-638.638	364.025	0.064	-0.131
-637.624	-27.094	-0.025	0.015
-636.609	800.000	0.080	-0.241
-635.595	-28.792	0.236	0.137
-634.580	342.459	-0.108	0.215
-633.565	-200.000	0.003	0.097
-632.551	-93.115	-0.198	-0.056
-631.536	428.496	0.196	0.429
-630.522	-200.000	-0.022	0.296
-629.507	-22.814	0.228	-0.140
-628.492	-200.000	0.033	-0.349
-627.478	-49.595	-0.174	-0.084
-626.463	-135.756	0.287	-0.034
-625.449	800.000	0.014	0.044
-624.434	-72.553	-0.391	-0.146
-623.419	-3.062	-0.278	0.196
-622.405	131.727	-0.153	-0.199
-621.390	800.000	0.054	-0.207
-620.376	190.646	0.068	-0.104
-619.361	-97.487	0.124	0.033
-618.346	86.271	0.071	-0.079
-617.332	88.600	0.098	-0.111
-616.317	15.997	0.361	0.288
-615.303	-43.756	-0.113	-0.058
-614.288	-200.000	-0.016	0.190
-613.273	-65.845	-0.341	-0.138
-612.259	241.870	0.116	-0.196
-611.244	343.074	0.180	0.358
-610.230	-109.441	0.195	0.042
-609.215	27.744	0.067	0.057
-608.201	-166.040	-0.215	-0.009
-607.186	-80.041	-0.296	-0.101
-606.171	-132.579	-0.066	-0.009
-605.157	-200.000	-0.004	-0.150
-604.142	800.000	-0.093	0.303
-603.128	196.238	-0.095	-0.147
-602.113	70.823	-0.176	-0.184
-601.098	-62.461	-0.202	0.085
-600.084	478.717	0.135	-0.310
-599.069	105.196	-0.087	-0.104
-598.055	-35.266	-0.163	-0.090
-597.040	-96.961	0.120	-0.032
-596.025	-6.531	0.113	-0.078
-595.011	90.517	0.224	-0.254
-593.996	-93.246	-0.021	0.006
-592.982	-200.000	0.026	0.126
-591.967	39.796	0.082	-0.075
-590.952	-101.845	0.181	-0.044
-589.938	5.609	-0.448	0.335
-588.923	137.966	0.173	-0.229
-587.909	21.469	-0.276	0.227
-586.894	10.300	-0.217	-0.167
-585.879	-74.580	-0.150	-0.055
-584.865	198.308	0.167	-0.259
-583.850	284.827	0.210	-0.381
-582.836	122.343	-0.174	-0.220
-581.821	800.000	-0.028	-0.092
-580.806	800.000	0.162	0.459
-579.792	-200.000	0.014	-0.066
-578.777	-200.000	-0.010	-0.427
-577.763	-200.000	-0.016	0.230
-576.748	241.161	0.094	-0.158
-575.733	-200.000	-0.006	-0.405
-574.719	-195.464	-0.068	0.001
-573.704	-138.816	0.312	-0.034
-572.690	-7.127	-0.197	-0.135
-571.675	558.167	0.050	-0.123
-570.661	-177.819	-0.413	-0.010
-569.646	-137.983	-0.138	-0.016
-568.631	-200.000	-0.070	0.348
-567.617	19.717	-0.309	0.251
-566.602	75.497	-0.045	0.048
-565.588	-119.044	-0.208	-0.037
-564.573	800.000	0.005	0.017
-563.558	-45.741	-0.239	-0.119
-562.544	-108.538	-0.401	0.087
-561.529	800.000	-0.160	0.556
-560.515	800.000	0.054	0.175
-559.500	-119.385	0.201	-0.035
-558.485	-165.078	-0.475	-0.021
-557.471	-30.173	0.260	0.149
-556.456	-112.052	-0.195	-0.040
-555.442	334.673	-0.098	-0.191
-554.427	-47.753	-0.165	0.081
-553.412	39.455	0.204	-0.185
-552.398	-90.527	0.467	-0.136
-551.383	-200.000	-0.040	0.183
-550.369	362.938	-0.081	-0.165
-549.354	-32.155	0.054	0.030
-548.339	684.306	-0.058	0.152
-547.325	357.984	0.051	-0.102
-546.310	302.548	-0.036	0.067
-545.296	-10.278	0.169	0.113
-544.281	-37.239	0.232	0.125
-543.266	11.493	-0.135	-0.104
-542.252	-87.546	0.325	-0.099
-541.237	425.358	0.058	0.127
-540.223	-21.850	0.305	0.187
-539.208	-129.597	0.123	0.017
-538.193	-200.000	-0.011	-0.059
-537.179	388.036	0.163	0.341
-536.164	-110.372	0.087	0.018
-535.150	-200.000	0.066	-0.319
-534.135	-68.824	0.045	-0.017
-533.121	-144.694	-0.413	0.038
-532.106	-158.402	-0.154	-0.009
-531.091	55.553	-0.139	0.136
-530.077	45.776	-0.156	0.146
-529.062	94.717	-0.190	0.218
-528.048	-57.662	-0.088	-0.039
-527.033	800.000	-0.072	0.225
-526.018	-2.497	-0.300	0.212
-525.004	-138.456	0.256	-0.028
-523.989	129.657	-0.058	0.075
-522.975	-200.000	-0.041	0.295
-521.960	800.000	-0.018	0.058
-520.945	-200.000	-0.048	0.229
-519.931	800.000	0.046	-0.159
-518.916	-48.836	-0.268	0.130
-517.902	88.840	0.175	0.197
-516.887	-16.200	0.245	0.157
-515.872	-33.822	0.273	-0.152
-514.858	-200.000	0.028	0.417
-513.843	-31.542	0.161	-0.091
-512.829	-200.000	-0.001	-0.234
-511.814	79.170	0.139	-0.150
-510.799	536.655	-0.073	0.175
-509.785	-200.000	-0.019	0.296
-508.770	160.460	-0.146	0.206
-507.756	800.000	-0.112	0.320
-506.741	-119.567	-0.282	-0.049
-505.726	-103.651	0.106	0.025
-504.712	-100.229	-0.154	0.039
-503.697	6.131	-0.055	-0.041
-502.683	800.000	-0.031	0.093
-501.668	-200.000	0.021	0.281
-500.653	-140.707	0.202	0.021
-499.639	-133.256	-0.213	0.027
-498.624	-200.000	0.014	-0.271
-497.610	24.889	0.052	-0.044
-496.595	-134.303	-0.274	-0.034
-495.581	53.223	0.307	0.296
-494.566	31.362	-0.224	0.194
-493.551	-171.275	-0.064	-0.002
-492.537	94.896	0.079	0.091
-491.522	-200.000	-0.024	0.169
-490.508	-200.000	0.019	0.168
-489.493	177.953	0.115	0.170
-488.478	789.270	-0.083	0.229
-487.464	-200.000	0.013	-0.374
-486.449	-130.885	-0.276	-0.037
-485.435	-200.000	0.033	-0.245
-484.420	-173.521	0.130	0.004
-483.405	678.313	0.029	-0.076
-482.391	-73.476	-0.089	0.033
-481.376	-122.077	-0.305	-0.050
-480.362	-12.399	0.183	0.120
-479.347	-200.000	-0.067	-0.519
-478.332	-200.000	0.012	-0.338
-477.318	200.357	0.081	0.125
-476.303	-123.529	-0.128	-0.021
-475.289	-200.000	-0.060	-0.322
-474.274	-200.000	0.044	-0.331
-473.259	101.166	-0.148	0.174
-472.245	800.000	-0.121	-0.499
-471.230	-28.169	0.132	-0.077
-470.216	-87.818	0.141	-0.043
-469.201	-12.956	-0.185	0.121
-468.186	-4.214	-0.029	-0.020
-467.172	473.007	-0.107	-0.242
-466.157	88.565	0.115	0.129
-465.143	-78.054	-0.250	-0.087
-464.128	-200.000	-0.028	0.207
-463.113	-132.572	0.130	0.017
-462.099	104.472	-0.049	-0.058
-461.084	-200.000	-0.009	0.452
-460.070	119.697	-0.116	0.145
-459.055	-84.465	0.317	-0.101
-458.040	201.476	-0.045	-0.070
-457.026	-138.843	-0.284	-0.031
-456.011	-76.841	0.237	-0.083
-454.997	-91.452	0.096	0.028
-453.982	-200.000	-0.001	0.151
-452.968	800.000	-0.026	-0.102
-451.953	-200.000	-0.069	0.306
-450.938	-131.042	-0.346	-0.046
-449.924	132.233	-0.204	0.264
-448.909	-200.000	-0.023	0.259
-447.895	324.720	-0.092	0.177
-446.880	686.812	-0.013	0.033
-445.865	-200.000	-0.022	-0.190
-444.851	-30.679	-0.337	0.192
-443.836	-200.000	0.001	0.258
-442.822	-200.000	0.041	-0.268
-441.807	565.162	0.104	0.253
-440.792	386.747	-0.122	0.253
-439.778	104.825	0.050	0.060
-438.763	-200.000	0.020	0.150
-437.749	-200.000	0.024	0.188
-436.734	18.962	-0.161	0.130
-435.719	566.164	-0.062	0.150
-434.705	-14.225	-0.218	-0.141
-433.690	-89.359	0.270	0.080
-432.676	-165.929	-0.375	-0.016
-431.661	800.000	0.052	-0.183
-430.646	-30.200	0.221	-0.126
-429.632	174.562	0.099	-0.144
-428.617	779.460	0.103	-0.282
-427.603	133.553	-0.139	-0.180
-426.588	800.000	-0.105	0.377
-425.573	-40.872	0.110	0.057
-424.559	-76.040	0.035	0.013
-423.544	-18.915	-0.249	-0.156
-422.530	92.936	-0.195	0.221
-421.515	-121.740	0.239	-0.040
-420.500	258.328	-0.165	0.285
-419.486	31.346	-0.325	0.280
-418.471	-106.782	0.372	-0.083
-417.457	760.666	0.024	-0.067
-416.442	-54.650	0.268	-0.122
-415.428	-8.570	-0.139	-0.093
-414.413	42.290	0.048	-0.044
-413.398	-74.355	-0.139	-0.050
-412.384	800.000	0.030	-0.121
-411.369	434.587	0.082	-0.180
-410.355	800.000	-0.075	-0.235
-409.340	-126.677	-0.309	-0.046
-408.325	-97.211	0.190	0.050
-407.311	-26.136	0.204	0.120
-406.296	-200.000	-0.042	0.192
-405.282	5.121	-0.156	0.115
-404.267	389.713	-0.013	0.026
-403.252	-138.161	-0.302	-0.034
-402.238	-200.000	-0.024	0.120
-401.223	24.982	0.093	0.078
-400.209	-139.191	0.054	-0.006
-399.194	41.189	0.115	-0.105
-398.179	242.038	0.015	0.026
-397.165	198.695	0.082	0.126
-396.150	-200.000	0.024	-0.164
-395.136	6.857	-0.160	0.119
-394.121	-101.019	-0.321	0.079
-393.106	-1.691	0.334	-0.236
-392.092	-75.514	0.090	-0.032
-391.077	40.813	-0.056	-0.051
-390.063	-145.643	0.105	0.009
-389.048	-11.205	0.070	0.046
-388.033	-79.621	0.551	0.186
-387.019	-200.000	-0.043	0.311
-386.004	19.454	-0.195	0.157
-384.990	312.563	-0.055	0.104
-383.975	-100.393	-0.070	0.017
-382.960	-41.706	-0.216	-0.111
-381.946	-75.248	-0.151	-0.054
-380.931	10.518	-0.079	-0.060
-379.917	430.061	0.033	-0.072
-378.902	-200.000	0.019	-0.146
-377.888	-200.000	0.013	-0.148
-376.873	-96.054	-0.042	0.011
-375.858	800.000	0.051	-0.222
-374.844	-121.290	-0.086	-0.014
-373.829	144.076	-0.170	-0.227
-372.815	-200.000	-0.011	0.132
-371.800	-51.936	-0.247	0.115
-370.785	-64.884	0.043	-0.017
-369.771	800.000	0.054	-0.194
-368.756	178.009	0.122	0.178
-367.742	800.000	-0.078	-0.273
-366.727	-164.897	0.157	0.007
-365.712	19.453	-0.138	0.111
-364.698	10.775	-0.013	0.010
-363.683	800.000	0.037	0.127
-362.669	-150.323	-0.610	0.047
-361.654	16.025	0.244	-0.193
-360.639	237.814	-0.121	-0.202
-359.625	157.951	0.103	0.143
-358.610	-200.000	-0.020	0.276
-357.596	-200.000	-0.033	0.168
-356.581	-109.524	0.242	0.051
-355.566	-133.136	0.332	-0.042
-354.552	-100.971	0.190	-0.047
-353.537	-0.365	-0.232	0.165
-352.523	-155.570	-0.234	0.015
-351.508	76.520	-0.190	-0.202
-350.493	-200.000	0.054	-0.241
-349.479	234.261	0.124	0.205
-348.464	540.940	0.072	0.171
-347.450	364.793	-0.075	-0.150
-346.435	159.129	0.014	-0.019
-345.420	451.493	-0.057	0.127
-344.406	-92.980	-0.096	0.027
-343.391	573.740	0.060	0.147
-342.377	-62.237	-0.137	-0.057
-341.362	30.750	0.255	0.219
-340.348	-200.000	0.057	-0.496
-339.333	-48.967	-0.215	-0.103
-338.318	29.435	0.029	0.025
-337.304	-186.397	0.303	0.004
-336.289	77.201	0.171	-0.182
-335.275	62.457	0.253	-0.253
-334.260	-108.183	0.263	-0.057
-333.245	-78.576	0.238	0.082
-332.231	28.713	0.226	-0.192
-331.216	528.296	-0.081	-0.192
-330.202	-159.556	-0.437	-0.024
-329.187	405.053	0.106	-0.223
-328.172	-108.822	-0.167	-0.036
-327.158	-144.482	-0.462	0.043
-326.143	241.058	0.141	-0.235
-325.129	-149.105	0.282	-0.023
-324.114	-64.932	-0.143	-0.058
-323.099	175.328	0.107	0.156
-322.085	-200.000	0.043	0.308
-321.070	104.609	0.059	-0.069
-320.056	-133.007	0.080	-0.010
-319.041	286.198	-0.200	0.361
-318.026	-200.000	0.002	0.026
-317.012	-47.125	0.079	0.039
-315.997	49.834	-0.284	0.267
-314.983	-150.250	-0.101	-0.008
-313.968	-66.947	0.392	0.155
-312.953	136.771	0.035	-0.046
-311.939	-200.000	0.010	-0.124
-310.924	-200.000	0.006	0.123
-309.910	-154.887	0.384	0.025
-308.895	387.515	0.137	-0.282
-307.880	13.506	-0.112	0.087
-306.866	-57.227	-0.390	-0.172
-305.851	-50.853	-0.142	-0.067
-304.837	257.436	-0.204	-0.351
-303.822	661.205	0.051	-0.132
-302.807	-200.000	0.021	0.125
-301.793	-12.723	0.115	0.075
-300.778	25.273	0.126	0.105
-299.764	-74.741	0.531	-0.191
-298.749	674.859	-0.022	-0.056
-297.735	800.000	0.067	0.231
-296.720	800.000	-0.076	-0.297
-295.705	-178.397	0.195	0.005
-294.691	394.981	0.023	-0.048
-293.676	177.008	0.127	-0.185
-292.662	800.000	-0.033	-0.114
-291.647	593.097	-0.021	-0.051
-290.632	451.754	0.158	-0.348
-289.618	-89.867	0.118	0.034
-288.603	-200.000	0.042	0.205
-287.589	800.000	0.013	-0.050
-286.574	-83.654	0.314	-0.100
-285.559	-200.000	0.006	0.126
-284.545	-23.829	-0.148	0.088
-283.530	-45.905	-0.386	0.191
-282.516	6.507	0.095	0.070
-281.501	-47.146	-0.267	-0.130
-280.486	-200.000	0.034	-0.193
-279.472	800.000	0.051	0.161
-278.457	130.862	0.074	0.095
-277.443	-61.346	0.073	0.031
-276.428	-200.000	0.001	-0.009
-275.413	-122.427	0.330	0.054
-274.399	-12.042	-0.156	0.102
-273.384	356.196	0.038	0.076
-272.370	-52.431	-0.534	-0.246
-271.355	-150.700	-0.264	-0.020
-270.340	-60.030	0.097	-0.042
-269.326	-14.417	0.202	0.130
-268.311	-68.859	0.366	0.141
-267.297	715.817	-0.116	-0.307
-266.282	800.000	-0.037	0.106
-265.267	-200.000	-0.050	-0.227
-264.253	228.714	0.155	0.253
-263.238	119.142	-0.066	0.081
-262.224	800.000	0.047	-0.189
-261.209	-157.630	0.457	-0.027
-260.195	491.378	-0.116	-0.264
-259.180	800.000	-0.046	-0.128
-258.165	-60.767	0.135	-0.057
-257.151	21.523	-0.145	0.118
-256.136	-78.608	0.261	0.089
-255.122	-170.835	-0.115	0.004
-254.107	143.301	0.073	0.097
-253.092	-1.418	0.090	-0.063
-252.078	-200.000	-0.110	-0.564
-251.063	-80.350	-0.180	-0.060
-250.049	150.311	0.154	0.208
-249.034	-45.408	0.276	0.137
-248.019	159.623	-0.213	-0.295
-247.005	161.309	0.042	0.059
-245.990	151.815	0.072	0.097
-244.976	27.275	0.247	-0.207
-243.961	99.717	-0.086	-0.099
-242.946	-100.343	-0.093	-0.023
-241.932	-200.000	-0.025	-0.143
-240.917	800.000	0.046	-0.171
-239.903	-56.200	0.173	0.077
-238.888	261.376	0.111	0.191
-237.873	102.023	0.278	0.324
-236.859	-69.573	-0.169	-0.064
-235.844	-33.965	0.093	-0.051
-234.830	-17.397	0.136	0.085
-233.815	-193.314	-0.333	-0.003
-232.800	8.003	0.284	0.212
-231.786	208.250	-0.017	0.026
-230.771	27.357	0.197	-0.165
-229.757	-61.642	-0.268	-0.112
-228.742	108.522	0.121	0.144
-227.727	271.312	-0.050	0.088
-226.713	-72.257	0.245	0.091
-225.698	49.358	0.136	0.128
-224.684	-200.000	0.050	-0.266
-223.669	-80.267	0.087	-0.029
-222.655	162.699	0.108	-0.151
-221.640	-46.908	0.051	0.025
-220.625	201.545	-0.137	-0.210
-219.611	-147.791	0.351	0.029
-218.596	224.596	0.117	0.188
-217.582	404.834	-0.034	-0.072
-216.567	-80.682	0.034	-0.011
-215.552	120.368	-0.187	0.232
-214.538	-82.283	0.099	0.032
-213.523	800.000	0.102	0.433
-212.509	-200.000	0.060	-0.362
-211.494	54.731	-0.144	0.139
-210.479	287.369	0.186	-0.334
-209.465	503.418	0.028	0.065
-208.450	800.000	-0.037	0.153
-207.436	412.231	-0.114	-0.241
-206.421	-163.055	0.091	0.004
-205.406	-139.174	0.219	0.024
-204.392	59.606	-0.082	0.080
-203.377	604.008	0.123	0.305
-202.363	284.825	0.072	0.128
-201.348	800.000	-0.145	0.411
-200.333	-200.000	0.008	-0.198
-199.319	-200.000	0.011	0.190
-198.304	324.332	0.158	-0.301
-197.290	54.717	-0.089	-0.085
-196.275	-159.284	0.296	0.017
-195.260	-200.000	0.054	0.321
-194.246	800.000	0.013	0.039
-193.231	594.144	0.073	0.180
-192.217	19.679	0.089	-0.071
-191.202	800.000	-0.041	-0.146
-190.187	800.000	0.035	0.105
-189.173	-134.724	0.306	-0.037
-188.158	800.000	0.064	-0.274
-187.144	-52.422	0.246	0.113
-186.129	216.326	-0.147	0.233
-185.114	800.000	0.092	0.318
-184.100	-144.429	0.364	0.034
-183.085	-60.448	-0.236	0.100
-182.071	-178.471	-0.203	0.005
-181.056	0.881	0.076	0.054
-180.042	51.330	0.143	0.135
-179.027	159.778	0.050	-0.069
-178.012	-75.804	0.234	-0.083
-176.998	-117.126	0.331	0.060
-175.983	69.410	-0.168	-0.172
-174.969	-200.000	0.059	-0.501
-173.954	-131.056	0.138	-0.018
-172.939	98.960	-0.131	-0.151
-171.925	183.175	-0.149	-0.219
-170.910	356.238	0.054	-0.107
-169.896	-89.537	-0.037	0.011
-168.881	800.000	0.073	-0.222
-167.866	-55.457	-0.237	-0.106
-166.852	-200.000	-0.006	0.152
-165.837	-182.273	-0.460	-0.009
-164.823	-93.219	0.201	0.056
-163.808	-200.000	-0.062	0.475
-162.793	-95.136	-0.216	-0.058
-161.779	-200.000	-0.005	0.057
-160.764	0.449	0.298	-0.212
-159.750	166.131	-0.089	-0.125
-158.735	-105.193	-0.177	0.040
-157.720	69.269	0.077	-0.079
-156.706	-174.985	-0.169	-0.005
-155.691	-109.413	-0.322	-0.068
-154.677	645.037	-0.042	-0.106
-153.662	198.619	-0.073	-0.111
-152.647	-34.972	-0.273	0.148
-151.633	2.542	-0.179	-0.129
-150.618	28.813	0.112	-0.094
-149.604	252.939	0.098	0.166
-148.589	171.523	0.099	0.142
-147.574	298.777	-0.065	-0.119
-146.560	-200.000	0.019	-0.331
-145.545	-7.261	-0.173	0.116
-144.531	570.004	-0.138	0.334
-143.516	-42.848	-0.215	0.108
-142.502	-4.816	-0.118	0.081
-141.487	-200.000	0.038	0.198
-140.472	-54.149	-0.137	-0.062
-139.458	-84.946	-0.228	-0.071
-138.443	34.499	0.174	-0.151
-137.429	-46.523	0.297	-0.145
-136.414	237.038	-0.191	-0.315
-135.399	281.688	-0.029	0.052
-134.385	70.194	-0.186	0.190
-133.370	43.780	0.152	0.139
-132.356	558.141	-0.082	0.197
-131.341	-138.671	0.208	0.023
-130.326	394.757	-0.195	0.404
-129.312	-200.000	-0.040	-0.237
-128.297	-17.825	0.081	0.050
-127.283	800.000	-0.069	-0.255
-126.268	46.257	-0.293	0.270
-125.253	-21.073	0.095	-0.058
-124.239	-7.714	-0.197	0.132
-123.224	547.324	-0.095	-0.227
-122.210	137.391	-0.082	0.106
-121.195	-200.000	-0.012	0.094
