DTS Sentinel unit serial number:	SN413079Multiplexer serial number:	ORYXHardware model number:	OX4-SRSoftware version number:	ORYX F/W v4.00 Oryx Data Collector v3.7.2.0data status	okinstallation	princeton_trtdifferential loss correction	single-endedforward channel	channel 4reverse channel	N/Adate	2019/09/11time	15:35:10forward acquisition time	60.00reverse acquisition time	0.00gamma	496.2192k internal	0.2278k external	0.2278temperature offset calibration	1.0016default loss term (dB/km)	0.3790temperature slope calibration	1.0000multiplexer offset coefficient	1.0000multiplexer slope coefficient	1.0000fibre end	0.00T internal ref (°C)	42.81T ext. ref 1 (°C)	1.03T ext. ref 2 (°C)	37.29length (m)	temperature (°C)	Stokes	anti-Stokes-747.200	-97.971	0.290	0.077
-746.185	-1.182	0.057	-0.041
-745.171	332.115	-0.082	0.162
-744.156	-17.389	-0.197	0.128
-743.142	-200.000	-0.004	-0.204
-742.127	657.191	0.082	0.216
-741.112	-200.000	0.003	-0.044
-740.098	632.577	-0.225	0.587
-739.083	472.331	-0.061	-0.141
-738.069	94.818	0.080	-0.094
-737.054	-41.351	0.313	0.166
-736.039	558.044	-0.077	-0.191
-735.025	5.700	0.177	0.135
-734.010	22.479	-0.423	-0.357
-732.996	-50.201	-0.397	-0.194
-731.981	-200.000	0.015	-0.286
-730.966	72.226	-0.060	-0.065
-729.952	34.676	-0.137	0.123
-728.937	-28.584	-0.218	-0.129
-727.923	227.059	-0.100	-0.166
-726.908	136.543	-0.093	0.125
-725.894	9.854	0.169	-0.132
-724.879	-96.360	-0.366	0.100
-723.864	-67.170	-0.118	0.048
-722.850	434.720	0.074	-0.166
-721.835	483.565	-0.089	-0.209
-720.821	189.684	0.033	0.051
-719.806	-109.628	0.341	-0.074
-718.791	-20.257	-0.075	0.047
-717.777	346.750	0.072	-0.145
-716.762	800.000	0.051	0.163
-715.748	717.969	-0.111	0.303
-714.733	193.440	0.070	-0.109
-713.718	-200.000	-0.012	-0.082
-712.704	104.892	0.013	-0.016
-711.689	2.095	0.185	-0.137
-710.675	-98.602	0.205	-0.054
-709.660	146.178	-0.088	-0.121
-708.645	-200.000	0.014	-0.370
-707.631	682.122	-0.077	-0.205
-706.616	-109.206	-0.224	-0.049
-705.602	-16.045	0.097	0.064
-704.587	91.055	0.131	-0.151
-703.572	-200.000	0.016	0.148
-702.558	-94.580	0.119	-0.033
-701.543	172.858	0.155	0.230
-700.529	31.134	-0.216	0.190
-699.514	-12.671	0.247	-0.165
-698.499	-165.420	0.322	0.014
-697.485	800.000	0.087	0.335
-696.470	-200.000	0.010	0.120
-695.456	800.000	-0.074	0.272
-694.441	-200.000	0.020	0.289
-693.426	312.933	0.086	-0.167
-692.412	371.225	0.104	-0.218
-691.397	800.000	-0.075	-0.215
-690.383	228.266	-0.144	-0.240
-689.368	-128.652	-0.231	0.034
-688.354	108.238	-0.278	0.341
-687.339	-46.642	-0.179	-0.090
-686.324	363.131	-0.131	-0.270
-685.310	-200.000	0.017	-0.258
-684.295	-200.000	-0.002	0.106
-683.281	-67.957	0.179	-0.072
-682.266	143.152	0.334	0.457
-681.251	139.591	-0.090	-0.121
-680.237	296.954	-0.227	0.429
-679.222	-133.500	0.366	0.047
-678.208	-200.000	0.046	0.286
-677.193	-200.000	-0.011	-0.087
-676.178	183.931	-0.150	-0.228
-675.164	177.504	0.068	-0.102
-674.149	563.420	-0.041	0.101
-673.135	9.951	0.173	0.135
-672.120	71.105	-0.025	0.027
-671.105	-139.546	0.176	-0.019
-670.091	207.046	-0.049	-0.079
-669.076	-26.527	0.140	0.084
-668.062	-200.000	0.004	-0.309
-667.047	-200.000	-0.034	0.196
-666.032	-200.000	0.023	0.142
-665.018	254.334	0.236	0.415
-664.003	800.000	-0.022	-0.068
-662.989	800.000	0.071	-0.212
-661.974	447.819	0.059	0.133
-660.959	26.777	-0.136	0.117
-659.945	236.777	0.155	0.264
-658.930	236.915	0.157	0.267
-657.916	210.619	0.080	-0.129
-656.901	800.000	0.031	-0.092
-655.886	-71.335	-0.073	-0.028
-654.872	83.131	0.054	0.060
-653.857	-200.000	0.006	-0.282
-652.843	255.399	0.178	-0.314
-651.828	109.644	0.049	0.060
-650.814	-132.525	0.069	-0.009
-649.799	73.189	-0.018	0.020
-648.784	38.920	0.182	0.167
-647.770	688.140	-0.056	-0.149
-646.755	32.171	0.208	0.184
-645.741	27.582	-0.259	0.223
-644.726	-3.762	0.267	0.190
-643.711	-55.215	-0.410	-0.189
-642.697	-200.000	0.003	-0.063
-641.682	26.316	0.318	0.273
-640.668	800.000	0.030	0.133
-639.653	50.967	0.112	-0.108
-638.638	-200.000	0.002	-0.158
-637.624	-126.715	-0.072	0.011
-636.609	448.478	-0.040	-0.090
-635.595	-200.000	0.045	0.240
-634.580	-145.018	-0.057	0.005
-633.565	-200.000	-0.016	-0.326
-632.551	-144.468	0.325	-0.031
-631.536	242.161	-0.121	0.207
-630.522	-200.000	-0.026	0.263
-629.507	8.479	0.271	-0.209
-628.492	16.202	-0.050	0.040
-627.478	-200.000	0.004	0.490
-626.463	-58.577	-0.165	0.073
-625.449	-49.227	-0.210	0.103
-624.434	-86.351	0.279	0.088
-623.419	-12.817	0.215	0.144
-622.405	-200.000	-0.136	0.000
-621.390	-60.852	0.397	0.172
-620.376	193.509	0.105	0.163
-619.361	-11.165	0.145	-0.098
-618.346	132.376	0.091	0.120
-617.332	111.066	-0.180	0.223
-616.317	-100.660	0.340	-0.086
-615.303	87.585	0.285	-0.324
-614.288	566.300	-0.123	-0.305
-613.273	135.551	-0.162	0.216
-612.259	8.388	0.204	-0.157
-611.244	-200.000	-0.019	-0.183
-610.230	-30.438	0.139	-0.081
-609.215	-183.060	-0.262	-0.005
-608.201	15.223	0.190	-0.153
-607.186	-200.000	-0.011	0.093
-606.171	30.662	-0.225	0.197
-605.157	800.000	-0.112	-0.390
-604.142	-69.843	0.290	0.113
-603.128	73.244	0.348	-0.372
-602.113	31.687	-0.219	0.193
-601.098	800.000	0.044	0.137
-600.084	13.429	-0.053	-0.042
-599.069	-200.000	-0.032	0.153
-598.055	360.663	-0.066	-0.136
-597.040	-91.364	0.053	0.016
-596.025	437.809	-0.028	0.061
-595.011	800.000	0.111	0.318
-593.996	800.000	-0.056	-0.184
-592.982	-92.429	-0.199	0.057
-591.967	-200.000	-0.006	-0.275
-590.952	-20.999	-0.079	0.050
-589.938	59.220	0.167	-0.168
-588.923	-13.130	0.162	-0.108
-587.909	-134.185	0.161	0.020
-586.894	800.000	-0.015	-0.063
-585.879	34.224	-0.188	-0.167
-584.865	-200.000	0.007	-0.091
-583.850	53.181	-0.214	0.210
-582.836	-5.058	0.109	0.077
-581.821	-118.358	0.137	0.025
-580.806	-32.691	-0.116	0.066
-579.792	149.890	0.098	-0.136
-578.777	-102.744	-0.233	0.057
-577.763	-94.245	-0.182	0.051
-576.748	21.682	-0.234	-0.195
-575.733	63.857	-0.164	0.169
-574.719	368.271	0.196	-0.405
-573.704	164.843	0.207	0.298
-572.690	-153.346	-0.235	-0.017
-571.675	-6.054	0.120	-0.084
-570.661	800.000	0.103	0.296
-569.646	231.897	-0.204	0.343
-568.631	-67.399	-0.241	0.097
-567.617	1.163	0.105	0.077
-566.602	291.581	0.161	-0.300
-565.588	-200.000	0.036	0.334
-564.573	-1.126	0.179	-0.129
-563.558	-127.742	-0.168	-0.025
-562.544	-100.720	-0.262	0.066
-561.529	-200.000	0.016	-0.298
-560.515	800.000	-0.067	0.192
-559.500	-68.376	-0.368	0.146
-558.485	-200.000	-0.019	0.261
-557.471	25.229	0.251	-0.213
-556.456	77.017	-0.266	0.289
-555.442	-84.899	-0.142	-0.046
-554.427	800.000	0.010	0.041
-553.412	28.966	0.103	0.089
-552.398	-100.737	0.148	-0.037
-551.383	-18.745	-0.208	-0.132
-550.369	-200.000	0.018	-0.088
-549.354	-82.414	0.084	0.028
-548.339	-30.664	0.109	-0.063
-547.325	25.158	-0.107	-0.091
-546.310	-24.118	-0.198	0.121
-545.296	-7.323	-0.414	-0.287
-544.281	98.530	-0.118	-0.138
-543.266	-130.458	0.327	0.045
-542.252	-200.000	-0.035	-0.244
-541.237	-135.425	0.036	0.004
-540.223	-200.000	-0.032	0.335
-539.208	-62.736	-0.121	-0.051
-538.193	800.000	0.100	-0.311
-537.179	190.282	0.117	0.179
-536.164	130.840	0.151	-0.198
-535.150	-111.204	-0.459	0.096
-534.135	257.736	-0.050	-0.087
-533.121	800.000	0.094	-0.270
-532.106	329.962	0.131	0.257
-531.091	799.753	-0.058	0.164
-530.077	800.000	-0.089	0.321
-529.062	-77.752	0.148	-0.052
-528.048	-200.000	0.012	-0.283
-527.033	-157.055	-0.099	-0.006
-526.018	-200.000	-0.022	-0.189
-525.004	-34.746	0.282	0.158
-523.989	208.571	-0.102	-0.162
-522.975	374.640	-0.135	0.280
-521.960	431.261	-0.068	0.151
-520.945	506.468	0.168	0.398
-519.931	-66.054	-0.134	-0.055
-518.916	5.456	-0.182	-0.137
-517.902	-200.000	0.011	-0.183
-516.887	-170.610	-0.476	-0.017
-515.872	800.000	0.032	0.137
-514.858	-77.302	0.313	0.111
-513.843	93.898	-0.132	0.153
-512.829	235.975	0.060	0.101
-511.814	-200.000	0.000	-0.071
-510.799	-82.657	-0.398	0.132
-509.785	-25.326	0.099	-0.060
-508.770	12.541	0.186	0.146
-507.756	140.723	0.111	0.150
-506.741	-200.000	0.006	-0.049
-505.726	59.627	0.281	-0.283
-504.712	-155.557	0.021	0.001
-503.697	-196.290	0.278	-0.002
-502.683	-19.706	0.219	-0.138
-501.668	-186.255	0.122	-0.002
-500.653	49.012	-0.282	-0.270
-499.639	-18.607	0.332	0.211
-498.624	-124.838	-0.301	0.047
-497.610	386.521	0.027	0.057
-496.595	-136.618	-0.040	-0.005
-495.581	-139.726	0.252	-0.027
-494.566	-1.264	-0.099	-0.071
-493.551	800.000	0.047	-0.201
-492.537	154.845	0.132	0.185
-491.522	4.927	0.053	-0.040
-490.508	327.872	0.091	0.178
-489.493	-94.923	-0.092	-0.025
-488.478	-200.000	0.004	0.034
-487.464	222.401	0.109	-0.179
-486.449	137.586	-0.172	-0.230
-485.435	289.142	0.167	0.309
-484.420	-20.295	0.230	0.144
-483.405	-20.709	-0.322	0.201
-482.391	-101.344	0.220	-0.055
-481.376	71.598	0.248	0.263
-480.362	800.000	-0.062	0.247
-479.347	233.238	0.243	-0.407
-478.332	105.128	0.169	0.203
-477.318	-101.118	0.123	-0.031
-476.303	-86.478	0.256	0.080
-475.289	115.765	0.059	0.074
-474.274	156.712	0.172	-0.243
-473.259	-45.808	-0.145	-0.073
-472.245	478.495	-0.040	0.093
-471.230	-200.000	0.004	0.138
-470.216	-39.283	0.358	-0.191
-469.201	286.355	-0.086	-0.158
-468.186	421.268	0.139	-0.305
-467.172	320.142	-0.100	0.194
-466.157	-84.894	-0.220	0.070
-465.143	-149.565	-0.192	-0.015
-464.128	410.423	-0.128	-0.276
-463.113	800.000	-0.060	0.204
-462.099	800.000	-0.092	-0.258
-461.084	800.000	-0.044	-0.179
-460.070	245.513	-0.084	0.144
-459.055	53.794	-0.207	-0.203
-458.040	0.984	-0.047	-0.034
-457.026	187.505	0.163	-0.248
-456.011	122.884	0.144	-0.183
-454.997	-200.000	0.017	-0.296
-453.982	-18.827	0.095	-0.060
-452.968	209.630	-0.183	0.292
-451.953	-102.110	0.191	-0.047
-450.938	-15.957	0.267	-0.173
-449.924	163.418	-0.189	-0.271
-448.909	-33.913	0.323	0.181
-447.895	-200.000	-0.006	-0.060
-446.880	258.103	0.116	0.203
-445.865	800.000	-0.081	0.259
-444.851	157.236	-0.132	-0.186
-443.836	315.942	0.069	-0.133
-442.822	230.869	0.114	0.190
-441.807	800.000	-0.136	0.557
-440.792	53.615	0.091	0.089
-439.778	78.481	0.206	0.224
-438.763	-93.476	-0.212	-0.060
-437.749	-200.000	0.037	0.283
-436.734	-32.857	0.243	0.137
-435.719	-93.937	-0.361	0.101
-434.705	-200.000	-0.011	0.135
-433.690	-38.620	0.122	0.066
-432.676	223.014	0.134	-0.220
-431.661	-115.963	-0.131	0.025
-430.646	108.322	0.092	-0.112
-429.632	104.586	-0.062	0.075
-428.617	-56.912	-0.227	0.102
-427.603	800.000	0.009	0.027
-426.588	-32.231	-0.143	-0.081
-425.573	-178.195	-0.382	-0.009
-424.559	-2.555	-0.105	-0.075
-423.544	-161.510	-0.411	0.022
-422.530	-200.000	0.064	0.332
-421.515	-77.707	0.187	0.066
-420.500	-118.299	0.125	-0.023
-419.486	273.178	0.028	0.051
-418.471	-62.326	-0.255	0.108
-417.457	-2.616	-0.142	-0.101
-416.442	-168.614	-0.100	-0.004
-415.428	800.000	0.031	-0.121
-414.413	-200.000	0.014	-0.073
-413.398	800.000	0.099	-0.398
-412.384	403.825	0.117	0.250
-411.369	-200.000	0.001	-0.062
-410.355	75.812	0.119	0.128
-409.340	-0.432	0.228	0.164
-408.325	147.385	0.049	0.067
-407.311	-200.000	-0.019	-0.242
-406.296	-200.000	-0.061	-0.348
-405.282	-112.299	-0.182	0.037
-404.267	-85.296	0.309	-0.098
-403.252	800.000	-0.052	-0.228
-402.238	800.000	-0.059	0.232
-401.223	-101.099	-0.069	-0.017
-400.209	111.047	0.170	0.208
-399.194	445.261	0.185	-0.413
-398.179	28.027	-0.116	0.099
-397.165	19.844	0.224	-0.183
-396.150	-200.000	-0.018	-0.124
-395.136	-88.825	0.076	0.023
-394.121	-200.000	0.036	0.303
-393.106	21.523	-0.154	-0.128
-392.092	-200.000	0.002	0.037
-391.077	708.602	-0.037	0.101
-390.063	427.061	0.157	-0.345
-389.048	800.000	0.096	-0.424
-388.033	132.715	-0.198	-0.260
-387.019	800.000	0.068	0.280
-386.004	-85.761	-0.157	-0.049
-384.990	183.752	-0.057	-0.086
-383.975	35.850	0.137	0.123
-382.960	704.882	0.058	0.156
-381.946	-68.242	0.211	0.083
-380.931	-200.000	-0.016	-0.110
-379.917	371.091	-0.011	-0.023
-378.902	-0.945	0.258	-0.185
-377.888	11.673	0.194	-0.151
-376.873	50.252	0.213	-0.205
-375.858	507.711	0.106	0.249
-374.844	-130.482	-0.334	0.046
-373.829	-70.089	-0.188	-0.073
-372.815	83.718	0.117	0.129
-371.800	113.670	-0.341	-0.420
-370.785	-200.000	0.072	-0.417
-369.771	-5.967	0.060	-0.041
-368.756	-28.728	-0.117	0.068
-367.742	-96.689	-0.155	-0.041
-366.727	-72.653	0.117	-0.044
-365.712	-26.930	-0.096	0.057
-364.698	-200.000	0.002	0.017
-363.683	17.198	-0.154	0.124
-362.669	-200.000	0.005	0.174
-361.654	-4.008	0.275	0.193
-360.639	105.287	0.076	0.091
-359.625	800.000	-0.088	0.276
-358.610	-109.988	-0.189	-0.040
-357.596	117.995	0.280	-0.350
-356.581	-1.391	-0.140	-0.100
-355.566	-154.795	0.366	0.025
-354.552	-85.745	-0.320	0.101
-353.537	-173.408	0.298	0.009
-352.523	800.000	0.091	0.379
-351.508	-200.000	-0.136	0.000
-350.493	-200.000	0.031	-0.239
-349.479	800.000	-0.119	0.404
-348.464	371.004	0.175	-0.361
-347.450	-101.344	-0.187	0.046
-346.435	-37.816	0.351	0.189
-345.420	114.823	-0.156	-0.192
-344.406	-200.000	0.011	-0.064
-343.391	1.193	0.174	-0.126
-342.377	-13.906	0.203	-0.133
-341.362	800.000	-0.019	-0.073
-340.348	74.987	-0.109	-0.116
-339.333	-200.000	-0.040	-0.589
-338.318	-93.620	0.030	0.008
-337.304	562.287	-0.120	-0.294
-336.289	800.000	-0.107	-0.299
-335.275	-200.000	0.009	-0.118
-334.260	-142.520	0.231	0.023
-333.245	-200.000	0.039	-0.191
-332.231	49.894	-0.088	-0.084
-331.216	-200.000	-0.030	-0.164
-330.202	-2.085	-0.033	-0.024
-329.187	-200.000	-0.035	-0.203
-328.172	-105.139	0.098	-0.023
-327.158	-149.506	0.192	0.015
-326.143	354.088	-0.092	-0.186
-325.129	294.358	0.117	-0.216
-324.114	-153.304	-0.144	-0.010
-323.099	17.371	-0.143	0.115
-322.085	52.511	-0.062	0.060
-321.070	-200.000	0.004	0.019
-320.056	-200.000	-0.020	-0.096
-319.041	-146.945	0.207	0.018
-318.026	132.933	0.061	-0.079
-317.012	-5.547	0.067	0.047
-315.997	-101.950	0.357	0.087
-314.983	234.865	0.107	-0.179
-313.968	71.097	-0.117	0.123
-312.953	-142.437	0.060	-0.006
-311.939	-64.584	0.273	-0.112
-310.924	-26.525	0.221	-0.131
-309.910	89.042	-0.041	0.046
-308.895	800.000	0.072	0.204
-307.880	-20.591	0.245	0.152
-306.866	-200.000	0.028	0.356
-305.851	-200.000	0.028	0.184
-304.837	-70.654	0.143	0.055
-303.822	715.450	-0.035	-0.095
-302.807	-115.108	-0.224	0.043
-301.793	37.556	0.227	0.204
-300.778	800.000	-0.043	-0.132
-299.764	800.000	-0.016	0.059
-298.749	-33.068	-0.286	-0.160
-297.735	48.243	0.144	0.136
-296.720	-69.290	-0.462	-0.180
-295.705	800.000	0.049	0.141
-294.691	199.770	0.045	-0.069
-293.676	-200.000	-0.044	0.236
-292.662	-69.622	-0.200	-0.077
-291.647	-125.361	0.239	0.037
-290.632	-63.995	-0.216	-0.089
-289.618	-55.978	0.019	-0.009
-288.603	7.240	-0.114	0.086
-287.589	-87.563	-0.242	-0.074
-286.574	-33.294	-0.232	-0.130
-285.559	388.602	0.140	-0.294
-284.545	19.594	-0.124	0.101
-283.530	-124.450	-0.142	-0.022
-282.516	592.763	-0.170	-0.426
-281.501	262.938	-0.104	0.183
-280.486	-24.033	-0.161	0.098
-279.472	-139.170	0.187	-0.020
-278.457	-54.999	0.227	-0.103
-277.443	-65.977	-0.524	0.212
-276.428	116.136	0.191	-0.237
-275.413	30.190	-0.117	-0.101
-274.399	800.000	-0.070	0.287
-273.384	403.088	0.127	-0.270
-272.370	-200.000	-0.093	-0.434
-271.355	-68.373	-0.375	0.147
-270.340	753.817	0.076	0.206
-269.326	-101.912	0.211	0.052
-268.311	165.993	0.062	-0.089
-267.297	-48.326	-0.015	-0.007
-266.282	-200.000	0.027	0.169
-265.267	-200.000	0.028	0.312
-264.253	-44.850	0.378	0.191
-263.238	199.524	0.153	0.236
-262.224	-120.342	-0.244	0.042
-261.209	-200.000	-0.011	0.278
-260.195	19.876	-0.211	0.172
-259.180	-54.652	-0.078	0.036
-258.165	276.542	-0.037	0.066
-257.151	13.929	0.113	0.089
-256.136	-38.806	-0.108	-0.057
-255.122	469.835	0.054	-0.123
-254.107	-127.802	-0.258	-0.038
-253.092	70.150	-0.216	-0.225
-252.078	51.054	0.169	-0.162
-251.063	800.000	0.029	-0.081
-250.049	-10.065	0.034	-0.023
-249.034	-200.000	-0.040	-0.257
-248.019	19.685	-0.345	0.280
-247.005	800.000	-0.036	-0.106
-245.990	800.000	-0.087	-0.262
-244.976	11.819	0.101	-0.078
-243.961	132.757	0.282	0.368
-242.946	-59.577	-0.152	-0.066
-241.932	-200.000	-0.029	-0.299
-240.917	-98.558	-0.276	0.071
-239.903	800.000	-0.054	0.154
-238.888	-161.601	0.175	0.009
-237.873	-200.000	-0.022	-0.258
-236.859	-41.545	0.211	-0.110
-235.844	526.870	0.140	0.333
-234.830	-33.486	0.170	-0.095
-233.815	361.556	0.059	0.119
-232.800	239.635	0.087	-0.147
-231.786	-48.994	-0.047	-0.023
-230.771	-200.000	-0.009	-0.130
-229.757	800.000	0.082	0.318
-228.742	-200.000	-0.009	0.062
-227.727	-29.654	-0.075	-0.043
-226.713	-63.615	-0.241	-0.100
-225.698	-200.000	-0.005	-0.068
-224.684	-69.950	-0.218	-0.084
-223.669	-161.035	-0.092	0.005
-222.655	65.978	-0.327	-0.335
-221.640	-84.322	-0.255	-0.081
-220.625	-200.000	-0.010	-0.078
-219.611	-196.324	0.110	-0.001
-218.596	-62.292	0.111	0.047
-217.582	671.255	0.080	0.209
-216.567	79.063	-0.144	0.156
-215.552	-143.829	-0.186	0.018
-214.538	337.025	0.129	-0.254
-213.523	-97.980	-0.395	0.103
-212.509	-107.773	-0.154	0.034
-211.494	512.240	-0.006	0.013
-210.479	-9.607	-0.224	0.151
-209.465	-3.044	-0.352	-0.248
-208.450	6.088	0.166	-0.124
-207.436	-65.201	0.087	0.036
-206.421	237.846	-0.086	-0.143
-205.406	-200.000	0.006	-0.110
-204.392	128.128	-0.126	0.162
-203.377	294.557	-0.140	0.257
-202.363	44.347	0.141	0.130
-201.348	-200.000	-0.280	-0.000
-200.333	-200.000	-0.052	0.286
-199.319	267.328	0.079	0.140
-198.304	-200.000	0.007	0.109
-197.290	5.720	0.228	0.170
-196.275	229.094	-0.102	0.168
-195.260	-200.000	-0.019	0.499
-194.246	-167.541	-0.441	-0.018
-193.231	237.297	0.112	-0.188
-192.217	350.905	0.087	0.174
-191.202	-200.000	-0.046	-0.264
-190.187	-83.032	0.232	-0.075
-189.173	-99.217	0.352	0.090
-188.158	20.290	-0.084	0.068
-187.144	96.791	-0.094	-0.109
-186.129	15.740	-0.315	-0.250
-185.114	-150.451	0.261	-0.020
-184.100	87.793	-0.289	0.323
-183.085	-200.000	-0.025	-0.328
-182.071	-146.997	0.305	-0.026
-181.056	-101.481	0.372	-0.091
-180.042	-159.892	0.112	-0.006
-179.027	421.209	-0.056	0.121
-178.012	800.000	0.096	0.365
-176.998	112.448	-0.029	0.036
-175.983	-172.722	-0.039	0.001
-174.969	-142.452	0.349	-0.035
-173.954	-143.555	-0.297	0.028
-172.939	-31.610	0.171	-0.097
-171.925	-40.904	-0.108	-0.056
-170.910	-200.000	-0.034	0.232
-169.896	-200.000	0.053	0.375
-168.881	-200.000	0.003	0.226
-167.866	-200.000	0.039	0.327
-166.852	285.151	0.107	0.194
-165.837	-200.000	-0.013	0.351
-164.823	-128.233	0.016	0.002
-163.808	296.408	0.210	-0.388
-162.793	-185.694	-0.487	0.007
-161.779	-14.943	0.158	-0.102
-160.764	35.513	-0.119	-0.105
-159.750	-60.128	0.054	0.023
-158.735	382.483	0.106	0.220
-157.720	184.857	-0.201	-0.300
-156.706	800.000	0.080	0.229
-155.691	-200.000	-0.079	-0.376
-154.677	39.340	-0.213	-0.192
-153.662	131.742	-0.072	-0.094
-152.647	-10.023	-0.043	0.029
-151.633	-3.011	0.119	0.083
-150.618	-200.000	0.051	-0.240
-149.604	-200.000	-0.016	-0.499
-148.589	55.249	0.193	0.187
-147.574	-6.733	-0.021	0.015
-146.560	-200.000	0.015	-0.220
-145.545	800.000	0.078	-0.224
-144.531	-200.000	0.116	0.000
-143.516	56.885	0.201	-0.197
-142.502	11.036	0.275	-0.212
-141.487	-99.554	0.147	-0.037
-140.472	669.351	-0.053	-0.137
-139.458	-5.875	0.207	0.142
-138.443	-200.000	0.002	0.021
-137.429	800.000	0.110	0.370
-136.414	40.466	0.134	0.121
-135.399	-45.040	0.301	-0.151
-134.385	44.845	-0.156	-0.144
-133.370	-200.000	-0.015	0.092
-132.356	-26.268	0.097	-0.057
-131.341	238.801	-0.128	0.214
-130.326	62.063	-0.143	-0.143
-129.312	-200.000	-0.029	0.240
-128.297	-160.075	-0.221	0.012
-127.283	-155.315	0.234	0.015
-126.268	-200.000	-0.030	0.273
-125.253	-0.447	0.274	-0.196
-124.239	-158.435	0.165	0.010
-123.224	-86.936	-0.017	0.005
-122.210	30.526	-0.042	-0.036
-121.195	148.172	0.267	-0.362
-120.180	-132.962	-0.116	-0.015
