DTS Sentinel unit serial number:	SN413079Multiplexer serial number:	ORYXHardware model number:	OX4-SRSoftware version number:	ORYX F/W v4.00 Oryx Data Collector v3.7.2.0data status	okinstallation	princeton_trtdifferential loss correction	single-endedforward channel	channel 4reverse channel	N/Adate	2019/09/11time	12:19:11forward acquisition time	60.00reverse acquisition time	0.00gamma	496.2192k internal	0.2288k external	0.2288temperature offset calibration	0.9964default loss term (dB/km)	0.3790temperature slope calibration	1.0000multiplexer offset coefficient	1.0000multiplexer slope coefficient	1.0000fibre end	0.00T internal ref (°C)	40.05T ext. ref 1 (°C)	0.19T ext. ref 2 (°C)	38.33length (m)	temperature (°C)	Stokes	anti-Stokes-747.200	800.000	0.077	-0.242
-746.185	-94.085	0.228	0.064
-745.171	-156.322	-0.251	-0.016
-744.156	-200.000	0.043	0.298
-743.142	2.773	0.175	0.130
-742.127	-65.087	-0.533	-0.221
-741.112	-200.000	-0.007	0.062
-740.098	-84.292	-0.189	0.061
-739.083	-86.125	0.350	0.111
-738.069	800.000	-0.101	0.400
-737.054	-200.000	-0.009	-0.156
-736.039	-5.071	-0.143	-0.101
-735.025	-59.125	-0.131	0.058
-734.010	-200.000	0.001	-0.058
-732.996	151.081	-0.092	-0.128
-731.981	223.128	-0.069	0.114
-730.966	-200.000	0.060	0.414
-729.952	-129.966	-0.115	0.016
-728.937	-133.064	-0.227	0.029
-727.923	80.878	-0.174	0.192
-726.908	-200.000	0.004	-0.337
-725.894	-200.000	-0.015	0.326
-724.879	21.941	0.082	0.068
-723.864	18.545	-0.131	0.107
-722.850	-200.000	-0.033	0.193
-721.835	164.703	0.228	-0.330
-720.821	527.954	0.025	0.061
-719.806	-10.581	0.232	0.158
-718.791	53.763	-0.068	-0.067
-717.777	800.000	-0.138	-0.407
-716.762	-200.000	-0.002	0.038
-715.748	-139.052	-0.274	-0.030
-714.733	20.924	0.221	-0.183
-713.718	555.824	-0.121	-0.299
-712.704	-2.017	-0.031	-0.023
-711.689	-200.000	-0.048	-0.273
-710.675	392.075	0.121	-0.257
-709.660	-200.000	0.013	-0.281
-708.645	68.580	-0.287	-0.302
-707.631	170.936	-0.188	-0.276
-706.616	-122.370	0.277	-0.046
-705.602	240.472	-0.099	0.168
-704.587	800.000	0.033	0.131
-703.572	-200.000	0.009	-0.296
-702.558	36.178	0.251	0.226
-701.543	127.060	-0.197	0.256
-700.529	10.658	-0.283	0.221
-699.514	27.905	0.114	-0.099
-698.499	-200.000	0.000	0.196
-697.485	-151.264	-0.267	-0.020
-696.470	78.719	-0.015	0.016
-695.456	-68.410	-0.344	0.137
-694.441	47.751	-0.254	-0.243
-693.426	800.000	0.058	0.201
-692.412	232.632	0.121	-0.204
-691.397	115.878	-0.188	-0.236
-690.383	800.000	-0.061	0.252
-689.368	-115.826	-0.297	-0.057
-688.354	309.332	-0.103	-0.197
-687.339	92.424	-0.195	0.226
-686.324	-64.909	0.324	0.134
-685.310	-123.024	0.254	0.042
-684.295	800.000	-0.020	-0.085
-683.281	-114.073	-0.168	0.033
-682.266	-102.479	0.118	0.029
-681.251	-70.044	-0.117	0.046
-680.237	-200.000	-0.036	0.210
-679.222	-144.327	-0.529	0.050
-678.208	293.612	0.103	0.192
-677.193	-200.000	-0.002	0.063
-676.178	-138.906	0.261	-0.029
-675.164	540.932	0.074	-0.179
-674.149	53.282	0.181	-0.177
-673.135	800.000	0.075	-0.213
-672.120	-200.000	0.016	-0.154
-671.105	167.119	-0.153	0.222
-670.091	5.539	-0.175	0.132
-669.076	-200.000	-0.031	0.168
-668.062	-53.997	-0.131	-0.061
-667.047	800.000	-0.033	0.109
-666.032	-200.000	-0.005	0.109
-665.018	-71.882	-0.167	-0.064
-664.003	57.712	0.247	-0.247
-662.989	37.502	-0.087	-0.079
-661.974	-41.348	-0.304	-0.160
-660.959	62.079	-0.272	0.278
-659.945	800.000	-0.034	0.135
-658.930	147.326	-0.061	0.084
-657.916	-138.885	-0.107	0.012
-656.901	800.000	-0.018	0.068
-655.886	-200.000	-0.033	-0.166
-654.872	4.682	-0.166	0.124
-653.857	-2.948	0.337	-0.240
-652.843	-200.000	0.103	-0.474
-651.828	800.000	-0.015	0.058
-650.814	-200.000	0.005	0.365
-649.799	-56.814	-0.110	-0.050
-648.784	55.386	0.163	-0.162
-647.770	30.533	-0.043	-0.037
-646.755	-200.000	-0.006	-0.257
-645.741	-97.840	-0.176	-0.046
-644.726	-93.668	-0.331	-0.093
-643.711	333.615	0.040	0.080
-642.697	-83.601	0.072	-0.023
-641.682	-12.422	0.147	-0.098
-640.668	-200.000	-0.007	-0.075
-639.653	800.000	0.082	-0.349
-638.638	-183.387	-0.210	0.004
-637.624	22.955	0.105	-0.088
-636.609	-200.000	-0.030	-0.141
-635.595	-70.851	-0.481	-0.185
-634.580	-29.865	-0.039	-0.023
-633.565	-119.859	-0.354	-0.062
-632.551	-163.015	-0.399	-0.020
-631.536	27.815	-0.136	-0.117
-630.522	-200.000	0.010	-0.209
-629.507	113.076	0.090	0.112
-628.492	-200.000	-0.001	0.101
-627.478	250.346	-0.158	0.273
-626.463	8.214	0.200	0.153
-625.449	-191.352	0.277	0.003
-624.434	-151.428	-0.301	-0.023
-623.419	293.292	0.122	0.226
-622.405	414.940	-0.201	0.437
-621.390	-200.000	-0.113	0.000
-620.376	83.299	-0.185	-0.206
-619.361	-200.000	0.031	0.295
-618.346	-65.733	-0.247	-0.101
-617.332	732.380	0.122	-0.334
-616.317	89.096	0.187	-0.212
-615.303	251.177	0.073	-0.126
-614.288	-173.504	-0.170	0.005
-613.273	-12.110	0.277	-0.185
-612.259	-200.000	0.054	-0.494
-611.244	-13.109	0.129	-0.085
-610.230	-106.995	0.097	-0.022
-609.215	-3.991	0.131	-0.093
-608.201	-103.699	-0.271	0.065
-607.186	-75.934	0.190	0.068
-606.171	-102.781	0.052	-0.013
-605.157	-197.066	-0.280	0.002
-604.142	-200.000	-0.005	0.250
-603.128	108.115	0.009	-0.011
-602.113	-54.813	-0.007	-0.003
-601.098	57.339	0.250	-0.249
-600.084	-159.146	-0.047	0.003
-599.069	-200.000	0.006	0.184
-598.055	139.330	0.206	0.277
-597.040	-153.088	-0.279	-0.020
-596.025	-46.675	-0.134	-0.067
-595.011	-40.166	0.284	0.151
-593.996	750.871	0.090	-0.249
-592.982	-63.363	0.179	0.075
-591.967	-95.602	0.177	-0.048
-590.952	319.501	0.077	-0.149
-589.938	-167.655	-0.194	-0.008
-588.923	293.463	-0.188	0.350
-587.909	259.411	-0.106	-0.187
-586.894	-71.117	0.277	-0.106
-585.879	-155.393	-0.063	-0.004
-584.865	-53.425	-0.109	-0.051
-583.850	-200.000	-0.019	-0.106
-582.836	-186.729	0.066	0.001
-581.821	-157.691	0.322	-0.020
-580.806	160.461	0.247	0.351
-579.792	-200.000	-0.036	0.290
-578.777	-18.112	-0.190	-0.121
-577.763	-90.454	-0.411	-0.121
-576.748	-129.500	-0.154	-0.022
-575.733	800.000	-0.041	0.124
-574.719	-200.000	0.010	-0.269
-573.704	-111.639	-0.431	-0.089
-572.690	-200.000	-0.022	-0.373
-571.675	329.519	0.083	-0.164
-570.661	-132.735	-0.382	-0.050
-569.646	24.481	-0.199	0.168
-568.631	249.498	0.076	0.132
-567.617	518.241	-0.135	-0.322
-566.602	-69.248	0.132	-0.052
-565.588	800.000	0.082	-0.324
-564.573	227.792	0.068	-0.113
-563.558	-70.991	-0.317	0.121
-562.544	-98.283	0.107	0.028
-561.529	28.736	0.078	0.067
-560.515	37.129	-0.051	0.046
-559.500	509.756	-0.106	0.251
-558.485	-53.163	-0.133	0.062
-557.471	-85.484	0.297	-0.094
-556.456	2.063	0.098	0.072
-555.442	-2.218	-0.245	0.175
-554.427	800.000	-0.018	0.071
-553.412	488.322	0.120	0.280
-552.398	-200.000	0.027	-0.157
-551.383	-11.938	0.137	0.091
-550.369	-31.951	-0.183	-0.104
-549.354	-55.416	-0.267	0.122
-548.339	268.695	0.064	0.114
-547.325	1.671	-0.238	0.175
-546.310	-165.273	0.125	-0.006
-545.296	711.784	-0.064	0.172
-544.281	136.369	0.089	0.118
-543.266	161.094	-0.160	-0.228
-542.252	-200.000	0.006	-0.140
-541.237	127.435	-0.111	0.143
-540.223	800.000	-0.063	0.196
-539.208	-90.087	0.214	-0.064
-538.193	-47.203	-0.209	-0.104
-537.179	-200.000	0.000	0.264
-536.164	-46.464	0.135	0.068
-535.150	323.142	-0.121	-0.234
-534.135	-70.112	0.257	-0.099
-533.121	32.218	0.140	0.123
-532.106	800.000	-0.059	0.262
-531.091	393.594	-0.097	-0.205
-530.077	-69.109	-0.214	0.084
-529.062	-200.000	0.006	-0.267
-528.048	-55.540	-0.147	-0.067
-527.033	21.246	0.319	-0.264
-526.018	-154.473	0.485	-0.033
-525.004	-114.671	0.214	-0.042
-523.989	225.951	-0.097	0.161
-522.975	83.074	0.149	0.165
-521.960	-133.024	0.268	0.035
-520.945	800.000	-0.080	-0.243
-519.931	800.000	0.116	-0.410
-518.916	8.199	0.067	0.051
-517.902	-153.197	0.170	-0.012
-516.887	-76.561	-0.117	0.042
-515.872	-140.364	-0.134	-0.014
-514.858	65.484	0.111	-0.114
-513.843	-126.301	0.071	0.011
-512.829	-200.000	0.034	-0.226
-511.814	-200.000	-0.068	-0.483
-510.799	-168.077	-0.128	0.005
-509.785	62.175	-0.338	0.343
-508.770	-131.165	0.314	0.042
-507.756	330.835	-0.076	0.149
-506.741	-137.644	0.301	0.034
-505.726	-56.594	0.105	0.047
-504.712	7.277	-0.132	0.100
-503.697	20.913	0.192	-0.158
-502.683	-77.166	0.291	0.103
-501.668	-8.036	0.041	0.028
-500.653	-92.600	0.412	0.117
-499.639	694.061	-0.045	0.121
-498.624	-20.218	-0.017	-0.010
-497.610	-36.774	0.148	0.081
-496.595	-9.732	-0.192	-0.130
-495.581	244.427	-0.136	0.231
-494.566	-200.000	-0.055	0.275
-493.551	157.395	-0.115	-0.162
-492.537	629.679	0.123	0.317
-491.522	529.700	0.098	-0.234
-490.508	266.235	-0.080	-0.142
-489.493	800.000	-0.129	-0.418
-488.478	-32.011	0.077	0.044
-487.464	-100.743	0.114	0.028
-486.449	-34.057	-0.146	-0.082
-485.435	-200.000	0.013	0.277
-484.420	-103.536	0.218	-0.052
-483.405	359.079	-0.202	-0.410
-482.391	166.231	0.026	0.037
-481.376	-120.181	0.255	-0.044
-480.362	392.802	0.208	-0.440
-479.347	-24.608	0.112	-0.068
-478.332	-104.710	-0.215	-0.050
-477.318	-29.133	-0.374	-0.218
-476.303	32.689	-0.257	-0.226
-475.289	668.106	0.065	-0.171
-474.274	800.000	-0.078	-0.251
-473.259	-121.500	0.286	-0.048
-472.245	53.154	-0.230	-0.223
-471.230	245.420	0.064	0.110
-470.216	-200.000	-0.015	0.113
-469.201	-47.006	0.305	-0.151
-468.186	-156.065	0.423	-0.027
-467.172	87.407	-0.074	0.083
-466.157	240.981	-0.116	-0.197
-465.143	148.902	-0.090	-0.124
-464.128	-122.131	0.211	-0.035
-463.113	112.105	0.247	0.302
-462.099	-94.243	0.306	-0.085
-461.084	473.047	0.082	-0.187
-460.070	-69.793	0.154	0.060
-459.055	70.597	-0.256	-0.268
-458.040	50.922	0.162	-0.156
-457.026	-44.110	0.181	-0.092
-456.011	-61.487	-0.270	-0.115
-454.997	-83.243	-0.149	0.049
-453.982	-161.161	-0.225	0.012
-452.968	247.940	-0.179	-0.308
-451.953	800.000	0.030	-0.099
-450.938	-20.256	-0.090	0.056
-449.924	-200.000	-0.025	0.162
-448.909	71.609	-0.183	-0.193
-447.895	223.571	0.047	0.077
-446.880	-62.004	0.255	0.108
-445.865	-66.007	0.351	0.142
-444.851	-151.769	0.300	-0.022
-443.836	-6.250	-0.138	0.095
-442.822	0.389	-0.030	0.022
-441.807	-114.334	0.395	0.077
-440.792	800.000	0.047	-0.205
-439.778	357.621	-0.072	-0.145
-438.763	-200.000	-0.002	-0.095
-437.749	301.805	0.050	-0.094
-436.734	-126.130	0.177	-0.027
-435.719	103.824	0.026	0.031
-434.705	62.325	-0.137	-0.139
-433.690	27.474	-0.178	-0.152
-432.676	-52.175	0.247	-0.116
-431.661	-200.000	-0.012	0.101
-430.646	-76.331	0.165	-0.059
-429.632	800.000	-0.110	0.310
-428.617	-183.882	0.472	0.008
-427.603	-43.846	-0.263	0.134
-426.588	800.000	-0.090	-0.332
-425.573	-177.734	0.199	-0.005
-424.559	-84.856	-0.288	-0.092
-423.544	71.714	0.250	-0.263
-422.530	-16.269	-0.272	-0.175
-421.515	800.000	0.037	-0.116
-420.500	16.207	-0.106	-0.084
-419.486	286.402	0.196	-0.358
-418.471	568.645	0.041	-0.101
-417.457	-87.549	-0.284	-0.087
-416.442	800.000	-0.103	0.393
-415.428	65.120	0.223	0.228
-414.413	627.491	-0.136	-0.347
-413.398	35.076	0.129	0.114
-412.384	-145.772	0.172	-0.016
-411.369	15.837	0.110	0.088
-410.355	743.774	-0.057	0.154
-409.340	216.087	-0.143	0.229
-408.325	-89.367	0.083	-0.025
-407.311	800.000	-0.024	-0.068
-406.296	143.930	-0.129	0.174
-405.282	674.777	0.150	0.394
-404.267	-41.295	0.197	-0.103
-403.252	170.655	-0.109	-0.158
-402.238	-11.267	-0.260	-0.173
-401.223	-200.000	0.004	0.060
-400.209	-127.889	0.252	0.037
-399.194	235.524	-0.088	-0.148
-398.179	507.472	0.093	0.219
-397.165	-200.000	0.058	-0.375
-396.150	254.850	-0.231	0.401
-395.136	-72.593	0.283	0.106
-394.121	686.947	0.112	-0.296
-393.106	-200.000	0.016	-0.088
-392.092	-200.000	0.006	-0.159
-391.077	170.948	-0.062	0.089
-390.063	-7.876	-0.278	-0.190
-389.048	3.138	-0.164	0.121
-388.033	-24.995	0.026	0.015
-387.019	800.000	0.179	0.541
-386.004	-84.332	0.086	-0.028
-384.990	435.799	0.120	-0.264
-383.975	-63.906	-0.090	0.037
-382.960	-77.426	-0.365	0.128
-381.946	462.817	-0.012	-0.027
-380.931	-200.000	0.034	0.321
-379.917	366.200	0.098	0.199
-378.902	634.805	0.123	0.316
-377.888	185.241	-0.107	0.161
-376.873	-200.000	0.017	-0.286
-375.858	135.418	-0.166	0.218
-374.844	800.000	-0.024	-0.101
-373.829	-76.021	0.134	-0.048
-372.815	480.272	-0.030	0.069
-371.800	20.516	0.200	0.163
-370.785	-200.000	0.001	0.393
-369.771	525.129	0.089	0.212
-368.756	-131.634	-0.095	-0.013
-367.742	236.782	0.016	0.027
-366.727	154.560	0.136	0.189
-365.712	-63.645	-0.199	-0.082
-364.698	196.158	-0.009	0.013
-363.683	-143.940	0.347	0.033
-362.669	800.000	0.043	-0.161
-361.654	1.035	-0.140	-0.101
-360.639	226.332	0.150	-0.246
-359.625	426.694	-0.039	0.084
-358.610	21.057	0.039	-0.032
-357.596	-98.491	0.180	-0.047
-356.581	67.277	-0.221	-0.228
-355.566	-18.557	-0.063	-0.040
-354.552	-125.890	0.284	0.043
-353.537	-23.139	0.077	0.047
-352.523	695.430	-0.043	0.115
-351.508	-200.000	0.021	-0.141
-350.493	-200.000	0.022	-0.126
-349.479	-200.000	0.002	-0.197
-348.464	110.254	-0.002	0.003
-347.450	-134.684	0.167	-0.021
-346.435	610.126	-0.109	0.274
-345.420	-49.459	0.108	0.052
-344.406	-200.000	0.027	0.316
-343.391	-75.136	-0.193	-0.070
-342.377	67.340	-0.161	0.166
-341.362	800.000	-0.079	0.227
-340.348	84.802	0.245	0.271
-339.333	59.867	0.074	0.074
-338.318	187.112	0.049	0.073
-337.304	800.000	-0.136	-0.416
-336.289	-200.000	-0.022	0.465
-335.275	327.431	0.038	0.074
-334.260	416.079	-0.121	-0.261
-333.245	393.222	-0.075	-0.158
-332.231	-200.000	-0.034	0.256
-331.216	-200.000	0.007	0.272
-330.202	-200.000	-0.043	0.318
-329.187	-200.000	-0.008	-0.390
-328.172	-153.344	0.361	-0.025
-327.158	24.002	-0.112	0.093
-326.143	800.000	0.060	-0.176
-325.129	800.000	0.033	0.097
-324.114	-151.345	0.320	0.024
-323.099	-200.000	0.004	0.108
-322.085	-200.000	0.010	-0.124
-321.070	-102.612	-0.188	0.045
-320.056	800.000	0.064	0.195
-319.041	44.295	0.157	0.146
-318.026	779.052	0.045	0.125
-317.012	-16.051	0.163	-0.104
-315.997	-200.000	0.022	-0.198
-314.983	-56.325	-0.177	-0.079
-313.968	369.256	0.062	-0.126
-312.953	-20.237	-0.292	0.181
-311.939	183.810	-0.093	0.139
-310.924	335.033	-0.179	0.350
-309.910	12.832	0.262	-0.204
-308.895	-200.000	-0.044	0.399
-307.880	-67.892	-0.088	0.035
-306.866	132.470	0.061	-0.079
-305.851	-200.000	0.039	-0.405
-304.837	-77.459	0.459	0.161
-303.822	185.017	-0.196	-0.293
-302.807	-200.000	-0.235	0.000
-301.793	-200.000	-0.017	0.173
-300.778	170.089	-0.122	-0.176
-299.764	-142.784	0.291	0.029
-298.749	56.105	-0.154	-0.150
-297.735	452.793	-0.118	0.263
-296.720	564.654	0.190	0.464
-295.705	-155.311	0.118	0.008
-294.691	32.339	0.104	-0.091
-293.676	800.000	-0.072	-0.254
-292.662	58.633	0.188	-0.186
-291.647	-123.580	-0.288	0.046
-290.632	-156.311	0.158	0.010
-289.618	57.882	-0.125	-0.123
-288.603	-78.266	-0.255	0.088
-287.589	214.231	-0.146	0.233
-286.574	-60.779	0.058	0.025
-285.559	78.109	0.156	-0.168
-284.545	54.411	-0.153	0.148
-283.530	-10.869	0.376	-0.250
-282.516	580.876	0.085	0.210
-281.501	133.670	-0.174	-0.227
-280.486	-113.221	-0.220	-0.044
-279.472	579.521	0.082	0.201
-278.457	-117.819	-0.189	0.034
-277.443	-125.651	-0.077	-0.012
-276.428	-19.834	-0.124	0.077
-275.413	-200.000	-0.088	0.416
-274.399	-67.333	-0.352	0.139
-273.384	-25.778	-0.126	-0.075
-272.370	162.130	0.183	-0.258
-271.355	-98.085	-0.336	0.087
-270.340	-9.628	-0.126	0.084
-269.326	356.846	-0.126	-0.253
-268.311	193.118	-0.014	-0.022
-267.297	800.000	-0.067	0.227
-266.282	-17.150	0.423	0.268
-265.267	-0.153	0.164	0.118
-264.253	-200.000	-0.001	0.278
-263.238	800.000	-0.041	0.127
-262.224	-200.000	-0.010	0.121
-261.209	-155.176	-0.156	-0.010
-260.195	62.687	-0.105	0.106
-259.180	232.623	-0.237	0.393
-258.165	-129.262	-0.254	0.036
-257.151	-56.389	0.238	-0.106
-256.136	90.668	-0.062	0.070
-255.122	307.687	0.202	0.379
-254.107	-200.000	0.005	0.130
-253.092	-121.953	0.231	0.038
-252.078	122.816	0.065	0.082
-251.063	192.231	-0.065	0.099
-250.049	-200.000	-0.020	-0.229
-249.034	15.285	-0.047	0.037
-248.019	-200.000	-0.001	-0.424
-247.005	-72.679	0.115	0.043
-245.990	-37.964	0.080	-0.043
-244.976	-55.112	0.440	-0.199
-243.961	685.937	-0.031	-0.082
-242.946	-200.000	-0.005	-0.167
-241.932	800.000	0.042	0.138
-240.917	-200.000	0.049	-0.399
-239.903	34.117	0.127	0.111
-238.888	345.729	0.080	-0.158
-237.873	-78.835	-0.206	0.071
-236.859	-200.000	-0.003	0.172
-235.844	800.000	-0.015	-0.062
-234.830	-41.453	-0.255	0.132
-233.815	261.239	0.180	0.313
-232.800	-82.114	-0.231	-0.076
-231.786	129.427	0.034	-0.044
-230.771	-200.000	0.068	-0.361
-229.757	-110.901	-0.196	-0.040
-228.742	-7.689	0.034	-0.023
-227.727	348.011	0.067	0.133
-226.713	800.000	0.041	0.160
-225.698	35.173	-0.211	-0.186
-224.684	472.746	0.115	-0.260
-223.669	481.165	0.081	0.184
-222.655	-155.216	0.390	0.026
-221.640	24.796	-0.346	0.288
-220.625	-200.000	0.010	0.109
-219.611	-200.000	-0.001	-0.310
-218.596	159.025	0.082	0.115
-217.582	138.651	0.017	0.022
-216.567	-127.760	0.273	0.040
-215.552	-200.000	-0.012	-0.059
-214.538	-2.727	-0.291	0.205
-213.523	-200.000	-0.007	0.079
-212.509	-155.826	-0.093	0.006
-211.494	-89.209	0.125	-0.037
-210.479	-62.503	-0.356	0.148
-209.465	-105.677	-0.358	0.081
-208.450	285.956	-0.122	-0.222
-207.436	800.000	0.010	-0.030
-206.421	-118.432	-0.151	-0.027
-205.406	-67.264	0.085	-0.033
-204.392	-200.000	-0.002	-0.138
-203.377	-70.154	-0.116	0.044
-202.363	-200.000	-0.002	-0.055
-201.348	-200.000	0.001	0.233
-200.333	800.000	-0.065	-0.220
-199.319	-61.054	-0.228	0.097
-198.304	-110.608	-0.048	-0.010
-197.290	-200.000	-0.048	-0.278
-196.275	-64.881	0.377	-0.153
-195.260	-200.000	0.009	0.150
-194.246	-30.679	0.367	-0.209
-193.231	31.015	-0.088	0.076
-192.217	-200.000	-0.023	-0.239
-191.202	22.834	-0.036	0.029
-190.187	25.518	-0.345	0.288
-189.173	800.000	0.046	0.168
-188.158	-52.795	-0.082	0.038
-187.144	180.749	0.062	0.092
-186.129	28.320	-0.144	0.122
-185.114	-200.000	0.019	-0.179
-184.100	195.281	0.115	-0.176
-183.085	-45.438	0.219	-0.109
-182.071	330.319	-0.123	-0.237
-181.056	118.571	-0.059	0.074
-180.042	800.000	-0.079	-0.259
-179.027	-61.501	-0.153	0.065
-178.012	-8.907	0.216	0.146
-176.998	800.000	-0.054	0.169
-175.983	-145.801	-0.274	-0.024
-174.969	-200.000	0.020	0.118
-173.954	124.070	0.203	0.255
-172.939	-23.522	-0.148	0.089
-171.925	354.091	0.086	0.172
-170.910	-200.000	-0.041	-0.192
-169.896	221.678	0.045	-0.073
-168.881	129.090	-0.101	0.129
-167.866	97.941	-0.134	-0.154
-166.852	194.366	0.193	0.293
-165.837	-183.526	0.061	0.001
-164.823	576.278	0.103	0.252
-163.808	-59.511	-0.273	0.117
-162.793	-161.961	0.136	0.007
-161.779	-40.123	-0.219	0.114
-160.764	-200.000	0.102	-0.518
-159.750	-118.766	0.104	0.018
-158.735	-180.989	0.364	0.007
-157.720	163.242	0.144	0.204
-156.706	-200.000	0.050	0.257
-155.691	493.087	-0.109	0.251
-154.677	207.345	0.093	0.146
-153.662	330.919	0.057	0.111
-152.647	-121.334	-0.452	0.075
-151.633	42.648	-0.151	0.138
-150.618	-200.000	-0.020	-0.104
-149.604	88.083	0.072	-0.081
-148.589	-134.871	-0.065	0.008
-147.574	203.877	0.069	-0.107
-146.560	43.200	-0.117	-0.107
-145.545	195.210	0.095	-0.144
-144.531	-55.958	0.405	-0.181
-143.516	-200.000	-0.005	0.027
-142.502	201.907	0.316	0.488
-141.487	448.239	-0.173	-0.381
-140.472	534.543	0.076	-0.180
-139.458	-158.638	0.121	-0.007
-138.443	-23.498	0.228	0.137
-137.429	-120.648	0.110	0.019
-136.414	-200.000	-0.049	-0.294
-135.399	-200.000	-0.063	-0.316
-134.385	800.000	-0.087	-0.261
-133.370	-6.198	0.181	0.124
-132.356	-110.180	-0.460	-0.096
-131.341	800.000	-0.061	-0.192
-130.326	220.932	0.073	0.117
-129.312	-200.000	0.038	0.249
-128.297	800.000	-0.046	0.156
-127.283	-34.009	0.234	-0.129
-126.268	670.120	0.030	0.077
-125.253	-35.804	-0.049	0.026
-124.239	-29.418	-0.092	-0.053
-123.224	-196.367	0.199	0.001
-122.210	-118.445	0.185	-0.033
