DTS Sentinel unit serial number:	SN413079Multiplexer serial number:	ORYXHardware model number:	OX4-SRSoftware version number:	ORYX F/W v4.00 Oryx Data Collector v3.7.2.0data status	okinstallation	princeton_trtdifferential loss correction	single-endedforward channel	channel 4reverse channel	N/Adate	2019/09/10time	15:43:11forward acquisition time	60.00reverse acquisition time	0.00gamma	496.2192k internal	0.2294k external	0.2294temperature offset calibration	0.9938default loss term (dB/km)	0.3790temperature slope calibration	1.0000multiplexer offset coefficient	1.0000multiplexer slope coefficient	1.0000fibre end	0.00T internal ref (°C)	38.05T ext. ref 1 (°C)	-0.29T ext. ref 2 (°C)	31.64length (m)	temperature (°C)	Stokes	anti-Stokes-747.200	64.307	-0.155	0.160
-746.185	51.062	0.128	0.124
-745.171	-200.000	0.018	0.209
-744.156	-136.379	-0.109	-0.013
-743.142	-45.606	-0.144	-0.073
-742.127	-200.000	-0.033	0.161
-741.112	720.870	0.031	-0.083
-740.098	-38.570	0.269	0.145
-739.083	-200.000	0.012	0.222
-738.069	4.248	-0.260	0.194
-737.054	-200.000	0.027	-0.173
-736.039	37.822	0.038	-0.034
-735.025	-200.000	0.004	0.290
-734.010	155.845	-0.093	0.131
-732.996	-200.000	0.001	-0.180
-731.981	-6.676	-0.059	0.041
-730.966	367.858	-0.114	-0.236
-729.952	-200.000	-0.006	-0.088
-728.937	-25.369	-0.319	0.193
-727.923	6.502	0.039	-0.030
-726.908	-200.000	0.025	-0.163
-725.894	-51.546	-0.331	-0.158
-724.879	-200.000	-0.006	0.094
-723.864	204.166	0.216	-0.341
-722.850	-47.285	-0.060	0.030
-721.835	-141.225	0.158	0.016
-720.821	-113.141	0.306	-0.062
-719.806	-55.811	0.104	-0.048
-718.791	-155.294	0.417	0.028
-717.777	-15.839	-0.109	0.071
-716.762	71.970	-0.191	-0.203
-715.748	-76.687	-0.226	-0.081
-714.733	-140.001	0.282	0.030
-713.718	-200.000	-0.014	0.206
-712.704	-131.693	-0.292	-0.039
-711.689	452.210	0.180	-0.407
-710.675	-96.868	-0.139	0.037
-709.660	515.141	0.028	-0.066
-708.645	73.501	-0.060	0.065
-707.631	-200.000	-0.013	0.170
-706.616	-36.624	0.226	-0.124
-705.602	-200.000	-0.025	-0.150
-704.587	-122.046	0.484	0.081
-703.572	-72.973	-0.079	0.030
-702.558	-79.839	0.497	0.171
-701.543	-1.401	0.129	-0.093
-700.529	-118.523	-0.306	0.055
-699.514	53.897	-0.085	-0.083
-698.499	153.828	0.078	-0.110
-697.485	92.443	-0.134	-0.154
-696.470	-200.000	0.044	-0.366
-695.456	-34.251	-0.057	0.032
-694.441	64.119	-0.018	0.018
-693.426	0.224	-0.131	-0.095
-692.412	-200.000	-0.011	-0.130
-691.397	-46.478	-0.290	0.145
-690.383	134.327	0.056	-0.075
-689.368	426.639	0.036	-0.080
-688.354	-68.171	-0.056	-0.022
-687.339	-127.209	0.276	0.041
-686.324	641.423	0.105	-0.274
-685.310	-45.298	0.112	0.057
-684.295	800.000	-0.074	0.297
-683.281	-166.688	-0.083	0.004
-682.266	89.113	-0.217	0.247
-681.251	-67.526	-0.226	-0.090
-680.237	-200.000	-0.031	-0.359
-679.222	-30.923	-0.337	-0.194
-678.208	487.599	-0.069	0.161
-677.193	-21.049	-0.310	-0.193
-676.178	33.400	-0.260	-0.230
-675.164	-200.000	-0.001	0.253
-674.149	-36.608	-0.066	0.036
-673.135	203.784	-0.222	-0.350
-672.120	-97.098	-0.198	-0.053
-671.105	800.000	-0.027	0.081
-670.091	100.095	-0.152	0.180
-669.076	38.733	-0.124	-0.113
-668.062	-124.492	0.134	0.021
-667.047	800.000	0.103	0.331
-666.032	-105.766	-0.392	-0.090
-665.018	-200.000	-0.020	-0.233
-664.003	6.228	0.165	0.125
-662.989	800.000	-0.119	0.359
-661.974	-124.786	-0.180	-0.028
-660.959	15.428	0.197	-0.158
-659.945	-47.248	0.185	0.092
-658.930	110.921	0.266	-0.326
-657.916	800.000	0.044	-0.196
-656.901	174.749	0.070	0.103
-655.886	-200.000	-0.060	-0.000
-654.872	-155.134	0.212	-0.014
-653.857	426.732	-0.136	-0.299
-652.843	-106.630	-0.069	-0.016
-651.828	189.510	0.085	0.130
-650.814	-200.000	0.044	-0.206
-649.799	-88.313	-0.093	0.028
-648.784	90.311	-0.111	0.127
-647.770	28.995	-0.113	-0.097
-646.755	33.567	-0.105	-0.093
-645.741	-31.468	0.095	-0.054
-644.726	24.765	-0.343	0.289
-643.711	342.339	-0.105	-0.209
-642.697	70.839	0.344	-0.362
-641.682	800.000	-0.053	-0.226
-640.668	-143.888	-0.374	-0.036
-639.653	-88.204	0.115	-0.035
-638.638	800.000	-0.103	-0.337
-637.624	328.166	-0.215	0.421
-636.609	-141.260	0.265	-0.027
-635.595	696.106	-0.108	-0.288
-634.580	-35.728	-0.208	-0.115
-633.565	-66.479	0.181	-0.073
-632.551	-131.172	-0.250	-0.034
-631.536	-44.480	-0.239	0.122
-630.522	-200.000	0.007	-0.256
-629.507	-200.000	-0.000	-0.225
-628.492	-59.266	0.119	0.052
-627.478	23.350	0.130	0.109
-626.463	-186.492	-0.187	-0.003
-625.449	-200.000	0.008	-0.374
-624.434	-200.000	-0.022	-0.234
-623.419	111.957	-0.304	-0.374
-622.405	800.000	-0.106	-0.441
-621.390	-46.143	0.087	0.044
-620.376	130.737	0.107	0.139
-619.361	20.463	0.083	0.069
-618.346	39.634	-0.178	-0.162
-617.332	-98.514	-0.129	-0.034
-616.317	73.453	-0.117	0.125
-615.303	354.950	0.048	-0.097
-614.288	47.067	0.191	0.181
-613.273	-106.690	-0.292	0.066
-612.259	37.077	0.309	-0.278
-611.244	800.000	-0.071	-0.207
-610.230	-13.317	-0.308	-0.203
-609.215	-20.123	-0.102	-0.064
-608.201	112.278	0.258	-0.317
-607.186	73.893	0.026	-0.028
-606.171	143.447	0.278	0.377
-605.157	25.112	0.191	-0.161
-604.142	14.026	-0.206	0.163
-603.128	42.691	-0.028	0.026
-602.113	83.941	-0.070	-0.078
-601.098	50.201	-0.239	0.229
-600.084	-39.867	-0.104	-0.055
-599.069	360.318	0.105	0.214
-598.055	85.430	0.124	0.138
-597.040	800.000	-0.039	0.125
-596.025	-80.015	0.407	0.139
-595.011	-69.507	0.053	0.021
-593.996	-33.700	-0.135	0.075
-592.982	-42.878	-0.360	0.186
-591.967	800.000	0.045	-0.145
-590.952	-52.550	-0.037	-0.018
-589.938	-150.497	-0.381	-0.030
-588.923	128.230	-0.240	0.310
-587.909	-192.447	-0.285	-0.003
-586.894	-200.000	0.037	-0.199
-585.879	-13.919	0.218	0.143
-584.865	-39.211	-0.221	0.118
-583.850	311.508	0.069	-0.132
-582.836	-200.000	-0.030	-0.282
-581.821	-170.350	-0.099	0.004
-580.806	336.008	0.148	-0.291
-579.792	386.980	-0.142	-0.298
-578.777	121.544	0.087	-0.110
-577.763	2.511	-0.139	-0.102
-576.748	-57.427	-0.220	0.098
-575.733	8.803	-0.120	0.092
-574.719	-37.728	0.024	-0.013
-573.704	-33.573	-0.260	0.146
-572.690	-118.302	-0.310	0.056
-571.675	36.103	-0.041	-0.036
-570.661	-69.696	-0.160	-0.062
-569.646	-200.000	0.050	0.375
-568.631	205.064	-0.121	0.191
-567.617	169.861	-0.134	0.194
-566.602	185.452	0.127	0.191
-565.588	-200.000	0.040	-0.222
-564.573	103.561	-0.067	0.080
-563.558	-200.000	0.003	0.089
-562.544	-148.239	0.281	0.024
-561.529	-200.000	-0.002	-0.211
-560.515	141.169	0.144	0.194
-559.500	-154.781	-0.152	0.010
-558.485	800.000	0.052	-0.151
-557.471	-171.528	-0.201	0.007
-556.456	205.724	-0.220	0.346
-555.442	-84.170	-0.093	-0.030
-554.427	184.257	-0.195	0.293
-553.412	343.224	0.153	-0.304
-552.398	212.568	0.100	0.159
-551.383	-25.279	-0.171	-0.102
-550.369	-155.698	-0.060	-0.004
-549.354	-160.663	-0.163	-0.009
-548.339	-50.761	0.302	0.144
-547.325	582.965	0.117	0.291
-546.310	105.549	0.010	-0.012
-545.296	-70.812	0.371	-0.142
-544.281	-200.000	0.037	-0.213
-543.266	-113.782	-0.408	-0.081
-542.252	540.783	0.180	-0.435
-541.237	83.537	0.069	0.076
-540.223	-121.371	-0.339	-0.057
-539.208	35.170	-0.273	0.243
-538.193	-164.281	0.305	0.014
-537.179	-49.263	-0.075	0.036
-536.164	-25.270	0.087	0.053
-535.150	208.763	-0.202	-0.321
-534.135	-200.000	-0.023	-0.317
-533.121	85.737	-0.195	-0.217
-532.106	-200.000	-0.004	-0.077
-531.091	163.624	0.049	-0.070
-530.077	17.675	0.078	-0.063
-529.062	-200.000	-0.041	-0.207
-528.048	36.302	0.129	0.116
-527.033	200.532	0.099	0.155
-526.018	75.020	0.045	-0.048
-525.004	800.000	-0.019	-0.063
-523.989	-200.000	0.098	0.459
-522.975	-200.000	-0.014	0.095
-521.960	131.827	0.181	-0.236
-520.945	-66.351	0.221	0.089
-519.931	-86.205	-0.017	-0.005
-518.916	106.594	-0.136	0.164
-517.902	-146.500	-0.214	-0.019
-516.887	94.519	0.050	-0.058
-515.872	262.340	0.050	0.088
-514.858	-194.136	0.273	-0.002
-513.843	68.311	-0.098	0.102
-512.829	-200.000	0.021	0.406
-511.814	-106.696	0.320	-0.072
-510.799	-11.447	-0.298	0.198
-509.785	-33.354	-0.287	0.161
-508.770	-155.438	-0.089	-0.006
-507.756	-155.468	0.096	-0.006
-506.741	232.104	-0.130	0.215
-505.726	18.652	0.158	0.128
-504.712	-6.149	0.206	0.143
-503.697	307.616	-0.077	-0.146
-502.683	198.696	0.221	-0.342
-501.668	-15.601	0.068	-0.044
-500.653	419.885	0.052	0.113
-499.639	-58.665	-0.359	-0.157
-498.624	704.474	-0.036	0.095
-497.610	-200.000	0.033	-0.233
-496.595	24.257	-0.170	0.142
-495.581	294.173	-0.063	0.116
-494.566	125.871	-0.034	-0.044
-493.551	-200.000	0.035	0.170
-492.537	-200.000	-0.061	-0.294
-491.522	-50.976	0.153	0.073
-490.508	-121.114	-0.178	-0.030
-489.493	-134.098	0.034	0.004
-488.478	149.837	0.338	-0.463
-487.464	62.615	0.181	0.183
-486.449	416.417	0.167	0.361
-485.435	57.109	0.180	0.177
-484.420	-164.244	-0.211	-0.010
-483.405	16.934	0.353	-0.283
-482.391	47.380	0.116	-0.109
-481.376	800.000	0.091	0.308
-480.362	-200.000	-0.045	-0.452
-479.347	48.224	-0.050	0.047
-478.332	800.000	0.065	0.196
-477.318	-20.800	-0.111	0.069
-476.303	183.702	0.202	0.302
-475.289	164.028	-0.093	-0.133
-474.274	-88.903	0.236	-0.071
-473.259	-200.000	-0.035	-0.301
-472.245	90.141	0.178	-0.202
-471.230	800.000	0.041	-0.131
-470.216	-125.728	-0.199	-0.030
-469.201	-24.719	-0.192	0.116
-468.186	139.024	-0.057	-0.076
-467.172	193.914	0.067	0.102
-466.157	-10.903	0.116	-0.078
-465.143	605.572	0.101	-0.254
-464.128	-58.810	0.084	0.037
-463.113	166.061	0.099	0.142
-462.099	-200.000	0.011	-0.386
-461.084	-185.205	0.162	-0.003
-460.070	800.000	-0.023	0.095
-459.055	-200.000	0.106	0.532
-458.040	53.229	0.289	0.280
-457.026	179.173	0.084	-0.125
-456.011	-3.084	0.157	-0.111
-454.997	800.000	0.136	0.457
-453.982	61.572	0.024	0.024
-452.968	152.151	0.058	-0.080
-451.953	-90.309	-0.212	-0.062
-450.938	800.000	0.069	0.193
-449.924	195.613	-0.066	0.102
-448.909	-200.000	0.016	0.078
-447.895	-117.928	0.104	0.019
-446.880	16.466	-0.094	0.075
-445.865	42.366	-0.190	-0.175
-444.851	-159.068	0.112	-0.006
-443.836	-200.000	-0.023	0.273
-442.822	47.610	0.184	-0.174
-441.807	-26.484	0.121	0.072
-440.792	462.618	0.043	-0.096
-439.778	662.529	-0.089	-0.232
-438.763	123.253	-0.163	-0.206
-437.749	83.335	-0.145	0.160
-436.734	149.226	-0.175	-0.239
-435.719	-46.646	-0.219	-0.109
-434.705	-21.413	0.062	-0.038
-433.690	261.706	-0.051	-0.090
-432.676	340.892	-0.263	0.519
-431.661	131.652	0.264	0.343
-430.646	22.105	-0.184	-0.151
-429.632	128.470	0.095	-0.122
-428.617	-38.911	0.107	-0.057
-427.603	-15.538	-0.150	-0.097
-426.588	16.534	0.239	0.191
-425.573	42.545	0.200	-0.184
-424.559	14.712	-0.309	0.244
-423.544	800.000	0.032	0.137
-422.530	249.335	0.093	-0.160
-421.515	-99.478	0.122	-0.031
-420.500	-107.535	0.118	-0.026
-419.486	284.596	0.060	0.109
-418.471	-200.000	0.011	-0.119
-417.457	-2.392	0.169	-0.120
-416.442	210.699	0.251	-0.398
-415.428	800.000	-0.047	0.194
-414.413	-200.000	-0.038	-0.508
-413.398	-11.459	0.293	-0.195
-412.384	800.000	0.076	0.288
-411.369	-200.000	-0.038	-0.267
-410.355	800.000	0.086	-0.339
-409.340	-116.131	-0.274	0.051
-408.325	-200.000	-0.001	0.017
-407.311	-129.571	-0.116	-0.016
-406.296	-113.133	0.303	-0.060
-405.282	-200.000	-0.009	0.235
-404.267	78.758	-0.166	-0.179
-403.252	-92.806	-0.317	-0.089
-402.238	230.596	0.110	0.182
-401.223	259.629	-0.076	0.132
-400.209	-147.657	0.176	0.015
-399.194	153.667	-0.049	-0.067
-398.179	-200.000	0.022	0.169
-397.165	-200.000	-0.063	0.327
-396.150	-132.110	0.255	-0.033
-395.136	227.757	0.060	-0.099
-394.121	-59.978	0.059	0.025
-393.106	-50.137	-0.101	-0.048
-392.092	514.335	-0.115	-0.270
-391.077	-200.000	-0.025	0.297
-390.063	-102.725	0.481	-0.116
-389.048	-59.925	0.567	0.244
-388.033	52.974	-0.099	-0.095
-387.019	17.666	0.066	0.053
-386.004	-200.000	0.008	0.144
-384.990	800.000	0.071	-0.293
-383.975	210.704	-0.154	-0.244
-382.960	-65.537	0.139	0.056
-381.946	-160.189	-0.274	0.015
-380.931	-43.940	-0.336	-0.170
-379.917	727.577	0.113	-0.304
-378.902	-16.488	0.208	0.133
-377.888	-200.000	0.005	0.077
-376.873	214.731	0.123	-0.197
-375.858	177.155	-0.159	-0.234
-374.844	-14.204	-0.193	-0.125
-373.829	30.437	-0.254	0.219
-372.815	800.000	-0.087	0.246
-371.800	561.015	0.072	0.175
-370.785	-72.090	-0.400	0.150
-369.771	800.000	0.017	0.070
-368.756	-200.000	0.007	0.193
-367.742	93.036	0.179	0.204
-366.727	266.769	0.178	-0.314
-365.712	-200.000	0.036	-0.387
-364.698	-200.000	0.016	0.136
-363.683	516.412	-0.058	0.138
-362.669	-190.424	0.267	0.003
-361.654	110.303	-0.193	0.234
-360.639	-131.291	0.427	0.057
-359.625	-200.000	-0.006	-0.116
-358.610	-143.703	0.207	-0.020
-357.596	-161.579	-0.074	0.004
-356.581	-142.746	-0.207	0.020
-355.566	30.222	0.150	-0.129
-354.552	9.282	-0.034	-0.026
-353.537	800.000	-0.040	0.127
-352.523	-200.000	0.028	-0.285
-351.508	78.929	-0.162	0.175
-350.493	-200.000	-0.024	-0.142
-349.479	800.000	0.083	-0.326
-348.464	-41.384	0.340	-0.176
-347.450	303.821	0.164	-0.306
-346.435	-40.749	0.155	-0.081
-345.420	-200.000	0.141	-0.000
-344.406	-164.985	-0.289	-0.013
-343.391	-89.261	-0.152	-0.045
-342.377	143.718	0.206	0.276
-341.362	-143.642	-0.214	0.020
-340.348	-111.932	0.180	0.037
-339.333	-10.204	-0.211	0.141
-338.318	84.410	0.110	0.121
-337.304	-28.588	0.354	0.205
-336.289	329.117	-0.088	0.170
-335.275	252.513	-0.202	-0.346
-334.260	-126.328	0.294	-0.044
-333.245	300.554	0.080	-0.149
-332.231	81.199	-0.058	-0.063
-331.216	-200.000	0.015	-0.408
-330.202	688.546	0.082	-0.215
-329.187	-70.136	-0.263	-0.101
-328.172	-77.264	0.098	-0.034
-327.158	800.000	0.097	0.301
-326.143	-153.654	0.234	-0.016
-325.129	-46.134	-0.175	0.087
-324.114	31.429	-0.262	-0.227
-323.099	-200.000	-0.009	-0.137
-322.085	800.000	0.025	-0.082
-321.070	-106.480	0.140	-0.031
-320.056	-119.670	-0.331	0.058
-319.041	30.877	0.309	0.266
-318.026	120.202	0.067	-0.084
-317.012	155.586	-0.061	0.085
-315.997	-72.637	-0.419	-0.156
-314.983	-114.998	-0.143	0.027
-313.968	-50.610	0.109	0.051
-312.953	128.068	0.322	0.412
-311.939	545.320	-0.056	0.135
-310.924	555.597	-0.083	-0.201
-309.910	95.383	0.218	-0.250
-308.895	-200.000	-0.001	-0.023
-307.880	57.052	-0.175	0.172
-306.866	-106.597	0.087	0.019
-305.851	-200.000	0.032	-0.364
-304.837	66.163	-0.136	-0.138
-303.822	-94.136	-0.022	-0.006
-302.807	145.149	0.196	0.264
-301.793	104.473	0.242	0.286
-300.778	304.554	0.166	-0.309
-299.764	800.000	0.089	-0.267
-298.749	-104.205	-0.325	0.076
-297.735	-96.834	0.248	0.066
-296.720	-200.000	-0.067	0.315
-295.705	-200.000	0.017	-0.227
-294.691	781.281	-0.027	-0.075
-293.676	-55.613	0.175	-0.079
-292.662	495.666	-0.091	-0.211
-291.647	341.268	0.093	-0.182
-290.632	-200.000	0.008	-0.059
-289.618	-146.402	-0.280	0.025
-288.603	-43.084	0.083	0.042
-287.589	36.161	0.206	0.182
-286.574	-20.583	0.089	-0.055
-285.559	-54.377	-0.071	-0.032
-284.545	-70.751	-0.125	0.047
-283.530	190.629	0.190	0.287
-282.516	42.789	-0.032	-0.029
-281.501	-107.960	0.222	0.048
-280.486	64.455	0.194	0.196
-279.472	67.555	0.114	-0.117
-278.457	-200.000	0.033	0.196
-277.443	-69.820	0.298	-0.114
-276.428	34.920	0.121	0.106
-275.413	-104.848	-0.151	-0.035
-274.399	800.000	0.057	0.200
-273.384	43.193	-0.040	0.037
-272.370	-96.992	0.104	-0.027
-271.355	-94.915	0.239	0.065
-270.340	448.873	0.069	-0.152
-269.326	-82.533	-0.143	-0.047
-268.311	6.299	0.128	0.095
-267.297	113.165	-0.141	-0.172
-266.282	-200.000	0.033	0.170
-265.267	-80.959	0.165	0.055
-264.253	-65.831	0.346	0.139
-263.238	-13.441	-0.337	0.220
-262.224	-27.330	0.309	-0.180
-261.209	-9.728	0.215	-0.143
-260.195	169.183	-0.249	-0.356
-259.180	183.017	-0.247	0.366
-258.165	316.545	0.109	0.206
-257.151	-56.489	-0.337	0.150
-256.136	598.193	-0.039	-0.097
-255.122	-52.762	-0.047	-0.022
-254.107	-108.451	-0.065	-0.014
-253.092	281.522	0.036	0.065
-252.078	14.371	0.028	0.022
-251.063	-200.000	0.019	-0.101
-250.049	-120.411	-0.442	0.075
-249.034	38.687	0.107	-0.095
-248.019	-114.986	0.052	0.010
-247.005	305.713	-0.091	-0.170
-245.990	-40.039	-0.051	-0.027
-244.976	-89.177	-0.203	0.060
-243.961	-134.751	0.133	-0.016
-242.946	-105.640	-0.293	0.066
-241.932	237.548	0.040	-0.067
-240.917	108.281	-0.191	-0.228
-239.903	39.813	0.090	0.081
-238.888	-45.913	0.087	-0.043
-237.873	7.658	-0.200	-0.150
-236.859	-200.000	-0.048	0.279
-235.844	377.327	0.125	-0.255
-234.830	-118.188	0.210	0.038
-233.815	449.246	-0.034	-0.075
-232.800	370.405	-0.049	0.099
-231.786	-49.781	-0.424	0.202
-230.771	-56.134	-0.274	0.122
-229.757	800.000	0.097	0.367
-228.742	-200.000	-0.024	0.142
-227.727	-50.959	0.062	0.029
-226.713	-200.000	0.014	0.203
-225.698	-102.695	-0.113	-0.027
-224.684	800.000	0.068	0.256
-223.669	-11.874	-0.237	-0.156
-222.655	169.622	0.057	-0.082
-221.640	326.370	-0.091	-0.175
-220.625	-46.670	0.179	0.088
-219.611	-200.000	-0.015	-0.235
-218.596	346.738	-0.192	-0.378
-217.582	-53.560	-0.121	-0.055
-216.567	-200.000	0.008	0.038
-215.552	188.660	-0.130	-0.195
-214.538	-7.095	0.286	-0.194
-213.523	764.644	0.063	-0.172
-212.509	-200.000	0.017	-0.215
-211.494	-200.000	0.008	-0.152
-210.479	84.674	0.154	0.169
-209.465	-103.778	-0.152	0.036
-208.450	-44.135	0.193	0.097
-207.436	-56.085	-0.276	0.123
-206.421	385.232	-0.106	0.219
-205.406	301.686	0.083	-0.153
-204.392	-118.696	-0.178	0.031
-203.377	71.017	-0.133	-0.138
-202.363	-200.000	-0.008	0.130
-201.348	-126.475	0.019	0.003
-200.333	18.578	-0.103	0.082
-199.319	-173.763	0.189	0.006
-198.304	-145.473	0.316	0.028
-197.290	-46.467	-0.206	-0.101
-196.275	58.614	0.078	0.076
-195.260	800.000	-0.027	0.107
-194.246	44.600	0.154	0.142
-193.231	-125.999	0.170	-0.026
-192.217	528.765	0.044	0.103
-191.202	-126.203	0.407	0.061
-190.187	-55.339	0.111	-0.050
-189.173	-175.965	-0.295	0.008
-188.158	339.161	-0.143	0.279
-187.144	-49.311	-0.421	0.201
-186.129	-25.098	-0.254	0.151
-185.114	-157.100	0.203	-0.012
-184.100	800.000	0.142	0.413
-183.085	-66.426	0.277	0.110
-182.071	345.032	0.073	0.144
-181.056	2.184	-0.101	0.073
-180.042	-102.967	-0.138	-0.033
-179.027	95.116	-0.276	0.314
-178.012	-200.000	0.001	-0.138
-176.998	-97.990	0.149	-0.038
-175.983	-9.048	-0.135	-0.090
-174.969	-200.000	-0.030	0.308
-173.954	234.755	0.066	-0.108
-172.939	274.071	-0.121	0.214
-171.925	800.000	-0.031	-0.131
-170.910	-78.440	0.220	0.075
-169.896	-15.294	-0.269	0.172
-168.881	-189.955	-0.195	0.002
-167.866	-58.429	0.284	0.123
-166.852	-177.090	0.060	-0.002
-165.837	-200.000	-0.053	0.364
-164.823	800.000	-0.030	-0.093
-163.808	536.695	0.034	-0.081
-162.793	800.000	0.075	0.304
-161.779	-52.878	-0.259	-0.119
-160.764	-112.744	-0.239	0.047
-159.750	-11.004	0.199	0.131
-158.735	-200.000	0.024	0.161
-157.720	81.338	0.116	-0.125
-156.706	-5.420	0.167	0.115
-155.691	538.254	0.088	0.210
-154.677	-81.117	0.118	0.039
-153.662	-103.689	-0.179	0.042
-152.647	-200.000	0.015	0.143
-151.633	-145.901	0.118	-0.010
-150.618	-200.000	0.034	-0.245
-149.604	-200.000	0.049	-0.234
-148.589	-200.000	0.056	0.000
-147.574	-53.128	0.112	0.052
-146.560	17.842	-0.272	0.216
-145.545	-122.384	0.136	-0.022
-144.531	-61.395	-0.344	-0.145
-143.516	-200.000	0.005	-0.026
-142.502	206.959	-0.219	-0.341
-141.487	-200.000	0.004	0.061
-140.472	-83.626	-0.098	-0.031
-139.458	-116.137	0.297	-0.055
-138.443	-200.000	0.001	-0.016
-137.429	61.547	-0.191	0.190
-136.414	163.050	-0.235	-0.330
-135.399	-176.650	-0.219	0.006
-134.385	129.795	0.092	0.117
-133.370	-200.000	-0.020	0.192
-132.356	306.211	0.076	-0.140
-131.341	104.895	-0.201	0.237
-130.326	-200.000	-0.046	0.207
-129.312	-134.871	0.113	0.014
-128.297	-129.310	0.158	0.022
-127.283	-140.942	-0.163	-0.017
-126.268	251.902	-0.038	-0.065
-125.253	392.464	0.126	-0.262
-124.239	-79.266	-0.220	-0.074
-123.224	186.615	-0.134	-0.199
-122.210	-32.092	0.450	0.251
-121.195	354.023	-0.051	-0.102
