DTS Sentinel unit serial number:	SN413079Multiplexer serial number:	ORYXHardware model number:	OX4-SRSoftware version number:	ORYX F/W v4.00 Oryx Data Collector v3.7.2.0data status	okinstallation	princeton_trtdifferential loss correction	single-endedforward channel	channel 4reverse channel	N/Adate	2019/09/11time	00:43:11forward acquisition time	60.00reverse acquisition time	0.00gamma	496.2192k internal	0.2318k external	0.2318temperature offset calibration	0.9950default loss term (dB/km)	0.3790temperature slope calibration	1.0000multiplexer offset coefficient	1.0000multiplexer slope coefficient	1.0000fibre end	0.00T internal ref (°C)	29.19T ext. ref 1 (°C)	-0.32T ext. ref 2 (°C)	22.82length (m)	temperature (°C)	Stokes	anti-Stokes-747.200	800.000	-0.032	-0.093
-746.185	195.135	-0.117	0.180
-745.171	800.000	0.026	0.115
-744.156	-136.360	-0.149	-0.018
-743.142	312.792	0.097	0.185
-742.127	-88.009	-0.167	0.051
-741.112	43.120	-0.278	-0.257
-740.098	-88.232	0.252	-0.076
-739.083	235.573	-0.034	0.057
-738.069	-39.742	-0.230	0.122
-737.054	-49.850	0.098	-0.047
-736.039	79.794	0.228	-0.247
-735.025	48.937	0.099	0.094
-734.010	-110.701	-0.277	0.058
-732.996	-47.417	-0.272	0.134
-731.981	-200.000	0.004	0.053
-730.966	446.500	-0.202	-0.450
-729.952	12.248	-0.178	-0.138
-728.937	-7.780	0.227	-0.155
-727.923	-137.699	-0.294	0.033
-726.908	-89.121	-0.223	0.067
-725.894	700.704	-0.129	-0.344
-724.879	48.301	-0.204	-0.193
-723.864	234.028	0.170	-0.283
-722.850	38.701	0.229	0.207
-721.835	70.184	-0.165	-0.172
-720.821	390.407	0.039	-0.082
-719.806	111.173	0.227	-0.277
-718.791	-122.063	-0.215	0.036
-717.777	31.242	-0.122	0.106
-716.762	86.172	0.249	0.277
-715.748	431.675	0.111	0.243
-714.733	-105.631	-0.171	0.039
-713.718	-200.000	-0.044	0.276
-712.704	-200.000	0.031	0.184
-711.689	142.109	0.276	0.369
-710.675	744.044	-0.066	0.179
-709.660	-109.827	0.502	0.107
-708.645	237.843	0.134	-0.224
-707.631	93.858	-0.276	-0.316
-706.616	280.204	0.179	-0.323
-705.602	160.780	-0.184	-0.260
-704.587	-41.724	0.057	0.029
-703.572	-200.000	-0.010	0.152
-702.558	151.749	0.097	-0.134
-701.543	-8.105	0.202	-0.137
-700.529	-15.716	0.079	-0.051
-699.514	56.191	0.060	-0.059
-698.499	-85.933	-0.192	-0.060
-697.485	47.205	0.063	0.059
-696.470	-105.314	-0.101	-0.023
-695.456	-200.000	0.025	-0.278
-694.441	331.427	-0.078	-0.152
-693.426	74.636	-0.141	0.150
-692.412	231.837	0.199	-0.330
-691.397	-132.303	-0.165	0.022
-690.383	-200.000	0.040	0.458
-689.368	-29.135	-0.167	0.097
-688.354	-200.000	-0.010	-0.251
-687.339	-200.000	-0.017	0.413
-686.324	248.508	0.025	0.042
-685.310	4.897	0.293	-0.218
-684.295	-5.854	0.024	0.017
-683.281	89.335	-0.148	-0.167
-682.266	800.000	0.075	-0.279
-681.251	28.517	-0.425	-0.363
-680.237	308.051	-0.138	-0.260
-679.222	78.591	0.123	0.133
-678.208	302.016	-0.094	-0.175
-677.193	406.193	-0.012	-0.025
-676.178	729.646	0.081	-0.220
-675.164	800.000	0.021	0.090
-674.149	-200.000	0.006	-0.174
-673.135	158.482	0.073	-0.103
-672.120	-26.172	-0.078	0.046
-671.105	0.048	-0.108	0.078
-670.091	800.000	-0.032	-0.127
-669.076	-200.000	-0.013	0.210
-668.062	13.554	0.233	-0.183
-667.047	-200.000	0.043	0.319
-666.032	671.007	-0.087	-0.228
-665.018	-81.832	0.101	-0.033
-664.003	192.109	-0.103	0.157
-662.989	381.281	-0.086	0.179
-661.974	800.000	0.061	-0.184
-660.959	511.780	-0.116	-0.272
-659.945	800.000	0.055	-0.152
-658.930	-200.000	-0.002	-0.017
-657.916	202.199	-0.037	0.058
-656.901	-97.796	-0.338	-0.088
-655.886	-200.000	0.029	-0.335
-654.872	800.000	0.068	-0.251
-653.857	31.144	0.111	-0.096
-652.843	-101.881	0.110	0.027
-651.828	427.368	0.134	-0.292
-650.814	-191.461	-0.282	-0.003
-649.799	129.479	0.203	-0.261
-648.784	800.000	0.054	-0.168
-647.770	800.000	0.145	0.524
-646.755	-58.148	-0.329	0.145
-645.741	-39.050	0.164	0.087
-644.726	-28.798	0.063	-0.037
-643.711	67.582	-0.145	0.149
-642.697	-16.527	-0.158	-0.101
-641.682	108.680	0.194	0.234
-640.668	-142.943	0.257	-0.025
-639.653	-200.000	0.034	-0.272
-638.638	146.376	-0.215	0.291
-637.624	-41.672	0.222	-0.115
-636.609	74.912	-0.050	0.053
-635.595	393.792	-0.029	-0.062
-634.580	-200.000	-0.015	-0.123
-633.565	-200.000	-0.025	-0.172
-632.551	381.556	-0.150	-0.310
-631.536	28.997	-0.164	0.140
-630.522	42.112	0.268	-0.245
-629.507	173.889	-0.115	0.167
-628.492	41.308	-0.241	0.220
-627.478	-151.387	0.042	-0.003
-626.463	-54.087	-0.221	-0.101
-625.449	-200.000	0.017	0.180
-624.434	800.000	0.081	-0.245
-623.419	-200.000	-0.025	0.186
-622.405	-34.802	-0.211	-0.116
-621.390	97.479	0.128	0.148
-620.376	11.478	0.208	0.160
-619.361	-110.440	-0.223	0.047
-618.346	-200.000	0.060	0.534
-617.332	440.054	-0.056	0.122
-616.317	800.000	-0.076	-0.237
-615.303	4.516	-0.177	0.131
-614.288	25.669	-0.168	0.141
-613.273	-50.035	0.097	0.046
-612.259	-9.541	-0.313	0.211
-611.244	111.929	-0.066	-0.080
-610.230	-15.691	0.385	-0.247
-609.215	-44.062	0.148	0.075
-608.201	-28.195	-0.262	0.152
-607.186	-200.000	0.023	-0.281
-606.171	51.697	0.170	-0.162
-605.157	-148.006	-0.009	0.001
-604.142	-42.214	-0.183	-0.094
-603.128	-93.806	0.176	-0.049
-602.113	151.881	-0.181	0.248
-601.098	-74.034	0.202	-0.074
-600.084	55.657	0.253	-0.247
-599.069	800.000	0.014	-0.039
-598.055	-134.614	-0.137	0.017
-597.040	-99.956	0.013	-0.003
-596.025	15.438	0.130	-0.103
-595.011	-36.329	0.175	-0.095
-593.996	-177.771	0.161	-0.004
-592.982	76.740	-0.216	-0.230
-591.967	-200.000	0.020	-0.349
-590.952	-3.233	0.047	-0.033
-589.938	-54.852	-0.117	0.053
-588.923	-200.000	-0.025	-0.288
-587.909	-85.418	-0.278	0.087
-586.894	-99.291	0.420	-0.107
-585.879	347.582	0.101	-0.201
-584.865	44.196	-0.007	-0.006
-583.850	109.286	-0.176	0.212
-582.836	-29.024	0.137	0.079
-581.821	148.823	-0.080	0.108
-580.806	-17.121	-0.204	-0.130
-579.792	-28.397	0.100	-0.058
-578.777	94.533	-0.070	-0.080
-577.763	800.000	-0.133	-0.507
-576.748	-119.166	-0.244	0.043
-575.733	-176.638	0.285	0.007
-574.719	800.000	0.027	-0.103
-573.704	-62.128	-0.168	0.071
-572.690	-145.127	-0.127	-0.012
-571.675	264.470	0.104	0.182
-570.661	13.022	0.375	0.291
-569.646	-137.930	0.135	-0.015
-568.631	271.590	-0.080	-0.142
-567.617	-200.000	0.039	0.214
-566.602	194.012	-0.020	-0.030
-565.588	800.000	0.110	-0.359
-564.573	-86.625	0.352	-0.108
-563.558	-45.209	-0.379	-0.189
-562.544	111.159	0.233	0.282
-561.529	-200.000	-0.044	-0.197
-560.515	-200.000	-0.029	0.184
-559.500	-131.935	0.212	-0.028
-558.485	-191.441	0.275	0.003
-557.471	-200.000	-0.034	-0.148
-556.456	42.400	-0.071	-0.065
-555.442	-93.111	0.191	-0.054
-554.427	-15.166	0.206	0.133
-553.412	263.794	0.025	0.043
-552.398	-76.809	0.198	-0.070
-551.383	-155.650	-0.162	0.010
-550.369	537.031	0.023	-0.054
-549.354	273.754	-0.125	-0.221
-548.339	67.846	-0.281	-0.289
-547.325	800.000	-0.045	0.136
-546.310	469.442	0.072	-0.162
-545.296	-13.377	-0.242	-0.158
-544.281	-46.677	0.236	0.116
-543.266	-153.285	-0.230	0.016
-542.252	348.127	-0.195	0.387
-541.237	-8.276	-0.107	-0.073
-540.223	-59.696	0.250	0.107
-539.208	-97.040	-0.226	0.059
-538.193	-200.000	-0.006	-0.152
-537.179	231.375	-0.075	-0.123
-536.164	-200.000	-0.081	-0.401
-535.150	122.953	0.247	-0.310
-534.135	-164.186	-0.039	-0.002
-533.121	65.853	-0.103	-0.105
-532.106	-6.856	-0.235	-0.161
-531.091	97.786	-0.409	0.472
-530.077	-200.000	-0.047	0.207
-529.062	-200.000	-0.022	0.342
-528.048	-121.127	-0.138	0.023
-527.033	-200.000	-0.043	0.208
-526.018	-66.929	-0.187	0.074
-525.004	304.075	0.067	0.124
-523.989	-115.795	0.402	0.076
-522.975	655.950	-0.049	0.125
-521.960	35.818	-0.397	0.350
-520.945	-200.000	0.037	0.275
-519.931	-59.489	0.202	0.087
-518.916	82.138	-0.030	0.032
-517.902	800.000	-0.053	-0.209
-516.887	32.521	0.210	0.182
-515.872	-56.939	-0.081	0.036
-514.858	206.778	-0.016	-0.025
-513.843	18.557	-0.142	0.114
-512.829	-62.229	-0.213	0.089
-511.814	171.091	-0.096	0.138
-510.799	-16.214	-0.288	0.183
-509.785	288.609	-0.149	0.270
-508.770	800.000	0.076	-0.233
-507.756	-192.631	-0.387	-0.004
-506.741	-53.173	-0.153	0.071
-505.726	-125.944	-0.176	-0.027
-504.712	-128.896	-0.200	-0.028
-503.697	113.796	0.088	-0.107
-502.683	-200.000	-0.005	-0.166
-501.668	-4.808	0.507	-0.350
-500.653	100.191	0.096	0.112
-499.639	-21.505	-0.196	0.120
-498.624	-21.692	0.114	0.069
-497.610	-0.101	-0.055	-0.039
-496.595	-200.000	0.029	0.421
-495.581	-12.793	0.334	-0.218
-494.566	-186.414	-0.285	0.004
-493.551	-166.781	0.169	-0.007
-492.537	18.652	-0.077	0.061
-491.522	129.258	-0.197	-0.253
-490.508	-44.079	0.142	0.072
-489.493	-40.059	-0.349	-0.182
-488.478	-200.000	-0.037	0.365
-487.464	-200.000	0.006	-0.186
-486.449	-200.000	-0.026	-0.427
-485.435	107.917	0.179	-0.213
-484.420	5.444	0.079	-0.058
-483.405	-9.364	0.021	-0.014
-482.391	349.035	0.159	0.314
-481.376	80.372	-0.250	-0.269
-480.362	-100.813	-0.233	-0.058
-479.347	173.605	0.083	0.120
-478.332	-56.940	-0.455	-0.201
-477.318	5.399	-0.097	-0.072
-476.303	-200.000	-0.001	-0.103
-475.289	546.199	-0.039	-0.094
-474.274	-95.693	0.451	-0.121
-473.259	-37.582	-0.207	-0.110
-472.245	800.000	-0.066	-0.224
-471.230	-200.000	0.062	-0.362
-470.216	64.495	0.199	-0.201
-469.201	-168.272	-0.445	-0.017
-468.186	-72.472	-0.209	0.077
-467.172	13.847	0.141	0.110
-466.157	167.241	-0.104	-0.148
-465.143	-108.828	-0.071	-0.015
-464.128	-100.570	-0.209	-0.052
-463.113	-61.279	-0.074	-0.031
-462.099	106.206	0.163	-0.193
-461.084	37.492	-0.128	-0.113
-460.070	34.624	0.102	0.089
-459.055	38.755	0.262	-0.234
-458.040	201.620	0.024	0.037
-457.026	-106.973	0.080	-0.018
-456.011	51.042	0.068	-0.065
-454.997	562.706	0.071	0.171
-453.982	210.535	0.019	-0.029
-452.968	111.504	0.099	-0.120
-451.953	-114.099	0.350	-0.068
-450.938	800.000	-0.129	-0.391
-449.924	466.032	-0.182	-0.409
-448.909	-112.051	0.277	-0.056
-447.895	-177.355	-0.316	0.008
-446.880	250.293	0.057	0.098
-445.865	-200.000	0.031	0.205
-444.851	193.714	-0.119	-0.180
-443.836	280.745	-0.065	-0.116
-442.822	-195.121	-0.277	-0.002
-441.807	-200.000	-0.045	0.233
-440.792	79.051	0.198	-0.212
-439.778	9.320	0.175	-0.132
-438.763	-200.000	-0.006	-0.130
-437.749	800.000	0.037	-0.160
-436.734	226.736	0.028	-0.046
-435.719	11.824	-0.346	-0.266
-434.705	83.535	0.124	0.136
-433.690	-66.327	0.103	0.041
-432.676	-41.481	-0.074	-0.038
-431.661	-64.088	0.348	0.142
-430.646	-104.946	0.226	-0.052
-429.632	160.177	-0.155	-0.216
-428.617	-153.785	-0.035	-0.002
-427.603	800.000	-0.044	0.157
-426.588	-86.167	-0.145	0.045
-425.573	-89.633	-0.069	-0.020
-424.559	39.218	0.205	-0.184
-423.544	-26.338	0.112	0.065
-422.530	417.966	-0.059	0.126
-421.515	-60.565	0.111	0.047
-420.500	-99.324	-0.166	0.042
-419.486	9.577	0.280	0.212
-418.471	-52.237	-0.202	0.094
-417.457	-200.000	0.031	0.338
-416.442	123.563	0.034	0.043
-415.428	-200.000	-0.016	0.141
-414.413	-128.055	0.110	-0.016
-413.398	322.200	0.238	-0.452
-412.384	-63.324	0.244	-0.100
-411.369	243.697	-0.292	-0.490
-410.355	-200.000	-0.008	-0.160
-409.340	393.179	0.096	0.199
-408.325	-155.508	-0.069	0.004
-407.311	281.266	0.135	-0.241
-406.296	-31.149	0.152	0.085
-405.282	800.000	0.077	-0.261
-404.267	389.493	0.095	-0.197
-403.252	-200.000	-0.004	0.144
-402.238	-112.400	-0.111	-0.022
-401.223	216.196	-0.115	-0.182
-400.209	75.525	0.079	-0.083
-399.194	-200.000	0.019	-0.100
-398.179	169.761	0.036	0.051
-397.165	-97.143	0.296	0.077
-396.150	99.684	-0.218	0.251
-395.136	-34.584	-0.078	0.043
-394.121	288.348	-0.071	-0.129
-393.106	41.033	0.150	-0.135
-392.092	-23.623	0.159	0.095
-391.077	-51.361	-0.039	-0.018
-390.063	360.079	0.252	0.503
-389.048	-121.805	-0.202	0.033
-388.033	521.613	-0.053	-0.125
-387.019	82.982	-0.200	0.217
-386.004	53.936	-0.189	0.182
-384.990	-86.333	-0.298	0.091
-383.975	276.369	0.084	-0.148
-382.960	12.714	0.126	-0.097
-381.946	-139.461	-0.156	-0.017
-380.931	100.885	-0.233	0.270
-379.917	198.369	-0.088	0.134
-378.902	-119.693	-0.166	-0.029
-377.888	379.588	0.149	0.304
-376.873	-134.233	-0.172	0.021
-375.858	-31.354	0.259	0.146
-374.844	-117.579	0.272	-0.049
-373.829	-42.363	-0.142	-0.073
-372.815	-173.413	0.306	-0.009
-371.800	41.356	-0.187	0.168
-370.785	800.000	-0.015	-0.058
-369.771	-113.495	0.158	0.031
-368.756	161.179	0.112	-0.156
-367.742	-119.446	0.247	-0.043
-366.727	2.985	-0.141	-0.102
-365.712	-97.881	0.075	-0.019
-364.698	800.000	-0.043	-0.160
-363.683	800.000	0.082	-0.288
-362.669	-200.000	0.020	-0.295
-361.654	-45.020	0.352	0.175
-360.639	141.073	0.144	0.190
-359.625	-71.331	-0.156	0.058
-358.610	92.986	0.217	-0.245
-357.596	-200.000	0.028	-0.156
-356.581	-72.904	0.210	0.077
-355.566	458.134	-0.165	-0.366
-354.552	30.166	-0.033	0.028
-353.537	19.377	0.109	0.087
-352.523	75.587	0.086	-0.090
-351.508	-200.000	0.003	0.017
-350.493	-102.994	-0.064	0.015
-349.479	-71.020	-0.438	-0.164
-348.464	-200.000	0.042	0.000
-347.450	-200.000	-0.029	0.175
-346.435	49.750	-0.192	-0.180
-345.420	-200.000	-0.009	-0.089
-344.406	213.069	0.014	-0.022
-343.391	-29.352	-0.184	0.105
-342.377	-50.876	-0.095	0.045
-341.362	800.000	-0.057	0.240
-340.348	-200.000	-0.042	0.289
-339.333	-67.106	-0.138	-0.054
-338.318	-200.000	-0.030	0.152
-337.304	645.363	-0.056	0.143
-336.289	-89.255	-0.181	-0.053
-335.275	113.050	-0.033	0.040
-334.260	458.212	0.024	-0.053
-333.245	-116.502	0.416	-0.077
-332.231	393.352	-0.121	0.251
-331.216	-200.000	0.004	-0.027
-330.202	-200.000	0.071	0.358
-329.187	9.148	0.178	0.134
-328.172	-111.950	0.207	0.042
-327.158	-18.890	0.166	-0.103
-326.143	142.202	-0.107	0.142
-325.129	67.253	-0.309	-0.314
-324.114	-107.810	0.119	0.026
-323.099	-96.943	-0.156	0.041
-322.085	-79.555	-0.118	0.040
-321.070	-42.323	0.183	0.093
-320.056	641.253	0.048	0.121
-319.041	591.594	0.094	-0.230
-318.026	-20.582	-0.215	-0.132
-317.012	-161.533	0.208	0.011
-315.997	-37.952	-0.283	0.149
-314.983	96.804	-0.130	0.148
-313.968	-29.088	-0.078	-0.045
-312.953	-120.827	-0.027	-0.004
-311.939	25.088	0.258	0.213
-310.924	-21.760	-0.406	0.246
-309.910	139.817	0.136	0.178
-308.895	291.336	-0.028	-0.051
-307.880	-200.000	-0.005	0.150
-306.866	462.959	-0.048	-0.106
-305.851	141.061	0.086	-0.113
-304.837	-200.000	-0.053	0.264
-303.822	638.731	0.087	-0.220
-302.807	-57.787	0.026	0.011
-301.793	800.000	0.059	0.188
-300.778	800.000	0.078	-0.245
-299.764	-102.982	0.134	0.032
-298.749	-146.866	-0.144	-0.012
-297.735	-45.697	-0.336	0.165
-296.720	-89.952	-0.198	-0.058
-295.705	-32.885	0.346	0.191
-294.691	-200.000	0.033	-0.233
-293.676	-200.000	-0.046	-0.202
-292.662	-153.286	-0.245	0.017
-291.647	268.807	0.139	0.242
-290.632	800.000	-0.039	-0.135
-289.618	800.000	-0.111	0.312
-288.603	18.339	0.199	-0.158
-287.589	-200.000	-0.009	-0.135
-286.574	-118.781	-0.151	0.027
-285.559	-11.010	0.159	-0.104
-284.545	-4.153	-0.203	0.140
-283.530	-16.618	-0.273	-0.172
-282.516	105.246	0.178	0.209
-281.501	-80.324	-0.266	-0.088
-280.486	-52.735	0.257	-0.118
-279.472	-31.518	0.100	-0.056
-278.457	125.427	0.195	0.244
-277.443	-159.573	0.310	-0.017
-276.428	-164.391	0.343	-0.016
-275.413	800.000	0.122	0.434
-274.399	64.223	0.255	0.255
-273.384	800.000	0.129	0.518
-272.370	33.992	-0.128	0.111
-271.355	118.381	0.237	-0.291
-270.340	-95.832	-0.410	0.109
-269.326	3.365	0.100	0.072
-268.311	-102.526	-0.085	0.020
-267.297	-200.000	0.030	0.187
-266.282	4.924	0.074	0.054
-265.267	-200.000	-0.020	-0.324
-264.253	-17.205	-0.261	0.163
-263.238	644.487	-0.047	0.119
-262.224	800.000	-0.028	-0.087
-261.209	-54.859	0.324	-0.145
-260.195	-200.000	-0.053	0.242
-259.180	130.283	0.246	0.312
-258.165	800.000	0.084	-0.310
-257.151	800.000	0.107	-0.367
-256.136	-80.480	0.156	-0.052
-255.122	-136.329	0.088	0.010
-254.107	232.452	0.054	-0.089
-253.092	-90.717	0.113	-0.032
-252.078	64.531	0.169	-0.170
-251.063	-15.884	-0.089	-0.056
-250.049	-200.000	0.007	0.163
-249.034	157.866	0.026	0.036
-248.019	-47.741	0.043	-0.021
-247.005	-78.230	0.236	0.080
-245.990	0.097	-0.114	0.080
-244.976	-200.000	0.005	-0.281
-243.961	186.121	-0.197	-0.291
-242.946	-122.095	0.059	0.010
-241.932	66.863	-0.211	0.214
-240.917	167.412	-0.189	-0.266
-239.903	465.060	-0.207	0.459
-238.888	800.000	-0.080	-0.296
-237.873	-17.101	0.209	0.131
-236.859	98.378	-0.155	0.178
-235.844	800.000	0.085	-0.358
-234.830	-58.321	-0.313	0.135
-233.815	165.119	0.038	0.053
-232.800	-111.796	0.293	0.059
-231.786	10.742	-0.233	0.176
-230.771	-200.000	0.030	-0.193
-229.757	249.742	0.084	0.141
-228.742	800.000	-0.057	0.167
-227.727	122.499	-0.219	0.271
-226.713	126.447	-0.190	0.239
-225.698	800.000	0.029	0.120
-224.684	170.001	-0.061	0.086
-223.669	441.611	-0.077	0.167
-222.655	127.629	0.153	0.193
-221.640	78.596	0.154	0.164
-220.625	-131.487	0.184	-0.024
-219.611	366.754	0.122	-0.244
-218.596	800.000	-0.087	0.325
-217.582	-91.849	-0.126	0.035
-216.567	17.269	0.167	-0.131
-215.552	60.928	0.128	-0.126
-214.538	62.562	0.154	-0.152
-213.523	-116.873	-0.060	0.011
-212.509	-99.084	-0.014	-0.003
-211.494	-69.386	0.233	0.089
-210.479	-77.640	-0.200	-0.069
-209.465	772.890	-0.018	0.049
-208.450	-7.257	0.226	0.152
-207.436	-200.000	-0.032	0.212
-206.421	-137.830	0.148	0.016
-205.406	-200.000	0.012	-0.370
-204.392	-163.568	0.065	0.003
-203.377	-200.000	-0.019	0.092
-202.363	272.142	0.134	0.234
-201.348	-66.734	-0.099	-0.039
-200.333	190.124	-0.131	0.196
-199.319	-84.016	0.120	-0.038
-198.304	260.454	0.161	-0.276
-197.290	-26.012	-0.044	0.025
-196.275	-78.562	0.238	0.081
-195.260	-51.285	-0.211	0.098
-194.246	-200.000	-0.017	-0.218
-193.231	800.000	-0.086	-0.319
-192.217	-178.760	0.199	-0.005
-191.202	421.183	0.088	0.186
-190.187	525.103	-0.029	-0.068
-189.173	-166.553	-0.223	-0.009
-188.158	-91.066	0.215	0.061
-187.144	-142.834	-0.097	-0.009
-186.129	-200.000	0.057	-0.393
-185.114	360.555	-0.129	0.256
-184.100	773.527	0.031	-0.085
-183.085	-200.000	-0.031	-0.172
-182.071	-200.000	0.040	0.187
-181.056	-81.922	0.171	0.055
-180.042	-0.691	-0.209	0.147
-179.027	800.000	-0.068	-0.189
-178.012	-59.813	-0.122	-0.052
-176.998	5.275	0.077	-0.056
-175.983	-48.159	0.157	0.075
-174.969	-200.000	0.018	0.103
-173.954	-164.475	-0.343	-0.015
-172.939	452.520	-0.105	0.231
-171.925	376.631	0.105	0.213
-170.910	71.259	0.070	0.072
-169.896	31.630	0.134	0.114
-168.881	-179.772	-0.098	-0.002
-167.866	-163.473	0.269	-0.013
-166.852	-61.940	-0.042	0.017
-165.837	-143.713	0.132	-0.012
-164.823	387.929	-0.077	0.157
-163.808	104.855	0.211	-0.246
-162.793	-24.168	0.079	0.047
-161.779	-13.576	-0.132	-0.085
-160.764	139.781	-0.061	0.079
-159.750	-111.427	-0.317	-0.064
-158.735	-6.593	-0.223	0.151
-157.720	-67.530	0.165	0.064
-156.706	800.000	-0.087	-0.317
-155.691	-200.000	0.016	0.115
-154.677	-20.751	0.210	0.128
-153.662	800.000	-0.024	0.082
-152.647	-162.579	0.280	-0.014
-151.633	-129.710	-0.192	0.026
-150.618	590.229	-0.069	-0.168
-149.604	-141.089	-0.099	-0.010
-148.589	121.176	0.189	-0.232
-147.574	-200.000	0.021	-0.126
-146.560	-200.000	-0.002	-0.113
-145.545	385.483	-0.084	0.172
-144.531	-200.000	-0.038	0.307
-143.516	-18.792	0.021	0.013
-142.502	800.000	0.050	0.143
-141.487	-8.925	-0.343	0.227
-140.472	-176.842	-0.054	-0.001
-139.458	347.352	0.031	0.061
-138.443	-200.000	0.005	-0.100
-137.429	243.680	-0.228	-0.378
-136.414	21.489	0.351	0.282
-135.399	-200.000	0.007	0.158
-134.385	378.190	-0.167	0.338
-133.370	-112.335	-0.187	-0.037
-132.356	-71.296	0.189	0.070
-131.341	-76.591	0.205	0.071
-130.326	-126.575	0.045	-0.007
-129.312	138.718	-0.043	-0.056
-128.297	15.280	-0.233	0.181
-127.283	-200.000	-0.019	-0.098
-126.268	-72.771	0.059	-0.021
-125.253	-78.260	-0.056	0.019
-124.239	800.000	0.095	-0.334
-123.224	532.524	0.086	0.202
-122.210	8.218	0.239	0.177
-121.195	35.916	0.201	0.174
