DTS Sentinel unit serial number:	SN413079Multiplexer serial number:	ORYXHardware model number:	OX4-SRSoftware version number:	ORYX F/W v4.00 Oryx Data Collector v3.7.2.0data status	okinstallation	princeton_trtdifferential loss correction	single-endedforward channel	channel 4reverse channel	N/Adate	2019/09/12time	03:39:10forward acquisition time	60.00reverse acquisition time	0.00gamma	496.2192k internal	0.2309k external	0.2309temperature offset calibration	1.0094default loss term (dB/km)	0.3790temperature slope calibration	1.0000multiplexer offset coefficient	1.0000multiplexer slope coefficient	1.0000fibre end	0.00T internal ref (°C)	32.14T ext. ref 1 (°C)	2.13T ext. ref 2 (°C)	27.12length (m)	temperature (°C)	Stokes	anti-Stokes-747.200	800.000	-0.099	0.372
-746.185	-76.232	-0.163	0.059
-745.171	-158.827	-0.285	0.017
-744.156	800.000	-0.099	0.306
-743.142	800.000	-0.050	-0.202
-742.127	-174.746	-0.239	-0.007
-741.112	32.276	-0.146	0.128
-740.098	-43.855	-0.288	0.147
-739.083	-200.000	0.035	0.195
-738.069	325.083	0.301	0.584
-737.054	72.978	0.090	-0.096
-736.039	-91.962	-0.223	0.064
-735.025	-200.000	-0.025	0.159
-734.010	171.022	0.084	-0.122
-732.996	-33.238	0.038	-0.021
-731.981	156.447	-0.268	0.375
-730.966	-96.904	-0.164	-0.044
-729.952	277.698	-0.089	-0.161
-728.937	-63.254	-0.234	-0.098
-727.923	237.140	-0.226	-0.381
-726.908	-200.000	-0.017	-0.129
-725.894	-165.838	0.155	0.007
-724.879	117.900	-0.306	-0.382
-723.864	-1.690	-0.455	0.325
-722.850	18.411	0.184	-0.149
-721.835	-200.000	0.004	0.053
-720.821	-50.680	-0.374	0.179
-719.806	-200.000	0.001	-0.133
-718.791	-76.253	0.199	-0.071
-717.777	-59.773	0.138	0.060
-716.762	-55.835	0.154	-0.070
-715.748	-11.369	0.148	0.099
-714.733	84.207	-0.073	-0.081
-713.718	-200.000	0.049	0.243
-712.704	-74.929	-0.252	-0.092
-711.689	116.682	-0.225	-0.280
-710.675	-119.190	-0.127	0.022
-709.660	-31.492	0.256	-0.146
-708.645	201.994	-0.085	0.133
-707.631	-62.284	-0.079	0.033
-706.616	-94.762	-0.187	-0.052
-705.602	628.611	0.088	0.224
-704.587	-144.359	-0.397	-0.037
-703.572	-182.469	0.228	0.004
-702.558	-135.312	0.262	-0.032
-701.543	-200.000	-0.052	0.373
-700.529	800.000	-0.020	0.076
-699.514	-164.903	0.230	-0.010
-698.499	-78.522	0.259	-0.090
-697.485	-123.116	0.102	-0.017
-696.470	-125.698	-0.335	-0.051
-695.456	800.000	-0.180	0.607
-694.441	-36.655	-0.287	-0.156
-693.426	-200.000	-0.021	-0.267
-692.412	71.874	0.087	0.092
-691.397	692.793	-0.075	0.200
-690.383	688.411	-0.043	0.113
-689.368	39.560	-0.096	0.087
-688.354	800.000	0.083	0.287
-687.339	426.368	-0.134	-0.294
-686.324	-39.319	-0.151	0.080
-685.310	-200.000	-0.007	-0.246
-684.295	-200.000	-0.007	-0.041
-683.281	-200.000	-0.017	-0.338
-682.266	-144.968	-0.353	-0.033
-681.251	185.701	0.226	0.340
-680.237	-43.120	0.087	-0.045
-679.222	-200.000	0.003	-0.132
-678.208	70.499	0.080	0.084
-677.193	-200.000	0.013	0.339
-676.178	800.000	0.031	0.099
-675.164	-63.896	0.147	-0.061
-674.149	-124.001	0.160	0.026
-673.135	505.670	-0.029	-0.068
-672.120	-109.577	0.378	-0.081
-671.105	-79.424	0.273	-0.093
-670.091	800.000	0.051	0.218
-669.076	-200.000	-0.001	-0.152
-668.062	38.250	-0.307	-0.277
-667.047	84.258	0.190	0.210
-666.032	-91.536	0.094	-0.027
-665.018	575.741	0.128	0.317
-664.003	-200.000	-0.077	0.372
-662.989	-115.360	0.399	0.076
-661.974	-29.063	0.118	0.069
-660.959	-200.000	0.012	0.350
-659.945	317.749	-0.174	-0.334
-658.930	800.000	-0.067	-0.266
-657.916	96.246	-0.120	0.139
-656.901	4.322	0.145	0.108
-655.886	37.548	-0.217	-0.195
-654.872	156.406	-0.306	-0.428
-653.857	-153.509	-0.158	-0.011
-652.843	800.000	-0.098	0.393
-651.828	67.048	0.267	0.276
-650.814	-125.813	-0.048	-0.007
-649.799	-200.000	-0.148	-0.001
-648.784	29.275	0.311	0.268
-647.770	-115.122	-0.552	0.106
-646.755	-54.373	-0.270	0.124
-645.741	0.271	0.097	-0.070
-644.726	-200.000	-0.017	-0.246
-643.711	-20.319	-0.233	0.145
-642.697	-90.538	0.201	0.059
-641.682	13.469	0.262	0.206
-640.668	-41.108	-0.269	0.141
-639.653	-92.453	-0.230	0.066
-638.638	-12.694	0.240	-0.158
-637.624	-136.073	0.184	-0.022
-636.609	-104.385	-0.326	0.076
-635.595	-177.647	0.075	0.002
-634.580	-200.000	-0.026	0.120
-633.565	202.904	0.197	-0.309
-632.551	800.000	-0.090	-0.321
-631.536	-96.891	-0.252	-0.067
-630.522	-76.823	-0.205	0.072
-629.507	224.292	-0.183	0.299
-628.492	4.562	0.262	0.195
-627.478	-62.270	0.266	-0.112
-626.463	-200.000	-0.001	0.085
-625.449	490.879	0.088	0.205
-624.434	202.552	-0.123	0.191
-623.419	114.989	-0.232	0.286
-622.405	-145.630	-0.160	0.014
-621.390	-200.000	0.030	0.163
-620.376	476.281	-0.132	-0.301
-619.361	-25.075	-0.257	0.154
-618.346	-200.000	-0.041	0.182
-617.332	37.956	-0.066	0.060
-616.317	-80.047	0.227	0.077
-615.303	800.000	-0.025	-0.088
-614.288	237.488	0.063	-0.106
-613.273	430.286	0.019	-0.041
-612.259	-200.000	-0.014	-0.090
-611.244	152.353	-0.139	-0.191
-610.230	333.597	-0.058	0.113
-609.215	95.852	-0.146	0.168
-608.201	-31.875	0.065	0.037
-607.186	794.877	-0.124	0.346
-606.171	-152.381	-0.217	-0.016
-605.157	189.671	0.249	-0.377
-604.142	118.328	-0.143	0.178
-603.128	-6.063	0.206	-0.142
-602.113	205.459	0.092	-0.144
-601.098	12.004	-0.233	0.181
-600.084	-130.172	0.062	-0.008
-599.069	-20.183	-0.055	0.034
-598.055	-67.840	-0.310	0.122
-597.040	91.118	-0.158	0.180
-596.025	41.381	0.144	0.132
-595.011	6.351	0.162	-0.121
-593.996	-34.586	0.212	-0.117
-592.982	708.149	-0.076	-0.204
-591.967	800.000	0.045	-0.172
-590.952	-6.609	0.362	0.249
-589.938	422.929	-0.097	0.210
-588.923	-40.769	0.080	-0.042
-587.909	-111.658	-0.036	-0.007
-586.894	-200.000	0.005	0.190
-585.879	-200.000	0.011	-0.158
-584.865	-200.000	0.029	-0.297
-583.850	43.025	-0.158	-0.146
-582.836	-200.000	0.025	0.198
-581.821	-72.277	0.329	-0.123
-580.806	-40.938	0.172	0.090
-579.792	-200.000	0.005	0.090
-578.777	-38.589	0.256	-0.136
-577.763	-28.655	0.152	-0.088
-576.748	418.853	-0.103	0.221
-575.733	-200.000	0.047	0.286
-574.719	292.818	0.031	-0.057
-573.704	-36.097	0.248	-0.135
-572.690	-200.000	0.046	0.000
-571.675	352.270	-0.045	-0.090
-570.661	-82.768	-0.217	-0.071
-569.646	64.931	0.156	-0.159
-568.631	15.814	-0.256	-0.203
-567.617	154.116	-0.058	-0.080
-566.602	-151.716	-0.213	-0.016
-565.588	-154.773	0.258	-0.017
-564.573	-158.110	0.084	-0.005
-563.558	461.527	0.127	0.286
-562.544	800.000	0.084	0.333
-561.529	-2.546	-0.043	-0.030
-560.515	757.322	0.052	0.141
-559.500	274.126	-0.192	-0.343
-558.485	24.279	0.165	0.138
-557.471	-56.350	-0.187	-0.084
-556.456	-68.500	0.062	-0.024
-555.442	-95.257	-0.029	-0.008
-554.427	148.464	0.216	0.294
-553.412	-94.111	0.377	-0.104
-552.398	106.673	0.263	-0.315
-551.383	-31.355	0.231	-0.131
-550.369	-14.224	0.255	0.166
-549.354	-104.075	-0.118	-0.028
-548.339	-90.674	-0.224	-0.065
-547.325	-173.290	-0.530	0.016
-546.310	675.212	-0.089	-0.234
-545.296	20.131	0.222	-0.180
-544.281	-132.120	0.282	0.037
-543.266	-91.373	-0.135	0.039
-542.252	-200.000	0.010	-0.092
-541.237	401.507	-0.039	-0.083
-540.223	-61.728	0.089	0.037
-539.208	286.339	-0.019	0.035
-538.193	49.310	-0.173	-0.164
-537.179	159.327	0.168	-0.236
-536.164	-35.245	0.202	0.111
-535.150	-26.401	0.108	0.064
-534.135	-163.696	-0.342	0.016
-533.121	-68.756	0.126	0.049
-532.106	800.000	-0.097	-0.326
-531.091	-109.608	-0.207	0.044
-530.077	-38.236	-0.214	0.114
-529.062	186.971	0.159	0.238
-528.048	-50.108	0.192	-0.092
-527.033	-87.800	0.045	0.014
-526.018	-190.222	0.328	-0.004
-525.004	-102.443	-0.152	0.037
-523.989	-160.654	-0.333	0.018
-522.975	-86.706	0.147	0.045
-521.960	-98.787	0.211	0.054
-520.945	800.000	-0.047	0.194
-519.931	-152.501	0.145	-0.010
-518.916	13.080	-0.196	0.152
-517.902	-200.000	0.046	0.217
-516.887	-55.953	-0.170	0.076
-515.872	704.840	-0.040	-0.106
-514.858	-72.042	0.234	-0.088
-513.843	-200.000	0.008	0.145
-512.829	800.000	-0.080	-0.267
-511.814	103.574	0.118	-0.139
-510.799	-90.400	-0.121	-0.035
-509.785	43.172	-0.161	-0.148
-508.770	225.682	0.056	-0.091
-507.756	91.753	-0.250	0.283
-506.741	800.000	-0.094	-0.313
-505.726	-183.266	0.299	-0.005
-504.712	-94.256	-0.055	-0.015
-503.697	800.000	0.036	0.134
-502.683	800.000	0.078	0.333
-501.668	512.339	0.020	0.046
-500.653	-1.572	-0.056	-0.040
-499.639	-120.169	0.153	-0.026
-498.624	-156.986	0.180	0.011
-497.610	4.911	0.198	-0.147
-496.595	-200.000	-0.235	0.001
-495.581	-200.000	-0.008	0.180
-494.566	-200.000	0.064	0.288
-493.551	131.941	-0.275	0.356
-492.537	-68.572	-0.227	0.088
-491.522	82.861	0.064	-0.070
-490.508	-8.772	0.236	0.159
-489.493	233.462	-0.155	0.257
-488.478	7.188	-0.400	0.300
-487.464	49.940	0.121	-0.115
-486.449	-84.650	-0.092	0.029
-485.435	-200.000	-0.028	0.366
-484.420	513.433	-0.056	-0.132
-483.405	-200.000	0.029	0.144
-482.391	12.526	0.203	-0.157
-481.376	-133.941	-0.273	0.034
-480.362	-200.000	-0.028	-0.231
-479.347	-200.000	-0.018	0.103
-478.332	285.662	0.188	0.341
-477.318	408.840	-0.030	-0.065
-476.303	45.922	-0.261	0.243
-475.289	-100.488	0.180	-0.045
-474.274	8.382	0.362	-0.274
-473.259	-131.974	-0.185	-0.024
-472.245	800.000	-0.047	-0.192
-471.230	-200.000	-0.025	-0.284
-470.216	-200.000	-0.009	-0.190
-469.201	-37.676	0.164	0.088
-468.186	111.118	0.305	-0.370
-467.172	-154.363	-0.277	0.019
-466.157	-41.058	0.209	0.108
-465.143	36.466	-0.145	-0.129
-464.128	456.839	0.045	0.100
-463.113	17.438	-0.152	0.121
-462.099	41.032	0.109	-0.099
-461.084	-3.802	-0.191	-0.133
-460.070	24.178	-0.049	0.040
-459.055	33.296	-0.116	-0.101
-458.040	199.366	-0.038	-0.059
-457.026	800.000	-0.164	0.456
-456.011	-116.926	-0.113	0.021
-454.997	155.172	0.074	0.102
-453.982	-48.291	-0.262	-0.127
-452.968	-187.767	0.308	0.004
-451.953	-47.953	-0.111	-0.054
-450.938	-47.206	0.029	-0.014
-449.924	19.311	-0.205	-0.165
-448.909	-87.760	-0.121	-0.037
-447.895	800.000	-0.068	0.193
-446.880	184.072	-0.094	0.140
-445.865	-74.700	-0.156	0.056
-444.851	800.000	-0.151	0.419
-443.836	9.414	-0.292	-0.222
-442.822	800.000	-0.049	0.179
-441.807	-82.289	-0.194	0.063
-440.792	-200.000	0.027	-0.138
-439.778	155.248	-0.050	0.069
-438.763	367.375	0.043	-0.087
-437.749	263.455	0.186	-0.325
-436.734	800.000	-0.043	0.145
-435.719	-10.699	-0.194	-0.129
-434.705	-108.433	-0.469	0.101
-433.690	-200.000	-0.040	-0.265
-432.676	-112.078	-0.301	0.061
-431.661	-200.000	0.007	-0.125
-430.646	200.079	0.023	0.035
-429.632	-138.753	0.220	-0.024
-428.617	165.668	-0.188	-0.267
-427.603	181.688	-0.102	0.150
-426.588	800.000	0.131	-0.469
-425.573	-200.000	0.013	0.450
-424.559	312.457	0.033	-0.063
-423.544	0.633	0.119	-0.086
-422.530	-77.772	-0.104	0.036
-421.515	-122.810	-0.388	0.063
-420.500	-40.508	0.257	0.134
-419.486	-200.000	0.082	-0.363
-418.471	18.624	-0.318	0.255
-417.457	-125.368	-0.144	0.022
-416.442	-77.888	-0.278	0.096
-415.428	701.485	0.045	-0.119
-414.413	-61.776	0.215	-0.091
-413.398	-121.713	0.367	0.061
-412.384	-140.411	-0.058	-0.006
-411.369	-105.455	0.208	-0.047
-410.355	-172.205	-0.086	-0.003
-409.340	800.000	0.018	0.060
-408.325	-121.787	-0.127	0.021
-407.311	-81.215	0.145	-0.048
-406.296	97.454	-0.109	-0.126
-405.282	371.287	-0.127	0.259
-404.267	637.659	0.145	-0.369
-403.252	-22.334	0.176	-0.107
-402.238	-194.460	-0.229	0.002
-401.223	41.811	0.065	0.059
-400.209	-109.955	0.347	-0.073
-399.194	-41.465	0.168	0.087
-398.179	543.917	0.053	0.126
-397.165	-90.717	0.229	0.066
-396.150	34.294	-0.101	0.088
-395.136	-200.000	-0.018	0.117
-394.121	106.815	-0.029	0.034
-393.106	-105.326	0.321	-0.073
-392.092	-34.012	-0.157	-0.087
-391.077	68.251	0.106	-0.109
-390.063	-77.460	-0.169	0.059
-389.048	-200.000	0.006	0.130
-388.033	800.000	0.052	0.178
-387.019	-130.142	0.148	0.020
-386.004	-200.000	-0.011	0.073
-384.990	353.797	-0.134	0.267
-383.975	55.297	0.392	0.379
-382.960	11.682	0.204	0.157
-381.946	800.000	0.043	-0.168
-380.931	-127.363	0.092	0.013
-379.917	800.000	0.071	-0.206
-378.902	-160.839	-0.347	0.018
-377.888	358.501	-0.097	-0.195
-376.873	-77.366	0.171	0.059
-375.858	75.543	0.349	-0.369
-374.844	-16.229	0.164	0.104
-373.829	15.559	-0.149	0.117
-372.815	57.828	0.100	0.098
-371.800	-64.871	-0.046	-0.019
-370.785	-200.000	0.030	0.208
-369.771	108.429	0.094	0.113
-368.756	-123.856	-0.356	-0.056
-367.742	-76.992	0.142	0.050
-366.727	-143.424	-0.236	-0.023
-365.712	-122.234	0.069	0.011
-364.698	22.277	-0.145	-0.119
-363.683	641.735	-0.141	-0.360
-362.669	-7.031	0.062	-0.042
-361.654	-99.935	-0.411	0.103
-360.639	-52.853	0.230	-0.106
-359.625	195.703	0.082	-0.125
-358.610	6.488	-0.129	0.096
-357.596	-29.357	0.077	0.044
-356.581	-48.365	-0.296	-0.143
-355.566	340.793	-0.096	-0.187
-354.552	-200.000	0.008	0.234
-353.537	410.011	-0.118	0.250
-352.523	207.880	0.080	-0.125
-351.508	244.531	0.233	-0.392
-350.493	26.983	0.196	-0.165
-349.479	800.000	-0.094	-0.291
-348.464	-47.931	-0.023	-0.011
-347.450	-2.909	-0.275	-0.192
-346.435	-139.456	-0.214	-0.023
-345.420	87.765	-0.134	-0.149
-344.406	-64.748	-0.114	0.046
-343.391	509.205	0.124	-0.288
-342.377	800.000	0.061	-0.191
-341.362	371.565	-0.027	-0.054
-340.348	-200.000	-0.029	0.371
-339.333	63.640	-0.108	-0.108
-338.318	-69.228	0.120	-0.046
-337.304	349.175	0.075	-0.148
-336.289	-81.769	-0.210	0.069
-335.275	4.016	-0.108	0.079
-334.260	-200.000	-0.031	0.160
-333.245	-200.000	-0.012	-0.103
-332.231	-200.000	-0.004	0.294
-331.216	-74.467	0.147	-0.053
-330.202	-200.000	0.005	-0.105
-329.187	185.493	-0.119	-0.177
-328.172	800.000	-0.050	-0.171
-327.158	-138.545	0.087	0.010
-326.143	133.897	-0.219	-0.284
-325.129	-135.238	-0.399	0.048
-324.114	-109.523	0.175	0.037
-323.099	-200.000	0.048	-0.388
-322.085	388.885	0.136	-0.281
-321.070	-200.000	-0.027	0.137
-320.056	-119.806	-0.042	-0.007
-319.041	609.678	0.100	-0.251
-318.026	800.000	0.012	0.034
-317.012	-200.000	0.060	0.374
-315.997	305.859	0.076	-0.141
-314.983	-61.859	0.251	-0.105
-313.968	-200.000	0.000	-0.071
-312.953	29.968	-0.241	-0.205
-311.939	87.356	-0.131	0.145
-310.924	331.326	0.159	-0.306
-309.910	-53.336	-0.085	0.039
-308.895	222.397	-0.094	-0.151
-307.880	-136.271	-0.115	0.013
-306.866	-24.857	0.657	0.389
-305.851	-23.053	0.228	-0.137
-304.837	-13.238	-0.270	0.175
-303.822	-130.396	-0.258	-0.035
-302.807	-117.715	0.287	-0.052
-301.793	47.506	0.232	-0.216
-300.778	90.384	0.184	0.206
-299.764	166.059	0.093	0.132
-298.749	-95.002	0.394	-0.106
-297.735	114.646	-0.071	0.087
-296.720	-2.741	0.091	0.064
-295.705	195.530	0.210	-0.319
-294.691	-92.524	0.229	-0.064
-293.676	90.111	-0.118	0.131
-292.662	110.594	0.146	0.175
-291.647	-122.820	-0.238	-0.038
-290.632	-22.602	0.076	-0.046
-289.618	28.595	-0.050	-0.042
-288.603	-200.000	-0.003	-0.049
-287.589	-200.000	0.017	0.147
-286.574	-154.660	-0.144	0.010
-285.559	26.042	-0.191	0.159
-284.545	-152.699	0.097	-0.007
-283.530	-58.585	-0.073	0.032
-282.516	-117.485	-0.128	-0.023
-281.501	133.302	0.120	0.155
-280.486	-200.000	-0.013	0.374
-279.472	-200.000	0.054	-0.271
-278.457	511.415	0.081	-0.188
-277.443	331.209	-0.098	0.188
-276.428	-7.864	0.097	-0.065
-275.413	59.374	0.257	0.253
-274.399	-73.053	-0.334	0.122
-273.384	152.187	-0.044	0.059
-272.370	-115.163	-0.317	-0.060
-271.355	570.844	-0.151	-0.367
-270.340	-200.000	-0.029	-0.153
-269.326	-148.042	-0.309	-0.026
-268.311	-54.557	0.108	0.049
-267.297	448.418	0.160	-0.352
-266.282	-164.666	0.202	0.009
-265.267	88.359	0.095	-0.105
-264.253	-200.000	0.010	-0.301
-263.238	-68.300	-0.276	-0.107
-262.224	36.515	-0.176	0.155
-261.209	-59.359	-0.195	0.084
-260.195	-67.690	0.307	0.120
-259.180	136.675	0.162	0.211
-258.165	-114.104	-0.149	0.029
-257.151	800.000	-0.054	0.165
-256.136	-87.864	0.121	-0.036
-255.122	52.919	-0.089	0.085
-254.107	366.570	0.068	-0.136
-253.092	800.000	-0.055	-0.168
-252.078	800.000	-0.046	0.132
-251.063	-142.571	-0.069	0.007
-250.049	14.384	0.184	-0.143
-249.034	-200.000	0.070	-0.391
-248.019	83.293	-0.020	0.022
-247.005	32.870	0.189	-0.163
-245.990	-79.911	0.282	0.094
-244.976	-200.000	0.032	0.290
-243.961	-142.702	-0.132	-0.013
-242.946	-80.101	-0.107	0.036
-241.932	563.846	-0.106	0.256
-240.917	-71.643	0.207	-0.077
-239.903	266.487	-0.157	-0.273
-238.888	-74.310	-0.140	0.050
-237.873	-200.000	-0.010	0.247
-236.859	-36.345	0.496	0.266
-235.844	-152.749	0.108	-0.008
-234.830	800.000	0.050	-0.150
-233.815	-200.000	-0.001	-0.222
-232.800	7.634	-0.256	0.191
-231.786	800.000	-0.028	0.084
-230.771	97.850	-0.092	-0.106
-229.757	-200.000	0.015	0.076
-228.742	-157.459	-0.289	0.017
-227.727	107.431	0.082	-0.097
-226.713	-200.000	0.283	-0.001
-225.698	101.101	-0.181	-0.210
-224.684	-200.000	0.023	-0.191
-223.669	139.023	0.086	-0.112
-222.655	696.326	0.103	0.270
-221.640	628.144	-0.081	0.203
-220.625	254.023	0.147	-0.251
-219.611	124.122	-0.062	0.077
-218.596	-80.891	0.053	-0.017
-217.582	-200.000	-0.009	0.049
-216.567	-8.547	-0.176	0.117
-215.552	-200.000	-0.033	-0.313
-214.538	-65.023	-0.115	-0.046
-213.523	1.103	0.241	0.172
-212.509	-97.119	0.251	-0.065
-211.494	800.000	-0.043	0.147
-210.479	-200.000	0.000	0.055
-209.465	-56.077	0.175	0.077
-208.450	800.000	0.080	0.264
-207.436	-26.395	0.119	-0.069
-206.421	243.353	0.088	0.147
-205.406	356.815	-0.147	0.291
-204.392	-199.405	0.161	0.001
-203.377	380.125	0.066	0.136
-202.363	-135.384	0.163	0.019
-201.348	-200.000	0.007	-0.365
-200.333	41.941	-0.098	-0.088
-199.319	800.000	0.043	-0.144
-198.304	184.259	0.110	-0.162
-197.290	-28.083	0.405	-0.233
-196.275	-87.878	0.269	0.080
-195.260	-2.427	0.054	-0.038
-194.246	800.000	-0.067	-0.248
-193.231	-200.000	-0.033	-0.191
-192.217	-20.891	0.055	0.033
-191.202	-200.000	-0.002	0.137
-190.187	306.136	0.096	-0.178
-189.173	-129.636	-0.246	0.034
-188.158	-91.727	-0.156	0.044
-187.144	-47.523	-0.034	0.017
-186.129	-182.159	0.260	0.005
-185.114	-42.135	0.185	-0.094
-184.100	716.345	0.058	-0.153
-183.085	90.305	-0.146	-0.162
-182.071	209.780	-0.163	0.255
-181.056	0.203	0.136	0.096
-180.042	-43.372	-0.121	-0.061
-179.027	-29.722	0.098	0.055
-178.012	-126.760	-0.417	0.061
-176.998	131.486	0.262	0.334
-175.983	57.561	0.152	0.148
-174.969	-107.869	0.111	-0.024
-173.954	-70.631	-0.256	0.096
-172.939	-173.727	0.239	-0.007
-171.925	-200.000	-0.007	0.203
-170.910	84.196	0.140	-0.152
-169.896	119.531	-0.244	-0.300
-168.881	-136.509	-0.614	-0.071
-167.866	47.006	-0.086	-0.080
-166.852	127.154	-0.060	-0.076
-165.837	800.000	0.074	0.203
-164.823	-68.220	-0.081	-0.031
-163.808	-87.353	0.226	0.068
-162.793	-146.635	0.185	-0.016
-161.779	252.786	-0.094	0.159
-160.764	104.249	0.100	-0.116
-159.750	595.000	0.040	-0.098
-158.735	26.993	-0.193	-0.161
-157.720	-102.777	0.171	0.040
-156.706	-87.280	0.290	-0.087
-155.691	-91.338	0.119	0.034
-154.677	-200.000	-0.037	0.301
-153.662	49.857	-0.195	0.182
-152.647	-59.523	-0.208	0.089
-151.633	119.522	0.181	0.223
-150.618	-127.476	0.292	0.042
-149.604	74.813	-0.148	0.155
-148.589	2.393	-0.133	-0.095
-147.574	52.978	0.236	-0.224
-146.560	800.000	-0.034	0.117
-145.545	-200.000	0.017	0.115
-144.531	800.000	-0.190	0.538
-143.516	66.490	0.100	-0.101
-142.502	80.468	0.132	-0.141
-141.487	-70.957	0.117	-0.044
-140.472	37.530	-0.134	0.118
-139.458	-200.000	-0.006	0.110
-138.443	-99.900	0.177	-0.044
-137.429	-200.000	-0.010	0.152
-136.414	-200.000	0.014	0.135
-135.399	-200.000	0.006	0.266
-134.385	800.000	0.085	0.259
-133.370	-123.087	-0.099	-0.016
-132.356	106.052	-0.257	-0.302
-131.341	-200.000	0.027	0.215
-130.326	26.738	0.164	0.136
-129.312	800.000	-0.085	0.311
-128.297	800.000	0.005	-0.019
-127.283	-200.000	0.018	0.384
-126.268	800.000	0.087	0.318
-125.253	-51.066	-0.190	-0.088
-124.239	48.899	0.221	0.205
-123.224	-8.925	0.163	0.108
-122.210	-200.000	0.010	-0.096
-121.195	7.084	-0.291	0.215
