DTS Sentinel unit serial number:	SN413079Multiplexer serial number:	ORYXHardware model number:	OX4-SRSoftware version number:	ORYX F/W v4.00 Oryx Data Collector v3.7.2.0data status	okinstallation	princeton_trtdifferential loss correction	single-endedforward channel	channel 4reverse channel	N/Adate	2019/09/11time	12:11:11forward acquisition time	60.00reverse acquisition time	0.00gamma	496.2192k internal	0.2286k external	0.2286temperature offset calibration	0.9967default loss term (dB/km)	0.3790temperature slope calibration	1.0000multiplexer offset coefficient	1.0000multiplexer slope coefficient	1.0000fibre end	0.00T internal ref (°C)	39.72T ext. ref 1 (°C)	0.20T ext. ref 2 (°C)	37.87length (m)	temperature (°C)	Stokes	anti-Stokes-747.200	-114.002	-0.250	-0.050
-746.185	-200.000	0.042	0.210
-745.171	467.653	-0.096	0.220
-744.156	-200.000	0.006	-0.069
-743.142	-13.305	0.109	0.072
-742.127	380.136	0.109	0.230
-741.112	-137.256	-0.192	0.022
-740.098	121.459	-0.156	0.199
-739.083	-71.328	0.325	-0.125
-738.069	-200.000	0.060	0.449
-737.054	800.000	0.057	-0.223
-736.039	800.000	0.070	-0.211
-735.025	146.851	0.063	0.087
-734.010	-84.917	0.015	0.005
-732.996	86.455	-0.280	-0.317
-731.981	35.472	0.169	0.152
-730.966	152.550	-0.099	0.139
-729.952	800.000	0.029	0.119
-728.937	49.719	0.151	0.146
-727.923	800.000	0.035	0.148
-726.908	800.000	-0.103	-0.315
-725.894	-11.200	-0.233	0.157
-724.879	329.597	0.104	0.205
-723.864	-200.000	-0.013	0.075
-722.850	432.328	0.044	-0.097
-721.835	169.662	-0.071	-0.104
-720.821	-200.000	0.015	0.137
-719.806	72.611	0.054	0.058
-718.791	388.380	0.159	-0.338
-717.777	-179.048	-0.078	0.002
-716.762	-91.154	0.211	-0.062
-715.748	-170.305	0.411	-0.015
-714.733	14.820	-0.068	-0.054
-713.718	184.338	-0.070	0.106
-712.704	-103.918	0.048	-0.012
-711.689	-112.582	0.142	-0.029
-710.675	-118.860	0.179	0.032
-709.660	360.830	-0.067	-0.137
-708.645	-200.000	0.017	-0.077
-707.631	-32.891	-0.250	-0.142
-706.616	-200.000	-0.070	0.323
-705.602	465.400	-0.124	0.284
-704.587	-117.757	0.371	0.068
-703.572	203.974	0.087	-0.138
-702.558	13.162	0.244	0.194
-701.543	135.812	0.193	-0.258
-700.529	-200.000	0.004	-0.176
-699.514	-200.000	-0.013	0.158
-698.499	-64.142	-0.290	-0.121
-697.485	-53.223	-0.227	0.107
-696.470	-155.996	-0.196	-0.013
-695.456	-52.207	0.076	0.036
-694.441	425.889	-0.103	-0.227
-693.426	-200.000	-0.030	-0.331
-692.412	-38.680	0.029	-0.016
-691.397	469.595	0.098	0.225
-690.383	22.492	-0.115	0.096
-689.368	-200.000	0.030	-0.227
-688.354	12.199	0.082	-0.065
-687.339	800.000	0.053	0.171
-686.324	171.029	0.198	0.290
-685.310	74.924	0.267	-0.288
-684.295	800.000	-0.029	0.085
-683.281	-140.554	0.244	-0.026
-682.266	-134.512	-0.402	0.050
-681.251	-5.308	0.100	0.071
-680.237	-37.971	0.198	-0.108
-679.222	41.684	-0.053	0.049
-678.208	-200.000	0.021	-0.211
-677.193	-13.423	-0.146	0.097
-676.178	800.000	0.037	-0.108
-675.164	800.000	-0.095	-0.384
-674.149	88.248	0.132	-0.150
-673.135	-96.997	0.157	0.042
-672.120	-75.115	0.489	-0.179
-671.105	800.000	-0.061	-0.185
-670.091	-72.754	0.278	0.105
-669.076	-68.795	-0.269	-0.106
-668.062	104.000	-0.030	0.036
-667.047	-65.976	0.285	0.116
-666.032	800.000	-0.060	0.227
-665.018	-155.409	-0.047	0.003
-664.003	800.000	0.073	-0.274
-662.989	-143.278	-0.028	-0.003
-661.974	441.538	-0.068	-0.152
-660.959	-54.662	0.309	-0.143
-659.945	-146.715	0.245	-0.022
-658.930	-156.881	0.122	-0.008
-657.916	693.620	0.037	0.099
-656.901	137.073	-0.106	-0.142
-655.886	99.584	0.051	0.060
-654.872	800.000	0.062	-0.179
-653.857	800.000	0.087	-0.295
-652.843	312.407	0.139	-0.266
-651.828	-47.283	-0.140	0.070
-650.814	721.901	-0.041	0.111
-649.799	-106.087	-0.183	0.042
-648.784	-2.437	-0.254	-0.182
-647.770	-200.000	0.013	-0.217
-646.755	800.000	-0.048	-0.176
-645.741	183.333	-0.046	0.069
-644.726	-200.000	0.043	0.235
-643.711	29.459	0.128	-0.111
-642.697	-200.000	0.018	-0.193
-641.682	-42.011	0.260	0.136
-640.668	8.345	-0.298	-0.229
-639.653	-137.947	-0.244	0.028
-638.638	24.351	-0.252	0.213
-637.624	14.280	0.115	0.091
-636.609	-5.476	0.245	-0.172
-635.595	-200.000	-0.024	-0.119
-634.580	-163.770	-0.281	-0.013
-633.565	-75.632	0.343	0.124
-632.551	800.000	-0.129	-0.437
-631.536	704.500	-0.043	-0.116
-630.522	-45.299	0.102	-0.052
-629.507	-77.808	0.247	-0.087
-628.492	-137.696	-0.267	-0.031
-627.478	168.571	0.190	-0.277
-626.463	800.000	-0.048	0.157
-625.449	165.593	-0.166	-0.239
-624.434	273.946	0.087	-0.157
-623.419	800.000	0.034	0.099
-622.405	-14.140	0.198	0.130
-621.390	71.624	0.209	-0.222
-620.376	203.877	-0.052	-0.083
-619.361	617.823	-0.049	-0.125
-618.346	-144.175	-0.250	0.024
-617.332	-200.000	-0.046	0.227
-616.317	-120.377	0.149	0.026
-615.303	-200.000	-0.019	0.405
-614.288	-107.164	0.167	-0.038
-613.273	-31.874	0.136	0.078
-612.259	190.948	-0.171	0.263
-611.244	96.656	0.109	0.127
-610.230	66.544	-0.269	-0.279
-609.215	-53.282	0.357	-0.167
-608.201	-200.000	-0.012	-0.082
-607.186	-68.974	0.197	0.077
-606.171	248.111	0.062	0.107
-605.157	-200.000	-0.043	-0.339
-604.142	-200.000	0.044	-0.203
-603.128	-76.183	0.102	-0.037
-602.113	-102.997	0.179	-0.043
-601.098	321.433	-0.102	0.198
-600.084	0.134	0.063	-0.046
-599.069	-200.000	0.059	0.391
-598.055	-68.247	-0.281	-0.112
-597.040	225.516	-0.060	-0.100
-596.025	186.579	-0.078	0.118
-595.011	345.503	-0.012	-0.024
-593.996	336.657	0.108	0.213
-592.982	188.512	-0.079	-0.121
-591.967	-200.000	0.014	0.156
-590.952	118.161	-0.358	-0.450
-589.938	-175.195	0.148	0.004
-588.923	22.477	0.044	-0.037
-587.909	-200.000	0.024	0.234
-586.894	-200.000	-0.007	0.206
-585.879	-200.000	-0.031	-0.163
-584.865	800.000	0.076	-0.238
-583.850	-200.000	0.010	0.181
-582.836	-152.874	-0.238	-0.017
-581.821	800.000	-0.009	-0.035
-580.806	226.715	-0.292	0.483
-579.792	68.544	0.163	0.171
-578.777	-200.000	-0.041	0.266
-577.763	-27.630	-0.359	0.212
-576.748	-78.197	-0.140	-0.049
-575.733	-4.206	-0.076	0.054
-574.719	15.328	-0.164	0.131
-573.704	-86.822	0.265	0.083
-572.690	-200.000	-0.041	-0.257
-571.675	118.620	-0.079	-0.099
-570.661	266.658	0.150	0.267
-569.646	9.559	0.214	0.165
-568.631	-54.243	-0.253	-0.117
-567.617	11.828	0.080	-0.063
-566.602	-52.993	0.147	-0.069
-565.588	-200.000	-0.050	0.297
-564.573	-43.886	-0.072	-0.037
-563.558	102.680	-0.377	-0.449
-562.544	42.636	0.140	0.129
-561.529	-200.000	-0.035	-0.300
-560.515	289.520	-0.186	0.344
-559.500	-200.000	-0.088	-0.425
-558.485	167.280	-0.152	-0.220
-557.471	800.000	0.092	0.258
-556.456	270.588	-0.101	-0.181
-555.442	800.000	0.068	0.276
-554.427	-193.302	-0.282	0.003
-553.412	107.176	0.016	-0.020
-552.398	114.401	0.098	-0.122
-551.383	-12.701	-0.175	-0.116
-550.369	46.213	0.171	0.162
-549.354	800.000	0.060	-0.264
-548.339	72.954	-0.086	-0.092
-547.325	-200.000	0.030	0.433
-546.310	-185.065	-0.158	0.003
-545.296	-98.741	0.141	-0.037
-544.281	-200.000	-0.003	-0.137
-543.266	-94.008	0.092	0.026
-542.252	-200.000	0.010	-0.135
-541.237	-200.000	0.011	-0.125
-540.223	447.925	-0.045	-0.101
-539.208	555.307	0.111	-0.271
-538.193	176.688	0.084	0.124
-537.179	-200.000	0.017	0.117
-536.164	-170.958	0.222	-0.008
-535.150	145.274	-0.075	0.103
-534.135	-200.000	-0.011	0.076
-533.121	77.469	0.015	0.016
-532.106	-200.000	0.030	-0.346
-531.091	26.144	-0.250	-0.212
-530.077	-76.644	-0.241	0.086
-529.062	92.522	-0.092	-0.106
-528.048	-67.868	0.417	0.166
-527.033	-58.951	0.363	0.160
-526.018	-68.523	-0.083	-0.033
-525.004	-65.399	0.195	0.080
-523.989	-200.000	0.001	0.265
-522.975	35.612	-0.236	-0.211
-521.960	-200.000	-0.024	-0.301
-520.945	-43.385	-0.069	0.035
-519.931	626.357	-0.030	-0.076
-518.916	-122.039	-0.541	0.090
-517.902	-89.751	-0.217	0.065
-516.887	51.874	0.218	0.211
-515.872	-100.165	0.171	-0.043
-514.858	-18.272	0.239	0.152
-513.843	-200.000	-0.007	-0.137
-512.829	131.055	0.178	-0.232
-511.814	-200.000	0.008	-0.294
-510.799	-67.889	-0.292	-0.116
-509.785	-58.868	0.219	0.096
-508.770	-118.503	-0.185	-0.033
-507.756	-9.931	0.066	-0.045
-506.741	800.000	-0.045	-0.133
-505.726	-23.716	0.116	0.071
-504.712	74.427	0.262	-0.280
-503.697	-44.565	0.290	-0.148
-502.683	170.440	-0.104	0.152
-501.668	-102.430	-0.077	-0.019
-500.653	-67.213	0.234	-0.094
-499.639	154.218	0.092	-0.129
-498.624	72.204	0.215	-0.228
-497.610	-66.861	0.224	0.090
-496.595	-200.000	0.009	0.207
-495.581	-200.000	-0.006	-0.065
-494.566	-9.877	-0.319	0.215
-493.551	-66.173	-0.306	0.124
-492.537	-183.183	0.015	-0.000
-491.522	-200.000	0.002	-0.198
-490.508	309.264	0.198	0.376
-489.493	100.371	0.175	0.207
-488.478	-200.000	0.001	0.169
-487.464	14.284	0.223	0.176
-486.449	584.294	-0.147	0.367
-485.435	633.964	-0.056	-0.144
-484.420	-200.000	0.002	0.219
-483.405	-200.000	0.046	0.204
-482.391	21.340	0.271	0.223
-481.376	-49.378	-0.181	-0.088
-480.362	119.674	-0.193	-0.243
-479.347	-122.061	-0.157	-0.026
-478.332	103.335	0.122	0.145
-477.318	171.988	0.189	-0.276
-476.303	-93.129	-0.254	0.072
-475.289	235.610	-0.021	0.035
-474.274	38.295	0.118	-0.107
-473.259	11.993	-0.201	-0.157
-472.245	-200.000	0.009	0.205
-471.230	-82.554	-0.299	-0.099
-470.216	247.199	0.163	-0.280
-469.201	-174.858	-0.109	-0.003
-468.186	-200.000	0.139	-0.660
-467.172	-200.000	-0.022	-0.101
-466.157	-114.490	-0.317	0.062
-465.143	-142.776	-0.099	-0.010
-464.128	-17.965	-0.248	0.158
-463.113	304.706	-0.167	-0.315
-462.099	496.922	0.114	0.265
-461.084	427.243	-0.081	0.177
-460.070	-200.000	-0.144	-0.001
-459.055	-200.000	0.015	-0.105
-458.040	-117.616	-0.363	0.066
-457.026	117.329	-0.068	0.085
-456.011	-200.000	0.022	0.506
-454.997	800.000	-0.102	-0.315
-453.982	-200.000	-0.003	0.054
-452.968	-114.988	0.050	-0.010
-451.953	-200.000	-0.020	-0.158
-450.938	-200.000	0.039	0.189
-449.924	-66.427	-0.121	0.049
-448.909	-200.000	-0.004	-0.228
-447.895	3.454	-0.190	-0.140
-446.880	-63.477	-0.405	-0.169
-445.865	-200.000	-0.021	0.140
-444.851	800.000	-0.029	-0.114
-443.836	-200.000	0.129	-0.000
-442.822	800.000	0.027	0.086
-441.807	0.278	0.286	0.207
-440.792	19.375	0.119	0.097
-439.778	13.464	0.223	-0.176
-438.763	493.545	0.041	0.096
-437.749	-26.166	-0.131	0.078
-436.734	-76.214	0.197	0.071
-435.719	-20.318	-0.174	-0.108
-434.705	383.211	0.069	-0.143
-433.690	-200.000	-0.008	-0.156
-432.676	403.853	-0.071	0.152
-431.661	406.126	0.079	0.169
-430.646	314.183	0.123	0.235
-429.632	-81.508	-0.192	0.064
-428.617	800.000	-0.120	0.366
-427.603	-200.000	-0.042	0.219
-426.588	-52.587	-0.070	0.033
-425.573	185.703	0.025	-0.037
-424.559	0.215	0.123	0.089
-423.544	-41.647	-0.073	0.038
-422.530	39.729	-0.088	-0.080
-421.515	-99.674	-0.183	0.046
-420.500	-200.000	0.000	0.136
-419.486	-200.000	-0.009	0.370
-418.471	701.084	-0.129	-0.343
-417.457	323.713	-0.076	-0.147
-416.442	6.656	-0.165	-0.124
-415.428	-45.696	0.027	0.014
-414.413	95.383	-0.037	-0.042
-413.398	800.000	0.091	-0.347
-412.384	563.530	-0.105	-0.258
-411.369	-44.304	0.067	-0.034
-410.355	530.740	0.117	0.281
-409.340	-200.000	-0.021	0.242
-408.325	-200.000	-0.054	0.249
-407.311	-77.508	-0.252	0.089
-406.296	442.595	-0.091	-0.201
-405.282	-200.000	0.019	0.116
-404.267	-93.683	-0.145	0.040
-403.252	10.503	0.286	-0.221
-402.238	-181.089	0.285	0.006
-401.223	45.892	-0.075	-0.071
-400.209	-129.752	0.066	-0.009
-399.194	81.660	0.101	-0.110
-398.179	-169.782	-0.077	-0.003
-397.165	33.638	-0.120	0.105
-396.150	800.000	-0.028	-0.102
-395.136	-200.000	0.030	-0.193
-394.121	27.785	-0.103	-0.088
-393.106	800.000	0.017	-0.066
-392.092	800.000	-0.027	0.097
-391.077	144.183	-0.119	0.161
-390.063	449.021	-0.070	-0.155
-389.048	-200.000	-0.009	0.382
-388.033	93.102	0.128	0.146
-387.019	-61.649	0.087	0.037
-386.004	-200.000	-0.024	-0.220
-384.990	78.438	0.246	0.266
-383.975	71.953	0.186	-0.195
-382.960	146.587	-0.008	0.011
-381.946	-200.000	0.012	-0.060
-380.931	160.893	0.061	-0.086
-379.917	-200.000	-0.055	-0.380
-378.902	800.000	0.056	-0.236
-377.888	-200.000	-0.130	0.665
-376.873	-200.000	-0.023	0.119
-375.858	304.889	-0.153	-0.288
-374.844	800.000	-0.048	0.166
-373.829	-1.047	0.110	0.079
-372.815	-50.092	0.300	0.144
-371.800	-200.000	0.014	0.421
-370.785	118.929	0.053	-0.067
-369.771	-200.000	0.021	-0.150
-368.756	-200.000	-0.011	-0.258
-367.742	-41.634	-0.115	-0.060
-366.727	-72.754	0.115	-0.043
-365.712	-168.547	0.431	-0.017
-364.698	-200.000	0.007	-0.166
-363.683	189.608	0.170	-0.257
-362.669	-18.695	-0.211	-0.133
-361.654	101.275	-0.490	0.577
-360.639	-45.800	0.389	-0.194
-359.625	-39.658	0.159	-0.084
-358.610	48.186	0.150	-0.142
-357.596	-185.424	0.201	0.003
-356.581	800.000	-0.041	0.141
-355.566	16.511	0.242	-0.193
-354.552	-145.997	0.067	0.006
-353.537	-200.000	0.026	-0.351
-352.523	-22.887	-0.313	-0.191
-351.508	-0.007	-0.222	0.160
-350.493	-15.401	-0.023	0.015
-349.479	-27.543	0.260	-0.153
-348.464	100.010	0.158	-0.185
-347.450	267.312	0.021	-0.038
-346.435	-200.000	-0.021	0.151
-345.420	-51.438	-0.205	0.097
-344.406	542.304	0.058	-0.141
-343.391	723.770	-0.052	0.139
-342.377	-152.613	0.152	-0.011
-341.362	-108.498	0.117	0.025
-340.348	-109.895	0.456	0.097
-339.333	-200.000	-0.076	0.434
-338.318	800.000	0.118	0.381
-337.304	393.512	-0.124	-0.260
-336.289	143.440	-0.096	0.130
-335.275	800.000	-0.115	0.326
-334.260	-67.799	-0.086	-0.034
-333.245	-200.000	-0.002	0.375
-332.231	-103.707	0.200	-0.047
-331.216	-35.627	-0.159	-0.087
-330.202	-78.097	-0.180	-0.062
-329.187	265.941	0.060	0.106
-328.172	274.556	-0.102	0.182
-327.158	-74.891	-0.085	-0.031
-326.143	-200.000	-0.000	-0.240
-325.129	-81.784	0.217	-0.072
-324.114	-145.685	-0.262	0.024
-323.099	-200.000	0.012	0.105
-322.085	117.201	0.181	-0.224
-321.070	168.615	-0.124	-0.179
-320.056	800.000	0.035	-0.125
-319.041	73.705	-0.124	-0.131
-318.026	-102.373	0.324	-0.078
-317.012	94.273	-0.239	0.274
-315.997	-148.265	0.095	0.008
-314.983	800.000	0.175	-0.702
-313.968	96.981	-0.074	-0.086
-312.953	4.913	-0.078	-0.058
-311.939	389.042	0.125	0.260
-310.924	-94.149	-0.124	-0.034
-309.910	-124.938	-0.015	-0.002
-308.895	470.189	0.060	0.137
-307.880	31.578	0.013	0.011
-306.866	118.099	0.206	-0.256
-305.851	800.000	-0.075	-0.317
-304.837	-200.000	0.004	-0.075
-303.822	19.867	-0.239	-0.194
-302.807	-82.696	0.216	-0.070
-301.793	56.736	0.140	-0.137
-300.778	-95.609	-0.061	0.016
-299.764	-103.120	0.169	-0.040
-298.749	800.000	0.061	0.245
-297.735	800.000	-0.120	-0.423
-296.720	-3.304	0.063	0.044
-295.705	800.000	-0.080	0.241
-294.691	-87.989	-0.076	0.023
-293.676	800.000	0.045	0.126
-292.662	-25.789	0.311	-0.185
-291.647	-175.727	-0.099	0.003
-290.632	114.102	0.061	-0.075
-289.618	285.694	-0.121	0.220
-288.603	-93.527	0.240	-0.067
-287.589	-38.962	0.093	0.049
-286.574	-200.000	-0.022	-0.287
-285.559	-200.000	-0.022	-0.412
-284.545	43.257	0.347	0.319
-283.530	-77.026	0.338	-0.119
-282.516	422.528	0.020	0.044
-281.501	125.333	0.302	0.384
-280.486	-35.943	-0.201	0.109
-279.472	57.736	-0.197	-0.194
-278.457	65.387	-0.070	0.071
-277.443	314.853	-0.061	0.117
-276.428	-106.461	-0.067	0.015
-275.413	800.000	-0.064	-0.186
-274.399	145.286	-0.126	0.169
-273.384	157.330	0.028	0.039
-272.370	-20.628	0.317	0.196
-271.355	89.476	0.233	0.262
-270.340	587.805	-0.139	-0.346
-269.326	355.084	0.089	-0.179
-268.311	-94.428	0.193	0.053
-267.297	38.939	-0.020	-0.018
-266.282	-194.837	-0.247	-0.002
-265.267	-200.000	-0.019	0.234
-264.253	319.823	0.112	0.215
-263.238	-200.000	-0.009	-0.046
-262.224	16.200	-0.269	0.214
-261.209	800.000	-0.069	0.225
-260.195	-200.000	0.076	-0.388
-259.180	-111.376	-0.103	0.021
-258.165	-33.215	-0.366	-0.204
-257.151	-200.000	-0.135	0.000
-256.136	-135.798	0.169	-0.020
-255.122	33.335	-0.249	-0.218
-254.107	14.601	-0.128	-0.101
-253.092	246.490	0.066	0.111
-252.078	-73.656	0.246	-0.090
-251.063	72.981	-0.212	-0.223
-250.049	-89.869	0.202	-0.059
-249.034	-200.000	0.045	-0.230
-248.019	-200.000	-0.009	-0.184
-247.005	-200.000	-0.048	-0.237
-245.990	-106.550	-0.282	-0.063
-244.976	56.677	-0.139	-0.136
-243.961	-48.025	0.143	-0.070
-242.946	98.576	0.089	0.103
-241.932	256.563	-0.175	0.303
-240.917	403.981	-0.076	-0.161
-239.903	94.133	-0.140	0.160
-238.888	-200.000	-0.075	0.367
-237.873	-109.438	-0.451	0.096
-236.859	122.447	0.054	-0.068
-235.844	-17.000	0.233	0.148
-234.830	800.000	0.015	-0.054
-233.815	-104.319	0.108	-0.025
-232.800	22.833	0.207	0.170
-231.786	-51.087	-0.136	0.064
-230.771	-134.070	0.249	0.031
-229.757	-30.239	-0.053	-0.030
-228.742	161.330	0.193	0.271
-227.727	88.632	0.058	-0.065
-226.713	429.470	0.080	-0.174
-225.698	112.744	0.139	0.170
-224.684	5.053	-0.140	0.104
-223.669	-200.000	-0.065	0.301
-222.655	-120.199	-0.333	-0.057
-221.640	-196.604	0.241	0.002
-220.625	-32.874	0.128	-0.071
-219.611	-198.811	-0.212	0.001
-218.596	-117.594	0.303	0.055
-217.582	92.464	0.062	-0.070
-216.567	-77.123	-0.146	0.051
-215.552	800.000	0.091	0.287
-214.538	-121.295	-0.174	0.029
-213.523	566.439	0.063	0.153
-212.509	-134.026	0.392	0.049
-211.494	-58.506	0.175	-0.076
-210.479	-107.661	0.171	0.038
-209.465	-2.869	0.245	0.172
-208.450	800.000	-0.022	-0.064
-207.436	-50.245	0.231	0.110
-206.421	82.798	-0.259	-0.283
-205.406	34.503	-0.310	0.272
-204.392	-200.000	0.039	-0.206
-203.377	-17.011	-0.226	0.143
-202.363	-40.777	-0.244	-0.127
-201.348	-32.866	-0.115	-0.064
-200.333	-136.438	0.395	0.046
-199.319	503.033	-0.099	-0.230
-198.304	281.154	0.025	0.044
-197.290	-200.000	0.006	0.116
-196.275	46.940	-0.226	0.211
-195.260	13.477	0.257	0.200
-194.246	-200.000	-0.009	0.205
-193.231	516.818	0.117	0.276
-192.217	800.000	0.032	-0.120
-191.202	36.249	-0.089	0.079
-190.187	195.094	-0.243	0.370
-189.173	111.262	-0.108	0.131
-188.158	189.850	0.045	-0.068
-187.144	-200.000	0.039	-0.501
-186.129	-75.200	0.253	0.091
-185.114	104.509	0.072	0.085
-184.100	-58.280	-0.134	-0.059
-183.085	499.347	-0.055	-0.128
-182.071	136.460	0.135	0.176
-181.056	281.299	0.060	0.108
-180.042	-63.869	-0.215	0.088
-179.027	18.618	-0.123	-0.099
-178.012	598.040	0.052	0.129
-176.998	-186.046	0.302	-0.004
-175.983	-68.397	0.213	0.083
-174.969	-51.958	-0.206	0.096
-173.954	14.920	-0.115	0.090
-172.939	-81.201	0.212	-0.070
-171.925	-200.000	0.055	0.303
-170.910	-47.750	-0.289	0.141
-169.896	-200.000	-0.055	-0.299
-168.881	30.589	0.223	0.191
-167.866	800.000	0.076	-0.255
-166.852	800.000	-0.011	0.035
-165.837	-129.188	0.367	-0.051
-164.823	123.790	0.137	0.173
-163.808	-200.000	0.079	-0.464
-162.793	800.000	0.053	-0.185
-161.779	147.542	-0.045	0.061
-160.764	-112.559	-0.079	0.016
-159.750	53.980	0.177	0.171
-158.735	-47.203	-0.145	0.071
-157.720	-100.602	-0.250	0.062
-156.706	-81.912	0.191	0.063
-155.691	-113.415	-0.137	0.027
-154.677	-200.000	0.014	-0.226
-153.662	-42.586	-0.234	-0.119
-152.647	-6.042	-0.156	0.107
-151.633	-154.535	0.095	-0.006
-150.618	-65.230	0.211	-0.085
-149.604	-200.000	-0.003	-0.368
-148.589	-21.593	0.166	-0.102
-147.574	232.803	0.080	0.131
-146.560	17.788	0.266	-0.213
-145.545	177.641	-0.094	-0.137
-144.531	-157.855	-0.095	-0.006
-143.516	-200.000	0.001	0.189
-142.502	-69.427	-0.263	-0.101
-141.487	-165.312	0.122	0.005
-140.472	800.000	0.039	-0.111
-139.458	-200.000	0.061	0.286
-138.443	100.115	-0.126	-0.146
-137.429	-109.021	0.247	0.053
-136.414	86.015	-0.173	-0.191
-135.399	-98.486	0.222	-0.057
-134.385	507.367	-0.116	0.270
-133.370	-200.000	0.015	-0.193
-132.356	-139.194	-0.174	0.019
-131.341	437.499	-0.193	0.421
-130.326	197.264	0.198	-0.303
-129.312	485.640	0.012	-0.026
-128.297	508.971	0.075	0.176
-127.283	-134.099	0.324	0.040
-126.268	34.407	0.203	-0.177
-125.253	-87.816	0.219	-0.066
-124.239	5.412	0.082	-0.061
-123.224	10.817	0.181	0.138
-122.210	-200.000	0.002	0.389
-121.195	-200.000	0.018	0.281
