DTS Sentinel unit serial number:	SN413079Multiplexer serial number:	ORYXHardware model number:	OX4-SRSoftware version number:	ORYX F/W v4.00 Oryx Data Collector v3.7.2.0data status	okinstallation	princeton_trtdifferential loss correction	single-endedforward channel	channel 4reverse channel	N/Adate	2019/09/10time	20:51:10forward acquisition time	60.00reverse acquisition time	0.00gamma	496.2192k internal	0.2313k external	0.2313temperature offset calibration	0.9946default loss term (dB/km)	0.3790temperature slope calibration	1.0000multiplexer offset coefficient	1.0000multiplexer slope coefficient	1.0000fibre end	0.00T internal ref (°C)	31.75T ext. ref 1 (°C)	-0.32T ext. ref 2 (°C)	25.34length (m)	temperature (°C)	Stokes	anti-Stokes-747.200	-200.000	0.028	-0.249
-746.185	800.000	-0.032	0.122
-745.171	-73.069	0.461	-0.171
-744.156	-155.488	-0.219	0.014
-743.142	-22.001	0.101	0.062
-742.127	441.552	-0.109	0.242
-741.112	482.641	-0.011	0.024
-740.098	-200.000	0.002	0.020
-739.083	52.688	0.184	0.178
-738.069	-40.768	-0.211	-0.111
-737.054	-81.708	-0.213	-0.071
-736.039	-200.000	-0.042	-0.256
-735.025	245.172	0.187	-0.319
-734.010	76.275	-0.190	-0.204
-732.996	-82.867	-0.179	0.059
-731.981	295.668	-0.182	0.337
-730.966	297.657	-0.106	0.197
-729.952	268.568	-0.131	-0.233
-728.937	-101.962	-0.263	0.064
-727.923	800.000	-0.048	-0.194
-726.908	800.000	-0.089	-0.307
-725.894	-200.000	-0.066	-0.355
-724.879	-141.740	-0.352	-0.036
-723.864	800.000	0.043	0.184
-722.850	-80.626	0.449	0.152
-721.835	192.842	0.346	0.530
-720.821	361.685	-0.142	0.288
-719.806	-200.000	-0.027	-0.165
-718.791	800.000	-0.086	-0.365
-717.777	-166.805	0.340	0.014
-716.762	-129.533	-0.234	-0.033
-715.748	12.823	-0.374	-0.293
-714.733	-200.000	0.026	-0.167
-713.718	-51.368	-0.128	0.061
-712.704	-200.000	0.036	-0.312
-711.689	117.515	0.135	-0.168
-710.675	334.700	0.081	0.160
-709.660	791.700	0.021	-0.060
-708.645	-200.000	-0.029	-0.270
-707.631	17.561	0.118	0.095
-706.616	-200.000	-0.021	0.170
-705.602	800.000	-0.049	-0.179
-704.587	-74.848	0.477	-0.173
-703.572	310.547	-0.185	0.352
-702.558	-200.000	-0.031	-0.171
-701.543	-125.571	0.181	-0.028
-700.529	183.365	0.313	-0.469
-699.514	8.392	0.190	-0.145
-698.499	-200.000	-0.028	-0.327
-697.485	88.254	-0.055	-0.061
-696.470	800.000	0.055	0.199
-695.456	31.769	-0.165	0.144
-694.441	-66.104	0.141	-0.057
-693.426	-16.734	-0.029	-0.019
-692.412	26.133	-0.064	0.054
-691.397	-164.556	0.323	-0.015
-690.383	147.498	-0.083	0.114
-689.368	122.478	-0.073	-0.092
-688.354	-26.835	0.301	0.178
-687.339	-118.943	0.295	-0.052
-686.324	200.454	-0.191	-0.298
-685.310	-89.967	0.084	0.025
-684.295	75.065	-0.095	0.101
-683.281	-81.925	0.133	0.044
-682.266	800.000	0.024	-0.091
-681.251	-148.765	0.252	0.021
-680.237	-175.309	-0.198	0.005
-679.222	-166.366	0.102	-0.004
-678.208	296.750	-0.105	0.195
-677.193	23.614	0.257	0.214
-676.178	-200.000	0.003	0.059
-675.164	-66.245	-0.079	0.032
-674.149	-110.483	-0.168	0.035
-673.135	-200.000	-0.069	-0.340
-672.120	87.544	-0.089	-0.100
-671.105	-188.251	0.165	-0.002
-670.091	-58.001	-0.341	0.151
-669.076	-26.217	0.073	0.044
-668.062	-5.323	0.207	-0.144
-667.047	10.485	-0.204	-0.157
-666.032	-3.895	0.060	0.042
-665.018	108.379	0.375	-0.452
-664.003	800.000	0.042	-0.172
-662.989	-200.000	-0.093	-0.636
-661.974	-200.000	-0.055	-0.479
-660.959	-23.520	-0.306	-0.186
-659.945	-111.246	0.108	-0.022
-658.930	282.704	0.084	-0.153
-657.916	-200.000	0.039	0.289
-656.901	61.749	0.208	0.209
-655.886	-80.567	0.285	0.096
-654.872	-98.620	0.431	-0.111
-653.857	216.087	-0.075	-0.120
-652.843	335.975	-0.156	-0.306
-651.828	800.000	-0.028	-0.093
-650.814	52.294	-0.018	-0.017
-649.799	169.368	-0.247	-0.356
-648.784	220.832	-0.187	-0.303
-647.770	-101.068	0.137	-0.034
-646.755	86.065	0.092	-0.102
-645.741	-200.000	-0.048	0.229
-644.726	736.544	-0.083	0.226
-643.711	-130.244	-0.262	-0.036
-642.697	-178.298	-0.099	0.002
-641.682	-102.208	0.418	0.102
-640.668	11.373	-0.398	0.308
-639.653	-128.564	-0.360	0.051
-638.638	-38.528	-0.231	-0.123
-637.624	22.651	-0.044	-0.037
-636.609	460.475	-0.059	0.133
-635.595	674.527	0.021	-0.056
-634.580	-58.015	-0.405	-0.178
-633.565	-21.567	-0.224	-0.138
-632.551	108.342	-0.171	-0.206
-631.536	595.299	0.071	0.177
-630.522	-30.106	0.221	-0.127
-629.507	-54.839	-0.105	0.048
-628.492	-35.792	-0.211	-0.116
-627.478	115.114	-0.022	-0.027
-626.463	761.499	0.039	0.107
-625.449	-200.000	-0.006	0.517
-624.434	-51.630	-0.148	-0.070
-623.419	-87.528	-0.289	-0.088
-622.405	-22.385	-0.103	0.063
-621.390	531.958	0.041	-0.097
-620.376	56.363	0.084	0.083
-619.361	269.609	-0.048	-0.085
-618.346	386.499	0.072	0.149
-617.332	2.919	-0.378	-0.277
-616.317	338.708	0.105	-0.207
-615.303	668.117	0.016	-0.042
-614.288	-200.000	0.041	0.195
-613.273	-147.729	-0.231	-0.020
-612.259	-200.000	0.007	-0.061
-611.244	-15.927	-0.070	-0.045
-610.230	-70.449	-0.155	0.059
-609.215	-200.000	0.000	0.208
-608.201	-117.963	0.138	0.025
-607.186	-200.000	-0.032	-0.225
-606.171	218.046	-0.073	0.117
-605.157	-120.853	0.051	0.009
-604.142	58.634	0.043	0.043
-603.128	631.866	-0.137	-0.349
-602.113	-200.000	0.055	0.252
-601.098	-16.359	0.080	-0.051
-600.084	-28.410	0.196	-0.114
-599.069	-127.272	-0.105	0.015
-598.055	-200.000	-0.013	0.103
-597.040	282.378	-0.064	-0.115
-596.025	393.899	0.029	0.062
-595.011	108.045	-0.041	-0.050
-593.996	-200.000	0.033	0.203
-592.982	800.000	-0.124	-0.407
-591.967	351.887	-0.025	0.050
-590.952	-94.083	0.333	-0.092
-589.938	-17.525	-0.260	0.165
-588.923	10.553	-0.061	0.047
-587.909	-16.808	0.209	-0.133
-586.894	-165.705	-0.221	-0.010
-585.879	-101.322	0.068	-0.017
-584.865	800.000	0.045	-0.151
-583.850	-75.260	0.134	0.048
-582.836	-181.200	-0.215	0.004
-581.821	70.992	0.058	0.060
-580.806	-85.120	-0.062	0.020
-579.792	-45.569	0.369	-0.184
-578.777	191.122	0.097	-0.147
-577.763	-113.648	-0.148	-0.029
-576.748	-137.990	0.281	-0.032
-575.733	-68.040	-0.161	0.063
-574.719	71.770	0.077	-0.080
-573.704	-200.000	-0.019	0.137
-572.690	-200.000	-0.041	0.194
-571.675	800.000	-0.112	0.315
-570.661	-180.763	0.427	0.009
-569.646	-74.977	-0.216	0.078
-568.631	-14.617	-0.237	-0.153
-567.617	168.530	-0.099	-0.142
-566.602	-148.843	-0.202	0.016
-565.588	88.320	0.014	0.016
-564.573	68.495	-0.115	-0.118
-563.558	48.106	-0.131	-0.123
-562.544	-149.557	0.197	-0.016
-561.529	18.027	0.184	-0.148
-560.515	800.000	-0.059	-0.256
-559.500	-93.716	0.229	-0.064
-558.485	-200.000	0.012	-0.193
-557.471	-200.000	-0.084	0.429
-556.456	15.208	0.261	0.206
-555.442	84.473	0.024	0.026
-554.427	630.405	-0.069	0.175
-553.412	-200.000	-0.066	0.523
-552.398	-31.547	-0.030	0.017
-551.383	373.352	-0.109	-0.224
-550.369	134.715	-0.160	0.209
-549.354	-128.015	-0.286	-0.041
-548.339	-165.919	0.161	-0.007
-547.325	345.578	-0.026	-0.051
-546.310	6.058	-0.353	0.263
-545.296	201.286	-0.206	-0.319
-544.281	-200.000	-0.020	0.168
-543.266	-37.629	0.141	0.076
-542.252	109.544	-0.008	0.010
-541.237	87.745	-0.174	0.194
-540.223	138.663	-0.099	-0.131
-539.208	-52.669	0.325	0.151
-538.193	210.500	-0.063	0.099
-537.179	800.000	-0.090	0.381
-536.164	275.037	-0.073	0.129
-535.150	-200.000	0.027	0.326
-534.135	-111.835	-0.224	0.046
-533.121	-176.501	-0.150	-0.004
-532.106	-44.575	0.385	0.194
-531.091	-200.000	-0.047	-0.282
-530.077	140.889	0.089	-0.118
-529.062	-45.526	-0.089	0.044
-528.048	-147.245	0.088	0.008
-527.033	-45.239	0.165	0.082
-526.018	800.000	-0.002	-0.009
-525.004	77.463	-0.302	0.323
-523.989	-155.973	0.200	0.013
-522.975	361.174	-0.146	-0.294
-521.960	-194.890	-0.116	0.001
-520.945	-94.926	-0.321	0.087
-519.931	50.023	-0.132	0.125
-518.916	-200.000	0.008	-0.243
-517.902	-200.000	0.053	0.246
-516.887	-200.000	-0.009	0.069
-515.872	-113.259	-0.243	0.048
-514.858	800.000	0.070	-0.289
-513.843	-51.735	0.036	-0.017
-512.829	-200.000	-0.001	-0.014
-511.814	-27.884	0.069	0.040
-510.799	-14.131	-0.240	-0.155
-509.785	-200.000	-0.005	0.059
-508.770	-63.126	-0.343	0.142
-507.756	800.000	0.022	0.079
-506.741	70.317	-0.080	-0.083
-505.726	-47.931	-0.350	0.170
-504.712	149.348	0.084	-0.114
-503.697	-200.000	0.003	0.173
-502.683	-62.387	0.416	-0.174
-501.668	-136.165	-0.118	-0.014
-500.653	149.710	-0.101	0.137
-499.639	-103.783	-0.117	-0.027
-498.624	-66.737	0.564	-0.224
-497.610	111.951	-0.036	0.044
-496.595	-200.000	0.069	-0.314
-495.581	-103.095	-0.322	0.077
-494.566	-105.726	-0.091	0.021
-493.551	-0.772	0.221	-0.157
-492.537	-116.492	-0.372	-0.069
-491.522	400.771	-0.047	0.098
-490.508	183.361	-0.323	-0.479
-489.493	-144.892	-0.243	-0.022
-488.478	-200.000	-0.002	0.128
-487.464	-73.270	0.372	0.137
-486.449	-56.046	0.191	0.085
-485.435	-131.521	-0.261	-0.035
-484.420	800.000	-0.091	-0.294
-483.405	744.042	0.048	-0.130
-482.391	-72.092	-0.299	-0.112
-481.376	-28.453	-0.171	-0.099
-480.362	800.000	0.097	-0.290
-479.347	-55.668	0.263	0.118
-478.332	-53.461	0.288	-0.132
-477.318	135.449	0.052	-0.067
-476.303	-200.000	0.021	-0.167
-475.289	-66.645	0.315	-0.125
-474.274	-83.081	0.454	0.147
-473.259	-23.767	-0.329	0.198
-472.245	69.308	-0.199	-0.205
-471.230	22.456	0.272	-0.224
-470.216	-70.436	0.136	0.052
-469.201	157.161	0.049	-0.068
-468.186	-72.621	0.035	-0.013
-467.172	55.108	-0.204	-0.198
-466.157	-200.000	-0.080	0.369
-465.143	800.000	0.056	-0.239
-464.128	-200.000	0.019	0.102
-463.113	800.000	-0.149	-0.502
-462.099	-24.224	-0.234	0.140
-461.084	4.002	-0.216	0.159
-460.070	-116.376	-0.272	0.051
-459.055	-200.000	-0.015	0.279
-458.040	-200.000	0.026	-0.212
-457.026	-200.000	0.011	0.213
-456.011	149.514	-0.039	0.053
-454.997	-155.049	0.286	-0.019
-453.982	-200.000	-0.000	-0.062
-452.968	-82.445	-0.187	-0.061
-451.953	18.472	0.153	-0.123
-450.938	367.565	0.018	-0.037
-449.924	-32.632	-0.100	-0.056
-448.909	418.444	0.051	-0.108
-447.895	-200.000	-0.008	-0.108
-446.880	-200.000	0.007	-0.050
-445.865	-48.364	-0.079	-0.038
-444.851	-200.000	-0.023	-0.112
-443.836	-13.996	-0.103	0.066
-442.822	176.642	-0.071	-0.104
-441.807	-105.271	-0.364	-0.083
-440.792	800.000	-0.046	-0.165
-439.778	25.483	-0.203	0.169
-438.763	-200.000	-0.021	0.375
-437.749	-200.000	-0.038	-0.216
-436.734	-89.923	0.388	0.114
-435.719	-99.334	-0.363	0.092
-434.705	-86.552	0.212	0.065
-433.690	-111.554	0.074	0.015
-432.676	442.670	-0.028	0.061
-431.661	-97.351	-0.596	0.156
-430.646	-67.665	-0.051	0.020
-429.632	-54.358	-0.220	0.100
-428.617	800.000	-0.032	-0.123
-427.603	399.178	-0.090	-0.190
-426.588	800.000	-0.056	-0.222
-425.573	-20.643	-0.191	-0.118
-424.559	6.961	0.172	0.128
-423.544	186.182	-0.183	0.272
-422.530	-117.376	-0.131	-0.024
-421.515	-118.660	0.232	0.041
-420.500	100.555	0.030	-0.034
-419.486	179.265	0.174	0.254
-418.471	800.000	0.045	-0.152
-417.457	336.582	0.095	-0.185
-416.442	-59.837	-0.261	-0.112
-415.428	-200.000	0.010	-0.090
-414.413	-128.096	-0.194	-0.028
-413.398	800.000	-0.097	-0.372
-412.384	404.046	0.082	0.174
-411.369	-59.658	0.312	0.134
-410.355	78.628	-0.152	0.163
-409.340	12.263	-0.048	-0.037
-408.325	-108.090	0.112	-0.024
-407.311	-200.000	0.015	0.268
-406.296	-29.469	-0.316	-0.181
-405.282	-99.994	-0.253	0.063
-404.267	32.295	0.083	0.072
-403.252	490.815	0.146	0.334
-402.238	800.000	-0.076	0.232
-401.223	-200.000	-0.022	0.165
-400.209	-161.015	0.209	-0.011
-399.194	105.172	0.289	-0.341
-398.179	409.695	0.100	-0.212
-397.165	-136.591	0.248	0.029
-396.150	-80.595	0.271	-0.090
-395.136	-200.000	0.017	-0.275
-394.121	-40.583	0.367	0.191
-393.106	-122.011	-0.180	0.030
-392.092	-65.306	0.485	0.195
-391.077	-68.077	0.304	0.118
-390.063	302.753	0.239	0.443
-389.048	-72.305	-0.123	-0.045
-388.033	-10.639	-0.301	-0.199
-387.019	-200.000	-0.008	-0.337
-386.004	122.833	0.099	-0.124
-384.990	-10.662	0.153	-0.101
-383.975	-3.366	0.162	-0.113
-382.960	217.070	-0.108	0.172
-381.946	-200.000	0.011	-0.203
-380.931	-152.195	-0.285	-0.021
-379.917	-188.944	-0.159	-0.002
-378.902	468.643	0.025	-0.056
-377.888	-200.000	-0.025	0.209
-376.873	800.000	0.135	0.386
-375.858	-137.263	-0.038	0.004
-374.844	-166.860	-0.204	0.008
-373.829	480.494	0.066	0.150
-372.815	14.325	-0.138	0.107
-371.800	-46.182	0.236	0.116
-370.785	-75.890	-0.303	0.107
-369.771	-3.914	0.144	0.100
-368.756	56.578	-0.163	-0.159
-367.742	800.000	0.094	0.300
-366.727	143.705	-0.038	0.050
-365.712	-112.282	0.249	0.050
-364.698	-76.881	0.102	-0.036
-363.683	-65.685	0.256	0.102
-362.669	758.715	0.096	-0.259
-361.654	39.578	0.100	-0.090
-360.639	329.349	0.037	-0.071
-359.625	800.000	0.071	0.236
-358.610	800.000	-0.080	-0.294
-357.596	-79.344	-0.552	0.187
-356.581	-73.617	-0.315	-0.115
-355.566	-65.753	-0.023	0.009
-354.552	-200.000	-0.006	-0.107
-353.537	768.996	0.102	-0.279
-352.523	-200.000	-0.028	0.198
-351.508	-200.000	-0.037	-0.340
-350.493	-111.602	0.106	0.022
-349.479	800.000	-0.021	0.077
-348.464	287.128	-0.097	0.175
-347.450	-200.000	-0.018	-0.121
-346.435	7.093	0.132	-0.098
-345.420	-135.501	-0.326	0.039
-344.406	54.074	0.117	-0.112
-343.391	123.180	0.112	0.140
-342.377	-117.602	0.038	0.007
-341.362	-200.000	0.017	-0.078
-340.348	49.598	-0.218	0.205
-339.333	110.343	-0.061	-0.073
-338.318	-6.707	0.213	-0.145
-337.304	30.022	-0.154	0.131
-336.289	-131.546	-0.182	0.024
-335.275	556.069	0.084	0.203
-334.260	-122.627	0.159	-0.026
-333.245	-125.011	-0.231	-0.035
-332.231	520.629	-0.054	0.127
-331.216	14.519	0.218	0.170
-330.202	309.166	-0.057	0.105
-329.187	13.989	-0.343	0.266
-328.172	-102.474	0.297	-0.071
-327.158	-100.007	0.092	-0.023
-326.143	23.204	0.274	-0.225
-325.129	-139.684	0.360	0.038
-324.114	58.958	-0.066	-0.065
-323.099	15.804	-0.060	0.047
-322.085	340.569	-0.137	0.268
-321.070	800.000	0.042	0.120
-320.056	208.296	-0.107	-0.166
-319.041	21.798	0.062	0.050
-318.026	800.000	-0.067	0.247
-317.012	-200.000	0.020	0.194
-315.997	25.731	0.168	0.140
-314.983	-42.447	0.304	-0.154
-313.968	-69.444	0.041	0.016
-312.953	24.024	-0.170	0.139
-311.939	167.071	0.181	0.256
-310.924	-21.038	-0.185	0.113
-309.910	312.628	0.243	-0.454
-308.895	-200.000	0.010	0.125
-307.880	90.715	-0.207	-0.231
-306.866	-20.263	0.132	-0.081
-305.851	20.348	-0.058	-0.047
-304.837	19.911	0.322	0.259
-303.822	182.555	0.165	-0.243
-302.807	800.000	0.066	-0.206
-301.793	-200.000	-0.051	0.309
-300.778	560.356	-0.107	0.258
-299.764	-200.000	0.009	-0.278
-298.749	800.000	0.076	-0.228
-297.735	37.563	0.141	0.124
-296.720	632.255	-0.119	-0.301
-295.705	-200.000	0.027	-0.138
-294.691	-155.070	0.345	0.023
-293.676	208.643	0.134	-0.209
-292.662	-2.238	-0.293	-0.205
-291.647	-59.157	0.397	0.171
-290.632	32.481	-0.249	-0.215
-289.618	-200.000	-0.041	-0.273
-288.603	-89.572	-0.200	-0.058
-287.589	-5.160	0.241	0.165
-286.574	237.752	-0.112	-0.186
-285.559	469.375	0.064	0.142
-284.545	-200.000	0.034	-0.277
-283.530	-73.878	0.250	-0.090
-282.516	540.886	0.101	-0.241
-281.501	-52.361	0.294	-0.136
-280.486	-10.910	-0.257	-0.169
-279.472	564.821	-0.020	0.049
-278.457	-200.000	-0.021	0.394
-277.443	-137.374	-0.174	0.020
-276.428	98.582	0.152	0.175
-275.413	800.000	0.034	0.132
-274.399	275.892	-0.194	-0.343
-273.384	-58.191	0.217	0.094
-272.370	214.233	-0.165	0.260
-271.355	88.411	0.139	0.154
-270.340	-200.000	0.006	-0.027
-269.326	227.734	0.129	-0.208
-268.311	311.288	0.162	0.302
-267.297	151.321	-0.202	0.274
-266.282	800.000	-0.041	-0.114
-265.267	479.138	-0.127	-0.287
-264.253	-200.000	-0.036	-0.228
-263.238	-105.053	0.257	0.059
-262.224	-200.000	0.016	-0.121
-261.209	800.000	-0.059	-0.215
-260.195	8.396	0.182	-0.137
-259.180	51.613	0.172	-0.162
-258.165	-200.000	0.012	0.123
-257.151	-65.551	-0.198	0.079
-256.136	-118.278	0.183	0.032
-255.122	-61.310	0.101	-0.042
-254.107	-200.000	0.021	0.105
-253.092	39.805	-0.165	0.147
-252.078	391.470	0.125	0.259
-251.063	-10.997	-0.176	-0.116
-250.049	41.841	0.219	0.197
-249.034	756.175	-0.058	0.155
-248.019	-107.155	-0.274	-0.060
-247.005	13.694	0.092	0.071
-245.990	-200.000	0.014	-0.114
-244.976	462.959	0.103	0.229
-243.961	-70.768	-0.073	0.028
-242.946	173.971	0.065	0.094
-241.932	-200.000	0.021	0.395
-240.917	-200.000	0.012	0.298
-239.903	800.000	0.133	0.396
-238.888	-108.577	0.344	-0.074
-237.873	95.792	-0.086	0.098
-236.859	501.402	0.092	-0.211
-235.844	-36.527	-0.277	-0.148
-234.830	249.981	0.044	-0.075
-233.815	104.585	0.209	-0.245
-232.800	-200.000	-0.015	-0.299
-231.786	-148.606	-0.154	-0.012
-230.771	3.288	0.234	-0.169
-229.757	800.000	-0.069	-0.275
-228.742	168.510	-0.220	0.311
-227.727	-45.279	-0.190	0.094
-226.713	189.435	0.131	-0.196
-225.698	18.058	0.387	-0.307
-224.684	34.987	0.283	-0.247
-223.669	-137.705	-0.384	-0.043
-222.655	-200.000	-0.031	-0.192
-221.640	23.075	-0.109	-0.089
-220.625	-44.795	-0.019	0.010
-219.611	-200.000	-0.028	0.169
-218.596	800.000	-0.065	0.249
-217.582	-200.000	0.011	-0.126
-216.567	-163.337	0.266	-0.013
-215.552	21.153	0.128	-0.103
-214.538	19.131	-0.131	0.104
-213.523	-116.175	0.247	0.046
-212.509	-135.543	0.192	-0.023
-211.494	83.937	-0.167	0.181
-210.479	166.880	0.255	0.359
-209.465	58.549	0.074	-0.072
-208.450	-50.281	-0.115	0.054
-207.436	71.780	0.361	-0.373
-206.421	-137.118	0.190	-0.022
-205.406	336.847	0.117	0.225
-204.392	-16.420	0.102	0.064
-203.377	719.525	0.052	-0.137
-202.363	-70.738	0.124	0.047
-201.348	-98.177	0.165	-0.042
-200.333	-66.137	0.285	-0.113
-199.319	-138.703	-0.085	0.009
-198.304	-87.054	0.213	0.064
-197.290	21.066	0.047	0.038
-196.275	13.152	0.234	-0.180
-195.260	-200.000	0.022	0.121
-194.246	370.166	0.070	-0.141
-193.231	44.874	-0.082	0.075
-192.217	-105.397	0.175	-0.040
-191.202	-20.990	0.339	0.206
-190.187	-200.000	0.038	-0.309
-189.173	45.121	0.122	-0.112
-188.158	79.874	0.233	0.248
-187.144	-109.590	0.389	-0.082
-186.129	3.388	0.195	0.141
-185.114	232.091	-0.143	-0.233
-184.100	-74.807	-0.112	-0.040
-183.085	-170.068	0.075	-0.003
-182.071	-11.043	0.244	0.160
-181.056	-103.163	-0.284	0.067
-180.042	-200.000	-0.090	0.411
-179.027	800.000	-0.049	0.209
-178.012	-200.000	-0.006	-0.118
-176.998	-5.010	0.007	0.005
-175.983	-117.525	-0.204	0.037
-174.969	226.777	0.219	-0.354
-173.954	-144.732	-0.112	0.010
-172.939	800.000	0.089	0.279
-171.925	-200.000	0.024	0.306
-170.910	-89.109	0.337	-0.099
-169.896	-200.000	0.282	-0.001
-168.881	-28.216	0.090	-0.051
-167.866	-117.805	-0.129	-0.023
-166.852	-200.000	-0.003	0.016
-165.837	-84.317	-0.159	0.050
-164.823	210.251	-0.089	-0.139
-163.808	-135.088	0.196	-0.023
-162.793	759.131	-0.032	-0.086
-161.779	582.506	-0.016	-0.038
-160.764	119.730	-0.188	0.231
-159.750	-44.810	-0.189	0.093
-158.735	-200.000	0.069	-0.387
-157.720	268.668	0.051	0.089
-156.706	-120.346	0.225	0.038
-155.691	-51.384	-0.309	0.143
-154.677	800.000	-0.047	0.183
-153.662	-119.673	-0.101	0.017
-152.647	-163.414	-0.327	0.015
-151.633	41.198	0.152	-0.137
-150.618	522.110	0.084	-0.194
-149.604	-111.269	-0.466	-0.094
-148.589	-28.497	0.357	0.204
-147.574	-42.057	0.320	0.162
-146.560	222.244	0.094	0.150
-145.545	800.000	0.052	0.164
-144.531	-121.825	0.172	0.028
-143.516	11.098	0.110	-0.083
-142.502	8.581	-0.205	0.153
-141.487	341.757	0.096	-0.185
-140.472	-200.000	-0.034	-0.229
-139.458	-104.908	-0.279	0.063
-138.443	18.209	-0.091	0.072
-137.429	-132.433	0.437	-0.056
-136.414	517.303	0.046	0.108
-135.399	-66.050	-0.314	-0.124
-134.385	-89.654	-0.279	0.081
-133.370	-99.810	-0.376	0.093
-132.356	49.719	0.110	-0.102
-131.341	57.198	0.233	-0.225
-130.326	-200.000	-0.028	0.205
-129.312	115.538	0.147	0.178
-128.297	91.940	-0.050	0.055
-127.283	335.197	0.135	-0.259
-126.268	800.000	0.072	-0.262
-125.253	124.123	-0.082	0.102
-124.239	122.591	-0.063	-0.078
-123.224	-200.000	-0.066	0.302
-122.210	410.605	-0.134	0.281
