DTS Sentinel unit serial number:	SN413079Multiplexer serial number:	ORYXHardware model number:	OX4-SRSoftware version number:	ORYX F/W v4.00 Oryx Data Collector v3.7.2.0data status	okinstallation	princeton_trtdifferential loss correction	single-endedforward channel	channel 4reverse channel	N/Adate	2019/09/11time	23:47:11forward acquisition time	60.00reverse acquisition time	0.00gamma	496.2192k internal	0.2309k external	0.2309temperature offset calibration	1.0090default loss term (dB/km)	0.3790temperature slope calibration	1.0000multiplexer offset coefficient	1.0000multiplexer slope coefficient	1.0000fibre end	0.00T internal ref (°C)	33.98T ext. ref 1 (°C)	1.98T ext. ref 2 (°C)	27.32length (m)	temperature (°C)	Stokes	anti-Stokes-747.200	-73.905	-0.310	0.114
-746.185	800.000	-0.084	0.290
-745.171	-9.049	0.073	0.050
-744.156	-22.167	-0.258	0.159
-743.142	800.000	-0.048	-0.206
-742.127	430.820	0.218	0.479
-741.112	-142.084	0.289	-0.029
-740.098	592.845	-0.030	-0.075
-739.083	710.631	0.052	0.139
-738.069	-200.000	0.006	-0.050
-737.054	-26.832	0.182	-0.108
-736.039	-31.633	-0.067	-0.038
-735.025	800.000	0.063	0.191
-734.010	-110.351	-0.208	0.044
-732.996	-200.000	-0.064	-0.368
-731.981	260.106	-0.136	-0.238
-730.966	-38.939	-0.070	0.037
-729.952	237.951	0.165	0.278
-728.937	-147.455	-0.230	0.020
-727.923	-200.000	-0.035	0.400
-726.908	-67.363	-0.121	-0.048
-725.894	123.036	0.166	0.211
-724.879	-129.423	-0.389	-0.055
-723.864	-83.165	-0.158	-0.052
-722.850	-200.000	-0.024	-0.251
-721.835	-112.766	0.326	-0.066
-720.821	98.560	-0.238	-0.278
-719.806	-0.017	-0.090	-0.065
-718.791	192.908	-0.030	-0.047
-717.777	-163.941	-0.110	-0.005
-716.762	88.036	0.124	0.140
-715.748	117.795	-0.051	0.063
-714.733	800.000	-0.068	-0.229
-713.718	-200.000	0.012	-0.309
-712.704	-79.693	-0.248	-0.085
-711.689	307.167	-0.196	-0.371
-710.675	800.000	-0.061	-0.253
-709.660	-82.168	-0.075	-0.025
-708.645	-84.935	0.041	0.013
-707.631	157.672	-0.037	0.053
-706.616	800.000	0.078	-0.344
-705.602	-57.176	0.292	-0.131
-704.587	316.564	-0.100	-0.192
-703.572	49.183	0.129	0.123
-702.558	-117.073	0.165	-0.031
-701.543	76.125	0.159	-0.170
-700.529	800.000	0.046	0.128
-699.514	624.226	0.143	0.366
-698.499	42.920	-0.123	-0.113
-697.485	203.429	0.175	0.274
-696.470	139.301	-0.130	-0.173
-695.456	-86.647	-0.244	0.076
-694.441	-165.538	-0.282	-0.012
-693.426	-20.742	-0.176	0.110
-692.412	-119.577	0.059	-0.010
-691.397	-66.352	0.101	0.041
-690.383	-130.653	0.391	0.053
-689.368	-67.263	-0.194	-0.077
-688.354	-200.000	0.018	0.143
-687.339	-83.362	-0.109	0.036
-686.324	45.376	0.210	0.197
-685.310	800.000	-0.046	0.198
-684.295	-94.246	-0.059	0.016
-683.281	-143.559	-0.197	-0.019
-682.266	800.000	0.048	-0.161
-681.251	17.661	0.048	0.039
-680.237	40.257	-0.303	-0.276
-679.222	-200.000	0.017	-0.267
-678.208	-200.000	0.002	0.282
-677.193	-156.857	-0.114	0.007
-676.178	-145.740	-0.138	-0.012
-675.164	30.031	-0.087	0.075
-674.149	29.708	-0.023	0.020
-673.135	800.000	0.021	-0.070
-672.120	-23.018	-0.139	-0.085
-671.105	-109.322	-0.108	-0.023
-670.091	-145.583	-0.158	-0.014
-669.076	800.000	0.035	-0.113
-668.062	7.234	-0.255	-0.193
-667.047	800.000	0.045	-0.149
-666.032	-200.000	0.009	0.099
-665.018	737.594	0.104	0.282
-664.003	-132.995	-0.188	-0.024
-662.989	-76.429	-0.195	-0.069
-661.974	-39.067	0.286	-0.152
-660.959	-113.176	0.343	-0.069
-659.945	-161.854	0.268	-0.014
-658.930	-53.461	-0.334	0.155
-657.916	-118.472	0.148	-0.027
-656.901	-200.000	-0.031	-0.228
-655.886	-200.000	-0.004	-0.191
-654.872	-200.000	-0.003	-0.050
-653.857	72.008	-0.218	0.229
-652.843	-126.007	-0.329	0.050
-651.828	-115.325	-0.221	-0.042
-650.814	6.697	-0.228	-0.172
-649.799	-22.336	0.120	-0.074
-648.784	-174.476	-0.190	-0.006
-647.770	313.619	0.094	0.180
-646.755	-83.607	-0.464	0.150
-645.741	537.952	0.064	-0.153
-644.726	-107.154	-0.299	-0.067
-643.711	800.000	-0.114	0.392
-642.697	-97.471	0.352	-0.093
-641.682	-146.307	-0.119	-0.011
-640.668	800.000	-0.020	0.069
-639.653	-26.443	-0.300	-0.178
-638.638	65.912	0.101	-0.103
-637.624	148.080	0.171	0.234
-636.609	800.000	0.065	-0.275
-635.595	-200.000	0.024	-0.266
-634.580	800.000	-0.061	-0.203
-633.565	-13.593	0.174	-0.114
-632.551	-12.450	-0.335	-0.221
-631.536	-29.178	-0.159	-0.092
-630.522	32.757	0.064	0.056
-629.507	800.000	0.051	0.222
-628.492	228.669	0.156	-0.257
-627.478	-200.000	-0.059	0.352
-626.463	64.071	-0.117	-0.119
-625.449	395.554	-0.099	-0.208
-624.434	400.478	-0.090	0.191
-623.419	170.451	0.135	-0.195
-622.405	-158.825	0.216	-0.012
-621.390	103.242	0.131	-0.155
-620.376	477.116	0.034	-0.077
-619.361	-23.572	-0.221	-0.134
-618.346	-119.435	0.451	0.079
-617.332	-101.675	-0.338	0.083
-616.317	-200.000	-0.001	0.167
-615.303	-200.000	-0.031	0.193
-614.288	-20.669	0.288	-0.178
-613.273	-189.135	0.073	-0.001
-612.259	-71.793	0.279	-0.105
-611.244	-58.937	0.351	-0.153
-610.230	-19.016	0.144	0.091
-609.215	-82.520	0.114	0.038
-608.201	115.808	-0.105	0.130
-607.186	68.558	0.172	0.179
-606.171	-93.179	-0.151	0.043
-605.157	-154.036	-0.078	0.005
-604.142	800.000	0.059	-0.258
-603.128	437.486	0.088	-0.195
-602.113	-8.372	0.048	0.032
-601.098	640.002	-0.233	-0.598
-600.084	-65.381	-0.357	0.145
-599.069	0.418	0.120	-0.087
-598.055	-80.949	0.437	-0.146
-597.040	-200.000	0.011	-0.292
-596.025	-113.937	0.125	-0.024
-595.011	146.103	-0.110	-0.149
-593.996	-200.000	0.028	-0.133
-592.982	92.791	0.306	-0.350
-591.967	-190.271	0.397	0.004
-590.952	328.406	-0.095	-0.184
-589.938	-200.000	0.018	0.281
-588.923	453.238	0.123	-0.275
-587.909	-140.525	0.295	-0.031
-586.894	-200.000	0.021	-0.373
-585.879	435.328	0.106	0.232
-584.865	671.320	0.140	0.366
-583.850	40.951	0.193	-0.176
-582.836	-43.680	0.219	0.112
-581.821	-22.792	-0.067	-0.041
-580.806	109.802	0.073	0.089
-579.792	17.266	0.132	0.106
-578.777	-120.986	0.170	-0.029
-577.763	-200.000	0.014	-0.135
-576.748	800.000	0.009	0.034
-575.733	-145.304	0.191	0.017
-574.719	-65.619	-0.435	0.176
-573.704	-34.419	-0.046	0.025
-572.690	-136.603	-0.103	-0.012
-571.675	800.000	-0.056	-0.189
-570.661	17.138	-0.079	0.063
-569.646	-154.267	-0.067	0.005
-568.631	-64.744	0.135	0.055
-567.617	423.714	-0.105	-0.228
-566.602	800.000	0.124	-0.354
-565.588	-32.776	0.241	0.135
-564.573	108.998	0.083	0.100
-563.558	336.513	0.112	0.220
-562.544	-197.400	-0.093	-0.001
-561.529	-159.715	-0.196	0.011
-560.515	171.051	-0.102	-0.148
-559.500	-74.898	0.108	0.039
-558.485	-110.281	-0.352	0.074
-557.471	282.233	-0.088	0.159
-556.456	-21.863	-0.137	0.084
-555.442	669.871	0.055	-0.145
-554.427	758.371	-0.065	-0.177
-553.412	41.067	0.347	0.316
-552.398	-200.000	-0.016	0.135
-551.383	-103.860	0.208	-0.049
-550.369	-61.978	-0.130	0.055
-549.354	-7.866	0.168	0.115
-548.339	-68.567	-0.073	-0.028
-547.325	-106.522	-0.509	-0.114
-546.310	-102.949	0.207	-0.050
-545.296	638.686	-0.129	0.330
-544.281	0.488	-0.103	-0.074
-543.266	-45.386	0.309	-0.155
-542.252	-4.447	-0.059	-0.041
-541.237	147.518	-0.082	-0.112
-540.223	584.710	0.111	0.276
-539.208	-7.162	0.080	0.054
-538.193	22.687	-0.245	-0.202
-537.179	-133.259	-0.158	0.020
-536.164	-91.606	0.201	-0.058
-535.150	400.030	-0.082	0.174
-534.135	228.162	0.196	-0.322
-533.121	-161.894	0.268	-0.014
-532.106	-97.171	0.153	0.040
-531.091	477.271	-0.065	0.147
-530.077	638.491	-0.045	0.114
-529.062	608.074	0.032	-0.080
-528.048	-60.885	-0.098	0.042
-527.033	320.043	-0.131	0.250
-526.018	410.032	-0.080	-0.172
-525.004	-200.000	-0.014	-0.183
-523.989	25.998	0.207	0.174
-522.975	143.024	0.219	-0.294
-521.960	-114.640	-0.346	-0.067
-520.945	295.672	0.153	0.282
-519.931	-200.000	0.002	0.142
-518.916	252.533	0.052	0.089
-517.902	-200.000	-0.023	0.162
-516.887	800.000	-0.042	-0.125
-515.872	276.357	-0.083	0.149
-514.858	397.224	0.072	0.151
-513.843	252.055	-0.136	0.233
-512.829	800.000	-0.067	0.192
-511.814	390.721	0.101	0.211
-510.799	103.810	0.175	-0.207
-509.785	13.695	-0.274	-0.215
-508.770	96.240	0.330	-0.380
-507.756	-6.376	-0.350	0.240
-506.741	-81.036	-0.064	0.021
-505.726	535.538	0.055	-0.131
-504.712	-84.845	0.052	0.017
-503.697	85.540	-0.075	0.083
-502.683	138.448	-0.145	0.192
-501.668	-114.922	-0.217	0.042
-500.653	172.214	-0.172	0.250
-499.639	-191.216	-0.157	-0.002
-498.624	-43.063	-0.284	0.145
-497.610	-200.000	0.002	0.233
-496.595	300.770	-0.092	-0.171
-495.581	-200.000	0.008	0.206
-494.566	800.000	0.100	0.371
-493.551	730.982	0.041	0.111
-492.537	-200.000	0.028	-0.180
-491.522	-105.340	-0.249	-0.057
-490.508	-200.000	0.025	0.263
-489.493	-187.955	-0.251	0.003
-488.478	-200.000	0.012	0.129
-487.464	-57.932	-0.372	0.164
-486.449	-200.000	0.006	0.026
-485.435	322.166	0.129	-0.248
-484.420	-101.057	-0.100	0.025
-483.405	-107.727	-0.244	-0.054
-482.391	-200.000	0.039	-0.315
-481.376	-94.203	0.418	0.115
-480.362	-140.493	-0.024	-0.003
-479.347	-102.625	0.125	-0.030
-478.332	666.464	-0.125	0.324
-477.318	77.836	0.191	0.205
-476.303	-170.614	0.422	-0.015
-475.289	-34.096	-0.188	0.104
-474.274	625.472	0.091	0.231
-473.259	126.110	-0.174	0.221
-472.245	-105.366	-0.204	-0.047
-471.230	146.621	-0.067	-0.091
-470.216	-200.000	-0.048	0.277
-469.201	-33.337	-0.073	-0.041
-468.186	-154.675	-0.228	0.015
-467.172	-129.872	0.274	0.038
-466.157	314.088	-0.063	0.120
-465.143	-200.000	0.028	0.267
-464.128	223.299	0.056	0.091
-463.113	-90.261	0.052	-0.015
-462.099	800.000	0.027	0.090
-461.084	-31.107	-0.105	0.060
-460.070	350.002	0.166	0.330
-459.055	-66.594	0.122	-0.048
-458.040	-3.029	0.148	0.104
-457.026	-200.000	0.002	0.027
-456.011	-35.613	0.157	0.085
-454.997	527.539	-0.086	0.204
-453.982	35.941	-0.316	-0.279
-452.968	84.190	-0.216	-0.237
-451.953	-200.000	-0.036	0.392
-450.938	182.471	-0.075	-0.111
-449.924	-200.000	-0.016	-0.125
-448.909	800.000	0.028	-0.085
-447.895	48.344	-0.121	0.113
-446.880	673.032	0.091	-0.236
-445.865	-7.981	-0.202	0.137
-444.851	386.181	0.083	0.172
-443.836	123.454	-0.027	0.034
-442.822	-28.921	-0.218	-0.126
-441.807	141.952	0.107	0.142
-440.792	-141.256	0.341	0.035
-439.778	-119.075	0.215	0.038
-438.763	185.715	-0.146	-0.218
-437.749	-174.745	0.132	-0.004
-436.734	-200.000	-0.018	-0.152
-435.719	-49.209	-0.157	-0.075
-434.705	-48.595	0.156	0.075
-433.690	58.004	0.153	0.151
-432.676	375.770	0.078	0.159
-431.661	781.420	0.163	-0.448
-430.646	23.373	0.216	0.178
-429.632	88.551	0.181	-0.202
-428.617	800.000	-0.033	0.137
-427.603	112.890	0.124	0.151
-426.588	-65.412	-0.159	0.064
-425.573	-158.695	-0.105	0.006
-424.559	-200.000	-0.008	-0.142
-423.544	143.395	0.175	-0.234
-422.530	-79.764	0.214	0.072
-421.515	10.347	-0.272	-0.208
-420.500	469.201	0.122	0.274
-419.486	-200.000	0.005	0.041
-418.471	800.000	0.044	-0.174
-417.457	800.000	0.078	-0.336
-416.442	-41.481	-0.104	0.054
-415.428	85.621	0.115	0.127
-414.413	-128.254	-0.039	-0.006
-413.398	752.446	0.114	0.309
-412.384	30.382	-0.112	-0.096
-411.369	335.508	0.096	-0.186
-410.355	-61.756	-0.102	-0.043
-409.340	144.166	0.081	-0.109
-408.325	-78.004	0.171	-0.059
-407.311	-190.647	-0.232	0.002
-406.296	800.000	0.013	0.042
-405.282	-33.640	0.213	0.118
-404.267	-74.431	-0.393	-0.142
-403.252	50.684	-0.162	0.154
-402.238	115.831	-0.049	0.060
-401.223	-8.124	-0.279	0.188
-400.209	800.000	-0.049	-0.165
-399.194	619.224	-0.123	0.309
-398.179	-200.000	0.013	0.192
-397.165	-116.026	0.435	0.081
-396.150	337.407	-0.131	0.256
-395.136	-165.600	-0.302	0.013
-394.121	55.967	-0.045	-0.044
-393.106	-126.453	0.196	-0.029
-392.092	-156.876	0.048	-0.003
-391.077	800.000	-0.068	0.250
-390.063	-159.896	0.116	-0.006
-389.048	478.582	0.065	-0.148
-388.033	705.517	-0.101	-0.268
-387.019	-75.278	-0.214	0.076
-386.004	-76.756	0.240	-0.084
-384.990	800.000	0.032	-0.139
-383.975	221.949	-0.151	0.244
-382.960	47.167	0.108	-0.101
-381.946	-15.634	0.108	-0.069
-380.931	4.897	-0.129	0.095
-379.917	-200.000	-0.013	-0.086
-378.902	424.714	0.054	0.117
-377.888	165.906	0.227	0.321
-376.873	61.484	-0.239	-0.238
-375.858	137.303	0.191	-0.250
-374.844	-157.051	-0.356	0.022
-373.829	-200.000	-0.045	-0.245
-372.815	104.078	0.058	0.068
-371.800	104.413	-0.139	-0.164
-370.785	69.601	0.220	-0.227
-369.771	-96.248	0.186	0.049
-368.756	111.862	0.125	-0.152
-367.742	69.144	0.133	-0.137
-366.727	800.000	-0.020	-0.088
-365.712	-43.628	-0.222	-0.112
-364.698	64.373	-0.155	-0.156
-363.683	-200.000	-0.001	0.027
-362.669	310.336	0.225	-0.422
-361.654	-157.501	0.111	0.007
-360.639	61.727	-0.141	-0.140
-359.625	-200.000	-0.039	-0.257
-358.610	134.774	-0.072	0.094
-357.596	-80.214	-0.294	0.098
-356.581	-149.218	-0.163	0.013
-355.566	-200.000	-0.029	0.157
-354.552	-200.000	0.020	-0.304
-353.537	-8.971	-0.162	0.109
-352.523	346.365	-0.157	-0.308
-351.508	379.674	0.053	0.108
-350.493	-99.098	-0.059	-0.015
-349.479	301.008	0.057	-0.106
-348.464	339.626	0.093	0.182
-347.450	-200.000	-0.035	0.287
-346.435	-97.642	0.173	0.045
-345.420	-155.637	0.279	0.018
-344.406	441.976	0.071	0.155
-343.391	116.916	0.263	0.323
-342.377	263.025	-0.025	-0.043
-341.362	15.947	-0.148	0.117
-340.348	-40.031	-0.107	-0.056
-339.333	-21.271	-0.212	0.130
-338.318	-200.000	-0.033	-0.357
-337.304	-102.702	0.082	-0.020
-336.289	-46.830	0.225	-0.110
-335.275	800.000	-0.026	0.110
-334.260	-200.000	-0.045	-0.279
-333.245	-24.065	-0.363	0.217
-332.231	-119.598	0.244	-0.042
-331.216	99.216	0.218	0.252
-330.202	150.884	0.096	0.131
-329.187	425.302	-0.071	0.153
-328.172	-200.000	0.041	0.610
-327.158	800.000	0.041	0.121
-326.143	-200.000	-0.026	-0.169
-325.129	-84.618	-0.336	-0.106
-324.114	-200.000	0.027	-0.213
-323.099	-3.811	-0.066	0.046
-322.085	-116.609	-0.409	0.075
-321.070	85.078	0.155	-0.170
-320.056	-65.661	0.153	-0.061
-319.041	-79.740	-0.346	0.117
-318.026	800.000	-0.059	-0.233
-317.012	-158.785	0.067	-0.004
-315.997	99.464	-0.204	-0.236
-314.983	-59.038	0.314	-0.136
-313.968	-133.395	-0.340	-0.043
-312.953	-59.258	0.168	-0.072
-311.939	224.726	-0.157	0.254
-310.924	788.839	-0.045	-0.124
-309.910	272.710	-0.081	-0.142
-308.895	186.703	0.263	0.392
-307.880	6.192	-0.143	-0.106
-306.866	-168.334	-0.316	0.012
-305.851	-200.000	-0.013	-0.062
-304.837	469.194	0.048	0.108
-303.822	177.389	-0.186	-0.271
-302.807	419.351	-0.118	0.252
-301.793	-79.994	-0.207	0.069
-300.778	800.000	0.083	0.330
-299.764	800.000	0.110	0.363
-298.749	83.373	0.278	0.302
-297.735	44.026	-0.117	0.107
-296.720	346.364	0.107	-0.211
-295.705	-77.726	-0.183	-0.063
-294.691	-90.921	-0.096	-0.028
-293.676	-97.421	-0.101	0.026
-292.662	-77.454	0.096	0.033
-291.647	-200.000	-0.017	-0.144
-290.632	52.677	0.310	-0.295
-289.618	-200.000	0.034	0.157
-288.603	14.191	-0.330	-0.257
-287.589	800.000	0.077	-0.247
-286.574	25.212	-0.110	-0.091
-285.559	67.674	0.104	-0.106
-284.545	32.719	0.208	0.179
-283.530	-200.000	-0.058	0.282
-282.516	82.438	0.183	-0.198
-281.501	-95.170	0.289	0.078
-280.486	-149.433	-0.167	-0.013
-279.472	-36.014	0.296	0.160
-278.457	293.278	-0.226	-0.411
-277.443	-30.190	-0.022	-0.012
-276.428	-74.954	0.234	-0.084
-275.413	-200.000	0.021	0.293
-274.399	800.000	-0.022	-0.095
-273.384	0.424	-0.182	-0.129
-272.370	80.795	0.020	0.022
-271.355	21.927	-0.257	0.209
-270.340	167.446	0.291	0.412
-269.326	40.998	-0.140	-0.126
-268.311	4.157	-0.234	0.170
-267.297	-169.037	-0.208	-0.008
-266.282	-51.565	0.289	0.134
-265.267	-51.109	0.391	0.183
-264.253	54.016	0.071	-0.068
-263.238	-200.000	0.010	-0.285
-262.224	1.143	-0.068	0.049
-261.209	429.046	-0.170	0.367
-260.195	-42.565	0.334	-0.170
-259.180	-43.417	-0.080	0.040
-258.165	-11.510	-0.150	0.098
-257.151	-19.347	0.107	-0.066
-256.136	-99.562	-0.040	-0.010
-255.122	800.000	0.057	0.190
-254.107	239.438	-0.149	0.248
-253.092	16.098	0.223	-0.175
-252.078	-200.000	-0.053	-0.331
-251.063	613.319	0.132	-0.330
-250.049	800.000	0.103	0.373
-249.034	240.597	-0.085	-0.141
-248.019	800.000	0.097	-0.396
-247.005	-63.566	0.029	-0.012
-245.990	-94.817	-0.352	0.095
-244.976	-76.584	-0.069	0.024
-243.961	145.020	-0.094	0.125
-242.946	87.817	0.202	-0.223
-241.932	-106.214	0.220	-0.049
-240.917	-131.454	0.343	-0.045
-239.903	706.609	-0.061	-0.162
-238.888	137.726	0.031	-0.041
-237.873	-47.115	0.197	0.096
-236.859	712.021	-0.121	0.319
-235.844	136.403	0.069	-0.090
-234.830	448.895	0.120	0.263
-233.815	-31.811	-0.217	-0.121
-232.800	800.000	-0.072	-0.302
-231.786	800.000	-0.096	0.306
-230.771	152.914	0.124	0.168
-229.757	-68.761	0.387	-0.149
-228.742	5.343	0.140	-0.103
-227.727	205.325	-0.039	-0.061
-226.713	699.168	-0.103	0.270
-225.698	800.000	0.091	0.252
-224.684	-200.000	-0.062	-0.353
-223.669	800.000	0.070	-0.236
-222.655	-75.091	0.202	-0.072
-221.640	-140.694	0.226	-0.023
-220.625	46.651	-0.123	0.113
-219.611	-200.000	-0.033	0.197
-218.596	112.508	-0.092	0.110
-217.582	800.000	-0.099	-0.401
-216.567	-78.697	-0.212	-0.072
-215.552	-29.059	0.347	0.198
-214.538	124.937	-0.073	-0.092
-213.523	-49.971	0.118	-0.056
-212.509	-200.000	-0.005	0.096
-211.494	-91.563	0.310	0.088
-210.479	-135.933	-0.537	0.063
-209.465	800.000	0.099	0.343
-208.450	-200.000	-0.059	-0.363
-207.436	179.445	0.163	-0.237
-206.421	-19.384	-0.177	-0.109
-205.406	83.654	-0.127	0.138
-204.392	-81.268	-0.165	-0.054
-203.377	-88.772	0.227	-0.067
-202.363	-83.958	-0.088	0.028
-201.348	15.793	-0.077	-0.060
-200.333	387.318	-0.046	-0.094
-199.319	-128.162	-0.072	0.010
-198.304	-68.822	-0.145	0.056
-197.290	355.467	0.100	0.198
-196.275	-200.000	0.012	-0.149
-195.260	800.000	-0.022	0.071
-194.246	-200.000	-0.002	0.142
-193.231	800.000	-0.124	-0.403
-192.217	9.182	-0.277	-0.208
-191.202	-14.191	0.092	-0.059
-190.187	-200.000	0.024	0.140
-189.173	283.000	0.054	0.096
-188.158	44.060	0.129	-0.118
-187.144	91.702	-0.263	-0.295
-186.129	-126.649	0.034	0.005
-185.114	-30.540	0.190	-0.107
-184.100	39.529	-0.169	0.151
-183.085	-200.000	-0.041	-0.303
-182.071	-90.094	0.136	0.039
-181.056	-200.000	-0.007	-0.228
-180.042	-200.000	-0.019	0.127
-179.027	658.492	-0.062	-0.158
-178.012	71.055	0.177	-0.182
-176.998	-200.000	0.020	-0.348
-175.983	-187.708	0.032	0.000
-174.969	-189.537	-0.167	-0.002
-173.954	-200.000	0.007	-0.061
-172.939	-11.588	-0.083	-0.054
-171.925	659.820	0.095	0.244
-170.910	-119.282	-0.389	0.067
-169.896	6.747	-0.134	-0.099
-168.881	264.738	0.164	0.284
-167.866	607.698	0.010	-0.026
-166.852	-38.858	0.052	0.027
-165.837	51.606	0.264	-0.250
-164.823	235.424	0.047	0.077
-163.808	-70.821	-0.324	0.122
-162.793	-196.315	-0.108	-0.001
-161.779	56.242	0.043	-0.042
-160.764	-110.979	0.163	-0.033
-159.750	100.624	-0.094	0.108
-158.735	224.192	-0.077	0.123
-157.720	-105.379	-0.321	0.073
-156.706	-24.460	0.348	-0.206
-155.691	8.313	0.161	0.120
-154.677	38.488	0.073	0.065
-153.662	-63.286	-0.339	0.139
-152.647	-96.721	-0.319	0.083
-151.633	-200.000	0.018	-0.082
-150.618	-153.848	-0.299	-0.020
-149.604	300.733	0.022	-0.040
-148.589	-136.740	0.045	-0.005
-147.574	800.000	-0.074	0.253
-146.560	-28.717	0.303	0.173
-145.545	486.682	-0.059	-0.134
-144.531	-112.343	-0.212	0.042
-143.516	242.599	0.096	0.159
-142.502	-200.000	0.068	0.367
-141.487	-200.000	-0.013	-0.174
-140.472	-200.000	-0.008	-0.348
-139.458	-200.000	0.045	-0.227
-138.443	72.421	-0.228	-0.235
-137.429	800.000	-0.043	0.137
-136.414	-200.000	-0.012	-0.419
-135.399	-200.000	-0.019	-0.168
-134.385	44.295	0.102	0.093
-133.370	363.477	0.168	0.336
-132.356	26.961	-0.341	-0.283
-131.341	52.776	-0.125	0.119
-130.326	-140.527	0.352	-0.036
-129.312	-120.262	-0.327	0.055
-128.297	-136.198	0.451	-0.052
-127.283	-200.000	-0.005	-0.325
-126.268	358.216	-0.028	-0.056
-125.253	-127.037	-0.326	-0.047
-124.239	444.983	0.144	0.315
-123.224	151.091	0.046	-0.062
-122.210	-121.391	0.320	0.053
