DTS Sentinel unit serial number:	SN413079Multiplexer serial number:	ORYXHardware model number:	OX4-SRSoftware version number:	ORYX F/W v4.00 Oryx Data Collector v3.7.2.0data status	okinstallation	princeton_trtdifferential loss correction	single-endedforward channel	channel 4reverse channel	N/Adate	2019/09/11time	15:43:11forward acquisition time	60.00reverse acquisition time	0.00gamma	496.2192k internal	0.2278k external	0.2278temperature offset calibration	1.0014default loss term (dB/km)	0.3790temperature slope calibration	1.0000multiplexer offset coefficient	1.0000multiplexer slope coefficient	1.0000fibre end	0.00T internal ref (°C)	42.81T ext. ref 1 (°C)	1.00T ext. ref 2 (°C)	37.84length (m)	temperature (°C)	Stokes	anti-Stokes-747.200	29.390	0.039	-0.034
-746.185	26.283	0.102	0.088
-745.171	208.873	-0.142	0.229
-744.156	-19.061	0.283	0.181
-743.142	-9.651	0.082	-0.056
-742.127	-120.043	-0.073	-0.013
-741.112	62.303	0.160	-0.165
-740.098	237.705	-0.104	0.177
-739.083	-105.069	0.372	0.088
-738.069	-200.000	-0.043	0.281
-737.054	-200.000	-0.027	0.527
-736.039	2.926	-0.094	-0.070
-735.025	-3.038	-0.268	0.192
-734.010	-200.000	-0.013	-0.066
-732.996	-77.069	-0.453	-0.163
-731.981	-161.487	-0.254	0.013
-730.966	724.946	-0.092	-0.253
-729.952	800.000	-0.021	-0.069
-728.937	-200.000	-0.065	0.336
-727.923	-83.502	0.193	-0.064
-726.908	-78.756	-0.193	-0.068
-725.894	179.102	-0.101	0.152
-724.879	800.000	-0.056	-0.215
-723.864	-135.981	-0.098	-0.012
-722.850	619.106	-0.054	-0.140
-721.835	8.636	-0.139	0.107
-720.821	-200.000	0.003	-0.130
-719.806	65.621	-0.220	-0.229
-718.791	501.442	0.155	0.368
-717.777	434.914	-0.043	-0.096
-716.762	-185.519	0.146	-0.002
-715.748	-200.000	-0.005	-0.340
-714.733	76.241	-0.111	-0.121
-713.718	24.565	0.134	0.114
-712.704	603.342	0.082	-0.210
-711.689	-106.469	-0.164	-0.038
-710.675	-62.822	-0.126	-0.054
-709.660	-113.221	0.206	0.042
-708.645	-49.029	-0.304	-0.149
-707.631	49.984	0.205	-0.198
-706.616	-108.039	0.148	-0.033
-705.602	-200.000	-0.066	-0.313
-704.587	198.970	0.164	0.258
-703.572	202.409	-0.096	-0.153
-702.558	800.000	-0.010	-0.032
-701.543	33.110	0.365	0.325
-700.529	800.000	-0.072	0.218
-699.514	-200.000	0.038	-0.278
-698.499	-93.806	0.153	-0.043
-697.485	-137.084	-0.040	0.005
-696.470	430.713	-0.146	0.325
-695.456	329.323	-0.134	0.264
-694.441	-178.776	-0.168	0.004
-693.426	-134.813	-0.101	-0.013
-692.412	291.801	-0.162	0.303
-691.397	-200.000	-0.002	0.013
-690.383	-200.000	-0.006	-0.188
-689.368	-160.093	0.159	-0.009
-688.354	-137.597	0.517	-0.060
-687.339	-25.578	0.296	0.180
-686.324	57.241	-0.116	0.117
-685.310	800.000	-0.097	-0.356
-684.295	-51.816	-0.204	-0.097
-683.281	-65.970	-0.145	0.060
-682.266	212.217	0.087	-0.141
-681.251	395.680	0.090	-0.194
-680.237	800.000	-0.062	0.199
-679.222	87.358	0.136	-0.154
-678.208	-200.000	0.007	-0.246
-677.193	-74.395	0.526	-0.195
-676.178	132.633	-0.103	-0.136
-675.164	800.000	-0.077	-0.345
-674.149	92.990	-0.212	-0.246
-673.135	121.990	-0.072	-0.092
-672.120	435.534	0.172	-0.384
-671.105	-165.335	0.250	0.011
-670.091	800.000	-0.041	0.160
-669.076	-152.713	0.454	-0.033
-668.062	178.824	-0.146	-0.220
-667.047	-116.957	0.056	-0.011
-666.032	-194.417	0.133	-0.001
-665.018	10.876	-0.055	-0.043
-664.003	-92.078	0.190	0.055
-662.989	68.526	0.118	0.124
-661.974	-200.000	0.100	-0.460
-660.959	431.529	-0.095	-0.211
-659.945	-67.783	-0.149	-0.060
-658.930	463.506	0.112	-0.257
-657.916	38.240	0.139	0.127
-656.901	257.425	-0.032	-0.056
-655.886	124.067	-0.187	-0.241
-654.872	-55.165	-0.246	-0.114
-653.857	-139.011	0.094	0.010
-652.843	-132.305	0.594	-0.079
-651.828	-69.659	0.289	0.114
-650.814	-148.175	0.194	0.016
-649.799	605.372	0.170	0.434
-648.784	800.000	-0.044	-0.133
-647.770	293.033	-0.200	-0.373
-646.755	800.000	-0.057	0.208
-645.741	800.000	-0.053	-0.219
-644.726	275.525	0.165	-0.300
-643.711	75.010	-0.116	0.125
-642.697	-200.000	-0.011	0.186
-641.682	690.245	0.087	0.234
-640.668	800.000	0.065	0.186
-639.653	25.260	0.092	0.078
-638.638	12.831	-0.245	-0.194
-637.624	-144.037	-0.401	-0.039
-636.609	-200.000	-0.006	-0.223
-635.595	-39.757	-0.103	-0.055
-634.580	-18.591	0.074	-0.047
-633.565	-134.393	0.239	0.030
-632.551	800.000	-0.052	-0.169
-631.536	-200.000	0.002	-0.066
-630.522	-200.000	0.008	-0.081
-629.507	-200.000	-0.006	-0.056
-628.492	-102.906	-0.193	-0.047
-627.478	-74.336	0.146	-0.054
-626.463	-200.000	-0.014	-0.234
-625.449	-144.297	0.402	-0.038
-624.434	-200.000	0.005	-0.032
-623.419	-27.182	-0.146	-0.087
-622.405	373.046	-0.134	0.279
-621.390	-112.721	-0.037	-0.007
-620.376	123.385	0.091	-0.117
-619.361	-80.944	0.108	-0.037
-618.346	-200.000	0.001	-0.041
-617.332	241.689	0.060	-0.104
-616.317	-69.350	-0.321	0.126
-615.303	71.211	-0.185	0.196
-614.288	106.177	0.080	0.097
-613.273	-200.000	0.001	0.130
-612.259	259.956	0.110	-0.194
-611.244	-200.000	0.004	0.018
-610.230	159.839	-0.111	0.159
-609.215	128.987	-0.102	-0.133
-608.201	-57.028	-0.214	0.097
-607.186	-200.000	-0.013	0.165
-606.171	44.136	0.064	0.060
-605.157	-84.223	0.181	-0.059
-604.142	-28.307	-0.188	-0.111
-603.128	158.513	-0.188	-0.268
-602.113	-151.482	0.288	0.022
-601.098	-200.000	0.026	-0.266
-600.084	800.000	-0.043	0.145
-599.069	37.238	-0.084	0.076
-598.055	-133.913	0.052	0.007
-597.040	-73.833	0.138	0.051
-596.025	-76.200	0.236	-0.085
-595.011	-75.036	-0.087	-0.032
-593.996	-200.000	-0.044	-0.306
-592.982	-200.000	0.020	-0.238
-591.967	-21.515	-0.209	0.130
-590.952	22.336	-0.092	0.077
-589.938	-138.314	-0.356	-0.040
-588.923	-13.515	-0.230	-0.153
-587.909	-200.000	-0.020	0.201
-586.894	84.779	-0.099	0.111
-585.879	-193.285	-0.115	-0.001
-584.865	-200.000	-0.003	0.063
-583.850	40.715	-0.260	0.240
-582.836	-200.000	-0.009	0.273
-581.821	282.022	0.157	-0.287
-580.806	-200.000	0.060	-0.374
-579.792	-34.139	-0.104	-0.058
-578.777	116.488	-0.131	-0.165
-577.763	-195.393	0.058	-0.000
-576.748	-186.025	-0.281	0.004
-575.733	-94.021	0.092	0.026
-574.719	-28.624	0.125	-0.074
-573.704	800.000	0.045	-0.129
-572.690	-103.074	-0.189	0.046
-571.675	-200.000	-0.007	-0.101
-570.661	64.985	0.324	0.335
-569.646	424.790	0.087	-0.190
-568.631	-12.347	0.024	0.016
-567.617	156.055	0.073	-0.103
-566.602	800.000	-0.033	-0.100
-565.588	79.533	-0.089	0.097
-564.573	151.953	0.235	0.328
-563.558	-45.607	0.059	0.030
-562.544	330.404	-0.084	-0.166
-561.529	-8.598	0.240	-0.165
-560.515	-133.170	-0.354	-0.046
-559.500	119.318	0.129	0.164
-558.485	-14.542	0.164	-0.108
-557.471	-134.001	0.253	0.032
-556.456	-200.000	0.023	0.379
-555.442	-110.450	0.236	-0.050
-554.427	-200.000	0.021	0.102
-553.412	800.000	-0.076	-0.268
-552.398	-200.000	-0.031	0.203
-551.383	800.000	0.028	-0.081
-550.369	431.547	-0.047	0.103
-549.354	800.000	-0.048	-0.154
-548.339	-73.653	-0.193	0.072
-547.325	-87.267	0.391	-0.121
-546.310	732.538	0.117	-0.319
-545.296	-144.982	0.151	0.014
-544.281	-75.883	-0.034	-0.012
-543.266	123.918	-0.159	-0.204
-542.252	800.000	0.037	-0.148
-541.237	-200.000	-0.015	0.210
-540.223	-6.320	0.325	0.226
-539.208	71.319	-0.092	-0.098
-538.193	-65.203	0.293	0.120
-537.179	800.000	0.075	-0.266
-536.164	800.000	0.079	0.327
-535.150	125.626	0.205	0.264
-534.135	-128.143	0.174	0.025
-533.121	-200.000	-0.013	-0.396
-532.106	-72.620	0.158	-0.059
-531.091	-200.000	-0.062	-0.433
-530.077	-40.867	0.014	-0.007
-529.062	-200.000	-0.025	0.262
-528.048	200.945	-0.218	0.342
-527.033	313.335	0.051	0.097
-526.018	-200.000	-0.002	-0.103
-525.004	-200.000	-0.052	-0.315
-523.989	-88.195	0.213	0.065
-522.975	-2.812	0.161	-0.115
-521.960	232.972	0.131	-0.220
-520.945	-200.000	0.021	-0.221
-519.931	158.151	0.274	0.388
-518.916	106.648	-0.091	0.111
-517.902	-200.000	0.001	-0.050
-516.887	800.000	0.057	0.223
-515.872	-200.000	-0.053	0.377
-514.858	139.670	0.018	0.025
-513.843	-20.884	0.195	0.122
-512.829	-2.429	-0.103	-0.074
-511.814	-150.893	-0.310	0.024
-510.799	-167.276	0.104	-0.004
-509.785	-121.057	0.213	0.037
-508.770	-200.000	0.008	-0.110
-507.756	56.551	-0.352	0.350
-506.741	52.677	0.272	-0.265
-505.726	-200.000	0.026	-0.148
-504.712	800.000	0.088	-0.389
-503.697	-61.340	-0.301	0.129
-502.683	-147.328	-0.051	0.004
-501.668	-23.216	-0.223	-0.137
-500.653	-68.964	0.082	0.032
-499.639	-121.971	-0.042	0.007
-498.624	-58.747	-0.158	-0.070
-497.610	-34.333	0.260	0.145
-496.595	-89.401	-0.208	0.062
-495.581	-200.000	0.045	-0.275
-494.566	-124.294	-0.151	0.024
-493.551	-117.509	-0.160	0.029
-492.537	139.939	-0.111	-0.149
-491.522	-178.381	0.315	0.007
-490.508	162.970	-0.082	0.117
-489.493	61.687	-0.277	-0.281
-488.478	637.784	-0.144	-0.374
-487.464	-19.494	0.230	-0.145
-486.449	-200.000	0.023	-0.259
-485.435	100.490	0.177	-0.210
-484.420	211.846	0.070	0.113
-483.405	-35.780	-0.216	-0.119
-482.391	467.298	0.105	0.239
-481.376	-200.000	0.033	0.322
-480.362	378.486	0.112	0.234
-479.347	-200.000	0.002	-0.145
-478.332	-200.000	0.008	-0.084
-477.318	-200.000	-0.018	-0.159
-476.303	759.186	0.143	0.395
-475.289	623.304	-0.042	-0.108
-474.274	52.651	-0.149	-0.145
-473.259	550.740	0.104	-0.255
-472.245	-142.235	-0.090	-0.009
-471.230	-96.852	0.125	-0.034
-470.216	162.002	-0.106	0.151
-469.201	272.927	-0.062	-0.111
-468.186	174.747	-0.135	-0.199
-467.172	145.176	-0.330	-0.449
-466.157	216.898	-0.029	-0.047
-465.143	227.733	-0.138	-0.229
-464.128	-58.949	-0.312	-0.137
-463.113	-6.088	-0.068	0.047
-462.099	-70.321	0.176	0.068
-461.084	371.385	-0.160	0.330
-460.070	-200.000	0.051	0.231
-459.055	-200.000	0.026	0.180
-458.040	800.000	0.056	0.223
-457.026	-40.002	0.314	0.167
-456.011	800.000	-0.048	0.189
-454.997	-67.611	-0.176	-0.070
-453.982	-200.000	0.010	0.124
-452.968	-117.609	0.141	-0.026
-451.953	-200.000	0.064	-0.483
-450.938	800.000	0.055	0.161
-449.924	161.695	0.128	0.182
-448.909	-75.843	0.056	0.020
-447.895	800.000	-0.098	0.325
-446.880	279.984	0.150	-0.272
-445.865	800.000	0.089	-0.385
-444.851	-43.577	-0.062	-0.032
-443.836	-43.297	0.123	-0.063
-442.822	191.226	0.146	-0.224
-441.807	9.314	0.030	-0.023
-440.792	54.221	-0.186	0.182
-439.778	-134.697	0.358	-0.044
-438.763	587.390	-0.053	0.133
-437.749	-16.778	-0.065	-0.042
-436.734	800.000	-0.088	0.354
-435.719	-23.664	0.318	-0.194
-434.705	53.573	0.161	-0.157
-433.690	53.205	0.187	-0.182
-432.676	369.986	-0.108	-0.223
-431.661	-33.326	-0.217	-0.122
-430.646	-200.000	-0.038	-0.202
-429.632	16.362	0.114	0.092
-428.617	355.308	-0.103	-0.208
-427.603	-7.348	-0.147	-0.101
-426.588	1.264	0.353	-0.258
-425.573	-76.967	-0.310	0.110
-424.559	-128.514	0.120	-0.017
-423.544	-49.484	-0.129	-0.062
-422.530	800.000	0.075	0.216
-421.515	-52.652	0.199	0.093
-420.500	-200.000	0.014	-0.184
-419.486	-50.414	-0.222	0.106
-418.471	800.000	-0.028	0.099
-417.457	-11.690	0.310	-0.207
-416.442	-91.268	-0.171	-0.050
-415.428	438.335	-0.101	0.224
-414.413	-62.339	-0.135	0.057
-413.398	250.874	0.045	-0.078
-412.384	-129.164	-0.392	0.056
-411.369	-185.562	-0.307	-0.005
-410.355	-200.000	-0.015	-0.076
-409.340	-42.298	0.249	0.129
-408.325	-200.000	0.027	0.318
-407.311	167.722	-0.109	0.157
-406.296	47.201	-0.315	0.298
-405.282	-111.828	-0.218	-0.045
-404.267	86.001	-0.043	0.048
-403.252	434.621	0.154	-0.341
-402.238	427.837	0.012	-0.026
-401.223	269.436	-0.034	0.060
-400.209	-45.203	-0.098	-0.049
-399.194	-200.000	0.076	0.438
-398.179	-139.487	-0.066	-0.007
-397.165	-30.646	0.063	0.036
-396.150	-34.970	0.334	0.185
-395.136	-180.670	0.256	-0.005
-394.121	-68.838	0.230	-0.090
-393.106	-32.700	-0.130	0.073
-392.092	-114.476	0.172	0.034
-391.077	800.000	-0.040	0.159
-390.063	-74.704	0.427	0.156
-389.048	321.132	-0.144	-0.278
-388.033	-21.439	-0.219	0.136
-387.019	224.695	0.224	0.368
-386.004	-200.000	-0.015	-0.230
-384.990	133.204	0.118	-0.155
-383.975	-200.000	0.062	-0.450
-382.960	-200.000	0.091	0.465
-381.946	74.047	-0.111	0.118
-380.931	-200.000	-0.049	0.252
-379.917	-200.000	-0.005	0.336
-378.902	-200.000	-0.008	-0.290
-377.888	-21.807	0.097	-0.060
-376.873	-200.000	0.080	-0.359
-375.858	800.000	0.017	0.051
-374.844	800.000	0.073	-0.247
-373.829	52.356	-0.220	-0.213
-372.815	-41.859	0.287	0.149
-371.800	187.628	-0.173	0.262
-370.785	-200.000	-0.026	-0.148
-369.771	-200.000	-0.018	0.106
-368.756	-100.018	-0.113	0.029
-367.742	73.170	0.170	-0.180
-366.727	-74.189	0.299	0.110
-365.712	-132.406	0.314	0.041
-364.698	-62.841	0.161	0.068
-363.683	435.666	-0.096	0.212
-362.669	62.720	0.038	-0.038
-361.654	216.321	-0.107	0.173
-360.639	-200.000	-0.012	0.162
-359.625	800.000	-0.005	0.016
-358.610	800.000	-0.107	0.349
-357.596	190.010	0.023	0.035
-356.581	800.000	0.006	0.021
-355.566	-117.443	-0.622	0.114
-354.552	125.800	0.064	0.082
-353.537	-83.076	0.386	-0.126
-352.523	-76.028	-0.174	0.062
-351.508	-42.655	-0.089	-0.046
-350.493	-98.344	-0.210	0.055
-349.479	-62.500	-0.349	-0.147
-348.464	69.702	-0.314	0.328
-347.450	-200.000	-0.002	-0.127
-346.435	26.642	-0.204	-0.173
-345.420	-56.446	-0.265	0.119
-344.406	-200.000	0.001	0.078
-343.391	427.033	0.176	-0.384
-342.377	800.000	-0.091	-0.380
-341.362	-112.953	0.178	0.036
-340.348	-96.928	0.135	0.036
-339.333	-174.180	0.133	0.004
-338.318	786.395	0.101	0.280
-337.304	311.676	-0.188	0.356
-336.289	-7.195	-0.176	-0.121
-335.275	-89.633	0.140	-0.042
-334.260	449.708	0.040	0.089
-333.245	-76.051	0.110	0.039
-332.231	800.000	0.122	0.368
-331.216	-200.000	-0.068	-0.306
-330.202	176.196	-0.119	0.176
-329.187	800.000	0.059	0.179
-328.172	73.353	-0.035	0.037
-327.158	39.740	-0.138	-0.126
-326.143	-129.804	-0.306	-0.043
-325.129	800.000	-0.034	0.113
-324.114	-64.934	-0.252	-0.103
-323.099	14.521	0.150	-0.119
-322.085	800.000	-0.053	-0.199
-321.070	-200.000	0.011	0.082
-320.056	-102.181	-0.165	0.040
-319.041	-128.849	0.236	-0.034
-318.026	-162.691	0.426	0.021
-317.012	74.068	0.335	0.356
-315.997	-89.410	0.254	0.076
-314.983	-78.511	-0.459	-0.159
-313.968	4.660	-0.283	0.210
-312.953	-200.000	-0.029	-0.136
-311.939	-93.605	-0.038	-0.011
-310.924	-80.312	0.261	-0.088
-309.910	-200.000	0.008	0.267
-308.895	158.669	-0.098	0.137
-307.880	25.561	0.166	-0.139
-306.866	178.879	0.301	-0.445
-305.851	386.621	0.110	-0.230
-304.837	148.049	-0.126	-0.173
-303.822	-31.569	0.182	-0.103
-302.807	-200.000	-0.025	0.125
-301.793	329.957	-0.132	-0.256
-300.778	-53.774	-0.294	-0.136
-299.764	50.066	-0.213	0.204
-298.749	800.000	0.059	-0.199
-297.735	112.258	0.226	-0.276
-296.720	39.569	0.266	-0.241
-295.705	-163.675	0.339	-0.016
-294.691	-200.000	-0.052	0.296
-293.676	113.190	0.229	0.281
-292.662	-200.000	-0.041	0.260
-291.647	310.757	0.077	-0.146
-290.632	-128.928	-0.168	0.024
-289.618	18.612	0.199	0.161
-288.603	610.694	-0.043	0.109
-287.589	-105.582	-0.167	-0.038
-286.574	254.211	0.073	-0.126
-285.559	-38.346	-0.163	-0.087
-284.545	-19.217	-0.242	0.152
-283.530	525.946	-0.117	-0.278
-282.516	138.014	-0.082	-0.108
-281.501	-200.000	0.001	-0.085
-280.486	-62.741	0.145	-0.061
-279.472	159.253	-0.217	0.305
-278.457	-200.000	-0.035	-0.294
-277.443	-32.553	-0.120	-0.067
-276.428	-200.000	-0.063	0.364
-275.413	-78.790	-0.155	-0.054
-274.399	555.824	0.130	-0.317
-273.384	-37.473	0.125	-0.068
-272.370	431.525	0.077	0.168
-271.355	-46.996	-0.357	0.176
-270.340	-200.000	0.061	-0.285
-269.326	511.120	-0.046	0.109
-268.311	-17.720	0.477	-0.303
-267.297	-60.208	-0.097	0.042
-266.282	64.408	-0.244	-0.248
-265.267	-67.983	-0.081	-0.032
-264.253	114.596	-0.310	0.382
-263.238	-119.067	0.116	-0.020
-262.224	431.428	-0.175	-0.382
-261.209	-163.194	-0.247	-0.012
-260.195	-75.713	0.143	0.051
-259.180	800.000	-0.034	-0.140
-258.165	-200.000	-0.026	-0.258
-257.151	172.115	-0.108	-0.157
-256.136	143.134	0.072	-0.097
-255.122	-200.000	0.083	0.544
-254.107	-92.791	-0.197	0.056
-253.092	130.710	0.176	-0.228
-252.078	-2.112	-0.164	0.116
-251.063	-200.000	0.032	-0.555
-250.049	-35.194	0.275	0.151
-249.034	-56.103	0.127	-0.057
-248.019	-58.652	-0.176	-0.077
-247.005	-200.000	0.010	0.073
-245.990	75.504	0.206	0.220
-244.976	293.990	-0.085	-0.157
-243.961	-157.657	0.367	-0.022
-242.946	-200.000	-0.006	0.334
-241.932	-200.000	-0.044	0.333
-240.917	303.732	0.153	-0.286
-239.903	41.834	0.046	-0.042
-238.888	-28.999	-0.258	0.150
-237.873	800.000	-0.077	0.245
-236.859	4.786	0.187	0.138
-235.844	272.475	-0.129	0.230
-234.830	-200.000	-0.017	0.183
-233.815	-128.436	-0.258	0.037
-232.800	-130.191	0.174	-0.024
-231.786	129.539	0.287	0.371
-230.771	-130.066	-0.211	0.029
-229.757	664.907	-0.101	0.262
-228.742	-49.010	0.261	-0.126
-227.727	800.000	0.116	-0.478
-226.713	215.518	-0.114	0.182
-225.698	546.396	-0.061	-0.148
-224.684	31.287	-0.170	-0.147
-223.669	562.188	-0.105	0.255
-222.655	649.734	0.052	0.134
-221.640	550.716	-0.111	0.270
-220.625	-200.000	-0.053	-0.371
-219.611	697.969	0.065	0.173
-218.596	86.652	-0.097	0.108
-217.582	-32.886	0.095	-0.053
-216.567	-90.055	-0.189	-0.056
-215.552	510.747	0.086	-0.201
-214.538	69.677	0.184	0.191
-213.523	290.549	0.092	-0.169
-212.509	800.000	-0.018	-0.078
-211.494	76.961	0.080	0.085
-210.479	583.597	0.047	0.117
-209.465	-200.000	0.002	-0.103
-208.450	800.000	0.055	-0.197
-207.436	49.081	0.047	0.045
-206.421	205.627	0.077	0.121
-205.406	28.527	0.373	-0.318
-204.392	-125.444	0.205	-0.032
-203.377	-129.497	-0.174	-0.024
-202.363	-115.692	-0.215	0.041
-201.348	229.643	-0.152	-0.250
-200.333	-200.000	0.379	-0.001
-199.319	-53.397	-0.146	0.067
-198.304	124.760	0.238	0.302
-197.290	330.084	-0.199	-0.387
-196.275	-200.000	0.016	0.118
-195.260	-157.094	0.315	-0.019
-194.246	183.133	-0.053	-0.078
-193.231	-106.616	0.218	0.049
-192.217	800.000	-0.126	0.516
-191.202	800.000	-0.135	0.426
-190.187	263.995	-0.091	0.159
-189.173	800.000	0.065	-0.214
-188.158	6.241	-0.134	-0.100
-187.144	311.349	-0.127	0.240
-186.129	-59.942	-0.452	0.195
-185.114	800.000	-0.112	-0.339
-184.100	13.698	-0.073	-0.057
-183.085	-59.310	-0.248	0.107
-182.071	567.932	-0.087	0.213
-181.056	-160.284	-0.350	0.019
-180.042	15.894	-0.179	-0.142
-179.027	-113.543	0.133	-0.026
-178.012	-18.099	0.308	0.194
-176.998	355.016	0.140	0.280
-175.983	237.958	-0.131	0.219
-174.969	-102.926	-0.194	-0.046
-173.954	-117.965	0.209	-0.038
-172.939	155.683	-0.097	0.134
-171.925	16.614	0.142	-0.113
-170.910	78.854	-0.212	-0.228
-169.896	84.780	0.145	-0.160
-168.881	-70.674	0.320	0.122
-167.866	799.182	-0.082	0.227
-166.852	629.760	0.090	0.229
-165.837	7.347	-0.309	0.232
-164.823	720.683	0.006	0.016
-163.808	-50.463	0.182	-0.086
-162.793	-58.933	0.250	-0.109
-161.779	28.269	0.204	0.173
-160.764	-170.724	-0.182	0.006
-159.750	-200.000	0.024	0.401
-158.735	38.086	0.085	-0.076
-157.720	-167.008	-0.342	-0.014
-156.706	13.842	0.091	-0.071
-155.691	-73.553	0.073	0.027
-154.677	-98.327	0.200	-0.052
-153.662	-114.110	0.167	0.033
-152.647	-46.327	-0.155	0.077
-151.633	-200.000	-0.001	-0.237
-150.618	10.447	0.130	0.099
-149.604	-93.125	-0.191	-0.054
-148.589	520.676	0.102	-0.240
-147.574	-85.943	0.422	-0.131
-146.560	680.642	0.122	-0.320
-145.545	-69.767	-0.215	0.082
-144.531	-163.098	0.160	-0.008
-143.516	-200.000	0.022	-0.194
-142.502	-78.451	0.230	0.079
-141.487	34.971	0.102	-0.090
-140.472	-165.780	-0.118	0.005
-139.458	800.000	-0.025	-0.086
-138.443	-200.000	0.040	-0.282
-137.429	-11.949	0.161	0.106
-136.414	56.512	0.187	0.183
-135.399	-69.233	0.326	0.126
-134.385	187.099	-0.036	0.053
-133.370	-32.928	-0.419	-0.234
-132.356	-200.000	-0.006	0.132
-131.341	459.935	-0.083	-0.187
-130.326	-57.698	-0.088	-0.039
-129.312	-92.173	-0.352	-0.100
-128.297	134.646	0.158	-0.206
-127.283	-200.000	-0.021	-0.153
-126.268	67.410	0.195	-0.200
-125.253	-87.400	0.247	-0.075
-124.239	-104.093	0.210	0.049
-123.224	-200.000	0.008	0.140
