DTS Sentinel unit serial number:	SN413079Multiplexer serial number:	ORYXHardware model number:	OX4-SRSoftware version number:	ORYX F/W v4.00 Oryx Data Collector v3.7.2.0data status	okinstallation	princeton_trtdifferential loss correction	single-endedforward channel	channel 4reverse channel	N/Adate	2019/09/10time	17:47:11forward acquisition time	60.00reverse acquisition time	0.00gamma	496.2192k internal	0.2297k external	0.2297temperature offset calibration	0.9941default loss term (dB/km)	0.3790temperature slope calibration	1.0000multiplexer offset coefficient	1.0000multiplexer slope coefficient	1.0000fibre end	0.00T internal ref (°C)	37.50T ext. ref 1 (°C)	-0.33T ext. ref 2 (°C)	30.42length (m)	temperature (°C)	Stokes	anti-Stokes-747.200	2.902	-0.207	0.154
-746.185	72.922	-0.208	0.222
-745.171	207.319	0.019	0.030
-744.156	800.000	-0.135	0.409
-743.142	636.017	0.148	-0.384
-742.127	800.000	-0.077	-0.220
-741.112	407.628	-0.093	0.201
-740.098	-18.616	-0.184	0.117
-739.083	-11.457	-0.309	0.208
-738.069	-200.000	-0.078	0.448
-737.054	-103.388	-0.345	-0.083
-736.039	-126.347	0.152	0.023
-735.025	-104.655	0.292	0.069
-734.010	786.418	0.056	-0.156
-732.996	0.326	-0.191	-0.139
-731.981	-200.000	0.040	0.291
-730.966	112.805	-0.132	-0.163
-729.952	800.000	0.051	-0.228
-728.937	-126.492	0.327	-0.050
-727.923	282.488	-0.121	0.222
-726.908	90.084	-0.059	0.068
-725.894	-200.000	-0.019	-0.106
-724.879	190.468	-0.007	0.011
-723.864	-200.000	-0.026	-0.245
-722.850	15.198	-0.118	0.095
-721.835	158.710	-0.055	0.078
-720.821	304.780	-0.188	-0.357
-719.806	-88.415	-0.119	-0.036
-718.791	28.691	0.338	-0.292
-717.777	-15.326	0.192	-0.125
-716.762	472.377	0.088	0.202
-715.748	-28.058	0.295	-0.174
-714.733	-63.635	-0.234	0.098
-713.718	800.000	0.059	0.200
-712.704	49.383	0.348	-0.334
-711.689	-200.000	0.007	-0.305
-710.675	-29.185	-0.580	-0.339
-709.660	-16.729	0.361	-0.233
-708.645	-84.162	0.312	-0.101
-707.631	-167.799	-0.311	-0.013
-706.616	-71.846	0.272	0.103
-705.602	-85.294	-0.142	-0.045
-704.587	43.792	-0.074	-0.069
-703.572	800.000	0.026	0.100
-702.558	800.000	-0.079	-0.288
-701.543	800.000	0.066	-0.268
-700.529	-51.153	0.204	-0.097
-699.514	745.722	0.104	-0.286
-698.499	-102.937	-0.110	-0.027
-697.485	-200.000	-0.367	-0.002
-696.470	-106.928	0.226	-0.051
-695.456	196.279	0.020	-0.032
-694.441	196.033	-0.106	-0.165
-693.426	800.000	0.054	0.174
-692.412	25.458	-0.119	-0.101
-691.397	-83.025	0.364	-0.120
-690.383	-63.148	0.141	-0.059
-689.368	-175.577	0.240	0.007
-688.354	636.741	0.035	-0.090
-687.339	29.761	-0.062	0.054
-686.324	39.463	0.079	-0.072
-685.310	83.123	0.223	0.247
-684.295	59.987	-0.032	0.032
-683.281	-20.586	0.294	0.184
-682.266	-200.000	-0.002	-0.365
-681.251	-28.068	-0.052	0.031
-680.237	-118.470	0.357	0.064
-679.222	-68.475	0.281	-0.111
-678.208	-167.711	-0.143	-0.006
-677.193	234.356	0.046	-0.077
-676.178	800.000	0.024	-0.087
-675.164	303.043	0.099	0.186
-674.149	-48.508	0.231	-0.113
-673.135	-200.000	0.027	0.200
-672.120	-142.025	-0.170	0.017
-671.105	295.860	0.171	0.319
-670.091	222.835	-0.060	0.098
-669.076	-173.597	0.460	0.014
-668.062	15.928	-0.269	-0.216
-667.047	-200.000	0.002	0.113
-666.032	-70.728	-0.269	-0.103
-665.018	240.334	0.046	0.078
-664.003	-71.712	-0.123	0.047
-662.989	10.065	0.126	-0.097
-661.974	-8.918	-0.330	-0.225
-660.959	-83.314	-0.352	-0.115
-659.945	-131.513	-0.335	-0.045
-658.930	-94.912	0.207	-0.057
-657.916	-200.000	0.021	-0.178
-656.901	405.992	-0.066	0.142
-655.886	-26.012	-0.136	-0.081
-654.872	-120.236	0.146	0.025
-653.857	-49.603	-0.284	0.137
-652.843	-132.342	0.101	0.013
-651.828	-93.611	-0.112	0.031
-650.814	472.787	-0.066	-0.152
-649.799	256.825	0.203	-0.355
-648.784	800.000	-0.060	-0.198
-647.770	-200.000	0.261	0.001
-646.755	122.025	-0.100	0.127
-645.741	-200.000	0.011	0.243
-644.726	-99.058	-0.080	0.021
-643.711	-117.950	0.194	0.035
-642.697	-92.693	-0.284	0.081
-641.682	-102.244	-0.263	-0.064
-640.668	156.543	0.193	0.271
-639.653	-19.199	0.253	-0.160
-638.638	34.347	0.198	-0.175
-637.624	192.796	-0.051	0.079
-636.609	-200.000	-0.023	0.293
-635.595	204.711	-0.141	0.222
-634.580	125.507	0.107	0.137
-633.565	-2.465	0.303	0.216
-632.551	72.217	0.077	0.081
-631.536	-89.893	0.319	-0.095
-630.522	800.000	-0.046	-0.159
-629.507	405.578	0.060	0.129
-628.492	800.000	0.045	-0.186
-627.478	-200.000	-0.025	0.203
-626.463	59.055	-0.219	-0.219
-625.449	351.660	-0.120	0.241
-624.434	25.530	0.350	0.296
-623.419	221.801	-0.066	-0.109
-622.405	-136.647	0.196	-0.023
-621.390	-122.123	0.218	0.036
-620.376	192.553	0.057	-0.087
-619.361	18.595	0.032	-0.026
-618.346	66.168	-0.137	-0.142
-617.332	16.702	-0.339	0.272
-616.317	-200.000	-0.028	-0.129
-615.303	-63.162	0.104	0.044
-614.288	-28.908	-0.140	-0.082
-613.273	-153.949	-0.216	-0.015
-612.259	94.039	0.306	0.352
-611.244	-89.512	-0.366	0.109
-610.230	21.287	-0.067	-0.055
-609.215	-200.000	-0.018	0.271
-608.201	-129.566	0.355	-0.050
-607.186	255.112	0.134	0.234
-606.171	98.508	-0.036	-0.042
-605.157	-200.000	-0.039	0.251
-604.142	-71.781	0.240	-0.091
-603.128	800.000	0.040	0.160
-602.113	-94.325	-0.412	0.114
-601.098	-23.903	0.255	-0.155
-600.084	156.893	-0.105	0.147
-599.069	-83.005	-0.126	-0.041
-598.055	-200.000	0.043	-0.289
-597.040	-146.133	-0.064	-0.006
-596.025	16.732	-0.095	0.077
-595.011	14.285	0.129	-0.102
-593.996	800.000	0.071	-0.277
-592.982	74.614	-0.200	0.213
-591.967	157.650	0.043	0.060
-590.952	727.859	0.040	-0.109
-589.938	121.680	-0.145	0.183
-588.923	139.843	-0.141	0.188
-587.909	-40.641	-0.224	-0.118
-586.894	304.553	-0.213	0.401
-585.879	10.920	-0.153	0.119
-584.865	300.166	0.048	-0.090
-583.850	-176.756	-0.130	0.003
-582.836	14.543	-0.226	-0.179
-581.821	-109.957	-0.065	0.014
-580.806	479.932	0.113	0.261
-579.792	86.506	-0.222	-0.249
-578.777	-150.434	0.343	0.027
-577.763	52.242	0.190	0.184
-576.748	226.933	0.099	0.164
-575.733	475.748	-0.058	0.133
-574.719	-200.000	0.001	0.204
-573.704	-148.691	0.675	-0.056
-572.690	-135.645	0.307	-0.037
-571.675	-24.845	-0.413	0.249
-570.661	-200.000	-0.001	0.220
-569.646	79.880	0.198	-0.216
-568.631	-182.760	-0.365	0.007
-567.617	-59.524	0.171	0.075
-566.602	-127.416	0.117	0.017
-565.588	800.000	-0.070	0.204
-564.573	-136.991	-0.057	-0.007
-563.558	-91.943	0.370	0.106
-562.544	-6.220	-0.061	-0.042
-561.529	-100.577	-0.344	-0.086
-560.515	-62.957	-0.198	-0.083
-559.500	-200.000	-0.010	-0.219
-558.485	15.687	0.191	-0.152
-557.471	273.081	0.166	0.297
-556.456	-120.799	0.175	0.030
-555.442	800.000	0.084	0.252
-554.427	-167.510	-0.290	0.012
-553.412	800.000	-0.090	-0.328
-552.398	722.107	-0.058	-0.156
-551.383	-88.065	-0.221	0.067
-550.369	-200.000	0.066	0.335
-549.354	22.996	-0.215	0.179
-548.339	244.977	0.126	-0.215
-547.325	113.748	0.301	-0.371
-546.310	-200.000	0.034	-0.364
-545.296	46.986	0.152	-0.143
-544.281	117.911	-0.081	-0.101
-543.266	-200.000	-0.005	0.228
-542.252	-62.674	-0.158	0.066
-541.237	0.759	-0.131	-0.095
-540.223	-200.000	0.125	-0.646
-539.208	217.752	-0.126	-0.203
-538.193	-38.287	0.174	-0.094
-537.179	-200.000	-0.077	-0.572
-536.164	4.634	-0.178	0.133
-535.150	800.000	0.062	0.213
-534.135	-64.507	0.388	0.160
-533.121	176.024	0.178	-0.261
-532.106	-200.000	0.026	-0.169
-531.091	-123.892	-0.156	-0.025
-530.077	411.656	-0.081	0.173
-529.062	20.441	-0.147	0.120
-528.048	67.126	-0.066	0.068
-527.033	-200.000	0.003	0.357
-526.018	-80.354	0.061	-0.021
-525.004	-152.000	-0.135	-0.010
-523.989	98.059	0.359	0.419
-522.975	-179.742	-0.208	0.005
-521.960	374.821	0.097	-0.201
-520.945	-83.656	-0.314	0.102
-519.931	800.000	-0.071	-0.211
-518.916	-99.124	-0.117	0.030
-517.902	122.195	-0.200	-0.253
-516.887	97.743	0.096	-0.112
-515.872	-43.136	0.104	0.053
-514.858	-200.000	-0.031	-0.234
-513.843	-40.920	-0.179	-0.094
-512.829	227.250	-0.094	0.154
-511.814	-137.143	0.314	0.036
-510.799	-75.110	0.233	-0.084
-509.785	112.870	-0.154	0.189
-508.770	30.501	-0.060	-0.052
-507.756	-114.820	0.292	0.056
-506.741	-108.497	0.306	0.067
-505.726	-75.952	-0.367	-0.132
-504.712	-108.093	-0.182	-0.040
-503.697	2.032	-0.157	0.114
-502.683	-200.000	0.006	0.169
-501.668	800.000	-0.106	-0.373
-500.653	705.306	0.190	-0.507
-499.639	-200.000	-0.062	-0.291
-498.624	91.233	0.045	-0.051
-497.610	-200.000	0.107	-0.551
-496.595	-200.000	-0.004	-0.252
-495.581	-6.679	0.302	-0.208
-494.566	-200.000	-0.003	-0.085
-493.551	73.057	0.204	-0.216
-492.537	-200.000	0.025	-0.149
-491.522	-62.029	-0.393	-0.166
-490.508	-65.090	-0.222	0.091
-489.493	159.959	-0.219	-0.309
-488.478	800.000	0.043	-0.159
-487.464	-200.000	0.038	0.246
-486.449	-200.000	0.087	0.390
-485.435	36.988	0.300	0.268
-484.420	264.612	-0.112	0.198
-483.405	-87.004	-0.242	-0.074
-482.391	219.018	0.082	-0.132
-481.376	-21.756	-0.131	0.081
-480.362	800.000	0.123	0.424
-479.347	-200.000	0.060	0.271
-478.332	-200.000	0.012	0.216
-477.318	-40.270	0.209	0.110
-476.303	-200.000	0.023	-0.101
-475.289	-118.584	0.074	0.013
-474.274	800.000	0.146	-0.525
-473.259	77.867	-0.059	0.063
-472.245	67.834	-0.127	-0.131
-471.230	800.000	0.028	-0.094
-470.216	139.424	-0.156	-0.207
-469.201	-85.701	0.092	0.029
-468.186	-137.017	0.054	-0.006
-467.172	-200.000	-0.013	0.077
-466.157	-200.000	-0.028	-0.336
-465.143	-200.000	-0.006	0.093
-464.128	339.523	-0.132	0.259
-463.113	-6.362	0.117	0.081
-462.099	-43.274	-0.071	-0.037
-461.084	-132.023	-0.150	0.020
-460.070	-33.670	0.153	0.085
-459.055	27.382	0.130	-0.111
-458.040	317.150	-0.114	-0.217
-457.026	257.276	0.076	-0.132
-456.011	-200.000	-0.023	0.107
-454.997	4.253	-0.092	0.068
-453.982	94.509	-0.110	-0.126
-452.968	-200.000	0.040	-0.248
-451.953	-112.192	-0.073	-0.015
-450.938	-76.277	-0.094	0.034
-449.924	337.389	-0.052	0.103
-448.909	-200.000	0.003	-0.043
-447.895	-89.146	-0.197	0.059
-446.880	100.049	0.228	0.267
-445.865	-19.331	-0.187	-0.117
-444.851	-200.000	-0.022	0.191
-443.836	38.513	-0.048	-0.044
-442.822	533.200	-0.128	0.306
-441.807	-200.000	0.004	-0.196
-440.792	-80.980	-0.181	0.060
-439.778	99.534	0.166	-0.194
-438.763	-123.380	-0.364	-0.059
-437.749	167.671	-0.109	0.157
-436.734	-96.533	-0.115	-0.031
-435.719	14.051	-0.060	-0.047
-434.705	137.958	0.211	0.279
-433.690	800.000	-0.029	0.111
-432.676	152.933	0.231	0.319
-431.661	-20.557	-0.080	-0.050
-430.646	169.365	0.090	0.130
-429.632	800.000	0.101	-0.292
-428.617	459.809	-0.053	-0.118
-427.603	-15.381	-0.210	0.135
-426.588	33.067	0.091	0.080
-425.573	-90.114	0.477	0.140
-424.559	800.000	0.040	0.129
-423.544	-73.021	-0.163	0.060
-422.530	404.720	0.040	0.085
-421.515	-42.025	-0.279	0.144
-420.500	-21.616	-0.285	-0.175
-419.486	-113.987	0.439	-0.086
-418.471	-142.865	0.335	0.033
-417.457	-99.010	0.108	0.028
-416.442	800.000	-0.045	0.148
-415.428	-30.119	-0.132	-0.076
-414.413	5.729	-0.350	-0.261
-413.398	-200.000	0.015	-0.141
-412.384	-41.190	-0.173	-0.090
-411.369	-3.295	0.365	0.256
-410.355	-82.381	0.226	0.074
-409.340	427.274	0.150	-0.327
-408.325	-200.000	-0.029	-0.216
-407.311	-145.634	-0.342	0.031
-406.296	139.974	-0.049	-0.065
-405.282	-176.319	0.126	-0.003
-404.267	-25.709	0.245	-0.146
-403.252	800.000	-0.065	0.202
-402.238	-200.000	0.039	-0.403
-401.223	362.000	0.042	-0.085
-400.209	22.607	0.351	-0.289
-399.194	519.416	-0.093	0.219
-398.179	-121.922	0.372	0.062
-397.165	800.000	0.061	0.217
-396.150	4.463	-0.335	0.248
-395.136	73.870	-0.165	0.174
-394.121	-200.000	-0.025	0.130
-393.106	-200.000	0.002	0.187
-392.092	-17.164	0.193	-0.122
-391.077	48.518	-0.281	-0.265
-390.063	77.169	0.106	-0.114
-389.048	233.114	-0.192	-0.318
-388.033	325.666	0.042	-0.081
-387.019	-50.046	0.247	-0.118
-386.004	212.308	-0.056	-0.089
-384.990	-13.042	-0.092	0.060
-383.975	13.913	0.327	0.257
-382.960	35.012	-0.084	0.074
-381.946	-200.000	0.017	0.247
-380.931	171.510	0.110	-0.159
-379.917	-101.449	0.379	-0.093
-378.902	194.704	0.160	-0.244
-377.888	-200.000	0.078	-0.348
-376.873	-73.706	-0.112	0.041
-375.858	-128.388	0.072	0.010
-374.844	47.096	0.156	0.146
-373.829	-34.471	-0.152	-0.084
-372.815	-101.107	-0.146	-0.036
-371.800	682.266	-0.099	-0.259
-370.785	-26.969	-0.322	0.189
-369.771	75.933	0.202	0.215
-368.756	-180.395	0.274	0.006
-367.742	493.822	-0.028	0.064
-366.727	-1.274	0.078	0.056
-365.712	95.180	0.203	-0.233
-364.698	-84.922	0.320	0.101
-363.683	301.302	-0.131	0.243
-362.669	-36.334	-0.205	0.111
-361.654	584.309	0.138	-0.342
-360.639	143.718	0.071	0.095
-359.625	-66.199	0.124	-0.050
-358.610	87.656	-0.140	0.156
-357.596	147.973	-0.142	0.193
-356.581	-77.006	0.255	0.089
-355.566	-81.863	-0.238	-0.078
-354.552	240.640	0.143	0.240
-353.537	-5.650	0.087	0.060
-352.523	-200.000	0.022	-0.180
-351.508	258.736	-0.113	0.195
-350.493	-153.768	0.046	-0.003
-349.479	-46.920	0.383	0.188
-348.464	30.121	0.216	0.185
-347.450	109.428	-0.104	-0.125
-346.435	462.847	-0.132	-0.297
-345.420	32.560	-0.239	-0.208
-344.406	-89.365	-0.183	0.054
-343.391	-51.272	0.091	0.043
-342.377	-67.708	-0.071	0.028
-341.362	-200.000	-0.053	0.235
-340.348	394.011	-0.110	0.231
-339.333	-16.670	0.274	0.175
-338.318	-93.256	-0.312	0.087
-337.304	-70.327	-0.417	-0.159
-336.289	103.253	-0.068	-0.080
-335.275	-200.000	0.007	0.162
-334.260	800.000	0.060	0.220
-333.245	800.000	-0.058	-0.202
-332.231	-45.664	0.124	0.062
-331.216	224.962	-0.125	0.203
-330.202	428.210	0.026	0.056
-329.187	-70.497	0.238	0.091
-328.172	-72.737	-0.186	-0.069
-327.158	42.661	0.112	-0.103
-326.143	574.011	0.168	0.412
-325.129	-200.000	0.006	-0.111
-324.114	-136.505	-0.260	-0.030
-323.099	-200.000	0.061	-0.346
-322.085	-78.685	0.247	0.085
-321.070	-200.000	-0.021	0.314
-320.056	-174.520	-0.200	0.006
-319.041	19.971	-0.193	0.156
-318.026	3.690	0.263	-0.193
-317.012	-119.155	0.166	0.029
-315.997	800.000	-0.156	-0.478
-314.983	29.769	0.285	-0.244
-313.968	-36.803	-0.066	-0.036
-312.953	-200.000	-0.022	-0.237
-311.939	23.814	-0.075	0.062
-310.924	-91.536	-0.110	-0.031
-309.910	135.142	-0.075	-0.097
-308.895	180.809	0.098	0.145
-307.880	-200.000	-0.052	0.284
-306.866	102.921	-0.092	0.108
-305.851	-85.629	-0.072	0.022
-304.837	155.083	-0.097	-0.135
-303.822	-129.225	0.233	-0.033
-302.807	290.663	-0.108	-0.197
-301.793	522.801	0.019	-0.044
-300.778	152.423	-0.053	0.072
-299.764	105.818	-0.142	0.169
-298.749	102.834	0.070	-0.082
-297.735	-200.000	-0.028	-0.159
-296.720	23.270	-0.249	-0.206
-295.705	-96.170	-0.281	-0.075
-294.691	-200.000	0.010	0.129
-293.676	-200.000	0.023	-0.270
-292.662	-200.000	0.001	0.140
-291.647	1.513	-0.132	0.096
-290.632	-125.013	-0.027	0.004
-289.618	-85.619	-0.159	-0.049
-288.603	-67.074	-0.257	-0.102
-287.589	327.395	0.050	0.096
-286.574	114.805	0.110	0.134
-285.559	-125.230	0.231	-0.036
-284.545	-200.000	0.034	0.289
-283.530	-153.090	-0.169	-0.012
-282.516	-113.363	-0.325	-0.064
-281.501	221.293	-0.107	0.173
-280.486	-57.099	-0.077	0.034
-279.472	114.174	0.115	0.141
-278.457	291.127	-0.126	0.229
-277.443	-155.749	0.119	-0.008
-276.428	-90.505	-0.036	0.010
-275.413	-145.132	0.167	0.015
-274.399	-143.287	0.242	-0.023
-273.384	-163.787	-0.235	-0.011
-272.370	-49.860	-0.209	0.099
-271.355	147.318	-0.097	-0.131
-270.340	79.377	0.175	-0.188
-269.326	-83.322	-0.354	0.114
-268.311	800.000	-0.018	-0.059
-267.297	167.952	-0.104	-0.148
-266.282	-200.000	-0.020	0.221
-265.267	-11.599	0.076	-0.050
-264.253	-200.000	0.036	-0.311
-263.238	-133.292	-0.181	-0.023
-262.224	-50.927	-0.237	-0.112
-261.209	98.362	0.153	0.177
-260.195	466.415	-0.062	-0.139
-259.180	-68.787	-0.102	0.039
-258.165	800.000	0.035	-0.133
-257.151	-55.023	0.240	-0.109
-256.136	447.183	-0.037	0.081
-255.122	-40.337	0.089	0.046
-254.107	-68.612	-0.182	0.071
-253.092	-51.351	-0.295	0.138
-252.078	59.830	-0.062	0.061
-251.063	-34.617	-0.087	-0.048
-250.049	64.935	-0.172	0.174
-249.034	800.000	-0.094	0.283
-248.019	548.649	0.023	-0.056
-247.005	-107.764	0.332	-0.073
-245.990	125.308	-0.137	0.173
-244.976	172.090	0.088	0.126
-243.961	-129.998	-0.166	0.023
-242.946	74.171	0.097	0.102
-241.932	-44.619	-0.130	0.065
-240.917	193.347	0.107	0.161
-239.903	-54.089	-0.217	0.099
-238.888	-166.652	0.123	-0.005
-237.873	-4.510	0.310	-0.214
-236.859	-33.699	-0.039	0.021
-235.844	-200.000	-0.033	0.422
-234.830	-83.397	0.392	0.126
-233.815	291.667	-0.196	0.358
-232.800	-147.070	0.522	-0.045
-231.786	27.828	0.238	-0.201
-230.771	-108.195	-0.108	0.023
-229.757	-200.000	-0.013	-0.169
-228.742	126.822	0.090	-0.114
-227.727	-52.723	0.414	-0.191
-226.713	-200.000	0.000	0.240
-225.698	-71.577	-0.244	-0.091
-224.684	-156.978	0.071	-0.004
-223.669	-103.896	-0.471	-0.110
-222.655	-18.544	0.275	0.172
-221.640	-16.924	0.231	0.146
-220.625	-123.403	0.132	0.021
-219.611	-172.899	-0.300	-0.009
-218.596	-200.000	-0.004	0.143
-217.582	9.405	0.109	0.082
-216.567	7.431	0.147	0.110
-215.552	-200.000	0.038	0.173
-214.538	77.061	0.082	0.087
-213.523	31.445	0.204	0.175
-212.509	121.961	0.138	0.172
-211.494	512.460	-0.028	0.065
-210.479	-200.000	0.051	-0.317
-209.465	141.178	0.066	0.087
-208.450	-164.221	-0.172	-0.008
-207.436	-200.000	0.044	-0.261
-206.421	428.854	-0.183	-0.395
-205.406	-200.000	-0.052	-0.280
-204.392	-33.782	0.120	0.066
-203.377	-200.000	0.020	0.104
-202.363	-107.919	-0.193	0.042
-201.348	118.640	0.085	-0.105
-200.333	800.000	-0.056	-0.238
-199.319	-200.000	0.000	0.218
-198.304	-124.133	-0.075	-0.012
-197.290	800.000	-0.154	-0.442
-196.275	140.901	-0.136	0.179
-195.260	638.131	-0.110	-0.280
-194.246	101.277	-0.085	0.099
-193.231	-145.921	-0.188	0.017
-192.217	-200.000	-0.029	-0.141
-191.202	124.390	0.256	0.322
-190.187	-50.511	-0.246	0.116
-189.173	-4.304	0.175	-0.121
-188.158	800.000	0.093	0.295
-187.144	-200.000	0.027	-0.176
-186.129	321.769	0.019	0.036
-185.114	82.423	-0.253	-0.274
-184.100	3.158	0.230	0.167
-183.085	465.973	0.069	0.155
-182.071	-26.776	-0.093	0.054
-181.056	-107.237	-0.408	0.090
-180.042	-16.398	-0.087	0.055
-179.027	173.984	0.098	0.142
-178.012	800.000	0.088	-0.280
-176.998	59.973	0.039	-0.039
-175.983	-200.000	0.029	0.215
-174.969	641.117	0.135	-0.343
-173.954	198.996	0.142	-0.217
-172.939	-73.895	-0.070	0.026
-171.925	102.772	-0.182	-0.213
-170.910	119.997	-0.093	-0.115
-169.896	-129.248	0.605	-0.084
-168.881	-54.043	-0.390	0.177
-167.866	279.743	0.190	-0.340
-166.852	672.523	-0.104	-0.270
-165.837	-200.000	-0.099	-0.537
-164.823	-0.306	0.264	-0.187
-163.808	-125.598	0.292	-0.044
-162.793	146.995	0.090	-0.121
-161.779	33.315	-0.255	-0.221
-160.764	-200.000	0.080	0.358
-159.750	-137.016	0.210	-0.024
-158.735	-133.839	-0.356	-0.044
-157.720	117.586	-0.190	0.234
-156.706	-200.000	-0.125	0.000
-155.691	121.651	0.054	-0.067
-154.677	312.146	0.152	-0.285
-153.662	-200.000	-0.036	0.167
-152.647	154.347	0.070	0.096
-151.633	380.025	0.060	0.123
-150.618	800.000	0.047	0.196
-149.604	140.336	0.091	0.120
-148.589	-66.647	0.272	-0.108
-147.574	-16.412	0.189	0.120
-146.560	81.870	-0.210	-0.227
-145.545	-115.345	0.078	0.015
-144.531	380.128	0.038	0.078
-143.516	-116.220	-0.301	-0.056
-142.502	-66.101	0.233	0.093
-141.487	800.000	0.037	0.150
-140.472	-181.667	-0.102	0.002
-139.458	12.462	0.260	-0.200
-138.443	92.006	0.081	0.091
-137.429	-89.438	0.147	0.043
-136.414	672.756	-0.192	0.495
-135.399	-200.000	0.020	0.102
-134.385	504.303	-0.100	0.230
-133.370	369.297	0.068	0.138
-132.356	800.000	0.043	0.175
-131.341	-101.984	0.090	-0.022
-130.326	-200.000	0.023	0.289
-129.312	-200.000	-0.048	-0.266
-128.297	800.000	0.039	-0.167
-127.283	17.456	-0.169	-0.134
-126.268	717.526	-0.111	-0.293
-125.253	16.414	-0.147	0.115
-124.239	800.000	0.034	-0.115
-123.224	-0.029	0.040	-0.028
-122.210	-66.617	0.146	0.058
-121.195	-124.462	0.114	0.018
