DTS Sentinel unit serial number:	SN413079Multiplexer serial number:	ORYXHardware model number:	OX4-SRSoftware version number:	ORYX F/W v4.00 Oryx Data Collector v3.7.2.0data status	okinstallation	princeton_trtdifferential loss correction	single-endedforward channel	channel 4reverse channel	N/Adate	2019/09/11time	20:11:11forward acquisition time	60.00reverse acquisition time	0.00gamma	496.2192k internal	0.2301k external	0.2301temperature offset calibration	1.0050default loss term (dB/km)	0.3790temperature slope calibration	1.0000multiplexer offset coefficient	1.0000multiplexer slope coefficient	1.0000fibre end	0.00T internal ref (°C)	38.36T ext. ref 1 (°C)	1.43T ext. ref 2 (°C)	31.84length (m)	temperature (°C)	Stokes	anti-Stokes-747.200	-116.366	0.229	0.043
-746.185	-6.702	0.205	0.142
-745.171	-119.732	-0.017	0.003
-744.156	296.985	-0.202	0.377
-743.142	-32.438	-0.133	-0.076
-742.127	800.000	0.047	0.174
-741.112	255.826	0.074	-0.129
-740.098	-200.000	0.036	0.275
-739.083	98.336	0.069	-0.081
-738.069	-4.074	0.320	0.226
-737.054	174.769	0.083	0.122
-736.039	-200.000	-0.014	0.199
-735.025	800.000	0.080	0.298
-734.010	-21.041	-0.191	-0.119
-732.996	800.000	0.050	-0.202
-731.981	-97.643	-0.093	-0.024
-730.966	-7.295	-0.129	0.089
-729.952	251.182	-0.161	0.279
-728.937	-123.990	-0.216	0.035
-727.923	800.000	-0.036	0.109
-726.908	-97.742	0.101	-0.027
-725.894	289.433	0.118	-0.218
-724.879	-200.000	-0.013	0.310
-723.864	-187.920	-0.070	0.001
-722.850	385.842	0.052	-0.109
-721.835	-58.804	0.357	-0.157
-720.821	199.312	-0.133	0.207
-719.806	-146.325	-0.319	-0.028
-718.791	-170.420	-0.546	-0.019
-717.777	-200.000	-0.042	-0.411
-716.762	-38.895	0.285	-0.153
-715.748	800.000	0.016	-0.047
-714.733	-9.412	-0.234	-0.159
-713.718	-133.840	-0.030	0.004
-712.704	-156.544	0.265	-0.017
-711.689	176.625	0.163	-0.241
-710.675	-200.000	-0.025	-0.169
-709.660	536.034	0.046	-0.112
-708.645	-200.000	0.026	0.187
-707.631	312.433	-0.046	-0.088
-706.616	-8.869	-0.198	-0.135
-705.602	396.441	0.073	0.154
-704.587	140.812	0.232	0.312
-703.572	140.472	0.210	-0.282
-702.558	-113.818	0.121	0.024
-701.543	-65.194	0.376	0.154
-700.529	-51.175	0.182	-0.087
-699.514	43.967	0.241	-0.225
-698.499	264.733	0.056	-0.100
-697.485	-200.000	0.005	0.162
-696.470	-62.731	0.120	0.051
-695.456	-74.795	0.242	0.088
-694.441	41.761	-0.049	0.046
-693.426	-200.000	-0.033	-0.157
-692.412	-4.332	-0.275	-0.193
-691.397	90.342	0.145	-0.165
-690.383	-100.006	-0.154	0.039
-689.368	18.109	-0.024	0.019
-688.354	81.407	0.167	-0.183
-687.339	-22.022	-0.111	-0.069
-686.324	-8.363	-0.216	-0.148
-685.310	-178.212	0.346	-0.008
-684.295	-102.456	0.266	0.065
-683.281	423.818	-0.043	-0.095
-682.266	-52.121	-0.075	-0.035
-681.251	43.565	-0.115	0.107
-680.237	31.642	-0.098	-0.085
-679.222	42.385	0.236	0.218
-678.208	-107.830	-0.432	-0.096
-677.193	-82.325	-0.130	0.043
-676.178	-53.570	0.285	0.132
-675.164	147.827	-0.177	-0.242
-674.149	-48.338	-0.292	-0.143
-673.135	-119.369	0.034	-0.006
-672.120	463.052	-0.063	-0.143
-671.105	-18.689	0.210	-0.133
-670.091	640.429	-0.138	-0.358
-669.076	-16.301	0.372	-0.240
-668.062	69.018	-0.231	0.241
-667.047	39.784	-0.438	-0.400
-666.032	74.747	-0.061	-0.065
-665.018	17.888	-0.093	-0.075
-664.003	800.000	-0.029	0.116
-662.989	-200.000	-0.004	0.079
-661.974	521.612	-0.081	-0.194
-660.959	-154.615	0.151	-0.010
-659.945	52.422	-0.127	0.123
-658.930	201.270	-0.162	0.253
-657.916	-107.598	0.027	-0.006
-656.901	-14.183	-0.207	0.136
-655.886	73.818	-0.215	0.229
-654.872	-72.968	0.360	-0.134
-653.857	25.210	0.344	-0.290
-652.843	156.375	-0.281	0.393
-651.828	-57.881	-0.363	-0.161
-650.814	115.532	0.183	-0.228
-649.799	800.000	0.064	-0.272
-648.784	-71.351	-0.193	-0.074
-647.770	110.666	0.106	-0.129
-646.755	90.136	0.122	0.138
-645.741	-40.414	0.326	0.172
-644.726	730.580	0.086	0.232
-643.711	-200.000	-0.050	-0.297
-642.697	800.000	-0.068	0.230
-641.682	5.290	0.324	-0.243
-640.668	-89.550	-0.213	-0.063
-639.653	-43.930	-0.119	0.061
-638.638	-59.635	-0.272	-0.119
-637.624	-200.000	-0.180	0.000
-636.609	-35.295	-0.121	-0.067
-635.595	-190.756	0.259	0.003
-634.580	-58.971	-0.112	-0.049
-633.565	52.386	-0.102	-0.098
-632.551	340.346	0.093	-0.184
-631.536	-81.229	-0.245	-0.082
-630.522	145.029	-0.250	0.339
-629.507	-200.000	0.003	-0.071
-628.492	-17.305	0.140	-0.090
-627.478	-200.000	0.039	0.185
-626.463	800.000	-0.073	0.266
-625.449	-166.876	-0.238	0.010
-624.434	800.000	0.028	0.083
-623.419	-188.898	-0.098	-0.001
-622.405	-200.000	-0.016	0.202
-621.390	-58.143	0.356	0.157
-620.376	89.894	0.201	0.227
-619.361	-52.871	-0.342	0.160
-618.346	180.215	-0.091	0.136
-617.332	-95.555	-0.127	0.034
-616.317	800.000	0.078	-0.303
-615.303	458.945	0.019	-0.044
-614.288	-93.881	-0.187	-0.052
-613.273	-97.606	0.245	-0.064
-612.259	-200.000	-0.056	-0.291
-611.244	-60.094	0.201	-0.087
-610.230	7.831	-0.340	-0.258
-609.215	-34.562	0.250	-0.139
-608.201	-98.575	0.143	-0.037
-607.186	82.878	0.133	0.146
-606.171	-44.346	0.143	0.072
-605.157	-39.561	0.113	-0.060
-604.142	-192.296	0.097	0.001
-603.128	-89.112	-0.348	-0.104
-602.113	205.101	-0.245	0.386
-601.098	40.927	-0.066	-0.060
-600.084	-82.182	-0.125	-0.041
-599.069	-168.806	0.217	0.008
-598.055	-163.684	-0.298	-0.014
-597.040	240.106	-0.167	-0.281
-596.025	-52.638	-0.086	-0.040
-595.011	-124.331	-0.176	-0.028
-593.996	-96.796	-0.301	0.080
-592.982	36.212	0.196	0.175
-591.967	38.934	0.405	0.367
-590.952	139.241	-0.054	-0.072
-589.938	22.460	0.336	-0.279
-588.923	-84.749	0.295	0.094
-587.909	-200.000	-0.014	0.075
-586.894	-72.536	0.100	-0.037
-585.879	-35.909	-0.132	-0.073
-584.865	0.643	0.455	0.330
-583.850	-55.693	0.182	0.082
-582.836	-133.738	-0.151	-0.019
-581.821	-42.887	0.072	-0.037
-580.806	437.906	0.162	-0.358
-579.792	-74.587	-0.266	0.097
-578.777	205.207	-0.098	-0.154
-577.763	-81.059	-0.178	-0.060
-576.748	33.112	0.319	-0.280
-575.733	-96.943	-0.073	-0.019
-574.719	-123.761	-0.333	-0.053
-573.704	-200.000	-0.017	0.132
-572.690	38.595	-0.275	-0.249
-571.675	-200.000	0.027	-0.436
-570.661	-193.189	-0.169	-0.002
-569.646	220.868	0.101	-0.165
-568.631	800.000	0.083	0.237
-567.617	800.000	-0.063	-0.217
-566.602	-200.000	0.033	-0.405
-565.588	4.921	-0.324	-0.241
-564.573	-200.000	-0.007	-0.130
-563.558	662.707	0.108	0.281
-562.544	-200.000	0.010	-0.102
-561.529	118.030	0.111	-0.138
-560.515	29.955	0.127	0.109
-559.500	31.492	-0.098	-0.085
-558.485	50.037	0.093	-0.088
-557.471	-58.045	0.198	0.087
-556.456	-200.000	0.012	-0.063
-555.442	53.958	0.161	-0.157
-554.427	-200.000	-0.009	-0.121
-553.412	277.442	0.126	-0.226
-552.398	598.039	0.028	-0.070
-551.383	800.000	0.037	-0.105
-550.369	7.458	-0.227	-0.172
-549.354	-200.000	0.079	0.366
-548.339	-200.000	0.025	0.422
-547.325	17.987	0.454	-0.366
-546.310	-72.913	-0.097	0.036
-545.296	-139.222	-0.158	0.017
-544.281	-200.000	0.027	0.125
-543.266	205.175	0.162	0.254
-542.252	-163.342	-0.225	-0.011
-541.237	76.290	-0.141	0.151
-540.223	76.873	-0.238	0.256
-539.208	-200.000	0.012	0.211
-538.193	-31.756	-0.071	0.040
-537.179	-118.136	0.112	0.020
-536.164	-66.233	-0.127	-0.051
-535.150	20.176	0.190	0.155
-534.135	-78.683	0.100	0.035
-533.121	-50.870	-0.096	-0.046
-532.106	1.086	-0.296	0.215
-531.091	-35.919	0.498	0.272
-530.077	153.796	-0.214	-0.297
-529.062	48.729	-0.098	0.093
-528.048	0.484	-0.188	0.135
-527.033	-42.359	0.281	-0.145
-526.018	-200.000	-0.022	-0.146
-525.004	-25.972	-0.052	-0.031
-523.989	-65.240	0.077	-0.031
-522.975	-200.000	0.040	-0.300
-521.960	-200.000	-0.029	0.222
-520.945	-32.825	0.205	-0.115
-519.931	-50.198	-0.137	-0.066
-518.916	62.938	0.212	-0.215
-517.902	449.357	0.034	-0.076
-516.887	70.983	-0.195	0.205
-515.872	531.986	0.076	-0.182
-514.858	30.471	-0.203	0.175
-513.843	800.000	-0.050	0.193
-512.829	388.825	-0.167	0.349
-511.814	-118.506	0.125	-0.022
-510.799	214.863	-0.101	0.162
-509.785	-200.000	-0.023	-0.172
-508.770	-46.203	-0.202	0.100
-507.756	800.000	-0.084	0.266
-506.741	-126.080	-0.169	-0.026
-505.726	228.763	-0.059	-0.098
-504.712	-82.285	-0.304	-0.100
-503.697	-200.000	-0.015	0.376
-502.683	-200.000	0.004	0.089
-501.668	-85.632	-0.279	-0.087
-500.653	331.829	-0.073	-0.142
-499.639	430.427	0.121	-0.265
-498.624	-99.475	-0.041	0.010
-497.610	800.000	-0.060	0.208
-496.595	-44.570	0.114	0.058
-495.581	-142.539	0.162	-0.016
-494.566	408.478	-0.139	0.297
-493.551	-200.000	-0.004	0.236
-492.537	-200.000	0.004	0.198
-491.522	1.076	0.081	0.059
-490.508	660.868	0.122	0.318
-489.493	-86.869	0.202	-0.062
-488.478	2.713	-0.151	-0.111
-487.464	-200.000	0.007	0.127
-486.449	42.073	0.322	0.295
-485.435	-200.000	-0.009	-0.111
-484.420	-123.189	-0.450	0.073
-483.405	789.598	0.038	0.106
-482.391	-137.455	0.132	0.015
-481.376	800.000	0.044	0.172
-480.362	-18.198	0.177	-0.112
-479.347	739.686	-0.124	-0.336
-478.332	150.012	0.234	0.320
-477.318	-200.000	-0.057	0.257
-476.303	-200.000	0.026	0.204
-475.289	105.180	0.172	0.205
-474.274	234.187	0.086	0.143
-473.259	-61.327	-0.348	-0.148
-472.245	-141.783	-0.233	-0.024
-471.230	632.851	0.078	0.200
-470.216	-58.108	0.116	0.051
-469.201	157.461	-0.043	0.060
-468.186	-70.784	0.040	0.015
-467.172	-84.050	0.186	-0.060
-466.157	-200.000	0.044	-0.231
-465.143	205.131	0.159	-0.249
-464.128	-200.000	0.026	-0.123
-463.113	-133.423	-0.214	0.027
-462.099	-24.689	0.186	0.112
-461.084	800.000	0.025	-0.105
-460.070	800.000	-0.079	-0.251
-459.055	-14.930	0.218	0.141
-458.040	468.144	-0.109	0.247
-457.026	87.841	-0.093	-0.104
-456.011	366.626	-0.175	-0.357
-454.997	-94.660	0.290	0.079
-453.982	-200.000	-0.005	0.073
-452.968	102.887	-0.102	-0.121
-451.953	29.891	0.140	-0.121
-450.938	-80.838	-0.330	0.111
-449.924	40.757	-0.036	0.033
-448.909	-200.000	-0.019	-0.328
-447.895	-200.000	0.024	-0.113
-446.880	-63.816	-0.193	-0.080
-445.865	255.051	0.140	0.242
-444.851	155.331	0.086	-0.119
-443.836	-17.841	0.308	-0.195
-442.822	717.710	0.072	-0.193
-441.807	800.000	0.141	0.557
-440.792	800.000	0.019	0.076
-439.778	-8.807	-0.301	-0.203
-438.763	46.816	-0.143	0.134
-437.749	-49.017	0.163	-0.078
-436.734	78.508	-0.110	-0.118
-435.719	100.842	0.194	0.227
-434.705	-27.038	0.186	-0.110
-433.690	-93.360	0.092	0.026
-432.676	-54.312	-0.199	-0.091
-431.661	-149.823	0.189	0.015
-430.646	-200.000	0.004	0.320
-429.632	-2.068	0.132	-0.093
-428.617	86.221	-0.267	0.296
-427.603	-200.000	0.001	0.365
-426.588	-200.000	-0.025	-0.117
-425.573	800.000	0.050	-0.159
-424.559	-117.618	-0.403	-0.073
-423.544	235.567	-0.015	0.026
-422.530	-16.697	0.144	0.092
-421.515	597.965	0.147	-0.368
-420.500	-200.000	0.230	-0.000
-419.486	-173.422	-0.296	-0.009
-418.471	-200.000	0.013	0.235
-417.457	-43.415	-0.172	-0.087
-416.442	800.000	0.069	0.205
-415.428	800.000	-0.100	0.358
-414.413	530.574	-0.157	0.374
-413.398	800.000	-0.126	0.365
-412.384	155.394	-0.189	-0.262
-411.369	-53.019	-0.066	-0.031
-410.355	800.000	-0.010	0.031
-409.340	-92.031	0.187	-0.053
-408.325	-200.000	-0.031	-0.206
-407.311	5.428	0.163	-0.121
-406.296	-200.000	0.036	-0.212
-405.282	30.486	-0.079	0.068
-404.267	207.400	0.113	-0.177
-403.252	120.931	-0.160	0.200
-402.238	247.362	-0.089	0.151
-401.223	558.903	-0.038	0.093
-400.209	53.322	0.244	0.235
-399.194	41.347	0.265	0.241
-398.179	-200.000	-0.015	-0.171
-397.165	-200.000	0.045	-0.391
-396.150	-127.737	-0.315	0.046
-395.136	517.184	-0.179	-0.420
-394.121	-200.000	0.042	-0.268
-393.106	123.306	0.208	0.262
-392.092	-119.873	-0.216	-0.037
-391.077	87.717	0.246	0.274
-390.063	98.703	0.123	0.143
-389.048	-200.000	-0.014	-0.081
-388.033	234.981	0.169	0.281
-387.019	-89.564	-0.105	-0.031
-386.004	800.000	-0.051	-0.184
-384.990	43.414	0.132	-0.122
-383.975	-200.000	0.005	0.167
-382.960	655.593	-0.076	0.195
-381.946	-52.627	0.047	0.022
-380.931	285.560	-0.118	-0.213
-379.917	-106.975	0.231	-0.051
-378.902	-36.821	0.096	-0.052
-377.888	800.000	0.039	-0.123
-376.873	61.978	-0.013	-0.013
-375.858	248.204	0.152	-0.258
-374.844	150.618	0.131	0.179
-373.829	-133.047	0.127	-0.016
-372.815	800.000	-0.109	-0.314
-371.800	4.691	-0.282	0.208
-370.785	298.325	0.091	0.168
-369.771	800.000	0.101	-0.298
-368.756	-200.000	0.056	-0.000
-367.742	-100.495	0.421	-0.105
-366.727	514.533	-0.097	-0.228
-365.712	-18.413	0.047	-0.029
-364.698	800.000	-0.024	0.106
-363.683	302.589	0.035	0.066
-362.669	-52.601	-0.199	0.092
-361.654	-148.637	0.290	0.024
-360.639	-1.135	-0.096	-0.068
-359.625	-27.717	-0.140	0.082
-358.610	-200.000	-0.003	0.074
-357.596	-37.530	-0.102	0.055
-356.581	183.903	0.080	0.119
-355.566	-16.184	-0.151	-0.096
-354.552	74.471	-0.242	-0.255
-353.537	-200.000	-0.006	-0.134
-352.523	73.237	0.151	0.159
-351.508	-108.197	0.141	-0.031
-350.493	-148.420	-0.505	0.042
-349.479	-70.187	-0.222	0.085
-348.464	-99.483	-0.168	0.042
-347.450	199.809	0.112	-0.172
-346.435	-200.000	-0.015	-0.282
-345.420	-200.000	-0.042	-0.230
-344.406	-200.000	-0.034	-0.205
-343.391	-200.000	-0.010	-0.175
-342.377	-142.809	-0.085	-0.008
-341.362	307.672	0.209	0.391
-340.348	-6.743	0.015	0.011
-339.333	-100.617	-0.216	-0.054
-338.318	-90.953	0.143	-0.041
-337.304	-77.177	0.074	-0.026
-336.289	800.000	-0.064	-0.198
-335.275	60.589	0.368	0.366
-334.260	-200.000	-0.016	-0.079
-333.245	238.881	0.061	0.102
-332.231	30.571	0.281	-0.241
-331.216	18.152	0.201	-0.160
-330.202	800.000	-0.087	-0.253
-329.187	-52.176	0.092	-0.043
-328.172	416.793	-0.036	-0.078
-327.158	800.000	-0.115	-0.323
-326.143	49.048	0.117	-0.110
-325.129	290.634	-0.154	0.281
-324.114	-200.000	-0.027	0.122
-323.099	-121.279	-0.368	-0.062
-322.085	19.853	0.029	0.024
-321.070	13.389	-0.256	-0.199
-320.056	-101.328	-0.254	-0.062
-319.041	-200.000	-0.005	-0.274
-318.026	438.727	0.134	0.293
-317.012	515.737	0.075	0.175
-315.997	-5.851	-0.238	-0.163
-314.983	-38.619	-0.125	-0.066
-313.968	223.664	-0.116	-0.187
-312.953	-100.627	0.145	0.036
-311.939	73.079	-0.061	0.064
-310.924	-12.361	0.119	0.078
-309.910	-200.000	-0.005	-0.096
-308.895	-75.871	-0.304	-0.108
-307.880	-107.986	0.116	-0.025
-306.866	190.146	-0.118	-0.177
-305.851	-94.006	-0.091	0.025
-304.837	800.000	0.020	-0.075
-303.822	237.738	0.079	0.131
-302.807	214.122	-0.198	0.314
-301.793	800.000	0.027	-0.084
-300.778	44.790	0.199	-0.184
-299.764	6.775	0.123	-0.092
-298.749	-200.000	0.053	0.344
-297.735	145.623	0.145	-0.194
-296.720	-115.365	0.234	-0.044
-295.705	448.073	-0.046	0.102
-294.691	-3.490	0.178	0.124
-293.676	-200.000	0.043	-0.251
-292.662	-176.154	0.243	-0.006
-291.647	-141.897	-0.706	0.071
-290.632	384.735	-0.132	-0.272
-289.618	531.407	0.135	0.320
-288.603	34.395	0.118	-0.103
-287.589	-200.000	-0.020	-0.131
-286.574	-200.000	-0.013	0.414
-285.559	34.970	0.126	0.111
-284.545	-13.202	0.251	-0.163
-283.530	-190.947	-0.237	-0.002
-282.516	-12.809	0.167	0.109
-281.501	-200.000	0.048	-0.455
-280.486	-200.000	-0.271	0.001
-279.472	-200.000	0.006	0.057
-278.457	-130.169	0.432	0.059
-277.443	104.806	-0.097	-0.115
-276.428	-85.628	-0.355	0.111
-275.413	-200.000	-0.049	0.474
-274.399	-28.380	0.144	-0.083
-273.384	671.084	-0.017	0.045
-272.370	-200.000	0.356	0.000
-271.355	223.915	0.198	-0.320
-270.340	-15.176	-0.180	-0.115
-269.326	16.583	0.208	-0.164
-268.311	-200.000	0.012	0.239
-267.297	54.408	-0.053	-0.051
-266.282	-133.462	-0.116	0.015
-265.267	-43.033	-0.100	0.051
-264.253	635.596	0.046	0.118
-263.238	435.673	0.053	0.116
-262.224	345.318	-0.197	0.387
-261.209	800.000	-0.102	-0.295
-260.195	70.136	0.039	0.040
-259.180	800.000	-0.080	-0.223
-258.165	-46.332	0.146	0.072
-257.151	800.000	-0.005	0.020
-256.136	-77.295	-0.395	0.138
-255.122	-172.066	0.300	0.010
-254.107	357.657	-0.052	0.104
-253.092	52.444	0.209	0.199
-252.078	-49.852	-0.162	0.077
-251.063	219.003	0.111	-0.177
-250.049	-200.000	0.026	0.262
-249.034	-200.000	-0.079	-0.478
-248.019	-103.805	-0.176	0.041
-247.005	14.355	0.399	0.311
-245.990	-57.713	-0.192	-0.084
-244.976	195.610	0.065	-0.099
-243.961	-200.000	-0.001	0.072
-242.946	-24.365	-0.163	-0.097
-241.932	-53.220	0.113	0.052
-240.917	5.197	-0.076	0.056
-239.903	-40.121	-0.175	0.091
-238.888	0.888	-0.116	0.083
-237.873	300.990	0.131	0.242
-236.859	-45.641	0.118	0.059
-235.844	-200.000	0.031	-0.322
-234.830	-78.714	-0.276	-0.094
-233.815	-47.959	0.235	0.114
-232.800	358.274	-0.151	0.301
-231.786	227.145	-0.062	-0.101
-230.771	31.082	-0.160	-0.138
-229.757	-121.095	-0.161	0.027
-228.742	219.598	0.059	0.095
-227.727	23.068	0.121	0.099
-226.713	-69.087	0.390	0.150
-225.698	-23.881	-0.085	0.051
-224.684	0.917	-0.298	0.214
-223.669	-61.391	-0.297	0.125
-222.655	-49.985	-0.186	-0.088
-221.640	-72.183	0.279	0.103
-220.625	98.850	-0.037	0.042
-219.611	-94.428	0.071	0.019
-218.596	147.080	-0.081	0.108
-217.582	57.227	-0.104	0.101
-216.567	177.499	0.085	-0.124
-215.552	9.590	-0.041	0.031
-214.538	-157.807	-0.043	0.003
-213.523	125.119	-0.170	-0.214
-212.509	81.736	-0.331	-0.358
-211.494	-100.953	0.188	-0.046
-210.479	298.099	-0.142	-0.260
-209.465	248.440	-0.074	-0.125
-208.450	-114.336	0.156	-0.030
-207.436	389.835	0.164	0.339
-206.421	-87.409	-0.228	0.069
-205.406	269.959	-0.089	-0.156
-204.392	-60.172	0.036	-0.015
-203.377	800.000	0.054	-0.218
-202.363	-97.472	0.297	0.077
-201.348	395.619	-0.149	0.310
-200.333	-126.583	0.199	-0.029
-199.319	-79.967	0.204	-0.068
-198.304	687.899	0.053	0.140
-197.290	-106.735	0.236	-0.052
-196.275	-200.000	0.001	-0.049
-195.260	-200.000	0.052	-0.453
-194.246	-200.000	0.002	-0.109
-193.231	301.469	-0.095	-0.175
-192.217	-130.308	-0.183	-0.025
-191.202	137.270	-0.063	0.082
-190.187	160.326	0.181	0.252
-189.173	-56.116	0.242	-0.107
-188.158	-200.000	-0.018	-0.098
-187.144	203.123	-0.130	0.201
-186.129	152.361	0.155	0.211
-185.114	274.604	-0.087	0.154
-184.100	736.547	0.114	-0.305
-183.085	800.000	-0.051	0.161
-182.071	384.752	-0.087	-0.180
-181.056	-117.240	-0.314	0.057
-180.042	204.071	0.104	-0.160
-179.027	21.453	-0.253	0.205
-178.012	-17.623	0.150	-0.094
-176.998	459.265	0.054	-0.120
-175.983	-200.000	0.059	-0.517
-174.969	-200.000	0.005	-0.281
-173.954	-54.940	-0.357	-0.160
-172.939	-144.155	0.223	-0.021
-171.925	800.000	0.073	0.258
-170.910	90.574	0.153	0.170
-169.896	-4.405	-0.275	-0.189
-168.881	-200.000	0.012	-0.169
-167.866	-200.000	0.011	-0.326
-166.852	800.000	-0.029	0.116
-165.837	-200.000	0.066	-0.328
-164.823	-155.052	0.302	0.020
-163.808	-200.000	0.040	0.277
-162.793	389.287	0.172	-0.356
-161.779	-200.000	0.021	0.092
-160.764	-140.027	-0.111	0.012
-159.750	-76.320	0.207	0.073
-158.735	-200.000	-0.018	0.371
-157.720	69.576	0.266	0.273
-156.706	721.209	0.008	0.020
-155.691	721.735	0.203	0.537
-154.677	-16.261	-0.094	0.059
-153.662	167.239	0.143	0.202
-152.647	-158.663	0.088	0.005
-151.633	381.677	0.073	0.150
-150.618	-31.036	0.142	-0.080
-149.604	800.000	0.074	-0.312
-148.589	-119.973	0.325	0.056
-147.574	-166.196	0.326	-0.014
-146.560	349.763	0.053	0.104
-145.545	-141.627	-0.035	-0.004
-144.531	-200.000	0.012	-0.204
-143.516	10.679	-0.052	-0.039
-142.502	-20.279	0.064	-0.039
-141.487	550.062	-0.128	0.305
-140.472	-82.023	0.345	-0.112
-139.458	-17.502	0.309	0.194
-138.443	569.664	0.057	0.138
-137.429	184.273	-0.187	-0.276
-136.414	-32.543	-0.157	-0.087
-135.399	-164.505	-0.279	0.013
-134.385	-11.038	0.150	0.099
-133.370	-200.000	0.001	-0.117
-132.356	-92.585	0.345	-0.096
-131.341	14.730	0.049	0.038
-130.326	-17.724	-0.361	-0.226
-129.312	800.000	0.029	-0.083
-128.297	-12.021	0.121	-0.079
-127.283	-200.000	0.004	0.066
-126.268	51.186	0.324	-0.306
-125.253	-200.000	0.030	-0.291
-124.239	-95.740	0.211	-0.056
-123.224	-200.000	-0.050	0.244
-122.210	-73.745	-0.240	0.087
-121.195	-200.000	-0.011	-0.262
