DTS Sentinel unit serial number:	SN413079Multiplexer serial number:	ORYXHardware model number:	OX4-SRSoftware version number:	ORYX F/W v4.00 Oryx Data Collector v3.7.2.0data status	okinstallation	princeton_trtdifferential loss correction	single-endedforward channel	channel 4reverse channel	N/Adate	2019/09/11time	15:59:11forward acquisition time	60.00reverse acquisition time	0.00gamma	496.2192k internal	0.2277k external	0.2277temperature offset calibration	1.0014default loss term (dB/km)	0.3790temperature slope calibration	1.0000multiplexer offset coefficient	1.0000multiplexer slope coefficient	1.0000fibre end	0.00T internal ref (°C)	43.05T ext. ref 1 (°C)	1.02T ext. ref 2 (°C)	38.31length (m)	temperature (°C)	Stokes	anti-Stokes-747.200	14.280	0.229	-0.184
-746.185	-200.000	0.010	0.077
-745.171	121.501	0.076	-0.097
-744.156	80.793	-0.077	-0.085
-743.142	800.000	0.042	-0.188
-742.127	800.000	0.062	0.244
-741.112	-200.000	-0.044	0.331
-740.098	800.000	0.143	0.477
-739.083	-200.000	-0.037	-0.469
-738.069	-40.935	-0.111	0.059
-737.054	-83.448	0.207	0.068
-736.039	-86.323	-0.266	-0.084
-735.025	800.000	-0.073	0.276
-734.010	705.443	-0.063	-0.171
-732.996	44.871	0.232	-0.220
-731.981	157.495	-0.168	-0.239
-730.966	-68.940	-0.224	0.089
-729.952	5.788	-0.294	-0.224
-728.937	-56.200	-0.202	0.093
-727.923	437.655	0.131	0.293
-726.908	-200.000	0.031	0.218
-725.894	174.842	0.082	0.122
-724.879	-200.000	-0.035	-0.261
-723.864	-120.593	-0.077	0.013
-722.850	800.000	-0.012	-0.037
-721.835	-70.465	-0.313	-0.122
-720.821	726.710	0.047	-0.130
-719.806	38.014	0.160	0.146
-718.791	-200.000	-0.023	-0.334
-717.777	30.521	0.220	-0.193
-716.762	-200.000	-0.026	0.409
-715.748	800.000	-0.092	0.324
-714.733	800.000	0.161	-0.535
-713.718	800.000	-0.087	0.261
-712.704	65.026	0.147	0.153
-711.689	-100.603	0.568	-0.144
-710.675	-155.426	0.233	0.016
-709.660	800.000	-0.058	0.182
-708.645	800.000	-0.113	-0.414
-707.631	143.892	0.142	0.194
-706.616	800.000	-0.071	0.318
-705.602	511.458	0.065	-0.156
-704.587	-200.000	0.090	-0.000
-703.572	-200.000	0.052	-0.344
-702.558	302.567	0.318	-0.606
-701.543	8.620	0.216	0.167
-700.529	800.000	0.063	-0.284
-699.514	-79.707	-0.309	0.107
-698.499	-5.239	-0.096	-0.068
-697.485	-130.406	-0.366	0.051
-696.470	457.757	0.092	-0.209
-695.456	88.222	0.061	-0.069
-694.441	-84.327	0.275	0.090
-693.426	-14.885	-0.084	0.056
-692.412	-200.000	-0.040	-0.211
-691.397	74.058	-0.252	0.271
-690.383	-200.000	-0.077	0.391
-689.368	138.318	0.105	-0.142
-688.354	-110.516	0.181	-0.039
-687.339	-117.362	-0.420	0.078
-686.324	-20.046	-0.051	0.032
-685.310	187.932	0.061	0.094
-684.295	-102.069	-0.138	-0.034
-683.281	105.364	-0.118	0.143
-682.266	-200.000	0.004	-0.129
-681.251	-200.000	-0.000	0.126
-680.237	137.355	-0.094	0.126
-679.222	-104.770	0.322	-0.076
-678.208	-1.877	-0.164	-0.118
-677.193	-92.773	-0.122	-0.035
-676.178	-61.430	0.112	-0.048
-675.164	-200.000	0.014	0.063
-674.149	64.507	0.131	-0.135
-673.135	-200.000	-0.054	0.311
-672.120	-68.159	-0.006	0.002
-671.105	88.934	-0.083	-0.095
-670.091	-200.000	-0.006	-0.156
-669.076	800.000	-0.057	0.201
-668.062	-125.371	-0.255	-0.040
-667.047	-23.455	-0.119	0.073
-666.032	-124.678	0.308	-0.049
-665.018	-200.000	-0.021	0.193
-664.003	800.000	-0.038	-0.154
-662.989	126.926	0.057	0.074
-661.974	800.000	0.087	-0.276
-660.959	-159.122	0.149	-0.009
-659.945	531.751	-0.065	-0.158
-658.930	-200.000	-0.018	-0.202
-657.916	-162.746	0.342	0.017
-656.901	209.282	-0.088	0.141
-655.886	231.401	0.241	-0.405
-654.872	-45.800	0.032	-0.016
-653.857	335.274	-0.125	0.249
-652.843	261.057	-0.095	0.169
-651.828	-101.506	-0.234	0.058
-650.814	35.344	-0.136	-0.123
-649.799	127.840	0.265	-0.345
-648.784	-108.532	0.348	0.077
-647.770	460.142	0.094	-0.215
-646.755	-87.157	-0.226	0.070
-645.741	-79.122	0.155	-0.054
-644.726	-95.049	-0.324	0.090
-643.711	800.000	-0.020	-0.082
-642.697	-76.439	0.284	-0.103
-641.682	-30.807	-0.109	-0.063
-640.668	800.000	0.056	-0.163
-639.653	24.042	0.316	-0.268
-638.638	66.048	0.303	-0.316
-637.624	48.520	-0.214	-0.206
-636.609	800.000	-0.108	-0.452
-635.595	-30.506	0.215	-0.125
-634.580	-27.025	0.196	0.117
-633.565	15.248	-0.190	-0.153
-632.551	-200.000	-0.018	0.236
-631.536	86.475	-0.080	0.090
-630.522	109.187	0.184	-0.226
-629.507	-145.751	-0.347	-0.032
-628.492	-200.000	-0.006	0.333
-627.478	-121.635	-0.255	-0.043
-626.463	-174.580	0.131	0.004
-625.449	-36.890	0.318	0.175
-624.434	-76.025	0.260	-0.094
-623.419	-14.067	-0.139	0.092
-622.405	-42.174	-0.275	0.144
-621.390	-121.798	0.296	0.050
-620.376	146.652	0.047	0.064
-619.361	-26.803	-0.265	0.159
-618.346	-152.011	0.084	-0.006
-617.332	196.996	-0.193	-0.301
-616.317	800.000	0.025	0.073
-615.303	57.753	-0.169	-0.169
-614.288	-55.697	0.184	-0.084
-613.273	247.733	0.072	-0.124
-612.259	-23.175	0.099	0.061
-611.244	1.400	-0.096	0.071
-610.230	-95.540	0.294	-0.081
-609.215	269.852	-0.057	-0.103
-608.201	-120.231	-0.244	-0.043
-607.186	-115.704	-0.288	0.055
-606.171	38.025	-0.076	-0.069
-605.157	-50.812	-0.380	-0.183
-604.142	-93.715	-0.051	-0.014
-603.128	1.251	-0.221	0.162
-602.113	-118.547	-0.319	-0.058
-601.098	491.821	0.033	0.077
-600.084	100.707	-0.205	0.245
-599.069	-79.144	-0.161	-0.056
-598.055	800.000	0.066	-0.212
-597.040	-77.932	0.100	-0.035
-596.025	-28.345	0.349	0.206
-595.011	-200.000	0.060	-0.300
-593.996	-49.292	-0.345	0.169
-592.982	800.000	0.054	0.217
-591.967	451.408	-0.072	0.164
-590.952	-200.000	-0.000	-0.159
-589.938	-26.398	0.030	0.018
-588.923	-158.892	0.122	0.007
-587.909	800.000	0.023	0.102
-586.894	350.680	-0.180	0.365
-585.879	42.832	-0.181	0.169
-584.865	28.047	0.251	-0.217
-583.850	-1.844	0.116	-0.084
-582.836	-8.120	-0.340	-0.235
-581.821	-200.000	0.055	-0.255
-580.806	-111.976	-0.146	-0.030
-579.792	138.850	0.164	0.221
-578.777	-71.412	0.176	-0.067
-577.763	-10.352	-0.041	0.028
-576.748	-70.645	-0.212	0.082
-575.733	-44.079	-0.278	-0.143
-574.719	-80.951	-0.096	0.033
-573.704	-33.372	-0.315	-0.179
-572.690	-60.508	0.191	-0.083
-571.675	-83.043	0.157	-0.052
-570.661	36.693	0.143	0.129
-569.646	-142.510	0.103	0.010
-568.631	-200.000	-0.001	0.015
-567.617	74.801	0.154	-0.166
-566.602	-200.000	-0.016	0.273
-565.588	-50.459	0.164	-0.079
-564.573	-68.764	-0.175	-0.069
-563.558	-52.357	-0.048	0.023
-562.544	-21.946	-0.079	0.049
-561.529	-82.699	-0.160	-0.053
-560.515	800.000	0.034	0.132
-559.500	-104.910	-0.100	0.024
-558.485	-200.000	-0.017	-0.087
-557.471	-200.000	0.045	0.336
-556.456	-25.149	0.359	0.218
-555.442	-200.000	0.012	-0.377
-554.427	118.809	-0.076	-0.097
-553.412	-77.568	-0.574	-0.203
-552.398	-116.419	-0.339	-0.064
-551.383	800.000	0.068	-0.263
-550.369	75.861	0.095	0.103
-549.354	-42.294	0.156	0.081
-548.339	121.830	0.335	-0.427
-547.325	-19.052	-0.122	-0.078
-546.310	470.489	-0.060	-0.139
-545.296	203.693	0.159	-0.252
-544.281	4.804	0.272	-0.204
-543.266	-196.599	-0.068	-0.000
-542.252	-112.400	-0.077	-0.016
-541.237	-36.257	-0.263	-0.145
-540.223	42.786	-0.297	0.277
-539.208	137.942	-0.144	0.193
-538.193	-2.581	-0.183	0.131
-537.179	-135.520	0.209	0.025
-536.164	161.681	-0.112	0.161
-535.150	45.778	-0.102	0.096
-534.135	-157.149	0.334	-0.021
-533.121	-7.946	0.206	0.142
-532.106	-18.155	-0.259	0.166
-531.091	-41.291	-0.079	-0.042
-530.077	-65.315	-0.185	0.076
-529.062	540.121	-0.036	-0.086
-528.048	450.436	-0.112	-0.252
-527.033	-122.152	0.241	0.040
-526.018	48.102	0.161	0.154
-525.004	-200.000	-0.113	0.000
-523.989	12.645	0.153	-0.121
-522.975	11.125	-0.175	-0.137
-521.960	-38.126	-0.109	0.059
-520.945	104.238	0.088	-0.106
-519.931	-50.241	0.249	0.120
-518.916	-200.000	0.017	0.230
-517.902	-114.893	-0.330	0.064
-516.887	101.981	-0.283	0.338
-515.872	-47.863	0.034	-0.017
-514.858	-200.000	-0.007	-0.253
-513.843	800.000	0.041	0.120
-512.829	800.000	-0.097	0.308
-511.814	-200.000	-0.049	0.242
-510.799	61.057	-0.103	-0.105
-509.785	145.302	0.078	0.107
-508.770	-67.796	0.252	0.101
-507.756	-68.877	0.171	0.068
-506.741	-92.849	0.225	0.064
-505.726	184.555	0.192	0.290
-504.712	-42.254	-0.135	0.070
-503.697	41.981	0.178	0.165
-502.683	-96.385	0.104	0.028
-501.668	225.607	-0.098	-0.163
-500.653	139.343	-0.080	0.108
-499.639	45.187	-0.253	0.238
-498.624	82.125	0.068	0.075
-497.610	-118.563	0.205	0.037
-496.595	2.533	0.176	0.130
-495.581	-34.945	-0.097	0.054
-494.566	800.000	-0.032	-0.135
-493.551	-200.000	-0.046	0.558
-492.537	-182.128	0.169	0.003
-491.522	800.000	-0.045	-0.137
-490.508	-157.636	-0.333	0.020
-489.493	-120.165	-0.223	0.039
-488.478	217.931	-0.159	0.258
-487.464	553.944	-0.040	-0.099
-486.449	-200.000	-0.032	0.246
-485.435	-27.486	0.286	0.170
-484.420	-97.933	-0.011	-0.003
-483.405	9.167	-0.285	-0.219
-482.391	-74.223	0.074	0.027
-481.376	169.034	0.083	0.120
-480.362	800.000	-0.060	-0.249
-479.347	27.179	0.354	0.303
-478.332	800.000	-0.049	-0.189
-477.318	35.200	0.107	-0.095
-476.303	-176.531	0.317	-0.008
-475.289	-97.969	0.251	-0.066
-474.274	0.917	-0.062	-0.046
-473.259	46.288	0.225	-0.212
-472.245	-97.995	0.123	-0.032
-471.230	-200.000	-0.005	-0.061
-470.216	47.710	-0.164	0.156
-469.201	-20.198	-0.188	-0.118
-468.186	-200.000	-0.010	0.166
-467.172	115.995	0.056	-0.070
-466.157	138.461	-0.087	-0.116
-465.143	-200.000	-0.001	-0.039
-464.128	44.267	0.085	-0.079
-463.113	-86.866	-0.100	-0.031
-462.099	-109.040	0.048	-0.010
-461.084	788.037	-0.027	-0.076
-460.070	95.464	-0.199	-0.231
-459.055	-166.240	-0.393	-0.017
-458.040	174.000	-0.041	0.060
-457.026	244.042	-0.131	-0.225
-456.011	258.168	0.126	-0.221
-454.997	-151.854	-0.069	0.005
-453.982	-13.772	-0.304	-0.200
-452.968	292.336	0.105	0.194
-451.953	49.558	-0.065	0.062
-450.938	-14.137	-0.172	0.113
-449.924	-200.000	-0.059	-0.343
-448.909	4.230	0.353	-0.263
-447.895	110.158	0.253	-0.309
-446.880	279.947	0.242	0.439
-445.865	-152.553	0.048	0.004
-444.851	-200.000	-0.022	-0.100
-443.836	137.411	0.099	0.132
-442.822	-34.985	0.196	-0.109
-441.807	-200.000	-0.029	-0.225
-440.792	287.914	-0.133	0.245
-439.778	-93.137	-0.278	0.079
-438.763	800.000	-0.082	-0.281
-437.749	-200.000	-0.040	0.196
-436.734	-17.988	0.033	0.021
-435.719	267.802	0.206	-0.368
-434.705	34.117	-0.119	-0.106
-433.690	47.694	0.190	0.180
-432.676	184.245	0.145	-0.219
-431.661	-150.371	-0.361	-0.028
-430.646	73.159	0.211	-0.225
-429.632	-91.767	-0.138	0.040
-428.617	800.000	0.046	0.134
-427.603	-200.000	-0.061	0.614
-426.588	489.653	0.078	0.182
-425.573	-21.676	-0.167	-0.104
-424.559	-88.510	0.409	0.124
-423.544	386.677	0.065	-0.137
-422.530	45.595	-0.209	-0.196
-421.515	-200.000	0.015	0.124
-420.500	-200.000	-0.008	-0.184
-419.486	5.193	0.170	-0.128
-418.471	-4.003	0.120	-0.085
-417.457	163.999	0.029	-0.041
-416.442	-76.171	-0.230	-0.083
-415.428	24.049	-0.349	0.293
-414.413	-63.557	-0.126	0.053
-413.398	222.288	0.192	-0.315
-412.384	-40.971	-0.199	-0.105
-411.369	800.000	-0.052	0.198
-410.355	-109.517	-0.133	0.029
-409.340	148.346	-0.101	0.138
-408.325	800.000	0.033	0.097
-407.311	-99.443	0.299	-0.077
-406.296	-200.000	-0.056	0.259
-405.282	800.000	-0.098	0.307
-404.267	-100.833	-0.088	0.022
-403.252	-112.684	0.089	-0.018
-402.238	266.044	0.203	-0.361
-401.223	137.471	0.290	-0.385
-400.209	45.360	-0.205	-0.192
-399.194	203.352	0.111	-0.174
-398.179	156.545	-0.072	0.101
-397.165	-200.000	0.010	-0.142
-396.150	-200.000	0.016	0.150
-395.136	358.630	-0.036	0.072
-394.121	-200.000	0.012	0.132
-393.106	-52.233	0.219	0.103
-392.092	-200.000	0.003	-0.283
-391.077	152.962	0.115	0.160
-390.063	800.000	-0.112	0.420
-389.048	-148.826	-0.170	-0.014
-388.033	-26.684	-0.193	-0.115
-387.019	89.714	0.095	0.107
-386.004	-200.000	-0.001	0.103
-384.990	-131.126	-0.005	0.001
-383.975	59.358	-0.133	0.134
-382.960	1.162	-0.293	0.214
-381.946	150.300	0.122	0.168
-380.931	800.000	0.031	-0.113
-379.917	-113.489	0.120	0.024
-378.902	350.270	0.183	0.367
-377.888	-71.907	0.152	-0.057
-376.873	-22.296	-0.354	0.218
-375.858	-108.440	0.372	0.081
-374.844	32.661	-0.260	0.229
-373.829	2.275	0.075	-0.055
-372.815	104.221	-0.065	-0.078
-371.800	-58.812	-0.200	0.088
-370.785	-110.719	-0.117	-0.024
-369.771	-200.000	0.012	0.169
-368.756	132.160	0.091	-0.119
-367.742	-53.400	-0.142	-0.066
-366.727	800.000	0.092	0.275
-365.712	202.057	0.132	0.206
-364.698	81.057	-0.169	0.185
-363.683	800.000	-0.120	0.389
-362.669	56.418	0.134	-0.132
-361.654	800.000	-0.041	-0.116
-360.639	-200.000	-0.021	-0.127
-359.625	-73.238	0.202	-0.075
-358.610	56.834	0.133	0.131
-357.596	-110.100	-0.187	-0.040
-356.581	266.087	0.067	0.119
-355.566	149.697	-0.041	-0.056
-354.552	498.262	0.032	0.074
-353.537	-17.023	0.361	-0.231
-352.523	83.857	0.098	0.108
-351.508	190.383	-0.136	0.208
-350.493	240.533	-0.064	0.108
-349.479	266.773	-0.058	-0.103
-348.464	-200.000	0.026	0.205
-347.450	-104.634	0.155	-0.036
-346.435	-28.132	-0.052	-0.030
-345.420	-166.202	0.245	0.010
-344.406	35.731	0.227	0.202
-343.391	72.142	-0.148	-0.156
-342.377	307.580	0.076	-0.144
-341.362	-151.668	-0.400	-0.030
-340.348	800.000	0.101	0.390
-339.333	-71.987	0.113	0.042
-338.318	-200.000	0.029	-0.215
-337.304	215.498	0.121	-0.195
-336.289	714.123	-0.012	-0.032
-335.275	18.368	0.006	0.005
-334.260	84.811	-0.121	0.134
-333.245	2.240	-0.251	0.184
-332.231	-200.000	-0.004	0.337
-331.216	-200.000	-0.033	0.234
-330.202	121.717	0.154	-0.195
-329.187	800.000	0.065	0.212
-328.172	-184.861	0.407	-0.007
-327.158	194.093	-0.067	0.103
-326.143	-200.000	0.030	0.200
-325.129	800.000	-0.045	-0.174
-324.114	450.672	0.076	0.171
-323.099	-200.000	-0.008	0.156
-322.085	-81.802	-0.272	0.090
-321.070	-3.911	0.096	-0.068
-320.056	688.596	0.070	-0.185
-319.041	800.000	0.132	-0.377
-318.026	161.091	0.076	0.107
-317.012	-200.000	0.020	-0.365
-315.997	800.000	0.008	0.031
-314.983	-200.000	0.017	-0.213
-313.968	-200.000	0.000	-0.089
-312.953	-74.247	-0.107	-0.039
-311.939	800.000	0.025	-0.084
-310.924	-200.000	0.051	0.278
-309.910	-85.512	-0.400	0.126
-308.895	531.094	0.093	-0.223
-307.880	-42.675	0.243	0.125
-306.866	-120.928	0.086	-0.015
-305.851	-200.000	0.047	-0.320
-304.837	-167.816	0.190	-0.008
-303.822	255.809	0.109	-0.190
-302.807	800.000	-0.070	-0.287
-301.793	-136.530	0.129	-0.015
-300.778	-200.000	-0.000	-0.057
-299.764	-72.344	-0.221	-0.083
-298.749	133.269	-0.036	0.047
-297.735	-189.094	0.133	0.002
-296.720	800.000	-0.035	-0.099
-295.705	-31.933	-0.417	-0.236
-294.691	-58.322	0.109	-0.048
-293.676	-200.000	0.012	-0.184
-292.662	7.916	-0.063	-0.048
-291.647	-108.619	0.123	0.027
-290.632	-40.990	0.158	-0.083
-289.618	115.879	-0.050	0.062
-288.603	-30.740	-0.213	0.122
-287.589	-200.000	-0.058	-0.640
-286.574	-67.596	-0.235	-0.093
-285.559	104.669	-0.114	0.136
-284.545	70.664	0.177	0.185
-283.530	30.374	-0.036	-0.031
-282.516	-45.907	-0.320	-0.160
-281.501	216.441	0.087	-0.140
-280.486	-145.087	0.250	-0.023
-279.472	39.514	0.178	0.162
-278.457	-160.637	0.176	0.009
-277.443	-39.395	-0.081	-0.043
-276.428	792.352	-0.076	-0.211
-275.413	8.450	-0.045	-0.034
-274.399	-54.596	0.240	0.110
-273.384	-18.334	-0.043	0.027
-272.370	84.092	0.154	0.170
-271.355	-97.983	0.349	-0.091
-270.340	800.000	-0.054	0.182
-269.326	47.454	-0.185	-0.174
-268.311	189.086	-0.111	-0.168
-267.297	31.890	-0.282	0.246
-266.282	-200.000	0.007	0.340
-265.267	800.000	-0.072	-0.292
-264.253	271.841	0.068	-0.122
-263.238	800.000	-0.008	-0.025
-262.224	-67.285	-0.155	0.061
-261.209	29.692	0.055	0.047
-260.195	199.179	-0.093	-0.144
-259.180	-200.000	0.008	-0.107
-258.165	84.820	0.174	0.193
-257.151	-51.469	0.295	0.139
-256.136	253.712	-0.263	-0.454
-255.122	-200.000	-0.006	0.043
-254.107	800.000	0.137	0.451
-253.092	800.000	0.044	-0.132
-252.078	-94.209	0.180	0.050
-251.063	-46.786	0.120	-0.059
-250.049	56.122	-0.133	-0.131
-249.034	800.000	0.103	-0.320
-248.019	-44.594	0.313	0.158
-247.005	159.971	0.214	0.301
-245.990	-160.687	0.256	0.014
-244.976	-200.000	0.021	0.238
-243.961	-151.968	0.233	-0.017
-242.946	-46.156	0.183	0.091
-241.932	-200.000	-0.029	0.287
-240.917	97.862	-0.112	-0.130
-239.903	-66.852	0.188	-0.075
-238.888	-113.461	-0.156	-0.031
-237.873	800.000	0.106	-0.307
-236.859	-200.000	0.003	-0.069
-235.844	-200.000	-0.071	0.314
-234.830	163.685	0.245	0.349
-233.815	373.289	-0.073	0.150
-232.800	-186.401	-0.294	0.004
-231.786	-200.000	0.004	0.097
-230.771	438.292	0.068	0.150
-229.757	-200.000	-0.028	-0.294
-228.742	800.000	-0.099	0.318
-227.727	-200.000	0.022	0.233
-226.713	-37.924	0.134	-0.072
-225.698	-97.027	-0.321	-0.085
-224.684	-200.000	-0.023	-0.186
-223.669	-26.385	0.170	0.100
-222.655	-95.003	0.319	-0.087
-221.640	800.000	-0.096	-0.367
-220.625	119.612	-0.230	0.287
-219.611	-200.000	0.011	-0.182
-218.596	-75.538	-0.138	-0.050
-217.582	262.726	-0.175	0.307
-216.567	-109.029	-0.202	0.043
-215.552	-200.000	0.052	0.446
-214.538	-132.127	0.138	-0.018
-213.523	620.346	-0.076	-0.194
-212.509	800.000	-0.005	-0.018
-211.494	-200.000	-0.036	-0.189
-210.479	267.103	-0.058	0.103
-209.465	78.295	-0.211	0.227
-208.450	-106.841	0.259	0.058
-207.436	-200.000	-0.020	-0.195
-206.421	21.017	-0.373	-0.305
-205.406	108.801	-0.099	-0.119
-204.392	49.475	0.214	-0.203
-203.377	145.641	-0.283	-0.382
-202.363	800.000	0.076	0.242
-201.348	-152.137	-0.018	0.001
-200.333	488.765	0.044	0.100
-199.319	496.717	0.047	0.109
-198.304	-145.759	-0.221	-0.020
-197.290	-108.190	-0.198	-0.043
-196.275	-152.587	-0.230	0.017
-195.260	-200.000	0.025	-0.192
-194.246	-200.000	0.019	0.413
-193.231	-200.000	-0.039	0.274
-192.217	800.000	0.015	0.056
-191.202	67.623	-0.083	0.085
-190.187	132.163	0.062	-0.080
-189.173	-43.112	0.289	-0.148
-188.158	-106.460	0.268	-0.060
-187.144	-132.892	-0.091	0.012
-186.129	42.991	-0.026	0.024
-185.114	-2.868	-0.272	0.192
-184.100	22.647	-0.377	-0.311
-183.085	-200.000	-0.003	-0.106
-182.071	-200.000	-0.037	-0.299
-181.056	800.000	0.076	0.260
-180.042	800.000	0.114	-0.401
-179.027	-65.402	0.126	-0.051
-178.012	-156.584	0.284	0.018
-176.998	7.620	0.129	-0.097
-175.983	-61.360	-0.202	0.086
-174.969	800.000	-0.088	0.289
-173.954	-200.000	-0.035	-0.199
-172.939	18.901	0.316	-0.255
-171.925	331.006	0.090	0.175
-170.910	230.358	0.061	-0.101
-169.896	60.040	-0.227	0.226
-168.881	6.622	-0.039	-0.029
-167.866	71.161	-0.098	-0.102
-166.852	800.000	-0.074	0.237
-165.837	-200.000	-0.042	-0.236
-164.823	-41.331	0.203	0.105
-163.808	2.659	0.071	0.052
-162.793	-49.454	-0.163	-0.078
-161.779	-92.259	-0.291	-0.083
-160.764	450.960	0.091	0.202
-159.750	-139.056	0.416	-0.045
-158.735	-145.033	0.240	0.022
-157.720	-200.000	-0.001	-0.007
-156.706	27.765	0.247	0.209
-155.691	800.000	-0.056	-0.205
-154.677	800.000	-0.079	0.266
-153.662	800.000	-0.019	0.065
-152.647	320.041	0.147	-0.281
-151.633	-162.737	-0.093	0.005
-150.618	-200.000	0.170	0.001
-149.604	-10.663	0.066	-0.044
-148.589	111.946	0.144	-0.176
-147.574	-95.290	0.065	-0.018
-146.560	-0.428	0.362	-0.259
-145.545	800.000	0.045	-0.189
-144.531	432.528	-0.051	0.111
-143.516	554.646	-0.060	0.144
-142.502	21.097	-0.263	0.215
-141.487	50.463	-0.286	-0.272
-140.472	19.169	-0.240	-0.194
-139.458	-184.014	0.397	-0.007
-138.443	-200.000	0.014	0.277
-137.429	800.000	-0.083	-0.279
-136.414	40.850	0.168	-0.152
-135.399	-200.000	-0.022	0.238
-134.385	91.048	0.041	-0.046
-133.370	-200.000	0.002	0.405
-132.356	-0.657	0.097	-0.069
-131.341	800.000	0.124	0.395
-130.326	547.617	-0.075	0.182
-129.312	-10.238	-0.297	0.198
-128.297	-200.000	0.225	0.001
-127.283	-62.508	-0.137	-0.057
-126.268	-100.838	0.247	0.061
-125.253	-200.000	0.019	0.162
-124.239	800.000	-0.010	0.027
-123.224	-200.000	0.005	0.306
-122.210	-67.050	0.213	0.084
-121.195	-128.968	0.094	-0.013
