DTS Sentinel unit serial number:	SN413079Multiplexer serial number:	ORYXHardware model number:	OX4-SRSoftware version number:	ORYX F/W v4.00 Oryx Data Collector v3.7.2.0data status	okinstallation	princeton_trtdifferential loss correction	single-endedforward channel	channel 4reverse channel	N/Adate	2019/09/11time	06:03:10forward acquisition time	60.00reverse acquisition time	0.00gamma	496.2192k internal	0.2316k external	0.2316temperature offset calibration	0.9944default loss term (dB/km)	0.3790temperature slope calibration	1.0000multiplexer offset coefficient	1.0000multiplexer slope coefficient	1.0000fibre end	0.00T internal ref (°C)	29.44T ext. ref 1 (°C)	-0.22T ext. ref 2 (°C)	23.61length (m)	temperature (°C)	Stokes	anti-Stokes-747.200	-28.262	0.353	0.207
-746.185	302.832	0.142	-0.267
-745.171	-3.620	-0.263	0.185
-744.156	782.985	-0.095	0.264
-743.142	-200.000	0.012	0.343
-742.127	-159.194	-0.242	-0.014
-741.112	-200.000	-0.024	0.582
-740.098	109.733	-0.322	0.391
-739.083	19.041	0.085	-0.069
-738.069	36.271	-0.099	0.088
-737.054	-11.591	-0.135	-0.090
-736.039	-153.630	-0.252	0.018
-735.025	-200.000	0.024	-0.155
-734.010	-25.762	-0.167	-0.100
-732.996	9.715	-0.146	-0.112
-731.981	-200.000	0.047	-0.320
-730.966	800.000	-0.066	0.223
-729.952	67.518	-0.111	0.115
-728.937	246.266	0.196	-0.334
-727.923	-200.000	-0.084	0.374
-726.908	286.906	-0.060	-0.109
-725.894	26.989	0.114	0.097
-724.879	-200.000	-0.020	0.128
-723.864	-39.611	-0.179	-0.095
-722.850	-10.480	0.189	-0.127
-721.835	-152.778	0.153	-0.011
-720.821	-100.215	0.231	0.058
-719.806	-136.506	-0.199	-0.023
-718.791	-200.000	-0.082	-0.607
-717.777	51.223	-0.180	-0.173
-716.762	21.921	0.159	0.131
-715.748	213.705	-0.249	-0.398
-714.733	332.972	-0.053	-0.103
-713.718	-11.009	0.186	-0.124
-712.704	-0.518	-0.122	0.088
-711.689	-100.786	0.306	0.076
-710.675	447.575	-0.051	-0.114
-709.660	-118.808	0.153	0.027
-708.645	59.615	-0.287	-0.286
-707.631	-72.326	-0.073	0.027
-706.616	32.784	0.166	-0.145
-705.602	303.527	-0.217	-0.407
-704.587	-200.000	0.000	0.102
-703.572	-200.000	0.001	-0.146
-702.558	206.629	0.059	-0.094
-701.543	57.862	0.165	0.164
-700.529	800.000	0.141	-0.401
-699.514	78.476	-0.277	0.299
-698.499	-164.634	0.133	0.006
-697.485	-48.074	0.142	-0.069
-696.470	-200.000	0.002	0.010
-695.456	576.696	-0.051	-0.127
-694.441	29.628	0.271	-0.233
-693.426	-140.415	0.595	0.063
-692.412	129.491	-0.108	-0.139
-691.397	-200.000	-0.006	0.144
-690.383	-88.653	-0.319	0.096
-689.368	16.658	-0.188	-0.151
-688.354	-80.194	-0.170	-0.058
-687.339	-150.803	-0.469	0.036
-686.324	-39.410	0.086	0.045
-685.310	126.034	0.292	-0.373
-684.295	377.436	0.070	-0.145
-683.281	-111.880	-0.202	0.041
-682.266	-123.483	-0.206	-0.033
-681.251	473.609	-0.091	0.207
-680.237	181.116	0.057	0.084
-679.222	-16.434	0.354	-0.227
-678.208	47.224	0.224	-0.210
-677.193	81.146	0.040	0.043
-676.178	800.000	0.077	-0.332
-675.164	432.940	0.115	-0.251
-674.149	253.919	-0.145	-0.251
-673.135	-200.000	0.028	0.185
-672.120	800.000	-0.034	0.137
-671.105	-10.101	-0.191	-0.128
-670.091	800.000	-0.068	-0.219
-669.076	33.388	0.064	-0.056
-668.062	-26.977	0.190	0.112
-667.047	484.204	-0.035	-0.081
-666.032	800.000	0.051	-0.165
-665.018	-14.258	0.170	0.111
-664.003	71.125	0.229	-0.240
-662.989	91.476	0.181	-0.205
-661.974	18.568	0.159	-0.128
-660.959	420.425	-0.056	-0.120
-659.945	151.139	-0.096	0.132
-658.930	177.955	-0.095	-0.139
-657.916	800.000	0.064	-0.184
-656.901	18.048	-0.115	0.092
-655.886	769.303	-0.087	-0.238
-654.872	-200.000	0.025	-0.157
-653.857	-200.000	0.030	-0.279
-652.843	-172.967	-0.621	0.019
-651.828	-22.394	0.321	0.196
-650.814	-137.501	0.216	-0.025
-649.799	-16.521	-0.244	-0.156
-648.784	-200.000	-0.003	0.022
-647.770	800.000	-0.019	-0.072
-646.755	118.742	0.276	0.344
-645.741	-200.000	0.011	0.163
-644.726	117.079	0.125	0.154
-643.711	-200.000	0.003	0.031
-642.697	800.000	0.051	0.183
-641.682	200.959	0.048	0.074
-640.668	-31.837	0.207	0.117
-639.653	-200.000	0.002	-0.008
-638.638	-200.000	-0.038	-0.219
-637.624	130.103	0.348	-0.450
-636.609	-149.900	0.053	-0.004
-635.595	106.660	-0.089	-0.106
-634.580	800.000	0.033	-0.117
-633.565	674.605	0.085	0.223
-632.551	113.228	-0.275	-0.337
-631.536	-44.816	0.195	0.098
-630.522	800.000	-0.106	0.311
-629.507	800.000	-0.017	-0.067
-628.492	-46.307	-0.104	-0.052
-627.478	800.000	0.059	-0.166
-626.463	65.421	-0.100	-0.102
-625.449	-200.000	0.006	-0.137
-624.434	308.218	0.147	-0.276
-623.419	-200.000	0.082	-0.426
-622.405	-35.115	-0.164	-0.090
-621.390	74.866	-0.134	-0.142
-620.376	25.730	-0.204	-0.172
-619.361	-58.101	0.122	0.054
-618.346	243.564	0.144	0.243
-617.332	97.398	-0.381	0.441
-616.317	-117.968	0.203	-0.037
-615.303	-69.313	-0.129	0.050
-614.288	719.990	-0.073	0.196
-613.273	395.108	-0.148	0.311
-612.259	800.000	-0.029	0.121
-611.244	-127.618	0.151	0.022
-610.230	-50.221	0.248	-0.118
-609.215	-200.000	0.032	-0.212
-608.201	-100.949	0.163	-0.040
-607.186	-114.192	-0.280	0.055
-606.171	-41.505	-0.207	0.107
-605.157	800.000	-0.027	0.111
-604.142	-161.818	-0.132	0.007
-603.128	-200.000	-0.014	0.252
-602.113	-200.000	-0.005	-0.110
-601.098	147.545	-0.141	-0.191
-600.084	-51.227	0.141	0.067
-599.069	-136.616	-0.345	-0.040
-598.055	14.873	0.145	0.114
-597.040	19.772	-0.240	-0.195
-596.025	-200.000	-0.026	-0.283
-595.011	-42.273	0.188	-0.096
-593.996	213.490	0.136	-0.217
-592.982	227.109	-0.158	0.258
-591.967	704.778	-0.091	0.243
-590.952	-200.000	-0.009	-0.259
-589.938	-200.000	0.019	-0.127
-588.923	190.971	0.176	-0.267
-587.909	368.728	-0.125	0.255
-586.894	264.387	-0.065	0.114
-585.879	740.982	-0.130	0.352
-584.865	0.939	0.170	0.122
-583.850	-97.268	0.140	0.037
-582.836	152.384	-0.030	0.041
-581.821	32.764	-0.077	-0.067
-580.806	800.000	0.055	0.166
-579.792	565.928	-0.195	0.477
-578.777	336.474	-0.125	-0.245
-577.763	800.000	0.032	-0.103
-576.748	-21.886	-0.077	0.047
-575.733	800.000	0.042	0.120
-574.719	800.000	-0.044	-0.165
-573.704	326.371	-0.136	-0.261
-572.690	73.566	-0.173	0.182
-571.675	84.768	0.089	0.098
-570.661	800.000	0.055	-0.178
-569.646	-105.902	0.081	-0.018
-568.631	67.836	-0.169	0.174
-567.617	-159.500	0.183	-0.010
-566.602	-5.017	-0.083	0.057
-565.588	439.132	0.140	-0.306
-564.573	-200.000	0.012	-0.230
-563.558	-68.341	0.351	-0.137
-562.544	11.746	0.188	-0.145
-561.529	-120.135	-0.183	-0.031
-560.515	3.838	0.115	-0.085
-559.500	-80.743	-0.237	-0.079
-558.485	-8.608	-0.101	0.068
-557.471	509.257	-0.150	0.351
-556.456	-4.606	0.229	-0.159
-555.442	800.000	-0.125	-0.441
-554.427	-39.271	-0.248	-0.131
-553.412	-173.860	0.123	0.004
-552.398	-62.557	-0.261	-0.109
-551.383	-8.795	0.206	-0.139
-550.369	76.286	-0.313	-0.333
-549.354	-195.214	0.240	-0.002
-548.339	-142.301	0.360	-0.036
-547.325	300.400	0.058	-0.108
-546.310	-118.692	0.245	-0.043
-545.296	-11.559	-0.182	0.120
-544.281	-200.000	0.016	-0.177
-543.266	-29.538	0.157	0.090
-542.252	200.404	-0.166	0.256
-541.237	-200.000	-0.030	0.148
-540.223	53.361	0.276	0.266
-539.208	-180.898	-0.137	0.003
-538.193	98.181	-0.222	0.257
-537.179	-96.700	0.253	0.067
-536.164	94.088	-0.190	-0.217
-535.150	-2.040	-0.126	0.089
-534.135	81.559	-0.275	-0.298
-533.121	-137.777	0.380	0.043
-532.106	690.071	-0.071	0.186
-531.091	-200.000	0.012	-0.113
-530.077	-28.351	-0.221	0.128
-529.062	232.171	0.117	-0.194
-528.048	-169.392	-0.289	-0.011
-527.033	46.081	0.066	-0.061
-526.018	-95.606	0.395	-0.106
-525.004	779.789	-0.095	0.262
-523.989	-56.216	0.312	0.139
-522.975	124.231	0.148	0.187
-521.960	377.796	-0.031	-0.063
-520.945	-61.979	-0.132	0.055
-519.931	98.895	0.123	0.143
-518.916	541.560	0.037	0.088
-517.902	-95.128	0.345	0.094
-516.887	800.000	0.051	-0.196
-515.872	61.053	-0.194	-0.193
-514.858	-177.873	0.171	0.004
-513.843	-200.000	-0.020	0.172
-512.829	-200.000	-0.013	0.071
-511.814	-66.513	-0.305	-0.121
-510.799	800.000	0.058	0.183
-509.785	-41.575	0.173	-0.089
-508.770	-19.805	0.160	-0.099
-507.756	55.759	0.107	-0.104
-506.741	8.330	0.160	0.121
-505.726	-200.000	-0.312	-0.000
-504.712	32.627	-0.122	0.106
-503.697	61.008	-0.055	-0.054
-502.683	211.757	0.129	0.204
-501.668	-200.000	-0.036	-0.350
-500.653	8.833	0.192	0.145
-499.639	-140.333	-0.291	-0.031
-498.624	92.959	-0.200	-0.226
-497.610	103.624	0.156	0.183
-496.595	613.556	-0.029	-0.074
-495.581	-26.278	-0.248	0.146
-494.566	-103.044	-0.373	0.089
-493.551	-72.859	0.025	-0.009
-492.537	34.710	0.173	-0.152
-491.522	280.664	0.109	0.195
-490.508	-37.870	0.330	0.176
-489.493	126.659	-0.174	-0.221
-488.478	84.595	0.094	-0.103
-487.464	-118.884	-0.204	-0.036
-486.449	-200.000	-0.003	-0.149
-485.435	-157.174	0.421	-0.026
-484.420	-174.825	0.062	0.002
-483.405	305.058	-0.068	0.126
-482.391	800.000	-0.130	0.462
-481.376	-174.613	0.285	-0.008
-480.362	119.158	0.037	0.046
-479.347	-112.707	0.178	0.035
-478.332	-24.719	0.124	-0.074
-477.318	145.989	0.110	-0.148
-476.303	13.464	-0.152	-0.118
-475.289	-36.527	-0.035	0.019
-474.274	133.698	0.136	0.177
-473.259	-164.346	0.145	-0.007
-472.245	-200.000	0.131	-0.000
-471.230	147.239	-0.147	-0.199
-470.216	-8.231	-0.159	-0.107
-469.201	257.109	0.095	0.163
-468.186	39.267	-0.097	-0.087
-467.172	-200.000	-0.037	-0.183
-466.157	-56.553	0.394	-0.175
-465.143	-129.597	0.335	0.046
-464.128	-103.057	0.416	0.099
-463.113	11.613	0.164	0.126
-462.099	-184.626	-0.315	-0.005
-461.084	-68.863	-0.391	-0.151
-460.070	-48.413	0.270	-0.130
-459.055	-64.740	0.304	-0.123
-458.040	-94.796	-0.136	0.037
-457.026	127.531	-0.092	-0.117
-456.011	440.345	0.065	0.142
-454.997	20.193	0.082	-0.067
-453.982	55.826	0.368	-0.357
-452.968	-81.696	0.299	-0.098
-451.953	693.106	-0.062	0.162
-450.938	457.324	0.190	-0.422
-449.924	93.507	-0.212	-0.240
-448.909	49.202	0.089	0.084
-447.895	525.294	-0.064	0.151
-446.880	122.588	-0.141	-0.177
-445.865	-200.000	-0.010	-0.170
-444.851	-105.215	0.137	-0.031
-443.836	422.196	-0.088	0.190
-442.822	-200.000	0.037	0.373
-441.807	-174.004	-0.508	0.015
-440.792	-72.133	0.324	0.121
-439.778	-31.739	-0.124	0.070
-438.763	195.914	-0.120	-0.182
-437.749	151.161	0.139	-0.190
-436.734	-46.647	-0.236	-0.116
-435.719	-137.997	0.466	0.052
-434.705	-98.322	-0.100	0.026
-433.690	20.256	0.089	0.072
-432.676	800.000	-0.097	0.320
-431.661	158.161	-0.051	0.071
-430.646	-166.103	-0.306	-0.013
-429.632	574.852	-0.087	-0.213
-428.617	151.730	0.187	-0.254
-427.603	-130.111	-0.443	0.060
-426.588	-118.010	0.304	-0.054
-425.573	-31.094	0.224	-0.126
-424.559	381.168	0.142	0.292
-423.544	469.462	-0.014	-0.031
-422.530	800.000	-0.061	0.221
-421.515	117.398	-0.200	0.247
-420.500	-67.985	-0.289	-0.113
-419.486	-68.445	0.156	-0.060
-418.471	185.445	0.202	-0.301
-417.457	204.749	-0.124	0.192
-416.442	-200.000	-0.037	0.332
-415.428	81.016	0.047	0.051
-414.413	5.731	-0.146	0.108
-413.398	800.000	0.060	-0.187
-412.384	542.254	0.131	0.311
-411.369	-200.000	-0.029	0.274
-410.355	-200.000	0.012	0.306
-409.340	142.847	-0.221	0.294
-408.325	165.297	-0.099	-0.139
-407.311	-80.696	-0.373	-0.124
-406.296	-53.900	0.313	-0.143
-405.282	-84.098	0.269	0.085
-404.267	-76.223	0.211	0.074
-403.252	-200.000	0.013	0.112
-402.238	1.416	-0.387	-0.278
-401.223	202.339	0.092	0.141
-400.209	68.960	0.147	0.151
-399.194	-162.336	-0.241	0.012
-398.179	-200.000	-0.009	-0.224
-397.165	-52.252	0.177	-0.082
-396.150	-41.342	0.023	0.012
-395.136	-45.851	-0.213	0.105
-394.121	-166.679	-0.190	0.008
-393.106	-9.418	-0.103	-0.069
-392.092	-200.000	-0.019	0.089
-391.077	-200.000	-0.017	-0.187
-390.063	800.000	-0.096	0.292
-389.048	186.640	0.028	0.042
-388.033	800.000	-0.062	0.243
-387.019	-134.878	0.166	-0.020
-386.004	-103.178	-0.238	-0.056
-384.990	800.000	0.064	-0.242
-383.975	202.815	-0.055	0.085
-382.960	7.843	-0.179	0.134
-381.946	-70.605	0.261	0.098
-380.931	-200.000	-0.031	-0.186
-379.917	-75.525	-0.159	-0.056
-378.902	-200.000	-0.045	-0.280
-377.888	-200.000	0.009	0.159
-376.873	-100.500	0.354	-0.087
-375.858	9.203	-0.170	0.128
-374.844	317.083	0.109	0.206
-373.829	-200.000	-0.004	0.398
-372.815	-18.569	-0.259	0.162
-371.800	-149.467	0.135	0.011
-370.785	-74.868	0.274	-0.098
-369.771	-119.876	-0.156	0.027
-368.756	136.213	-0.056	-0.073
-367.742	-140.943	-0.315	0.032
-366.727	-82.683	0.157	-0.051
-365.712	-179.084	-0.198	-0.004
-364.698	-7.578	0.065	-0.044
-363.683	-70.896	0.266	-0.100
-362.669	800.000	0.084	0.249
-361.654	800.000	-0.072	0.210
-360.639	-74.149	-0.130	-0.047
-359.625	-93.332	0.061	-0.017
-358.610	328.963	-0.152	0.291
-357.596	800.000	0.017	0.070
-356.581	-179.886	-0.095	0.002
-355.566	-2.948	-0.133	-0.093
-354.552	-118.741	-0.283	-0.050
-353.537	-103.943	0.274	0.064
-352.523	-83.507	0.171	-0.055
-351.508	-183.747	-0.062	0.001
-350.493	-51.093	0.064	-0.030
-349.479	-200.000	-0.020	0.159
-348.464	-112.454	0.242	-0.048
-347.450	234.349	0.118	-0.194
-346.435	-192.640	-0.092	0.001
-345.420	800.000	0.016	0.056
-344.406	-146.756	-0.514	0.044
-343.391	-39.936	-0.428	0.223
-342.377	67.520	-0.091	0.093
-341.362	19.270	-0.098	-0.079
-340.348	-15.637	0.190	0.121
-339.333	400.791	0.040	0.084
-338.318	800.000	0.077	-0.239
-337.304	-183.538	0.130	0.002
-336.289	76.011	0.326	-0.343
-335.275	-200.000	0.012	-0.167
-334.260	136.939	0.228	-0.297
-333.245	48.450	-0.204	-0.190
-332.231	-138.363	-0.396	0.044
-331.216	-163.074	0.428	-0.021
-330.202	-150.763	-0.154	0.012
-329.187	57.694	-0.189	-0.184
-328.172	-31.325	0.062	0.035
-327.158	-9.886	0.148	0.098
-326.143	122.938	0.101	-0.126
-325.129	36.257	-0.261	0.229
-324.114	-90.065	-0.324	-0.094
-323.099	-200.000	0.011	0.068
-322.085	55.702	-0.299	0.289
-321.070	475.094	-0.108	0.244
-320.056	800.000	-0.040	-0.151
-319.041	20.294	-0.128	-0.103
-318.026	-200.000	0.018	-0.353
-317.012	-89.202	0.146	0.043
-315.997	-200.000	0.039	-0.253
-314.983	-43.476	-0.139	0.070
-313.968	-129.753	-0.123	0.017
-312.953	-83.413	0.261	-0.083
-311.939	621.780	0.040	-0.100
-310.924	19.990	-0.359	0.288
-309.910	84.181	0.208	-0.226
-308.895	-111.151	0.181	-0.037
-307.880	4.783	0.023	0.017
-306.866	-200.000	0.013	0.095
-305.851	53.501	0.091	0.087
-304.837	155.078	0.076	-0.105
-303.822	-23.755	-0.063	-0.038
-302.807	800.000	-0.028	-0.110
-301.793	-200.000	-0.070	0.394
-300.778	333.143	-0.168	0.322
-299.764	-33.875	-0.166	0.091
-298.749	800.000	0.038	0.113
-297.735	-200.000	-0.016	0.141
-296.720	-31.645	-0.193	-0.108
-295.705	86.798	0.033	-0.036
-294.691	-200.000	-0.010	-0.125
-293.676	-200.000	-0.007	-0.078
-292.662	-66.555	-0.186	0.074
-291.647	-25.710	0.235	-0.138
-290.632	426.172	-0.110	-0.235
-289.618	800.000	-0.086	-0.236
-288.603	-73.128	0.042	0.015
-287.589	-30.381	-0.281	-0.159
-286.574	26.018	-0.072	-0.060
-285.559	-157.849	-0.074	-0.004
-284.545	69.000	-0.197	-0.201
-283.530	-5.766	-0.265	0.181
-282.516	-56.018	-0.219	0.097
-281.501	800.000	-0.041	-0.118
-280.486	238.106	-0.120	-0.198
-279.472	-171.141	0.244	-0.008
-278.457	-69.237	0.123	-0.047
-277.443	677.395	-0.020	0.053
-276.428	491.549	0.125	-0.286
-275.413	-200.000	0.081	0.505
-274.399	52.544	-0.039	0.037
-273.384	-11.695	0.093	0.061
-272.370	21.810	0.264	-0.214
-271.355	-200.000	0.002	-0.381
-270.340	539.425	-0.093	-0.220
-269.326	-1.053	-0.175	-0.123
-268.311	-51.520	0.176	-0.082
-267.297	236.041	0.074	-0.122
-266.282	-118.636	-0.182	-0.032
-265.267	512.912	0.054	-0.126
-264.253	-200.000	-0.040	-0.203
-263.238	-113.814	0.203	-0.039
-262.224	727.333	-0.111	0.294
-261.209	3.247	-0.134	-0.097
-260.195	26.049	0.264	-0.219
-259.180	-140.248	-0.068	0.007
-258.165	249.449	0.123	0.208
-257.151	-117.169	-0.376	0.068
-256.136	84.538	0.203	0.220
-255.122	-200.000	0.050	-0.314
-254.107	-58.833	-0.117	-0.050
-253.092	-191.201	0.330	0.003
-252.078	67.246	-0.118	0.120
-251.063	308.153	-0.131	-0.243
-250.049	42.597	-0.202	0.182
-249.034	-116.250	-0.402	-0.074
-248.019	800.000	0.055	0.201
-247.005	47.384	-0.178	-0.165
-245.990	-0.468	0.153	-0.108
-244.976	-100.704	-0.151	0.037
-243.961	-200.000	0.024	-0.105
-242.946	-16.150	-0.133	-0.084
-241.932	512.947	0.104	-0.242
-240.917	800.000	0.053	-0.195
-239.903	783.864	0.136	0.370
-238.888	-22.450	0.128	-0.077
-237.873	581.602	0.078	0.190
-236.859	800.000	-0.130	0.514
-235.844	153.000	0.108	-0.146
-234.830	800.000	0.046	-0.134
-233.815	124.036	0.283	-0.352
-232.800	-96.968	-0.227	-0.059
-231.786	-84.896	-0.248	-0.077
-230.771	800.000	-0.096	0.269
-229.757	-85.543	0.281	0.087
-228.742	-200.000	0.000	0.284
-227.727	136.849	0.106	0.138
-226.713	-60.148	0.396	-0.168
-225.698	800.000	0.004	0.017
-224.684	-191.329	0.187	0.002
-223.669	-133.852	0.207	0.026
-222.655	800.000	0.037	0.120
-221.640	800.000	-0.094	0.305
-220.625	-6.161	-0.181	0.123
-219.611	-49.250	0.065	-0.031
-218.596	-1.389	0.280	0.196
-217.582	-117.089	-0.207	-0.037
-216.567	-0.302	-0.431	-0.304
-215.552	-31.324	0.174	-0.097
-214.538	777.983	-0.131	-0.354
-213.523	-200.000	0.046	-0.306
-212.509	-82.759	0.175	0.056
-211.494	778.277	0.057	0.155
-210.479	101.629	0.143	0.166
-209.465	-34.791	0.181	0.098
-208.450	-200.000	-0.012	0.253
-207.436	473.424	0.055	-0.123
-206.421	800.000	0.021	-0.066
-205.406	45.886	0.082	0.075
-204.392	-23.369	0.391	0.233
-203.377	198.284	-0.137	0.208
-202.363	-200.000	0.025	0.145
-201.348	-22.208	0.308	-0.185
-200.333	800.000	0.028	0.085
-199.319	390.668	0.052	0.106
-198.304	800.000	-0.064	0.209
-197.290	-200.000	-0.001	0.232
-196.275	-176.154	-0.417	-0.011
-195.260	-39.322	0.269	0.140
-194.246	800.000	0.045	0.126
-193.231	212.754	-0.079	-0.123
-192.217	-166.268	-0.175	-0.007
-191.202	21.733	-0.187	0.151
-190.187	778.658	-0.099	0.267
-189.173	145.397	-0.115	0.152
-188.158	697.545	0.109	-0.283
-187.144	-200.000	0.065	-0.287
-186.129	800.000	0.039	0.137
-185.114	-64.328	0.135	0.054
-184.100	278.606	0.149	-0.263
-183.085	78.407	0.060	0.063
-182.071	83.286	-0.115	0.124
-181.056	48.815	0.207	0.193
-180.042	296.492	-0.149	0.271
-179.027	-32.326	0.242	-0.134
-178.012	-200.000	-0.025	0.386
-176.998	-133.658	-0.180	0.022
-175.983	-200.000	-0.023	0.282
-174.969	-200.000	0.084	0.461
-173.954	200.800	0.150	-0.228
-172.939	-143.940	0.119	-0.011
-171.925	-200.000	0.038	-0.196
-170.910	438.541	-0.123	-0.267
-169.896	-51.380	0.131	0.060
-168.881	532.946	0.082	-0.193
-167.866	556.372	-0.162	0.387
-166.852	212.399	0.018	-0.029
-165.837	-200.000	0.034	-0.165
-164.823	-96.207	-0.306	0.081
-163.808	-127.751	0.171	0.024
-162.793	-200.000	0.088	0.550
-161.779	-32.086	-0.225	0.124
-160.764	-200.000	0.014	-0.127
-159.750	-200.000	0.034	-0.270
-158.735	-56.248	0.246	-0.108
-157.720	-200.000	0.021	-0.233
-156.706	-70.981	-0.170	-0.063
-155.691	243.342	-0.144	-0.239
-154.677	42.887	-0.049	-0.044
-153.662	95.493	0.147	-0.166
-152.647	384.750	0.137	-0.280
-151.633	-71.242	-0.319	-0.118
-150.618	-108.967	0.216	-0.046
-149.604	-163.143	-0.388	0.018
-148.589	216.761	-0.211	0.332
-147.574	-151.053	-0.159	0.012
-146.560	294.905	-0.099	0.179
-145.545	-20.663	-0.206	-0.125
-144.531	-62.546	0.102	-0.042
-143.516	570.959	0.013	0.032
-142.502	474.644	0.145	0.324
-141.487	800.000	0.035	-0.140
-140.472	-42.492	0.110	-0.056
-139.458	-145.292	-0.185	0.017
-138.443	-117.204	-0.084	0.015
-137.429	-200.000	0.015	0.125
-136.414	447.800	-0.018	-0.038
-135.399	-23.171	-0.115	0.068
-134.385	464.467	0.104	0.231
-133.370	-50.683	-0.104	0.048
-132.356	-72.919	-0.179	-0.065
-131.341	800.000	0.058	0.159
-130.326	800.000	0.048	0.163
-129.312	10.931	-0.279	-0.211
-128.297	800.000	0.100	0.300
-127.283	-35.411	-0.077	-0.042
-126.268	421.123	0.074	0.157
-125.253	-73.231	0.179	0.065
-124.239	-49.894	-0.189	0.089
-123.224	201.336	0.124	0.189
-122.210	800.000	-0.081	-0.327
-121.195	40.369	0.124	-0.110
