DTS Sentinel unit serial number:	SN413079Multiplexer serial number:	ORYXHardware model number:	OX4-SRSoftware version number:	ORYX F/W v4.00 Oryx Data Collector v3.7.2.0data status	okinstallation	princeton_trtdifferential loss correction	single-endedforward channel	channel 4reverse channel	N/Adate	2019/09/11time	20:59:10forward acquisition time	60.00reverse acquisition time	0.00gamma	496.2192k internal	0.2304k external	0.2304temperature offset calibration	1.0066default loss term (dB/km)	0.3790temperature slope calibration	1.0000multiplexer offset coefficient	1.0000multiplexer slope coefficient	1.0000fibre end	0.00T internal ref (°C)	36.70T ext. ref 1 (°C)	1.62T ext. ref 2 (°C)	30.73length (m)	temperature (°C)	Stokes	anti-Stokes-747.200	-115.304	-0.139	-0.027
-746.185	-200.000	0.081	0.378
-745.171	-9.233	0.081	-0.055
-744.156	-134.910	0.136	-0.017
-743.142	-27.513	-0.161	0.095
-742.127	-21.886	-0.265	0.164
-741.112	800.000	0.116	-0.399
-740.098	569.374	-0.106	-0.262
-739.083	212.520	0.190	0.305
-738.069	25.240	-0.284	-0.240
-737.054	-200.000	0.045	-0.211
-736.039	20.073	0.141	0.116
-735.025	407.427	0.096	0.208
-734.010	-200.000	-0.045	0.000
-732.996	-200.000	0.040	-0.197
-731.981	-200.000	0.024	0.172
-730.966	-24.136	-0.341	0.207
-729.952	-27.800	-0.280	-0.165
-728.937	-79.454	0.258	-0.089
-727.923	-97.216	-0.135	-0.036
-726.908	-154.833	-0.207	-0.014
-725.894	-173.996	0.284	0.008
-724.879	3.506	-0.198	-0.147
-723.864	68.657	0.189	-0.197
-722.850	38.003	-0.353	-0.319
-721.835	33.015	-0.093	-0.082
-720.821	765.051	0.113	-0.313
-719.806	-200.000	0.028	-0.176
-718.791	231.677	0.096	-0.161
-717.777	-200.000	0.018	-0.347
-716.762	361.054	0.064	0.130
-715.748	-62.104	0.333	0.141
-714.733	35.512	0.044	0.039
-713.718	-105.027	0.225	-0.052
-712.704	-117.131	0.079	-0.015
-711.689	-86.788	0.175	-0.055
-710.675	-84.353	-0.188	-0.060
-709.660	407.209	0.144	0.310
-708.645	266.656	-0.058	-0.103
-707.631	-82.294	-0.134	-0.044
-706.616	-3.258	-0.044	0.031
-705.602	-32.990	0.107	-0.060
-704.587	-77.910	-0.183	0.064
-703.572	-200.000	0.054	0.244
-702.558	92.981	0.074	-0.085
-701.543	-2.879	-0.092	0.066
-700.529	800.000	0.055	-0.163
-699.514	217.267	0.064	-0.103
-698.499	-31.188	0.116	-0.066
-697.485	-148.691	0.063	0.005
-696.470	93.722	-0.088	-0.101
-695.456	800.000	0.023	-0.093
-694.441	257.181	-0.073	0.128
-693.426	-110.759	0.447	-0.094
-692.412	146.934	0.084	-0.114
-691.397	-48.771	-0.253	-0.124
-690.383	720.952	-0.093	-0.250
-689.368	-56.744	-0.173	0.078
-688.354	-200.000	0.006	-0.119
-687.339	14.887	0.062	-0.050
-686.324	-200.000	-0.003	-0.368
-685.310	247.508	-0.112	-0.193
-684.295	-171.693	-0.203	-0.007
-683.281	270.657	-0.091	0.162
-682.266	113.191	0.086	-0.106
-681.251	47.944	0.196	0.186
-680.237	800.000	0.044	-0.157
-679.222	800.000	-0.097	-0.415
-678.208	62.288	0.164	-0.166
-677.193	169.074	-0.133	0.192
-676.178	-200.000	-0.015	-0.365
-675.164	-64.234	0.130	0.054
-674.149	-31.155	-0.174	0.100
-673.135	-79.989	0.084	0.029
-672.120	-43.053	0.142	0.073
-671.105	-69.943	0.503	-0.195
-670.091	309.317	-0.009	-0.017
-669.076	107.221	0.124	0.150
-668.062	-125.917	-0.512	0.078
-667.047	283.279	-0.099	-0.180
-666.032	-1.050	-0.188	-0.135
-665.018	800.000	0.029	0.123
-664.003	71.287	0.272	0.287
-662.989	292.804	0.070	0.130
-661.974	-147.432	0.090	0.008
-660.959	-124.575	-0.252	-0.040
-659.945	-200.000	-0.008	0.342
-658.930	96.702	-0.079	0.092
-657.916	-200.000	-0.026	0.152
-656.901	800.000	-0.106	0.315
-655.886	-200.000	-0.017	-0.150
-654.872	239.700	-0.107	0.180
-653.857	-122.495	0.112	-0.019
-652.843	6.356	-0.176	0.133
-651.828	172.689	0.226	0.330
-650.814	-200.000	0.017	-0.097
-649.799	-119.224	-0.200	0.035
-648.784	-72.834	-0.206	-0.077
-647.770	72.911	-0.135	-0.143
-646.755	238.193	-0.106	-0.178
-645.741	116.560	-0.117	0.145
-644.726	-164.037	-0.138	-0.006
-643.711	21.352	-0.283	-0.233
-642.697	-200.000	0.019	-0.114
-641.682	598.365	0.075	0.189
-640.668	-21.903	0.353	-0.218
-639.653	-38.075	-0.153	-0.082
-638.638	-200.000	-0.097	0.458
-637.624	-126.227	-0.338	-0.051
-636.609	-200.000	-0.003	0.077
-635.595	119.294	0.201	-0.252
-634.580	216.087	-0.084	0.135
-633.565	58.809	-0.112	0.112
-632.551	599.281	-0.066	-0.166
-631.536	4.403	0.212	0.157
-630.522	800.000	0.007	0.025
-629.507	87.399	0.095	-0.107
-628.492	235.476	0.092	-0.153
-627.478	-134.400	0.046	-0.006
-626.463	193.840	-0.230	-0.354
-625.449	800.000	0.055	-0.167
-624.434	169.591	-0.076	-0.111
-623.419	-70.597	-0.387	-0.148
-622.405	-103.154	-0.137	-0.033
-621.390	-77.872	-0.188	0.066
-620.376	-18.878	0.227	0.143
-619.361	-170.875	0.086	0.003
-618.346	-84.181	-0.196	0.063
-617.332	144.933	-0.278	0.377
-616.317	-200.000	-0.025	0.381
-615.303	-87.265	0.353	-0.108
-614.288	129.253	-0.072	-0.093
-613.273	-119.142	-0.321	0.057
-612.259	-112.258	-0.197	0.040
-611.244	-117.723	-0.306	0.056
-610.230	-200.000	-0.064	-0.296
-609.215	-57.992	-0.237	-0.105
-608.201	-126.137	-0.159	0.024
-607.186	102.085	-0.147	0.174
-606.171	800.000	0.051	0.198
-605.157	-39.167	0.123	0.065
-604.142	30.582	-0.064	-0.056
-603.128	343.354	-0.191	-0.378
-602.113	694.147	-0.141	0.376
-601.098	58.057	0.120	0.119
-600.084	-114.709	0.357	0.069
-599.069	22.698	-0.055	-0.045
-598.055	79.001	0.151	-0.164
-597.040	-27.264	-0.083	-0.049
-596.025	800.000	0.049	-0.170
-595.011	-26.094	0.231	0.137
-593.996	125.878	-0.148	-0.189
-592.982	-200.000	-0.033	0.156
-591.967	45.655	0.355	-0.332
-590.952	118.793	-0.108	-0.135
-589.938	-50.151	-0.104	-0.050
-588.923	507.988	-0.026	0.061
-587.909	501.804	0.093	0.218
-586.894	800.000	-0.033	0.110
-585.879	188.759	0.074	0.113
-584.865	800.000	-0.049	0.152
-583.850	800.000	0.028	-0.105
-582.836	-79.183	0.057	0.019
-581.821	-119.580	0.106	-0.018
-580.806	199.387	-0.095	0.147
-579.792	-7.832	-0.010	-0.007
-578.777	-200.000	0.007	-0.123
-577.763	-200.000	-0.000	-0.189
-576.748	-36.838	-0.312	-0.169
-575.733	48.388	-0.187	-0.178
-574.719	800.000	-0.025	-0.073
-573.704	800.000	-0.061	-0.222
-572.690	-116.673	0.327	-0.061
-571.675	-200.000	0.053	-0.348
-570.661	216.101	-0.153	0.247
-569.646	379.224	-0.167	0.346
-568.631	-140.780	-0.168	-0.017
-567.617	61.326	0.097	0.097
-566.602	112.014	-0.024	0.030
-565.588	22.765	-0.157	-0.130
-564.573	-97.460	0.215	-0.056
-563.558	799.411	-0.057	-0.158
-562.544	-92.758	-0.259	0.073
-561.529	-200.000	-0.015	0.068
-560.515	117.673	0.205	-0.254
-559.500	800.000	0.052	-0.177
-558.485	309.362	-0.166	-0.314
-557.471	326.348	0.088	-0.171
-556.456	279.598	-0.116	-0.209
-555.442	96.436	-0.069	-0.080
-554.427	-150.150	0.250	0.020
-553.412	-153.683	0.310	0.022
-552.398	-89.756	0.198	0.059
-551.383	-20.384	-0.193	0.120
-550.369	-200.000	0.006	0.061
-549.354	-72.345	-0.155	0.058
-548.339	-141.194	-0.138	0.014
-547.325	591.954	-0.088	0.219
-546.310	238.916	-0.086	0.144
-545.296	122.402	0.133	0.168
-544.281	800.000	0.061	0.191
-543.266	-149.971	0.132	0.010
-542.252	122.629	0.154	-0.194
-541.237	13.441	-0.118	-0.092
-540.223	-12.326	-0.289	0.191
-539.208	255.978	-0.182	0.316
-538.193	-200.000	-0.022	-0.189
-537.179	-200.000	-0.053	-0.291
-536.164	-200.000	0.034	-0.208
-535.150	336.605	0.010	-0.019
-534.135	-100.387	0.329	0.082
-533.121	46.041	0.040	0.038
-532.106	135.278	0.075	0.099
-531.091	-123.631	-0.178	0.029
-530.077	75.421	-0.102	-0.108
-529.062	137.995	-0.243	-0.321
-528.048	27.713	0.140	0.119
-527.033	-171.490	-0.147	0.005
-526.018	33.593	-0.023	0.020
-525.004	-200.000	-0.063	-0.375
-523.989	-119.659	-0.082	0.014
-522.975	322.687	0.040	0.078
-521.960	-27.661	0.227	-0.133
-520.945	800.000	-0.101	-0.309
-519.931	-200.000	-0.011	-0.133
-518.916	-66.073	0.036	0.015
-517.902	24.879	-0.264	0.221
-516.887	544.840	0.040	-0.096
-515.872	212.594	-0.192	-0.306
-514.858	-88.018	-0.174	0.053
-513.843	95.460	-0.055	0.064
-512.829	-8.666	-0.356	0.241
-511.814	-200.000	-0.071	0.318
-510.799	-125.286	-0.199	-0.031
-509.785	-50.567	-0.386	-0.184
-508.770	800.000	0.019	0.055
-507.756	11.938	-0.106	0.082
-506.741	-200.000	0.034	0.214
-505.726	75.049	0.087	-0.093
-504.712	-48.408	-0.232	-0.112
-503.697	800.000	-0.080	0.267
-502.683	258.042	-0.145	0.251
-501.668	159.637	-0.171	0.240
-500.653	-21.594	-0.313	0.192
-499.639	8.833	0.174	-0.133
-498.624	-200.000	-0.019	-0.154
-497.610	143.224	-0.188	-0.252
-496.595	-54.317	0.184	0.084
-495.581	-200.000	-0.104	0.496
-494.566	1.260	0.319	-0.231
-493.551	-13.944	-0.344	-0.224
-492.537	14.026	-0.068	-0.053
-491.522	-128.421	0.265	0.038
-490.508	-72.802	0.108	0.040
-489.493	-176.262	0.275	-0.007
-488.478	-200.000	-0.020	-0.263
-487.464	129.382	-0.178	-0.230
-486.449	76.246	0.132	-0.140
-485.435	-200.000	0.035	0.178
-484.420	15.482	-0.024	-0.019
-483.405	-61.199	-0.287	-0.122
-482.391	-200.000	0.022	-0.203
-481.376	-125.886	-0.318	0.048
-480.362	96.659	0.228	-0.263
-479.347	-200.000	0.041	-0.257
-478.332	-200.000	0.020	0.134
-477.318	-66.944	-0.220	-0.088
-476.303	800.000	0.057	-0.222
-475.289	-135.022	0.340	-0.041
-474.274	-200.000	-0.006	0.067
-473.259	-150.407	-0.054	0.004
-472.245	427.469	-0.087	0.188
-471.230	-32.067	-0.241	-0.136
-470.216	800.000	0.047	-0.191
-469.201	270.457	0.099	-0.175
-468.186	-95.562	-0.278	0.075
-467.172	381.977	-0.080	0.165
-466.157	22.328	-0.106	-0.088
-465.143	-185.784	-0.255	-0.004
-464.128	-60.489	-0.272	0.117
-463.113	-200.000	-0.029	0.221
-462.099	173.684	0.058	0.085
-461.084	5.653	-0.279	-0.208
-460.070	275.615	0.079	-0.142
-459.055	-30.781	0.217	0.124
-458.040	-133.190	-0.190	0.024
-457.026	-200.000	-0.003	0.087
-456.011	71.812	0.306	0.320
-454.997	-139.634	0.273	-0.029
-453.982	141.259	0.280	0.373
-452.968	261.217	-0.131	-0.228
-451.953	78.708	0.043	0.046
-450.938	-161.558	0.379	0.020
-449.924	-28.396	0.231	0.134
-448.909	-44.491	-0.158	0.079
-447.895	-191.606	-0.217	-0.002
-446.880	-72.331	-0.269	0.100
-445.865	67.887	-0.181	0.186
-444.851	-118.199	0.041	0.007
-443.836	153.838	0.037	-0.052
-442.822	165.699	0.225	0.320
-441.807	-9.588	-0.088	-0.059
-440.792	9.586	0.209	0.160
-439.778	-62.997	0.240	0.100
-438.763	145.637	0.136	-0.183
-437.749	135.810	0.285	-0.374
-436.734	54.316	-0.075	0.072
-435.719	-200.000	-0.019	-0.150
-434.705	-78.323	0.010	0.003
-433.690	285.881	-0.027	-0.049
-432.676	800.000	-0.018	-0.077
-431.661	-80.073	-0.190	0.064
-430.646	3.295	-0.298	-0.218
-429.632	-114.245	0.152	-0.029
-428.617	-4.789	-0.136	-0.094
-427.603	36.617	0.133	-0.118
-426.588	116.409	-0.201	0.248
-425.573	331.761	-0.131	0.255
-424.559	-33.107	0.281	-0.157
-423.544	400.009	-0.054	-0.113
-422.530	-64.115	-0.277	-0.114
-421.515	126.725	0.090	-0.115
-420.500	789.743	-0.049	0.136
-419.486	-166.332	0.211	0.009
-418.471	-34.042	0.432	-0.239
-417.457	222.244	-0.122	-0.197
-416.442	636.254	0.105	0.267
-415.428	-153.780	0.124	-0.009
-414.413	455.912	-0.178	0.398
-413.398	374.793	0.060	0.122
-412.384	-5.332	0.293	-0.202
-411.369	-105.314	0.160	0.037
-410.355	800.000	0.057	-0.233
-409.340	-1.152	0.187	-0.133
-408.325	26.970	-0.173	-0.146
-407.311	-200.000	-0.058	0.562
-406.296	241.166	0.181	0.304
-405.282	-200.000	0.038	-0.266
-404.267	-49.025	0.059	-0.028
-403.252	161.397	-0.162	0.228
-402.238	153.243	-0.147	-0.202
-401.223	-200.000	0.006	0.109
-400.209	-200.000	0.014	-0.182
-399.194	-200.000	-0.020	0.107
-398.179	142.538	-0.165	-0.220
-397.165	-200.000	-0.017	-0.351
-396.150	-61.874	-0.319	-0.134
-395.136	-200.000	-0.018	-0.160
-394.121	-135.002	-0.346	0.042
-393.106	68.269	-0.150	-0.154
-392.092	-4.690	-0.159	-0.110
-391.077	-200.000	-0.015	-0.086
-390.063	800.000	0.047	0.135
-389.048	-144.193	-0.136	0.013
-388.033	-200.000	-0.006	-0.050
-387.019	-147.705	0.103	-0.009
-386.004	220.588	0.103	0.165
-384.990	500.698	-0.108	0.251
-383.975	-122.613	-0.252	0.041
-382.960	469.989	0.131	0.296
-381.946	75.347	0.134	0.142
-380.931	-129.063	0.125	-0.018
-379.917	800.000	0.033	0.105
-378.902	314.306	0.242	-0.458
-377.888	-200.000	0.057	-0.255
-376.873	-200.000	0.072	-0.349
-375.858	-200.000	0.028	-0.443
-374.844	198.288	-0.113	-0.174
-373.829	324.137	0.240	0.460
-372.815	143.160	0.238	0.317
-371.800	-200.000	0.005	-0.160
-370.785	496.010	-0.125	-0.288
-369.771	-88.719	-0.275	0.082
-368.756	-133.659	-0.134	0.017
-367.742	606.473	0.065	0.162
-366.727	-200.000	0.025	-0.211
-365.712	-66.009	0.342	0.137
-364.698	-200.000	-0.002	0.137
-363.683	242.133	-0.043	-0.072
-362.669	-55.574	-0.267	0.120
-361.654	-31.984	0.174	0.098
-360.639	800.000	0.045	0.127
-359.625	546.712	0.138	0.332
-358.610	-125.272	0.063	-0.010
-357.596	-200.000	0.055	0.267
-356.581	207.617	0.157	0.246
-355.566	800.000	0.114	0.350
-354.552	111.807	-0.111	-0.135
-353.537	-64.214	0.263	-0.107
-352.523	4.707	-0.256	0.188
-351.508	750.125	-0.060	-0.163
-350.493	-78.986	-0.393	-0.134
-349.479	139.072	0.126	-0.166
-348.464	69.817	-0.220	-0.228
-347.450	-74.325	-0.176	0.064
-346.435	-200.000	0.025	-0.126
-345.420	-48.091	0.112	0.054
-344.406	21.231	0.143	0.117
-343.391	-147.042	0.200	-0.017
-342.377	-200.000	-0.002	-0.251
-341.362	2.455	0.046	-0.033
-340.348	800.000	0.083	-0.356
-339.333	-128.140	0.600	0.086
-338.318	800.000	0.035	-0.122
-337.304	61.004	0.208	0.207
-336.289	222.710	0.185	0.299
-335.275	431.980	0.038	0.083
-334.260	578.660	0.071	-0.173
-333.245	-52.625	0.282	-0.130
-332.231	298.226	0.071	0.131
-331.216	-107.847	0.173	-0.038
-330.202	-62.443	-0.318	-0.132
-329.187	12.562	0.076	0.058
-328.172	332.791	-0.067	0.130
-327.158	-200.000	-0.119	0.572
-326.143	-47.816	0.264	-0.128
-325.129	135.654	0.052	0.068
-324.114	-109.079	0.354	-0.075
-323.099	-132.501	0.204	-0.026
-322.085	-200.000	-0.024	0.147
-321.070	445.090	-0.086	-0.190
-320.056	-10.433	0.355	-0.236
-319.041	206.738	0.231	-0.360
-318.026	-200.000	0.002	-0.201
-317.012	800.000	-0.083	-0.279
-315.997	-69.153	0.180	-0.069
-314.983	-99.421	0.287	-0.072
-313.968	679.336	-0.104	0.272
-312.953	44.127	-0.320	-0.294
-311.939	795.119	0.158	0.434
-310.924	-200.000	-0.006	-0.221
-309.910	328.414	0.126	0.241
-308.895	-166.739	0.125	-0.005
-307.880	310.290	0.182	-0.341
-306.866	-200.000	-0.039	0.353
-305.851	-33.941	-0.234	0.129
-304.837	258.236	0.131	-0.226
-303.822	-3.507	0.127	0.088
-302.807	800.000	-0.093	0.288
-301.793	109.724	0.158	0.189
-300.778	291.678	-0.048	-0.088
-299.764	-150.756	-0.321	-0.024
-298.749	-84.813	0.095	-0.030
-297.735	-36.593	0.137	0.074
-296.720	-200.000	-0.019	-0.200
-295.705	98.118	-0.147	0.169
-294.691	-49.333	0.199	0.095
-293.676	-73.226	-0.104	-0.038
-292.662	-96.283	-0.196	-0.052
-291.647	-58.190	-0.278	0.121
-290.632	661.604	0.050	-0.128
-289.618	-200.000	0.020	-0.216
-288.603	-200.000	-0.005	0.319
-287.589	-125.719	-0.113	0.017
-286.574	172.313	0.098	0.141
-285.559	800.000	0.048	0.188
-284.545	-133.683	-0.132	0.016
-283.530	-200.000	0.051	0.345
-282.516	-135.814	-0.251	-0.030
-281.501	-43.616	0.303	0.153
-280.486	323.324	0.174	0.332
-279.472	-57.935	0.138	0.060
-278.457	-200.000	0.008	0.084
-277.443	-200.000	0.044	0.364
-276.428	-148.347	0.036	-0.003
-275.413	334.466	0.232	0.448
-274.399	13.893	0.248	0.193
-273.384	-200.000	0.009	0.199
-272.370	313.060	-0.157	-0.295
-271.355	115.923	0.180	-0.221
-270.340	800.000	-0.008	-0.023
-269.326	-200.000	-0.036	-0.194
-268.311	-39.287	0.108	-0.057
-267.297	-159.225	-0.212	0.012
-266.282	42.660	-0.148	-0.135
-265.267	-200.000	0.035	-0.160
-264.253	-200.000	0.001	0.063
-263.238	21.272	0.090	0.073
-262.224	43.616	0.367	-0.335
-261.209	390.042	0.146	0.302
-260.195	128.443	0.160	0.203
-259.180	-164.028	-0.106	0.005
-258.165	-66.631	0.165	-0.065
-257.151	-200.000	-0.021	-0.189
-256.136	800.000	0.067	0.202
-255.122	-69.953	-0.204	-0.078
-254.107	-2.126	0.134	-0.094
-253.092	-174.621	0.254	-0.007
-252.078	-200.000	0.013	-0.073
-251.063	-161.894	-0.139	0.007
-250.049	104.987	-0.098	0.116
-249.034	-71.640	0.070	0.026
-248.019	-106.713	-0.355	0.079
-247.005	-155.568	-0.184	-0.012
-245.990	-97.581	0.210	-0.054
-244.976	-36.436	-0.220	0.118
-243.961	-40.566	-0.075	0.039
-242.946	-15.591	0.106	0.067
-241.932	-200.000	-0.013	-0.124
-240.917	31.106	-0.300	0.257
-239.903	-147.478	-0.301	0.025
-238.888	-17.473	-0.196	-0.123
-237.873	408.428	0.152	0.320
-236.859	-2.432	0.101	0.070
-235.844	222.832	0.232	0.373
-234.830	-36.492	-0.209	0.112
-233.815	117.834	-0.214	-0.263
-232.800	-200.000	0.024	-0.168
-231.786	-75.942	0.162	-0.057
-230.771	800.000	0.059	-0.220
-229.757	171.328	-0.198	-0.284
-228.742	240.731	0.057	-0.095
-227.727	-19.976	0.234	-0.144
-226.713	800.000	0.047	0.156
-225.698	-86.344	0.436	0.134
-224.684	-97.853	0.277	0.071
-223.669	26.960	-0.340	0.284
-222.655	202.031	0.177	0.272
-221.640	-21.563	0.209	0.127
-220.625	-56.945	0.321	0.141
-219.611	-200.000	0.023	0.299
-218.596	800.000	-0.071	-0.269
-217.582	-109.029	-0.186	0.040
-216.567	-36.138	0.338	0.182
-215.552	-122.693	0.186	0.030
-214.538	-200.000	-0.072	0.341
-213.523	350.665	-0.005	0.010
-212.509	342.538	0.229	0.446
-211.494	187.879	0.039	0.057
-210.479	-36.989	0.185	0.099
-209.465	-200.000	-0.016	0.156
-208.450	-200.000	0.091	-0.000
-207.436	354.211	0.076	-0.151
-206.421	-5.451	0.198	0.136
-205.406	485.926	0.015	0.034
-204.392	-47.754	0.276	-0.134
-203.377	39.383	-0.181	0.161
-202.363	61.341	-0.129	-0.128
-201.348	-200.000	-0.059	0.321
-200.333	116.997	-0.182	-0.223
-199.319	335.229	0.119	-0.230
-198.304	382.683	-0.036	-0.074
-197.290	2.199	-0.178	0.129
-196.275	191.111	0.222	-0.333
-195.260	190.137	-0.178	0.267
-194.246	3.088	-0.222	-0.160
-193.231	-64.043	-0.050	0.020
-192.217	144.078	0.083	-0.111
-191.202	800.000	-0.143	-0.409
-190.187	800.000	-0.100	-0.318
-189.173	145.041	-0.078	-0.103
-188.158	579.883	0.151	-0.369
-187.144	-77.420	0.132	0.046
-186.129	-141.281	0.065	0.007
-185.114	800.000	0.032	-0.137
-184.100	-106.227	0.285	-0.064
-183.085	-200.000	0.012	-0.240
-182.071	800.000	0.067	0.192
-181.056	267.627	0.115	0.200
-180.042	79.892	-0.180	-0.192
-179.027	-121.309	0.255	0.042
-178.012	11.847	-0.289	-0.221
-176.998	628.460	0.132	-0.333
-175.983	-20.769	-0.185	0.113
-174.969	61.373	0.319	-0.315
-173.954	15.401	-0.259	0.203
-172.939	145.955	-0.037	0.050
-171.925	169.960	-0.183	0.260
-170.910	263.865	-0.086	-0.149
-169.896	-200.000	-0.009	0.131
-168.881	81.478	0.094	0.101
-167.866	286.143	0.093	0.167
-166.852	641.068	0.129	-0.328
-165.837	-96.841	-0.169	-0.044
-164.823	644.524	0.110	0.279
-163.808	800.000	0.079	0.302
-162.793	-76.872	0.100	-0.035
-161.779	-157.655	0.315	0.019
-160.764	-114.193	0.150	-0.029
-159.750	517.694	0.016	-0.038
-158.735	333.923	-0.089	0.171
-157.720	-200.000	0.017	0.122
-156.706	800.000	-0.088	-0.364
-155.691	-3.751	-0.161	0.111
-154.677	118.556	-0.087	-0.107
-153.662	558.262	0.018	0.043
-152.647	-121.620	0.045	0.007
-151.633	800.000	-0.090	0.252
-150.618	66.233	0.343	0.346
-149.604	-127.406	0.232	-0.034
-148.589	171.095	0.150	0.214
-147.574	174.095	-0.221	-0.317
-146.560	-154.208	-0.170	-0.011
-145.545	306.867	-0.209	0.387
-144.531	-134.966	0.407	-0.049
-143.516	800.000	0.046	0.184
-142.502	-60.804	0.124	0.052
-141.487	-200.000	0.009	-0.112
-140.472	-16.607	0.227	-0.143
-139.458	108.263	-0.135	-0.160
-138.443	77.656	0.073	-0.077
-137.429	173.151	0.169	-0.242
-136.414	-200.000	0.060	-0.276
-135.399	-0.670	-0.234	-0.165
-134.385	115.107	-0.008	0.009
-133.370	93.948	-0.066	0.074
-132.356	-129.870	-0.245	0.033
-131.341	-59.207	-0.354	0.151
-130.326	187.123	0.189	0.280
-129.312	55.476	-0.135	0.130
-128.297	37.633	-0.042	-0.037
-127.283	67.570	-0.118	-0.120
-126.268	664.805	-0.084	-0.214
-125.253	430.458	0.061	-0.132
-124.239	-69.283	0.121	0.046
-123.224	692.983	0.054	-0.139
-122.210	-113.701	0.055	-0.011
-121.195	-43.824	0.172	-0.086
