DTS Sentinel unit serial number:	SN413079Multiplexer serial number:	ORYXHardware model number:	OX4-SRSoftware version number:	ORYX F/W v4.00 Oryx Data Collector v3.7.2.0data status	okinstallation	princeton_trtdifferential loss correction	single-endedforward channel	channel 4reverse channel	N/Adate	2019/09/10time	22:03:10forward acquisition time	60.00reverse acquisition time	0.00gamma	496.2192k internal	0.2314k external	0.2314temperature offset calibration	0.9948default loss term (dB/km)	0.3790temperature slope calibration	1.0000multiplexer offset coefficient	1.0000multiplexer slope coefficient	1.0000fibre end	0.00T internal ref (°C)	30.67T ext. ref 1 (°C)	-0.31T ext. ref 2 (°C)	23.92length (m)	temperature (°C)	Stokes	anti-Stokes-747.200	133.370	0.012	0.016
-746.185	159.495	-0.138	0.194
-745.171	-46.976	0.340	0.168
-744.156	48.583	-0.018	0.017
-743.142	317.972	-0.084	-0.161
-742.127	-125.818	-0.202	0.031
-741.112	800.000	0.075	-0.211
-740.098	-83.943	-0.597	0.193
-739.083	-1.349	-0.265	-0.190
-738.069	-43.887	0.355	0.181
-737.054	194.316	-0.141	0.216
-736.039	303.100	-0.198	0.372
-735.025	800.000	-0.059	0.168
-734.010	93.786	-0.202	0.232
-732.996	-45.232	-0.147	0.074
-731.981	135.348	-0.186	0.245
-730.966	17.391	0.126	0.102
-729.952	205.800	-0.173	0.272
-728.937	-200.000	0.013	-0.092
-727.923	-200.000	-0.030	0.293
-726.908	-200.000	-0.015	0.157
-725.894	593.362	-0.069	0.173
-724.879	326.828	0.140	0.272
-723.864	-40.272	-0.247	0.130
-722.850	-71.687	0.266	-0.101
-721.835	-69.108	0.177	0.069
-720.821	800.000	0.011	-0.036
-719.806	-91.048	-0.352	0.102
-718.791	-66.487	-0.054	-0.022
-717.777	-89.440	0.177	-0.053
-716.762	-95.784	0.152	0.041
-715.748	96.924	-0.188	-0.218
-714.733	125.703	-0.083	-0.106
-713.718	163.235	-0.199	0.284
-712.704	-12.936	-0.337	0.222
-711.689	800.000	-0.073	0.244
-710.675	-51.488	-0.116	-0.055
-709.660	-200.000	0.010	0.102
-708.645	98.776	0.071	0.083
-707.631	-22.423	0.229	-0.141
-706.616	197.203	0.067	-0.103
-705.602	40.525	0.122	-0.112
-704.587	241.752	0.109	-0.184
-703.572	255.720	0.104	0.181
-702.558	11.420	0.206	-0.159
-701.543	275.965	0.043	0.077
-700.529	129.649	-0.008	0.010
-699.514	-122.118	-0.085	0.014
-698.499	12.967	-0.229	-0.179
-697.485	-113.012	-0.342	0.068
-696.470	41.130	-0.213	0.195
-695.456	-62.185	0.301	0.127
-694.441	112.459	0.236	-0.289
-693.426	-63.110	-0.297	-0.124
-692.412	-116.928	0.297	-0.055
-691.397	-200.000	-0.074	-0.384
-690.383	5.800	0.133	-0.100
-689.368	64.286	0.027	0.027
-688.354	-200.000	0.050	0.256
-687.339	81.442	0.151	0.165
-686.324	-133.663	-0.187	0.024
-685.310	800.000	0.054	-0.159
-684.295	-75.268	0.119	-0.043
-683.281	-71.305	0.038	-0.015
-682.266	-121.340	0.199	0.034
-681.251	41.640	-0.055	-0.051
-680.237	-200.000	0.069	-0.323
-679.222	8.208	0.226	-0.172
-678.208	444.590	0.167	-0.370
-677.193	-200.000	-0.002	-0.158
-676.178	-19.806	0.094	-0.059
-675.164	-69.785	0.207	0.080
-674.149	-32.304	0.307	-0.173
-673.135	277.346	0.137	-0.246
-672.120	118.296	0.168	0.209
-671.105	-200.000	-0.004	-0.070
-670.091	272.510	0.070	-0.126
-669.076	-102.928	0.252	-0.061
-668.062	206.739	0.180	-0.283
-667.047	98.864	0.077	0.090
-666.032	-46.383	-0.281	0.139
-665.018	-124.990	-0.264	0.041
-664.003	-56.563	-0.115	0.051
-662.989	-200.000	0.019	0.179
-661.974	-46.860	-0.070	-0.035
-660.959	74.980	0.111	-0.118
-659.945	-166.660	-0.226	-0.009
-658.930	404.780	0.049	0.105
-657.916	-200.000	-0.020	-0.117
-656.901	268.908	-0.039	0.069
-655.886	171.966	0.115	-0.167
-654.872	-140.634	-0.313	0.033
-653.857	-83.583	0.102	0.033
-652.843	166.632	0.192	-0.275
-651.828	-48.440	0.159	0.077
-650.814	-65.300	0.131	-0.053
-649.799	-1.928	-0.071	-0.051
-648.784	11.763	0.201	-0.156
-647.770	201.089	-0.096	0.150
-646.755	-166.392	-0.456	-0.019
-645.741	-110.685	0.160	-0.033
-644.726	-46.065	0.350	-0.174
-643.711	-143.972	-0.225	0.021
-642.697	-8.739	0.146	-0.099
-641.682	-200.000	-0.093	-0.480
-640.668	-164.709	-0.233	0.011
-639.653	800.000	-0.076	-0.322
-638.638	-200.000	0.033	0.165
-637.624	-54.625	-0.114	0.052
-636.609	729.399	-0.033	-0.089
-635.595	14.698	-0.205	0.162
-634.580	-65.698	0.114	-0.046
-633.565	137.285	-0.324	-0.427
-632.551	19.763	-0.416	-0.338
-631.536	597.729	-0.067	-0.168
-630.522	-11.732	0.056	-0.037
-629.507	-200.000	-0.096	0.000
-628.492	-146.924	-0.179	0.016
-627.478	81.542	0.095	-0.104
-626.463	-23.044	0.070	-0.042
-625.449	-200.000	0.000	0.331
-624.434	-200.000	0.043	-0.287
-623.419	121.297	-0.088	0.111
-622.405	150.423	0.108	-0.148
-621.390	123.474	-0.186	0.235
-620.376	76.999	-0.109	-0.117
-619.361	-69.405	0.270	-0.105
-618.346	489.898	-0.121	-0.279
-617.332	-200.000	-0.002	-0.280
-616.317	656.588	-0.171	-0.444
-615.303	406.442	0.114	-0.242
-614.288	-39.355	0.071	0.038
-613.273	-12.980	-0.136	-0.090
-612.259	-138.844	0.118	0.013
-611.244	36.079	-0.105	0.093
-610.230	-75.750	0.186	0.067
-609.215	-148.405	-0.158	-0.013
-608.201	-200.000	0.039	0.210
-607.186	-110.604	-0.204	-0.043
-606.171	109.857	0.176	-0.212
-605.157	69.595	0.022	0.022
-604.142	-200.000	-0.003	0.026
-603.128	85.175	0.219	0.243
-602.113	504.410	0.093	0.218
-601.098	-91.424	-0.107	0.031
-600.084	122.383	-0.083	0.104
-599.069	-171.321	0.430	-0.015
-598.055	-84.432	-0.115	0.037
-597.040	-175.590	-0.119	-0.003
-596.025	-131.740	0.180	-0.024
-595.011	-19.793	-0.154	0.096
-593.996	-148.974	-0.194	-0.016
-592.982	800.000	0.063	0.236
-591.967	36.241	0.187	-0.166
-590.952	27.618	0.353	-0.300
-589.938	-200.000	0.004	-0.112
-588.923	142.265	-0.120	0.160
-587.909	-122.626	0.130	-0.021
-586.894	-40.975	0.131	0.068
-585.879	-90.064	-0.133	0.039
-584.865	-200.000	-0.233	0.001
-583.850	-60.887	0.165	0.071
-582.836	15.777	-0.205	0.163
-581.821	-200.000	-0.024	0.171
-580.806	394.864	0.024	0.051
-579.792	-4.454	-0.137	0.095
-578.777	800.000	0.067	0.194
-577.763	-16.000	0.129	0.082
-576.748	-94.389	0.086	-0.024
-575.733	-47.664	0.278	0.136
-574.719	449.515	0.085	-0.188
-573.704	33.946	-0.534	-0.468
-572.690	-134.165	-0.443	-0.055
-571.675	-200.000	0.329	-0.001
-570.661	800.000	0.106	-0.333
-569.646	800.000	0.052	0.183
-568.631	-63.184	0.096	-0.040
-567.617	-12.050	-0.151	0.100
-566.602	-200.000	-0.032	-0.163
-565.588	-200.000	0.039	0.183
-564.573	-98.203	-0.062	-0.016
-563.558	18.119	-0.237	0.190
-562.544	412.089	-0.092	-0.198
-561.529	274.996	0.153	-0.273
-560.515	11.587	-0.245	0.189
-559.500	788.198	-0.029	-0.081
-558.485	659.670	-0.047	0.122
-557.471	213.803	-0.007	0.011
-556.456	-16.857	0.198	-0.126
-555.442	173.992	0.158	0.230
-554.427	2.479	0.285	0.207
-553.412	-171.616	0.239	0.008
-552.398	-40.120	-0.302	0.158
-551.383	33.251	0.090	0.079
-550.369	-88.355	-0.173	0.052
-549.354	71.986	-0.105	0.110
-548.339	-96.465	0.300	-0.080
-547.325	203.624	0.153	-0.238
-546.310	-200.000	-0.001	0.037
-545.296	106.555	0.101	-0.120
-544.281	800.000	-0.072	0.281
-543.266	110.816	0.197	-0.239
-542.252	800.000	-0.044	-0.162
-541.237	509.180	-0.197	0.459
-540.223	136.505	0.123	0.161
-539.208	157.395	-0.207	0.289
-538.193	-110.017	-0.027	-0.006
-537.179	-136.111	-0.120	0.014
-536.164	660.732	0.112	-0.289
-535.150	-143.445	0.450	-0.043
-534.135	-109.247	0.436	0.093
-533.121	-54.339	-0.469	-0.214
-532.106	-68.456	-0.182	0.071
-531.091	800.000	0.041	0.138
-530.077	113.928	0.131	0.159
-529.062	405.406	0.154	0.326
-528.048	17.384	-0.277	0.221
-527.033	-95.639	-0.060	-0.016
-526.018	800.000	0.072	0.263
-525.004	-48.735	-0.233	-0.112
-523.989	-200.000	0.008	-0.183
-522.975	-84.077	-0.037	0.012
-521.960	126.853	0.043	0.054
-520.945	19.600	-0.124	0.100
-519.931	201.100	0.285	-0.440
-518.916	207.594	-0.127	-0.199
-517.902	-102.251	0.139	0.034
-516.887	156.626	-0.142	-0.197
-515.872	431.478	0.056	-0.121
-514.858	231.218	0.067	-0.111
-513.843	-129.198	-0.052	-0.007
-512.829	308.328	0.077	0.144
-511.814	109.776	-0.184	0.222
-510.799	800.000	0.047	-0.170
-509.785	-200.000	0.007	0.144
-508.770	-100.295	0.090	0.022
-507.756	-106.414	0.306	0.069
-506.741	-10.883	0.373	0.248
-505.726	-4.458	0.137	0.095
-504.712	800.000	0.144	-0.411
-503.697	119.776	-0.132	-0.165
-502.683	-23.558	0.019	-0.011
-501.668	-200.000	0.009	0.101
-500.653	-46.273	0.296	0.146
-499.639	129.293	-0.052	-0.067
-498.624	-182.994	-0.193	-0.003
-497.610	800.000	-0.030	0.121
-496.595	-200.000	0.008	-0.175
-495.581	-200.000	-0.054	0.251
-494.566	-200.000	-0.034	0.208
-493.551	-115.451	-0.301	-0.057
-492.537	-78.887	-0.210	-0.072
-491.522	-127.539	-0.180	0.026
-490.508	240.071	-0.112	-0.188
-489.493	-69.744	0.155	0.060
-488.478	-85.929	-0.157	0.049
-487.464	53.438	-0.163	-0.157
-486.449	800.000	0.042	0.116
-485.435	-200.000	-0.005	0.274
-484.420	-13.059	0.356	0.232
-483.405	-31.736	0.281	-0.158
-482.391	189.466	0.101	0.152
-481.376	-112.701	-0.088	0.017
-480.362	299.794	0.144	0.266
-479.347	-9.152	-0.194	0.130
-478.332	133.132	-0.034	-0.044
-477.318	42.247	-0.096	0.088
-476.303	16.896	-0.191	-0.152
-475.289	17.315	-0.158	0.125
-474.274	-200.000	0.034	0.231
-473.259	800.000	-0.077	-0.228
-472.245	-200.000	-0.013	-0.136
-471.230	-200.000	0.043	-0.247
-470.216	-109.461	-0.297	-0.063
-469.201	335.946	-0.128	-0.250
-468.186	-200.000	0.003	0.088
-467.172	-99.452	-0.130	0.033
-466.157	77.895	-0.368	-0.393
-465.143	221.851	-0.140	-0.225
-464.128	-148.225	0.211	0.017
-463.113	-114.758	-0.086	-0.016
-462.099	-21.276	-0.228	0.140
-461.084	0.469	0.137	0.098
-460.070	-50.212	0.291	0.138
-459.055	-147.911	0.043	0.004
-458.040	-56.019	-0.209	-0.093
-457.026	-67.919	-0.381	0.149
-456.011	89.801	0.129	-0.145
-454.997	-90.681	0.205	-0.059
-453.982	-200.000	-0.010	0.147
-452.968	144.004	-0.169	0.226
-451.953	175.144	-0.112	-0.163
-450.938	175.636	-0.169	-0.246
-449.924	-200.000	-0.015	-0.106
-448.909	73.837	0.098	0.103
-447.895	-74.494	-0.237	-0.086
-446.880	161.492	0.146	0.204
-445.865	69.694	0.111	0.115
-444.851	-33.897	-0.289	-0.159
-443.836	-97.163	0.131	0.034
-442.822	119.509	0.163	-0.202
-441.807	59.094	0.245	0.242
-440.792	-91.887	0.181	-0.051
-439.778	-200.000	-0.014	0.074
-438.763	-43.295	0.217	0.110
-437.749	-173.429	0.638	-0.019
-436.734	199.726	0.131	-0.201
-435.719	-200.000	0.002	0.523
-434.705	-23.415	0.196	-0.118
-433.690	154.632	0.034	-0.046
-432.676	127.131	-0.227	-0.288
-431.661	800.000	0.017	0.070
-430.646	800.000	0.031	0.122
-429.632	-200.000	0.023	-0.114
-428.617	-131.997	0.098	0.013
-427.603	-55.598	-0.122	0.055
-426.588	-118.760	0.109	0.019
-425.573	350.548	0.097	-0.192
-424.559	145.335	-0.248	-0.332
-423.544	-154.420	-0.109	-0.007
-422.530	279.369	0.176	-0.314
-421.515	-101.691	-0.240	0.058
-420.500	-167.521	0.178	-0.007
-419.486	-46.915	0.277	-0.136
-418.471	-200.000	-0.007	-0.114
-417.457	-63.691	0.135	-0.055
-416.442	-200.000	0.007	0.181
-415.428	71.913	-0.158	-0.165
-414.413	3.595	-0.194	-0.142
-413.398	-200.000	-0.017	-0.085
-412.384	800.000	-0.010	-0.031
-411.369	422.987	0.067	-0.144
-410.355	-26.631	-0.175	0.103
-409.340	-200.000	-0.005	0.369
-408.325	-200.000	0.013	-0.218
-407.311	800.000	-0.051	0.147
-406.296	-200.000	0.097	0.508
-405.282	-90.651	-0.351	0.101
-404.267	-120.826	-0.205	-0.035
-403.252	-190.313	-0.167	-0.002
-402.238	139.766	-0.105	0.138
-401.223	-160.638	0.197	0.010
-400.209	-14.716	0.105	-0.068
-399.194	19.575	0.186	-0.149
-398.179	-39.991	-0.276	-0.144
-397.165	800.000	0.091	0.255
-396.150	335.965	0.103	-0.201
-395.136	133.579	-0.112	0.145
-394.121	37.341	-0.230	-0.204
-393.106	299.797	-0.034	-0.062
-392.092	110.622	0.258	-0.311
-391.077	-78.187	0.376	0.129
-390.063	800.000	0.036	-0.112
-389.048	-10.443	-0.250	-0.166
-388.033	800.000	0.148	-0.410
-387.019	215.452	0.208	-0.329
-386.004	-113.815	-0.127	0.025
-384.990	800.000	0.078	-0.225
-383.975	219.890	-0.108	0.174
-382.960	800.000	-0.069	-0.240
-381.946	25.586	0.169	-0.141
-380.931	-145.424	-0.261	0.024
-379.917	800.000	-0.097	0.286
-378.902	-75.442	-0.124	0.044
-377.888	639.738	0.012	-0.031
-376.873	31.113	-0.205	0.176
-375.858	-18.377	-0.177	0.111
-374.844	-58.108	-0.355	0.155
-373.829	-123.943	0.094	-0.015
-372.815	369.786	-0.143	0.290
-371.800	-156.951	0.172	-0.011
-370.785	-79.218	0.115	0.039
-369.771	-200.000	-0.001	-0.130
-368.756	112.602	-0.170	0.206
-367.742	-27.056	0.148	-0.086
-366.727	73.960	-0.174	0.182
-365.712	-200.000	-0.012	-0.297
-364.698	14.361	0.093	-0.072
-363.683	45.143	-0.200	0.184
-362.669	-121.802	-0.242	0.040
-361.654	35.052	0.155	0.136
-360.639	799.813	0.058	0.159
-359.625	800.000	0.130	0.432
-358.610	103.294	0.076	0.089
-357.596	-2.674	0.069	0.048
-356.581	800.000	-0.033	-0.118
-355.566	-46.851	-0.274	0.134
-354.552	167.365	-0.144	0.205
-353.537	-91.982	-0.254	0.072
-352.523	-200.000	0.019	-0.125
-351.508	-93.744	0.219	0.060
-350.493	-190.355	0.317	-0.003
-349.479	366.274	0.142	-0.286
-348.464	83.082	0.155	-0.168
-347.450	297.342	-0.144	-0.264
-346.435	800.000	0.031	-0.085
-345.420	-94.865	0.014	-0.004
-344.406	624.215	-0.089	-0.225
-343.391	61.352	0.317	-0.315
-342.377	253.617	0.091	0.155
-341.362	-126.835	-0.372	0.055
-340.348	469.846	-0.035	-0.078
-339.333	147.540	-0.101	0.136
-338.318	187.570	-0.158	0.235
-337.304	-141.667	0.276	0.028
-336.289	-90.465	0.106	-0.031
-335.275	314.730	0.043	0.080
-334.260	370.986	0.110	0.222
-333.245	-200.000	-0.004	-0.063
-332.231	-200.000	0.004	-0.064
-331.216	800.000	-0.092	0.287
-330.202	800.000	0.055	-0.183
-329.187	7.409	-0.092	0.069
-328.172	25.021	0.205	-0.170
-327.158	-101.050	-0.171	0.042
-326.143	-191.418	-0.505	-0.005
-325.129	-200.000	-0.070	-0.373
-324.114	-200.000	-0.063	0.303
-323.099	-69.490	-0.264	0.101
-322.085	28.703	-0.109	0.092
-321.070	64.253	-0.097	0.098
-320.056	-99.667	-0.297	-0.074
-319.041	782.269	0.025	-0.068
-318.026	57.377	0.150	-0.146
-317.012	-109.083	-0.156	-0.033
-315.997	800.000	0.083	0.258
-314.983	176.202	0.147	0.213
-313.968	-177.682	-0.059	0.001
-312.953	45.639	0.121	0.111
-311.939	216.621	-0.049	0.077
-310.924	800.000	-0.101	0.374
-309.910	106.990	0.037	0.044
-308.895	-200.000	0.013	0.179
-307.880	-73.847	0.214	-0.078
-306.866	141.529	0.177	0.233
-305.851	-120.090	0.433	0.074
-304.837	-60.234	0.126	0.054
-303.822	800.000	0.042	0.160
-302.807	-48.117	-0.259	-0.125
-301.793	-200.000	-0.045	0.213
-300.778	695.047	0.069	0.179
-299.764	-106.845	-0.186	-0.041
-298.749	186.008	-0.074	-0.109
-297.735	200.663	0.082	-0.125
-296.720	48.483	0.116	-0.108
-295.705	59.941	-0.293	0.288
-294.691	-81.709	0.220	-0.072
-293.676	-200.000	0.044	-0.225
-292.662	15.593	-0.129	0.101
-291.647	-200.000	-0.091	-0.543
-290.632	66.348	0.122	0.123
-289.618	-200.000	0.008	-0.048
-288.603	-161.566	0.197	-0.010
-287.589	-200.000	-0.005	-0.036
-286.574	800.000	-0.024	0.068
-285.559	2.321	-0.156	-0.112
-284.545	217.784	0.146	0.232
-283.530	22.354	0.216	0.176
-282.516	-148.725	-0.226	0.018
-281.501	-154.660	-0.631	0.042
-280.486	-50.766	-0.142	0.066
-279.472	-179.400	0.363	0.008
-278.457	-200.000	0.019	-0.082
-277.443	-96.299	-0.192	-0.051
-276.428	800.000	0.062	-0.235
-275.413	-200.000	-0.009	-0.046
-274.399	-133.379	0.207	-0.026
-273.384	1.615	-0.423	0.303
-272.370	-157.720	0.310	-0.018
-271.355	800.000	0.066	-0.269
-270.340	-144.094	0.124	-0.012
-269.326	-200.000	-0.032	-0.176
-268.311	800.000	0.055	-0.209
-267.297	765.509	-0.077	-0.209
-266.282	-31.234	0.267	-0.149
-265.267	257.669	0.126	0.215
-264.253	543.098	0.063	-0.150
-263.238	-200.000	0.031	-0.301
-262.224	800.000	0.028	-0.099
-261.209	-135.746	-0.115	0.014
-260.195	-200.000	-0.040	0.187
-259.180	151.413	-0.148	0.200
-258.165	-200.000	-0.023	0.260
-257.151	-200.000	0.020	-0.131
-256.136	-200.000	0.071	0.316
-255.122	800.000	0.058	-0.165
-254.107	-123.656	0.275	-0.043
-253.092	-130.628	0.108	-0.014
-252.078	28.930	-0.195	-0.164
-251.063	-54.725	-0.226	-0.102
-250.049	-69.605	0.299	0.114
-249.034	-200.000	0.006	-0.110
-248.019	58.557	-0.176	0.171
-247.005	-78.580	-0.225	0.077
-245.990	200.620	0.076	0.116
-244.976	689.869	-0.066	0.173
-243.961	222.320	-0.100	-0.159
-242.946	-61.117	0.197	0.083
-241.932	62.622	-0.104	0.103
-240.917	-68.596	0.114	-0.044
-239.903	-200.000	-0.011	0.353
-238.888	742.626	0.073	-0.196
-237.873	-200.000	0.007	-0.213
-236.859	52.085	-0.092	0.087
-235.844	-64.673	0.199	0.080
-234.830	681.508	-0.092	0.237
-233.815	40.158	-0.072	-0.064
-232.800	800.000	0.067	0.231
-231.786	-83.237	0.169	0.054
-230.771	-101.793	-0.173	-0.042
-229.757	-65.408	-0.299	0.119
-228.742	14.552	0.193	0.150
-227.727	-21.180	0.188	0.114
-226.713	800.000	0.085	-0.237
-225.698	-113.160	0.241	-0.047
-224.684	222.913	-0.077	-0.124
-223.669	225.071	0.308	-0.494
-222.655	89.497	-0.103	-0.114
-221.640	800.000	-0.087	-0.361
-220.625	-37.897	0.189	0.100
-219.611	-200.000	0.038	-0.226
-218.596	-65.079	0.242	-0.097
-217.582	169.193	-0.080	0.114
-216.567	41.631	0.301	0.271
-215.552	132.687	0.131	0.167
-214.538	-60.592	0.325	-0.137
-213.523	800.000	0.074	0.253
-212.509	800.000	0.050	-0.145
-211.494	607.595	-0.077	-0.192
-210.479	-27.171	0.111	0.064
-209.465	-148.194	0.374	-0.031
-208.450	401.197	-0.042	-0.089
-207.436	-47.096	-0.313	-0.152
-206.421	-200.000	-0.004	-0.062
-205.406	-60.355	-0.323	0.136
-204.392	460.711	0.018	-0.040
-203.377	-4.677	0.166	-0.114
-202.363	-33.928	0.180	-0.098
-201.348	-58.179	-0.171	0.074
-200.333	-86.739	0.218	0.066
-199.319	-41.456	-0.323	0.165
-198.304	-200.000	-0.044	0.298
-197.290	-111.050	0.195	0.040
-196.275	-44.116	-0.126	0.063
-195.260	563.109	0.057	-0.138
-194.246	77.371	-0.067	0.071
-193.231	162.307	0.093	-0.130
-192.217	-156.247	0.244	0.015
-191.202	268.635	-0.106	0.185
-190.187	174.718	0.008	0.011
-189.173	276.107	-0.157	0.276
-188.158	-48.921	-0.102	-0.049
-187.144	-65.854	0.096	0.038
-186.129	-54.550	0.241	0.108
-185.114	478.995	-0.116	0.261
-184.100	800.000	0.069	-0.279
-183.085	86.972	0.184	-0.202
-182.071	634.603	0.136	0.342
-181.056	-200.000	0.013	0.108
-180.042	55.928	0.037	0.036
-179.027	-200.000	-0.094	0.473
-178.012	-200.000	0.016	-0.113
-176.998	767.564	0.112	-0.302
-175.983	-200.000	-0.034	-0.203
-174.969	319.190	0.083	0.157
-173.954	-200.000	-0.021	-0.200
-172.939	112.514	-0.166	-0.199
-171.925	-200.000	-0.026	-0.188
-170.910	-110.355	0.267	-0.055
-169.896	105.177	-0.127	0.149
-168.881	-44.371	0.150	-0.074
-167.866	-18.801	-0.314	0.194
-166.852	-142.227	-0.224	-0.022
-165.837	-149.396	0.252	0.020
-164.823	-200.000	0.006	-0.122
-163.808	-146.956	0.250	0.021
-162.793	800.000	-0.030	0.121
-161.779	379.361	0.150	-0.305
-160.764	800.000	0.025	0.107
-159.750	-88.365	-0.430	0.127
-158.735	-163.051	0.102	0.005
-157.720	800.000	0.032	-0.125
-156.706	800.000	0.020	-0.058
-155.691	111.719	-0.218	0.260
-154.677	-110.265	-0.149	0.031
-153.662	-8.090	-0.226	0.151
-152.647	-17.855	0.408	0.254
-151.633	800.000	0.062	0.209
-150.618	-60.500	0.243	0.102
-149.604	6.601	0.161	0.118
-148.589	263.565	0.072	0.124
-147.574	-115.369	-0.361	-0.067
-146.560	331.350	-0.069	-0.131
-145.545	180.787	-0.033	-0.048
-144.531	-200.000	-0.033	-0.151
-143.516	23.294	-0.227	-0.184
-142.502	-135.037	0.216	-0.026
-141.487	-37.505	-0.119	-0.063
-140.472	-56.200	0.306	-0.135
-139.458	52.238	-0.257	-0.243
-138.443	42.387	-0.269	0.242
-137.429	141.513	0.044	-0.058
-136.414	259.669	0.043	0.074
-135.399	-25.868	-0.255	-0.149
-134.385	67.925	-0.150	-0.151
-133.370	47.319	0.087	0.080
-132.356	-200.000	0.028	0.391
-131.341	241.377	0.074	0.123
-130.326	138.610	0.095	-0.124
-129.312	38.232	-0.260	-0.229
-128.297	-92.436	-0.315	0.088
-127.283	-200.000	0.005	0.061
-126.268	-25.174	0.230	0.135
-125.253	-131.986	-0.131	0.017
-124.239	800.000	0.007	0.024
-123.224	-89.393	0.305	0.089
-122.210	212.815	-0.275	-0.429
-121.195	136.717	-0.109	-0.140
-120.180	-200.000	0.020	0.133
