DTS Sentinel unit serial number:	SN413079Multiplexer serial number:	ORYXHardware model number:	OX4-SRSoftware version number:	ORYX F/W v4.00 Oryx Data Collector v3.7.2.0data status	okinstallation	princeton_trtdifferential loss correction	single-endedforward channel	channel 4reverse channel	N/Adate	2019/09/11time	23:11:11forward acquisition time	60.00reverse acquisition time	0.00gamma	496.2192k internal	0.2309k external	0.2309temperature offset calibration	1.0077default loss term (dB/km)	0.3790temperature slope calibration	1.0000multiplexer offset coefficient	1.0000multiplexer slope coefficient	1.0000fibre end	0.00T internal ref (°C)	34.50T ext. ref 1 (°C)	1.84T ext. ref 2 (°C)	28.11length (m)	temperature (°C)	Stokes	anti-Stokes-747.200	799.116	0.118	0.332
-746.185	-93.830	0.128	0.036
-745.171	646.395	0.032	-0.082
-744.156	-105.242	-0.245	-0.057
-743.142	-200.000	0.045	-0.203
-742.127	38.310	0.349	0.316
-741.112	331.613	0.137	0.268
-740.098	385.444	-0.212	0.445
-739.083	40.816	-0.187	0.172
-738.069	128.178	-0.175	0.227
-737.054	239.199	0.299	0.506
-736.039	-190.480	-0.118	-0.001
-735.025	-60.739	0.425	-0.183
-734.010	-129.418	-0.238	0.034
-732.996	15.275	-0.167	-0.133
-731.981	128.586	-0.099	0.129
-730.966	93.186	-0.269	0.309
-729.952	5.822	0.205	-0.154
-728.937	-200.000	-0.040	-0.247
-727.923	-200.000	0.017	0.210
-726.908	377.020	-0.120	0.250
-725.894	27.621	-0.221	0.189
-724.879	-11.083	0.185	-0.124
-723.864	194.695	0.140	0.215
-722.850	-5.504	0.217	0.151
-721.835	145.568	-0.157	-0.213
-720.821	-200.000	0.050	-0.383
-719.806	46.840	-0.133	0.126
-718.791	-95.621	0.340	-0.092
-717.777	-177.883	0.251	0.006
-716.762	201.809	-0.160	0.251
-715.748	-12.717	-0.316	-0.209
-714.733	-193.094	0.467	-0.004
-713.718	297.192	0.056	-0.105
-712.704	-139.402	-0.074	0.008
-711.689	-188.975	-0.160	0.002
-710.675	800.000	-0.026	-0.107
-709.660	-72.627	-0.132	0.049
-708.645	27.212	-0.092	-0.078
-707.631	165.585	0.295	-0.424
-706.616	-19.171	-0.338	-0.213
-705.602	800.000	-0.074	-0.273
-704.587	45.301	0.172	-0.161
-703.572	-32.368	0.097	0.055
-702.558	-200.000	0.008	0.040
-701.543	-23.048	0.117	-0.072
-700.529	-200.000	0.045	-0.308
-699.514	-200.000	0.001	0.014
-698.499	43.880	-0.156	0.145
-697.485	-103.179	-0.150	-0.036
-696.470	-96.832	-0.384	0.102
-695.456	-70.270	-0.109	0.042
-694.441	-200.000	-0.092	0.495
-693.426	-153.225	0.316	0.022
-692.412	-200.000	0.020	0.163
-691.397	-18.425	-0.230	-0.146
-690.383	20.297	-0.173	-0.141
-689.368	342.187	-0.158	-0.314
-688.354	-200.000	-0.010	0.155
-687.339	800.000	0.054	0.153
-686.324	78.066	-0.348	-0.376
-685.310	-59.593	-0.177	-0.077
-684.295	-200.000	0.013	0.187
-683.281	-114.979	0.292	-0.056
-682.266	-111.066	-0.155	0.032
-681.251	-19.693	0.382	-0.239
-680.237	-200.000	0.060	-0.384
-679.222	-34.885	-0.121	-0.067
-678.208	-46.812	0.443	-0.220
-677.193	-200.000	-0.030	0.201
-676.178	800.000	0.055	0.201
-675.164	196.601	0.251	-0.387
-674.149	-200.000	-0.011	-0.094
-673.135	750.981	-0.082	-0.223
-672.120	-110.783	0.335	-0.070
-671.105	-134.975	-0.164	0.020
-670.091	-200.000	0.017	0.367
-669.076	449.117	-0.061	-0.137
-668.062	-100.779	0.221	-0.055
-667.047	-16.568	0.056	-0.036
-666.032	131.680	0.059	-0.076
-665.018	118.865	-0.066	-0.083
-664.003	-6.931	0.252	0.174
-662.989	-200.000	0.028	-0.179
-661.974	-37.974	-0.177	0.095
-660.959	-72.345	-0.188	-0.070
-659.945	-200.000	-0.143	-0.001
-658.930	-145.243	0.321	-0.029
-657.916	431.945	0.153	0.336
-656.901	-200.000	0.003	0.206
-655.886	-30.890	0.183	0.105
-654.872	-66.819	0.094	0.038
-653.857	587.490	-0.140	-0.348
-652.843	-200.000	0.032	-0.337
-651.828	123.743	0.051	-0.065
-650.814	-95.630	0.296	-0.080
-649.799	-200.000	-0.091	-0.416
-648.784	-31.097	0.079	0.045
-647.770	-200.000	0.051	0.230
-646.755	800.000	0.067	-0.246
-645.741	43.100	0.152	-0.140
-644.726	431.354	0.075	-0.165
-643.711	22.620	0.070	0.058
-642.697	113.041	-0.317	-0.389
-641.682	-76.910	0.101	0.036
-640.668	-200.000	-0.032	-0.243
-639.653	-25.832	-0.197	0.117
-638.638	800.000	-0.007	-0.020
-637.624	55.945	0.276	0.271
-636.609	-32.674	-0.079	0.045
-635.595	-105.565	0.087	-0.020
-634.580	3.941	0.247	-0.183
-633.565	115.083	0.099	-0.122
-632.551	-200.000	-0.028	0.128
-631.536	294.278	0.152	0.281
-630.522	18.315	-0.077	-0.062
-629.507	407.134	0.171	-0.366
-628.492	-119.266	0.074	-0.013
-627.478	-200.000	0.034	0.458
-626.463	-72.172	-0.110	0.041
-625.449	-114.172	-0.246	-0.048
-624.434	-31.304	-0.097	0.055
-623.419	800.000	-0.040	-0.151
-622.405	-150.613	0.143	-0.011
-621.390	176.417	-0.069	-0.102
-620.376	800.000	0.060	0.205
-619.361	168.048	0.127	0.182
-618.346	399.032	0.068	0.143
-617.332	-51.736	0.110	0.052
-616.317	183.123	-0.076	-0.114
-615.303	-172.427	-0.187	0.006
-614.288	-17.777	0.156	-0.099
-613.273	-106.423	-0.140	-0.032
-612.259	279.640	0.028	0.051
-611.244	-104.551	0.278	0.065
-610.230	-200.000	-0.001	0.034
-609.215	-200.000	0.042	-0.331
-608.201	234.468	0.097	-0.162
-607.186	113.655	-0.113	-0.139
-606.171	-69.535	-0.186	-0.072
-605.157	-87.821	-0.332	-0.101
-604.142	-43.408	0.392	0.200
-603.128	800.000	-0.020	-0.063
-602.113	-14.556	-0.106	-0.069
-601.098	-182.296	-0.012	0.000
-600.084	-200.000	-0.039	0.181
-599.069	293.473	0.097	-0.179
-598.055	-82.989	0.373	-0.122
-597.040	-26.800	-0.227	0.134
-596.025	18.949	0.177	-0.143
-595.011	-75.807	-0.314	0.112
-593.996	299.001	-0.114	0.212
-592.982	-125.539	-0.481	0.074
-591.967	800.000	-0.075	-0.221
-590.952	-45.672	-0.381	0.190
-589.938	599.235	-0.046	-0.116
-588.923	116.019	-0.208	0.257
-587.909	-146.566	0.266	-0.023
-586.894	35.060	0.077	-0.069
-585.879	-86.359	0.126	0.039
-584.865	-200.000	-0.027	0.253
-583.850	800.000	-0.107	-0.461
-582.836	800.000	0.041	-0.173
-581.821	298.091	0.053	0.098
-580.806	363.506	-0.032	0.064
-579.792	-109.987	-0.465	0.098
-578.777	64.269	-0.057	-0.058
-577.763	-200.000	0.046	0.235
-576.748	-199.123	-0.097	0.001
-575.733	-100.774	0.156	0.039
-574.719	163.349	-0.128	-0.181
-573.704	165.961	0.037	-0.053
-572.690	-181.815	-0.310	-0.006
-571.675	800.000	-0.092	-0.381
-570.661	-136.488	0.128	0.015
-569.646	-114.246	0.104	0.020
-568.631	-167.816	0.196	0.008
-567.617	9.524	-0.090	0.069
-566.602	357.061	-0.113	-0.228
-565.588	199.851	-0.122	0.189
-564.573	800.000	-0.143	-0.471
-563.558	-109.944	0.073	-0.015
-562.544	442.098	-0.011	-0.025
-561.529	-200.000	-0.018	-0.081
-560.515	-20.159	0.120	0.075
-559.500	-200.000	-0.034	-0.193
-558.485	356.856	-0.153	-0.307
-557.471	-23.594	-0.093	-0.056
-556.456	421.622	0.109	0.237
-555.442	-97.511	-0.144	0.038
-554.427	144.468	-0.094	-0.126
-553.412	-200.000	0.015	0.219
-552.398	-162.201	0.178	0.009
-551.383	-200.000	0.001	0.094
-550.369	-200.000	-0.008	-0.144
-549.354	-135.475	0.131	0.016
-548.339	-21.453	-0.120	-0.074
-547.325	383.746	0.092	-0.191
-546.310	51.140	0.270	-0.259
-545.296	378.657	-0.112	0.231
-544.281	-95.947	-0.267	-0.072
-543.266	-200.000	-0.023	-0.159
-542.252	240.198	0.111	0.187
-541.237	112.200	-0.193	-0.235
-540.223	-200.000	0.022	0.277
-539.208	276.663	0.139	0.248
-538.193	134.694	-0.191	0.250
-537.179	44.905	-0.109	0.101
-536.164	519.203	0.122	0.287
-535.150	-40.884	-0.126	-0.065
-534.135	-200.000	0.060	-0.313
-533.121	464.748	-0.068	0.154
-532.106	94.108	-0.035	-0.041
-531.091	-31.013	0.185	-0.105
-530.077	229.059	-0.089	-0.147
-529.062	-58.453	0.344	0.151
-528.048	-170.662	-0.113	-0.004
-527.033	388.218	-0.152	0.317
-526.018	800.000	0.093	-0.276
-525.004	239.854	0.187	0.313
-523.989	429.990	-0.058	0.126
-522.975	382.886	-0.039	0.081
-521.960	800.000	0.060	0.238
-520.945	16.395	-0.144	-0.114
-519.931	83.434	-0.116	-0.127
-518.916	-134.785	-0.075	0.009
-517.902	397.903	-0.034	-0.071
-516.887	28.038	0.163	0.139
-515.872	-62.876	-0.184	-0.077
-514.858	-200.000	-0.065	-0.329
-513.843	738.283	-0.089	-0.242
-512.829	-137.256	0.104	0.012
-511.814	-0.373	0.159	-0.113
-510.799	28.762	-0.113	0.096
-509.785	-12.945	-0.059	0.039
-508.770	29.622	0.120	-0.103
-507.756	20.783	-0.106	0.086
-506.741	-200.000	0.000	-0.206
-505.726	-21.092	0.122	-0.075
-504.712	171.215	-0.020	-0.029
-503.697	-61.517	-0.109	-0.046
-502.683	128.816	0.302	-0.387
-501.668	-25.856	-0.079	0.047
-500.653	800.000	-0.072	-0.212
-499.639	-200.000	0.037	0.243
-498.624	-123.940	0.359	0.057
-497.610	29.822	0.039	-0.033
-496.595	-189.824	0.282	-0.003
-495.581	-94.704	0.033	-0.009
-494.566	800.000	0.052	0.178
-493.551	-116.570	0.036	-0.007
-492.537	800.000	-0.033	-0.143
-491.522	-155.229	0.209	-0.014
-490.508	-58.804	0.130	-0.057
-489.493	-173.508	-0.414	0.013
-488.478	-200.000	-0.044	0.321
-487.464	-200.000	-0.016	-0.107
-486.449	-200.000	-0.057	-0.337
-485.435	533.592	-0.129	0.307
-484.420	-123.779	0.324	0.051
-483.405	564.513	-0.062	-0.152
-482.391	228.589	0.096	0.157
-481.376	182.181	0.133	0.197
-480.362	-138.921	0.232	0.025
-479.347	280.649	-0.150	0.270
-478.332	-98.420	-0.332	0.085
-477.318	-174.839	-0.034	0.001
-476.303	800.000	0.153	0.448
-475.289	78.627	-0.196	-0.211
-474.274	800.000	0.071	-0.219
-473.259	-42.506	-0.279	-0.143
-472.245	800.000	0.038	0.120
-471.230	-200.000	0.034	0.169
-470.216	-77.197	-0.186	-0.065
-469.201	-65.904	0.481	0.193
-468.186	-108.849	0.188	0.040
-467.172	-200.000	0.023	-0.149
-466.157	-22.749	0.169	-0.103
-465.143	23.260	-0.053	0.044
-464.128	-169.278	0.121	0.004
-463.113	-200.000	0.001	-0.173
-462.099	129.929	-0.133	0.171
-461.084	164.351	-0.016	-0.023
-460.070	-18.309	0.132	-0.083
-459.055	-200.000	-0.012	-0.135
-458.040	800.000	-0.050	0.192
-457.026	105.453	-0.162	0.192
-456.011	-120.538	-0.264	0.045
-454.997	800.000	-0.082	0.247
-453.982	196.381	0.158	0.242
-452.968	-191.538	0.140	0.001
-451.953	800.000	-0.010	-0.037
-450.938	-106.594	-0.028	0.006
-449.924	22.267	0.105	0.086
-448.909	800.000	-0.100	0.289
-447.895	-200.000	-0.009	0.099
-446.880	-112.403	0.050	-0.010
-445.865	160.536	-0.249	0.349
-444.851	196.828	0.133	0.204
-443.836	626.103	0.066	0.167
-442.822	247.321	-0.114	0.194
-441.807	-36.641	0.117	-0.063
-440.792	-44.587	-0.319	0.160
-439.778	57.651	0.190	0.187
-438.763	74.999	0.204	-0.216
-437.749	800.000	0.036	-0.156
-436.734	800.000	-0.028	-0.099
-435.719	-62.290	0.218	-0.091
-434.705	-34.119	-0.152	0.084
-433.690	29.466	0.330	-0.281
-432.676	438.555	0.262	-0.573
-431.661	-200.000	0.012	-0.272
-430.646	99.089	-0.166	-0.193
-429.632	-138.900	0.076	-0.008
-428.617	-200.000	0.009	0.140
-427.603	-74.673	-0.228	0.082
-426.588	-200.000	0.072	-0.394
-425.573	-147.583	-0.124	-0.010
-424.559	-63.486	0.048	0.020
-423.544	441.203	-0.057	-0.124
-422.530	-46.023	0.259	0.128
-421.515	-143.398	0.241	0.023
-420.500	136.418	-0.170	0.223
-419.486	-200.000	0.024	-0.192
-418.471	40.837	0.130	0.118
-417.457	-200.000	0.003	-0.114
-416.442	-20.865	0.086	0.053
-415.428	110.941	-0.147	-0.177
-414.413	800.000	-0.046	0.179
-413.398	-89.174	0.168	0.050
-412.384	47.847	-0.250	-0.234
-411.369	-0.047	-0.067	0.048
-410.355	800.000	0.036	-0.108
-409.340	206.503	0.041	-0.064
-408.325	61.075	-0.125	-0.125
-407.311	-200.000	-0.004	0.254
-406.296	501.324	0.126	0.292
-405.282	800.000	0.071	0.258
-404.267	-76.515	-0.210	0.074
-403.252	111.227	0.077	0.093
-402.238	-130.964	0.253	-0.034
-401.223	-95.771	0.073	0.020
-400.209	19.494	0.138	-0.111
-399.194	-70.124	-0.222	0.085
-398.179	267.696	-0.167	0.293
-397.165	139.311	-0.164	0.216
-396.150	-92.873	0.302	-0.085
-395.136	525.180	-0.039	-0.091
-394.121	122.000	0.036	0.045
-393.106	-200.000	0.027	0.436
-392.092	-54.390	0.167	-0.076
-391.077	800.000	-0.071	0.204
-390.063	-200.000	-0.068	0.447
-389.048	117.219	-0.178	0.219
-388.033	80.032	0.059	-0.063
-387.019	-72.274	0.271	0.101
-386.004	58.895	0.123	-0.121
-384.990	-40.264	0.162	0.085
-383.975	-200.000	0.009	-0.076
-382.960	215.280	-0.160	0.254
-381.946	177.864	0.065	0.095
-380.931	-200.000	-0.004	0.159
-379.917	-66.580	0.332	0.132
-378.902	-42.558	0.264	0.135
-377.888	311.175	0.148	-0.277
-376.873	87.859	-0.171	0.190
-375.858	-200.000	-0.036	-0.263
-374.844	169.478	-0.053	-0.076
-373.829	-147.045	0.181	0.015
-372.815	-12.156	0.272	-0.178
-371.800	249.368	0.053	0.091
-370.785	-110.605	-0.193	0.040
-369.771	329.159	0.196	-0.377
-368.756	487.099	-0.032	0.073
-367.742	-200.000	0.024	0.113
-366.727	340.216	-0.106	0.207
-365.712	-200.000	0.003	0.132
-364.698	-8.737	-0.249	-0.167
-363.683	80.178	0.094	-0.101
-362.669	71.383	-0.225	0.233
-361.654	190.260	0.099	-0.148
-360.639	-76.205	0.188	0.066
-359.625	-89.121	-0.318	-0.094
-358.610	-56.565	0.345	0.153
-357.596	800.000	0.070	-0.200
-356.581	134.168	0.185	-0.240
-355.566	-42.880	-0.062	0.032
-354.552	391.818	0.114	0.236
-353.537	-175.370	-0.052	0.001
-352.523	-11.783	-0.212	0.140
-351.508	18.204	0.136	-0.108
-350.493	424.527	0.091	-0.197
-349.479	-76.502	-0.080	0.028
-348.464	-35.472	0.202	0.110
-347.450	-52.415	-0.266	0.123
-346.435	88.420	-0.189	0.210
-345.420	-200.000	0.016	0.092
-344.406	800.000	-0.053	0.199
-343.391	-41.607	-0.352	0.181
-342.377	-102.377	-0.327	0.078
-341.362	40.104	0.189	-0.169
-340.348	-200.000	0.030	0.137
-339.333	-54.202	0.199	0.091
-338.318	800.000	0.023	-0.098
-337.304	-48.597	0.188	0.091
-336.289	23.867	-0.390	-0.322
-335.275	70.909	0.053	0.054
-334.260	800.000	0.093	-0.312
-333.245	-174.808	-0.071	-0.002
-332.231	-42.761	0.280	-0.142
-331.216	-110.855	-0.038	0.008
-330.202	800.000	0.035	0.099
-329.187	-57.308	-0.349	0.153
-328.172	-32.432	0.207	-0.115
-327.158	180.943	-0.101	-0.148
-326.143	110.043	-0.282	-0.339
-325.129	116.964	-0.056	0.068
-324.114	178.852	-0.080	0.117
-323.099	18.710	-0.149	-0.119
-322.085	293.897	-0.114	-0.209
-321.070	-141.413	0.182	-0.018
-320.056	-21.813	0.058	0.035
-319.041	800.000	0.067	-0.263
-318.026	-200.000	0.025	-0.196
-317.012	-106.802	0.119	-0.026
-315.997	267.834	0.081	0.142
-314.983	-200.000	0.052	0.234
-313.968	-200.000	0.047	0.210
-312.953	-200.000	-0.046	0.209
-311.939	82.321	0.223	0.242
-310.924	-120.498	-0.289	-0.049
-309.910	-200.000	-0.014	-0.162
-308.895	28.355	-0.079	0.066
-307.880	-200.000	0.024	-0.217
-306.866	-85.421	-0.035	-0.011
-305.851	-50.430	0.105	0.050
-304.837	104.099	0.142	0.167
-303.822	144.615	-0.078	-0.104
-302.807	800.000	-0.042	0.161
-301.793	-46.617	-0.344	-0.168
-300.778	417.438	-0.126	0.269
-299.764	278.182	-0.084	-0.150
-298.749	1.869	0.264	-0.190
-297.735	603.557	-0.129	0.320
-296.720	-81.954	-0.299	0.098
-295.705	-60.825	0.334	-0.141
-294.691	800.000	0.104	0.368
-293.676	114.373	0.185	-0.225
-292.662	800.000	0.097	0.286
-291.647	-81.109	-0.162	0.054
-290.632	110.735	-0.243	-0.292
-289.618	-65.622	-0.123	-0.049
-288.603	-90.698	-0.320	0.092
-287.589	800.000	0.049	0.214
-286.574	-151.313	-0.383	-0.029
-285.559	17.362	-0.203	0.161
-284.545	-141.387	0.266	-0.027
-283.530	-57.207	0.184	0.081
-282.516	-182.510	-0.360	0.007
-281.501	-168.821	0.054	-0.002
-280.486	-176.301	0.561	-0.015
-279.472	674.701	0.084	-0.218
-278.457	79.116	0.176	-0.188
-277.443	-200.000	0.008	0.036
-276.428	-67.692	0.323	-0.126
-275.413	-76.798	-0.245	0.085
-274.399	-105.939	0.451	-0.101
-273.384	31.417	-0.212	-0.182
-272.370	385.215	0.080	-0.165
-271.355	144.658	0.176	-0.234
-270.340	-134.797	-0.214	0.026
-269.326	668.140	-0.163	-0.421
-268.311	-167.626	0.208	0.008
-267.297	-48.520	-0.216	-0.104
-266.282	-65.770	0.207	0.082
-265.267	147.255	-0.080	-0.108
-264.253	-200.000	0.013	-0.102
-263.238	-200.000	-0.013	0.097
-262.224	-60.942	0.122	-0.051
-261.209	800.000	-0.060	-0.176
-260.195	-13.331	0.119	-0.077
-259.180	-35.249	-0.359	-0.195
-258.165	-198.672	-0.118	-0.001
-257.151	-135.652	0.082	-0.010
-256.136	101.884	-0.057	0.066
-255.122	-36.026	0.171	0.092
-254.107	80.841	0.051	-0.054
-253.092	-73.053	0.271	0.099
-252.078	-1.293	0.245	0.173
-251.063	235.615	0.127	0.210
-250.049	-4.578	0.189	0.130
-249.034	-200.000	0.018	0.254
-248.019	-15.224	-0.078	-0.050
-247.005	260.594	0.158	0.273
-245.990	57.765	0.107	0.105
-244.976	-88.802	-0.545	0.161
-243.961	-15.195	-0.348	0.222
-242.946	800.000	0.059	0.195
-241.932	-200.000	0.043	-0.338
-240.917	-200.000	-0.014	0.136
-239.903	-122.347	0.201	0.033
-238.888	198.969	0.177	-0.270
-237.873	-136.924	-0.315	0.036
-236.859	-200.000	0.004	-0.183
-235.844	-200.000	-0.001	-0.202
-234.830	-200.000	-0.010	0.062
-233.815	-200.000	0.005	0.083
-232.800	40.919	0.109	0.098
-231.786	64.146	-0.026	0.026
-230.771	134.073	0.162	0.209
-229.757	-132.650	0.277	0.035
-228.742	433.099	-0.080	-0.174
-227.727	175.169	0.100	-0.144
-226.713	-200.000	-0.049	-0.304
-225.698	-73.366	0.217	0.079
-224.684	-135.724	-0.310	0.037
-223.669	-84.652	-0.170	-0.053
-222.655	-200.000	0.011	-0.408
-221.640	206.922	0.101	-0.157
-220.625	86.475	-0.188	0.207
-219.611	-156.221	0.245	0.015
-218.596	-200.000	-0.037	-0.312
-217.582	145.017	-0.130	-0.173
-216.567	531.495	-0.025	0.059
-215.552	-164.210	0.254	0.012
-214.538	371.058	-0.071	0.142
-213.523	-35.478	0.132	0.071
-212.509	-112.114	0.098	0.020
-211.494	-200.000	-0.025	-0.170
-210.479	800.000	0.135	-0.413
-209.465	371.287	0.195	-0.394
-208.450	-156.967	-0.053	-0.003
-207.436	-163.435	0.365	0.017
-206.421	-25.838	-0.286	-0.167
-205.406	-191.882	-0.252	0.002
-204.392	246.018	-0.176	0.295
-203.377	800.000	-0.054	0.207
-202.363	-109.895	-0.295	-0.061
-201.348	34.487	-0.168	-0.146
-200.333	-200.000	-0.059	0.307
-199.319	-57.852	-0.192	0.084
-198.304	225.996	0.095	0.153
-197.290	312.634	0.087	0.162
-196.275	-105.502	-0.286	0.065
-195.260	96.486	0.071	-0.081
-194.246	800.000	0.028	0.107
-193.231	-200.000	0.004	0.137
-192.217	-83.249	0.102	-0.032
-191.202	-144.878	0.144	-0.013
-190.187	89.395	-0.289	-0.320
-189.173	72.766	-0.228	0.237
-188.158	-200.000	0.005	0.125
-187.144	109.819	0.202	0.241
-186.129	-104.530	-0.150	-0.034
-185.114	449.604	-0.119	-0.260
-184.100	-53.611	-0.261	-0.119
-183.085	136.347	-0.247	0.320
-182.071	286.340	0.132	0.237
-181.056	-126.180	-0.233	0.035
-180.042	457.498	0.024	-0.054
-179.027	-146.797	0.094	0.008
-178.012	269.283	-0.144	-0.251
-176.998	48.943	0.100	0.093
-175.983	354.965	-0.047	-0.094
-174.969	800.000	-0.006	0.018
-173.954	781.368	-0.103	-0.280
-172.939	452.084	-0.195	0.428
-171.925	-200.000	-0.005	-0.168
-170.910	-96.343	0.083	-0.022
-169.896	-200.000	0.037	0.166
-168.881	-130.988	-0.034	0.005
-167.866	800.000	0.057	-0.164
-166.852	800.000	-0.034	-0.134
-165.837	-46.237	-0.136	-0.066
-164.823	-105.723	-0.224	0.050
-163.808	386.340	-0.075	0.154
-162.793	800.000	0.074	-0.267
-161.779	-200.000	-0.000	0.105
-160.764	-200.000	0.035	-0.170
-159.750	-102.143	-0.075	-0.018
-158.735	-143.884	-0.226	0.021
-157.720	12.877	0.267	-0.205
-156.706	124.684	0.090	0.112
-155.691	256.566	-0.186	0.317
-154.677	-149.759	0.225	-0.018
-153.662	800.000	-0.077	-0.273
-152.647	-34.986	0.353	-0.191
-151.633	-103.679	0.094	-0.022
-150.618	-83.862	-0.114	0.036
-149.604	800.000	-0.082	0.314
-148.589	-189.294	-0.247	0.003
-147.574	425.559	0.068	0.146
-146.560	-14.353	0.320	-0.205
-145.545	-1.745	-0.484	0.338
-144.531	-200.000	-0.032	-0.401
-143.516	-26.925	0.136	0.079
-142.502	89.313	0.378	-0.418
-141.487	-78.705	0.365	0.124
-140.472	-200.000	0.141	0.000
-139.458	-200.000	-0.018	-0.193
-138.443	-200.000	-0.032	0.153
-137.429	-107.517	0.355	-0.077
-136.414	-65.087	0.078	0.031
-135.399	42.870	-0.169	0.153
-134.385	-200.000	-0.013	0.179
-133.370	-200.000	-0.006	0.095
-132.356	-118.642	-0.203	-0.035
-131.341	210.970	0.102	-0.159
-130.326	-60.066	-0.204	-0.086
-129.312	-23.946	-0.292	-0.173
-128.297	-138.012	0.136	0.015
-127.283	-49.799	-0.187	0.088
-126.268	-129.279	0.150	-0.021
-125.253	-200.000	-0.006	0.209
-124.239	146.388	-0.153	-0.203
-123.224	800.000	-0.058	-0.219
-122.210	302.415	-0.115	-0.211
