DTS Sentinel unit serial number:	SN413079Multiplexer serial number:	ORYXHardware model number:	OX4-SRSoftware version number:	ORYX F/W v4.00 Oryx Data Collector v3.7.2.0data status	okinstallation	princeton_trtdifferential loss correction	single-endedforward channel	channel 4reverse channel	N/Adate	2019/09/12time	03:51:11forward acquisition time	60.00reverse acquisition time	0.00gamma	496.2192k internal	0.2309k external	0.2309temperature offset calibration	1.0092default loss term (dB/km)	0.3790temperature slope calibration	1.0000multiplexer offset coefficient	1.0000multiplexer slope coefficient	1.0000fibre end	0.00T internal ref (°C)	32.16T ext. ref 1 (°C)	2.14T ext. ref 2 (°C)	27.31length (m)	temperature (°C)	Stokes	anti-Stokes-747.200	-25.712	0.078	0.046
-746.185	250.763	-0.153	0.265
-745.171	140.086	0.164	-0.220
-744.156	68.580	-0.281	0.293
-743.142	-79.167	-0.268	-0.092
-742.127	-132.422	0.358	0.047
-741.112	-117.536	0.253	0.046
-740.098	800.000	-0.063	-0.211
-739.083	39.062	-0.219	-0.199
-738.069	84.227	-0.220	0.245
-737.054	-129.501	-0.208	-0.029
-736.039	-99.487	-0.432	0.110
-735.025	-118.731	-0.088	-0.016
-734.010	-115.849	-0.196	-0.037
-732.996	-148.148	-0.219	0.018
-731.981	-149.772	-0.152	0.012
-730.966	-56.672	0.286	0.128
-729.952	-200.000	-0.027	-0.178
-728.937	66.545	0.162	-0.167
-727.923	800.000	-0.070	-0.238
-726.908	-10.346	-0.240	0.162
-725.894	222.134	-0.125	0.204
-724.879	-16.801	0.268	-0.172
-723.864	-41.193	-0.053	-0.027
-722.850	-123.219	0.422	-0.069
-721.835	319.723	-0.049	-0.095
-720.821	-107.603	-0.301	0.067
-719.806	-12.782	0.096	0.063
-718.791	289.945	0.183	0.336
-717.777	-200.000	-0.050	-0.237
-716.762	-66.383	-0.039	0.016
-715.748	-200.000	-0.043	-0.215
-714.733	-81.590	-0.036	-0.012
-713.718	287.563	0.055	-0.100
-712.704	310.867	0.060	-0.114
-711.689	800.000	-0.039	-0.129
-710.675	-155.535	0.106	-0.007
-709.660	-200.000	0.053	-0.312
-708.645	-14.880	-0.240	-0.156
-707.631	800.000	-0.037	0.155
-706.616	97.457	-0.181	-0.211
-705.602	75.170	0.225	-0.240
-704.587	800.000	0.117	-0.429
-703.572	-115.452	-0.354	-0.068
-702.558	-45.700	0.198	-0.099
-701.543	307.108	0.098	-0.185
-700.529	-8.176	0.408	-0.278
-699.514	35.866	-0.078	-0.069
-698.499	-200.000	-0.035	-0.294
-697.485	-200.000	0.001	-0.240
-696.470	397.803	-0.125	-0.265
-695.456	280.357	-0.041	0.075
-694.441	-22.167	0.140	-0.086
-693.426	346.730	-0.038	0.076
-692.412	-89.055	-0.259	-0.078
-691.397	0.086	-0.068	0.049
-690.383	-38.633	-0.137	-0.073
-689.368	800.000	0.047	-0.161
-688.354	85.307	0.131	-0.146
-687.339	-200.000	-0.004	0.027
-686.324	-22.202	0.074	0.046
-685.310	197.515	0.107	0.166
-684.295	153.970	0.255	-0.355
-683.281	-128.922	0.226	-0.032
-682.266	258.080	-0.092	-0.161
-681.251	-87.484	0.115	-0.035
-680.237	-181.409	-0.270	0.005
-679.222	-112.571	0.201	-0.041
-678.208	-90.821	-0.211	-0.062
-677.193	-200.000	0.007	0.070
-676.178	-22.643	0.360	-0.221
-675.164	800.000	0.065	-0.185
-674.149	536.085	0.067	-0.162
-673.135	800.000	-0.081	-0.237
-672.120	-124.925	0.135	0.021
-671.105	647.333	-0.025	-0.065
-670.091	-200.000	-0.006	-0.299
-669.076	257.932	-0.136	0.236
-668.062	268.903	-0.214	-0.381
-667.047	-177.309	0.209	-0.005
-666.032	-44.073	0.220	0.112
-665.018	800.000	0.122	0.474
-664.003	-53.908	-0.100	-0.046
-662.989	97.669	0.086	0.101
-661.974	9.248	0.145	-0.111
-660.959	49.099	0.466	0.443
-659.945	-157.391	0.316	-0.019
-658.930	-200.000	0.045	-0.233
-657.916	-120.424	0.109	0.019
-656.901	456.471	-0.100	-0.224
-655.886	-200.000	0.056	-0.312
-654.872	-47.602	-0.268	0.132
-653.857	800.000	0.079	0.254
-652.843	68.169	0.119	-0.123
-651.828	-88.645	-0.440	0.132
-650.814	-93.654	0.247	0.069
-649.799	159.097	-0.078	0.110
-648.784	-91.297	0.335	0.097
-647.770	-200.000	-0.069	-0.357
-646.755	-200.000	-0.056	0.301
-645.741	-200.000	0.051	-0.373
-644.726	-88.970	0.289	-0.087
-643.711	28.658	0.041	0.035
-642.697	-200.000	0.013	0.070
-641.682	-5.868	-0.162	0.112
-640.668	800.000	0.053	-0.204
-639.653	-14.457	-0.164	-0.107
-638.638	151.926	0.143	-0.197
-637.624	-47.399	-0.159	-0.078
-636.609	15.074	-0.193	0.153
-635.595	461.566	-0.094	0.213
-634.580	800.000	-0.028	0.109
-633.565	-179.144	0.006	-0.000
-632.551	-94.574	0.242	0.067
-631.536	145.398	0.112	-0.152
-630.522	21.821	-0.168	-0.139
-629.507	136.938	-0.048	-0.064
-628.492	-200.000	0.033	0.270
-627.478	-191.402	0.520	-0.005
-626.463	-200.000	-0.010	0.095
-625.449	800.000	0.007	-0.027
-624.434	-200.000	0.055	0.346
-623.419	81.564	0.114	-0.125
-622.405	-37.171	-0.222	-0.120
-621.390	-65.149	-0.396	-0.162
-620.376	452.075	0.055	0.123
-619.361	-18.702	0.323	0.204
-618.346	-55.057	0.361	-0.164
-617.332	109.941	-0.229	-0.278
-616.317	-4.227	0.210	-0.147
-615.303	-22.842	-0.230	0.140
-614.288	-121.939	0.483	0.080
-613.273	-200.000	-0.004	-0.096
-612.259	-104.066	0.055	0.013
-611.244	-200.000	-0.024	-0.231
-610.230	15.960	0.045	0.036
-609.215	83.251	0.184	0.203
-608.201	-38.718	-0.260	-0.139
-607.186	189.720	-0.177	0.269
-606.171	165.123	-0.024	-0.035
-605.157	378.355	0.125	-0.259
-604.142	273.441	0.144	0.257
-603.128	800.000	-0.010	-0.043
-602.113	-3.729	-0.258	-0.181
-601.098	188.738	0.144	-0.218
-600.084	-200.000	0.035	0.231
-599.069	17.059	0.108	0.087
-598.055	-1.008	-0.125	-0.089
-597.040	33.000	0.286	0.250
-596.025	-95.453	0.055	-0.015
-595.011	427.765	0.100	-0.218
-593.996	-200.000	0.015	-0.164
-592.982	304.233	0.085	-0.159
-591.967	-134.752	-0.135	0.017
-590.952	101.393	0.239	0.282
-589.938	-67.672	-0.155	0.061
-588.923	-68.991	0.330	-0.129
-587.909	68.201	-0.129	0.134
-586.894	262.715	0.138	-0.242
-585.879	-104.487	0.272	0.063
-584.865	-200.000	0.039	-0.361
-583.850	-127.855	-0.146	-0.021
-582.836	-90.361	0.070	0.020
-581.821	115.434	-0.157	0.193
-580.806	-81.397	-0.324	-0.108
-579.792	-35.087	0.249	-0.137
-578.777	45.274	0.042	0.039
-577.763	-6.483	-0.139	0.096
-576.748	348.395	0.159	-0.316
-575.733	-10.956	0.435	-0.290
-574.719	197.297	0.128	-0.197
-573.704	110.383	0.165	0.200
-572.690	-125.469	0.074	-0.011
-571.675	-200.000	0.025	0.206
-570.661	93.763	-0.117	0.134
-569.646	-200.000	0.041	0.282
-568.631	-200.000	-0.019	-0.245
-567.617	-114.380	-0.116	0.022
-566.602	800.000	-0.066	-0.282
-565.588	378.901	0.114	-0.235
-564.573	-125.435	-0.170	-0.026
-563.558	-52.486	0.064	0.030
-562.544	185.257	-0.094	0.141
-561.529	240.463	0.037	-0.063
-560.515	2.287	0.206	-0.150
-559.500	170.542	-0.244	0.352
-558.485	-200.000	0.010	-0.209
-557.471	-14.667	0.035	-0.023
-556.456	26.994	0.119	-0.101
-555.442	576.638	-0.038	0.094
-554.427	-96.488	-0.281	0.075
-553.412	-19.610	-0.245	-0.153
-552.398	139.812	-0.123	-0.163
-551.383	315.164	0.081	-0.153
-550.369	800.000	-0.017	0.061
-549.354	-122.430	0.160	-0.026
-548.339	-15.169	-0.027	-0.017
-547.325	299.278	0.151	-0.280
-546.310	-200.000	-0.070	0.486
-545.296	-92.464	-0.143	-0.040
-544.281	-200.000	-0.001	0.413
-543.266	66.842	-0.207	0.213
-542.252	470.406	-0.103	0.234
-541.237	101.977	-0.271	0.319
-540.223	-200.000	-0.069	0.505
-539.208	-200.000	0.017	-0.102
-538.193	-28.116	-0.158	-0.092
-537.179	800.000	-0.010	-0.033
-536.164	87.815	-0.287	-0.321
-535.150	800.000	-0.072	-0.312
-534.135	-200.000	-0.006	-0.186
-533.121	-94.973	0.103	-0.028
-532.106	800.000	-0.016	0.054
-531.091	-91.033	-0.286	0.083
-530.077	-26.858	0.053	-0.031
-529.062	-200.000	0.008	0.107
-528.048	-200.000	0.013	-0.177
-527.033	-135.231	0.238	0.029
-526.018	91.302	-0.173	0.195
-525.004	191.244	0.169	0.256
-523.989	-82.886	-0.309	-0.101
-522.975	51.815	-0.169	0.162
-521.960	84.949	0.232	-0.256
-520.945	329.259	-0.031	-0.061
-519.931	-8.432	-0.253	0.172
-518.916	44.334	-0.042	0.039
-517.902	-137.035	0.207	-0.024
-516.887	-126.489	-0.092	-0.014
-515.872	-55.706	0.198	0.089
-514.858	-200.000	0.003	-0.264
-513.843	390.091	0.083	-0.172
-512.829	800.000	-0.070	-0.201
-511.814	142.486	-0.090	-0.121
-510.799	276.620	-0.136	0.244
-509.785	62.644	-0.100	-0.101
-508.770	-200.000	0.021	0.323
-507.756	-139.513	0.296	-0.032
-506.741	800.000	-0.050	-0.142
-505.726	125.181	-0.251	0.319
-504.712	109.277	0.128	-0.155
-503.697	800.000	-0.089	0.274
-502.683	556.430	0.150	-0.363
-501.668	-143.227	-0.203	0.020
-500.653	256.051	-0.099	0.172
-499.639	800.000	-0.051	-0.185
-498.624	-29.558	0.161	-0.092
-497.610	42.977	-0.223	-0.204
-496.595	-200.000	-0.016	0.110
-495.581	542.867	-0.050	-0.121
-494.566	150.241	0.026	-0.035
-493.551	-82.948	0.214	0.069
-492.537	-106.587	-0.175	0.039
-491.522	-61.290	0.236	-0.100
-490.508	-160.655	0.453	-0.024
-489.493	-50.554	0.271	-0.128
-488.478	-200.000	-0.000	0.155
-487.464	-200.000	0.040	-0.184
-486.449	-200.000	0.014	-0.081
-485.435	-132.573	0.327	0.042
-484.420	-200.000	0.046	0.248
-483.405	104.089	0.240	-0.284
-482.391	20.917	-0.041	-0.034
-481.376	-200.000	-0.007	0.214
-480.362	-35.187	-0.080	0.044
-479.347	-96.682	-0.206	-0.055
-478.332	761.269	-0.019	0.051
-477.318	-200.000	0.051	0.229
-476.303	-175.022	-0.141	0.004
-475.289	-111.269	-0.021	-0.004
-474.274	800.000	0.061	-0.248
-473.259	-200.000	-0.010	-0.106
-472.245	-6.499	-0.073	-0.050
-471.230	-22.798	0.194	-0.118
-470.216	800.000	-0.063	-0.223
-469.201	-125.391	-0.128	-0.020
-468.186	-108.109	-0.103	-0.022
-467.172	31.141	-0.133	0.115
-466.157	593.444	-0.047	0.118
-465.143	30.402	-0.131	0.112
-464.128	493.610	-0.091	0.209
-463.113	-125.763	0.116	-0.018
-462.099	42.402	0.190	-0.174
-461.084	-117.008	-0.290	0.053
-460.070	-86.273	-0.291	0.090
-459.055	-75.085	0.263	0.095
-458.040	-95.051	0.293	-0.080
-457.026	333.190	0.041	-0.080
-456.011	-80.285	-0.288	-0.097
-454.997	800.000	0.048	0.192
-453.982	800.000	0.037	0.161
-452.968	61.060	0.138	-0.138
-451.953	800.000	-0.031	0.098
-450.938	57.999	0.057	0.056
-449.924	-67.471	0.273	0.108
-448.909	-150.765	0.155	-0.012
-447.895	581.884	-0.017	0.041
-446.880	494.880	-0.179	-0.412
-445.865	-5.282	0.177	-0.122
-444.851	-20.249	-0.155	-0.096
-443.836	-53.898	0.276	0.126
-442.822	-200.000	-0.006	0.257
-441.807	7.653	-0.138	-0.104
-440.792	800.000	-0.041	0.176
-439.778	-49.248	0.177	0.085
-438.763	473.803	-0.061	0.139
-437.749	198.151	-0.066	-0.101
-436.734	-21.688	0.161	-0.099
-435.719	119.588	0.078	-0.096
-434.705	98.303	-0.212	0.245
-433.690	27.290	0.177	0.150
-432.676	-200.000	-0.018	0.138
-431.661	-69.447	-0.368	0.141
-430.646	-200.000	-0.063	-0.288
-429.632	-200.000	0.017	-0.141
-428.617	800.000	-0.079	-0.322
-427.603	92.449	-0.070	0.079
-426.588	-200.000	-0.039	0.281
-425.573	-200.000	-0.042	-0.220
-424.559	46.798	0.139	-0.130
-423.544	800.000	-0.031	0.087
-422.530	0.186	-0.170	0.122
-421.515	-200.000	0.077	0.473
-420.500	-100.872	0.134	-0.033
-419.486	267.731	0.112	0.196
-418.471	49.546	0.215	-0.203
-417.457	-97.071	-0.132	-0.035
-416.442	-200.000	0.007	-0.132
-415.428	-108.472	0.173	-0.037
-414.413	800.000	0.030	-0.126
-413.398	234.171	-0.252	-0.417
-412.384	344.984	-0.082	-0.162
-411.369	-101.964	0.318	-0.077
-410.355	117.844	0.281	-0.347
-409.340	-14.230	-0.259	0.167
-408.325	94.913	0.300	-0.342
-407.311	800.000	0.042	-0.131
-406.296	-93.436	0.263	0.073
-405.282	-71.950	-0.109	-0.041
-404.267	67.644	-0.241	-0.247
-403.252	-200.000	0.012	0.202
-402.238	142.017	-0.244	-0.325
-401.223	30.367	-0.386	0.330
-400.209	0.987	0.164	0.118
-399.194	-153.224	-0.134	-0.009
-398.179	-200.000	0.028	0.203
-397.165	-142.009	0.143	-0.014
-396.150	-200.000	0.042	0.294
-395.136	800.000	-0.030	-0.094
-394.121	114.619	-0.130	-0.158
-393.106	-38.402	0.066	0.035
-392.092	73.900	-0.290	0.305
-391.077	74.706	-0.095	0.100
-390.063	66.005	0.213	0.216
-389.048	-200.000	0.016	0.196
-388.033	-181.301	-0.134	-0.003
-387.019	128.620	-0.140	0.179
-386.004	-63.553	-0.082	0.034
-384.990	-200.000	0.009	-0.447
-383.975	-32.983	-0.143	-0.080
-382.960	-200.000	-0.011	0.052
-381.946	-10.352	-0.262	0.174
-380.931	133.563	0.140	-0.181
-379.917	800.000	0.057	-0.227
-378.902	-41.787	0.145	0.075
-377.888	120.566	0.224	0.279
-376.873	-200.000	0.054	0.273
-375.858	-37.449	0.267	-0.143
-374.844	40.611	0.126	-0.114
-373.829	77.167	0.135	-0.143
-372.815	-126.647	-0.107	0.016
-371.800	-200.000	0.041	-0.229
-370.785	800.000	-0.032	-0.127
-369.771	-146.264	-0.208	0.018
-368.756	-96.387	-0.066	-0.018
-367.742	800.000	-0.043	0.169
-366.727	141.391	-0.150	0.198
-365.712	-124.134	0.176	0.028
-364.698	189.305	0.055	0.083
-363.683	-200.000	0.080	0.379
-362.669	-196.982	0.311	0.002
-361.654	-133.734	0.247	0.031
-360.639	505.257	-0.077	0.179
-359.625	122.991	-0.212	0.266
-358.610	-47.523	0.347	-0.169
-357.596	-200.000	0.062	-0.426
-356.581	-22.204	-0.157	-0.095
-355.566	-200.000	-0.006	-0.186
-354.552	-63.584	-0.247	0.101
-353.537	-200.000	-0.047	0.492
-352.523	-200.000	0.010	-0.348
-351.508	800.000	0.060	0.248
-350.493	477.113	-0.080	-0.181
-349.479	800.000	-0.090	0.308
-348.464	253.057	-0.242	-0.414
-347.450	-149.551	-0.132	0.010
-346.435	-94.179	0.376	0.103
-345.420	-200.000	-0.010	-0.248
-344.406	-66.013	-0.092	-0.037
-343.391	-101.742	0.432	0.105
-342.377	-1.021	-0.067	-0.047
-341.362	-200.000	-0.003	-0.028
-340.348	146.217	0.279	-0.374
-339.333	-200.000	-0.022	-0.195
-338.318	-8.718	-0.015	-0.010
-337.304	142.691	0.087	-0.115
-336.289	261.718	-0.113	-0.196
-335.275	72.614	-0.091	-0.095
-334.260	93.839	0.080	-0.091
-333.245	535.212	-0.116	-0.276
-332.231	-35.895	0.063	-0.034
-331.216	-200.000	-0.051	0.248
-330.202	-24.031	0.152	0.091
-329.187	-66.944	-0.203	0.080
-328.172	-75.084	-0.405	-0.145
-327.158	-119.573	0.268	0.046
-326.143	27.410	-0.282	0.237
-325.129	-200.000	-0.031	0.285
-324.114	-34.996	-0.190	0.103
-323.099	-1.574	0.287	-0.202
-322.085	211.757	-0.085	-0.134
-321.070	461.304	0.152	-0.339
-320.056	-25.533	0.359	0.212
-319.041	-200.000	0.013	-0.295
-318.026	-163.026	0.520	-0.025
-317.012	-135.804	-0.337	0.040
-315.997	53.643	0.147	-0.141
-314.983	-99.417	-0.200	-0.050
-313.968	108.335	0.163	0.195
-312.953	-92.535	0.160	-0.045
-311.939	718.943	0.140	-0.373
-310.924	-200.000	0.038	0.287
-309.910	91.109	0.168	0.188
-308.895	384.994	-0.176	0.362
-307.880	-200.000	-0.019	-0.210
-306.866	-63.905	0.086	0.035
-305.851	-200.000	0.004	-0.132
-304.837	185.961	0.145	-0.216
-303.822	-200.000	0.040	-0.208
-302.807	136.653	-0.129	-0.168
-301.793	-200.000	0.021	0.193
-300.778	-43.797	-0.312	0.157
-299.764	-83.504	-0.349	-0.112
-298.749	-63.461	0.184	0.076
-297.735	160.523	-0.117	-0.163
-296.720	125.291	0.207	-0.261
-295.705	654.576	0.114	0.292
-294.691	-200.000	-0.011	-0.104
-293.676	-28.176	-0.186	-0.107
-292.662	-67.367	-0.400	-0.157
-291.647	165.175	-0.094	-0.132
-290.632	800.000	-0.113	-0.327
-289.618	-115.733	-0.081	0.015
-288.603	169.604	0.138	0.197
-287.589	-200.000	0.020	-0.114
-286.574	-96.873	-0.189	0.050
-285.559	1.379	-0.137	-0.098
-284.545	56.019	-0.111	-0.107
-283.530	-116.298	-0.278	-0.051
-282.516	189.586	0.120	0.179
-281.501	233.822	-0.186	0.306
-280.486	647.831	0.106	0.271
-279.472	-200.000	0.027	-0.155
-278.457	-63.437	-0.199	0.082
-277.443	800.000	-0.120	-0.368
-276.428	-200.000	-0.058	-0.261
-275.413	-133.860	-0.385	0.048
-274.399	172.090	-0.192	-0.275
-273.384	-200.000	-0.006	0.283
-272.370	140.328	-0.103	0.136
-271.355	-84.857	0.252	-0.079
-270.340	96.547	-0.058	-0.066
-269.326	-54.197	0.175	0.079
-268.311	800.000	-0.028	0.100
-267.297	177.801	-0.104	0.151
-266.282	-200.000	0.028	0.283
-265.267	-10.520	-0.262	0.173
-264.253	-142.447	-0.207	-0.020
-263.238	55.309	0.315	0.303
-262.224	59.514	0.160	0.157
-261.209	320.221	0.208	-0.393
-260.195	144.266	0.224	0.298
-259.180	-199.568	-0.105	0.001
-258.165	-101.057	-0.171	-0.042
-257.151	258.883	-0.160	-0.275
-256.136	129.088	-0.160	-0.204
-255.122	-200.000	0.010	-0.331
-254.107	32.005	0.079	0.068
-253.092	-92.854	-0.063	-0.018
-252.078	117.724	-0.066	-0.081
-251.063	-200.000	-0.040	0.281
-250.049	66.384	-0.051	-0.052
-249.034	-200.000	-0.012	0.227
-248.019	795.954	0.117	0.320
-247.005	800.000	-0.101	-0.386
-245.990	-109.796	-0.252	0.053
-244.976	-200.000	-0.089	-0.422
-243.961	800.000	0.032	0.134
-242.946	800.000	0.073	0.287
-241.932	260.410	0.138	0.237
-240.917	211.258	0.131	-0.205
-239.903	-200.000	0.003	0.443
-238.888	407.901	-0.143	0.302
-237.873	22.640	-0.049	0.040
-236.859	-200.000	0.299	0.000
-235.844	-4.463	-0.108	0.074
-234.830	-138.941	-0.262	-0.028
-233.815	-44.064	-0.263	0.132
-232.800	-17.533	-0.152	0.095
-231.786	-79.752	0.313	0.105
-230.771	17.925	-0.137	-0.108
-229.757	197.418	0.120	-0.182
-228.742	-58.267	-0.376	0.163
-227.727	-54.101	0.087	0.039
-226.713	-200.000	-0.018	0.092
-225.698	-69.775	-0.184	-0.070
-224.684	-14.074	-0.205	0.132
-223.669	-179.757	0.263	0.006
-222.655	-200.000	0.072	0.368
-221.640	-0.966	-0.097	0.068
-220.625	800.000	-0.056	0.238
-219.611	654.598	0.116	0.297
-218.596	-86.305	0.248	0.076
-217.582	129.036	0.101	0.128
-216.567	-200.000	0.025	0.223
-215.552	-90.038	0.077	-0.022
-214.538	-25.134	-0.166	0.098
-213.523	-156.559	0.279	0.017
-212.509	184.885	0.242	0.356
-211.494	-22.864	-0.289	0.174
-210.479	-134.647	-0.308	-0.037
-209.465	-200.000	0.018	0.373
-208.450	159.156	0.058	0.080
-207.436	-144.291	0.372	0.034
-206.421	144.862	0.168	-0.224
-205.406	87.258	0.167	-0.183
-204.392	107.402	0.159	-0.188
-203.377	800.000	-0.056	-0.163
-202.363	-144.518	0.178	0.016
-201.348	357.440	-0.121	0.239
-200.333	-92.215	-0.183	0.051
-199.319	-143.908	0.236	-0.022
-198.304	800.000	0.060	-0.243
-197.290	-200.000	0.061	0.320
-196.275	-163.090	-0.183	-0.009
-195.260	-181.598	0.184	-0.004
-194.246	-14.604	-0.241	-0.154
-193.231	627.975	-0.078	0.196
-192.217	-147.415	-0.128	0.011
-191.202	-39.914	0.054	0.028
-190.187	81.639	-0.199	0.214
-189.173	-83.614	-0.232	-0.074
-188.158	-81.390	0.394	0.129
-187.144	-200.000	0.036	-0.213
-186.129	197.704	0.155	-0.236
-185.114	4.186	0.268	-0.195
-184.100	549.386	0.043	-0.102
-183.085	-40.605	-0.027	0.014
-182.071	-118.450	-0.076	-0.013
-181.056	-59.491	-0.059	0.025
-180.042	-81.031	0.209	0.069
-179.027	800.000	0.075	0.278
-178.012	18.299	-0.247	-0.196
-176.998	-200.000	0.084	-0.514
-175.983	-85.228	0.128	0.040
-174.969	-200.000	0.013	0.297
-173.954	152.277	0.078	-0.105
-172.939	76.694	0.092	-0.097
-171.925	239.524	0.166	-0.274
-170.910	-16.275	-0.053	-0.033
-169.896	-101.187	0.341	0.083
-168.881	61.351	-0.394	0.389
-167.866	-106.535	-0.319	-0.071
-166.852	182.527	-0.128	-0.188
-165.837	-140.231	-0.391	-0.041
-164.823	86.412	-0.198	-0.216
-163.808	-118.400	0.259	-0.046
-162.793	479.576	-0.152	0.342
-161.779	362.342	0.076	0.152
-160.764	-116.772	0.198	0.036
-159.750	800.000	0.047	-0.147
-158.735	224.100	-0.026	0.042
-157.720	-11.597	-0.185	-0.121
-156.706	-37.976	-0.334	0.176
-155.691	-46.741	0.306	-0.149
-154.677	385.989	-0.094	0.192
-153.662	351.216	-0.030	0.060
-152.647	-75.003	-0.104	0.037
-151.633	-90.743	0.129	-0.037
-150.618	-200.000	0.040	0.250
-149.604	800.000	-0.019	-0.064
-148.589	-200.000	0.008	-0.226
-147.574	800.000	0.116	0.359
-146.560	-166.178	0.138	0.006
-145.545	20.321	0.252	0.202
-144.531	112.614	0.076	0.092
-143.516	77.557	0.183	0.193
-142.502	-92.520	0.235	-0.065
-141.487	-200.000	-0.004	-0.126
-140.472	-68.805	-0.193	-0.074
-139.458	-110.639	0.244	-0.050
-138.443	-200.000	-0.019	-0.351
-137.429	4.204	-0.142	0.103
-136.414	333.545	0.113	0.216
-135.399	-200.000	-0.001	-0.179
-134.385	-80.689	0.086	-0.028
-133.370	-40.888	0.029	0.015
-132.356	-200.000	0.060	-0.462
-131.341	-25.388	-0.042	-0.025
-130.326	630.751	-0.005	0.012
-129.312	800.000	0.104	0.353
-128.297	505.906	0.138	-0.316
-127.283	17.639	0.014	0.011
-126.268	800.000	0.061	-0.190
-125.253	-200.000	-0.033	-0.166
-124.239	192.884	-0.055	0.082
-123.224	-30.938	0.325	0.182
-122.210	585.634	-0.052	-0.128
