DTS Sentinel unit serial number:	SN413079Multiplexer serial number:	ORYXHardware model number:	OX4-SRSoftware version number:	ORYX F/W v4.00 Oryx Data Collector v3.7.2.0data status	okinstallation	princeton_trtdifferential loss correction	single-endedforward channel	channel 4reverse channel	N/Adate	2019/09/10time	21:35:10forward acquisition time	60.00reverse acquisition time	0.00gamma	496.2192k internal	0.2314k external	0.2314temperature offset calibration	0.9946default loss term (dB/km)	0.3790temperature slope calibration	1.0000multiplexer offset coefficient	1.0000multiplexer slope coefficient	1.0000fibre end	0.00T internal ref (°C)	31.06T ext. ref 1 (°C)	-0.32T ext. ref 2 (°C)	24.43length (m)	temperature (°C)	Stokes	anti-Stokes-747.200	-35.918	-0.206	0.113
-746.185	58.555	0.288	0.287
-745.171	-200.000	-0.033	0.247
-744.156	253.019	-0.089	0.154
-743.142	110.484	-0.116	-0.142
-742.127	-200.000	-0.008	0.132
-741.112	104.453	0.281	-0.336
-740.098	-77.659	-0.189	0.066
-739.083	800.000	-0.058	0.228
-738.069	800.000	0.094	0.284
-737.054	54.237	-0.226	0.221
-736.039	800.000	-0.120	-0.420
-735.025	-200.000	0.321	-0.001
-734.010	46.309	-0.182	0.171
-732.996	-72.937	-0.252	0.094
-731.981	-152.292	-0.118	-0.009
-730.966	4.835	0.253	-0.188
-729.952	201.306	-0.119	-0.185
-728.937	18.977	0.194	0.158
-727.923	-117.782	-0.168	-0.031
-726.908	133.727	-0.151	-0.198
-725.894	-200.000	-0.044	0.280
-724.879	229.739	0.164	-0.272
-723.864	282.520	0.138	-0.250
-722.850	429.109	0.041	0.089
-721.835	-197.424	-0.136	0.001
-720.821	82.422	0.075	-0.082
-719.806	800.000	0.091	0.300
-718.791	-62.957	-0.326	-0.137
-717.777	800.000	-0.104	-0.345
-716.762	-47.690	-0.118	0.058
-715.748	423.016	0.113	-0.245
-714.733	-98.120	0.235	-0.061
-713.718	800.000	0.092	0.286
-712.704	235.476	-0.164	-0.274
-711.689	-146.165	-0.266	-0.024
-710.675	-200.000	-0.005	-0.041
-709.660	-93.165	-0.382	-0.108
-708.645	172.538	-0.185	-0.270
-707.631	800.000	-0.083	-0.258
-706.616	-200.000	0.000	0.342
-705.602	298.107	-0.072	0.134
-704.587	168.201	0.023	0.033
-703.572	-14.632	0.139	-0.090
-702.558	-24.782	-0.426	0.257
-701.543	77.579	0.064	-0.069
-700.529	132.523	0.124	-0.162
-699.514	-132.579	0.391	0.051
-698.499	68.881	0.226	0.235
-697.485	-25.478	0.246	0.147
-696.470	-200.000	-0.048	0.249
-695.456	-200.000	0.065	-0.321
-694.441	-55.147	-0.193	-0.088
-693.426	-156.085	0.148	0.009
-692.412	97.355	0.234	0.272
-691.397	93.302	-0.085	-0.097
-690.383	-32.507	-0.180	-0.102
-689.368	-11.936	0.514	0.341
-688.354	32.044	-0.209	0.182
-687.339	-34.781	0.203	0.112
-686.324	96.210	-0.149	0.173
-685.310	17.422	0.185	-0.149
-684.295	23.796	0.213	0.178
-683.281	135.003	-0.073	-0.096
-682.266	49.051	0.050	-0.047
-681.251	-157.259	0.329	0.020
-680.237	245.014	0.048	0.081
-679.222	800.000	-0.033	0.118
-678.208	178.003	0.128	-0.189
-677.193	414.838	-0.074	-0.159
-676.178	-115.930	-0.066	-0.012
-675.164	186.808	0.166	0.250
-674.149	-200.000	0.014	-0.107
-673.135	466.185	0.144	-0.326
-672.120	561.548	0.155	-0.379
-671.105	-58.684	0.247	-0.108
-670.091	800.000	0.043	0.182
-669.076	-200.000	0.013	0.057
-668.062	-200.000	0.004	-0.273
-667.047	800.000	-0.108	-0.352
-666.032	-46.647	-0.202	0.100
-665.018	-200.000	0.020	-0.093
-664.003	-2.188	-0.146	-0.103
-662.989	376.271	-0.062	0.128
-661.974	256.363	-0.181	-0.314
-660.959	-65.578	0.094	-0.038
-659.945	75.313	0.185	-0.197
-658.930	-140.565	0.152	0.016
-657.916	-46.406	-0.314	-0.156
-656.901	800.000	0.056	0.245
-655.886	680.384	-0.134	0.353
-654.872	-50.258	-0.267	-0.128
-653.857	88.326	-0.129	0.144
-652.843	-173.966	-0.295	-0.009
-651.828	-0.312	0.128	-0.092
-650.814	164.620	0.195	0.278
-649.799	96.074	0.161	-0.186
-648.784	-57.729	-0.236	0.104
-647.770	482.528	0.195	-0.448
-646.755	456.545	0.124	0.279
-645.741	-200.000	-0.031	0.430
-644.726	325.191	0.054	-0.105
-643.711	123.628	-0.149	-0.188
-642.697	60.272	0.300	0.300
-641.682	800.000	-0.050	-0.146
-640.668	-40.716	-0.277	-0.145
-639.653	-200.000	-0.012	-0.191
-638.638	-192.041	-0.261	-0.003
-637.624	-125.985	-0.169	-0.026
-636.609	425.142	-0.141	0.307
-635.595	587.819	0.071	-0.176
-634.580	-102.558	-0.168	-0.040
-633.565	-16.727	0.184	-0.118
-632.551	-9.598	0.078	-0.052
-631.536	800.000	0.087	-0.254
-630.522	800.000	-0.081	0.241
-629.507	92.221	0.092	0.105
-628.492	800.000	0.066	-0.231
-627.478	-86.586	-0.133	0.041
-626.463	-142.178	0.319	-0.032
-625.449	262.664	-0.088	0.155
-624.434	-200.000	0.011	0.071
-623.419	800.000	0.094	0.328
-622.405	157.086	-0.063	-0.088
-621.390	326.531	0.088	-0.171
-620.376	-200.000	0.008	-0.094
-619.361	-29.430	-0.147	-0.085
-618.346	-200.000	0.008	0.248
-617.332	800.000	0.090	0.269
-616.317	-200.000	-0.004	-0.204
-615.303	561.380	-0.120	-0.292
-614.288	-195.348	-0.359	-0.003
-613.273	-93.636	-0.131	0.037
-612.259	-26.915	0.203	-0.119
-611.244	800.000	-0.079	0.271
-610.230	-44.781	0.185	0.093
-609.215	364.270	0.010	0.020
-608.201	15.084	-0.122	0.097
-607.186	146.850	0.266	-0.361
-606.171	-119.412	0.189	0.033
-605.157	76.261	-0.159	-0.170
-604.142	800.000	-0.037	0.122
-603.128	-135.560	-0.276	-0.033
-602.113	-60.709	-0.222	-0.095
-601.098	107.437	-0.160	0.191
-600.084	59.667	-0.058	-0.058
-599.069	124.475	0.073	-0.092
-598.055	65.316	0.275	-0.280
-597.040	800.000	0.051	0.224
-596.025	-75.516	-0.071	-0.025
-595.011	-74.134	0.220	0.080
-593.996	170.999	0.156	-0.226
-592.982	-2.925	-0.282	-0.199
-591.967	159.625	-0.058	0.082
-590.952	385.429	-0.087	0.180
-589.938	-143.781	-0.268	-0.026
-588.923	-54.249	-0.098	0.045
-587.909	-200.000	-0.003	-0.169
-586.894	284.453	-0.100	-0.181
-585.879	800.000	-0.111	0.398
-584.865	-5.851	0.138	0.096
-583.850	-200.000	-0.001	-0.291
-582.836	25.511	0.208	-0.174
-581.821	800.000	0.104	0.308
-580.806	203.715	0.175	-0.273
-579.792	-200.000	-0.033	-0.275
-578.777	-29.601	-0.277	0.160
-577.763	800.000	-0.023	-0.085
-576.748	-142.240	-0.374	0.037
-575.733	-52.835	0.102	-0.047
-574.719	205.089	0.118	0.184
-573.704	40.590	0.142	-0.129
-572.690	-200.000	0.010	0.174
-571.675	120.398	-0.143	-0.179
-570.661	-102.027	-0.036	0.009
-569.646	432.508	-0.026	0.057
-568.631	-106.305	-0.171	-0.039
-567.617	800.000	0.042	0.180
-566.602	175.243	0.135	0.197
-565.588	-57.892	0.169	-0.074
-564.573	450.449	-0.069	0.153
-563.558	4.374	-0.087	-0.064
-562.544	-60.533	0.137	0.059
-561.529	-87.743	-0.161	0.049
-560.515	155.716	-0.041	-0.057
-559.500	59.643	0.308	-0.306
-558.485	-115.890	-0.143	-0.027
-557.471	800.000	-0.043	0.146
-556.456	98.811	0.163	-0.189
-555.442	32.271	-0.153	0.133
-554.427	-174.805	-0.175	0.005
-553.412	-200.000	-0.004	0.256
-552.398	-33.363	-0.284	0.158
-551.383	17.729	-0.312	0.250
-550.369	-200.000	-0.001	0.129
-549.354	-33.692	0.108	-0.060
-548.339	800.000	0.058	0.172
-547.325	8.466	-0.163	0.123
-546.310	800.000	-0.047	-0.148
-545.296	-65.482	-0.146	-0.059
-544.281	-112.459	0.152	0.031
-543.266	-200.000	0.039	-0.181
-542.252	1.207	-0.160	0.115
-541.237	54.254	0.098	0.095
-540.223	-117.019	-0.200	0.037
-539.208	320.538	-0.126	0.240
-538.193	65.878	0.106	0.108
-537.179	-161.369	-0.113	0.006
-536.164	-144.306	0.333	0.031
-535.150	800.000	0.080	-0.292
-534.135	-200.000	0.033	0.227
-533.121	37.319	-0.078	-0.069
-532.106	101.912	-0.208	-0.245
-531.091	-6.420	0.094	0.064
-530.077	-41.195	0.126	-0.065
-529.062	-135.226	-0.220	-0.027
-528.048	-200.000	0.010	-0.062
-527.033	-200.000	-0.002	-0.208
-526.018	-44.385	-0.223	0.112
-525.004	94.199	0.206	0.235
-523.989	-84.282	0.042	-0.013
-522.975	-124.842	-0.242	0.037
-521.960	217.502	0.165	0.264
-520.945	156.435	0.087	0.121
-519.931	29.420	0.247	0.211
-518.916	-103.917	-0.217	0.051
-517.902	18.014	-0.324	0.259
-516.887	14.044	0.173	0.135
-515.872	-200.000	-0.070	0.371
-514.858	122.488	-0.245	0.308
-513.843	-92.130	-0.625	0.177
-512.829	779.925	0.043	0.117
-511.814	-52.593	-0.061	-0.028
-510.799	-200.000	0.026	-0.193
-509.785	118.788	-0.125	0.155
-508.770	199.215	-0.106	0.163
-507.756	-200.000	-0.036	0.285
-506.741	-97.056	-0.123	0.032
-505.726	-200.000	0.009	-0.139
-504.712	12.975	0.151	-0.117
-503.697	12.547	-0.024	-0.018
-502.683	233.909	-0.058	0.096
-501.668	-200.000	0.015	0.241
-500.653	-121.962	-0.110	0.018
-499.639	-124.345	-0.135	0.021
-498.624	800.000	0.090	0.334
-497.610	-132.671	0.066	-0.009
-496.595	137.983	0.299	0.393
-495.581	-200.000	-0.024	0.210
-494.566	-200.000	-0.028	0.245
-493.551	3.121	-0.176	-0.129
-492.537	-70.597	0.139	0.053
-491.522	83.547	-0.116	-0.127
-490.508	800.000	-0.102	0.332
-489.493	-155.246	-0.105	-0.007
-488.478	-52.062	0.226	0.105
-487.464	-200.000	0.017	-0.217
-486.449	732.420	-0.103	0.276
-485.435	-10.804	-0.261	0.173
-484.420	163.504	0.112	-0.158
-483.405	-187.979	0.189	-0.002
-482.391	-25.051	0.267	-0.159
-481.376	-183.922	0.118	0.002
-480.362	-17.092	0.180	0.114
-479.347	773.117	0.114	-0.313
-478.332	-47.396	-0.191	0.093
-477.318	-123.940	-0.221	0.035
-476.303	23.881	-0.240	0.199
-475.289	88.676	-0.170	-0.190
-474.274	-172.071	-0.229	-0.007
-473.259	800.000	-0.092	0.362
-472.245	800.000	0.039	0.139
-471.230	-47.432	-0.102	0.050
-470.216	91.162	0.137	-0.154
-469.201	124.357	0.029	-0.036
-468.186	800.000	-0.071	0.255
-467.172	-28.257	0.331	0.192
-466.157	19.286	-0.363	-0.293
-465.143	727.223	-0.026	-0.069
-464.128	-200.000	-0.041	0.272
-463.113	244.203	-0.145	0.245
-462.099	435.361	-0.093	-0.203
-461.084	-200.000	-0.012	-0.063
-460.070	-99.106	0.494	0.125
-459.055	800.000	-0.079	0.238
-458.040	-25.594	0.096	0.057
-457.026	-200.000	-0.023	-0.218
-456.011	16.956	-0.244	-0.194
-454.997	757.877	0.124	-0.336
-453.982	-150.899	0.213	0.016
-452.968	800.000	0.044	0.150
-451.953	-5.270	-0.383	0.264
-450.938	65.197	-0.143	-0.145
-449.924	-24.181	-0.136	-0.081
-448.909	-200.000	0.051	-0.258
-447.895	800.000	0.071	-0.266
-446.880	379.453	0.053	-0.109
-445.865	-101.691	0.117	-0.028
-444.851	74.295	-0.278	-0.293
-443.836	-200.000	-0.016	0.218
-442.822	800.000	-0.066	-0.219
-441.807	-200.000	0.038	-0.196
-440.792	-46.214	0.289	-0.143
-439.778	-23.542	0.128	-0.077
-438.763	215.137	0.042	-0.066
-437.749	-108.654	0.022	-0.005
-436.734	-6.480	0.257	-0.176
-435.719	28.913	-0.048	-0.041
-434.705	-200.000	-0.067	-0.351
-433.690	-200.000	0.017	-0.202
-432.676	800.000	-0.051	0.162
-431.661	-65.904	-0.114	0.046
-430.646	-124.959	-0.502	-0.077
-429.632	-37.615	-0.345	0.184
-428.617	-122.310	0.083	0.014
-427.603	-121.668	0.279	-0.046
-426.588	168.896	-0.157	0.224
-425.573	-112.989	-0.213	-0.042
-424.559	-59.609	-0.249	-0.107
-423.544	233.723	-0.072	0.119
-422.530	49.523	-0.411	-0.387
-421.515	15.771	0.374	-0.294
-420.500	-71.254	-0.186	-0.070
-419.486	329.800	0.058	0.111
-418.471	-200.000	-0.027	0.240
-417.457	199.611	-0.147	-0.226
-416.442	-50.164	0.253	0.120
-415.428	157.565	0.084	0.117
-414.413	-200.000	0.004	-0.084
-413.398	12.922	-0.097	0.075
-412.384	113.286	0.130	-0.158
-411.369	-171.721	-0.357	-0.012
-410.355	238.015	0.133	0.220
-409.340	800.000	-0.035	-0.126
-408.325	-24.862	0.151	-0.090
-407.311	393.634	0.141	0.295
-406.296	-200.000	-0.012	0.068
-405.282	-121.108	0.101	0.017
-404.267	17.789	-0.176	-0.140
-403.252	-141.962	0.272	0.027
-402.238	760.897	-0.113	0.306
-401.223	-57.437	-0.138	0.060
-400.209	-200.000	-0.023	0.128
-399.194	204.979	0.179	0.279
-398.179	507.457	0.156	0.363
-397.165	800.000	-0.063	-0.275
-396.150	-38.539	-0.340	-0.180
-395.136	-32.214	0.377	0.210
-394.121	29.655	0.070	-0.060
-393.106	-200.000	0.013	0.163
-392.092	-6.641	-0.283	-0.193
-391.077	-200.000	-0.025	-0.257
-390.063	-131.600	-0.087	0.011
-389.048	-23.532	-0.045	0.027
-388.033	-149.434	-0.178	-0.014
-387.019	-34.742	0.332	-0.181
-386.004	-24.561	-0.116	0.069
-384.990	-145.991	-0.067	-0.006
-383.975	35.001	-0.226	-0.198
-382.960	-51.420	0.159	0.074
-381.946	-200.000	0.063	0.293
-380.931	24.423	0.115	-0.095
-379.917	-53.780	0.235	-0.107
-378.902	-200.000	0.048	-0.219
-377.888	665.046	0.015	-0.040
-376.873	-79.032	0.266	-0.090
-375.858	800.000	0.078	-0.338
-374.844	123.470	0.082	-0.102
-373.829	-72.550	0.280	0.103
-372.815	23.720	0.115	0.094
-371.800	-83.148	0.166	0.053
-370.785	138.917	0.062	-0.082
-369.771	515.949	-0.027	-0.062
-368.756	39.368	-0.207	-0.185
-367.742	-200.000	0.010	0.288
-366.727	305.208	0.118	-0.219
-365.712	800.000	0.044	0.177
-364.698	51.818	0.024	0.023
-363.683	800.000	0.093	0.290
-362.669	-167.633	-0.276	0.011
-361.654	-200.000	0.020	-0.238
-360.639	168.431	0.104	-0.148
-359.625	121.552	-0.135	0.169
-358.610	800.000	0.070	-0.212
-357.596	115.130	0.075	0.092
-356.581	-109.337	0.106	0.022
-355.566	-4.144	-0.164	-0.113
-354.552	-64.718	0.098	-0.040
-353.537	-48.280	0.178	-0.086
-352.523	427.189	0.100	0.216
-351.508	-170.953	0.302	0.010
-350.493	128.653	-0.261	-0.332
-349.479	-21.130	0.213	-0.130
-348.464	-200.000	-0.047	0.252
-347.450	-146.988	-0.361	0.031
-346.435	406.146	-0.089	0.188
-345.420	-53.665	0.257	0.117
-344.406	-200.000	-0.036	0.243
-343.391	-21.909	-0.221	0.134
-342.377	-200.000	0.017	0.224
-341.362	-72.187	0.145	-0.054
-340.348	-18.681	0.073	-0.046
-339.333	69.553	0.145	-0.149
-338.318	144.416	0.195	-0.259
-337.304	162.193	0.051	-0.071
-336.289	-12.872	0.140	-0.091
-335.275	443.536	-0.049	-0.107
-334.260	-133.720	0.606	0.075
-333.245	1.064	-0.304	-0.218
-332.231	800.000	0.064	0.228
-331.216	-7.567	0.265	0.179
-330.202	-111.267	0.093	-0.019
-329.187	-49.195	-0.341	-0.162
-328.172	491.414	-0.034	0.077
-327.158	-99.919	-0.178	0.044
-326.143	-51.791	0.327	-0.152
-325.129	-134.283	0.335	0.041
-324.114	-33.219	-0.123	0.068
-323.099	181.670	0.143	0.209
-322.085	578.624	0.035	-0.086
-321.070	-161.514	0.227	-0.012
-320.056	-88.157	0.098	-0.029
-319.041	190.466	-0.305	-0.456
-318.026	800.000	0.079	0.234
-317.012	11.777	0.128	0.098
-315.997	165.522	-0.157	-0.221
-314.983	-200.000	-0.001	0.033
-313.968	-106.780	0.177	-0.039
-312.953	-123.748	-0.388	-0.061
-311.939	97.074	0.160	-0.183
-310.924	8.450	-0.116	0.087
-309.910	34.202	0.050	0.043
-308.895	-200.000	-0.012	-0.333
-307.880	-24.102	0.141	0.084
-306.866	-81.273	0.301	0.099
-305.851	-121.780	-0.111	-0.018
-304.837	53.729	0.113	-0.108
-303.822	800.000	0.126	-0.425
-302.807	-120.435	0.201	0.034
-301.793	-109.922	-0.153	-0.032
-300.778	749.935	0.122	-0.328
-299.764	-76.093	-0.250	-0.088
-298.749	-4.427	-0.143	-0.099
-297.735	-83.676	-0.068	0.022
-296.720	44.446	0.309	0.283
-295.705	137.475	-0.096	0.126
-294.691	800.000	-0.031	-0.127
-293.676	138.494	-0.232	0.303
-292.662	-200.000	0.032	-0.161
-291.647	-82.418	0.149	-0.048
-290.632	-200.000	0.014	-0.158
-289.618	42.259	0.221	-0.200
-288.603	33.474	0.230	0.199
-287.589	68.617	-0.181	0.185
-286.574	-80.278	0.167	0.056
-285.559	349.871	-0.029	-0.057
-284.545	238.057	0.155	-0.256
-283.530	-93.835	-0.134	-0.037
-282.516	-133.798	-0.199	0.025
-281.501	156.165	0.188	0.258
-280.486	728.001	-0.113	0.300
-279.472	344.009	-0.121	0.235
-278.457	566.934	-0.096	0.231
-277.443	128.670	-0.164	-0.208
-276.428	-6.949	0.113	-0.076
-275.413	-68.718	0.279	-0.107
-274.399	-200.000	0.032	0.339
-273.384	-200.000	-0.005	0.037
-272.370	783.022	0.057	-0.154
-271.355	642.515	0.127	-0.321
-270.340	-86.390	-0.066	0.020
-269.326	-101.363	0.201	0.049
-268.311	-33.387	0.368	-0.203
-267.297	-45.100	-0.350	-0.173
-266.282	468.219	-0.047	0.104
-265.267	-50.925	-0.090	0.042
-264.253	-85.739	-0.121	0.037
-263.238	-200.000	0.008	0.259
-262.224	-200.000	-0.037	0.164
-261.209	-10.667	-0.101	0.066
-260.195	-16.794	0.265	-0.167
-259.180	-1.593	-0.394	-0.276
-258.165	-200.000	-0.051	-0.297
-257.151	38.879	-0.112	0.100
-256.136	130.538	-0.293	-0.373
-255.122	-85.079	-0.237	-0.074
-254.107	144.629	0.175	0.233
-253.092	423.770	0.103	-0.219
-252.078	-26.242	0.223	0.130
-251.063	105.656	0.179	0.210
-250.049	-48.215	0.345	0.165
-249.034	71.809	0.098	-0.101
-248.019	800.000	0.024	-0.080
-247.005	-200.000	-0.008	-0.073
-245.990	-200.000	-0.009	0.069
-244.976	10.416	0.114	0.086
-243.961	-200.000	-0.000	0.015
-242.946	42.826	-0.149	0.135
-241.932	46.225	0.165	0.152
-240.917	-200.000	0.054	-0.357
-239.903	55.063	0.161	0.154
-238.888	-200.000	-0.069	-0.495
-237.873	426.725	-0.110	0.235
-236.859	112.586	-0.087	0.105
-235.844	-200.000	-0.032	-0.239
-234.830	800.000	-0.121	-0.338
-233.815	-109.901	0.274	-0.057
-232.800	800.000	0.028	-0.121
-231.786	-71.045	0.070	-0.026
-230.771	-57.208	-0.284	-0.124
-229.757	-111.730	-0.104	0.021
-228.742	130.244	0.279	0.355
-227.727	800.000	0.057	-0.199
-226.713	-133.342	-0.157	0.020
-225.698	-164.089	0.156	0.007
-224.684	170.928	-0.158	-0.224
-223.669	-93.565	0.252	-0.069
-222.655	340.575	-0.096	-0.186
-221.640	596.096	-0.113	0.278
-220.625	236.034	-0.164	0.269
-219.611	800.000	-0.145	0.419
-218.596	-58.338	0.198	-0.085
-217.582	42.552	0.030	-0.028
-216.567	800.000	-0.061	0.179
-215.552	62.106	0.105	-0.104
-214.538	397.986	0.085	-0.178
-213.523	115.670	-0.080	0.097
-212.509	-93.847	-0.180	-0.049
-211.494	-200.000	-0.013	0.056
-210.479	-4.210	0.225	0.155
-209.465	-200.000	-0.035	0.234
-208.450	-80.542	0.265	-0.088
-207.436	-200.000	-0.017	0.141
-206.421	-200.000	-0.005	-0.058
-205.406	-65.440	-0.110	-0.044
-204.392	598.077	0.166	0.408
-203.377	324.021	-0.047	0.088
-202.363	800.000	0.058	-0.252
-201.348	800.000	0.082	-0.245
-200.333	-200.000	0.009	-0.271
-199.319	-9.309	-0.179	-0.119
-198.304	-200.000	0.048	0.219
-197.290	205.870	-0.053	0.081
-196.275	-64.242	-0.214	-0.086
-195.260	-104.092	0.429	-0.099
-194.246	102.618	0.112	-0.130
-193.231	-200.000	0.039	-0.288
-192.217	-102.914	0.149	0.035
-191.202	91.063	0.258	-0.288
-190.187	-78.520	-0.191	-0.065
-189.173	-190.982	-0.336	0.003
-188.158	-8.860	-0.176	0.117
-187.144	36.714	0.168	0.147
-186.129	-0.490	-0.042	0.029
-185.114	-35.682	-0.108	0.058
-184.100	247.498	-0.131	-0.220
-183.085	-200.000	0.039	-0.171
-182.071	-200.000	-0.021	-0.153
-181.056	-200.000	-0.004	0.027
-180.042	-200.000	0.040	-0.177
-179.027	-200.000	0.022	0.172
-178.012	-113.279	-0.144	0.028
-176.998	43.720	0.276	-0.250
-175.983	-100.448	-0.496	-0.122
-174.969	10.633	0.219	0.165
-173.954	-167.991	0.167	0.006
-172.939	105.734	-0.159	-0.186
-171.925	228.094	0.147	0.238
-170.910	182.660	-0.115	0.169
-169.896	540.027	-0.165	0.390
-168.881	-84.536	0.168	0.053
-167.866	15.225	-0.095	-0.074
-166.852	800.000	-0.034	-0.098
-165.837	227.078	-0.122	-0.196
-164.823	60.574	0.219	-0.215
-163.808	-196.076	0.175	-0.001
-162.793	212.634	0.096	0.149
-161.779	-129.378	0.408	0.056
-160.764	9.019	-0.080	-0.060
-159.750	-61.896	-0.048	-0.020
-158.735	785.265	0.049	-0.134
-157.720	91.936	0.138	-0.154
-156.706	-169.765	0.114	0.004
-155.691	800.000	0.051	0.157
-154.677	-200.000	-0.007	0.122
-153.662	-200.000	0.035	-0.163
-152.647	308.851	0.079	0.147
-151.633	-141.612	-0.264	0.026
-150.618	242.862	0.221	-0.366
-149.604	20.027	0.181	0.145
-148.589	15.803	-0.126	-0.099
-147.574	91.380	0.067	0.075
-146.560	792.796	-0.061	-0.167
-145.545	-200.000	0.034	0.214
-144.531	-57.420	-0.147	-0.064
-143.516	-2.636	-0.090	0.062
-142.502	37.099	-0.027	-0.023
-141.487	14.759	0.073	-0.056
-140.472	-200.000	0.028	-0.258
-139.458	-58.084	0.136	-0.059
-138.443	-130.740	0.168	-0.022
-137.429	45.203	-0.030	0.027
-136.414	-200.000	-0.013	-0.251
-135.399	-60.446	-0.190	0.080
-134.385	800.000	0.034	-0.146
-133.370	-107.353	0.215	-0.047
-132.356	85.289	0.172	-0.187
-131.341	-44.732	0.528	-0.261
-130.326	35.884	0.062	0.054
-129.312	670.409	0.107	-0.275
-128.297	22.820	-0.249	-0.202
-127.283	-20.776	0.409	0.248
-126.268	107.720	-0.103	-0.121
-125.253	57.676	-0.060	-0.058
-124.239	-200.000	0.010	0.107
-123.224	-22.715	0.111	0.067
-122.210	12.481	0.093	0.071
-121.195	-180.666	0.411	-0.008
