DTS Sentinel unit serial number:	SN413079Multiplexer serial number:	ORYXHardware model number:	OX4-SRSoftware version number:	ORYX F/W v4.00 Oryx Data Collector v3.7.2.0data status	okinstallation	princeton_trtdifferential loss correction	single-endedforward channel	channel 4reverse channel	N/Adate	2019/09/11time	05:15:11forward acquisition time	60.00reverse acquisition time	0.00gamma	496.2192k internal	0.2316k external	0.2316temperature offset calibration	0.9946default loss term (dB/km)	0.3790temperature slope calibration	1.0000multiplexer offset coefficient	1.0000multiplexer slope coefficient	1.0000fibre end	0.00T internal ref (°C)	29.44T ext. ref 1 (°C)	-0.26T ext. ref 2 (°C)	23.34length (m)	temperature (°C)	Stokes	anti-Stokes-747.200	-26.345	-0.108	-0.064
-746.185	36.880	-0.414	-0.371
-745.171	-9.350	-0.169	-0.114
-744.156	-29.225	0.173	0.100
-743.142	-66.319	-0.082	-0.033
-742.127	71.448	-0.189	0.199
-741.112	-93.470	0.237	-0.066
-740.098	-70.324	-0.196	0.075
-739.083	174.422	-0.289	-0.424
-738.069	88.653	-0.219	0.246
-737.054	501.577	0.074	-0.173
-736.039	268.850	-0.206	0.366
-735.025	800.000	-0.089	-0.291
-734.010	-200.000	-0.077	-0.404
-732.996	20.870	0.138	-0.113
-731.981	800.000	0.049	-0.201
-730.966	228.666	0.081	-0.134
-729.952	107.091	0.051	0.062
-728.937	55.179	-0.323	0.316
-727.923	-2.491	-0.017	0.012
-726.908	-182.173	-0.210	0.004
-725.894	-200.000	-0.004	0.098
-724.879	5.631	-0.024	-0.018
-723.864	29.816	-0.158	0.136
-722.850	-175.722	-0.141	0.004
-721.835	755.613	-0.139	-0.380
-720.821	800.000	0.010	-0.039
-719.806	303.181	-0.068	-0.128
-718.791	198.540	0.042	-0.065
-717.777	-200.000	-0.005	-0.286
-716.762	193.181	0.240	0.367
-715.748	761.613	0.101	-0.278
-714.733	-126.259	-0.280	0.042
-713.718	-49.269	-0.129	0.062
-712.704	-66.152	-0.121	0.049
-711.689	568.761	-0.039	-0.096
-710.675	-200.000	0.003	-0.113
-709.660	85.838	0.105	-0.116
-708.645	-40.749	0.269	0.141
-707.631	74.561	0.073	-0.078
-706.616	-178.520	0.052	-0.001
-705.602	-200.000	0.009	-0.045
-704.587	56.122	0.262	0.257
-703.572	800.000	-0.055	0.174
-702.558	-141.027	0.304	-0.032
-701.543	-78.021	0.114	-0.040
-700.529	201.976	0.054	-0.085
-699.514	-165.118	0.105	-0.005
-698.499	10.914	0.341	-0.264
-697.485	-200.000	0.008	-0.221
-696.470	211.269	-0.065	0.104
-695.456	-91.988	-0.342	0.098
-694.441	10.343	-0.189	-0.146
-693.426	-85.729	-0.345	0.108
-692.412	-200.000	0.013	0.167
-691.397	438.158	-0.200	-0.442
-690.383	175.155	0.078	-0.114
-689.368	800.000	0.008	0.033
-688.354	800.000	0.065	0.203
-687.339	104.200	0.205	0.244
-686.324	-79.867	0.189	-0.064
-685.310	449.839	-0.170	-0.379
-684.295	-200.000	-0.003	-0.148
-683.281	-200.000	-0.034	-0.306
-682.266	27.429	-0.262	-0.222
-681.251	-200.000	0.009	-0.063
-680.237	285.732	-0.050	-0.090
-679.222	-5.850	-0.223	0.154
-678.208	54.640	-0.157	-0.153
-677.193	-45.675	0.255	-0.127
-676.178	-200.000	0.024	-0.479
-675.164	-136.563	0.078	-0.009
-674.149	-200.000	-0.070	0.442
-673.135	-0.586	-0.144	0.103
-672.120	-65.817	0.160	0.065
-671.105	-200.000	0.028	0.165
-670.091	800.000	-0.062	0.210
-669.076	-65.586	-0.165	0.067
-668.062	-72.451	-0.111	-0.042
-667.047	28.088	0.104	-0.089
-666.032	308.934	0.058	0.110
-665.018	-53.845	0.297	-0.137
-664.003	-200.000	-0.018	-0.096
-662.989	800.000	-0.048	-0.157
-661.974	-57.496	-0.177	0.079
-660.959	-200.000	0.000	-0.204
-659.945	-3.491	-0.237	0.167
-658.930	53.287	-0.291	-0.282
-657.916	-200.000	0.059	-0.272
-656.901	-53.337	-0.353	0.163
-655.886	-132.028	-0.093	-0.012
-654.872	29.434	-0.217	-0.187
-653.857	136.767	-0.255	-0.336
-652.843	-36.358	-0.275	-0.149
-651.828	71.260	0.029	0.030
-650.814	119.317	-0.145	0.181
-649.799	800.000	0.052	-0.217
-648.784	29.736	-0.405	-0.348
-647.770	80.440	-0.140	-0.152
-646.755	-85.159	0.259	0.082
-645.741	-200.000	-0.019	-0.192
-644.726	303.899	0.112	0.210
-643.711	8.984	-0.195	-0.148
-642.697	-200.000	-0.006	0.172
-641.682	-14.700	0.045	0.029
-640.668	259.250	0.090	0.156
-639.653	115.257	-0.162	0.200
-638.638	-200.000	-0.028	0.269
-637.624	57.344	0.269	-0.265
-636.609	-173.755	0.132	-0.004
-635.595	-200.000	-0.014	0.283
-634.580	-97.599	0.025	0.006
-633.565	-200.000	-0.014	-0.162
-632.551	41.898	-0.171	-0.156
-631.536	-43.372	0.128	0.065
-630.522	51.963	0.143	0.137
-629.507	-200.000	-0.054	0.382
-628.492	73.752	-0.268	0.283
-627.478	-32.183	-0.257	0.145
-626.463	300.618	0.030	0.056
-625.449	-139.799	-0.236	-0.025
-624.434	-200.000	-0.054	-0.334
-623.419	90.807	0.106	-0.119
-622.405	800.000	-0.080	0.239
-621.390	-12.178	0.221	0.146
-620.376	-127.593	0.123	-0.018
-619.361	591.601	0.062	0.154
-618.346	-200.000	0.033	0.321
-617.332	-191.136	-0.174	-0.002
-616.317	537.658	0.013	0.031
-615.303	800.000	-0.014	0.057
-614.288	-200.000	0.009	-0.144
-613.273	73.253	-0.262	0.276
-612.259	-200.000	0.055	-0.295
-611.244	-56.897	-0.256	0.114
-610.230	-91.340	0.245	-0.070
-609.215	294.701	0.047	0.086
-608.201	-40.317	-0.200	-0.105
-607.186	800.000	0.078	0.291
-606.171	137.529	-0.246	0.324
-605.157	38.064	-0.072	-0.064
-604.142	-128.161	-0.114	-0.016
-603.128	-106.915	-0.320	0.071
-602.113	-84.064	-0.205	-0.066
-601.098	22.371	-0.256	-0.211
-600.084	-35.312	0.130	-0.071
-599.069	307.752	0.068	0.127
-598.055	33.665	-0.164	-0.143
-597.040	-80.640	-0.109	0.037
-596.025	-200.000	-0.016	-0.211
-595.011	-109.543	0.114	-0.024
-593.996	-125.286	0.120	-0.019
-592.982	800.000	-0.051	-0.159
-591.967	-199.148	-0.145	0.001
-590.952	800.000	0.016	0.068
-589.938	95.577	-0.137	-0.157
-588.923	-63.006	0.396	-0.165
-587.909	211.523	0.116	0.184
-586.894	379.896	-0.062	-0.128
-585.879	280.211	0.048	0.086
-584.865	-200.000	0.035	0.190
-583.850	639.309	0.070	-0.180
-582.836	51.886	0.183	-0.176
-581.821	76.781	-0.046	-0.049
-580.806	68.395	-0.129	0.133
-579.792	-200.000	-0.018	0.090
-578.777	453.533	0.057	-0.128
-577.763	800.000	0.026	0.095
-576.748	-28.669	-0.079	0.046
-575.733	149.072	0.064	0.087
-574.719	-84.919	0.218	0.069
-573.704	-54.477	0.326	-0.149
-572.690	-52.678	-0.115	-0.053
-571.675	384.510	0.103	-0.214
-570.661	-92.198	0.208	0.059
-569.646	800.000	-0.051	-0.217
-568.631	-10.035	-0.195	-0.130
-567.617	25.005	0.239	0.199
-566.602	43.483	0.158	-0.145
-565.588	-200.000	0.030	-0.233
-564.573	337.315	-0.152	0.297
-563.558	-2.366	-0.087	0.061
-562.544	113.640	0.192	0.235
-561.529	800.000	0.026	0.089
-560.515	-200.000	0.012	0.292
-559.500	-200.000	-0.017	-0.077
-558.485	-109.123	0.158	-0.034
-557.471	-117.987	-0.117	0.021
-556.456	-127.222	0.314	0.046
-555.442	421.517	-0.054	-0.117
-554.427	97.235	0.176	-0.203
-553.412	435.012	0.079	-0.172
-552.398	28.765	-0.193	0.165
-551.383	63.917	0.116	-0.117
-550.369	2.325	-0.303	-0.220
-549.354	-200.000	0.031	0.182
-548.339	-15.925	0.184	-0.118
-547.325	301.392	-0.147	-0.273
-546.310	68.329	-0.158	-0.163
-545.296	38.888	-0.133	0.119
-544.281	8.919	0.160	-0.121
-543.266	-116.570	-0.210	-0.039
-542.252	-72.141	-0.087	0.033
-541.237	-66.617	-0.129	0.052
-540.223	392.301	-0.124	-0.260
-539.208	-84.917	-0.132	0.042
-538.193	-200.000	-0.023	0.184
-537.179	50.479	-0.247	-0.235
-536.164	-37.006	0.266	-0.143
-535.150	59.476	0.010	-0.010
-534.135	-19.235	-0.154	0.096
-533.121	143.962	-0.104	0.140
-532.106	-200.000	-0.022	0.124
-531.091	308.755	-0.085	-0.159
-530.077	-63.835	0.132	0.054
-529.062	800.000	0.076	-0.264
-528.048	48.398	0.191	-0.180
-527.033	-35.184	0.114	-0.062
-526.018	188.985	0.146	0.219
-525.004	-55.647	0.285	-0.128
-523.989	220.178	-0.282	0.454
-522.975	-14.480	0.126	0.081
-521.960	-45.215	0.203	0.101
-520.945	-39.271	-0.253	0.134
-519.931	-54.049	-0.036	0.016
-518.916	454.364	-0.041	0.091
-517.902	139.427	0.030	0.040
-516.887	60.647	-0.142	-0.141
-515.872	-28.339	-0.132	0.076
-514.858	-178.583	0.171	-0.004
-513.843	185.812	-0.069	0.103
-512.829	30.465	-0.146	-0.126
-511.814	-55.932	-0.010	0.004
-510.799	-200.000	0.002	-0.250
-509.785	-111.293	0.155	-0.032
-508.770	-19.611	-0.174	-0.108
-507.756	224.494	-0.065	0.106
-506.741	-53.161	0.175	-0.080
-505.726	73.848	-0.172	0.181
-504.712	-106.374	-0.101	-0.023
-503.697	-2.244	-0.241	-0.170
-502.683	-200.000	-0.004	0.085
-501.668	30.297	-0.162	-0.139
-500.653	51.426	-0.280	0.267
-499.639	274.031	0.181	0.321
-498.624	-85.898	0.241	0.075
-497.610	-200.000	0.033	-0.178
-496.595	16.889	0.143	0.114
-495.581	30.203	-0.116	-0.099
-494.566	800.000	0.090	-0.303
-493.551	-200.000	-0.050	0.270
-492.537	-92.747	-0.294	-0.083
-491.522	166.034	0.160	-0.227
-490.508	342.331	0.095	-0.187
-489.493	-31.316	-0.166	-0.094
-488.478	469.073	0.047	-0.105
-487.464	-28.061	-0.245	0.142
-486.449	-54.347	0.324	0.147
-485.435	405.966	-0.114	0.241
-484.420	-93.579	0.091	0.025
-483.405	-200.000	-0.032	-0.172
-482.391	-78.468	-0.346	-0.119
-481.376	461.075	-0.070	-0.156
-480.362	-200.000	0.003	-0.179
-479.347	231.697	-0.190	0.312
-478.332	89.367	0.361	0.404
-477.318	-80.238	0.326	0.109
-476.303	489.600	0.074	0.169
-475.289	-200.000	-0.030	-0.138
-474.274	-200.000	0.035	-0.257
-473.259	239.831	-0.128	-0.213
-472.245	-33.705	-0.132	-0.073
-471.230	-57.607	-0.318	-0.140
-470.216	-107.709	-0.428	0.094
-469.201	415.640	-0.061	0.130
-468.186	-200.000	-0.073	-0.451
-467.172	-106.880	-0.117	0.026
-466.157	-200.000	0.004	-0.131
-465.143	759.023	0.091	-0.247
-464.128	-193.274	0.215	-0.002
-463.113	82.587	0.164	0.178
-462.099	133.750	0.177	-0.230
-461.084	-65.990	-0.139	0.055
-460.070	90.435	0.087	-0.098
-459.055	-92.123	0.241	0.068
-458.040	-153.627	-0.224	0.015
-457.026	-35.158	0.229	-0.125
-456.011	-109.489	0.204	0.043
-454.997	87.155	0.060	0.066
-453.982	-33.228	-0.355	-0.197
-452.968	-200.000	0.070	-0.343
-451.953	57.288	0.205	0.200
-450.938	154.686	0.120	-0.165
-449.924	-8.636	-0.452	-0.304
-448.909	30.500	0.134	-0.114
-447.895	800.000	-0.062	0.227
-446.880	37.519	0.137	-0.122
-445.865	75.796	0.103	-0.109
-444.851	155.993	0.074	-0.102
-443.836	-138.878	-0.137	-0.015
-442.822	40.121	-0.242	-0.218
-441.807	139.211	0.172	0.226
-440.792	116.264	-0.224	0.274
-439.778	374.081	0.045	0.093
-438.763	-175.237	0.252	0.007
-437.749	-8.845	-0.356	0.239
-436.734	-133.458	0.021	-0.003
-435.719	-200.000	-0.012	-0.334
-434.705	-3.089	-0.338	0.236
-433.690	-176.917	0.290	0.007
-432.676	542.886	0.195	0.466
-431.661	800.000	-0.031	-0.118
-430.646	-200.000	-0.000	-0.183
-429.632	215.037	0.096	-0.153
-428.617	179.007	0.058	-0.084
-427.603	-66.685	0.067	-0.026
-426.588	410.428	-0.061	-0.129
-425.573	15.570	-0.089	-0.070
-424.559	2.658	-0.148	0.107
-423.544	-200.000	0.000	-0.088
-422.530	313.101	-0.147	-0.276
-421.515	-109.141	0.035	0.007
-420.500	-200.000	-0.040	0.272
-419.486	-200.000	-0.047	-0.350
-418.471	49.353	0.229	-0.216
-417.457	-165.252	0.117	-0.005
-416.442	-7.007	-0.083	0.056
-415.428	-200.000	0.031	0.229
-414.413	279.036	-0.057	-0.102
-413.398	184.303	0.154	-0.229
-412.384	24.099	0.068	-0.056
-411.369	-99.796	-0.195	0.049
-410.355	169.195	0.017	-0.024
-409.340	-64.671	0.175	0.071
-408.325	-105.498	-0.139	0.032
-407.311	-96.994	-0.073	0.019
-406.296	-54.809	0.270	0.122
-405.282	-54.048	-0.158	0.072
-404.267	-36.670	0.077	-0.041
-403.252	-69.672	-0.224	0.086
-402.238	166.360	0.072	-0.102
-401.223	231.714	0.010	-0.017
-400.209	-68.012	-0.230	-0.090
-399.194	-48.756	-0.162	-0.078
-398.179	800.000	-0.029	-0.114
-397.165	5.421	0.187	0.138
-396.150	-200.000	-0.036	0.179
-395.136	463.998	-0.095	0.212
-394.121	-131.524	0.215	0.028
-393.106	39.420	0.420	0.376
-392.092	-200.000	-0.002	-0.244
-391.077	219.199	0.093	0.148
-390.063	800.000	0.051	-0.172
-389.048	-200.000	0.015	-0.081
-388.033	-92.676	0.144	-0.040
-387.019	99.576	0.126	0.146
-386.004	-140.430	-0.394	-0.041
-384.990	-26.747	0.102	-0.060
-383.975	33.422	0.017	-0.015
-382.960	15.874	0.160	-0.126
-381.946	231.280	-0.017	-0.027
-380.931	271.984	0.204	-0.359
-379.917	-200.000	0.055	0.266
-378.902	383.125	-0.077	0.158
-377.888	-64.473	0.076	0.031
-376.873	451.227	-0.091	-0.202
-375.858	42.743	0.089	-0.081
-374.844	107.531	-0.070	-0.084
-373.829	-87.294	0.185	0.056
-372.815	667.596	-0.138	-0.356
-371.800	-200.000	-0.058	-0.319
-370.785	-108.840	0.325	-0.069
-369.771	68.532	0.135	-0.138
-368.756	-47.864	0.106	0.051
-367.742	800.000	0.114	0.314
-366.727	463.112	-0.125	0.279
-365.712	314.806	0.112	0.212
-364.698	13.920	-0.203	0.157
-363.683	-200.000	-0.037	0.211
-362.669	-109.292	-0.386	-0.082
-361.654	5.683	-0.166	-0.123
-360.639	-200.000	0.013	-0.170
-359.625	-52.646	0.070	0.032
-358.610	96.227	-0.088	-0.100
-357.596	-96.697	-0.033	-0.009
-356.581	-62.126	0.198	0.082
-355.566	-112.409	-0.074	0.015
-354.552	-108.009	0.101	-0.022
-353.537	800.000	0.214	-0.596
-352.523	-94.497	-0.029	-0.008
-351.508	347.692	0.062	0.122
-350.493	-25.658	0.179	0.105
-349.479	-102.695	0.080	0.019
-348.464	79.979	-0.145	0.156
-347.450	98.417	0.106	0.122
-346.435	256.405	0.075	0.128
-345.420	-172.101	-0.304	0.010
-344.406	-200.000	0.052	0.395
-343.391	-22.091	0.230	-0.139
-342.377	-200.000	0.026	-0.173
-341.362	252.252	-0.085	-0.145
-340.348	-80.352	-0.423	0.141
-339.333	288.377	-0.048	-0.087
-338.318	-53.239	0.092	0.042
-337.304	-68.639	0.401	0.155
-336.289	141.288	0.145	-0.192
-335.275	-197.121	-0.283	-0.002
-334.260	-110.031	-0.251	-0.052
-333.245	-154.537	0.235	-0.016
-332.231	-113.685	0.150	0.029
-331.216	365.459	0.164	-0.329
-330.202	301.235	0.057	0.106
-329.187	127.056	-0.111	0.140
-328.172	160.544	0.078	-0.108
-327.158	25.209	-0.313	-0.259
-326.143	119.580	-0.090	-0.111
-325.129	-3.406	0.384	-0.267
-324.114	-200.000	-0.042	0.233
-323.099	-200.000	0.045	-0.227
-322.085	167.073	0.062	-0.088
-321.070	108.828	0.228	0.272
-320.056	-200.000	0.029	0.546
-319.041	124.859	-0.222	0.279
-318.026	-38.644	0.254	0.134
-317.012	800.000	0.117	-0.389
-315.997	711.757	0.094	-0.249
-314.983	43.676	-0.307	-0.280
-313.968	498.128	0.077	0.177
-312.953	-200.000	-0.013	0.139
-311.939	-51.348	-0.220	0.102
-310.924	-62.696	-0.244	-0.101
-309.910	-53.373	-0.133	-0.061
-308.895	188.186	-0.086	0.127
-307.880	203.588	-0.184	0.284
-306.866	-200.000	0.016	-0.228
-305.851	210.264	-0.117	-0.183
-304.837	-11.256	-0.233	-0.153
-303.822	-120.155	0.255	0.043
-302.807	-34.835	0.141	0.076
-301.793	800.000	0.007	-0.020
-300.778	-7.633	0.132	0.089
-299.764	-52.526	-0.429	-0.197
-298.749	-200.000	0.028	0.235
-297.735	-42.739	0.252	0.128
-296.720	497.429	-0.140	0.322
-295.705	-98.125	0.358	-0.092
-294.691	800.000	0.066	0.192
-293.676	800.000	-0.110	0.371
-292.662	-38.174	-0.211	-0.112
-291.647	-74.661	-0.170	-0.061
-290.632	-24.975	-0.006	0.004
-289.618	132.827	-0.246	0.316
-288.603	-180.122	0.171	-0.004
-287.589	-95.254	0.315	-0.084
-286.574	-142.344	-0.344	-0.034
-285.559	-200.000	-0.037	0.169
-284.545	-43.885	-0.306	0.153
-283.530	-200.000	-0.062	0.305
-282.516	-107.727	0.221	-0.048
-281.501	-160.980	0.099	-0.005
-280.486	-79.901	0.287	-0.096
-279.472	-200.000	-0.003	-0.252
-278.457	-128.793	-0.121	0.017
-277.443	-93.086	-0.086	0.024
-276.428	1.446	-0.137	-0.098
-275.413	-12.201	0.282	-0.184
-274.399	-109.209	0.258	0.054
-273.384	136.521	-0.092	-0.120
-272.370	-200.000	-0.010	0.152
-271.355	284.264	0.188	0.337
-270.340	8.956	0.126	0.095
-269.326	119.062	0.306	-0.376
-268.311	7.148	-0.135	0.100
-267.297	44.141	-0.125	-0.114
-266.282	464.482	-0.105	-0.234
-265.267	683.887	-0.064	-0.165
-264.253	68.517	0.338	0.344
-263.238	593.062	0.074	0.181
-262.224	566.727	0.047	-0.114
-261.209	-3.356	-0.168	0.116
-260.195	177.700	0.172	-0.249
-259.180	590.242	-0.153	0.376
-258.165	339.558	0.054	0.104
-257.151	-200.000	0.085	-0.418
-256.136	-200.000	0.007	-0.290
-255.122	208.512	-0.064	-0.099
-254.107	800.000	0.114	-0.347
-253.092	161.142	0.065	-0.090
-252.078	68.820	0.121	-0.124
-251.063	-142.768	0.232	0.022
-250.049	58.127	-0.171	0.166
-249.034	800.000	-0.067	-0.196
-248.019	-78.982	0.368	0.125
-247.005	368.222	-0.111	0.222
-245.990	43.316	-0.213	0.193
-244.976	666.675	0.135	0.348
-243.961	177.609	-0.088	0.128
-242.946	-200.000	0.007	0.071
-241.932	63.295	0.088	-0.087
-240.917	-200.000	-0.019	-0.189
-239.903	-40.420	-0.403	-0.208
-238.888	-45.096	-0.074	0.037
-237.873	-73.857	0.358	-0.129
-236.859	322.775	0.052	-0.099
-235.844	-200.000	0.008	0.236
-234.830	-46.528	-0.364	0.177
-233.815	285.327	0.061	0.109
-232.800	-17.333	0.092	-0.057
-231.786	-131.450	0.148	0.019
-230.771	-25.820	-0.223	0.131
-229.757	-26.769	0.130	-0.075
-228.742	206.162	0.055	-0.085
-227.727	-200.000	-0.034	0.148
-226.713	761.757	-0.197	-0.530
-225.698	800.000	-0.033	0.099
-224.684	113.194	-0.260	0.313
-223.669	7.139	-0.068	-0.050
-222.655	153.686	0.260	0.353
-221.640	800.000	-0.013	-0.042
-220.625	800.000	0.029	-0.093
-219.611	-144.699	-0.149	0.014
-218.596	-64.158	0.251	-0.102
-217.582	-54.340	0.327	-0.147
-216.567	18.886	-0.194	0.154
-215.552	-200.000	0.030	-0.168
-214.538	-19.036	-0.167	-0.103
-213.523	127.917	0.122	0.154
-212.509	-26.122	-0.181	0.106
-211.494	-200.000	-0.013	0.234
-210.479	-200.000	-0.004	0.128
-209.465	205.806	0.046	-0.071
-208.450	-200.000	-0.049	-0.462
-207.436	298.856	0.202	-0.368
-206.421	-69.352	0.311	-0.118
-205.406	143.589	-0.244	0.323
-204.392	-200.000	-0.038	-0.319
-203.377	271.070	0.180	-0.314
-202.363	-90.045	-0.148	0.043
-201.348	235.672	-0.225	-0.368
-200.333	442.125	0.088	-0.190
-199.319	309.271	-0.089	0.165
-198.304	-94.877	0.083	-0.022
-197.290	-140.384	0.190	-0.020
-196.275	165.889	0.278	0.390
-195.260	272.588	-0.122	0.213
-194.246	402.270	0.059	0.124
-193.231	226.123	0.113	0.181
-192.217	-138.625	-0.325	-0.035
-191.202	48.497	-0.180	0.167
-190.187	-200.000	-0.017	-0.223
-189.173	230.235	0.065	-0.106
-188.158	219.335	0.090	0.143
-187.144	800.000	-0.047	-0.174
-186.129	-112.604	0.079	-0.016
-185.114	358.131	-0.156	-0.309
-184.100	83.943	-0.276	0.299
-183.085	570.563	-0.129	0.312
-182.071	-110.147	0.101	-0.021
-181.056	-189.615	-0.180	0.002
-180.042	-96.333	0.287	-0.075
-179.027	800.000	0.035	0.104
-178.012	-52.716	0.204	0.093
-176.998	-200.000	0.012	-0.108
-175.983	-76.306	0.188	0.066
-174.969	17.697	-0.147	-0.116
-173.954	125.645	-0.041	-0.051
-172.939	800.000	0.007	0.026
-171.925	-94.555	0.329	-0.089
-170.910	800.000	0.035	-0.146
-169.896	16.774	-0.311	0.243
-168.881	-131.039	-0.016	-0.002
-167.866	800.000	0.032	-0.101
-166.852	-200.000	0.029	0.270
-165.837	151.518	-0.305	0.411
-164.823	-200.000	0.004	-0.212
-163.808	-35.003	0.134	0.072
-162.793	90.950	0.217	0.241
-161.779	214.242	0.182	0.285
-160.764	199.807	0.048	0.073
-159.750	194.999	0.128	-0.192
-158.735	238.148	-0.104	-0.170
-157.720	800.000	0.085	0.236
-156.706	800.000	-0.096	0.296
-155.691	-81.197	0.153	0.050
-154.677	800.000	-0.066	0.284
-153.662	403.658	-0.135	0.282
-152.647	-147.223	-0.062	-0.005
-151.633	-37.525	-0.037	-0.019
-150.618	-200.000	0.005	-0.060
-149.604	-200.000	0.024	0.159
-148.589	425.104	0.101	-0.215
-147.574	86.088	0.147	-0.160
-146.560	102.336	-0.193	-0.224
-145.545	-41.793	-0.105	-0.053
-144.531	73.757	-0.079	-0.082
-143.516	-157.745	-0.378	-0.022
-142.502	-99.398	-0.162	0.040
-141.487	121.411	0.077	-0.095
-140.472	281.673	0.126	-0.223
-139.458	-15.694	-0.115	0.073
-138.443	228.108	-0.045	0.073
-137.429	54.217	-0.174	0.166
-136.414	-15.556	0.388	-0.245
-135.399	-11.043	-0.054	0.036
-134.385	-100.293	0.376	-0.092
-133.370	-164.402	-0.236	-0.011
-132.356	215.699	0.082	-0.128
-131.341	160.657	-0.179	0.246
-130.326	259.909	-0.100	-0.171
-129.312	45.369	-0.016	0.014
-128.297	730.576	0.060	-0.158
-127.283	-117.956	0.059	-0.010
-126.268	800.000	-0.089	0.261
-125.253	-200.000	0.046	0.348
-124.239	800.000	-0.153	0.437
-123.224	-1.618	0.191	0.133
-122.210	-81.290	0.153	0.050
-121.195	423.518	-0.071	-0.150
