DTS Sentinel unit serial number:	SN413079Multiplexer serial number:	ORYXHardware model number:	OX4-SRSoftware version number:	ORYX F/W v4.00 Oryx Data Collector v3.7.2.0data status	okinstallation	princeton_trtdifferential loss correction	single-endedforward channel	channel 4reverse channel	N/Adate	2019/09/10time	20:31:11forward acquisition time	60.00reverse acquisition time	0.00gamma	496.2192k internal	0.2312k external	0.2312temperature offset calibration	0.9947default loss term (dB/km)	0.3790temperature slope calibration	1.0000multiplexer offset coefficient	1.0000multiplexer slope coefficient	1.0000fibre end	0.00T internal ref (°C)	32.00T ext. ref 1 (°C)	-0.31T ext. ref 2 (°C)	25.30length (m)	temperature (°C)	Stokes	anti-Stokes-747.200	-33.690	0.131	0.073
-746.185	77.652	0.052	0.057
-745.171	182.789	0.179	-0.269
-744.156	800.000	0.169	0.488
-743.142	-8.519	0.287	0.196
-742.127	58.095	0.037	0.037
-741.112	-121.883	0.352	0.059
-740.098	800.000	-0.126	0.464
-739.083	-200.000	-0.012	-0.227
-738.069	755.187	0.149	0.409
-737.054	-29.717	-0.405	0.234
-736.039	-96.240	-0.076	0.020
-735.025	45.836	0.152	-0.143
-734.010	174.833	-0.130	-0.190
-732.996	218.172	-0.165	-0.267
-731.981	-90.672	-0.332	0.097
-730.966	145.359	0.179	0.243
-729.952	68.493	-0.278	-0.289
-728.937	-200.000	0.034	-0.305
-727.923	-54.909	0.302	0.138
-726.908	800.000	-0.046	0.133
-725.894	-200.000	-0.029	0.144
-724.879	12.861	-0.268	0.210
-723.864	394.174	0.074	-0.157
-722.850	-168.551	-0.342	0.013
-721.835	63.344	0.064	-0.065
-720.821	225.932	0.152	-0.250
-719.806	122.315	-0.104	-0.132
-718.791	-114.733	0.280	0.054
-717.777	408.415	-0.041	0.088
-716.762	28.375	0.142	0.122
-715.748	-27.415	-0.270	0.159
-714.733	-200.000	0.010	-0.119
-713.718	-26.408	0.096	0.057
-712.704	800.000	0.027	-0.120
-711.689	-14.917	-0.268	-0.174
-710.675	-67.510	-0.233	0.093
-709.660	118.667	0.021	0.026
-708.645	-195.994	-0.518	-0.004
-707.631	-123.415	-0.094	-0.015
-706.616	22.503	-0.229	0.190
-705.602	527.653	-0.196	-0.468
-704.587	-1.561	0.255	-0.182
-703.572	124.528	-0.255	-0.325
-702.558	800.000	-0.070	-0.270
-701.543	-79.070	0.385	-0.133
-700.529	97.305	0.161	-0.187
-699.514	263.605	-0.112	-0.197
-698.499	-200.000	0.013	0.089
-697.485	-2.454	0.246	-0.174
-696.470	-48.571	-0.300	0.146
-695.456	328.460	0.094	0.182
-694.441	149.019	-0.220	0.301
-693.426	-77.075	0.246	0.087
-692.412	280.039	-0.121	0.220
-691.397	28.034	0.146	0.125
-690.383	-80.857	0.416	-0.140
-689.368	-54.156	0.300	0.138
-688.354	60.164	0.078	0.079
-687.339	100.780	0.179	-0.211
-686.324	-88.375	0.273	-0.083
-685.310	800.000	-0.057	-0.238
-684.295	-80.341	-0.114	-0.039
-683.281	265.686	0.136	0.239
-682.266	-117.971	0.299	0.054
-681.251	-144.579	0.272	0.025
-680.237	30.894	-0.303	0.263
-679.222	233.206	-0.048	0.079
-678.208	73.601	0.172	0.182
-677.193	215.511	0.068	-0.109
-676.178	-145.915	-0.056	-0.005
-675.164	-54.640	0.391	0.179
-674.149	-65.434	-0.292	0.119
-673.135	141.787	0.192	-0.258
-672.120	121.757	-0.022	-0.028
-671.105	165.146	0.079	-0.113
-670.091	86.088	0.105	-0.117
-669.076	72.835	0.261	-0.276
-668.062	1.214	0.292	-0.212
-667.047	-200.000	0.017	-0.117
-666.032	2.417	-0.245	-0.179
-665.018	129.006	-0.250	-0.322
-664.003	-200.000	0.043	-0.282
-662.989	-200.000	0.001	-0.152
-661.974	117.399	-0.143	0.177
-660.959	28.606	0.200	0.171
-659.945	-75.195	0.128	-0.046
-658.930	74.253	0.172	-0.183
-657.916	389.974	-0.106	0.222
-656.901	318.416	-0.040	0.077
-655.886	800.000	0.148	-0.443
-654.872	-151.886	-0.287	-0.021
-653.857	92.466	-0.078	-0.089
-652.843	158.604	-0.152	-0.213
-651.828	-68.720	-0.156	0.061
-650.814	-198.961	-0.367	0.002
-649.799	-200.000	0.012	-0.161
-648.784	40.027	-0.084	0.077
-647.770	-132.196	-0.335	-0.044
-646.755	800.000	0.149	-0.466
-645.741	-102.984	-0.388	-0.093
-644.726	-115.409	0.241	-0.046
-643.711	-41.091	-0.113	0.059
-642.697	-93.482	-0.321	-0.090
-641.682	-200.000	0.045	0.203
-640.668	-200.000	-0.041	0.304
-639.653	101.854	-0.057	0.067
-638.638	-13.710	-0.259	0.169
-637.624	-1.283	0.068	0.048
-636.609	-89.951	0.174	0.051
-635.595	-200.000	0.010	0.255
-634.580	639.565	-0.084	0.215
-633.565	-200.000	0.005	-0.295
-632.551	750.512	0.065	-0.176
-631.536	335.426	-0.025	0.050
-630.522	-79.417	-0.137	0.047
-629.507	-146.342	-0.362	-0.032
-628.492	-139.889	-0.073	-0.008
-627.478	12.165	0.188	0.146
-626.463	-59.210	0.122	-0.053
-625.449	412.968	0.065	-0.139
-624.434	269.697	-0.062	0.109
-623.419	118.037	0.192	0.239
-622.405	-92.999	0.262	0.074
-621.390	193.800	0.035	-0.053
-620.376	-20.836	-0.197	0.122
-619.361	266.606	-0.259	-0.457
-618.346	-115.428	0.086	0.016
-617.332	102.219	0.036	-0.042
-616.317	658.688	-0.116	0.301
-615.303	96.485	-0.377	-0.436
-614.288	571.470	-0.071	0.174
-613.273	-200.000	0.017	0.250
-612.259	-187.291	0.300	0.004
-611.244	-200.000	-0.004	-0.147
-610.230	-17.274	0.039	0.025
-609.215	-19.103	0.372	-0.233
-608.201	3.011	-0.302	0.222
-607.186	13.599	0.349	0.273
-606.171	-29.367	0.261	0.151
-605.157	-126.229	0.120	0.018
-604.142	-44.127	-0.146	-0.074
-603.128	-134.328	0.213	0.026
-602.113	131.244	0.106	0.137
-601.098	-26.744	0.167	-0.098
-600.084	800.000	0.035	0.144
-599.069	-200.000	-0.018	0.330
-598.055	-200.000	-0.032	0.225
-597.040	-68.685	0.052	0.020
-596.025	297.538	-0.211	-0.391
-595.011	-200.000	-0.059	-0.531
-593.996	-61.493	0.280	-0.119
-592.982	414.729	-0.150	0.322
-591.967	20.153	-0.269	0.219
-590.952	3.941	-0.241	-0.178
-589.938	47.209	-0.115	0.108
-588.923	-78.266	0.351	-0.122
-587.909	196.602	-0.108	-0.166
-586.894	-88.476	0.042	-0.013
-585.879	-200.000	-0.026	-0.361
-584.865	-52.952	-0.267	0.124
-583.850	-200.000	-0.045	0.262
-582.836	171.372	0.068	-0.098
-581.821	732.383	0.056	0.152
-580.806	-43.629	-0.284	-0.145
-579.792	-58.421	-0.043	0.019
-578.777	2.103	-0.144	-0.105
-577.763	297.824	0.090	0.167
-576.748	-128.745	-0.162	0.023
-575.733	192.088	0.181	-0.275
-574.719	-200.000	0.011	-0.159
-573.704	-200.000	-0.001	-0.127
-572.690	-200.000	-0.024	0.228
-571.675	-101.898	0.137	-0.033
-570.661	-200.000	0.049	-0.347
-569.646	-34.713	-0.180	0.099
-568.631	-13.916	-0.258	-0.168
-567.617	48.781	0.214	-0.202
-566.602	-37.455	-0.127	0.068
-565.588	-187.567	-0.137	-0.002
-564.573	-154.858	0.413	0.027
-563.558	212.714	0.084	-0.133
-562.544	305.905	-0.035	-0.066
-561.529	377.787	-0.084	-0.173
-560.515	-66.385	0.076	0.030
-559.500	-200.000	-0.010	0.235
-558.485	-200.000	0.000	0.176
-557.471	-136.272	0.216	-0.025
-556.456	35.192	0.192	-0.169
-555.442	9.092	-0.184	0.140
-554.427	278.399	-0.160	-0.287
-553.412	-72.416	-0.352	0.131
-552.398	-143.007	0.362	0.035
-551.383	-169.538	-0.136	0.005
-550.369	1.209	-0.300	0.217
-549.354	74.538	-0.100	0.106
-548.339	-200.000	-0.017	-0.204
-547.325	289.787	0.097	-0.177
-546.310	-99.250	-0.306	0.078
-545.296	800.000	0.042	0.162
-544.281	398.598	0.065	0.137
-543.266	-200.000	0.003	0.129
-542.252	800.000	0.133	0.568
-541.237	-56.341	0.221	-0.099
-540.223	-100.775	-0.065	-0.016
-539.208	-194.934	-0.147	0.001
-538.193	302.260	0.109	0.204
-537.179	27.482	-0.052	0.044
-536.164	3.143	0.087	0.063
-535.150	-169.024	0.350	0.013
-534.135	-4.013	-0.314	0.219
-533.121	39.476	0.188	0.169
-532.106	162.658	0.140	0.197
-531.091	728.894	-0.132	-0.354
-530.077	373.177	-0.158	-0.323
-529.062	170.453	0.105	-0.151
-528.048	800.000	-0.016	-0.055
-527.033	310.648	-0.244	-0.460
-526.018	2.274	-0.167	-0.122
-525.004	-33.807	0.247	0.137
-523.989	-117.698	-0.156	-0.028
-522.975	-200.000	0.032	0.458
-521.960	656.575	0.059	0.154
-520.945	-104.679	-0.165	-0.038
-519.931	-200.000	-0.041	-0.330
-518.916	-10.539	-0.050	-0.033
-517.902	-18.646	-0.123	-0.077
-516.887	-0.901	-0.353	-0.252
-515.872	77.548	-0.315	0.337
-514.858	465.199	-0.103	0.231
-513.843	-56.454	0.292	0.130
-512.829	25.873	-0.061	-0.051
-511.814	-200.000	-0.031	-0.489
-510.799	188.720	-0.166	-0.250
-509.785	-76.413	-0.123	0.043
-508.770	-100.298	-0.301	-0.075
-507.756	82.052	-0.125	-0.136
-506.741	107.328	-0.066	-0.079
-505.726	201.686	0.229	-0.355
-504.712	-29.821	-0.142	0.081
-503.697	-84.698	-0.060	0.019
-502.683	66.393	0.205	0.209
-501.668	-135.584	0.327	0.039
-500.653	-200.000	0.040	-0.199
-499.639	-142.111	-0.437	0.044
-498.624	800.000	-0.053	0.199
-497.610	-95.444	-0.261	0.070
-496.595	16.320	0.216	-0.172
-495.581	193.434	-0.138	-0.210
-494.566	55.125	0.138	-0.134
-493.551	-63.003	0.057	0.024
-492.537	37.231	0.182	-0.162
-491.522	-56.564	-0.088	-0.039
-490.508	-79.654	-0.083	0.028
-489.493	-184.459	0.218	0.004
-488.478	-100.057	0.217	-0.054
-487.464	71.779	0.273	-0.285
-486.449	-163.288	0.054	0.003
-485.435	800.000	-0.043	-0.124
-484.420	187.377	-0.209	-0.313
-483.405	106.907	0.155	0.185
-482.391	-116.445	-0.161	0.030
-481.376	654.241	0.094	0.243
-480.362	800.000	-0.048	-0.148
-479.347	-115.703	-0.296	0.056
-478.332	-128.809	0.225	0.032
-477.318	-200.000	0.013	-0.115
-476.303	-200.000	-0.017	0.340
-475.289	274.627	0.116	0.206
-474.274	156.353	0.125	0.174
-473.259	-88.835	-0.530	0.158
-472.245	-200.000	0.002	0.309
-471.230	800.000	-0.032	-0.096
-470.216	-85.819	0.290	0.090
-469.201	-200.000	-0.020	-0.427
-468.186	-103.605	-0.078	0.018
-467.172	-109.128	0.360	0.077
-466.157	-120.395	-0.073	0.012
-465.143	123.819	0.234	-0.295
-464.128	77.252	-0.076	-0.082
-463.113	287.942	0.057	-0.104
-462.099	800.000	0.068	-0.255
-461.084	-75.751	0.274	0.098
-460.070	248.189	0.069	0.118
-459.055	-49.509	-0.195	0.093
-458.040	56.318	-0.043	0.042
-457.026	-200.000	-0.014	0.188
-456.011	121.879	0.282	-0.353
-454.997	-119.782	0.136	-0.023
-453.982	145.695	0.289	-0.388
-452.968	-137.274	0.280	-0.032
-451.953	-134.512	-0.254	0.031
-450.938	800.000	0.021	-0.087
-449.924	91.523	-0.253	-0.285
-448.909	-51.561	0.192	0.090
-447.895	-96.538	-0.095	-0.025
-446.880	-95.534	-0.232	-0.062
-445.865	129.813	-0.130	-0.167
-444.851	-200.000	0.034	-0.190
-443.836	-200.000	0.019	0.174
-442.822	-94.381	-0.240	-0.066
-441.807	-200.000	-0.004	0.214
-440.792	-124.614	0.273	0.042
-439.778	-136.285	-0.062	0.007
-438.763	193.028	-0.051	0.077
-437.749	85.070	-0.039	0.042
-436.734	26.725	-0.165	-0.139
-435.719	-19.372	-0.363	0.226
-434.705	-96.153	-0.109	-0.029
-433.690	-122.687	-0.193	0.031
-432.676	-200.000	-0.061	0.311
-431.661	26.108	-0.143	-0.120
-430.646	210.085	0.033	0.052
-429.632	218.838	0.032	0.051
-428.617	-76.145	0.212	0.075
-427.603	98.927	0.120	0.139
-426.588	-100.821	0.212	0.052
-425.573	-133.418	0.516	0.065
-424.559	-137.600	0.210	0.024
-423.544	156.318	-0.079	-0.109
-422.530	177.966	0.045	0.066
-421.515	-114.626	0.214	-0.041
-420.500	-46.424	-0.080	-0.039
-419.486	-19.706	-0.136	-0.084
-418.471	-146.311	-0.247	0.022
-417.457	45.011	0.366	-0.338
-416.442	7.540	-0.333	-0.249
-415.428	196.213	-0.171	-0.260
-414.413	-200.000	-0.033	-0.397
-413.398	800.000	0.066	-0.267
-412.384	-141.055	-0.019	-0.002
-411.369	-38.672	-0.095	-0.050
-410.355	-200.000	-0.011	0.078
-409.340	-9.324	-0.218	0.146
-408.325	38.582	0.228	0.204
-407.311	197.467	0.143	-0.218
-406.296	-53.842	0.009	-0.004
-405.282	122.255	0.118	-0.148
-404.267	-200.000	0.022	-0.111
-403.252	165.412	-0.064	0.090
-402.238	-138.600	0.119	-0.013
-401.223	33.970	-0.177	-0.154
-400.209	255.306	-0.143	-0.245
-399.194	518.474	0.023	-0.055
-398.179	-141.244	0.233	-0.024
-397.165	38.449	-0.026	0.024
-396.150	-125.708	0.503	-0.076
-395.136	-45.962	0.069	0.034
-394.121	-67.141	-0.269	0.106
-393.106	38.513	0.142	-0.126
-392.092	406.562	-0.080	0.169
-391.077	90.679	0.113	-0.127
-390.063	-163.540	0.232	-0.011
-389.048	399.906	-0.050	0.105
-388.033	-200.000	0.032	-0.225
-387.019	-62.977	-0.123	-0.051
-386.004	-37.442	0.149	-0.080
-384.990	-200.000	0.049	0.266
-383.975	-111.272	0.197	-0.040
-382.960	-131.220	-0.118	-0.016
-381.946	-149.666	0.038	-0.003
-380.931	117.519	0.085	0.105
-379.917	800.000	0.026	-0.098
-378.902	-154.746	-0.232	0.015
-377.888	279.071	0.086	-0.153
-376.873	11.464	0.397	0.304
-375.858	-68.961	-0.220	0.085
-374.844	345.179	-0.112	0.219
-373.829	22.864	-0.177	-0.145
-372.815	-119.288	0.269	0.047
-371.800	-13.226	0.135	-0.088
-370.785	-80.199	-0.320	-0.107
-369.771	-46.386	0.172	0.084
-368.756	-186.638	-0.381	-0.005
-367.742	-134.940	0.034	-0.004
-366.727	-200.000	-0.026	0.215
-365.712	800.000	-0.056	-0.181
-364.698	-161.562	-0.097	0.005
-363.683	-74.497	0.182	-0.066
-362.669	479.936	0.116	0.263
-361.654	-200.000	-0.013	-0.075
-360.639	749.765	-0.047	0.128
-359.625	104.137	-0.059	-0.069
-358.610	-98.470	-0.155	0.040
-357.596	198.483	0.017	0.026
-356.581	209.430	0.104	0.163
-355.566	-200.000	0.015	0.427
-354.552	19.731	0.086	-0.069
-353.537	239.956	-0.189	0.315
-352.523	800.000	0.021	-0.068
-351.508	-25.879	-0.061	0.036
-350.493	800.000	-0.047	0.188
-349.479	-77.511	-0.200	-0.069
-348.464	-119.986	0.159	-0.027
-347.450	-200.000	-0.029	0.255
-346.435	-200.000	-0.047	-0.349
-345.420	15.862	0.193	-0.152
-344.406	334.071	-0.218	-0.422
-343.391	-184.261	0.316	0.005
-342.377	-23.914	0.337	0.202
-341.362	-200.000	-0.014	-0.132
-340.348	-159.244	-0.086	0.005
-339.333	66.595	0.307	-0.312
-338.318	-133.240	0.268	0.034
-337.304	-156.512	-0.155	-0.010
-336.289	-188.505	0.270	0.003
-335.275	16.723	0.161	-0.127
-334.260	223.913	0.222	0.358
-333.245	-64.704	0.310	-0.126
-332.231	-200.000	0.002	-0.214
-331.216	-200.000	0.019	-0.151
-330.202	-134.514	0.231	0.028
-329.187	300.087	0.099	0.182
-328.172	-193.941	-0.030	0.000
-327.158	800.000	0.044	0.151
-326.143	365.872	0.074	-0.150
-325.129	-64.394	0.145	0.059
-324.114	139.031	0.249	-0.327
-323.099	800.000	-0.037	-0.159
-322.085	-48.856	-0.075	0.036
-321.070	181.838	0.049	0.072
-320.056	800.000	0.162	-0.540
-319.041	-155.651	-0.206	0.013
-318.026	-200.000	0.016	0.434
-317.012	531.545	-0.129	-0.303
-315.997	-17.111	0.146	0.092
-314.983	719.144	0.061	0.161
-313.968	43.108	0.124	-0.113
-312.953	203.948	0.032	-0.050
-311.939	123.693	0.107	-0.134
-310.924	-200.000	-0.006	-0.054
-309.910	-53.737	-0.315	0.144
-308.895	131.395	-0.118	-0.151
-307.880	-138.751	0.122	0.013
-306.866	800.000	0.037	0.149
-305.851	800.000	-0.055	-0.152
-304.837	-55.260	0.181	-0.081
-303.822	-95.002	-0.045	0.012
-302.807	-146.907	-0.344	-0.030
-301.793	72.544	0.160	-0.166
-300.778	-97.323	-0.174	-0.045
-299.764	173.176	-0.039	0.056
-298.749	221.145	0.207	0.331
-297.735	-141.464	-0.209	-0.021
-296.720	-36.072	-0.269	-0.145
-295.705	-49.730	-0.055	-0.026
-294.691	-26.529	-0.182	0.106
-293.676	-200.000	0.020	-0.138
-292.662	-200.000	-0.034	-0.174
-291.647	-37.282	0.087	-0.046
-290.632	220.625	0.067	0.106
-289.618	90.242	0.081	0.090
-288.603	3.796	-0.169	0.123
-287.589	-200.000	-0.030	0.147
-286.574	37.219	-0.031	-0.027
-285.559	-200.000	-0.061	-0.358
-284.545	43.949	-0.127	-0.116
-283.530	-200.000	0.044	-0.376
-282.516	-62.647	0.002	-0.001
-281.501	-41.256	-0.083	0.043
-280.486	177.472	-0.249	0.362
-279.472	-99.409	0.340	-0.085
-278.457	-52.360	0.197	-0.091
-277.443	-171.570	-0.348	-0.011
-276.428	-200.000	0.069	-0.335
-275.413	-45.447	0.202	0.100
-274.399	-64.353	0.117	0.047
-273.384	29.232	0.113	0.096
-272.370	123.444	0.234	-0.292
-271.355	-102.755	-0.219	0.052
-270.340	201.784	-0.123	0.189
-269.326	-174.839	-0.134	-0.004
-268.311	566.419	-0.145	0.349
-267.297	-84.724	-0.340	0.107
-266.282	-71.497	0.184	-0.068
-265.267	-200.000	-0.007	0.086
-264.253	248.274	-0.251	0.423
-263.238	800.000	-0.028	0.100
-262.224	-79.049	-0.169	0.057
-261.209	-151.636	-0.298	-0.022
-260.195	-67.153	0.183	0.072
-259.180	-73.210	-0.092	0.033
-258.165	-117.411	0.379	-0.068
-257.151	494.375	-0.058	0.133
-256.136	664.699	-0.045	0.116
-255.122	-114.581	-0.095	0.018
-254.107	-200.000	0.001	0.050
-253.092	767.648	-0.088	-0.238
-252.078	-23.437	0.131	-0.078
-251.063	-145.530	-0.209	0.019
-250.049	-200.000	-0.039	-0.296
-249.034	192.570	0.201	0.302
-248.019	800.000	-0.025	0.079
-247.005	273.627	-0.164	0.289
-245.990	-13.474	0.133	-0.086
-244.976	513.117	-0.139	0.322
-243.961	185.195	-0.142	0.209
-242.946	579.891	0.069	0.167
-241.932	534.944	0.148	0.348
-240.917	-200.000	0.002	0.198
-239.903	150.632	0.157	0.213
-238.888	-200.000	0.062	-0.428
-237.873	259.181	0.089	-0.152
-236.859	57.546	0.188	0.183
-235.844	-200.000	-0.006	-0.310
-234.830	-59.670	0.520	-0.222
-233.815	-82.640	-0.251	-0.081
-232.800	13.300	-0.350	0.270
-231.786	-159.851	0.207	0.011
-230.771	51.903	0.008	-0.007
-229.757	-98.749	0.259	0.066
-228.742	790.949	0.056	0.153
-227.727	-12.200	-0.028	0.018
-226.713	270.926	0.091	0.160
-225.698	-200.000	0.008	0.452
-224.684	800.000	-0.094	-0.355
-223.669	-200.000	0.022	0.229
-222.655	-111.991	0.270	-0.054
-221.640	34.300	-0.245	0.213
-220.625	800.000	0.063	0.211
-219.611	275.503	-0.046	-0.081
-218.596	318.279	-0.149	-0.280
-217.582	42.765	0.115	0.104
-216.567	-126.517	0.222	0.033
-215.552	-138.989	0.161	0.017
-214.538	54.570	-0.193	-0.185
-213.523	496.344	0.014	-0.031
-212.509	-21.536	0.131	-0.079
-211.494	-77.685	0.191	0.066
-210.479	366.422	-0.176	0.353
-209.465	7.745	-0.232	0.173
-208.450	800.000	-0.078	-0.316
-207.436	-173.406	-0.148	-0.004
-206.421	-138.601	0.348	-0.038
-205.406	24.696	0.166	0.137
-204.392	800.000	-0.081	-0.313
-203.377	-136.245	-0.283	0.033
-202.363	-0.864	0.127	0.089
-201.348	-77.420	0.109	-0.038
-200.333	28.230	-0.338	0.284
-199.319	23.164	0.240	0.196
-198.304	-200.000	0.031	0.155
-197.290	38.701	0.242	-0.215
-196.275	-200.000	0.004	-0.284
-195.260	-200.000	0.039	0.273
-194.246	66.417	-0.170	-0.171
-193.231	-48.057	-0.342	0.164
-192.217	-200.000	-0.059	0.359
-191.202	13.564	0.119	-0.092
-190.187	-200.000	-0.034	0.200
-189.173	-77.472	0.096	0.033
-188.158	-67.269	0.189	-0.074
-187.144	62.894	0.148	0.148
-186.129	-200.000	0.026	-0.293
-185.114	410.735	-0.072	-0.151
-184.100	-35.654	-0.184	-0.099
-183.085	94.938	-0.195	0.220
-182.071	800.000	-0.105	-0.378
-181.056	332.719	0.059	-0.113
-180.042	272.364	-0.090	0.158
-179.027	-200.000	-0.067	0.310
-178.012	327.424	-0.080	0.152
-176.998	34.571	0.024	-0.021
-175.983	-200.000	-0.007	0.281
-174.969	-200.000	-0.012	0.191
-173.954	348.596	-0.104	0.204
-172.939	-97.947	-0.276	0.071
-171.925	-31.450	0.029	-0.016
-170.910	-115.229	-0.396	0.074
-169.896	108.022	-0.072	-0.085
-168.881	-200.000	0.050	-0.278
-167.866	-166.493	0.074	0.003
-166.852	103.925	-0.236	-0.275
-165.837	-3.436	0.214	0.147
-164.823	-92.020	0.150	-0.042
-163.808	101.451	0.096	-0.112
-162.793	-77.900	0.159	0.054
-161.779	-200.000	-0.020	-0.105
-160.764	-66.218	-0.258	-0.102
-159.750	-61.820	0.154	0.064
-158.735	641.478	-0.171	0.431
-157.720	800.000	0.047	0.184
-156.706	-185.299	0.175	0.003
-155.691	225.350	-0.072	0.115
-154.677	421.596	0.024	0.050
-153.662	-11.645	0.289	-0.188
-152.647	-147.056	-0.157	0.013
-151.633	-49.601	0.076	0.036
-150.618	-89.622	0.161	-0.047
-149.604	-21.078	-0.211	-0.128
-148.589	285.473	0.132	0.236
-147.574	766.008	0.083	0.225
-146.560	-107.411	-0.290	-0.063
-145.545	800.000	0.113	0.375
-144.531	-23.594	-0.189	0.113
-143.516	28.871	0.295	0.248
-142.502	-200.000	0.002	-0.026
-141.487	-71.273	-0.572	0.213
-140.472	542.408	0.033	0.078
-139.458	-200.000	-0.036	0.365
-138.443	270.781	-0.035	-0.061
-137.429	800.000	-0.047	0.193
-136.414	800.000	-0.057	-0.183
-135.399	-200.000	-0.021	0.375
-134.385	198.078	0.126	-0.190
-133.370	-200.000	0.013	-0.175
-132.356	463.261	-0.049	-0.108
-131.341	-17.213	0.277	0.173
-130.326	-90.038	-0.246	0.071
-129.312	71.395	0.113	0.117
-128.297	-92.361	0.256	-0.071
-127.283	62.929	-0.095	-0.094
-126.268	169.144	-0.119	0.169
-125.253	202.566	0.046	-0.071
-124.239	800.000	0.044	-0.174
-123.224	-69.997	0.027	-0.010
-122.210	-107.011	0.030	-0.007
-121.195	36.535	-0.099	0.087
