DTS Sentinel unit serial number:	SN413079Multiplexer serial number:	ORYXHardware model number:	OX4-SRSoftware version number:	ORYX F/W v4.00 Oryx Data Collector v3.7.2.0data status	okinstallation	princeton_trtdifferential loss correction	single-endedforward channel	channel 4reverse channel	N/Adate	2019/09/10time	20:27:10forward acquisition time	60.00reverse acquisition time	0.00gamma	496.2192k internal	0.2312k external	0.2312temperature offset calibration	0.9947default loss term (dB/km)	0.3790temperature slope calibration	1.0000multiplexer offset coefficient	1.0000multiplexer slope coefficient	1.0000fibre end	0.00T internal ref (°C)	32.06T ext. ref 1 (°C)	-0.30T ext. ref 2 (°C)	25.29length (m)	temperature (°C)	Stokes	anti-Stokes-747.200	800.000	0.077	0.293
-746.185	800.000	0.075	0.260
-745.171	-15.231	-0.191	0.124
-744.156	-74.210	-0.284	0.104
-743.142	-104.853	-0.195	0.045
-742.127	77.714	-0.259	0.280
-741.112	-104.392	-0.163	-0.038
-740.098	18.448	-0.208	-0.169
-739.083	-118.006	-0.234	-0.042
-738.069	-46.980	0.038	0.019
-737.054	-0.065	-0.137	0.099
-736.039	333.284	-0.045	-0.088
-735.025	-35.873	0.295	0.162
-734.010	-63.352	-0.211	-0.088
-732.996	-41.299	0.055	-0.029
-731.981	-200.000	-0.002	-0.281
-730.966	481.797	-0.219	-0.503
-729.952	-200.000	-0.001	0.380
-728.937	-200.000	0.040	-0.281
-727.923	391.230	-0.168	-0.353
-726.908	-165.293	-0.282	0.013
-725.894	-23.441	0.197	-0.120
-724.879	14.241	-0.259	-0.204
-723.864	-39.546	-0.391	-0.207
-722.850	-200.000	-0.050	-0.511
-721.835	112.503	-0.143	-0.175
-720.821	-162.376	-0.377	-0.019
-719.806	-130.998	-0.410	0.056
-718.791	-138.750	-0.121	-0.013
-717.777	19.558	0.289	0.235
-716.762	-95.339	-0.251	0.068
-715.748	-74.306	-0.270	-0.099
-714.733	-40.952	-0.213	0.112
-713.718	800.000	-0.033	0.116
-712.704	-148.291	-0.394	0.033
-711.689	-200.000	0.001	-0.075
-710.675	189.697	0.107	-0.162
-709.660	167.310	0.058	-0.084
-708.645	-200.000	-0.005	0.097
-707.631	127.007	0.166	0.213
-706.616	-48.548	0.118	0.057
-705.602	38.154	-0.178	-0.160
-704.587	-27.219	0.337	0.199
-703.572	-200.000	-0.012	0.095
-702.558	-102.915	-0.135	0.033
-701.543	-2.328	-0.315	0.224
-700.529	313.271	-0.039	-0.075
-699.514	-42.543	0.017	0.009
-698.499	-43.895	-0.087	0.044
-697.485	27.854	0.083	0.071
-696.470	32.810	-0.092	0.081
-695.456	-56.448	0.524	-0.236
-694.441	23.608	-0.110	-0.091
-693.426	-200.000	0.003	-0.392
-692.412	800.000	-0.021	-0.064
-691.397	120.672	-0.156	-0.196
-690.383	528.467	-0.192	-0.459
-689.368	-200.000	0.023	-0.148
-688.354	4.027	0.249	-0.185
-687.339	800.000	0.079	0.324
-686.324	799.176	0.079	0.220
-685.310	-5.886	0.216	0.150
-684.295	261.546	-0.136	-0.238
-683.281	-191.842	-0.132	0.001
-682.266	-183.875	0.210	-0.004
-681.251	-200.000	0.013	0.143
-680.237	-200.000	-0.004	0.140
-679.222	-136.668	-0.186	0.022
-678.208	89.722	-0.033	0.037
-677.193	-200.000	0.034	0.212
-676.178	-101.729	-0.135	0.033
-675.164	37.323	0.034	-0.031
-674.149	57.127	-0.182	-0.180
-673.135	-200.000	-0.001	-0.124
-672.120	96.230	0.176	0.203
-671.105	-42.507	-0.226	0.116
-670.091	217.407	0.063	-0.102
-669.076	800.000	-0.019	0.082
-668.062	336.102	-0.090	-0.177
-667.047	-200.000	0.023	0.158
-666.032	68.830	-0.084	-0.087
-665.018	-9.502	-0.112	-0.075
-664.003	132.502	0.076	-0.099
-662.989	-3.498	-0.127	-0.090
-661.974	-200.000	-0.017	-0.126
-660.959	124.192	-0.289	-0.368
-659.945	-200.000	0.088	-0.472
-658.930	-200.000	0.039	0.223
-657.916	-77.904	-0.475	0.166
-656.901	-18.994	-0.129	0.081
-655.886	8.477	0.417	0.317
-654.872	800.000	0.119	0.355
-653.857	-200.000	0.025	-0.300
-652.843	405.335	-0.072	0.153
-651.828	289.239	-0.136	-0.250
-650.814	361.191	-0.102	0.206
-649.799	-200.000	0.040	0.345
-648.784	800.000	-0.109	-0.342
-647.770	95.687	0.198	-0.229
-646.755	113.606	-0.189	0.232
-645.741	-200.000	-0.020	0.182
-644.726	-97.568	0.215	-0.056
-643.711	-55.948	0.190	-0.086
-642.697	-200.000	0.001	-0.295
-641.682	754.528	-0.041	-0.111
-640.668	430.372	-0.131	0.286
-639.653	76.840	-0.170	0.183
-638.638	69.959	-0.213	-0.223
-637.624	800.000	-0.032	0.116
-636.609	24.402	0.133	-0.111
-635.595	-200.000	0.066	0.339
-634.580	-200.000	-0.038	-0.297
-633.565	88.641	0.207	-0.232
-632.551	213.467	0.108	-0.172
-631.536	54.230	0.232	-0.225
-630.522	-57.014	0.119	-0.053
-629.507	-200.000	0.021	0.186
-628.492	-92.548	0.355	0.101
-627.478	-74.007	-0.043	-0.016
-626.463	86.878	-0.161	-0.180
-625.449	62.986	0.220	-0.223
-624.434	12.541	-0.169	-0.132
-623.419	-30.519	0.035	0.020
-622.405	-79.918	0.342	0.116
-621.390	-140.791	-0.367	-0.038
-620.376	569.007	0.238	0.585
-619.361	-179.975	-0.394	-0.008
-618.346	-36.485	0.168	0.091
-617.332	334.463	-0.153	-0.298
-616.317	-85.110	0.158	0.050
-615.303	-11.245	-0.177	0.118
-614.288	-136.591	0.042	0.005
-613.273	213.081	-0.233	-0.372
-612.259	-126.867	0.404	0.060
-611.244	-158.254	-0.232	-0.014
-610.230	77.830	-0.188	0.202
-609.215	-14.513	0.253	0.164
-608.201	167.683	-0.181	-0.260
-607.186	-145.347	0.377	0.034
-606.171	-95.673	-0.153	-0.041
-605.157	-125.420	-0.212	0.033
-604.142	-109.380	-0.118	0.025
-603.128	31.385	0.051	0.044
-602.113	800.000	0.093	-0.331
-601.098	178.138	-0.210	-0.309
-600.084	90.795	0.200	-0.226
-599.069	-16.545	0.262	-0.168
-598.055	-51.144	-0.058	0.028
-597.040	130.080	0.094	-0.121
-596.025	-51.117	-0.273	-0.129
-595.011	-25.336	0.209	-0.125
-593.996	342.600	-0.243	0.480
-592.982	-42.555	-0.327	-0.168
-591.967	42.479	-0.079	-0.072
-590.952	19.935	-0.270	-0.220
-589.938	-200.000	-0.033	0.475
-588.923	-66.315	0.140	-0.056
-587.909	-31.066	-0.285	0.162
-586.894	800.000	0.078	0.346
-585.879	33.870	-0.246	0.216
-584.865	3.276	-0.087	-0.064
-583.850	800.000	-0.046	-0.143
-582.836	-80.884	-0.061	-0.020
-581.821	378.214	-0.122	-0.251
-580.806	-200.000	0.006	0.037
-579.792	168.685	-0.174	-0.251
-578.777	-200.000	0.003	-0.138
-577.763	58.434	0.092	-0.091
-576.748	-200.000	-0.026	-0.210
-575.733	107.768	0.072	0.086
-574.719	68.494	0.211	-0.218
-573.704	53.415	-0.096	-0.093
-572.690	-15.866	-0.337	0.216
-571.675	-200.000	0.034	-0.155
-570.661	800.000	0.067	0.289
-569.646	85.518	0.210	0.233
-568.631	60.012	-0.279	-0.277
-567.617	3.019	-0.234	0.171
-566.602	-91.236	0.264	0.076
-565.588	-103.535	0.181	0.043
-564.573	-60.596	-0.049	-0.021
-563.558	-59.474	0.224	-0.097
-562.544	-147.679	0.386	-0.033
-561.529	139.260	0.077	-0.102
-560.515	800.000	-0.040	0.162
-559.500	106.886	0.060	0.071
-558.485	-200.000	0.060	-0.322
-557.471	240.215	0.067	-0.112
-556.456	-94.949	-0.261	0.071
-555.442	800.000	-0.086	0.268
-554.427	256.123	-0.043	-0.074
-553.412	271.845	-0.036	0.063
-552.398	-200.000	0.009	-0.316
-551.383	88.976	0.108	-0.121
-550.369	-200.000	-0.011	0.343
-549.354	-32.984	-0.166	0.093
-548.339	800.000	-0.157	0.487
-547.325	-71.241	-0.253	-0.095
-546.310	800.000	0.009	-0.034
-545.296	-176.169	0.167	0.004
-544.281	-12.718	0.147	0.097
-543.266	294.992	0.032	-0.058
-542.252	-200.000	-0.011	0.049
-541.237	40.612	0.078	-0.071
-540.223	-200.000	0.065	0.325
-539.208	-104.618	-0.149	0.035
-538.193	232.225	-0.122	-0.201
-537.179	623.427	0.100	-0.255
-536.164	209.691	0.046	-0.073
-535.150	800.000	0.070	0.226
-534.135	-200.000	-0.038	0.000
-533.121	800.000	-0.070	-0.235
-532.106	38.994	-0.159	-0.143
-531.091	189.194	0.097	0.146
-530.077	543.524	-0.046	0.110
-529.062	-81.886	0.165	-0.054
-528.048	25.818	0.083	-0.070
-527.033	128.378	0.037	0.048
-526.018	54.199	-0.079	-0.077
-525.004	-200.000	0.019	-0.082
-523.989	800.000	-0.055	0.182
-522.975	-143.825	-0.270	0.026
-521.960	98.533	0.148	0.171
-520.945	93.184	0.062	0.071
-519.931	151.452	0.063	0.087
-518.916	-200.000	-0.013	0.125
-517.902	221.009	0.002	-0.003
-516.887	-137.307	-0.280	0.032
-515.872	454.997	-0.108	0.240
-514.858	-200.000	-0.013	-0.117
-513.843	-113.909	0.047	-0.009
-512.829	318.834	-0.120	-0.229
-511.814	-153.701	-0.168	-0.012
-510.799	-200.000	0.001	0.353
-509.785	-43.056	-0.176	0.090
-508.770	95.606	-0.079	-0.090
-507.756	-70.493	0.327	-0.124
-506.741	-40.534	-0.182	-0.095
-505.726	2.218	0.385	0.280
-504.712	-24.257	-0.323	0.194
-503.697	-109.530	-0.343	0.073
-502.683	-13.154	-0.300	-0.196
-501.668	-128.951	-0.268	0.038
-500.653	27.607	-0.230	-0.194
-499.639	-169.480	-0.104	0.004
-498.624	6.229	-0.067	-0.050
-497.610	-153.388	0.104	-0.007
-496.595	-79.575	-0.215	0.073
-495.581	-51.434	-0.436	-0.205
-494.566	800.000	0.012	0.036
-493.551	-106.867	-0.007	0.002
-492.537	68.486	-0.127	0.131
-491.522	-120.596	-0.529	-0.090
-490.508	57.694	0.279	0.274
-489.493	-200.000	-0.034	-0.365
-488.478	-200.000	0.010	-0.255
-487.464	-83.262	0.083	-0.027
-486.449	-200.000	-0.017	0.117
-485.435	-153.277	-0.064	-0.004
-484.420	-66.130	-0.313	-0.125
-483.405	-3.549	0.112	0.078
-482.391	125.363	0.196	0.248
-481.376	-200.000	-0.003	-0.022
-480.362	20.136	-0.157	-0.127
-479.347	-29.577	0.015	0.009
-478.332	137.877	-0.163	-0.214
-477.318	-93.001	0.358	-0.100
-476.303	-65.307	0.201	0.081
-475.289	64.717	0.110	-0.112
-474.274	-200.000	0.050	-0.340
-473.259	-200.000	-0.016	0.077
-472.245	-36.869	-0.084	0.045
-471.230	60.563	-0.160	-0.159
-470.216	116.455	0.132	0.163
-469.201	800.000	0.070	0.199
-468.186	-200.000	-0.007	-0.282
-467.172	80.247	0.394	-0.425
-466.157	-100.747	-0.119	0.029
-465.143	-78.222	0.154	-0.053
-464.128	-58.129	0.216	0.095
-463.113	-40.667	0.245	-0.127
-462.099	-7.314	-0.180	-0.122
-461.084	-200.000	-0.026	0.163
-460.070	800.000	0.098	0.317
-459.055	206.636	-0.142	-0.222
-458.040	-200.000	-0.020	-0.169
-457.026	95.768	0.106	-0.121
-456.011	-96.286	0.041	0.011
-454.997	618.873	-0.054	0.137
-453.982	-200.000	-0.031	-0.222
-452.968	9.674	0.232	0.176
-451.953	-55.650	0.156	-0.070
-450.938	-94.850	0.248	-0.067
-449.924	38.804	0.152	0.136
-448.909	-153.119	0.238	-0.017
-447.895	-200.000	0.029	-0.333
-446.880	51.544	0.106	-0.101
-445.865	-137.356	-0.323	-0.037
-444.851	-200.000	-0.015	-0.087
-443.836	-187.513	-0.234	-0.003
-442.822	-141.451	-0.197	-0.020
-441.807	64.018	0.084	0.085
-440.792	298.313	-0.064	0.119
-439.778	4.742	0.268	-0.198
-438.763	194.088	-0.018	-0.027
-437.749	-200.000	-0.072	0.318
-436.734	-161.125	-0.486	0.025
-435.719	-200.000	0.015	0.218
-434.705	325.887	0.044	-0.084
-433.690	-77.837	0.375	0.130
-432.676	20.631	0.157	0.127
-431.661	33.738	-0.076	0.067
-430.646	-80.120	0.147	0.049
-429.632	64.637	0.099	-0.100
-428.617	109.521	-0.054	-0.065
-427.603	-0.107	0.324	0.231
-426.588	-200.000	0.010	0.084
-425.573	-200.000	0.013	0.281
-424.559	273.406	0.127	0.225
-423.544	231.317	-0.072	-0.119
-422.530	184.214	0.160	0.237
-421.515	-129.414	0.312	0.043
-420.500	-112.293	-0.208	0.042
-419.486	-17.408	-0.384	0.242
-418.471	247.921	0.137	0.232
-417.457	143.418	0.052	-0.069
-416.442	-46.763	-0.113	0.055
-415.428	163.197	0.101	0.143
-414.413	-200.000	-0.039	0.223
-413.398	214.711	-0.041	0.064
-412.384	3.315	-0.144	-0.105
-411.369	-69.040	-0.091	-0.035
-410.355	92.244	0.047	-0.053
-409.340	2.953	-0.060	0.044
-408.325	-82.312	0.180	0.059
-407.311	800.000	-0.072	-0.302
-406.296	-34.340	0.364	-0.200
-405.282	-22.520	-0.025	-0.015
-404.267	-164.618	-0.163	0.007
-403.252	-200.000	0.047	-0.214
-402.238	-64.909	0.331	-0.134
-401.223	291.695	0.012	-0.021
-400.209	177.700	-0.142	0.208
-399.194	104.697	-0.065	0.077
-398.179	-38.532	0.175	0.093
-397.165	358.661	0.104	0.208
-396.150	-4.687	0.117	0.081
-395.136	-93.247	-0.326	-0.091
-394.121	376.878	0.059	0.120
-393.106	800.000	-0.044	0.139
-392.092	87.132	-0.233	-0.258
-391.077	303.747	-0.218	-0.404
-390.063	-93.925	0.194	0.053
-389.048	-200.000	0.011	0.128
-388.033	-132.719	-0.256	0.033
-387.019	-157.961	-0.100	0.006
-386.004	254.990	0.114	-0.195
-384.990	-200.000	0.023	0.204
-383.975	48.511	-0.194	-0.182
-382.960	119.238	0.200	-0.247
-381.946	-19.058	0.072	0.045
-380.931	171.264	0.154	-0.221
-379.917	-106.912	-0.244	-0.054
-378.902	140.688	-0.125	0.165
-377.888	-33.155	0.292	0.162
-376.873	-104.367	0.309	0.072
-375.858	800.000	0.039	-0.133
-374.844	505.616	0.035	0.082
-373.829	135.447	-0.091	0.119
-372.815	-200.000	-0.036	-0.222
-371.800	-200.000	-0.022	0.117
-370.785	1.328	0.142	0.102
-369.771	-39.500	-0.183	-0.096
-368.756	8.307	0.084	0.063
-367.742	49.033	0.072	-0.067
-366.727	-200.000	-0.006	-0.197
-365.712	154.711	0.135	-0.186
-364.698	119.817	0.127	-0.158
-363.683	702.550	-0.228	-0.601
-362.669	-200.000	-0.048	-0.283
-361.654	339.261	-0.039	0.077
-360.639	-92.437	-0.121	0.034
-359.625	110.292	-0.195	0.235
-358.610	-200.000	-0.031	-0.238
-357.596	-126.999	-0.411	-0.060
-356.581	62.379	0.060	-0.060
-355.566	177.909	0.046	-0.067
-354.552	125.513	0.098	-0.124
-353.537	-183.190	0.183	0.003
-352.523	-35.876	-0.121	0.065
-351.508	467.352	0.105	0.234
-350.493	800.000	0.050	-0.171
-349.479	21.041	0.330	0.267
-348.464	67.185	-0.208	-0.212
-347.450	-200.000	0.007	0.132
-346.435	-77.281	0.162	-0.056
-345.420	142.849	0.076	0.100
-344.406	800.000	-0.047	0.199
-343.391	-200.000	0.015	-0.128
-342.377	3.544	-0.237	-0.173
-341.362	8.658	0.145	0.109
-340.348	45.496	0.027	0.025
-339.333	-77.348	0.158	-0.055
-338.318	800.000	-0.106	-0.423
-337.304	334.642	0.092	-0.179
-336.289	-53.184	-0.422	-0.194
-335.275	20.301	0.242	-0.196
-334.260	247.890	0.204	-0.345
-333.245	189.907	0.063	0.095
-332.231	183.925	0.126	-0.187
-331.216	-30.395	-0.118	-0.067
-330.202	202.030	0.160	0.247
-329.187	800.000	0.020	-0.061
-328.172	19.736	-0.122	0.098
-327.158	278.166	0.132	-0.234
-326.143	800.000	-0.117	-0.430
-325.129	97.892	-0.194	-0.223
-324.114	-200.000	-0.015	0.379
-323.099	-155.225	0.125	0.008
-322.085	-182.605	-0.373	0.007
-321.070	-111.062	0.057	0.012
-320.056	-67.298	0.318	-0.125
-319.041	-93.307	-0.320	-0.089
-318.026	48.449	0.347	0.324
-317.012	-59.580	-0.147	0.063
-315.997	800.000	0.096	0.354
-314.983	12.118	-0.192	-0.148
-313.968	-155.623	-0.168	0.011
-312.953	39.880	0.217	0.195
-311.939	439.617	-0.180	0.393
-310.924	-128.771	-0.399	-0.056
-309.910	-200.000	0.019	0.152
-308.895	-150.153	-0.317	-0.024
-307.880	31.420	0.161	0.138
-306.866	127.791	-0.151	0.192
-305.851	-196.003	-0.207	0.001
-304.837	-64.002	0.176	0.072
-303.822	205.784	-0.051	0.079
-302.807	-53.062	-0.561	-0.257
-301.793	48.890	0.118	0.111
-300.778	-5.705	0.127	0.087
-299.764	-82.301	0.226	0.073
-298.749	106.491	-0.040	-0.047
-297.735	569.311	0.160	-0.388
-296.720	147.339	-0.107	-0.144
-295.705	493.998	-0.055	-0.125
-294.691	-94.276	0.256	-0.070
-293.676	-105.654	-0.142	0.032
-292.662	-200.000	-0.000	0.303
-291.647	800.000	0.053	0.192
-290.632	211.378	-0.121	-0.189
-289.618	-200.000	0.034	-0.221
-288.603	291.135	-0.066	0.119
-287.589	15.995	0.174	0.136
-286.574	-68.246	-0.084	0.032
-285.559	-164.622	-0.177	0.008
-284.545	-60.813	0.237	-0.100
-283.530	-135.343	-0.158	0.019
-282.516	-80.699	-0.304	0.101
-281.501	-12.265	0.424	0.276
-280.486	-10.163	-0.206	-0.136
-279.472	-200.000	0.075	0.389
-278.457	198.929	-0.147	0.225
-277.443	-150.668	-0.271	0.021
-276.428	800.000	0.020	-0.078
-275.413	-44.070	0.383	0.192
-274.399	-165.734	0.258	0.011
-273.384	183.877	0.072	0.106
-272.370	-73.702	-0.034	-0.012
-271.355	-71.719	-0.139	-0.052
-270.340	-163.986	0.215	-0.010
-269.326	-200.000	0.008	0.425
-268.311	-56.383	0.098	0.043
-267.297	359.299	0.115	-0.229
-266.282	-55.297	-0.373	-0.167
-265.267	-200.000	0.007	-0.112
-264.253	124.689	0.242	0.304
-263.238	-89.717	-0.035	0.010
-262.224	84.461	-0.104	0.113
-261.209	800.000	0.019	-0.078
-260.195	-200.000	0.036	-0.236
-259.180	232.776	-0.139	-0.227
-258.165	73.797	0.048	0.050
-257.151	231.308	-0.135	-0.221
-256.136	234.196	0.164	-0.268
-255.122	287.741	0.095	0.170
-254.107	-121.083	-0.026	0.004
-253.092	-116.332	0.252	0.046
-252.078	-48.483	0.223	0.107
-251.063	114.558	0.161	-0.195
-250.049	-87.100	-0.366	0.111
-249.034	216.361	-0.107	-0.170
-248.019	-200.000	-0.039	0.192
-247.005	-152.843	0.089	-0.006
-245.990	-117.853	-0.237	0.042
-244.976	-154.394	0.105	-0.007
-243.961	-143.981	0.316	-0.030
-242.946	363.739	-0.167	-0.333
-241.932	-19.128	-0.272	-0.168
-240.917	800.000	-0.067	0.273
-239.903	-200.000	-0.054	0.252
-238.888	-171.978	0.102	-0.003
-237.873	-178.992	-0.226	-0.005
-236.859	-85.948	-0.115	-0.035
-235.844	624.181	0.054	-0.135
-234.830	88.962	0.177	0.196
-233.815	697.606	0.032	0.084
-232.800	800.000	-0.108	0.298
-231.786	-160.831	-0.164	-0.009
-230.771	59.193	0.114	0.112
-229.757	800.000	-0.039	-0.138
-228.742	-46.545	-0.117	0.057
-227.727	800.000	-0.017	-0.051
-226.713	-200.000	0.015	-0.198
-225.698	-42.263	-0.189	-0.096
-224.684	-161.878	0.164	0.008
-223.669	-200.000	-0.043	0.268
-222.655	-200.000	-0.005	0.023
-221.640	-126.338	-0.241	0.036
-220.625	88.067	-0.159	-0.175
-219.611	-60.951	0.368	-0.155
-218.596	-114.255	-0.229	0.044
-217.582	158.569	-0.040	-0.055
-216.567	-53.700	0.166	0.075
-215.552	250.857	-0.100	0.168
-214.538	52.841	0.206	0.196
-213.523	800.000	0.055	-0.232
-212.509	18.829	0.145	-0.115
-211.494	-200.000	-0.035	0.186
-210.479	-200.000	0.041	-0.297
-209.465	-112.735	0.416	0.082
-208.450	128.346	-0.170	-0.214
-207.436	168.020	0.167	0.236
-206.421	-54.312	0.078	-0.035
-205.406	-41.952	0.024	0.012
-204.392	226.916	0.134	0.216
-203.377	23.437	0.253	0.207
-202.363	471.371	-0.048	0.108
-201.348	-90.259	0.274	-0.079
-200.333	-116.408	-0.263	0.048
-199.319	-200.000	0.007	-0.256
-198.304	-122.371	0.373	-0.060
-197.290	316.780	-0.051	0.097
-196.275	800.000	0.117	0.364
-195.260	-64.827	0.175	0.071
-194.246	336.165	0.175	0.338
-193.231	458.657	0.060	0.132
-192.217	-60.357	-0.265	-0.112
-191.202	779.258	0.046	-0.125
-190.187	-115.847	0.210	-0.039
-189.173	85.459	-0.082	-0.089
-188.158	-57.045	-0.378	0.166
-187.144	-123.373	0.126	-0.020
-186.129	-97.612	0.181	-0.047
-185.114	227.876	-0.185	0.299
-184.100	-52.499	-0.122	-0.056
-183.085	-19.518	-0.094	0.058
-182.071	-200.000	-0.012	-0.319
-181.056	800.000	0.061	-0.264
-180.042	-43.466	0.264	0.132
-179.027	68.487	0.018	0.018
-178.012	57.943	-0.162	0.157
-176.998	65.164	0.101	0.102
-175.983	-200.000	0.018	0.122
-174.969	657.234	0.069	-0.176
-173.954	-85.339	0.041	0.013
-172.939	109.938	0.127	-0.151
-171.925	800.000	-0.044	-0.162
-170.910	-24.901	-0.113	-0.066
-169.896	34.646	0.062	0.053
-168.881	-123.962	0.140	-0.022
-167.866	109.786	0.086	-0.102
-166.852	109.078	0.121	0.143
-165.837	-155.821	0.039	0.002
-164.823	594.649	-0.162	0.399
-163.808	-200.000	-0.048	0.364
-162.793	202.875	0.042	0.065
-161.779	-200.000	-0.039	-0.221
-160.764	-14.373	-0.219	0.140
-159.750	-64.494	-0.182	-0.073
-158.735	-55.709	0.193	0.086
-157.720	147.621	0.208	0.278
-156.706	61.155	-0.229	0.226
-155.691	66.354	-0.098	0.098
-154.677	-194.168	0.205	-0.002
-153.662	68.328	0.176	0.179
-152.647	-112.862	0.217	-0.043
-151.633	-200.000	0.024	-0.183
-150.618	368.278	0.127	0.254
-149.604	98.378	0.308	0.352
-148.589	57.888	0.134	0.130
-147.574	-86.366	0.271	0.083
-146.560	-149.705	-0.297	-0.023
-145.545	-108.484	-0.106	-0.023
-144.531	45.437	-0.135	0.123
-143.516	-31.349	0.148	-0.082
-142.502	-77.648	-0.346	-0.119
-141.487	-0.295	-0.119	0.084
-140.472	-107.128	-0.048	-0.010
-139.458	3.443	0.085	-0.062
-138.443	457.443	0.161	0.354
-137.429	-71.786	-0.128	0.047
-136.414	-200.000	0.036	-0.306
-135.399	426.326	-0.093	0.198
-134.385	800.000	0.092	-0.336
-133.370	-84.360	0.298	0.094
-132.356	-22.005	-0.199	-0.120
-131.341	-35.616	-0.314	-0.169
-130.326	71.782	0.324	0.333
-129.312	-107.619	0.077	0.017
-128.297	371.520	0.168	0.339
-127.283	62.241	-0.074	-0.073
-126.268	-34.748	0.342	-0.185
-125.253	157.242	-0.071	0.097
-124.239	-172.735	-0.374	-0.012
-123.224	-29.072	0.181	-0.103
-122.210	20.121	0.076	-0.060
-121.195	9.605	0.045	0.033
-120.180	182.164	-0.120	0.175
