DTS Sentinel unit serial number:	SN413079Multiplexer serial number:	ORYXHardware model number:	OX4-SRSoftware version number:	ORYX F/W v4.00 Oryx Data Collector v3.7.2.0data status	okinstallation	princeton_trtdifferential loss correction	single-endedforward channel	channel 4reverse channel	N/Adate	2019/09/11time	23:27:11forward acquisition time	60.00reverse acquisition time	0.00gamma	496.2192k internal	0.2308k external	0.2308temperature offset calibration	1.0077default loss term (dB/km)	0.3790temperature slope calibration	1.0000multiplexer offset coefficient	1.0000multiplexer slope coefficient	1.0000fibre end	0.00T internal ref (°C)	34.27T ext. ref 1 (°C)	1.87T ext. ref 2 (°C)	28.42length (m)	temperature (°C)	Stokes	anti-Stokes-747.200	-133.293	-0.227	0.029
-746.185	-53.904	0.061	-0.028
-745.171	-180.398	0.255	0.005
-744.156	-41.046	-0.191	-0.100
-743.142	-124.107	0.483	0.077
-742.127	-200.000	-0.014	0.064
-741.112	-200.000	-0.006	0.113
-740.098	-117.852	0.295	0.054
-739.083	-45.500	0.206	-0.104
-738.069	-166.968	-0.514	0.021
-737.054	-33.296	0.331	0.186
-736.039	-194.359	-0.311	0.003
-735.025	21.254	-0.291	0.240
-734.010	92.031	-0.099	-0.113
-732.996	-200.000	-0.014	0.171
-731.981	22.450	-0.443	-0.368
-730.966	-56.344	-0.285	0.129
-729.952	37.887	0.063	0.057
-728.937	-200.000	-0.029	-0.239
-727.923	490.322	-0.126	0.293
-726.908	69.034	0.064	-0.067
-725.894	14.241	-0.087	0.069
-724.879	-92.842	-0.363	0.103
-723.864	135.262	0.059	0.078
-722.850	274.885	0.134	-0.240
-721.835	510.451	0.067	0.159
-720.821	-102.380	-0.222	0.054
-719.806	-200.000	0.014	-0.087
-718.791	151.134	0.204	0.282
-717.777	800.000	-0.129	-0.425
-716.762	-55.812	-0.242	-0.110
-715.748	8.731	0.079	-0.060
-714.733	-200.000	0.041	-0.348
-713.718	40.478	-0.030	-0.027
-712.704	-200.000	-0.014	0.103
-711.689	-66.514	0.261	0.105
-710.675	-52.771	-0.155	-0.072
-709.660	800.000	0.112	0.417
-708.645	-166.446	-0.252	0.011
-707.631	800.000	0.080	0.287
-706.616	-59.214	-0.164	-0.072
-705.602	180.332	-0.064	-0.096
-704.587	-200.000	0.057	0.465
-703.572	181.465	0.109	0.163
-702.558	-121.136	0.125	0.021
-701.543	-160.456	0.475	0.026
-700.529	-200.000	-0.023	0.163
-699.514	489.441	0.131	0.303
-698.499	-89.780	-0.090	0.027
-697.485	-200.000	0.039	0.371
-696.470	-200.000	0.009	-0.335
-695.456	267.409	-0.155	0.275
-694.441	-108.775	-0.129	0.028
-693.426	29.311	-0.165	0.142
-692.412	-165.556	0.032	-0.001
-691.397	205.893	0.123	0.194
-690.383	275.399	-0.081	-0.146
-689.368	-50.536	0.202	0.097
-688.354	800.000	0.052	-0.174
-687.339	-200.000	-0.037	-0.237
-686.324	33.730	-0.341	0.301
-685.310	-129.370	-0.190	0.027
-684.295	800.000	0.047	-0.141
-683.281	-77.421	0.039	-0.014
-682.266	-134.586	0.362	0.045
-681.251	-200.000	0.054	0.309
-680.237	-46.916	-0.072	0.035
-679.222	-200.000	-0.006	0.108
-678.208	-200.000	-0.002	-0.147
-677.193	-200.000	0.056	0.412
-676.178	464.078	-0.152	0.345
-675.164	-200.000	0.004	0.200
-674.149	71.113	-0.183	-0.192
-673.135	-21.871	-0.161	-0.099
-672.120	-74.246	-0.046	0.017
-671.105	-27.939	0.204	0.120
-670.091	-24.558	0.161	0.097
-669.076	-150.912	-0.100	-0.008
-668.062	-14.812	-0.319	0.207
-667.047	104.916	-0.086	-0.103
-666.032	434.174	-0.187	0.411
-665.018	106.363	-0.119	-0.142
-664.003	-200.000	0.011	0.077
-662.989	-69.176	-0.174	0.068
-661.974	-82.019	0.034	0.011
-660.959	544.340	0.043	0.103
-659.945	264.276	-0.044	-0.077
-658.930	800.000	-0.059	-0.240
-657.916	-85.983	0.281	0.088
-656.901	-141.591	0.206	-0.021
-655.886	241.127	-0.131	0.222
-654.872	-14.052	-0.193	0.126
-653.857	-17.940	0.405	-0.257
-652.843	-4.602	-0.120	0.084
-651.828	-200.000	-0.023	0.157
-650.814	102.224	-0.069	-0.082
-649.799	-67.996	-0.292	0.116
-648.784	-150.235	-0.152	0.012
-647.770	137.179	0.036	0.048
-646.755	-3.301	-0.184	-0.130
-645.741	-6.993	-0.142	0.097
-644.726	28.171	-0.193	-0.165
-643.711	57.997	-0.178	-0.176
-642.697	-27.764	-0.258	0.152
-641.682	734.745	-0.079	-0.214
-640.668	-200.000	0.011	0.297
-639.653	-56.504	-0.096	-0.043
-638.638	342.599	-0.159	-0.316
-637.624	72.965	-0.044	0.047
-636.609	111.685	0.059	0.071
-635.595	13.959	-0.154	-0.122
-634.580	283.992	0.160	0.291
-633.565	-200.000	-0.018	-0.201
-632.551	-11.930	-0.117	0.077
-631.536	-43.038	-0.136	-0.070
-630.522	800.000	0.096	0.401
-629.507	175.726	-0.067	-0.098
-628.492	-200.000	-0.004	-0.344
-627.478	-200.000	-0.003	0.188
-626.463	-104.921	-0.253	0.059
-625.449	-49.779	0.188	0.090
-624.434	-178.296	0.214	0.005
-623.419	57.618	0.176	0.174
-622.405	-29.497	-0.374	-0.216
-621.390	171.388	-0.098	-0.142
-620.376	390.151	-0.094	-0.197
-619.361	-82.494	-0.110	-0.036
-618.346	-112.969	0.176	-0.035
-617.332	766.810	0.111	0.304
-616.317	-200.000	0.015	-0.194
-615.303	241.872	-0.058	-0.098
-614.288	436.410	-0.041	-0.090
-613.273	-200.000	0.005	-0.193
-612.259	800.000	0.021	0.062
-611.244	-137.669	-0.257	0.029
-610.230	-200.000	0.010	0.093
-609.215	-200.000	-0.039	-0.240
-608.201	-169.859	0.103	0.004
-607.186	-17.732	-0.275	-0.174
-606.171	19.506	-0.190	0.154
-605.157	-6.171	-0.251	-0.173
-604.142	-200.000	-0.010	-0.383
-603.128	-15.849	-0.061	-0.040
-602.113	-200.000	-0.012	0.136
-601.098	-26.632	0.160	0.095
-600.084	-135.949	-0.344	-0.041
-599.069	-200.000	-0.028	-0.384
-598.055	35.344	-0.126	0.112
-597.040	14.701	0.049	-0.039
-596.025	800.000	-0.030	0.098
-595.011	-200.000	0.008	0.199
-593.996	359.508	-0.129	0.261
-592.982	-127.516	0.194	0.029
-591.967	-54.599	-0.165	-0.075
-590.952	381.681	-0.060	-0.125
-589.938	26.360	-0.052	-0.044
-588.923	114.018	-0.153	0.187
-587.909	129.677	0.153	0.198
-586.894	295.242	-0.026	0.049
-585.879	-180.322	0.399	-0.008
-584.865	-80.628	-0.133	-0.045
-583.850	800.000	-0.048	-0.175
-582.836	23.497	-0.123	-0.102
-581.821	108.989	0.109	0.131
-580.806	-200.000	-0.011	-0.316
-579.792	81.798	-0.140	0.153
-578.777	320.455	0.079	-0.152
-577.763	-81.443	-0.147	-0.049
-576.748	104.454	-0.179	0.213
-575.733	-200.000	0.005	0.049
-574.719	-200.000	0.033	0.224
-573.704	742.561	-0.088	0.239
-572.690	-180.522	0.104	-0.002
-571.675	800.000	0.003	-0.009
-570.661	800.000	-0.036	-0.126
-569.646	-66.771	0.090	0.036
-568.631	-132.054	-0.379	0.050
-567.617	202.411	-0.055	0.086
-566.602	482.745	-0.180	-0.412
-565.588	-99.561	0.195	0.050
-564.573	-128.935	-0.221	0.031
-563.558	-100.881	-0.327	-0.081
-562.544	-65.967	0.196	0.079
-561.529	609.329	0.047	-0.119
-560.515	800.000	-0.047	-0.167
-559.500	-3.205	-0.225	-0.158
-558.485	-40.815	-0.155	0.081
-557.471	800.000	0.059	-0.184
-556.456	-44.774	0.157	0.079
-555.442	447.541	-0.127	0.282
-554.427	143.926	0.097	0.131
-553.412	-64.000	0.028	-0.012
-552.398	-200.000	-0.368	0.001
-551.383	765.500	-0.041	0.113
-550.369	521.723	0.081	0.192
-549.354	268.459	-0.070	0.123
-548.339	-88.951	0.040	-0.012
-547.325	-200.000	-0.004	0.091
-546.310	-200.000	-0.027	-0.380
-545.296	800.000	0.061	0.204
-544.281	149.226	-0.045	0.061
-543.266	-66.376	0.147	0.059
-542.252	-200.000	-0.001	-0.087
-541.237	-89.796	-0.032	0.009
-540.223	10.693	0.216	-0.166
-539.208	23.267	-0.225	-0.187
-538.193	-200.000	-0.004	0.412
-537.179	665.113	0.067	0.175
-536.164	46.183	-0.069	0.064
-535.150	160.161	-0.140	0.197
-534.135	-200.000	-0.015	0.366
-533.121	800.000	0.040	0.122
-532.106	129.451	0.152	-0.196
-531.091	237.460	-0.029	-0.049
-530.077	800.000	-0.026	-0.078
-529.062	41.918	0.056	0.051
-528.048	191.743	0.106	0.160
-527.033	429.351	0.040	0.088
-526.018	-27.021	-0.179	-0.105
-525.004	26.000	-0.312	0.262
-523.989	-200.000	0.001	0.121
-522.975	9.336	0.131	-0.100
-521.960	-36.670	0.451	-0.244
-520.945	-135.339	-0.239	0.029
-519.931	-74.108	0.061	-0.022
-518.916	-61.782	0.259	0.109
-517.902	-59.477	-0.057	0.025
-516.887	628.743	-0.064	-0.163
-515.872	-7.439	0.241	-0.164
-514.858	111.762	-0.107	-0.130
-513.843	45.492	0.203	-0.189
-512.829	-200.000	0.014	-0.202
-511.814	-43.679	-0.379	-0.192
-510.799	223.391	0.132	0.215
-509.785	351.096	-0.081	0.161
-508.770	282.556	-0.065	0.118
-507.756	800.000	-0.076	0.273
-506.741	-100.545	-0.118	0.029
-505.726	800.000	-0.111	-0.384
-504.712	-38.995	0.042	-0.022
-503.697	5.999	0.102	0.076
-502.683	63.572	0.170	-0.171
-501.668	79.136	-0.324	0.349
-500.653	81.495	0.032	0.035
-499.639	-8.224	-0.089	0.060
-498.624	175.247	0.167	0.244
-497.610	460.660	0.106	-0.237
-496.595	800.000	0.038	-0.122
-495.581	512.453	0.087	-0.205
-494.566	-151.309	-0.286	-0.021
-493.551	-91.557	0.202	-0.058
-492.537	4.547	0.058	-0.043
-491.522	551.380	-0.067	-0.162
-490.508	195.027	-0.024	-0.037
-489.493	82.394	0.217	-0.237
-488.478	101.213	0.176	0.206
-487.464	-200.000	0.027	-0.331
-486.449	-200.000	-0.005	-0.281
-485.435	800.000	0.036	-0.154
-484.420	-200.000	-0.012	-0.292
-483.405	-200.000	-0.002	-0.128
-482.391	544.346	-0.086	-0.208
-481.376	-200.000	0.005	-0.366
-480.362	329.446	-0.075	0.145
-479.347	38.340	-0.333	0.298
-478.332	-170.156	-0.253	-0.009
-477.318	-115.042	0.297	0.057
-476.303	-200.000	0.012	0.073
-475.289	-200.000	-0.021	-0.220
-474.274	800.000	0.098	-0.351
-473.259	-200.000	0.010	-0.047
-472.245	-200.000	-0.035	0.360
-471.230	-40.436	0.099	0.052
-470.216	-124.022	0.296	0.047
-469.201	482.939	-0.088	-0.201
-468.186	800.000	-0.135	-0.552
-467.172	190.020	-0.072	-0.109
-466.157	232.716	0.104	-0.171
-465.143	3.644	-0.183	0.134
-464.128	-2.233	-0.203	0.143
-463.113	-162.464	0.261	-0.013
-462.099	800.000	-0.058	-0.168
-461.084	-200.000	0.019	-0.431
-460.070	-174.784	0.182	-0.005
-459.055	0.949	0.218	0.157
-458.040	6.551	0.063	-0.047
-457.026	-0.707	-0.233	0.166
-456.011	-136.189	-0.119	0.014
-454.997	-49.729	0.276	0.132
-453.982	-200.000	-0.020	0.166
-452.968	115.596	-0.210	0.258
-451.953	93.513	-0.223	0.254
-450.938	-11.802	0.010	0.006
-449.924	131.460	0.059	-0.076
-448.909	-200.000	-0.015	-0.100
-447.895	29.381	-0.105	-0.089
-446.880	-5.637	-0.199	-0.137
-445.865	800.000	-0.043	-0.144
-444.851	190.442	0.143	0.215
-443.836	-78.715	-0.033	0.011
-442.822	510.610	-0.071	-0.167
-441.807	-200.000	0.011	-0.417
-440.792	-200.000	-0.034	-0.166
-439.778	-10.256	0.034	-0.023
-438.763	-67.844	-0.240	-0.094
-437.749	-200.000	-0.021	-0.284
-436.734	-75.342	0.051	0.018
-435.719	-4.462	0.554	0.384
-434.705	118.422	-0.168	0.208
-433.690	84.785	0.101	-0.111
-432.676	-3.421	-0.207	-0.144
-431.661	-200.000	0.016	0.220
-430.646	-42.106	0.191	0.098
-429.632	-122.552	0.155	0.025
-428.617	-200.000	-0.024	0.436
-427.603	-200.000	-0.051	-0.232
-426.588	341.944	0.052	-0.102
-425.573	111.427	0.056	-0.067
-424.559	-61.687	0.103	0.043
-423.544	-133.129	0.086	-0.011
-422.530	34.526	-0.120	-0.105
-421.515	195.783	0.048	0.073
-420.500	-200.000	0.040	0.546
-419.486	-80.432	0.216	0.072
-418.471	10.741	-0.059	-0.045
-417.457	2.426	-0.058	-0.042
-416.442	-159.782	-0.181	0.010
-415.428	-52.895	0.384	-0.178
-414.413	429.434	-0.201	0.437
-413.398	-59.022	-0.146	-0.063
-412.384	678.094	-0.095	0.248
-411.369	-200.000	-0.248	0.000
-410.355	19.147	-0.354	-0.285
-409.340	-80.336	0.396	0.133
-408.325	443.301	0.122	0.269
-407.311	-122.597	-0.151	0.025
-406.296	53.026	0.252	-0.242
-405.282	-200.000	-0.233	-0.001
-404.267	66.389	-0.136	-0.139
-403.252	800.000	-0.037	-0.150
-402.238	-200.000	0.010	-0.170
-401.223	110.881	-0.151	0.182
-400.209	-10.102	-0.046	-0.031
-399.194	-146.935	0.320	0.028
-398.179	-200.000	-0.067	0.299
-397.165	100.728	-0.229	0.267
-396.150	17.015	-0.215	-0.170
-395.136	356.967	0.080	-0.160
-394.121	23.288	0.176	-0.145
-393.106	-91.155	0.339	0.098
-392.092	725.589	0.047	-0.127
-391.077	-50.426	-0.331	-0.157
-390.063	-200.000	-0.039	0.267
-389.048	-200.000	0.050	-0.312
-388.033	-200.000	-0.005	-0.037
-387.019	218.294	0.060	-0.095
-386.004	74.343	-0.147	-0.155
-384.990	255.286	-0.026	0.045
-383.975	800.000	-0.112	-0.359
-382.960	-200.000	-0.035	0.181
-381.946	-200.000	-0.029	0.129
-380.931	-71.819	-0.208	0.078
-379.917	257.308	-0.066	-0.114
-378.902	-200.000	0.005	0.337
-377.888	-123.990	0.167	-0.026
-376.873	-36.369	-0.312	-0.168
-375.858	134.457	0.158	0.205
-374.844	555.703	0.085	-0.206
-373.829	321.132	-0.086	-0.164
-372.815	-91.768	0.342	0.097
-371.800	94.078	0.198	0.224
-370.785	-165.545	-0.176	-0.008
-369.771	-46.200	0.265	-0.131
-368.756	-27.117	-0.119	-0.069
-367.742	378.091	0.101	0.207
-366.727	404.549	0.123	-0.260
-365.712	-111.318	-0.112	0.023
-364.698	-0.166	0.112	0.080
-363.683	-200.000	0.077	0.471
-362.669	47.946	-0.136	-0.127
-361.654	61.064	0.150	-0.149
-360.639	17.239	0.263	0.209
-359.625	349.854	-0.032	-0.063
-358.610	-155.175	-0.122	-0.008
-357.596	61.977	-0.118	0.118
-356.581	14.445	0.158	0.123
-355.566	800.000	0.019	0.055
-354.552	-97.359	0.040	-0.010
-353.537	-100.457	0.124	-0.031
-352.523	260.367	0.189	0.327
-351.508	107.227	-0.123	-0.146
-350.493	7.486	0.098	0.073
-349.479	215.121	0.058	-0.092
-348.464	-200.000	-0.059	-0.273
-347.450	-183.880	-0.479	-0.008
-346.435	211.770	0.071	0.113
-345.420	-171.313	0.064	0.002
-344.406	-27.429	0.163	0.095
-343.391	-38.090	-0.133	0.071
-342.377	-200.000	0.021	-0.363
-341.362	-200.000	-0.007	-0.148
-340.348	-68.430	-0.099	0.039
-339.333	283.495	-0.234	-0.420
-338.318	-93.401	-0.238	-0.066
-337.304	-83.637	0.275	0.088
-336.289	6.058	-0.329	-0.244
-335.275	-200.000	0.002	-0.107
-334.260	800.000	0.052	0.209
-333.245	-97.920	-0.435	-0.112
-332.231	3.777	0.293	0.214
-331.216	-200.000	-0.006	-0.183
-330.202	100.686	0.182	-0.212
-329.187	99.810	0.172	0.199
-328.172	-64.163	-0.148	-0.060
-327.158	201.861	0.230	-0.354
-326.143	92.354	-0.100	0.113
-325.129	-97.869	0.066	0.017
-324.114	33.782	-0.209	0.182
-323.099	-80.782	0.115	-0.038
-322.085	800.000	0.016	-0.058
-321.070	-85.661	0.389	-0.121
-320.056	-200.000	-0.019	-0.166
-319.041	718.040	0.128	0.340
-318.026	-200.000	0.013	-0.178
-317.012	-200.000	-0.010	0.421
-315.997	69.999	-0.086	0.088
-314.983	7.298	0.200	-0.149
-313.968	31.239	-0.098	-0.084
-312.953	-49.884	-0.110	-0.052
-311.939	-43.521	0.126	0.064
-310.924	681.119	0.088	0.230
-309.910	119.621	0.132	0.164
-308.895	55.008	-0.152	0.146
-307.880	-43.347	0.151	0.076
-306.866	680.436	-0.074	-0.192
-305.851	276.310	0.138	-0.244
-304.837	3.215	-0.125	-0.091
-303.822	-48.864	-0.034	-0.016
-302.807	666.230	-0.122	-0.314
-301.793	34.489	0.416	0.363
-300.778	-36.513	0.191	0.103
-299.764	165.167	0.093	-0.131
-298.749	800.000	-0.012	-0.046
-297.735	23.696	0.047	0.039
-296.720	-200.000	0.066	-0.308
-295.705	-200.000	0.028	0.147
-294.691	83.875	0.126	0.138
-293.676	-127.870	-0.107	-0.015
-292.662	161.116	0.103	0.143
-291.647	-89.868	-0.119	-0.035
-290.632	339.246	0.125	-0.243
-289.618	513.153	-0.128	-0.299
-288.603	-98.195	0.277	0.071
-287.589	245.603	0.091	0.152
-286.574	-9.602	-0.052	0.035
-285.559	187.972	-0.066	-0.098
-284.545	-144.521	-0.221	-0.020
-283.530	800.000	-0.040	0.120
-282.516	48.655	0.152	-0.143
-281.501	-1.481	0.346	0.244
-280.486	97.419	-0.177	-0.203
-279.472	40.991	-0.125	-0.112
-278.457	20.768	0.104	-0.084
-277.443	482.791	-0.119	-0.270
-276.428	-40.602	-0.181	-0.094
-275.413	-200.000	-0.064	-0.348
-274.399	-141.598	0.190	-0.019
-273.384	234.508	0.088	-0.144
-272.370	-87.363	0.262	0.079
-271.355	17.475	-0.120	-0.095
-270.340	318.137	0.099	0.186
-269.326	-3.970	-0.067	-0.046
-268.311	338.372	0.193	0.375
-267.297	225.906	-0.146	0.235
-266.282	-73.539	-0.285	-0.104
-265.267	-200.000	-0.004	-0.033
-264.253	800.000	-0.048	-0.166
-263.238	437.811	-0.063	0.136
-262.224	247.294	-0.131	0.220
-261.209	-73.508	0.564	-0.205
-260.195	-156.556	-0.193	-0.012
-259.180	-200.000	-0.023	-0.320
-258.165	-200.000	0.026	-0.245
-257.151	81.145	0.046	-0.050
-256.136	-57.659	0.230	0.100
-255.122	-78.292	-0.373	0.128
-254.107	800.000	-0.068	0.246
-253.092	17.993	0.276	-0.219
-252.078	-200.000	0.024	-0.288
-251.063	-200.000	-0.081	0.473
-250.049	-123.519	-0.080	-0.013
-249.034	-200.000	-0.012	0.207
-248.019	-200.000	-0.006	-0.111
-247.005	-164.659	0.132	0.006
-245.990	-200.000	0.034	0.276
-244.976	-134.098	-0.165	-0.020
-243.961	55.021	-0.054	-0.052
-242.946	-31.803	-0.117	-0.065
-241.932	-118.183	-0.515	0.092
-240.917	295.903	0.289	0.528
-239.903	71.388	0.082	-0.084
-238.888	87.520	-0.266	-0.293
-237.873	31.680	-0.116	-0.099
-236.859	70.883	0.247	-0.255
-235.844	436.342	0.062	0.135
-234.830	84.512	0.107	-0.117
-233.815	-105.616	0.139	0.031
-232.800	-110.964	0.114	-0.023
-231.786	-181.576	0.327	-0.006
-230.771	-200.000	-0.066	0.304
-229.757	-150.853	-0.119	-0.009
-228.742	-34.446	-0.383	0.209
-227.727	-200.000	-0.019	0.516
-226.713	70.863	0.276	0.285
-225.698	-88.114	-0.217	0.065
-224.684	-200.000	0.016	-0.082
-223.669	-25.612	0.379	-0.223
-222.655	-31.930	0.204	-0.114
-221.640	-115.178	0.065	0.012
-220.625	-130.703	-0.341	0.046
-219.611	104.066	0.073	0.085
-218.596	-130.357	-0.039	-0.005
-217.582	290.340	0.057	-0.103
-216.567	-200.000	-0.004	-0.231
-215.552	-23.045	-0.226	0.136
-214.538	-37.513	0.198	-0.105
-213.523	-160.051	0.171	-0.009
-212.509	71.987	-0.082	-0.085
-211.494	-108.793	-0.132	-0.028
-210.479	69.779	0.108	-0.111
-209.465	71.120	0.423	0.436
-208.450	-115.069	0.278	-0.052
-207.436	73.802	0.085	-0.089
-206.421	183.711	0.201	-0.295
-205.406	-129.403	0.180	0.025
-204.392	800.000	-0.071	0.308
-203.377	41.810	0.297	0.268
-202.363	-161.061	-0.273	-0.014
-201.348	-81.429	0.230	0.075
-200.333	-200.000	-0.021	0.290
-199.319	431.179	0.184	0.396
-198.304	141.348	-0.119	-0.156
-197.290	-200.000	-0.015	0.149
-196.275	-142.046	0.112	-0.011
-195.260	132.751	-0.113	0.144
-194.246	74.105	0.210	0.219
-193.231	800.000	0.108	0.396
-192.217	-119.432	0.184	-0.032
-191.202	-91.257	0.238	0.068
-190.187	-79.601	-0.072	-0.024
-189.173	-60.713	0.300	0.126
-188.158	21.232	0.158	-0.127
-187.144	40.266	0.197	0.176
-186.129	260.059	-0.089	0.154
-185.114	-71.130	0.307	-0.115
-184.100	174.927	-0.180	0.259
-183.085	800.000	-0.019	0.079
-182.071	698.081	0.096	-0.252
-181.056	170.608	0.120	0.171
-180.042	-46.068	0.091	0.044
-179.027	-103.333	-0.361	0.085
-178.012	129.210	-0.065	0.082
-176.998	400.148	-0.178	-0.372
-175.983	-64.895	-0.252	0.101
-174.969	121.369	0.147	-0.182
-173.954	140.950	-0.158	-0.207
-172.939	-200.000	-0.014	-0.213
-171.925	51.916	0.135	-0.128
-170.910	170.364	-0.126	0.179
-169.896	-200.000	-0.040	-0.257
-168.881	249.986	0.091	0.154
-167.866	-69.629	-0.251	-0.096
-166.852	-138.032	0.285	-0.032
-165.837	-200.000	0.033	0.321
-164.823	123.986	-0.091	0.114
-163.808	-21.825	0.317	-0.191
-162.793	-68.060	-0.096	-0.037
-161.779	-200.000	-0.000	0.239
-160.764	800.000	0.078	0.234
-159.750	-165.828	0.121	-0.005
-158.735	151.144	-0.154	0.209
-157.720	-200.000	0.026	-0.158
-156.706	-78.215	0.163	0.056
-155.691	-165.111	0.326	-0.014
-154.677	-200.000	0.005	-0.024
-153.662	-200.000	0.043	0.487
-152.647	-200.000	0.008	0.164
-151.633	-121.232	0.033	-0.005
-150.618	-200.000	-0.034	-0.210
-149.604	761.637	0.060	0.160
-148.589	322.335	0.236	0.447
-147.574	-120.209	-0.353	0.060
-146.560	476.835	-0.146	-0.327
-145.545	-200.000	0.022	-0.171
-144.531	-45.834	0.156	-0.077
-143.516	-155.806	0.119	-0.008
-142.502	-76.969	0.263	-0.091
-141.487	251.102	-0.120	-0.203
-140.472	-149.454	-0.163	0.013
-139.458	800.000	-0.063	-0.207
-138.443	159.566	-0.171	0.236
-137.429	800.000	0.024	0.100
-136.414	-200.000	0.028	-0.183
-135.399	-65.216	0.125	0.050
-134.385	61.538	-0.113	0.112
-133.370	-55.256	-0.190	-0.085
-132.356	148.491	-0.220	-0.295
-131.341	280.552	-0.171	-0.304
-130.326	-143.874	0.305	0.029
-129.312	-200.000	-0.008	-0.161
-128.297	-200.000	-0.046	0.260
-127.283	165.779	0.143	-0.201
-126.268	107.025	-0.063	0.075
-125.253	-162.008	-0.261	0.013
-124.239	800.000	-0.052	0.144
-123.224	800.000	-0.071	0.238
-122.210	371.076	-0.092	-0.185
