DTS Sentinel unit serial number:	SN413079Multiplexer serial number:	ORYXHardware model number:	OX4-SRSoftware version number:	ORYX F/W v4.00 Oryx Data Collector v3.7.2.0data status	okinstallation	princeton_trtdifferential loss correction	single-endedforward channel	channel 4reverse channel	N/Adate	2019/09/11time	07:03:11forward acquisition time	60.00reverse acquisition time	0.00gamma	496.2192k internal	0.2312k external	0.2312temperature offset calibration	0.9941default loss term (dB/km)	0.3790temperature slope calibration	1.0000multiplexer offset coefficient	1.0000multiplexer slope coefficient	1.0000fibre end	0.00T internal ref (°C)	30.19T ext. ref 1 (°C)	-0.11T ext. ref 2 (°C)	26.02length (m)	temperature (°C)	Stokes	anti-Stokes-747.200	800.000	-0.071	0.248
-746.185	-6.871	0.063	-0.043
-745.171	-28.741	0.252	0.147
-744.156	89.820	-0.027	0.030
-743.142	-200.000	0.041	-0.411
-742.127	-23.700	-0.026	0.016
-741.112	-7.596	0.355	0.244
-740.098	147.423	-0.088	0.120
-739.083	-200.000	-0.044	-0.281
-738.069	800.000	0.061	0.269
-737.054	23.138	-0.198	0.165
-736.039	-18.375	-0.195	0.124
-735.025	-106.048	0.296	0.068
-734.010	207.832	0.262	-0.415
-732.996	-74.887	0.320	0.116
-731.981	-40.959	0.171	-0.090
-730.966	-60.614	-0.124	0.053
-729.952	100.149	-0.301	0.354
-728.937	800.000	0.031	0.129
-727.923	2.396	0.183	-0.134
-726.908	49.103	0.025	-0.024
-725.894	-180.490	-0.295	0.006
-724.879	-191.407	-0.291	-0.003
-723.864	272.293	0.048	-0.086
-722.850	106.820	-0.099	0.119
-721.835	288.370	-0.155	0.284
-720.821	-97.811	-0.224	0.059
-719.806	2.145	-0.083	-0.061
-718.791	42.907	-0.246	-0.227
-717.777	-25.859	-0.209	0.125
-716.762	-153.346	-0.275	-0.019
-715.748	-131.363	-0.080	-0.011
-714.733	-1.856	0.048	-0.034
-713.718	800.000	-0.046	-0.139
-712.704	-67.493	-0.215	0.086
-711.689	132.950	0.224	-0.294
-710.675	-50.799	-0.119	-0.057
-709.660	-38.384	0.300	-0.161
-708.645	-200.000	-0.015	-0.097
-707.631	10.223	0.209	-0.161
-706.616	197.220	-0.257	-0.398
-705.602	-200.000	-0.042	0.347
-704.587	76.260	0.111	0.119
-703.572	-136.065	-0.246	-0.029
-702.558	62.866	0.215	-0.218
-701.543	-200.000	-0.010	-0.467
-700.529	91.759	0.351	-0.400
-699.514	99.296	0.201	-0.235
-698.499	-186.734	-0.158	-0.002
-697.485	194.821	0.154	-0.237
-696.470	-200.000	0.055	0.298
-695.456	-152.571	-0.131	-0.010
-694.441	21.016	-0.061	0.050
-693.426	-84.415	-0.084	0.027
-692.412	164.828	-0.183	-0.262
-691.397	-200.000	0.038	0.230
-690.383	83.230	0.046	-0.051
-689.368	-159.727	-0.332	-0.019
-688.354	-65.385	0.337	0.137
-687.339	388.690	-0.094	-0.198
-686.324	91.040	-0.194	0.221
-685.310	-88.408	0.369	0.112
-684.295	-86.001	-0.170	0.053
-683.281	-169.163	-0.364	-0.014
-682.266	-200.000	0.048	-0.309
-681.251	-29.748	-0.280	-0.161
-680.237	800.000	-0.150	-0.424
-679.222	680.373	0.050	-0.133
-678.208	-108.368	-0.177	0.039
-677.193	800.000	0.029	-0.127
-676.178	-85.083	-0.209	-0.066
-675.164	800.000	0.096	-0.326
-674.149	-200.000	-0.053	0.412
-673.135	-200.000	-0.040	0.396
-672.120	695.543	-0.120	-0.318
-671.105	-200.000	0.036	-0.451
-670.091	-30.915	-0.181	-0.103
-669.076	189.057	0.138	-0.208
-668.062	-116.494	-0.466	0.087
-667.047	385.871	0.106	0.221
-666.032	97.928	-0.129	-0.150
-665.018	252.569	0.079	-0.136
-664.003	559.118	0.129	0.314
-662.989	-200.000	0.043	-0.343
-661.974	-109.510	-0.238	0.051
-660.959	304.509	-0.086	0.161
-659.945	32.471	0.275	-0.240
-658.930	57.497	0.085	-0.084
-657.916	191.805	0.076	-0.116
-656.901	-108.014	-0.249	0.055
-655.886	-45.835	-0.202	-0.101
-654.872	800.000	0.055	-0.208
-653.857	97.449	-0.225	-0.262
-652.843	-200.000	-0.002	-0.115
-651.828	-113.670	-0.392	0.077
-650.814	-87.045	0.129	0.040
-649.799	-200.000	-0.017	-0.304
-648.784	-3.340	0.202	-0.142
-647.770	-200.000	0.012	-0.200
-646.755	31.166	0.190	0.165
-645.741	800.000	0.072	-0.282
-644.726	-113.229	0.202	-0.040
-643.711	800.000	0.048	0.146
-642.697	219.577	-0.147	0.238
-641.682	-9.259	0.186	0.126
-640.668	-200.000	0.025	0.221
-639.653	149.682	0.072	-0.099
-638.638	-200.000	-0.037	-0.184
-637.624	-92.813	-0.039	0.011
-636.609	-140.667	0.204	0.021
-635.595	-200.000	0.008	0.049
-634.580	-200.000	-0.013	0.210
-633.565	76.006	0.144	-0.154
-632.551	800.000	0.056	-0.207
-631.536	-46.068	-0.054	-0.027
-630.522	-188.036	-0.363	0.005
-629.507	-194.123	0.396	-0.003
-628.492	-144.808	-0.024	0.002
-627.478	800.000	0.085	-0.241
-626.463	-65.488	0.279	0.113
-625.449	-66.009	0.166	-0.067
-624.434	-144.221	-0.072	0.007
-623.419	800.000	-0.142	0.530
-622.405	-16.335	-0.193	0.124
-621.390	82.542	-0.267	0.293
-620.376	-54.031	0.154	-0.071
-619.361	-96.520	0.072	0.019
-618.346	-200.000	-0.032	-0.271
-617.332	800.000	-0.035	0.137
-616.317	30.127	-0.169	0.146
-615.303	501.676	0.114	-0.267
-614.288	-13.632	0.143	0.094
-613.273	295.381	0.061	-0.112
-612.259	733.730	0.073	-0.196
-611.244	88.816	0.153	0.171
-610.230	-77.233	-0.210	-0.074
-609.215	-200.000	-0.055	-0.245
-608.201	398.655	-0.047	-0.100
-607.186	-89.973	0.317	0.093
-606.171	-200.000	-0.007	-0.061
-605.157	46.821	-0.088	-0.082
-604.142	-53.771	0.262	0.121
-603.128	-190.292	-0.252	0.003
-602.113	49.909	0.242	-0.231
-601.098	800.000	0.028	-0.114
-600.084	59.220	0.042	-0.042
-599.069	800.000	0.072	-0.220
-598.055	800.000	-0.096	0.329
-597.040	230.414	-0.126	0.208
-596.025	-21.924	0.131	-0.080
-595.011	-67.047	-0.300	0.119
-593.996	-200.000	-0.050	0.359
-592.982	153.334	0.170	-0.235
-591.967	-113.049	0.238	-0.047
-590.952	-140.464	-0.233	0.024
-589.938	-73.739	-0.215	-0.079
-588.923	280.709	-0.113	-0.204
-587.909	-13.077	-0.156	0.102
-586.894	-92.200	-0.202	-0.057
-585.879	-29.724	0.289	-0.166
-584.865	56.674	-0.086	-0.085
-583.850	-162.056	-0.439	-0.022
-582.836	-29.572	-0.088	-0.051
-581.821	-95.404	0.372	-0.101
-580.806	800.000	0.125	-0.498
-579.792	-186.903	0.076	-0.001
-578.777	-8.575	-0.240	-0.162
-577.763	-200.000	-0.021	0.126
-576.748	-102.010	-0.230	-0.056
-575.733	771.739	0.060	-0.166
-574.719	74.552	0.111	-0.118
-573.704	-80.257	-0.275	-0.093
-572.690	-35.159	0.283	-0.155
-571.675	4.995	0.173	-0.129
-570.661	800.000	-0.079	-0.279
-569.646	-52.255	0.241	-0.112
-568.631	-52.482	0.187	-0.087
-567.617	-200.000	-0.029	-0.362
-566.602	-40.584	-0.198	0.103
-565.588	306.715	0.058	0.108
-564.573	-116.414	-0.079	0.015
-563.558	-53.017	-0.090	0.042
-562.544	-154.044	-0.280	-0.019
-561.529	37.404	-0.082	-0.073
-560.515	-140.968	-0.199	0.021
-559.500	-131.851	-0.109	0.014
-558.485	114.448	-0.189	0.232
-557.471	-200.000	-0.075	-0.363
-556.456	-179.058	0.270	-0.006
-555.442	-200.000	0.011	0.053
-554.427	-200.000	-0.067	-0.332
-553.412	-2.283	0.148	-0.105
-552.398	215.348	0.052	-0.083
-551.383	89.896	-0.152	0.171
-550.369	9.620	-0.237	0.181
-549.354	134.053	-0.114	0.149
-548.339	-95.547	-0.213	-0.058
-547.325	53.553	0.241	0.233
-546.310	664.636	-0.060	-0.155
-545.296	-29.348	-0.147	-0.085
-544.281	-76.297	0.324	-0.115
-543.266	-7.756	-0.079	-0.054
-542.252	11.661	0.133	0.103
-541.237	-45.378	-0.158	0.079
-540.223	71.959	-0.081	0.085
-539.208	-200.000	0.007	0.238
-538.193	106.094	-0.135	-0.160
-537.179	77.994	-0.146	-0.156
-536.164	25.841	-0.373	0.313
-535.150	38.253	-0.203	0.182
-534.135	28.846	-0.235	0.200
-533.121	236.564	-0.029	0.048
-532.106	-42.943	-0.259	0.132
-531.091	-200.000	0.007	0.036
-530.077	-200.000	-0.022	-0.143
-529.062	113.458	-0.231	0.282
-528.048	19.471	0.166	0.134
-527.033	-125.358	0.130	-0.020
-526.018	406.763	0.066	-0.141
-525.004	-153.427	0.193	-0.014
-523.989	186.397	-0.052	0.079
-522.975	43.151	0.393	-0.361
-521.960	-147.853	0.150	0.013
-520.945	-63.417	0.201	0.083
-519.931	-73.797	0.173	-0.063
-518.916	-71.095	0.252	-0.095
-517.902	-200.000	-0.042	-0.356
-516.887	322.593	0.084	-0.162
-515.872	-71.502	0.177	0.067
-514.858	800.000	-0.054	0.195
-513.843	467.018	-0.081	0.183
-512.829	800.000	0.089	-0.249
-511.814	4.882	0.113	-0.083
-510.799	-86.724	-0.407	0.125
-509.785	24.728	-0.123	-0.102
-508.770	800.000	0.042	-0.128
-507.756	-144.570	-0.147	0.014
-506.741	21.910	-0.104	-0.085
-505.726	800.000	-0.033	-0.117
-504.712	-200.000	0.032	-0.189
-503.697	46.738	0.051	-0.048
-502.683	40.829	0.212	0.192
-501.668	-42.025	-0.220	-0.113
-500.653	800.000	-0.050	-0.175
-499.639	371.988	0.118	0.241
-498.624	-200.000	-0.008	0.110
-497.610	51.933	-0.320	0.307
-496.595	-79.966	0.065	0.022
-495.581	89.928	-0.133	0.149
-494.566	702.233	0.035	-0.092
-493.551	152.416	-0.120	-0.165
-492.537	61.393	-0.120	-0.120
-491.522	-108.876	0.090	-0.019
-490.508	-31.715	-0.556	0.314
-489.493	-158.736	0.039	-0.002
-488.478	628.603	-0.196	-0.497
-487.464	92.459	-0.308	0.349
-486.449	141.824	-0.193	0.257
-485.435	800.000	-0.044	-0.167
-484.420	-30.246	-0.349	0.199
-483.405	60.492	0.091	0.090
-482.391	-120.936	-0.217	-0.037
-481.376	-190.033	-0.068	-0.001
-480.362	-200.000	0.010	-0.127
-479.347	379.603	-0.071	-0.145
-478.332	800.000	0.076	-0.290
-477.318	-104.707	-0.196	-0.045
-476.303	-117.154	-0.207	0.038
-475.289	74.849	0.111	0.117
-474.274	351.960	0.012	-0.023
-473.259	-48.037	0.121	-0.059
-472.245	-86.632	-0.573	-0.176
-471.230	187.089	0.092	-0.138
-470.216	198.229	0.028	-0.043
-469.201	-142.560	-0.258	-0.025
-468.186	42.312	-0.078	-0.071
-467.172	-58.614	-0.159	-0.069
-466.157	-81.209	0.288	0.096
-465.143	-185.599	0.216	-0.003
-464.128	170.826	0.007	-0.010
-463.113	221.310	-0.151	-0.244
-462.099	-6.470	-0.109	-0.075
-461.084	-200.000	-0.005	0.110
-460.070	219.198	0.076	-0.122
-459.055	192.658	0.083	0.126
-458.040	137.765	0.360	-0.473
-457.026	96.607	-0.278	-0.319
-456.011	800.000	0.070	-0.293
-454.997	-200.000	-0.029	-0.267
-453.982	-200.000	-0.010	-0.119
-452.968	-200.000	-0.016	-0.279
-451.953	114.715	0.239	-0.293
-450.938	235.445	-0.146	0.242
-449.924	237.794	0.116	-0.193
-448.909	327.545	0.112	-0.215
-447.895	221.261	-0.310	0.500
-446.880	-74.333	0.100	0.036
-445.865	-200.000	-0.024	0.340
-444.851	-200.000	0.008	-0.060
-443.836	800.000	0.031	0.129
-442.822	-200.000	-0.027	-0.179
-441.807	-200.000	-0.028	-0.142
-440.792	69.313	0.037	-0.039
-439.778	800.000	0.068	0.266
-438.763	786.690	-0.073	0.201
-437.749	-23.065	0.453	0.274
-436.734	800.000	0.056	0.230
-435.719	346.384	0.063	-0.124
-434.705	288.187	0.038	0.069
-433.690	737.963	-0.056	0.151
-432.676	-200.000	-0.006	0.285
-431.661	800.000	0.044	0.123
-430.646	-44.021	-0.078	0.039
-429.632	11.551	0.204	-0.157
-428.617	195.944	-0.194	0.295
-427.603	-200.000	0.006	-0.157
-426.588	-88.876	-0.114	-0.034
-425.573	-200.000	-0.024	-0.187
-424.559	-39.186	0.176	-0.093
-423.544	800.000	-0.040	0.111
-422.530	72.427	0.183	-0.191
-421.515	-65.254	0.100	0.040
-420.500	800.000	-0.028	-0.114
-419.486	800.000	0.064	-0.192
-418.471	-25.985	-0.226	0.134
-417.457	-179.154	-0.198	0.004
-416.442	-200.000	0.033	0.219
-415.428	91.786	0.080	-0.090
-414.413	210.792	-0.098	-0.155
-413.398	431.704	-0.110	0.239
-412.384	800.000	-0.113	-0.367
-411.369	-71.247	0.210	-0.079
-410.355	800.000	0.051	0.157
-409.340	-115.713	0.226	0.043
-408.325	138.836	0.026	-0.034
-407.311	123.536	0.095	-0.119
-406.296	-33.106	0.248	-0.138
-405.282	-21.526	0.108	-0.066
-404.267	325.441	0.131	-0.252
-403.252	-50.959	0.001	0.000
-402.238	-23.768	0.143	-0.086
-401.223	-120.881	-0.102	-0.017
-400.209	95.661	0.171	0.196
-399.194	147.614	0.065	0.088
-398.179	112.742	-0.191	-0.232
-397.165	-84.402	0.092	-0.029
-396.150	242.646	0.105	0.175
-395.136	-14.665	-0.106	0.068
-394.121	-11.190	0.149	0.098
-393.106	-55.846	0.061	-0.027
-392.092	207.948	0.185	0.289
-391.077	74.186	0.225	-0.236
-390.063	800.000	0.039	0.148
-389.048	-200.000	0.002	0.058
-388.033	-97.008	0.096	-0.025
-387.019	88.083	0.008	-0.009
-386.004	-66.897	-0.071	-0.028
-384.990	800.000	0.046	0.163
-383.975	12.370	-0.355	-0.274
-382.960	-200.000	-0.065	0.299
-381.946	800.000	-0.037	-0.155
-380.931	-170.550	-0.421	0.015
-379.917	-97.122	0.498	0.130
-378.902	800.000	0.038	-0.150
-377.888	114.133	0.103	0.125
-376.873	100.928	-0.036	0.042
-375.858	-55.219	0.070	0.031
-374.844	-200.000	0.028	0.379
-373.829	-51.232	-0.380	0.178
-372.815	-200.000	0.010	-0.216
-371.800	-31.292	-0.040	0.022
-370.785	326.904	0.039	0.076
-369.771	800.000	-0.091	0.396
-368.756	-118.663	-0.013	-0.002
-367.742	-109.277	0.167	0.035
-366.727	-28.747	0.079	-0.046
-365.712	-77.990	0.326	0.112
-364.698	-124.917	0.330	0.051
-363.683	-135.251	-0.221	0.027
-362.669	21.625	0.263	0.214
-361.654	-13.868	-0.198	-0.128
-360.639	46.363	0.296	-0.274
-359.625	-200.000	0.005	0.095
-358.610	-20.553	0.213	0.131
-357.596	-115.730	-0.168	-0.031
-356.581	-200.000	0.001	0.224
-355.566	-122.519	-0.116	0.019
-354.552	-195.424	0.244	-0.002
-353.537	800.000	0.108	0.358
-352.523	69.291	0.205	0.210
-351.508	302.737	0.158	0.293
-350.493	488.177	0.163	-0.372
-349.479	308.358	0.046	0.085
-348.464	-200.000	0.013	0.120
-347.450	-142.809	0.203	0.020
-346.435	-154.544	-0.289	-0.019
-345.420	163.619	-0.163	0.229
-344.406	-57.879	-0.138	0.060
-343.391	601.334	0.046	-0.115
-342.377	-57.468	-0.163	0.072
-341.362	266.658	-0.157	0.273
-340.348	258.667	-0.127	0.219
-339.333	-95.464	-0.247	-0.066
-338.318	-93.403	-0.205	0.057
-337.304	35.607	0.109	-0.095
-336.289	800.000	0.057	-0.208
-335.275	-83.868	-0.260	0.083
-334.260	94.927	0.102	-0.116
-333.245	-200.000	0.009	-0.360
-332.231	-163.288	-0.184	-0.009
-331.216	390.435	-0.065	-0.135
-330.202	-89.488	0.099	-0.029
-329.187	-200.000	-0.079	-0.542
-328.172	-200.000	-0.013	0.197
-327.158	-170.782	0.204	-0.007
-326.143	-200.000	-0.012	-0.098
-325.129	-154.569	-0.281	-0.019
-324.114	-63.953	0.393	-0.160
-323.099	-200.000	-0.113	-0.577
-322.085	-167.322	-0.044	0.002
-321.070	19.385	-0.165	0.133
-320.056	144.358	0.243	0.324
-319.041	-20.197	0.056	-0.035
-318.026	622.243	-0.130	0.325
-317.012	706.993	-0.044	-0.115
-315.997	151.918	0.073	-0.100
-314.983	118.779	0.086	-0.106
-313.968	366.423	-0.132	-0.266
-312.953	-101.943	-0.071	-0.017
-311.939	-78.488	-0.110	0.037
-310.924	40.077	-0.014	0.013
-309.910	800.000	0.050	0.148
-308.895	52.751	-0.128	0.122
-307.880	144.841	0.267	0.355
-306.866	-161.581	0.330	0.017
-305.851	-36.704	-0.044	-0.024
-304.837	-200.000	-0.042	0.402
-303.822	534.364	-0.075	0.177
-302.807	-187.761	-0.497	0.007
-301.793	-136.489	0.462	-0.054
-300.778	-200.000	0.018	0.152
-299.764	69.485	0.016	0.016
-298.749	-151.327	-0.022	-0.002
-297.735	588.084	-0.127	-0.312
-296.720	800.000	0.027	-0.095
-295.705	-200.000	-0.046	-0.255
-294.691	800.000	-0.084	0.264
-293.676	-39.777	0.213	0.111
-292.662	21.614	0.071	-0.057
-291.647	-163.429	-0.356	0.017
-290.632	-153.386	0.227	-0.016
-289.618	-200.000	-0.025	0.112
-288.603	-200.000	0.190	0.000
-287.589	64.198	-0.188	-0.188
-286.574	5.789	-0.304	0.224
-285.559	-79.186	-0.433	-0.146
-284.545	-115.995	0.310	0.057
-283.530	-200.000	-0.011	-0.050
-282.516	-200.000	0.000	-0.096
-281.501	-101.212	0.212	-0.052
-280.486	-200.000	0.002	0.137
-279.472	-70.723	0.266	-0.100
-278.457	-200.000	-0.031	0.346
-277.443	154.415	0.132	-0.181
-276.428	673.781	0.072	-0.186
-275.413	-200.000	-0.003	-0.067
-274.399	-156.949	0.196	0.012
-273.384	-200.000	0.060	0.521
-272.370	-200.000	-0.027	0.133
-271.355	-115.612	-0.597	-0.112
-270.340	-13.333	0.258	-0.167
-269.326	89.888	-0.096	0.107
-268.311	216.401	0.154	0.244
-267.297	49.313	-0.255	-0.239
-266.282	74.470	0.207	0.217
-265.267	-66.763	0.208	0.082
-264.253	-128.736	-0.096	-0.014
-263.238	-123.897	-0.172	0.027
-262.224	175.479	0.188	0.271
-261.209	800.000	0.074	0.298
-260.195	-200.000	0.052	-0.252
-259.180	74.066	0.090	-0.094
-258.165	68.846	0.126	-0.129
-257.151	-48.377	-0.448	-0.215
-256.136	63.231	-0.118	-0.118
-255.122	-111.507	0.116	-0.023
-254.107	-59.064	-0.195	0.084
-253.092	74.602	-0.218	-0.228
-252.078	800.000	0.111	0.333
-251.063	-200.000	0.014	0.152
-250.049	-136.298	-0.252	-0.029
-249.034	-20.974	-0.269	-0.164
-248.019	-94.513	0.221	0.060
-247.005	-7.974	0.199	0.134
-245.990	61.420	0.071	-0.070
-244.976	-200.000	0.012	0.339
-243.961	800.000	0.130	0.515
-242.946	-147.737	-0.230	-0.019
-241.932	-85.188	-0.221	0.069
-240.917	475.493	0.034	0.077
-239.903	184.128	0.088	-0.129
-238.888	101.229	0.176	0.204
-237.873	722.583	0.048	-0.126
-236.859	184.827	-0.090	0.133
-235.844	240.407	0.031	0.052
-234.830	125.036	-0.192	0.240
-233.815	228.393	0.087	0.141
-232.800	125.671	-0.108	0.136
-231.786	32.562	0.204	-0.175
-230.771	180.179	0.058	0.084
-229.757	800.000	-0.023	0.082
-228.742	-124.901	0.178	0.027
-227.727	800.000	0.076	-0.321
-226.713	211.832	-0.101	-0.158
-225.698	13.682	-0.196	0.151
-224.684	-200.000	-0.079	0.354
-223.669	-200.000	-0.023	0.142
-222.655	-21.907	0.152	0.092
-221.640	-200.000	0.111	0.490
-220.625	-200.000	-0.000	-0.240
-219.611	9.196	0.060	-0.045
-218.596	-200.000	-0.050	0.315
-217.582	33.118	-0.149	-0.128
-216.567	554.484	0.069	0.166
-215.552	-26.288	0.122	-0.071
-214.538	9.034	0.407	-0.306
-213.523	-153.056	0.022	-0.002
-212.509	800.000	0.040	-0.132
-211.494	56.709	-0.337	0.326
-210.479	-52.748	-0.322	0.148
-209.465	-107.875	-0.247	0.053
-208.450	24.707	-0.093	0.077
-207.436	-134.709	0.219	-0.026
-206.421	471.007	-0.081	0.180
-205.406	800.000	-0.012	0.050
-204.392	-140.951	0.071	-0.007
-203.377	-154.246	-0.215	-0.014
-202.363	-27.045	-0.399	-0.231
-201.348	37.246	0.119	-0.104
-200.333	-79.446	-0.354	0.119
-199.319	-48.999	-0.121	-0.057
-198.304	-7.849	0.172	-0.115
-197.290	17.304	0.084	-0.066
-196.275	800.000	0.079	-0.315
-195.260	258.706	-0.040	0.068
-194.246	-200.000	-0.004	-0.166
-193.231	39.173	-0.048	0.043
-192.217	-200.000	-0.004	-0.051
-191.202	665.829	0.032	0.082
-190.187	793.128	0.106	-0.290
-189.173	-200.000	0.014	0.069
-188.158	-97.306	-0.439	-0.114
-187.144	533.911	0.110	0.259
-186.129	-200.000	0.018	-0.120
-185.114	-117.054	0.200	-0.036
-184.100	73.560	-0.213	-0.222
-183.085	-103.958	0.255	0.059
-182.071	-161.063	-0.103	-0.005
-181.056	800.000	-0.044	0.143
-180.042	287.981	0.127	0.228
-179.027	696.446	0.097	-0.252
-178.012	14.450	-0.034	0.026
-176.998	42.258	0.191	0.172
-175.983	-200.000	-0.040	-0.326
-174.969	-200.000	0.067	-0.306
-173.954	-81.969	0.401	-0.130
-172.939	-1.868	0.275	-0.192
-171.925	-148.987	-0.300	0.024
-170.910	800.000	-0.025	-0.083
-169.896	-91.348	-0.050	-0.014
-168.881	118.518	0.252	0.308
-167.866	760.970	-0.061	0.165
-166.852	-200.000	0.028	-0.184
-165.837	52.548	0.310	0.294
-164.823	-64.107	-0.213	0.086
-163.808	123.310	-0.125	0.156
-162.793	-6.273	0.192	0.130
-161.779	-74.400	0.206	0.074
-160.764	-73.049	0.110	-0.040
-159.750	-76.848	0.241	0.084
-158.735	-7.938	0.166	-0.111
-157.720	-40.960	-0.143	0.073
-156.706	415.873	0.104	0.220
-155.691	51.947	-0.131	0.124
-154.677	6.685	0.198	-0.146
-153.662	-140.557	0.104	-0.011
-152.647	249.106	0.143	-0.241
-151.633	559.345	0.009	0.022
-150.618	589.385	0.066	0.161
-149.604	-150.901	-0.147	-0.011
-148.589	0.128	-0.191	0.135
-147.574	250.455	0.171	0.288
-146.560	-200.000	-0.056	-0.306
-145.545	-200.000	0.044	0.439
-144.531	204.112	-0.045	-0.069
-143.516	-87.648	-0.239	0.071
-142.502	-105.124	-0.306	0.069
-141.487	-129.775	0.342	-0.047
-140.472	59.188	-0.157	-0.153
-139.458	171.435	-0.187	0.266
-138.443	151.025	-0.119	-0.160
-137.429	-200.000	-0.003	-0.239
-136.414	800.000	-0.076	0.246
-135.399	-143.085	0.252	0.024
-134.385	-166.739	-0.083	0.003
-133.370	-119.606	0.130	-0.022
-132.356	-45.098	-0.247	0.122
-131.341	-85.377	0.445	0.138
-130.326	-85.781	0.130	-0.040
-129.312	-93.568	-0.192	0.052
-128.297	-200.000	-0.045	0.198
-127.283	-7.693	0.223	0.149
-126.268	128.307	-0.419	0.529
-125.253	800.000	-0.033	0.096
-124.239	800.000	-0.118	0.406
-123.224	13.051	-0.141	-0.108
-122.210	124.352	-0.174	-0.216
-121.195	48.168	0.131	0.121
