DTS Sentinel unit serial number:	SN413079Multiplexer serial number:	ORYXHardware model number:	OX4-SRSoftware version number:	ORYX F/W v4.00 Oryx Data Collector v3.7.2.0data status	okinstallation	princeton_trtdifferential loss correction	single-endedforward channel	channel 4reverse channel	N/Adate	2019/09/11time	07:19:11forward acquisition time	60.00reverse acquisition time	0.00gamma	496.2192k internal	0.2311k external	0.2311temperature offset calibration	0.9945default loss term (dB/km)	0.3790temperature slope calibration	1.0000multiplexer offset coefficient	1.0000multiplexer slope coefficient	1.0000fibre end	0.00T internal ref (°C)	30.69T ext. ref 1 (°C)	-0.09T ext. ref 2 (°C)	27.17length (m)	temperature (°C)	Stokes	anti-Stokes-747.200	-73.579	-0.247	-0.091
-746.185	409.557	-0.156	0.335
-745.171	800.000	0.006	-0.021
-744.156	-82.915	0.113	0.037
-743.142	460.941	0.047	-0.106
-742.127	-51.324	0.278	0.132
-741.112	-37.473	0.248	-0.134
-740.098	-96.016	-0.277	-0.075
-739.083	89.646	-0.215	0.243
-738.069	610.816	0.021	-0.053
-737.054	-200.000	-0.035	0.216
-736.039	-96.698	0.198	0.053
-735.025	-200.000	0.004	0.671
-734.010	-71.075	-0.201	0.077
-732.996	-149.946	-0.187	-0.015
-731.981	-96.460	0.352	-0.094
-730.966	-12.066	-0.080	-0.053
-729.952	800.000	-0.068	0.244
-728.937	-0.784	0.129	0.093
-727.923	-90.954	-0.129	-0.038
-726.908	76.935	-0.185	-0.199
-725.894	-200.000	-0.022	0.168
-724.879	-47.893	-0.451	0.221
-723.864	-200.000	-0.060	-0.308
-722.850	-200.000	-0.006	-0.077
-721.835	-75.535	-0.113	0.041
-720.821	-120.276	-0.147	0.025
-719.806	58.677	0.094	0.094
-718.791	800.000	-0.078	0.262
-717.777	800.000	-0.104	-0.407
-716.762	800.000	0.104	0.334
-715.748	336.374	-0.093	-0.184
-714.733	-200.000	0.046	-0.215
-713.718	136.846	0.166	0.220
-712.704	-200.000	-0.012	0.123
-711.689	141.553	-0.120	0.161
-710.675	18.051	-0.099	0.080
-709.660	-136.653	0.174	0.020
-708.645	-200.000	0.053	-0.367
-707.631	-200.000	0.008	-0.235
-706.616	-200.000	-0.026	-0.150
-705.602	-200.000	-0.043	-0.285
-704.587	800.000	-0.091	-0.361
-703.572	-37.093	0.337	-0.183
-702.558	-63.449	0.325	-0.135
-701.543	484.655	-0.063	0.144
-700.529	-75.391	-0.163	0.059
-699.514	-200.000	-0.048	-0.359
-698.499	-96.666	-0.062	0.016
-697.485	-200.000	-0.002	0.026
-696.470	-200.000	0.088	-0.484
-695.456	146.705	0.071	-0.096
-694.441	-41.689	-0.103	-0.054
-693.426	-52.471	0.186	0.087
-692.412	-40.680	-0.265	0.139
-691.397	-7.081	-0.068	0.047
-690.383	-200.000	-0.030	-0.141
-689.368	-200.000	0.024	-0.550
-688.354	21.647	-0.077	-0.064
-687.339	-48.126	-0.224	-0.110
-686.324	557.496	0.111	-0.272
-685.310	250.069	-0.099	-0.169
-684.295	16.060	-0.201	-0.160
-683.281	114.799	0.196	0.242
-682.266	-89.853	-0.558	0.165
-681.251	136.272	-0.313	0.414
-680.237	-70.233	0.354	0.136
-679.222	45.377	0.330	-0.308
-678.208	-142.040	-0.446	0.045
-677.193	387.295	-0.097	0.202
-676.178	-83.502	-0.159	-0.052
-675.164	-50.758	-0.363	-0.173
-674.149	333.055	0.091	-0.179
-673.135	-200.000	-0.014	0.159
-672.120	134.692	0.036	-0.048
-671.105	-200.000	0.043	-0.227
-670.091	-29.709	-0.227	0.131
-669.076	-123.186	0.318	-0.052
-668.062	800.000	0.109	0.420
-667.047	21.493	0.194	-0.160
-666.032	33.619	-0.158	-0.139
-665.018	363.303	0.119	-0.243
-664.003	-35.693	-0.242	0.133
-662.989	-53.049	0.277	-0.129
-661.974	-137.751	0.243	-0.028
-660.959	-139.308	-0.395	-0.043
-659.945	-87.741	0.146	-0.044
-658.930	-184.720	0.277	-0.004
-657.916	590.877	-0.053	-0.133
-656.901	-91.674	-0.009	0.002
-655.886	80.374	0.087	0.095
-654.872	-18.791	-0.106	0.067
-653.857	-147.454	-0.199	0.017
-652.843	-35.646	-0.095	0.052
-651.828	-200.000	-0.033	0.220
-650.814	136.012	0.085	-0.113
-649.799	177.944	0.042	-0.062
-648.784	-108.690	-0.554	-0.120
-647.770	123.128	0.125	-0.159
-646.755	-200.000	-0.027	-0.247
-645.741	345.800	-0.079	0.157
-644.726	-67.738	-0.248	0.098
-643.711	-171.906	-0.189	-0.006
-642.697	20.380	0.054	0.044
-641.682	-73.585	0.209	-0.077
-640.668	-200.000	0.007	-0.104
-639.653	138.175	0.034	-0.046
-638.638	323.779	0.063	-0.121
-637.624	236.460	-0.108	0.181
-636.609	-77.491	-0.184	-0.065
-635.595	800.000	-0.096	-0.286
-634.580	100.472	0.332	0.390
-633.565	-69.474	0.349	0.135
-632.551	65.142	-0.149	0.152
-631.536	-200.000	0.066	-0.340
-630.522	-157.784	-0.202	0.012
-629.507	-46.155	0.227	-0.113
-628.492	38.383	-0.235	-0.212
-627.478	-33.524	0.151	-0.084
-626.463	62.312	0.121	-0.122
-625.449	-90.690	-0.124	-0.036
-624.434	469.384	-0.035	-0.079
-623.419	-72.318	-0.179	0.067
-622.405	-110.275	-0.113	0.024
-621.390	246.171	0.093	0.159
-620.376	-107.496	0.100	0.022
-619.361	-71.346	-0.247	0.093
-618.346	-200.000	-0.048	-0.229
-617.332	-79.049	-0.167	0.058
-616.317	648.944	-0.011	-0.029
-615.303	800.000	0.020	-0.071
-614.288	109.745	-0.219	-0.266
-613.273	-130.649	-0.179	-0.024
-612.259	-200.000	-0.003	-0.154
-611.244	115.617	-0.066	0.081
-610.230	-54.954	0.145	-0.066
-609.215	-22.551	-0.087	-0.053
-608.201	49.400	-0.319	0.303
-607.186	207.329	-0.238	0.374
-606.171	140.005	-0.020	0.026
-605.157	-152.542	0.263	-0.019
-604.142	56.913	-0.085	0.084
-603.128	-200.000	-0.018	-0.165
-602.113	-86.180	-0.307	0.096
-601.098	-82.904	-0.204	0.067
-600.084	217.517	-0.132	0.213
-599.069	35.504	-0.139	0.123
-598.055	800.000	-0.128	0.373
-597.040	-44.966	0.185	-0.093
-596.025	84.297	-0.156	-0.173
-595.011	-200.000	-0.022	0.189
-593.996	1.684	-0.201	0.146
-592.982	218.335	-0.170	0.273
-591.967	-87.949	0.073	0.022
-590.952	115.983	-0.141	-0.174
-589.938	-46.898	-0.204	-0.100
-588.923	499.555	0.059	-0.137
-587.909	-74.024	-0.190	-0.069
-586.894	-200.000	-0.006	-0.041
-585.879	17.909	-0.098	0.079
-584.865	45.559	0.155	-0.145
-583.850	700.131	-0.068	-0.181
-582.836	800.000	0.063	0.242
-581.821	-200.000	0.034	-0.177
-580.806	8.154	-0.221	0.167
-579.792	559.690	0.146	0.356
-578.777	-59.335	-0.122	0.053
-577.763	-200.000	-0.047	0.259
-576.748	-198.777	-0.134	-0.001
-575.733	309.326	-0.064	-0.121
-574.719	19.905	0.076	-0.062
-573.704	15.007	-0.140	0.110
-572.690	-60.265	0.187	0.080
-571.675	377.743	0.123	-0.254
-570.661	-200.000	-0.020	0.283
-569.646	-7.131	-0.195	-0.133
-568.631	644.711	0.060	0.155
-567.617	521.340	0.097	0.229
-566.602	111.238	0.142	0.172
-565.588	131.986	-0.221	-0.287
-564.573	-111.831	0.042	0.009
-563.558	-76.738	0.254	0.090
-562.544	2.410	0.200	0.146
-561.529	-14.751	0.151	0.098
-560.515	54.518	0.074	-0.072
-559.500	800.000	0.098	-0.315
-558.485	-200.000	0.085	0.394
-557.471	410.069	-0.078	-0.166
-556.456	-31.350	-0.202	-0.115
-555.442	98.067	0.028	-0.033
-554.427	0.403	0.023	0.017
-553.412	46.894	0.168	-0.158
-552.398	800.000	0.018	0.077
-551.383	800.000	0.062	0.267
-550.369	800.000	0.048	-0.157
-549.354	-161.920	-0.389	0.020
-548.339	692.616	0.070	-0.185
-547.325	-38.766	0.277	0.147
-546.310	288.940	-0.103	0.189
-545.296	-29.724	0.099	-0.057
-544.281	-73.843	-0.147	-0.054
-543.266	347.508	0.108	0.214
-542.252	-56.581	-0.116	0.052
-541.237	67.894	0.347	0.358
-540.223	-200.000	0.012	-0.278
-539.208	130.140	0.147	-0.189
-538.193	138.297	-0.130	0.172
-537.179	-34.120	-0.123	-0.068
-536.164	153.040	0.100	-0.137
-535.150	800.000	-0.009	-0.028
-534.135	32.841	-0.203	-0.177
-533.121	-200.000	-0.017	-0.270
-532.106	-62.409	0.125	-0.052
-531.091	-22.301	-0.160	0.098
-530.077	-52.591	-0.188	-0.087
-529.062	18.924	-0.182	0.147
-528.048	152.360	-0.008	-0.011
-527.033	50.219	0.143	0.136
-526.018	800.000	0.064	0.191
-525.004	-55.374	-0.021	0.009
-523.989	-200.000	-0.019	-0.191
-522.975	-200.000	0.000	-0.025
-521.960	118.267	-0.220	-0.273
-520.945	800.000	0.054	0.161
-519.931	-134.177	0.300	0.037
-518.916	690.643	-0.127	-0.335
-517.902	-138.666	0.202	-0.022
-516.887	76.572	-0.338	0.360
-515.872	-130.237	-0.185	0.025
-514.858	800.000	-0.176	0.502
-513.843	-68.045	-0.159	-0.062
-512.829	-120.175	0.129	-0.022
-511.814	40.993	-0.050	-0.045
-510.799	800.000	-0.143	0.406
-509.785	16.130	0.252	-0.200
-508.770	128.189	-0.056	-0.071
-507.756	-64.869	0.141	0.058
-506.741	-200.000	-0.045	-0.202
-505.726	773.037	-0.023	-0.063
-504.712	-104.247	-0.269	-0.063
-503.697	95.414	-0.115	-0.131
-502.683	168.445	-0.032	0.046
-501.668	115.337	0.112	0.138
-500.653	800.000	0.082	-0.306
-499.639	43.449	-0.141	0.129
-498.624	150.645	-0.247	-0.337
-497.610	-42.838	-0.220	-0.112
-496.595	352.778	0.044	-0.089
-495.581	390.671	-0.054	0.113
-494.566	-200.000	-0.027	-0.477
-493.551	-91.127	-0.080	0.023
-492.537	-12.521	-0.138	-0.091
-491.522	20.066	-0.146	0.119
-490.508	800.000	0.111	0.329
-489.493	129.799	-0.094	0.121
-488.478	-200.000	-0.058	-0.290
-487.464	-184.184	-0.223	-0.004
-486.449	112.202	0.155	-0.189
-485.435	-200.000	-0.000	-0.110
-484.420	103.792	-0.023	-0.027
-483.405	800.000	0.041	-0.116
-482.391	-200.000	0.000	0.026
-481.376	-76.935	-0.087	0.030
-480.362	-200.000	0.014	0.079
-479.347	800.000	-0.048	0.206
-478.332	-59.939	0.159	-0.068
-477.318	-77.939	-0.461	0.160
-476.303	93.050	-0.135	-0.153
-475.289	-38.523	-0.165	0.088
-474.274	-138.366	0.188	0.021
-473.259	33.708	-0.241	0.211
-472.245	57.848	0.143	0.140
-471.230	152.518	0.225	-0.309
-470.216	800.000	0.080	0.261
-469.201	-119.519	-0.297	-0.052
-468.186	269.975	0.086	-0.151
-467.172	430.736	-0.181	-0.394
-466.157	-200.000	-0.023	0.229
-465.143	-200.000	-0.048	-0.240
-464.128	152.155	-0.035	-0.048
-463.113	-36.011	0.138	-0.075
-462.099	282.901	-0.090	0.161
-461.084	173.049	-0.133	-0.192
-460.070	-179.827	-0.201	-0.004
-459.055	-121.040	0.179	0.030
-458.040	-117.381	0.166	-0.030
-457.026	-140.900	0.307	-0.032
-456.011	74.705	0.054	0.057
-454.997	50.839	0.301	0.286
-453.982	-200.000	0.049	-0.248
-452.968	-40.196	0.202	-0.106
-451.953	433.181	-0.078	0.170
-450.938	26.927	-0.091	0.076
-449.924	-97.489	-0.071	0.018
-448.909	-83.836	0.232	0.074
-447.895	51.798	-0.052	-0.049
-446.880	-41.202	0.120	0.062
-445.865	-6.998	0.016	-0.011
-444.851	800.000	-0.033	0.110
-443.836	-89.834	-0.126	-0.037
-442.822	0.148	-0.104	-0.074
-441.807	-200.000	0.013	0.186
-440.792	-23.220	0.166	0.100
-439.778	-200.000	0.037	-0.256
-438.763	324.107	0.124	0.237
-437.749	-38.207	-0.029	0.015
-436.734	-56.439	-0.179	-0.080
-435.719	800.000	0.078	-0.217
-434.705	-200.000	-0.002	-0.109
-433.690	-37.363	-0.059	0.032
-432.676	-150.494	0.515	-0.040
-431.661	108.090	0.233	0.278
-430.646	313.707	0.120	-0.226
-429.632	-32.993	0.506	-0.282
-428.617	-110.988	-0.335	0.069
-427.603	289.627	0.060	-0.109
-426.588	15.588	0.134	0.105
-425.573	-35.906	-0.175	0.095
-424.559	207.706	-0.189	0.296
-423.544	450.642	0.150	0.333
-422.530	197.303	0.065	-0.099
-421.515	166.865	0.103	-0.146
-420.500	-68.448	0.039	-0.015
-419.486	-5.821	0.262	-0.180
-418.471	-151.674	-0.102	-0.008
-417.457	-156.149	-0.105	0.007
-416.442	800.000	0.073	0.248
-415.428	-101.662	-0.135	-0.033
-414.413	800.000	0.089	-0.387
-413.398	-200.000	0.231	-0.001
-412.384	61.904	0.140	-0.140
-411.369	-9.800	0.087	0.058
-410.355	94.523	-0.088	0.100
-409.340	-153.591	0.424	0.029
-408.325	-102.167	0.437	-0.105
-407.311	237.361	-0.167	-0.277
-406.296	-127.097	-0.252	0.037
-405.282	441.286	0.134	-0.293
-404.267	-91.411	-0.141	0.040
-403.252	9.932	-0.099	-0.075
-402.238	131.277	0.081	0.105
-401.223	-42.546	0.154	-0.079
-400.209	223.770	-0.151	-0.244
-399.194	800.000	-0.068	-0.191
-398.179	-200.000	-0.031	-0.215
-397.165	-18.850	0.076	0.047
-396.150	800.000	0.096	-0.366
-395.136	393.254	0.149	0.311
-394.121	-200.000	0.024	-0.164
-393.106	-25.786	0.265	-0.156
-392.092	210.257	0.079	0.125
-391.077	1.374	0.174	0.125
-390.063	489.694	0.123	0.282
-389.048	-133.219	-0.301	0.038
-388.033	-200.000	-0.016	0.115
-387.019	-112.122	-0.149	-0.030
-386.004	-8.094	-0.097	-0.065
-384.990	800.000	-0.044	0.174
-383.975	-139.301	0.176	-0.019
-382.960	129.215	0.201	0.257
-381.946	10.819	-0.193	0.147
-380.931	-36.176	0.131	-0.071
-379.917	-200.000	0.033	0.217
-378.902	656.570	0.052	0.133
-377.888	8.489	0.243	-0.183
-376.873	-129.159	-0.383	0.053
-375.858	-135.504	0.303	0.036
-374.844	125.060	-0.165	0.208
-373.829	-39.378	0.035	-0.018
-372.815	-200.000	-0.008	-0.198
-371.800	-37.295	0.259	0.138
-370.785	36.199	0.265	-0.234
-369.771	-151.070	0.039	-0.003
-368.756	11.446	0.216	0.166
-367.742	-112.161	0.261	-0.052
-366.727	70.707	-0.119	-0.123
-365.712	-24.761	0.250	-0.149
-364.698	119.220	-0.214	0.265
-363.683	352.077	-0.094	0.186
-362.669	-84.680	0.103	-0.032
-361.654	-98.710	-0.039	0.010
-360.639	-125.267	0.286	0.044
-359.625	113.305	-0.214	-0.260
-358.610	800.000	0.066	0.266
-357.596	-100.812	0.069	-0.017
-356.581	-200.000	-0.018	-0.176
-355.566	-43.289	0.219	0.111
-354.552	-1.140	0.178	-0.126
-353.537	-143.630	-0.250	0.024
-352.523	-39.488	0.273	0.143
-351.508	575.798	0.047	0.114
-350.493	800.000	0.043	-0.136
-349.479	-64.845	0.128	-0.052
-348.464	800.000	-0.089	-0.299
-347.450	-79.739	-0.079	-0.027
-346.435	114.147	-0.186	0.226
-345.420	-200.000	0.005	0.141
-344.406	454.508	0.146	0.324
-343.391	637.718	0.108	-0.275
-342.377	-131.520	0.300	-0.039
-341.362	193.715	-0.115	-0.174
-340.348	-171.527	0.043	0.001
-339.333	-200.000	0.009	-0.070
-338.318	800.000	0.045	0.143
-337.304	800.000	0.043	-0.121
-336.289	73.736	-0.199	-0.208
-335.275	-200.000	0.060	0.276
-334.260	-41.584	-0.263	0.135
-333.245	-200.000	0.041	-0.272
-332.231	153.227	0.210	-0.287
-331.216	-157.185	0.171	0.010
-330.202	46.874	-0.261	-0.242
-329.187	-35.263	0.178	0.097
-328.172	-33.998	-0.083	-0.046
-327.158	204.909	0.116	-0.179
-326.143	184.414	-0.154	-0.228
-325.129	-200.000	0.001	-0.075
-324.114	205.966	-0.236	0.367
-323.099	590.646	0.053	0.129
-322.085	64.160	-0.110	0.110
-321.070	-128.253	-0.475	-0.068
-320.056	-47.773	-0.257	0.125
-319.041	187.764	-0.246	-0.367
-318.026	113.126	0.235	-0.285
-317.012	-200.000	-0.049	0.348
-315.997	391.158	-0.078	-0.162
-314.983	27.247	0.151	0.127
-313.968	150.212	0.229	-0.310
-312.953	-200.000	0.014	-0.232
-311.939	-200.000	0.040	0.227
-310.924	346.788	-0.228	0.447
-309.910	-100.606	0.142	0.035
-308.895	-40.552	-0.075	0.039
-307.880	-53.085	-0.417	-0.191
-306.866	-200.000	-0.021	-0.286
-305.851	-7.682	0.281	-0.190
-304.837	104.612	-0.236	-0.277
-303.822	-200.000	0.014	0.138
-302.807	-132.427	-0.300	-0.039
-301.793	55.254	0.160	-0.154
-300.778	395.733	-0.077	0.160
-299.764	21.874	0.260	-0.212
-298.749	160.766	0.096	-0.134
-297.735	-200.000	-0.018	0.224
-296.720	-125.770	-0.037	0.006
-295.705	-85.028	0.282	0.088
-294.691	-35.549	0.196	-0.106
-293.676	-200.000	-0.023	0.410
-292.662	5.744	0.098	-0.073
-291.647	800.000	-0.045	-0.188
-290.632	-49.079	-0.299	-0.143
-289.618	-200.000	-0.053	-0.252
-288.603	-122.232	0.168	-0.027
-287.589	384.311	-0.015	-0.030
-286.574	-110.036	-0.111	0.023
-285.559	-200.000	-0.039	0.256
-284.545	800.000	0.011	0.041
-283.530	-51.830	0.072	0.033
-282.516	175.148	0.226	-0.327
-281.501	-121.228	0.510	0.085
-280.486	800.000	-0.056	0.216
-279.472	-108.881	-0.165	-0.035
-278.457	-19.826	-0.251	-0.155
-277.443	-88.683	0.171	-0.051
-276.428	-143.960	-0.051	0.005
-275.413	-12.510	0.172	-0.112
-274.399	-200.000	-0.047	0.322
-273.384	-65.267	0.324	0.130
-272.370	-77.023	-0.063	-0.022
-271.355	408.312	0.042	0.088
-270.340	184.688	0.108	0.160
-269.326	-98.366	-0.545	-0.139
-268.311	130.158	-0.075	-0.096
-267.297	-101.986	0.048	0.012
-266.282	229.279	-0.005	-0.009
-265.267	800.000	0.083	-0.362
-264.253	-81.390	0.171	0.056
-263.238	800.000	0.024	-0.067
-262.224	136.572	-0.160	-0.208
-261.209	800.000	0.018	0.070
-260.195	-113.189	-0.437	-0.086
-259.180	-46.746	-0.166	0.081
-258.165	23.613	0.394	0.323
-257.151	195.153	0.094	0.142
-256.136	74.890	0.090	-0.094
-255.122	-96.800	-0.061	-0.016
-254.107	-123.747	0.122	-0.019
-253.092	247.689	0.104	0.175
-252.078	-200.000	0.012	-0.432
-251.063	800.000	0.099	-0.324
-250.049	186.088	0.046	-0.069
-249.034	800.000	0.034	-0.136
-248.019	630.715	0.083	0.209
-247.005	-200.000	-0.016	-0.172
-245.990	-125.462	-0.105	0.016
-244.976	191.812	0.173	-0.260
-243.961	-200.000	0.018	0.203
-242.946	534.802	0.149	-0.351
-241.932	-50.813	-0.041	0.019
-240.917	248.278	-0.116	-0.195
-239.903	45.067	-0.071	-0.065
-238.888	-200.000	0.023	0.117
-237.873	40.105	0.119	0.106
-236.859	-125.779	0.323	-0.049
-235.844	-200.000	-0.014	-0.101
-234.830	-200.000	-0.005	0.118
-233.815	-12.520	0.098	0.064
-232.800	-200.000	-0.009	0.163
-231.786	163.984	-0.249	-0.350
-230.771	-174.124	-0.131	0.004
-229.757	6.952	-0.358	-0.266
-228.742	-200.000	0.009	-0.156
-227.727	21.085	0.518	-0.418
-226.713	-6.742	0.057	-0.039
-225.698	800.000	-0.090	0.337
-224.684	-200.000	-0.010	0.189
-223.669	244.071	-0.053	-0.088
-222.655	262.267	0.138	0.238
-221.640	-200.000	-0.000	0.165
-220.625	-13.381	-0.291	-0.188
-219.611	-160.458	-0.217	0.012
-218.596	-97.307	-0.255	0.066
-217.582	-36.699	-0.089	0.047
-216.567	-31.530	-0.041	0.023
-215.552	-200.000	0.021	-0.110
-214.538	800.000	0.004	-0.012
-213.523	800.000	0.070	0.274
-212.509	-200.000	-0.042	0.327
-211.494	56.286	-0.025	-0.024
-210.479	121.037	-0.127	-0.157
-209.465	-46.849	-0.161	0.078
-208.450	26.939	0.264	0.220
-207.436	-40.551	0.333	-0.172
-206.421	-45.721	-0.127	0.063
-205.406	62.903	0.126	-0.125
-204.392	-147.342	-0.131	-0.011
-203.377	562.816	-0.124	0.298
-202.363	-48.725	0.282	-0.135
-201.348	-52.907	0.294	-0.135
-200.333	800.000	0.034	0.136
-199.319	-200.000	0.061	0.291
-198.304	114.215	-0.092	0.111
-197.290	87.003	-0.073	0.080
-196.275	-11.198	0.191	0.125
-195.260	49.236	-0.184	0.172
-194.246	800.000	0.047	0.142
-193.231	182.795	0.161	0.236
-192.217	800.000	-0.047	-0.152
-191.202	-92.930	0.089	0.025
-190.187	-200.000	-0.003	0.064
-189.173	426.763	-0.038	0.082
-188.158	-71.350	-0.325	-0.121
-187.144	-101.003	0.216	0.053
-186.129	180.884	0.146	-0.214
-185.114	800.000	0.083	0.265
-184.100	-200.000	0.042	0.194
-183.085	-99.816	0.491	-0.122
-182.071	-90.671	0.320	0.092
-181.056	-149.601	-0.350	0.027
-180.042	-200.000	-0.008	-0.270
-179.027	-117.144	-0.148	-0.027
-178.012	-77.514	-0.152	0.052
-176.998	-176.628	0.076	-0.002
-175.983	-78.137	-0.180	0.061
-174.969	12.181	0.219	0.167
-173.954	-25.877	-0.325	0.190
-172.939	-106.829	0.343	0.075
-171.925	38.588	0.125	0.111
-170.910	-132.406	-0.169	-0.022
-169.896	-35.798	0.229	0.123
-168.881	-76.198	-0.412	-0.144
-167.866	-63.937	-0.150	-0.061
-166.852	23.683	-0.248	-0.203
-165.837	800.000	-0.111	0.337
-164.823	224.920	0.127	0.203
-163.808	800.000	-0.088	0.378
-162.793	-56.004	-0.121	0.054
-161.779	-91.820	0.069	-0.019
-160.764	-66.016	0.167	-0.066
-159.750	88.906	0.228	0.252
-158.735	800.000	-0.040	0.147
-157.720	-22.413	-0.189	-0.113
-156.706	-24.367	0.087	-0.052
-155.691	57.703	-0.053	-0.051
-154.677	-200.000	0.014	0.308
-153.662	18.307	0.263	0.209
-152.647	-5.404	-0.076	0.052
-151.633	-95.063	-0.156	0.042
-150.618	250.502	0.179	-0.301
-149.604	-110.381	-0.206	-0.042
-148.589	-59.385	-0.241	-0.103
-147.574	-76.327	-0.211	0.074
-146.560	-68.185	-0.344	0.133
-145.545	-137.748	0.335	-0.037
-144.531	-200.000	0.050	-0.255
-143.516	-200.000	-0.007	0.107
-142.502	-59.791	-0.153	-0.065
-141.487	142.118	-0.157	-0.206
-140.472	67.235	-0.202	-0.204
-139.458	72.037	-0.226	0.233
-138.443	-200.000	0.020	-0.140
-137.429	166.940	-0.184	0.259
-136.414	-200.000	0.026	0.126
-135.399	169.740	0.043	0.060
-134.385	-57.205	0.077	0.034
-133.370	-149.374	-0.338	0.027
-132.356	-200.000	0.012	0.242
-131.341	800.000	0.084	-0.248
-130.326	-121.407	0.085	0.014
-129.312	-200.000	0.048	0.272
-128.297	-20.750	0.234	0.142
-127.283	-74.735	0.190	-0.068
-126.268	29.309	0.119	0.100
-125.253	800.000	-0.017	-0.071
-124.239	29.337	-0.038	0.032
-123.224	-122.908	0.159	0.025
-122.210	44.349	-0.032	-0.029
