DTS Sentinel unit serial number:	SN413079Multiplexer serial number:	ORYXHardware model number:	OX4-SRSoftware version number:	ORYX F/W v4.00 Oryx Data Collector v3.7.2.0data status	okinstallation	princeton_trtdifferential loss correction	single-endedforward channel	channel 4reverse channel	N/Adate	2019/09/11time	20:35:10forward acquisition time	60.00reverse acquisition time	0.00gamma	496.2192k internal	0.2303k external	0.2303temperature offset calibration	1.0059default loss term (dB/km)	0.3790temperature slope calibration	1.0000multiplexer offset coefficient	1.0000multiplexer slope coefficient	1.0000fibre end	0.00T internal ref (°C)	37.44T ext. ref 1 (°C)	1.53T ext. ref 2 (°C)	30.83length (m)	temperature (°C)	Stokes	anti-Stokes-747.200	-200.000	-0.006	0.346
-746.185	-128.408	0.031	0.004
-745.171	800.000	0.037	-0.114
-744.156	-69.095	-0.234	0.092
-743.142	-126.634	-0.208	-0.031
-742.127	48.311	0.159	0.152
-741.112	-42.344	0.262	0.136
-740.098	210.077	0.168	0.268
-739.083	-200.000	-0.023	-0.424
-738.069	-19.372	-0.272	0.172
-737.054	800.000	-0.068	-0.200
-736.039	-66.054	0.220	-0.089
-735.025	-200.000	0.349	0.001
-734.010	-128.114	-0.367	-0.053
-732.996	304.468	0.075	-0.141
-731.981	-200.000	-0.007	0.099
-730.966	800.000	0.020	-0.068
-729.952	-200.000	-0.019	-0.171
-728.937	-162.975	0.155	-0.008
-727.923	-106.994	-0.201	0.045
-726.908	-81.995	0.225	0.075
-725.894	-105.615	-0.133	0.031
-724.879	233.499	-0.142	0.238
-723.864	19.806	-0.170	-0.139
-722.850	-200.000	-0.009	-0.118
-721.835	-80.389	-0.042	-0.014
-720.821	-140.177	-0.232	-0.025
-719.806	-67.384	-0.572	-0.229
-718.791	16.681	0.032	-0.026
-717.777	361.543	0.061	-0.125
-716.762	-200.000	-0.056	-0.336
-715.748	-200.000	0.007	-0.181
-714.733	-47.506	0.274	0.135
-713.718	135.856	-0.059	-0.079
-712.704	388.145	0.082	-0.173
-711.689	11.363	-0.423	-0.329
-710.675	800.000	0.026	0.077
-709.660	-200.000	0.012	-0.177
-708.645	-200.000	-0.015	0.139
-707.631	-4.052	-0.178	0.125
-706.616	-47.935	0.319	0.157
-705.602	336.568	-0.108	-0.214
-704.587	350.518	0.057	-0.115
-703.572	336.149	0.066	0.130
-702.558	-45.677	0.084	0.042
-701.543	87.934	-0.233	-0.262
-700.529	581.667	0.103	0.257
-699.514	-63.188	0.437	-0.183
-698.499	34.870	0.074	0.066
-697.485	-7.643	-0.403	-0.277
-696.470	46.477	0.183	0.173
-695.456	-118.992	0.100	-0.018
-694.441	-126.912	0.196	-0.029
-693.426	-44.559	0.128	0.065
-692.412	-110.890	-0.325	-0.068
-691.397	81.946	-0.153	-0.168
-690.383	-71.155	0.305	0.116
-689.368	-28.359	-0.352	0.206
-688.354	-75.180	-0.209	-0.076
-687.339	800.000	0.104	-0.359
-686.324	637.158	-0.009	-0.023
-685.310	-200.000	-0.051	0.231
-684.295	164.627	-0.178	-0.255
-683.281	-200.000	0.029	-0.298
-682.266	-33.522	-0.222	-0.124
-681.251	800.000	-0.066	0.273
-680.237	-21.135	-0.200	-0.125
-679.222	800.000	-0.072	-0.211
-678.208	-200.000	0.019	-0.250
-677.193	432.198	0.078	-0.172
-676.178	53.751	0.031	0.030
-675.164	184.469	0.157	-0.236
-674.149	278.349	0.094	-0.171
-673.135	-200.000	-0.001	0.115
-672.120	-200.000	0.026	0.319
-671.105	205.485	-0.104	0.163
-670.091	-69.551	0.099	-0.038
-669.076	444.513	-0.112	-0.249
-668.062	-150.403	-0.128	-0.010
-667.047	232.909	0.048	0.080
-666.032	97.555	0.147	0.172
-665.018	-10.253	-0.316	0.213
-664.003	57.366	-0.206	-0.204
-662.989	34.543	-0.033	-0.029
-661.974	-125.291	0.019	0.003
-660.959	-125.189	-0.293	-0.046
-659.945	-200.000	-0.018	-0.180
-658.930	-60.721	0.161	0.069
-657.916	-73.899	-0.309	-0.114
-656.901	-29.470	0.247	-0.143
-655.886	254.459	-0.137	-0.239
-654.872	-42.117	0.321	0.167
-653.857	-67.357	0.132	-0.053
-652.843	-200.000	0.013	-0.119
-651.828	-18.159	0.235	-0.149
-650.814	-200.000	0.019	-0.462
-649.799	-28.469	0.231	0.135
-648.784	-200.000	-0.033	-0.269
-647.770	-200.000	0.006	0.076
-646.755	-200.000	-0.054	0.389
-645.741	-181.287	-0.322	0.006
-644.726	-200.000	0.001	-0.006
-643.711	749.886	0.059	-0.163
-642.697	800.000	-0.101	-0.288
-641.682	800.000	0.030	0.106
-640.668	187.769	0.056	0.085
-639.653	-78.345	-0.145	-0.050
-638.638	800.000	0.073	0.253
-637.624	-61.594	-0.066	0.028
-636.609	-72.989	0.311	-0.116
-635.595	118.435	-0.091	0.114
-634.580	800.000	0.035	-0.108
-633.565	504.369	0.050	0.116
-632.551	-200.000	0.000	-0.112
-631.536	779.873	0.142	-0.393
-630.522	-99.768	-0.204	0.052
-629.507	292.140	-0.075	0.138
-628.492	11.602	0.217	0.169
-627.478	-76.037	-0.188	-0.067
-626.463	-87.758	0.344	-0.105
-625.449	40.606	0.306	-0.279
-624.434	160.531	-0.168	-0.238
-623.419	318.685	0.157	0.301
-622.405	68.896	-0.206	-0.214
-621.390	-3.207	0.289	0.204
-620.376	-176.531	-0.257	0.007
-619.361	-39.093	-0.138	-0.074
-618.346	129.525	0.127	-0.165
-617.332	-200.000	0.014	-0.300
-616.317	-200.000	-0.012	-0.219
-615.303	277.800	-0.137	-0.248
-614.288	-200.000	0.030	0.147
-613.273	-200.000	0.030	0.235
-612.259	62.794	-0.171	0.174
-611.244	-73.166	-0.341	-0.127
-610.230	145.454	-0.117	0.159
-609.215	-108.367	0.107	0.023
-608.201	-200.000	-0.031	0.164
-607.186	-91.536	0.263	-0.076
-606.171	197.018	0.171	-0.264
-605.157	800.000	-0.045	0.184
-604.142	260.724	-0.101	-0.176
-603.128	-80.521	0.250	-0.084
-602.113	-82.621	-0.294	-0.097
-601.098	128.809	-0.129	-0.166
-600.084	78.126	-0.153	-0.165
-599.069	251.903	0.049	-0.084
-598.055	800.000	-0.060	-0.189
-597.040	-88.085	0.124	-0.038
-596.025	-38.031	-0.262	0.141
-595.011	122.172	0.139	-0.176
-593.996	308.294	0.058	-0.111
-592.982	118.165	-0.116	-0.145
-591.967	-77.648	0.176	0.062
-590.952	-200.000	0.011	0.178
-589.938	678.009	-0.170	-0.449
-588.923	513.241	0.096	0.226
-587.909	103.409	-0.125	0.149
-586.894	391.239	-0.097	0.204
-585.879	-109.352	-0.129	-0.028
-584.865	19.018	0.264	-0.214
-583.850	-200.000	-0.006	0.198
-582.836	800.000	-0.087	-0.338
-581.821	45.756	-0.065	0.061
-580.806	180.484	0.231	0.343
-579.792	-69.426	0.204	0.079
-578.777	377.227	0.250	0.517
-577.763	800.000	-0.058	0.176
-576.748	237.633	0.027	0.045
-575.733	103.087	-0.201	-0.239
-574.719	18.577	-0.345	-0.279
-573.704	-200.000	-0.033	0.248
-572.690	434.441	-0.070	0.154
-571.675	-200.000	-0.008	0.334
-570.661	-200.000	-0.032	0.459
-569.646	-65.769	0.151	0.061
-568.631	50.187	0.173	0.165
-567.617	-43.100	-0.331	-0.170
-566.602	37.771	0.053	-0.047
-565.588	800.000	-0.027	0.114
-564.573	-73.975	0.131	-0.048
-563.558	-200.000	0.015	0.251
-562.544	-86.271	-0.201	-0.062
-561.529	294.133	0.115	0.212
-560.515	-102.632	-0.083	-0.020
-559.500	-129.772	0.131	-0.018
-558.485	-77.773	-0.226	-0.079
-557.471	259.494	-0.046	-0.080
-556.456	800.000	-0.051	-0.143
-555.442	161.854	0.199	-0.281
-554.427	-60.255	-0.054	-0.023
-553.412	-87.005	-0.075	-0.023
-552.398	68.047	0.248	-0.257
-551.383	-200.000	0.026	-0.241
-550.369	81.758	-0.157	-0.172
-549.354	-200.000	0.004	-0.224
-548.339	-90.221	-0.249	-0.073
-547.325	19.830	-0.087	0.071
-546.310	-200.000	-0.045	-0.248
-545.296	-57.813	0.174	0.077
-544.281	522.681	-0.096	0.227
-543.266	125.710	-0.174	-0.222
-542.252	-49.484	0.305	-0.147
-541.237	61.392	0.058	0.058
-540.223	243.393	0.105	0.177
-539.208	-58.346	0.227	0.100
-538.193	-79.478	0.144	0.049
-537.179	-79.760	0.211	-0.072
-536.164	-132.261	0.152	-0.020
-535.150	-21.740	-0.078	-0.048
-534.135	-200.000	0.064	-0.309
-533.121	-65.773	-0.215	-0.087
-532.106	398.729	0.120	-0.254
-531.091	-200.000	0.049	-0.355
-530.077	-70.226	-0.237	0.091
-529.062	-200.000	-0.005	-0.125
-528.048	-42.012	-0.270	0.140
-527.033	-64.458	-0.153	-0.063
-526.018	161.512	-0.027	0.038
-525.004	579.752	-0.093	0.230
-523.989	3.513	-0.099	-0.073
-522.975	-200.000	-0.020	-0.393
-521.960	-156.485	0.166	0.010
-520.945	224.036	0.019	0.031
-519.931	-123.336	0.098	0.016
-518.916	305.390	-0.028	-0.052
-517.902	-60.973	-0.213	0.091
-516.887	800.000	-0.126	0.364
-515.872	176.417	-0.023	0.034
-514.858	-200.000	0.026	0.149
-513.843	381.676	-0.125	-0.259
-512.829	292.746	-0.077	0.141
-511.814	362.751	-0.026	0.053
-510.799	-117.264	0.220	0.040
-509.785	-6.334	-0.247	-0.170
-508.770	800.000	-0.061	-0.247
-507.756	-122.102	0.103	0.017
-506.741	42.237	-0.048	0.044
-505.726	800.000	0.156	0.478
-504.712	20.892	-0.044	-0.036
-503.697	-135.654	-0.111	0.013
-502.683	-2.425	0.126	0.089
-501.668	-200.000	0.007	-0.329
-500.653	13.479	-0.211	-0.166
-499.639	-200.000	-0.417	-0.001
-498.624	-67.187	0.053	-0.021
-497.610	-200.000	0.048	0.352
-496.595	-103.442	0.349	0.083
-495.581	-153.576	0.252	-0.018
-494.566	69.658	-0.306	-0.318
-493.551	-200.000	0.018	-0.361
-492.537	-200.000	-0.019	0.243
-491.522	-93.957	0.108	0.030
-490.508	67.117	-0.202	-0.208
-489.493	-96.601	0.337	0.090
-488.478	-79.030	-0.355	0.122
-487.464	462.812	-0.134	0.301
-486.449	-59.876	0.299	-0.129
-485.435	319.606	0.020	0.038
-484.420	800.000	0.025	0.095
-483.405	-31.474	0.144	-0.082
-482.391	279.055	-0.152	-0.273
-481.376	-76.621	-0.291	-0.103
-480.362	38.231	-0.226	-0.202
-479.347	36.437	-0.336	-0.299
-478.332	101.002	-0.127	-0.149
-477.318	-84.809	-0.372	0.118
-476.303	28.527	-0.207	0.177
-475.289	-200.000	0.008	0.103
-474.274	800.000	0.017	-0.067
-473.259	-123.738	-0.303	-0.048
-472.245	-200.000	0.072	0.338
-471.230	800.000	0.105	0.354
-470.216	-198.005	0.231	0.001
-469.201	800.000	0.113	-0.332
-468.186	-200.000	-0.062	-0.423
-467.172	46.158	0.223	0.208
-466.157	800.000	0.088	0.315
-465.143	219.328	0.197	0.317
-464.128	-77.422	-0.049	-0.017
-463.113	-200.000	0.028	0.259
-462.099	-94.621	-0.125	-0.034
-461.084	-200.000	0.002	0.021
-460.070	-124.267	0.107	-0.017
-459.055	-200.000	0.075	-0.367
-458.040	22.557	0.034	0.028
-457.026	-95.293	-0.129	0.035
-456.011	-62.144	0.015	-0.006
-454.997	258.557	0.049	-0.085
-453.982	-48.911	0.095	-0.046
-452.968	800.000	-0.092	-0.319
-451.953	-200.000	-0.005	-0.176
-450.938	-200.000	0.005	0.154
-449.924	-200.000	-0.116	0.708
-448.909	334.967	0.023	0.046
-447.895	-132.672	-0.148	-0.019
-446.880	-200.000	0.012	-0.151
-445.865	-200.000	0.016	0.184
-444.851	800.000	0.029	-0.110
-443.836	-80.862	-0.172	-0.058
-442.822	-84.152	-0.254	-0.081
-441.807	-83.915	-0.292	-0.094
-440.792	800.000	0.051	0.196
-439.778	-137.239	0.453	-0.052
-438.763	-200.000	0.007	0.221
-437.749	795.857	0.049	0.136
-436.734	-138.122	0.337	-0.038
-435.719	159.470	0.065	0.092
-434.705	-14.002	0.207	-0.135
-433.690	-73.028	0.046	0.017
-432.676	346.088	-0.147	-0.291
-431.661	220.911	0.086	-0.138
-430.646	-174.840	0.186	-0.005
-429.632	800.000	0.112	0.322
-428.617	-70.110	-0.026	-0.010
-427.603	133.904	-0.123	-0.160
-426.588	-21.284	-0.197	0.121
-425.573	-78.187	-0.188	0.065
-424.559	625.747	0.057	0.144
-423.544	146.174	0.204	0.275
-422.530	-200.000	0.002	-0.025
-421.515	186.031	-0.071	-0.106
-420.500	-83.371	-0.261	0.084
-419.486	671.819	-0.034	0.088
-418.471	-120.485	0.188	-0.032
-417.457	-200.000	-0.003	-0.141
-416.442	258.825	0.148	-0.257
-415.428	800.000	-0.040	0.134
-414.413	-200.000	0.015	0.087
-413.398	-200.000	-0.020	0.178
-412.384	-29.042	-0.083	-0.048
-411.369	-200.000	0.017	-0.253
-410.355	-200.000	-0.017	0.291
-409.340	102.326	0.333	0.391
-408.325	800.000	0.094	0.362
-407.311	91.849	-0.094	-0.106
-406.296	164.534	-0.270	0.383
-405.282	-102.198	-0.205	-0.049
-404.267	-200.000	0.046	0.346
-403.252	-159.089	0.429	0.024
-402.238	800.000	-0.020	0.079
-401.223	-156.151	-0.469	0.030
-400.209	102.718	-0.184	-0.216
-399.194	-200.000	-0.035	-0.380
-398.179	-87.621	-0.277	-0.084
-397.165	-13.865	0.107	-0.069
-396.150	-88.220	0.285	0.086
-395.136	21.430	-0.170	0.139
-394.121	-200.000	-0.036	0.199
-393.106	-99.384	-0.221	-0.056
-392.092	292.610	-0.090	0.165
-391.077	8.210	-0.115	-0.087
-390.063	47.156	-0.216	-0.202
-389.048	-200.000	0.062	-0.304
-388.033	-141.771	-0.348	-0.035
-387.019	242.494	-0.069	-0.117
-386.004	-200.000	0.305	-0.001
-384.990	-200.000	-0.038	-0.390
-383.975	-135.747	0.201	-0.024
-382.960	-76.173	0.194	0.069
-381.946	-179.676	0.255	-0.006
-380.931	-60.445	-0.010	-0.004
-379.917	208.259	-0.132	0.207
-378.902	468.504	0.079	0.178
-377.888	-77.263	0.209	-0.073
-376.873	-75.193	-0.139	-0.050
-375.858	166.313	-0.018	-0.026
-374.844	-127.844	0.239	-0.035
-373.829	117.352	0.122	-0.151
-372.815	314.564	0.043	0.081
-371.800	76.640	0.307	-0.327
-370.785	42.413	0.121	0.110
-369.771	-200.000	-0.029	0.218
-368.756	-200.000	-0.037	0.401
-367.742	-81.470	-0.179	-0.059
-366.727	-24.936	-0.067	0.040
-365.712	125.564	0.046	0.058
-364.698	451.880	0.061	0.135
-363.683	-2.510	0.040	-0.028
-362.669	500.701	-0.054	0.125
-361.654	-200.000	0.010	0.189
-360.639	800.000	-0.123	-0.359
-359.625	244.619	0.143	0.241
-358.610	-200.000	0.020	0.237
-357.596	-75.677	0.038	0.014
-356.581	248.929	-0.173	-0.294
-355.566	800.000	0.024	-0.080
-354.552	122.324	0.116	0.145
-353.537	288.354	-0.132	-0.239
-352.523	609.568	0.099	0.247
-351.508	800.000	0.054	-0.158
-350.493	-101.005	-0.188	-0.046
-349.479	32.898	0.113	0.098
-348.464	800.000	0.077	0.263
-347.450	126.407	0.121	0.154
-346.435	18.076	0.069	-0.055
-345.420	80.114	0.072	-0.077
-344.406	73.979	0.163	-0.171
-343.391	143.434	0.167	-0.223
-342.377	175.347	0.170	-0.247
-341.362	249.561	-0.120	-0.204
-340.348	-200.000	-0.040	0.190
-339.333	93.597	-0.019	-0.021
-338.318	293.336	-0.130	0.238
-337.304	-49.565	-0.257	-0.123
-336.289	-200.000	0.031	-0.301
-335.275	-114.323	0.294	-0.057
-334.260	-200.000	-0.013	-0.117
-333.245	474.936	-0.034	0.076
-332.231	-41.658	0.089	-0.046
-331.216	800.000	-0.064	0.252
-330.202	106.732	0.164	-0.196
-329.187	37.007	-0.042	-0.037
-328.172	341.302	-0.194	0.379
-327.158	-3.541	0.220	0.153
-326.143	203.018	-0.100	-0.155
-325.129	22.816	-0.121	-0.099
-324.114	-200.000	0.016	0.432
-323.099	-78.894	0.286	-0.097
-322.085	-35.684	-0.159	-0.087
-321.070	-200.000	0.059	-0.429
-320.056	-62.130	0.176	-0.074
-319.041	-143.208	-0.230	-0.022
-318.026	52.748	-0.074	0.071
-317.012	-155.896	-0.080	-0.005
-315.997	274.163	0.105	-0.185
-314.983	800.000	0.014	-0.051
-313.968	37.656	-0.210	-0.186
-312.953	130.007	-0.153	0.196
-311.939	251.844	-0.051	0.086
-310.924	-200.000	-0.028	-0.239
-309.910	167.958	-0.104	-0.149
-308.895	19.387	0.091	-0.073
-307.880	169.965	-0.101	0.144
-306.866	-170.323	-0.179	0.006
-305.851	261.725	0.138	-0.240
-304.837	430.792	0.043	-0.092
-303.822	65.375	-0.209	-0.211
-302.807	-55.580	-0.385	-0.173
-301.793	-24.411	0.115	0.069
-300.778	-29.251	0.063	-0.036
-299.764	-200.000	0.010	0.196
-298.749	-200.000	0.020	-0.268
-297.735	-144.078	-0.031	-0.003
-296.720	-58.348	0.239	-0.104
-295.705	87.547	-0.247	0.273
-294.691	-200.000	0.026	-0.150
-293.676	-200.000	-0.022	-0.256
-292.662	800.000	-0.029	-0.103
-291.647	111.379	0.044	0.053
-290.632	-200.000	-0.048	0.358
-289.618	-43.045	0.211	0.107
-288.603	-144.640	0.091	-0.008
-287.589	-19.264	-0.083	-0.052
-286.574	603.002	0.191	-0.475
-285.559	-200.000	0.006	0.166
-284.545	-54.875	-0.171	-0.077
-283.530	37.279	0.176	0.156
-282.516	40.477	-0.239	0.215
-281.501	-200.000	0.022	-0.147
-280.486	800.000	0.057	0.218
-279.472	204.738	-0.194	0.301
-278.457	-112.602	0.087	0.017
-277.443	-200.000	0.028	0.137
-276.428	0.840	-0.185	-0.133
-275.413	38.901	0.107	-0.096
-274.399	132.717	0.055	0.071
-273.384	112.248	0.229	0.277
-272.370	-14.974	0.187	-0.120
-271.355	484.977	0.107	0.243
-270.340	369.730	-0.160	0.323
-269.326	-100.229	-0.224	0.056
-268.311	446.408	0.103	0.227
-267.297	-123.610	0.445	0.071
-266.282	374.593	-0.117	-0.239
-265.267	-130.806	-0.036	-0.005
-264.253	261.571	0.094	0.162
-263.238	30.044	0.199	-0.170
-262.224	-200.000	0.009	0.399
-261.209	-121.129	-0.372	0.062
-260.195	298.448	0.102	-0.188
-259.180	42.300	0.160	-0.145
-258.165	1.055	-0.077	-0.056
-257.151	-148.698	0.132	0.011
-256.136	95.341	-0.141	-0.160
-255.122	-28.323	-0.114	0.066
-254.107	-112.832	0.052	0.010
-253.092	-110.378	0.216	-0.045
-252.078	69.843	-0.152	-0.157
-251.063	-93.541	0.376	0.104
-250.049	-71.506	-0.174	0.065
-249.034	-96.894	-0.100	0.026
-248.019	1.022	-0.180	-0.129
-247.005	-200.000	-0.003	-0.071
-245.990	800.000	0.066	-0.218
-244.976	-101.845	0.110	-0.027
-243.961	181.154	-0.164	0.240
-242.946	76.515	0.144	-0.152
-241.932	516.964	0.029	0.067
-240.917	-200.000	0.049	0.484
-239.903	159.200	0.103	0.142
-238.888	-78.847	0.278	0.094
-237.873	800.000	0.166	0.513
-236.859	-70.746	0.261	-0.098
-235.844	127.990	0.115	-0.146
-234.830	368.606	-0.129	-0.260
-233.815	-36.583	-0.065	-0.035
-232.800	-200.000	0.003	0.278
-231.786	-37.798	-0.308	0.163
-230.771	-200.000	-0.001	0.208
-229.757	-200.000	0.012	-0.157
-228.742	9.260	0.389	0.293
-227.727	26.974	-0.026	-0.022
-226.713	-170.053	0.199	-0.007
-225.698	6.350	-0.185	-0.137
-224.684	365.127	0.168	0.337
-223.669	3.706	-0.220	-0.161
-222.655	-77.804	0.105	-0.036
-221.640	800.000	0.032	-0.110
-220.625	-200.000	0.011	-0.056
-219.611	-28.178	0.225	-0.130
-218.596	59.455	-0.127	0.125
-217.582	83.703	-0.045	0.049
-216.567	-19.787	-0.147	0.091
-215.552	-200.000	-0.012	0.099
-214.538	-52.393	-0.256	0.118
-213.523	800.000	-0.051	-0.169
-212.509	800.000	0.073	-0.311
-211.494	22.061	0.098	-0.080
-210.479	800.000	-0.033	-0.098
-209.465	6.218	-0.103	-0.076
-208.450	-179.815	0.182	0.004
-207.436	-200.000	0.034	0.475
-206.421	800.000	0.087	-0.296
-205.406	67.969	0.123	0.126
-204.392	-200.000	0.033	-0.205
-203.377	800.000	0.028	-0.108
-202.363	795.197	-0.037	0.103
-201.348	-77.785	-0.198	-0.068
-200.333	277.077	-0.127	0.224
-199.319	800.000	-0.031	-0.099
-198.304	-200.000	0.062	0.310
-197.290	30.487	0.182	0.155
-196.275	-3.347	-0.068	-0.047
-195.260	-200.000	0.037	-0.381
-194.246	-113.781	-0.115	0.022
-193.231	-200.000	-0.038	0.268
-192.217	-58.467	-0.373	-0.161
-191.202	-200.000	-0.037	-0.184
-190.187	181.377	0.137	0.200
-189.173	45.000	-0.251	0.231
-188.158	138.955	0.057	0.075
-187.144	-54.389	-0.070	0.032
-186.129	-200.000	0.007	-0.316
-185.114	-109.872	-0.141	0.029
-184.100	-200.000	0.015	-0.167
-183.085	-111.326	0.285	0.058
-182.071	48.855	0.146	-0.136
-181.056	-39.662	0.168	0.088
-180.042	662.801	0.008	-0.021
-179.027	-30.606	0.149	0.084
-178.012	290.361	0.159	0.289
-176.998	-60.352	-0.163	0.069
-175.983	-200.000	0.010	0.128
-174.969	667.389	-0.135	-0.347
-173.954	209.232	0.210	-0.327
-172.939	800.000	-0.055	0.158
-171.925	-200.000	-0.105	0.000
-170.910	800.000	0.051	0.146
-169.896	800.000	0.061	0.205
-168.881	59.436	-0.079	-0.078
-167.866	226.747	-0.168	-0.272
-166.852	259.380	0.016	0.027
-165.837	-109.413	0.156	0.033
-164.823	65.817	-0.335	0.338
-163.808	202.144	-0.163	0.251
-162.793	10.323	0.110	0.084
-161.779	-39.317	-0.160	-0.084
-160.764	-115.381	0.285	-0.054
-159.750	-200.000	-0.023	-0.140
-158.735	-19.512	0.120	0.074
-157.720	-200.000	-0.024	-0.131
-156.706	30.560	0.095	-0.081
-155.691	34.183	0.137	0.119
-154.677	-129.841	0.231	-0.032
-153.662	-200.000	0.008	-0.329
-152.647	-141.701	0.119	0.012
-151.633	337.150	0.104	-0.202
-150.618	7.513	0.128	-0.095
-149.604	-114.683	0.135	0.026
-148.589	-165.299	-0.029	-0.001
-147.574	-154.744	0.122	0.008
-146.560	800.000	-0.055	-0.188
-145.545	132.614	0.251	-0.322
-144.531	-200.000	0.016	0.191
-143.516	-112.528	0.548	0.109
-142.502	-74.300	0.262	0.094
-141.487	-187.238	0.223	0.003
-140.472	564.179	0.048	0.115
-139.458	355.837	-0.123	-0.244
-138.443	-200.000	0.017	0.192
-137.429	-200.000	-0.019	-0.227
-136.414	-45.228	-0.231	0.114
-135.399	-26.456	-0.164	0.096
-134.385	-81.924	0.131	0.042
-133.370	-44.166	-0.139	0.069
-132.356	231.190	-0.089	0.145
-131.341	518.496	0.092	0.215
-130.326	-200.000	0.326	0.001
-129.312	-143.376	0.314	-0.030
-128.297	-172.092	-0.150	-0.005
-127.283	216.529	0.184	-0.292
-126.268	-65.030	0.284	0.114
-125.253	-200.000	0.020	-0.406
-124.239	-164.852	-0.121	0.005
-123.224	-146.178	0.204	-0.018
-122.210	-187.796	0.074	-0.001
