DTS Sentinel unit serial number:	SN413079Multiplexer serial number:	ORYXHardware model number:	OX4-SRSoftware version number:	ORYX F/W v4.00 Oryx Data Collector v3.7.2.0data status	okinstallation	princeton_trtdifferential loss correction	single-endedforward channel	channel 4reverse channel	N/Adate	2019/09/11time	10:19:11forward acquisition time	60.00reverse acquisition time	0.00gamma	496.2192k internal	0.2294k external	0.2294temperature offset calibration	0.9972default loss term (dB/km)	0.3790temperature slope calibration	1.0000multiplexer offset coefficient	1.0000multiplexer slope coefficient	1.0000fibre end	0.00T internal ref (°C)	36.06T ext. ref 1 (°C)	0.17T ext. ref 2 (°C)	33.21length (m)	temperature (°C)	Stokes	anti-Stokes-747.200	-70.747	0.244	0.094
-746.185	414.460	-0.072	0.156
-745.171	39.983	0.044	-0.040
-744.156	-200.000	0.012	0.230
-743.142	-54.348	0.163	-0.076
-742.127	-137.607	-0.040	0.005
-741.112	-83.788	-0.131	-0.043
-740.098	-66.864	-0.459	0.185
-739.083	-11.650	0.075	-0.050
-738.069	151.754	0.108	0.151
-737.054	51.961	0.010	0.010
-736.039	800.000	0.066	0.238
-735.025	-200.000	0.000	0.145
-734.010	-83.178	-0.368	0.121
-732.996	141.776	-0.196	-0.266
-731.981	-93.261	0.247	-0.070
-730.966	133.730	-0.108	-0.143
-729.952	56.470	-0.301	0.299
-728.937	-143.532	-0.281	0.027
-727.923	81.237	-0.239	-0.264
-726.908	-200.000	-0.140	-0.000
-725.894	-200.000	-0.004	0.292
-724.879	126.989	-0.105	-0.136
-723.864	-200.000	-0.021	-0.213
-722.850	425.331	-0.033	0.072
-721.835	-200.000	0.010	-0.072
-720.821	-31.065	0.245	0.141
-719.806	-39.180	-0.279	-0.150
-718.791	237.632	-0.113	-0.191
-717.777	800.000	0.052	-0.178
-716.762	382.733	0.087	0.183
-715.748	206.862	-0.091	-0.145
-714.733	-37.345	-0.184	0.101
-713.718	419.502	0.162	-0.354
-712.704	800.000	-0.076	-0.298
-711.689	405.207	-0.121	0.260
-710.675	800.000	0.100	0.297
-709.660	-200.000	-0.003	0.060
-708.645	40.400	0.246	-0.226
-707.631	-200.000	0.010	0.363
-706.616	-35.626	0.098	-0.054
-705.602	-10.776	-0.123	0.083
-704.587	-49.997	-0.181	-0.088
-703.572	61.264	0.098	0.099
-702.558	-61.133	-0.342	0.147
-701.543	800.000	0.043	0.163
-700.529	-200.000	0.015	-0.495
-699.514	-122.247	0.222	0.037
-698.499	-78.984	0.188	-0.065
-697.485	131.112	0.054	0.071
-696.470	32.610	-0.189	0.167
-695.456	5.732	0.178	0.134
-694.441	169.082	0.086	0.125
-693.426	194.532	-0.201	0.311
-692.412	-182.852	0.262	-0.005
-691.397	-60.881	-0.256	0.110
-690.383	800.000	0.041	-0.147
-689.368	21.761	0.073	0.061
-688.354	13.694	0.381	-0.302
-687.339	-120.908	0.112	-0.019
-686.324	0.440	0.072	0.052
-685.310	232.463	-0.145	-0.243
-684.295	194.875	0.147	0.228
-683.281	-138.272	-0.313	-0.035
-682.266	-42.538	-0.155	-0.080
-681.251	-45.607	0.281	0.142
-680.237	-200.000	-0.011	-0.163
-679.222	-200.000	-0.011	0.208
-678.208	9.531	0.072	0.055
-677.193	-125.674	-0.124	0.019
-676.178	-151.779	-0.102	0.008
-675.164	800.000	-0.065	-0.270
-674.149	-94.163	-0.204	-0.057
-673.135	112.231	0.058	-0.072
-672.120	800.000	-0.054	-0.183
-671.105	-133.655	0.055	-0.007
-670.091	355.024	0.117	0.237
-669.076	593.302	-0.020	-0.051
-668.062	47.860	-0.093	0.089
-667.047	663.744	-0.119	0.313
-666.032	-91.350	0.343	0.100
-665.018	-190.751	0.083	-0.001
-664.003	9.262	-0.095	-0.073
-662.989	-23.431	0.198	-0.121
-661.974	783.022	0.154	0.429
-660.959	800.000	-0.051	-0.170
-659.945	100.010	0.188	-0.222
-658.930	-118.406	-0.232	-0.042
-657.916	-17.305	0.193	-0.124
-656.901	163.343	0.184	0.264
-655.886	-69.793	0.373	-0.145
-654.872	203.158	0.085	-0.135
-653.857	-153.101	0.155	0.011
-652.843	487.899	-0.086	-0.199
-651.828	88.916	-0.063	0.072
-650.814	-86.454	0.236	0.074
-649.799	105.672	-0.183	-0.220
-648.784	-20.012	0.130	0.082
-647.770	297.784	-0.084	-0.158
-646.755	78.104	-0.160	-0.174
-645.741	-119.792	-0.114	-0.020
-644.726	-200.000	-0.009	-0.184
-643.711	-91.729	0.140	0.040
-642.697	9.292	-0.170	-0.131
-641.682	301.777	-0.084	0.158
-640.668	-200.000	-0.043	-0.197
-639.653	355.831	0.052	-0.106
-638.638	800.000	0.013	0.059
-637.624	-200.000	-0.011	-0.077
-636.609	11.683	-0.303	0.237
-635.595	42.546	0.139	-0.129
-634.580	-58.759	-0.276	-0.122
-633.565	-200.000	0.033	-0.352
-632.551	173.650	-0.098	-0.144
-631.536	24.064	-0.242	-0.204
-630.522	-20.433	0.088	0.055
-629.507	-44.104	0.197	-0.101
-628.492	-162.472	-0.100	0.005
-627.478	-52.483	0.256	0.121
-626.463	-183.510	-0.726	-0.013
-625.449	-74.516	-0.363	-0.133
-624.434	-200.000	0.003	-0.362
-623.419	-125.265	-0.139	0.022
-622.405	-93.719	-0.099	0.028
-621.390	-38.753	0.273	0.147
-620.376	-200.000	0.071	-0.345
-619.361	145.718	-0.026	0.036
-618.346	-106.415	-0.155	0.035
-617.332	-200.000	-0.022	0.247
-616.317	-57.600	-0.085	0.038
-615.303	65.546	-0.068	-0.070
-614.288	-38.883	-0.089	0.048
-613.273	-200.000	0.034	-0.328
-612.259	800.000	0.007	0.021
-611.244	-57.478	-0.628	-0.280
-610.230	-90.164	-0.239	-0.071
-609.215	19.114	0.395	0.322
-608.201	-147.980	-0.091	-0.008
-607.186	800.000	0.030	-0.128
-606.171	800.000	0.126	-0.403
-605.157	18.758	-0.121	-0.098
-604.142	-101.873	-0.119	-0.029
-603.128	-0.097	-0.255	0.185
-602.113	268.602	0.034	-0.061
-601.098	-200.000	-0.016	0.175
-600.084	320.242	0.147	-0.284
-599.069	326.627	0.032	-0.063
-598.055	257.516	0.150	-0.263
-597.040	800.000	0.111	-0.394
-596.025	-200.000	0.005	0.025
-595.011	800.000	0.043	-0.124
-593.996	-92.275	0.224	0.064
-592.982	800.000	0.025	0.078
-591.967	-38.803	-0.320	0.172
-590.952	-48.795	0.511	-0.249
-589.938	-57.822	0.145	0.065
-588.923	233.437	-0.221	0.369
-587.909	-113.105	-0.103	-0.021
-586.894	-42.195	-0.283	-0.147
-585.879	3.914	0.209	-0.155
-584.865	-200.000	-0.006	0.125
-583.850	271.403	-0.177	-0.317
-582.836	-122.190	0.066	0.011
-581.821	-86.652	-0.289	-0.090
-580.806	44.269	0.268	-0.250
-579.792	-152.936	0.277	-0.020
-578.777	-167.019	-0.309	-0.013
-577.763	410.006	-0.078	-0.167
-576.748	-8.382	-0.072	-0.049
-575.733	-200.000	0.010	-0.113
-574.719	-69.227	0.413	0.161
-573.704	22.036	0.172	0.142
-572.690	-90.392	0.074	-0.022
-571.675	-200.000	-0.024	0.269
-570.661	-128.830	-0.141	0.020
-569.646	-98.606	0.240	-0.062
-568.631	-128.717	-0.352	0.051
-567.617	-7.127	0.063	-0.043
-566.602	159.889	-0.102	0.145
-565.588	59.634	0.135	0.135
-564.573	323.025	0.263	0.508
-563.558	800.000	0.026	-0.091
-562.544	-94.349	0.163	0.045
-561.529	-200.000	0.035	0.297
-560.515	24.462	-0.205	0.172
-559.500	545.856	-0.013	-0.031
-558.485	-200.000	0.008	-0.070
-557.471	88.379	0.107	-0.120
-556.456	71.431	0.034	0.036
-555.442	-84.022	0.355	-0.115
-554.427	-124.540	0.158	0.025
-553.412	-27.529	0.092	0.054
-552.398	41.945	0.249	-0.229
-551.383	-105.487	-0.261	-0.060
-550.369	20.249	0.118	-0.097
-549.354	-48.346	-0.473	0.232
-548.339	322.153	0.212	0.409
-547.325	45.033	0.049	-0.045
-546.310	-103.158	0.014	-0.003
-545.296	-21.576	0.448	-0.277
-544.281	115.106	-0.192	0.237
-543.266	-183.645	-0.204	0.004
-542.252	800.000	-0.087	0.319
-541.237	800.000	0.044	-0.189
-540.223	402.455	-0.158	-0.337
-539.208	-200.000	0.023	-0.196
-538.193	800.000	0.033	0.103
-537.179	64.561	-0.088	0.090
-536.164	-78.807	-0.336	0.116
-535.150	-200.000	-0.012	0.069
-534.135	432.021	-0.107	0.235
-533.121	-15.992	-0.245	0.158
-532.106	800.000	-0.048	-0.177
-531.091	-37.152	-0.168	-0.091
-530.077	60.499	0.037	-0.037
-529.062	-45.522	-0.273	0.137
-528.048	-48.829	0.139	-0.068
-527.033	266.430	-0.117	0.208
-526.018	66.934	-0.123	0.127
-525.004	614.636	0.064	0.163
-523.989	-34.397	-0.476	-0.264
-522.975	800.000	-0.043	0.165
-521.960	21.424	0.169	-0.140
-520.945	-200.000	-0.021	0.179
-519.931	22.261	-0.040	-0.033
-518.916	-144.172	0.467	-0.044
-517.902	221.672	-0.157	-0.255
-516.887	415.434	-0.099	-0.214
-515.872	800.000	0.091	-0.310
-514.858	-118.373	-0.371	-0.067
-513.843	81.552	0.213	0.234
-512.829	-200.000	0.027	-0.247
-511.814	103.269	-0.037	0.044
-510.799	-113.235	-0.095	0.019
-509.785	618.555	0.046	-0.118
-508.770	336.674	0.104	-0.206
-507.756	-81.253	0.018	0.006
-506.741	229.994	-0.063	0.104
-505.726	-10.218	-0.176	0.118
-504.712	207.800	0.096	0.153
-503.697	454.063	-0.175	0.391
-502.683	13.720	0.234	0.184
-501.668	56.907	0.237	-0.234
-500.653	18.891	-0.523	-0.425
-499.639	-89.753	0.176	-0.052
-498.624	800.000	-0.075	0.231
-497.610	-39.428	0.109	-0.058
-496.595	-6.873	0.261	-0.180
-495.581	51.118	-0.114	-0.109
-494.566	754.844	0.047	0.129
-493.551	-200.000	0.037	0.372
-492.537	-57.399	-0.092	0.041
-491.522	-72.085	-0.261	-0.098
-490.508	-200.000	-0.023	0.412
-489.493	800.000	-0.067	0.213
-488.478	-200.000	0.043	-0.266
-487.464	23.705	-0.162	-0.135
-486.449	411.824	-0.074	0.160
-485.435	800.000	0.080	0.295
-484.420	23.298	0.251	-0.209
-483.405	89.522	-0.122	0.138
-482.391	316.607	0.057	0.109
-481.376	-200.000	0.002	-0.159
-480.362	736.722	0.048	-0.129
-479.347	-119.367	-0.302	-0.053
-478.332	226.652	-0.021	0.034
-477.318	-0.943	-0.144	-0.103
-476.303	152.068	-0.121	0.167
-475.289	-160.664	0.150	0.008
-474.274	36.333	0.171	-0.152
-473.259	31.671	0.097	0.084
-472.245	-117.917	0.486	-0.088
-471.230	632.497	-0.043	-0.111
-470.216	-39.956	-0.176	0.093
-469.201	38.196	0.112	-0.101
-468.186	-52.809	0.198	-0.092
-467.172	23.454	-0.260	0.216
-466.157	-200.000	0.024	0.135
-465.143	-73.700	-0.150	0.055
-464.128	-200.000	0.019	-0.145
-463.113	528.431	0.057	-0.135
-462.099	800.000	0.040	-0.114
-461.084	800.000	0.046	0.163
-460.070	705.840	-0.155	-0.415
-459.055	213.804	-0.122	-0.196
-458.040	186.035	0.113	0.169
-457.026	37.553	-0.229	0.206
-456.011	-118.231	-0.150	0.027
-454.997	-42.685	0.223	-0.115
-453.982	483.265	0.030	-0.069
-452.968	-28.773	0.163	-0.095
-451.953	156.033	0.090	0.125
-450.938	76.356	-0.131	-0.141
-449.924	289.790	-0.073	-0.133
-448.909	-55.879	0.335	0.151
-447.895	-19.374	0.416	-0.261
-446.880	262.944	-0.125	0.220
-445.865	-178.461	0.279	-0.007
-444.851	-169.226	-0.332	0.012
-443.836	115.649	0.082	0.101
-442.822	800.000	-0.043	0.152
-441.807	-56.266	0.189	-0.085
-440.792	127.873	0.149	-0.191
-439.778	-138.242	-0.153	-0.017
-438.763	-136.244	0.095	0.011
-437.749	-200.000	0.005	0.164
-436.734	110.011	-0.170	0.206
-435.719	4.614	-0.080	0.059
-434.705	-79.565	-0.081	-0.027
-433.690	800.000	0.068	0.193
-432.676	-12.749	-0.249	-0.164
-431.661	-56.134	0.232	-0.104
-430.646	-81.785	-0.552	0.183
-429.632	-200.000	0.010	-0.080
-428.617	-200.000	0.001	0.233
-427.603	-200.000	0.029	-0.185
-426.588	768.077	-0.051	-0.140
-425.573	-34.575	-0.167	0.093
-424.559	16.509	0.114	-0.091
-423.544	-103.952	0.150	-0.035
-422.530	-181.445	0.124	0.002
-421.515	-200.000	-0.036	0.198
-420.500	-52.692	-0.261	-0.121
-419.486	-84.534	-0.139	-0.044
-418.471	52.243	0.151	-0.145
-417.457	800.000	-0.012	0.042
-416.442	-52.076	0.205	0.096
-415.428	71.164	0.100	-0.105
-414.413	-200.000	-0.028	-0.301
-413.398	-200.000	-0.012	-0.650
-412.384	-25.958	0.248	-0.147
-411.369	-131.889	-0.241	-0.032
-410.355	18.702	-0.167	0.135
-409.340	-55.004	-0.036	0.016
-408.325	433.793	0.043	-0.094
-407.311	-200.000	-0.000	-0.088
-406.296	138.057	0.100	-0.133
-405.282	-29.533	-0.197	0.114
-404.267	-200.000	-0.020	-0.236
-403.252	80.311	-0.120	0.130
-402.238	98.539	0.024	-0.027
-401.223	234.523	0.061	-0.102
-400.209	98.631	0.050	0.058
-399.194	300.479	0.137	-0.254
-398.179	222.037	0.103	-0.167
-397.165	-200.000	0.021	0.225
-396.150	199.808	-0.042	0.065
-395.136	800.000	0.026	0.104
-394.121	-10.332	0.237	0.159
-393.106	-113.743	-0.222	0.044
-392.092	125.993	-0.052	-0.066
-391.077	-200.000	-0.005	0.360
-390.063	202.598	0.109	-0.169
-389.048	-10.291	0.208	0.139
-388.033	-67.182	0.532	0.211
-387.019	211.413	0.121	0.192
-386.004	113.281	0.217	0.265
-384.990	-183.539	-0.179	0.003
-383.975	-64.184	0.108	-0.044
-382.960	31.536	-0.117	-0.102
-381.946	212.794	-0.113	0.180
-380.931	800.000	0.047	0.159
-379.917	-16.449	0.192	-0.122
-378.902	800.000	-0.044	0.185
-377.888	-46.923	-0.128	-0.063
-376.873	34.897	0.014	-0.013
-375.858	-84.123	-0.220	0.070
-374.844	-200.000	-0.004	0.050
-373.829	-200.000	0.011	0.060
-372.815	25.379	0.201	-0.169
-371.800	-86.522	0.255	0.079
-370.785	-185.378	-0.172	0.003
-369.771	350.219	-0.121	0.241
-368.756	-139.504	0.402	-0.043
-367.742	-65.995	0.429	0.172
-366.727	28.034	0.247	-0.210
-365.712	-43.658	-0.182	0.092
-364.698	-13.059	0.088	-0.058
-363.683	-150.070	-0.211	0.017
-362.669	800.000	0.057	-0.198
-361.654	290.572	0.080	0.146
-360.639	102.133	-0.222	0.261
-359.625	-141.126	0.211	0.022
-358.610	800.000	0.085	-0.251
-357.596	800.000	-0.065	0.204
-356.581	112.811	0.124	-0.151
-355.566	232.270	0.045	0.074
-354.552	93.800	-0.168	-0.192
-353.537	36.969	-0.054	0.048
-352.523	53.306	0.209	-0.202
-351.508	-200.000	0.042	0.472
-350.493	800.000	-0.031	-0.114
-349.479	-51.248	0.220	-0.104
-348.464	-200.000	-0.034	-0.291
-347.450	-156.774	0.228	0.014
-346.435	9.151	-0.052	0.040
-345.420	-200.000	-0.018	-0.089
-344.406	27.293	0.225	-0.191
-343.391	-200.000	0.091	-0.417
-342.377	-104.380	-0.205	-0.048
-341.362	497.323	-0.061	-0.141
-340.348	-200.000	-0.030	-0.191
-339.333	5.056	0.196	-0.145
-338.318	78.381	0.046	0.050
-337.304	-200.000	0.008	-0.260
-336.289	104.646	-0.136	0.161
-335.275	-147.300	0.169	0.014
-334.260	-200.000	0.021	0.279
-333.245	-142.387	0.040	-0.004
-332.231	800.000	0.038	0.151
-331.216	-14.815	-0.131	0.085
-330.202	-200.000	0.043	0.334
-329.187	-200.000	-0.046	0.337
-328.172	41.720	-0.201	-0.183
-327.158	800.000	0.116	0.353
-326.143	-61.750	0.209	0.088
-325.129	-159.611	-0.081	-0.005
-324.114	-200.000	0.002	0.098
-323.099	-90.584	0.279	0.081
-322.085	-200.000	0.023	-0.131
-321.070	210.733	0.042	0.067
-320.056	28.281	-0.236	0.201
-319.041	-75.521	-0.042	-0.015
-318.026	59.857	0.158	0.157
-317.012	-189.260	-0.132	0.002
-315.997	800.000	0.048	0.161
-314.983	-133.761	0.203	0.025
-313.968	6.511	-0.202	-0.151
-312.953	10.435	-0.042	-0.032
-311.939	638.696	0.039	0.100
-310.924	-104.157	-0.205	-0.048
-309.910	375.932	-0.128	-0.263
-308.895	59.484	0.278	-0.276
-307.880	-200.000	-0.057	0.279
-306.866	-31.042	-0.119	0.067
-305.851	-17.632	-0.122	0.077
-304.837	268.325	-0.100	0.177
-303.822	-200.000	-0.069	0.378
-302.807	209.882	-0.047	-0.073
-301.793	-200.000	-0.035	0.254
-300.778	-37.219	-0.281	-0.151
-299.764	800.000	-0.037	0.161
-298.749	-87.793	-0.183	-0.056
-297.735	244.029	-0.111	0.187
-296.720	-136.616	-0.057	0.007
-295.705	-200.000	-0.009	-0.183
-294.691	30.948	-0.111	0.096
-293.676	-200.000	0.054	0.323
-292.662	800.000	-0.071	0.236
-291.647	-28.824	-0.070	0.040
-290.632	-200.000	-0.042	0.266
-289.618	1.945	0.113	-0.082
-288.603	-200.000	0.189	0.001
-287.589	34.100	-0.146	0.128
-286.574	35.068	0.112	-0.099
-285.559	189.630	0.046	-0.070
-284.545	485.419	0.062	0.141
-283.530	-78.710	-0.218	0.075
-282.516	564.745	-0.107	0.262
-281.501	-200.000	-0.009	0.076
-280.486	279.635	0.143	0.256
-279.472	-35.797	0.138	0.075
-278.457	797.580	-0.074	0.204
-277.443	420.389	-0.003	-0.006
-276.428	-34.529	-0.244	-0.134
-275.413	270.096	0.100	0.177
-274.399	232.305	0.030	0.049
-273.384	198.474	0.164	0.252
-272.370	-200.000	-0.020	0.183
-271.355	37.821	-0.201	0.179
-270.340	240.051	-0.181	-0.302
-269.326	-200.000	-0.038	-0.204
-268.311	73.283	-0.154	-0.161
-267.297	245.642	-0.131	-0.222
-266.282	-87.658	-0.286	-0.087
-265.267	-200.000	0.026	-0.292
-264.253	-147.495	0.321	0.027
-263.238	385.515	-0.053	0.109
-262.224	-106.385	0.125	-0.028
-261.209	-119.658	-0.310	-0.054
-260.195	-53.363	-0.096	-0.044
-259.180	-66.345	-0.086	-0.034
-258.165	26.360	-0.091	-0.076
-257.151	313.983	0.115	0.217
-256.136	800.000	-0.004	-0.012
-255.122	-0.789	-0.131	0.093
-254.107	-103.341	-0.193	0.046
-253.092	-55.761	0.157	0.071
-252.078	189.246	0.071	-0.107
-251.063	-200.000	0.009	-0.112
-250.049	94.698	-0.045	-0.052
-249.034	83.672	0.064	0.070
-248.019	-84.019	0.112	-0.036
-247.005	150.571	-0.042	0.057
-245.990	-200.000	0.036	-0.337
-244.976	23.876	0.124	0.102
-243.961	-52.270	-0.098	0.045
-242.946	-12.887	0.113	-0.074
-241.932	-125.418	0.181	0.028
-240.917	-50.413	0.096	0.046
-239.903	-76.984	-0.390	0.137
-238.888	-80.104	0.207	0.070
-237.873	-200.000	0.004	0.063
-236.859	-42.031	-0.189	-0.097
-235.844	31.686	-0.193	0.166
-234.830	250.633	-0.159	0.271
-233.815	-12.629	0.221	-0.145
-232.800	114.787	-0.149	0.182
-231.786	480.584	0.019	-0.044
-230.771	75.437	-0.135	-0.143
-229.757	-85.983	0.177	-0.055
-228.742	800.000	0.145	0.488
-227.727	122.351	-0.279	0.349
-226.713	-112.956	0.190	-0.038
-225.698	-127.283	-0.065	0.010
-224.684	-11.601	0.170	0.112
-223.669	-77.446	0.190	0.066
-222.655	-41.456	-0.036	-0.019
-221.640	-3.436	0.202	-0.141
-220.625	234.459	-0.034	-0.057
-219.611	9.289	0.257	0.195
-218.596	-89.449	0.218	0.064
-217.582	-0.124	-0.190	0.135
-216.567	-12.789	-0.307	0.200
-215.552	-185.513	0.198	-0.003
-214.538	102.258	0.197	-0.230
-213.523	-132.230	0.260	0.034
-212.509	133.952	0.152	-0.197
-211.494	-200.000	0.005	0.167
-210.479	-113.760	0.121	-0.024
-209.465	-30.053	0.418	-0.238
-208.450	-200.000	-0.012	-0.133
-207.436	-200.000	-0.025	0.141
-206.421	542.808	0.128	0.305
-205.406	-58.314	-0.249	0.109
-204.392	800.000	-0.017	-0.073
-203.377	-49.818	0.101	0.048
-202.363	176.670	0.096	0.140
-201.348	-200.000	0.014	-0.124
-200.333	324.461	0.123	0.235
-199.319	3.552	-0.243	-0.178
-198.304	-32.922	-0.249	0.138
-197.290	38.663	0.252	0.225
-196.275	-149.557	-0.126	-0.010
-195.260	800.000	-0.039	0.119
-194.246	800.000	0.028	0.101
-193.231	-90.933	-0.245	-0.071
-192.217	189.435	0.254	-0.381
-191.202	-101.146	-0.087	-0.021
-190.187	800.000	-0.016	0.047
-189.173	64.390	-0.201	-0.203
-188.158	-123.644	0.114	-0.018
-187.144	61.018	0.212	-0.210
-186.129	-97.574	0.200	0.052
-185.114	-154.238	0.203	-0.014
-184.100	-115.418	-0.112	0.021
-183.085	-200.000	-0.002	-0.374
-182.071	14.334	0.124	-0.097
-181.056	-82.610	-0.058	0.019
-180.042	-105.435	0.119	0.027
-179.027	57.520	0.091	-0.089
-178.012	-200.000	0.014	-0.071
-176.998	-0.025	0.114	0.081
-175.983	-72.191	-0.065	0.024
-174.969	-200.000	-0.034	-0.329
-173.954	-158.422	-0.292	-0.017
-172.939	-33.221	-0.280	-0.155
-171.925	145.840	0.132	0.177
-170.910	800.000	0.043	-0.156
-169.896	202.504	0.124	0.191
-168.881	41.637	0.129	-0.117
-167.866	-8.959	0.140	-0.094
-166.852	-58.471	-0.083	-0.036
-165.837	104.330	0.081	-0.096
-164.823	421.256	0.038	-0.081
-163.808	-94.106	0.179	-0.049
-162.793	23.215	0.041	-0.033
-161.779	110.318	0.029	-0.034
-160.764	72.031	0.070	-0.073
-159.750	-22.287	0.194	-0.117
-158.735	60.583	0.133	-0.132
-157.720	-166.747	0.104	0.004
-156.706	301.173	-0.040	0.074
-155.691	247.387	-0.089	0.150
-154.677	176.444	0.147	-0.214
-153.662	-61.899	-0.396	-0.166
-152.647	800.000	0.054	0.192
-151.633	-200.000	-0.034	0.274
-150.618	-150.651	0.271	-0.021
-149.604	-29.121	-0.284	-0.163
-148.589	-200.000	-0.014	-0.136
-147.574	-95.606	0.094	0.025
-146.560	285.539	-0.057	0.103
-145.545	63.668	0.072	0.072
-144.531	800.000	-0.038	-0.148
-143.516	139.346	-0.219	0.287
-142.502	-200.000	-0.006	0.059
-141.487	-45.745	-0.017	-0.008
-140.472	-200.000	-0.009	0.208
-139.458	-138.692	0.166	0.018
-138.443	800.000	-0.013	0.049
-137.429	-99.241	-0.118	0.030
-136.414	-104.651	-0.079	0.018
-135.399	292.987	0.091	0.166
-134.385	44.967	-0.326	0.300
-133.370	39.531	0.133	0.119
-132.356	-94.425	-0.158	-0.043
-131.341	-151.198	-0.242	0.018
-130.326	20.161	0.097	-0.078
-129.312	-95.715	0.192	0.051
-128.297	-80.213	-0.102	-0.034
-127.283	-155.675	0.519	0.033
-126.268	114.621	0.141	0.171
-125.253	-140.617	-0.224	-0.023
-124.239	-130.196	0.169	0.023
-123.224	103.801	0.283	0.332
-122.210	564.153	0.100	0.243
-121.195	-24.211	0.254	0.152
-120.180	424.382	-0.102	-0.220
