DTS Sentinel unit serial number:	SN413079Multiplexer serial number:	ORYXHardware model number:	OX4-SRSoftware version number:	ORYX F/W v4.00 Oryx Data Collector v3.7.2.0data status	okinstallation	princeton_trtdifferential loss correction	single-endedforward channel	channel 4reverse channel	N/Adate	2019/09/11time	03:15:10forward acquisition time	60.00reverse acquisition time	0.00gamma	496.2192k internal	0.2317k external	0.2317temperature offset calibration	0.9943default loss term (dB/km)	0.3790temperature slope calibration	1.0000multiplexer offset coefficient	1.0000multiplexer slope coefficient	1.0000fibre end	0.00T internal ref (°C)	29.37T ext. ref 1 (°C)	-0.29T ext. ref 2 (°C)	24.04length (m)	temperature (°C)	Stokes	anti-Stokes-747.200	146.988	0.155	-0.211
-746.185	-120.669	-0.410	-0.070
-745.171	-26.253	0.150	-0.089
-744.156	158.159	0.352	0.495
-743.142	-200.000	0.062	-0.429
-742.127	-48.244	-0.045	-0.022
-741.112	31.395	0.220	-0.191
-740.098	800.000	0.132	0.520
-739.083	-66.294	0.324	0.131
-738.069	-154.866	-0.141	-0.009
-737.054	6.959	0.397	-0.300
-736.039	51.247	-0.081	-0.078
-735.025	-121.601	0.261	0.044
-734.010	-200.000	0.019	-0.315
-732.996	-175.652	-0.348	0.009
-731.981	54.586	0.112	-0.109
-730.966	307.373	-0.078	-0.148
-729.952	2.203	-0.208	0.152
-728.937	800.000	-0.090	-0.291
-727.923	-97.271	0.131	0.034
-726.908	138.698	-0.170	-0.226
-725.894	20.521	0.119	-0.098
-724.879	-58.884	-0.292	-0.128
-723.864	82.847	-0.281	-0.309
-722.850	142.840	0.113	0.152
-721.835	152.597	0.268	-0.370
-720.821	516.338	0.127	-0.301
-719.806	-200.000	-0.025	0.346
-718.791	187.879	-0.257	0.389
-717.777	-54.591	-0.291	0.133
-716.762	-200.000	0.031	0.365
-715.748	-79.175	-0.237	-0.081
-714.733	295.774	0.035	-0.065
-713.718	49.015	-0.193	0.184
-712.704	-108.408	-0.199	0.043
-711.689	295.159	0.034	-0.063
-710.675	103.348	0.147	-0.175
-709.660	800.000	0.042	-0.147
-708.645	-16.454	-0.155	-0.099
-707.631	-200.000	-0.009	-0.183
-706.616	-21.841	0.133	0.082
-705.602	-19.168	0.416	-0.261
-704.587	166.499	-0.200	0.286
-703.572	-185.205	-0.090	-0.001
-702.558	442.990	-0.059	0.131
-701.543	70.959	-0.252	-0.264
-700.529	307.286	-0.098	-0.185
-699.514	800.000	-0.056	0.188
-698.499	-69.822	-0.105	-0.041
-697.485	-78.504	-0.239	0.083
-696.470	215.080	-0.171	0.274
-695.456	31.786	-0.345	0.300
-694.441	78.669	-0.311	-0.336
-693.426	161.258	0.133	-0.188
-692.412	-150.283	0.373	0.029
-691.397	-112.860	-0.139	0.028
-690.383	800.000	0.071	0.289
-689.368	-18.667	-0.356	-0.224
-688.354	-110.798	-0.354	0.074
-687.339	155.480	0.158	0.219
-686.324	213.120	0.220	-0.351
-685.310	-141.036	-0.554	0.057
-684.295	-90.368	-0.245	0.072
-683.281	-115.515	0.142	-0.027
-682.266	800.000	-0.044	0.186
-681.251	137.253	-0.342	-0.452
-680.237	-117.065	0.390	0.072
-679.222	-73.242	-0.139	-0.051
-678.208	-200.000	0.019	-0.133
-677.193	431.371	0.120	0.262
-676.178	-23.136	0.106	-0.064
-675.164	-124.816	-0.056	-0.009
-674.149	800.000	-0.059	0.181
-673.135	19.360	-0.131	0.106
-672.120	378.511	0.112	0.232
-671.105	-110.044	-0.209	-0.044
-670.091	148.109	0.086	0.117
-669.076	248.261	-0.121	-0.207
-668.062	-97.830	-0.378	-0.099
-667.047	-12.913	0.234	0.154
-666.032	800.000	0.077	-0.278
-665.018	473.130	-0.057	-0.131
-664.003	162.339	0.116	-0.164
-662.989	-200.000	-0.001	0.222
-661.974	-200.000	0.008	-0.099
-660.959	307.041	-0.064	0.120
-659.945	-75.806	-0.171	-0.061
-658.930	-200.000	0.011	0.119
-657.916	-159.469	-0.282	-0.016
-656.901	134.193	0.331	-0.432
-655.886	-200.000	-0.013	0.263
-654.872	410.060	-0.100	-0.214
-653.857	658.287	-0.110	-0.285
-652.843	-200.000	-0.034	-0.240
-651.828	132.726	0.035	-0.045
-650.814	294.535	-0.065	0.121
-649.799	119.448	-0.075	-0.094
-648.784	-136.938	-0.181	0.021
-647.770	-13.288	-0.066	0.043
-646.755	12.579	-0.116	-0.090
-645.741	88.899	0.218	0.245
-644.726	-140.448	0.303	-0.032
-643.711	-72.863	0.155	0.058
-642.697	-200.000	-0.010	0.194
-641.682	27.479	-0.116	-0.099
-640.668	201.673	0.200	0.310
-639.653	-63.445	-0.523	-0.217
-638.638	-101.474	-0.196	-0.048
-637.624	389.790	-0.110	-0.230
-636.609	-200.000	0.002	0.032
-635.595	-107.282	0.132	0.029
-634.580	435.623	-0.212	-0.464
-633.565	259.897	-0.061	-0.106
-632.551	285.313	-0.078	-0.142
-631.536	-89.594	-0.101	0.030
-630.522	61.794	0.245	0.246
-629.507	-192.337	-0.186	-0.002
-628.492	185.758	-0.043	-0.064
-627.478	800.000	0.035	0.101
-626.463	-200.000	-0.032	0.153
-625.449	-200.000	0.019	-0.152
-624.434	-163.741	0.246	-0.012
-623.419	-113.250	-0.268	0.053
-622.405	46.978	0.076	-0.072
-621.390	84.094	-0.131	-0.144
-620.376	201.500	-0.122	-0.189
-619.361	-67.988	0.161	-0.063
-618.346	800.000	-0.091	-0.356
-617.332	50.257	-0.074	-0.070
-616.317	-48.382	0.111	-0.054
-615.303	-73.175	0.401	-0.148
-614.288	-8.183	-0.060	0.041
-613.273	440.140	0.093	-0.204
-612.259	-170.673	0.189	0.007
-611.244	800.000	-0.116	-0.392
-610.230	759.069	0.036	-0.097
-609.215	-69.479	-0.323	0.125
-608.201	352.743	0.073	0.146
-607.186	-33.806	0.339	0.188
-606.171	97.216	0.170	0.196
-605.157	200.344	0.279	-0.432
-604.142	119.538	-0.155	0.193
-603.128	535.553	0.039	0.094
-602.113	-106.801	0.213	0.048
-601.098	-13.618	0.249	0.162
-600.084	800.000	0.032	-0.098
-599.069	-114.563	0.340	0.066
-598.055	-8.427	0.119	-0.081
-597.040	-176.911	0.314	-0.008
-596.025	641.852	-0.076	0.196
-595.011	800.000	0.118	-0.401
-593.996	-120.489	-0.104	-0.018
-592.982	-109.396	0.331	-0.071
-591.967	800.000	-0.052	-0.149
-590.952	16.552	-0.251	-0.200
-589.938	-96.878	0.139	-0.037
-588.923	694.824	0.034	-0.088
-587.909	-107.171	0.181	0.040
-586.894	190.383	-0.236	0.356
-585.879	-138.665	0.108	0.012
-584.865	800.000	0.012	0.048
-583.850	-133.434	0.207	-0.026
-582.836	-98.228	-0.153	-0.040
-581.821	99.950	0.091	0.106
-580.806	-200.000	-0.028	-0.249
-579.792	26.753	0.148	-0.125
-578.777	-200.000	0.030	0.180
-577.763	119.783	0.144	-0.179
-576.748	179.235	0.003	-0.005
-575.733	102.655	-0.100	-0.118
-574.719	38.172	-0.205	-0.184
-573.704	139.209	0.106	-0.140
-572.690	-200.000	-0.073	0.369
-571.675	250.719	0.181	0.309
-570.661	-200.000	0.012	0.095
-569.646	-95.118	-0.291	-0.079
-568.631	-26.767	0.271	-0.159
-567.617	-68.909	0.376	0.146
-566.602	68.357	0.098	0.101
-565.588	-166.165	-0.276	-0.012
-564.573	224.753	-0.086	-0.139
-563.558	-51.562	0.301	0.141
-562.544	-112.232	0.230	0.046
-561.529	197.510	-0.108	0.166
-560.515	263.861	0.122	-0.213
-559.500	-94.105	-0.315	-0.087
-558.485	22.554	0.090	0.074
-557.471	-106.753	0.206	0.046
-556.456	-177.689	-0.134	-0.003
-555.442	-163.696	0.124	-0.006
-554.427	275.213	-0.099	-0.177
-553.412	-54.642	0.099	-0.045
-552.398	494.242	0.016	0.038
-551.383	18.278	-0.109	-0.088
-550.369	-68.803	-0.133	0.052
-549.354	-200.000	0.011	-0.145
-548.339	80.379	-0.206	-0.223
-547.325	102.636	-0.082	0.097
-546.310	133.772	-0.081	-0.106
-545.296	-27.947	-0.102	-0.060
-544.281	-18.756	-0.149	-0.094
-543.266	800.000	-0.092	-0.280
-542.252	-200.000	0.003	-0.288
-541.237	-158.274	0.416	-0.024
-540.223	714.277	-0.040	-0.105
-539.208	524.370	-0.146	-0.345
-538.193	147.125	-0.095	-0.129
-537.179	341.540	0.174	0.342
-536.164	38.353	0.038	0.034
-535.150	-101.916	-0.227	0.055
-534.135	-150.240	-0.376	0.029
-533.121	-200.000	-0.012	0.095
-532.106	33.473	0.057	0.050
-531.091	97.127	0.110	0.127
-530.077	-200.000	-0.047	0.211
-529.062	647.069	0.105	0.270
-528.048	-148.020	-0.171	0.014
-527.033	-200.000	-0.010	0.151
-526.018	68.193	0.211	-0.217
-525.004	800.000	-0.013	0.040
-523.989	281.510	0.084	0.152
-522.975	7.668	0.189	0.142
-521.960	111.667	0.087	0.105
-520.945	-78.019	-0.148	-0.051
-519.931	9.419	0.103	-0.078
-518.916	20.874	-0.143	0.116
-517.902	-146.243	0.369	0.032
-516.887	-200.000	0.017	0.126
-515.872	83.028	-0.086	-0.093
-514.858	125.605	-0.140	0.178
-513.843	27.113	0.076	0.064
-512.829	19.993	-0.306	0.247
-511.814	199.056	-0.124	0.190
-510.799	120.410	0.052	0.065
-509.785	-185.716	-0.551	0.008
-508.770	122.526	0.020	0.025
-507.756	625.937	0.033	-0.083
-506.741	-182.852	0.250	0.005
-505.726	47.952	0.085	0.080
-504.712	-40.734	-0.105	0.055
-503.697	-37.867	-0.280	-0.149
-502.683	-200.000	0.051	-0.262
-501.668	-136.468	-0.158	-0.018
-500.653	155.029	-0.041	0.057
-499.639	-154.422	0.331	0.022
-498.624	129.385	-0.207	-0.265
-497.610	800.000	-0.044	0.123
-496.595	35.783	0.167	0.147
-495.581	-174.826	-0.074	0.002
-494.566	800.000	-0.124	-0.422
-493.551	-82.013	0.410	0.134
-492.537	398.111	0.086	0.180
-491.522	4.620	-0.350	0.258
-490.508	93.606	-0.222	-0.252
-489.493	-200.000	-0.020	0.185
-488.478	256.791	0.050	-0.086
-487.464	64.198	0.164	-0.166
-486.449	265.730	0.085	0.148
-485.435	-12.707	0.307	-0.201
-484.420	-80.750	-0.311	-0.104
-483.405	-4.569	0.251	-0.174
-482.391	-132.325	-0.172	-0.022
-481.376	-96.379	-0.129	-0.034
-480.362	-13.796	0.094	0.061
-479.347	295.269	0.139	-0.256
-478.332	38.644	0.106	0.094
-477.318	800.000	-0.030	0.083
-476.303	-62.511	0.256	0.107
-475.289	800.000	0.087	0.260
-474.274	-76.840	-0.243	-0.085
-473.259	1.772	0.233	-0.168
-472.245	-200.000	-0.025	0.000
-471.230	548.532	0.069	0.166
-470.216	-110.066	-0.033	0.007
-469.201	27.523	0.030	0.025
-468.186	-137.340	0.114	0.013
-467.172	800.000	0.066	-0.187
-466.157	95.053	0.229	0.261
-465.143	-135.615	0.204	-0.024
-464.128	203.990	0.157	0.243
-463.113	800.000	-0.033	-0.120
-462.099	192.716	-0.130	-0.197
-461.084	-11.824	-0.317	0.208
-460.070	-200.000	-0.014	-0.242
-459.055	-156.152	0.291	-0.018
-458.040	169.477	-0.230	0.329
-457.026	-200.000	0.071	0.435
-456.011	-108.245	0.263	-0.057
-454.997	-91.059	0.124	0.036
-453.982	403.055	-0.050	-0.104
-452.968	-93.012	0.072	-0.020
-451.953	-151.487	-0.247	-0.018
-450.938	-13.751	0.096	-0.062
-449.924	800.000	0.089	0.296
-448.909	-83.426	0.370	-0.119
-447.895	-120.317	0.026	0.004
-446.880	434.570	0.053	-0.116
-445.865	197.475	-0.095	-0.146
-444.851	800.000	0.062	-0.193
-443.836	-111.605	-0.310	0.063
-442.822	-69.192	-0.307	0.118
-441.807	56.956	-0.135	-0.131
-440.792	-73.896	-0.305	0.111
-439.778	800.000	0.061	0.198
-438.763	81.636	-0.124	0.134
-437.749	87.204	0.079	-0.087
-436.734	33.696	0.161	0.140
-435.719	-40.605	0.134	0.069
-434.705	-15.639	-0.161	-0.103
-433.690	-95.748	-0.128	-0.034
-432.676	-159.162	0.082	0.005
-431.661	-132.141	0.356	0.046
-430.646	347.652	-0.171	-0.338
-429.632	180.067	-0.097	0.142
-428.617	800.000	0.037	-0.120
-427.603	-152.690	0.263	0.019
-426.588	424.127	0.135	-0.289
-425.573	-14.615	0.077	0.050
-424.559	-134.777	0.054	0.007
-423.544	357.620	-0.079	-0.158
-422.530	-27.506	0.210	0.122
-421.515	364.675	-0.076	-0.154
-420.500	-1.941	-0.312	0.219
-419.486	300.522	0.068	-0.125
-418.471	-159.546	-0.075	-0.004
-417.457	527.657	0.062	-0.146
-416.442	800.000	-0.037	0.119
-415.428	499.695	0.083	-0.191
-414.413	800.000	-0.044	-0.160
-413.398	-200.000	-0.016	-0.096
-412.384	29.260	-0.183	0.156
-411.369	63.058	-0.223	-0.223
-410.355	-88.219	0.209	0.062
-409.340	-22.128	-0.296	0.180
-408.325	545.281	0.046	-0.109
-407.311	46.634	0.229	-0.212
-406.296	-59.834	0.078	-0.033
-405.282	-48.798	0.144	0.069
-404.267	72.695	-0.107	-0.112
-403.252	800.000	-0.184	-0.557
-402.238	12.954	-0.208	0.161
-401.223	-82.474	0.057	-0.019
-400.209	-200.000	0.005	0.025
-399.194	93.831	0.220	-0.249
-398.179	800.000	-0.124	-0.365
-397.165	178.007	0.172	0.251
-396.150	-7.379	0.139	-0.094
-395.136	-26.568	0.285	0.167
-394.121	142.429	-0.041	-0.055
-393.106	-44.753	-0.362	0.181
-392.092	624.250	0.154	-0.387
-391.077	-200.000	0.016	0.115
-390.063	400.630	0.047	0.098
-389.048	577.705	0.053	-0.130
-388.033	7.412	0.156	0.116
-387.019	-162.667	0.098	-0.005
-386.004	-107.150	0.061	-0.013
-384.990	-131.026	-0.171	0.023
-383.975	-158.650	0.237	-0.014
-382.960	-200.000	-0.002	0.212
-381.946	781.706	-0.023	0.062
-380.931	606.333	0.072	0.179
-379.917	175.963	-0.070	-0.101
-378.902	89.214	0.211	0.235
-377.888	35.914	-0.224	-0.197
-376.873	484.434	0.023	-0.053
-375.858	800.000	-0.097	0.285
-374.844	20.849	-0.268	0.216
-373.829	-150.359	0.205	0.016
-372.815	800.000	-0.084	-0.269
-371.800	89.136	0.169	-0.188
-370.785	190.040	-0.241	0.361
-369.771	41.757	-0.039	-0.035
-368.756	800.000	-0.044	-0.185
-367.742	183.039	-0.044	-0.066
-366.727	-157.720	0.413	0.025
-365.712	338.548	-0.049	-0.095
-364.698	560.127	0.043	-0.104
-363.683	-32.146	-0.243	-0.135
-362.669	-200.000	-0.011	-0.052
-361.654	203.767	-0.061	0.094
-360.639	40.141	-0.388	0.348
-359.625	-72.451	-0.245	-0.090
-358.610	-38.061	0.061	-0.032
-357.596	778.009	0.023	0.062
-356.581	96.865	-0.284	0.325
-355.566	-46.243	-0.109	0.053
-354.552	800.000	-0.047	0.139
-353.537	486.439	-0.108	-0.246
-352.523	800.000	-0.090	-0.253
-351.508	-106.670	-0.122	0.027
-350.493	12.124	0.108	0.083
-349.479	370.993	0.128	0.259
-348.464	-47.729	-0.152	0.074
-347.450	342.756	-0.240	-0.468
-346.435	1.133	-0.021	0.015
-345.420	-200.000	-0.171	0.000
-344.406	-149.839	-0.170	-0.013
-343.391	800.000	0.121	0.338
-342.377	89.036	0.105	-0.116
-341.362	800.000	0.077	0.288
-340.348	19.142	0.103	0.082
-339.333	-200.000	-0.003	0.204
-338.318	-200.000	0.043	0.242
-337.304	-11.327	0.332	-0.218
-336.289	280.428	0.150	-0.268
-335.275	-35.219	-0.180	0.098
-334.260	-32.296	-0.172	0.096
-333.245	-200.000	-0.098	0.646
-332.231	14.453	0.403	0.314
-331.216	-102.634	-0.360	0.086
-330.202	800.000	-0.034	0.134
-329.187	73.655	-0.108	-0.113
-328.172	-24.263	-0.324	-0.193
-327.158	-71.012	-0.268	0.101
-326.143	-200.000	-0.027	0.358
-325.129	-200.000	0.017	-0.160
-324.114	463.046	-0.161	0.358
-323.099	-200.000	0.002	0.123
-322.085	320.571	0.095	0.180
-321.070	589.496	0.025	-0.062
-320.056	73.392	-0.180	0.188
-319.041	155.079	-0.195	0.268
-318.026	205.486	-0.166	0.257
-317.012	-57.115	-0.231	-0.102
-315.997	-15.497	-0.189	0.120
-314.983	-200.000	-0.008	0.222
-313.968	-62.349	0.102	0.042
-312.953	-122.744	0.260	-0.042
-311.939	-122.441	-0.352	0.057
-310.924	-1.445	0.208	0.146
-309.910	108.660	0.129	0.153
-308.895	148.060	0.056	-0.075
-307.880	-100.874	0.112	0.027
-306.866	-72.858	-0.261	0.095
-305.851	108.877	0.240	0.286
-304.837	437.450	0.265	0.576
-303.822	-110.794	0.179	-0.037
-302.807	0.907	-0.066	0.047
-301.793	-153.754	0.194	-0.013
-300.778	150.774	0.247	0.334
-299.764	-200.000	-0.020	-0.228
-298.749	800.000	0.127	-0.492
-297.735	-76.954	-0.390	-0.136
-296.720	800.000	0.007	0.025
-295.705	800.000	0.046	-0.168
-294.691	-200.000	-0.027	-0.123
-293.676	-86.533	0.396	-0.121
-292.662	-82.748	-0.223	-0.072
-291.647	49.797	0.051	0.048
-290.632	-41.657	-0.242	-0.124
-289.618	-11.213	-0.074	-0.048
-288.603	-121.314	0.222	-0.037
-287.589	800.000	0.020	-0.081
-286.574	800.000	0.065	-0.192
-285.559	-11.473	-0.403	-0.263
-284.545	-79.350	-0.135	0.046
-283.530	-108.149	0.221	0.048
-282.516	-138.670	-0.189	0.021
-281.501	-200.000	-0.006	0.145
-280.486	-39.066	-0.451	0.236
-279.472	-42.527	0.257	-0.130
-278.457	54.705	0.076	0.073
-277.443	-200.000	0.006	-0.101
-276.428	376.466	-0.040	-0.082
-275.413	156.512	0.092	0.126
-274.399	-81.504	-0.166	-0.054
-273.384	-112.897	0.081	0.016
-272.370	-162.086	0.083	-0.004
-271.355	203.958	-0.120	-0.185
-270.340	303.095	-0.055	-0.101
-269.326	-105.843	-0.267	-0.060
-268.311	-140.061	0.312	0.033
-267.297	-67.236	-0.466	-0.182
-266.282	-200.000	-0.017	0.130
-265.267	-77.597	-0.246	-0.085
-264.253	10.704	0.160	-0.121
-263.238	-174.650	-0.192	-0.005
-262.224	-61.092	0.114	-0.048
-261.209	-103.193	0.238	-0.056
-260.195	-200.000	0.020	-0.187
-259.180	-200.000	-0.039	-0.377
-258.165	-56.828	0.079	-0.035
-257.151	-121.917	-0.412	-0.067
-256.136	-200.000	-0.023	0.110
-255.122	800.000	0.048	-0.134
-254.107	-200.000	0.002	0.045
-253.092	405.466	0.090	-0.189
-252.078	-200.000	0.030	-0.287
-251.063	38.472	0.028	-0.025
-250.049	187.959	0.148	0.220
-249.034	256.769	-0.196	-0.335
-248.019	124.482	-0.082	0.103
-247.005	-165.346	-0.121	0.005
-245.990	96.460	-0.208	0.236
-244.976	48.079	0.168	-0.156
-243.961	180.311	-0.097	0.141
-242.946	-200.000	0.022	-0.226
-241.932	800.000	0.064	-0.209
-240.917	376.877	0.106	-0.214
-239.903	16.358	-0.186	0.145
-238.888	-200.000	-0.036	-0.210
-237.873	-88.441	-0.117	0.035
-236.859	800.000	-0.009	0.034
-235.844	474.578	0.083	0.186
-234.830	98.015	-0.156	0.178
-233.815	152.218	0.020	-0.028
-232.800	-164.224	0.277	-0.013
-231.786	-164.577	-0.181	-0.008
-230.771	99.344	-0.210	-0.241
-229.757	-106.537	-0.107	0.024
-228.742	-106.186	-0.221	0.049
-227.727	-89.001	-0.151	-0.044
-226.713	717.568	0.079	-0.208
-225.698	-200.000	-0.000	0.083
-224.684	800.000	0.060	0.223
-223.669	-56.053	0.062	-0.027
-222.655	-7.665	0.147	0.098
-221.640	607.456	-0.077	0.191
-220.625	105.809	0.226	-0.265
-219.611	469.796	0.038	0.085
-218.596	38.351	0.167	0.148
-217.582	-200.000	0.004	-0.146
-216.567	-200.000	0.002	-0.169
-215.552	61.497	0.274	0.270
-214.538	800.000	-0.015	-0.062
-213.523	-98.286	0.177	0.045
-212.509	-200.000	0.010	-0.186
-211.494	-43.482	0.195	0.098
-210.479	-161.292	0.399	0.021
-209.465	800.000	-0.061	-0.228
-208.450	26.979	0.109	0.090
-207.436	-20.263	-0.161	-0.099
-206.421	10.190	0.115	0.087
-205.406	-200.000	0.023	0.194
-204.392	-46.078	-0.180	-0.088
-203.377	-48.683	0.271	-0.129
-202.363	311.480	-0.214	0.397
-201.348	93.080	-0.050	-0.056
-200.333	-35.134	0.134	-0.072
-199.319	49.206	0.132	0.123
-198.304	243.282	-0.065	-0.107
-197.290	467.523	-0.143	-0.319
-196.275	15.747	0.178	-0.139
-195.260	800.000	-0.030	-0.108
-194.246	-200.000	-0.012	-0.260
-193.231	68.351	0.047	-0.048
-192.217	165.551	0.176	0.246
-191.202	-200.000	0.090	0.505
-190.187	-165.557	0.187	-0.008
-189.173	-17.625	0.075	0.047
-188.158	-56.379	-0.247	-0.109
-187.144	-62.923	0.208	0.085
-186.129	-36.840	0.099	-0.052
-185.114	-121.957	-0.166	0.027
-184.100	-91.847	0.264	-0.074
-183.085	10.183	0.100	-0.076
-182.071	234.515	-0.060	0.098
-181.056	27.806	0.072	0.060
-180.042	-200.000	-0.036	0.297
-179.027	353.708	-0.149	0.294
-178.012	-24.101	-0.207	0.122
-176.998	-146.363	0.409	-0.035
-175.983	140.188	0.206	0.270
-174.969	-200.000	0.017	0.449
-173.954	-164.770	0.218	-0.010
-172.939	-195.180	0.356	-0.003
-171.925	450.575	0.102	0.223
-170.910	8.416	-0.211	0.157
-169.896	2.972	0.086	0.062
-168.881	194.928	-0.107	-0.161
-167.866	-53.571	-0.248	0.112
-166.852	-160.003	0.198	0.011
-165.837	-92.658	-0.349	-0.097
-164.823	-42.623	0.096	0.049
-163.808	-101.163	-0.352	-0.085
-162.793	800.000	0.122	-0.385
-161.779	507.338	0.128	-0.295
-160.764	-26.940	-0.090	-0.052
-159.750	78.763	-0.163	0.172
-158.735	227.128	0.053	-0.085
-157.720	-200.000	0.035	-0.343
-156.706	800.000	-0.103	0.443
-155.691	-182.332	-0.149	0.003
-154.677	-62.117	-0.332	0.137
-153.662	-7.210	-0.190	0.128
-152.647	-10.485	-0.182	-0.119
-151.633	57.355	-0.111	-0.107
-150.618	54.926	-0.133	-0.127
-149.604	-200.000	-0.001	0.260
-148.589	-134.997	0.214	0.026
-147.574	800.000	-0.066	0.196
-146.560	701.674	-0.057	-0.149
-145.545	198.725	-0.150	0.228
-144.531	-29.710	0.353	-0.199
-143.516	-74.975	0.258	-0.091
-142.502	178.976	0.084	-0.122
-141.487	219.249	-0.163	-0.258
-140.472	-186.476	-0.074	0.001
-139.458	-13.525	0.396	0.254
-138.443	61.962	-0.102	0.100
-137.429	-200.000	0.001	0.037
-136.414	-2.383	0.038	0.026
-135.399	360.467	0.185	-0.366
-134.385	800.000	0.023	0.084
-133.370	39.256	0.218	-0.193
-132.356	-200.000	-0.025	0.378
-131.341	-200.000	0.022	-0.208
-130.326	800.000	-0.027	-0.115
-129.312	155.764	-0.076	0.104
-128.297	-98.989	0.115	0.029
-127.283	-200.000	0.005	0.049
-126.268	-200.000	0.119	-0.000
-125.253	-105.575	0.152	0.034
-124.239	80.667	-0.093	-0.099
-123.224	-200.000	-0.023	0.373
-122.210	-43.905	0.123	0.061
-121.195	174.773	0.162	-0.231
