DTS Sentinel unit serial number:	SN413079Multiplexer serial number:	ORYXHardware model number:	OX4-SRSoftware version number:	ORYX F/W v4.00 Oryx Data Collector v3.7.2.0data status	okinstallation	princeton_trtdifferential loss correction	single-endedforward channel	channel 4reverse channel	N/Adate	2019/09/12time	06:15:11forward acquisition time	60.00reverse acquisition time	0.00gamma	496.2192k internal	0.2307k external	0.2307temperature offset calibration	1.0064default loss term (dB/km)	0.3790temperature slope calibration	1.0000multiplexer offset coefficient	1.0000multiplexer slope coefficient	1.0000fibre end	0.00T internal ref (°C)	32.12T ext. ref 1 (°C)	1.56T ext. ref 2 (°C)	27.41length (m)	temperature (°C)	Stokes	anti-Stokes-747.200	-8.479	-0.169	0.115
-746.185	37.274	0.272	0.245
-745.171	-200.000	0.076	0.363
-744.156	-107.684	-0.295	0.066
-743.142	-87.519	0.175	0.054
-742.127	51.825	0.143	-0.139
-741.112	245.385	-0.069	-0.118
-740.098	416.159	0.119	0.258
-739.083	800.000	0.109	0.370
-738.069	-44.412	-0.098	0.050
-737.054	58.438	0.200	-0.200
-736.039	48.087	-0.251	-0.239
-735.025	-110.549	-0.115	0.024
-734.010	800.000	0.084	-0.355
-732.996	143.503	0.165	0.224
-731.981	645.970	0.105	-0.272
-730.966	-169.212	-0.174	-0.007
-729.952	-79.330	-0.174	0.060
-728.937	239.049	0.103	0.174
-727.923	-200.000	-0.037	-0.329
-726.908	-24.863	0.169	-0.102
-725.894	-125.178	-0.177	0.028
-724.879	30.720	-0.173	-0.150
-723.864	-200.000	-0.000	-0.034
-722.850	-200.000	0.016	-0.088
-721.835	272.829	-0.032	0.057
-720.821	168.242	0.112	-0.162
-719.806	-181.822	0.082	-0.002
-718.791	31.173	0.243	-0.212
-717.777	-55.448	-0.425	0.194
-716.762	89.584	-0.201	-0.228
-715.748	800.000	-0.062	-0.260
-714.733	23.697	-0.149	0.124
-713.718	-113.998	0.139	0.027
-712.704	117.505	-0.130	-0.163
-711.689	-200.000	-0.023	0.196
-710.675	13.811	0.152	-0.120
-709.660	-42.783	0.143	-0.074
-708.645	-48.950	0.269	0.131
-707.631	-200.000	-0.009	0.191
-706.616	54.967	-0.147	0.144
-705.602	4.086	-0.108	-0.080
-704.587	93.674	-0.318	0.366
-703.572	-104.948	0.236	0.055
-702.558	-46.701	0.143	-0.071
-701.543	-40.063	0.062	-0.033
-700.529	6.862	-0.080	0.060
-699.514	-200.000	0.023	0.374
-698.499	101.561	0.146	-0.173
-697.485	800.000	-0.057	-0.199
-696.470	151.975	0.101	0.139
-695.456	61.925	-0.228	0.231
-694.441	41.241	0.126	0.115
-693.426	-129.274	0.493	-0.070
-692.412	5.176	-0.192	0.143
-691.397	-48.596	0.156	-0.076
-690.383	-120.209	-0.037	0.006
-689.368	-3.072	0.128	0.090
-688.354	-200.000	-0.016	-0.095
-687.339	-4.542	0.247	-0.173
-686.324	102.191	0.148	-0.176
-685.310	-200.000	0.003	-0.110
-684.295	-91.327	-0.324	-0.094
-683.281	-200.000	-0.002	0.050
-682.266	78.861	-0.128	0.139
-681.251	-200.000	-0.012	0.300
-680.237	-200.000	0.010	-0.094
-679.222	-62.369	0.283	-0.119
-678.208	86.112	0.348	-0.388
-677.193	29.121	0.170	-0.147
-676.178	520.165	-0.066	-0.156
-675.164	800.000	0.056	0.178
-674.149	-64.497	-0.052	0.021
-673.135	-6.882	0.336	-0.232
-672.120	620.770	0.052	-0.133
-671.105	800.000	-0.095	0.313
-670.091	-3.463	-0.191	0.135
-669.076	57.814	-0.222	-0.220
-668.062	-200.000	0.015	-0.235
-667.047	-200.000	0.016	0.174
-666.032	-53.829	0.253	-0.117
-665.018	-14.966	-0.108	-0.070
-664.003	94.329	-0.114	-0.131
-662.989	-96.209	0.104	0.028
-661.974	-200.000	-0.031	0.162
-660.959	712.995	-0.108	-0.290
-659.945	-173.252	-0.212	-0.007
-658.930	231.510	0.170	-0.283
-657.916	-62.598	-0.097	-0.041
-656.901	-125.389	0.174	-0.027
-655.886	-56.040	0.207	-0.094
-654.872	-200.000	0.016	0.283
-653.857	-17.251	-0.205	0.131
-652.843	800.000	0.119	-0.374
-651.828	-200.000	0.002	-0.160
-650.814	-105.816	0.098	-0.022
-649.799	-89.585	-0.296	-0.088
-648.784	-167.307	0.270	0.011
-647.770	-192.145	-0.212	0.002
-646.755	-27.882	0.246	-0.144
-645.741	-200.000	-0.140	0.000
-644.726	-108.597	0.205	0.045
-643.711	-23.673	-0.215	-0.131
-642.697	-60.463	0.332	0.143
-641.682	800.000	0.075	-0.277
-640.668	123.451	0.098	-0.125
-639.653	-194.484	0.278	-0.002
-638.638	800.000	-0.061	-0.194
-637.624	-162.211	0.579	0.029
-636.609	-113.529	0.310	-0.061
-635.595	-116.050	0.344	0.065
-634.580	-200.000	-0.040	0.228
-633.565	-125.282	-0.073	0.011
-632.551	-82.438	-0.197	0.065
-631.536	-104.199	-0.241	-0.057
-630.522	-200.000	-0.010	0.189
-629.507	-139.755	-0.254	-0.027
-628.492	160.267	0.098	-0.138
-627.478	-29.958	0.123	-0.071
-626.463	435.732	0.061	-0.135
-625.449	508.374	-0.153	-0.360
-624.434	-50.768	0.095	0.045
-623.419	800.000	-0.053	0.208
-622.405	-200.000	0.030	0.270
-621.390	257.043	-0.084	-0.145
-620.376	-151.073	-0.125	0.010
-619.361	800.000	-0.125	-0.470
-618.346	3.658	-0.175	0.129
-617.332	-200.000	0.017	-0.113
-616.317	-108.693	0.167	-0.036
-615.303	-200.000	-0.068	0.309
-614.288	79.412	0.198	0.214
-613.273	202.592	-0.309	0.483
-612.259	22.520	0.292	-0.241
-611.244	-152.400	-0.231	-0.017
-610.230	406.994	-0.122	-0.262
-609.215	268.037	0.094	0.166
-608.201	-43.479	0.153	-0.078
-607.186	24.470	0.198	0.166
-606.171	-138.918	0.142	0.016
-605.157	-200.000	-0.042	-0.364
-604.142	-200.000	0.034	-0.171
-603.128	-200.000	0.002	0.187
-602.113	739.200	-0.051	0.138
-601.098	-114.304	-0.256	-0.050
-600.084	800.000	0.036	-0.114
-599.069	394.326	-0.074	-0.155
-598.055	-75.232	-0.161	0.058
-597.040	800.000	0.043	0.179
-596.025	-14.849	-0.106	-0.069
-595.011	124.668	0.206	-0.263
-593.996	-102.176	-0.112	0.027
-592.982	-136.413	-0.259	-0.030
-591.967	155.267	-0.202	0.280
-590.952	-2.622	0.197	0.139
-589.938	-103.454	0.220	-0.052
-588.923	256.679	-0.184	-0.319
-587.909	189.130	-0.286	-0.432
-586.894	189.654	-0.210	-0.318
-585.879	81.134	0.070	0.077
-584.865	-44.211	0.223	-0.113
-583.850	-110.787	-0.353	-0.073
-582.836	-111.456	-0.176	0.036
-581.821	-200.000	-0.067	-0.303
-580.806	40.061	-0.075	0.068
-579.792	-168.278	-0.200	-0.008
-578.777	193.322	0.029	-0.044
-577.763	334.296	0.212	-0.414
-576.748	-34.386	-0.483	-0.267
-575.733	-200.000	-0.039	-0.238
-574.719	-86.520	-0.113	-0.035
-573.704	800.000	0.131	0.539
-572.690	800.000	0.028	0.108
-571.675	-37.902	0.266	-0.143
-570.661	-200.000	0.034	0.234
-569.646	-200.000	0.002	0.011
-568.631	800.000	0.099	-0.300
-567.617	131.771	-0.183	-0.237
-566.602	-51.400	-0.207	-0.098
-565.588	-200.000	0.020	-0.127
-564.573	-155.503	-0.286	0.019
-563.558	800.000	-0.037	-0.161
-562.544	47.760	0.285	-0.268
-561.529	89.201	0.117	-0.132
-560.515	-200.000	0.009	0.322
-559.500	40.686	-0.081	-0.074
-558.485	89.220	-0.090	0.101
-557.471	13.746	0.129	-0.101
-556.456	-200.000	0.018	0.200
-555.442	-97.407	0.210	-0.055
-554.427	692.993	-0.031	-0.082
-553.412	110.564	0.186	0.226
-552.398	-44.255	0.293	-0.148
-551.383	-179.155	-0.114	0.003
-550.369	-10.725	0.065	0.043
-549.354	274.334	0.118	0.212
-548.339	55.592	0.091	0.089
-547.325	102.543	0.330	-0.389
-546.310	800.000	-0.011	-0.045
-545.296	-40.850	-0.099	-0.052
-544.281	-149.235	0.084	0.007
-543.266	-142.600	-0.280	0.028
-542.252	800.000	0.046	0.164
-541.237	-118.073	0.082	0.015
-540.223	800.000	-0.019	-0.078
-539.208	24.117	0.150	0.125
-538.193	77.678	0.161	-0.172
-537.179	-83.555	0.084	0.027
-536.164	220.807	0.231	-0.374
-535.150	-113.777	0.415	0.081
-534.135	-77.021	0.171	-0.060
-533.121	259.381	-0.051	-0.089
-532.106	-131.884	0.143	0.019
-531.091	199.781	0.061	-0.095
-530.077	537.522	0.071	-0.171
-529.062	-132.472	-0.357	-0.046
-528.048	216.264	0.221	-0.355
-527.033	-75.983	-0.272	0.097
-526.018	-200.000	0.021	-0.177
-525.004	18.062	0.224	0.180
-523.989	196.160	0.098	0.150
-522.975	679.452	0.112	-0.293
-521.960	37.561	0.109	0.098
-520.945	-38.622	-0.235	-0.125
-519.931	86.487	-0.048	-0.053
-518.916	108.533	0.251	-0.302
-517.902	692.953	-0.117	0.308
-516.887	483.551	-0.066	0.152
-515.872	-200.000	0.002	-0.071
-514.858	-53.901	0.077	0.035
-513.843	-200.000	-0.022	-0.312
-512.829	-200.000	0.004	0.077
-511.814	77.563	-0.163	0.174
-510.799	-7.527	0.121	0.082
-509.785	-200.000	-0.108	0.492
-508.770	180.609	0.086	0.128
-507.756	800.000	-0.093	-0.303
-506.741	-200.000	0.028	0.217
-505.726	-139.792	-0.335	0.036
-504.712	-163.461	0.230	0.011
-503.697	22.997	0.204	-0.169
-502.683	-6.362	-0.219	-0.150
-501.668	-126.893	-0.123	-0.018
-500.653	-109.313	0.249	0.053
-499.639	142.702	-0.247	-0.330
-498.624	-192.250	-0.098	0.001
-497.610	-128.008	0.119	-0.017
-496.595	-25.298	-0.045	-0.027
-495.581	-99.711	-0.068	-0.017
-494.566	169.647	0.147	0.211
-493.551	7.847	0.352	0.266
-492.537	-64.336	0.301	-0.123
-491.522	-200.000	0.011	-0.073
-490.508	800.000	0.059	0.184
-489.493	178.551	0.090	0.132
-488.478	142.576	0.169	0.226
-487.464	-200.000	0.155	-0.001
-486.449	164.385	0.214	-0.303
-485.435	-58.810	0.072	-0.031
-484.420	-177.781	0.277	0.007
-483.405	137.337	0.049	-0.065
-482.391	-3.467	-0.068	-0.048
-481.376	571.314	-0.069	-0.170
-480.362	345.068	-0.040	0.080
-479.347	50.016	0.273	0.259
-478.332	74.734	0.124	0.131
-477.318	319.883	0.107	-0.205
-476.303	-200.000	-0.065	-0.290
-475.289	-36.299	0.313	-0.170
-474.274	-200.000	0.050	0.385
-473.259	-200.000	-0.009	-0.155
-472.245	800.000	0.061	-0.210
-471.230	-98.242	-0.355	-0.092
-470.216	211.671	0.123	-0.195
-469.201	-46.973	0.261	-0.128
-468.186	226.896	-0.094	-0.154
-467.172	-200.000	0.072	0.374
-466.157	800.000	-0.029	-0.118
-465.143	-75.751	-0.256	-0.091
-464.128	449.408	0.105	-0.232
-463.113	99.445	0.085	0.099
-462.099	163.527	-0.134	-0.190
-461.084	195.170	-0.160	-0.245
-460.070	-132.690	-0.497	-0.064
-459.055	22.807	-0.255	0.210
-458.040	-80.695	-0.333	0.111
-457.026	576.811	0.122	-0.301
-456.011	102.066	0.259	0.303
-454.997	50.170	-0.451	0.429
-453.982	-200.000	-0.054	0.263
-452.968	-139.202	-0.253	0.027
-451.953	-69.996	-0.419	0.160
-450.938	-200.000	-0.048	0.396
-449.924	68.031	0.076	-0.078
-448.909	-143.809	0.332	0.032
-447.895	-200.000	-0.016	-0.089
-446.880	-30.741	0.375	0.213
-445.865	-48.785	-0.306	0.148
-444.851	-56.583	-0.277	0.123
-443.836	-124.721	-0.196	0.030
-442.822	-94.776	0.244	-0.066
-441.807	210.454	-0.029	0.046
-440.792	56.032	0.160	0.156
-439.778	-137.121	-0.108	-0.012
-438.763	-200.000	-0.032	0.506
-437.749	-92.345	-0.146	-0.041
-436.734	-200.000	-0.019	-0.198
-435.719	-131.770	0.113	0.015
-434.705	245.184	0.159	-0.268
-433.690	33.005	0.175	0.152
-432.676	-28.890	0.147	0.085
-431.661	800.000	-0.043	0.173
-430.646	800.000	0.013	0.043
-429.632	-73.167	-0.344	0.127
-428.617	-53.608	0.036	0.017
-427.603	15.211	-0.145	-0.114
-426.588	-200.000	-0.010	0.219
-425.573	64.654	0.100	-0.102
-424.559	262.358	-0.040	0.071
-423.544	21.475	0.180	0.147
-422.530	48.575	-0.264	0.249
-421.515	49.472	0.241	-0.227
-420.500	793.728	-0.075	0.209
-419.486	61.771	-0.132	-0.132
-418.471	-200.000	0.051	-0.275
-417.457	107.272	0.055	-0.065
-416.442	-200.000	0.002	-0.198
-415.428	36.386	-0.131	-0.116
-414.413	-200.000	0.050	-0.275
-413.398	62.864	0.123	-0.124
-412.384	15.009	0.083	-0.065
-411.369	173.756	-0.074	-0.108
-410.355	-47.579	0.205	0.100
-409.340	75.699	-0.154	-0.164
-408.325	-162.901	-0.045	0.002
-407.311	-200.000	0.008	0.059
-406.296	800.000	-0.065	-0.230
-405.282	-117.950	0.175	-0.031
-404.267	185.854	-0.085	0.126
-403.252	116.140	-0.352	0.433
-402.238	581.396	-0.095	-0.233
-401.223	-103.074	-0.065	0.015
-400.209	-200.000	-0.024	-0.190
-399.194	250.945	0.127	0.217
-398.179	-78.982	0.235	-0.080
-397.165	800.000	-0.080	0.234
-396.150	11.611	0.260	-0.200
-395.136	800.000	-0.041	-0.144
-394.121	-111.198	-0.094	-0.019
-393.106	-120.164	-0.082	0.014
-392.092	137.117	-0.113	-0.149
-391.077	-71.199	0.389	0.146
-390.063	467.269	0.142	0.320
-389.048	666.025	0.067	0.172
-388.033	4.916	0.324	-0.239
-387.019	-200.000	-0.000	-0.058
-386.004	191.231	-0.107	0.162
-384.990	-123.177	0.242	0.039
-383.975	136.904	-0.032	0.042
-382.960	16.495	0.382	0.302
-381.946	-118.038	0.294	-0.053
-380.931	-200.000	0.016	0.101
-379.917	-182.562	-0.429	-0.008
-378.902	20.670	0.126	-0.102
-377.888	323.496	-0.270	0.516
-376.873	-148.018	-0.195	0.016
-375.858	800.000	-0.051	0.170
-374.844	-200.000	-0.091	-0.455
-373.829	-137.238	-0.467	-0.053
-372.815	800.000	-0.046	-0.158
-371.800	-140.940	0.145	0.015
-370.785	331.596	-0.014	0.028
-369.771	-129.314	-0.160	0.022
-368.756	21.415	0.140	0.114
-367.742	232.525	-0.099	0.163
-366.727	800.000	-0.095	-0.334
-365.712	154.308	-0.072	0.099
-364.698	800.000	-0.016	-0.070
-363.683	502.780	0.089	0.207
-362.669	-168.972	0.140	0.005
-361.654	-104.580	0.160	-0.037
-360.639	603.869	0.135	0.336
-359.625	-2.834	0.320	0.224
-358.610	-0.835	-0.122	-0.086
-357.596	-93.293	0.252	-0.070
-356.581	-127.692	-0.253	-0.037
-355.566	-147.807	0.214	-0.018
-354.552	259.209	-0.163	-0.281
-353.537	57.466	0.262	-0.256
-352.523	-37.100	-0.344	-0.184
-351.508	-162.727	-0.124	-0.006
-350.493	0.087	0.103	0.073
-349.479	24.877	0.167	0.139
-348.464	112.004	-0.159	-0.192
-347.450	800.000	0.069	0.214
-346.435	-200.000	0.049	0.335
-345.420	-10.525	0.122	0.081
-344.406	-200.000	0.025	0.123
-343.391	-135.139	0.211	-0.025
-342.377	69.257	-0.079	-0.081
-341.362	514.027	0.064	0.149
-340.348	-200.000	-0.022	-0.310
-339.333	-129.553	-0.049	0.007
-338.318	8.225	0.054	-0.041
-337.304	58.084	-0.090	-0.089
-336.289	200.352	-0.071	0.109
-335.275	198.041	0.033	0.051
-334.260	-200.000	-0.002	-0.158
-333.245	733.969	-0.083	0.223
-332.231	-146.443	-0.353	-0.031
-331.216	334.217	0.053	0.103
-330.202	-105.571	0.122	0.028
-329.187	309.017	-0.106	-0.197
-328.172	-200.000	-0.004	-0.024
-327.158	-86.261	-0.127	-0.039
-326.143	139.520	-0.209	-0.275
-325.129	-111.967	0.059	0.012
-324.114	390.785	0.078	-0.161
-323.099	-119.434	-0.278	-0.048
-322.085	-200.000	-0.004	0.120
-321.070	30.735	0.191	-0.164
-320.056	-102.843	0.264	0.063
-319.041	-42.926	-0.340	-0.173
-318.026	-92.997	-0.099	-0.028
-317.012	524.179	-0.072	-0.168
-315.997	-157.490	-0.198	0.012
-314.983	132.644	0.225	0.290
-313.968	-200.000	-0.055	-0.280
-312.953	29.065	0.042	-0.035
-311.939	162.928	-0.185	-0.259
-310.924	-200.000	0.048	0.245
-309.910	-18.963	0.256	0.159
-308.895	37.134	-0.177	-0.156
-307.880	-105.699	-0.238	-0.054
-306.866	78.903	-0.358	0.383
-305.851	-0.463	-0.087	-0.062
-304.837	-200.000	0.042	0.273
-303.822	29.744	-0.356	-0.303
-302.807	103.334	0.056	-0.066
-301.793	470.346	0.047	0.106
-300.778	-4.335	0.068	-0.047
-299.764	-200.000	0.035	-0.470
-298.749	800.000	0.096	0.266
-297.735	-200.000	-0.009	0.108
-296.720	193.115	-0.073	0.110
-295.705	800.000	0.091	0.306
-294.691	330.481	0.107	0.206
-293.676	-52.042	-0.071	-0.033
-292.662	-168.667	-0.285	0.011
-291.647	-200.000	0.013	0.494
-290.632	84.027	-0.285	-0.311
-289.618	-73.356	0.228	0.083
-288.603	-126.225	-0.204	-0.030
-287.589	-200.000	0.015	-0.072
-286.574	-200.000	-0.025	0.111
-285.559	-97.675	-0.326	0.084
-284.545	-200.000	-0.033	-0.189
-283.530	3.723	0.243	0.177
-282.516	93.258	-0.073	-0.083
-281.501	53.231	0.207	0.198
-280.486	-200.000	0.034	-0.297
-279.472	5.233	-0.449	0.330
-278.457	25.110	0.145	-0.120
-277.443	-179.501	-0.158	0.003
-276.428	89.492	-0.105	-0.116
-275.413	-122.897	-0.364	-0.059
-274.399	36.128	0.063	0.055
-273.384	102.822	0.110	-0.128
-272.370	244.798	0.235	0.394
-271.355	405.653	0.147	-0.309
-270.340	-188.815	-0.136	-0.002
-269.326	-200.000	0.056	-0.358
-268.311	-200.000	0.021	-0.248
-267.297	715.492	0.154	0.407
-266.282	-106.780	0.302	0.067
-265.267	800.000	-0.050	0.200
-264.253	175.773	0.051	-0.074
-263.238	312.333	-0.165	-0.309
-262.224	800.000	0.152	-0.503
-261.209	-198.321	-0.162	0.001
-260.195	-200.000	-0.021	-0.251
-259.180	-200.000	0.004	-0.229
-258.165	75.195	-0.194	-0.204
-257.151	-86.276	-0.100	-0.031
-256.136	800.000	0.007	-0.023
-255.122	100.215	-0.179	0.207
-254.107	108.276	0.166	-0.197
-253.092	-152.006	-0.143	0.010
-252.078	110.458	-0.067	0.080
-251.063	-56.646	-0.272	0.120
-250.049	774.090	-0.084	-0.229
-249.034	800.000	0.067	0.221
-248.019	-33.166	0.127	-0.070
-247.005	800.000	-0.067	0.278
-245.990	329.191	-0.059	-0.114
-244.976	800.000	0.052	0.206
-243.961	-109.319	-0.042	0.009
-242.946	32.809	0.126	0.109
-241.932	-196.478	0.260	0.002
-240.917	9.242	-0.280	0.211
-239.903	-152.688	0.167	-0.012
-238.888	-170.966	0.112	-0.004
-237.873	-37.612	0.123	0.065
-236.859	65.854	0.079	-0.080
-235.844	-115.545	0.268	0.050
-234.830	107.069	-0.140	0.166
-233.815	-6.334	0.185	0.126
-232.800	800.000	0.087	0.310
-231.786	320.499	-0.082	-0.155
-230.771	227.287	-0.244	0.395
-229.757	-200.000	-0.029	0.501
-228.742	-112.054	0.261	-0.052
-227.727	103.361	-0.141	0.165
-226.713	-200.000	0.010	0.200
-225.698	-200.000	-0.024	0.481
-224.684	254.236	0.189	0.321
-223.669	128.644	0.105	-0.134
-222.655	-200.000	-0.052	0.235
-221.640	669.601	-0.131	0.337
-220.625	677.188	-0.090	0.234
-219.611	586.074	-0.136	0.334
-218.596	800.000	-0.052	-0.163
-217.582	-200.000	-0.003	-0.165
-216.567	-200.000	0.029	-0.348
-215.552	-200.000	0.001	-0.112
-214.538	159.061	-0.242	-0.336
-213.523	311.479	0.088	0.164
-212.509	800.000	-0.030	-0.120
-211.494	-131.290	-0.505	0.067
-210.479	-200.000	0.046	0.227
-209.465	-86.428	-0.212	0.065
-208.450	-200.000	-0.009	-0.402
-207.436	-138.989	-0.527	0.057
-206.421	84.568	-0.140	-0.153
-205.406	14.247	-0.071	0.055
-204.392	-103.249	0.168	-0.039
-203.377	-60.830	0.087	0.037
-202.363	-200.000	0.023	-0.146
-201.348	447.344	0.064	0.140
-200.333	19.771	0.200	0.160
-199.319	-22.309	-0.061	0.037
-198.304	165.278	0.124	-0.174
-197.290	242.869	0.219	0.366
-196.275	275.665	0.154	0.272
-195.260	435.310	0.160	0.346
-194.246	800.000	0.123	0.460
-193.231	-124.866	0.161	-0.025
-192.217	800.000	0.126	0.519
-191.202	800.000	-0.090	0.253
-190.187	-57.302	-0.436	-0.191
-189.173	350.451	0.083	-0.164
-188.158	15.452	-0.362	0.283
-187.144	-179.097	-0.192	0.004
-186.129	-200.000	-0.018	-0.162
-185.114	221.720	0.125	-0.200
-184.100	449.651	-0.141	-0.309
-183.085	51.773	-0.044	-0.042
-182.071	800.000	-0.009	-0.032
-181.056	14.883	0.220	-0.171
-180.042	25.010	0.130	0.108
-179.027	-23.108	0.089	0.053
-178.012	-200.000	0.002	-0.055
-176.998	-200.000	0.032	0.406
-175.983	15.256	0.120	-0.094
-174.969	55.235	-0.055	0.053
-173.954	-27.224	0.083	-0.048
-172.939	-47.084	0.322	-0.156
-171.925	260.895	-0.127	0.219
-170.910	-64.319	-0.256	0.104
-169.896	-200.000	-0.025	0.318
-168.881	800.000	-0.038	-0.159
-167.866	-124.756	0.142	0.022
-166.852	800.000	0.006	-0.019
-165.837	-119.135	0.185	0.032
-164.823	-170.308	0.245	0.009
-163.808	-47.686	0.148	-0.071
-162.793	-200.000	-0.014	-0.288
-161.779	76.906	0.253	0.267
-160.764	-0.068	0.080	0.056
-159.750	469.585	-0.161	-0.360
-158.735	800.000	-0.085	-0.316
-157.720	-38.193	-0.289	0.152
-156.706	-57.390	-0.128	0.056
-155.691	-200.000	-0.045	-0.262
-154.677	-137.723	0.129	-0.014
-153.662	17.682	0.243	-0.192
-152.647	-78.883	-0.322	-0.109
-151.633	-94.612	0.059	0.016
-150.618	-114.598	-0.233	0.044
-149.604	-122.686	0.251	-0.040
-148.589	188.662	-0.125	-0.186
-147.574	-109.996	0.110	-0.023
-146.560	-200.000	0.039	-0.183
-145.545	-97.658	0.294	0.076
-144.531	154.405	0.214	-0.292
-143.516	-13.150	0.181	0.117
-142.502	-86.499	-0.098	-0.030
-141.487	-200.000	0.088	0.415
-140.472	70.558	-0.190	0.195
-139.458	265.775	0.081	-0.140
-138.443	-142.806	0.183	-0.018
-137.429	800.000	-0.058	0.250
-136.414	123.702	0.141	-0.175
-135.399	346.497	0.049	-0.096
-134.385	-43.738	-0.051	-0.026
-133.370	-113.496	0.304	-0.059
-132.356	367.553	-0.193	0.387
-131.341	286.906	-0.211	0.379
-130.326	537.626	-0.055	-0.130
-129.312	-13.301	-0.132	-0.085
-128.297	800.000	-0.038	-0.123
-127.283	-128.583	0.359	0.050
-126.268	43.174	0.375	0.340
-125.253	610.137	0.137	-0.341
-124.239	104.388	0.070	-0.082
-123.224	-83.647	0.267	0.085
-122.210	-101.981	-0.083	-0.020
