DTS Sentinel unit serial number:	SN413079Multiplexer serial number:	ORYXHardware model number:	OX4-SRSoftware version number:	ORYX F/W v4.00 Oryx Data Collector v3.7.2.0data status	okinstallation	princeton_trtdifferential loss correction	single-endedforward channel	channel 4reverse channel	N/Adate	2019/09/12time	02:39:11forward acquisition time	60.00reverse acquisition time	0.00gamma	496.2192k internal	0.2309k external	0.2309temperature offset calibration	1.0089default loss term (dB/km)	0.3790temperature slope calibration	1.0000multiplexer offset coefficient	1.0000multiplexer slope coefficient	1.0000fibre end	0.00T internal ref (°C)	32.44T ext. ref 1 (°C)	2.09T ext. ref 2 (°C)	27.13length (m)	temperature (°C)	Stokes	anti-Stokes-747.200	-146.867	0.241	-0.021
-746.185	-200.000	0.039	0.300
-745.171	570.693	-0.112	-0.278
-744.156	-200.000	-0.027	0.227
-743.142	380.547	-0.068	0.141
-742.127	697.708	0.010	-0.026
-741.112	-45.667	-0.198	0.099
-740.098	387.165	-0.096	0.201
-739.083	136.422	0.083	-0.110
-738.069	-33.850	0.173	0.097
-737.054	-200.000	0.006	0.067
-736.039	-66.706	-0.324	0.130
-735.025	-200.000	-0.024	0.253
-734.010	301.968	-0.103	-0.194
-732.996	-200.000	0.014	-0.368
-731.981	-52.568	-0.302	0.142
-730.966	-200.000	-0.047	0.323
-729.952	102.077	-0.227	0.269
-728.937	119.569	-0.273	-0.343
-727.923	133.987	0.018	-0.024
-726.908	-32.574	0.274	0.155
-725.894	80.283	0.105	-0.115
-724.879	-4.626	-0.105	-0.073
-723.864	-65.411	-0.234	-0.095
-722.850	-97.297	0.049	0.013
-721.835	-113.346	0.127	0.025
-720.821	-180.178	-0.055	0.001
-719.806	5.298	0.089	0.067
-718.791	149.035	-0.181	-0.249
-717.777	321.994	-0.068	-0.132
-716.762	800.000	-0.044	-0.146
-715.748	46.460	-0.106	-0.100
-714.733	-200.000	0.028	0.229
-713.718	-200.000	-0.053	-0.314
-712.704	-200.000	-0.044	-0.205
-711.689	55.593	0.097	-0.095
-710.675	800.000	-0.083	0.304
-709.660	116.192	0.108	0.134
-708.645	-133.774	-0.338	-0.043
-707.631	3.990	-0.027	0.020
-706.616	183.568	-0.074	0.111
-705.602	87.517	-0.158	-0.177
-704.587	490.492	0.111	-0.257
-703.572	-200.000	-0.027	-0.218
-702.558	-200.000	-0.002	0.130
-701.543	35.559	0.032	-0.028
-700.529	655.624	0.085	0.222
-699.514	22.563	-0.077	-0.064
-698.499	-61.083	0.051	-0.022
-697.485	-143.754	-0.159	0.015
-696.470	91.236	-0.005	-0.006
-695.456	49.186	0.056	0.054
-694.441	800.000	0.040	-0.158
-693.426	-51.700	0.384	0.181
-692.412	375.032	-0.187	-0.387
-691.397	-0.491	-0.261	0.188
-690.383	-200.000	-0.009	-0.141
-689.368	-170.150	-0.193	0.007
-688.354	-67.253	0.316	-0.126
-687.339	7.086	-0.112	-0.085
-686.324	-122.419	0.287	-0.047
-685.310	342.640	0.092	-0.182
-684.295	-200.000	-0.038	-0.351
-683.281	-97.054	-0.410	0.109
-682.266	800.000	-0.040	0.163
-681.251	153.237	0.165	-0.229
-680.237	800.000	-0.080	0.283
-679.222	204.667	-0.131	-0.206
-678.208	-135.637	0.553	-0.067
-677.193	-23.509	0.277	0.168
-676.178	-144.326	0.143	0.013
-675.164	-57.024	0.288	0.128
-674.149	800.000	0.078	-0.242
-673.135	-107.040	0.176	-0.039
-672.120	-200.000	-0.057	-0.279
-671.105	800.000	-0.045	0.137
-670.091	-130.764	0.146	0.020
-669.076	-165.903	-0.299	0.013
-668.062	800.000	-0.064	0.257
-667.047	151.514	0.229	-0.316
-666.032	800.000	-0.061	-0.257
-665.018	330.578	0.090	-0.176
-664.003	800.000	-0.022	0.078
-662.989	-200.000	-0.039	0.181
-661.974	-92.611	0.238	-0.068
-660.959	-76.120	-0.280	0.100
-659.945	-200.000	0.031	-0.320
-658.930	36.050	-0.341	-0.304
-657.916	-66.103	0.248	0.100
-656.901	-154.849	-0.304	-0.020
-655.886	-85.744	-0.470	-0.148
-654.872	-69.795	0.522	-0.202
-653.857	-59.237	0.099	-0.043
-652.843	45.711	0.131	0.122
-651.828	-114.369	-0.075	-0.015
-650.814	699.215	-0.067	-0.179
-649.799	800.000	0.058	-0.164
-648.784	51.051	-0.100	-0.096
-647.770	634.431	-0.109	0.279
-646.755	-72.942	0.012	0.005
-645.741	-38.805	0.145	-0.077
-644.726	226.601	-0.074	-0.122
-643.711	191.181	-0.156	-0.237
-642.697	-40.808	-0.109	0.057
-641.682	-102.159	-0.188	-0.046
-640.668	208.723	0.057	0.090
-639.653	455.999	0.162	-0.365
-638.638	149.454	-0.073	-0.100
-637.624	212.747	0.162	0.258
-636.609	763.358	-0.075	-0.205
-635.595	-52.886	-0.272	-0.127
-634.580	230.693	-0.109	-0.180
-633.565	726.684	-0.218	0.588
-632.551	-77.736	-0.316	0.110
-631.536	-8.716	-0.168	-0.114
-630.522	-123.168	-0.069	0.011
-629.507	-73.014	0.206	-0.077
-628.492	-70.324	-0.151	0.058
-627.478	10.467	0.235	-0.181
-626.463	-65.761	0.474	-0.192
-625.449	464.524	0.081	-0.184
-624.434	800.000	0.060	-0.195
-623.419	-200.000	0.074	-0.336
-622.405	14.286	-0.076	-0.060
-621.390	-200.000	0.023	0.301
-620.376	243.477	0.092	0.155
-619.361	58.803	0.150	0.149
-618.346	-159.445	-0.319	-0.018
-617.332	-200.000	-0.003	-0.275
-616.317	-182.778	0.124	-0.002
-615.303	-148.212	-0.029	-0.002
-614.288	-200.000	-0.003	0.046
-613.273	-172.275	-0.247	0.008
-612.259	-200.000	-0.028	0.192
-611.244	-200.000	0.014	-0.184
-610.230	57.732	0.138	0.136
-609.215	-3.898	-0.287	-0.201
-608.201	-77.151	-0.146	-0.051
-607.186	-200.000	0.006	-0.257
-606.171	800.000	0.027	-0.102
-605.157	800.000	-0.053	0.230
-604.142	-200.000	-0.016	0.233
-603.128	210.283	-0.026	-0.041
-602.113	-200.000	0.006	-0.195
-601.098	-128.742	0.116	-0.016
-600.084	-8.763	-0.231	0.156
-599.069	-200.000	-0.010	0.145
-598.055	703.607	0.065	0.172
-597.040	247.707	0.182	-0.311
-596.025	53.408	-0.089	-0.086
-595.011	-20.548	0.269	-0.167
-593.996	-65.792	-0.196	0.079
-592.982	-25.720	0.387	0.230
-591.967	5.342	0.236	0.176
-590.952	-131.806	-0.367	0.048
-589.938	-55.138	0.338	0.153
-588.923	390.619	0.145	-0.304
-587.909	-130.616	-0.455	0.062
-586.894	-105.237	0.155	-0.036
-585.879	-17.758	0.081	0.052
-584.865	-68.736	-0.192	0.075
-583.850	67.636	-0.085	-0.088
-582.836	-30.809	0.123	-0.070
-581.821	800.000	0.037	-0.122
-580.806	255.024	-0.158	-0.273
-579.792	231.463	-0.183	-0.302
-578.777	-38.312	0.134	-0.072
-577.763	-200.000	-0.014	0.087
-576.748	-200.000	0.026	0.269
-575.733	27.407	-0.200	0.170
-574.719	-73.133	-0.077	-0.028
-573.704	800.000	-0.067	-0.276
-572.690	-60.175	-0.290	0.125
-571.675	800.000	0.010	-0.037
-570.661	-66.425	0.313	0.126
-569.646	-91.771	-0.071	-0.020
-568.631	29.701	-0.128	0.110
-567.617	368.967	0.030	0.062
-566.602	-106.455	0.324	0.073
-565.588	438.141	-0.173	0.380
-564.573	55.253	0.323	-0.315
-563.558	35.414	-0.196	-0.174
-562.544	193.253	0.104	-0.159
-561.529	231.419	-0.049	0.080
-560.515	-67.600	-0.208	0.082
-559.500	-75.208	0.161	0.058
-558.485	-121.626	-0.155	-0.026
-557.471	389.497	0.139	-0.290
-556.456	-200.000	-0.028	-0.179
-555.442	-159.258	-0.183	0.010
-554.427	115.459	0.132	-0.163
-553.412	-165.498	-0.120	0.005
-552.398	-200.000	-0.009	0.043
-551.383	465.660	0.186	0.419
-550.369	-158.662	-0.159	0.009
-549.354	-9.228	-0.181	0.122
-548.339	119.461	0.354	-0.442
-547.325	-200.000	-0.058	-0.300
-546.310	-52.685	-0.164	-0.076
-545.296	273.989	-0.132	-0.236
-544.281	-80.361	0.627	-0.211
-543.266	-53.604	-0.407	-0.188
-542.252	-136.843	-0.118	-0.014
-541.237	-200.000	-0.018	0.227
-540.223	-11.748	-0.133	-0.088
-539.208	555.580	-0.090	0.218
-538.193	-73.913	-0.131	0.048
-537.179	-200.000	0.012	0.075
-536.164	89.272	-0.045	0.051
-535.150	-40.639	0.514	-0.269
-534.135	-171.383	-0.150	-0.005
-533.121	360.068	0.150	0.302
-532.106	94.391	0.185	0.212
-531.091	-122.283	0.274	-0.045
-530.077	-96.357	0.161	0.043
-529.062	800.000	0.044	0.189
-528.048	-200.000	-0.014	0.176
-527.033	-51.485	-0.130	0.061
-526.018	800.000	-0.022	-0.063
-525.004	306.244	0.114	-0.214
-523.989	92.753	0.018	0.020
-522.975	-200.000	-0.006	-0.123
-521.960	-200.000	0.019	0.201
-520.945	-21.311	0.109	-0.067
-519.931	-41.184	0.241	-0.125
-518.916	-159.881	0.261	-0.014
-517.902	-200.000	0.004	0.159
-516.887	224.857	0.023	-0.037
-515.872	-200.000	0.008	-0.371
-514.858	9.199	-0.116	-0.088
-513.843	-161.747	0.278	-0.014
-512.829	-65.291	0.208	-0.084
-511.814	-80.749	-0.155	-0.052
-510.799	800.000	0.042	0.135
-509.785	-95.741	-0.303	0.082
-508.770	800.000	-0.086	0.249
-507.756	-27.740	-0.150	0.087
-506.741	800.000	0.085	-0.236
-505.726	72.419	-0.053	-0.056
-504.712	-200.000	0.048	0.000
-503.697	83.139	-0.069	-0.076
-502.683	675.959	-0.106	0.278
-501.668	-145.105	0.091	0.008
-500.653	-200.000	0.033	-0.352
-499.639	-200.000	-0.042	0.330
-498.624	33.863	-0.174	0.152
-497.610	94.403	0.022	-0.026
-496.595	-68.378	-0.361	-0.141
-495.581	-200.000	-0.002	-0.262
-494.566	-200.000	0.001	-0.055
-493.551	-149.331	-0.080	-0.006
-492.537	800.000	-0.073	0.220
-491.522	800.000	-0.087	-0.311
-490.508	81.104	0.283	0.307
-489.493	800.000	-0.136	0.483
-488.478	-29.221	0.280	-0.161
-487.464	-36.192	0.188	0.102
-486.449	800.000	0.127	0.353
-485.435	-200.000	-0.018	0.372
-484.420	-100.638	0.158	-0.039
-483.405	22.881	0.113	-0.093
-482.391	231.085	-0.089	-0.147
-481.376	98.410	-0.121	-0.140
-480.362	800.000	-0.066	-0.208
-479.347	-200.000	0.027	0.268
-478.332	313.547	0.195	0.368
-477.318	332.865	0.180	0.350
-476.303	800.000	0.058	0.198
-475.289	-86.888	-0.230	0.071
-474.274	-96.168	-0.178	0.047
-473.259	176.112	-0.141	-0.206
-472.245	800.000	0.066	-0.207
-471.230	-54.934	-0.325	-0.147
-470.216	-72.695	0.187	-0.069
-469.201	210.511	0.070	-0.111
-468.186	-200.000	-0.003	0.105
-467.172	163.525	-0.289	0.408
-466.157	-200.000	0.000	0.241
-465.143	-131.082	-0.206	-0.028
-464.128	-200.000	-0.043	-0.408
-463.113	-83.967	-0.109	-0.035
-462.099	-97.572	0.332	-0.086
-461.084	-60.651	-0.211	0.090
-460.070	-43.713	-0.120	0.061
-459.055	-40.709	-0.060	-0.031
-458.040	-76.769	-0.149	-0.052
-457.026	-163.251	0.240	0.012
-456.011	494.128	-0.151	0.348
-454.997	30.992	-0.067	0.057
-453.982	-88.810	0.254	-0.076
-452.968	497.456	-0.054	0.126
-451.953	135.615	-0.198	-0.259
-450.938	163.042	0.074	0.105
-449.924	800.000	-0.072	-0.250
-448.909	-16.187	0.270	-0.172
-447.895	800.000	0.051	-0.204
-446.880	-76.645	-0.324	0.114
-445.865	-34.400	0.292	0.161
-444.851	-120.439	0.245	-0.042
-443.836	98.011	0.085	-0.099
-442.822	800.000	-0.121	0.409
-441.807	-117.019	-0.249	0.046
-440.792	-200.000	-0.019	0.117
-439.778	79.978	0.251	-0.271
-438.763	-200.000	-0.036	0.281
-437.749	50.157	-0.057	-0.054
-436.734	-111.840	0.346	-0.070
-435.719	739.896	0.044	-0.117
-434.705	-60.935	-0.364	-0.154
-433.690	311.755	0.185	0.348
-432.676	-18.727	-0.323	0.202
-431.661	800.000	-0.135	0.407
-430.646	-80.203	-0.129	-0.043
-429.632	800.000	0.035	0.145
-428.617	661.566	-0.073	0.190
-427.603	-109.304	0.348	0.074
-426.588	-91.572	-0.193	0.055
-425.573	218.890	0.208	0.334
-424.559	-186.166	0.152	-0.002
-423.544	800.000	0.047	-0.181
-422.530	37.246	0.171	-0.152
-421.515	-63.204	0.154	-0.063
-420.500	139.541	-0.041	-0.054
-419.486	-146.223	0.342	-0.030
-418.471	-85.611	-0.297	0.092
-417.457	-105.072	-0.419	-0.096
-416.442	72.355	-0.088	-0.091
-415.428	-200.000	0.089	0.517
-414.413	-106.217	0.166	-0.037
-413.398	-115.957	0.176	0.033
-412.384	-160.400	0.190	-0.010
-411.369	73.785	-0.156	-0.164
-410.355	-66.832	0.118	-0.047
-409.340	-160.834	-0.176	0.009
-408.325	24.139	0.072	-0.059
-407.311	-58.373	0.081	-0.035
-406.296	-200.000	-0.042	-0.214
-405.282	54.090	0.175	-0.169
-404.267	-188.476	-0.309	-0.004
-403.252	560.720	0.125	0.302
-402.238	21.259	0.117	0.095
-401.223	455.606	0.083	-0.185
-400.209	212.234	0.050	-0.080
-399.194	-200.000	-0.004	0.252
-398.179	-160.138	0.011	-0.001
-397.165	-200.000	-0.037	0.501
-396.150	380.610	-0.006	-0.012
-395.136	14.262	-0.192	-0.150
-394.121	8.113	0.293	0.221
-393.106	-4.491	-0.226	0.156
-392.092	108.667	0.083	0.099
-391.077	800.000	0.049	0.167
-390.063	254.485	0.028	-0.047
-389.048	-5.674	-0.313	0.215
-388.033	-113.664	-0.225	-0.044
-387.019	-74.552	0.245	-0.088
-386.004	-103.152	-0.200	-0.047
-384.990	-200.000	-0.010	0.084
-383.975	-200.000	0.070	-0.375
-382.960	-126.988	-0.297	0.044
-381.946	115.299	0.051	0.063
-380.931	-200.000	0.034	-0.232
-379.917	-200.000	0.033	-0.300
-378.902	-200.000	0.024	-0.170
-377.888	-200.000	0.086	-0.484
-376.873	-17.070	-0.381	-0.241
-375.858	-88.996	-0.279	0.083
-374.844	25.797	0.216	0.181
-373.829	-61.042	0.148	0.062
-372.815	-84.351	-0.328	0.104
-371.800	800.000	-0.057	0.182
-370.785	-71.293	0.327	-0.123
-369.771	-96.976	-0.106	0.028
-368.756	267.137	0.074	0.130
-367.742	26.337	-0.379	-0.317
-366.727	-175.595	-0.212	0.006
-365.712	159.214	0.158	0.219
-364.698	-200.000	0.025	-0.177
-363.683	-160.175	0.213	0.012
-362.669	136.820	-0.249	0.326
-361.654	-88.304	-0.207	0.062
-360.639	240.504	-0.072	-0.121
-359.625	-200.000	0.005	0.144
-358.610	-135.745	-0.074	-0.009
-357.596	525.845	-0.056	0.133
-356.581	79.346	-0.122	-0.131
-355.566	-76.735	-0.310	-0.109
-354.552	800.000	-0.061	-0.189
-353.537	-200.000	0.036	0.223
-352.523	39.001	0.151	0.135
-351.508	-6.866	0.148	0.100
-350.493	-127.957	0.128	-0.018
-349.479	-200.000	-0.074	-0.451
-348.464	-88.244	0.585	0.175
-347.450	-200.000	-0.058	-0.291
-346.435	800.000	0.113	-0.412
-345.420	-69.714	-0.266	0.102
-344.406	-200.000	0.044	0.363
-343.391	609.193	0.047	0.118
-342.377	793.801	0.017	-0.046
-341.362	-200.000	-0.052	-0.243
-340.348	685.483	-0.075	-0.197
-339.333	-113.069	-0.065	0.013
-338.318	-116.066	0.336	0.063
-337.304	130.099	0.083	0.107
-336.289	800.000	0.056	-0.164
-335.275	800.000	-0.058	-0.162
-334.260	-89.743	-0.281	-0.082
-333.245	-200.000	0.003	-0.042
-332.231	-1.955	0.395	0.278
-331.216	771.901	0.049	-0.133
-330.202	177.374	-0.162	-0.235
-329.187	-200.000	0.048	0.349
-328.172	-80.583	-0.059	-0.020
-327.158	-195.155	0.060	-0.000
-326.143	220.145	0.112	-0.179
-325.129	131.481	0.170	0.218
-324.114	20.561	-0.157	0.127
-323.099	-66.615	0.308	-0.122
-322.085	472.598	-0.107	-0.240
-321.070	12.531	-0.337	0.259
-320.056	497.627	-0.110	0.254
-319.041	800.000	0.048	-0.148
-318.026	-200.000	-0.010	-0.367
-317.012	616.495	-0.012	-0.030
-315.997	71.173	0.339	0.351
-314.983	673.260	-0.064	-0.165
-313.968	800.000	0.025	0.092
-312.953	-69.271	-0.202	-0.078
-311.939	-88.253	0.105	0.032
-310.924	393.988	0.037	0.076
-309.910	-104.160	0.126	0.029
-308.895	-200.000	-0.004	0.055
-307.880	275.780	-0.176	-0.313
-306.866	67.266	0.067	0.068
-305.851	-200.000	0.023	-0.211
-304.837	-23.340	0.202	-0.121
-303.822	213.906	0.183	-0.290
-302.807	-200.000	-0.027	-0.422
-301.793	115.556	0.092	-0.112
-300.778	-81.638	-0.128	-0.042
-299.764	329.276	-0.124	-0.238
-298.749	134.993	-0.224	0.291
-297.735	77.284	0.161	-0.171
-296.720	87.831	-0.061	0.067
-295.705	800.000	-0.085	-0.335
-294.691	-40.416	0.081	0.042
-293.676	-169.264	0.164	0.006
-292.662	28.547	-0.145	-0.122
-291.647	24.415	-0.285	0.236
-290.632	-130.599	0.236	-0.032
-289.618	71.506	0.078	0.081
-288.603	800.000	0.020	0.069
-287.589	-44.416	0.175	0.088
-286.574	-200.000	0.035	0.363
-285.559	-56.293	-0.224	0.099
-284.545	-16.848	0.132	0.083
-283.530	143.583	-0.058	0.077
-282.516	-92.580	0.376	-0.105
-281.501	-39.615	0.294	0.153
-280.486	-142.794	0.253	-0.025
-279.472	138.247	0.060	0.079
-278.457	22.718	0.143	0.117
-277.443	28.311	0.173	-0.146
-276.428	66.477	-0.209	0.212
-275.413	144.193	-0.043	0.057
-274.399	-74.555	-0.274	0.098
-273.384	-15.211	0.380	-0.242
-272.370	-121.499	0.058	-0.010
-271.355	-87.949	0.422	-0.127
-270.340	800.000	0.034	-0.113
-269.326	-160.279	-0.166	-0.009
-268.311	-85.179	-0.030	-0.009
-267.297	-200.000	-0.060	-0.282
-266.282	381.422	-0.124	-0.253
-265.267	-200.000	-0.009	-0.060
-264.253	24.574	0.123	-0.102
-263.238	-200.000	0.018	-0.099
-262.224	-200.000	0.036	0.182
-261.209	594.457	0.078	-0.193
-260.195	59.437	-0.181	0.177
-259.180	162.710	-0.234	0.327
-258.165	-200.000	0.003	-0.042
-257.151	-151.610	0.250	-0.018
-256.136	-87.508	0.105	0.032
-255.122	-67.375	0.187	-0.073
-254.107	-100.088	0.346	-0.086
-253.092	183.703	0.086	-0.126
-252.078	-200.000	-0.006	0.347
-251.063	36.021	-0.129	0.113
-250.049	-44.667	0.167	-0.083
-249.034	519.107	-0.057	-0.132
-248.019	55.865	-0.115	-0.111
-247.005	-89.950	-0.356	0.104
-245.990	-200.000	-0.051	0.537
-244.976	459.688	-0.097	0.214
-243.961	-64.162	0.046	0.019
-242.946	-57.433	-0.398	-0.174
-241.932	-39.235	-0.107	0.056
-240.917	-1.271	-0.072	0.051
-239.903	452.726	0.112	-0.246
-238.888	-54.219	0.134	-0.061
-237.873	-158.169	0.336	0.020
-236.859	-64.562	-0.122	-0.049
-235.844	-140.145	-0.212	0.022
-234.830	-200.000	0.032	0.349
-233.815	800.000	0.010	-0.042
-232.800	-78.164	-0.269	-0.092
-231.786	-36.171	-0.173	0.093
-230.771	246.344	0.033	0.056
-229.757	-81.980	-0.166	0.054
-228.742	-78.481	0.254	-0.087
-227.727	-118.827	-0.058	-0.010
-226.713	25.524	-0.054	-0.044
-225.698	800.000	0.076	-0.248
-224.684	-33.688	0.213	-0.117
-223.669	143.635	0.041	-0.055
-222.655	-200.000	0.017	0.262
-221.640	-112.817	-0.160	0.032
-220.625	418.204	-0.054	0.114
-219.611	124.251	0.145	0.181
-218.596	-6.236	-0.024	-0.016
-217.582	-200.000	0.029	0.154
-216.567	800.000	0.086	0.271
-215.552	-35.900	-0.121	-0.065
-214.538	-72.057	-0.277	-0.102
-213.523	-82.987	0.226	-0.072
-212.509	456.336	0.017	0.037
-211.494	9.904	0.237	0.179
-210.479	-151.868	-0.143	-0.010
-209.465	147.729	-0.217	-0.291
-208.450	-101.434	-0.089	0.021
-207.436	-87.589	0.602	0.181
-206.421	-81.429	0.268	0.088
-205.406	800.000	-0.028	0.113
-204.392	-97.821	-0.207	-0.053
-203.377	-49.815	-0.259	-0.122
-202.363	52.698	-0.200	-0.190
-201.348	-148.551	-0.320	-0.026
-200.333	-123.803	0.060	0.009
-199.319	62.187	0.105	0.104
-198.304	18.033	-0.144	0.114
-197.290	-39.330	0.110	0.057
-196.275	-200.000	0.017	-0.147
-195.260	103.125	-0.197	-0.230
-194.246	260.984	0.241	0.414
-193.231	-171.666	-0.330	0.011
-192.217	800.000	-0.049	-0.137
-191.202	-69.282	0.229	-0.088
-190.187	-200.000	0.009	-0.182
-189.173	360.591	-0.123	-0.244
-188.158	-200.000	-0.033	-0.194
-187.144	-156.806	0.223	0.014
-186.129	-20.434	-0.141	0.086
-185.114	123.959	-0.089	0.111
-184.100	177.936	0.162	-0.235
-183.085	87.678	0.091	-0.100
-182.071	-200.000	0.012	0.067
-181.056	-200.000	-0.021	0.115
-180.042	235.599	0.101	0.165
-179.027	146.809	0.139	0.185
-178.012	-109.728	-0.221	-0.046
-176.998	308.421	-0.199	-0.369
-175.983	163.753	-0.113	-0.158
-174.969	235.411	0.060	-0.099
-173.954	-190.254	0.091	0.001
-172.939	-200.000	-0.007	0.125
-171.925	121.604	-0.230	-0.284
-170.910	800.000	-0.031	-0.098
-169.896	166.826	-0.070	0.099
-168.881	-85.694	0.112	-0.034
-167.866	-200.000	0.058	0.576
-166.852	-126.469	0.292	0.043
-165.837	-119.787	0.136	0.023
-164.823	-200.000	-0.007	0.125
-163.808	-200.000	-0.021	-0.110
-162.793	-153.926	0.050	0.003
-161.779	-74.179	0.105	-0.038
-160.764	49.388	0.235	0.220
-159.750	-122.288	-0.248	0.040
-158.735	-147.593	0.055	-0.005
-157.720	-200.000	0.020	-0.185
-156.706	-55.720	-0.141	0.063
-155.691	-63.432	-0.205	-0.084
-154.677	-200.000	0.065	0.421
-153.662	-154.318	-0.105	-0.007
-152.647	300.826	0.031	0.057
-151.633	-200.000	-0.010	0.176
-150.618	48.455	0.062	0.058
-149.604	800.000	0.092	0.284
-148.589	65.543	-0.270	-0.271
-147.574	800.000	-0.033	0.104
-146.560	-200.000	-0.020	-0.214
-145.545	-149.903	0.469	-0.036
-144.531	412.521	0.071	0.149
-143.516	342.927	0.187	-0.363
-142.502	800.000	0.106	-0.340
-141.487	-137.738	-0.149	0.017
-140.472	171.773	0.182	0.259
-139.458	-200.000	0.011	0.099
-138.443	156.512	0.206	-0.282
-137.429	-200.000	-0.009	0.200
-136.414	-110.480	-0.161	0.033
-135.399	800.000	0.020	0.065
-134.385	32.523	-0.403	0.346
-133.370	218.558	-0.268	0.425
-132.356	111.141	0.049	0.059
-131.341	169.600	0.081	0.115
-130.326	800.000	0.066	-0.241
-129.312	380.965	-0.113	-0.229
-128.297	-91.640	-0.187	0.053
-127.283	9.589	0.180	0.136
-126.268	43.357	0.245	0.222
-125.253	43.428	-0.095	-0.086
-124.239	-151.325	0.166	0.012
-123.224	26.121	0.158	0.131
-122.210	-54.081	-0.385	0.174
