DTS Sentinel unit serial number:	SN413079Multiplexer serial number:	ORYXHardware model number:	OX4-SRSoftware version number:	ORYX F/W v4.00 Oryx Data Collector v3.7.2.0data status	okinstallation	princeton_trtdifferential loss correction	single-endedforward channel	channel 4reverse channel	N/Adate	2019/09/12time	07:43:11forward acquisition time	60.00reverse acquisition time	0.00gamma	496.2192k internal	0.2303k external	0.2303temperature offset calibration	1.0066default loss term (dB/km)	0.3790temperature slope calibration	1.0000multiplexer offset coefficient	1.0000multiplexer slope coefficient	1.0000fibre end	0.00T internal ref (°C)	32.75T ext. ref 1 (°C)	1.63T ext. ref 2 (°C)	28.89length (m)	temperature (°C)	Stokes	anti-Stokes-747.200	-200.000	-0.035	0.191
-746.185	-28.483	-0.198	-0.116
-745.171	-200.000	0.036	0.351
-744.156	-200.000	0.023	0.186
-743.142	-200.000	0.017	-0.632
-742.127	-200.000	0.053	0.348
-741.112	-200.000	-0.011	-0.059
-740.098	24.486	-0.053	-0.045
-739.083	201.981	0.144	0.225
-738.069	-75.863	0.238	-0.086
-737.054	-106.595	-0.227	0.051
-736.039	-46.535	-0.280	-0.140
-735.025	-119.285	0.172	0.030
-734.010	67.801	-0.179	-0.186
-732.996	-141.552	-0.221	-0.023
-731.981	206.412	-0.038	-0.060
-730.966	-178.395	-0.416	0.010
-729.952	99.437	-0.062	-0.073
-728.937	-67.253	0.117	0.047
-727.923	-90.051	-0.457	-0.135
-726.908	-112.980	-0.098	-0.020
-725.894	-200.000	0.010	0.108
-724.879	-10.193	0.182	-0.123
-723.864	106.277	-0.052	0.062
-722.850	-191.629	-0.185	0.002
-721.835	-200.000	-0.018	-0.224
-720.821	0.585	0.121	-0.088
-719.806	-93.875	-0.139	-0.039
-718.791	-51.964	-0.181	-0.085
-717.777	-23.513	-0.369	-0.225
-716.762	-57.695	0.215	-0.096
-715.748	575.703	-0.138	-0.342
-714.733	-87.462	-0.155	0.048
-713.718	-115.995	-0.016	-0.003
-712.704	800.000	0.069	0.195
-711.689	-52.622	-0.306	-0.144
-710.675	-172.248	0.070	-0.002
-709.660	-200.000	-0.028	-0.157
-708.645	61.383	-0.134	0.136
-707.631	213.803	0.071	0.114
-706.616	115.482	-0.117	0.145
-705.602	21.556	0.124	-0.103
-704.587	318.296	0.162	-0.313
-703.572	-13.022	-0.337	-0.223
-702.558	-113.812	-0.471	-0.093
-701.543	36.462	0.057	-0.051
-700.529	-200.000	0.037	-0.239
-699.514	-200.000	0.038	-0.350
-698.499	-200.000	0.030	-0.332
-697.485	-200.000	-0.035	-0.245
-696.470	800.000	0.043	0.189
-695.456	-22.225	-0.424	0.262
-694.441	58.601	-0.245	-0.244
-693.426	8.141	0.129	0.098
-692.412	-200.000	0.058	-0.311
-691.397	175.101	-0.076	0.112
-690.383	253.682	0.086	-0.149
-689.368	-76.638	0.169	0.060
-688.354	-15.177	-0.300	-0.195
-687.339	77.563	-0.083	0.089
-686.324	-200.000	0.027	0.230
-685.310	96.449	0.144	0.167
-684.295	800.000	-0.007	0.028
-683.281	-200.000	0.018	0.237
-682.266	491.579	-0.126	-0.293
-681.251	100.901	-0.027	-0.032
-680.237	-48.037	-0.040	-0.020
-679.222	-153.755	-0.326	0.023
-678.208	-122.905	0.401	0.066
-677.193	536.721	-0.072	-0.174
-676.178	-88.191	-0.183	-0.056
-675.164	-74.345	-0.311	-0.114
-674.149	-58.875	-0.195	-0.086
-673.135	80.295	-0.005	-0.005
-672.120	-200.000	-0.007	-0.175
-671.105	21.864	0.026	-0.022
-670.091	272.103	-0.129	0.231
-669.076	-103.026	0.198	0.048
-668.062	102.882	0.075	0.089
-667.047	-200.000	-0.060	0.506
-666.032	-36.516	0.085	-0.046
-665.018	14.663	-0.066	-0.052
-664.003	-99.878	-0.136	0.034
-662.989	-104.833	-0.174	-0.041
-661.974	472.640	-0.084	-0.192
-660.959	91.531	0.035	-0.040
-659.945	-126.767	0.137	0.021
-658.930	-184.016	-0.199	-0.003
-657.916	800.000	-0.076	-0.240
-656.901	106.490	0.183	0.221
-655.886	-200.000	-0.022	-0.397
-654.872	6.730	0.069	0.052
-653.857	-32.587	0.196	0.111
-652.843	-135.074	-0.121	0.015
-651.828	40.573	-0.168	-0.154
-650.814	800.000	0.089	-0.301
-649.799	800.000	0.065	0.279
-648.784	-76.932	0.310	0.110
-647.770	-37.774	0.179	0.097
-646.755	61.147	-0.069	0.070
-645.741	-98.913	-0.062	-0.016
-644.726	-128.486	-0.133	-0.019
-643.711	118.098	0.094	-0.118
-642.697	219.193	0.143	0.232
-641.682	-105.158	-0.144	0.033
-640.668	13.178	-0.271	0.213
-639.653	-200.000	0.018	0.282
-638.638	-200.000	0.001	0.195
-637.624	800.000	0.061	0.188
-636.609	800.000	-0.065	0.242
-635.595	108.598	0.125	0.151
-634.580	-65.285	-0.306	-0.125
-633.565	45.148	0.039	-0.036
-632.551	127.105	0.118	0.152
-631.536	-72.301	0.240	0.090
-630.522	800.000	0.075	-0.281
-629.507	51.143	0.315	-0.303
-628.492	800.000	-0.050	-0.174
-627.478	800.000	-0.042	0.136
-626.463	24.846	-0.126	-0.106
-625.449	155.838	-0.144	-0.201
-624.434	9.027	-0.083	-0.063
-623.419	-161.692	-0.294	0.015
-622.405	159.662	-0.153	-0.216
-621.390	-101.959	0.357	0.087
-620.376	200.286	-0.174	-0.270
-619.361	3.460	0.366	-0.270
-618.346	-143.505	-0.211	-0.020
-617.332	-61.965	0.107	0.045
-616.317	-172.716	0.064	-0.002
-615.303	-165.846	0.416	-0.018
-614.288	-83.436	0.080	-0.026
-613.273	20.500	-0.100	-0.082
-612.259	271.811	-0.068	-0.122
-611.244	-80.057	0.111	-0.038
-610.230	81.917	-0.262	0.288
-609.215	2.460	0.045	-0.033
-608.201	210.708	0.087	-0.138
-607.186	-44.445	0.056	-0.029
-606.171	245.143	-0.148	-0.253
-605.157	755.121	-0.111	-0.304
-604.142	392.992	-0.075	0.157
-603.128	-200.000	-0.378	0.001
-602.113	111.572	0.045	0.055
-601.098	142.461	-0.210	0.283
-600.084	800.000	0.036	-0.127
-599.069	-5.933	0.143	0.099
-598.055	-129.191	0.160	-0.023
-597.040	-62.427	0.264	0.111
-596.025	-94.678	0.247	-0.068
-595.011	73.453	0.139	0.147
-593.996	-87.689	-0.105	0.032
-592.982	366.891	0.080	-0.164
-591.967	-11.916	-0.187	0.124
-590.952	-117.133	-0.073	-0.014
-589.938	32.318	0.109	-0.095
-588.923	-200.000	0.024	-0.453
-587.909	47.193	-0.281	0.265
-586.894	415.613	0.092	-0.199
-585.879	800.000	0.042	0.186
-584.865	-200.000	-0.034	-0.309
-583.850	800.000	0.011	0.047
-582.836	-200.000	0.024	0.187
-581.821	-200.000	0.013	0.310
-580.806	-174.910	0.102	0.003
-579.792	-11.731	-0.307	-0.204
-578.777	-200.000	0.037	-0.203
-577.763	197.205	-0.165	0.254
-576.748	-200.000	-0.020	-0.146
-575.733	-13.110	-0.142	-0.094
-574.719	138.977	-0.120	0.159
-573.704	-187.200	0.336	0.005
-572.690	800.000	0.046	-0.142
-571.675	-92.534	0.321	-0.091
-570.661	666.919	0.112	-0.292
-569.646	176.593	0.122	-0.179
-568.631	800.000	-0.034	-0.113
-567.617	26.335	-0.285	-0.241
-566.602	-141.632	0.018	-0.002
-565.588	447.598	-0.086	0.191
-564.573	-61.215	0.157	0.067
-563.558	-191.343	0.306	0.003
-562.544	344.233	-0.095	0.188
-561.529	-66.555	-0.358	-0.144
-560.515	74.977	0.121	0.129
-559.500	-6.450	-0.214	0.148
-558.485	-200.000	0.012	0.143
-557.471	135.750	-0.045	-0.059
-556.456	157.944	0.066	-0.092
-555.442	-122.662	0.443	0.073
-554.427	496.983	-0.070	-0.162
-553.412	705.621	0.060	-0.160
-552.398	-200.000	0.037	0.312
-551.383	358.375	0.091	0.184
-550.369	-83.372	-0.325	-0.105
-549.354	111.489	-0.136	0.165
-548.339	25.450	-0.094	-0.079
-547.325	-200.000	-0.005	0.465
-546.310	800.000	-0.145	0.423
-545.296	180.936	0.080	0.119
-544.281	717.083	-0.113	-0.302
-543.266	-92.446	0.404	-0.115
-542.252	486.586	-0.186	0.430
-541.237	-133.300	-0.097	-0.012
-540.223	-38.233	-0.213	-0.114
-539.208	-83.550	-0.172	-0.056
-538.193	205.579	-0.175	-0.275
-537.179	-55.165	-0.106	0.048
-536.164	-184.769	-0.337	0.005
-535.150	-200.000	0.022	0.244
-534.135	-68.760	-0.104	-0.041
-533.121	-60.428	0.129	-0.055
-532.106	-24.472	-0.352	0.212
-531.091	-68.385	-0.142	-0.056
-530.077	-29.698	0.265	-0.153
-529.062	-16.684	0.079	0.051
-528.048	72.104	-0.127	-0.133
-527.033	800.000	0.061	-0.242
-526.018	-68.848	-0.244	-0.095
-525.004	709.797	0.131	0.350
-523.989	-73.241	0.134	-0.050
-522.975	-200.000	-0.064	0.350
-521.960	-200.000	-0.009	0.288
-520.945	-121.413	0.180	-0.030
-519.931	33.261	0.276	0.242
-518.916	-44.952	0.006	-0.003
-517.902	800.000	-0.044	-0.124
-516.887	70.699	0.051	-0.053
-515.872	15.109	0.123	-0.098
-514.858	489.013	-0.028	0.063
-513.843	-119.843	-0.169	-0.029
-512.829	-93.602	0.106	0.030
-511.814	381.401	-0.138	-0.286
-510.799	32.873	0.059	0.051
-509.785	39.952	-0.109	0.099
-508.770	-124.834	0.355	0.055
-507.756	-200.000	-0.023	-0.212
-506.741	158.104	-0.055	-0.076
-505.726	-113.366	-0.099	0.020
-504.712	267.394	-0.106	0.188
-503.697	800.000	0.055	-0.181
-502.683	-143.172	0.216	-0.021
-501.668	96.495	-0.084	-0.097
-500.653	299.455	-0.076	-0.141
-499.639	54.130	0.166	-0.161
-498.624	-200.000	-0.014	-0.258
-497.610	800.000	-0.076	0.254
-496.595	-200.000	-0.048	0.294
-495.581	800.000	0.034	0.132
-494.566	51.349	0.114	-0.109
-493.551	800.000	0.099	-0.392
-492.537	800.000	-0.111	-0.325
-491.522	-124.244	0.229	-0.036
-490.508	60.730	0.220	-0.220
-489.493	17.148	0.152	0.121
-488.478	350.141	0.125	-0.249
-487.464	111.860	-0.156	-0.190
-486.449	135.843	0.046	0.060
-485.435	26.512	-0.296	0.250
-484.420	-200.000	-0.014	-0.126
-483.405	-122.562	0.198	0.032
-482.391	-144.219	0.235	0.022
-481.376	88.336	-0.069	-0.078
-480.362	49.566	-0.102	-0.096
-479.347	71.503	0.188	0.197
-478.332	-106.549	0.109	0.024
-477.318	40.714	0.096	-0.087
-476.303	-178.464	0.198	0.005
-475.289	230.249	-0.124	0.204
-474.274	494.192	-0.008	-0.018
-473.259	-200.000	-0.056	0.276
-472.245	312.851	-0.159	-0.301
-471.230	-159.975	-0.179	-0.010
-470.216	-200.000	0.011	-0.167
-469.201	-135.649	0.285	0.034
-468.186	17.519	0.104	0.083
-467.172	64.161	0.383	-0.388
-466.157	23.313	-0.099	0.082
-465.143	-55.148	-0.050	0.022
-464.128	-200.000	-0.001	0.419
-463.113	800.000	-0.034	-0.137
-462.099	136.887	-0.188	-0.248
-461.084	63.965	-0.079	-0.080
-460.070	-126.212	0.259	-0.039
-459.055	41.216	-0.230	-0.210
-458.040	-200.000	0.008	0.166
-457.026	-200.000	0.009	-0.262
-456.011	35.519	0.031	0.027
-454.997	-16.468	-0.066	-0.042
-453.982	-82.704	0.258	0.084
-452.968	800.000	-0.065	-0.235
-451.953	-200.000	0.006	0.321
-450.938	65.929	-0.118	-0.121
-449.924	101.057	-0.066	0.078
-448.909	186.231	-0.083	0.124
-447.895	96.469	0.133	0.154
-446.880	159.030	0.163	0.229
-445.865	-106.967	0.312	0.069
-444.851	-184.475	0.151	0.002
-443.836	769.832	0.075	-0.206
-442.822	11.535	0.188	0.145
-441.807	-49.884	0.147	0.070
-440.792	800.000	0.171	0.619
-439.778	11.680	-0.199	-0.154
-438.763	168.023	-0.144	-0.206
-437.749	41.092	0.191	0.174
-436.734	-77.894	0.059	-0.021
-435.719	-200.000	0.094	0.459
-434.705	4.858	-0.059	0.044
-433.690	44.531	0.097	-0.090
-432.676	-200.000	0.016	0.094
-431.661	-200.000	-0.010	-0.177
-430.646	-187.482	-0.029	0.000
-429.632	-178.456	-0.281	0.007
-428.617	87.606	0.254	-0.282
-427.603	800.000	0.043	0.170
-426.588	-8.196	0.304	0.206
-425.573	87.320	-0.159	-0.177
-424.559	-132.923	0.333	0.043
-423.544	450.397	0.107	-0.237
-422.530	92.086	-0.015	0.017
-421.515	193.575	0.046	-0.070
-420.500	-33.146	0.199	0.111
-419.486	486.957	-0.065	0.149
-418.471	-200.000	0.079	0.368
-417.457	-157.943	0.427	-0.025
-416.442	-71.471	-0.315	-0.118
-415.428	166.907	0.042	-0.060
-414.413	120.566	0.270	0.337
-413.398	-200.000	0.018	-0.228
-412.384	156.509	0.091	0.127
-411.369	-177.677	-0.251	0.006
-410.355	216.505	-0.114	0.182
-409.340	-77.824	0.296	0.103
-408.325	515.033	0.040	-0.095
-407.311	126.153	-0.147	0.187
-406.296	-2.626	-0.128	-0.090
-405.282	-7.612	-0.371	0.252
-404.267	-83.689	-0.201	0.065
-403.252	-44.873	-0.238	-0.119
-402.238	37.135	-0.136	-0.121
-401.223	-23.660	-0.036	0.022
-400.209	4.126	-0.267	-0.197
-399.194	-106.906	-0.233	0.052
-398.179	545.293	-0.066	0.158
-397.165	-173.282	-0.316	0.010
-396.150	28.161	-0.211	-0.179
-395.136	-65.237	0.172	0.070
-394.121	37.300	-0.049	-0.043
-393.106	-96.450	-0.181	-0.048
-392.092	-200.000	0.027	0.125
-391.077	1.015	0.413	-0.297
-390.063	-66.842	-0.458	-0.182
-389.048	800.000	0.035	-0.128
-388.033	23.896	-0.213	-0.176
-387.019	800.000	0.025	0.098
-386.004	-200.000	0.009	-0.083
-384.990	675.107	0.123	-0.321
-383.975	118.064	-0.161	-0.199
-382.960	687.601	-0.064	-0.168
-381.946	800.000	-0.022	-0.069
-380.931	36.063	-0.335	-0.296
-379.917	-200.000	0.012	0.115
-378.902	-12.888	-0.402	0.263
-377.888	-103.606	0.188	0.044
-376.873	-200.000	0.014	-0.567
-375.858	-200.000	-0.028	-0.196
-374.844	61.517	0.435	0.435
-373.829	-54.015	0.205	0.094
-372.815	-71.522	0.032	0.012
-371.800	106.889	0.100	0.119
-370.785	5.534	0.107	0.079
-369.771	20.851	-0.129	-0.105
-368.756	-121.150	0.186	-0.031
-367.742	-200.000	-0.111	-0.494
-366.727	139.334	-0.242	0.320
-365.712	122.565	-0.044	0.056
-364.698	-200.000	-0.011	0.120
-363.683	-200.000	-0.027	-0.182
-362.669	800.000	0.063	-0.223
-361.654	-42.227	-0.220	0.113
-360.639	-141.542	0.086	-0.009
-359.625	-106.823	-0.398	0.089
-358.610	-200.000	0.062	0.336
-357.596	308.742	0.075	0.141
-356.581	-63.864	0.190	0.078
-355.566	-58.503	-0.247	-0.108
-354.552	-200.000	-0.038	0.283
-353.537	-43.362	0.403	0.205
-352.523	800.000	-0.028	0.119
-351.508	497.482	-0.071	0.164
-350.493	-1.040	-0.346	-0.246
-349.479	-200.000	0.011	-0.114
-348.464	-77.296	-0.306	-0.107
-347.450	-36.278	0.066	-0.036
-346.435	21.288	-0.045	-0.037
-345.420	-155.270	-0.464	-0.030
-344.406	-20.659	-0.137	0.084
-343.391	800.000	-0.102	-0.322
-342.377	423.855	0.114	-0.246
-341.362	-200.000	0.008	0.337
-340.348	-75.667	0.225	0.080
-339.333	800.000	-0.071	0.213
-338.318	-39.786	-0.217	0.113
-337.304	360.764	0.179	-0.360
-336.289	62.149	0.161	0.161
-335.275	-200.000	-0.005	0.305
-334.260	800.000	0.062	0.178
-333.245	800.000	0.026	0.095
-332.231	-130.972	0.125	0.017
-331.216	134.138	0.108	0.140
-330.202	-51.876	0.257	0.120
-329.187	17.353	0.122	-0.097
-328.172	-59.628	0.149	-0.064
-327.158	-82.781	-0.272	0.088
-326.143	-200.000	0.008	-0.257
-325.129	-163.713	0.175	0.008
-324.114	42.642	0.163	-0.148
-323.099	-188.480	0.197	0.002
-322.085	546.039	0.108	-0.260
-321.070	539.949	-0.153	-0.365
-320.056	-26.819	-0.249	0.146
-319.041	219.258	0.097	-0.156
-318.026	800.000	0.022	-0.069
-317.012	600.651	-0.035	-0.087
-315.997	-200.000	0.014	-0.093
-314.983	-73.577	0.206	0.075
-313.968	-139.816	0.252	0.027
-312.953	-130.307	0.120	-0.016
-311.939	800.000	0.031	-0.122
-310.924	512.177	-0.109	-0.255
-309.910	46.269	-0.191	-0.177
-308.895	-52.917	0.377	-0.174
-307.880	144.114	0.165	-0.220
-306.866	192.950	0.183	0.277
-305.851	184.961	-0.206	0.305
-304.837	-1.992	0.137	0.097
-303.822	251.336	0.165	0.282
-302.807	6.176	0.235	-0.175
-301.793	366.952	-0.077	-0.155
-300.778	400.674	0.172	-0.362
-299.764	-2.697	-0.192	0.134
-298.749	-88.142	0.116	-0.035
-297.735	3.862	0.197	-0.144
-296.720	623.628	0.019	-0.048
-295.705	-200.000	0.023	-0.104
-294.691	161.102	-0.364	-0.509
-293.676	336.031	-0.049	0.094
-292.662	264.202	-0.083	0.144
-291.647	-200.000	-0.018	0.143
-290.632	-200.000	-0.008	-0.049
-289.618	137.078	-0.145	0.190
-288.603	-46.769	-0.253	0.124
-287.589	800.000	-0.079	0.275
-286.574	142.746	-0.054	0.072
-285.559	110.159	-0.030	0.036
-284.545	-112.208	0.274	-0.055
-283.530	-131.333	-0.192	-0.025
-282.516	800.000	-0.031	-0.087
-281.501	-200.000	-0.016	0.129
-280.486	226.027	-0.059	0.096
-279.472	-200.000	0.100	0.463
-278.457	74.923	0.095	0.100
-277.443	427.856	-0.088	0.189
-276.428	106.585	-0.149	-0.176
-275.413	296.648	0.158	-0.290
-274.399	419.116	-0.068	-0.146
-273.384	71.625	0.097	-0.101
-272.370	98.043	0.039	0.045
-271.355	-166.622	-0.136	0.006
-270.340	173.211	0.260	0.375
-269.326	-200.000	-0.010	0.353
-268.311	800.000	-0.082	0.248
-267.297	8.517	-0.046	0.035
-266.282	-77.605	-0.136	-0.047
-265.267	800.000	0.074	-0.285
-264.253	-200.000	0.015	0.102
-263.238	-86.617	-0.031	0.010
-262.224	85.336	-0.100	-0.110
-261.209	287.438	-0.160	-0.289
-260.195	-200.000	0.002	-0.439
-259.180	75.119	0.121	-0.127
-258.165	-21.729	-0.343	-0.208
-257.151	83.714	-0.286	0.311
-256.136	199.824	0.102	0.156
-255.122	-141.733	-0.458	-0.046
-254.107	-150.996	-0.176	0.013
-253.092	800.000	-0.056	-0.205
-252.078	-53.568	0.362	-0.165
-251.063	772.447	0.095	0.258
-250.049	-142.161	0.206	-0.020
-249.034	217.383	0.156	-0.249
-248.019	304.276	-0.171	-0.316
-247.005	135.686	0.075	-0.097
-245.990	104.057	-0.162	0.191
-244.976	-62.606	0.111	0.046
-243.961	-89.406	0.185	-0.054
-242.946	-58.620	-0.400	-0.173
-241.932	33.831	0.263	-0.228
-240.917	800.000	-0.107	-0.318
-239.903	169.118	0.174	-0.248
-238.888	485.462	-0.132	0.299
-237.873	-200.000	-0.011	0.188
-236.859	267.583	0.096	-0.168
-235.844	-174.689	-0.185	-0.005
-234.830	-200.000	-0.002	-0.139
-233.815	-186.257	-0.211	0.003
-232.800	-200.000	-0.022	-0.116
-231.786	284.386	-0.049	-0.087
-230.771	-200.000	0.045	0.488
-229.757	-83.723	-0.303	0.097
-228.742	-200.000	-0.010	0.186
-227.727	264.152	-0.037	0.065
-226.713	-78.398	0.145	-0.050
-225.698	-85.411	-0.104	0.032
-224.684	-144.689	0.238	0.022
-223.669	-87.317	0.156	0.047
-222.655	218.056	0.091	-0.145
-221.640	-120.670	0.332	-0.056
-220.625	195.718	-0.088	0.133
-219.611	46.236	-0.263	0.243
-218.596	-200.000	-0.018	0.117
-217.582	13.594	-0.210	0.163
-216.567	-82.481	0.240	-0.078
-215.552	432.721	-0.088	0.190
-214.538	101.842	-0.216	0.251
-213.523	-5.452	-0.215	-0.148
-212.509	-106.972	-0.237	0.052
-211.494	-132.702	0.398	0.051
-210.479	653.901	-0.096	-0.245
-209.465	78.251	0.105	-0.112
-208.450	222.410	0.039	0.062
-207.436	-200.000	0.023	0.167
-206.421	-200.000	0.031	-0.298
-205.406	800.000	-0.066	-0.188
-204.392	138.033	0.064	0.083
-203.377	-110.032	0.489	-0.102
-202.363	-123.609	0.186	-0.029
-201.348	-200.000	0.001	-0.142
-200.333	52.515	-0.131	0.125
-199.319	79.166	0.072	0.077
-198.304	-99.307	-0.099	0.025
-197.290	-82.599	0.325	-0.105
-196.275	146.980	0.013	-0.018
-195.260	97.638	-0.061	-0.070
-194.246	-200.000	0.000	0.032
-193.231	-35.214	-0.246	0.134
-192.217	88.618	0.132	-0.147
-191.202	7.603	0.323	0.241
-190.187	-200.000	-0.023	-0.269
-189.173	-116.338	0.129	-0.024
-188.158	526.133	0.075	-0.177
-187.144	684.305	0.084	0.219
-186.129	777.948	-0.064	-0.174
-185.114	89.372	0.153	0.170
-184.100	800.000	-0.071	-0.257
-183.085	41.208	0.185	0.166
-182.071	37.646	0.094	-0.083
-181.056	800.000	-0.061	0.184
-180.042	-147.139	-0.162	-0.014
-179.027	-200.000	-0.005	0.312
-178.012	18.633	0.108	0.086
-176.998	800.000	-0.081	0.286
-175.983	-46.769	-0.345	-0.168
-174.969	-200.000	0.005	0.395
-173.954	800.000	-0.037	-0.108
-172.939	-9.900	-0.293	-0.194
-171.925	-200.000	-0.015	0.232
-170.910	-200.000	-0.002	0.182
-169.896	-34.539	0.188	-0.103
-168.881	-33.573	-0.243	0.134
-167.866	97.793	-0.059	-0.068
-166.852	29.587	-0.363	0.307
-165.837	-149.538	0.354	0.028
-164.823	786.840	0.062	-0.169
-163.808	53.143	-0.190	-0.182
-162.793	-149.872	0.027	-0.002
-161.779	-11.821	-0.168	0.110
-160.764	-47.031	-0.303	0.147
-159.750	-200.000	-0.013	-0.249
-158.735	800.000	-0.110	0.354
-157.720	-200.000	-0.003	0.108
-156.706	726.584	-0.027	-0.071
-155.691	553.918	-0.082	-0.196
-154.677	-200.000	0.067	0.314
-153.662	800.000	0.059	-0.172
-152.647	-200.000	-0.014	-0.128
-151.633	190.117	0.106	0.159
-150.618	-124.350	0.250	0.039
-149.604	138.150	-0.082	-0.107
-148.589	299.328	-0.068	0.124
-147.574	61.424	0.230	-0.228
-146.560	-0.712	0.242	-0.170
-145.545	-175.015	-0.287	-0.008
-144.531	2.122	0.253	-0.182
-143.516	-66.270	0.147	-0.058
-142.502	66.386	-0.179	0.181
-141.487	-200.000	0.022	0.196
-140.472	617.053	0.141	-0.352
-139.458	-33.573	0.257	0.141
-138.443	188.775	0.043	-0.064
-137.429	343.249	0.071	-0.139
-136.414	383.398	-0.141	-0.288
-135.399	755.252	-0.099	-0.266
-134.385	-200.000	0.064	-0.392
-133.370	168.411	0.090	0.128
-132.356	676.613	-0.055	-0.141
-131.341	-110.237	-0.034	-0.007
-130.326	30.089	-0.073	0.062
-129.312	800.000	-0.107	-0.352
-128.297	363.573	-0.159	-0.317
-127.283	339.028	0.154	0.298
-126.268	4.209	-0.165	0.120
-125.253	301.835	0.089	-0.164
-124.239	-91.254	0.423	0.120
-123.224	33.005	-0.162	0.139
-122.210	140.752	-0.072	-0.094
-121.195	-151.289	-0.372	0.028
