DTS Sentinel unit serial number:	SN413079Multiplexer serial number:	ORYXHardware model number:	OX4-SRSoftware version number:	ORYX F/W v4.00 Oryx Data Collector v3.7.2.0data status	okinstallation	princeton_trtdifferential loss correction	single-endedforward channel	channel 4reverse channel	N/Adate	2019/09/11time	18:07:11forward acquisition time	60.00reverse acquisition time	0.00gamma	496.2192k internal	0.2275k external	0.2275temperature offset calibration	1.0024default loss term (dB/km)	0.3790temperature slope calibration	1.0000multiplexer offset coefficient	1.0000multiplexer slope coefficient	1.0000fibre end	0.00T internal ref (°C)	44.02T ext. ref 1 (°C)	1.14T ext. ref 2 (°C)	38.88length (m)	temperature (°C)	Stokes	anti-Stokes-747.200	-75.097	0.128	0.047
-746.185	-0.247	0.077	0.057
-745.171	98.614	0.130	-0.154
-744.156	-45.649	-0.151	0.077
-743.142	49.327	0.265	0.257
-742.127	800.000	-0.130	0.374
-741.112	-122.165	0.200	-0.034
-740.098	-78.160	-0.061	-0.022
-739.083	-177.814	-0.355	0.009
-738.069	-25.568	-0.184	-0.112
-737.054	-165.096	-0.252	-0.012
-736.039	800.000	-0.084	0.352
-735.025	181.471	-0.140	-0.212
-734.010	389.261	-0.193	0.412
-732.996	186.465	-0.102	0.156
-731.981	124.737	0.112	0.146
-730.966	126.831	-0.110	0.143
-729.952	556.980	-0.074	0.184
-728.937	800.000	0.100	0.373
-727.923	76.903	0.128	0.141
-726.908	-136.048	-0.062	-0.008
-725.894	-194.485	-0.197	-0.002
-724.879	-94.714	-0.081	0.023
-723.864	82.414	0.128	-0.144
-722.850	-171.736	-0.242	0.008
-721.835	-164.350	0.261	-0.012
-720.821	-114.809	-0.082	-0.016
-719.806	-28.276	-0.101	0.060
-718.791	800.000	-0.094	-0.324
-717.777	95.726	-0.201	-0.236
-716.762	-77.527	0.192	0.069
-715.748	69.537	0.228	0.242
-714.733	344.292	0.046	-0.094
-713.718	800.000	0.044	-0.170
-712.704	0.156	0.148	0.109
-711.689	274.650	0.127	-0.231
-710.675	-98.123	-0.087	-0.023
-709.660	-80.778	0.244	-0.084
-708.645	-15.332	0.169	-0.111
-707.631	25.826	-0.233	0.200
-706.616	-200.000	-0.040	0.211
-705.602	800.000	0.013	0.043
-704.587	215.759	-0.008	-0.013
-703.572	-200.000	0.043	-0.248
-702.558	-188.607	-0.055	-0.001
-701.543	-101.432	0.322	0.081
-700.529	-200.000	-0.019	-0.331
-699.514	-59.087	0.233	0.103
-698.499	-200.000	-0.019	0.320
-697.485	800.000	-0.019	-0.084
-696.470	-200.000	-0.001	-0.509
-695.456	-136.682	0.181	-0.022
-694.441	-61.898	0.101	-0.044
-693.426	-104.857	-0.296	-0.070
-692.412	-24.140	-0.095	0.058
-691.397	800.000	-0.101	0.332
-690.383	-200.000	0.033	-0.205
-689.368	278.803	0.195	-0.358
-688.354	-121.343	-0.177	0.030
-687.339	-61.201	-0.210	-0.091
-686.324	189.930	-0.063	0.097
-685.310	800.000	-0.034	-0.137
-684.295	-115.263	-0.220	-0.043
-683.281	-33.363	0.210	-0.119
-682.266	54.179	-0.095	0.094
-681.251	-55.591	-0.225	0.104
-680.237	-200.000	-0.011	-0.402
-679.222	-10.815	-0.286	-0.194
-678.208	-5.474	-0.070	-0.049
-677.193	-24.781	-0.173	0.105
-676.178	-118.232	-0.257	-0.047
-675.164	-119.032	-0.127	0.023
-674.149	-200.000	0.009	-0.202
-673.135	-118.338	0.283	0.052
-672.120	264.546	0.236	-0.423
-671.105	-89.656	-0.448	0.135
-670.091	73.678	0.230	0.248
-669.076	-145.236	-0.178	-0.017
-668.062	106.268	0.099	-0.121
-667.047	227.183	0.116	-0.194
-666.032	-200.000	0.000	-0.100
-665.018	800.000	-0.047	-0.183
-664.003	-200.000	-0.001	0.022
-662.989	-18.164	0.212	0.136
-661.974	-45.613	-0.075	0.038
-660.959	18.787	0.108	-0.089
-659.945	41.538	0.225	-0.210
-658.930	32.203	0.288	-0.255
-657.916	-200.000	0.043	-0.209
-656.901	0.158	-0.182	-0.134
-655.886	-127.649	-0.224	-0.033
-654.872	-45.317	-0.433	-0.221
-653.857	-178.160	0.112	0.003
-652.843	552.333	-0.095	0.236
-651.828	-200.000	0.026	0.193
-650.814	-200.000	-0.001	0.392
-649.799	-191.310	0.236	-0.002
-648.784	103.630	-0.178	0.214
-647.770	-36.405	-0.352	0.195
-646.755	11.099	-0.122	0.096
-645.741	-111.490	0.076	-0.016
-644.726	-63.335	0.020	0.008
-643.711	-200.000	-0.059	-0.458
-642.697	-200.000	-0.016	-0.188
-641.682	23.339	0.070	-0.059
-640.668	94.085	0.311	0.363
-639.653	29.284	0.044	0.038
-638.638	-49.512	0.226	-0.111
-637.624	6.955	0.093	-0.071
-636.609	-42.413	0.123	0.065
-635.595	-200.000	-0.000	0.086
-634.580	557.366	-0.046	-0.114
-633.565	-200.000	-0.002	-0.073
-632.551	215.833	0.102	-0.166
-631.536	-64.144	-0.129	-0.054
-630.522	-93.757	-0.236	0.067
-629.507	800.000	-0.009	0.027
-628.492	399.204	-0.066	-0.142
-627.478	-94.597	0.300	0.084
-626.463	-200.000	0.042	-0.435
-625.449	226.567	-0.114	-0.190
-624.434	-42.289	0.050	-0.026
-623.419	-146.227	0.121	0.011
-622.405	156.511	-0.120	0.170
-621.390	-118.273	0.074	0.014
-620.376	-55.233	-0.075	0.035
-619.361	-10.281	0.264	0.180
-618.346	521.379	-0.162	0.389
-617.332	-75.079	-0.450	-0.165
-616.317	-200.000	0.003	-0.059
-615.303	696.545	-0.121	0.325
-614.288	-170.960	0.306	0.011
-613.273	82.221	-0.118	-0.132
-612.259	-136.542	0.061	0.007
-611.244	-68.606	0.032	-0.013
-610.230	-83.657	0.120	-0.039
-609.215	15.278	0.098	-0.079
-608.201	-200.000	0.040	0.184
-607.186	54.621	0.199	0.197
-606.171	191.649	0.074	-0.115
-605.157	106.832	0.055	0.067
-604.142	214.255	-0.238	-0.386
-603.128	-165.191	0.289	0.013
-602.113	130.672	-0.145	-0.190
-601.098	800.000	0.080	-0.261
-600.084	-43.596	-0.132	0.068
-599.069	639.586	-0.032	-0.084
-598.055	-45.294	0.153	0.078
-597.040	-59.440	-0.171	0.076
-596.025	633.646	0.022	-0.058
-595.011	47.122	0.308	-0.294
-593.996	800.000	0.093	-0.284
-592.982	-143.490	0.191	-0.019
-591.967	-116.186	-0.235	-0.045
-590.952	45.444	0.175	-0.165
-589.938	-75.690	-0.035	-0.013
-588.923	-127.618	-0.077	0.011
-587.909	504.500	0.129	0.306
-586.894	66.206	-0.269	0.280
-585.879	32.413	0.014	0.012
-584.865	-42.515	-0.139	0.073
-583.850	800.000	-0.105	-0.324
-582.836	-18.693	-0.214	-0.136
-581.821	-183.655	-0.279	-0.005
-580.806	-4.592	-0.134	-0.094
-579.792	-200.000	0.023	-0.258
-578.777	800.000	0.079	-0.316
-577.763	-107.581	-0.099	0.022
-576.748	-119.436	-0.485	0.086
-575.733	83.483	-0.149	0.166
-574.719	-82.040	0.237	0.079
-573.704	88.271	0.133	-0.152
-572.690	-34.869	-0.156	0.087
-571.675	-99.687	-0.332	-0.085
-570.661	-157.494	0.336	0.021
-569.646	-92.350	-0.379	-0.109
-568.631	-200.000	-0.020	0.117
-567.617	-75.264	0.122	0.045
-566.602	-200.000	0.032	0.306
-565.588	328.207	-0.108	0.213
-564.573	-28.405	0.241	-0.142
-563.558	385.001	0.037	-0.078
-562.544	-200.000	0.022	-0.106
-561.529	240.058	0.069	-0.118
-560.515	20.759	-0.077	-0.064
-559.500	215.562	-0.167	0.271
-558.485	580.454	-0.064	-0.161
-557.471	-152.497	-0.099	0.007
-556.456	-200.000	0.012	0.301
-555.442	-174.167	-0.090	0.003
-554.427	-5.238	0.243	0.171
-553.412	800.000	-0.008	-0.036
-552.398	251.130	-0.153	-0.267
-551.383	-200.000	-0.010	0.078
-550.369	518.870	-0.084	0.202
-549.354	66.756	0.148	0.154
-548.339	-38.260	-0.136	-0.074
-547.325	-200.000	0.079	-0.000
-546.310	-25.148	-0.213	0.129
-545.296	-200.000	-0.034	-0.315
-544.281	-200.000	-0.013	-0.093
-543.266	-106.286	-0.405	0.093
-542.252	366.387	-0.123	0.254
-541.237	-87.702	0.276	-0.085
-540.223	-121.942	0.025	0.004
-539.208	-81.606	0.514	-0.173
-538.193	322.829	-0.249	-0.485
-537.179	-200.000	-0.002	0.211
-536.164	392.384	-0.174	0.371
-535.150	93.518	0.160	-0.185
-534.135	-94.009	0.057	0.016
-533.121	-0.190	0.087	0.063
-532.106	156.939	-0.019	0.027
-531.091	-191.067	-0.391	-0.004
-530.077	5.530	0.175	-0.132
-529.062	530.012	-0.064	-0.155
-528.048	-200.000	-0.002	0.126
-527.033	397.497	0.058	-0.124
-526.018	-53.706	0.028	0.013
-525.004	-200.000	-0.005	-0.023
-523.989	189.385	-0.097	0.148
-522.975	-39.413	-0.118	-0.063
-521.960	800.000	-0.159	-0.517
-520.945	-200.000	0.032	0.218
-519.931	67.576	0.204	-0.213
-518.916	-156.294	-0.049	0.003
-517.902	-82.842	0.236	-0.078
-516.887	800.000	-0.076	-0.285
-515.872	-72.370	-0.183	0.069
-514.858	89.471	0.202	0.231
-513.843	-28.723	0.213	0.125
-512.829	-104.687	0.298	0.070
-511.814	800.000	0.073	-0.286
-510.799	-75.067	0.338	0.123
-509.785	7.843	0.056	0.043
-508.770	606.670	0.011	-0.028
-507.756	62.127	0.199	-0.203
-506.741	354.371	-0.075	0.152
-505.726	-106.974	0.113	-0.026
-504.712	-46.793	-0.173	0.087
-503.697	-58.427	0.165	0.073
-502.683	220.487	-0.006	-0.009
-501.668	-192.911	-0.214	0.002
-500.653	-96.506	-0.336	-0.091
-499.639	800.000	-0.077	0.274
-498.624	69.392	0.083	0.087
-497.610	-62.488	-0.408	-0.173
-496.595	407.763	0.065	-0.140
-495.581	749.055	-0.038	0.103
-494.566	185.372	-0.260	-0.394
-493.551	800.000	0.078	-0.308
-492.537	-78.166	0.098	-0.034
-491.522	-200.000	0.019	-0.088
-490.508	17.888	-0.123	0.100
-489.493	-200.000	-0.008	0.253
-488.478	252.589	0.133	-0.231
-487.464	-6.400	0.114	-0.079
-486.449	468.787	0.130	0.298
-485.435	800.000	0.041	0.177
-484.420	-71.478	0.310	0.118
-483.405	299.414	-0.183	-0.344
-482.391	-200.000	0.026	0.193
-481.376	424.298	-0.032	0.069
-480.362	538.082	-0.082	0.199
-479.347	156.428	-0.073	-0.103
-478.332	79.481	0.110	0.121
-477.318	-100.588	0.169	-0.043
-476.303	-8.728	0.220	-0.151
-475.289	-50.218	-0.071	-0.034
-474.274	-38.279	-0.050	-0.027
-473.259	-200.000	-0.026	-0.119
-472.245	-108.185	0.077	0.017
-471.230	-200.000	0.016	0.252
-470.216	0.590	-0.084	0.061
-469.201	190.417	0.169	0.259
-468.186	89.983	-0.096	-0.109
-467.172	-129.536	-0.269	0.038
-466.157	7.824	0.205	-0.157
-465.143	-113.002	-0.103	0.021
-464.128	-76.874	0.037	-0.013
-463.113	226.726	0.162	-0.269
-462.099	-76.599	0.070	0.025
-461.084	-68.434	-0.170	0.067
-460.070	800.000	-0.030	-0.121
-459.055	800.000	0.134	-0.586
-458.040	-200.000	-0.002	0.082
-457.026	-200.000	0.019	0.000
-456.011	-200.000	-0.021	-0.558
-454.997	800.000	-0.038	0.127
-453.982	181.746	-0.083	0.125
-452.968	-200.000	-0.032	0.149
-451.953	-16.487	0.199	-0.129
-450.938	800.000	0.025	-0.072
-449.924	-70.894	-0.161	-0.062
-448.909	59.735	-0.086	0.087
-447.895	800.000	-0.069	-0.301
-446.880	61.138	-0.168	-0.170
-445.865	19.325	-0.336	0.275
-444.851	-200.000	-0.002	0.032
-443.836	800.000	-0.019	0.073
-442.822	-148.761	0.129	-0.011
-441.807	182.444	0.275	0.413
-440.792	338.591	-0.074	-0.148
-439.778	-54.586	-0.327	-0.151
-438.763	800.000	0.041	-0.144
-437.749	524.407	0.089	0.212
-436.734	-200.000	0.007	0.490
-435.719	107.048	-0.192	-0.233
-434.705	800.000	-0.142	-0.419
-433.690	800.000	-0.034	-0.132
-432.676	-94.919	0.191	-0.053
-431.661	184.542	0.150	-0.227
-430.646	-200.000	0.004	0.202
-429.632	8.041	0.220	0.168
-428.617	-63.070	-0.368	-0.155
-427.603	800.000	0.050	-0.213
-426.588	132.912	-0.180	0.237
-425.573	6.971	0.151	0.114
-424.559	19.822	-0.209	0.172
-423.544	661.459	0.095	-0.248
-422.530	38.892	-0.069	-0.063
-421.515	-184.053	-0.201	0.003
-420.500	-77.625	0.084	-0.030
-419.486	-100.535	-0.344	-0.087
-418.471	800.000	0.101	0.319
-417.457	800.000	-0.124	-0.377
-416.442	783.831	0.089	-0.249
-415.428	-47.398	0.165	-0.082
-414.413	-67.331	0.034	0.014
-413.398	-117.764	-0.483	-0.088
-412.384	0.466	-0.177	0.129
-411.369	583.364	-0.060	0.150
-410.355	-20.257	-0.185	-0.116
-409.340	800.000	-0.016	-0.054
-408.325	154.715	-0.166	-0.233
-407.311	-59.311	-0.338	0.148
-406.296	800.000	-0.116	0.366
-405.282	-200.000	0.006	0.035
-404.267	-95.265	-0.247	-0.068
-403.252	800.000	0.035	-0.120
-402.238	285.187	-0.160	-0.293
-401.223	398.370	-0.097	-0.205
-400.209	-114.742	0.067	0.013
-399.194	-106.374	0.258	-0.059
-398.179	-78.307	-0.166	-0.058
-397.165	800.000	0.074	0.235
-396.150	800.000	-0.153	-0.570
-395.136	800.000	0.044	-0.155
-394.121	64.834	-0.133	-0.136
-393.106	283.899	-0.075	-0.138
-392.092	-142.538	-0.316	0.031
-391.077	154.148	0.020	-0.028
-390.063	800.000	0.061	0.218
-389.048	-200.000	0.033	0.174
-388.033	-16.013	0.051	-0.033
-387.019	-200.000	-0.021	-0.425
-386.004	-34.869	0.152	0.085
-384.990	481.758	-0.079	-0.183
-383.975	134.659	0.045	-0.059
-382.960	1.966	0.023	-0.017
-381.946	97.668	-0.066	-0.077
-380.931	179.408	-0.094	0.140
-379.917	-63.119	-0.155	0.065
-378.902	-139.056	0.175	-0.019
-377.888	-45.950	0.126	0.063
-376.873	-200.000	-0.006	0.213
-375.858	56.146	-0.081	-0.080
-374.844	9.859	-0.271	0.209
-373.829	-45.376	0.206	0.104
-372.815	19.050	0.298	-0.243
-371.800	-188.394	0.322	-0.004
-370.785	-6.321	0.100	0.069
-369.771	49.379	-0.113	0.108
-368.756	-200.000	0.011	0.258
-367.742	88.946	-0.188	-0.213
-366.727	205.123	0.084	-0.133
-365.712	440.499	-0.125	0.278
-364.698	-103.625	0.092	-0.022
-363.683	16.258	0.243	-0.195
-362.669	-63.348	0.277	0.116
-361.654	-51.366	0.195	0.093
-360.639	-69.949	-0.270	0.104
-359.625	-24.773	0.259	-0.156
-358.610	-151.505	0.193	-0.015
-357.596	55.711	0.023	-0.023
-356.581	-78.721	0.072	0.025
-355.566	-43.608	0.230	-0.118
-354.552	800.000	0.133	0.389
-353.537	-57.034	0.303	0.136
-352.523	-9.416	0.070	0.048
-351.508	-200.000	0.043	0.305
-350.493	75.107	-0.291	0.311
-349.479	194.546	-0.078	-0.120
-348.464	114.789	-0.079	-0.098
-347.450	9.228	-0.398	0.306
-346.435	121.685	0.068	0.087
-345.420	570.010	0.127	-0.315
-344.406	-94.189	-0.485	-0.135
-343.391	8.628	0.138	0.105
-342.377	-164.871	0.150	0.007
-341.362	385.469	0.034	-0.071
-340.348	-19.946	-0.084	0.052
-339.333	81.440	0.081	0.089
-338.318	-200.000	-0.029	-0.341
-337.304	1.920	0.139	-0.102
-336.289	-185.425	-0.219	-0.003
-335.275	-200.000	0.004	0.249
-334.260	236.538	0.145	-0.244
-333.245	-115.870	-0.260	-0.049
-332.231	128.695	-0.025	-0.032
-331.216	62.315	-0.102	-0.103
-330.202	119.164	0.074	-0.093
-329.187	-58.581	0.184	-0.081
-328.172	-200.000	-0.012	0.124
-327.158	800.000	0.055	-0.196
-326.143	259.471	-0.113	-0.197
-325.129	225.479	0.086	0.141
-324.114	-10.464	-0.256	0.172
-323.099	-10.271	0.099	-0.067
-322.085	90.627	-0.218	-0.247
-321.070	114.416	-0.029	-0.036
-320.056	113.739	0.136	0.168
-319.041	-38.105	-0.174	-0.094
-318.026	-200.000	0.014	0.146
-317.012	77.416	-0.138	0.149
-315.997	800.000	-0.031	0.135
-314.983	-115.641	0.222	0.042
-313.968	-80.447	-0.142	-0.048
-312.953	-47.035	0.070	-0.035
-311.939	-200.000	-0.003	0.215
-310.924	-42.147	-0.288	-0.149
-309.910	159.375	-0.100	0.142
-308.895	-23.825	-0.462	-0.280
-307.880	233.071	-0.082	0.136
-306.866	69.203	-0.153	-0.160
-305.851	-55.649	0.112	-0.051
-304.837	800.000	-0.089	0.284
-303.822	-28.214	-0.130	0.076
-302.807	160.548	0.357	0.505
-301.793	-163.920	-0.104	0.005
-300.778	382.487	-0.036	-0.074
-299.764	-200.000	0.005	0.086
-298.749	461.287	-0.082	0.184
-297.735	-31.036	-0.284	-0.163
-296.720	-86.137	0.244	-0.076
-295.705	800.000	0.098	0.422
-294.691	-78.142	-0.225	0.078
-293.676	-66.165	-0.226	-0.091
-292.662	208.490	0.188	-0.298
-291.647	-21.408	-0.136	0.084
-290.632	413.751	0.071	0.152
-289.618	-200.000	-0.018	0.152
-288.603	-200.000	0.042	0.216
-287.589	27.497	-0.188	-0.160
-286.574	34.739	0.097	-0.086
-285.559	-200.000	-0.021	-0.151
-284.545	7.633	-0.189	0.143
-283.530	-200.000	0.009	0.127
-282.516	-200.000	-0.001	0.329
-281.501	-200.000	-0.025	0.287
-280.486	-200.000	-0.027	0.329
-279.472	14.657	0.332	0.262
-278.457	-141.160	-0.081	0.008
-277.443	-5.377	0.160	0.111
-276.428	345.696	0.139	-0.276
-275.413	800.000	-0.036	-0.101
-274.399	381.764	-0.046	0.096
-273.384	235.133	-0.154	-0.257
-272.370	-113.378	0.214	0.042
-271.355	5.522	0.193	-0.144
-270.340	40.148	0.125	0.114
-269.326	429.410	0.116	-0.254
-268.311	12.429	0.157	-0.123
-267.297	77.203	0.314	0.338
-266.282	126.705	0.211	-0.270
-265.267	90.890	0.018	-0.020
-264.253	356.578	-0.081	-0.162
-263.238	-8.534	0.149	-0.101
-262.224	59.404	-0.061	-0.061
-261.209	-183.575	-0.034	-0.001
-260.195	-98.641	-0.187	-0.048
-259.180	216.167	-0.051	0.081
-258.165	11.389	0.214	0.166
-257.151	176.667	0.122	0.179
-256.136	-81.832	0.299	-0.099
-255.122	311.314	0.086	-0.164
-254.107	157.528	0.036	0.050
-253.092	-27.296	-0.278	-0.164
-252.078	-182.803	-0.379	-0.007
-251.063	57.031	-0.112	-0.110
-250.049	-145.693	0.174	-0.016
-249.034	365.154	-0.154	0.314
-248.019	800.000	0.083	0.246
-247.005	415.716	-0.040	-0.086
-245.990	-200.000	-0.029	-0.195
-244.976	-109.910	0.217	0.046
-243.961	800.000	0.053	-0.168
-242.946	-114.532	0.180	0.035
-241.932	800.000	-0.064	-0.198
-240.917	-122.103	0.057	-0.009
-239.903	49.022	0.235	0.223
-238.888	75.422	0.236	0.252
-237.873	28.452	-0.109	-0.094
-236.859	800.000	0.082	-0.342
-235.844	-200.000	-0.020	-0.100
-234.830	-66.338	-0.078	0.031
-233.815	-165.100	-0.292	0.013
-232.800	-22.616	0.143	0.088
-231.786	82.265	-0.314	-0.344
-230.771	-27.861	-0.181	0.106
-229.757	-51.904	-0.063	0.029
-228.742	154.106	0.143	-0.198
-227.727	-200.000	0.037	0.240
-226.713	166.632	0.035	-0.050
-225.698	-36.028	0.067	0.036
-224.684	-68.451	0.153	0.060
-223.669	-143.388	0.328	-0.032
-222.655	-17.448	0.135	-0.086
-221.640	291.619	0.198	0.364
-220.625	418.247	0.103	0.223
-219.611	-55.734	-0.018	-0.008
-218.596	-200.000	0.033	-0.200
-217.582	-90.015	0.164	0.048
-216.567	709.395	0.029	0.078
-215.552	3.198	0.279	0.205
-214.538	-74.944	-0.044	-0.016
-213.523	208.120	0.118	-0.187
-212.509	12.415	-0.183	0.143
-211.494	800.000	0.122	0.441
-210.479	10.393	-0.034	-0.026
-209.465	-104.329	-0.077	-0.018
-208.450	243.251	0.177	-0.300
-207.436	463.498	-0.048	0.108
-206.421	96.169	0.115	-0.132
-205.406	678.631	-0.118	-0.311
-204.392	800.000	0.067	0.287
-203.377	21.287	0.106	0.087
-202.363	-100.636	-0.078	-0.019
-201.348	-65.831	-0.136	0.055
-200.333	215.066	0.083	-0.133
-199.319	9.627	0.173	0.133
-198.304	74.332	0.138	-0.147
-197.290	-26.293	0.178	-0.106
-196.275	-121.257	0.328	0.055
-195.260	189.463	-0.087	0.131
-194.246	-151.701	0.242	0.018
-193.231	126.092	-0.144	0.184
-192.217	-26.271	0.150	-0.089
-191.202	-1.925	0.116	0.082
-190.187	-110.096	-0.093	0.020
-189.173	-200.000	-0.020	0.127
-188.158	-9.313	-0.202	0.136
-187.144	800.000	0.076	0.329
-186.129	-200.000	0.025	0.150
-185.114	-200.000	-0.011	0.160
-184.100	800.000	-0.062	0.202
-183.085	-125.539	-0.013	0.002
-182.071	-134.389	-0.313	0.039
-181.056	429.245	0.169	-0.370
-180.042	397.999	0.054	-0.113
-179.027	67.295	-0.352	0.362
-178.012	96.237	0.210	0.243
-176.998	101.204	-0.122	-0.143
-175.983	800.000	0.044	0.172
-174.969	-34.112	-0.121	-0.067
-173.954	-200.000	0.021	-0.231
-172.939	200.387	0.111	0.172
-171.925	82.414	-0.227	-0.249
-170.910	57.642	-0.033	-0.032
-169.896	260.162	-0.067	0.116
-168.881	-14.233	-0.227	0.148
-167.866	-200.000	-0.087	0.000
-166.852	152.099	0.056	0.077
-165.837	139.789	-0.102	0.135
-164.823	-88.558	0.105	0.032
-163.808	12.647	0.107	0.084
-162.793	-83.866	0.310	-0.100
-161.779	-200.000	0.056	0.307
-160.764	-200.000	-0.011	0.376
-159.750	-200.000	-0.022	0.276
-158.735	-158.174	0.258	-0.015
-157.720	-200.000	-0.005	0.141
-156.706	-200.000	0.018	0.231
-155.691	-144.430	0.481	0.045
-154.677	-200.000	-0.030	-0.398
-153.662	-120.372	-0.092	-0.016
-152.647	200.518	-0.160	-0.247
-151.633	-165.713	0.262	-0.011
-150.618	-46.851	-0.127	-0.063
-149.604	-200.000	-0.033	-0.145
-148.589	-44.048	-0.165	-0.084
-147.574	-5.527	-0.071	0.049
-146.560	-54.378	0.264	0.121
-145.545	-22.540	-0.070	0.042
-144.531	-119.235	-0.130	0.023
-143.516	515.748	-0.018	0.043
-142.502	-145.652	-0.115	-0.010
-141.487	-156.968	0.457	-0.028
-140.472	666.866	-0.075	0.196
-139.458	183.397	0.106	-0.158
-138.443	117.393	-0.185	-0.229
-137.429	-200.000	0.007	0.195
-136.414	706.983	0.096	-0.255
-135.399	-148.829	-0.350	0.028
-134.385	-41.005	-0.170	-0.088
-133.370	130.316	0.099	0.127
-132.356	142.814	-0.129	0.173
-131.341	-39.868	-0.261	-0.137
-130.326	-53.207	-0.206	0.095
-129.312	-200.000	0.036	0.355
-128.297	-84.899	0.378	0.119
-127.283	-36.874	-0.248	0.134
-126.268	800.000	-0.094	-0.336
-125.253	-200.000	0.021	0.261
-124.239	-135.578	-0.241	0.029
-123.224	659.055	-0.037	-0.096
-122.210	-193.251	0.112	-0.001
-121.195	268.502	0.093	0.163
