DTS Sentinel unit serial number:	SN413079Multiplexer serial number:	ORYXHardware model number:	OX4-SRSoftware version number:	ORYX F/W v4.00 Oryx Data Collector v3.7.2.0data status	okinstallation	princeton_trtdifferential loss correction	single-endedforward channel	channel 4reverse channel	N/Adate	2019/09/10time	15:55:11forward acquisition time	60.00reverse acquisition time	0.00gamma	496.2192k internal	0.2293k external	0.2293temperature offset calibration	0.9939default loss term (dB/km)	0.3790temperature slope calibration	1.0000multiplexer offset coefficient	1.0000multiplexer slope coefficient	1.0000fibre end	0.00T internal ref (°C)	38.17T ext. ref 1 (°C)	-0.25T ext. ref 2 (°C)	31.92length (m)	temperature (°C)	Stokes	anti-Stokes-747.200	-159.018	-0.176	-0.010
-746.185	86.610	-0.181	0.204
-745.171	-5.459	0.140	0.098
-744.156	800.000	0.166	0.499
-743.142	152.335	-0.275	0.384
-742.127	800.000	0.103	0.414
-741.112	-81.928	0.549	0.184
-740.098	-200.000	-0.022	0.208
-739.083	-135.067	0.146	-0.018
-738.069	107.351	0.328	0.399
-737.054	214.188	-0.059	0.096
-736.039	472.105	-0.026	-0.060
-735.025	119.313	0.163	0.207
-734.010	-200.000	0.005	0.161
-732.996	77.021	-0.129	0.140
-731.981	234.983	-0.071	0.119
-730.966	93.695	0.164	-0.190
-729.952	-62.338	-0.117	-0.050
-728.937	363.131	-0.081	0.166
-727.923	800.000	-0.117	-0.420
-726.908	-200.000	-0.028	-0.147
-725.894	-147.806	0.096	-0.008
-724.879	-57.025	-0.293	0.132
-723.864	-0.592	-0.232	-0.168
-722.850	81.087	-0.138	0.153
-721.835	-133.543	0.188	0.024
-720.821	-44.754	-0.287	-0.146
-719.806	-200.000	0.047	-0.375
-718.791	446.622	-0.067	0.151
-717.777	183.491	-0.105	-0.159
-716.762	-200.000	-0.013	0.223
-715.748	593.122	-0.042	-0.106
-714.733	-200.000	0.036	0.303
-713.718	182.179	0.231	0.348
-712.704	-200.000	-0.058	-0.281
-711.689	800.000	-0.141	-0.408
-710.675	-17.776	0.083	-0.053
-709.660	-200.000	-0.012	-0.131
-708.645	119.458	-0.190	-0.240
-707.631	-50.305	-0.287	-0.138
-706.616	-200.000	0.003	-0.074
-705.602	2.647	-0.220	0.163
-704.587	-29.280	0.243	-0.142
-703.572	-70.848	-0.054	0.021
-702.558	800.000	-0.150	0.593
-701.543	29.423	-0.058	0.051
-700.529	5.692	0.258	0.195
-699.514	-200.000	-0.005	0.037
-698.499	-200.000	-0.018	-0.131
-697.485	511.971	-0.097	-0.231
-696.470	127.076	-0.198	-0.257
-695.456	297.427	0.166	0.310
-694.441	-34.337	0.326	-0.183
-693.426	15.976	-0.089	-0.072
-692.412	102.744	0.200	-0.239
-691.397	-138.549	-0.227	-0.025
-690.383	-200.000	0.014	-0.205
-689.368	42.629	-0.073	-0.068
-688.354	800.000	-0.097	0.281
-687.339	74.624	-0.151	-0.162
-686.324	-70.577	-0.038	-0.015
-685.310	-200.000	0.007	0.043
-684.295	-181.911	0.115	0.002
-683.281	-40.069	0.092	-0.049
-682.266	-58.818	-0.340	0.150
-681.251	-52.129	-0.096	-0.046
-680.237	12.690	-0.241	-0.190
-679.222	731.363	-0.041	0.113
-678.208	800.000	0.051	0.226
-677.193	-114.573	-0.222	0.044
-676.178	-105.287	-0.458	-0.106
-675.164	-77.408	0.268	0.095
-674.149	416.346	-0.070	0.152
-673.135	-200.000	0.047	0.267
-672.120	28.172	-0.102	0.088
-671.105	49.061	-0.049	0.047
-670.091	800.000	0.027	-0.093
-669.076	-20.069	-0.209	0.132
-668.062	-12.060	-0.160	0.107
-667.047	-200.000	0.020	0.213
-666.032	453.769	-0.055	-0.125
-665.018	-200.000	-0.025	-0.186
-664.003	339.249	-0.158	-0.314
-662.989	-9.313	-0.284	-0.194
-661.974	800.000	0.090	-0.288
-660.959	-200.000	0.050	-0.262
-659.945	-73.150	0.412	0.154
-658.930	136.571	-0.386	-0.514
-657.916	390.913	0.117	-0.248
-656.901	-121.625	0.060	-0.010
-655.886	-41.872	0.372	0.194
-654.872	89.971	-0.244	-0.278
-653.857	1.844	0.091	0.067
-652.843	800.000	-0.096	-0.343
-651.828	-58.805	-0.262	-0.116
-650.814	118.303	0.261	-0.328
-649.799	-200.000	0.026	-0.245
-648.784	-115.234	-0.133	0.026
-647.770	9.049	0.099	-0.076
-646.755	-176.527	0.059	0.002
-645.741	109.002	-0.035	0.043
-644.726	261.534	-0.171	0.301
-643.711	-62.608	-0.282	0.119
-642.697	-107.296	-0.408	-0.091
-641.682	-64.567	-0.125	0.052
-640.668	-59.625	-0.217	0.095
-639.653	-124.946	0.337	0.053
-638.638	-35.744	-0.266	-0.147
-637.624	453.292	-0.151	-0.341
-636.609	33.140	-0.235	0.207
-635.595	-200.000	0.084	-0.431
-634.580	386.421	0.211	-0.445
-633.565	5.034	-0.187	-0.140
-632.551	146.547	0.236	0.323
-631.536	800.000	0.091	-0.265
-630.522	-92.689	0.315	-0.090
-629.507	-58.418	0.252	0.112
-628.492	-5.498	0.111	-0.078
-627.478	-12.938	0.117	-0.078
-626.463	235.004	-0.064	-0.107
-625.449	-75.731	0.121	-0.044
-624.434	105.009	0.264	0.317
-623.419	-138.070	0.147	-0.017
-622.405	-107.689	-0.082	0.018
-621.390	800.000	0.068	0.220
-620.376	515.679	0.072	0.172
-619.361	31.825	-0.149	0.131
-618.346	-60.307	-0.171	-0.074
-617.332	-54.437	-0.077	-0.036
-616.317	-83.013	0.084	-0.028
-615.303	6.153	-0.063	-0.048
-614.288	-75.385	0.261	-0.095
-613.273	-10.356	-0.268	0.181
-612.259	-147.958	-0.202	0.017
-611.244	-7.935	0.171	-0.117
-610.230	43.913	-0.319	-0.297
-609.215	55.650	0.059	0.058
-608.201	168.403	0.081	0.118
-607.186	-133.058	0.455	-0.059
-606.171	-115.547	0.048	-0.009
-605.157	800.000	0.082	0.258
-604.142	800.000	0.051	0.172
-603.128	-45.710	0.229	-0.115
-602.113	500.304	-0.200	-0.468
-601.098	800.000	-0.185	0.531
-600.084	-39.133	-0.069	0.037
-599.069	57.690	-0.200	0.199
-598.055	99.274	0.397	0.467
-597.040	326.594	0.253	-0.494
-596.025	108.073	0.192	0.232
-595.011	-10.635	-0.149	-0.100
-593.996	-112.631	0.418	-0.085
-592.982	-77.661	-0.272	-0.096
-591.967	37.685	0.118	0.106
-590.952	-200.000	0.028	-0.203
-589.938	9.031	0.295	-0.226
-588.923	800.000	0.133	-0.424
-587.909	-79.956	-0.177	-0.061
-586.894	-111.925	0.098	-0.020
-585.879	88.330	0.275	-0.310
-584.865	-181.462	0.395	-0.008
-583.850	-109.004	-0.149	-0.032
-582.836	-200.000	0.014	-0.087
-581.821	800.000	-0.129	-0.566
-580.806	-196.630	-0.328	0.002
-579.792	208.076	-0.146	0.232
-578.777	-37.265	0.240	0.130
-577.763	-145.290	-0.109	0.010
-576.748	-200.000	-0.013	-0.098
-575.733	-200.000	0.044	-0.222
-574.719	800.000	0.025	0.101
-573.704	800.000	-0.050	-0.174
-572.690	-200.000	0.028	-0.201
-571.675	-16.925	0.111	0.072
-570.661	-122.550	-0.214	0.035
-569.646	-200.000	0.016	-0.449
-568.631	632.294	0.055	-0.142
-567.617	277.857	-0.017	-0.031
-566.602	474.581	-0.051	0.117
-565.588	800.000	0.090	0.268
-564.573	55.226	-0.235	0.231
-563.558	503.136	0.075	0.176
-562.544	256.630	0.068	0.119
-561.529	800.000	0.024	-0.075
-560.515	-104.802	-0.255	-0.059
-559.500	43.601	-0.154	0.143
-558.485	-200.000	0.065	0.309
-557.471	-119.569	-0.306	0.054
-556.456	50.936	0.156	0.150
-555.442	-73.949	-0.234	-0.086
-554.427	-118.135	0.379	-0.069
-553.412	118.317	-0.014	0.018
-552.398	-200.000	-0.058	0.411
-551.383	-50.965	0.244	0.116
-550.369	-200.000	-0.034	0.243
-549.354	-129.695	0.130	-0.018
-548.339	109.371	-0.080	-0.097
-547.325	-200.000	-0.018	0.190
-546.310	7.657	-0.145	0.110
-545.296	284.418	-0.005	0.010
-544.281	-90.055	0.578	0.171
-543.266	11.672	0.156	0.121
-542.252	-57.526	-0.140	0.062
-541.237	191.144	-0.078	0.120
-540.223	-200.000	-0.062	0.366
-539.208	172.300	-0.008	0.011
-538.193	20.858	-0.125	-0.102
-537.179	502.201	-0.120	-0.281
-536.164	-200.000	0.025	0.314
-535.150	-200.000	0.002	-0.041
-534.135	522.105	-0.172	0.411
-533.121	-157.337	-0.333	-0.020
-532.106	-91.000	-0.207	0.060
-531.091	98.848	-0.111	-0.130
-530.077	-85.547	-0.224	-0.071
-529.062	-200.000	0.010	0.242
-528.048	-71.530	-0.094	-0.036
-527.033	-192.745	0.296	-0.003
-526.018	800.000	0.009	-0.029
-525.004	43.543	-0.173	-0.161
-523.989	-63.376	-0.381	-0.159
-522.975	88.332	0.136	-0.153
-521.960	800.000	-0.056	-0.161
-520.945	39.919	0.143	0.130
-519.931	-42.066	0.107	0.056
-518.916	-192.670	-0.087	0.001
-517.902	-125.655	-0.314	0.048
-516.887	-143.599	-0.104	-0.010
-515.872	457.504	-0.011	-0.025
-514.858	102.037	0.140	0.165
-513.843	-116.415	-0.527	0.099
-512.829	800.000	-0.062	-0.270
-511.814	-13.762	-0.265	-0.174
-510.799	40.392	-0.274	-0.250
-509.785	21.381	0.043	-0.035
-508.770	-153.178	0.241	0.017
-507.756	63.441	-0.059	-0.060
-506.741	-50.415	-0.271	0.130
-505.726	-109.431	0.091	-0.020
-504.712	-200.000	0.013	0.153
-503.697	800.000	-0.022	-0.074
-502.683	-11.381	-0.094	0.063
-501.668	151.025	-0.032	0.044
-500.653	108.530	0.126	0.152
-499.639	426.153	0.116	-0.253
-498.624	-1.801	0.057	-0.041
-497.610	-200.000	0.049	-0.353
-496.595	-58.666	0.383	0.168
-495.581	-164.787	-0.130	-0.006
-494.566	-29.135	-0.128	-0.074
-493.551	283.438	0.052	-0.095
-492.537	-22.834	0.286	0.175
-491.522	-124.816	0.378	0.059
-490.508	-71.888	0.058	-0.022
-489.493	13.546	-0.076	-0.060
-488.478	-95.318	-0.501	0.136
-487.464	-200.000	0.015	-0.253
-486.449	690.008	-0.101	-0.267
-485.435	105.762	-0.398	0.477
-484.420	94.118	0.219	-0.251
-483.405	-163.801	0.225	-0.011
-482.391	182.877	0.290	0.434
-481.376	202.225	-0.177	0.276
-480.362	141.502	-0.191	0.256
-479.347	-43.696	0.147	-0.075
-478.332	315.495	0.034	0.065
-477.318	-178.608	-0.070	0.002
-476.303	-119.580	-0.093	0.016
-475.289	800.000	-0.077	-0.236
-474.274	334.217	-0.139	-0.273
-473.259	800.000	0.025	0.078
-472.245	223.110	0.129	0.211
-471.230	494.977	0.091	-0.212
-470.216	141.154	0.085	-0.114
-469.201	-200.000	-0.012	0.144
-468.186	124.535	-0.241	0.307
-467.172	-39.109	-0.216	-0.115
-466.157	-105.117	0.146	0.034
-465.143	-200.000	-0.007	-0.165
-464.128	800.000	0.038	0.167
-463.113	-120.216	0.227	0.039
-462.099	209.931	0.106	-0.168
-461.084	-34.751	0.221	-0.122
-460.070	15.317	-0.283	0.224
-459.055	-168.017	0.240	-0.009
-458.040	-60.584	0.052	-0.022
-457.026	-200.000	-0.025	0.123
-456.011	-200.000	-0.005	0.239
-454.997	-27.786	-0.090	-0.053
-453.982	-75.606	-0.265	0.095
-452.968	10.983	-0.296	0.229
-451.953	149.637	-0.084	0.115
-450.938	-115.994	0.197	-0.037
-449.924	405.076	0.060	-0.128
-448.909	69.695	-0.253	0.263
-447.895	44.780	-0.187	-0.174
-446.880	200.697	0.121	-0.188
-445.865	-167.730	0.109	0.004
-444.851	125.786	0.130	-0.166
-443.836	-200.000	-0.002	-0.219
-442.822	-131.948	0.107	0.014
-441.807	152.870	-0.117	-0.162
-440.792	114.406	0.089	-0.109
-439.778	386.333	-0.049	0.102
-438.763	-24.984	-0.018	-0.011
-437.749	-200.000	-0.008	0.109
-436.734	-200.000	-0.037	0.424
-435.719	375.788	0.088	-0.181
-434.705	-141.890	-0.493	0.050
-433.690	-133.798	0.095	0.012
-432.676	-92.937	-0.168	-0.047
-431.661	43.713	-0.217	-0.200
-430.646	-41.545	-0.071	0.037
-429.632	800.000	0.111	0.312
-428.617	295.030	-0.147	0.271
-427.603	9.779	0.145	0.111
-426.588	620.716	-0.114	-0.291
-425.573	-187.367	0.093	-0.001
-424.559	-68.264	0.106	-0.042
-423.544	-200.000	-0.038	-0.345
-422.530	-44.781	0.138	-0.070
-421.515	800.000	0.059	-0.194
-420.500	107.663	0.035	-0.042
-419.486	275.492	0.225	-0.403
-418.471	-71.790	-0.246	0.093
-417.457	-200.000	-0.060	-0.394
-416.442	-38.874	0.192	-0.102
-415.428	-200.000	0.007	0.186
-414.413	23.395	-0.316	0.263
-413.398	119.670	0.106	0.132
-412.384	41.430	0.036	-0.032
-411.369	313.539	-0.094	0.179
-410.355	-150.943	0.159	-0.012
-409.340	-118.852	-0.269	-0.048
-408.325	210.926	0.083	0.131
-407.311	-81.356	-0.418	-0.139
-406.296	65.595	-0.144	-0.147
-405.282	-60.787	-0.247	-0.105
-404.267	227.851	0.128	0.211
-403.252	442.627	-0.043	0.094
-402.238	193.699	-0.072	0.110
-401.223	-126.722	0.308	-0.046
-400.209	318.548	0.095	0.181
-399.194	800.000	-0.053	-0.180
-398.179	13.051	-0.150	0.117
-397.165	91.999	-0.131	0.149
-396.150	-80.565	0.391	0.131
-395.136	-7.978	0.168	0.114
-394.121	427.276	0.082	-0.178
-393.106	-38.331	-0.103	0.055
-392.092	72.813	0.179	0.188
-391.077	-200.000	-0.015	-0.311
-390.063	800.000	-0.054	-0.177
-389.048	-86.221	-0.128	0.040
-388.033	-200.000	-0.003	-0.120
-387.019	-184.023	-0.136	0.002
-386.004	-42.759	0.146	0.075
-384.990	-24.808	0.216	0.129
-383.975	225.146	0.083	-0.136
-382.960	350.488	0.071	0.142
-381.946	-40.308	-0.204	-0.107
-380.931	71.426	0.240	-0.251
-379.917	-104.857	-0.343	0.079
-378.902	-113.640	0.394	0.078
-377.888	-144.743	0.379	0.035
-376.873	243.985	-0.162	-0.274
-375.858	-53.517	-0.275	0.127
-374.844	80.105	0.181	-0.196
-373.829	800.000	-0.053	-0.206
-372.815	800.000	0.078	0.308
-371.800	30.703	-0.098	0.084
-370.785	-154.917	-0.231	0.015
-369.771	45.028	-0.148	-0.138
-368.756	-55.596	0.136	-0.062
-367.742	-200.000	-0.013	-0.100
-366.727	56.812	0.074	0.072
-365.712	125.287	-0.118	-0.150
-364.698	10.869	0.482	0.371
-363.683	-88.373	-0.356	-0.107
-362.669	470.983	0.048	-0.109
-361.654	-200.000	-0.059	-0.292
-360.639	800.000	-0.069	0.213
-359.625	800.000	0.121	0.356
-358.610	800.000	0.054	-0.158
-357.596	100.714	-0.257	-0.301
-356.581	-66.281	-0.222	0.089
-355.566	68.039	-0.242	-0.250
-354.552	-200.000	-0.010	-0.223
-353.537	-22.929	0.224	0.136
-352.523	-200.000	-0.065	-0.293
-351.508	234.105	0.051	-0.084
-350.493	-126.126	0.290	0.044
-349.479	-15.173	0.179	0.115
-348.464	-56.325	-0.212	-0.095
-347.450	263.727	0.190	-0.332
-346.435	29.371	-0.157	0.135
-345.420	97.361	0.073	-0.085
-344.406	800.000	-0.044	-0.179
-343.391	134.232	0.219	0.285
-342.377	-105.215	0.334	0.077
-341.362	-46.497	-0.282	-0.139
-340.348	205.083	-0.037	-0.058
-339.333	53.294	-0.242	-0.233
-338.318	-125.462	-0.151	-0.023
-337.304	-39.497	0.076	-0.040
-336.289	255.025	0.105	0.180
-335.275	-44.277	0.262	-0.132
-334.260	304.844	-0.159	0.297
-333.245	800.000	0.038	0.163
-332.231	18.298	0.089	0.072
-331.216	-120.208	0.358	0.062
-330.202	-103.571	0.219	-0.052
-329.187	85.073	0.045	0.050
-328.172	-2.996	-0.188	0.132
-327.158	800.000	-0.066	-0.188
-326.143	-122.276	-0.095	0.016
-325.129	-46.842	-0.136	-0.067
-324.114	-125.555	-0.090	-0.014
-323.099	-112.838	0.120	-0.024
-322.085	-42.424	-0.380	-0.195
-321.070	-105.263	0.219	0.050
-320.056	-187.225	-0.417	0.006
-319.041	-200.000	-0.010	-0.171
-318.026	68.552	-0.145	0.150
-317.012	-80.234	0.247	0.083
-315.997	59.502	0.038	0.038
-314.983	800.000	0.108	-0.310
-313.968	41.267	0.206	0.188
-312.953	457.905	0.071	0.159
-311.939	156.758	-0.207	0.288
-310.924	269.442	0.022	-0.038
-309.910	-134.119	0.132	0.016
-308.895	800.000	0.139	-0.543
-307.880	-69.800	0.087	0.033
-306.866	463.345	-0.078	0.175
-305.851	800.000	-0.062	0.271
-304.837	800.000	-0.049	0.174
-303.822	-126.359	-0.311	0.047
-302.807	-78.720	-0.187	-0.064
-301.793	164.193	-0.092	-0.130
-300.778	95.948	0.207	0.238
-299.764	74.681	0.023	-0.024
-298.749	-200.000	0.030	0.332
-297.735	800.000	-0.051	0.156
-296.720	-24.242	-0.267	0.160
-295.705	-200.000	0.011	-0.149
-294.691	23.291	0.185	-0.153
-293.676	-28.727	-0.052	0.030
-292.662	256.709	0.141	0.243
-291.647	-149.982	-0.154	-0.012
-290.632	-76.669	-0.109	0.038
-289.618	-14.889	0.154	-0.099
-288.603	47.113	0.059	0.055
-287.589	38.065	0.126	-0.112
-286.574	-121.375	0.213	0.036
-285.559	86.596	0.086	0.095
-284.545	-35.005	0.191	0.105
-283.530	800.000	0.007	0.021
-282.516	27.128	0.333	0.281
-281.501	122.506	-0.050	0.063
-280.486	-88.004	-0.190	0.057
-279.472	237.520	-0.068	-0.114
-278.457	-154.227	-0.197	-0.013
-277.443	-65.428	-0.164	0.066
-276.428	109.553	-0.067	-0.080
-275.413	-90.488	-0.332	-0.096
-274.399	-140.991	0.161	0.017
-273.384	800.000	-0.036	0.120
-272.370	-28.527	0.122	-0.070
-271.355	53.688	0.239	-0.231
-270.340	800.000	0.030	-0.097
-269.326	741.646	0.078	-0.211
-268.311	-109.368	-0.105	0.022
-267.297	-123.658	-0.204	-0.033
-266.282	-9.150	-0.145	-0.097
-265.267	374.288	0.038	0.077
-264.253	314.906	0.128	0.242
-263.238	-200.000	0.101	0.520
-262.224	220.869	-0.099	0.159
-261.209	-145.369	-0.183	0.017
-260.195	-40.976	-0.250	0.130
-259.180	341.137	-0.058	0.113
-258.165	-138.815	-0.077	0.008
-257.151	800.000	-0.028	-0.119
-256.136	800.000	0.038	-0.163
-255.122	-35.524	-0.363	-0.198
-254.107	-130.420	-0.087	-0.012
-253.092	800.000	0.079	0.314
-252.078	-127.969	-0.258	-0.037
-251.063	-200.000	0.004	-0.277
-250.049	-98.560	-0.169	0.043
-249.034	7.440	-0.052	-0.039
-248.019	110.980	-0.100	-0.121
-247.005	-144.806	-0.250	0.023
-245.990	122.045	0.090	-0.113
-244.976	-146.560	0.261	0.023
-243.961	-198.542	-0.286	-0.002
-242.946	-107.206	-0.261	-0.058
-241.932	34.083	0.323	0.282
-240.917	-95.949	0.090	-0.024
-239.903	-184.937	-0.113	0.002
-238.888	94.104	-0.087	-0.099
-237.873	65.129	-0.227	-0.230
-236.859	-200.000	0.022	0.242
-235.844	75.062	0.064	-0.067
-234.830	-136.269	-0.148	-0.017
-233.815	426.823	-0.071	0.155
-232.800	-124.487	-0.200	-0.031
-231.786	29.807	-0.122	-0.104
-230.771	39.278	-0.024	-0.022
-229.757	44.120	0.128	0.118
-228.742	-57.365	0.067	-0.029
-227.727	-37.910	-0.107	-0.057
-226.713	-70.508	0.253	-0.096
-225.698	-200.000	0.066	-0.389
-224.684	-200.000	0.118	-0.552
-223.669	-200.000	-0.022	-0.150
-222.655	244.856	0.166	-0.280
-221.640	-200.000	-0.001	-0.056
-220.625	-194.083	-0.098	0.001
-219.611	800.000	-0.020	0.060
-218.596	-88.867	-0.181	0.054
-217.582	-132.662	0.194	0.025
-216.567	225.506	0.198	0.322
-215.552	-46.763	-0.165	0.081
-214.538	-70.142	0.439	-0.167
-213.523	-61.357	-0.091	0.038
-212.509	-200.000	-0.026	-0.196
-211.494	18.230	-0.224	-0.179
-210.479	76.922	0.118	0.126
-209.465	-68.831	0.191	0.074
-208.450	-125.327	-0.096	0.015
-207.436	-56.139	-0.101	-0.045
-206.421	78.647	-0.050	0.054
-205.406	-200.000	-0.004	-0.147
-204.392	80.322	0.180	0.194
-203.377	-109.031	0.124	-0.027
-202.363	499.010	-0.068	0.157
-201.348	800.000	0.040	0.136
-200.333	358.034	-0.048	0.096
-199.319	307.811	0.087	0.162
-198.304	-112.999	0.290	-0.057
-197.290	0.653	0.186	0.133
-196.275	-200.000	0.000	-0.017
-195.260	29.693	-0.062	-0.052
-194.246	-81.012	0.192	-0.064
-193.231	-200.000	0.005	-0.181
-192.217	-1.158	-0.281	0.199
-191.202	400.751	-0.015	-0.032
-190.187	-200.000	0.004	0.108
-189.173	-200.000	0.050	-0.354
-188.158	226.208	0.198	0.321
-187.144	-200.000	-0.054	0.244
-186.129	54.734	-0.115	-0.111
-185.114	-110.623	0.158	0.033
-184.100	-55.306	0.296	-0.133
-183.085	-84.689	0.211	-0.066
-182.071	800.000	-0.072	0.312
-181.056	386.513	0.191	0.395
-180.042	-141.393	0.394	-0.040
-179.027	-181.740	-0.385	-0.007
-178.012	100.677	0.262	0.304
-176.998	1.091	0.036	0.026
-175.983	-32.346	-0.111	-0.062
-174.969	-163.385	0.093	0.004
-173.954	-135.989	-0.185	-0.022
-172.939	-200.000	-0.050	-0.327
-171.925	130.666	0.237	-0.303
-170.910	-88.418	0.249	0.074
-169.896	-166.360	0.263	-0.011
-168.881	-71.879	0.143	-0.053
-167.866	-65.621	-0.184	-0.074
-166.852	-11.065	0.181	0.119
-165.837	51.706	-0.228	0.216
-164.823	-200.000	0.027	0.210
-163.808	-63.148	0.260	-0.107
-162.793	-200.000	-0.006	0.243
-161.779	36.827	0.119	0.105
-160.764	-20.987	-0.111	0.068
-159.750	-146.654	0.139	-0.012
-158.735	21.650	0.235	-0.191
-157.720	90.323	-0.179	-0.200
-156.706	-170.003	0.383	0.014
-155.691	54.708	0.195	-0.188
-154.677	190.666	0.118	0.177
-153.662	370.098	-0.081	-0.165
-152.647	-113.064	-0.282	0.056
-151.633	-63.023	0.257	-0.106
-150.618	-200.000	-0.002	0.237
-149.604	184.109	-0.087	0.129
-148.589	-22.270	-0.107	0.065
-147.574	130.672	0.187	0.240
-146.560	-136.526	0.386	0.045
-145.545	-27.643	-0.270	0.156
-144.531	-69.667	0.289	0.110
-143.516	800.000	0.086	0.354
-142.502	743.913	-0.094	-0.254
-141.487	-158.763	0.385	0.022
-140.472	-200.000	0.016	0.076
-139.458	-165.649	-0.132	0.006
-138.443	-123.901	0.163	0.026
-137.429	800.000	0.094	0.276
-136.414	325.955	0.111	0.213
-135.399	-37.900	0.087	0.046
-134.385	35.814	-0.150	-0.132
-133.370	-200.000	-0.063	-0.413
-132.356	723.165	-0.059	0.157
-131.341	43.316	-0.152	0.139
-130.326	-127.848	-0.159	-0.023
-129.312	-54.654	-0.103	0.047
-128.297	-54.311	-0.050	-0.023
-127.283	-149.682	0.156	-0.012
-126.268	-114.927	0.260	-0.049
-125.253	-36.849	0.391	-0.209
-124.239	-200.000	0.010	-0.066
-123.224	800.000	-0.061	-0.210
-122.210	-52.244	0.218	-0.101
-121.195	-200.000	-0.052	0.310
