DTS Sentinel unit serial number:	SN413079Multiplexer serial number:	ORYXHardware model number:	OX4-SRSoftware version number:	ORYX F/W v4.00 Oryx Data Collector v3.7.2.0data status	okinstallation	princeton_trtdifferential loss correction	single-endedforward channel	channel 4reverse channel	N/Adate	2019/09/11time	21:11:11forward acquisition time	60.00reverse acquisition time	0.00gamma	496.2192k internal	0.2305k external	0.2305temperature offset calibration	1.0068default loss term (dB/km)	0.3790temperature slope calibration	1.0000multiplexer offset coefficient	1.0000multiplexer slope coefficient	1.0000fibre end	0.00T internal ref (°C)	36.44T ext. ref 1 (°C)	1.64T ext. ref 2 (°C)	30.70length (m)	temperature (°C)	Stokes	anti-Stokes-747.200	102.732	-0.261	0.311
-746.185	165.655	0.129	0.186
-745.171	-88.911	-0.448	-0.135
-744.156	-32.231	-0.298	0.170
-743.142	189.536	-0.234	-0.357
-742.127	228.983	0.049	0.082
-741.112	-200.000	0.082	0.405
-740.098	-200.000	0.036	-0.190
-739.083	291.077	-0.140	-0.259
-738.069	145.430	0.134	0.183
-737.054	-200.000	-0.048	-0.242
-736.039	52.108	-0.251	-0.243
-735.025	58.679	-0.095	0.095
-734.010	-25.691	-0.277	-0.167
-732.996	-173.209	0.073	-0.002
-731.981	-119.829	-0.168	-0.029
-730.966	800.000	-0.040	-0.124
-729.952	-23.059	0.209	0.128
-728.937	49.412	0.117	-0.112
-727.923	-188.027	-0.390	-0.005
-726.908	-158.726	-0.289	0.017
-725.894	-135.096	-0.425	-0.052
-724.879	-200.000	-0.042	0.243
-723.864	-200.000	-0.005	-0.207
-722.850	-148.499	-0.162	0.013
-721.835	-186.444	-0.350	-0.005
-720.821	-31.424	-0.249	0.143
-719.806	134.598	0.062	-0.082
-718.791	80.194	-0.146	0.160
-717.777	468.579	-0.021	-0.048
-716.762	-200.000	0.022	-0.284
-715.748	-110.164	-0.266	0.056
-714.733	236.273	-0.153	-0.258
-713.718	602.668	-0.163	-0.412
-712.704	180.077	0.050	-0.075
-711.689	66.238	0.083	0.086
-710.675	-94.408	0.219	-0.061
-709.660	90.173	0.071	0.080
-708.645	-81.645	0.102	-0.034
-707.631	-200.000	0.066	-0.446
-706.616	-101.425	-0.091	-0.022
-705.602	-80.990	-0.246	-0.083
-704.587	-31.036	-0.011	-0.006
-703.572	524.410	-0.059	-0.141
-702.558	-139.979	-0.163	-0.018
-701.543	-200.000	-0.001	-0.068
-700.529	800.000	0.123	-0.370
-699.514	-35.868	0.098	-0.054
-698.499	-100.754	-0.127	-0.032
-697.485	-200.000	-0.027	-0.157
-696.470	78.711	-0.152	0.165
-695.456	800.000	-0.151	0.545
-694.441	-144.641	0.311	0.029
-693.426	-130.694	0.198	0.027
-692.412	-72.290	0.088	-0.033
-691.397	-134.343	0.005	0.001
-690.383	800.000	-0.112	-0.319
-689.368	-88.297	0.129	-0.039
-688.354	48.915	0.082	-0.078
-687.339	-93.287	-0.208	0.059
-686.324	-37.510	-0.091	-0.050
-685.310	-200.000	0.009	0.070
-684.295	37.713	-0.153	0.138
-683.281	-186.946	-0.194	-0.003
-682.266	-116.366	-0.130	-0.025
-681.251	-30.757	-0.168	-0.096
-680.237	165.799	0.029	0.041
-679.222	-152.124	0.226	0.017
-678.208	186.712	0.034	-0.051
-677.193	-60.039	-0.053	-0.023
-676.178	63.740	0.256	-0.261
-675.164	-14.194	0.199	-0.130
-674.149	-98.625	0.085	0.022
-673.135	14.944	-0.170	-0.135
-672.120	-80.928	-0.122	-0.041
-671.105	-25.458	-0.183	-0.110
-670.091	800.000	0.153	-0.436
-669.076	800.000	0.096	-0.290
-668.062	800.000	0.088	-0.273
-667.047	94.786	0.135	-0.156
-666.032	511.077	-0.028	0.065
-665.018	98.609	0.189	-0.221
-664.003	240.714	0.178	-0.302
-662.989	722.866	0.106	0.287
-661.974	-164.052	0.220	0.010
-660.959	25.926	-0.337	-0.285
-659.945	75.497	0.126	-0.135
-658.930	-129.728	0.294	-0.041
-657.916	-55.025	-0.220	-0.100
-656.901	389.858	-0.124	-0.261
-655.886	-81.596	0.172	-0.057
-654.872	-200.000	0.001	-0.338
-653.857	109.544	-0.364	-0.443
-652.843	258.849	-0.042	-0.074
-651.828	-45.975	-0.407	0.203
-650.814	-99.275	-0.184	-0.047
-649.799	-152.599	-0.151	0.011
-648.784	137.381	0.229	0.304
-647.770	92.852	0.092	0.106
-646.755	350.574	0.125	-0.252
-645.741	-61.242	0.265	-0.113
-644.726	-125.931	-0.302	-0.046
-643.711	45.764	-0.119	0.112
-642.697	22.765	0.102	-0.085
-641.682	-2.423	-0.189	-0.134
-640.668	-149.938	0.074	-0.006
-639.653	4.789	-0.121	-0.090
-638.638	800.000	0.062	-0.217
-637.624	-60.663	-0.045	0.019
-636.609	53.290	-0.115	-0.111
-635.595	-200.000	0.014	0.129
-634.580	-159.041	-0.324	-0.019
-633.565	-170.463	-0.187	0.007
-632.551	-200.000	-0.002	-0.465
-631.536	106.756	-0.098	-0.118
-630.522	9.483	-0.059	0.045
-629.507	20.919	-0.115	-0.095
-628.492	-106.546	0.103	0.023
-627.478	-13.613	-0.176	-0.115
-626.463	140.062	-0.070	-0.094
-625.449	462.817	0.100	-0.227
-624.434	-151.507	-0.212	-0.016
-623.419	-97.526	-0.061	0.016
-622.405	-153.358	0.173	0.012
-621.390	-49.988	0.183	-0.088
-620.376	29.534	-0.103	-0.089
-619.361	18.649	-0.163	0.132
-618.346	-121.365	-0.076	0.013
-617.332	112.971	0.022	0.027
-616.317	475.661	0.023	0.053
-615.303	-27.519	0.348	0.205
-614.288	800.000	0.044	0.165
-613.273	20.248	-0.159	0.130
-612.259	615.552	0.038	0.097
-611.244	212.652	0.194	-0.311
-610.230	-186.793	-0.068	-0.001
-609.215	800.000	0.024	-0.075
-608.201	-200.000	-0.082	-0.478
-607.186	800.000	-0.067	0.210
-606.171	-200.000	-0.001	0.073
-605.157	-112.049	0.357	0.073
-604.142	179.322	0.182	0.269
-603.128	185.155	0.108	0.162
-602.113	-5.678	-0.264	-0.183
-601.098	253.437	0.115	0.199
-600.084	-200.000	-0.025	-0.304
-599.069	-21.623	-0.048	0.030
-598.055	140.927	-0.203	0.272
-597.040	45.403	0.306	0.286
-596.025	180.739	-0.143	0.213
-595.011	102.678	0.110	0.130
-593.996	23.670	0.121	-0.101
-592.982	-71.754	-0.208	0.078
-591.967	412.364	0.069	-0.148
-590.952	-109.027	-0.502	0.108
-589.938	-200.000	-0.003	-0.140
-588.923	410.027	0.169	-0.362
-587.909	800.000	-0.018	-0.065
-586.894	758.329	0.067	-0.184
-585.879	-7.167	0.388	0.266
-584.865	106.491	-0.106	-0.127
-583.850	-118.186	-0.426	-0.077
-582.836	495.320	0.041	0.095
-581.821	643.600	0.150	-0.386
-580.806	-200.000	0.105	0.542
-579.792	-91.681	-0.527	-0.152
-578.777	-21.223	0.116	-0.072
-577.763	-200.000	0.016	-0.127
-576.748	800.000	-0.062	0.173
-575.733	34.145	0.386	-0.341
-574.719	381.292	-0.152	0.315
-573.704	-81.931	0.110	0.036
-572.690	496.089	0.166	0.386
-571.675	-200.000	-0.024	-0.170
-570.661	463.311	0.158	-0.358
-569.646	-77.384	-0.325	-0.114
-568.631	0.607	-0.241	-0.174
-567.617	-39.987	-0.028	-0.015
-566.602	-200.000	-0.070	0.509
-565.588	259.093	-0.169	0.294
-564.573	-69.010	0.336	-0.131
-563.558	-158.648	0.124	0.007
-562.544	726.186	0.053	0.143
-561.529	-160.497	-0.264	-0.014
-560.515	61.852	0.136	-0.137
-559.500	-200.000	0.005	-0.125
-558.485	-92.884	0.213	0.060
-557.471	238.303	0.182	0.305
-556.456	-173.964	-0.268	0.008
-555.442	152.231	-0.172	-0.237
-554.427	800.000	-0.079	-0.257
-553.412	203.205	0.060	-0.094
-552.398	283.545	0.235	-0.427
-551.383	-68.336	-0.297	0.117
-550.369	-52.455	0.207	-0.097
-549.354	1.026	-0.236	-0.171
-548.339	278.249	-0.094	0.170
-547.325	61.455	0.199	0.199
-546.310	69.864	-0.134	0.139
-545.296	-65.811	-0.176	-0.071
-544.281	-167.396	-0.098	0.004
-543.266	800.000	0.079	-0.221
-542.252	800.000	0.084	-0.249
-541.237	-173.018	-0.302	0.009
-540.223	-43.127	0.255	0.131
-539.208	119.186	-0.168	0.210
-538.193	-20.709	0.213	-0.132
-537.179	-23.623	-0.204	0.124
-536.164	-101.556	-0.189	0.046
-535.150	-40.485	0.026	0.014
-534.135	191.354	0.054	-0.082
-533.121	213.805	0.116	0.184
-532.106	-24.801	-0.100	0.060
-531.091	-200.000	-0.008	0.272
-530.077	26.800	-0.142	-0.120
-529.062	-200.000	-0.017	-0.123
-528.048	108.801	-0.127	0.153
-527.033	-162.136	-0.224	0.011
-526.018	-98.802	0.021	0.005
-525.004	800.000	-0.009	0.034
-523.989	342.672	-0.099	0.196
-522.975	-142.947	-0.131	0.013
-521.960	-46.716	-0.059	0.029
-520.945	-200.000	-0.004	-0.160
-519.931	328.221	0.065	0.125
-518.916	-200.000	-0.024	-0.142
-517.902	-163.389	-0.300	-0.014
-516.887	-75.948	0.244	0.087
-515.872	-200.000	0.013	0.092
-514.858	800.000	0.037	-0.131
-513.843	492.547	0.147	-0.341
-512.829	29.713	0.086	-0.074
-511.814	-123.890	0.157	-0.025
-510.799	659.480	-0.091	-0.236
-509.785	-200.000	0.068	-0.307
-508.770	-200.000	0.016	-0.144
-507.756	174.682	0.143	0.209
-506.741	-200.000	0.017	0.178
-505.726	39.040	-0.081	-0.073
-504.712	-107.486	-0.153	-0.034
-503.697	-32.914	-0.280	-0.157
-502.683	30.739	-0.152	-0.131
-501.668	800.000	-0.054	0.172
-500.653	-200.000	-0.047	0.329
-499.639	260.611	0.058	-0.101
-498.624	329.057	-0.035	-0.068
-497.610	-93.168	-0.228	-0.064
-496.595	-200.000	-0.068	-0.385
-495.581	111.934	-0.153	-0.187
-494.566	-200.000	-0.009	0.093
-493.551	64.275	-0.142	-0.144
-492.537	-43.595	-0.194	-0.099
-491.522	-200.000	0.043	0.344
-490.508	265.074	0.069	0.121
-489.493	11.746	0.350	0.271
-488.478	-200.000	-0.006	0.272
-487.464	-112.928	-0.153	-0.030
-486.449	-124.620	0.206	0.032
-485.435	186.401	-0.188	-0.283
-484.420	398.071	-0.131	-0.275
-483.405	-76.075	0.231	0.082
-482.391	800.000	-0.057	0.202
-481.376	1.016	0.107	0.077
-480.362	36.930	-0.267	0.238
-479.347	-80.204	-0.215	0.072
-478.332	144.372	-0.038	-0.051
-477.318	-41.759	-0.394	0.203
-476.303	-133.394	-0.137	0.017
-475.289	22.185	0.141	0.116
-474.274	6.300	-0.298	-0.223
-473.259	-146.402	-0.350	0.031
-472.245	197.939	0.087	0.133
-471.230	-108.574	0.106	-0.023
-470.216	24.004	0.267	-0.222
-469.201	-6.410	0.074	-0.051
-468.186	113.997	-0.160	-0.196
-467.172	-99.887	-0.214	0.054
-466.157	-200.000	0.005	0.380
-465.143	-123.819	-0.362	0.058
-464.128	395.620	-0.147	-0.310
-463.113	-82.634	-0.144	0.047
-462.099	37.173	0.277	0.247
-461.084	65.852	0.175	-0.178
-460.070	800.000	-0.075	0.316
-459.055	-200.000	-0.015	0.145
-458.040	-200.000	0.036	-0.303
-457.026	-107.372	-0.054	0.012
-456.011	-12.000	0.302	0.199
-454.997	10.825	0.326	0.250
-453.982	800.000	0.071	0.214
-452.968	73.588	-0.088	-0.093
-451.953	-184.634	0.270	0.004
-450.938	-81.963	0.227	0.075
-449.924	1.199	-0.122	0.088
-448.909	-47.699	0.103	0.050
-447.895	800.000	0.159	0.537
-446.880	-95.420	-0.276	0.075
-445.865	211.338	-0.094	-0.148
-444.851	-200.000	-0.001	0.075
-443.836	312.935	-0.048	0.091
-442.822	-200.000	0.022	0.261
-441.807	-87.370	-0.097	0.030
-440.792	-200.000	-0.024	-0.224
-439.778	-64.262	-0.345	0.141
-438.763	-174.785	-0.066	0.002
-437.749	-200.000	-0.037	-0.278
-436.734	-37.559	-0.223	0.120
-435.719	-150.183	-0.039	-0.003
-434.705	-189.710	0.253	0.003
-433.690	284.360	0.084	0.152
-432.676	151.648	-0.095	-0.130
-431.661	-200.000	0.024	-0.140
-430.646	-200.000	-0.026	-0.225
-429.632	-30.464	0.165	-0.094
-428.617	156.109	-0.097	-0.135
-427.603	-200.000	-0.000	-0.024
-426.588	-74.702	-0.150	0.054
-425.573	36.557	0.106	0.094
-424.559	-16.989	0.262	-0.167
-423.544	-71.877	-0.083	-0.031
-422.530	-200.000	-0.026	0.173
-421.515	-49.646	-0.429	-0.205
-420.500	-200.000	-0.052	0.248
-419.486	-51.616	-0.114	-0.053
-418.471	-200.000	0.030	-0.196
-417.457	-200.000	0.019	-0.231
-416.442	758.759	-0.051	-0.139
-415.428	-200.000	0.012	-0.591
-414.413	152.195	-0.157	-0.216
-413.398	800.000	-0.067	-0.192
-412.384	3.306	-0.237	0.173
-411.369	-200.000	-0.047	0.209
-410.355	-55.412	-0.264	-0.119
-409.340	-155.906	-0.210	0.013
-408.325	800.000	-0.035	0.140
-407.311	305.490	0.050	-0.093
-406.296	326.963	-0.051	-0.098
-405.282	-48.939	0.201	-0.097
-404.267	57.603	-0.194	-0.190
-403.252	207.830	0.122	0.191
-402.238	354.736	-0.111	0.221
-401.223	-73.543	0.175	-0.064
-400.209	800.000	0.015	-0.058
-399.194	-200.000	-0.035	-0.318
-398.179	800.000	-0.066	-0.240
-397.165	276.002	-0.186	-0.331
-396.150	-200.000	-0.039	0.175
-395.136	-114.859	-0.195	-0.037
-394.121	800.000	0.031	-0.134
-393.106	-128.313	-0.387	-0.055
-392.092	-24.147	0.049	0.029
-391.077	574.241	-0.045	0.111
-390.063	-21.368	0.323	-0.198
-389.048	-200.000	-0.047	0.308
-388.033	-37.813	-0.325	-0.174
-387.019	-15.490	0.049	0.031
-386.004	-100.610	0.244	-0.060
-384.990	800.000	-0.024	0.102
-383.975	-127.787	-0.155	-0.022
-382.960	-60.776	0.080	-0.034
-381.946	-21.487	-0.144	0.088
-380.931	469.296	-0.088	-0.199
-379.917	-94.639	-0.216	-0.059
-378.902	8.391	0.080	0.060
-377.888	18.844	0.131	0.105
-376.873	-200.000	0.042	-0.329
-375.858	-16.125	-0.241	-0.154
-374.844	-53.988	0.387	-0.177
-373.829	204.171	-0.039	-0.060
-372.815	107.630	-0.095	-0.114
-371.800	113.323	0.054	0.065
-370.785	83.883	0.114	-0.125
-369.771	-84.666	0.091	0.029
-368.756	-153.452	0.184	0.013
-367.742	-200.000	0.003	-0.059
-366.727	117.644	-0.130	-0.161
-365.712	-200.000	0.010	-0.280
-364.698	151.223	-0.134	-0.183
-363.683	175.796	0.035	-0.051
-362.669	-168.403	-0.314	-0.012
-361.654	91.751	-0.176	-0.199
-360.639	-114.493	-0.342	0.066
-359.625	102.866	0.248	0.291
-358.610	-4.204	-0.142	-0.098
-357.596	137.849	-0.030	-0.040
-356.581	51.998	0.250	0.239
-355.566	237.692	0.151	0.251
-354.552	34.066	0.109	0.095
-353.537	300.389	-0.200	0.370
-352.523	536.281	0.138	0.328
-351.508	-57.474	0.192	-0.085
-350.493	800.000	0.022	-0.077
-349.479	-23.250	-0.163	0.098
-348.464	259.631	-0.078	0.135
-347.450	136.578	0.226	-0.296
-346.435	-200.000	-0.051	0.324
-345.420	-6.786	0.162	0.111
-344.406	47.034	-0.184	-0.172
-343.391	422.775	-0.084	0.182
-342.377	220.014	-0.047	-0.076
-341.362	-11.717	0.234	-0.154
-340.348	261.688	0.047	0.082
-339.333	-17.335	-0.190	-0.120
-338.318	186.540	0.162	0.242
-337.304	-3.413	-0.159	0.111
-336.289	-200.000	-0.069	-0.305
-335.275	256.873	-0.124	0.214
-334.260	-86.851	0.449	0.137
-333.245	18.584	-0.064	0.052
-332.231	152.989	-0.098	0.134
-331.216	133.807	-0.146	-0.189
-330.202	-28.337	0.130	-0.075
-329.187	-30.100	0.336	0.192
-328.172	-200.000	0.001	-0.074
-327.158	-77.467	0.268	0.093
-326.143	-15.794	-0.145	-0.093
-325.129	-74.577	-0.078	-0.028
-324.114	-113.010	0.289	-0.057
-323.099	441.017	0.070	-0.154
-322.085	3.004	-0.135	-0.098
-321.070	-32.212	0.196	0.110
-320.056	-42.956	-0.223	0.113
-319.041	-120.883	-0.169	0.028
-318.026	79.630	0.159	0.171
-317.012	-200.000	-0.043	-0.280
-315.997	-93.614	-0.322	0.089
-314.983	-49.703	0.202	-0.096
-313.968	-26.031	0.086	0.051
-312.953	-200.000	-0.053	-0.292
-311.939	-200.000	0.022	-0.428
-310.924	210.602	-0.073	-0.115
-309.910	353.560	0.082	-0.163
-308.895	745.245	-0.100	0.269
-307.880	-200.000	0.027	-0.183
-306.866	190.884	-0.257	0.387
-305.851	-170.909	0.076	-0.003
-304.837	-102.227	0.176	0.042
-303.822	436.540	-0.099	-0.215
-302.807	-100.723	0.201	0.049
-301.793	-200.000	-0.032	-0.167
-300.778	642.547	-0.050	-0.127
-299.764	-200.000	-0.027	-0.392
-298.749	-200.000	-0.027	-0.177
-297.735	325.363	-0.059	0.113
-296.720	228.896	0.105	-0.171
-295.705	76.131	-0.058	-0.061
-294.691	516.092	0.091	0.213
-293.676	800.000	0.092	0.279
-292.662	-74.192	0.286	-0.103
-291.647	800.000	0.032	0.123
-290.632	-200.000	-0.029	0.135
-289.618	-91.401	0.359	0.102
-288.603	272.528	0.157	0.276
-287.589	26.424	0.185	-0.155
-286.574	-54.750	0.074	-0.034
-285.559	455.117	0.055	-0.122
-284.545	1.475	-0.184	0.133
-283.530	258.853	-0.243	0.419
-282.516	-109.656	0.172	0.036
-281.501	126.106	0.130	0.164
-280.486	-151.276	0.204	0.015
-279.472	-180.509	0.248	0.005
-278.457	103.489	-0.112	-0.132
-277.443	-91.245	-0.160	-0.046
-276.428	-40.945	0.293	-0.152
-275.413	-127.450	0.196	-0.029
-274.399	227.248	-0.071	-0.115
-273.384	-26.961	-0.029	0.017
-272.370	6.844	0.082	-0.061
-271.355	-59.391	-0.193	-0.083
-270.340	-158.794	-0.076	-0.004
-269.326	-40.288	0.227	0.118
-268.311	-52.143	0.146	0.068
-267.297	-154.683	-0.240	0.016
-266.282	-104.269	0.234	-0.054
-265.267	45.979	0.098	0.091
-264.253	800.000	0.019	0.065
-263.238	-153.890	-0.225	-0.015
-262.224	-132.051	-0.281	0.037
-261.209	399.082	-0.153	-0.321
-260.195	-112.934	-0.463	-0.092
-259.180	-188.162	0.145	-0.002
-258.165	43.022	0.059	-0.054
-257.151	-200.000	-0.029	0.159
-256.136	-200.000	-0.011	-0.237
-255.122	-33.355	0.334	-0.184
-254.107	800.000	0.067	-0.240
-253.092	-91.090	0.260	-0.075
-252.078	-200.000	0.006	0.128
-251.063	-16.542	0.226	-0.143
-250.049	-81.586	0.256	-0.084
-249.034	241.311	0.146	0.243
-248.019	-78.492	0.041	0.014
-247.005	-127.499	0.113	0.016
-245.990	230.937	0.152	0.249
-244.976	-98.010	0.180	-0.046
-243.961	-136.365	0.007	0.001
-242.946	800.000	-0.083	0.283
-241.932	477.301	-0.020	-0.045
-240.917	-113.889	0.167	-0.032
-239.903	-40.400	0.074	-0.038
-238.888	471.876	-0.061	-0.138
-237.873	-200.000	0.021	-0.437
-236.859	76.823	0.213	0.226
-235.844	-200.000	-0.033	-0.307
-234.830	800.000	-0.042	0.174
-233.815	22.569	0.085	-0.070
-232.800	-200.000	0.025	0.244
-231.786	-94.309	-0.138	0.038
-230.771	-2.488	-0.096	0.067
-229.757	18.913	0.276	-0.221
-228.742	-104.230	0.074	-0.017
-227.727	-44.597	-0.324	-0.162
-226.713	538.659	-0.120	0.286
-225.698	800.000	0.031	0.124
-224.684	22.829	-0.257	0.210
-223.669	-5.308	0.435	0.298
-222.655	-34.581	0.012	0.007
-221.640	237.836	-0.109	-0.181
-220.625	-200.000	-0.014	-0.068
-219.611	289.728	0.108	0.196
-218.596	8.508	0.077	0.057
-217.582	-200.000	-0.064	-0.381
-216.567	-63.722	0.098	0.040
-215.552	59.627	0.165	0.162
-214.538	-200.000	0.054	-0.476
-213.523	800.000	-0.014	-0.061
-212.509	263.556	-0.129	0.224
-211.494	53.598	-0.057	-0.055
-210.479	-61.208	0.077	0.033
-209.465	70.324	0.097	0.100
-208.450	535.313	0.044	-0.104
-207.436	166.263	-0.083	-0.117
-206.421	435.408	0.175	0.380
-205.406	-109.432	0.286	-0.060
-204.392	-200.000	0.058	0.341
-203.377	-13.706	-0.189	-0.122
-202.363	449.797	0.090	-0.198
-201.348	-118.051	-0.259	0.046
-200.333	-200.000	-0.001	0.102
-199.319	-119.663	-0.106	-0.018
-198.304	800.000	0.020	-0.071
-197.290	800.000	0.094	0.324
-196.275	800.000	0.053	-0.166
-195.260	-184.496	0.327	0.005
-194.246	800.000	0.057	0.163
-193.231	-51.673	-0.327	0.152
-192.217	800.000	0.086	0.257
-191.202	-200.000	-0.039	-0.275
-190.187	800.000	-0.058	0.165
-189.173	-97.337	-0.145	-0.038
-188.158	7.659	0.260	0.194
-187.144	-200.000	0.029	0.281
-186.129	149.113	0.191	0.258
-185.114	-112.743	0.119	0.024
-184.100	380.852	0.194	0.396
-183.085	-86.178	-0.258	0.079
-182.071	0.534	-0.231	0.164
-181.056	-85.614	-0.282	0.087
-180.042	800.000	0.090	0.262
-179.027	36.726	0.517	0.454
-178.012	-61.049	0.214	-0.090
-176.998	141.140	-0.112	-0.147
-175.983	-1.208	0.406	-0.286
-174.969	268.424	-0.124	-0.217
-173.954	42.643	0.092	-0.083
-172.939	-200.000	-0.002	-0.135
-171.925	190.524	-0.033	-0.050
-170.910	-200.000	-0.000	0.128
-169.896	418.228	-0.122	0.260
-168.881	-135.862	0.146	0.017
-167.866	-77.471	0.127	-0.044
-166.852	787.475	-0.056	-0.152
-165.837	159.228	0.024	0.034
-164.823	-48.028	0.104	-0.050
-163.808	800.000	-0.058	0.231
-162.793	114.028	0.332	0.401
-161.779	-114.076	-0.346	0.067
-160.764	43.139	0.112	-0.102
-159.750	-162.685	0.235	0.011
-158.735	70.112	-0.058	0.060
-157.720	-97.359	0.206	0.053
-156.706	159.512	-0.241	-0.334
-155.691	-48.653	0.412	0.197
-154.677	594.585	-0.097	0.238
-153.662	-18.307	0.219	0.136
-152.647	-126.571	0.325	0.048
-151.633	320.793	-0.039	0.073
-150.618	-200.000	-0.049	0.337
-149.604	-200.000	-0.003	-0.255
-148.589	800.000	0.024	0.099
-147.574	-166.367	-0.169	0.007
-146.560	184.243	0.155	0.229
-145.545	-128.432	0.311	-0.044
-144.531	165.142	0.004	0.005
-143.516	800.000	0.073	-0.202
-142.502	-200.000	0.031	0.214
-141.487	-200.000	-0.042	0.211
-140.472	-23.808	-0.166	0.099
-139.458	75.327	0.100	-0.105
-138.443	800.000	-0.023	-0.072
-137.429	-68.384	-0.184	-0.071
-136.414	-151.498	0.142	0.010
-135.399	50.485	0.052	-0.049
-134.385	-200.000	0.027	-0.149
-133.370	-200.000	-0.004	-0.164
-132.356	253.864	-0.071	-0.121
-131.341	94.547	0.108	-0.122
-130.326	203.643	-0.162	0.250
-129.312	-44.507	-0.389	0.193
-128.297	-101.952	0.063	0.015
-127.283	51.402	0.137	0.129
-126.268	-113.690	-0.094	0.018
-125.253	-1.865	-0.217	-0.152
-124.239	800.000	-0.011	-0.031
-123.224	166.200	0.090	-0.126
-122.210	800.000	-0.064	0.236
