DTS Sentinel unit serial number:	SN413079Multiplexer serial number:	ORYXHardware model number:	OX4-SRSoftware version number:	ORYX F/W v4.00 Oryx Data Collector v3.7.2.0data status	okinstallation	princeton_trtdifferential loss correction	single-endedforward channel	channel 4reverse channel	N/Adate	2019/09/12time	07:19:10forward acquisition time	60.00reverse acquisition time	0.00gamma	496.2192k internal	0.2306k external	0.2306temperature offset calibration	1.0063default loss term (dB/km)	0.3790temperature slope calibration	1.0000multiplexer offset coefficient	1.0000multiplexer slope coefficient	1.0000fibre end	0.00T internal ref (°C)	32.31T ext. ref 1 (°C)	1.61T ext. ref 2 (°C)	28.45length (m)	temperature (°C)	Stokes	anti-Stokes-747.200	-200.000	-0.042	-0.447
-746.185	-200.000	0.059	0.428
-745.171	-46.534	-0.082	-0.041
-744.156	393.800	0.079	0.168
-743.142	-49.758	0.462	0.223
-742.127	-42.156	-0.193	-0.100
-741.112	248.841	0.010	0.018
-740.098	-12.392	-0.171	0.114
-739.083	228.414	0.028	0.046
-738.069	21.076	0.259	0.214
-737.054	800.000	0.074	-0.239
-736.039	-40.998	-0.160	0.084
-735.025	-29.793	0.368	-0.213
-734.010	-78.938	-0.218	0.075
-732.996	181.132	-0.269	-0.403
-731.981	30.866	-0.149	0.130
-730.966	678.110	-0.062	-0.165
-729.952	252.672	-0.189	-0.328
-728.937	-200.000	0.037	0.346
-727.923	125.377	-0.194	0.249
-726.908	-82.955	-0.268	0.088
-725.894	-110.455	0.145	-0.031
-724.879	-132.605	-0.212	-0.028
-723.864	-65.754	-0.209	-0.085
-722.850	-55.793	0.225	-0.102
-721.835	-133.200	-0.360	0.046
-720.821	147.033	-0.212	-0.290
-719.806	-200.000	-0.019	-0.127
-718.791	76.457	-0.146	-0.158
-717.777	-200.000	0.032	0.424
-716.762	-129.114	-0.171	-0.024
-715.748	-144.448	-0.187	-0.018
-714.733	149.444	-0.049	-0.067
-713.718	58.004	-0.076	0.076
-712.704	143.498	-0.060	0.081
-711.689	244.984	-0.206	0.351
-710.675	-152.596	-0.316	-0.023
-709.660	501.045	-0.194	0.454
-708.645	-120.299	0.205	0.036
-707.631	-144.555	-0.171	0.016
-706.616	205.673	0.204	-0.322
-705.602	-63.249	-0.339	0.142
-704.587	507.965	-0.085	0.201
-703.572	41.753	-0.302	-0.278
-702.558	-200.000	-0.049	-0.586
-701.543	-200.000	0.038	0.242
-700.529	83.673	0.077	-0.085
-699.514	19.813	-0.242	0.198
-698.499	145.986	-0.147	0.200
-697.485	-143.696	0.031	-0.003
-696.470	479.619	-0.106	0.245
-695.456	-41.798	0.144	0.075
-694.441	-190.676	-0.124	0.001
-693.426	-110.983	0.401	-0.084
-692.412	-200.000	0.044	-0.205
-691.397	-113.736	-0.273	-0.054
-690.383	800.000	-0.046	0.142
-689.368	60.067	-0.242	-0.243
-688.354	69.248	0.020	0.021
-687.339	800.000	0.044	0.164
-686.324	-200.000	0.052	-0.296
-685.310	260.110	0.155	0.271
-684.295	-58.829	-0.284	0.125
-683.281	105.438	-0.116	-0.140
-682.266	800.000	-0.024	0.074
-681.251	-45.251	0.219	0.110
-680.237	72.442	-0.187	-0.198
-679.222	-99.197	0.414	0.106
-678.208	62.184	0.216	0.219
-677.193	-80.915	-0.183	0.062
-676.178	-45.836	0.075	0.037
-675.164	-200.000	0.048	0.330
-674.149	-176.604	0.006	0.000
-673.135	-112.742	0.091	0.018
-672.120	700.131	0.071	0.190
-671.105	-144.762	0.299	-0.028
-670.091	-200.000	-0.042	-0.251
-669.076	-170.766	0.284	-0.010
-668.062	4.611	-0.070	0.052
-667.047	-121.137	-0.167	0.028
-666.032	247.097	-0.106	-0.181
-665.018	44.447	0.020	-0.019
-664.003	-105.421	0.418	-0.096
-662.989	174.405	-0.090	-0.132
-661.974	622.624	-0.060	0.152
-660.959	-169.544	0.161	0.006
-659.945	29.088	-0.187	0.161
-658.930	-152.976	-0.120	-0.009
-657.916	489.669	-0.178	-0.413
-656.901	264.486	0.053	0.093
-655.886	-24.894	-0.219	0.132
-654.872	258.573	-0.148	0.258
-653.857	-50.839	-0.155	-0.074
-652.843	20.000	0.080	0.065
-651.828	-200.000	-0.030	0.168
-650.814	31.329	-0.125	0.109
-649.799	800.000	0.050	-0.205
-648.784	-178.652	-0.427	0.010
-647.770	-200.000	-0.049	0.412
-646.755	683.916	-0.059	0.155
-645.741	-163.798	-0.168	-0.008
-644.726	195.245	-0.263	0.405
-643.711	800.000	-0.041	0.172
-642.697	122.093	-0.108	0.137
-641.682	800.000	0.074	-0.261
-640.668	800.000	-0.024	-0.091
-639.653	89.581	0.208	0.235
-638.638	-200.000	-0.001	-0.045
-637.624	-200.000	-0.012	0.402
-636.609	714.481	-0.146	0.391
-635.595	-97.750	-0.176	-0.046
-634.580	284.613	-0.067	-0.121
-633.565	-69.084	-0.195	-0.076
-632.551	71.204	0.043	-0.045
-631.536	-42.753	0.201	-0.103
-630.522	64.375	-0.186	-0.190
-629.507	-106.521	-0.550	0.124
-628.492	361.317	0.066	0.134
-627.478	-0.999	0.131	0.094
-626.463	131.497	-0.176	0.229
-625.449	-124.766	-0.292	-0.046
-624.434	458.748	0.126	-0.285
-623.419	-200.000	-0.072	-0.376
-622.405	-200.000	0.006	0.122
-621.390	137.990	0.148	0.196
-620.376	14.883	-0.157	-0.124
-619.361	281.818	-0.141	-0.256
-618.346	-130.714	-0.277	-0.038
-617.332	-200.000	0.036	-0.178
-616.317	220.903	-0.123	-0.200
-615.303	800.000	-0.116	-0.378
-614.288	121.371	0.165	-0.208
-613.273	-200.000	0.007	0.182
-612.259	-118.429	-0.022	0.004
-611.244	145.938	-0.162	0.220
-610.230	-200.000	-0.009	0.085
-609.215	800.000	-0.164	-0.526
-608.201	-200.000	0.045	0.384
-607.186	323.906	-0.092	-0.178
-606.171	-120.399	0.157	0.027
-605.157	-200.000	0.015	-0.130
-604.142	-200.000	0.007	0.133
-603.128	-200.000	-0.009	-0.390
-602.113	23.223	-0.274	-0.228
-601.098	-11.962	-0.075	0.050
-600.084	154.176	0.196	0.271
-599.069	133.414	-0.262	0.343
-598.055	-97.597	-0.051	-0.013
-597.040	-12.251	0.122	-0.081
-596.025	195.013	-0.169	-0.260
-595.011	-200.000	0.001	0.028
-593.996	174.552	0.106	-0.155
-592.982	35.256	0.285	-0.253
-591.967	-200.000	0.096	-0.627
-590.952	182.462	0.051	0.077
-589.938	534.242	-0.079	-0.189
-588.923	-154.963	0.116	-0.008
-587.909	42.385	0.045	-0.041
-586.894	-30.287	-0.101	0.058
-585.879	-200.000	-0.027	0.163
-584.865	18.980	0.157	-0.127
-583.850	-135.190	-0.186	-0.023
-582.836	800.000	-0.120	0.377
-581.821	-200.000	-0.008	-0.310
-580.806	-200.000	-0.007	-0.111
-579.792	-194.476	-0.184	0.001
-578.777	-200.000	-0.024	-0.180
-577.763	26.020	-0.192	-0.162
-576.748	800.000	-0.098	0.382
-575.733	-22.502	-0.088	0.054
-574.719	132.987	0.046	0.060
-573.704	800.000	-0.016	0.055
-572.690	-200.000	0.027	-0.291
-571.675	537.088	-0.113	-0.270
-570.661	-120.006	-0.238	-0.041
-569.646	-71.809	-0.244	-0.092
-568.631	255.287	0.038	0.066
-567.617	-200.000	0.013	0.157
-566.602	-200.000	-0.013	-0.271
-565.588	-150.813	-0.207	-0.016
-564.573	-104.690	-0.153	0.036
-563.558	-79.393	0.207	-0.071
-562.544	467.686	0.062	-0.140
-561.529	63.690	0.285	-0.289
-560.515	458.388	-0.090	-0.202
-559.500	62.437	-0.091	-0.091
-558.485	-53.726	-0.100	0.046
-557.471	-26.060	-0.220	-0.131
-556.456	-5.622	0.131	0.090
-555.442	26.137	0.121	0.102
-554.427	702.000	-0.016	-0.043
-553.412	-200.000	0.073	-0.609
-552.398	62.130	-0.168	-0.169
-551.383	-128.400	-0.293	0.042
-550.369	-55.453	0.155	0.070
-549.354	69.502	0.077	0.080
-548.339	91.872	-0.392	0.445
-547.325	800.000	0.041	-0.141
-546.310	254.256	-0.074	-0.128
-545.296	-200.000	0.040	-0.244
-544.281	343.999	-0.040	0.079
-543.266	-87.972	-0.151	-0.046
-542.252	-158.179	0.238	-0.014
-541.237	179.561	-0.210	-0.310
-540.223	-86.616	0.089	-0.028
-539.208	-200.000	0.015	-0.077
-538.193	1.820	0.106	0.077
-537.179	800.000	0.036	-0.129
-536.164	-169.793	0.517	-0.019
-535.150	-200.000	-0.031	0.216
-534.135	-3.540	-0.318	-0.223
-533.121	-54.771	-0.137	-0.062
-532.106	255.771	-0.132	-0.229
-531.091	-184.947	-0.056	-0.001
-530.077	-132.305	0.420	-0.055
-529.062	156.895	-0.129	-0.181
-528.048	-13.004	0.207	0.136
-527.033	800.000	-0.085	-0.275
-526.018	12.804	-0.125	-0.097
-525.004	41.851	-0.156	-0.142
-523.989	-8.643	0.131	-0.089
-522.975	-97.193	0.315	-0.083
-521.960	265.241	-0.072	-0.126
-520.945	-155.051	-0.078	-0.005
-519.931	-200.000	0.025	0.113
-518.916	-93.524	0.111	0.031
-517.902	-99.826	0.170	-0.043
-516.887	37.365	-0.131	0.117
-515.872	-60.596	-0.242	0.104
-514.858	-50.640	0.291	0.138
-513.843	-21.196	-0.353	0.218
-512.829	70.685	-0.063	0.066
-511.814	800.000	0.031	-0.132
-510.799	-32.373	0.140	0.079
-509.785	31.072	-0.091	-0.078
-508.770	800.000	-0.150	0.489
-507.756	-28.467	0.224	0.130
-506.741	-70.317	0.145	0.055
-505.726	-12.292	-0.248	0.164
-504.712	-200.000	0.018	0.120
-503.697	-91.121	-0.167	0.048
-502.683	-114.682	0.181	0.035
-501.668	-27.373	-0.301	-0.177
-500.653	800.000	0.179	0.776
-499.639	-108.293	0.345	0.075
-498.624	544.583	0.127	0.307
-497.610	800.000	-0.086	0.350
-496.595	35.649	0.075	-0.067
-495.581	-200.000	0.020	0.129
-494.566	140.423	0.252	0.336
-493.551	55.660	-0.380	0.371
-492.537	177.928	-0.160	0.236
-491.522	198.044	0.111	-0.171
-490.508	138.281	0.055	0.072
-489.493	-79.521	-0.454	0.154
-488.478	-107.438	-0.224	-0.050
-487.464	-200.000	0.016	-0.212
-486.449	319.097	-0.155	0.296
-485.435	354.444	0.073	-0.145
-484.420	-152.115	0.093	0.007
-483.405	-42.138	-0.143	-0.074
-482.391	800.000	0.014	-0.056
-481.376	800.000	-0.075	-0.211
-480.362	-108.052	-0.496	-0.108
-479.347	-36.377	-0.257	0.139
-478.332	117.464	0.246	-0.305
-477.318	-200.000	-0.019	-0.267
-476.303	-59.941	-0.103	0.044
-475.289	-100.158	-0.447	-0.112
-474.274	40.632	-0.156	0.141
-473.259	-62.072	-0.095	-0.040
-472.245	-200.000	-0.001	-0.071
-471.230	-200.000	0.008	-0.342
-470.216	-77.392	-0.162	-0.057
-469.201	3.867	0.181	-0.133
-468.186	-200.000	0.015	0.147
-467.172	189.263	-0.197	0.296
-466.157	78.271	0.181	-0.194
-465.143	-200.000	-0.002	0.328
-464.128	739.974	0.100	-0.271
-463.113	-200.000	0.035	0.311
-462.099	51.650	0.224	0.214
-461.084	84.263	0.117	-0.129
-460.070	-145.955	0.344	-0.031
-459.055	-12.523	0.112	-0.074
-458.040	603.248	0.069	-0.172
-457.026	-51.782	-0.291	0.136
-456.011	431.429	0.056	-0.123
-454.997	114.299	0.176	0.216
-453.982	600.449	0.135	-0.337
-452.968	-136.198	-0.083	0.010
-451.953	-200.000	0.233	0.000
-450.938	589.742	0.045	0.112
-449.924	-153.640	0.090	0.006
-448.909	90.126	-0.207	0.232
-447.895	52.973	0.181	0.175
-446.880	-47.103	0.159	-0.078
-445.865	-200.000	-0.029	0.237
-444.851	73.075	0.175	0.184
-443.836	-140.036	-0.375	-0.040
-442.822	708.340	-0.021	-0.057
-441.807	-99.722	0.090	0.023
-440.792	-84.239	0.080	0.025
-439.778	-118.829	0.372	-0.066
-438.763	-27.884	0.187	0.109
-437.749	-117.573	0.071	-0.013
-436.734	-100.681	-0.026	0.007
-435.719	-8.276	-0.217	0.146
-434.705	-200.000	0.006	-0.305
-433.690	-122.942	0.191	0.031
-432.676	-200.000	0.020	-0.242
-431.661	147.614	0.191	0.258
-430.646	11.204	-0.180	-0.139
-429.632	405.754	0.031	-0.066
-428.617	92.472	0.062	0.071
-427.603	-200.000	-0.036	0.192
-426.588	657.025	0.138	-0.356
-425.573	-200.000	-0.039	-0.398
-424.559	-30.774	-0.166	-0.094
-423.544	-121.941	-0.254	0.042
-422.530	-200.000	-0.019	-0.237
-421.515	-200.000	0.027	-0.235
-420.500	-78.129	-0.153	-0.053
-419.486	-200.000	0.029	0.351
-418.471	-84.682	0.190	-0.060
-417.457	-200.000	0.013	-0.092
-416.442	-51.936	0.219	-0.102
-415.428	388.748	0.171	0.355
-414.413	-141.890	0.186	0.019
-413.398	407.295	-0.196	0.417
-412.384	-177.651	-0.145	-0.004
-411.369	11.136	0.267	0.205
-410.355	-200.000	-0.020	-0.205
-409.340	-106.286	-0.132	0.030
-408.325	352.557	-0.088	0.175
-407.311	800.000	-0.113	-0.424
-406.296	-31.927	0.209	-0.118
-405.282	-200.000	0.056	0.305
-404.267	-126.113	0.048	0.007
-403.252	228.623	-0.092	0.151
-402.238	-77.723	0.491	-0.171
-401.223	618.451	-0.099	-0.249
-400.209	453.520	-0.148	-0.329
-399.194	5.704	-0.128	0.095
-398.179	-120.448	0.141	-0.024
-397.165	241.499	0.208	-0.348
-396.150	-200.000	-0.037	-0.365
-395.136	240.608	0.134	0.225
-394.121	-158.534	-0.090	0.005
-393.106	-133.121	-0.156	0.020
-392.092	-190.529	0.138	0.001
-391.077	-83.004	0.091	0.029
-390.063	800.000	-0.021	-0.063
-389.048	-200.000	0.105	0.480
-388.033	-200.000	0.012	0.144
-387.019	-177.004	0.200	-0.005
-386.004	-162.813	0.115	0.006
-384.990	261.992	0.035	0.061
-383.975	-10.782	0.271	-0.180
-382.960	-132.846	0.063	0.008
-381.946	-20.864	-0.106	0.065
-380.931	70.545	-0.129	0.134
-379.917	-154.641	-0.198	0.013
-378.902	70.154	0.195	-0.202
-377.888	14.014	-0.137	-0.107
-376.873	78.502	-0.102	0.110
-375.858	6.766	0.049	-0.036
-374.844	800.000	0.076	-0.249
-373.829	-93.129	0.140	-0.039
-372.815	-43.497	0.256	0.130
-371.800	102.533	0.142	0.166
-370.785	-61.602	0.310	-0.130
-369.771	-68.120	-0.207	0.081
-368.756	-80.694	-0.285	-0.095
-367.742	800.000	-0.060	-0.177
-366.727	474.577	-0.049	0.110
-365.712	118.464	0.171	0.212
-364.698	9.045	0.263	0.199
-363.683	-6.824	0.155	-0.106
-362.669	-200.000	-0.054	-0.329
-361.654	197.743	0.258	-0.395
-360.639	-11.593	0.133	0.088
-359.625	-97.816	-0.113	-0.029
-358.610	-102.539	0.072	0.017
-357.596	-16.207	0.106	-0.067
-356.581	-118.560	-0.393	0.070
-355.566	-117.155	0.255	0.047
-354.552	529.957	-0.120	-0.283
-353.537	105.261	0.165	0.196
-352.523	215.136	0.093	0.147
-351.508	336.019	-0.078	0.152
-350.493	569.229	-0.109	-0.266
-349.479	800.000	-0.014	0.046
-348.464	199.385	0.025	0.038
-347.450	311.696	0.093	0.175
-346.435	800.000	-0.025	0.104
-345.420	55.430	-0.091	-0.089
-344.406	-21.362	-0.122	0.075
-343.391	-31.374	-0.068	-0.038
-342.377	504.316	-0.036	0.083
-341.362	-30.237	-0.220	0.125
-340.348	-105.427	0.357	0.081
-339.333	91.852	-0.034	0.039
-338.318	-78.861	0.508	0.173
-337.304	80.960	0.055	-0.059
-336.289	-200.000	-0.025	-0.116
-335.275	-200.000	0.019	0.157
-334.260	800.000	-0.072	0.287
-333.245	-157.218	0.044	0.003
-332.231	-82.266	0.130	-0.042
-331.216	38.902	-0.090	-0.080
-330.202	18.175	-0.007	0.006
-329.187	-125.667	0.328	-0.050
-328.172	93.788	0.227	-0.257
-327.158	-108.559	0.234	-0.050
-326.143	60.008	-0.061	0.060
-325.129	176.031	0.234	0.340
-324.114	-160.521	-0.094	-0.005
-323.099	-130.610	-0.030	0.004
-322.085	800.000	-0.032	0.132
-321.070	-30.193	0.351	-0.200
-320.056	800.000	-0.059	0.166
-319.041	136.764	0.288	-0.376
-318.026	-122.465	0.208	-0.034
-317.012	800.000	0.089	-0.291
-315.997	800.000	-0.086	-0.244
-314.983	-50.666	-0.131	-0.062
-313.968	237.146	-0.104	-0.172
-312.953	158.128	-0.199	-0.276
-311.939	266.435	0.194	0.339
-310.924	-12.797	-0.064	0.042
-309.910	214.508	-0.168	-0.267
-308.895	9.931	0.068	0.051
-307.880	237.721	-0.027	-0.045
-306.866	-138.977	0.268	0.029
-305.851	256.020	-0.030	0.052
-304.837	592.609	0.099	-0.244
-303.822	-5.642	-0.191	-0.131
-302.807	-126.877	-0.246	0.036
-301.793	-120.015	0.314	-0.054
-300.778	-200.000	0.019	0.240
-299.764	358.890	-0.085	0.169
-298.749	-158.316	0.272	-0.016
-297.735	24.146	0.197	-0.163
-296.720	48.569	0.256	0.239
-295.705	800.000	0.060	0.170
-294.691	-200.000	0.013	0.346
-293.676	-200.000	0.023	0.313
-292.662	-146.006	0.248	-0.022
-291.647	-16.304	-0.061	0.039
-290.632	117.635	-0.068	0.084
-289.618	141.534	0.220	0.291
-288.603	-114.526	0.168	0.032
-287.589	-200.000	-0.013	-0.216
-286.574	800.000	0.026	-0.104
-285.559	252.543	0.123	-0.210
-284.545	75.717	0.085	-0.089
-283.530	-4.561	-0.405	0.279
-282.516	-200.000	-0.057	0.264
-281.501	49.416	0.359	0.338
-280.486	-127.885	-0.242	-0.035
-279.472	-200.000	0.006	0.146
-278.457	800.000	0.090	-0.267
-277.443	-200.000	0.089	-0.440
-276.428	-15.470	-0.074	-0.047
-275.413	-200.000	-0.015	-0.265
-274.399	135.013	0.125	0.162
-273.384	-43.128	0.192	0.097
-272.370	430.304	-0.109	0.235
-271.355	-200.000	0.017	-0.153
-270.340	182.437	-0.106	0.155
-269.326	36.661	0.135	-0.119
-268.311	-7.763	0.218	-0.147
-267.297	-20.618	-0.242	-0.149
-266.282	-200.000	0.020	0.283
-265.267	13.607	0.141	-0.109
-264.253	800.000	-0.075	-0.217
-263.238	68.002	-0.065	0.066
-262.224	142.918	0.204	0.271
-261.209	717.037	0.071	-0.189
-260.195	800.000	0.204	0.567
-259.180	630.185	-0.041	0.104
-258.165	-200.000	0.048	0.277
-257.151	76.975	0.044	0.046
-256.136	438.279	0.109	0.237
-255.122	-44.770	-0.166	-0.083
-254.107	-86.216	-0.138	-0.043
-253.092	-111.549	0.379	-0.077
-252.078	246.826	0.138	0.232
-251.063	-171.227	-0.137	0.005
-250.049	-200.000	-0.033	0.199
-249.034	-104.554	-0.216	0.050
-248.019	-73.033	-0.485	-0.178
-247.005	-101.093	-0.123	0.030
-245.990	2.736	-0.101	0.073
-244.976	800.000	-0.086	-0.316
-243.961	-91.174	-0.127	-0.036
-242.946	357.860	0.143	-0.284
-241.932	-200.000	-0.001	0.059
-240.917	-118.373	0.206	0.036
-239.903	229.370	0.207	0.336
-238.888	-200.000	-0.000	-0.055
-237.873	-29.903	-0.260	-0.147
-236.859	-130.681	-0.293	0.039
-235.844	-30.077	-0.087	0.050
-234.830	523.665	-0.100	0.234
-233.815	-34.765	0.081	0.044
-232.800	-105.574	0.105	-0.024
-231.786	134.632	0.053	0.068
-230.771	-200.000	0.001	0.017
-229.757	27.930	0.037	0.031
-228.742	-200.000	-0.004	0.197
-227.727	31.858	-0.048	-0.041
-226.713	-158.425	-0.162	-0.009
-225.698	-200.000	0.026	0.149
-224.684	-40.418	0.032	0.016
-223.669	578.170	0.097	-0.237
-222.655	-81.448	-0.140	-0.046
-221.640	-133.816	-0.356	-0.044
-220.625	146.673	-0.122	0.163
-219.611	116.724	-0.119	0.146
-218.596	-200.000	0.013	-0.510
-217.582	72.990	0.301	-0.314
-216.567	554.267	-0.023	0.055
-215.552	230.258	0.064	0.104
-214.538	-47.633	0.164	0.079
-213.523	146.166	-0.079	0.106
-212.509	-92.220	-0.284	0.080
-211.494	800.000	0.021	0.088
-210.479	800.000	-0.074	0.253
-209.465	-59.707	0.294	-0.126
-208.450	-176.405	-0.057	-0.001
-207.436	-53.773	-0.217	-0.099
-206.421	-24.711	-0.031	-0.018
-205.406	-33.870	-0.155	-0.085
-204.392	-42.567	0.269	0.137
-203.377	686.349	0.073	-0.189
-202.363	800.000	0.077	-0.279
-201.348	71.158	-0.237	0.245
-200.333	-60.063	-0.220	-0.094
-199.319	-23.360	0.158	-0.095
-198.304	710.649	0.100	-0.262
-197.290	-89.245	0.169	-0.050
-196.275	23.214	-0.217	0.177
-195.260	-21.741	-0.188	0.114
-194.246	35.649	0.207	0.181
-193.231	-200.000	0.012	0.059
-192.217	-41.875	-0.189	0.096
-191.202	-200.000	0.033	-0.431
-190.187	-138.202	0.099	-0.011
-189.173	-139.592	0.234	-0.025
-188.158	-200.000	-0.076	-0.381
-187.144	-48.382	-0.234	0.112
-186.129	-47.329	-0.290	-0.141
-185.114	-200.000	-0.010	-0.100
-184.100	-108.289	-0.288	0.062
-183.085	371.122	-0.083	0.167
-182.071	-81.452	-0.041	-0.013
-181.056	800.000	0.106	0.318
-180.042	-156.239	0.469	0.029
-179.027	-200.000	0.076	0.393
-178.012	800.000	-0.040	-0.153
-176.998	-200.000	-0.012	-0.099
-175.983	286.441	0.011	-0.021
-174.969	204.377	0.058	0.089
-173.954	41.331	-0.137	0.123
-172.939	-64.904	0.421	-0.169
-171.925	-163.657	0.408	0.019
-170.910	69.914	-0.120	-0.123
-169.896	-107.223	-0.215	-0.047
-168.881	-57.534	0.172	-0.075
-167.866	-44.191	0.233	0.116
-166.852	-76.283	-0.206	0.072
-165.837	800.000	-0.132	0.361
-164.823	14.277	0.133	0.103
-163.808	-151.294	-0.176	0.013
-162.793	-200.000	-0.009	0.092
-161.779	-103.430	0.250	0.059
-160.764	-72.387	-0.232	0.085
-159.750	800.000	-0.027	0.078
-158.735	-66.296	-0.233	0.092
-157.720	339.727	0.091	0.177
-156.706	-128.503	-0.337	-0.048
-155.691	-200.000	-0.001	-0.203
-154.677	-44.076	0.091	0.045
-153.662	115.465	0.169	-0.206
-152.647	-200.000	-0.037	0.179
-151.633	138.261	-0.088	0.114
-150.618	526.876	0.052	0.122
-149.604	520.299	-0.053	-0.124
-148.589	64.930	0.243	-0.244
-147.574	-133.841	-0.341	-0.042
-146.560	353.631	-0.102	0.201
-145.545	31.523	0.047	-0.040
-144.531	-93.978	-0.130	-0.036
-143.516	-200.000	0.010	-0.212
-142.502	-139.987	-0.325	0.034
-141.487	172.146	-0.179	-0.256
-140.472	-114.721	-0.145	-0.028
-139.458	800.000	-0.057	0.167
-138.443	-72.545	-0.490	0.180
-137.429	-200.000	0.034	0.150
-136.414	800.000	0.019	-0.062
-135.399	-145.826	-0.133	0.012
-134.385	-6.471	0.050	-0.034
-133.370	547.824	-0.077	0.184
-132.356	800.000	0.071	0.246
-131.341	-119.259	0.180	0.031
-130.326	150.471	-0.073	0.099
-129.312	-35.446	0.243	-0.131
-128.297	156.401	-0.073	-0.100
-127.283	104.602	0.120	-0.141
-126.268	-200.000	-0.031	0.163
-125.253	-184.728	0.066	0.001
-124.239	-121.242	0.150	0.025
-123.224	-74.673	0.172	0.062
-122.210	53.656	0.155	0.147
