DTS Sentinel unit serial number:	SN413079Multiplexer serial number:	ORYXHardware model number:	OX4-SRSoftware version number:	ORYX F/W v4.00 Oryx Data Collector v3.7.2.0data status	okinstallation	princeton_trtdifferential loss correction	single-endedforward channel	channel 4reverse channel	N/Adate	2019/09/12time	05:11:11forward acquisition time	60.00reverse acquisition time	0.00gamma	496.2192k internal	0.2309k external	0.2309temperature offset calibration	1.0064default loss term (dB/km)	0.3790temperature slope calibration	1.0000multiplexer offset coefficient	1.0000multiplexer slope coefficient	1.0000fibre end	0.00T internal ref (°C)	31.81T ext. ref 1 (°C)	1.63T ext. ref 2 (°C)	27.23length (m)	temperature (°C)	Stokes	anti-Stokes-747.200	-84.611	0.058	-0.018
-746.185	-189.680	-0.287	0.003
-745.171	632.767	0.006	-0.016
-744.156	43.232	-0.135	0.126
-743.142	191.432	0.050	0.076
-742.127	-99.007	0.095	0.025
-741.112	0.079	-0.074	-0.054
-740.098	323.586	0.042	0.082
-739.083	-126.114	0.311	-0.047
-738.069	-94.762	-0.394	0.109
-737.054	800.000	-0.048	0.191
-736.039	43.238	-0.178	-0.165
-735.025	-200.000	0.008	0.144
-734.010	439.409	-0.150	-0.333
-732.996	-36.550	-0.195	0.107
-731.981	-200.000	-0.043	0.205
-730.966	368.755	-0.033	-0.068
-729.952	25.394	-0.122	0.103
-728.937	62.916	-0.195	-0.198
-727.923	198.913	-0.041	0.065
-726.908	493.787	0.148	-0.345
-725.894	-55.688	-0.282	-0.128
-724.879	-186.151	0.114	-0.002
-723.864	164.190	-0.237	0.338
-722.850	-136.745	-0.358	-0.042
-721.835	800.000	-0.022	0.077
-720.821	566.591	0.056	0.139
-719.806	800.000	-0.022	-0.096
-718.791	-68.895	-0.180	0.071
-717.777	283.010	-0.065	0.118
-716.762	11.947	0.139	-0.109
-715.748	251.493	-0.105	-0.182
-714.733	627.976	0.117	0.300
-713.718	-200.000	-0.032	0.377
-712.704	-200.000	-0.012	-0.176
-711.689	788.562	-0.107	-0.298
-710.675	312.258	-0.138	-0.262
-709.660	-4.357	-0.321	0.225
-708.645	-117.955	-0.427	-0.078
-707.631	10.111	0.230	-0.177
-706.616	-70.835	0.217	-0.083
-705.602	171.991	-0.068	0.099
-704.587	-72.658	0.106	-0.040
-703.572	-200.000	-0.025	-0.146
-702.558	453.652	-0.042	-0.094
-701.543	800.000	0.038	-0.133
-700.529	-59.312	0.314	0.137
-699.514	3.426	0.198	-0.146
-698.499	795.026	-0.103	-0.288
-697.485	-22.671	0.190	-0.116
-696.470	79.532	-0.121	-0.131
-695.456	-200.000	0.000	-0.253
-694.441	-119.444	-0.139	-0.024
-693.426	-108.484	-0.283	0.062
-692.412	-101.471	0.115	-0.028
-691.397	-200.000	0.024	0.301
-690.383	585.736	0.032	-0.080
-689.368	-120.261	0.081	0.014
-688.354	398.723	0.101	-0.215
-687.339	-200.000	-0.004	-0.301
-686.324	-200.000	-0.012	0.282
-685.310	-101.038	-0.340	-0.085
-684.295	116.225	0.150	-0.187
-683.281	111.690	-0.079	-0.097
-682.266	-57.247	-0.166	0.074
-681.251	-47.337	-0.161	0.079
-680.237	-200.000	-0.016	-0.434
-679.222	-22.789	-0.212	-0.130
-678.208	29.080	-0.350	0.301
-677.193	-193.978	-0.257	0.002
-676.178	-57.216	-0.136	-0.061
-675.164	204.408	-0.145	0.228
-674.149	171.082	-0.125	0.182
-673.135	-200.000	-0.007	-0.103
-672.120	800.000	0.031	0.134
-671.105	800.000	0.009	-0.037
-670.091	-57.845	0.047	0.021
-669.076	181.550	-0.228	-0.340
-668.062	-200.000	-0.009	-0.056
-667.047	-86.823	0.086	-0.027
-666.032	582.970	0.131	-0.325
-665.018	800.000	0.042	0.119
-664.003	-200.000	0.005	-0.265
-662.989	-200.000	0.079	0.474
-661.974	-71.338	0.170	0.065
-660.959	-90.979	-0.139	0.041
-659.945	-67.612	-0.052	0.021
-658.930	-71.444	0.178	-0.067
-657.916	-57.998	-0.201	0.089
-656.901	-41.483	-0.024	0.012
-655.886	271.139	-0.142	0.252
-654.872	-14.058	-0.124	-0.081
-653.857	36.949	0.229	-0.205
-652.843	-134.378	-0.352	-0.044
-651.828	-112.969	-0.225	0.045
-650.814	172.936	0.042	0.062
-649.799	800.000	-0.065	-0.225
-648.784	-132.781	0.238	-0.031
-647.770	111.175	0.015	0.018
-646.755	-200.000	-0.003	0.081
-645.741	-112.555	-0.132	0.027
-644.726	61.226	0.179	-0.180
-643.711	13.788	-0.304	0.239
-642.697	515.520	-0.090	0.213
-641.682	-101.569	-0.151	0.037
-640.668	-11.856	0.089	-0.059
-639.653	35.655	0.225	-0.200
-638.638	-42.242	-0.328	-0.170
-637.624	-200.000	-0.040	0.195
-636.609	88.496	-0.215	-0.242
-635.595	-200.000	-0.037	-0.306
-634.580	185.938	0.091	0.137
-633.565	662.643	-0.097	-0.253
-632.551	-90.166	0.237	-0.070
-631.536	353.091	0.077	-0.155
-630.522	-72.575	-0.397	0.148
-629.507	-0.385	-0.124	-0.089
-628.492	276.259	-0.064	-0.115
-627.478	-200.000	-0.006	0.053
-626.463	-200.000	-0.023	0.125
-625.449	160.716	0.184	-0.259
-624.434	-1.066	0.093	-0.067
-623.419	177.308	0.049	0.072
-622.405	180.890	0.119	-0.177
-621.390	38.790	-0.225	0.203
-620.376	-41.810	0.416	-0.216
-619.361	364.346	-0.023	0.046
-618.346	-63.867	0.047	-0.020
-617.332	275.813	-0.095	-0.171
-616.317	-84.827	-0.419	0.133
-615.303	-192.138	-0.070	0.001
-614.288	-140.585	-0.063	-0.007
-613.273	-200.000	0.029	-0.449
-612.259	-0.699	0.217	-0.156
-611.244	-97.610	-0.232	0.061
-610.230	800.000	0.080	-0.298
-609.215	800.000	0.067	-0.217
-608.201	-200.000	0.055	0.251
-607.186	-175.267	0.195	0.005
-606.171	-200.000	0.096	0.434
-605.157	-128.313	-0.282	-0.041
-604.142	800.000	0.056	-0.211
-603.128	800.000	-0.094	0.341
-602.113	109.251	-0.331	-0.400
-601.098	800.000	0.023	-0.070
-600.084	-155.506	-0.336	-0.022
-599.069	-76.760	0.218	0.077
-598.055	-117.271	-0.094	-0.017
-597.040	141.113	-0.041	-0.055
-596.025	-19.544	-0.018	0.011
-595.011	89.772	0.102	-0.115
-593.996	281.992	0.084	-0.152
-592.982	-23.868	-0.169	-0.103
-591.967	375.496	-0.066	-0.136
-590.952	-33.628	0.123	-0.069
-589.938	123.503	0.180	0.228
-588.923	-104.294	0.389	0.091
-587.909	423.859	0.068	-0.147
-586.894	800.000	0.050	0.203
-585.879	-116.306	-0.361	0.067
-584.865	-200.000	-0.033	0.520
-583.850	33.388	-0.219	0.192
-582.836	49.421	-0.132	-0.125
-581.821	-9.632	-0.315	0.212
-580.806	-2.970	0.137	-0.097
-579.792	-78.164	0.122	0.042
-578.777	-158.226	0.462	0.027
-577.763	98.564	0.099	0.116
-576.748	27.231	-0.129	-0.109
-575.733	-152.097	-0.232	-0.017
-574.719	-10.355	-0.258	0.173
-573.704	55.978	-0.050	-0.049
-572.690	112.693	0.154	-0.189
-571.675	-36.854	0.088	0.048
-570.661	161.560	-0.070	-0.100
-569.646	161.535	0.211	-0.298
-568.631	17.913	0.170	-0.136
-567.617	35.871	-0.013	0.012
-566.602	-200.000	0.020	0.260
-565.588	800.000	-0.080	0.297
-564.573	384.772	-0.110	-0.228
-563.558	298.373	0.126	-0.234
-562.544	134.816	-0.166	0.218
-561.529	-30.957	0.163	-0.093
-560.515	-200.000	0.031	0.252
-559.500	171.749	0.077	-0.112
-558.485	-77.522	0.335	-0.117
-557.471	-200.000	-0.028	0.186
-556.456	-200.000	-0.009	0.091
-555.442	227.135	0.167	0.274
-554.427	683.080	0.116	-0.304
-553.412	-200.000	0.013	-0.323
-552.398	-100.609	0.316	-0.079
-551.383	-98.183	-0.306	0.079
-550.369	800.000	-0.111	0.456
-549.354	-73.055	0.134	-0.050
-548.339	-165.421	-0.086	0.004
-547.325	524.520	-0.164	0.388
-546.310	-200.000	-0.059	0.447
-545.296	90.769	0.061	0.068
-544.281	176.319	-0.040	-0.059
-543.266	-136.052	0.057	-0.007
-542.252	-165.162	-0.095	-0.004
-541.237	2.151	0.345	0.251
-540.223	452.469	0.209	-0.466
-539.208	-200.000	0.010	-0.136
-538.193	-200.000	0.002	-0.162
-537.179	-80.445	0.199	0.067
-536.164	122.903	0.141	0.178
-535.150	-165.501	0.103	0.005
-534.135	-115.294	0.229	-0.044
-533.121	242.169	-0.154	-0.260
-532.106	76.267	-0.055	-0.058
-531.091	210.698	0.050	0.079
-530.077	-4.949	0.087	-0.061
-529.062	129.359	-0.091	0.117
-528.048	-102.693	0.175	0.042
-527.033	-56.919	-0.154	0.069
-526.018	-21.893	-0.091	0.056
-525.004	-76.596	0.059	0.021
-523.989	50.957	-0.185	0.176
-522.975	133.844	0.043	-0.056
-521.960	-59.454	0.064	0.028
-520.945	-56.555	-0.399	-0.178
-519.931	253.025	0.059	-0.102
-518.916	26.312	0.111	0.093
-517.902	79.192	0.184	-0.198
-516.887	-111.817	0.251	0.051
-515.872	800.000	0.067	-0.222
-514.858	-200.000	0.032	0.219
-513.843	20.958	0.218	0.178
-512.829	69.433	0.040	-0.041
-511.814	126.433	-0.198	-0.253
-510.799	-18.371	0.172	-0.108
-509.785	223.024	-0.135	-0.219
-508.770	-200.000	0.006	0.090
-507.756	-37.467	-0.424	-0.228
-506.741	705.987	-0.107	0.285
-505.726	19.514	-0.341	0.276
-504.712	186.798	0.203	0.304
-503.697	-69.613	-0.361	0.139
-502.683	-121.066	0.157	-0.026
-501.668	314.777	0.030	-0.058
-500.653	-49.513	0.152	-0.073
-499.639	-32.137	0.311	0.175
-498.624	-55.567	0.205	-0.092
-497.610	339.233	0.046	0.091
-496.595	-92.118	-0.163	0.046
-495.581	-14.576	0.078	0.051
-494.566	-200.000	-0.015	0.309
-493.551	-26.527	0.345	0.204
-492.537	-200.000	0.038	-0.253
-491.522	-200.000	0.028	0.127
-490.508	166.467	0.114	0.163
-489.493	71.957	0.023	0.024
-488.478	-27.715	0.340	0.198
-487.464	-97.202	0.200	-0.052
-486.449	-118.498	-0.082	0.015
-485.435	800.000	0.031	-0.093
-484.420	-200.000	-0.012	0.381
-483.405	-30.230	0.134	0.076
-482.391	142.582	-0.141	-0.188
-481.376	-0.740	-0.164	0.117
-480.362	800.000	0.068	0.218
-479.347	-89.826	0.237	0.070
-478.332	-40.422	-0.101	0.053
-477.318	800.000	-0.054	0.183
-476.303	232.044	-0.089	-0.147
-475.289	305.034	-0.246	-0.459
-474.274	-114.244	-0.037	0.007
-473.259	-24.577	0.038	-0.023
-472.245	800.000	-0.126	0.433
-471.230	-49.426	0.081	-0.039
-470.216	-58.658	0.030	-0.013
-469.201	56.978	0.058	-0.057
-468.186	201.463	0.080	-0.124
-467.172	-101.569	-0.261	-0.064
-466.157	-64.037	0.397	0.163
-465.143	-114.101	-0.268	-0.052
-464.128	-52.495	-0.139	0.065
-463.113	-34.823	-0.163	0.089
-462.099	-9.743	0.208	0.139
-461.084	-21.470	0.142	0.087
-460.070	134.228	0.133	0.173
-459.055	-47.913	-0.167	0.081
-458.040	-37.693	-0.250	-0.134
-457.026	575.192	-0.046	0.114
-456.011	87.089	0.111	-0.124
-454.997	66.002	0.064	0.065
-453.982	-102.952	-0.091	0.022
-452.968	59.076	-0.314	0.310
-451.953	133.424	-0.139	-0.181
-450.938	631.543	-0.089	-0.227
-449.924	276.860	0.153	0.273
-448.909	800.000	-0.004	-0.014
-447.895	-200.000	0.250	-0.000
-446.880	-97.542	0.176	-0.046
-445.865	565.410	0.142	0.347
-444.851	54.644	0.386	-0.374
-443.836	26.921	-0.098	0.082
-442.822	800.000	-0.038	0.139
-441.807	-105.080	0.196	-0.045
-440.792	451.878	-0.013	0.029
-439.778	87.126	-0.228	-0.253
-438.763	800.000	-0.089	0.317
-437.749	466.537	-0.165	0.371
-436.734	257.597	0.111	-0.191
-435.719	-1.908	0.031	-0.022
-434.705	-149.653	-0.470	0.037
-433.690	-52.436	0.187	0.087
-432.676	-74.173	-0.216	0.079
-431.661	-57.905	-0.313	-0.137
-430.646	51.188	-0.116	0.110
-429.632	-131.439	0.169	0.022
-428.617	138.907	-0.180	0.238
-427.603	800.000	0.037	-0.144
-426.588	9.295	0.121	0.092
-425.573	235.395	0.069	-0.114
-424.559	517.274	-0.091	-0.213
-423.544	371.736	-0.175	-0.355
-422.530	100.257	0.139	0.162
-421.515	345.753	0.046	0.091
-420.500	-33.478	-0.496	0.275
-419.486	800.000	-0.094	-0.301
-418.471	-114.033	0.007	0.001
-417.457	146.806	0.086	-0.116
-416.442	271.087	0.125	0.220
-415.428	-61.194	0.271	0.115
-414.413	538.158	-0.217	0.519
-413.398	-131.210	-0.317	0.042
-412.384	800.000	-0.008	0.035
-411.369	177.840	-0.092	-0.135
-410.355	5.055	0.178	-0.132
-409.340	-32.647	0.204	0.114
-408.325	197.218	0.180	0.275
-407.311	46.314	-0.183	0.170
-406.296	325.977	0.011	0.021
-405.282	-122.724	0.254	0.041
-404.267	202.706	-0.189	-0.292
-403.252	-85.602	0.257	-0.080
-402.238	-63.519	-0.076	0.031
-401.223	-99.536	-0.053	0.013
-400.209	386.651	0.182	0.377
-399.194	-200.000	-0.030	0.269
-398.179	59.113	0.064	0.063
-397.165	101.119	-0.298	0.347
-396.150	547.420	0.044	0.105
-395.136	405.479	0.085	0.180
-394.121	-14.185	0.116	-0.075
-393.106	-51.745	-0.237	0.111
-392.092	-148.832	-0.356	0.029
-391.077	146.097	-0.075	0.101
-390.063	-99.198	-0.198	-0.050
-389.048	-200.000	-0.071	-0.364
-388.033	-53.366	0.192	0.088
-387.019	-200.000	-0.017	-0.405
-386.004	-48.936	0.084	-0.040
-384.990	-200.000	0.014	0.423
-383.975	642.089	-0.012	-0.030
-382.960	650.389	-0.152	-0.390
-381.946	581.291	0.039	-0.095
-380.931	-97.482	-0.174	0.045
-379.917	-200.000	0.046	0.306
-378.902	-33.145	-0.076	-0.042
-377.888	-9.527	0.144	-0.096
-376.873	800.000	-0.015	0.063
-375.858	246.077	0.022	-0.038
-374.844	7.725	-0.268	-0.201
-373.829	-200.000	-0.016	0.072
-372.815	300.765	0.024	-0.045
-371.800	0.477	0.292	-0.209
-370.785	249.899	-0.102	-0.173
-369.771	-83.965	-0.394	0.126
-368.756	3.427	-0.248	-0.181
-367.742	-170.895	0.188	-0.006
-366.727	-10.621	-0.259	-0.172
-365.712	-2.552	0.217	0.152
-364.698	-200.000	0.049	-0.290
-363.683	15.013	-0.146	-0.114
-362.669	126.039	-0.170	-0.216
-361.654	220.004	-0.115	0.184
-360.639	85.404	-0.061	-0.067
-359.625	409.429	-0.166	0.352
-358.610	134.223	0.026	-0.034
-357.596	-200.000	0.095	-0.419
-356.581	71.845	-0.069	-0.072
-355.566	56.570	0.044	0.043
-354.552	-119.661	0.184	-0.032
-353.537	11.657	0.191	0.147
-352.523	-200.000	0.011	0.084
-351.508	87.255	-0.026	-0.029
-350.493	-110.541	0.209	-0.043
-349.479	-64.484	0.105	0.043
-348.464	12.514	-0.051	0.040
-347.450	-63.574	0.197	-0.081
-346.435	-74.989	0.195	-0.070
-345.420	-168.881	-0.303	0.011
-344.406	800.000	0.038	0.156
-343.391	800.000	0.063	0.208
-342.377	52.515	-0.218	0.208
-341.362	-15.125	-0.226	-0.145
-340.348	217.492	0.080	-0.128
-339.333	496.301	-0.096	0.220
-338.318	559.837	0.085	0.206
-337.304	-59.844	0.205	0.088
-336.289	-42.316	-0.187	0.095
-335.275	-200.000	-0.026	-0.166
-334.260	-109.004	-0.092	-0.020
-333.245	444.168	0.028	0.060
-332.231	84.701	0.183	-0.200
-331.216	-200.000	0.005	-0.320
-330.202	-44.429	0.246	0.123
-329.187	-135.534	0.239	-0.028
-328.172	800.000	-0.136	-0.423
-327.158	-200.000	0.022	0.166
-326.143	-164.523	0.289	0.013
-325.129	-88.222	-0.161	0.048
-324.114	-172.355	-0.240	0.008
-323.099	800.000	-0.042	0.147
-322.085	-105.244	-0.353	-0.080
-321.070	-119.020	0.239	0.042
-320.056	-66.587	-0.263	0.104
-319.041	-82.610	-0.453	-0.147
-318.026	118.807	0.103	-0.127
-317.012	-131.440	0.349	-0.046
-315.997	96.147	-0.264	0.302
-314.983	-44.484	0.129	0.065
-313.968	9.644	0.152	-0.115
-312.953	-200.000	-0.007	-0.160
-311.939	-28.894	-0.217	0.125
-310.924	38.572	0.267	-0.238
-309.910	95.991	0.175	0.200
-308.895	-200.000	-0.010	-0.077
-307.880	330.679	0.090	-0.173
-306.866	-105.575	0.232	-0.053
-305.851	211.551	-0.056	0.089
-304.837	140.684	0.043	-0.057
-303.822	69.584	0.184	-0.189
-302.807	800.000	0.056	-0.234
-301.793	28.744	-0.094	0.080
-300.778	-42.966	-0.212	0.107
-299.764	98.487	-0.117	-0.134
-298.749	691.278	-0.059	-0.153
-297.735	-50.401	0.106	0.050
-296.720	518.995	0.050	0.118
-295.705	-99.532	-0.187	-0.047
-294.691	65.196	0.083	0.084
-293.676	-50.022	-0.141	-0.067
-292.662	-200.000	0.005	-0.082
-291.647	-147.578	-0.271	0.023
-290.632	22.991	0.421	-0.345
-289.618	-132.540	0.247	0.032
-288.603	206.194	0.047	-0.073
-287.589	194.982	-0.157	-0.238
-286.574	800.000	-0.064	0.254
-285.559	-44.702	0.165	-0.082
-284.545	-151.764	-0.157	0.012
-283.530	50.080	0.249	-0.235
-282.516	-200.000	-0.018	0.155
-281.501	-3.773	-0.121	-0.084
-280.486	-130.903	-0.337	0.045
-279.472	-151.756	-0.353	-0.026
-278.457	-7.192	-0.103	-0.069
-277.443	-0.341	0.240	0.171
-276.428	119.937	-0.148	0.183
-275.413	-73.273	0.135	-0.049
-274.399	433.492	0.031	0.068
-273.384	178.643	0.133	-0.194
-272.370	84.568	-0.145	-0.158
-271.355	800.000	0.094	0.327
-270.340	800.000	-0.097	0.319
-269.326	-10.563	-0.145	0.096
-268.311	50.412	-0.188	-0.177
-267.297	49.304	-0.048	-0.045
-266.282	-200.000	0.005	0.162
-265.267	-120.496	0.184	-0.031
-264.253	-105.570	-0.292	-0.066
-263.238	-18.175	0.153	0.095
-262.224	-127.288	0.471	-0.069
-261.209	-55.966	-0.221	0.098
-260.195	800.000	0.119	-0.328
-259.180	-77.668	0.179	-0.062
-258.165	61.318	-0.185	-0.183
-257.151	-105.713	0.067	-0.015
-256.136	648.470	-0.067	0.170
-255.122	800.000	0.040	-0.136
-254.107	-88.533	-0.282	-0.084
-253.092	-200.000	-0.025	-0.137
-252.078	5.082	-0.136	-0.100
-251.063	37.630	0.182	0.161
-250.049	-21.688	-0.189	-0.115
-249.034	424.053	0.204	0.438
-248.019	235.877	-0.056	0.092
-247.005	-116.900	0.055	0.010
-245.990	-19.353	0.182	0.113
-244.976	-121.811	-0.079	-0.013
-243.961	128.858	-0.164	0.209
-242.946	-111.175	0.166	0.034
-241.932	-108.248	-0.222	0.048
-240.917	800.000	-0.140	-0.435
-239.903	203.566	0.105	-0.161
-238.888	39.081	-0.139	0.123
-237.873	765.119	0.061	-0.165
-236.859	-89.482	-0.258	-0.076
-235.844	-10.295	0.493	-0.325
-234.830	7.143	0.160	-0.119
-233.815	800.000	-0.036	0.138
-232.800	-151.519	-0.021	0.002
-231.786	-80.306	0.013	-0.004
-230.771	-23.970	0.076	0.045
-229.757	26.183	0.282	-0.235
-228.742	-200.000	-0.008	0.216
-227.727	-59.172	0.558	0.240
-226.713	-200.000	-0.074	0.535
-225.698	-124.974	-0.209	0.032
-224.684	761.514	-0.079	-0.214
-223.669	407.682	0.175	-0.368
-222.655	-114.860	0.421	-0.080
-221.640	-95.804	-0.290	0.077
-220.625	-111.843	-0.131	0.026
-219.611	-200.000	-0.078	-0.423
-218.596	800.000	-0.017	-0.069
-217.582	741.595	0.022	-0.058
-216.567	-200.000	-0.036	-0.192
-215.552	-7.765	-0.169	0.113
-214.538	376.146	-0.113	-0.229
-213.523	-200.000	-0.014	0.083
-212.509	-91.602	-0.335	-0.095
-211.494	800.000	-0.108	-0.410
-210.479	294.833	0.048	0.087
-209.465	350.971	-0.057	-0.113
-208.450	-97.413	-0.186	0.048
-207.436	-200.000	0.016	-0.107
-206.421	800.000	0.026	0.108
-205.406	66.686	-0.167	0.169
-204.392	559.218	-0.066	-0.158
-203.377	-131.178	0.309	0.041
-202.363	-15.072	-0.172	-0.109
-201.348	800.000	-0.141	0.431
-200.333	-80.784	-0.175	-0.058
-199.319	217.203	-0.098	-0.156
-198.304	91.302	-0.088	0.098
-197.290	-115.677	0.290	-0.054
-196.275	-200.000	0.005	0.039
-195.260	-134.842	0.079	-0.010
-194.246	-200.000	-0.017	-0.105
-193.231	105.472	0.082	-0.097
-192.217	-200.000	0.047	0.312
-191.202	-184.159	0.193	-0.003
-190.187	-17.627	0.084	0.052
-189.173	-52.190	0.111	0.051
-188.158	241.523	0.072	-0.120
-187.144	125.704	-0.319	-0.400
-186.129	-200.000	0.059	-0.339
-185.114	-130.321	0.133	0.018
-184.100	-55.569	0.208	0.093
-183.085	-130.232	-0.192	0.026
-182.071	-50.200	-0.354	0.167
-181.056	318.917	0.030	-0.056
-180.042	-24.683	0.275	-0.162
-179.027	-90.261	-0.037	-0.011
-178.012	146.301	0.101	-0.134
-176.998	472.132	0.022	-0.050
-175.983	-10.734	0.058	-0.038
-174.969	-153.274	-0.217	-0.015
-173.954	-200.000	-0.007	0.327
-172.939	-112.563	0.402	0.080
-171.925	-200.000	0.010	-0.078
-170.910	-19.152	-0.248	-0.153
-169.896	603.364	-0.110	0.272
-168.881	98.402	0.109	0.125
-167.866	133.876	0.114	0.146
-166.852	800.000	-0.017	0.060
-165.837	147.620	0.245	-0.327
-164.823	-200.000	0.059	0.269
-163.808	-90.394	0.297	-0.086
-162.793	-200.000	0.012	0.162
-161.779	41.195	0.110	0.099
-160.764	-200.000	-0.003	0.199
-159.750	-158.544	-0.089	-0.005
-158.735	-200.000	-0.008	-0.391
-157.720	94.685	0.187	-0.211
-156.706	-200.000	-0.026	0.430
-155.691	93.229	0.130	-0.146
-154.677	-200.000	-0.021	-0.339
-153.662	-53.122	-0.265	0.121
-152.647	-45.733	0.269	0.132
-151.633	-13.477	0.032	-0.021
-150.618	-25.198	-0.167	0.098
-149.604	-200.000	0.027	-0.220
-148.589	-4.659	0.071	-0.048
-147.574	120.586	0.074	0.091
-146.560	322.703	-0.145	0.274
-145.545	-200.000	0.064	-0.363
-144.531	800.000	-0.069	-0.237
-143.516	800.000	-0.103	-0.298
-142.502	-200.000	0.013	-0.198
-141.487	-200.000	0.004	-0.032
-140.472	241.400	0.027	0.045
-139.458	402.131	0.034	0.070
-138.443	184.332	0.037	-0.055
-137.429	-65.858	0.147	0.058
-136.414	-200.000	0.012	0.232
-135.399	-200.000	-0.004	0.164
-134.385	36.629	0.147	0.129
-133.370	-142.270	-0.231	0.023
-132.356	599.825	-0.033	-0.081
-131.341	-200.000	-0.002	0.316
-130.326	800.000	-0.119	0.472
-129.312	-200.000	0.105	0.474
-128.297	-81.746	-0.224	-0.073
-127.283	-52.118	-0.233	0.107
-126.268	609.205	-0.072	-0.179
-125.253	-200.000	-0.022	0.306
-124.239	-200.000	0.002	-0.291
-123.224	323.183	0.155	0.293
-122.210	-78.710	0.167	-0.057
-121.195	369.996	-0.129	0.259
