DTS Sentinel unit serial number:	SN413079Multiplexer serial number:	ORYXHardware model number:	OX4-SRSoftware version number:	ORYX F/W v4.00 Oryx Data Collector v3.7.2.0data status	okinstallation	princeton_trtdifferential loss correction	single-endedforward channel	channel 4reverse channel	N/Adate	2019/09/11time	06:59:11forward acquisition time	60.00reverse acquisition time	0.00gamma	496.2192k internal	0.2312k external	0.2312temperature offset calibration	0.9944default loss term (dB/km)	0.3790temperature slope calibration	1.0000multiplexer offset coefficient	1.0000multiplexer slope coefficient	1.0000fibre end	0.00T internal ref (°C)	30.11T ext. ref 1 (°C)	-0.10T ext. ref 2 (°C)	25.65length (m)	temperature (°C)	Stokes	anti-Stokes-747.200	-131.833	-0.245	0.032
-746.185	-200.000	0.049	0.370
-745.171	-95.455	-0.376	-0.102
-744.156	470.049	0.026	0.059
-743.142	-65.240	-0.062	0.025
-742.127	257.288	-0.048	0.083
-741.112	352.069	0.080	-0.160
-740.098	177.028	0.194	-0.286
-739.083	-131.702	0.196	-0.026
-738.069	4.606	-0.081	0.061
-737.054	160.374	-0.258	0.365
-736.039	-200.000	-0.005	-0.203
-735.025	-200.000	-0.004	-0.128
-734.010	800.000	-0.083	-0.234
-732.996	555.641	-0.075	-0.182
-731.981	7.850	0.241	0.183
-730.966	800.000	-0.035	0.125
-729.952	-156.483	-0.154	-0.010
-728.937	577.305	-0.015	0.037
-727.923	-1.598	-0.129	-0.092
-726.908	-22.572	-0.053	0.032
-725.894	-153.478	-0.149	-0.010
-724.879	-52.780	-0.263	-0.123
-723.864	168.676	0.219	0.316
-722.850	-119.991	-0.432	-0.075
-721.835	785.257	0.026	-0.071
-720.821	122.220	0.106	0.135
-719.806	-200.000	0.027	0.131
-718.791	340.771	0.040	-0.080
-717.777	800.000	0.067	-0.261
-716.762	-69.831	-0.191	0.074
-715.748	-127.874	-0.301	0.044
-714.733	-158.409	-0.550	0.032
-713.718	-83.846	-0.068	0.022
-712.704	76.145	-0.088	-0.095
-711.689	800.000	0.044	0.170
-710.675	377.700	-0.091	-0.187
-709.660	800.000	0.069	-0.264
-708.645	65.922	-0.142	-0.146
-707.631	-172.381	-0.415	0.013
-706.616	-81.583	-0.044	0.015
-705.602	125.153	-0.241	-0.308
-704.587	-10.097	0.213	-0.143
-703.572	147.161	0.074	-0.101
-702.558	39.224	-0.204	-0.185
-701.543	-200.000	-0.009	-0.102
-700.529	-200.000	0.001	-0.208
-699.514	-200.000	-0.074	-0.428
-698.499	301.482	0.087	-0.163
-697.485	-136.995	-0.165	0.019
-696.470	-168.362	0.134	0.005
-695.456	-103.127	-0.215	0.051
-694.441	-92.986	0.276	0.078
-693.426	-103.070	0.081	0.019
-692.412	225.341	-0.065	-0.107
-691.397	292.180	-0.153	-0.283
-690.383	-116.322	-0.189	0.035
-689.368	-200.000	0.410	0.002
-688.354	-200.000	0.001	-0.053
-687.339	-83.527	-0.239	-0.077
-686.324	-200.000	0.011	-0.071
-685.310	800.000	-0.085	-0.306
-684.295	55.191	-0.136	-0.133
-683.281	-56.814	0.165	0.074
-682.266	407.337	-0.126	-0.268
-681.251	-200.000	-0.001	0.053
-680.237	152.699	-0.083	0.115
-679.222	379.843	0.135	0.280
-678.208	-200.000	-0.017	-0.233
-677.193	-118.323	-0.085	-0.015
-676.178	-84.476	0.185	-0.059
-675.164	17.819	0.133	-0.107
-674.149	-200.000	-0.015	-0.323
-673.135	91.655	0.068	-0.077
-672.120	143.108	0.064	0.086
-671.105	-200.000	-0.028	-0.176
-670.091	24.390	0.068	0.057
-669.076	-123.960	-0.195	0.031
-668.062	-162.290	0.097	-0.005
-667.047	800.000	-0.062	-0.236
-666.032	-138.698	-0.213	-0.024
-665.018	331.382	0.110	0.214
-664.003	-67.774	0.148	0.058
-662.989	800.000	-0.076	0.241
-661.974	2.492	0.055	-0.040
-660.959	-78.710	-0.139	0.048
-659.945	-84.749	0.107	0.034
-658.930	-134.780	-0.355	-0.044
-657.916	-26.690	-0.317	0.187
-656.901	-5.817	-0.241	0.167
-655.886	-200.000	-0.003	0.181
-654.872	-65.377	-0.150	-0.061
-653.857	-37.290	0.264	-0.142
-652.843	-110.635	0.036	0.008
-651.828	-99.819	-0.162	-0.041
-650.814	146.709	-0.199	-0.271
-649.799	800.000	-0.131	-0.502
-648.784	63.852	0.170	-0.172
-647.770	124.154	-0.234	-0.297
-646.755	-200.000	-0.029	-0.175
-645.741	-200.000	0.040	-0.260
-644.726	-149.192	0.122	0.010
-643.711	-199.531	0.116	0.001
-642.697	-19.395	-0.257	0.161
-641.682	-64.838	-0.077	0.031
-640.668	-138.796	0.102	-0.011
-639.653	-200.000	-0.040	-0.212
-638.638	-73.216	-0.197	-0.073
-637.624	-63.994	0.085	-0.035
-636.609	327.446	0.030	0.059
-635.595	800.000	0.043	-0.121
-634.580	-13.216	0.253	-0.166
-633.565	-200.000	-0.013	-0.188
-632.551	78.165	-0.135	0.145
-631.536	3.027	0.112	-0.082
-630.522	-200.000	0.058	-0.369
-629.507	-20.424	0.055	-0.034
-628.492	321.102	0.118	-0.226
-627.478	-123.493	0.090	-0.015
-626.463	126.630	0.234	0.299
-625.449	-17.959	0.256	0.162
-624.434	216.986	-0.056	0.090
-623.419	-141.809	0.034	-0.003
-622.405	-83.259	-0.024	0.008
-621.390	800.000	-0.042	0.135
-620.376	800.000	0.044	0.161
-619.361	-176.756	-0.243	0.006
-618.346	779.211	0.107	-0.294
-617.332	114.685	-0.255	-0.313
-616.317	374.726	0.122	-0.251
-615.303	800.000	0.111	-0.351
-614.288	-107.406	-0.389	-0.086
-613.273	-86.976	0.195	0.060
-612.259	-74.836	0.177	0.064
-611.244	249.829	-0.150	-0.256
-610.230	72.939	-0.142	0.150
-609.215	-120.037	-0.111	-0.019
-608.201	319.544	0.093	0.178
-607.186	-194.178	-0.361	0.003
-606.171	-200.000	0.021	0.227
-605.157	6.268	0.205	0.153
-604.142	-121.818	-0.253	-0.042
-603.128	-87.796	0.026	-0.008
-602.113	-19.387	-0.076	-0.047
-601.098	-106.515	-0.211	-0.047
-600.084	-37.524	-0.193	0.104
-599.069	280.410	-0.060	0.108
-598.055	-62.211	0.263	-0.111
-597.040	-35.920	0.066	0.036
-596.025	800.000	0.142	-0.444
-595.011	594.363	0.009	-0.023
-593.996	203.549	-0.292	0.456
-592.982	-116.734	0.106	-0.020
-591.967	-92.314	-0.214	0.061
-590.952	800.000	0.078	0.332
-589.938	-54.756	0.182	-0.083
-588.923	-200.000	0.035	-0.185
-587.909	94.537	-0.121	-0.139
-586.894	-48.187	-0.371	0.181
-585.879	136.910	0.179	-0.236
-584.865	-49.065	-0.053	0.026
-583.850	-78.958	0.017	0.006
-582.836	78.682	-0.209	-0.226
-581.821	-200.000	-0.006	-0.464
-580.806	98.075	-0.139	0.161
-579.792	61.706	0.170	-0.171
-578.777	-200.000	0.005	-0.208
-577.763	-116.937	0.357	0.066
-576.748	49.404	-0.131	0.124
-575.733	-200.000	0.012	0.384
-574.719	-200.000	-0.014	0.072
-573.704	194.810	0.099	0.151
-572.690	328.474	0.148	0.287
-571.675	-134.722	-0.377	0.046
-570.661	-119.193	0.146	0.026
-569.646	-49.596	-0.190	-0.091
-568.631	-130.147	-0.081	0.011
-567.617	-173.484	-0.226	0.007
-566.602	430.455	0.061	0.133
-565.588	-62.833	0.214	-0.089
-564.573	-56.571	-0.267	0.119
-563.558	-10.916	-0.029	0.019
-562.544	800.000	0.112	-0.438
-561.529	18.152	-0.350	-0.281
-560.515	139.619	0.118	-0.157
-559.500	-200.000	0.000	-0.038
-558.485	13.604	0.163	0.127
-557.471	-151.290	0.114	-0.009
-556.456	-173.123	0.140	0.004
-555.442	-57.503	0.225	0.099
-554.427	800.000	-0.027	-0.079
-553.412	86.157	-0.164	-0.182
-552.398	-200.000	-0.009	-0.166
-551.383	800.000	-0.061	-0.187
-550.369	-73.309	-0.306	0.113
-549.354	502.962	-0.191	-0.445
-548.339	173.545	-0.150	0.218
-547.325	242.665	0.107	-0.180
-546.310	320.050	0.048	-0.091
-545.296	-41.470	0.325	0.169
-544.281	712.104	-0.124	-0.331
-543.266	66.522	-0.211	-0.216
-542.252	100.685	0.118	0.138
-541.237	36.890	0.130	0.115
-540.223	-34.006	-0.292	0.162
-539.208	103.098	0.266	-0.314
-538.193	-200.000	-0.022	-0.104
-537.179	137.315	0.172	-0.227
-536.164	-181.072	0.089	0.002
-535.150	-23.976	-0.065	-0.039
-534.135	246.465	0.134	-0.227
-533.121	202.171	0.068	0.106
-532.106	113.303	0.132	-0.161
-531.091	-64.215	-0.132	0.054
-530.077	105.976	0.201	-0.239
-529.062	-200.000	0.065	-0.478
-528.048	-200.000	0.000	0.100
-527.033	-81.009	-0.352	-0.117
-526.018	422.811	0.200	0.432
-525.004	-54.658	-0.129	0.059
-523.989	-127.055	0.443	-0.065
-522.975	800.000	0.042	-0.151
-521.960	-114.732	0.155	0.030
-520.945	16.811	-0.245	-0.195
-519.931	-197.629	-0.334	-0.002
-518.916	313.317	-0.139	-0.262
-517.902	-65.696	0.231	0.093
-516.887	-86.442	-0.094	-0.029
-515.872	124.092	0.203	-0.256
-514.858	774.270	0.016	-0.043
-513.843	-166.809	-0.089	-0.004
-512.829	210.798	0.091	-0.144
-511.814	-200.000	0.056	-0.251
-510.799	128.014	-0.170	-0.218
-509.785	-200.000	0.001	-0.053
-508.770	-150.483	-0.068	0.005
-507.756	800.000	0.052	0.221
-506.741	-111.375	-0.222	0.045
-505.726	242.657	-0.055	-0.093
-504.712	83.278	-0.143	0.156
-503.697	-200.000	0.025	-0.125
-502.683	28.880	0.237	0.202
-501.668	-38.543	-0.377	0.200
-500.653	-143.766	0.166	-0.016
-499.639	34.843	0.012	0.011
-498.624	-200.000	-0.005	0.140
-497.610	-103.194	0.202	0.048
-496.595	92.292	-0.145	-0.164
-495.581	-200.000	-0.002	0.496
-494.566	-117.237	0.437	0.080
-493.551	-38.279	0.106	0.056
-492.537	96.795	0.059	0.067
-491.522	-38.504	-0.187	0.099
-490.508	-98.293	-0.188	-0.049
-489.493	520.277	-0.123	-0.291
-488.478	-160.393	0.315	-0.017
-487.464	-200.000	0.019	-0.087
-486.449	-134.037	-0.210	-0.026
-485.435	518.187	0.089	0.210
-484.420	610.059	0.073	0.182
-483.405	18.816	-0.359	0.289
-482.391	56.231	-0.234	-0.228
-481.376	-66.585	-0.490	0.195
-480.362	-20.879	0.426	-0.262
-479.347	800.000	0.060	-0.223
-478.332	-21.725	-0.384	0.235
-477.318	54.306	0.125	0.121
-476.303	800.000	-0.104	-0.411
-475.289	175.016	0.015	-0.021
-474.274	146.229	0.265	0.357
-473.259	-73.615	0.183	-0.067
-472.245	-179.632	-0.106	-0.002
-471.230	52.849	-0.213	0.204
-470.216	-6.111	0.242	0.166
-469.201	-200.000	-0.007	-0.063
-468.186	5.394	-0.117	0.086
-467.172	266.766	0.103	0.180
-466.157	800.000	0.041	0.177
-465.143	-200.000	0.020	-0.214
-464.128	-111.389	-0.292	0.060
-463.113	-200.000	0.035	0.168
-462.099	-64.614	0.117	-0.048
-461.084	-22.372	0.166	-0.101
-460.070	396.208	-0.087	0.182
-459.055	57.997	-0.133	-0.131
-458.040	-31.691	-0.136	-0.077
-457.026	-200.000	-0.011	-0.354
-456.011	377.858	0.106	-0.217
-454.997	-134.191	-0.296	0.037
-453.982	-200.000	0.024	-0.403
-452.968	-108.113	-0.306	0.066
-451.953	147.240	0.178	0.240
-450.938	516.511	0.070	-0.165
-449.924	-32.951	0.143	-0.080
-448.909	-107.977	-0.209	0.046
-447.895	-69.000	0.223	-0.086
-446.880	-200.000	0.006	0.052
-445.865	50.538	0.133	0.126
-444.851	800.000	-0.100	-0.426
-443.836	10.621	0.253	-0.193
-442.822	-28.888	-0.311	0.179
-441.807	186.449	0.024	-0.036
-440.792	352.018	-0.027	-0.054
-439.778	-33.315	-0.115	0.064
-438.763	-62.095	-0.309	-0.129
-437.749	-91.718	-0.224	-0.064
-436.734	74.415	-0.258	-0.272
-435.719	-93.647	-0.176	0.049
-434.705	-150.175	-0.277	-0.021
-433.690	202.633	-0.171	-0.265
-432.676	344.580	-0.131	0.257
-431.661	-0.037	0.093	0.067
-430.646	-200.000	0.026	0.209
-429.632	73.527	0.170	0.179
-428.617	4.274	-0.106	0.078
-427.603	-60.124	-0.242	0.103
-426.588	-53.321	0.271	-0.124
-425.573	-200.000	0.033	0.178
-424.559	800.000	-0.007	-0.020
-423.544	-200.000	0.004	0.145
-422.530	248.152	-0.178	-0.301
-421.515	-33.025	0.009	0.005
-420.500	-200.000	-0.025	-0.160
-419.486	185.809	0.172	0.257
-418.471	198.193	0.159	-0.244
-417.457	78.686	-0.079	0.085
-416.442	800.000	0.060	-0.187
-415.428	236.839	-0.074	-0.123
-414.413	-173.055	-0.202	0.006
-413.398	-200.000	-0.004	0.265
-412.384	-153.579	0.159	0.011
-411.369	-200.000	0.016	-0.379
-410.355	52.530	-0.185	-0.177
-409.340	-57.851	0.112	0.049
-408.325	800.000	-0.087	0.248
-407.311	-200.000	0.033	-0.206
-406.296	-142.403	0.385	0.038
-405.282	267.996	-0.143	0.250
-404.267	240.917	0.135	-0.226
-403.252	-1.135	0.172	-0.122
-402.238	252.923	-0.066	-0.113
-401.223	33.560	0.120	0.104
-400.209	-153.333	-0.257	0.018
-399.194	-104.662	-0.191	-0.044
-398.179	-148.427	0.376	-0.031
-397.165	159.489	0.129	0.180
-396.150	-88.844	-0.206	0.061
-395.136	-200.000	-0.061	0.392
-394.121	-33.783	-0.220	-0.121
-393.106	-200.000	0.024	-0.175
-392.092	-3.348	-0.162	0.113
-391.077	800.000	-0.067	0.275
-390.063	-200.000	-0.040	-0.208
-389.048	514.695	0.048	-0.111
-388.033	-48.854	0.242	0.116
-387.019	-100.966	0.170	0.042
-386.004	101.956	-0.149	0.174
-384.990	279.681	0.217	0.388
-383.975	-26.874	-0.055	-0.032
-382.960	-75.797	-0.127	-0.045
-381.946	-96.995	-0.129	-0.034
-380.931	-136.175	0.228	0.027
-379.917	-200.000	0.006	-0.038
-378.902	353.900	-0.112	0.223
-377.888	-122.379	0.150	-0.024
-376.873	-35.724	0.270	-0.146
-375.858	626.988	-0.104	0.261
-374.844	26.006	0.123	0.102
-373.829	96.426	0.102	0.116
-372.815	683.279	0.094	-0.245
-371.800	-28.670	-0.182	-0.104
-370.785	-56.598	-0.099	-0.044
-369.771	-33.888	-0.151	-0.083
-368.756	36.077	0.200	0.176
-367.742	252.380	0.153	-0.261
-366.727	-200.000	0.008	-0.197
-365.712	-152.026	0.397	-0.029
-364.698	233.292	0.105	0.172
-363.683	-76.554	0.363	-0.127
-362.669	-200.000	0.001	0.342
-361.654	138.635	0.150	-0.197
-360.639	392.317	-0.084	-0.174
-359.625	103.497	0.123	-0.145
-358.610	-200.000	-0.023	0.136
-357.596	-9.785	0.048	0.032
-356.581	-200.000	0.016	0.151
-355.566	186.545	-0.173	0.258
-354.552	-200.000	0.010	0.062
-353.537	-2.143	-0.068	0.048
-352.523	800.000	-0.073	0.237
-351.508	74.947	0.274	0.289
-350.493	-136.789	-0.036	-0.004
-349.479	-47.330	-0.067	0.033
-348.464	224.264	-0.160	-0.258
-347.450	-200.000	-0.032	0.208
-346.435	42.787	-0.123	-0.112
-345.420	-61.511	-0.222	-0.093
-344.406	-97.788	-0.276	-0.071
-343.391	22.666	-0.244	0.200
-342.377	494.215	0.092	0.212
-341.362	-200.000	-0.049	0.241
-340.348	-200.000	0.056	0.515
-339.333	800.000	0.080	0.320
-338.318	-200.000	0.003	0.100
-337.304	-137.715	0.138	0.015
-336.289	-200.000	-0.092	0.451
-335.275	385.397	0.186	0.384
-334.260	-39.949	-0.024	-0.013
-333.245	-125.308	0.221	0.034
-332.231	182.321	0.004	-0.006
-331.216	-90.827	0.186	0.054
-330.202	800.000	-0.029	-0.109
-329.187	-47.168	0.119	-0.058
-328.172	-200.000	-0.016	-0.087
-327.158	397.585	-0.131	0.273
-326.143	155.769	0.074	-0.102
-325.129	59.232	0.139	0.136
-324.114	-200.000	0.030	-0.138
-323.099	-24.351	0.189	0.112
-322.085	-35.177	0.375	-0.204
-321.070	25.820	-0.210	-0.175
-320.056	-200.000	-0.002	0.294
-319.041	-200.000	-0.001	0.550
-318.026	-43.818	0.412	-0.207
-317.012	-200.000	-0.042	0.222
-315.997	757.897	-0.024	-0.064
-314.983	46.155	0.211	0.195
-313.968	54.909	-0.294	0.283
-312.953	800.000	-0.116	0.353
-311.939	662.273	-0.062	0.159
-310.924	-200.000	0.048	-0.352
-309.910	-200.000	-0.023	0.115
-308.895	-200.000	-0.025	0.169
-307.880	288.342	-0.125	-0.225
-306.866	-200.000	0.073	-0.354
-305.851	-85.463	-0.132	-0.041
-304.837	-18.006	-0.213	-0.133
-303.822	800.000	0.050	0.179
-302.807	-200.000	-0.008	-0.074
-301.793	-64.181	0.274	0.112
-300.778	-129.282	0.144	0.020
-299.764	800.000	0.016	0.051
-298.749	-96.533	-0.104	0.027
-297.735	800.000	0.034	0.100
-296.720	-118.877	-0.218	0.038
-295.705	800.000	0.049	0.164
-294.691	26.724	0.144	-0.120
-293.676	-5.289	-0.307	-0.210
-292.662	800.000	0.063	-0.176
-291.647	-69.061	-0.061	0.023
-290.632	-177.403	0.206	0.005
-289.618	108.312	0.177	0.210
-288.603	195.281	0.188	0.285
-287.589	-81.493	-0.149	-0.049
-286.574	800.000	0.022	-0.090
-285.559	87.664	-0.117	0.129
-284.545	-200.000	-0.031	0.189
-283.530	36.296	-0.072	0.063
-282.516	-127.359	-0.033	-0.005
-281.501	-176.702	-0.272	-0.007
-280.486	-200.000	-0.024	0.288
-279.472	800.000	0.037	-0.150
-278.457	-8.539	0.266	0.178
-277.443	-200.000	0.067	0.720
-276.428	-200.000	-0.003	0.035
-275.413	97.197	-0.200	0.229
-274.399	800.000	-0.105	0.309
-273.384	-175.355	0.009	-0.000
-272.370	-61.574	0.145	-0.061
-271.355	-6.381	-0.107	0.073
-270.340	-121.616	0.186	-0.031
-269.326	-91.139	-0.064	-0.018
-268.311	-40.595	0.172	-0.089
-267.297	-200.000	0.037	-0.201
-266.282	-105.724	0.369	0.083
-265.267	-80.146	-0.347	0.116
-264.253	-121.397	0.165	0.027
-263.238	-200.000	-0.025	-0.175
-262.224	98.671	-0.263	-0.302
-261.209	-10.043	-0.165	0.109
-260.195	-56.427	0.225	-0.099
-259.180	-110.237	-0.679	-0.141
-258.165	289.752	-0.085	0.154
-257.151	90.985	-0.160	0.179
-256.136	-159.962	-0.507	0.028
-255.122	85.399	-0.051	-0.056
-254.107	-112.983	0.241	-0.047
-253.092	-43.560	0.103	0.052
-252.078	122.411	-0.213	-0.265
-251.063	5.240	-0.231	-0.169
-250.049	-200.000	-0.033	-0.178
-249.034	-94.301	0.172	-0.047
-248.019	33.987	-0.092	-0.080
-247.005	800.000	-0.018	-0.055
-245.990	80.461	0.136	0.146
-244.976	-146.835	-0.286	-0.025
-243.961	-137.797	-0.234	-0.026
-242.946	-94.397	0.393	-0.107
-241.932	-115.931	0.129	0.024
-240.917	-164.645	0.285	-0.013
-239.903	-200.000	0.002	-0.075
-238.888	-200.000	-0.065	-0.465
-237.873	-200.000	-0.049	0.299
-236.859	532.283	-0.086	-0.202
-235.844	-60.184	-0.073	-0.031
-234.830	103.629	0.219	0.256
-233.815	-101.613	-0.136	0.033
-232.800	146.546	-0.168	-0.225
-231.786	-30.870	0.058	-0.033
-230.771	-56.075	-0.132	0.059
-229.757	152.545	-0.118	-0.160
-228.742	183.897	-0.124	0.183
-227.727	-98.148	0.093	-0.024
-226.713	173.454	-0.156	-0.224
-225.698	-96.392	0.058	-0.015
-224.684	-62.341	-0.334	-0.138
-223.669	580.896	0.104	0.253
-222.655	-81.859	0.122	0.040
-221.640	-36.883	0.077	-0.041
-220.625	-55.379	-0.277	0.124
-219.611	-98.623	0.369	0.094
-218.596	-101.576	-0.292	0.071
-217.582	1.443	0.086	-0.062
-216.567	-13.670	0.182	0.117
-215.552	276.072	-0.132	0.233
-214.538	124.874	0.126	0.158
-213.523	152.696	-0.158	-0.214
-212.509	77.128	0.082	-0.087
-211.494	141.259	-0.096	-0.126
-210.479	-142.729	0.232	-0.022
-209.465	69.564	-0.187	0.192
-208.450	-70.614	0.204	0.077
-207.436	-128.530	0.145	-0.020
-206.421	-87.754	0.034	-0.010
-205.406	-200.000	0.035	0.162
-204.392	-140.859	0.248	0.025
-203.377	-200.000	0.011	-0.201
-202.363	173.791	0.105	0.151
-201.348	112.937	0.250	0.300
-200.333	47.800	0.233	0.216
-199.319	144.961	0.108	-0.143
-198.304	-93.276	-0.375	0.104
-197.290	327.408	0.091	-0.173
-196.275	202.710	0.078	-0.120
-195.260	160.013	-0.107	-0.148
-194.246	-200.000	0.016	0.158
-193.231	575.160	-0.019	0.046
-192.217	-17.845	0.239	0.149
-191.202	-64.143	0.149	0.060
-190.187	-75.685	0.386	0.136
-189.173	-175.647	-0.138	-0.004
-188.158	-181.846	0.294	-0.006
-187.144	174.127	0.193	0.278
-186.129	-13.474	-0.091	0.059
-185.114	769.358	0.089	0.242
-184.100	-85.266	0.291	0.090
-183.085	-84.022	0.167	-0.053
-182.071	-179.579	0.119	0.003
-181.056	12.121	0.154	-0.118
-180.042	-46.847	0.229	-0.111
-179.027	-200.000	0.008	-0.044
-178.012	-136.305	-0.077	0.009
-176.998	-200.000	0.021	0.101
-175.983	-200.000	-0.084	0.562
-174.969	-200.000	0.152	-0.000
-173.954	-113.482	0.273	-0.053
-172.939	-23.756	-0.178	0.106
-171.925	-49.021	-0.085	0.040
-170.910	-99.483	0.175	0.044
-169.896	-92.194	-0.221	-0.062
-168.881	190.905	-0.054	0.080
-167.866	-200.000	0.027	-0.211
-166.852	800.000	-0.018	-0.051
-165.837	103.287	-0.168	0.196
-164.823	-200.000	0.024	-0.119
-163.808	-200.000	-0.033	-0.163
-162.793	-65.950	-0.093	0.037
-161.779	-77.495	-0.350	-0.120
-160.764	350.923	-0.122	0.239
-159.750	-91.670	0.486	0.137
-158.735	-98.739	0.252	-0.064
-157.720	453.021	-0.109	-0.238
-156.706	-200.000	-0.040	-0.382
-155.691	-200.000	0.076	-0.377
-154.677	39.466	-0.167	0.148
-153.662	133.677	-0.144	-0.185
-152.647	800.000	-0.033	-0.114
-151.633	222.008	0.120	-0.191
-150.618	34.761	-0.104	0.090
-149.604	-57.356	-0.377	0.164
-148.589	640.533	-0.044	0.111
-147.574	263.700	0.058	0.100
-146.560	-11.127	-0.229	-0.150
-145.545	170.073	-0.125	-0.177
-144.531	742.202	-0.085	0.227
-143.516	800.000	0.095	0.326
-142.502	-84.830	0.035	-0.011
-141.487	-88.632	0.373	0.110
-140.472	-60.902	-0.295	0.124
-139.458	152.015	0.103	-0.140
-138.443	-200.000	-0.002	0.181
-137.429	206.252	-0.133	-0.205
-136.414	58.765	0.359	-0.350
-135.399	-66.555	0.055	-0.022
-134.385	378.504	0.118	0.240
-133.370	75.928	0.058	0.061
-132.356	-160.049	-0.272	-0.015
-131.341	-200.000	-0.054	-0.382
-130.326	-200.000	-0.007	0.160
-129.312	-97.990	0.104	-0.027
-128.297	-72.295	-0.314	-0.115
-127.283	11.357	0.156	-0.119
-126.268	-200.000	-0.015	-0.068
-125.253	-74.463	0.226	-0.081
-124.239	35.048	-0.204	-0.177
-123.224	166.135	0.080	0.113
-122.210	-70.058	-0.194	0.073
