DTS Sentinel unit serial number:	SN413079Multiplexer serial number:	ORYXHardware model number:	OX4-SRSoftware version number:	ORYX F/W v4.00 Oryx Data Collector v3.7.2.0data status	okinstallation	princeton_trtdifferential loss correction	single-endedforward channel	channel 4reverse channel	N/Adate	2019/09/12time	04:07:10forward acquisition time	60.00reverse acquisition time	0.00gamma	496.2192k internal	0.2310k external	0.2310temperature offset calibration	1.0098default loss term (dB/km)	0.3790temperature slope calibration	1.0000multiplexer offset coefficient	1.0000multiplexer slope coefficient	1.0000fibre end	0.00T internal ref (°C)	32.00T ext. ref 1 (°C)	2.21T ext. ref 2 (°C)	26.00length (m)	temperature (°C)	Stokes	anti-Stokes-747.200	208.577	-0.110	-0.175
-746.185	-150.925	-0.241	0.018
-745.171	-200.000	0.009	0.169
-744.156	-66.686	-0.339	0.136
-743.142	30.202	0.203	-0.176
-742.127	-148.142	-0.326	0.027
-741.112	800.000	0.061	0.178
-740.098	149.265	-0.169	0.232
-739.083	270.105	-0.028	-0.049
-738.069	541.409	-0.144	0.348
-737.054	-56.898	-0.216	0.097
-736.039	-55.927	-0.271	0.123
-735.025	99.203	-0.009	0.011
-734.010	-33.579	0.197	0.111
-732.996	19.788	-0.214	-0.175
-731.981	800.000	0.041	-0.153
-730.966	100.196	0.196	-0.231
-729.952	-61.516	-0.100	0.043
-728.937	-110.351	-0.168	0.036
-727.923	-137.310	-0.335	0.039
-726.908	-109.557	-0.335	-0.072
-725.894	-5.927	-0.205	0.143
-724.879	-117.338	0.138	0.025
-723.864	216.029	0.047	-0.076
-722.850	-200.000	-0.026	-0.159
-721.835	90.430	-0.231	-0.262
-720.821	-200.000	0.043	-0.272
-719.806	-111.201	-0.083	0.017
-718.791	800.000	-0.018	-0.075
-717.777	68.364	-0.235	0.244
-716.762	148.446	-0.221	-0.303
-715.748	-200.000	-0.010	0.183
-714.733	-168.481	0.114	0.004
-713.718	800.000	-0.004	-0.014
-712.704	800.000	-0.073	-0.307
-711.689	-200.000	0.026	0.213
-710.675	-200.000	-0.030	-0.293
-709.660	-200.000	0.025	-0.433
-708.645	23.521	0.209	0.175
-707.631	-21.831	0.336	-0.207
-706.616	-115.347	-0.286	0.055
-705.602	157.222	0.130	-0.183
-704.587	463.671	-0.039	0.089
-703.572	-200.000	-0.009	0.095
-702.558	501.362	-0.008	0.018
-701.543	-126.692	-0.358	-0.054
-700.529	-123.156	0.144	0.023
-699.514	-97.349	-0.406	-0.107
-698.499	25.423	-0.048	-0.041
-697.485	800.000	-0.062	-0.180
-696.470	-68.246	-0.197	-0.078
-695.456	-52.414	-0.179	0.084
-694.441	-200.000	-0.002	-0.127
-693.426	-200.000	-0.011	0.251
-692.412	-11.756	0.160	0.106
-691.397	-123.125	-0.216	-0.035
-690.383	800.000	0.049	-0.144
-689.368	721.132	0.131	0.354
-688.354	235.730	0.138	0.230
-687.339	-57.819	0.063	0.028
-686.324	-137.659	0.161	0.018
-685.310	154.951	0.239	0.334
-684.295	13.147	-0.267	-0.209
-683.281	-164.635	0.167	0.008
-682.266	-140.698	-0.172	-0.018
-681.251	73.032	-0.148	0.157
-680.237	561.538	0.115	0.283
-679.222	-81.853	-0.031	-0.010
-678.208	-200.000	0.007	0.249
-677.193	-81.194	0.040	0.013
-676.178	-200.000	0.014	-0.086
-675.164	-7.047	-0.269	-0.185
-674.149	-76.660	-0.164	0.058
-673.135	109.821	-0.125	0.152
-672.120	-116.487	-0.048	0.009
-671.105	-175.549	0.088	-0.002
-670.091	-19.488	0.180	0.113
-669.076	-200.000	0.011	0.145
-668.062	800.000	0.050	-0.175
-667.047	-18.790	-0.070	0.044
-666.032	-200.000	-0.011	0.161
-665.018	800.000	0.064	0.241
-664.003	38.361	-0.168	-0.151
-662.989	-84.446	-0.198	0.063
-661.974	-200.000	0.002	0.304
-660.959	-17.042	0.118	-0.075
-659.945	-53.300	-0.221	0.102
-658.930	141.431	-0.135	0.180
-657.916	384.934	-0.104	0.216
-656.901	13.409	-0.178	-0.139
-655.886	-106.492	-0.187	-0.042
-654.872	-64.600	0.146	0.060
-653.857	-136.344	0.146	-0.017
-652.843	234.964	-0.125	-0.208
-651.828	-6.745	0.171	-0.117
-650.814	73.487	-0.495	-0.524
-649.799	-123.239	0.450	0.073
-648.784	344.734	0.066	0.131
-647.770	-200.000	-0.032	0.370
-646.755	727.896	0.097	0.262
-645.741	316.750	-0.177	-0.339
-644.726	38.512	0.180	0.163
-643.711	-8.375	-0.130	0.088
-642.697	800.000	0.025	0.085
-641.682	52.456	0.269	-0.260
-640.668	-10.130	-0.212	0.142
-639.653	-44.657	-0.192	-0.097
-638.638	800.000	0.063	-0.257
-637.624	121.096	-0.082	0.104
-636.609	-98.631	-0.403	-0.104
-635.595	256.035	0.186	0.322
-634.580	793.837	0.036	0.099
-633.565	-61.317	-0.105	0.045
-632.551	800.000	-0.094	-0.334
-631.536	800.000	0.012	-0.035
-630.522	348.804	0.067	0.134
-629.507	-120.402	-0.284	0.049
-628.492	-72.037	-0.229	0.086
-627.478	-82.678	0.324	0.106
-626.463	-149.745	-0.180	0.014
-625.449	-61.102	-0.196	0.083
-624.434	93.555	0.161	0.184
-623.419	-200.000	0.013	-0.137
-622.405	41.710	0.246	-0.225
-621.390	-46.023	0.267	-0.133
-620.376	311.065	-0.091	0.173
-619.361	-42.873	-0.225	0.115
-618.346	0.886	0.295	0.214
-617.332	226.467	-0.110	-0.180
-616.317	42.115	-0.131	-0.120
-615.303	184.825	-0.128	0.192
-614.288	-200.000	0.009	-0.188
-613.273	-116.126	-0.262	-0.049
-612.259	23.045	-0.248	-0.206
-611.244	-146.128	-0.104	-0.009
-610.230	-12.738	-0.210	0.138
-609.215	-200.000	-0.010	0.057
-608.201	-67.426	0.531	0.211
-607.186	-55.950	-0.032	0.015
-606.171	-200.000	-0.044	0.263
-605.157	-62.175	-0.377	-0.159
-604.142	123.396	-0.203	0.256
-603.128	262.392	0.291	-0.511
-602.113	-175.006	0.272	0.008
-601.098	-41.064	0.369	0.193
-600.084	-108.949	0.196	0.042
-599.069	73.634	0.244	-0.258
-598.055	800.000	-0.050	0.196
-597.040	155.827	0.169	-0.236
-596.025	-29.271	0.165	0.095
-595.011	51.142	0.132	-0.126
-593.996	98.319	-0.065	-0.075
-592.982	-84.793	0.350	0.111
-591.967	-98.825	-0.341	-0.088
-590.952	190.604	-0.177	-0.268
-589.938	800.000	0.076	-0.321
-588.923	800.000	0.067	0.204
-587.909	-98.203	0.132	-0.034
-586.894	267.644	-0.133	0.234
-585.879	189.471	-0.101	-0.153
-584.865	-200.000	0.000	0.043
-583.850	36.325	0.080	0.071
-582.836	101.795	0.100	0.118
-581.821	-44.719	0.147	0.074
-580.806	-88.674	-0.255	-0.077
-579.792	-71.701	0.204	-0.077
-578.777	62.839	0.107	0.108
-577.763	89.936	0.058	-0.065
-576.748	800.000	-0.048	-0.144
-575.733	-48.048	-0.146	-0.071
-574.719	-156.905	0.205	0.013
-573.704	-5.134	-0.307	-0.213
-572.690	-52.918	-0.212	-0.098
-571.675	-200.000	0.001	0.093
-570.661	-113.332	-0.149	0.029
-569.646	673.739	-0.064	0.166
-568.631	800.000	0.051	0.184
-567.617	105.689	0.117	-0.140
-566.602	187.009	0.212	0.318
-565.588	800.000	0.073	-0.307
-564.573	750.923	-0.040	0.110
-563.558	-200.000	-0.019	-0.205
-562.544	410.688	0.164	0.350
-561.529	636.123	0.120	0.308
-560.515	-200.000	-0.042	-0.216
-559.500	-200.000	0.026	-0.164
-558.485	-79.680	-0.247	-0.084
-557.471	-14.382	0.283	-0.183
-556.456	800.000	0.039	0.166
-555.442	252.225	-0.088	-0.151
-554.427	-150.554	-0.366	-0.028
-553.412	80.138	0.115	-0.125
-552.398	-50.529	-0.297	-0.141
-551.383	-111.780	-0.248	0.051
-550.369	-17.066	-0.214	-0.136
-549.354	96.368	-0.053	-0.061
-548.339	670.235	0.027	0.071
-547.325	800.000	-0.061	-0.267
-546.310	187.524	-0.080	0.120
-545.296	100.044	-0.130	-0.152
-544.281	800.000	0.085	-0.272
-543.266	27.680	0.285	-0.242
-542.252	589.475	0.048	0.120
-541.237	-200.000	0.006	0.041
-540.223	-10.621	-0.145	-0.097
-539.208	-200.000	0.037	-0.220
-538.193	243.081	-0.108	-0.183
-537.179	402.101	0.116	0.246
-536.164	39.663	-0.209	0.189
-535.150	290.997	-0.105	0.192
-534.135	12.599	0.218	0.169
-533.121	-4.899	0.078	0.054
-532.106	-23.876	0.242	0.146
-531.091	-79.909	0.270	0.091
-530.077	80.832	0.131	0.142
-529.062	-117.403	0.132	-0.024
-528.048	-200.000	0.032	0.145
-527.033	-72.198	0.282	0.105
-526.018	800.000	-0.102	-0.297
-525.004	-89.850	-0.141	0.041
-523.989	66.290	-0.286	0.292
-522.975	27.437	-0.082	0.070
-521.960	-200.000	-0.030	0.138
-520.945	-70.769	0.295	0.112
-519.931	326.965	-0.112	-0.215
-518.916	-137.682	0.224	-0.025
-517.902	-200.000	-0.037	-0.225
-516.887	528.380	0.091	-0.215
-515.872	134.818	0.111	-0.145
-514.858	-6.470	-0.309	-0.212
-513.843	650.659	0.081	0.209
-512.829	-200.000	-0.018	0.104
-511.814	-42.434	0.032	-0.016
-510.799	-200.000	-0.044	0.201
-509.785	-97.422	-0.119	0.031
-508.770	-200.000	-0.009	-0.136
-507.756	-200.000	0.008	-0.457
-506.741	-124.194	0.133	0.021
-505.726	-131.611	0.213	0.028
-504.712	50.177	-0.155	0.148
-503.697	-112.888	-0.480	-0.096
-502.683	121.751	0.138	-0.173
-501.668	-38.331	0.355	-0.189
-500.653	-132.173	-0.339	0.044
-499.639	39.373	0.165	-0.149
-498.624	800.000	0.054	0.197
-497.610	-200.000	0.021	0.110
-496.595	106.376	0.167	0.199
-495.581	-23.211	0.067	-0.040
-494.566	64.658	-0.184	0.186
-493.551	-126.985	0.333	-0.049
-492.537	-131.215	0.046	0.006
-491.522	157.693	-0.135	0.189
-490.508	-73.787	-0.298	-0.109
-489.493	-27.270	0.056	-0.033
-488.478	20.042	0.094	0.076
-487.464	282.319	-0.046	-0.083
-486.449	28.343	-0.226	0.192
-485.435	-200.000	0.015	0.177
-484.420	-79.791	0.294	0.100
-483.405	800.000	-0.079	-0.265
-482.391	-200.000	-0.013	-0.098
-481.376	800.000	-0.047	0.200
-480.362	541.722	0.081	-0.194
-479.347	-200.000	-0.076	0.335
-478.332	800.000	-0.020	-0.078
-477.318	90.981	0.081	-0.091
-476.303	-55.713	0.356	0.160
-475.289	99.738	-0.172	-0.200
-474.274	-52.839	0.167	-0.077
-473.259	-176.078	-0.147	-0.004
-472.245	-200.000	-0.029	-0.386
-471.230	271.807	-0.079	0.139
-470.216	-200.000	-0.077	-0.421
-469.201	-26.948	-0.230	0.135
-468.186	-113.765	-0.403	0.079
-467.172	-73.170	0.093	0.034
-466.157	233.038	-0.095	0.156
-465.143	408.893	-0.101	0.216
-464.128	-48.049	-0.202	-0.098
-463.113	-85.571	-0.052	0.016
-462.099	12.283	-0.159	0.123
-461.084	15.607	0.285	-0.225
-460.070	288.178	-0.131	-0.238
-459.055	-51.003	0.193	0.091
-458.040	-41.742	0.131	0.068
-457.026	-49.910	0.203	0.097
-456.011	199.029	0.046	-0.070
-454.997	-61.219	-0.119	0.051
-453.982	-200.000	0.030	-0.148
-452.968	-67.670	-0.102	0.040
-451.953	-19.418	0.235	0.146
-450.938	147.758	-0.348	-0.471
-449.924	-116.624	-0.354	-0.065
-448.909	-93.952	0.351	-0.097
-447.895	534.577	-0.098	-0.234
-446.880	800.000	0.119	-0.336
-445.865	-25.753	0.089	0.053
-444.851	257.911	-0.057	-0.098
-443.836	-81.465	-0.116	0.038
-442.822	429.933	0.013	-0.029
-441.807	265.875	0.211	-0.369
-440.792	-106.309	-0.085	0.019
-439.778	38.789	-0.189	-0.169
-438.763	-100.585	0.300	0.074
-437.749	-98.532	-0.197	-0.051
-436.734	507.853	-0.138	0.322
-435.719	478.604	0.100	0.227
-434.705	542.344	0.125	0.299
-433.690	-3.923	-0.172	0.120
-432.676	333.450	0.026	-0.050
-431.661	-200.000	-0.033	-0.207
-430.646	55.469	0.031	0.030
-429.632	-131.871	0.044	0.006
-428.617	109.869	-0.157	0.188
-427.603	110.214	0.153	0.184
-426.588	800.000	0.101	-0.380
-425.573	290.338	0.045	-0.081
-424.559	-31.542	-0.222	0.125
-423.544	-43.789	0.157	-0.080
-422.530	-38.885	0.375	0.198
-421.515	-27.519	0.132	0.077
-420.500	27.315	-0.101	-0.085
-419.486	-200.000	0.004	0.049
-418.471	-3.132	-0.195	0.136
-417.457	-200.000	-0.007	-0.087
-416.442	-19.723	0.188	-0.116
-415.428	86.221	-0.145	-0.161
-414.413	800.000	0.024	-0.075
-413.398	165.181	-0.064	-0.090
-412.384	190.989	0.213	-0.321
-411.369	-11.905	-0.127	-0.084
-410.355	-32.233	-0.281	0.157
-409.340	800.000	-0.021	0.078
-408.325	-34.129	0.123	0.068
-407.311	128.136	-0.213	0.271
-406.296	-200.000	0.002	-0.088
-405.282	0.778	0.324	-0.233
-404.267	800.000	0.057	0.196
-403.252	-14.924	-0.206	-0.132
-402.238	-72.811	-0.272	-0.100
-401.223	13.331	0.108	0.084
-400.209	-200.000	-0.017	-0.279
-399.194	-200.000	-0.003	-0.249
-398.179	142.466	0.083	0.110
-397.165	-17.535	0.208	0.131
-396.150	-200.000	-0.006	-0.356
-395.136	-61.859	-0.133	-0.056
-394.121	-200.000	-0.015	-0.081
-393.106	-200.000	0.001	0.029
-392.092	-41.179	0.144	-0.074
-391.077	-200.000	0.025	0.273
-390.063	800.000	0.058	0.193
-389.048	-102.503	0.109	-0.026
-388.033	-200.000	0.027	0.000
-387.019	-95.946	0.304	0.081
-386.004	-84.839	0.135	-0.043
-384.990	-200.000	0.036	-0.210
-383.975	112.576	-0.167	0.202
-382.960	-23.545	-0.051	-0.031
-381.946	-73.642	0.216	0.079
-380.931	-200.000	0.003	0.035
-379.917	220.917	0.137	-0.220
-378.902	-149.409	-0.117	0.009
-377.888	-129.482	0.195	-0.027
-376.873	112.509	0.185	0.224
-375.858	77.194	-0.204	-0.217
-374.844	-200.000	-0.001	0.244
-373.829	-90.197	0.206	-0.060
-372.815	46.095	-0.100	0.093
-371.800	-80.898	-0.067	0.022
-370.785	85.839	-0.092	0.101
-369.771	124.939	-0.066	-0.083
-368.756	43.969	-0.226	0.207
-367.742	130.751	-0.124	0.159
-366.727	-52.423	-0.075	0.035
-365.712	800.000	-0.082	-0.277
-364.698	-200.000	0.039	-0.234
-363.683	110.042	-0.065	0.079
-362.669	-115.273	-0.182	0.034
-361.654	-177.251	-0.387	0.010
-360.639	-97.133	0.127	-0.033
-359.625	-200.000	-0.067	0.365
-358.610	-133.024	-0.180	-0.023
-357.596	-24.015	0.067	-0.040
-356.581	-37.445	-0.119	-0.064
-355.566	-200.000	-0.014	-0.261
-354.552	-132.604	0.341	-0.044
-353.537	715.178	0.080	-0.213
-352.523	180.793	-0.246	0.361
-351.508	800.000	-0.033	-0.116
-350.493	-56.369	-0.064	-0.029
-349.479	426.939	-0.102	0.219
-348.464	-200.000	-0.015	0.208
-347.450	800.000	-0.068	0.200
-346.435	-107.680	-0.206	-0.045
-345.420	-59.714	0.173	0.074
-344.406	148.577	-0.048	-0.065
-343.391	107.980	-0.062	-0.074
-342.377	242.098	-0.054	0.091
-341.362	-79.258	-0.206	0.070
-340.348	55.751	-0.151	-0.146
-339.333	-200.000	0.095	0.419
-338.318	19.165	0.063	0.051
-337.304	156.941	-0.066	-0.091
-336.289	138.582	0.115	-0.150
-335.275	20.412	0.037	-0.030
-334.260	-144.007	0.300	-0.028
-333.245	-200.000	0.007	0.137
-332.231	155.903	0.019	0.026
-331.216	-78.780	-0.076	-0.026
-330.202	-200.000	0.052	0.251
-329.187	267.490	-0.105	0.184
-328.172	-200.000	0.001	0.291
-327.158	121.759	-0.055	0.068
-326.143	-83.493	0.205	0.066
-325.129	-118.130	0.134	0.024
-324.114	90.125	0.264	0.294
-323.099	-86.032	0.265	0.082
-322.085	-103.083	0.098	0.023
-321.070	195.183	-0.083	-0.125
-320.056	332.352	0.057	-0.111
-319.041	-156.241	0.308	-0.019
-318.026	-150.080	0.360	-0.028
-317.012	589.651	0.056	0.138
-315.997	-124.723	0.411	-0.063
-314.983	800.000	-0.035	-0.139
-313.968	-59.469	0.170	0.073
-312.953	268.641	0.174	-0.305
-311.939	244.191	0.179	-0.300
-310.924	-94.715	0.062	0.017
-309.910	-125.135	-0.290	-0.044
-308.895	-200.000	-0.046	0.303
-307.880	-107.987	-0.214	0.046
-306.866	-157.594	0.281	-0.017
-305.851	-25.286	0.185	-0.109
-304.837	23.375	0.114	-0.093
-303.822	-200.000	-0.029	-0.274
-302.807	398.838	0.040	-0.085
-301.793	-69.765	-0.105	-0.040
-300.778	-85.860	-0.546	-0.169
-299.764	58.927	0.098	0.096
-298.749	-58.631	-0.284	-0.123
-297.735	800.000	-0.023	-0.067
-296.720	-200.000	0.038	-0.207
-295.705	72.771	0.198	0.206
-294.691	-32.386	-0.438	-0.244
-293.676	23.321	0.150	-0.123
-292.662	800.000	-0.118	0.378
-291.647	-63.614	-0.125	-0.051
-290.632	800.000	0.025	-0.090
-289.618	800.000	0.011	-0.032
-288.603	175.602	0.046	-0.066
-287.589	-55.752	0.065	-0.029
-286.574	-143.150	0.169	0.016
-285.559	-41.343	-0.521	-0.268
-284.545	41.273	0.199	-0.179
-283.530	59.604	0.143	-0.140
-282.516	187.270	0.218	-0.325
-281.501	-172.347	-0.267	-0.008
-280.486	117.069	0.072	-0.088
-279.472	56.810	0.158	-0.153
-278.457	-16.061	-0.069	-0.044
-277.443	21.724	0.034	-0.027
-276.428	6.682	0.147	-0.109
-275.413	-200.000	-0.011	0.248
-274.399	138.078	-0.088	-0.116
-273.384	87.165	0.223	-0.245
-272.370	198.504	-0.050	0.076
-271.355	-34.924	-0.117	0.063
-270.340	72.768	-0.391	-0.407
-269.326	-89.863	-0.265	-0.077
-268.311	-148.074	0.086	0.007
-267.297	800.000	0.019	0.068
-266.282	86.482	0.096	0.105
-265.267	27.852	0.348	-0.292
-264.253	76.375	-0.158	0.167
-263.238	800.000	0.052	0.155
-262.224	800.000	0.095	0.268
-261.209	-130.896	-0.380	0.051
-260.195	570.829	0.031	-0.074
-259.180	6.397	0.380	0.281
-258.165	-141.728	0.616	0.062
-257.151	110.212	-0.149	-0.178
-256.136	-200.000	-0.022	0.164
-255.122	-27.797	-0.419	0.242
-254.107	-200.000	0.014	0.108
-253.092	189.224	0.194	0.290
-252.078	-96.469	-0.363	0.095
-251.063	62.973	0.289	0.288
-250.049	336.042	0.097	0.187
-249.034	778.154	-0.032	-0.087
-248.019	9.211	0.112	0.084
-247.005	-200.000	-0.008	0.182
-245.990	800.000	0.114	0.473
-244.976	345.410	-0.124	0.242
-243.961	-80.071	0.193	0.064
-242.946	-4.052	-0.048	-0.033
-241.932	-106.664	-0.210	-0.046
-240.917	106.268	0.109	0.129
-239.903	-200.000	0.015	-0.234
-238.888	-89.834	-0.189	0.055
-237.873	34.840	-0.117	-0.102
-236.859	12.898	-0.049	-0.038
-235.844	60.311	0.179	0.176
-234.830	-200.000	0.030	-0.182
-233.815	800.000	-0.121	0.383
-232.800	-200.000	-0.003	-0.240
-231.786	164.023	0.114	0.160
-230.771	-80.264	-0.127	-0.042
-229.757	-200.000	0.009	-0.265
-228.742	218.415	0.034	-0.054
-227.727	-159.474	0.586	-0.033
-226.713	-40.498	-0.269	-0.139
-225.698	-76.607	0.283	-0.099
-224.684	-123.712	-0.176	-0.028
-223.669	-200.000	-0.004	0.066
-222.655	20.637	0.222	0.179
-221.640	-131.447	0.316	0.041
-220.625	-128.360	-0.122	0.017
-219.611	23.367	-0.338	-0.276
-218.596	34.279	-0.105	0.091
-217.582	-126.458	0.320	-0.047
-216.567	107.225	-0.246	0.291
-215.552	213.543	-0.192	-0.303
-214.538	-200.000	0.009	0.112
-213.523	346.557	0.106	0.208
-212.509	-24.543	0.354	-0.210
-211.494	-57.927	-0.246	0.107
-210.479	-95.977	-0.091	-0.024
-209.465	-146.432	0.281	0.024
-208.450	-28.125	-0.165	-0.095
-207.436	27.705	0.112	-0.094
-206.421	800.000	0.054	0.183
-205.406	-100.119	0.274	-0.068
-204.392	-104.578	0.211	-0.048
-203.377	494.990	0.097	0.221
-202.363	51.514	-0.287	-0.271
-201.348	-84.154	-0.347	0.109
-200.333	-200.000	0.049	0.283
-199.319	-8.096	0.137	-0.092
-198.304	189.277	-0.115	-0.172
-197.290	800.000	0.026	-0.104
-196.275	-119.848	0.061	-0.010
-195.260	308.795	0.210	-0.390
-194.246	237.556	-0.148	0.243
-193.231	-200.000	-0.038	-0.197
-192.217	404.383	-0.056	0.118
-191.202	800.000	0.053	0.156
-190.187	719.808	0.081	0.215
-189.173	8.630	-0.057	-0.043
-188.158	-58.254	-0.081	-0.035
-187.144	-67.635	-0.239	0.093
-186.129	-104.938	-0.297	0.068
-185.114	121.949	0.096	0.119
-184.100	38.868	0.092	-0.081
-183.085	-161.196	-0.313	-0.016
-182.071	-188.689	-0.162	-0.002
-181.056	3.524	-0.136	0.098
-180.042	800.000	0.134	0.461
-179.027	-6.250	-0.354	0.240
-178.012	125.395	-0.051	-0.063
-176.998	39.049	-0.351	0.312
-175.983	-100.474	0.190	0.047
-174.969	-200.000	0.285	-0.001
-173.954	41.902	-0.116	-0.105
-172.939	-40.135	-0.313	-0.162
-171.925	-161.691	-0.223	-0.011
-170.910	-200.000	-0.003	0.241
-169.896	135.783	0.156	-0.201
-168.881	32.290	-0.425	0.364
-167.866	-72.225	0.200	-0.074
-166.852	-1.515	-0.036	-0.025
-165.837	-69.517	-0.198	-0.076
-164.823	-45.703	0.312	0.153
-163.808	52.373	0.057	0.054
-162.793	313.374	0.012	0.023
-161.779	-134.878	0.211	0.025
-160.764	-9.314	-0.093	-0.062
-159.750	-67.661	-0.170	0.066
-158.735	-200.000	-0.085	-0.411
-157.720	-200.000	0.151	-0.000
-156.706	-140.873	0.115	-0.012
-155.691	141.256	-0.059	-0.077
-154.677	-66.609	-0.169	-0.066
-153.662	-200.000	0.042	-0.227
-152.647	164.549	-0.062	0.087
-151.633	-50.654	-0.265	-0.124
-150.618	-111.367	0.235	0.048
-149.604	-200.000	0.069	-0.367
-148.589	800.000	-0.015	0.051
-147.574	33.566	-0.073	-0.063
-146.560	-200.000	0.010	-0.222
-145.545	137.348	-0.087	0.114
-144.531	-48.320	0.127	-0.061
-143.516	331.864	0.054	0.103
-142.502	617.318	-0.065	0.162
-141.487	-14.634	-0.171	0.109
-140.472	246.065	-0.180	0.301
-139.458	800.000	-0.063	-0.252
-138.443	83.551	-0.132	-0.142
-137.429	27.216	-0.054	-0.045
-136.414	16.104	-0.141	0.111
-135.399	-117.268	-0.020	0.004
-134.385	-32.597	-0.077	-0.043
-133.370	-99.152	-0.248	0.062
-132.356	-115.286	0.043	0.008
-131.341	800.000	0.057	0.225
-130.326	240.143	-0.091	0.150
-129.312	-49.865	0.298	0.140
-128.297	85.241	0.025	0.027
-127.283	800.000	-0.045	-0.128
-126.268	800.000	-0.142	-0.397
-125.253	58.040	-0.272	-0.265
-124.239	800.000	0.066	0.212
-123.224	-200.000	-0.020	-0.148
-122.210	500.851	-0.047	0.108
-121.195	-96.625	0.074	-0.019
