DTS Sentinel unit serial number:	SN413079Multiplexer serial number:	ORYXHardware model number:	OX4-SRSoftware version number:	ORYX F/W v4.00 Oryx Data Collector v3.7.2.0data status	okinstallation	princeton_trtdifferential loss correction	single-endedforward channel	channel 4reverse channel	N/Adate	2019/09/11time	06:51:10forward acquisition time	60.00reverse acquisition time	0.00gamma	496.2192k internal	0.2313k external	0.2313temperature offset calibration	0.9944default loss term (dB/km)	0.3790temperature slope calibration	1.0000multiplexer offset coefficient	1.0000multiplexer slope coefficient	1.0000fibre end	0.00T internal ref (°C)	29.94T ext. ref 1 (°C)	-0.11T ext. ref 2 (°C)	25.30length (m)	temperature (°C)	Stokes	anti-Stokes-747.200	-68.230	-0.040	0.016
-746.185	794.366	-0.123	0.344
-745.171	-200.000	0.034	-0.156
-744.156	-72.004	0.044	0.017
-743.142	800.000	-0.051	-0.195
-742.127	-146.959	-0.226	0.020
-741.112	-200.000	-0.011	-0.242
-740.098	-132.914	-0.142	0.018
-739.083	800.000	-0.095	0.348
-738.069	-58.083	0.396	0.175
-737.054	79.699	0.167	0.182
-736.039	133.834	-0.221	-0.290
-735.025	100.413	0.132	-0.155
-734.010	800.000	0.037	-0.123
-732.996	-71.043	-0.395	-0.151
-731.981	-200.000	0.002	0.265
-730.966	-85.866	-0.393	-0.124
-729.952	-200.000	0.011	-0.061
-728.937	531.169	-0.028	0.068
-727.923	27.625	0.034	0.029
-726.908	-200.000	0.050	0.455
-725.894	-200.000	0.018	-0.231
-724.879	321.527	-0.076	0.147
-723.864	-120.434	-0.399	0.069
-722.850	151.542	0.230	-0.318
-721.835	448.238	-0.197	-0.440
-720.821	-68.845	0.229	-0.090
-719.806	-24.542	-0.068	-0.041
-718.791	203.898	0.078	-0.122
-717.777	-114.318	0.069	-0.014
-716.762	-108.173	-0.089	-0.020
-715.748	-121.631	-0.272	-0.046
-714.733	-16.537	-0.320	-0.205
-713.718	-90.329	-0.270	-0.079
-712.704	467.104	-0.125	-0.283
-711.689	163.701	0.131	0.187
-710.675	-136.657	-0.114	-0.013
-709.660	109.011	0.075	0.091
-708.645	-75.969	0.324	-0.116
-707.631	379.482	-0.100	-0.208
-706.616	-114.231	-0.263	0.051
-705.602	-59.570	-0.235	0.102
-704.587	-200.000	-0.003	0.085
-703.572	80.656	-0.226	-0.247
-702.558	633.110	0.050	0.128
-701.543	-200.000	0.018	0.332
-700.529	13.249	-0.182	0.143
-699.514	-59.250	-0.202	0.088
-698.499	30.927	0.295	-0.256
-697.485	-117.279	0.319	0.059
-696.470	1.632	-0.310	0.226
-695.456	-136.211	0.281	-0.033
-694.441	245.343	0.088	0.150
-693.426	-23.464	-0.337	0.205
-692.412	-200.000	-0.042	0.372
-691.397	-136.881	0.199	0.023
-690.383	-200.000	-0.021	-0.318
-689.368	-40.715	-0.035	-0.018
-688.354	-60.964	0.110	-0.047
-687.339	314.848	-0.214	-0.408
-686.324	-65.637	0.112	0.045
-685.310	-132.245	-0.353	-0.046
-684.295	210.548	-0.022	-0.035
-683.281	-97.440	-0.293	0.077
-682.266	27.980	-0.230	-0.196
-681.251	800.000	-0.189	0.586
-680.237	-87.219	0.070	0.021
-679.222	115.516	0.127	-0.157
-678.208	200.894	0.121	-0.188
-677.193	-8.135	0.024	-0.016
-676.178	-200.000	-0.048	-0.291
-675.164	-99.325	-0.318	0.081
-674.149	-125.729	0.015	0.002
-673.135	160.390	-0.221	-0.312
-672.120	-59.036	0.161	-0.070
-671.105	321.061	-0.103	0.198
-670.091	-200.000	-0.032	-0.227
-669.076	741.812	0.086	-0.233
-668.062	-3.679	-0.291	-0.204
-667.047	800.000	0.102	0.299
-666.032	-200.000	0.007	0.172
-665.018	800.000	0.041	0.118
-664.003	105.373	-0.051	-0.060
-662.989	-200.000	-0.001	-0.153
-661.974	-200.000	-0.018	-0.191
-660.959	74.336	0.172	-0.182
-659.945	-200.000	-0.005	0.072
-658.930	-65.462	-0.344	0.140
-657.916	38.702	-0.361	0.325
-656.901	-200.000	0.032	0.157
-655.886	10.464	0.069	0.053
-654.872	-200.000	-0.025	-0.237
-653.857	146.610	-0.085	0.116
-652.843	-31.429	-0.295	0.168
-651.828	-59.402	0.145	-0.063
-650.814	-183.002	-0.545	-0.010
-649.799	64.635	0.014	0.014
-648.784	-50.217	0.259	-0.124
-647.770	-14.544	-0.278	0.181
-646.755	-200.000	-0.139	0.671
-645.741	86.365	0.210	0.234
-644.726	-87.981	0.089	0.027
-643.711	-154.855	-0.096	-0.006
-642.697	-200.000	-0.032	-0.183
-641.682	292.297	0.093	-0.170
-640.668	-200.000	-0.045	0.303
-639.653	-200.000	-0.025	-0.278
-638.638	527.117	-0.075	-0.178
-637.624	-200.000	-0.020	-0.156
-636.609	316.633	-0.070	-0.133
-635.595	7.050	0.048	-0.036
-634.580	227.114	-0.146	-0.240
-633.565	-50.310	0.175	0.083
-632.551	113.810	-0.229	0.281
-631.536	14.428	0.027	0.022
-630.522	270.775	0.120	-0.213
-629.507	-200.000	0.002	-0.116
-628.492	-179.154	0.139	-0.003
-627.478	-99.359	-0.073	-0.019
-626.463	800.000	0.032	0.124
-625.449	-188.075	0.260	0.003
-624.434	473.581	-0.088	-0.200
-623.419	-200.000	0.026	-0.194
-622.405	-108.763	-0.283	0.061
-621.390	100.351	-0.258	0.303
-620.376	-145.466	0.207	0.019
-619.361	-14.497	-0.412	-0.267
-618.346	55.978	-0.086	0.084
-617.332	186.316	-0.149	-0.223
-616.317	-102.768	-0.174	0.042
-615.303	-56.862	0.195	0.087
-614.288	-196.121	0.227	0.002
-613.273	-200.000	-0.005	0.112
-612.259	67.606	-0.111	0.115
-611.244	-31.536	0.075	0.042
-610.230	-70.948	-0.128	-0.049
-609.215	164.836	-0.086	-0.123
-608.201	219.796	-0.037	-0.060
-607.186	-199.656	0.036	-0.000
-606.171	-30.865	-0.047	-0.027
-605.157	60.233	-0.178	-0.178
-604.142	-111.148	-0.100	0.021
-603.128	265.146	0.033	0.057
-602.113	-25.473	0.041	-0.024
-601.098	-0.985	0.048	-0.034
-600.084	457.692	0.101	0.227
-599.069	-200.000	0.033	-0.271
-598.055	152.286	0.047	0.064
-597.040	-142.012	-0.113	-0.011
-596.025	800.000	-0.064	-0.248
-595.011	59.966	-0.086	0.085
-593.996	407.895	0.057	0.121
-592.982	800.000	0.039	-0.124
-591.967	309.419	0.077	-0.146
-590.952	-93.658	-0.158	-0.044
-589.938	6.601	-0.195	0.146
-588.923	-200.000	0.017	-0.250
-587.909	-159.540	-0.233	-0.013
-586.894	44.498	0.304	-0.282
-585.879	-86.228	0.071	-0.022
-584.865	201.521	0.112	0.174
-583.850	800.000	0.110	-0.453
-582.836	-25.095	-0.259	-0.155
-581.821	-36.256	-0.209	0.113
-580.806	800.000	0.125	-0.410
-579.792	-200.000	0.004	-0.094
-578.777	-200.000	0.040	-0.283
-577.763	800.000	-0.072	0.286
-576.748	800.000	-0.075	0.245
-575.733	-144.025	-0.321	-0.030
-574.719	58.626	-0.157	0.155
-573.704	98.194	-0.180	0.209
-572.690	-142.990	-0.190	-0.019
-571.675	32.726	0.240	-0.209
-570.661	-200.000	-0.065	-0.437
-569.646	-60.678	0.190	-0.081
-568.631	396.306	0.100	0.211
-567.617	800.000	-0.061	0.212
-566.602	-70.466	-0.228	0.087
-565.588	170.715	-0.094	-0.135
-564.573	-76.058	0.223	-0.079
-563.558	109.532	-0.032	0.038
-562.544	63.856	-0.193	0.195
-561.529	-200.000	-0.028	0.127
-560.515	133.964	-0.146	-0.190
-559.500	-200.000	0.014	-0.391
-558.485	800.000	0.076	-0.217
-557.471	-33.555	-0.247	0.137
-556.456	72.563	-0.174	0.183
-555.442	38.028	0.095	0.085
-554.427	-76.852	-0.291	-0.102
-553.412	256.937	-0.135	0.233
-552.398	-200.000	0.000	0.071
-551.383	-9.323	0.216	-0.145
-550.369	-84.361	-0.145	0.046
-549.354	173.492	-0.092	0.134
-548.339	-200.000	-0.007	0.056
-547.325	123.599	-0.161	-0.203
-546.310	-200.000	-0.013	0.176
-545.296	174.637	0.329	0.479
-544.281	-200.000	0.002	-0.354
-543.266	256.694	-0.088	0.153
-542.252	652.773	-0.108	0.279
-541.237	151.072	0.212	-0.290
-540.223	34.982	-0.179	-0.158
-539.208	115.491	0.084	-0.103
-538.193	283.221	-0.155	-0.280
-537.179	53.526	0.399	-0.385
-536.164	90.731	-0.133	-0.150
-535.150	352.165	-0.221	0.440
-534.135	-64.931	-0.191	0.078
-533.121	-160.956	-0.254	0.013
-532.106	379.648	-0.114	0.235
-531.091	-89.165	-0.405	0.120
-530.077	58.962	0.214	-0.212
-529.062	539.556	0.030	-0.072
-528.048	800.000	0.101	0.336
-527.033	-200.000	0.015	-0.102
-526.018	-60.017	-0.109	-0.047
-525.004	-5.476	0.048	0.033
-523.989	114.841	0.219	-0.268
-522.975	800.000	0.088	-0.251
-521.960	-98.139	0.276	0.071
-520.945	-55.037	-0.276	-0.125
-519.931	-200.000	-0.025	-0.144
-518.916	-54.108	-0.158	-0.072
-517.902	-62.185	-0.133	0.056
-516.887	-58.295	-0.101	0.044
-515.872	-175.076	0.129	-0.004
-514.858	104.055	0.312	0.369
-513.843	-200.000	-0.020	0.243
-512.829	0.452	-0.184	-0.132
-511.814	80.851	0.186	0.202
-510.799	-200.000	0.020	0.323
-509.785	800.000	0.093	-0.360
-508.770	238.074	0.160	-0.267
-507.756	800.000	-0.066	-0.235
-506.741	509.107	-0.093	-0.218
-505.726	-49.480	-0.314	0.150
-504.712	-121.713	0.339	0.056
-503.697	800.000	0.070	0.246
-502.683	-166.266	-0.284	-0.012
-501.668	7.336	-0.155	-0.117
-500.653	800.000	0.110	-0.456
-499.639	77.488	0.304	0.325
-498.624	800.000	0.096	0.313
-497.610	-173.636	0.169	-0.005
-496.595	-69.237	0.210	-0.081
-495.581	-18.570	-0.154	-0.096
-494.566	379.229	0.168	0.346
-493.551	-41.510	0.074	-0.038
-492.537	536.775	0.187	-0.446
-491.522	-200.000	0.008	-0.078
-490.508	800.000	-0.033	0.095
-489.493	-97.970	0.260	0.067
-488.478	6.249	0.334	-0.249
-487.464	331.279	0.090	-0.173
-486.449	607.541	-0.004	-0.011
-485.435	800.000	0.042	0.169
-484.420	121.616	-0.086	-0.107
-483.405	-50.337	-0.178	0.084
-482.391	-183.604	0.208	-0.004
-481.376	-69.896	0.241	0.092
-480.362	-46.146	-0.341	-0.168
-479.347	-160.875	-0.460	-0.024
-478.332	216.697	0.104	0.166
-477.318	33.807	-0.145	-0.126
-476.303	-107.177	0.138	-0.031
-475.289	99.128	-0.121	0.141
-474.274	41.165	-0.169	0.153
-473.259	128.097	0.285	-0.363
-472.245	162.856	-0.207	-0.291
-471.230	800.000	-0.058	-0.248
-470.216	145.360	-0.061	-0.081
-469.201	-145.619	-0.312	0.028
-468.186	214.415	0.126	0.200
-467.172	118.755	-0.045	0.056
-466.157	127.418	-0.311	-0.396
-465.143	-31.737	-0.095	0.053
-464.128	565.458	-0.003	0.007
-463.113	-118.295	-0.229	-0.041
-462.099	62.574	0.122	-0.122
-461.084	-200.000	0.008	0.157
-460.070	800.000	0.086	0.247
-459.055	117.235	-0.117	-0.144
-458.040	-22.156	-0.209	0.127
-457.026	800.000	0.079	-0.222
-456.011	171.574	0.062	-0.089
-454.997	-44.335	-0.170	-0.086
-453.982	-200.000	-0.029	-0.197
-452.968	254.573	-0.017	0.030
-451.953	-200.000	0.013	0.271
-450.938	-152.377	-0.358	-0.026
-449.924	265.464	-0.025	-0.044
-448.909	101.777	-0.075	-0.088
-447.895	101.352	-0.287	0.336
-446.880	459.607	-0.077	-0.172
-445.865	-155.537	0.334	0.022
-444.851	153.944	0.055	0.075
-443.836	800.000	-0.116	-0.344
-442.822	329.741	0.107	-0.207
-441.807	480.015	0.196	-0.446
-440.792	0.185	-0.185	-0.133
-439.778	-109.462	-0.208	-0.044
-438.763	45.241	0.296	-0.274
-437.749	-158.211	-0.141	0.008
-436.734	800.000	0.026	0.084
-435.719	69.660	-0.184	-0.190
-434.705	50.554	-0.218	-0.207
-433.690	-153.315	0.304	-0.021
-432.676	27.516	0.176	-0.148
-431.661	199.014	0.164	0.252
-430.646	-153.909	0.213	-0.015
-429.632	800.000	-0.048	0.185
-428.617	-110.434	0.220	-0.046
-427.603	800.000	0.062	-0.188
-426.588	-200.000	0.016	0.118
-425.573	-200.000	0.033	0.190
-424.559	90.561	0.178	0.199
-423.544	-80.466	-0.164	0.055
-422.530	-148.206	0.328	0.027
-421.515	96.925	0.195	-0.224
-420.500	-125.057	0.448	0.069
-419.486	-66.186	-0.231	-0.092
-418.471	-192.291	0.043	0.000
-417.457	76.059	-0.047	0.050
-416.442	-200.000	-0.037	-0.171
-415.428	418.919	0.065	0.140
-414.413	-169.289	0.067	0.002
-413.398	800.000	-0.020	0.075
-412.384	-107.747	-0.249	-0.054
-411.369	-200.000	-0.061	0.269
-410.355	-118.231	0.167	-0.030
-409.340	-124.465	-0.508	-0.079
-408.325	-200.000	0.019	0.283
-407.311	-200.000	-0.057	-0.323
-406.296	335.395	0.167	0.325
-405.282	32.850	0.160	0.139
-404.267	263.231	0.184	-0.319
-403.252	728.006	0.064	0.171
-402.238	76.375	-0.159	0.169
-401.223	-32.950	-0.024	0.013
-400.209	800.000	0.044	0.185
-399.194	800.000	0.075	-0.259
-398.179	-56.846	-0.079	-0.035
-397.165	130.658	-0.023	-0.030
-396.150	800.000	0.111	0.448
-395.136	800.000	0.061	-0.238
-394.121	-71.043	0.170	-0.064
-393.106	-173.586	0.058	0.002
-392.092	-200.000	-0.017	0.312
-391.077	521.306	0.062	0.146
-390.063	-56.953	-0.271	-0.120
-389.048	116.937	-0.008	0.010
-388.033	248.533	0.103	-0.175
-387.019	-90.574	-0.354	0.102
-386.004	105.509	-0.097	0.114
-384.990	393.079	0.027	-0.057
-383.975	-200.000	-0.005	-0.105
-382.960	-55.807	0.142	-0.063
-381.946	-200.000	0.024	-0.123
-380.931	213.539	0.215	0.340
-379.917	-139.838	-0.238	-0.025
-378.902	-67.835	-0.337	0.132
-377.888	-123.267	0.082	-0.013
-376.873	-174.681	-0.194	-0.006
-375.858	63.115	-0.076	0.076
-374.844	-200.000	-0.015	-0.104
-373.829	800.000	0.086	0.308
-372.815	800.000	-0.022	-0.081
-371.800	191.115	0.120	0.180
-370.785	-103.685	0.226	0.053
-369.771	-133.324	0.214	-0.027
-368.756	-66.758	0.298	0.118
-367.742	74.400	0.185	0.194
-366.727	38.545	-0.083	0.074
-365.712	-112.866	0.295	0.059
-364.698	800.000	-0.076	0.312
-363.683	800.000	0.120	-0.442
-362.669	491.395	-0.142	-0.326
-361.654	198.055	0.162	0.247
-360.639	36.730	0.381	0.336
-359.625	800.000	-0.045	-0.152
-358.610	486.671	0.046	-0.105
-357.596	288.360	-0.137	-0.248
-356.581	-174.365	0.500	-0.014
-355.566	-66.054	0.220	0.088
-354.552	-21.431	-0.153	0.093
-353.537	620.777	-0.069	-0.174
-352.523	768.644	0.119	0.324
-351.508	218.994	-0.043	-0.069
-350.493	-72.406	0.251	0.093
-349.479	-127.820	-0.181	0.026
-348.464	224.711	0.072	-0.116
-347.450	288.104	0.135	0.244
-346.435	396.147	0.030	-0.062
-345.420	188.089	0.013	0.020
-344.406	-200.000	-0.003	0.095
-343.391	37.051	0.275	-0.243
-342.377	-118.351	-0.049	-0.009
-341.362	-37.629	-0.108	-0.057
-340.348	-155.240	0.044	-0.003
-339.333	126.957	-0.183	0.232
-338.318	-120.301	-0.065	-0.011
-337.304	395.975	-0.069	0.143
-336.289	749.448	0.048	0.131
-335.275	-200.000	-0.017	0.336
-334.260	-200.000	-0.025	-0.251
-333.245	131.820	0.132	-0.170
-332.231	658.938	0.062	0.159
-331.216	-130.713	-0.527	-0.071
-330.202	592.128	0.026	-0.064
-329.187	-200.000	0.007	0.182
-328.172	-57.601	0.136	-0.059
-327.158	-94.716	-0.465	-0.126
-326.143	186.215	0.090	0.133
-325.129	-172.759	0.253	-0.008
-324.114	363.697	0.144	0.290
-323.099	30.828	-0.283	-0.242
-322.085	800.000	0.110	0.381
-321.070	-145.361	-0.107	-0.010
-320.056	27.097	-0.252	-0.211
-319.041	25.404	0.077	-0.064
-318.026	279.557	-0.134	0.238
-317.012	-33.371	-0.539	0.297
-315.997	33.258	0.243	0.210
-314.983	-54.934	0.214	-0.096
-313.968	-49.085	0.025	-0.012
-312.953	28.632	0.296	0.250
-311.939	32.572	-0.149	-0.128
-310.924	-130.071	0.101	0.014
-309.910	44.623	0.373	0.341
-308.895	-136.772	0.084	-0.010
-307.880	-127.220	0.192	-0.028
-306.866	-89.558	-0.091	0.027
-305.851	42.101	-0.174	0.157
-304.837	-94.512	-0.199	0.054
-303.822	111.323	-0.055	-0.066
-302.807	-160.810	-0.144	-0.008
-301.793	-187.328	-0.350	0.005
-300.778	-200.000	0.013	-0.336
-299.764	-109.541	-0.063	0.013
-298.749	800.000	0.077	0.217
-297.735	-81.903	0.147	-0.048
-296.720	213.138	-0.087	-0.136
-295.705	-43.582	0.090	0.045
-294.691	-94.331	-0.040	-0.011
-293.676	-200.000	-0.017	0.266
-292.662	-108.698	-0.059	-0.013
-291.647	39.699	0.322	0.287
-290.632	26.597	-0.154	0.128
-289.618	5.984	0.240	0.177
-288.603	-200.000	0.016	0.328
-287.589	-67.590	0.214	0.083
-286.574	143.509	-0.099	-0.132
-285.559	-200.000	-0.007	-0.284
-284.545	-6.179	-0.208	-0.142
-283.530	-82.756	0.440	-0.142
-282.516	-96.270	0.034	-0.009
-281.501	44.820	-0.205	-0.188
-280.486	25.078	0.090	-0.074
-279.472	-200.000	0.013	-0.229
-278.457	505.070	-0.065	-0.150
-277.443	-120.647	-0.144	0.024
-276.428	-106.359	0.227	0.051
-275.413	-200.000	0.085	0.412
-274.399	-200.000	0.010	0.126
-273.384	-200.000	0.001	0.193
-272.370	148.922	-0.156	0.210
-271.355	-61.363	-0.146	-0.061
-270.340	-122.413	0.097	-0.016
-269.326	-200.000	0.003	-0.232
-268.311	17.752	-0.093	0.074
-267.297	18.606	0.208	0.166
-266.282	-200.000	0.015	0.064
-265.267	144.357	0.187	-0.249
-264.253	-76.958	0.281	-0.098
-263.238	-99.904	-0.058	-0.014
-262.224	-161.198	-0.209	-0.011
-261.209	-10.500	-0.149	0.098
-260.195	-98.153	0.295	-0.075
-259.180	-200.000	0.007	-0.067
-258.165	-135.559	0.182	-0.022
-257.151	298.713	-0.119	-0.217
-256.136	103.411	0.179	0.209
-255.122	-51.331	0.070	0.033
-254.107	124.606	-0.140	0.175
-253.092	-170.109	0.261	-0.009
-252.078	33.056	0.165	-0.143
-251.063	535.376	0.158	-0.373
-250.049	800.000	-0.045	0.156
-249.034	41.219	0.442	-0.398
-248.019	-200.000	0.003	0.149
-247.005	-112.316	0.245	0.049
-245.990	56.560	-0.051	0.050
-244.976	-200.000	-0.011	-0.178
-243.961	-200.000	0.037	0.280
-242.946	302.175	-0.112	0.207
-241.932	-152.725	0.129	0.009
-240.917	800.000	0.020	-0.057
-239.903	-200.000	-0.016	0.102
-238.888	702.173	0.045	0.118
-237.873	-109.011	-0.107	-0.023
-236.859	158.708	-0.100	-0.138
-235.844	83.898	-0.122	-0.132
-234.830	-63.089	0.150	0.062
-233.815	73.358	0.095	0.099
-232.800	59.574	-0.280	0.274
-231.786	782.448	-0.012	-0.033
-230.771	-200.000	-0.066	-0.353
-229.757	-24.527	0.143	0.085
-228.742	-107.617	-0.086	0.019
-227.727	-53.197	0.331	0.151
-226.713	28.402	-0.218	0.183
-225.698	-89.098	0.169	-0.050
-224.684	10.272	-0.095	0.072
-223.669	145.934	-0.051	0.068
-222.655	85.118	0.257	-0.280
-221.640	149.418	-0.211	0.284
-220.625	-192.273	-0.113	-0.001
-219.611	-200.000	-0.005	-0.092
-218.596	-200.000	0.008	0.045
-217.582	374.707	-0.110	0.223
-216.567	800.000	0.033	0.104
-215.552	75.036	0.193	0.202
-214.538	-129.280	-0.374	0.052
-213.523	-200.000	-0.004	0.263
-212.509	100.038	-0.092	-0.106
-211.494	1.467	-0.157	0.112
-210.479	-150.207	0.162	-0.012
-209.465	17.977	0.196	0.155
-208.450	-200.000	-0.019	0.158
-207.436	-97.184	0.229	-0.059
-206.421	-200.000	0.014	-0.264
-205.406	58.634	-0.163	0.159
-204.392	352.310	-0.120	0.237
-203.377	-200.000	-0.025	-0.213
-202.363	-74.392	-0.225	-0.081
-201.348	-22.987	0.125	0.075
-200.333	115.703	0.174	0.211
-199.319	-200.000	-0.011	0.065
-198.304	-102.808	0.217	-0.051
-197.290	-200.000	0.015	0.173
-196.275	-71.952	-0.331	0.122
-195.260	84.573	0.107	-0.116
-194.246	95.546	-0.080	0.090
-193.231	158.132	-0.066	-0.091
-192.217	-162.843	-0.270	-0.013
-191.202	61.175	-0.164	-0.162
-190.187	688.888	0.090	-0.233
-189.173	-36.169	-0.206	-0.110
-188.158	-108.685	-0.306	-0.065
-187.144	-200.000	-0.006	-0.131
-186.129	546.283	0.082	0.196
-185.114	32.208	0.116	0.099
-184.100	-200.000	0.026	0.112
-183.085	-57.819	0.295	-0.128
-182.071	-136.217	-0.200	0.023
-181.056	-200.000	0.013	0.161
-180.042	-50.436	0.182	-0.085
-179.027	-85.086	-0.136	-0.042
-178.012	-133.648	0.065	-0.008
-176.998	-200.000	0.015	0.214
-175.983	-98.195	-0.106	-0.027
-174.969	2.736	0.047	0.034
-173.954	-128.820	-0.060	0.008
-172.939	659.488	-0.071	0.181
-171.925	-139.079	0.344	-0.037
-170.910	-171.903	-0.187	0.006
-169.896	-200.000	-0.011	-0.089
-168.881	132.295	-0.189	-0.241
-167.866	-65.872	-0.186	0.074
-166.852	-140.565	0.534	0.055
-165.837	111.393	-0.299	-0.358
-164.823	-72.179	0.144	0.053
-163.808	-108.819	-0.258	-0.055
-162.793	-8.013	-0.074	-0.049
-161.779	81.258	0.328	-0.351
-160.764	-151.088	0.356	-0.027
-159.750	-49.240	-0.217	0.103
-158.735	-84.805	0.149	-0.046
-157.720	-200.000	0.008	0.309
-156.706	-49.339	-0.067	-0.032
-155.691	-55.524	0.103	-0.046
-154.677	800.000	-0.077	-0.254
-153.662	-200.000	-0.010	-0.293
-152.647	224.662	0.159	0.255
-151.633	-200.000	-0.041	-0.288
-150.618	317.962	-0.107	-0.200
-149.604	-77.874	0.161	-0.055
-148.589	-69.126	-0.205	-0.078
-147.574	369.874	0.098	0.196
-146.560	59.502	0.154	0.151
-145.545	243.649	0.106	-0.176
-144.531	-105.406	-0.311	-0.070
-143.516	136.306	0.159	-0.205
-142.502	-200.000	0.018	0.278
-141.487	59.099	-0.127	-0.124
-140.472	86.285	0.190	-0.208
-139.458	-200.000	-0.044	-0.246
-138.443	229.520	-0.169	0.273
-137.429	-165.919	-0.108	0.005
-136.414	261.891	-0.107	-0.183
-135.399	800.000	-0.084	0.313
-134.385	-138.604	-0.202	0.022
-133.370	-100.555	0.059	-0.015
-132.356	-29.334	0.300	-0.170
-131.341	-112.892	0.171	0.034
-130.326	33.217	0.189	0.163
-129.312	-94.564	-0.079	0.021
-128.297	-1.646	-0.142	-0.099
-127.283	-143.204	-0.084	0.008
-126.268	-59.136	0.058	0.025
-125.253	-200.000	-0.013	-0.162
-124.239	-34.517	-0.308	-0.167
-123.224	-99.383	-0.215	-0.054
