DTS Sentinel unit serial number:	SN413079Multiplexer serial number:	ORYXHardware model number:	OX4-SRSoftware version number:	ORYX F/W v4.00 Oryx Data Collector v3.7.2.0data status	okinstallation	princeton_trtdifferential loss correction	single-endedforward channel	channel 4reverse channel	N/Adate	2019/09/11time	09:59:11forward acquisition time	60.00reverse acquisition time	0.00gamma	496.2192k internal	0.2296k external	0.2296temperature offset calibration	0.9970default loss term (dB/km)	0.3790temperature slope calibration	1.0000multiplexer offset coefficient	1.0000multiplexer slope coefficient	1.0000fibre end	0.00T internal ref (°C)	35.31T ext. ref 1 (°C)	0.12T ext. ref 2 (°C)	32.54length (m)	temperature (°C)	Stokes	anti-Stokes-747.200	-200.000	0.005	-0.252
-746.185	148.648	0.178	0.245
-745.171	-100.353	0.442	-0.112
-744.156	-70.710	-0.273	0.105
-743.142	-106.991	0.210	0.047
-742.127	-200.000	-0.012	0.110
-741.112	176.442	0.280	-0.415
-740.098	-41.241	-0.209	0.110
-739.083	-200.000	-0.007	-0.111
-738.069	18.433	-0.102	0.083
-737.054	-110.962	0.145	0.030
-736.039	-2.571	-0.124	-0.089
-735.025	-200.000	0.048	0.363
-734.010	-200.000	-0.003	0.116
-732.996	389.263	-0.119	-0.252
-731.981	-39.128	-0.164	0.088
-730.966	-93.765	0.168	0.047
-729.952	-97.242	-0.336	-0.089
-728.937	800.000	-0.045	0.171
-727.923	-164.933	0.126	-0.006
-726.908	-200.000	0.020	-0.100
-725.894	196.013	-0.185	-0.288
-724.879	206.888	0.081	-0.129
-723.864	170.443	-0.116	-0.170
-722.850	21.165	0.190	-0.157
-721.835	-200.000	0.004	0.155
-720.821	45.808	0.064	-0.060
-719.806	377.825	-0.119	-0.249
-718.791	-27.774	0.139	-0.082
-717.777	175.847	-0.177	-0.262
-716.762	33.982	0.294	0.261
-715.748	89.647	-0.094	-0.107
-714.733	-80.734	0.153	0.052
-713.718	178.725	-0.120	0.179
-712.704	-7.656	-0.034	-0.024
-711.689	-4.748	-0.057	-0.040
-710.675	-87.313	0.151	-0.047
-709.660	792.652	0.023	-0.065
-708.645	800.000	0.074	0.227
-707.631	166.206	-0.066	-0.095
-706.616	800.000	0.020	-0.067
-705.602	-45.450	0.120	-0.061
-704.587	6.560	0.270	0.204
-703.572	59.587	-0.312	-0.314
-702.558	-84.447	-0.075	0.024
-701.543	800.000	0.075	0.225
-700.529	800.000	0.034	0.104
-699.514	115.030	-0.049	0.061
-698.499	9.963	0.219	0.170
-697.485	-117.527	-0.111	0.020
-696.470	-32.344	-0.020	0.011
-695.456	-17.217	-0.169	0.108
-694.441	-3.497	0.299	-0.212
-693.426	67.737	-0.124	0.130
-692.412	-200.000	-0.022	-0.194
-691.397	-91.195	0.512	-0.150
-690.383	-17.260	-0.249	-0.160
-689.368	84.435	-0.314	-0.350
-688.354	150.277	0.106	0.146
-687.339	-123.810	-0.182	-0.029
-686.324	126.313	0.253	0.326
-685.310	-97.202	-0.245	0.065
-684.295	-199.377	-0.322	0.002
-683.281	-16.759	0.118	-0.076
-682.266	166.201	-0.024	-0.034
-681.251	118.883	-0.227	0.285
-680.237	-200.000	-0.014	-0.523
-679.222	220.614	0.171	-0.280
-678.208	107.254	-0.287	-0.348
-677.193	-120.282	0.039	0.007
-676.178	376.835	0.120	-0.249
-675.164	377.271	-0.058	-0.121
-674.149	-57.454	-0.051	-0.023
-673.135	800.000	0.018	-0.055
-672.120	-200.000	-0.014	-0.111
-671.105	-105.882	-0.149	0.034
-670.091	-148.736	0.184	0.015
-669.076	-138.934	-0.387	-0.043
-668.062	112.029	0.165	0.203
-667.047	-200.000	-0.052	0.265
-666.032	44.039	0.216	-0.201
-665.018	-200.000	0.063	-0.346
-664.003	-69.891	-0.187	-0.073
-662.989	0.353	-0.211	0.154
-661.974	-100.446	-0.428	0.108
-660.959	108.424	-0.134	-0.163
-659.945	800.000	-0.017	0.056
-658.930	800.000	-0.129	-0.490
-657.916	-120.264	-0.063	0.011
-656.901	40.469	0.078	-0.071
-655.886	-93.942	0.159	0.044
-654.872	800.000	-0.055	-0.174
-653.857	-31.109	0.488	-0.280
-652.843	-130.372	0.110	-0.015
-651.828	-124.290	0.443	0.070
-650.814	52.515	-0.226	0.220
-649.799	800.000	0.058	0.173
-648.784	-200.000	0.007	-0.239
-647.770	-200.000	0.017	-0.123
-646.755	9.437	0.259	0.200
-645.741	-5.422	-0.195	-0.136
-644.726	-149.149	-0.415	0.034
-643.711	-200.000	-0.004	-0.074
-642.697	129.513	-0.213	0.277
-641.682	-55.493	-0.362	-0.165
-640.668	800.000	-0.057	-0.251
-639.653	800.000	0.071	-0.237
-638.638	-200.000	-0.044	0.355
-637.624	800.000	0.034	0.128
-636.609	-200.000	0.028	0.175
-635.595	800.000	-0.070	-0.210
-634.580	-95.213	0.421	-0.116
-633.565	-200.000	-0.006	-0.051
-632.551	123.147	0.091	-0.115
-631.536	-135.719	-0.093	-0.011
-630.522	273.863	-0.060	-0.108
-629.507	90.939	0.228	-0.260
-628.492	-65.731	0.184	-0.075
-627.478	-200.000	-0.009	0.305
-626.463	-64.681	-0.195	-0.080
-625.449	-200.000	-0.001	0.358
-624.434	-0.207	-0.188	0.136
-623.419	-27.485	0.150	-0.089
-622.405	-79.217	-0.204	0.071
-621.390	38.862	0.176	0.160
-620.376	-46.006	0.066	0.033
-619.361	-165.530	0.176	0.008
-618.346	-63.114	0.183	0.077
-617.332	267.433	0.100	-0.178
-616.317	-119.483	0.062	0.011
-615.303	232.732	-0.102	0.170
-614.288	800.000	0.050	-0.168
-613.273	166.506	0.179	-0.258
-612.259	-200.000	0.017	-0.402
-611.244	62.518	0.059	0.059
-610.230	-103.957	-0.173	-0.041
-609.215	-151.951	-0.313	-0.023
-608.201	-62.067	-0.257	0.109
-607.186	426.280	-0.072	0.158
-606.171	-85.029	0.307	-0.098
-605.157	-178.067	-0.472	0.011
-604.142	29.970	0.124	-0.107
-603.128	60.830	-0.133	0.135
-602.113	71.304	0.149	-0.157
-601.098	-155.952	0.063	-0.004
-600.084	-200.000	0.016	-0.133
-599.069	-109.830	-0.324	-0.069
-598.055	-200.000	0.012	0.136
-597.040	-200.000	0.006	-0.047
-596.025	800.000	0.077	-0.272
-595.011	-16.645	-0.038	-0.024
-593.996	44.739	-0.172	-0.161
-592.982	800.000	0.034	0.111
-591.967	67.060	0.053	-0.055
-590.952	104.639	-0.187	-0.224
-589.938	-200.000	0.008	0.123
-588.923	161.507	0.146	0.207
-587.909	741.926	-0.051	-0.140
-586.894	-22.904	-0.210	0.129
-585.879	-76.773	0.351	-0.125
-584.865	-44.366	-0.157	-0.080
-583.850	-83.637	-0.142	-0.046
-582.836	467.207	0.092	-0.209
-581.821	-200.000	0.013	-0.185
-580.806	-67.489	-0.410	0.163
-579.792	-200.000	-0.044	-0.313
-578.777	255.304	0.189	-0.328
-577.763	221.298	-0.138	-0.225
-576.748	-137.573	-0.201	-0.023
-575.733	-60.275	0.169	0.073
-574.719	-200.000	-0.015	-0.134
-573.704	646.198	0.044	0.113
-572.690	800.000	-0.061	-0.212
-571.675	524.218	-0.085	-0.203
-570.661	202.893	-0.186	-0.292
-569.646	71.219	-0.359	0.378
-568.631	94.588	0.157	0.181
-567.617	27.906	0.103	-0.088
-566.602	-131.288	-0.273	-0.037
-565.588	405.287	0.141	0.302
-564.573	800.000	0.099	0.361
-563.558	84.630	0.182	-0.202
-562.544	13.141	0.115	-0.090
-561.529	-104.644	-0.057	-0.013
-560.515	28.020	0.190	0.163
-559.500	-24.602	-0.055	0.033
-558.485	-176.102	-0.259	0.007
-557.471	58.821	-0.199	-0.198
-556.456	800.000	-0.006	0.021
-555.442	375.227	0.070	0.144
-554.427	188.922	0.056	0.085
-553.412	-53.880	0.193	0.089
-552.398	800.000	-0.187	0.530
-551.383	800.000	-0.133	0.471
-550.369	43.534	0.112	-0.104
-549.354	569.546	-0.044	-0.109
-548.339	-77.821	-0.447	0.157
-547.325	256.559	-0.094	-0.165
-546.310	-81.393	0.321	-0.107
-545.296	-99.470	0.113	-0.029
-544.281	474.086	0.249	0.570
-543.266	71.747	0.314	0.331
-542.252	-200.000	0.038	-0.307
-541.237	300.833	0.122	0.229
-540.223	-71.812	0.375	0.142
-539.208	-103.417	0.145	-0.035
-538.193	-30.902	0.258	0.148
-537.179	50.252	-0.316	0.303
-536.164	800.000	0.094	0.377
-535.150	-84.967	-0.284	-0.090
-534.135	800.000	-0.069	0.230
-533.121	82.333	0.110	0.121
-532.106	-141.533	-0.168	0.017
-531.091	202.237	0.209	-0.327
-530.077	100.715	0.138	0.163
-529.062	-200.000	-0.004	-0.260
-528.048	-88.114	-0.235	0.071
-527.033	38.231	-0.349	0.315
-526.018	-86.813	-0.232	-0.072
-525.004	139.554	0.063	0.084
-523.989	-100.851	0.229	0.057
-522.975	-41.327	-0.205	-0.107
-521.960	-63.906	-0.045	0.019
-520.945	193.857	-0.112	0.172
-519.931	390.901	0.040	0.085
-518.916	-92.112	-0.257	0.073
-517.902	-200.000	-0.041	-0.393
-516.887	-34.600	-0.123	-0.068
-515.872	-200.000	0.029	0.196
-514.858	-131.905	0.156	-0.021
-513.843	-3.904	-0.136	0.095
-512.829	-129.358	-0.084	-0.012
-511.814	-200.000	-0.005	0.317
-510.799	-136.329	0.450	0.053
-509.785	-200.000	-0.042	-0.274
-508.770	-58.835	0.292	0.128
-507.756	-113.315	-0.295	0.059
-506.741	229.594	0.183	0.302
-505.726	19.481	-0.077	0.062
-504.712	800.000	-0.140	0.560
-503.697	-39.664	0.164	-0.087
-502.683	-114.606	-0.306	0.059
-501.668	-104.296	0.265	-0.062
-500.653	134.181	-0.037	0.049
-499.639	180.017	0.156	-0.232
-498.624	-200.000	-0.001	-0.133
-497.610	180.163	0.144	0.214
-496.595	-164.307	-0.339	0.016
-495.581	-99.669	0.280	0.071
-494.566	-108.761	-0.040	0.009
-493.551	340.232	-0.074	-0.146
-492.537	66.584	0.164	0.168
-491.522	-22.443	0.216	-0.133
-490.508	-98.762	-0.099	-0.025
-489.493	27.179	0.033	-0.028
-488.478	-72.736	-0.028	0.010
-487.464	-200.000	0.006	-0.209
-486.449	800.000	0.030	0.133
-485.435	-105.418	-0.045	0.010
-484.420	-81.490	0.147	0.049
-483.405	-113.153	-0.169	0.034
-482.391	-60.282	-0.158	-0.068
-481.376	-50.030	-0.172	-0.083
-480.362	78.724	0.166	-0.180
-479.347	614.130	-0.095	0.240
-478.332	244.108	0.093	0.158
-477.318	-78.191	0.174	0.061
-476.303	446.182	0.033	-0.073
-475.289	-200.000	-0.007	0.259
-474.274	-200.000	-0.033	-0.152
-473.259	-69.323	0.255	-0.099
-472.245	266.020	0.130	0.230
-471.230	-164.955	-0.176	0.008
-470.216	-200.000	0.001	-0.207
-469.201	-138.321	0.201	0.022
-468.186	-148.466	-0.155	0.013
-467.172	18.714	-0.141	0.114
-466.157	-21.266	-0.222	0.137
-465.143	596.558	-0.075	0.188
-464.128	86.815	0.108	0.120
-463.113	-124.368	0.372	-0.059
-462.099	377.044	-0.019	-0.039
-461.084	36.675	0.240	-0.215
-460.070	609.232	-0.139	-0.350
-459.055	351.331	-0.104	-0.207
-458.040	-55.745	0.217	0.098
-457.026	369.172	-0.018	0.037
-456.011	-134.935	0.368	0.045
-454.997	-104.109	0.047	-0.011
-453.982	800.000	-0.040	0.124
-452.968	-200.000	0.012	-0.114
-451.953	16.137	-0.163	0.130
-450.938	-54.830	0.240	0.109
-449.924	-200.000	0.034	0.269
-448.909	5.694	0.076	-0.057
-447.895	95.838	0.218	0.251
-446.880	800.000	-0.018	0.067
-445.865	315.623	0.040	0.075
-444.851	7.428	-0.157	0.119
-443.836	-200.000	-0.015	0.132
-442.822	-115.876	0.161	-0.030
-441.807	-65.359	0.137	0.056
-440.792	311.250	-0.085	0.161
-439.778	-200.000	0.022	-0.112
-438.763	524.300	0.051	-0.120
-437.749	129.816	0.110	-0.142
-436.734	39.631	0.169	-0.153
-435.719	-88.534	-0.021	-0.006
-434.705	-200.000	-0.012	-0.168
-433.690	-45.403	-0.203	0.102
-432.676	-26.789	-0.084	-0.050
-431.661	-141.372	0.187	-0.019
-430.646	118.976	0.092	-0.114
-429.632	-133.073	0.141	-0.018
-428.617	-153.072	-0.315	-0.022
-427.603	-26.461	-0.057	0.034
-426.588	-200.000	-0.005	-0.054
-425.573	242.442	0.085	0.144
-424.559	-142.034	-0.276	0.028
-423.544	800.000	-0.069	0.192
-422.530	-200.000	-0.012	0.310
-421.515	75.725	-0.126	-0.134
-420.500	18.034	0.160	0.129
-419.486	-57.531	-0.136	0.060
-418.471	12.717	-0.157	-0.123
-417.457	41.126	-0.143	-0.130
-416.442	560.739	-0.127	0.308
-415.428	-69.758	-0.237	-0.091
-414.413	-200.000	-0.055	-0.266
-413.398	800.000	0.019	-0.085
-412.384	478.478	-0.155	0.355
-411.369	-35.877	-0.206	0.113
-410.355	353.586	0.118	0.236
-409.340	238.142	-0.115	0.192
-408.325	113.911	-0.133	0.163
-407.311	-200.000	0.030	0.137
-406.296	219.718	-0.029	-0.047
-405.282	268.966	-0.044	0.078
-404.267	-175.022	0.245	-0.007
-403.252	-70.209	0.056	-0.021
-402.238	-82.322	0.329	-0.108
-401.223	-200.000	-0.003	0.247
-400.209	-130.284	-0.300	-0.041
-399.194	111.498	0.036	-0.044
-398.179	-200.000	-0.031	-0.363
-397.165	-200.000	-0.073	-0.353
-396.150	19.760	0.179	0.145
-395.136	88.657	0.202	0.226
-394.121	-117.319	0.210	-0.038
-393.106	-57.313	-0.226	0.100
-392.092	-89.764	-0.393	0.116
-391.077	-25.610	0.431	-0.256
-390.063	-200.000	-0.022	-0.100
-389.048	326.657	-0.058	0.113
-388.033	-7.384	0.178	0.121
-387.019	-136.470	0.258	-0.030
-386.004	67.850	0.152	-0.156
-384.990	-22.324	-0.108	-0.066
-383.975	-144.944	0.146	0.013
-382.960	-139.914	-0.273	-0.029
-381.946	-77.524	0.311	-0.109
-380.931	87.558	0.174	0.194
-379.917	22.763	0.234	-0.193
-378.902	172.034	0.231	0.335
-377.888	-122.689	-0.309	-0.050
-376.873	-95.522	-0.288	0.078
-375.858	-35.711	0.075	-0.041
-374.844	177.759	0.132	0.194
-373.829	79.892	-0.112	-0.121
-372.815	-52.321	-0.326	-0.152
-371.800	800.000	-0.204	-0.727
-370.785	-22.125	0.216	0.132
-369.771	-111.029	-0.443	0.092
-368.756	800.000	-0.117	-0.406
-367.742	-200.000	-0.044	-0.228
-366.727	361.000	0.100	0.202
-365.712	-107.932	-0.331	0.072
-364.698	2.694	0.161	0.118
-363.683	-120.314	0.170	-0.029
-362.669	410.772	-0.041	0.088
-361.654	-200.000	-0.046	-0.262
-360.639	-121.405	-0.124	-0.021
-359.625	-79.829	0.184	-0.062
-358.610	-128.768	0.234	-0.033
-357.596	-5.582	-0.098	-0.068
-356.581	-158.227	-0.171	-0.010
-355.566	132.738	-0.094	-0.122
-354.552	72.485	-0.092	0.096
-353.537	612.164	0.034	0.086
-352.523	-200.000	0.056	0.252
-351.508	-169.800	-0.228	0.008
-350.493	-7.752	0.137	0.093
-349.479	653.666	-0.143	-0.368
-348.464	-16.292	0.092	0.059
-347.450	142.439	0.070	-0.093
-346.435	-94.382	0.371	0.102
-345.420	648.554	-0.049	0.126
-344.406	-37.056	0.138	0.074
-343.391	38.877	0.263	-0.237
-342.377	606.890	-0.117	-0.295
-341.362	-200.000	-0.034	-0.189
-340.348	-200.000	-0.002	0.069
-339.333	-200.000	-0.026	-0.225
-338.318	205.257	0.178	-0.278
-337.304	-200.000	-0.015	0.135
-336.289	194.798	-0.186	-0.283
-335.275	-200.000	-0.017	-0.243
-334.260	800.000	-0.156	-0.484
-333.245	106.428	0.054	0.065
-332.231	-45.998	0.350	0.173
-331.216	66.866	0.101	0.103
-330.202	583.347	-0.113	0.279
-329.187	81.481	-0.254	0.276
-328.172	298.673	-0.058	0.106
-327.158	-200.000	-0.027	0.219
-326.143	-200.000	-0.043	-0.315
-325.129	30.492	-0.083	0.072
-324.114	-100.003	-0.402	-0.101
-323.099	-200.000	-0.054	-0.413
-322.085	673.865	0.051	-0.133
-321.070	312.755	-0.118	-0.222
-320.056	-200.000	-0.003	-0.047
-319.041	5.177	0.277	0.205
-318.026	-45.328	-0.075	0.037
-317.012	-59.738	0.401	-0.173
-315.997	-27.977	-0.074	-0.043
-314.983	-200.000	-0.062	-0.288
-313.968	-200.000	-0.010	0.170
-312.953	197.912	-0.088	-0.135
-311.939	-59.189	-0.461	-0.200
-310.924	71.421	0.228	-0.238
-309.910	65.217	-0.127	0.129
-308.895	-48.043	-0.069	0.033
-307.880	-118.489	0.442	0.079
-306.866	-200.000	0.018	0.479
-305.851	-50.175	0.078	0.037
-304.837	391.654	-0.051	0.105
-303.822	-83.429	-0.250	0.080
-302.807	-200.000	0.016	0.177
-301.793	-19.897	0.157	-0.097
-300.778	-122.260	-0.190	-0.031
-299.764	-54.755	-0.112	-0.051
-298.749	800.000	-0.028	0.085
-297.735	135.049	0.118	0.154
-296.720	42.761	-0.019	0.017
-295.705	800.000	-0.103	0.307
-294.691	739.889	0.011	0.030
-293.676	800.000	-0.093	-0.328
-292.662	65.811	-0.335	-0.341
-291.647	-37.028	0.085	0.046
-290.632	-200.000	0.022	0.104
-289.618	-73.618	-0.245	0.090
-288.603	51.368	-0.296	-0.282
-287.589	-25.631	0.213	0.126
-286.574	-200.000	0.036	0.285
-285.559	-23.890	0.187	0.113
-284.545	-96.096	0.224	-0.060
-283.530	-77.054	-0.272	-0.095
-282.516	-64.363	-0.213	0.087
-281.501	-171.841	0.107	-0.004
-280.486	467.601	0.098	0.220
-279.472	372.027	-0.104	-0.211
-278.457	-0.141	-0.070	0.050
-277.443	-200.000	0.005	0.304
-276.428	-105.291	0.183	0.042
-275.413	-200.000	0.008	-0.083
-274.399	-200.000	-0.015	-0.074
-273.384	800.000	-0.031	0.099
-272.370	-162.731	-0.207	0.010
-271.355	-200.000	0.012	-0.148
-270.340	-200.000	0.001	-0.246
-269.326	-53.486	-0.153	-0.070
-268.311	800.000	0.093	-0.260
-267.297	372.474	-0.127	-0.258
-266.282	150.861	0.124	-0.169
-265.267	99.723	0.106	-0.123
-264.253	-200.000	0.005	-0.105
-263.238	0.385	0.107	0.077
-262.224	-116.585	0.156	0.029
-261.209	141.496	0.067	-0.089
-260.195	-35.615	0.079	0.043
-259.180	111.935	0.075	0.090
-258.165	-14.260	-0.058	-0.037
-257.151	83.840	0.237	-0.259
-256.136	-132.056	0.166	0.022
-255.122	-78.112	-0.257	-0.089
-254.107	-23.505	-0.038	0.023
-253.092	-157.076	-0.230	-0.014
-252.078	-9.310	-0.224	0.150
-251.063	800.000	-0.099	-0.415
-250.049	-200.000	-0.020	-0.093
-249.034	-200.000	0.001	-0.251
-248.019	23.777	0.099	0.081
-247.005	800.000	0.038	0.135
-245.990	-30.242	-0.205	0.117
-244.976	234.591	0.015	0.026
-243.961	16.279	-0.228	-0.180
-242.946	-200.000	-0.057	-0.427
-241.932	269.028	0.099	0.175
-240.917	160.812	-0.136	-0.190
-239.903	29.628	0.105	-0.089
-238.888	-200.000	0.036	-0.545
-237.873	0.309	0.161	0.115
-236.859	-124.837	-0.065	0.010
-235.844	569.950	0.113	0.276
-234.830	33.040	0.187	0.162
-233.815	152.097	-0.164	0.224
-232.800	-200.000	-0.029	0.164
-231.786	6.235	-0.196	-0.146
-230.771	-25.117	0.486	0.288
-229.757	21.573	0.144	-0.118
-228.742	195.869	-0.083	0.127
-227.727	-145.247	-0.302	0.027
-226.713	-117.040	0.104	-0.019
-225.698	-200.000	0.041	0.196
-224.684	677.789	-0.083	0.215
-223.669	-200.000	-0.050	0.229
-222.655	800.000	-0.040	-0.137
-221.640	13.270	0.179	0.139
-220.625	-16.955	0.256	0.162
-219.611	-11.673	-0.152	-0.100
-218.596	-186.354	0.023	0.000
-217.582	126.446	0.118	0.150
-216.567	-52.552	0.053	0.025
-215.552	100.565	0.085	0.099
-214.538	32.847	-0.191	0.165
-213.523	219.932	0.101	-0.162
-212.509	-200.000	-0.008	-0.245
-211.494	-37.448	0.189	0.101
-210.479	-126.606	-0.080	0.012
-209.465	800.000	0.089	0.299
-208.450	252.292	-0.131	0.223
-207.436	87.918	0.164	-0.182
-206.421	117.065	-0.216	-0.265
-205.406	-200.000	0.022	0.111
-204.392	31.087	-0.187	0.160
-203.377	-76.114	-0.231	0.082
-202.363	-30.406	-0.318	0.180
-201.348	800.000	0.103	0.374
-200.333	243.172	0.171	-0.287
-199.319	238.776	0.041	0.067
-198.304	366.227	-0.137	0.276
-197.290	-200.000	0.063	-0.279
-196.275	-5.865	0.402	-0.275
-195.260	268.656	0.106	-0.186
-194.246	-43.361	0.096	-0.048
-193.231	800.000	-0.052	-0.190
-192.217	800.000	-0.075	0.211
-191.202	-200.000	0.016	0.123
-190.187	-136.273	-0.242	0.028
-189.173	-135.471	0.470	0.056
-188.158	800.000	0.056	0.166
-187.144	-19.088	-0.100	-0.062
-186.129	-46.687	-0.492	-0.241
-185.114	800.000	0.083	0.344
-184.100	-200.000	-0.023	0.112
-183.085	220.091	0.217	-0.348
-182.071	-23.330	0.096	-0.058
-181.056	15.288	0.094	0.074
-180.042	-78.936	0.328	-0.112
-179.027	-133.834	0.152	0.019
-178.012	-200.000	0.003	0.143
-176.998	173.285	-0.247	0.356
-175.983	-200.000	0.019	0.376
-174.969	651.392	0.124	-0.318
-173.954	89.320	0.202	0.225
-172.939	-39.692	0.283	-0.148
-171.925	-200.000	-0.054	-0.295
-170.910	299.442	-0.239	-0.440
-169.896	-58.479	0.205	-0.089
-168.881	-152.720	0.183	0.013
-167.866	-41.371	0.190	-0.098
-166.852	217.071	0.234	0.372
-165.837	-200.000	0.031	-0.395
-164.823	641.962	-0.053	0.135
-163.808	31.378	-0.136	-0.117
-162.793	-200.000	-0.043	0.296
-161.779	-78.175	0.152	-0.052
-160.764	800.000	-0.071	0.232
-159.750	19.016	-0.069	-0.055
-158.735	394.184	0.073	0.153
-157.720	-142.337	-0.249	0.025
-156.706	122.495	-0.196	-0.245
-155.691	800.000	0.201	-0.612
-154.677	-200.000	-0.026	-0.236
-153.662	14.602	0.117	0.091
-152.647	-165.084	-0.086	0.004
-151.633	-34.802	0.214	-0.117
-150.618	751.389	-0.151	0.406
-149.604	-77.516	-0.297	-0.103
-148.589	48.838	0.148	-0.139
-147.574	-46.229	-0.111	0.055
-146.560	14.092	0.297	-0.231
-145.545	69.643	-0.169	0.174
-144.531	-200.000	-0.044	0.326
-143.516	-13.673	-0.093	0.060
-142.502	-40.954	-0.026	0.013
-141.487	44.374	-0.171	0.157
-140.472	89.125	0.179	0.198
-139.458	-121.930	-0.276	0.045
-138.443	178.897	0.141	0.205
-137.429	648.717	-0.108	0.277
-136.414	-200.000	0.016	0.297
-135.399	-200.000	0.032	0.146
-134.385	-28.545	-0.215	0.124
-133.370	-103.524	0.281	0.066
-132.356	585.280	-0.057	0.140
-131.341	721.280	-0.078	-0.207
-130.326	-84.747	-0.131	-0.041
-129.312	-124.867	-0.070	-0.011
-128.297	117.877	0.109	0.134
-127.283	100.858	0.100	0.116
-126.268	800.000	0.072	-0.313
-125.253	800.000	0.066	0.258
-124.239	73.933	0.046	0.048
-123.224	-133.209	-0.166	-0.021
-122.210	68.702	0.033	0.034
-121.195	-81.500	-0.142	0.046
