DTS Sentinel unit serial number:	SN413079Multiplexer serial number:	ORYXHardware model number:	OX4-SRSoftware version number:	ORYX F/W v4.00 Oryx Data Collector v3.7.2.0data status	okinstallation	princeton_trtdifferential loss correction	single-endedforward channel	channel 4reverse channel	N/Adate	2019/09/10time	20:55:10forward acquisition time	60.00reverse acquisition time	0.00gamma	496.2192k internal	0.2313k external	0.2313temperature offset calibration	0.9945default loss term (dB/km)	0.3790temperature slope calibration	1.0000multiplexer offset coefficient	1.0000multiplexer slope coefficient	1.0000fibre end	0.00T internal ref (°C)	31.69T ext. ref 1 (°C)	-0.31T ext. ref 2 (°C)	25.09length (m)	temperature (°C)	Stokes	anti-Stokes-747.200	-200.000	0.033	-0.173
-746.185	-200.000	-0.001	0.073
-745.171	-127.558	-0.515	-0.076
-744.156	-200.000	-0.068	0.398
-743.142	-200.000	0.010	-0.100
-742.127	109.699	-0.208	0.253
-741.112	-200.000	0.029	0.262
-740.098	-86.049	-0.389	0.122
-739.083	-83.677	-0.167	-0.054
-738.069	47.722	-0.379	0.358
-737.054	-48.350	-0.270	0.132
-736.039	555.866	-0.047	-0.115
-735.025	671.504	0.019	-0.049
-734.010	-193.812	-0.181	0.002
-732.996	81.692	-0.099	-0.109
-731.981	-74.385	-0.197	0.072
-730.966	354.835	-0.082	-0.165
-729.952	156.787	-0.115	-0.161
-728.937	-25.303	-0.222	-0.133
-727.923	479.228	0.074	0.169
-726.908	-116.152	-0.071	-0.013
-725.894	349.693	0.104	-0.209
-724.879	57.936	-0.134	-0.133
-723.864	-200.000	0.009	-0.282
-722.850	-92.767	0.313	-0.089
-721.835	738.898	-0.093	0.253
-720.821	-200.000	-0.196	0.001
-719.806	-109.521	-0.205	0.044
-718.791	-200.000	-0.014	0.149
-717.777	-36.773	-0.103	0.056
-716.762	-96.727	0.157	0.042
-715.748	-182.600	-0.428	0.008
-714.733	800.000	-0.106	-0.397
-713.718	153.194	0.265	-0.367
-712.704	88.229	0.044	-0.050
-711.689	14.184	-0.109	0.086
-710.675	-93.879	0.313	-0.087
-709.660	28.450	0.146	-0.125
-708.645	-112.154	-0.017	-0.003
-707.631	-93.237	0.256	-0.072
-706.616	-200.000	0.013	0.234
-705.602	-99.856	-0.254	0.064
-704.587	-60.138	0.148	0.064
-703.572	205.931	-0.154	0.242
-702.558	-200.000	0.002	-0.034
-701.543	-123.737	0.383	0.061
-700.529	229.557	-0.164	0.270
-699.514	-103.292	0.061	-0.015
-698.499	-156.185	-0.195	-0.012
-697.485	170.786	-0.008	-0.011
-696.470	-200.000	0.000	-0.122
-695.456	800.000	0.032	0.091
-694.441	-19.922	0.303	-0.189
-693.426	-20.615	-0.126	0.078
-692.412	415.512	0.064	-0.139
-691.397	-200.000	0.020	-0.116
-690.383	227.656	0.068	-0.111
-689.368	222.637	-0.042	-0.069
-688.354	-77.466	0.153	-0.054
-687.339	114.475	0.175	-0.215
-686.324	-82.059	-0.237	-0.078
-685.310	-200.000	-0.021	-0.106
-684.295	-146.442	-0.122	0.011
-683.281	-80.141	0.268	0.091
-682.266	40.599	-0.125	0.114
-681.251	82.468	0.193	-0.212
-680.237	318.651	0.060	-0.114
-679.222	238.151	0.130	-0.218
-678.208	-200.000	-0.040	-0.404
-677.193	110.152	0.229	-0.279
-676.178	355.334	0.053	0.106
-675.164	-109.965	0.292	-0.062
-674.149	-83.017	-0.121	-0.039
-673.135	436.629	0.074	0.163
-672.120	49.401	0.330	0.314
-671.105	-99.635	0.181	-0.046
-670.091	-36.088	0.106	-0.058
-669.076	800.000	0.038	-0.119
-668.062	-171.984	0.240	-0.008
-667.047	-104.534	-0.083	0.019
-666.032	-135.664	-0.487	-0.058
-665.018	-12.958	0.147	0.096
-664.003	135.593	-0.183	0.241
-662.989	-89.052	-0.033	0.010
-661.974	-200.000	-0.047	-0.248
-660.959	-200.000	-0.031	-0.142
-659.945	-200.000	0.003	-0.046
-658.930	165.724	-0.115	-0.165
-657.916	26.485	0.078	-0.066
-656.901	-18.636	0.267	-0.168
-655.886	-73.893	0.167	0.061
-654.872	-200.000	-0.024	-0.185
-653.857	495.265	0.053	0.122
-652.843	-35.542	-0.138	0.076
-651.828	10.445	0.154	-0.119
-650.814	220.566	0.108	0.175
-649.799	32.508	-0.107	-0.093
-648.784	-45.388	-0.176	-0.088
-647.770	-200.000	-0.037	-0.266
-646.755	-27.435	0.183	0.108
-645.741	-99.344	-0.471	-0.120
-644.726	546.476	0.149	-0.359
-643.711	-200.000	-0.013	0.075
-642.697	-36.708	0.139	0.076
-641.682	40.246	0.274	0.249
-640.668	165.241	0.052	-0.075
-639.653	-16.127	0.053	-0.034
-638.638	800.000	0.034	0.128
-637.624	496.845	-0.134	-0.312
-636.609	583.337	0.060	-0.149
-635.595	202.102	0.123	0.191
-634.580	-48.184	-0.365	0.178
-633.565	-200.000	0.041	-0.293
-632.551	-200.000	0.026	-0.260
-631.536	383.507	-0.003	-0.006
-630.522	507.964	-0.074	-0.172
-629.507	-66.553	-0.114	0.046
-628.492	-200.000	-0.004	0.246
-627.478	522.783	-0.038	-0.090
-626.463	148.274	-0.187	-0.255
-625.449	109.811	-0.294	-0.356
-624.434	195.787	-0.106	0.163
-623.419	800.000	0.053	0.174
-622.405	-200.000	-0.003	0.168
-621.390	-200.000	-0.016	-0.243
-620.376	-54.881	-0.090	-0.041
-619.361	87.675	0.095	0.106
-618.346	150.011	-0.088	0.121
-617.332	-1.580	-0.221	-0.157
-616.317	19.745	0.094	0.077
-615.303	108.309	0.071	-0.085
-614.288	159.058	-0.113	0.159
-613.273	152.738	0.119	0.164
-612.259	800.000	-0.050	-0.211
-611.244	-176.482	0.040	0.001
-610.230	-200.000	0.035	-0.160
-609.215	-55.165	-0.246	-0.111
-608.201	-138.899	-0.195	0.021
-607.186	717.099	0.121	-0.325
-606.171	11.137	-0.211	-0.163
-605.157	-84.726	-0.240	-0.076
-604.142	-200.000	0.014	-0.178
-603.128	140.474	-0.106	-0.142
-602.113	293.292	0.116	-0.213
-601.098	57.521	-0.185	-0.182
-600.084	129.423	-0.093	0.119
-599.069	-200.000	0.054	0.275
-598.055	24.175	0.207	0.172
-597.040	-87.829	0.251	0.076
-596.025	-107.512	-0.107	-0.024
-595.011	136.204	-0.274	-0.360
-593.996	-200.000	0.013	-0.128
-592.982	134.375	0.090	0.117
-591.967	54.878	0.306	0.297
-590.952	215.160	0.144	-0.231
-589.938	-200.000	-0.041	0.206
-588.923	4.206	-0.130	-0.096
-587.909	15.906	0.180	0.143
-586.894	-23.463	-0.095	0.057
-585.879	10.529	-0.066	0.051
-584.865	-96.712	0.499	0.132
-583.850	142.993	0.088	-0.119
-582.836	314.986	0.151	-0.287
-581.821	32.626	0.113	0.099
-580.806	800.000	0.045	-0.184
-579.792	800.000	-0.065	-0.210
-578.777	-100.909	-0.219	-0.054
-577.763	358.557	0.086	-0.173
-576.748	-113.500	-0.059	0.012
-575.733	-42.577	-0.241	-0.123
-574.719	144.829	-0.078	-0.105
-573.704	65.992	0.101	-0.103
-572.690	111.680	-0.059	0.072
-571.675	-200.000	0.022	-0.105
-570.661	86.853	-0.104	0.116
-569.646	3.602	-0.252	-0.185
-568.631	-103.689	-0.134	0.032
-567.617	-200.000	-0.014	0.169
-566.602	417.043	-0.089	-0.192
-565.588	-0.727	-0.204	0.146
-564.573	149.805	0.187	0.256
-563.558	342.228	-0.116	0.229
-562.544	-135.139	-0.193	0.023
-561.529	800.000	-0.010	-0.033
-560.515	-35.702	0.135	-0.074
-559.500	-117.478	-0.088	0.016
-558.485	188.052	-0.122	0.184
-557.471	-143.698	-0.338	0.032
-556.456	39.107	0.172	0.155
-555.442	-89.306	0.448	-0.133
-554.427	-37.627	0.120	0.064
-553.412	-44.325	-0.177	0.089
-552.398	407.954	-0.168	-0.357
-551.383	26.104	0.274	-0.230
-550.369	46.465	0.275	-0.256
-549.354	179.784	-0.126	-0.185
-548.339	-108.962	-0.284	-0.061
-547.325	-200.000	0.009	0.090
-546.310	-55.779	0.060	0.027
-545.296	-200.000	0.020	0.287
-544.281	-200.000	0.017	-0.138
-543.266	-165.047	0.201	-0.009
-542.252	-200.000	-0.038	0.276
-541.237	649.985	0.119	0.305
-540.223	193.569	-0.130	-0.197
-539.208	-28.472	-0.254	0.147
-538.193	-125.948	-0.176	0.027
-537.179	-32.425	0.199	0.112
-536.164	329.868	0.061	-0.118
-535.150	-125.311	0.156	0.024
-534.135	-60.032	0.205	0.088
-533.121	-70.192	0.177	0.068
-532.106	800.000	-0.040	0.169
-531.091	800.000	0.060	-0.194
-530.077	-29.380	-0.153	0.088
-529.062	-200.000	-0.049	0.324
-528.048	-108.810	0.112	-0.024
-527.033	104.554	0.244	-0.288
-526.018	-152.067	0.116	-0.008
-525.004	170.454	-0.178	-0.256
-523.989	42.709	-0.333	-0.305
-522.975	-101.442	-0.254	-0.062
-521.960	-9.823	-0.391	-0.262
-520.945	-200.000	0.010	-0.162
-519.931	-104.181	0.036	0.008
-518.916	-167.817	-0.095	0.004
-517.902	-22.941	-0.246	-0.149
-516.887	-121.604	-0.338	0.056
-515.872	0.380	-0.081	0.058
-514.858	29.940	-0.084	0.072
-513.843	236.597	0.239	0.397
-512.829	-139.922	0.222	0.024
-511.814	2.493	-0.176	-0.128
-510.799	-130.585	0.351	-0.048
-509.785	215.782	0.099	0.157
-508.770	-8.285	-0.266	-0.180
-507.756	-30.315	0.263	-0.150
-506.741	-3.845	0.133	0.093
-505.726	-24.662	-0.202	0.121
-504.712	-200.000	-0.038	0.230
-503.697	406.244	-0.132	0.280
-502.683	0.579	0.026	-0.019
-501.668	745.330	-0.158	-0.427
-500.653	45.145	0.086	-0.080
-499.639	406.491	-0.182	-0.386
-498.624	166.548	0.159	0.226
-497.610	-72.095	0.090	0.033
-496.595	190.634	-0.106	-0.160
-495.581	313.937	0.158	-0.299
-494.566	-162.349	-0.278	-0.014
-493.551	-128.695	-0.131	0.019
-492.537	70.948	-0.051	0.053
-491.522	-58.301	-0.082	-0.036
-490.508	-200.000	0.009	0.104
-489.493	-125.606	0.198	-0.030
-488.478	-98.814	0.123	0.031
-487.464	-200.000	-0.018	0.092
-486.449	159.465	-0.145	0.203
-485.435	-112.101	0.083	-0.017
-484.420	-57.229	-0.203	0.090
-483.405	120.760	0.295	0.368
-482.391	-100.468	0.047	0.012
-481.376	-92.017	0.512	0.146
-480.362	-200.000	0.008	0.042
-479.347	-200.000	-0.014	0.131
-478.332	-200.000	0.034	0.157
-477.318	800.000	-0.098	-0.289
-476.303	383.673	-0.008	0.017
-475.289	-200.000	0.008	0.090
-474.274	-88.506	0.341	-0.102
-473.259	-200.000	0.010	-0.099
-472.245	-116.520	0.366	0.068
-471.230	-200.000	-0.005	0.168
-470.216	93.539	0.187	0.213
-469.201	800.000	0.097	-0.311
-468.186	-122.097	-0.154	-0.025
-467.172	-76.098	0.066	0.023
-466.157	13.186	0.092	0.071
-465.143	-140.844	0.186	0.019
-464.128	-15.298	-0.244	-0.157
-463.113	800.000	0.146	0.492
-462.099	6.671	0.184	0.137
-461.084	-8.812	0.444	-0.299
-460.070	551.506	-0.046	0.111
-459.055	-112.466	-0.088	-0.018
-458.040	-51.345	-0.198	-0.093
-457.026	-44.165	0.053	-0.027
-456.011	541.903	-0.025	-0.060
-454.997	-99.931	0.246	0.062
-453.982	213.782	-0.166	0.264
-452.968	800.000	-0.071	0.242
-451.953	-200.000	-0.007	-0.176
-450.938	103.995	0.218	-0.258
-449.924	800.000	-0.039	0.121
-448.909	-157.274	0.279	-0.017
-447.895	3.872	-0.377	-0.276
-446.880	-110.207	0.418	0.087
-445.865	227.395	0.067	0.109
-444.851	245.931	0.124	0.209
-443.836	-4.104	-0.180	0.125
-442.822	-73.953	0.192	0.070
-441.807	160.281	0.119	0.166
-440.792	-125.800	0.255	-0.039
-439.778	222.130	-0.145	0.233
-438.763	224.809	0.082	0.134
-437.749	-60.665	-0.360	0.153
-436.734	-7.229	-0.247	-0.168
-435.719	-200.000	0.274	0.000
-434.705	-21.340	0.055	-0.033
-433.690	-39.483	0.113	0.059
-432.676	47.446	-0.139	-0.130
-431.661	-159.687	0.326	-0.018
-430.646	-200.000	0.028	-0.223
-429.632	89.064	-0.048	0.053
-428.617	54.653	-0.141	0.136
-427.603	-200.000	0.037	-0.234
-426.588	-105.233	-0.221	-0.051
-425.573	275.403	0.081	0.144
-424.559	-130.090	0.202	0.028
-423.544	800.000	0.052	-0.200
-422.530	-131.931	0.408	-0.053
-421.515	579.788	0.059	-0.145
-420.500	-48.656	0.193	0.093
-419.486	3.707	-0.138	-0.101
-418.471	800.000	0.015	-0.061
-417.457	12.908	-0.223	0.172
-416.442	391.608	-0.064	0.133
-415.428	597.290	0.074	0.184
-414.413	800.000	0.083	0.298
-413.398	91.674	-0.137	0.154
-412.384	532.419	0.056	-0.133
-411.369	-47.988	0.125	0.061
-410.355	102.573	0.135	0.159
-409.340	359.579	-0.181	0.362
-408.325	-200.000	0.017	0.181
-407.311	712.347	0.165	-0.437
-406.296	-87.311	-0.177	-0.054
-405.282	-199.535	-0.269	0.001
-404.267	-40.505	-0.298	-0.155
-403.252	-200.000	0.006	0.341
-402.238	-63.779	0.287	-0.118
-401.223	-200.000	-0.017	-0.189
-400.209	-0.558	0.244	-0.173
-399.194	-55.132	-0.208	0.094
-398.179	-200.000	0.048	0.220
-397.165	-76.930	0.107	-0.037
-396.150	-200.000	0.043	-0.280
-395.136	-200.000	-0.030	-0.332
-394.121	-83.764	-0.137	0.044
-393.106	800.000	0.077	-0.213
-392.092	-200.000	0.071	-0.325
-391.077	787.561	-0.082	-0.226
-390.063	35.273	-0.226	0.198
-389.048	-162.730	0.213	0.010
-388.033	779.962	-0.024	-0.067
-387.019	248.467	-0.305	0.516
-386.004	-3.035	0.141	-0.099
-384.990	270.802	-0.168	0.295
-383.975	-69.304	-0.333	0.128
-382.960	25.328	0.112	0.093
-381.946	362.927	-0.064	-0.129
-380.931	-127.832	-0.217	0.031
-379.917	126.228	-0.124	-0.156
-378.902	89.450	0.175	-0.196
-377.888	-118.479	0.349	-0.062
-376.873	-47.690	-0.459	-0.223
-375.858	778.040	0.117	-0.319
-374.844	393.547	-0.089	-0.186
-373.829	-167.307	-0.228	-0.009
-372.815	-96.113	0.114	-0.030
-371.800	139.575	0.138	0.182
-370.785	-176.709	0.101	0.003
-369.771	13.356	-0.443	-0.343
-368.756	129.018	-0.073	0.093
-367.742	800.000	0.064	-0.208
-366.727	4.042	-0.415	-0.303
-365.712	-97.983	-0.269	0.069
-364.698	-158.353	-0.215	0.013
-363.683	-200.000	-0.023	-0.333
-362.669	-106.601	0.345	-0.077
-361.654	15.147	-0.274	0.215
-360.639	-45.372	0.317	0.157
-359.625	4.324	0.073	0.054
-358.610	37.514	0.150	-0.133
-357.596	800.000	0.017	0.055
-356.581	58.963	0.051	-0.050
-355.566	-90.114	0.212	0.062
-354.552	-14.156	0.111	-0.072
-353.537	-96.750	-0.073	-0.019
-352.523	14.036	-0.311	-0.242
-351.508	-104.012	-0.293	-0.068
-350.493	177.810	-0.210	0.306
-349.479	-27.402	-0.218	0.126
-348.464	-114.050	-0.422	-0.082
-347.450	-200.000	0.077	-0.431
-346.435	800.000	0.081	-0.333
-345.420	92.764	0.091	-0.103
-344.406	66.084	-0.280	0.284
-343.391	-33.571	0.305	0.168
-342.377	-40.936	0.157	-0.081
-341.362	121.806	-0.159	-0.198
-340.348	114.478	-0.209	-0.255
-339.333	-200.000	-0.036	0.308
-338.318	800.000	0.059	0.236
-337.304	65.534	-0.152	-0.153
-336.289	-200.000	-0.009	-0.141
-335.275	-112.287	-0.314	0.063
-334.260	-34.707	-0.133	0.073
-333.245	-101.780	-0.245	-0.059
-332.231	-200.000	-0.088	-0.470
-331.216	-164.040	-0.093	-0.004
-330.202	219.140	-0.228	0.364
-329.187	-200.000	-0.035	-0.200
-328.172	-156.779	-0.329	0.020
-327.158	-108.801	-0.087	0.019
-326.143	188.980	-0.075	-0.112
-325.129	238.395	0.266	0.440
-324.114	-200.000	0.000	0.054
-323.099	12.117	-0.274	-0.210
-322.085	130.413	0.158	-0.202
-321.070	49.594	-0.067	0.063
-320.056	254.365	0.145	-0.247
-319.041	-23.751	-0.113	0.067
-318.026	89.223	0.125	-0.139
-317.012	-128.503	-0.069	0.010
-315.997	99.035	0.167	-0.192
-314.983	-43.556	-0.242	-0.122
-313.968	-53.350	-0.087	0.040
-312.953	-32.582	-0.207	0.115
-311.939	-200.000	-0.055	0.298
-310.924	-140.477	-0.300	0.031
-309.910	41.951	-0.144	-0.131
-308.895	44.511	-0.098	0.090
-307.880	-70.110	0.121	-0.046
-306.866	676.602	-0.096	-0.249
-305.851	209.409	-0.130	-0.203
-304.837	31.652	-0.140	-0.120
-303.822	-200.000	0.037	-0.165
-302.807	-79.554	0.127	-0.043
-301.793	-200.000	-0.003	-0.124
-300.778	-90.574	-0.140	0.040
-299.764	27.941	-0.107	-0.090
-298.749	-104.720	-0.289	-0.066
-297.735	-19.236	-0.206	-0.127
-296.720	26.646	0.111	-0.092
-295.705	251.132	-0.128	-0.217
-294.691	-46.187	0.177	-0.087
-293.676	-90.792	-0.174	0.050
-292.662	-200.000	0.005	0.204
-291.647	95.238	-0.148	-0.168
-290.632	-84.241	-0.113	0.036
-289.618	8.600	0.113	-0.085
-288.603	-22.290	0.189	-0.114
-287.589	-87.185	0.483	0.146
-286.574	-17.621	0.271	0.170
-285.559	800.000	0.048	0.159
-284.545	302.528	0.234	0.432
-283.530	283.869	-0.073	0.131
-282.516	28.469	-0.199	0.167
-281.501	778.068	0.019	-0.051
-280.486	-200.000	-0.020	0.112
-279.472	489.413	0.042	0.097
-278.457	2.403	0.177	0.127
-277.443	91.523	0.195	-0.219
-276.428	-106.933	0.381	-0.084
-275.413	272.660	0.096	-0.168
-274.399	800.000	0.048	-0.184
-273.384	-200.000	-0.001	-0.362
-272.370	-200.000	0.003	0.168
-271.355	395.437	0.068	-0.142
-270.340	800.000	-0.058	0.239
-269.326	-200.000	0.000	-0.235
-268.311	-161.175	0.154	0.008
-267.297	-2.723	-0.245	-0.171
-266.282	-200.000	0.012	-0.166
-265.267	569.965	0.155	0.376
-264.253	445.507	-0.072	0.157
-263.238	-96.827	0.347	0.091
-262.224	800.000	-0.101	0.333
-261.209	-158.466	0.112	-0.006
-260.195	232.200	-0.105	0.171
-259.180	-96.625	-0.215	-0.056
-258.165	-7.984	-0.174	-0.117
-257.151	-92.391	0.034	-0.010
-256.136	-137.508	-0.264	0.030
-255.122	-117.400	0.131	0.024
-254.107	-45.960	0.222	-0.109
-253.092	800.000	-0.083	0.312
-252.078	146.206	-0.034	-0.045
-251.063	326.327	0.106	0.202
-250.049	-200.000	-0.035	0.327
-249.034	-4.733	0.311	0.213
-248.019	374.319	-0.021	-0.042
-247.005	142.150	-0.087	0.115
-245.990	-200.000	0.020	-0.123
-244.976	800.000	0.145	0.440
-243.961	-200.000	0.646	-0.002
-242.946	251.116	-0.058	-0.098
-241.932	0.187	-0.078	0.055
-240.917	224.725	-0.034	-0.055
-239.903	-200.000	-0.038	0.321
-238.888	-47.815	-0.169	0.081
-237.873	800.000	0.110	0.421
-236.859	88.117	0.075	0.082
-235.844	-46.381	-0.277	-0.135
-234.830	527.214	0.091	-0.213
-233.815	-187.222	0.275	-0.004
-232.800	299.556	-0.183	0.336
-231.786	-45.499	-0.073	0.036
-230.771	573.611	0.080	0.194
-229.757	408.743	0.065	0.137
-228.742	-72.192	0.256	0.094
-227.727	2.542	0.114	-0.082
-226.713	-65.124	-0.075	0.030
-225.698	-127.698	0.235	0.034
-224.684	5.568	-0.081	-0.060
-223.669	-200.000	0.029	0.185
-222.655	-144.131	0.528	-0.049
-221.640	158.203	-0.142	0.196
-220.625	-49.953	0.131	0.062
-219.611	-200.000	-0.008	-0.089
-218.596	-200.000	0.013	-0.096
-217.582	-57.695	-0.113	0.049
-216.567	311.973	-0.020	-0.037
-215.552	-130.790	0.081	-0.011
-214.538	-7.734	0.315	-0.211
-213.523	15.774	0.206	0.161
-212.509	-27.879	0.202	0.116
-211.494	-200.000	-0.043	0.275
-210.479	-53.826	-0.137	0.062
-209.465	-78.782	0.137	0.046
-208.450	64.633	0.382	-0.383
-207.436	-39.930	-0.379	0.196
-206.421	800.000	0.091	0.357
-205.406	-50.235	0.299	0.140
-204.392	-56.043	0.326	-0.144
-203.377	-96.057	-0.050	-0.013
-202.363	458.919	0.048	-0.106
-201.348	-79.686	0.151	0.051
-200.333	800.000	0.075	0.272
-199.319	-78.021	0.125	0.043
-198.304	-183.058	-0.096	0.002
-197.290	-200.000	-0.025	-0.122
-196.275	-200.000	-0.021	-0.183
-195.260	467.380	-0.075	0.166
-194.246	135.222	0.181	-0.234
-193.231	-132.104	0.293	0.038
-192.217	-73.451	0.054	0.019
-191.202	167.521	0.099	-0.140
-190.187	298.630	0.122	0.222
-189.173	290.340	-0.059	-0.106
-188.158	800.000	-0.063	0.186
-187.144	-106.869	-0.114	0.025
-186.129	-200.000	-0.040	0.223
-185.114	226.283	0.159	0.256
-184.100	-200.000	-0.008	0.257
-183.085	-200.000	0.013	0.322
-182.071	-200.000	0.050	-0.279
-181.056	-24.737	-0.194	0.114
-180.042	-111.275	0.222	-0.045
-179.027	-62.790	-0.117	-0.048
-178.012	-118.186	0.144	0.025
-176.998	102.434	-0.257	-0.298
-175.983	119.399	-0.058	-0.071
-174.969	24.532	-0.079	0.065
-173.954	-111.431	-0.038	0.008
-172.939	306.047	-0.060	0.110
-171.925	18.113	-0.172	0.136
-170.910	-95.029	0.171	0.046
-169.896	-46.755	-0.225	-0.109
-168.881	-200.000	0.010	0.391
-167.866	156.660	0.181	0.248
-166.852	507.759	-0.065	0.149
-165.837	106.687	0.155	-0.182
-164.823	-101.013	-0.101	0.024
-163.808	-110.665	0.212	-0.044
-162.793	30.277	-0.165	0.140
-161.779	-35.614	-0.266	-0.143
-160.764	629.046	-0.207	-0.518
-159.750	26.832	0.032	-0.027
-158.735	-200.000	0.010	0.074
-157.720	-24.857	-0.160	-0.094
-156.706	-51.034	0.233	-0.108
-155.691	164.621	0.394	0.550
-154.677	-89.884	0.320	0.093
-153.662	-12.487	-0.210	-0.136
-152.647	332.622	0.132	0.253
-151.633	800.000	-0.028	-0.080
-150.618	116.229	0.101	-0.122
-149.604	122.659	0.215	-0.266
-148.589	-16.959	-0.121	0.075
-147.574	351.128	-0.160	0.314
-146.560	-7.639	-0.058	-0.039
-145.545	-64.575	0.138	0.055
-144.531	-60.936	0.330	-0.138
-143.516	-200.000	0.052	0.400
-142.502	-39.700	0.173	0.089
-141.487	-103.655	0.411	-0.096
-140.472	800.000	0.089	-0.349
-139.458	17.437	0.188	-0.148
-138.443	-200.000	0.025	-0.158
-137.429	-155.135	0.090	0.006
-136.414	-124.011	0.173	-0.027
-135.399	-29.276	-0.366	-0.207
-134.385	78.425	-0.079	-0.083
-133.370	250.000	0.124	-0.208
-132.356	-65.331	0.257	-0.103
-131.341	241.587	0.105	0.174
-130.326	-83.166	-0.146	-0.047
-129.312	134.091	0.116	-0.149
-128.297	-60.960	-0.063	0.026
-127.283	20.072	0.176	0.141
-126.268	0.668	0.349	0.247
-125.253	1.357	0.230	-0.163
-124.239	-28.831	-0.083	0.047
-123.224	272.498	0.137	0.239
-122.210	38.183	0.157	0.138
-121.195	-109.151	-0.152	0.032
