DTS Sentinel unit serial number:	SN413079Multiplexer serial number:	ORYXHardware model number:	OX4-SRSoftware version number:	ORYX F/W v4.00 Oryx Data Collector v3.7.2.0data status	okinstallation	princeton_trtdifferential loss correction	single-endedforward channel	channel 4reverse channel	N/Adate	2019/09/11time	12:31:11forward acquisition time	60.00reverse acquisition time	0.00gamma	496.2192k internal	0.2286k external	0.2286temperature offset calibration	0.9967default loss term (dB/km)	0.3790temperature slope calibration	1.0000multiplexer offset coefficient	1.0000multiplexer slope coefficient	1.0000fibre end	0.00T internal ref (°C)	40.52T ext. ref 1 (°C)	0.22T ext. ref 2 (°C)	37.97length (m)	temperature (°C)	Stokes	anti-Stokes-747.200	640.537	-0.115	-0.300
-746.185	-36.561	-0.169	0.093
-745.171	-34.307	-0.234	0.132
-744.156	-200.000	-0.016	0.288
-743.142	-152.555	-0.066	-0.005
-742.127	40.524	-0.128	0.119
-741.112	-157.569	0.235	-0.014
-740.098	237.751	0.105	-0.178
-739.083	-200.000	0.034	0.532
-738.069	-200.000	0.053	0.587
-737.054	-14.797	-0.284	-0.187
-736.039	800.000	0.058	-0.202
-735.025	212.803	0.108	-0.175
-734.010	89.908	-0.156	-0.179
-732.996	120.778	0.304	-0.387
-731.981	-200.000	0.048	-0.239
-730.966	-90.673	-0.225	-0.067
-729.952	-200.000	-0.006	-0.185
-728.937	574.106	-0.068	0.171
-727.923	44.978	0.118	0.111
-726.908	-200.000	-0.019	-0.108
-725.894	-200.000	0.019	-0.209
-724.879	800.000	-0.068	0.253
-723.864	75.458	-0.249	0.269
-722.850	-200.000	0.010	-0.113
-721.835	290.024	-0.160	-0.297
-720.821	375.537	0.019	-0.040
-719.806	800.000	-0.032	0.133
-718.791	-5.612	-0.041	0.029
-717.777	740.475	-0.055	-0.152
-716.762	-200.000	0.026	0.500
-715.748	-185.125	-0.090	-0.001
-714.733	800.000	-0.015	-0.063
-713.718	6.396	0.120	0.091
-712.704	-93.414	0.136	0.039
-711.689	298.667	-0.057	0.108
-710.675	-144.558	0.046	-0.004
-709.660	3.776	0.439	-0.328
-708.645	268.781	-0.235	-0.422
-707.631	60.457	-0.126	0.128
-706.616	-78.915	-0.259	0.090
-705.602	-91.971	-0.389	-0.113
-704.587	29.120	-0.130	-0.113
-703.572	57.056	-0.010	-0.010
-702.558	-37.654	0.076	-0.042
-701.543	178.055	0.120	0.179
-700.529	-140.746	-0.278	-0.029
-699.514	800.000	-0.142	0.598
-698.499	128.068	-0.104	0.136
-697.485	-71.914	-0.189	0.072
-696.470	140.342	0.061	-0.083
-695.456	26.004	0.053	0.045
-694.441	-6.190	0.024	-0.017
-693.426	754.369	-0.091	-0.252
-692.412	-91.957	0.226	-0.066
-691.397	-146.703	-0.115	-0.010
-690.383	-55.157	0.223	0.103
-689.368	37.279	-0.328	-0.298
-688.354	371.354	0.110	0.228
-687.339	58.079	0.299	-0.300
-686.324	-200.000	0.021	-0.496
-685.310	-127.399	0.085	0.013
-684.295	440.897	0.111	-0.249
-683.281	-44.102	0.201	0.104
-682.266	800.000	-0.027	0.117
-681.251	-105.541	0.060	-0.014
-680.237	-54.114	0.422	-0.196
-679.222	-35.961	-0.225	0.124
-678.208	-200.000	0.024	0.148
-677.193	-110.561	-0.147	-0.031
-676.178	-31.282	0.280	-0.162
-675.164	-145.114	0.282	-0.026
-674.149	205.346	0.153	0.244
-673.135	-79.554	-0.318	0.110
-672.120	-106.216	0.186	0.043
-671.105	-200.000	0.025	-0.183
-670.091	183.782	-0.174	0.263
-669.076	-31.281	0.202	0.117
-668.062	-100.543	-0.099	-0.025
-667.047	-200.000	-0.005	-0.166
-666.032	-33.248	0.177	-0.100
-665.018	-25.033	-0.257	0.156
-664.003	208.647	-0.007	0.011
-662.989	-83.142	-0.105	0.034
-661.974	-200.000	0.003	0.230
-660.959	208.730	0.090	-0.144
-659.945	-200.000	-0.044	0.407
-658.930	-200.000	-0.045	-0.258
-657.916	-31.012	-0.179	0.103
-656.901	11.711	0.087	0.068
-655.886	759.438	-0.057	-0.158
-654.872	347.720	0.085	0.171
-653.857	-33.394	0.124	-0.070
-652.843	-89.634	-0.290	0.087
-651.828	-123.505	0.374	-0.061
-650.814	-148.915	0.168	0.014
-649.799	-200.000	-0.008	-0.167
-648.784	-200.000	-0.057	-0.300
-647.770	-75.941	-0.127	0.046
-646.755	68.010	0.344	-0.360
-645.741	800.000	-0.127	0.427
-644.726	81.805	-0.186	-0.205
-643.711	-200.000	0.001	0.244
-642.697	41.844	0.038	-0.035
-641.682	28.436	-0.231	-0.200
-640.668	40.578	-0.417	-0.384
-639.653	29.724	0.136	-0.119
-638.638	-59.681	0.402	0.176
-637.624	-62.897	0.306	-0.129
-636.609	-188.766	-0.150	-0.002
-635.595	-200.000	0.138	-0.000
-634.580	22.338	-0.138	-0.115
-633.565	114.078	-0.126	0.156
-632.551	715.780	0.065	0.177
-631.536	-149.925	-0.270	-0.022
-630.522	-200.000	-0.025	-0.137
-629.507	658.460	0.077	-0.201
-628.492	59.792	0.224	0.226
-627.478	60.365	0.261	-0.264
-626.463	31.325	0.076	0.067
-625.449	-42.194	0.404	-0.211
-624.434	-200.000	0.016	-0.090
-623.419	71.709	0.047	-0.050
-622.405	2.344	0.069	0.051
-621.390	22.462	0.176	0.147
-620.376	36.755	0.241	-0.218
-619.361	-6.366	-0.170	-0.118
-618.346	800.000	0.028	0.116
-617.332	80.897	-0.215	-0.236
-616.317	-133.894	-0.522	-0.066
-615.303	-37.248	-0.246	-0.134
-614.288	92.649	0.138	-0.160
-613.273	-200.000	-0.061	0.488
-612.259	-111.754	-0.398	-0.082
-611.244	160.833	-0.196	0.280
-610.230	42.999	0.198	0.184
-609.215	549.127	-0.085	0.207
-608.201	90.135	0.013	0.014
-607.186	-49.943	0.184	-0.089
-606.171	-200.000	0.006	-0.394
-605.157	225.870	0.024	-0.039
-604.142	-44.198	-0.121	-0.062
-603.128	-26.348	0.121	0.072
-602.113	370.034	-0.110	-0.227
-601.098	-200.000	0.044	0.492
-600.084	142.145	-0.076	0.104
-599.069	-15.488	0.060	-0.039
-598.055	385.183	0.046	-0.096
-597.040	1.248	0.163	0.119
-596.025	800.000	-0.096	-0.285
-595.011	-109.312	0.202	0.044
-593.996	106.152	0.097	0.118
-592.982	-21.831	-0.078	0.049
-591.967	-70.459	-0.086	-0.033
-590.952	66.540	0.193	0.200
-589.938	-29.299	-0.182	0.106
-588.923	800.000	-0.172	0.498
-587.909	169.490	0.290	0.422
-586.894	800.000	0.051	-0.218
-585.879	-54.286	0.192	0.089
-584.865	800.000	0.039	-0.120
-583.850	-141.358	0.323	0.033
-582.836	187.321	0.119	0.182
-581.821	-200.000	-0.060	-0.437
-580.806	800.000	-0.065	-0.237
-579.792	-200.000	-0.019	-0.189
-578.777	598.131	0.122	0.309
-577.763	389.965	-0.113	0.238
-576.748	800.000	0.091	-0.281
-575.733	-142.352	-0.419	0.042
-574.719	-123.147	-0.300	-0.049
-573.704	-200.000	0.035	0.268
-572.690	-75.716	0.147	-0.053
-571.675	-200.000	-0.045	-0.265
-570.661	262.399	0.100	-0.177
-569.646	-200.000	-0.044	-0.277
-568.631	290.132	-0.174	0.322
-567.617	-200.000	0.043	0.409
-566.602	57.233	-0.127	-0.126
-565.588	-5.641	-0.136	0.095
-564.573	129.614	0.077	-0.101
-563.558	9.884	0.410	0.317
-562.544	-200.000	-0.002	-0.114
-561.529	-197.650	-0.254	-0.002
-560.515	-10.449	0.232	0.157
-559.500	-101.420	-0.376	0.093
-558.485	-200.000	0.064	0.314
-557.471	510.255	0.040	-0.094
-556.456	-101.935	-0.379	-0.093
-555.442	-29.681	-0.196	0.114
-554.427	364.122	0.147	0.301
-553.412	-131.821	-0.046	-0.006
-552.398	-17.065	-0.045	-0.029
-551.383	-200.000	-0.049	-0.233
-550.369	-104.782	-0.194	0.045
-549.354	211.927	0.079	0.127
-548.339	-31.461	-0.294	0.168
-547.325	-200.000	-0.025	-0.270
-546.310	-134.479	0.478	0.060
-545.296	580.530	-0.019	0.047
-544.281	-64.060	0.054	-0.023
-543.266	-147.152	0.127	-0.011
-542.252	24.183	-0.180	0.151
-541.237	309.784	0.120	0.229
-540.223	724.639	0.015	-0.039
-539.208	-81.539	-0.281	-0.094
-538.193	-95.686	0.195	-0.053
-537.179	504.587	0.038	-0.090
-536.164	168.398	0.109	0.158
-535.150	-134.417	0.126	-0.016
-534.135	800.000	-0.008	0.026
-533.121	-156.255	-0.168	0.011
-532.106	-200.000	-0.013	-0.309
-531.091	800.000	0.093	0.265
-530.077	-60.722	0.115	-0.050
-529.062	24.542	-0.024	-0.020
-528.048	-200.000	-0.001	0.163
-527.033	69.555	0.083	0.087
-526.018	-35.058	0.311	-0.173
-525.004	-200.000	0.033	0.216
-523.989	800.000	0.038	0.143
-522.975	-200.000	-0.027	0.211
-521.960	-200.000	-0.091	0.420
-520.945	800.000	0.021	0.068
-519.931	236.619	-0.030	0.050
-518.916	-97.950	0.327	0.086
-517.902	-32.514	-0.182	0.103
-516.887	-38.157	0.158	0.085
-515.872	-62.286	-0.129	-0.055
-514.858	-80.988	0.106	-0.036
-513.843	-16.159	0.273	-0.176
-512.829	97.157	0.031	-0.036
-511.814	27.789	0.231	0.198
-510.799	-200.000	0.012	0.208
-509.785	330.740	0.173	0.338
-508.770	-195.020	0.254	0.002
-507.756	295.128	-0.181	0.337
-506.741	-125.589	0.308	0.047
-505.726	800.000	0.052	-0.213
-504.712	75.809	-0.117	-0.126
-503.697	646.962	0.080	0.209
-502.683	154.281	-0.292	-0.407
-501.668	-200.000	0.326	0.001
-500.653	199.980	0.208	0.325
-499.639	800.000	-0.007	-0.024
-498.624	-59.194	-0.077	-0.034
-497.610	-200.000	-0.065	-0.352
-496.595	-77.309	-0.175	0.062
-495.581	368.972	-0.150	-0.309
-494.566	152.299	-0.089	-0.123
-493.551	-200.000	0.048	-0.303
-492.537	-128.564	0.115	0.016
-491.522	212.886	-0.080	-0.128
-490.508	-86.223	0.275	-0.086
-489.493	-200.000	0.032	0.000
-488.478	-200.000	0.020	0.104
-487.464	-102.365	-0.198	-0.048
-486.449	-200.000	-0.074	0.415
-485.435	-200.000	-0.037	0.194
-484.420	800.000	0.041	0.152
-483.405	291.576	-0.023	-0.043
-482.391	69.346	-0.098	-0.102
-481.376	578.323	0.124	-0.307
-480.362	26.639	-0.197	-0.168
-479.347	646.526	0.075	-0.194
-478.332	-138.609	0.352	-0.039
-477.318	-173.973	-0.131	0.004
-476.303	-101.632	0.206	0.051
-475.289	-200.000	0.046	-0.220
-474.274	-96.481	0.276	0.074
-473.259	-9.771	-0.217	-0.147
-472.245	-51.413	-0.030	0.014
-471.230	449.069	0.130	-0.291
-470.216	188.967	-0.027	0.041
-469.201	-38.067	0.088	-0.047
-468.186	-200.000	0.005	-0.255
-467.172	-147.974	-0.366	-0.031
-466.157	95.278	-0.164	0.190
-465.143	-116.162	0.208	-0.039
-464.128	-63.312	-0.044	0.019
-463.113	-25.118	-0.205	-0.123
-462.099	65.935	0.076	0.078
-461.084	153.993	0.227	-0.316
-460.070	422.545	-0.117	-0.256
-459.055	292.340	-0.100	0.185
-458.040	-24.617	-0.145	0.087
-457.026	40.992	-0.180	0.165
-456.011	-200.000	0.002	0.046
-454.997	-118.173	-0.426	0.077
-453.982	183.184	0.151	0.227
-452.968	-67.497	0.299	-0.119
-451.953	50.375	-0.167	-0.160
-450.938	5.926	0.216	0.162
-449.924	160.475	-0.029	0.041
-448.909	2.260	0.083	0.061
-447.895	-132.048	-0.202	0.027
-446.880	-150.876	-0.217	-0.017
-445.865	-20.794	0.104	-0.065
-444.851	98.921	-0.160	-0.188
-443.836	-200.000	0.027	-0.218
-442.822	-155.435	-0.261	0.017
-441.807	11.943	-0.129	-0.101
-440.792	-81.929	-0.423	-0.140
-439.778	-84.826	-0.233	-0.074
-438.763	53.968	-0.359	-0.350
-437.749	-200.000	-0.012	-0.063
-436.734	-192.510	-0.117	0.001
-435.719	-150.499	-0.239	0.019
-434.705	-91.200	0.365	-0.106
-433.690	60.404	0.138	-0.138
-432.676	800.000	0.074	-0.243
-431.661	664.710	0.031	-0.081
-430.646	-31.769	-0.272	-0.155
-429.632	-3.414	-0.214	-0.151
-428.617	-63.858	-0.167	0.069
-427.603	96.207	-0.090	0.104
-426.588	-41.382	-0.274	0.143
-425.573	-112.649	0.390	0.079
-424.559	504.036	-0.063	-0.148
-423.544	20.187	0.182	0.149
-422.530	25.988	-0.122	0.104
-421.515	800.000	0.021	0.061
-420.500	800.000	-0.045	0.133
-419.486	-178.522	0.198	0.005
-418.471	800.000	0.027	-0.079
-417.457	-87.454	0.315	-0.097
-416.442	800.000	0.045	-0.139
-415.428	-94.863	-0.246	-0.068
-414.413	-47.549	-0.209	-0.103
-413.398	313.675	-0.056	-0.108
-412.384	4.478	0.073	-0.054
-411.369	-62.473	-0.277	-0.116
-410.355	25.381	-0.212	0.179
-409.340	264.845	0.096	0.169
-408.325	-200.000	-0.023	-0.152
-407.311	-88.329	-0.259	0.078
-406.296	-200.000	0.035	0.458
-405.282	-146.290	0.211	0.019
-404.267	-200.000	0.019	-0.086
-403.252	-135.540	-0.093	0.011
-402.238	321.754	-0.067	-0.128
-401.223	-90.438	0.272	0.080
-400.209	-200.000	0.057	0.391
-399.194	-5.099	0.248	0.173
-398.179	-136.891	0.392	-0.046
-397.165	335.979	0.118	0.232
-396.150	-200.000	-0.001	-0.044
-395.136	800.000	0.025	-0.071
-394.121	-11.865	0.065	0.043
-393.106	-200.000	-0.019	-0.199
-392.092	299.330	0.090	0.168
-391.077	6.569	-0.095	-0.071
-390.063	-200.000	-0.035	0.232
-389.048	-110.275	-0.445	0.094
-388.033	-39.426	0.222	-0.118
-387.019	39.577	-0.292	0.265
-386.004	3.693	0.112	-0.083
-384.990	-10.648	0.267	-0.179
-383.975	268.002	0.041	-0.073
-382.960	-13.613	0.037	-0.024
-381.946	620.697	0.152	0.387
-380.931	-91.350	-0.359	-0.104
-379.917	-31.018	-0.434	-0.248
-378.902	-102.959	0.250	-0.060
-377.888	89.999	0.039	0.044
-376.873	597.881	-0.043	-0.108
-375.858	800.000	0.080	0.291
-374.844	800.000	0.049	-0.156
-373.829	292.896	0.100	-0.185
-372.815	-200.000	0.040	-0.191
-371.800	41.361	-0.333	-0.304
-370.785	800.000	-0.013	0.047
-369.771	-7.275	0.179	0.123
-368.756	10.100	0.251	0.193
-367.742	118.620	0.232	0.290
-366.727	-176.762	-0.154	-0.004
-365.712	-51.895	0.115	-0.054
-364.698	55.316	0.061	0.059
-363.683	-58.727	-0.053	-0.023
-362.669	-150.989	-0.348	0.027
-361.654	-29.625	-0.355	-0.205
-360.639	-114.593	0.194	-0.038
-359.625	-38.893	-0.093	-0.049
-358.610	-46.857	-0.138	-0.068
-357.596	-48.383	-0.122	0.059
-356.581	68.303	0.179	0.185
-355.566	-76.719	-0.380	-0.135
-354.552	-89.130	-0.198	0.059
-353.537	76.413	-0.124	0.132
-352.523	54.522	0.281	0.274
-351.508	-200.000	0.043	0.297
-350.493	-200.000	-0.009	-0.242
-349.479	-200.000	0.022	-0.368
-348.464	800.000	-0.080	-0.266
-347.450	-17.578	-0.052	0.033
-346.435	-85.149	0.318	0.100
-345.420	-25.699	-0.212	0.126
-344.406	736.836	0.070	0.190
-343.391	-164.947	0.291	-0.013
-342.377	36.629	-0.068	0.061
-341.362	101.849	0.095	0.112
-340.348	-59.233	-0.070	0.030
-339.333	127.687	0.058	0.074
-338.318	67.499	0.172	-0.177
-337.304	-129.748	0.222	0.031
-336.289	183.343	0.112	0.167
-335.275	39.257	0.356	-0.322
-334.260	-78.521	0.246	-0.085
-333.245	-200.000	0.017	-0.243
-332.231	-200.000	0.020	-0.092
-331.216	644.787	0.119	0.308
-330.202	-64.339	-0.137	-0.056
-329.187	11.022	-0.213	-0.164
-328.172	64.537	-0.071	0.072
-327.158	58.814	-0.090	-0.089
-326.143	-53.221	-0.057	-0.027
-325.129	-199.995	-0.637	-0.003
-324.114	126.210	0.047	-0.060
-323.099	180.411	-0.065	-0.096
-322.085	-59.621	-0.159	-0.069
-321.070	339.700	-0.060	0.119
-320.056	128.100	0.094	0.121
-319.041	501.936	0.082	-0.190
-318.026	75.429	0.145	0.155
-317.012	-116.346	0.212	0.040
-315.997	134.976	-0.270	-0.354
-314.983	300.860	0.031	-0.057
-313.968	-200.000	0.017	0.129
-312.953	259.537	0.202	-0.352
-311.939	-136.665	0.209	0.024
-310.924	188.765	-0.104	0.158
-309.910	800.000	0.054	0.187
-308.895	374.697	-0.193	-0.396
-307.880	-144.175	0.367	0.035
-306.866	-117.265	0.217	0.040
-305.851	-48.671	0.227	-0.110
-304.837	-138.181	-0.146	0.016
-303.822	-52.169	-0.504	-0.236
-302.807	91.143	-0.037	0.042
-301.793	-200.000	-0.004	0.149
-300.778	67.669	-0.233	0.241
-299.764	93.020	-0.052	-0.059
-298.749	-86.025	0.170	-0.053
-297.735	-200.000	-0.020	0.122
-296.720	616.329	0.061	0.155
-295.705	-72.342	0.152	-0.057
-294.691	-107.128	-0.184	0.041
-293.676	525.229	0.063	-0.150
-292.662	-119.944	0.298	-0.052
-291.647	17.277	0.148	-0.119
-290.632	800.000	0.040	-0.154
-289.618	-54.556	-0.327	-0.149
-288.603	-83.158	0.176	-0.057
-287.589	15.025	-0.084	-0.066
-286.574	-116.395	-0.416	0.077
-285.559	-118.644	0.070	-0.012
-284.545	-126.083	-0.014	-0.002
-283.530	-98.438	-0.062	0.016
-282.516	-122.634	-0.179	0.029
-281.501	562.574	-0.081	0.197
-280.486	-104.264	-0.270	0.063
-279.472	-29.162	0.039	-0.023
-278.457	343.196	0.163	0.322
-277.443	52.218	-0.199	0.191
-276.428	27.455	0.128	-0.108
-275.413	-49.024	-0.153	0.074
-274.399	103.944	0.072	0.085
-273.384	-105.605	-0.228	-0.052
-272.370	-200.000	-0.045	0.252
-271.355	100.047	0.301	-0.352
-270.340	-200.000	-0.011	-0.259
-269.326	29.977	0.075	-0.065
-268.311	422.448	-0.117	0.254
-267.297	26.273	-0.135	-0.114
-266.282	13.460	0.172	0.134
-265.267	-36.614	0.036	0.020
-264.253	435.915	0.100	0.219
-263.238	520.706	0.028	-0.066
-262.224	-36.482	0.051	-0.028
-261.209	136.309	0.085	0.112
-260.195	126.470	-0.106	-0.136
-259.180	-29.196	0.120	-0.069
-258.165	-200.000	0.004	-0.148
-257.151	-112.698	-0.091	0.018
-256.136	800.000	-0.031	0.109
-255.122	57.922	0.072	0.071
-254.107	-200.000	0.007	0.095
-253.092	-49.160	-0.276	-0.133
-252.078	-125.288	0.262	-0.040
-251.063	-6.871	-0.186	0.127
-250.049	456.570	-0.137	-0.306
-249.034	112.409	0.063	-0.077
-248.019	255.389	-0.162	-0.279
-247.005	195.424	-0.111	0.169
-245.990	421.252	-0.061	0.132
-244.976	800.000	0.060	0.232
-243.961	84.297	0.069	0.076
-242.946	-19.671	0.070	0.044
-241.932	49.400	0.099	0.094
-240.917	258.870	-0.185	0.322
-239.903	-17.063	0.055	0.035
-238.888	-200.000	0.022	-0.151
-237.873	-20.394	0.077	0.048
-236.859	-55.181	0.274	0.124
-235.844	431.023	0.111	-0.241
-234.830	-152.579	0.314	0.023
-233.815	-102.956	-0.303	0.072
-232.800	185.829	0.242	0.362
-231.786	750.635	0.106	-0.288
-230.771	-40.180	-0.332	0.174
-229.757	18.429	0.372	-0.299
-228.742	213.823	0.216	0.343
-227.727	-143.244	-0.185	0.018
-226.713	-124.516	-0.242	-0.038
-225.698	-28.826	0.310	0.179
-224.684	276.048	0.109	0.195
-223.669	784.502	-0.060	-0.166
-222.655	-134.475	0.149	-0.018
-221.640	-200.000	-0.039	0.260
-220.625	800.000	0.081	0.236
-219.611	47.972	0.178	-0.167
-218.596	-55.343	0.086	0.039
-217.582	184.035	0.203	-0.303
-216.567	-200.000	-0.074	-0.000
-215.552	242.729	0.131	0.221
-214.538	-2.570	-0.026	0.018
-213.523	247.538	-0.158	-0.269
-212.509	-99.201	-0.301	0.077
-211.494	-200.000	-0.013	-0.195
-210.479	-99.959	-0.393	-0.099
-209.465	-104.473	-0.310	-0.072
-208.450	800.000	-0.105	-0.364
-207.436	5.206	-0.194	0.143
-206.421	-200.000	0.009	-0.171
-205.406	-200.000	-0.028	0.214
-204.392	-85.829	-0.144	0.045
-203.377	90.762	0.129	0.145
-202.363	129.275	0.067	-0.086
-201.348	-200.000	-0.011	0.196
-200.333	200.741	0.026	-0.040
-199.319	-15.271	-0.155	0.099
-198.304	5.211	-0.035	0.026
-197.290	195.890	0.231	0.353
-196.275	-101.704	-0.287	0.070
-195.260	128.503	-0.121	-0.154
-194.246	-171.773	0.314	-0.010
-193.231	-66.595	-0.064	-0.026
-192.217	-115.439	0.038	-0.007
-191.202	392.166	0.157	0.327
-190.187	369.943	0.180	0.366
-189.173	-24.303	0.201	-0.120
-188.158	-97.701	0.334	-0.087
-187.144	-200.000	0.005	-0.135
-186.129	-200.000	-0.050	-0.305
-185.114	366.591	0.148	-0.300
-184.100	-200.000	-0.082	-0.596
-183.085	688.603	0.100	0.263
-182.071	800.000	-0.013	0.045
-181.056	146.961	-0.133	0.180
-180.042	120.308	0.087	-0.109
-179.027	157.640	0.085	0.118
-178.012	48.629	0.165	-0.155
-176.998	-95.314	0.197	0.053
-175.983	265.003	-0.077	-0.135
-174.969	-74.808	-0.222	-0.080
-173.954	-21.028	-0.166	0.102
-172.939	-200.000	0.011	0.336
-171.925	-13.163	0.118	0.077
-170.910	-187.488	0.160	0.002
-169.896	768.272	-0.062	0.168
-168.881	-200.000	0.025	0.147
-167.866	-40.204	-0.108	-0.056
-166.852	-90.561	0.161	-0.047
-165.837	-185.083	-0.107	0.002
-164.823	800.000	0.151	-0.486
-163.808	351.238	0.135	-0.268
-162.793	-197.120	0.080	0.001
-161.779	-17.474	-0.320	0.202
-160.764	155.046	-0.123	-0.169
-159.750	-78.155	-0.373	-0.129
-158.735	438.784	0.115	0.251
-157.720	74.599	0.180	0.190
-156.706	26.684	-0.113	0.095
-155.691	-200.000	-0.022	0.292
-154.677	-200.000	-0.018	-0.101
-153.662	542.668	-0.055	-0.130
-152.647	-200.000	0.035	-0.327
-151.633	-54.223	0.258	0.117
-150.618	365.643	-0.037	0.075
-149.604	800.000	0.073	-0.235
-148.589	-26.211	-0.226	-0.133
-147.574	388.752	0.106	-0.219
-146.560	504.698	-0.119	0.276
-145.545	-200.000	0.008	-0.171
-144.531	-32.487	0.178	0.099
-143.516	22.411	0.205	0.168
-142.502	-70.388	-0.237	0.090
-141.487	-85.536	-0.097	0.030
-140.472	-9.584	0.193	-0.129
-139.458	800.000	0.097	0.269
-138.443	-200.000	-0.025	0.232
-137.429	800.000	-0.094	0.280
-136.414	-27.944	-0.040	-0.024
-135.399	-81.096	-0.319	-0.106
-134.385	62.797	-0.133	0.133
-133.370	-152.629	-0.211	-0.015
-132.356	800.000	-0.093	0.296
-131.341	-174.733	0.103	-0.003
-130.326	-200.000	-0.005	0.061
-129.312	47.009	0.210	-0.196
-128.297	800.000	-0.049	0.148
-127.283	-182.195	0.085	-0.002
-126.268	-200.000	-0.045	-0.243
-125.253	30.037	0.064	0.055
-124.239	800.000	-0.040	0.152
-123.224	-61.157	0.153	0.065
-122.210	-162.093	0.175	-0.009
-121.195	-35.987	0.342	0.185
