DTS Sentinel unit serial number:	SN413079Multiplexer serial number:	ORYXHardware model number:	OX4-SRSoftware version number:	ORYX F/W v4.00 Oryx Data Collector v3.7.2.0data status	okinstallation	princeton_trtdifferential loss correction	single-endedforward channel	channel 4reverse channel	N/Adate	2019/09/10time	17:11:11forward acquisition time	60.00reverse acquisition time	0.00gamma	496.2192k internal	0.2295k external	0.2295temperature offset calibration	0.9941default loss term (dB/km)	0.3790temperature slope calibration	1.0000multiplexer offset coefficient	1.0000multiplexer slope coefficient	1.0000fibre end	0.00T internal ref (°C)	37.62T ext. ref 1 (°C)	-0.33T ext. ref 2 (°C)	31.91length (m)	temperature (°C)	Stokes	anti-Stokes-747.200	-200.000	0.006	-0.084
-746.185	31.000	-0.328	0.287
-745.171	-200.000	0.017	0.121
-744.156	-20.944	-0.360	0.226
-743.142	133.936	0.107	-0.142
-742.127	-200.000	-0.024	0.320
-741.112	659.473	-0.035	0.092
-740.098	-200.000	-0.047	0.348
-739.083	-200.000	-0.026	-0.139
-738.069	476.947	-0.224	0.517
-737.054	-200.000	0.005	-0.236
-736.039	-70.133	-0.440	-0.171
-735.025	16.182	0.314	0.253
-734.010	-166.080	-0.183	0.008
-732.996	35.296	-0.204	0.183
-731.981	-200.000	0.000	-0.071
-730.966	-200.000	-0.010	-0.093
-729.952	800.000	-0.065	-0.228
-728.937	-200.000	-0.004	-0.077
-727.923	273.700	0.115	-0.207
-726.908	-200.000	0.001	-0.277
-725.894	-200.000	0.025	-0.413
-724.879	800.000	0.058	0.169
-723.864	-200.000	0.024	-0.137
-722.850	46.374	0.069	-0.065
-721.835	-58.741	0.246	-0.109
-720.821	565.407	0.026	-0.065
-719.806	800.000	0.017	-0.054
-718.791	66.457	0.313	0.325
-717.777	-143.559	0.215	-0.021
-716.762	800.000	0.072	-0.203
-715.748	-200.000	0.005	-0.301
-714.733	32.163	0.140	-0.123
-713.718	269.749	0.106	0.191
-712.704	-50.768	-0.083	-0.040
-711.689	-200.000	-0.007	0.074
-710.675	-26.926	-0.307	0.183
-709.660	374.046	-0.069	-0.144
-708.645	137.624	0.095	-0.127
-707.631	-74.526	-0.064	-0.023
-706.616	-160.372	-0.226	-0.012
-705.602	1.686	0.146	0.107
-704.587	681.039	0.077	-0.205
-703.572	47.081	-0.300	-0.284
-702.558	20.279	-0.108	-0.089
-701.543	76.508	-0.161	-0.175
-700.529	-85.265	0.282	0.090
-699.514	107.480	-0.191	-0.232
-698.499	-200.000	0.058	-0.454
-697.485	128.402	0.129	-0.167
-696.470	296.710	0.156	0.292
-695.456	80.580	-0.246	0.270
-694.441	-200.000	0.001	0.137
-693.426	-99.465	-0.200	0.051
-692.412	-200.000	0.028	-0.194
-691.397	800.000	0.118	-0.412
-690.383	800.000	-0.058	-0.225
-689.368	345.453	0.093	-0.186
-688.354	-119.721	-0.229	0.040
-687.339	11.099	-0.171	-0.133
-686.324	-91.092	0.197	0.058
-685.310	44.988	0.077	0.073
-684.295	-116.145	-0.154	-0.029
-683.281	-43.075	-0.163	-0.084
-682.266	213.978	-0.086	-0.139
-681.251	161.516	0.141	0.201
-680.237	153.165	0.056	0.078
-679.222	518.684	-0.099	-0.236
-678.208	316.977	-0.012	0.023
-677.193	480.545	0.178	-0.412
-676.178	-200.000	-0.065	-0.467
-675.164	-6.938	-0.379	-0.262
-674.149	81.905	-0.157	-0.173
-673.135	60.293	0.280	-0.283
-672.120	-160.381	-0.301	0.016
-671.105	-123.129	-0.063	0.010
-670.091	-44.312	0.196	-0.100
-669.076	-181.414	0.191	0.004
-668.062	-181.814	-0.211	-0.004
-667.047	-78.314	0.073	-0.026
-666.032	-10.164	-0.150	-0.101
-665.018	-200.000	0.030	0.337
-664.003	-111.366	-0.240	-0.050
-662.989	-67.161	-0.466	-0.187
-661.974	207.938	0.141	0.225
-660.959	800.000	0.049	0.173
-659.945	-133.335	-0.114	-0.015
-658.930	800.000	-0.103	-0.296
-657.916	-143.353	-0.262	-0.026
-656.901	72.854	0.175	0.186
-655.886	-96.147	-0.073	-0.020
-654.872	-108.194	0.119	-0.026
-653.857	-57.391	-0.325	-0.145
-652.843	67.649	-0.175	-0.182
-651.828	71.786	0.228	-0.241
-650.814	146.101	0.034	-0.047
-649.799	-200.000	0.011	-0.120
-648.784	-96.092	-0.062	0.017
-647.770	-200.000	-0.052	0.306
-646.755	800.000	0.025	0.073
-645.741	-118.743	-0.109	-0.020
-644.726	160.389	0.157	0.223
-643.711	644.877	0.165	0.428
-642.697	-200.000	0.026	0.130
-641.682	738.943	-0.096	-0.263
-640.668	100.421	-0.144	-0.171
-639.653	-124.010	-0.116	-0.019
-638.638	3.055	-0.187	0.138
-637.624	-200.000	-0.059	0.311
-636.609	644.991	0.002	0.006
-635.595	-111.865	0.314	0.065
-634.580	179.818	0.033	-0.049
-633.565	-72.502	-0.339	-0.127
-632.551	471.300	0.055	-0.126
-631.536	104.868	0.117	-0.141
-630.522	800.000	-0.064	-0.197
-629.507	363.965	-0.111	-0.228
-628.492	-159.277	-0.180	-0.010
-627.478	434.180	-0.023	0.050
-626.463	-21.232	-0.245	-0.152
-625.449	-54.170	-0.077	-0.036
-624.434	12.087	0.221	-0.173
-623.419	95.591	-0.082	0.095
-622.405	-92.282	-0.301	-0.086
-621.390	800.000	-0.055	-0.226
-620.376	-18.912	0.437	0.276
-619.361	99.915	-0.245	-0.289
-618.346	24.545	-0.110	-0.092
-617.332	-118.529	0.076	-0.014
-616.317	107.140	0.064	-0.077
-615.303	131.350	-0.214	0.280
-614.288	-200.000	-0.030	0.361
-613.273	38.845	-0.121	-0.110
-612.259	227.602	-0.068	-0.112
-611.244	-60.645	0.016	-0.007
-610.230	558.021	0.022	-0.053
-609.215	800.000	-0.073	0.235
-608.201	322.295	0.056	0.109
-607.186	-200.000	-0.028	-0.214
-606.171	-57.110	-0.096	0.043
-605.157	-82.209	0.180	0.059
-604.142	593.214	-0.039	-0.097
-603.128	-114.846	-0.219	-0.043
-602.113	74.032	0.125	0.134
-601.098	-64.562	-0.064	0.026
-600.084	-26.767	-0.140	-0.083
-599.069	-200.000	-0.013	0.158
-598.055	-34.633	-0.165	0.092
-597.040	800.000	0.052	-0.212
-596.025	-152.785	-0.170	0.012
-595.011	178.140	-0.206	-0.306
-593.996	188.702	0.102	-0.155
-592.982	-112.299	-0.385	0.078
-591.967	-161.407	0.104	0.005
-590.952	389.462	-0.140	-0.296
-589.938	800.000	-0.067	-0.217
-588.923	-200.000	-0.026	0.171
-587.909	125.756	-0.120	0.153
-586.894	800.000	-0.018	0.072
-585.879	-111.227	0.203	0.042
-584.865	19.769	0.239	0.196
-583.850	-116.584	-0.247	0.046
-582.836	-200.000	0.001	-0.074
-581.821	43.537	0.133	0.123
-580.806	-89.281	0.125	0.037
-579.792	37.635	0.014	-0.012
-578.777	-134.443	0.266	-0.033
-577.763	-200.000	0.037	0.410
-576.748	-30.952	-0.458	0.263
-575.733	-4.125	0.207	-0.146
-574.719	36.562	0.138	-0.124
-573.704	-200.000	0.010	-0.311
-572.690	-87.616	-0.104	-0.032
-571.675	157.621	0.108	0.152
-570.661	193.677	-0.130	0.199
-569.646	-200.000	0.002	-0.020
-568.631	-118.738	-0.085	-0.015
-567.617	136.605	-0.215	0.285
-566.602	10.637	0.377	0.292
-565.588	226.235	0.116	-0.192
-564.573	-200.000	0.002	-0.099
-563.558	283.439	0.114	0.209
-562.544	-11.380	-0.469	0.314
-561.529	-110.646	0.184	-0.039
-560.515	399.942	0.136	0.288
-559.500	261.090	0.098	-0.172
-558.485	800.000	-0.007	0.028
-557.471	9.748	-0.173	-0.133
-556.456	-200.000	0.023	0.212
-555.442	-130.974	0.405	-0.055
-554.427	-63.576	0.329	-0.137
-553.412	102.490	-0.065	0.078
-552.398	158.091	-0.065	0.092
-551.383	72.053	0.297	-0.314
-550.369	-200.000	0.015	-0.088
-549.354	40.087	0.208	-0.190
-548.339	-200.000	-0.010	0.255
-547.325	800.000	-0.037	-0.123
-546.310	77.563	0.155	-0.167
-545.296	-28.894	-0.194	0.113
-544.281	-85.535	-0.061	0.019
-543.266	136.878	0.081	-0.108
-542.252	399.556	0.044	0.094
-541.237	14.612	-0.297	-0.236
-540.223	16.361	-0.166	0.133
-539.208	-101.410	-0.122	0.030
-538.193	340.447	0.025	0.050
-537.179	-1.661	-0.304	0.217
-536.164	-200.000	0.019	-0.202
-535.150	264.032	-0.057	-0.100
-534.135	305.705	-0.141	0.266
-533.121	-200.000	-0.094	-0.427
-532.106	121.022	0.198	0.250
-531.091	800.000	0.058	-0.251
-530.077	-62.069	-0.084	-0.036
-529.062	73.180	0.109	-0.115
-528.048	-144.492	-0.123	-0.012
-527.033	-139.151	-0.422	-0.046
-526.018	-2.718	0.462	-0.327
-525.004	83.175	-0.189	0.208
-523.989	504.054	-0.153	-0.359
-522.975	394.054	-0.125	-0.265
-521.960	192.212	-0.216	-0.330
-520.945	111.019	-0.133	0.162
-519.931	246.269	-0.152	0.259
-518.916	-43.609	-0.080	0.041
-517.902	201.587	-0.154	0.240
-516.887	-138.837	0.197	0.022
-515.872	-61.294	-0.165	-0.070
-514.858	-135.468	-0.078	0.009
-513.843	32.251	0.141	-0.123
-512.829	-149.088	-0.115	-0.009
-511.814	449.532	0.015	-0.034
-510.799	12.725	-0.121	-0.094
-509.785	800.000	-0.028	-0.118
-508.770	268.296	-0.028	0.049
-507.756	800.000	-0.111	-0.332
-506.741	36.693	0.327	0.292
-505.726	-23.628	-0.245	-0.149
-504.712	-200.000	0.001	-0.035
-503.697	-200.000	-0.040	-0.241
-502.683	-53.444	0.004	-0.002
-501.668	387.934	0.031	-0.066
-500.653	800.000	-0.072	-0.227
-499.639	-139.161	-0.239	0.026
-498.624	3.991	-0.027	-0.020
-497.610	246.271	0.175	-0.299
-496.595	133.496	-0.144	0.189
-495.581	-137.298	-0.108	-0.012
-494.566	-198.629	-0.372	-0.002
-493.551	-75.278	-0.197	0.071
-492.537	-30.357	-0.057	0.033
-491.522	-84.083	-0.286	-0.092
-490.508	243.702	-0.122	-0.207
-489.493	75.533	0.039	0.041
-488.478	429.247	0.048	0.105
-487.464	244.468	0.093	0.158
-486.449	10.713	-0.142	-0.109
-485.435	-27.065	0.128	-0.076
-484.420	148.286	0.093	0.127
-483.405	101.253	-0.187	-0.220
-482.391	800.000	-0.047	0.151
-481.376	-200.000	0.005	-0.237
-480.362	231.209	0.018	0.030
-479.347	-143.841	-0.129	0.012
-478.332	191.188	-0.110	-0.168
-477.318	-200.000	0.000	-0.187
-476.303	-6.656	0.100	0.069
-475.289	-41.109	0.141	-0.073
-474.274	371.700	-0.046	-0.094
-473.259	39.061	-0.072	0.065
-472.245	-200.000	0.015	0.165
-471.230	-140.933	0.267	0.028
-470.216	-200.000	0.029	0.177
-469.201	-11.613	-0.098	0.065
-468.186	440.423	-0.094	-0.208
-467.172	-200.000	-0.205	-0.001
-466.157	653.422	-0.148	-0.385
-465.143	-54.896	-0.062	0.028
-464.128	-200.000	0.011	0.130
-463.113	-134.748	0.301	0.037
-462.099	0.410	-0.078	-0.057
-461.084	800.000	0.068	-0.255
-460.070	621.209	0.093	0.237
-459.055	800.000	0.015	0.063
-458.040	-14.213	-0.193	0.126
-457.026	-200.000	0.020	0.309
-456.011	-115.440	-0.146	-0.028
-454.997	-107.886	0.120	-0.026
-453.982	466.480	0.033	0.075
-452.968	-45.016	0.303	0.152
-451.953	1.555	-0.203	0.147
-450.938	-63.864	0.177	0.073
-449.924	17.359	0.165	-0.132
-448.909	-2.545	-0.246	0.174
-447.895	-120.269	-0.207	0.036
-446.880	-38.498	-0.219	0.117
-445.865	-98.916	0.336	0.086
-444.851	-30.549	-0.093	0.053
-443.836	-200.000	0.017	0.175
-442.822	-184.689	0.135	-0.002
-441.807	264.933	-0.096	0.169
-440.792	-103.095	0.244	0.058
-439.778	626.353	0.086	0.219
-438.763	372.943	-0.105	-0.216
-437.749	-186.676	-0.111	0.002
-436.734	403.265	-0.210	-0.446
-435.719	0.834	0.105	-0.076
-434.705	-48.753	0.194	0.094
-433.690	492.475	-0.157	0.362
-432.676	92.392	-0.076	-0.087
-431.661	-16.548	0.222	-0.142
-430.646	-200.000	-0.075	-0.375
-429.632	-93.824	0.304	-0.085
-428.617	-200.000	0.047	0.234
-427.603	14.738	0.177	-0.139
-426.588	532.961	0.092	-0.220
-425.573	800.000	0.074	-0.248
-424.559	-82.167	0.251	0.083
-423.544	-109.114	0.274	-0.059
-422.530	-22.245	0.320	-0.196
-421.515	125.340	-0.219	-0.278
-420.500	402.580	0.059	0.125
-419.486	-61.230	-0.241	-0.102
-418.471	-151.498	-0.227	-0.017
-417.457	-200.000	0.004	0.252
-416.442	-44.516	-0.143	-0.072
-415.428	745.600	0.023	-0.061
-414.413	394.057	0.089	-0.187
-413.398	392.226	-0.112	-0.235
-412.384	-111.487	0.277	0.057
-411.369	800.000	0.021	0.077
-410.355	-17.842	-0.178	-0.113
-409.340	-130.702	-0.010	-0.001
-408.325	-62.489	-0.084	-0.035
-407.311	-44.557	-0.176	-0.089
-406.296	85.967	0.256	0.284
-405.282	28.915	0.275	-0.235
-404.267	800.000	0.072	-0.278
-403.252	541.600	-0.051	0.122
-402.238	-20.393	-0.121	0.075
-401.223	-112.366	-0.294	-0.059
-400.209	93.600	-0.178	-0.203
-399.194	11.761	-0.142	-0.110
-398.179	-126.290	-0.112	0.017
-397.165	120.874	0.087	0.108
-396.150	-87.753	0.105	0.032
-395.136	-42.286	-0.095	-0.049
-394.121	43.415	0.155	0.143
-393.106	-72.126	0.348	0.130
-392.092	-200.000	-0.028	-0.326
-391.077	-200.000	0.003	0.241
-390.063	-200.000	-0.013	0.180
-389.048	-108.629	0.165	0.036
-388.033	92.211	-0.280	0.317
-387.019	405.295	-0.100	-0.212
-386.004	800.000	0.064	-0.214
-384.990	645.357	-0.056	-0.145
-383.975	-109.821	0.415	-0.088
-382.960	120.844	-0.217	0.272
-381.946	224.254	-0.067	0.109
-380.931	248.586	0.074	-0.126
-379.917	30.506	0.216	-0.186
-378.902	149.336	-0.211	-0.288
-377.888	-152.250	-0.105	-0.008
-376.873	-158.965	0.068	-0.004
-375.858	1.050	-0.159	0.115
-374.844	18.112	-0.101	0.081
-373.829	-106.570	-0.333	0.075
-372.815	85.429	0.230	-0.255
-371.800	800.000	0.002	-0.008
-370.785	16.460	0.209	-0.166
-369.771	-200.000	0.034	-0.223
-368.756	-152.557	0.363	-0.026
-367.742	-81.521	0.332	-0.110
-366.727	-102.556	0.264	-0.063
-365.712	144.731	0.103	0.139
-364.698	35.956	0.323	0.286
-363.683	-16.624	0.176	-0.112
-362.669	800.000	-0.072	0.299
-361.654	-152.245	0.240	-0.017
-360.639	-200.000	0.017	0.073
-359.625	132.816	0.195	0.253
-358.610	393.446	0.158	0.331
-357.596	378.926	-0.079	-0.164
-356.581	71.668	0.041	-0.043
-355.566	-200.000	-0.021	-0.204
-354.552	-200.000	0.006	-0.261
-353.537	-89.658	-0.287	0.085
-352.523	-197.443	0.267	-0.002
-351.508	-82.858	-0.095	0.031
-350.493	-48.195	0.177	-0.086
-349.479	-117.058	0.391	-0.072
-348.464	-61.977	-0.060	0.025
-347.450	254.871	-0.064	0.110
-346.435	-200.000	0.056	-0.257
-345.420	614.864	-0.071	0.179
-344.406	26.076	0.151	0.126
-343.391	411.360	0.053	0.113
-342.377	267.837	0.033	-0.059
-341.362	436.278	-0.014	-0.030
-340.348	6.595	-0.287	0.215
-339.333	60.063	0.108	0.107
-338.318	9.895	-0.100	-0.077
-337.304	-124.412	0.393	0.062
-336.289	-85.053	0.284	-0.089
-335.275	-173.497	0.336	-0.010
-334.260	226.712	0.109	-0.177
-333.245	83.364	-0.074	0.081
-332.231	-200.000	0.008	0.174
-331.216	-153.355	0.408	-0.029
-330.202	204.715	-0.048	-0.076
-329.187	800.000	-0.085	0.301
-328.172	-200.000	-0.072	0.384
-327.158	-200.000	-0.031	0.261
-326.143	91.757	0.043	-0.048
-325.129	-200.000	0.014	0.073
-324.114	-200.000	0.030	0.196
-323.099	-68.971	0.348	0.135
-322.085	-125.967	0.238	0.036
-321.070	-200.000	0.003	0.126
-320.056	-79.708	0.125	0.042
-319.041	-66.498	-0.380	0.152
-318.026	-29.450	0.073	0.042
-317.012	728.702	-0.070	0.187
-315.997	64.070	-0.051	-0.052
-314.983	-25.305	-0.317	0.188
-313.968	-55.157	0.283	0.128
-312.953	-158.336	0.196	0.011
-311.939	539.385	0.080	0.190
-310.924	243.302	0.129	0.217
-309.910	-200.000	0.045	0.210
-308.895	99.459	0.210	-0.244
-307.880	-200.000	0.245	0.001
-306.866	77.754	-0.206	0.220
-305.851	-105.821	0.084	-0.019
-304.837	262.677	0.093	0.163
-303.822	-175.988	0.193	0.005
-302.807	-126.447	-0.140	-0.021
-301.793	631.765	-0.104	-0.265
-300.778	-200.000	0.050	-0.248
-299.764	-200.000	-0.015	-0.204
-298.749	-200.000	-0.030	0.205
-297.735	109.883	-0.221	-0.267
-296.720	235.700	-0.018	-0.030
-295.705	800.000	-0.015	-0.050
-294.691	-73.872	0.008	-0.003
-293.676	179.208	-0.024	0.035
-292.662	7.654	-0.006	0.004
-291.647	-0.964	-0.050	0.035
-290.632	-200.000	0.006	-0.066
-289.618	-105.700	-0.349	0.079
-288.603	-21.362	0.054	0.033
-287.589	-169.540	-0.155	-0.006
-286.574	22.022	-0.242	-0.198
-285.559	-113.710	-0.077	-0.015
-284.545	-105.127	-0.199	-0.046
-283.530	800.000	0.057	0.165
-282.516	401.702	0.053	0.111
-281.501	493.551	0.039	0.090
-280.486	800.000	0.152	0.442
-279.472	-169.297	-0.194	-0.007
-278.457	-109.561	0.151	0.032
-277.443	-200.000	0.004	0.256
-276.428	96.063	0.131	0.150
-275.413	-22.442	-0.083	-0.050
-274.399	-157.825	-0.372	0.022
-273.384	-11.802	-0.217	-0.143
-272.370	-137.212	0.229	-0.026
-271.355	-200.000	-0.005	0.197
-270.340	754.592	0.029	0.080
-269.326	-199.928	-0.139	0.001
-268.311	436.343	-0.050	-0.108
-267.297	31.800	0.088	0.076
-266.282	-200.000	0.037	0.173
-265.267	105.459	-0.105	-0.124
-264.253	22.343	-0.209	0.171
-263.238	800.000	-0.070	-0.224
-262.224	-117.971	0.044	-0.008
-261.209	31.780	0.326	-0.281
-260.195	20.987	-0.283	-0.230
-259.180	-35.903	-0.099	-0.054
-258.165	8.013	0.239	0.180
-257.151	27.670	-0.208	-0.175
-256.136	-80.368	0.212	-0.071
-255.122	-106.996	0.269	-0.060
-254.107	77.885	0.189	0.202
-253.092	195.202	-0.036	-0.055
-252.078	82.751	-0.157	0.171
-251.063	800.000	-0.024	0.081
-250.049	268.548	0.224	-0.393
-249.034	-181.847	-0.067	0.001
-248.019	-149.022	-0.306	0.025
-247.005	-182.356	-0.245	0.005
-245.990	-1.009	-0.051	0.036
-244.976	-27.253	-0.330	0.193
-243.961	-117.923	0.379	-0.068
-242.946	83.487	-0.313	-0.342
-241.932	-200.000	0.099	-0.495
-240.917	-47.740	-0.048	0.023
-239.903	-200.000	0.026	0.182
-238.888	-200.000	-0.010	-0.062
-237.873	477.460	-0.101	-0.230
-236.859	-66.874	0.297	0.118
-235.844	42.556	0.232	0.212
-234.830	33.007	0.168	0.146
-233.815	-200.000	-0.004	-0.237
-232.800	50.767	0.043	0.041
-231.786	-31.855	-0.163	-0.091
-230.771	-200.000	-0.004	0.127
-229.757	-200.000	-0.033	-0.150
-228.742	-74.495	0.283	-0.102
-227.727	-149.894	0.109	-0.009
-226.713	-1.049	-0.183	-0.130
-225.698	-46.194	-0.074	0.037
-224.684	-78.742	-0.296	0.101
-223.669	-1.200	-0.276	0.195
-222.655	15.375	0.125	-0.098
-221.640	-69.635	0.221	-0.085
-220.625	124.678	0.230	-0.290
-219.611	-151.739	-0.061	0.004
-218.596	-200.000	-0.040	0.185
-217.582	-76.610	-0.093	-0.033
-216.567	-121.724	-0.343	0.057
-215.552	-123.951	0.192	-0.030
-214.538	-36.556	-0.079	0.042
-213.523	-90.986	0.080	0.023
-212.509	-50.078	-0.210	0.100
-211.494	-94.405	0.169	0.046
-210.479	147.612	-0.127	0.172
-209.465	385.844	-0.058	-0.120
-208.450	277.050	-0.196	-0.349
-207.436	141.163	-0.175	0.232
-206.421	-200.000	-0.030	0.251
-205.406	-200.000	-0.033	-0.160
-204.392	-101.923	-0.257	-0.062
-203.377	-77.008	0.349	-0.122
-202.363	-200.000	0.011	0.192
-201.348	-124.241	-0.176	-0.028
-200.333	-140.041	0.251	-0.026
-199.319	123.255	-0.249	0.312
-198.304	1.709	-0.271	0.195
-197.290	-15.323	0.513	0.328
-196.275	441.645	-0.027	0.060
-195.260	13.115	-0.372	-0.288
-194.246	-160.187	0.531	-0.029
-193.231	-200.000	0.045	0.200
-192.217	27.717	0.378	0.318
-191.202	-200.000	0.006	-0.192
-190.187	-42.952	0.135	0.069
-189.173	94.042	0.126	-0.143
-188.158	559.833	0.071	-0.171
-187.144	29.294	-0.210	-0.179
-186.129	116.071	0.217	0.266
-185.114	200.266	-0.133	0.205
-184.100	-70.715	0.386	0.146
-183.085	50.080	-0.112	0.105
-182.071	51.223	-0.154	-0.146
-181.056	-200.000	-0.064	0.288
-180.042	-200.000	0.005	-0.226
-179.027	-59.303	-0.069	-0.030
-178.012	-200.000	0.019	-0.263
-176.998	449.197	-0.070	-0.153
-175.983	-200.000	0.041	-0.337
-174.969	-104.000	-0.067	-0.016
-173.954	-200.000	-0.024	0.174
-172.939	-126.744	0.297	0.044
-171.925	-200.000	-0.041	-0.191
-170.910	79.526	-0.353	-0.379
-169.896	318.674	-0.140	-0.265
-168.881	240.190	0.115	-0.191
-167.866	-200.000	0.069	0.523
-166.852	-12.067	0.043	-0.028
-165.837	-86.907	-0.183	0.056
-164.823	244.256	-0.050	-0.084
-163.808	-72.407	0.120	-0.045
-162.793	-74.809	0.218	-0.078
-161.779	-164.981	0.151	-0.007
-160.764	33.703	0.228	0.198
-159.750	118.202	0.083	0.102
-158.735	-72.309	-0.282	-0.104
-157.720	-130.966	0.035	0.005
-156.706	2.891	0.166	-0.120
-155.691	551.092	0.035	0.085
-154.677	73.310	-0.116	-0.121
-153.662	-200.000	0.056	0.597
-152.647	-77.904	0.221	0.076
-151.633	-144.092	0.119	-0.011
-150.618	-200.000	0.015	0.223
-149.604	8.278	-0.191	-0.144
-148.589	79.042	0.089	0.096
-147.574	223.697	-0.141	0.227
-146.560	181.709	-0.117	-0.172
-145.545	-200.000	0.073	0.347
-144.531	-151.418	-0.151	-0.011
-143.516	-200.000	-0.007	-0.092
-142.502	800.000	0.068	-0.223
-141.487	-152.001	-0.238	0.017
-140.472	-190.707	-0.296	0.003
-139.458	-200.000	0.021	0.151
-138.443	-200.000	-0.005	-0.282
-137.429	-36.439	-0.219	0.118
-136.414	-58.983	0.131	0.057
-135.399	575.258	0.057	-0.139
-134.385	-75.641	0.429	-0.152
-133.370	-200.000	0.003	0.274
-132.356	-25.220	0.322	0.190
-131.341	32.823	-0.345	-0.298
-130.326	800.000	0.033	-0.118
-129.312	800.000	0.150	0.423
-128.297	-54.395	-0.134	-0.061
-127.283	-73.863	0.180	-0.065
-126.268	-97.729	-0.122	0.032
-125.253	-70.277	0.302	-0.114
-124.239	-200.000	0.004	-0.659
-123.224	-128.722	0.266	0.037
-122.210	22.591	0.145	0.118
