DTS Sentinel unit serial number:	SN413079Multiplexer serial number:	ORYXHardware model number:	OX4-SRSoftware version number:	ORYX F/W v4.00 Oryx Data Collector v3.7.2.0data status	okinstallation	princeton_trtdifferential loss correction	single-endedforward channel	channel 4reverse channel	N/Adate	2019/09/10time	18:23:11forward acquisition time	60.00reverse acquisition time	0.00gamma	496.2192k internal	0.2300k external	0.2300temperature offset calibration	0.9946default loss term (dB/km)	0.3790temperature slope calibration	1.0000multiplexer offset coefficient	1.0000multiplexer slope coefficient	1.0000fibre end	0.00T internal ref (°C)	36.19T ext. ref 1 (°C)	-0.34T ext. ref 2 (°C)	28.28length (m)	temperature (°C)	Stokes	anti-Stokes-747.200	-200.000	0.012	0.177
-746.185	-157.076	0.387	0.024
-745.171	800.000	0.070	-0.202
-744.156	-76.570	0.171	-0.061
-743.142	-44.049	0.281	-0.144
-742.127	-200.000	-0.022	-0.195
-741.112	-3.874	-0.120	0.085
-740.098	-11.619	0.049	-0.033
-739.083	-20.099	-0.220	-0.138
-738.069	-200.000	0.050	0.344
-737.054	800.000	-0.026	-0.102
-736.039	-2.872	-0.303	0.216
-735.025	-37.374	0.202	0.110
-734.010	-82.747	-0.188	0.062
-732.996	26.815	-0.113	0.097
-731.981	-16.599	-0.314	-0.203
-730.966	-35.471	-0.049	-0.027
-729.952	-74.191	-0.101	-0.037
-728.937	-128.200	0.265	0.039
-727.923	607.949	-0.164	0.416
-726.908	351.971	-0.170	-0.343
-725.894	218.079	-0.118	0.192
-724.879	-68.985	0.150	0.059
-723.864	-52.025	-0.179	-0.085
-722.850	-62.267	-0.302	0.128
-721.835	800.000	-0.071	-0.199
-720.821	279.669	0.079	-0.144
-719.806	-200.000	-0.016	0.078
-718.791	-110.486	0.056	0.012
-717.777	-107.406	-0.167	0.037
-716.762	-141.474	-0.253	0.026
-715.748	-96.945	0.355	-0.095
-714.733	-21.461	-0.205	-0.128
-713.718	-106.567	-0.284	0.064
-712.704	-200.000	0.133	0.000
-711.689	757.726	-0.062	0.170
-710.675	705.083	0.101	0.272
-709.660	-200.000	0.046	-0.370
-708.645	-78.952	0.252	0.087
-707.631	104.832	0.110	0.132
-706.616	-126.660	-0.113	0.017
-705.602	-103.369	-0.260	-0.062
-704.587	65.080	-0.063	-0.064
-703.572	439.736	0.078	-0.174
-702.558	23.397	-0.150	0.125
-701.543	-200.000	0.034	0.585
-700.529	800.000	-0.017	-0.051
-699.514	-200.000	-0.037	0.365
-698.499	3.812	0.019	-0.014
-697.485	107.888	-0.223	-0.271
-696.470	-200.000	0.007	-0.473
-695.456	-67.570	-0.120	0.048
-694.441	-107.702	0.286	-0.064
-693.426	-48.683	-0.235	0.115
-692.412	-10.278	0.194	0.131
-691.397	44.104	0.159	-0.149
-690.383	-29.360	0.200	0.116
-689.368	28.315	-0.170	-0.146
-688.354	-16.122	-0.188	0.122
-687.339	294.843	-0.036	0.066
-686.324	211.911	0.120	-0.192
-685.310	183.065	-0.061	0.091
-684.295	-79.273	-0.111	-0.038
-683.281	89.362	0.119	-0.135
-682.266	-34.308	0.123	-0.069
-681.251	-107.316	-0.297	0.066
-680.237	264.482	-0.074	-0.131
-679.222	-52.721	-0.271	0.127
-678.208	410.905	0.138	0.297
-677.193	81.355	0.197	-0.217
-676.178	51.591	0.192	-0.185
-675.164	254.307	-0.190	-0.330
-674.149	-200.000	-0.102	0.513
-673.135	59.361	0.239	0.239
-672.120	800.000	0.048	-0.195
-671.105	-200.000	-0.005	-0.249
-670.091	304.933	-0.161	-0.304
-669.076	458.676	0.177	0.401
-668.062	-147.411	-0.205	-0.018
-667.047	69.341	-0.130	0.136
-666.032	-25.662	-0.234	0.141
-665.018	-138.538	0.135	-0.015
-664.003	-85.162	-0.085	0.027
-662.989	800.000	-0.092	-0.336
-661.974	800.000	-0.039	0.153
-660.959	296.246	0.041	0.076
-659.945	800.000	0.012	-0.042
-658.930	235.397	0.049	0.082
-657.916	-200.000	-0.008	-0.133
-656.901	185.463	-0.056	-0.085
-655.886	-120.781	0.224	-0.038
-654.872	-58.852	-0.147	-0.065
-653.857	49.656	-0.219	-0.209
-652.843	61.832	0.173	-0.175
-651.828	-36.146	-0.311	-0.171
-650.814	543.584	-0.104	0.252
-649.799	-25.801	0.316	0.190
-648.784	800.000	-0.114	-0.327
-647.770	82.611	0.346	0.382
-646.755	-200.000	-0.031	-0.269
-645.741	-200.000	-0.042	-0.316
-644.726	-55.004	-0.163	-0.075
-643.711	-200.000	0.062	-0.406
-642.697	325.936	-0.028	-0.054
-641.682	-200.000	-0.044	0.238
-640.668	800.000	0.020	-0.071
-639.653	800.000	0.109	0.415
-638.638	629.889	-0.099	0.254
-637.624	-200.000	-0.045	-0.253
-636.609	-170.289	-0.089	-0.003
-635.595	-30.683	0.232	0.133
-634.580	800.000	0.009	0.038
-633.565	-72.546	-0.232	-0.087
-632.551	111.758	0.125	-0.153
-631.536	800.000	0.114	-0.406
-630.522	92.359	-0.135	0.154
-629.507	-123.010	-0.328	-0.054
-628.492	27.761	0.076	-0.065
-627.478	-136.915	-0.218	0.025
-626.463	-47.349	0.076	-0.038
-625.449	626.038	0.041	0.104
-624.434	-55.278	-0.221	0.101
-623.419	-125.536	0.241	-0.037
-622.405	800.000	-0.103	0.317
-621.390	-126.853	-0.241	-0.036
-620.376	3.710	0.187	-0.139
-619.361	245.737	0.172	-0.293
-618.346	112.295	0.022	-0.027
-617.332	-133.758	0.136	-0.017
-616.317	20.453	-0.214	-0.176
-615.303	800.000	-0.065	-0.272
-614.288	547.016	-0.054	-0.132
-613.273	-156.896	0.089	-0.006
-612.259	-131.535	-0.382	0.051
-611.244	-52.743	-0.140	-0.065
-610.230	217.295	-0.173	0.280
-609.215	-200.000	-0.037	-0.180
-608.201	556.917	-0.125	-0.306
-607.186	103.567	-0.153	0.183
-606.171	-21.258	-0.223	0.138
-605.157	-131.955	-0.096	-0.013
-604.142	110.481	0.152	-0.186
-603.128	-200.000	0.021	-0.119
-602.113	-14.368	-0.056	-0.037
-601.098	9.273	-0.132	0.101
-600.084	-56.344	-0.572	0.258
-599.069	473.334	0.096	-0.220
-598.055	800.000	-0.017	-0.059
-597.040	4.928	-0.317	-0.236
-596.025	-200.000	-0.031	-0.252
-595.011	-80.580	0.192	-0.065
-593.996	-35.834	-0.287	-0.158
-592.982	89.355	-0.159	0.179
-591.967	-87.768	0.203	0.062
-590.952	95.686	-0.146	-0.168
-589.938	-69.108	0.250	-0.098
-588.923	-10.329	0.304	-0.204
-587.909	-200.000	-0.018	-0.168
-586.894	-200.000	-0.038	0.316
-585.879	117.583	-0.153	0.191
-584.865	170.940	0.036	-0.053
-583.850	14.239	-0.268	-0.212
-582.836	569.113	-0.051	-0.126
-581.821	106.390	-0.088	-0.106
-580.806	-121.809	-0.265	0.044
-579.792	62.765	0.200	-0.203
-578.777	-117.620	0.168	0.031
-577.763	30.295	-0.080	-0.069
-576.748	800.000	0.107	0.326
-575.733	-200.000	-0.021	0.150
-574.719	-65.795	-0.195	-0.079
-573.704	709.000	0.102	0.274
-572.690	261.835	0.108	-0.190
-571.675	250.278	0.173	0.297
-570.661	-133.505	0.360	0.046
-569.646	-73.582	0.315	0.116
-568.631	-76.697	-0.089	-0.031
-567.617	-200.000	0.016	0.347
-566.602	800.000	-0.046	-0.192
-565.588	-200.000	0.007	0.271
-564.573	55.028	0.050	0.049
-563.558	207.633	0.048	-0.076
-562.544	-44.396	-0.226	-0.115
-561.529	-200.000	0.003	0.074
-560.515	440.605	-0.156	0.346
-559.500	544.232	-0.042	-0.102
-558.485	-200.000	-0.021	0.144
-557.471	800.000	-0.125	0.391
-556.456	-121.699	0.312	0.052
-555.442	800.000	-0.127	0.357
-554.427	8.972	0.358	0.273
-553.412	41.100	-0.192	0.175
-552.398	800.000	0.040	-0.157
-551.383	25.605	-0.129	-0.109
-550.369	276.373	0.190	-0.342
-549.354	-8.011	0.229	-0.156
-548.339	-102.330	0.209	0.051
-547.325	89.284	-0.161	0.181
-546.310	-35.082	-0.035	-0.019
-545.296	-32.074	0.347	-0.197
-544.281	-200.000	0.023	-0.158
-543.266	800.000	-0.029	0.085
-542.252	688.033	0.084	-0.222
-541.237	518.551	-0.071	-0.167
-540.223	-58.774	0.038	0.017
-539.208	-62.442	0.225	-0.095
-538.193	92.145	-0.043	0.049
-537.179	490.918	-0.098	-0.226
-536.164	-58.822	0.245	0.107
-535.150	143.976	0.085	0.115
-534.135	111.780	-0.141	-0.172
-533.121	236.929	-0.088	0.147
-532.106	800.000	-0.108	-0.471
-531.091	125.777	0.183	-0.234
-530.077	-110.690	0.591	-0.124
-529.062	-169.621	0.180	0.007
-528.048	151.099	-0.170	-0.234
-527.033	-200.000	0.009	-0.234
-526.018	103.134	0.097	0.115
-525.004	308.853	0.066	-0.125
-523.989	-55.055	-0.037	-0.017
-522.975	671.981	-0.044	0.116
-521.960	-113.009	0.471	-0.094
-520.945	-90.169	0.108	-0.032
-519.931	-200.000	0.009	-0.382
-518.916	-111.121	-0.076	0.016
-517.902	-74.345	-0.118	0.043
-516.887	-133.869	0.120	-0.015
-515.872	-33.864	-0.244	0.136
-514.858	13.597	0.149	0.117
-513.843	82.760	0.135	0.148
-512.829	-200.000	-0.013	-0.495
-511.814	350.156	0.140	0.280
-510.799	7.011	-0.401	-0.302
-509.785	-174.069	0.312	-0.009
-508.770	-167.200	0.125	-0.005
-507.756	57.122	-0.046	0.045
-506.741	800.000	-0.048	-0.135
-505.726	-200.000	0.001	-0.069
-504.712	800.000	-0.058	-0.222
-503.697	-39.463	-0.131	0.069
-502.683	127.739	0.115	0.148
-501.668	-200.000	-0.007	0.230
-500.653	-0.812	0.399	-0.285
-499.639	361.450	-0.114	0.230
-498.624	293.444	0.206	0.379
-497.610	0.551	-0.173	0.125
-496.595	-5.609	-0.123	0.085
-495.581	4.959	-0.235	-0.175
-494.566	-7.513	0.124	0.085
-493.551	469.477	-0.084	0.191
-492.537	-152.009	-0.168	0.012
-491.522	16.215	0.040	-0.032
-490.508	105.366	0.161	-0.192
-489.493	-198.717	-0.115	-0.001
-488.478	240.062	-0.046	0.077
-487.464	-91.795	-0.397	-0.114
-486.449	8.269	-0.141	0.107
-485.435	-2.702	-0.154	-0.109
-484.420	-200.000	-0.009	0.044
-483.405	-68.086	0.181	-0.071
-482.391	-76.214	-0.066	0.024
-481.376	240.323	0.114	-0.192
-480.362	-16.264	0.109	-0.070
-479.347	46.874	0.238	0.224
-478.332	247.090	-0.090	-0.153
-477.318	-36.316	-0.397	-0.216
-476.303	-184.493	0.312	0.005
-475.289	-125.026	-0.090	-0.014
-474.274	800.000	-0.107	0.338
-473.259	148.685	-0.241	0.328
-472.245	-200.000	-0.012	-0.211
-471.230	-38.098	-0.143	-0.077
-470.216	178.369	0.245	0.361
-469.201	-200.000	-0.002	-0.072
-468.186	-99.936	0.164	0.041
-467.172	-47.275	0.407	-0.200
-466.157	168.644	-0.162	0.233
-465.143	-6.779	-0.222	0.152
-464.128	-200.000	0.044	-0.196
-463.113	265.992	0.096	-0.169
-462.099	-200.000	-0.009	-0.064
-461.084	183.375	-0.100	-0.149
-460.070	185.869	0.157	0.236
-459.055	-141.904	0.238	0.024
-458.040	800.000	-0.064	-0.187
-457.026	174.169	-0.113	0.165
-456.011	-43.626	0.145	0.074
-454.997	-200.000	-0.004	0.046
-453.982	-63.209	-0.142	0.059
-452.968	309.402	-0.099	0.186
-451.953	65.546	0.159	0.162
-450.938	40.097	0.116	-0.105
-449.924	-31.761	-0.217	0.123
-448.909	159.078	0.222	0.311
-447.895	-136.056	0.361	0.043
-446.880	-78.042	-0.046	0.016
-445.865	-200.000	-0.003	-0.046
-444.851	-77.190	0.232	-0.081
-443.836	-131.916	0.148	0.019
-442.822	51.871	-0.218	0.209
-441.807	41.410	0.127	0.116
-440.792	-48.123	-0.098	-0.048
-439.778	348.016	-0.127	0.251
-438.763	800.000	0.049	0.146
-437.749	357.171	-0.117	-0.235
-436.734	38.747	-0.144	0.130
-435.719	396.486	0.179	-0.377
-434.705	70.298	-0.164	0.171
-433.690	-200.000	0.006	-0.035
-432.676	-44.123	-0.207	0.104
-431.661	-45.826	-0.219	0.109
-430.646	-200.000	0.001	-0.112
-429.632	2.054	0.076	-0.055
-428.617	-21.154	0.515	0.317
-427.603	-67.431	-0.219	-0.087
-426.588	-99.438	0.350	-0.089
-425.573	344.514	-0.053	0.105
-424.559	800.000	0.077	0.216
-423.544	171.879	-0.108	0.156
-422.530	-8.482	-0.197	0.133
-421.515	-116.700	-0.141	-0.026
-420.500	-25.855	0.155	-0.092
-419.486	800.000	0.100	0.355
-418.471	-117.851	-0.276	-0.050
-417.457	2.107	-0.110	0.080
-416.442	800.000	0.041	0.157
-415.428	148.565	-0.220	0.299
-414.413	-3.599	-0.152	0.106
-413.398	-123.319	-0.165	0.026
-412.384	800.000	0.097	-0.356
-411.369	122.794	-0.191	-0.241
-410.355	-200.000	-0.012	-0.054
-409.340	220.142	-0.034	-0.055
-408.325	-200.000	0.107	-0.476
-407.311	-200.000	0.012	0.140
-406.296	112.621	-0.238	0.291
-405.282	-121.559	0.195	-0.033
-404.267	21.192	-0.313	0.255
-403.252	800.000	-0.093	-0.274
-402.238	-200.000	-0.038	-0.304
-401.223	-200.000	-0.004	-0.174
-400.209	800.000	0.060	-0.200
-399.194	-43.445	-0.124	0.063
-398.179	20.324	-0.074	-0.060
-397.165	-200.000	-0.026	0.132
-396.150	105.325	-0.120	0.143
-395.136	115.870	-0.327	-0.402
-394.121	-26.367	0.270	-0.159
-393.106	-142.151	0.304	-0.030
-392.092	-137.273	0.147	0.017
-391.077	-7.806	-0.143	0.097
-390.063	-172.640	-0.214	0.007
-389.048	-200.000	0.033	0.270
-388.033	-200.000	0.011	-0.156
-387.019	289.808	-0.075	-0.137
-386.004	212.238	0.257	0.408
-384.990	-85.671	0.376	-0.117
-383.975	89.462	-0.212	0.237
-382.960	431.423	-0.053	-0.115
-381.946	320.632	-0.081	-0.155
-380.931	-147.694	-0.314	0.026
-379.917	-200.000	0.012	-0.271
-378.902	72.115	0.242	-0.254
-377.888	-74.995	-0.179	-0.064
-376.873	-65.249	-0.093	0.038
-375.858	-200.000	0.006	0.111
-374.844	75.879	-0.171	-0.182
-373.829	23.557	-0.140	0.116
-372.815	-200.000	0.029	0.529
-371.800	-125.926	-0.343	-0.052
-370.785	144.866	-0.089	-0.119
-369.771	-6.792	0.147	-0.100
-368.756	48.899	-0.166	-0.157
-367.742	132.579	-0.244	-0.317
-366.727	35.574	0.260	-0.229
-365.712	-200.000	-0.017	-0.081
-364.698	78.494	-0.134	-0.144
-363.683	-200.000	0.028	0.244
-362.669	647.816	0.128	0.328
-361.654	-200.000	-0.015	0.216
-360.639	-85.601	0.201	-0.063
-359.625	193.250	0.131	-0.199
-358.610	800.000	0.096	-0.363
-357.596	-143.261	0.150	-0.014
-356.581	-50.754	-0.449	-0.212
-355.566	302.069	-0.107	0.199
-354.552	-200.000	0.029	-0.178
-353.537	63.712	-0.070	-0.071
-352.523	95.079	-0.147	-0.168
-351.508	-200.000	0.028	-0.341
-350.493	140.071	0.032	-0.042
-349.479	10.410	-0.329	0.252
-348.464	198.713	0.059	0.091
-347.450	210.445	-0.206	0.324
-346.435	-20.773	0.293	0.181
-345.420	81.111	-0.141	-0.153
-344.406	800.000	0.072	-0.261
-343.391	-139.546	0.157	-0.017
-342.377	4.101	-0.029	0.021
-341.362	-48.436	-0.298	-0.144
-340.348	-141.255	0.153	0.016
-339.333	8.529	-0.128	0.096
-338.318	296.129	-0.063	0.116
-337.304	644.457	0.118	0.303
-336.289	-52.031	0.157	0.073
-335.275	422.735	-0.237	0.512
-334.260	-200.000	-0.026	0.337
-333.245	-153.845	0.197	-0.014
-332.231	91.619	-0.194	-0.218
-331.216	579.950	0.016	0.040
-330.202	177.102	0.227	0.332
-329.187	158.460	-0.164	-0.229
-328.172	-200.000	-0.007	0.143
-327.158	-22.782	-0.203	-0.123
-326.143	-10.938	0.240	0.159
-325.129	166.239	-0.248	0.353
-324.114	-27.935	-0.335	-0.194
-323.099	800.000	0.092	-0.263
-322.085	47.437	-0.092	0.086
-321.070	800.000	0.036	-0.137
-320.056	800.000	0.036	0.107
-319.041	-68.073	-0.247	0.096
-318.026	88.801	-0.098	0.109
-317.012	257.512	-0.042	0.073
-315.997	-52.219	0.321	-0.149
-314.983	-3.847	0.111	0.077
-313.968	388.059	-0.132	-0.274
-312.953	800.000	-0.092	0.397
-311.939	-129.361	0.131	0.018
-310.924	109.550	-0.038	-0.046
-309.910	35.631	-0.134	-0.118
-308.895	-136.521	0.127	0.015
-307.880	54.608	0.176	-0.170
-306.866	54.936	-0.142	0.137
-305.851	11.967	-0.106	-0.081
-304.837	222.565	-0.052	0.084
-303.822	800.000	-0.036	-0.131
-302.807	52.760	0.236	-0.227
-301.793	-106.997	-0.239	-0.053
-300.778	35.407	0.255	0.224
-299.764	-21.068	-0.229	-0.140
-298.749	261.237	0.115	0.200
-297.735	-200.000	-0.005	-0.032
-296.720	800.000	0.152	-0.453
-295.705	-200.000	-0.024	-0.161
-294.691	-18.282	0.248	-0.155
-293.676	597.759	0.062	0.153
-292.662	-44.239	-0.184	0.092
-291.647	-60.500	0.192	0.082
-290.632	-7.278	-0.125	0.085
-289.618	-200.000	-0.013	0.122
-288.603	89.950	0.307	-0.344
-287.589	-92.406	-0.197	-0.056
-286.574	125.668	-0.269	0.340
-285.559	-150.470	0.321	-0.025
-284.545	-58.314	-0.322	-0.140
-283.530	-143.810	-0.261	-0.025
-282.516	-200.000	0.010	-0.295
-281.501	75.422	-0.222	0.235
-280.486	283.570	0.087	-0.157
-279.472	-100.252	-0.096	0.024
-278.457	111.699	0.233	0.281
-277.443	-41.392	-0.033	-0.017
-276.428	176.050	-0.016	0.024
-275.413	-42.125	0.036	0.018
-274.399	-157.261	0.324	0.020
-273.384	649.606	-0.039	0.101
-272.370	800.000	-0.098	0.297
-271.355	11.172	0.101	0.077
-270.340	-200.000	0.026	0.141
-269.326	-200.000	0.019	0.188
-268.311	29.738	-0.542	-0.462
-267.297	800.000	0.090	0.330
-266.282	-103.344	0.076	-0.018
-265.267	225.224	0.173	-0.280
-264.253	170.597	0.347	-0.498
-263.238	421.090	0.083	-0.177
-262.224	-137.056	-0.318	-0.036
-261.209	46.598	0.072	-0.067
-260.195	-27.590	0.392	0.228
-259.180	-126.614	0.243	0.036
-258.165	-131.402	0.063	-0.008
-257.151	17.588	0.223	-0.178
-256.136	79.258	0.167	0.179
-255.122	-93.019	0.174	-0.049
-254.107	4.855	-0.314	0.231
-253.092	-116.153	-0.259	-0.048
-252.078	-183.481	-0.339	0.006
-251.063	-78.825	-0.137	0.047
-250.049	8.382	0.311	0.234
-249.034	687.914	-0.065	0.170
-248.019	-55.756	0.543	-0.243
-247.005	619.090	0.093	-0.233
-245.990	-121.609	0.178	0.030
-244.976	52.721	-0.049	0.046
-243.961	-148.659	0.090	0.007
-242.946	251.602	0.029	0.050
-241.932	403.084	0.061	0.129
-240.917	-125.094	-0.103	-0.016
-239.903	182.839	-0.074	0.109
-238.888	51.112	-0.116	-0.110
-237.873	344.408	-0.108	-0.213
-236.859	800.000	-0.114	-0.367
-235.844	-83.473	0.237	0.076
-234.830	618.103	0.026	-0.064
-233.815	-200.000	0.016	0.071
-232.800	-200.000	0.002	-0.121
-231.786	800.000	-0.071	-0.272
-230.771	-151.140	0.218	-0.016
-229.757	93.915	0.152	-0.172
-228.742	0.935	0.125	0.090
-227.727	-200.000	-0.019	-0.125
-226.713	49.664	-0.064	-0.061
-225.698	800.000	-0.065	-0.229
-224.684	-200.000	0.043	0.195
-223.669	-200.000	0.054	0.466
-222.655	-81.206	0.084	-0.028
-221.640	-26.201	0.043	-0.025
-220.625	-137.419	-0.153	-0.017
-219.611	-118.982	-0.197	0.034
-218.596	-55.002	-0.245	-0.111
-217.582	59.887	-0.318	0.314
-216.567	103.263	0.242	0.283
-215.552	800.000	0.032	-0.099
-214.538	8.042	0.221	0.165
-213.523	-132.153	-0.158	-0.021
-212.509	-46.314	0.134	0.066
-211.494	-83.337	0.450	0.144
-210.479	-118.232	-0.201	-0.036
-209.465	-68.032	0.168	0.065
-208.450	-139.940	0.150	0.016
-207.436	-81.093	0.181	-0.060
-206.421	10.859	-0.083	0.063
-205.406	2.475	-0.120	-0.087
-204.392	-51.689	-0.099	0.046
-203.377	800.000	-0.039	0.172
-202.363	-15.445	0.113	-0.072
-201.348	-166.011	0.448	0.019
-200.333	438.966	0.199	0.434
-199.319	175.644	-0.067	-0.096
-198.304	59.231	0.277	0.272
-197.290	20.078	-0.040	-0.032
-196.275	-33.266	-0.296	-0.164
-195.260	165.468	-0.115	0.163
-194.246	-200.000	-0.020	-0.191
-193.231	660.315	0.073	-0.187
-192.217	413.568	-0.093	0.198
-191.202	19.127	-0.204	-0.164
-190.187	399.668	0.146	0.305
-189.173	-67.318	0.132	0.052
-188.158	-158.110	-0.065	-0.004
-187.144	449.747	0.038	0.084
-186.129	-200.000	0.054	0.327
-185.114	800.000	0.055	-0.172
-184.100	-71.790	0.436	-0.162
-183.085	64.080	-0.242	-0.243
-182.071	-157.814	0.214	-0.013
-181.056	83.453	0.243	0.264
-180.042	-200.000	0.014	0.318
-179.027	426.444	-0.058	0.126
-178.012	800.000	-0.017	-0.068
-176.998	52.079	-0.064	0.061
-175.983	326.663	-0.186	-0.355
-174.969	-200.000	-0.013	-0.289
-173.954	800.000	0.028	0.100
-172.939	576.720	-0.129	0.313
-171.925	-106.318	0.172	-0.038
-170.910	93.554	0.160	0.181
-169.896	121.356	0.154	-0.192
-168.881	-156.700	-0.105	0.006
-167.866	800.000	0.089	0.281
-166.852	-76.128	0.140	-0.049
-165.837	-116.498	0.180	-0.033
-164.823	-140.274	-0.181	0.019
-163.808	-200.000	-0.258	0.000
-162.793	-45.023	-0.075	0.037
-161.779	-127.295	0.110	-0.016
-160.764	6.228	0.082	0.060
-159.750	-86.258	-0.264	-0.081
-158.735	-148.580	-0.043	-0.003
-157.720	715.666	0.093	-0.247
-156.706	800.000	0.021	0.063
-155.691	76.075	0.137	0.144
-154.677	-143.837	-0.075	-0.007
-153.662	-65.840	-0.289	0.115
-152.647	-200.000	-0.040	-0.187
-151.633	75.252	0.181	0.191
-150.618	-17.446	-0.188	0.118
-149.604	-113.274	-0.357	0.070
-148.589	-200.000	0.004	-0.272
-147.574	-59.986	0.285	-0.121
-146.560	800.000	0.068	0.231
-145.545	-19.941	-0.187	0.115
-144.531	69.276	0.189	0.194
-143.516	-200.000	0.027	0.272
-142.502	-101.766	0.202	-0.049
-141.487	590.970	-0.033	-0.081
-140.472	-13.553	0.318	-0.205
-139.458	82.184	-0.047	0.051
-138.443	-200.000	-0.016	-0.170
-137.429	266.972	0.143	0.248
-136.414	-200.000	-0.022	0.150
-135.399	-12.649	-0.128	-0.083
-134.385	282.918	0.212	-0.379
-133.370	51.264	0.189	0.178
-132.356	-69.974	0.309	-0.117
-131.341	11.049	-0.021	-0.016
-130.326	-138.355	0.330	0.036
-129.312	9.843	-0.135	-0.102
-128.297	-152.681	-0.241	-0.017
-127.283	-200.000	-0.011	0.070
-126.268	-50.021	-0.376	-0.178
-125.253	103.357	-0.203	-0.237
-124.239	-110.415	-0.082	-0.017
-123.224	-200.000	-0.001	0.167
-122.210	-200.000	0.062	-0.354
-121.195	-200.000	0.037	-0.169
