DTS Sentinel unit serial number:	SN413079Multiplexer serial number:	ORYXHardware model number:	OX4-SRSoftware version number:	ORYX F/W v4.00 Oryx Data Collector v3.7.2.0data status	okinstallation	princeton_trtdifferential loss correction	single-endedforward channel	channel 4reverse channel	N/Adate	2019/09/10time	19:15:11forward acquisition time	60.00reverse acquisition time	0.00gamma	496.2192k internal	0.2308k external	0.2308temperature offset calibration	0.9944default loss term (dB/km)	0.3790temperature slope calibration	1.0000multiplexer offset coefficient	1.0000multiplexer slope coefficient	1.0000fibre end	0.00T internal ref (°C)	34.00T ext. ref 1 (°C)	-0.30T ext. ref 2 (°C)	26.30length (m)	temperature (°C)	Stokes	anti-Stokes-747.200	-105.753	0.097	0.022
-746.185	233.067	-0.071	0.119
-745.171	-57.015	0.092	0.041
-744.156	145.387	-0.163	0.222
-743.142	-11.382	-0.051	0.034
-742.127	-13.418	-0.101	-0.066
-741.112	-200.000	0.056	0.252
-740.098	133.505	-0.162	0.212
-739.083	-58.782	0.283	-0.125
-738.069	-31.487	-0.158	0.090
-737.054	-108.496	-0.300	0.066
-736.039	-73.050	-0.228	0.085
-735.025	126.703	0.140	0.181
-734.010	-200.000	-0.030	-0.296
-732.996	-85.174	-0.387	0.123
-731.981	-200.000	0.033	-0.316
-730.966	127.984	-0.191	-0.246
-729.952	-80.524	-0.194	0.066
-728.937	76.404	-0.081	-0.087
-727.923	-54.451	0.174	0.080
-726.908	307.091	-0.093	-0.176
-725.894	-51.058	-0.522	-0.249
-724.879	351.413	0.163	-0.327
-723.864	-134.127	0.026	0.003
-722.850	123.332	0.139	-0.176
-721.835	-68.198	-0.155	-0.061
-720.821	-96.442	-0.397	0.106
-719.806	-200.000	0.026	-0.203
-718.791	110.797	-0.021	0.026
-717.777	-153.743	-0.152	-0.011
-716.762	554.237	0.156	0.380
-715.748	-40.902	0.056	0.029
-714.733	158.932	-0.101	0.142
-713.718	-43.886	0.398	-0.203
-712.704	800.000	0.061	-0.249
-711.689	59.005	0.028	-0.028
-710.675	-200.000	0.096	-0.574
-709.660	260.149	0.075	-0.132
-708.645	-69.662	-0.255	0.099
-707.631	152.921	-0.092	0.128
-706.616	-70.301	-0.165	0.064
-705.602	79.597	0.075	0.082
-704.587	800.000	0.071	-0.294
-703.572	259.793	-0.105	-0.184
-702.558	-200.000	0.051	0.238
-701.543	516.483	-0.002	0.005
-700.529	-147.378	-0.287	-0.025
-699.514	329.619	0.097	0.188
-698.499	91.460	0.196	0.224
-697.485	-200.000	0.019	-0.098
-696.470	-143.649	0.298	0.029
-695.456	39.194	-0.077	0.070
-694.441	-200.000	0.024	-0.138
-693.426	-200.000	0.011	-0.106
-692.412	-200.000	0.006	-0.189
-691.397	-200.000	-0.017	0.459
-690.383	-200.000	0.039	-0.335
-689.368	-200.000	0.009	0.060
-688.354	-62.635	0.137	0.058
-687.339	138.096	0.065	0.086
-686.324	324.304	-0.061	0.117
-685.310	-23.914	-0.157	0.095
-684.295	37.590	-0.180	-0.162
-683.281	42.260	0.180	-0.166
-682.266	-97.605	-0.267	0.070
-681.251	-25.096	-0.094	0.056
-680.237	-105.283	0.461	0.107
-679.222	441.377	-0.100	0.223
-678.208	6.044	-0.106	0.079
-677.193	-80.733	-0.125	-0.042
-676.178	283.719	0.173	0.315
-675.164	104.631	-0.193	-0.230
-674.149	800.000	-0.115	-0.330
-673.135	-200.000	0.007	-0.283
-672.120	-75.166	0.141	-0.051
-671.105	-200.000	0.175	0.000
-670.091	-200.000	-0.054	0.321
-669.076	-14.008	0.442	-0.289
-668.062	-155.824	0.178	0.012
-667.047	129.351	-0.106	0.137
-666.032	-73.966	0.358	-0.132
-665.018	800.000	0.142	0.556
-664.003	574.106	-0.144	0.356
-662.989	-191.763	-0.256	-0.003
-661.974	-200.000	-0.010	-0.060
-660.959	7.560	-0.110	0.083
-659.945	800.000	0.049	-0.169
-658.930	503.038	-0.103	0.240
-657.916	-200.000	0.022	-0.210
-656.901	373.389	-0.244	-0.502
-655.886	40.653	-0.111	0.101
-654.872	67.114	0.184	0.190
-653.857	-200.000	0.022	-0.198
-652.843	-97.663	0.354	-0.093
-651.828	-200.000	0.004	0.157
-650.814	28.251	-0.219	-0.187
-649.799	-165.393	0.387	0.017
-648.784	162.581	-0.069	-0.099
-647.770	-160.897	0.196	0.010
-646.755	-200.000	-0.011	-0.367
-645.741	-53.519	0.054	0.025
-644.726	-200.000	-0.013	-0.241
-643.711	-101.842	0.209	0.051
-642.697	123.175	0.140	-0.177
-641.682	-200.000	-0.083	-0.369
-640.668	80.824	-0.170	0.186
-639.653	-51.437	-0.067	-0.032
-638.638	219.287	0.214	-0.346
-637.624	239.947	0.115	-0.195
-636.609	-200.000	-0.028	0.141
-635.595	-33.314	-0.301	0.169
-634.580	-150.331	-0.232	0.018
-633.565	-75.761	-0.232	0.083
-632.551	800.000	-0.054	-0.186
-631.536	221.109	-0.105	0.171
-630.522	-51.560	-0.244	0.115
-629.507	-200.000	-0.001	0.081
-628.492	235.319	-0.201	-0.335
-627.478	-200.000	-0.040	0.354
-626.463	-146.809	-0.102	0.009
-625.449	223.447	0.128	-0.209
-624.434	-200.000	0.057	-0.265
-623.419	60.032	-0.059	0.059
-622.405	67.095	0.173	0.178
-621.390	-111.699	-0.144	0.030
-620.376	123.706	0.068	-0.086
-619.361	126.636	-0.152	0.195
-618.346	-200.000	0.017	0.187
-617.332	-56.256	0.429	-0.193
-616.317	-51.229	-0.327	-0.155
-615.303	-200.000	0.004	-0.289
-614.288	450.584	0.079	-0.177
-613.273	286.482	0.103	-0.188
-612.259	-109.416	-0.195	-0.042
-611.244	-34.396	-0.193	0.107
-610.230	-58.868	-0.025	-0.011
-609.215	345.811	-0.038	-0.075
-608.201	-106.371	-0.269	-0.061
-607.186	422.532	-0.081	0.175
-606.171	103.725	0.109	0.129
-605.157	-177.377	0.121	-0.003
-604.142	-97.957	0.029	-0.008
-603.128	17.199	-0.039	-0.032
-602.113	-200.000	-0.022	0.577
-601.098	-40.310	-0.129	-0.068
-600.084	-200.000	-0.000	0.080
-599.069	-200.000	-0.001	0.104
-598.055	204.929	-0.153	-0.239
-597.040	182.511	0.088	0.131
-596.025	-200.000	-0.004	0.452
-595.011	39.534	-0.183	0.166
-593.996	-7.746	0.412	0.281
-592.982	-200.000	0.033	0.164
-591.967	-126.073	-0.237	0.036
-590.952	-143.029	-0.289	-0.028
-589.938	770.896	0.082	-0.226
-588.923	-101.230	0.249	0.062
-587.909	-200.000	0.008	0.191
-586.894	800.000	-0.041	-0.127
-585.879	-51.023	-0.115	-0.054
-584.865	67.257	0.236	-0.243
-583.850	800.000	-0.087	0.324
-582.836	156.440	-0.088	-0.122
-581.821	800.000	-0.086	0.285
-580.806	-81.566	-0.395	-0.131
-579.792	266.004	0.118	0.209
-578.777	-115.092	-0.174	-0.033
-577.763	-102.686	0.281	-0.068
-576.748	-109.294	-0.201	-0.043
-575.733	-78.773	0.267	-0.092
-574.719	-60.186	-0.446	-0.192
-573.704	271.463	0.201	0.357
-572.690	-17.436	-0.191	0.121
-571.675	-58.432	0.324	0.142
-570.661	-175.970	-0.339	-0.009
-569.646	-91.210	-0.326	-0.094
-568.631	-64.282	-0.055	0.023
-567.617	-69.383	-0.320	-0.124
-566.602	-49.360	0.202	0.097
-565.588	193.347	0.061	-0.093
-564.573	-41.109	-0.293	0.153
-563.558	68.145	-0.199	-0.206
-562.544	-87.855	0.248	0.075
-561.529	-38.054	0.151	0.081
-560.515	800.000	0.069	-0.220
-559.500	44.364	0.033	-0.030
-558.485	-23.733	-0.345	0.209
-557.471	-120.761	0.147	0.025
-556.456	30.502	0.306	-0.264
-555.442	-145.859	0.226	0.020
-554.427	-49.306	-0.298	0.143
-553.412	-200.000	-0.007	-0.174
-552.398	79.336	-0.174	0.188
-551.383	-99.886	0.077	-0.019
-550.369	-56.850	-0.073	0.033
-549.354	-200.000	-0.021	-0.096
-548.339	-200.000	-0.057	0.278
-547.325	-49.913	0.122	0.058
-546.310	-200.000	-0.007	0.071
-545.296	-37.386	-0.415	-0.223
-544.281	184.599	0.075	0.112
-543.266	-59.424	-0.283	-0.123
-542.252	-7.800	-0.236	-0.160
-541.237	-69.906	0.189	0.073
-540.223	326.558	0.069	0.133
-539.208	-86.451	0.229	0.071
-538.193	-200.000	0.067	-0.309
-537.179	26.633	0.034	-0.029
-536.164	-137.869	-0.439	-0.049
-535.150	-132.699	-0.062	0.008
-534.135	96.696	-0.144	-0.167
-533.121	-62.402	0.323	0.135
-532.106	-36.807	0.049	-0.027
-531.091	-120.528	0.271	0.046
-530.077	-82.132	-0.150	0.049
-529.062	63.392	0.213	-0.215
-528.048	202.754	0.022	-0.034
-527.033	-77.446	-0.180	-0.063
-526.018	-59.528	-0.137	-0.059
-525.004	33.996	-0.416	-0.365
-523.989	-43.710	-0.169	-0.086
-522.975	159.496	0.125	0.175
-521.960	384.591	0.134	-0.277
-520.945	60.513	-0.088	-0.088
-519.931	-55.010	-0.076	-0.034
-518.916	-70.020	0.210	0.081
-517.902	-94.330	-0.076	-0.021
-516.887	77.748	0.082	-0.088
-515.872	84.831	0.153	-0.169
-514.858	630.222	-0.006	0.016
-513.843	-30.354	0.136	-0.078
-512.829	800.000	0.082	0.307
-511.814	-141.439	0.171	-0.017
-510.799	-80.456	0.095	-0.032
-509.785	800.000	0.039	0.113
-508.770	-123.532	-0.117	0.019
-507.756	-75.715	0.293	-0.105
-506.741	-119.305	0.293	-0.051
-505.726	800.000	-0.055	-0.207
-504.712	-200.000	-0.043	-0.434
-503.697	-22.853	0.130	0.079
-502.683	146.494	0.190	0.257
-501.668	800.000	-0.055	0.233
-500.653	-107.449	-0.186	-0.041
-499.639	-200.000	0.016	-0.304
-498.624	-71.382	0.326	0.123
-497.610	-200.000	0.049	0.267
-496.595	-200.000	-0.015	0.152
-495.581	-200.000	-0.066	0.304
-494.566	-67.919	-0.311	-0.122
-493.551	800.000	0.060	-0.205
-492.537	-66.697	-0.275	0.110
-491.522	70.492	-0.404	0.420
-490.508	-200.000	0.024	-0.298
-489.493	-21.259	0.018	-0.011
-488.478	-28.400	0.418	0.243
-487.464	800.000	0.035	0.122
-486.449	-200.000	0.361	-0.002
-485.435	-173.943	0.357	-0.011
-484.420	256.017	-0.058	-0.101
-483.405	-90.083	-0.245	0.072
-482.391	-152.827	-0.525	-0.037
-481.376	241.056	-0.077	-0.130
-480.362	-112.900	-0.194	0.039
-479.347	-50.234	-0.179	-0.085
-478.332	385.678	-0.021	0.044
-477.318	219.294	-0.014	0.022
-476.303	383.326	-0.077	-0.160
-475.289	19.515	0.067	-0.054
-474.274	13.048	-0.194	-0.151
-473.259	-68.028	0.405	0.159
-472.245	495.702	-0.053	-0.123
-471.230	-1.033	0.104	-0.074
-470.216	-200.000	0.026	-0.132
-469.201	221.251	0.106	0.170
-468.186	597.189	-0.017	-0.043
-467.172	341.236	0.037	0.072
-466.157	-200.000	-0.021	0.237
-465.143	189.801	-0.142	0.214
-464.128	-200.000	0.027	0.472
-463.113	800.000	0.139	-0.406
-462.099	-6.264	0.291	0.200
-461.084	38.881	-0.234	0.210
-460.070	36.462	0.035	0.031
-459.055	-11.285	0.016	0.010
-458.040	53.944	-0.139	0.134
-457.026	-22.276	-0.138	-0.084
-456.011	-83.307	0.248	-0.080
-454.997	242.199	0.100	0.169
-453.982	-200.000	-0.017	-0.278
-452.968	-120.070	-0.283	-0.049
-451.953	-87.787	-0.206	0.062
-450.938	-83.124	0.269	-0.087
-449.924	402.504	0.122	0.258
-448.909	-200.000	0.021	-0.238
-447.895	-173.816	0.148	0.004
-446.880	249.269	-0.049	0.084
-445.865	759.839	-0.049	-0.133
-444.851	-123.457	0.119	-0.019
-443.836	-27.231	-0.305	0.178
-442.822	-200.000	-0.048	-0.235
-441.807	-115.623	-0.079	-0.015
-440.792	-184.442	0.338	-0.006
-439.778	-200.000	0.011	0.110
-438.763	6.658	-0.199	0.149
-437.749	-0.049	-0.209	-0.149
-436.734	-200.000	-0.027	0.239
-435.719	800.000	0.064	-0.260
-434.705	-58.985	0.129	-0.056
-433.690	800.000	0.068	0.283
-432.676	-13.842	0.191	0.124
-431.661	-3.264	0.062	-0.044
-430.646	-75.821	0.116	0.041
-429.632	800.000	0.032	-0.116
-428.617	-105.904	-0.156	-0.035
-427.603	117.916	-0.297	0.367
-426.588	63.892	-0.177	0.178
-425.573	-100.351	-0.129	0.032
-424.559	-111.690	-0.174	0.035
-423.544	-200.000	-0.009	0.167
-422.530	-200.000	0.015	0.165
-421.515	-95.785	-0.069	-0.018
-420.500	-60.014	-0.184	-0.079
-419.486	-110.813	0.318	-0.066
-418.471	265.754	0.101	0.176
-417.457	-123.521	-0.230	-0.037
-416.442	101.799	0.344	-0.403
-415.428	112.668	-0.057	0.069
-414.413	49.247	0.237	0.224
-413.398	40.251	-0.234	0.211
-412.384	800.000	0.032	0.092
-411.369	800.000	-0.059	0.169
-410.355	243.666	-0.112	0.189
-409.340	57.483	-0.129	-0.126
-408.325	-52.614	0.139	0.064
-407.311	-95.517	-0.248	-0.067
-406.296	-200.000	-0.007	-0.133
-405.282	-200.000	0.000	-0.010
-404.267	244.058	0.077	0.130
-403.252	-200.000	-0.001	0.006
-402.238	-57.402	0.168	-0.074
-401.223	-17.792	-0.159	0.100
-400.209	-13.657	0.055	0.036
-399.194	800.000	-0.057	-0.210
-398.179	800.000	0.164	-0.513
-397.165	-119.866	0.051	0.009
-396.150	-108.694	0.193	-0.041
-395.136	800.000	0.041	0.157
-394.121	-133.956	0.459	-0.057
-393.106	309.135	-0.088	-0.164
-392.092	-91.072	-0.254	-0.073
-391.077	387.309	-0.132	-0.273
-390.063	77.348	-0.122	-0.130
-389.048	-8.588	-0.206	0.139
-388.033	236.914	-0.248	0.413
-387.019	533.642	0.127	0.302
-386.004	800.000	0.075	0.211
-384.990	-200.000	0.077	0.468
-383.975	375.336	0.097	0.198
-382.960	-89.321	-0.229	-0.068
-381.946	326.229	0.267	0.512
-380.931	363.685	0.038	0.077
-379.917	800.000	0.132	-0.497
-378.902	-200.000	0.006	0.276
-377.888	800.000	-0.042	-0.161
-376.873	-200.000	-0.017	-0.138
-375.858	-200.000	0.016	0.087
-374.844	-22.873	0.199	0.120
-373.829	-187.112	-0.511	-0.007
-372.815	-200.000	0.029	0.274
-371.800	450.452	0.091	0.201
-370.785	-200.000	0.000	-0.122
-369.771	-200.000	-0.001	-0.055
-368.756	800.000	-0.033	-0.119
-367.742	-181.057	0.106	-0.002
-366.727	469.220	0.130	0.293
-365.712	-111.020	0.227	0.047
-364.698	-41.410	-0.175	-0.090
-363.683	-200.000	-0.014	-0.170
-362.669	-106.887	0.179	-0.040
-361.654	-83.343	0.259	0.083
-360.639	-109.866	0.048	0.010
-359.625	800.000	0.093	-0.297
-358.610	240.439	-0.143	-0.238
-357.596	-200.000	0.007	-0.062
-356.581	-6.117	-0.335	0.229
-355.566	-59.354	0.141	0.061
-354.552	-11.206	-0.207	0.137
-353.537	166.741	-0.125	0.177
-352.523	800.000	-0.066	0.273
-351.508	-71.948	0.206	-0.077
-350.493	800.000	0.026	-0.084
-349.479	-200.000	0.009	-0.125
-348.464	-79.042	0.223	-0.076
-347.450	100.642	0.154	-0.179
-346.435	-149.329	-0.353	0.028
-345.420	-59.033	0.006	0.003
-344.406	-147.350	0.367	-0.031
-343.391	-200.000	0.012	0.153
-342.377	-131.380	0.308	0.041
-341.362	-27.518	-0.144	0.084
-340.348	-33.805	0.215	0.119
-339.333	-200.000	0.257	0.000
-338.318	-144.795	-0.072	0.007
-337.304	7.156	-0.059	0.044
-336.289	-40.677	0.463	0.240
-335.275	-124.366	0.185	0.029
-334.260	106.842	-0.103	0.122
-333.245	233.545	0.053	0.087
-332.231	-200.000	0.003	-0.246
-331.216	-70.441	0.168	-0.064
-330.202	-59.064	0.281	-0.121
-329.187	-200.000	-0.065	0.313
-328.172	-85.803	-0.178	-0.055
-327.158	174.557	-0.088	-0.128
-326.143	39.690	-0.147	-0.132
-325.129	-36.778	0.144	-0.077
-324.114	-20.234	0.205	0.127
-323.099	-17.735	0.165	0.104
-322.085	169.844	0.135	0.193
-321.070	-109.310	-0.375	-0.079
-320.056	-48.880	0.273	0.131
-319.041	-141.975	0.094	-0.009
-318.026	72.453	0.168	-0.175
-317.012	800.000	0.119	-0.369
-315.997	101.375	-0.136	-0.159
-314.983	-61.524	-0.346	-0.145
-313.968	483.820	-0.055	-0.126
-312.953	-200.000	0.032	0.300
-311.939	263.288	-0.084	-0.145
-310.924	-103.056	-0.203	0.048
-309.910	74.939	0.104	-0.109
-308.895	-200.000	0.003	-0.134
-307.880	283.747	-0.128	-0.230
-306.866	-12.203	0.121	-0.079
-305.851	-161.251	0.121	-0.006
-304.837	800.000	0.086	0.252
-303.822	108.502	-0.250	-0.298
-302.807	800.000	-0.031	0.100
-301.793	82.268	-0.095	-0.103
-300.778	-98.504	-0.031	-0.008
-299.764	3.011	-0.360	-0.261
-298.749	800.000	-0.100	-0.358
-297.735	-59.562	0.281	-0.121
-296.720	195.165	-0.026	0.040
-295.705	800.000	-0.030	-0.091
-294.691	800.000	0.023	0.100
-293.676	-200.000	-0.099	-0.661
-292.662	-50.934	0.091	0.043
-291.647	127.684	0.178	0.226
-290.632	-18.579	0.194	0.121
-289.618	-200.000	-0.042	0.194
-288.603	800.000	-0.087	0.311
-287.589	-45.270	-0.035	0.017
-286.574	48.638	-0.230	0.215
-285.559	800.000	-0.118	0.334
-284.545	-144.626	0.025	0.002
-283.530	-94.406	-0.145	0.039
-282.516	800.000	-0.021	-0.077
-281.501	377.410	-0.116	-0.237
-280.486	-96.918	0.155	0.041
-279.472	-146.761	0.341	-0.029
-278.457	-31.875	-0.278	0.156
-277.443	-132.315	-0.298	-0.038
-276.428	604.089	0.118	-0.292
-275.413	-45.747	0.188	0.093
-274.399	-85.038	0.248	0.077
-273.384	-94.614	-0.208	-0.057
-272.370	-54.981	-0.146	-0.066
-271.355	800.000	-0.083	0.275
-270.340	-200.000	0.023	-0.158
-269.326	800.000	0.072	-0.266
-268.311	-200.000	-0.019	-0.205
-267.297	136.006	0.208	-0.271
-266.282	225.183	-0.157	-0.253
-265.267	11.717	-0.389	-0.298
-264.253	231.976	-0.076	-0.124
-263.238	539.693	0.075	-0.177
-262.224	-185.998	-0.265	-0.004
-261.209	-15.895	-0.188	-0.120
-260.195	-30.166	0.098	0.055
-259.180	-133.760	0.251	-0.031
-258.165	-200.000	-0.026	-0.197
-257.151	-35.533	0.165	-0.089
-256.136	800.000	0.018	0.078
-255.122	103.138	0.164	-0.192
-254.107	800.000	0.040	0.172
-253.092	36.637	-0.122	-0.107
-252.078	219.680	0.185	-0.295
-251.063	-109.562	0.035	0.007
-250.049	80.506	0.121	0.130
-249.034	-200.000	0.016	0.226
-248.019	-33.000	-0.100	0.055
-247.005	-22.082	0.325	-0.197
-245.990	233.032	0.116	0.190
-244.976	-125.997	-0.175	-0.026
-243.961	-16.922	-0.235	0.148
-242.946	-132.791	0.262	0.033
-241.932	223.938	0.219	-0.352
-240.917	-106.243	-0.384	0.086
-239.903	800.000	-0.076	-0.288
-238.888	800.000	-0.042	-0.172
-237.873	-182.463	-0.156	-0.003
-236.859	-47.752	-0.320	-0.155
-235.844	-116.654	-0.394	0.072
-234.830	49.153	0.137	0.128
-233.815	423.787	-0.075	-0.160
-232.800	-40.237	0.460	-0.238
-231.786	36.870	0.382	0.336
-230.771	-200.000	-0.005	0.224
-229.757	744.347	-0.103	0.277
-228.742	306.004	0.188	0.348
-227.727	800.000	-0.074	0.225
-226.713	500.125	0.079	0.182
-225.698	-54.761	-0.258	0.116
-224.684	-39.275	-0.129	0.068
-223.669	-22.249	0.363	-0.219
-222.655	355.774	-0.057	-0.114
-221.640	-17.942	-0.307	0.192
-220.625	20.224	0.258	-0.208
-219.611	-124.951	0.119	-0.018
-218.596	87.016	-0.083	0.092
-217.582	-14.200	-0.166	0.106
-216.567	-200.000	0.061	0.353
-215.552	-140.626	0.156	0.016
-214.538	445.118	-0.131	-0.286
-213.523	203.674	0.146	0.225
-212.509	61.853	-0.267	0.264
-211.494	154.984	0.060	0.082
-210.479	764.156	-0.072	-0.195
-209.465	-53.965	0.318	0.144
-208.450	55.375	0.061	-0.059
-207.436	-9.627	0.070	-0.046
-206.421	-40.259	0.124	-0.064
-205.406	-47.136	0.125	-0.061
-204.392	139.458	-0.046	0.060
-203.377	-200.000	-0.017	0.173
-202.363	50.983	0.091	0.086
-201.348	455.800	0.036	-0.080
-200.333	-157.394	0.282	0.017
-199.319	-152.121	0.311	-0.022
-198.304	564.613	0.056	-0.135
-197.290	132.113	-0.240	-0.308
-196.275	-111.787	0.140	0.028
-195.260	27.100	0.271	0.226
-194.246	5.383	-0.270	0.198
-193.231	500.400	-0.068	-0.156
-192.217	76.099	-0.210	-0.221
-191.202	209.264	0.103	-0.161
-190.187	-66.500	0.458	-0.181
-189.173	15.030	0.149	0.116
-188.158	-37.766	0.248	-0.131
-187.144	-174.058	-0.222	0.006
-186.129	800.000	0.128	0.492
-185.114	142.134	0.028	0.036
-184.100	-55.629	-0.170	-0.076
-183.085	-200.000	-0.048	-0.232
-182.071	-130.728	0.067	0.009
-181.056	208.360	-0.048	0.074
-180.042	-71.893	-0.105	-0.039
-179.027	690.229	0.035	0.092
-178.012	800.000	0.110	0.305
-176.998	145.536	0.057	-0.076
-175.983	-200.000	-0.019	0.168
-174.969	-130.844	-0.220	-0.029
-173.954	-93.874	-0.313	-0.086
-172.939	-200.000	0.028	0.202
-171.925	-21.541	-0.139	0.084
-170.910	89.821	0.114	-0.126
-169.896	-0.118	-0.140	0.099
-168.881	-134.710	-0.108	-0.013
-167.866	-200.000	0.003	0.094
-166.852	800.000	-0.062	-0.212
-165.837	-1.693	0.151	0.105
-164.823	-200.000	-0.041	-0.360
-163.808	-54.288	0.235	-0.106
-162.793	282.207	0.040	-0.070
-161.779	-117.540	0.112	0.020
-160.764	70.897	-0.054	-0.055
-159.750	-200.000	0.027	0.185
-158.735	-14.123	0.097	-0.062
-157.720	-98.582	-0.086	-0.022
-156.706	-19.798	-0.154	-0.094
-155.691	-63.968	-0.085	-0.035
-154.677	-73.223	0.279	0.102
-153.662	19.187	0.320	-0.255
-152.647	-17.832	-0.396	-0.246
-151.633	-10.112	-0.020	0.013
-150.618	-69.852	0.372	-0.141
-149.604	-163.907	-0.207	0.010
-148.589	-200.000	0.085	0.436
-147.574	-93.562	-0.206	0.057
-146.560	59.299	0.213	0.209
-145.545	800.000	0.015	-0.048
-144.531	800.000	-0.101	0.424
-143.516	-200.000	-0.034	-0.285
-142.502	301.485	-0.102	-0.188
-141.487	800.000	-0.007	0.020
-140.472	554.082	0.121	0.290
-139.458	-76.900	0.126	0.044
-138.443	-150.568	-0.178	-0.014
-137.429	-200.000	0.027	-0.136
-136.414	-132.936	0.610	0.077
-135.399	-67.074	0.165	-0.065
-134.385	-200.000	0.001	0.040
-133.370	322.101	0.111	-0.210
-132.356	-133.158	0.201	-0.025
-131.341	9.857	-0.185	-0.140
-130.326	-86.994	-0.323	0.098
-129.312	-200.000	-0.019	-0.234
-128.297	800.000	-0.143	0.393
-127.283	-1.602	-0.083	-0.058
-126.268	-91.054	-0.051	0.014
-125.253	-107.160	-0.119	0.026
-124.239	800.000	-0.055	-0.182
-123.224	-21.786	0.327	0.197
-122.210	320.031	-0.032	0.059
