DTS Sentinel unit serial number:	SN413079Multiplexer serial number:	ORYXHardware model number:	OX4-SRSoftware version number:	ORYX F/W v4.00 Oryx Data Collector v3.7.2.0data status	okinstallation	princeton_trtdifferential loss correction	single-endedforward channel	channel 4reverse channel	N/Adate	2019/09/12time	07:27:11forward acquisition time	60.00reverse acquisition time	0.00gamma	496.2192k internal	0.2306k external	0.2306temperature offset calibration	1.0061default loss term (dB/km)	0.3790temperature slope calibration	1.0000multiplexer offset coefficient	1.0000multiplexer slope coefficient	1.0000fibre end	0.00T internal ref (°C)	32.44T ext. ref 1 (°C)	1.61T ext. ref 2 (°C)	28.96length (m)	temperature (°C)	Stokes	anti-Stokes-747.200	-200.000	0.003	-0.096
-746.185	-117.625	-0.278	0.051
-745.171	-80.039	0.081	-0.028
-744.156	-83.621	-0.157	-0.051
-743.142	800.000	-0.085	0.333
-742.127	490.665	0.188	0.438
-741.112	37.830	-0.250	-0.226
-740.098	12.777	-0.259	-0.204
-739.083	-200.000	0.026	-0.240
-738.069	124.823	-0.197	-0.253
-737.054	-40.679	-0.351	0.185
-736.039	488.883	0.154	0.357
-735.025	-120.863	-0.113	0.019
-734.010	-65.026	-0.192	0.079
-732.996	-200.000	-0.050	-0.241
-731.981	167.892	0.094	-0.136
-730.966	77.637	0.103	0.112
-729.952	23.604	0.210	-0.176
-728.937	17.414	-0.083	-0.067
-727.923	38.871	-0.140	0.127
-726.908	-200.000	0.078	0.000
-725.894	-1.143	0.147	-0.106
-724.879	-12.021	0.100	-0.067
-723.864	-106.236	0.129	-0.029
-722.850	-129.709	0.333	-0.047
-721.835	-87.429	-0.265	0.082
-720.821	40.039	0.118	-0.108
-719.806	800.000	-0.057	-0.177
-718.791	-83.773	0.188	-0.061
-717.777	-169.898	-0.733	-0.027
-716.762	-200.000	-0.015	0.324
-715.748	-200.000	0.008	0.315
-714.733	162.666	-0.325	-0.464
-713.718	27.663	-0.078	-0.066
-712.704	-138.834	0.209	-0.023
-711.689	0.066	0.270	-0.195
-710.675	-16.813	-0.466	-0.299
-709.660	80.361	0.219	-0.239
-708.645	-8.421	-0.120	0.082
-707.631	51.304	-0.224	0.216
-706.616	139.493	0.057	0.076
-705.602	-175.452	-0.112	-0.003
-704.587	-67.910	-0.074	0.029
-703.572	-77.001	-0.323	-0.115
-702.558	800.000	-0.052	-0.151
-701.543	77.300	-0.091	-0.099
-700.529	33.322	-0.406	0.358
-699.514	741.035	0.131	0.357
-698.499	-27.597	0.074	-0.043
-697.485	-200.000	0.018	0.358
-696.470	-32.603	0.086	0.048
-695.456	-200.000	-0.032	0.386
-694.441	-58.279	-0.345	-0.152
-693.426	606.286	-0.022	-0.056
-692.412	281.539	-0.046	0.084
-691.397	-200.000	0.021	0.136
-690.383	-200.000	0.025	0.134
-689.368	-200.000	-0.001	-0.228
-688.354	331.438	-0.097	-0.189
-687.339	340.530	-0.074	-0.147
-686.324	197.042	-0.134	0.208
-685.310	425.552	-0.167	-0.365
-684.295	-200.000	-0.002	0.050
-683.281	-200.000	0.110	-0.000
-682.266	-11.561	0.353	0.236
-681.251	297.712	-0.075	-0.139
-680.237	-171.864	0.179	0.006
-679.222	-118.965	-0.144	0.026
-678.208	2.382	-0.130	0.096
-677.193	-40.046	-0.312	-0.165
-676.178	-163.363	0.117	-0.006
-675.164	-168.579	-0.338	-0.013
-674.149	722.852	-0.163	-0.441
-673.135	-96.300	-0.231	0.062
-672.120	562.041	0.073	-0.179
-671.105	-55.427	-0.246	-0.112
-670.091	685.113	0.072	0.190
-669.076	-37.784	-0.312	-0.168
-668.062	800.000	-0.045	0.135
-667.047	-200.000	0.022	0.234
-666.032	-21.525	0.318	-0.197
-665.018	76.499	0.149	-0.160
-664.003	-163.999	-0.331	-0.016
-662.989	490.486	0.081	0.188
-661.974	-200.000	-0.023	0.193
-660.959	-21.426	-0.050	-0.031
-659.945	-42.346	-0.151	0.078
-658.930	-200.000	0.008	-0.225
-657.916	-92.773	-0.138	-0.039
-656.901	-166.839	-0.050	0.002
-655.886	17.068	-0.362	-0.291
-654.872	20.728	0.114	0.094
-653.857	4.922	0.055	-0.041
-652.843	-100.743	-0.254	0.063
-651.828	-200.000	-0.014	-0.066
-650.814	-41.534	-0.199	-0.104
-649.799	107.909	-0.289	-0.350
-648.784	-200.000	0.039	0.294
-647.770	800.000	-0.052	-0.165
-646.755	-16.334	0.262	-0.169
-645.741	108.560	0.095	-0.115
-644.726	-200.000	0.038	-0.173
-643.711	291.449	0.031	-0.057
-642.697	705.517	-0.019	0.051
-641.682	800.000	-0.052	0.199
-640.668	-58.920	-0.130	-0.057
-639.653	15.438	-0.097	0.077
-638.638	-200.000	-0.065	-0.307
-637.624	84.422	0.163	0.180
-636.609	-79.819	-0.438	-0.149
-635.595	-174.641	0.216	0.006
-634.580	-200.000	-0.004	-0.098
-633.565	-172.024	-0.298	0.010
-632.551	-93.894	0.475	0.132
-631.536	-28.405	0.113	0.066
-630.522	-200.000	-0.006	-0.058
-629.507	-14.919	-0.099	0.064
-628.492	-92.373	-0.095	0.027
-627.478	-10.682	0.352	0.236
-626.463	312.308	-0.134	0.255
-625.449	107.056	-0.099	0.119
-624.434	-143.351	-0.171	-0.017
-623.419	-136.498	0.286	-0.034
-622.405	-157.243	0.370	-0.023
-621.390	-200.000	0.034	0.284
-620.376	119.298	0.163	0.204
-619.361	-20.873	0.085	0.053
-618.346	-51.934	0.294	-0.138
-617.332	-99.227	0.187	0.048
-616.317	-86.923	0.135	-0.042
-615.303	-200.000	-0.002	0.167
-614.288	194.714	-0.131	-0.201
-613.273	-6.623	-0.272	0.187
-612.259	-200.000	-0.009	-0.044
-611.244	-200.000	-0.021	0.110
-610.230	40.068	0.313	-0.285
-609.215	282.643	0.045	-0.083
-608.201	446.824	0.123	-0.275
-607.186	-9.438	0.085	0.057
-606.171	-17.662	0.223	-0.142
-605.157	-180.954	-0.110	-0.002
-604.142	85.895	0.245	0.272
-603.128	70.907	-0.300	-0.315
-602.113	-115.369	0.229	-0.044
-601.098	-200.000	-0.049	-0.263
-600.084	67.841	0.131	-0.136
-599.069	-200.000	0.046	0.312
-598.055	-130.001	-0.282	0.039
-597.040	698.813	-0.076	0.203
-596.025	-200.000	-0.027	0.238
-595.011	-200.000	-0.011	-0.394
-593.996	-66.799	-0.241	-0.096
-592.982	-70.448	-0.182	-0.070
-591.967	800.000	-0.079	-0.258
-590.952	-85.118	0.347	0.110
-589.938	800.000	-0.174	-0.489
-588.923	800.000	-0.043	-0.134
-587.909	131.711	0.138	0.179
-586.894	-136.283	0.319	0.038
-585.879	-135.646	0.183	-0.022
-584.865	-83.134	-0.312	-0.101
-583.850	-59.650	-0.220	-0.095
-582.836	195.711	0.133	0.205
-581.821	-104.535	-0.052	0.012
-580.806	153.641	-0.101	-0.140
-579.792	800.000	0.087	0.308
-578.777	119.230	0.023	0.029
-577.763	800.000	-0.067	-0.263
-576.748	800.000	-0.086	0.365
-575.733	-6.735	0.102	0.070
-574.719	268.316	-0.085	0.151
-573.704	-5.402	0.310	-0.215
-572.690	-132.004	0.181	-0.024
-571.675	774.215	0.104	-0.288
-570.661	800.000	-0.174	-0.559
-569.646	-200.000	-0.006	0.243
-568.631	652.211	-0.150	-0.389
-567.617	81.749	0.109	0.119
-566.602	140.568	-0.076	0.102
-565.588	-52.973	0.177	-0.082
-564.573	-113.521	0.165	-0.033
-563.558	384.610	-0.137	-0.286
-562.544	-64.018	-0.082	-0.034
-561.529	-200.000	-0.002	0.141
-560.515	-57.840	-0.195	0.086
-559.500	-168.543	-0.208	0.008
-558.485	-118.767	0.096	-0.017
-557.471	-34.258	-0.153	0.085
-556.456	-115.375	0.431	0.082
-555.442	-200.000	0.013	0.202
-554.427	26.985	0.186	0.157
-553.412	582.416	-0.049	-0.122
-552.398	761.507	0.089	0.244
-551.383	-136.057	-0.129	0.015
-550.369	28.546	0.112	-0.096
-549.354	347.255	-0.143	-0.284
-548.339	-37.432	0.272	-0.147
-547.325	256.227	0.116	0.201
-546.310	65.970	-0.230	-0.236
-545.296	-35.220	-0.260	0.143
-544.281	-200.000	-0.018	-0.291
-543.266	800.000	-0.106	0.404
-542.252	-3.729	-0.306	0.215
-541.237	-77.520	0.236	0.083
-540.223	235.885	-0.038	-0.063
-539.208	1.027	0.071	0.052
-538.193	595.392	-0.104	0.260
-537.179	6.460	-0.301	-0.225
-536.164	184.017	-0.112	0.167
-535.150	22.898	0.073	0.061
-534.135	689.100	-0.011	0.028
-533.121	800.000	0.020	0.075
-532.106	-75.548	0.064	-0.023
-531.091	14.257	-0.246	0.194
-530.077	339.749	0.056	-0.111
-529.062	-28.198	-0.132	0.077
-528.048	-27.932	0.317	-0.185
-527.033	-78.139	-0.093	0.032
-526.018	-27.684	0.303	0.178
-525.004	-198.651	-0.212	0.001
-523.989	-118.277	0.209	0.038
-522.975	-200.000	-0.056	-0.296
-521.960	800.000	-0.046	-0.149
-520.945	-200.000	-0.001	0.109
-519.931	-119.036	-0.101	0.018
-518.916	-200.000	0.024	0.156
-517.902	-80.265	0.377	0.127
-516.887	263.713	0.226	0.397
-515.872	40.177	0.149	0.135
-514.858	800.000	0.108	-0.304
-513.843	-57.911	0.200	0.088
-512.829	665.173	-0.071	0.184
-511.814	733.968	-0.017	-0.046
-510.799	-78.343	-0.125	0.043
-509.785	-63.115	0.133	-0.056
-508.770	18.371	-0.109	0.088
-507.756	-200.000	-0.004	-0.156
-506.741	-200.000	-0.058	0.354
-505.726	-64.928	-0.110	0.045
-504.712	81.091	-0.172	0.188
-503.697	187.276	0.116	0.175
-502.683	-200.000	-0.023	-0.491
-501.668	229.376	-0.160	-0.263
-500.653	800.000	0.087	0.277
-499.639	664.974	0.130	0.338
-498.624	-103.204	-0.342	-0.081
-497.610	-32.493	-0.264	-0.148
-496.595	33.107	0.316	0.276
-495.581	221.203	-0.163	-0.263
-494.566	-115.373	0.223	0.042
-493.551	141.763	0.244	0.326
-492.537	-91.486	-0.211	0.061
-491.522	-118.907	-0.307	-0.054
-490.508	-200.000	-0.051	0.394
-489.493	800.000	-0.038	-0.106
-488.478	532.559	0.055	-0.131
-487.464	-200.000	-0.031	0.256
-486.449	-105.165	0.231	-0.053
-485.435	-200.000	-0.044	0.250
-484.420	-30.819	-0.212	-0.121
-483.405	18.146	-0.370	0.297
-482.391	-128.023	-0.526	0.076
-481.376	-13.819	0.192	-0.125
-480.362	-161.778	0.165	-0.008
-479.347	-200.000	0.018	-0.160
-478.332	-96.941	0.264	0.070
-477.318	36.793	-0.210	0.187
-476.303	29.348	0.144	-0.123
-475.289	-125.760	0.371	0.057
-474.274	800.000	-0.027	0.081
-473.259	-200.000	0.028	-0.156
-472.245	800.000	-0.079	0.347
-471.230	-200.000	0.018	0.114
-470.216	800.000	0.109	0.312
-469.201	13.834	0.255	-0.200
-468.186	800.000	-0.076	0.305
-467.172	800.000	-0.044	0.173
-466.157	-200.000	0.011	0.210
-465.143	-135.243	0.044	0.005
-464.128	-102.796	-0.184	-0.044
-463.113	-141.702	-0.175	-0.018
-462.099	437.111	0.031	0.068
-461.084	-200.000	-0.014	0.069
-460.070	76.334	0.098	-0.104
-459.055	-200.000	0.040	-0.223
-458.040	-83.173	0.256	-0.083
-457.026	-200.000	0.004	-0.135
-456.011	-99.534	0.319	-0.081
-454.997	-56.465	-0.296	0.132
-453.982	632.165	0.074	0.189
-452.968	243.293	-0.172	-0.291
-451.953	-25.735	-0.018	0.011
-450.938	71.710	-0.302	-0.316
-449.924	350.196	0.013	-0.026
-448.909	227.798	-0.027	0.044
-447.895	-132.632	-0.144	-0.019
-446.880	59.676	-0.108	-0.107
-445.865	-72.854	-0.332	0.123
-444.851	800.000	-0.021	-0.061
-443.836	323.831	0.091	0.175
-442.822	119.285	-0.067	-0.083
-441.807	1.011	0.134	-0.097
-440.792	-200.000	0.034	-0.477
-439.778	-91.026	-0.252	0.073
-438.763	-89.907	0.111	0.032
-437.749	335.740	-0.163	0.318
-436.734	800.000	0.146	-0.444
-435.719	278.034	0.184	-0.330
-434.705	-128.300	0.033	-0.005
-433.690	33.847	-0.207	0.181
-432.676	159.688	0.077	0.107
-431.661	800.000	-0.087	0.300
-430.646	-29.637	0.195	-0.112
-429.632	-146.363	-0.160	-0.014
-428.617	195.070	0.136	-0.208
-427.603	-66.169	-0.145	-0.058
-426.588	2.600	0.182	-0.133
-425.573	800.000	0.021	-0.079
-424.559	-200.000	-0.001	-0.038
-423.544	-125.937	0.578	-0.087
-422.530	-200.000	0.072	0.319
-421.515	-77.913	0.384	-0.133
-420.500	61.350	-0.099	0.099
-419.486	-112.421	-0.177	-0.035
-418.471	-46.903	-0.054	-0.027
-417.457	-200.000	-0.001	-0.020
-416.442	-23.503	0.172	0.104
-415.428	-33.328	-0.178	-0.099
-414.413	-200.000	-0.044	-0.356
-413.398	-75.041	0.325	-0.117
-412.384	121.197	0.132	0.165
-411.369	-200.000	0.018	-0.085
-410.355	193.916	-0.156	-0.237
-409.340	-133.016	0.141	0.018
-408.325	-75.801	-0.209	-0.074
-407.311	-151.437	0.338	0.025
-406.296	-200.000	0.043	0.321
-405.282	800.000	0.073	-0.205
-404.267	800.000	-0.044	0.158
-403.252	-200.000	0.006	0.258
-402.238	-125.459	-0.358	-0.055
-401.223	-87.787	-0.286	0.087
-400.209	-191.648	-0.270	-0.003
-399.194	281.441	0.089	0.159
-398.179	-178.968	0.401	-0.009
-397.165	263.467	-0.116	-0.202
-396.150	60.327	-0.237	0.235
-395.136	-65.268	0.068	0.027
-394.121	29.928	-0.043	0.037
-393.106	-200.000	0.014	-0.163
-392.092	-24.271	0.299	-0.179
-391.077	93.623	-0.115	-0.130
-390.063	167.274	0.067	0.096
-389.048	93.966	-0.076	0.086
-388.033	-165.013	-0.172	0.008
-387.019	-122.531	0.157	0.026
-386.004	-200.000	0.091	0.450
-384.990	51.919	0.194	0.185
-383.975	723.224	-0.103	-0.274
-382.960	-149.523	-0.058	0.005
-381.946	-200.000	0.017	0.135
-380.931	18.512	-0.131	0.105
-379.917	-169.735	-0.427	-0.015
-378.902	13.270	0.094	-0.073
-377.888	83.022	-0.106	-0.116
-376.873	-200.000	-0.004	0.276
-375.858	800.000	0.070	0.198
-374.844	479.670	-0.051	0.115
-373.829	-73.112	0.527	0.194
-372.815	-5.728	-0.135	-0.093
-371.800	79.963	0.032	-0.035
-370.785	630.202	-0.086	0.218
-369.771	326.759	0.137	0.263
-368.756	-38.611	-0.264	-0.140
-367.742	-200.000	-0.031	0.202
-366.727	239.445	0.116	-0.193
-365.712	-200.000	0.009	0.044
-364.698	-60.406	-0.189	0.080
-363.683	-121.500	0.151	-0.025
-362.669	266.413	-0.185	-0.324
-361.654	-138.509	0.182	0.020
-360.639	-88.669	-0.292	0.087
-359.625	-47.836	0.146	0.071
-358.610	-111.972	0.510	0.103
-357.596	-200.000	-0.003	-0.028
-356.581	751.596	0.058	0.156
-355.566	-193.508	0.054	-0.000
-354.552	-94.052	0.064	-0.018
-353.537	-200.000	0.007	-0.053
-352.523	606.993	0.054	0.136
-351.508	-75.216	0.184	-0.066
-350.493	-93.423	0.179	-0.050
-349.479	29.807	0.170	-0.145
-348.464	-29.967	-0.081	0.046
-347.450	-165.426	0.258	-0.011
-346.435	318.546	0.084	-0.160
-345.420	-163.046	-0.243	-0.012
-344.406	26.168	0.181	-0.151
-343.391	-24.105	-0.361	-0.216
-342.377	87.548	0.314	0.349
-341.362	-147.628	0.072	-0.006
-340.348	-200.000	0.009	-0.111
-339.333	-137.076	0.167	0.019
-338.318	-128.583	-0.426	0.060
-337.304	800.000	0.037	0.118
-336.289	-200.000	-0.007	0.066
-335.275	-118.125	-0.077	0.014
-334.260	-75.225	-0.168	-0.060
-333.245	759.096	-0.028	-0.076
-332.231	-20.512	0.184	-0.113
-331.216	-200.000	0.018	0.087
-330.202	-104.410	-0.136	0.032
-329.187	25.412	0.173	0.144
-328.172	-124.828	-0.252	0.039
-327.158	15.667	0.146	-0.115
-326.143	90.400	-0.125	-0.140
-325.129	3.864	-0.252	-0.184
-324.114	-59.883	0.123	0.053
-323.099	352.180	-0.164	-0.325
-322.085	-54.554	-0.060	-0.027
-321.070	-152.363	-0.253	0.018
-320.056	800.000	-0.102	-0.294
-319.041	-200.000	0.003	0.351
-318.026	-171.933	-0.227	-0.007
-317.012	-200.000	-0.018	0.332
-315.997	-200.000	-0.050	-0.278
-314.983	-86.274	-0.156	-0.048
-313.968	17.965	0.456	0.363
-312.953	800.000	0.041	-0.167
-311.939	-88.006	-0.159	0.048
-310.924	698.380	0.083	-0.219
-309.910	-52.139	0.036	0.017
-308.895	-200.000	-0.029	0.166
-307.880	-54.679	-0.344	0.155
-306.866	21.007	-0.086	-0.070
-305.851	-181.792	-0.426	0.008
-304.837	-12.707	-0.186	-0.121
-303.822	-61.270	-0.247	0.104
-302.807	-139.233	0.285	-0.031
-301.793	-200.000	-0.003	0.079
-300.778	-155.537	0.060	-0.004
-299.764	-81.339	-0.390	-0.129
-298.749	800.000	0.076	-0.286
-297.735	-100.627	-0.108	0.027
-296.720	-36.515	-0.500	-0.269
-295.705	-74.474	-0.085	0.031
-294.691	-46.172	0.297	0.146
-293.676	800.000	-0.115	-0.330
-292.662	27.911	0.228	-0.193
-291.647	200.438	-0.044	-0.067
-290.632	77.033	-0.046	-0.049
-289.618	-14.489	0.329	0.212
-288.603	-107.742	-0.228	0.050
-287.589	-200.000	-0.022	0.108
-286.574	268.957	0.089	-0.155
-285.559	-62.570	-0.148	0.061
-284.545	190.046	0.157	0.235
-283.530	18.972	-0.074	-0.059
-282.516	11.446	0.348	-0.266
-281.501	745.818	-0.041	-0.109
-280.486	-200.000	0.035	0.177
-279.472	-79.247	0.556	0.188
-278.457	-200.000	0.038	0.251
-277.443	-117.189	0.159	-0.029
-276.428	-127.067	-0.482	-0.071
-275.413	287.149	-0.146	0.263
-274.399	-116.241	0.299	-0.055
-273.384	-103.643	-0.113	-0.027
-272.370	105.799	-0.084	0.100
-271.355	180.627	0.259	-0.380
-270.340	18.351	-0.032	-0.026
-269.326	72.535	-0.073	0.076
-268.311	45.112	0.185	0.170
-267.297	-121.710	-0.237	0.039
-266.282	280.216	-0.274	-0.488
-265.267	-200.000	0.056	-0.293
-264.253	164.930	0.192	0.271
-263.238	100.850	0.046	0.053
-262.224	433.837	-0.035	-0.076
-261.209	-7.580	-0.067	-0.045
-260.195	-59.406	0.447	-0.192
-259.180	16.808	-0.134	-0.106
-258.165	311.378	0.041	-0.076
-257.151	-200.000	0.019	-0.212
-256.136	47.850	-0.087	0.081
-255.122	-73.003	-0.292	0.107
-254.107	42.389	-0.065	-0.059
-253.092	-200.000	0.049	-0.217
-252.078	74.695	0.074	-0.077
-251.063	-200.000	-0.029	-0.193
-250.049	726.428	-0.040	-0.105
-249.034	8.483	0.097	-0.073
-248.019	28.793	-0.268	-0.227
-247.005	610.589	0.139	-0.346
-245.990	-101.627	-0.145	-0.035
-244.976	-29.419	0.423	0.242
-243.961	13.433	-0.177	0.137
-242.946	25.865	-0.281	-0.234
-241.932	-12.922	-0.043	0.028
-240.917	800.000	-0.081	-0.281
-239.903	-98.640	0.159	0.041
-238.888	-200.000	0.045	0.287
-237.873	-200.000	-0.016	0.270
-236.859	-18.036	0.190	-0.119
-235.844	189.766	-0.100	-0.150
-234.830	-23.470	-0.312	-0.187
-233.815	-140.748	0.173	-0.018
-232.800	-72.268	-0.284	-0.105
-231.786	-55.354	-0.085	0.038
-230.771	800.000	-0.006	0.025
-229.757	121.878	-0.245	0.305
-228.742	9.290	0.201	0.152
-227.727	-98.158	0.106	0.027
-226.713	-200.000	-0.038	-0.262
-225.698	-200.000	-0.010	-0.069
-224.684	-119.377	0.111	-0.019
-223.669	604.637	0.078	-0.194
-222.655	108.162	-0.063	-0.075
-221.640	100.259	0.044	-0.050
-220.625	-131.767	0.338	0.044
-219.611	179.761	-0.120	-0.175
-218.596	12.078	0.305	-0.234
-217.582	-57.695	0.295	-0.129
-216.567	-90.946	-0.178	-0.051
-215.552	362.052	-0.197	0.394
-214.538	-200.000	-0.015	0.266
-213.523	32.234	0.209	-0.180
-212.509	-200.000	0.022	-0.168
-211.494	50.170	-0.241	-0.226
-210.479	-142.979	-0.351	0.034
-209.465	-157.600	-0.351	0.021
-208.450	-200.000	-0.022	-0.125
-207.436	16.003	0.208	0.163
-206.421	-200.000	-0.005	-0.078
-205.406	-98.543	-0.087	0.022
-204.392	-200.000	-0.203	0.000
-203.377	-200.000	0.000	-0.312
-202.363	-101.898	0.120	-0.029
-201.348	101.965	-0.179	0.208
-200.333	64.453	-0.137	-0.137
-199.319	-200.000	0.017	-0.357
-198.304	557.605	-0.196	0.471
-197.290	-41.330	-0.220	0.113
-196.275	201.835	0.081	-0.125
-195.260	-140.971	0.152	0.016
-194.246	-120.088	0.388	-0.066
-193.231	48.086	0.048	-0.044
-192.217	-200.000	-0.041	-0.270
-191.202	378.627	-0.104	0.211
-190.187	11.442	0.246	0.187
-189.173	121.273	-0.042	0.051
-188.158	-75.927	0.164	-0.058
-187.144	-200.000	0.007	-0.037
-186.129	-174.876	-0.181	0.005
-185.114	-123.916	-0.203	-0.032
-184.100	-200.000	0.017	0.079
-183.085	-43.042	-0.318	-0.161
-182.071	-200.000	0.021	-0.241
-181.056	-116.293	-0.138	0.025
-180.042	-77.124	-0.150	-0.052
-179.027	-60.711	0.106	-0.045
-178.012	128.314	0.132	0.167
-176.998	-200.000	-0.026	0.370
-175.983	-183.834	0.175	-0.003
-174.969	-200.000	0.037	0.205
-173.954	-139.057	-0.197	-0.021
-172.939	107.591	-0.163	0.193
-171.925	-200.000	0.016	0.180
-170.910	30.024	0.260	0.220
-169.896	-200.000	0.045	0.358
-168.881	149.663	0.093	-0.125
-167.866	-64.717	-0.174	0.070
-166.852	-98.300	0.310	-0.079
-165.837	800.000	0.071	-0.235
-164.823	-10.316	-0.064	0.042
-163.808	-187.729	0.408	-0.005
-162.793	-108.230	-0.177	0.038
-161.779	25.359	0.055	-0.046
-160.764	30.237	-0.075	0.063
-159.750	800.000	-0.067	0.200
-158.735	-0.928	-0.317	0.223
-157.720	-70.385	0.030	0.011
-156.706	-163.802	-0.188	-0.009
-155.691	800.000	-0.037	0.141
-154.677	144.226	-0.080	0.106
-153.662	-94.162	0.258	-0.070
-152.647	-27.173	0.298	0.172
-151.633	41.469	0.261	-0.235
-150.618	800.000	-0.111	0.339
-149.604	-200.000	0.009	0.265
-148.589	112.720	0.180	0.216
-147.574	-68.623	0.371	-0.143
-146.560	-6.098	-0.083	0.056
-145.545	191.897	-0.163	-0.244
-144.531	18.617	0.031	-0.025
-143.516	-200.000	0.014	0.104
-142.502	-97.351	-0.287	-0.074
-141.487	357.822	0.061	0.121
-140.472	144.295	0.208	0.275
-139.458	788.280	-0.081	0.220
-138.443	-22.139	0.293	0.177
-137.429	104.717	0.047	-0.055
-136.414	-47.435	-0.207	0.100
-135.399	-63.194	0.171	0.070
-134.385	-116.117	0.161	0.030
-133.370	-41.036	0.323	0.166
-132.356	569.594	0.122	0.294
-131.341	800.000	0.142	-0.466
-130.326	315.738	0.065	0.123
-129.312	-85.100	0.273	0.085
-128.297	231.696	-0.055	0.090
-127.283	-200.000	-0.011	0.148
-126.268	409.227	-0.098	0.207
-125.253	723.797	0.096	0.255
-124.239	206.196	0.160	0.248
-123.224	-73.977	0.272	0.098
-122.210	-137.406	0.252	0.028
