DTS Sentinel unit serial number:	SN413079Multiplexer serial number:	ORYXHardware model number:	OX4-SRSoftware version number:	ORYX F/W v4.00 Oryx Data Collector v3.7.2.0data status	okinstallation	princeton_trtdifferential loss correction	single-endedforward channel	channel 4reverse channel	N/Adate	2019/09/12time	00:27:10forward acquisition time	60.00reverse acquisition time	0.00gamma	496.2192k internal	0.2308k external	0.2308temperature offset calibration	1.0092default loss term (dB/km)	0.3790temperature slope calibration	1.0000multiplexer offset coefficient	1.0000multiplexer slope coefficient	1.0000fibre end	0.00T internal ref (°C)	33.44T ext. ref 1 (°C)	2.07T ext. ref 2 (°C)	27.65length (m)	temperature (°C)	Stokes	anti-Stokes-747.200	-200.000	-0.010	0.282
-746.185	-200.000	0.005	0.431
-745.171	-62.854	0.302	0.127
-744.156	-84.088	-0.232	-0.075
-743.142	-123.191	0.149	-0.024
-742.127	-7.005	0.142	0.098
-741.112	-200.000	-0.006	0.047
-740.098	-200.000	0.066	0.607
-739.083	-17.077	-0.074	-0.047
-738.069	232.005	-0.169	0.282
-737.054	-13.518	0.094	-0.062
-736.039	49.250	-0.204	-0.195
-735.025	1.758	0.067	-0.049
-734.010	-200.000	-0.035	-0.208
-732.996	-33.281	-0.176	-0.099
-731.981	-160.397	0.061	0.003
-730.966	128.675	-0.109	0.142
-729.952	-88.729	-0.059	0.018
-728.937	-104.841	-0.126	-0.029
-727.923	-127.482	0.244	-0.036
-726.908	800.000	-0.049	-0.186
-725.894	225.557	0.244	-0.401
-724.879	800.000	0.044	-0.129
-723.864	1.349	-0.182	0.133
-722.850	218.657	0.090	0.145
-721.835	-200.000	-0.039	-0.289
-720.821	1.328	-0.041	-0.030
-719.806	411.554	-0.053	-0.113
-718.791	675.529	-0.122	-0.323
-717.777	-127.831	-0.158	-0.023
-716.762	22.583	-0.273	-0.227
-715.748	-200.000	0.034	0.279
-714.733	-70.711	0.278	-0.107
-713.718	-200.000	0.019	0.127
-712.704	589.527	-0.101	0.252
-711.689	-200.000	-0.001	-0.129
-710.675	800.000	0.041	0.134
-709.660	161.361	-0.326	0.463
-708.645	-93.826	-0.157	-0.044
-707.631	-130.257	-0.370	0.051
-706.616	5.785	0.175	-0.131
-705.602	-199.236	0.094	-0.001
-704.587	5.648	-0.262	0.197
-703.572	59.329	0.131	-0.131
-702.558	-117.268	-0.244	0.045
-701.543	251.247	0.126	0.217
-700.529	34.601	-0.149	-0.132
-699.514	525.439	0.038	0.090
-698.499	128.125	-0.137	-0.176
-697.485	800.000	-0.110	0.395
-696.470	-6.410	-0.404	-0.280
-695.456	138.480	-0.082	-0.109
-694.441	69.170	-0.196	-0.205
-693.426	-23.976	0.110	-0.067
-692.412	794.767	0.062	-0.173
-691.397	-197.046	-0.149	0.001
-690.383	-14.835	-0.069	0.045
-689.368	-200.000	0.006	0.213
-688.354	530.437	0.090	0.215
-687.339	235.969	-0.152	0.255
-686.324	281.059	-0.040	0.072
-685.310	-200.000	0.035	0.208
-684.295	800.000	0.079	-0.273
-683.281	-172.454	0.232	-0.007
-682.266	750.377	0.034	-0.093
-681.251	-200.000	0.048	0.382
-680.237	217.043	-0.116	-0.187
-679.222	-128.360	-0.030	0.004
-678.208	54.528	-0.386	-0.377
-677.193	-200.000	0.315	-0.001
-676.178	-53.210	0.117	0.055
-675.164	800.000	-0.006	0.025
-674.149	-71.540	-0.277	-0.105
-673.135	-57.988	0.050	0.022
-672.120	-146.090	0.131	0.012
-671.105	-104.089	0.295	0.070
-670.091	-67.167	0.156	-0.062
-669.076	5.490	-0.093	-0.069
-668.062	365.837	-0.011	0.022
-667.047	-60.592	0.241	-0.104
-666.032	-198.425	-0.046	0.000
-665.018	600.302	0.136	0.342
-664.003	137.859	0.163	0.217
-662.989	489.344	-0.102	-0.235
-661.974	49.504	-0.190	0.181
-660.959	-200.000	0.069	-0.342
-659.945	-58.180	0.121	0.053
-658.930	800.000	0.011	-0.049
-657.916	694.280	0.008	-0.022
-656.901	-200.000	-0.026	0.132
-655.886	-41.190	0.231	0.120
-654.872	-200.000	-0.024	0.294
-653.857	181.867	-0.186	0.277
-652.843	141.066	0.075	-0.100
-651.828	-118.786	-0.183	-0.033
-650.814	15.705	-0.074	0.059
-649.799	-106.699	0.210	-0.047
-648.784	9.748	-0.085	0.065
-647.770	-200.000	-0.020	-0.091
-646.755	-136.675	0.576	0.067
-645.741	800.000	0.033	-0.098
-644.726	-200.000	-0.008	-0.072
-643.711	47.186	-0.119	-0.112
-642.697	800.000	-0.098	0.318
-641.682	800.000	0.055	-0.241
-640.668	-101.410	-0.196	0.048
-639.653	-176.591	0.307	0.008
-638.638	-130.790	0.021	-0.003
-637.624	800.000	0.014	-0.052
-636.609	-105.797	0.170	-0.039
-635.595	-159.320	-0.165	-0.009
-634.580	-5.778	-0.128	0.089
-633.565	-90.865	0.350	0.102
-632.551	-105.673	-0.263	-0.060
-631.536	-5.250	0.141	-0.098
-630.522	-81.832	-0.159	0.053
-629.507	438.665	-0.057	-0.127
-628.492	589.580	-0.158	-0.393
-627.478	-74.017	-0.121	0.044
-626.463	731.103	0.041	-0.111
-625.449	-169.726	0.052	0.002
-624.434	50.467	0.124	-0.119
-623.419	-148.642	-0.135	0.011
-622.405	42.099	-0.148	-0.136
-621.390	-47.761	0.222	-0.109
-620.376	224.683	-0.239	0.392
-619.361	138.445	-0.185	0.246
-618.346	212.178	-0.103	-0.164
-617.332	800.000	-0.076	0.301
-616.317	27.602	0.199	0.170
-615.303	48.530	-0.120	0.114
-614.288	-200.000	0.088	0.442
-613.273	419.356	-0.040	-0.087
-612.259	-65.225	-0.403	0.164
-611.244	-102.933	-0.116	0.028
-610.230	-126.812	-0.156	-0.023
-609.215	800.000	0.041	-0.127
-608.201	119.818	-0.075	-0.093
-607.186	-45.851	-0.230	0.115
-606.171	-140.506	0.192	-0.020
-605.157	519.012	-0.063	0.148
-604.142	640.299	0.073	-0.188
-603.128	140.374	0.192	-0.257
-602.113	-163.101	0.342	-0.017
-601.098	800.000	-0.038	-0.145
-600.084	-143.423	-0.271	-0.026
-599.069	-39.172	-0.158	0.084
-598.055	370.987	0.162	-0.331
-597.040	-40.821	0.180	0.094
-596.025	491.724	0.070	0.162
-595.011	76.423	-0.306	-0.328
-593.996	800.000	0.070	0.254
-592.982	373.268	-0.071	0.146
-591.967	-200.000	-0.006	0.083
-590.952	118.075	0.037	0.046
-589.938	729.773	0.123	0.333
-588.923	-138.687	-0.210	0.023
-587.909	354.214	-0.047	-0.094
-586.894	168.279	0.123	-0.176
-585.879	800.000	0.083	-0.242
-584.865	40.072	-0.255	-0.232
-583.850	77.941	0.191	0.205
-582.836	0.938	0.165	0.120
-581.821	212.962	0.056	-0.089
-580.806	194.522	-0.030	0.045
-579.792	-131.057	0.258	-0.035
-578.777	-117.334	0.049	-0.009
-577.763	-121.379	-0.418	-0.070
-576.748	47.998	0.274	-0.259
-575.733	150.083	0.141	-0.194
-574.719	776.655	-0.080	-0.220
-573.704	-47.228	-0.149	-0.073
-572.690	-200.000	0.005	0.048
-571.675	-131.205	-0.424	0.057
-570.661	800.000	-0.071	-0.261
-569.646	-112.525	-0.341	0.069
-568.631	-35.172	0.231	0.127
-567.617	55.968	-0.203	0.199
-566.602	153.169	0.220	0.303
-565.588	-76.742	0.475	0.168
-564.573	-136.311	0.155	0.018
-563.558	-200.000	-0.044	-0.203
-562.544	-12.761	-0.159	0.104
-561.529	-146.915	0.209	0.018
-560.515	159.121	-0.167	0.235
-559.500	-48.755	0.202	0.098
-558.485	-118.271	0.367	0.066
-557.471	-200.000	0.064	-0.330
-556.456	-195.357	0.273	0.002
-555.442	148.597	0.095	-0.129
-554.427	-151.381	0.325	0.024
-553.412	-39.349	-0.331	-0.175
-552.398	795.192	0.050	0.139
-551.383	-60.438	0.027	-0.012
-550.369	-200.000	-0.030	-0.305
-549.354	-6.998	-0.089	-0.061
-548.339	16.115	-0.212	-0.168
-547.325	-200.000	-0.002	-0.037
-546.310	52.947	0.099	-0.095
-545.296	33.551	-0.249	-0.218
-544.281	61.842	0.106	0.106
-543.266	-67.982	-0.172	0.068
-542.252	169.718	0.057	-0.082
-541.237	9.387	-0.230	0.176
-540.223	619.156	0.119	0.303
-539.208	72.472	0.199	0.210
-538.193	435.919	0.044	-0.097
-537.179	-41.172	0.251	0.131
-536.164	-23.020	-0.308	-0.187
-535.150	543.491	-0.018	0.042
-534.135	579.618	-0.126	-0.312
-533.121	-68.027	-0.087	0.034
-532.106	800.000	0.052	0.219
-531.091	106.373	-0.253	0.303
-530.077	-106.928	0.131	0.029
-529.062	6.152	-0.156	0.117
-528.048	-15.411	0.286	-0.184
-527.033	-91.483	-0.219	0.063
-526.018	232.852	-0.102	-0.169
-525.004	800.000	0.057	0.189
-523.989	-200.000	0.002	-0.030
-522.975	444.548	0.140	-0.310
-521.960	-200.000	0.012	0.259
-520.945	74.855	0.078	0.082
-519.931	-67.491	0.148	-0.059
-518.916	132.375	0.128	0.166
-517.902	-9.581	-0.185	0.124
-516.887	762.456	0.067	0.182
-515.872	-157.105	0.203	0.012
-514.858	60.639	0.165	0.164
-513.843	-53.788	-0.179	0.082
-512.829	64.753	0.145	0.147
-511.814	70.620	0.175	-0.183
-510.799	-76.487	-0.066	0.024
-509.785	384.918	-0.073	-0.152
-508.770	371.065	0.104	-0.212
-507.756	-200.000	0.046	0.257
-506.741	-138.644	0.184	0.020
-505.726	190.905	0.044	-0.067
-504.712	-200.000	-0.006	0.041
-503.697	-163.224	0.255	-0.012
-502.683	-200.000	0.006	0.150
-501.668	-81.537	-0.252	0.084
-500.653	800.000	0.040	-0.122
-499.639	20.594	0.174	-0.141
-498.624	-81.323	-0.188	0.062
-497.610	13.204	-0.179	0.140
-496.595	-25.697	0.017	-0.010
-495.581	-47.187	0.065	-0.032
-494.566	-60.972	-0.525	-0.223
-493.551	249.265	-0.202	-0.344
-492.537	-29.757	0.173	-0.099
-491.522	-120.131	-0.191	-0.033
-490.508	-200.000	0.002	-0.022
-489.493	-200.000	0.034	0.173
-488.478	456.353	-0.047	-0.105
-487.464	800.000	0.041	-0.131
-486.449	-49.201	-0.395	-0.190
-485.435	800.000	0.080	-0.311
-484.420	110.936	0.164	-0.199
-483.405	112.895	0.173	0.211
-482.391	-107.228	-0.157	0.035
-481.376	173.399	-0.087	-0.126
-480.362	-102.825	0.150	0.036
-479.347	-131.296	0.224	0.030
-478.332	41.666	0.217	0.198
-477.318	-31.417	-0.209	-0.118
-476.303	-56.505	0.306	-0.137
-475.289	-91.631	0.157	0.045
-474.274	-26.644	-0.113	0.066
-473.259	284.702	-0.066	0.120
-472.245	610.084	0.065	-0.163
-471.230	130.710	-0.306	0.395
-470.216	36.086	-0.266	0.235
-469.201	44.950	-0.317	0.293
-468.186	-189.443	-0.144	-0.002
-467.172	-200.000	-0.067	-0.000
-466.157	163.073	0.294	0.415
-465.143	29.390	0.223	-0.191
-464.128	-168.773	-0.173	-0.007
-463.113	-167.783	0.190	0.008
-462.099	113.014	-0.171	-0.209
-461.084	98.394	0.030	-0.035
-460.070	309.419	0.141	-0.265
-459.055	-144.461	-0.455	0.042
-458.040	-128.286	0.412	-0.059
-457.026	303.961	0.102	-0.191
-456.011	5.661	0.147	-0.109
-454.997	568.800	0.026	0.064
-453.982	67.367	0.092	0.095
-452.968	7.841	-0.135	-0.102
-451.953	-27.685	-0.106	-0.062
-450.938	-91.807	0.175	0.050
-449.924	800.000	0.038	-0.165
-448.909	-200.000	0.052	-0.327
-447.895	30.335	0.212	0.182
-446.880	-112.766	0.032	0.006
-445.865	800.000	-0.147	0.439
-444.851	10.342	-0.159	0.122
-443.836	-200.000	0.014	-0.133
-442.822	220.713	0.156	0.251
-441.807	-200.000	0.041	-0.219
-440.792	139.824	0.236	-0.312
-439.778	203.350	0.063	-0.098
-438.763	-133.992	-0.398	-0.050
-437.749	363.220	0.161	0.325
-436.734	-23.563	0.190	0.115
-435.719	800.000	-0.138	0.482
-434.705	-43.674	-0.097	-0.049
-433.690	-200.000	-0.050	0.454
-432.676	100.466	0.145	-0.169
-431.661	-131.412	-0.273	0.036
-430.646	-200.000	0.004	0.058
-429.632	-200.000	-0.054	0.290
-428.617	-146.704	-0.269	0.023
-427.603	-128.148	-0.111	-0.016
-426.588	-104.609	-0.126	-0.029
-425.573	-64.938	-0.217	0.088
-424.559	8.376	0.103	-0.078
-423.544	800.000	-0.133	-0.402
-422.530	-200.000	-0.000	0.045
-421.515	271.913	0.064	0.114
-420.500	45.954	-0.391	0.363
-419.486	-106.807	-0.097	-0.022
-418.471	72.103	-0.181	0.189
-417.457	11.761	-0.224	0.172
-416.442	-200.000	0.032	0.145
-415.428	508.698	0.103	0.240
-414.413	-52.423	-0.268	0.125
-413.398	301.766	-0.205	0.380
-412.384	-92.053	0.188	-0.053
-411.369	-200.000	0.013	-0.085
-410.355	800.000	0.070	-0.296
-409.340	91.911	0.199	0.224
-408.325	-200.000	-0.029	0.132
-407.311	800.000	-0.056	0.190
-406.296	-200.000	-0.022	0.156
-405.282	-109.500	-0.217	0.046
-404.267	-72.758	0.241	0.089
-403.252	-88.089	0.218	0.065
-402.238	-48.347	0.143	-0.069
-401.223	252.797	-0.110	-0.189
-400.209	795.540	0.085	0.234
-399.194	-54.946	-0.272	-0.123
-398.179	-87.447	0.166	0.051
-397.165	-77.884	-0.283	0.098
-396.150	177.313	-0.071	0.104
-395.136	-200.000	0.045	0.229
-394.121	150.853	0.074	0.100
-393.106	786.228	0.131	-0.360
-392.092	-55.987	0.091	-0.041
-391.077	-200.000	-0.011	-0.088
-390.063	-118.385	-0.068	-0.012
-389.048	-69.412	0.116	0.045
-388.033	65.849	-0.032	0.033
-387.019	30.824	-0.076	-0.065
-386.004	-200.000	-0.005	-0.047
-384.990	-63.052	-0.124	0.051
-383.975	-116.798	-0.192	-0.035
-382.960	434.387	0.066	0.144
-381.946	-158.162	-0.172	-0.010
-380.931	213.965	-0.008	-0.013
-379.917	403.650	0.112	0.237
-378.902	-65.748	-0.240	-0.096
-377.888	94.175	0.146	-0.166
-376.873	73.556	0.225	-0.236
-375.858	-79.866	0.013	-0.004
-374.844	44.157	-0.163	0.150
-373.829	93.192	0.050	0.057
-372.815	-96.291	0.214	0.057
-371.800	276.361	-0.024	0.043
-370.785	114.050	0.091	0.111
-369.771	187.387	0.080	-0.120
-368.756	411.500	0.005	0.010
-367.742	-152.158	-0.223	-0.016
-366.727	200.178	0.072	0.110
-365.712	697.136	0.088	-0.231
-364.698	-7.414	-0.157	-0.106
-363.683	-63.804	-0.250	-0.103
-362.669	-50.205	0.264	0.125
-361.654	-115.734	-0.170	0.032
-360.639	-43.189	0.057	0.029
-359.625	800.000	0.108	0.323
-358.610	-65.345	-0.202	-0.081
-357.596	53.261	0.151	0.145
-356.581	-17.444	-0.274	-0.173
-355.566	-146.494	0.221	0.019
-354.552	-200.000	-0.018	-0.094
-353.537	-200.000	-0.023	-0.142
-352.523	140.000	-0.161	-0.212
-351.508	-200.000	-0.080	-0.462
-350.493	-176.217	-0.196	0.005
-349.479	62.859	-0.277	0.278
-348.464	-200.000	0.063	0.300
-347.450	56.878	-0.203	0.198
-346.435	-200.000	0.033	-0.271
-345.420	-125.059	-0.246	-0.038
-344.406	-123.697	0.010	0.002
-343.391	-158.153	-0.084	-0.005
-342.377	262.074	-0.132	-0.229
-341.362	800.000	0.092	-0.286
-340.348	-200.000	0.033	-0.228
-339.333	-200.000	-0.011	0.247
-338.318	-40.452	-0.027	0.014
-337.304	54.238	-0.097	0.094
-336.289	54.679	-0.150	-0.144
-335.275	157.213	-0.047	-0.066
-334.260	-3.726	0.283	-0.196
-333.245	800.000	-0.042	0.140
-332.231	300.909	-0.097	-0.179
-331.216	-28.669	-0.142	0.082
-330.202	115.917	0.083	0.102
-329.187	491.519	0.065	-0.150
-328.172	-156.837	-0.042	0.003
-327.158	-90.230	0.358	-0.104
-326.143	284.824	-0.138	-0.248
-325.129	-99.347	-0.086	0.022
-324.114	-66.175	0.286	-0.114
-323.099	-200.000	-0.001	0.226
-322.085	-102.013	-0.023	-0.006
-321.070	-127.305	-0.214	-0.031
-320.056	-56.009	-0.192	0.086
-319.041	115.959	0.473	0.578
-318.026	-200.000	0.060	0.270
-317.012	228.130	-0.062	-0.101
-315.997	-82.915	0.299	-0.097
-314.983	-200.000	-0.006	-0.201
-313.968	-90.912	0.432	0.124
-312.953	-61.187	-0.109	0.046
-311.939	-93.853	0.271	-0.074
-310.924	-200.000	-0.012	0.191
-309.910	-200.000	0.038	0.191
-308.895	379.737	0.203	0.415
-307.880	-126.716	-0.385	0.057
-306.866	414.585	-0.125	0.265
-305.851	-93.657	0.313	-0.086
-304.837	800.000	0.158	-0.563
-303.822	777.620	-0.077	-0.211
-302.807	26.516	-0.407	0.340
-301.793	724.148	-0.012	0.031
-300.778	-75.762	-0.052	-0.019
-299.764	652.418	-0.113	0.289
-298.749	210.514	0.136	0.213
-297.735	-157.625	-0.295	0.018
-296.720	54.423	-0.154	0.148
-295.705	84.177	-0.155	-0.169
-294.691	-35.105	0.169	-0.092
-293.676	800.000	0.069	-0.267
-292.662	-200.000	-0.037	-0.170
-291.647	-29.901	0.220	-0.125
-290.632	390.769	0.061	0.126
-289.618	-200.000	-0.012	-0.234
-288.603	53.078	0.149	-0.142
-287.589	800.000	-0.064	0.183
-286.574	-90.875	-0.416	0.119
-285.559	-44.277	0.214	-0.107
-284.545	-200.000	-0.013	0.366
-283.530	-28.016	-0.222	0.128
-282.516	-98.239	0.036	-0.009
-281.501	-111.425	0.081	-0.017
-280.486	-200.000	-0.073	0.337
-279.472	-6.410	0.243	0.166
-278.457	-200.000	-0.019	0.287
-277.443	37.242	0.141	0.124
-276.428	31.665	0.092	-0.079
-275.413	-200.000	-0.001	-0.014
-274.399	-16.494	-0.124	0.079
-273.384	58.843	0.218	-0.214
-272.370	800.000	0.038	-0.119
-271.355	263.849	0.011	-0.019
-270.340	-46.833	-0.252	-0.123
-269.326	34.552	0.229	-0.199
-268.311	-200.000	0.003	-0.182
-267.297	-27.251	0.108	0.063
-266.282	69.525	-0.207	-0.212
-265.267	-27.867	0.118	-0.068
-264.253	-90.401	0.241	-0.070
-263.238	200.714	0.229	0.351
-262.224	-200.000	0.040	0.205
-261.209	11.081	0.240	0.183
-260.195	9.151	-0.355	-0.267
-259.180	-66.310	0.143	0.057
-258.165	-33.841	0.146	0.080
-257.151	-179.327	-0.171	-0.004
-256.136	-200.000	-0.037	-0.183
-255.122	-200.000	-0.019	-0.169
-254.107	285.072	-0.149	0.268
-253.092	264.905	-0.182	-0.316
-252.078	-9.318	0.271	0.181
-251.063	5.440	0.218	0.161
-250.049	395.987	-0.071	-0.147
-249.034	-200.000	0.005	0.272
-248.019	30.238	-0.246	0.209
-247.005	-95.516	0.273	0.073
-245.990	339.959	-0.031	0.061
-244.976	-79.774	0.314	0.105
-243.961	18.583	0.259	-0.207
-242.946	26.137	0.066	-0.055
-241.932	-144.503	-0.158	-0.015
-240.917	-80.696	-0.451	-0.149
-239.903	-150.838	0.281	-0.021
-238.888	18.747	-0.249	-0.199
-237.873	-200.000	-0.016	-0.324
-236.859	-39.844	-0.286	-0.149
-235.844	568.222	0.009	-0.022
-234.830	187.805	-0.221	0.329
-233.815	21.358	-0.223	-0.180
-232.800	-200.000	-0.035	0.371
-231.786	207.608	0.143	0.222
-230.771	-10.493	-0.116	-0.077
-229.757	-200.000	0.038	0.247
-228.742	-106.714	0.150	-0.033
-227.727	-83.722	0.067	-0.021
-226.713	-7.215	0.075	0.051
-225.698	800.000	0.062	-0.218
-224.684	-107.654	0.143	0.031
-223.669	-111.968	0.306	-0.062
-222.655	-68.699	0.338	-0.130
-221.640	-162.723	0.490	-0.024
-220.625	800.000	0.035	0.107
-219.611	-8.295	0.333	-0.223
-218.596	-28.591	-0.148	-0.085
-217.582	-194.198	-0.361	0.003
-216.567	9.861	-0.137	-0.104
-215.552	752.913	-0.120	-0.322
-214.538	-74.599	0.296	-0.106
-213.523	170.118	0.258	-0.368
-212.509	800.000	0.025	-0.099
-211.494	553.769	-0.088	0.211
-210.479	-145.232	-0.270	-0.024
-209.465	137.396	0.183	-0.239
-208.450	583.710	0.044	-0.108
-207.436	-166.215	0.025	-0.001
-206.421	-119.272	0.389	0.067
-205.406	-200.000	-0.037	0.466
-204.392	-88.319	0.266	0.079
-203.377	64.033	-0.092	0.092
-202.363	-167.007	-0.082	-0.003
-201.348	-200.000	-0.035	-0.297
-200.333	-139.511	0.035	-0.004
-199.319	131.886	0.130	0.166
-198.304	49.638	-0.135	0.127
-197.290	-200.000	-0.043	0.362
-196.275	-118.524	0.070	0.012
-195.260	800.000	-0.118	-0.387
-194.246	-45.452	0.043	-0.021
-193.231	-15.295	-0.076	0.049
-192.217	800.000	-0.097	0.276
-191.202	118.130	-0.050	0.061
-190.187	432.281	-0.112	-0.241
-189.173	-200.000	-0.075	-0.371
-188.158	-200.000	0.016	-0.143
-187.144	-89.709	-0.328	0.096
-186.129	126.167	0.131	0.164
-185.114	168.044	0.130	0.184
-184.100	-77.779	0.285	-0.098
-183.085	-121.154	0.194	0.032
-182.071	800.000	-0.097	-0.280
-181.056	0.990	-0.163	-0.116
-180.042	-85.792	0.178	-0.055
-179.027	800.000	0.134	0.379
-178.012	800.000	-0.092	0.255
-176.998	-200.000	-0.024	0.285
-175.983	-107.040	0.401	-0.088
-174.969	517.373	0.108	-0.250
-173.954	336.689	0.096	-0.185
-172.939	-200.000	0.060	-0.423
-171.925	-72.199	-0.173	-0.064
-170.910	219.958	0.272	0.433
-169.896	-72.646	-0.391	0.143
-168.881	-94.640	0.078	0.021
-167.866	180.838	-0.282	-0.411
-166.852	187.395	0.164	-0.244
-165.837	-200.000	0.046	-0.353
-164.823	-50.200	-0.228	-0.107
-163.808	-101.196	0.169	-0.041
-162.793	-95.870	-0.227	-0.060
-161.779	800.000	-0.120	-0.428
-160.764	-15.249	0.163	-0.103
-159.750	-75.717	-0.263	-0.093
-158.735	103.228	-0.127	-0.148
-157.720	515.260	-0.059	-0.136
-156.706	74.037	-0.284	-0.296
-155.691	439.621	0.092	-0.199
-154.677	800.000	0.023	-0.081
-153.662	13.537	-0.132	0.102
-152.647	800.000	0.042	0.153
-151.633	269.163	0.083	0.145
-150.618	800.000	0.009	0.031
-149.604	-125.380	0.117	0.018
-148.589	-56.012	-0.143	-0.063
-147.574	-72.412	0.293	0.108
-146.560	-61.566	0.047	0.020
-145.545	-133.620	-0.162	0.020
-144.531	-162.296	0.344	0.017
-143.516	800.000	0.074	0.299
-142.502	75.769	0.111	-0.116
-141.487	-51.850	-0.082	0.038
-140.472	64.699	0.149	0.149
-139.458	-182.815	-0.111	-0.002
-138.443	-151.463	-0.447	-0.033
-137.429	-200.000	-0.018	0.091
-136.414	-200.000	-0.035	0.306
-135.399	-200.000	-0.036	0.182
-134.385	534.012	-0.108	0.253
-133.370	-200.000	-0.003	0.038
-132.356	800.000	0.123	-0.394
-131.341	800.000	-0.047	-0.189
-130.326	-30.666	-0.102	-0.057
-129.312	67.474	-0.177	-0.179
-128.297	-200.000	0.085	0.388
-127.283	110.118	0.101	-0.121
-126.268	-107.812	0.376	0.081
-125.253	-1.132	-0.046	0.033
-124.239	-119.326	0.059	0.010
-123.224	-200.000	-0.004	0.250
-122.210	-75.266	0.165	-0.058
-121.195	-200.000	0.003	0.158
