DTS Sentinel unit serial number:	SN413079Multiplexer serial number:	ORYXHardware model number:	OX4-SRSoftware version number:	ORYX F/W v4.00 Oryx Data Collector v3.7.2.0data status	okinstallation	princeton_trtdifferential loss correction	single-endedforward channel	channel 4reverse channel	N/Adate	2019/09/10time	20:43:11forward acquisition time	60.00reverse acquisition time	0.00gamma	496.2192k internal	0.2312k external	0.2312temperature offset calibration	0.9948default loss term (dB/km)	0.3790temperature slope calibration	1.0000multiplexer offset coefficient	1.0000multiplexer slope coefficient	1.0000fibre end	0.00T internal ref (°C)	31.81T ext. ref 1 (°C)	-0.30T ext. ref 2 (°C)	25.22length (m)	temperature (°C)	Stokes	anti-Stokes-747.200	184.319	0.023	-0.034
-746.185	-200.000	-0.053	0.357
-745.171	75.611	0.133	0.143
-744.156	154.891	0.134	0.187
-743.142	26.298	0.339	-0.287
-742.127	-111.506	0.122	-0.025
-741.112	26.404	0.238	-0.202
-740.098	75.521	0.192	-0.205
-739.083	-200.000	-0.008	0.064
-738.069	-132.735	-0.315	0.041
-737.054	-200.000	0.000	-0.125
-736.039	10.397	-0.346	0.268
-735.025	-200.000	0.017	0.130
-734.010	-116.917	0.196	0.036
-732.996	-200.000	-0.005	-0.136
-731.981	144.810	0.081	0.110
-730.966	-118.071	0.228	0.041
-729.952	-48.128	-0.250	-0.122
-728.937	35.326	0.007	0.007
-727.923	-57.360	-0.233	0.104
-726.908	33.072	-0.231	0.203
-725.894	-17.522	-0.325	-0.207
-724.879	238.083	0.073	-0.123
-723.864	800.000	-0.038	-0.107
-722.850	-200.000	-0.037	-0.281
-721.835	-107.734	0.288	0.064
-720.821	-94.056	-0.254	0.071
-719.806	133.145	0.072	-0.095
-718.791	-77.772	0.184	-0.064
-717.777	-200.000	-0.010	-0.052
-716.762	-191.403	-0.238	-0.002
-715.748	32.589	-0.272	0.238
-714.733	129.570	-0.107	-0.139
-713.718	-121.951	-0.190	0.032
-712.704	-34.060	-0.061	0.034
-711.689	-51.496	-0.109	-0.052
-710.675	-70.695	0.168	0.064
-709.660	800.000	-0.044	0.154
-708.645	258.267	-0.062	-0.108
-707.631	-47.523	-0.070	-0.034
-706.616	52.886	-0.199	0.193
-705.602	-20.305	0.071	0.045
-704.587	-148.804	-0.019	-0.002
-703.572	-102.677	-0.216	0.052
-702.558	-200.000	-0.000	-0.005
-701.543	-200.000	0.058	0.296
-700.529	31.245	-0.278	0.242
-699.514	-20.297	-0.130	-0.081
-698.499	800.000	0.092	0.327
-697.485	800.000	-0.056	0.226
-696.470	11.300	-0.378	0.293
-695.456	-103.122	-0.527	-0.126
-694.441	749.217	0.145	-0.397
-693.426	800.000	0.017	0.048
-692.412	259.032	0.056	0.098
-691.397	-200.000	-0.034	-0.263
-690.383	-43.744	-0.402	0.205
-689.368	800.000	-0.070	-0.222
-688.354	185.919	0.083	0.125
-687.339	-101.227	-0.100	0.025
-686.324	73.418	-0.029	-0.030
-685.310	-200.000	-0.006	0.047
-684.295	-200.000	-0.053	0.280
-683.281	-99.658	-0.121	-0.031
-682.266	-60.829	0.191	-0.082
-681.251	36.833	-0.031	-0.028
-680.237	-118.725	0.364	-0.065
-679.222	9.126	-0.176	0.134
-678.208	-70.612	-0.217	-0.083
-677.193	800.000	-0.092	-0.274
-676.178	10.636	-0.077	-0.059
-675.164	-200.000	0.005	-0.220
-674.149	-200.000	-0.032	-0.154
-673.135	-103.749	0.426	0.101
-672.120	-142.687	-0.371	0.037
-671.105	-6.578	-0.263	-0.181
-670.091	-200.000	-0.025	0.298
-669.076	-200.000	0.028	0.165
-668.062	-200.000	-0.045	0.351
-667.047	-200.000	0.040	-0.250
-666.032	-103.111	0.102	0.025
-665.018	-25.978	-0.270	-0.161
-664.003	-151.304	0.052	-0.004
-662.989	30.083	-0.240	-0.207
-661.974	800.000	0.024	-0.096
-660.959	377.765	-0.187	0.387
-659.945	-22.010	-0.170	-0.104
-658.930	-136.918	-0.420	-0.049
-657.916	64.948	0.164	-0.167
-656.901	174.600	0.163	-0.238
-655.886	-23.289	-0.038	0.023
-654.872	-200.000	-0.026	-0.280
-653.857	28.415	0.176	0.151
-652.843	220.746	-0.049	0.079
-651.828	89.828	-0.133	-0.150
-650.814	-12.976	-0.065	0.043
-649.799	-39.979	-0.032	0.017
-648.784	-17.393	0.185	0.118
-647.770	-157.534	-0.155	0.009
-646.755	-70.400	-0.137	0.053
-645.741	-57.675	-0.212	-0.094
-644.726	17.457	-0.303	0.244
-643.711	62.531	0.230	0.232
-642.697	794.171	-0.058	0.161
-641.682	-72.076	-0.231	0.087
-640.668	-1.401	0.173	-0.123
-639.653	777.383	0.115	-0.318
-638.638	-177.127	0.267	0.007
-637.624	-99.772	-0.182	0.046
-636.609	326.688	0.041	0.080
-635.595	-200.000	0.011	-0.225
-634.580	-200.000	-0.021	0.205
-633.565	800.000	-0.075	0.229
-632.551	-95.957	0.223	0.060
-631.536	800.000	-0.087	0.321
-630.522	-200.000	0.041	0.227
-629.507	3.715	0.167	-0.123
-628.492	555.721	0.092	0.224
-627.478	82.021	-0.225	-0.246
-626.463	-76.917	0.039	0.014
-625.449	-21.603	-0.176	-0.109
-624.434	-41.927	-0.100	-0.052
-623.419	-200.000	-0.001	-0.115
-622.405	128.203	-0.028	-0.036
-621.390	-5.464	0.260	0.180
-620.376	-200.000	-0.013	0.109
-619.361	-200.000	0.044	0.236
-618.346	-127.938	-0.368	-0.053
-617.332	123.459	-0.021	0.026
-616.317	730.325	0.031	0.083
-615.303	-139.358	0.113	-0.012
-614.288	-149.052	0.306	-0.025
-613.273	-124.979	0.146	-0.023
-612.259	18.893	0.160	-0.130
-611.244	-117.357	0.355	0.065
-610.230	-109.904	-0.279	0.059
-609.215	557.987	0.169	0.411
-608.201	104.080	0.087	0.103
-607.186	-65.286	-0.170	-0.069
-606.171	-83.392	-0.270	0.087
-605.157	-186.836	-0.331	-0.005
-604.142	763.691	-0.011	0.031
-603.128	-200.000	0.005	0.157
-602.113	-200.000	-0.043	-0.203
-601.098	-35.958	0.141	0.077
-600.084	18.952	-0.185	0.150
-599.069	-92.631	0.274	0.078
-598.055	60.002	-0.049	0.049
-597.040	-126.350	-0.137	0.021
-596.025	104.084	0.101	-0.120
-595.011	-120.402	-0.318	-0.055
-593.996	-60.560	-0.159	-0.068
-592.982	-86.361	-0.110	-0.034
-591.967	603.994	0.200	0.502
-590.952	-51.796	0.423	0.199
-589.938	259.479	0.023	-0.040
-588.923	8.195	-0.405	-0.307
-587.909	-7.243	-0.117	0.080
-586.894	439.809	0.093	-0.205
-585.879	-95.544	-0.425	0.115
-584.865	-163.013	-0.439	-0.021
-583.850	-18.163	0.117	-0.074
-582.836	-32.498	-0.274	0.154
-581.821	-200.000	0.028	0.145
-580.806	45.609	0.146	0.136
-579.792	-76.374	0.131	-0.047
-578.777	264.039	-0.113	0.198
-577.763	-122.269	-0.247	0.041
-576.748	617.061	0.037	-0.094
-575.733	-200.000	-0.003	0.305
-574.719	800.000	-0.061	0.183
-573.704	-174.226	0.098	0.003
-572.690	434.966	-0.163	-0.357
-571.675	70.813	-0.171	-0.178
-570.661	-200.000	-0.118	-0.615
-569.646	24.088	-0.105	-0.087
-568.631	-145.069	0.124	0.011
-567.617	-200.000	-0.017	-0.382
-566.602	88.708	0.206	-0.231
-565.588	800.000	0.065	-0.251
-564.573	20.748	-0.144	-0.117
-563.558	-32.759	-0.135	-0.076
-562.544	800.000	-0.051	-0.148
-561.529	332.975	-0.277	-0.540
-560.515	-85.324	0.129	-0.041
-559.500	151.785	0.117	-0.161
-558.485	800.000	0.048	0.184
-557.471	-200.000	0.022	0.097
-556.456	800.000	-0.086	-0.314
-555.442	-55.430	0.096	-0.043
-554.427	485.173	0.036	-0.083
-553.412	118.336	-0.101	0.125
-552.398	3.320	0.277	0.203
-551.383	-200.000	-0.013	0.059
-550.369	280.290	-0.104	-0.188
-549.354	-29.861	0.115	-0.066
-548.339	-148.431	-0.319	0.026
-547.325	131.750	-0.102	0.133
-546.310	-113.300	0.263	0.052
-545.296	4.629	0.097	0.072
-544.281	-42.438	-0.138	0.071
-543.266	-72.010	-0.288	-0.108
-542.252	-2.397	-0.060	-0.042
-541.237	439.547	0.131	-0.288
-540.223	-200.000	-0.005	-0.092
-539.208	143.914	-0.152	-0.204
-538.193	-186.448	0.283	0.004
-537.179	-21.788	-0.278	0.170
-536.164	269.704	0.028	-0.050
-535.150	316.050	-0.120	-0.228
-534.135	173.215	0.288	0.419
-533.121	169.480	-0.097	-0.139
-532.106	229.930	0.093	0.153
-531.091	-200.000	-0.005	-0.214
-530.077	3.044	-0.079	-0.058
-529.062	383.672	0.140	0.289
-528.048	-61.819	-0.249	0.105
-527.033	6.260	-0.020	-0.015
-526.018	-0.340	-0.069	0.049
-525.004	-3.048	-0.237	-0.166
-523.989	800.000	0.077	0.223
-522.975	-30.115	0.129	0.074
-521.960	-200.000	0.009	-0.052
-520.945	-9.896	0.249	0.167
-519.931	-200.000	-0.015	-0.111
-518.916	143.191	0.084	-0.112
-517.902	253.386	0.123	0.211
-516.887	426.017	0.155	0.337
-515.872	-100.185	-0.266	0.067
-514.858	-90.316	0.338	0.099
-513.843	-15.262	-0.380	-0.245
-512.829	-6.085	-0.310	0.213
-511.814	-37.655	-0.085	0.046
-510.799	17.786	-0.097	0.078
-509.785	-108.759	-0.429	0.092
-508.770	-148.348	0.295	-0.024
-507.756	-18.456	0.324	-0.203
-506.741	68.856	0.060	-0.061
-505.726	228.312	-0.198	0.324
-504.712	115.297	0.152	-0.186
-503.697	441.441	-0.167	0.368
-502.683	-148.309	0.241	0.020
-501.668	24.579	0.256	0.213
-500.653	-177.225	-0.317	0.008
-499.639	800.000	-0.014	-0.040
-498.624	170.260	0.056	-0.080
-497.610	357.094	0.093	0.186
-496.595	-152.676	-0.169	-0.012
-495.581	-98.964	-0.140	0.036
-494.566	-84.411	0.050	-0.016
-493.551	-66.637	-0.304	0.121
-492.537	-200.000	0.023	0.125
-491.522	3.944	0.174	-0.128
-490.508	85.092	0.202	0.223
-489.493	800.000	0.084	-0.365
-488.478	-200.000	-0.037	-0.279
-487.464	542.623	0.101	0.241
-486.449	-68.500	0.069	-0.027
-485.435	434.518	-0.194	-0.423
-484.420	-200.000	0.006	-0.088
-483.405	93.030	0.076	0.086
-482.391	-131.768	-0.154	0.020
-481.376	109.024	0.031	0.037
-480.362	158.069	0.071	-0.098
-479.347	-45.105	-0.132	-0.066
-478.332	-133.109	-0.387	0.049
-477.318	22.981	0.176	-0.145
-476.303	-82.290	-0.169	0.055
-475.289	-200.000	-0.042	0.204
-474.274	800.000	-0.208	-0.658
-473.259	-30.109	0.284	-0.162
-472.245	800.000	-0.051	0.155
-471.230	116.652	-0.142	0.175
-470.216	63.440	0.183	0.184
-469.201	-159.890	-0.063	0.003
-468.186	-16.841	0.291	0.185
-467.172	800.000	0.064	-0.204
-466.157	-126.123	0.197	0.030
-465.143	-4.212	0.170	-0.118
-464.128	107.195	-0.134	-0.160
-463.113	-85.335	-0.219	-0.069
-462.099	443.397	-0.064	0.141
-461.084	-200.000	0.031	0.195
-460.070	800.000	0.135	0.392
-459.055	-112.470	0.244	-0.049
-458.040	-157.917	-0.176	0.010
-457.026	96.767	-0.259	0.298
-456.011	110.916	0.169	-0.204
-454.997	425.281	0.060	-0.131
-453.982	311.192	0.145	-0.272
-452.968	-158.792	-0.252	-0.014
-451.953	14.491	0.155	-0.121
-450.938	-152.625	0.177	-0.013
-449.924	371.942	0.272	-0.554
-448.909	188.953	-0.082	0.123
-447.895	690.856	-0.084	-0.220
-446.880	203.793	-0.114	0.177
-445.865	-105.159	-0.235	-0.054
-444.851	-55.772	-0.196	0.088
-443.836	194.189	-0.165	-0.251
-442.822	-13.469	-0.237	0.154
-441.807	800.000	0.122	0.429
-440.792	800.000	-0.028	-0.115
-439.778	-84.537	0.214	0.068
-438.763	-34.629	-0.149	0.082
-437.749	615.571	-0.071	-0.178
-436.734	-200.000	-0.004	0.057
-435.719	230.491	-0.043	-0.071
-434.705	-52.406	0.072	0.033
-433.690	-146.130	0.120	-0.011
-432.676	-59.418	0.147	-0.063
-431.661	231.202	-0.119	-0.196
-430.646	50.112	0.338	0.320
-429.632	271.828	-0.064	-0.114
-428.617	31.866	0.082	-0.071
-427.603	-97.785	-0.133	0.034
-426.588	-200.000	-0.011	0.074
-425.573	260.155	0.111	-0.193
-424.559	-102.752	-0.249	0.060
-423.544	345.149	-0.090	0.177
-422.530	169.609	0.115	0.164
-421.515	83.985	0.149	0.163
-420.500	-200.000	0.070	0.316
-419.486	171.562	-0.096	-0.139
-418.471	146.237	-0.112	-0.150
-417.457	-92.661	-0.286	0.080
-416.442	-20.541	-0.217	-0.134
-415.428	800.000	0.120	-0.395
-414.413	167.100	0.163	0.232
-413.398	-200.000	-0.049	0.262
-412.384	800.000	0.084	0.296
-411.369	800.000	-0.073	-0.209
-410.355	409.138	-0.067	-0.142
-409.340	490.299	-0.018	-0.041
-408.325	216.821	-0.114	-0.181
-407.311	-200.000	-0.004	0.026
-406.296	207.983	-0.297	-0.464
-405.282	-175.127	-0.201	-0.006
-404.267	-200.000	-0.029	-0.153
-403.252	67.439	0.261	0.267
-402.238	-170.219	0.073	-0.003
-401.223	-101.015	0.162	-0.040
-400.209	123.343	-0.135	-0.170
-399.194	-60.990	-0.303	-0.128
-398.179	-134.241	0.084	-0.010
-397.165	-66.410	0.030	0.012
-396.150	-27.311	0.150	-0.088
-395.136	-200.000	0.015	0.211
-394.121	490.344	-0.134	-0.308
-393.106	-1.254	0.107	-0.076
-392.092	-200.000	-0.024	0.123
-391.077	-55.148	0.422	-0.190
-390.063	-148.937	0.247	0.020
-389.048	73.432	-0.153	-0.161
-388.033	35.541	-0.122	0.107
-387.019	-66.605	-0.239	-0.095
-386.004	14.776	0.104	-0.081
-384.990	-138.200	0.162	0.018
-383.975	-42.083	-0.335	-0.171
-382.960	-156.706	0.248	0.015
-381.946	-50.847	0.375	0.176
-380.931	-156.026	-0.193	0.012
-379.917	-42.036	0.184	-0.094
-378.902	-6.404	-0.218	0.149
-377.888	-200.000	-0.038	-0.244
-376.873	119.815	0.133	-0.165
-375.858	174.492	-0.133	0.192
-374.844	-26.774	0.125	-0.073
-373.829	-101.605	0.141	-0.034
-372.815	143.748	-0.141	0.188
-371.800	-102.869	-0.260	-0.062
-370.785	-65.403	0.154	0.062
-369.771	114.158	-0.144	-0.175
-368.756	-89.340	0.158	-0.046
-367.742	19.935	-0.172	-0.139
-366.727	20.113	-0.384	0.309
-365.712	-127.932	-0.110	-0.016
-364.698	-200.000	-0.038	0.196
-363.683	800.000	0.062	-0.189
-362.669	-87.294	-0.253	0.077
-361.654	-19.180	0.089	-0.055
-360.639	-7.806	-0.457	0.309
-359.625	519.116	0.132	0.309
-358.610	146.535	-0.117	-0.158
-357.596	-60.816	-0.287	0.122
-356.581	-72.855	-0.219	-0.081
-355.566	3.773	-0.289	-0.211
-354.552	22.343	0.210	-0.172
-353.537	-87.329	-0.266	0.081
-352.523	800.000	-0.009	0.029
-351.508	-200.000	-0.016	0.083
-350.493	606.431	-0.062	-0.156
-349.479	800.000	-0.104	0.405
-348.464	-200.000	0.047	0.324
-347.450	87.629	0.151	-0.167
-346.435	-98.254	0.079	-0.020
-345.420	49.969	0.352	-0.332
-344.406	-178.862	-0.048	0.001
-343.391	-106.933	0.222	0.049
-342.377	101.758	-0.008	0.009
-341.362	301.774	0.043	0.079
-340.348	-58.934	-0.142	0.061
-339.333	-158.258	-0.258	0.015
-338.318	-72.717	-0.055	-0.020
-337.304	395.848	-0.186	-0.387
-336.289	800.000	0.036	0.103
-335.275	-21.504	-0.181	-0.111
-334.260	71.924	-0.164	0.171
-333.245	-56.986	0.067	0.030
-332.231	-200.000	-0.013	0.289
-331.216	-107.038	-0.221	0.049
-330.202	-170.755	-0.257	-0.009
-329.187	-99.974	0.274	-0.068
-328.172	-120.462	0.191	-0.032
-327.158	-153.793	-0.125	0.009
-326.143	136.993	-0.096	-0.125
-325.129	-146.660	0.309	0.027
-324.114	800.000	-0.039	-0.126
-323.099	21.092	0.181	-0.146
-322.085	-38.108	-0.150	-0.079
-321.070	166.144	0.083	-0.117
-320.056	130.407	0.164	-0.210
-319.041	-99.539	0.417	0.105
-318.026	114.373	-0.161	-0.195
-317.012	107.779	-0.094	-0.112
-315.997	800.000	0.074	0.243
-314.983	-169.936	0.135	0.005
-313.968	478.463	0.096	-0.218
-312.953	288.585	0.127	-0.229
-311.939	79.780	0.153	0.164
-310.924	-135.505	-0.389	0.046
-309.910	-80.120	0.275	0.092
-308.895	765.688	0.117	0.317
-307.880	800.000	-0.082	0.300
-306.866	462.162	-0.113	0.252
-305.851	-133.905	-0.212	0.026
-304.837	-200.000	0.068	0.346
-303.822	90.332	-0.196	-0.219
-302.807	-70.928	0.405	-0.152
-301.793	-24.679	0.107	-0.064
-300.778	800.000	-0.055	-0.214
-299.764	-48.752	-0.279	-0.134
-298.749	-27.851	0.092	-0.053
-297.735	162.842	-0.095	-0.133
-296.720	-129.423	-0.186	0.026
-295.705	127.025	-0.122	-0.155
-294.691	-199.487	0.043	-0.000
-293.676	-2.579	0.241	-0.168
-292.662	387.048	0.233	-0.479
-291.647	-60.304	0.287	0.122
-290.632	3.228	0.188	0.136
-289.618	-90.886	-0.146	0.042
-288.603	2.551	0.326	0.235
-287.589	365.672	-0.113	0.226
-286.574	370.660	0.190	0.383
-285.559	-6.232	0.177	-0.121
-284.545	17.341	-0.263	-0.208
-283.530	-200.000	-0.034	-0.161
-282.516	800.000	0.072	-0.276
-281.501	40.625	-0.226	0.203
-280.486	248.509	0.090	0.152
-279.472	116.762	-0.245	-0.299
-278.457	166.891	-0.177	0.250
-277.443	346.597	0.186	0.365
-276.428	16.491	-0.056	0.044
-275.413	-18.981	0.204	0.126
-274.399	31.437	-0.121	-0.104
-273.384	134.908	0.148	-0.192
-272.370	25.599	0.295	-0.245
-271.355	-100.468	0.217	0.054
-270.340	19.466	-0.274	-0.219
-269.326	-171.265	0.188	0.006
-268.311	315.177	0.116	-0.217
-267.297	-11.441	0.154	-0.101
-266.282	800.000	0.079	0.288
-265.267	-28.139	-0.224	-0.129
-264.253	333.581	-0.051	-0.098
-263.238	-23.015	0.375	-0.225
-262.224	-73.475	0.333	0.121
-261.209	228.398	-0.143	0.233
-260.195	-34.708	-0.155	-0.084
-259.180	-47.005	0.203	0.099
-258.165	228.450	-0.038	0.062
-257.151	155.443	0.152	0.209
-256.136	25.929	-0.130	-0.108
-255.122	143.718	-0.124	-0.164
-254.107	38.583	0.096	0.085
-253.092	35.402	-0.196	0.171
-252.078	571.775	0.109	0.264
-251.063	51.116	0.109	-0.103
-250.049	535.894	-0.093	-0.220
-249.034	-200.000	0.015	0.152
-248.019	-99.185	0.315	-0.079
-247.005	-200.000	-0.013	-0.135
-245.990	-200.000	0.017	-0.147
-244.976	-62.403	-0.455	0.188
-243.961	-136.935	0.269	0.031
-242.946	35.205	-0.322	-0.281
-241.932	24.612	-0.200	-0.165
-240.917	73.250	-0.306	0.318
-239.903	-200.000	-0.040	0.191
-238.888	16.348	0.155	0.122
-237.873	-104.679	0.390	0.089
-236.859	507.933	0.055	0.128
-235.844	135.957	0.201	0.260
-234.830	-29.438	0.199	-0.113
-233.815	-164.135	-0.340	-0.016
-232.800	546.720	0.111	0.263
-231.786	-90.961	0.095	-0.027
-230.771	-48.234	0.093	-0.045
-229.757	292.823	0.023	0.041
-228.742	495.412	0.095	-0.217
-227.727	800.000	-0.074	0.204
-226.713	160.787	-0.227	0.315
-225.698	135.860	0.152	-0.197
-224.684	-47.279	-0.393	0.191
-223.669	-129.292	-0.335	0.046
-222.655	-44.496	0.233	-0.116
-221.640	-107.922	0.239	-0.052
-220.625	257.486	-0.058	-0.099
-219.611	-42.510	0.300	0.152
-218.596	-120.533	0.085	0.014
-217.582	55.519	0.227	0.218
-216.567	214.578	0.136	-0.215
-215.552	-36.282	0.070	0.037
-214.538	-200.000	0.027	-0.331
-213.523	482.419	-0.010	-0.023
-212.509	-140.533	-0.220	-0.023
-211.494	-78.222	-0.263	0.090
-210.479	-104.011	0.158	-0.037
-209.465	102.118	-0.096	-0.111
-208.450	-200.000	0.037	-0.516
-207.436	-20.822	-0.251	0.153
-206.421	251.555	-0.027	0.045
-205.406	150.790	-0.117	-0.157
-204.392	-39.351	-0.311	0.162
-203.377	-200.000	-0.028	-0.153
-202.363	630.804	0.132	-0.332
-201.348	47.634	0.220	-0.204
-200.333	-200.000	0.025	0.389
-199.319	-56.909	-0.056	0.024
-198.304	800.000	-0.033	0.132
-197.290	-59.855	-0.167	0.071
-196.275	-138.630	-0.156	0.017
-195.260	-80.563	-0.211	-0.070
-194.246	-200.000	0.068	-0.316
-193.231	-200.000	0.008	0.208
-192.217	-145.647	0.161	0.014
-191.202	-164.676	-0.193	-0.009
-190.187	60.695	0.037	-0.037
-189.173	-200.000	-0.002	-0.152
-188.158	644.184	0.058	0.147
-187.144	-75.017	0.092	0.033
-186.129	-200.000	-0.021	0.384
-185.114	89.863	-0.137	0.152
-184.100	201.736	0.104	0.159
-183.085	-175.279	0.090	-0.002
-182.071	-13.096	0.444	0.286
-181.056	7.571	-0.210	0.156
-180.042	-200.000	0.054	-0.250
-179.027	-41.150	-0.200	-0.102
-178.012	-118.599	-0.108	0.019
-176.998	-200.000	0.034	0.224
-175.983	-200.000	-0.004	-0.201
-174.969	329.395	-0.041	0.079
-173.954	618.456	-0.038	-0.094
-172.939	-122.075	-0.091	-0.015
-171.925	-17.536	0.445	0.278
-170.910	-200.000	0.071	-0.445
-169.896	-85.331	0.282	0.087
-168.881	800.000	0.076	-0.250
-167.866	-127.204	0.292	-0.042
-166.852	-128.887	0.362	0.050
-165.837	-11.584	0.147	-0.096
-164.823	148.590	0.140	-0.187
-163.808	150.977	0.154	0.207
-162.793	34.551	0.139	-0.121
-161.779	-40.557	0.228	0.117
-160.764	-107.044	0.328	0.072
-159.750	-146.937	-0.135	-0.012
-158.735	-33.319	0.217	0.119
-157.720	-164.583	-0.094	0.004
-156.706	-24.170	0.082	-0.049
-155.691	71.279	0.407	-0.419
-154.677	-70.163	-0.095	-0.036
-153.662	800.000	-0.056	0.188
-152.647	12.311	0.299	0.228
-151.633	394.692	0.092	0.190
-150.618	800.000	-0.065	-0.192
-149.604	-200.000	-0.015	0.140
-148.589	266.180	-0.107	0.186
-147.574	-200.000	-0.033	0.170
-146.560	-178.316	0.380	0.009
-145.545	-186.350	-0.172	-0.002
-144.531	74.424	0.182	0.190
-143.516	-6.661	0.010	-0.007
-142.502	16.457	0.263	0.206
-141.487	-7.398	0.073	-0.049
-140.472	800.000	0.057	-0.216
-139.458	317.581	0.049	-0.092
-138.443	133.593	-0.166	-0.213
-137.429	-200.000	-0.219	-0.001
-136.414	-200.000	0.041	0.207
-135.399	428.631	0.102	0.219
-134.385	-127.116	-0.196	0.028
-133.370	-160.921	-0.047	0.002
-132.356	-45.424	0.203	-0.100
-131.341	47.459	0.186	0.172
-130.326	-200.000	0.047	0.296
-129.312	-146.072	-0.113	0.010
-128.297	-145.238	-0.336	-0.030
-127.283	-63.763	-0.154	-0.063
-126.268	676.665	0.147	-0.379
-125.253	-87.503	0.311	-0.093
-124.239	-123.336	-0.087	0.014
-123.224	-89.218	0.218	0.064
-122.210	-105.405	0.132	-0.030
-121.195	800.000	0.085	0.302
