DTS Sentinel unit serial number:	SN413079Multiplexer serial number:	ORYXHardware model number:	OX4-SRSoftware version number:	ORYX F/W v4.00 Oryx Data Collector v3.7.2.0data status	okinstallation	princeton_trtdifferential loss correction	single-endedforward channel	channel 4reverse channel	N/Adate	2019/09/11time	13:27:11forward acquisition time	60.00reverse acquisition time	0.00gamma	496.2192k internal	0.2283k external	0.2283temperature offset calibration	1.0004default loss term (dB/km)	0.3790temperature slope calibration	1.0000multiplexer offset coefficient	1.0000multiplexer slope coefficient	1.0000fibre end	0.00T internal ref (°C)	41.94T ext. ref 1 (°C)	0.82T ext. ref 2 (°C)	36.90length (m)	temperature (°C)	Stokes	anti-Stokes-747.200	-121.528	-0.363	0.062
-746.185	189.349	-0.072	-0.111
-745.171	-200.000	-0.008	0.234
-744.156	82.186	-0.176	0.196
-743.142	-200.000	0.045	-0.311
-742.127	-200.000	0.040	0.303
-741.112	-200.000	0.025	0.270
-740.098	40.872	-0.294	0.273
-739.083	-95.935	0.120	-0.033
-738.069	-200.000	0.053	0.594
-737.054	800.000	-0.036	-0.116
-736.039	24.289	0.090	-0.076
-735.025	-135.076	0.342	-0.042
-734.010	-200.000	0.016	-0.120
-732.996	440.977	0.075	0.168
-731.981	112.155	0.127	0.158
-730.966	-200.000	0.011	0.086
-729.952	421.892	-0.009	0.020
-728.937	-84.080	0.373	-0.122
-727.923	-54.004	-0.212	-0.099
-726.908	289.845	0.100	0.186
-725.894	638.230	-0.074	0.194
-724.879	-60.802	0.042	-0.018
-723.864	179.732	0.098	-0.148
-722.850	-14.916	-0.153	0.101
-721.835	643.510	0.006	0.017
-720.821	250.453	0.068	-0.119
-719.806	-200.000	0.029	-0.287
-718.791	383.756	-0.071	-0.151
-717.777	-161.941	-0.230	-0.012
-716.762	-44.357	0.265	0.136
-715.748	87.940	0.036	-0.041
-714.733	184.178	-0.083	0.125
-713.718	-76.270	0.517	-0.187
-712.704	664.401	-0.094	0.249
-711.689	-137.769	0.134	0.015
-710.675	-76.321	0.089	-0.032
-709.660	187.584	-0.089	-0.137
-708.645	64.552	0.142	0.147
-707.631	-200.000	-0.012	-0.085
-706.616	-137.105	0.388	-0.045
-705.602	-40.045	-0.093	0.050
-704.587	-28.783	0.098	0.058
-703.572	289.554	-0.058	-0.108
-702.558	-155.960	0.388	0.025
-701.543	-81.430	-0.107	-0.036
-700.529	94.183	-0.119	0.139
-699.514	45.170	-0.189	-0.179
-698.499	-46.598	0.187	-0.094
-697.485	-56.131	-0.132	-0.060
-696.470	82.235	-0.290	0.323
-695.456	285.653	-0.186	0.343
-694.441	24.932	-0.116	0.099
-693.426	-124.780	-0.065	-0.010
-692.412	76.684	-0.083	0.090
-691.397	-82.923	-0.046	-0.015
-690.383	76.852	-0.080	-0.088
-689.368	-104.206	-0.297	-0.071
-688.354	47.054	0.261	-0.249
-687.339	-91.810	0.294	-0.086
-686.324	800.000	-0.085	0.294
-685.310	11.458	-0.352	0.277
-684.295	285.582	0.009	-0.016
-683.281	40.331	-0.252	-0.232
-682.266	23.441	0.114	-0.096
-681.251	-200.000	0.009	0.075
-680.237	-7.397	0.246	-0.171
-679.222	-26.169	-0.101	-0.061
-678.208	149.096	-0.060	0.084
-677.193	-2.702	-0.280	0.201
-676.178	97.223	0.082	0.096
-675.164	86.572	-0.077	-0.087
-674.149	-92.704	0.324	-0.093
-673.135	800.000	0.028	-0.117
-672.120	800.000	0.019	-0.061
-671.105	800.000	0.006	-0.023
-670.091	-74.807	0.286	0.105
-669.076	-146.224	-0.419	0.038
-668.062	7.479	0.129	-0.099
-667.047	243.685	-0.103	-0.177
-666.032	800.000	-0.025	-0.081
-665.018	85.240	0.090	0.101
-664.003	-75.888	0.250	0.091
-662.989	-17.343	0.192	0.124
-661.974	364.688	0.037	-0.076
-660.959	-25.286	0.150	-0.091
-659.945	-92.644	-0.046	-0.013
-658.930	419.808	-0.202	0.444
-657.916	332.404	-0.220	0.435
-656.901	567.685	-0.049	0.123
-655.886	-200.000	0.054	-0.271
-654.872	90.272	-0.153	-0.176
-653.857	-200.000	0.045	0.256
-652.843	0.053	0.228	-0.167
-651.828	-200.000	0.008	0.288
-650.814	-200.000	-0.016	-0.110
-649.799	-69.879	-0.206	-0.081
-648.784	-82.115	-0.371	0.124
-647.770	426.902	-0.042	0.092
-646.755	-107.871	0.186	-0.041
-645.741	-170.943	0.235	-0.008
-644.726	285.083	-0.095	0.175
-643.711	239.004	-0.075	0.127
-642.697	79.184	0.323	-0.354
-641.682	186.332	0.139	0.212
-640.668	-162.591	0.169	-0.009
-639.653	532.542	0.040	-0.097
-638.638	-200.000	0.004	-0.428
-637.624	-11.857	-0.230	-0.154
-636.609	-200.000	-0.012	0.160
-635.595	98.408	-0.304	-0.359
-634.580	-200.000	0.007	-0.147
-633.565	-106.455	-0.284	0.065
-632.551	800.000	-0.038	-0.162
-631.536	-34.382	0.255	-0.143
-630.522	-61.354	0.080	-0.034
-629.507	-42.213	0.245	0.128
-628.492	744.376	-0.116	-0.319
-627.478	-7.906	-0.229	-0.158
-626.463	24.500	-0.174	-0.147
-625.449	-64.359	0.479	0.199
-624.434	561.615	-0.039	-0.097
-623.419	-177.128	-0.148	0.004
-622.405	52.634	0.157	-0.153
-621.390	507.359	0.049	0.117
-620.376	-171.495	-0.468	0.016
-619.361	-78.810	-0.331	-0.115
-618.346	9.037	0.080	0.062
-617.332	-40.162	-0.199	-0.106
-616.317	-200.000	0.027	-0.273
-615.303	40.497	-0.244	-0.224
-614.288	101.994	0.184	0.220
-613.273	12.926	-0.121	-0.096
-612.259	-90.056	0.133	0.040
-611.244	-200.000	-0.005	0.047
-610.230	271.230	0.078	0.141
-609.215	-200.000	0.064	-0.397
-608.201	-123.899	0.208	-0.033
-607.186	800.000	-0.009	-0.033
-606.171	-2.984	0.227	-0.162
-605.157	59.607	0.092	0.093
-604.142	314.464	0.145	0.278
-603.128	-200.000	-0.031	-0.182
-602.113	156.566	-0.250	0.352
-601.098	-65.884	0.324	-0.132
-600.084	93.024	0.074	-0.086
-599.069	-78.982	0.158	-0.055
-598.055	36.653	-0.147	0.132
-597.040	-155.975	0.097	0.006
-596.025	-169.273	0.278	-0.010
-595.011	17.434	0.073	0.059
-593.996	288.560	-0.250	-0.463
-592.982	-200.000	-0.054	0.318
-591.967	29.480	-0.102	-0.089
-590.952	11.600	0.244	0.191
-589.938	-200.000	-0.004	-0.454
-588.923	-173.052	0.370	0.012
-587.909	160.424	0.221	0.315
-586.894	43.713	0.180	-0.168
-585.879	460.807	-0.073	0.165
-584.865	32.420	-0.096	-0.084
-583.850	327.131	-0.075	-0.148
-582.836	-106.132	0.128	0.029
-581.821	800.000	0.141	-0.431
-580.806	-119.013	-0.186	0.033
-579.792	-122.806	-0.208	0.034
-578.777	-121.314	0.295	-0.050
-577.763	-46.926	-0.226	0.113
-576.748	800.000	0.033	0.116
-575.733	-200.000	-0.007	-0.292
-574.719	800.000	-0.063	-0.275
-573.704	-141.303	-0.369	0.038
-572.690	800.000	0.047	0.181
-571.675	-200.000	0.000	-0.107
-570.661	-83.269	-0.095	0.031
-569.646	612.040	0.103	-0.263
-568.631	6.361	-0.106	0.081
-567.617	-105.572	0.317	-0.073
-566.602	-19.310	0.157	0.099
-565.588	-41.853	-0.051	-0.027
-564.573	800.000	-0.082	0.284
-563.558	51.333	-0.369	-0.357
-562.544	-90.251	-0.063	0.019
-561.529	-67.724	-0.265	0.106
-560.515	636.835	0.030	0.078
-559.500	-200.000	0.005	0.284
-558.485	88.980	-0.196	-0.222
-557.471	800.000	-0.103	0.304
-556.456	214.119	-0.098	0.158
-555.442	454.484	0.161	-0.363
-554.427	-122.169	0.113	0.019
-553.412	325.225	-0.177	-0.346
-552.398	-3.684	-0.092	0.065
-551.383	-78.042	-0.258	-0.091
-550.369	-18.946	0.103	-0.065
-549.354	61.980	-0.102	0.103
-548.339	800.000	-0.076	-0.267
-547.325	55.361	0.114	-0.112
-546.310	-200.000	0.023	-0.167
-545.296	-200.000	0.004	0.058
-544.281	-98.979	-0.640	0.166
-543.266	-200.000	-0.316	0.001
-542.252	-65.339	0.257	0.106
-541.237	352.108	0.056	0.113
-540.223	69.942	0.098	0.103
-539.208	-200.000	-0.043	0.296
-538.193	-73.434	0.077	0.029
-537.179	-51.852	-0.163	0.077
-536.164	-190.162	0.045	-0.001
-535.150	-44.087	0.194	0.099
-534.135	-200.000	0.002	0.280
-533.121	-30.476	0.441	-0.255
-532.106	-157.429	0.076	-0.005
-531.091	71.867	0.261	0.277
-530.077	81.885	0.108	-0.120
-529.062	-7.780	-0.147	0.101
-528.048	-47.354	-0.419	0.208
-527.033	-118.788	0.167	0.030
-526.018	501.709	0.012	0.027
-525.004	-200.000	-0.006	0.055
-523.989	260.871	0.308	-0.543
-522.975	-49.094	-0.137	0.067
-521.960	-118.165	0.261	-0.047
-520.945	-78.620	0.090	0.031
-519.931	800.000	0.066	-0.240
-518.916	-200.000	0.059	-0.280
-517.902	232.392	0.089	-0.149
-516.887	112.286	-0.111	-0.137
-515.872	273.194	-0.107	0.193
-514.858	85.156	0.093	0.104
-513.843	116.050	0.154	0.192
-512.829	189.609	0.138	-0.211
-511.814	-135.702	0.197	0.024
-510.799	-200.000	0.003	0.097
-509.785	65.609	-0.029	0.030
-508.770	-48.566	-0.182	0.089
-507.756	199.956	0.131	0.205
-506.741	-200.000	-0.036	-0.236
-505.726	-72.328	-0.481	-0.181
-504.712	369.754	0.120	-0.247
-503.697	-200.000	0.051	0.345
-502.683	-200.000	0.036	0.354
-501.668	116.497	-0.423	0.528
-500.653	43.887	-0.280	0.261
-499.639	-78.103	0.158	0.055
-498.624	395.068	-0.117	-0.248
-497.610	347.572	0.068	-0.136
-496.595	-61.824	-0.144	-0.061
-495.581	800.000	-0.057	-0.184
-494.566	188.858	-0.056	0.085
-493.551	-18.208	0.100	0.063
-492.537	-96.170	0.246	-0.067
-491.522	-156.003	0.183	0.012
-490.508	-119.126	0.139	-0.025
-489.493	282.164	-0.209	0.380
-488.478	312.719	-0.150	0.286
-487.464	-14.716	0.260	0.170
-486.449	127.767	0.228	0.295
-485.435	695.134	-0.147	-0.392
-484.420	-42.308	0.229	0.119
-483.405	38.426	0.219	0.198
-482.391	-200.000	-0.014	-0.118
-481.376	-20.912	0.087	0.054
-480.362	-3.051	-0.329	-0.233
-479.347	-200.000	-0.027	-0.249
-478.332	-131.991	-0.340	-0.045
-477.318	274.896	0.170	0.307
-476.303	3.600	0.202	0.150
-475.289	-61.404	-0.129	-0.055
-474.274	-200.000	-0.019	-0.306
-473.259	158.129	-0.235	-0.331
-472.245	-52.845	-0.109	0.051
-471.230	-14.320	-0.112	-0.073
-470.216	-35.422	-0.106	0.058
-469.201	-185.750	-0.249	0.004
-468.186	-147.297	0.212	-0.018
-467.172	-116.153	-0.080	-0.015
-466.157	-83.576	-0.167	0.054
-465.143	50.946	-0.271	-0.261
-464.128	29.623	0.121	0.105
-463.113	-70.443	0.325	0.125
-462.099	339.610	-0.142	0.281
-461.084	-166.767	0.186	0.008
-460.070	195.921	0.106	0.164
-459.055	19.894	-0.170	-0.139
-458.040	-200.000	0.008	-0.034
-457.026	-168.399	0.492	0.019
-456.011	-200.000	0.328	-0.000
-454.997	309.467	-0.129	0.245
-453.982	-189.986	0.216	-0.002
-452.968	-4.422	0.224	-0.158
-451.953	-153.496	0.256	-0.018
-450.938	33.093	-0.190	-0.167
-449.924	-190.180	-0.348	0.004
-448.909	41.918	-0.094	0.087
-447.895	773.852	-0.039	0.107
-446.880	13.999	-0.146	-0.115
-445.865	-20.341	0.038	-0.024
-444.851	96.785	0.096	-0.112
-443.836	-200.000	-0.002	-0.088
-442.822	-200.000	-0.003	-0.134
-441.807	-94.631	0.226	0.062
-440.792	-179.986	0.196	0.004
-439.778	771.669	0.052	0.145
-438.763	-200.000	-0.048	-0.223
-437.749	-149.086	0.266	0.022
-436.734	-127.018	-0.032	0.005
-435.719	441.244	0.121	-0.268
-434.705	-125.933	0.149	-0.023
-433.690	289.551	0.129	-0.237
-432.676	-25.087	0.174	-0.105
-431.661	-133.476	-0.268	0.034
-430.646	182.302	0.012	0.018
-429.632	-168.651	0.306	-0.012
-428.617	208.351	0.324	-0.515
-427.603	-135.949	0.125	-0.015
-426.588	-36.780	-0.085	0.046
-425.573	-200.000	0.006	0.084
-424.559	-200.000	-0.009	0.182
-423.544	165.528	-0.140	-0.200
-422.530	-200.000	-0.016	-0.190
-421.515	54.776	0.144	-0.141
-420.500	185.874	0.128	0.194
-419.486	27.170	0.072	0.061
-418.471	-34.562	-0.396	-0.220
-417.457	296.702	-0.145	-0.269
-416.442	75.287	-0.150	-0.161
-415.428	-75.014	0.109	-0.040
-414.413	-135.703	0.624	0.075
-413.398	647.115	0.054	0.140
-412.384	-180.314	0.221	0.005
-411.369	-200.000	0.042	0.210
-410.355	18.746	-0.429	0.348
-409.340	84.495	0.105	-0.116
-408.325	-66.857	0.173	0.069
-407.311	-200.000	-0.019	0.193
-406.296	36.687	-0.169	-0.152
-405.282	-19.718	-0.281	-0.176
-404.267	197.556	-0.024	0.038
-403.252	-200.000	-0.005	0.031
-402.238	-20.070	0.133	0.083
-401.223	-87.282	0.246	-0.076
-400.209	319.575	0.194	0.374
-399.194	179.054	0.034	0.051
-398.179	-84.581	-0.294	-0.094
-397.165	-200.000	0.005	-0.140
-396.150	-54.731	-0.172	-0.079
-395.136	-147.921	0.103	-0.009
-394.121	198.975	0.220	0.342
-393.106	228.629	-0.167	0.275
-392.092	98.249	-0.173	0.202
-391.077	520.492	0.094	0.222
-390.063	-93.401	0.251	-0.070
-389.048	632.473	-0.052	-0.133
-388.033	-200.000	0.003	-0.090
-387.019	-23.104	0.032	0.020
-386.004	129.407	0.071	0.091
-384.990	-33.858	-0.038	-0.021
-383.975	126.444	0.139	0.178
-382.960	-27.627	0.423	-0.249
-381.946	800.000	-0.090	-0.366
-380.931	-200.000	0.055	-0.467
-379.917	-79.297	-0.066	0.023
-378.902	-33.295	0.129	0.072
-377.888	221.657	-0.110	0.179
-376.873	-200.000	-0.024	-0.300
-375.858	166.582	-0.193	-0.276
-374.844	-34.900	0.076	-0.042
-373.829	-134.293	0.117	-0.015
-372.815	630.656	0.100	-0.256
-371.800	800.000	0.081	0.355
-370.785	-23.845	0.395	0.239
-369.771	-174.683	0.136	-0.004
-368.756	-43.375	0.124	0.063
-367.742	800.000	0.099	0.290
-366.727	25.869	0.059	0.050
-365.712	-106.790	-0.194	0.044
-364.698	75.919	0.075	-0.080
-363.683	800.000	-0.115	-0.375
-362.669	218.405	-0.148	0.239
-361.654	-200.000	0.016	0.159
-360.639	-52.851	-0.084	0.039
-359.625	-17.523	-0.114	0.072
-358.610	114.503	-0.195	0.240
-357.596	-84.472	-0.160	-0.051
-356.581	-200.000	-0.066	-0.325
-355.566	-78.121	0.223	0.077
-354.552	7.465	-0.192	-0.145
-353.537	12.298	-0.120	0.094
-352.523	5.563	-0.262	-0.196
-351.508	33.236	0.165	0.145
-350.493	52.631	-0.217	0.209
-349.479	800.000	-0.087	-0.379
-348.464	556.492	0.037	0.090
-347.450	72.709	0.093	0.098
-346.435	-31.582	0.298	-0.169
-345.420	-200.000	-0.029	0.160
-344.406	-163.239	0.210	-0.010
-343.391	-95.035	0.307	0.084
-342.377	-200.000	-0.061	-0.377
-341.362	-200.000	-0.016	-0.421
-340.348	-150.027	-0.255	0.020
-339.333	-200.000	0.027	-0.304
-338.318	622.159	0.071	0.181
-337.304	-200.000	0.013	-0.146
-336.289	-200.000	0.007	-0.312
-335.275	-20.489	0.318	-0.197
-334.260	800.000	0.085	0.278
-333.245	-122.626	0.285	-0.047
-332.231	703.739	-0.062	-0.166
-331.216	719.164	0.116	0.312
-330.202	41.182	0.126	0.116
-329.187	-49.789	-0.134	-0.065
-328.172	-200.000	0.009	0.207
-327.158	-200.000	-0.010	0.109
-326.143	529.619	-0.044	-0.106
-325.129	493.600	-0.038	0.089
-324.114	-107.882	0.486	-0.107
-323.099	800.000	-0.087	0.315
-322.085	13.333	0.183	0.144
-321.070	-22.335	0.129	0.079
-320.056	-132.535	-0.328	0.043
-319.041	-200.000	-0.042	0.222
-318.026	17.775	0.272	-0.219
-317.012	61.879	0.259	0.260
-315.997	-51.695	-0.229	0.108
-314.983	13.023	0.133	-0.104
-313.968	-200.000	-0.004	0.125
-312.953	-70.897	0.251	0.096
-311.939	153.498	0.099	0.137
-310.924	-200.000	-0.002	-0.174
-309.910	781.515	0.099	0.275
-308.895	4.663	-0.326	0.242
-307.880	-89.714	-0.133	-0.039
-306.866	-136.976	-0.316	0.037
-305.851	-200.000	0.045	0.304
-304.837	-200.000	0.003	0.118
-303.822	80.485	0.060	-0.065
-302.807	-62.316	0.184	0.077
-301.793	-200.000	-0.081	0.362
-300.778	294.823	-0.073	-0.135
-299.764	321.771	0.059	-0.114
-298.749	45.141	-0.251	-0.233
-297.735	800.000	0.033	-0.118
-296.720	-167.686	0.254	0.010
-295.705	59.857	-0.134	0.133
-294.691	800.000	0.078	-0.225
-293.676	-34.964	-0.207	0.114
-292.662	-27.068	-0.271	-0.159
-291.647	110.359	-0.095	-0.115
-290.632	-145.387	0.271	0.025
-289.618	479.146	-0.115	0.263
-288.603	210.562	-0.145	-0.230
-287.589	-126.477	-0.383	-0.057
-286.574	-74.058	0.517	-0.189
-285.559	-25.939	0.193	-0.115
-284.545	-200.000	0.005	-0.384
-283.530	-23.325	0.080	-0.049
-282.516	5.646	-0.142	0.106
-281.501	-83.737	-0.114	-0.037
-280.486	441.739	0.103	0.228
-279.472	-6.656	0.369	0.254
-278.457	413.787	0.153	0.328
-277.443	388.101	0.048	0.101
-276.428	-172.633	0.082	0.003
-275.413	45.722	-0.116	0.108
-274.399	291.031	0.111	-0.203
-273.384	407.144	0.103	0.220
-272.370	47.227	0.137	0.128
-271.355	800.000	0.020	0.064
-270.340	-200.000	0.014	0.137
-269.326	-200.000	0.006	-0.125
-268.311	178.293	-0.148	0.218
-267.297	-62.035	0.173	-0.073
-266.282	53.148	-0.147	-0.142
-265.267	-68.362	-0.108	-0.042
-264.253	-66.762	-0.164	-0.066
-263.238	612.129	0.145	-0.367
-262.224	192.767	0.030	0.046
-261.209	-10.565	0.246	-0.164
-260.195	800.000	-0.048	-0.153
-259.180	800.000	-0.157	0.528
-258.165	3.130	-0.374	0.274
-257.151	-200.000	0.042	0.000
-256.136	-87.590	0.486	-0.148
-255.122	-89.857	-0.161	0.048
-254.107	77.672	-0.095	-0.102
-253.092	-91.035	0.021	0.006
-252.078	161.013	-0.089	-0.125
-251.063	800.000	0.059	0.211
-250.049	348.571	0.170	0.339
-249.034	-200.000	0.015	0.260
-248.019	-175.091	-0.389	-0.011
-247.005	-127.958	0.343	-0.050
-245.990	800.000	-0.063	-0.179
-244.976	-105.273	0.189	0.044
-243.961	-119.391	-0.216	-0.038
-242.946	-200.000	-0.017	0.091
-241.932	800.000	-0.105	-0.327
-240.917	-200.000	-0.004	-0.448
-239.903	25.658	0.258	-0.216
-238.888	800.000	0.075	0.230
-237.873	-33.722	-0.230	0.128
-236.859	-50.621	0.187	-0.089
-235.844	800.000	-0.074	-0.227
-234.830	15.801	0.272	0.216
-233.815	674.507	-0.020	-0.052
-232.800	-182.474	-0.229	-0.004
-231.786	16.066	0.297	0.236
-230.771	38.837	-0.110	0.099
-229.757	-200.000	0.017	-0.176
-228.742	-151.260	-0.147	-0.011
-227.727	-76.776	-0.279	-0.099
-226.713	274.434	-0.114	0.203
-225.698	-56.276	-0.216	0.097
-224.684	79.418	0.351	0.380
-223.669	-6.252	-0.044	-0.030
-222.655	-144.736	-0.321	0.030
-221.640	540.838	0.104	0.251
-220.625	-66.658	-0.205	0.082
-219.611	-26.254	0.107	0.063
-218.596	-151.152	-0.350	0.026
-217.582	58.719	-0.172	0.170
-216.567	340.625	0.062	0.121
-215.552	138.508	0.078	-0.103
-214.538	-200.000	-0.038	0.245
-213.523	-24.635	-0.159	0.095
-212.509	-126.509	-0.136	-0.020
-211.494	49.844	-0.154	-0.146
-210.479	-144.177	-0.190	-0.018
-209.465	253.070	-0.049	-0.084
-208.450	-74.848	-0.210	-0.076
-207.436	71.104	0.278	-0.290
-206.421	-19.276	-0.392	-0.245
-205.406	145.278	0.114	-0.154
-204.392	517.575	-0.037	-0.087
-203.377	52.869	-0.094	-0.091
-202.363	-61.664	-0.267	0.113
-201.348	-11.401	0.313	-0.207
-200.333	27.783	0.193	-0.163
-199.319	-180.622	0.112	0.002
-198.304	-19.005	-0.054	-0.034
-197.290	-73.261	0.264	0.097
-196.275	150.505	-0.116	0.158
-195.260	301.386	-0.110	0.204
-194.246	228.941	0.073	-0.119
-193.231	800.000	0.044	0.154
-192.217	-24.832	0.199	-0.119
-191.202	-23.697	-0.325	0.196
-190.187	800.000	0.054	0.168
-189.173	-1.976	-0.200	-0.141
-188.158	-185.714	-0.131	0.002
-187.144	-28.949	0.090	-0.052
-186.129	745.367	0.029	0.080
-185.114	-30.057	-0.303	-0.173
-184.100	-200.000	-0.033	-0.207
-183.085	52.445	-0.223	0.214
-182.071	-151.634	-0.593	-0.044
-181.056	-121.896	0.024	-0.004
-180.042	-92.262	0.361	0.102
-179.027	-200.000	-0.101	0.521
-178.012	-200.000	0.033	0.415
-176.998	578.139	0.028	0.069
-175.983	132.634	0.189	0.245
-174.969	75.184	0.174	-0.184
-173.954	285.605	0.062	-0.113
-172.939	254.556	-0.111	0.191
-171.925	-47.337	-0.169	-0.083
-170.910	-40.443	-0.407	0.213
-169.896	36.744	-0.251	0.222
-168.881	274.650	0.180	0.320
-167.866	-200.000	-0.001	0.204
-166.852	-41.929	-0.072	-0.037
-165.837	-200.000	-0.034	-0.235
-164.823	-200.000	-0.046	-0.426
-163.808	132.734	-0.321	0.416
-162.793	-20.698	-0.283	0.174
-161.779	800.000	0.040	-0.114
-160.764	-14.421	-0.041	-0.026
-159.750	757.809	-0.043	-0.117
-158.735	197.684	-0.094	0.144
-157.720	106.786	0.106	-0.127
-156.706	66.961	-0.136	-0.139
-155.691	-16.637	-0.247	-0.157
-154.677	516.254	0.032	0.075
-153.662	-144.659	0.254	0.023
-152.647	-124.177	-0.444	-0.070
-151.633	-61.617	-0.193	-0.081
-150.618	-31.446	-0.333	0.188
-149.604	-31.474	-0.231	0.130
-148.589	-169.709	-0.121	0.004
-147.574	-63.655	-0.413	-0.170
-146.560	-200.000	0.002	0.143
-145.545	-68.412	-0.213	-0.083
-144.531	-200.000	-0.041	0.530
-143.516	-142.673	-0.171	0.017
-142.502	800.000	0.083	0.248
-141.487	-200.000	-0.000	0.193
-140.472	107.743	0.094	-0.112
-139.458	74.689	0.238	-0.251
-138.443	16.303	-0.054	0.043
-137.429	7.017	-0.093	-0.070
-136.414	115.434	0.261	0.320
-135.399	265.679	-0.061	-0.107
-134.385	-121.335	-0.148	0.025
-133.370	333.724	0.074	0.143
-132.356	-104.250	-0.266	-0.062
-131.341	-200.000	-0.058	-0.310
-130.326	253.705	0.069	0.118
-129.312	-183.318	0.140	-0.002
-128.297	3.026	0.150	0.110
-127.283	71.956	-0.131	-0.137
-126.268	115.252	-0.052	0.063
-125.253	-129.669	-0.208	0.029
-124.239	-138.606	0.106	0.012
-123.224	224.704	-0.104	0.169
-122.210	-4.616	-0.059	0.041
-121.195	294.680	0.215	-0.395
-120.180	57.850	-0.182	-0.179
