DTS Sentinel unit serial number:	SN413079Multiplexer serial number:	ORYXHardware model number:	OX4-SRSoftware version number:	ORYX F/W v4.00 Oryx Data Collector v3.7.2.0data status	okinstallation	princeton_trtdifferential loss correction	single-endedforward channel	channel 4reverse channel	N/Adate	2019/09/11time	21:51:11forward acquisition time	60.00reverse acquisition time	0.00gamma	496.2192k internal	0.2306k external	0.2306temperature offset calibration	1.0068default loss term (dB/km)	0.3790temperature slope calibration	1.0000multiplexer offset coefficient	1.0000multiplexer slope coefficient	1.0000fibre end	0.00T internal ref (°C)	35.69T ext. ref 1 (°C)	1.71T ext. ref 2 (°C)	29.79length (m)	temperature (°C)	Stokes	anti-Stokes-747.200	354.255	0.084	0.170
-746.185	-97.692	-0.305	0.080
-745.171	-118.585	0.238	0.043
-744.156	-123.607	0.101	-0.016
-743.142	-26.646	-0.286	0.170
-742.127	-122.444	0.221	-0.037
-741.112	249.999	-0.012	0.021
-740.098	111.984	0.123	0.151
-739.083	649.563	-0.063	-0.163
-738.069	85.049	0.155	-0.173
-737.054	375.662	-0.098	0.204
-736.039	-120.516	0.087	0.015
-735.025	-200.000	0.033	0.174
-734.010	157.961	-0.158	-0.223
-732.996	54.592	-0.335	0.328
-731.981	231.748	0.243	-0.405
-730.966	-171.030	-0.044	0.002
-729.952	-110.187	0.159	-0.034
-728.937	-61.178	-0.025	-0.011
-727.923	628.085	-0.120	-0.307
-726.908	653.126	-0.051	-0.134
-725.894	-47.664	-0.452	-0.223
-724.879	-71.239	-0.197	0.075
-723.864	-102.931	-0.319	-0.077
-722.850	30.235	-0.196	-0.170
-721.835	150.461	0.183	0.252
-720.821	57.727	0.058	0.057
-719.806	-145.393	-0.178	0.016
-718.791	18.318	-0.105	0.085
-717.777	-200.000	-0.053	-0.340
-716.762	-61.382	0.216	0.092
-715.748	229.066	0.098	-0.162
-714.733	-124.603	0.250	-0.039
-713.718	362.349	-0.141	0.288
-712.704	228.062	0.068	-0.112
-711.689	-130.376	0.059	0.008
-710.675	12.040	0.208	0.163
-709.660	-117.860	-0.347	-0.063
-708.645	195.685	0.136	-0.211
-707.631	-200.000	0.023	-0.321
-706.616	85.341	-0.066	-0.074
-705.602	-83.280	0.101	-0.033
-704.587	302.186	-0.048	0.089
-703.572	-182.105	0.233	-0.004
-702.558	470.583	0.071	0.161
-701.543	245.794	-0.193	0.329
-700.529	794.496	-0.059	-0.166
-699.514	-99.852	0.242	0.061
-698.499	800.000	-0.054	-0.180
-697.485	622.180	0.066	-0.169
-696.470	800.000	-0.049	0.214
-695.456	653.380	-0.057	0.149
-694.441	136.127	-0.053	-0.071
-693.426	463.038	0.048	-0.109
-692.412	-140.818	0.324	0.034
-691.397	504.734	-0.053	-0.124
-690.383	79.572	0.248	0.270
-689.368	-200.000	0.002	0.227
-688.354	213.544	-0.121	-0.195
-687.339	5.139	-0.207	-0.154
-686.324	36.871	0.076	-0.068
-685.310	28.428	-0.337	-0.289
-684.295	32.151	0.219	-0.192
-683.281	107.431	0.133	-0.160
-682.266	129.909	0.182	-0.236
-681.251	258.782	0.148	-0.259
-680.237	576.880	-0.139	-0.345
-679.222	361.952	0.136	-0.276
-678.208	800.000	0.041	-0.159
-677.193	-200.000	0.008	-0.127
-676.178	730.856	-0.046	0.125
-675.164	800.000	-0.104	0.425
-674.149	-200.000	-0.009	0.041
-673.135	-200.000	0.063	-0.459
-672.120	800.000	0.032	-0.103
-671.105	16.282	0.284	0.227
-670.091	-2.147	-0.157	-0.112
-669.076	24.127	-0.162	0.135
-668.062	185.395	-0.147	-0.222
-667.047	743.300	-0.072	-0.197
-666.032	-137.884	-0.273	-0.031
-665.018	-23.426	0.138	-0.084
-664.003	-23.394	-0.045	0.028
-662.989	122.102	-0.126	-0.159
-661.974	-200.000	-0.045	-0.272
-660.959	-177.239	-0.094	0.002
-659.945	-200.000	0.131	-0.592
-658.930	-153.376	-0.099	-0.007
-657.916	-200.000	-0.039	-0.187
-656.901	-48.913	0.167	-0.081
-655.886	27.953	-0.106	-0.091
-654.872	-79.521	0.168	0.058
-653.857	-193.819	0.119	-0.001
-652.843	-130.145	0.102	-0.014
-651.828	-77.196	0.158	-0.056
-650.814	800.000	-0.059	-0.182
-649.799	800.000	-0.093	-0.349
-648.784	268.242	0.042	0.075
-647.770	27.281	-0.070	0.060
-646.755	-107.983	-0.229	-0.050
-645.741	86.060	-0.101	0.113
-644.726	-107.079	0.226	0.051
-643.711	84.970	-0.217	-0.241
-642.697	-32.955	0.147	-0.083
-641.682	800.000	-0.007	-0.025
-640.668	-7.781	-0.099	0.068
-639.653	-200.000	0.003	-0.017
-638.638	108.033	0.104	0.126
-637.624	0.626	0.192	-0.139
-636.609	51.813	-0.443	-0.427
-635.595	-99.809	0.156	-0.039
-634.580	-200.000	-0.002	0.090
-633.565	-200.000	0.020	0.145
-632.551	45.128	-0.233	0.217
-631.536	800.000	-0.058	-0.197
-630.522	-30.763	0.349	0.200
-629.507	-111.008	-0.042	0.009
-628.492	-42.480	-0.204	-0.106
-627.478	-20.688	-0.182	0.113
-626.463	388.565	-0.122	0.257
-625.449	-39.748	-0.424	-0.225
-624.434	-88.071	-0.301	0.092
-623.419	800.000	-0.014	0.057
-622.405	463.163	-0.150	-0.340
-621.390	-200.000	-0.086	-0.531
-620.376	-200.000	-0.007	0.184
-619.361	800.000	-0.083	0.326
-618.346	520.438	-0.118	0.279
-617.332	158.008	0.178	0.250
-616.317	-90.300	0.220	0.065
-615.303	-200.000	0.045	0.206
-614.288	52.071	0.278	-0.268
-613.273	-127.503	0.192	-0.028
-612.259	142.730	-0.175	0.235
-611.244	-169.242	-0.253	-0.009
-610.230	-68.717	0.247	-0.097
-609.215	-138.373	0.243	-0.027
-608.201	519.157	-0.109	-0.258
-607.186	-171.381	-0.052	-0.002
-606.171	-200.000	-0.004	-0.320
-605.157	10.935	0.161	-0.125
-604.142	-63.442	-0.270	-0.112
-603.128	99.028	-0.105	0.123
-602.113	-61.070	-0.121	0.051
-601.098	-88.495	-0.246	-0.074
-600.084	442.221	0.008	-0.018
-599.069	-78.024	-0.235	-0.082
-598.055	267.143	0.070	-0.123
-597.040	201.927	-0.113	0.176
-596.025	-60.417	0.252	-0.108
-595.011	97.732	-0.107	0.125
-593.996	800.000	-0.024	-0.095
-592.982	56.469	0.284	-0.279
-591.967	-200.000	-0.001	-0.054
-590.952	-200.000	0.026	-0.386
-589.938	-14.880	0.179	0.116
-588.923	-200.000	-0.025	-0.221
-587.909	-107.358	-0.170	-0.038
-586.894	-200.000	0.016	-0.373
-585.879	184.494	-0.034	0.051
-584.865	-200.000	-0.012	-0.163
-583.850	-118.536	-0.134	0.024
-582.836	373.413	0.177	0.365
-581.821	-200.000	-0.047	0.238
-580.806	-59.437	-0.148	-0.064
-579.792	88.574	0.111	0.124
-578.777	415.830	0.119	0.256
-577.763	-60.461	-0.098	-0.042
-576.748	-12.786	0.288	-0.190
-575.733	119.937	-0.168	0.211
-574.719	-28.214	-0.177	-0.103
-573.704	73.530	-0.244	-0.258
-572.690	-70.051	-0.239	0.092
-571.675	-200.000	0.010	0.051
-570.661	800.000	0.080	-0.322
-569.646	-69.376	0.211	0.082
-568.631	-7.286	0.083	0.057
-567.617	-113.347	0.132	0.026
-566.602	129.685	0.030	-0.039
-565.588	-58.169	-0.200	0.088
-564.573	800.000	0.080	-0.234
-563.558	-115.294	0.292	-0.056
-562.544	-83.775	-0.151	-0.048
-561.529	160.089	0.099	0.139
-560.515	201.699	0.165	0.257
-559.500	71.386	-0.186	0.195
-558.485	185.940	-0.146	-0.219
-557.471	-61.462	-0.311	0.132
-556.456	-68.757	0.282	-0.110
-555.442	-63.966	-0.054	0.022
-554.427	36.906	-0.045	-0.040
-553.412	138.433	-0.084	-0.111
-552.398	-66.019	0.373	-0.150
-551.383	-154.166	0.221	0.015
-550.369	-200.000	-0.017	0.229
-549.354	800.000	0.022	0.079
-548.339	152.068	-0.284	-0.391
-547.325	-96.393	-0.192	-0.051
-546.310	800.000	0.073	0.266
-545.296	-200.000	-0.018	0.170
-544.281	-97.726	-0.079	0.021
-543.266	800.000	-0.025	0.100
-542.252	544.043	-0.027	-0.065
-541.237	-200.000	-0.044	-0.248
-540.223	-4.203	0.278	-0.194
-539.208	25.394	-0.196	-0.164
-538.193	-107.364	0.192	0.043
-537.179	376.172	-0.046	-0.096
-536.164	-200.000	-0.021	-0.229
-535.150	626.460	0.059	0.150
-534.135	-200.000	0.043	0.227
-533.121	-200.000	0.046	0.000
-532.106	134.172	-0.192	0.252
-531.091	-64.781	0.178	0.073
-530.077	-70.562	-0.177	0.068
-529.062	316.384	0.106	0.201
-528.048	280.097	-0.027	-0.049
-527.033	-92.669	-0.128	-0.036
-526.018	-200.000	0.011	0.129
-525.004	-24.926	0.150	0.090
-523.989	27.752	-0.291	-0.247
-522.975	99.089	-0.160	0.186
-521.960	-59.228	0.349	0.152
-520.945	-72.214	0.191	-0.071
-519.931	-28.656	-0.193	-0.112
-518.916	183.196	0.121	-0.181
-517.902	-106.022	-0.114	-0.026
-516.887	-77.686	-0.292	-0.102
-515.872	-93.207	0.104	0.029
-514.858	-147.901	0.076	0.006
-513.843	121.808	0.077	-0.097
-512.829	-110.640	0.152	-0.032
-511.814	-200.000	0.019	0.199
-510.799	-192.734	-0.111	0.001
-509.785	-200.000	0.030	0.404
-508.770	-39.076	-0.228	-0.121
-507.756	9.449	-0.156	-0.119
-506.741	10.053	-0.093	-0.071
-505.726	-50.730	-0.137	0.065
-504.712	-200.000	0.103	-0.472
-503.697	40.690	0.230	-0.209
-502.683	-7.415	0.084	-0.057
-501.668	373.442	-0.179	0.368
-500.653	-0.248	0.097	0.070
-499.639	-200.000	0.001	-0.104
-498.624	-121.865	0.385	-0.064
-497.610	738.892	-0.104	-0.281
-496.595	245.873	-0.094	-0.160
-495.581	-200.000	0.001	0.268
-494.566	124.878	0.151	0.191
-493.551	26.842	0.049	0.041
-492.537	105.633	-0.043	-0.052
-491.522	-200.000	0.023	0.510
-490.508	-167.947	-0.225	0.009
-489.493	-45.897	0.289	0.144
-488.478	717.364	-0.135	0.362
-487.464	-194.990	-0.119	0.001
-486.449	348.299	-0.078	-0.156
-485.435	-125.855	0.147	0.022
-484.420	335.437	0.046	0.089
-483.405	125.832	-0.055	-0.070
-482.391	325.103	0.043	0.082
-481.376	255.394	0.124	-0.215
-480.362	-200.000	0.045	-0.392
-479.347	104.667	-0.238	-0.282
-478.332	-72.355	0.263	0.098
-477.318	628.890	-0.064	0.163
-476.303	712.345	-0.022	0.058
-475.289	23.080	0.308	0.254
-474.274	123.374	0.099	0.125
-473.259	-56.634	0.114	0.051
-472.245	416.861	-0.075	0.162
-471.230	-99.327	-0.173	0.044
-470.216	-128.491	-0.251	0.036
-469.201	-200.000	-0.009	0.045
-468.186	-80.545	-0.289	-0.097
-467.172	124.583	-0.127	0.161
-466.157	-200.000	0.044	-0.380
-465.143	-95.484	0.396	-0.107
-464.128	800.000	-0.062	0.200
-463.113	52.390	0.375	-0.360
-462.099	38.406	0.248	-0.222
-461.084	-200.000	-0.033	0.485
-460.070	18.663	0.175	-0.141
-459.055	51.552	-0.108	-0.103
-458.040	-40.248	-0.223	-0.117
-457.026	-200.000	0.003	-0.138
-456.011	-33.192	0.440	-0.245
-454.997	-89.761	0.036	-0.011
-453.982	22.652	0.171	-0.141
-452.968	-107.395	0.145	0.032
-451.953	-200.000	0.019	-0.089
-450.938	-200.000	0.006	-0.101
-449.924	562.911	0.082	-0.199
-448.909	-200.000	0.007	-0.107
-447.895	141.003	0.078	-0.103
-446.880	-29.972	-0.146	0.084
-445.865	-200.000	0.042	0.298
-444.851	5.215	-0.290	0.215
-443.836	-13.662	-0.285	0.185
-442.822	-200.000	0.013	0.208
-441.807	-116.459	0.006	0.001
-440.792	38.693	0.184	0.165
-439.778	-200.000	0.015	0.255
-438.763	-17.089	0.241	-0.153
-437.749	183.122	-0.052	0.078
-436.734	59.678	0.167	0.166
-435.719	381.042	0.297	-0.612
-434.705	-136.795	-0.244	0.028
-433.690	492.780	-0.208	-0.480
-432.676	15.630	0.285	0.225
-431.661	71.263	0.113	-0.118
-430.646	-40.907	0.134	0.070
-429.632	51.213	-0.234	-0.223
-428.617	-200.000	0.060	-0.386
-427.603	-80.580	-0.217	-0.073
-426.588	-179.113	-0.177	-0.004
-425.573	111.734	-0.164	-0.199
-424.559	761.018	-0.078	-0.212
-423.544	188.502	0.242	0.363
-422.530	800.000	0.151	-0.453
-421.515	-107.315	-0.110	0.024
-420.500	-200.000	-0.043	0.287
-419.486	5.228	0.216	-0.160
-418.471	800.000	0.159	-0.473
-417.457	-200.000	-0.006	0.081
-416.442	-200.000	0.011	-0.072
-415.428	-68.598	-0.138	-0.054
-414.413	-37.713	0.160	-0.086
-413.398	114.526	-0.264	0.323
-412.384	693.148	0.098	-0.257
-411.369	800.000	-0.042	-0.127
-410.355	-6.542	0.203	-0.139
-409.340	-94.082	0.583	0.161
-408.325	85.261	0.209	0.231
-407.311	60.419	-0.174	-0.173
-406.296	356.275	0.127	-0.254
-405.282	53.928	0.066	-0.064
-404.267	42.768	0.224	0.205
-403.252	183.950	-0.049	-0.073
-402.238	1.418	-0.296	-0.214
-401.223	800.000	0.050	0.151
-400.209	153.358	-0.078	-0.108
-399.194	43.523	0.052	-0.047
-398.179	800.000	0.087	-0.324
-397.165	-128.437	0.319	-0.045
-396.150	244.444	-0.077	-0.129
-395.136	-30.862	0.258	-0.146
-394.121	114.164	0.101	0.123
-393.106	-67.593	0.254	-0.100
-392.092	-106.572	-0.200	-0.045
-391.077	-200.000	0.005	-0.129
-390.063	-200.000	-0.016	-0.111
-389.048	-200.000	-0.011	0.323
-388.033	-63.635	0.332	0.137
-387.019	443.020	-0.104	0.229
-386.004	239.156	0.125	0.209
-384.990	-200.000	0.034	0.255
-383.975	-51.932	-0.363	-0.169
-382.960	754.661	0.026	0.070
-381.946	-166.697	-0.219	0.009
-380.931	85.782	0.104	-0.115
-379.917	48.317	0.243	0.228
-378.902	177.675	0.072	-0.105
-377.888	375.442	-0.072	-0.148
-376.873	739.346	-0.073	0.195
-375.858	8.491	-0.271	0.205
-374.844	217.096	-0.100	-0.160
-373.829	487.835	-0.135	-0.309
-372.815	-89.530	0.189	-0.056
-371.800	125.242	-0.124	-0.156
-370.785	-91.344	-0.174	0.050
-369.771	-200.000	-0.006	0.169
-368.756	54.069	-0.175	0.169
-367.742	-184.023	-0.193	-0.003
-366.727	32.714	-0.139	-0.120
-365.712	-76.324	-0.382	0.135
-364.698	74.841	-0.311	-0.328
-363.683	-151.507	-0.074	-0.005
-362.669	-200.000	0.035	0.383
-361.654	800.000	0.056	-0.237
-360.639	-119.708	-0.172	0.030
-359.625	800.000	0.104	0.381
-358.610	-149.791	-0.347	0.027
-357.596	50.536	-0.104	0.098
-356.581	-200.000	-0.036	0.224
-355.566	-176.481	0.173	0.004
-354.552	-52.857	-0.147	-0.068
-353.537	18.768	0.058	-0.047
-352.523	-200.000	-0.025	0.216
-351.508	-37.987	-0.166	-0.089
-350.493	-200.000	-0.024	0.129
-349.479	-88.224	0.206	0.062
-348.464	-49.491	0.337	0.161
-347.450	193.898	-0.163	-0.247
-346.435	-153.510	-0.113	0.008
-345.420	800.000	0.060	-0.189
-344.406	69.512	-0.150	0.155
-343.391	-112.850	-0.238	-0.047
-342.377	-7.125	0.122	-0.083
-341.362	-10.455	-0.106	-0.070
-340.348	-200.000	0.013	-0.154
-339.333	240.752	0.075	-0.125
-338.318	-28.909	0.124	0.072
-337.304	-141.569	0.142	-0.014
-336.289	-200.000	-0.004	0.098
-335.275	-157.467	0.069	-0.004
-334.260	217.081	0.075	-0.120
-333.245	10.522	0.128	0.098
-332.231	-95.689	-0.218	0.058
-331.216	-200.000	-0.013	-0.093
-330.202	-13.064	-0.115	0.075
-329.187	138.520	0.180	-0.236
-328.172	61.044	0.273	0.271
-327.158	-97.554	0.328	0.085
-326.143	219.316	0.203	-0.325
-325.129	45.067	-0.309	0.285
-324.114	37.523	0.066	-0.058
-323.099	-112.892	-0.181	0.036
-322.085	800.000	-0.062	0.182
-321.070	47.448	-0.204	0.190
-320.056	800.000	0.014	0.055
-319.041	269.649	-0.171	0.301
-318.026	-27.177	0.422	0.246
-317.012	191.861	-0.063	0.095
-315.997	212.677	0.141	-0.222
-314.983	788.205	0.080	0.221
-313.968	-137.111	0.110	0.013
-312.953	-30.636	-0.353	0.200
-311.939	-96.980	0.135	0.035
-310.924	140.544	0.128	0.168
-309.910	58.808	0.147	0.144
-308.895	800.000	0.090	0.297
-307.880	800.000	0.074	0.272
-306.866	45.123	0.058	-0.054
-305.851	109.652	0.153	0.183
-304.837	-55.857	-0.400	-0.178
-303.822	472.891	-0.128	0.287
-302.807	59.894	-0.099	0.098
-301.793	166.122	-0.022	-0.031
-300.778	-22.174	0.123	0.075
-299.764	-90.635	0.263	0.076
-298.749	-144.865	0.242	0.022
-297.735	369.383	0.128	0.260
-296.720	-0.995	-0.234	-0.165
-295.705	-89.087	0.086	-0.025
-294.691	-200.000	-0.070	0.340
-293.676	2.932	0.253	0.184
-292.662	-77.781	0.282	-0.097
-291.647	353.940	-0.115	0.228
-290.632	-200.000	-0.065	0.293
-289.618	-200.000	-0.049	-0.390
-288.603	-43.129	-0.234	-0.118
-287.589	74.601	-0.240	-0.253
-286.574	145.583	-0.142	-0.190
-285.559	800.000	-0.022	-0.087
-284.545	-200.000	-0.000	0.103
-283.530	-200.000	-0.294	0.001
-282.516	519.833	-0.156	0.364
-281.501	128.598	-0.215	0.274
-280.486	140.814	-0.115	0.152
-279.472	99.414	-0.190	-0.219
-278.457	15.690	0.029	0.022
-277.443	800.000	-0.088	-0.301
-276.428	-20.867	-0.233	-0.143
-275.413	34.528	-0.060	0.052
-274.399	679.124	0.117	0.303
-273.384	-175.600	-0.148	0.004
-272.370	-18.003	0.438	0.274
-271.355	133.348	0.179	0.231
-270.340	-75.811	0.321	-0.113
-269.326	157.968	-0.170	0.236
-268.311	321.928	-0.036	-0.069
-267.297	224.223	-0.059	-0.094
-266.282	800.000	-0.067	-0.206
-265.267	208.771	-0.163	-0.255
-264.253	-97.691	-0.123	-0.032
-263.238	800.000	-0.027	-0.116
-262.224	436.662	-0.085	-0.185
-261.209	41.453	-0.169	-0.153
-260.195	-200.000	0.361	-0.001
-259.180	8.119	0.029	0.022
-258.165	800.000	-0.014	0.052
-257.151	101.797	0.222	-0.258
-256.136	-115.665	-0.015	-0.003
-255.122	82.287	-0.095	0.102
-254.107	-0.468	-0.169	0.120
-253.092	-200.000	-0.043	-0.350
-252.078	-109.898	0.303	-0.063
-251.063	-5.155	-0.268	0.184
-250.049	518.226	-0.085	0.197
-249.034	800.000	-0.041	-0.130
-248.019	393.300	-0.130	-0.269
-247.005	-200.000	0.001	-0.227
-245.990	-67.756	0.408	0.159
-244.976	-61.282	-0.105	0.044
-243.961	-24.108	-0.221	-0.132
-242.946	499.204	0.053	0.121
-241.932	42.673	-0.019	-0.017
-240.917	-102.545	0.039	0.009
-239.903	-200.000	-0.029	0.179
-238.888	-76.895	0.034	-0.012
-237.873	-42.968	-0.110	-0.056
-236.859	520.351	0.029	-0.068
-235.844	112.156	0.163	-0.196
-234.830	104.049	-0.200	-0.235
-233.815	83.983	0.186	0.203
-232.800	626.822	0.068	0.172
-231.786	4.623	0.321	0.235
-230.771	-88.387	0.080	-0.024
-229.757	-200.000	0.003	-0.207
-228.742	800.000	0.062	0.175
-227.727	-99.845	0.304	-0.076
-226.713	109.702	0.216	-0.258
-225.698	85.551	-0.183	-0.200
-224.684	800.000	0.048	0.148
-223.669	720.737	-0.187	0.497
-222.655	682.856	-0.057	0.147
-221.640	299.973	-0.080	0.147
-220.625	-135.294	-0.088	-0.011
-219.611	631.602	0.050	0.127
-218.596	-200.000	-0.034	0.277
-217.582	-200.000	-0.018	-0.135
-216.567	52.914	-0.138	0.131
-215.552	-178.929	0.131	-0.003
-214.538	165.864	-0.167	-0.236
-213.523	41.061	0.219	-0.197
-212.509	-200.000	-0.024	-0.158
-211.494	-80.792	-0.207	-0.068
-210.479	-200.000	-0.042	0.320
-209.465	-144.819	-0.196	-0.018
-208.450	-124.120	-0.235	0.037
-207.436	581.812	0.074	-0.181
-206.421	-200.000	-0.055	-0.310
-205.406	5.507	-0.240	0.177
-204.392	-200.000	-0.045	0.286
-203.377	-39.237	-0.266	0.139
-202.363	730.955	0.104	-0.276
-201.348	0.260	-0.261	0.186
-200.333	-114.106	0.390	0.075
-199.319	-87.116	0.232	-0.070
-198.304	745.287	-0.070	0.188
-197.290	26.030	0.121	0.101
-196.275	-68.199	0.055	-0.021
-195.260	-138.010	-0.090	0.010
-194.246	575.463	0.151	-0.366
-193.231	-0.746	-0.170	-0.120
-192.217	-7.841	0.193	0.130
-191.202	-95.239	0.049	-0.013
-190.187	128.298	0.196	-0.249
-189.173	6.456	0.137	0.101
-188.158	97.087	-0.052	-0.060
-187.144	53.471	-0.248	-0.237
-186.129	-49.385	-0.261	0.124
-185.114	57.703	-0.254	-0.247
-184.100	800.000	0.015	-0.055
-183.085	26.661	-0.167	0.139
-182.071	104.459	-0.206	0.242
-181.056	-150.208	0.093	0.007
-180.042	160.583	0.151	0.210
-179.027	82.071	-0.305	0.329
-178.012	-24.006	0.241	0.143
-176.998	-108.281	0.443	0.095
-175.983	129.285	-0.257	0.326
-174.969	26.919	-0.156	-0.130
-173.954	800.000	0.111	-0.342
-172.939	76.822	0.113	0.120
-171.925	-107.493	-0.106	0.023
-170.910	-200.000	0.042	0.278
-169.896	800.000	0.101	0.412
-168.881	-89.765	0.384	0.112
-167.866	64.498	-0.109	-0.109
-166.852	-200.000	-0.039	-0.517
-165.837	-200.000	0.010	-0.241
-164.823	800.000	-0.075	0.234
-163.808	800.000	0.019	-0.077
-162.793	139.916	0.148	-0.194
-161.779	-47.283	0.150	0.073
-160.764	-107.815	-0.058	-0.013
-159.750	-34.964	0.146	-0.079
-158.735	45.175	0.213	-0.195
-157.720	10.269	0.245	0.185
-156.706	41.411	-0.100	0.090
-155.691	265.842	0.126	-0.218
-154.677	-39.255	0.285	0.149
-153.662	141.710	0.188	-0.248
-152.647	54.453	-0.149	0.142
-151.633	317.625	0.042	0.078
-150.618	34.782	0.258	0.224
-149.604	515.188	0.105	0.243
-148.589	-200.000	0.019	0.096
-147.574	42.602	0.090	-0.081
-146.560	-32.844	-0.248	-0.137
-145.545	-200.000	-0.255	-0.001
-144.531	95.175	-0.159	0.180
-143.516	-200.000	-0.020	0.105
-142.502	-200.000	0.031	-0.402
-141.487	800.000	-0.047	0.158
-140.472	101.844	0.258	-0.299
-139.458	-147.178	-0.338	-0.029
-138.443	-43.335	-0.207	0.104
-137.429	636.447	0.086	-0.217
-136.414	76.111	-0.197	-0.207
-135.399	582.277	-0.013	-0.032
-134.385	-20.966	-0.163	0.099
-133.370	-200.000	0.026	-0.115
-132.356	-200.000	0.028	-0.236
-131.341	392.850	0.030	0.062
-130.326	-200.000	-0.067	-0.327
-129.312	160.707	-0.056	0.077
-128.297	70.710	-0.142	0.146
-127.283	115.386	0.127	0.155
-126.268	259.643	-0.161	-0.276
-125.253	63.698	0.100	0.100
-124.239	-200.000	0.055	-0.292
-123.224	146.171	0.144	-0.192
-122.210	295.911	-0.072	0.131
-121.195	-67.990	0.190	0.073
