DTS Sentinel unit serial number:	SN413079Multiplexer serial number:	ORYXHardware model number:	OX4-SRSoftware version number:	ORYX F/W v4.00 Oryx Data Collector v3.7.2.0data status	okinstallation	princeton_trtdifferential loss correction	single-endedforward channel	channel 4reverse channel	N/Adate	2019/09/11time	18:39:11forward acquisition time	60.00reverse acquisition time	0.00gamma	496.2192k internal	0.2278k external	0.2278temperature offset calibration	1.0029default loss term (dB/km)	0.3790temperature slope calibration	1.0000multiplexer offset coefficient	1.0000multiplexer slope coefficient	1.0000fibre end	0.00T internal ref (°C)	43.52T ext. ref 1 (°C)	1.22T ext. ref 2 (°C)	36.08length (m)	temperature (°C)	Stokes	anti-Stokes-747.200	74.140	-0.154	0.167
-746.185	-200.000	0.046	0.245
-745.171	800.000	0.078	-0.309
-744.156	585.303	-0.106	0.269
-743.142	800.000	-0.058	-0.189
-742.127	102.769	0.216	0.260
-741.112	-74.622	0.426	0.158
-740.098	180.974	-0.167	0.253
-739.083	-66.896	0.074	0.030
-738.069	800.000	-0.106	0.334
-737.054	800.000	0.037	-0.153
-736.039	330.110	-0.090	-0.178
-735.025	-200.000	-0.017	-0.080
-734.010	800.000	-0.087	-0.272
-732.996	-200.000	0.008	-0.142
-731.981	800.000	-0.093	-0.302
-730.966	124.186	-0.189	0.245
-729.952	800.000	0.011	-0.037
-728.937	148.747	-0.430	-0.598
-727.923	29.085	-0.151	-0.132
-726.908	131.002	-0.189	0.250
-725.894	-81.811	0.075	-0.025
-724.879	436.063	0.035	-0.078
-723.864	-43.981	-0.155	-0.080
-722.850	-131.363	0.402	0.055
-721.835	800.000	0.053	0.236
-720.821	-93.057	-0.070	0.020
-719.806	-8.856	0.063	0.044
-718.791	24.985	0.120	0.102
-717.777	637.778	-0.084	-0.220
-716.762	457.838	-0.213	-0.486
-715.748	34.667	-0.104	-0.093
-714.733	266.949	-0.052	0.093
-713.718	405.777	0.138	-0.299
-712.704	-95.446	-0.326	0.090
-711.689	-113.418	-0.079	-0.016
-710.675	30.637	0.120	0.106
-709.660	-138.053	-0.159	0.018
-708.645	73.531	-0.125	0.134
-707.631	-18.051	-0.135	0.087
-706.616	-200.000	0.001	-0.108
-705.602	-65.479	-0.095	0.039
-704.587	-121.417	-0.332	-0.057
-703.572	60.109	-0.246	-0.250
-702.558	209.761	0.074	-0.120
-701.543	29.207	0.323	0.282
-700.529	-89.120	-0.412	0.125
-699.514	31.636	-0.293	-0.259
-698.499	-69.083	0.393	-0.155
-697.485	-145.530	-0.268	0.025
-696.470	-200.000	0.000	-0.171
-695.456	308.463	0.060	0.116
-694.441	-88.302	-0.074	0.023
-693.426	333.214	-0.102	-0.202
-692.412	113.966	0.245	0.306
-691.397	800.000	0.069	0.215
-690.383	748.659	0.059	-0.163
-689.368	41.089	-0.100	-0.093
-688.354	716.490	-0.077	-0.211
-687.339	-23.521	0.085	0.052
-686.324	-120.773	0.217	-0.038
-685.310	262.490	-0.041	0.072
-684.295	-122.007	0.129	-0.022
-683.281	-200.000	-0.018	0.301
-682.266	-54.083	-0.181	-0.084
-681.251	383.025	-0.035	-0.075
-680.237	0.564	-0.181	-0.133
-679.222	-142.288	0.277	-0.028
-678.208	-113.305	0.236	0.048
-677.193	111.119	-0.120	0.149
-676.178	75.547	0.290	0.314
-675.164	-1.353	-0.091	0.066
-674.149	-137.759	-0.186	-0.021
-673.135	-47.534	0.281	-0.140
-672.120	10.518	-0.329	-0.258
-671.105	-200.000	0.002	-0.054
-670.091	-1.276	-0.235	0.170
-669.076	11.600	0.061	0.048
-668.062	126.257	0.095	-0.123
-667.047	-153.602	0.316	0.022
-666.032	-200.000	-0.058	-0.513
-665.018	69.255	-0.202	-0.213
-664.003	-17.928	0.126	-0.081
-662.989	-28.631	-0.253	-0.149
-661.974	-151.008	-0.230	0.018
-660.959	-146.142	-0.140	0.013
-659.945	18.484	-0.009	-0.007
-658.930	-54.595	0.090	0.042
-657.916	-32.752	-0.054	0.031
-656.901	9.507	-0.370	0.287
-655.886	-79.034	-0.070	-0.025
-654.872	-138.080	-0.080	-0.009
-653.857	116.277	-0.255	0.320
-652.843	-200.000	0.009	0.156
-651.828	-138.355	-0.141	-0.016
-650.814	-200.000	-0.028	-0.191
-649.799	-74.063	-0.336	-0.125
-648.784	312.838	0.045	0.087
-647.770	-39.434	0.210	0.113
-646.755	73.595	-0.225	-0.242
-645.741	-94.699	0.324	0.090
-644.726	-200.000	-0.014	0.123
-643.711	37.941	-0.088	-0.081
-642.697	-200.000	-0.007	-0.175
-641.682	-64.345	-0.261	-0.109
-640.668	33.927	0.138	0.123
-639.653	-94.606	0.118	0.033
-638.638	-118.585	-0.167	0.030
-637.624	147.905	-0.073	0.100
-636.609	232.301	-0.040	0.067
-635.595	800.000	-0.036	-0.139
-634.580	-5.015	0.216	-0.152
-633.565	-123.678	0.350	-0.057
-632.551	109.894	-0.200	-0.247
-631.536	298.353	-0.134	-0.253
-630.522	305.226	0.157	-0.298
-629.507	-200.000	0.013	-0.212
-628.492	-23.978	-0.251	0.154
-627.478	-85.991	0.495	0.157
-626.463	449.630	0.093	0.210
-625.449	800.000	-0.064	-0.216
-624.434	167.442	0.077	0.112
-623.419	-163.674	-0.276	0.013
-622.405	-65.344	-0.389	-0.161
-621.390	800.000	-0.097	0.276
-620.376	-4.514	0.198	-0.140
-619.361	241.340	-0.146	0.250
-618.346	565.985	-0.207	-0.515
-617.332	-79.903	0.088	0.030
-616.317	800.000	0.027	0.084
-615.303	-96.640	-0.297	0.080
-614.288	424.963	0.044	-0.096
-613.273	644.409	-0.066	-0.173
-612.259	-18.577	0.183	0.117
-611.244	403.055	-0.031	-0.066
-610.230	124.277	0.028	0.036
-609.215	-44.876	0.287	-0.146
-608.201	76.950	-0.191	-0.208
-607.186	396.450	0.071	0.152
-606.171	13.662	-0.058	0.046
-605.157	-200.000	0.018	-0.349
-604.142	85.345	-0.060	0.068
-603.128	243.502	-0.177	-0.304
-602.113	-48.169	0.432	0.213
-601.098	21.241	-0.182	0.152
-600.084	110.438	0.085	0.105
-599.069	-51.220	-0.228	-0.109
-598.055	-7.055	-0.137	0.095
-597.040	-200.000	-0.003	0.058
-596.025	-121.260	0.212	0.036
-595.011	-61.705	-0.184	0.079
-593.996	-154.966	0.189	-0.013
-592.982	-163.335	0.164	0.008
-591.967	-171.043	-0.150	0.005
-590.952	32.497	-0.165	0.146
-589.938	94.654	-0.136	0.159
-588.923	-200.000	-0.022	-0.133
-587.909	183.797	-0.148	0.224
-586.894	-200.000	0.023	-0.131
-585.879	-122.553	0.284	-0.047
-584.865	-90.100	0.178	-0.053
-583.850	-70.261	-0.320	0.124
-582.836	-21.062	-0.168	0.105
-581.821	316.103	0.125	-0.241
-580.806	-135.369	0.122	0.015
-579.792	224.583	0.055	-0.092
-578.777	-38.532	0.284	0.153
-577.763	-53.989	-0.386	-0.180
-576.748	382.525	-0.031	0.065
-575.733	-47.781	0.232	-0.115
-574.719	-29.886	-0.070	0.041
-573.704	-130.236	-0.143	-0.020
-572.690	-53.240	0.127	0.060
-571.675	-4.113	0.132	0.093
-570.661	338.420	-0.098	-0.195
-569.646	-99.582	-0.222	-0.057
-568.631	-110.558	-0.266	0.056
-567.617	-164.240	0.054	0.003
-566.602	85.779	-0.111	-0.125
-565.588	-67.916	0.191	0.076
-564.573	-164.340	-0.136	0.006
-563.558	-200.000	-0.014	0.226
-562.544	800.000	0.138	0.395
-561.529	159.369	-0.097	-0.138
-560.515	-19.807	-0.158	0.100
-559.500	276.405	-0.056	-0.101
-558.485	142.338	0.048	-0.065
-557.471	-135.305	0.117	-0.014
-556.456	381.209	-0.227	-0.477
-555.442	-40.325	-0.229	0.122
-554.427	-20.558	-0.274	-0.172
-553.412	-77.765	0.306	0.108
-552.398	-107.553	-0.090	0.020
-551.383	-114.470	-0.304	0.060
-550.369	-200.000	0.003	0.119
-549.354	-148.870	-0.172	0.014
-548.339	-200.000	-0.004	0.212
-547.325	-94.824	-0.209	-0.058
-546.310	-4.286	-0.071	-0.050
-545.296	-41.418	-0.120	-0.063
-544.281	-200.000	0.005	0.043
-543.266	10.286	-0.346	0.269
-542.252	800.000	0.039	0.165
-541.237	-74.023	0.152	0.056
-540.223	226.162	-0.043	0.072
-539.208	800.000	0.065	0.207
-538.193	577.109	-0.141	-0.352
-537.179	294.581	0.095	-0.177
-536.164	385.326	-0.148	0.311
-535.150	-200.000	-0.043	0.194
-534.135	-8.068	-0.115	0.079
-533.121	136.577	-0.063	-0.084
-532.106	-90.537	-0.242	0.072
-531.091	800.000	-0.088	0.360
-530.077	-98.248	-0.498	0.130
-529.062	479.163	0.189	0.437
-528.048	137.737	0.024	-0.032
-527.033	115.285	0.136	0.170
-526.018	-200.000	0.016	0.121
-525.004	81.640	-0.253	0.279
-523.989	-57.551	0.088	-0.039
-522.975	800.000	-0.032	-0.130
-521.960	159.735	0.117	-0.166
-520.945	-200.000	0.053	-0.271
-519.931	97.711	0.209	0.246
-518.916	-55.772	-0.052	-0.024
-517.902	-200.000	-0.077	0.344
-516.887	75.082	-0.323	-0.348
-515.872	-78.582	0.190	0.066
-514.858	-78.503	-0.174	-0.061
-513.843	-32.397	-0.374	-0.213
-512.829	-3.846	0.063	0.045
-511.814	-42.074	0.115	0.060
-510.799	-36.946	-0.086	0.047
-509.785	159.776	0.186	-0.265
-508.770	164.433	-0.066	0.095
-507.756	589.861	-0.079	-0.198
-506.741	-62.915	-0.151	-0.064
-505.726	284.727	0.185	-0.339
-504.712	-200.000	-0.062	-0.297
-503.697	800.000	0.020	0.081
-502.683	107.316	0.057	-0.069
-501.668	-90.584	-0.094	-0.028
-500.653	800.000	0.045	-0.158
-499.639	656.545	-0.097	-0.253
-498.624	-200.000	0.009	-0.350
-497.610	-103.336	0.102	0.025
-496.595	-200.000	-0.044	0.205
-495.581	-200.000	-0.055	-0.319
-494.566	-129.137	-0.169	0.024
-493.551	-66.971	0.422	-0.170
-492.537	109.558	-0.164	0.200
-491.522	-70.062	-0.211	-0.082
-490.508	579.587	0.107	-0.268
-489.493	40.334	0.238	0.219
-488.478	14.484	0.104	0.083
-487.464	-200.000	-0.024	0.212
-486.449	407.269	0.127	0.273
-485.435	230.222	0.058	-0.097
-484.420	237.189	0.123	0.207
-483.405	8.016	0.239	-0.183
-482.391	77.416	0.106	0.115
-481.376	800.000	0.079	0.271
-480.362	40.094	0.104	-0.095
-479.347	7.436	-0.089	-0.067
-478.332	309.481	0.169	0.323
-477.318	-200.000	-0.061	-0.308
-476.303	-49.584	-0.230	0.112
-475.289	-60.316	-0.172	0.075
-474.274	380.827	0.035	-0.074
-473.259	177.614	-0.170	-0.253
-472.245	800.000	-0.085	0.250
-471.230	-76.882	0.275	0.098
-470.216	800.000	0.052	0.159
-469.201	-200.000	-0.068	-0.402
-468.186	800.000	-0.031	0.095
-467.172	496.558	-0.026	0.060
-466.157	749.113	-0.076	0.209
-465.143	-200.000	-0.018	-0.347
-464.128	-65.780	0.345	0.141
-463.113	-160.231	0.242	0.013
-462.099	-39.576	0.270	0.144
-461.084	119.480	-0.129	0.163
-460.070	33.504	-0.303	-0.268
-459.055	-12.385	-0.229	0.152
-458.040	81.484	-0.101	0.111
-457.026	447.801	-0.082	-0.184
-456.011	163.579	0.051	0.073
-454.997	-96.700	0.271	-0.073
-453.982	-122.265	-0.121	0.020
-452.968	-45.627	-0.027	-0.013
-451.953	-126.748	-0.228	-0.034
-450.938	-200.000	-0.027	-0.181
-449.924	800.000	0.029	-0.113
-448.909	72.020	-0.042	0.044
-447.895	95.306	0.013	-0.015
-446.880	16.855	0.159	-0.128
-445.865	38.738	-0.148	0.134
-444.851	10.964	0.214	0.167
-443.836	97.966	0.322	-0.377
-442.822	-65.908	0.138	-0.056
-441.807	-13.890	-0.330	-0.217
-440.792	800.000	-0.154	0.444
-439.778	-76.348	-0.064	0.023
-438.763	-200.000	-0.056	-0.402
-437.749	25.902	0.291	-0.247
-436.734	162.892	-0.274	-0.391
-435.719	236.148	-0.147	-0.248
-434.705	800.000	0.096	-0.296
-433.690	-200.000	0.046	0.254
-432.676	-200.000	-0.031	-0.293
-431.661	-125.093	0.192	-0.030
-430.646	-53.456	-0.127	-0.059
-429.632	353.403	-0.073	0.148
-428.617	49.454	0.124	-0.119
-427.603	-137.897	-0.144	0.016
-426.588	-58.420	-0.069	0.031
-425.573	233.309	-0.234	-0.392
-424.559	49.651	-0.237	0.227
-423.544	800.000	0.041	-0.183
-422.530	383.855	0.215	-0.451
-421.515	306.180	-0.056	-0.107
-420.500	-200.000	0.049	0.226
-419.486	800.000	0.132	-0.564
-418.471	800.000	-0.025	0.100
-417.457	397.464	-0.162	-0.345
-416.442	-7.849	0.244	-0.167
-415.428	401.309	-0.069	0.146
-414.413	114.410	0.062	0.077
-413.398	-31.770	0.032	-0.018
-412.384	-108.113	0.337	-0.074
-411.369	800.000	0.079	-0.222
-410.355	48.851	-0.335	0.319
-409.340	-117.243	-0.018	-0.003
-408.325	-200.000	-0.034	0.190
-407.311	80.822	-0.303	0.332
-406.296	-135.080	0.141	-0.017
-405.282	61.044	-0.341	-0.344
-404.267	-200.000	-0.034	-0.169
-403.252	-82.116	0.248	0.082
-402.238	800.000	-0.068	-0.197
-401.223	94.968	-0.084	-0.097
-400.209	-200.000	0.057	-0.530
-399.194	-49.305	-0.342	-0.166
-398.179	399.583	-0.058	0.123
-397.165	-200.000	0.004	0.041
-396.150	188.542	0.242	0.367
-395.136	-121.704	-0.163	-0.027
-394.121	-200.000	0.009	0.080
-393.106	409.243	0.078	-0.168
-392.092	-100.953	-0.249	0.062
-391.077	311.398	-0.124	-0.236
-390.063	-131.097	0.108	-0.015
-389.048	108.810	0.164	0.200
-388.033	391.688	0.155	0.327
-387.019	-200.000	0.233	0.001
-386.004	-200.000	-0.005	-0.117
-384.990	-168.584	0.211	0.008
-383.975	-200.000	0.058	-0.275
-382.960	-141.661	-0.161	0.016
-381.946	-57.594	-0.215	-0.096
-380.931	-62.843	-0.311	0.131
-379.917	-44.095	0.269	0.137
-378.902	215.303	0.116	0.187
-377.888	185.680	0.081	0.123
-376.873	722.552	0.029	0.077
-375.858	800.000	0.060	0.216
-374.844	-121.412	-0.051	0.009
-373.829	-200.000	0.012	0.183
-372.815	283.611	0.082	0.149
-371.800	-145.494	0.237	-0.022
-370.785	8.460	-0.156	-0.119
-369.771	94.795	-0.150	-0.173
-368.756	178.753	0.182	0.269
-367.742	61.369	0.138	-0.139
-366.727	-99.002	0.219	-0.056
-365.712	65.179	-0.217	0.223
-364.698	241.882	-0.170	0.288
-363.683	-32.089	-0.241	-0.136
-362.669	6.750	-0.257	0.194
-361.654	-56.348	0.318	0.143
-360.639	344.318	0.082	-0.164
-359.625	128.843	0.077	0.100
-358.610	-64.830	-0.208	0.085
-357.596	545.300	-0.061	-0.149
-356.581	150.163	0.288	-0.397
-355.566	-9.797	0.195	-0.132
-354.552	298.709	-0.073	0.136
-353.537	800.000	0.043	0.122
-352.523	104.068	0.146	0.174
-351.508	33.770	-0.301	0.266
-350.493	800.000	-0.027	0.092
-349.479	29.504	0.216	-0.186
-348.464	-137.567	-0.170	0.019
-347.450	-82.167	0.276	0.091
-346.435	800.000	-0.089	-0.278
-345.420	800.000	0.071	-0.206
-344.406	-200.000	0.031	0.150
-343.391	-14.471	-0.021	-0.014
-342.377	58.596	-0.084	-0.084
-341.362	41.383	0.162	-0.149
-340.348	416.723	0.088	0.190
-339.333	706.833	-0.122	0.326
-338.318	-54.186	0.309	0.142
-337.304	-33.298	0.269	-0.151
-336.289	-76.608	-0.206	0.073
-335.275	62.767	-0.167	-0.169
-334.260	19.093	0.166	-0.135
-333.245	4.582	0.124	-0.092
-332.231	-57.648	0.229	0.102
-331.216	24.264	-0.192	0.161
-330.202	-6.704	0.336	-0.232
-329.187	-74.959	0.454	-0.165
-328.172	-200.000	-0.008	0.261
-327.158	-76.752	-0.218	0.077
-326.143	800.000	-0.108	-0.321
-325.129	800.000	0.067	-0.262
-324.114	-151.395	0.185	0.014
-323.099	-200.000	0.027	0.316
-322.085	125.927	0.144	-0.184
-321.070	-200.000	-0.002	-0.208
-320.056	-10.911	-0.268	0.179
-319.041	-125.942	-0.046	-0.007
-318.026	10.818	-0.068	0.053
-317.012	85.706	0.067	-0.074
-315.997	-97.892	0.191	-0.050
-314.983	594.936	-0.081	-0.203
-313.968	203.483	-0.049	0.077
-312.953	270.446	0.215	-0.382
-311.939	-200.000	0.021	-0.199
-310.924	-200.000	-0.081	-0.361
-309.910	330.115	-0.111	-0.215
-308.895	-200.000	-0.022	0.196
-307.880	166.030	0.051	0.074
-306.866	-43.507	0.322	0.165
-305.851	-156.448	0.296	0.019
-304.837	-149.290	0.281	0.023
-303.822	-200.000	0.038	-0.660
-302.807	170.543	0.105	0.153
-301.793	73.649	0.180	0.191
-300.778	11.565	-0.236	0.183
-299.764	80.531	-0.099	-0.108
-298.749	81.286	0.180	0.196
-297.735	641.038	-0.084	0.217
-296.720	-200.000	0.024	-0.124
-295.705	-69.423	0.140	0.055
-294.691	800.000	0.034	0.138
-293.676	-200.000	0.007	-0.242
-292.662	-90.838	0.184	-0.054
-291.647	-145.282	0.488	-0.045
-290.632	-131.608	0.268	0.036
-289.618	-186.443	0.339	0.005
-288.603	-163.898	0.131	-0.006
-287.589	-47.942	0.121	0.059
-286.574	-49.359	0.156	0.075
-285.559	30.667	-0.215	0.186
-284.545	-200.000	0.042	0.223
-283.530	-87.198	0.211	0.065
-282.516	-200.000	-0.036	-0.171
-281.501	-200.000	-0.047	0.272
-280.486	96.090	-0.397	-0.458
-279.472	800.000	-0.090	-0.389
-278.457	-200.000	0.001	-0.174
-277.443	170.171	0.122	0.176
-276.428	338.922	0.085	-0.168
-275.413	-52.516	0.266	-0.124
-274.399	-144.953	0.355	0.033
-273.384	-103.181	-0.106	-0.025
-272.370	121.136	-0.247	-0.311
-271.355	31.480	0.234	-0.203
-270.340	-39.193	0.172	0.092
-269.326	59.752	-0.144	0.144
-268.311	800.000	-0.119	0.490
-267.297	781.091	0.067	-0.184
-266.282	-200.000	0.009	-0.088
-265.267	25.035	-0.145	0.122
-264.253	334.790	-0.115	0.224
-263.238	800.000	-0.092	0.305
-262.224	-200.000	-0.045	-0.244
-261.209	-165.772	-0.218	0.010
-260.195	114.847	-0.159	0.196
-259.180	9.411	0.191	0.146
-258.165	-154.544	-0.334	0.023
-257.151	-184.942	0.119	-0.002
-256.136	-62.979	0.318	0.133
-255.122	-200.000	-0.059	-0.321
-254.107	568.168	0.059	0.144
-253.092	26.992	0.276	0.234
-252.078	255.188	-0.139	0.240
-251.063	-24.020	0.239	0.144
-250.049	-80.434	-0.365	0.123
-249.034	-124.760	0.204	0.032
-248.019	190.088	-0.042	0.063
-247.005	114.818	0.148	-0.182
-245.990	-108.038	0.474	0.104
-244.976	-109.713	-0.167	-0.036
-243.961	-200.000	0.012	0.106
-242.946	138.164	-0.076	0.101
-241.932	35.058	-0.189	0.167
-240.917	800.000	0.038	0.108
-239.903	-33.663	0.126	-0.070
-238.888	-200.000	0.005	-0.196
-237.873	-200.000	-0.020	-0.145
-236.859	485.617	-0.190	0.438
-235.844	800.000	-0.046	0.184
-234.830	268.534	0.132	-0.234
-233.815	-200.000	0.018	-0.132
-232.800	800.000	0.086	0.252
-231.786	-25.807	0.118	0.070
-230.771	-200.000	0.008	-0.217
-229.757	-113.567	-0.146	-0.029
-228.742	800.000	-0.052	0.206
-227.727	-200.000	-0.027	-0.253
-226.713	-15.869	-0.269	-0.173
-225.698	-200.000	-0.100	0.482
-224.684	-119.983	-0.314	-0.054
-223.669	-53.451	-0.217	0.100
-222.655	-200.000	0.095	-0.424
-221.640	-200.000	0.024	0.172
-220.625	28.096	-0.205	0.174
-219.611	-200.000	0.001	-0.092
-218.596	-44.429	0.219	0.111
-217.582	105.851	-0.287	0.342
-216.567	185.131	-0.119	0.178
-215.552	800.000	0.060	0.254
-214.538	-200.000	0.015	0.240
-213.523	-45.235	-0.065	0.033
-212.509	16.495	0.332	0.264
-211.494	92.939	-0.062	0.071
-210.479	-107.537	-0.204	0.045
-209.465	800.000	0.105	0.329
-208.450	127.279	-0.123	0.157
-207.436	42.981	-0.148	0.136
-206.421	124.702	-0.249	-0.316
-205.406	-200.000	-0.063	0.347
-204.392	-200.000	0.020	-0.152
-203.377	800.000	-0.087	-0.327
-202.363	-69.471	-0.094	0.036
-201.348	56.237	-0.224	0.220
-200.333	-61.166	0.240	-0.102
-199.319	-82.426	0.257	0.084
-198.304	251.702	0.093	-0.160
-197.290	85.670	0.055	0.061
-196.275	-95.074	-0.068	-0.018
-195.260	95.422	-0.110	0.126
-194.246	800.000	-0.027	-0.082
-193.231	-30.050	0.161	0.092
-192.217	-200.000	0.003	-0.158
-191.202	-149.997	0.166	-0.013
-190.187	0.980	0.067	0.049
-189.173	-96.491	0.126	0.033
-188.158	-200.000	0.013	0.078
-187.144	-1.664	-0.137	-0.097
-186.129	11.853	0.249	0.193
-185.114	-115.729	0.195	0.037
-184.100	-200.000	0.039	0.183
-183.085	-166.851	-0.093	0.004
-182.071	-111.190	0.346	0.071
-181.056	800.000	0.042	0.123
-180.042	-115.651	-0.255	-0.048
-179.027	-102.874	0.099	-0.024
-178.012	-117.532	0.467	0.085
-176.998	800.000	-0.078	-0.274
-175.983	33.215	-0.157	0.137
-174.969	-200.000	0.015	0.162
-173.954	-43.255	-0.282	0.144
-172.939	-200.000	0.001	-0.118
-171.925	-142.277	0.116	0.012
-170.910	-200.000	0.025	0.282
-169.896	71.272	-0.101	-0.105
-168.881	41.065	0.091	0.083
-167.866	93.522	-0.221	-0.252
-166.852	-96.707	-0.097	-0.026
-165.837	46.426	0.230	-0.215
-164.823	134.750	0.155	-0.203
-163.808	-200.000	-0.002	-0.029
-162.793	-47.044	-0.126	-0.062
-161.779	-5.641	0.062	0.043
-160.764	331.029	-0.039	-0.076
-159.750	800.000	0.036	-0.113
-158.735	244.182	0.124	0.210
-157.720	-47.647	-0.134	0.066
-156.706	-114.655	-0.430	0.083
-155.691	-149.539	0.203	0.016
-154.677	319.217	-0.101	0.193
-153.662	356.512	0.086	0.173
-152.647	-170.614	-0.221	0.008
-151.633	-46.845	-0.045	-0.022
-150.618	-22.882	0.085	-0.052
-149.604	134.768	0.140	0.183
-148.589	-90.078	0.118	-0.035
-147.574	-17.114	-0.168	-0.106
-146.560	289.759	0.186	-0.339
-145.545	459.261	0.077	-0.173
-144.531	-61.820	-0.190	0.080
-143.516	800.000	-0.031	0.129
-142.502	336.739	0.052	0.101
-141.487	76.521	0.137	-0.146
-140.472	119.500	-0.165	0.206
-139.458	317.664	-0.101	-0.191
-138.443	167.203	-0.148	-0.211
-137.429	-18.907	0.153	-0.096
-136.414	217.262	-0.100	0.159
-135.399	708.191	0.083	0.220
-134.385	-200.000	0.017	-0.076
-133.370	97.662	0.181	-0.209
-132.356	-46.084	0.224	-0.111
-131.341	800.000	0.134	-0.410
-130.326	-22.885	-0.128	0.078
-129.312	743.148	0.027	-0.074
-128.297	-200.000	-0.023	0.449
-127.283	-61.346	0.161	0.068
-126.268	-67.973	0.211	-0.083
-125.253	3.997	-0.314	0.231
-124.239	-104.623	-0.144	-0.033
-123.224	-76.138	0.106	0.037
-122.210	-51.780	0.266	0.124
-121.195	-200.000	-0.006	-0.040
-120.180	-113.973	0.084	-0.016
