DTS Sentinel unit serial number:	SN413079Multiplexer serial number:	ORYXHardware model number:	OX4-SRSoftware version number:	ORYX F/W v4.00 Oryx Data Collector v3.7.2.0data status	okinstallation	princeton_trtdifferential loss correction	single-endedforward channel	channel 4reverse channel	N/Adate	2019/09/11time	21:07:11forward acquisition time	60.00reverse acquisition time	0.00gamma	496.2192k internal	0.2304k external	0.2304temperature offset calibration	1.0064default loss term (dB/km)	0.3790temperature slope calibration	1.0000multiplexer offset coefficient	1.0000multiplexer slope coefficient	1.0000fibre end	0.00T internal ref (°C)	36.52T ext. ref 1 (°C)	1.57T ext. ref 2 (°C)	30.70length (m)	temperature (°C)	Stokes	anti-Stokes-747.200	410.117	-0.076	0.165
-746.185	343.823	-0.175	0.350
-745.171	-82.875	-0.191	0.063
-744.156	595.061	-0.087	0.218
-743.142	22.171	0.309	-0.257
-742.127	16.188	-0.219	0.176
-741.112	281.878	0.039	-0.072
-740.098	800.000	-0.202	0.594
-739.083	-114.071	0.225	-0.044
-738.069	56.546	0.259	0.256
-737.054	91.464	0.270	-0.308
-736.039	-69.743	-0.159	-0.062
-735.025	-164.391	-0.132	-0.006
-734.010	79.822	0.034	-0.037
-732.996	-3.932	-0.068	0.048
-731.981	298.343	-0.143	-0.267
-730.966	-42.604	0.255	-0.132
-729.952	-110.140	-0.391	0.083
-728.937	132.298	-0.199	0.261
-727.923	800.000	-0.088	0.278
-726.908	376.986	0.106	0.220
-725.894	800.000	-0.072	-0.315
-724.879	800.000	-0.025	-0.089
-723.864	800.000	0.038	0.124
-722.850	-43.877	-0.104	0.053
-721.835	281.564	-0.306	-0.558
-720.821	-186.546	-0.221	0.003
-719.806	-169.919	0.235	-0.009
-718.791	-22.561	0.322	0.198
-717.777	-160.638	-0.282	0.015
-716.762	800.000	-0.058	-0.169
-715.748	-63.666	0.080	0.033
-714.733	-86.463	-0.029	-0.009
-713.718	800.000	-0.143	0.436
-712.704	-117.533	-0.263	0.048
-711.689	173.968	0.135	0.198
-710.675	-56.391	-0.232	-0.105
-709.660	-65.268	0.066	0.027
-708.645	266.970	0.153	-0.272
-707.631	-170.914	-0.287	0.010
-706.616	-1.159	0.167	0.120
-705.602	-163.541	-0.241	0.012
-704.587	163.366	-0.207	-0.295
-703.572	81.744	-0.162	0.178
-702.558	-74.440	0.211	0.077
-701.543	-200.000	0.008	-0.276
-700.529	-3.053	0.127	0.090
-699.514	97.107	0.213	-0.248
-698.499	-200.000	-0.031	-0.178
-697.485	127.961	0.129	-0.167
-696.470	-71.289	-0.457	-0.174
-695.456	-200.000	0.015	-0.163
-694.441	446.444	0.075	-0.168
-693.426	-200.000	0.012	-0.180
-692.412	118.960	-0.159	-0.200
-691.397	-87.768	0.288	-0.088
-690.383	-130.521	0.092	-0.013
-689.368	115.243	-0.138	-0.171
-688.354	-200.000	-0.020	0.209
-687.339	357.539	0.211	-0.428
-686.324	8.785	-0.421	-0.322
-685.310	124.805	-0.138	-0.176
-684.295	-130.301	-0.539	-0.074
-683.281	-200.000	0.025	0.210
-682.266	165.759	-0.185	-0.265
-681.251	-200.000	-0.007	0.070
-680.237	-200.000	-0.003	0.170
-679.222	-200.000	-0.029	-0.239
-678.208	92.902	0.222	-0.254
-677.193	139.467	0.205	-0.274
-676.178	-2.476	-0.056	0.040
-675.164	-61.878	0.183	0.078
-674.149	-200.000	-0.000	0.259
-673.135	182.371	-0.198	0.297
-672.120	-200.000	0.005	-0.299
-671.105	332.189	-0.025	0.049
-670.091	249.558	0.173	-0.297
-669.076	127.685	-0.114	-0.147
-668.062	800.000	-0.051	-0.204
-667.047	-150.342	-0.038	-0.003
-666.032	-102.857	-0.206	0.050
-665.018	-16.943	0.135	-0.086
-664.003	-200.000	-0.004	-0.249
-662.989	-200.000	0.010	-0.174
-661.974	-1.288	0.112	0.081
-660.959	139.037	-0.116	0.155
-659.945	150.261	-0.204	-0.281
-658.930	86.056	0.094	-0.105
-657.916	-92.633	0.161	0.046
-656.901	-193.449	0.172	0.002
-655.886	-44.018	-0.179	0.091
-654.872	-22.071	-0.259	-0.159
-653.857	168.180	-0.041	-0.059
-652.843	5.702	-0.080	-0.060
-651.828	-200.000	0.021	0.168
-650.814	141.552	-0.142	0.191
-649.799	-54.214	0.110	0.051
-648.784	15.534	-0.275	-0.219
-647.770	120.191	-0.248	0.312
-646.755	-51.626	0.052	-0.025
-645.741	-28.856	-0.029	0.017
-644.726	316.634	0.245	-0.469
-643.711	14.467	-0.319	-0.253
-642.697	34.093	0.062	0.054
-641.682	-4.542	-0.165	0.115
-640.668	-170.530	-0.340	-0.012
-639.653	226.612	-0.077	-0.127
-638.638	-6.746	0.108	0.075
-637.624	472.412	0.115	0.262
-636.609	-80.828	0.246	0.083
-635.595	-113.340	-0.273	-0.054
-634.580	-34.438	-0.337	-0.187
-633.565	-12.451	0.178	-0.118
-632.551	-133.052	0.119	-0.015
-631.536	484.375	-0.137	-0.316
-630.522	339.638	0.237	-0.468
-629.507	97.348	-0.146	-0.170
-628.492	737.438	0.032	0.088
-627.478	-167.500	-0.177	-0.007
-626.463	-88.373	-0.283	-0.086
-625.449	-115.952	-0.144	-0.027
-624.434	-153.610	0.183	0.013
-623.419	-200.000	0.072	0.345
-622.405	-63.719	0.443	-0.184
-621.390	-200.000	0.007	0.226
-620.376	-72.142	0.200	0.075
-619.361	800.000	0.065	-0.216
-618.346	-27.801	-0.189	0.111
-617.332	-192.189	0.083	-0.001
-616.317	163.005	-0.075	0.107
-615.303	157.674	0.111	0.155
-614.288	-200.000	0.012	0.057
-613.273	-52.994	0.208	-0.097
-612.259	51.808	0.071	0.069
-611.244	474.688	0.132	-0.302
-610.230	19.744	0.123	-0.101
-609.215	-200.000	-0.002	0.056
-608.201	11.626	-0.052	-0.041
-607.186	477.254	-0.075	-0.172
-606.171	-14.435	-0.373	-0.243
-605.157	-30.572	-0.083	0.048
-604.142	423.320	-0.114	0.248
-603.128	-77.718	-0.078	-0.027
-602.113	-5.221	0.157	-0.109
-601.098	202.237	-0.165	0.257
-600.084	-13.150	-0.148	-0.097
-599.069	-75.542	-0.015	0.005
-598.055	800.000	-0.105	-0.389
-597.040	-200.000	0.038	-0.172
-596.025	-200.000	0.032	-0.191
-595.011	-143.794	-0.103	0.010
-593.996	-200.000	0.037	-0.199
-592.982	156.137	0.114	-0.159
-591.967	15.501	-0.078	-0.062
-590.952	800.000	-0.123	-0.447
-589.938	-173.573	-0.367	0.011
-588.923	800.000	0.122	0.345
-587.909	5.203	0.272	0.203
-586.894	-200.000	-0.010	-0.109
-585.879	-200.000	0.001	-0.166
-584.865	19.374	0.058	0.047
-583.850	-84.351	-0.179	-0.057
-582.836	-200.000	0.001	0.419
-581.821	176.569	0.156	0.230
-580.806	-29.582	-0.153	-0.089
-579.792	-22.391	-0.229	-0.140
-578.777	-70.178	0.343	-0.132
-577.763	94.103	0.112	0.129
-576.748	696.993	0.042	0.111
-575.733	-129.180	-0.115	0.016
-574.719	627.287	0.026	-0.065
-573.704	90.072	-0.123	0.138
-572.690	800.000	0.065	0.222
-571.675	-81.721	-0.119	-0.039
-570.661	227.831	-0.199	-0.328
-569.646	-200.000	-0.008	-0.134
-568.631	-86.876	0.381	-0.118
-567.617	102.954	-0.251	-0.297
-566.602	-103.534	-0.312	0.074
-565.588	73.399	-0.238	-0.252
-564.573	-200.000	-0.082	-0.394
-563.558	-41.614	0.311	0.162
-562.544	-27.392	0.260	0.153
-561.529	-58.371	-0.207	-0.091
-560.515	131.142	0.088	0.114
-559.500	342.954	0.028	0.055
-558.485	800.000	0.050	-0.196
-557.471	-183.450	-0.577	0.010
-556.456	35.369	-0.179	-0.159
-555.442	120.073	0.011	0.014
-554.427	-91.232	-0.181	0.052
-553.412	-23.718	-0.299	0.181
-552.398	35.325	0.139	0.123
-551.383	-71.681	0.148	0.056
-550.369	800.000	-0.111	0.323
-549.354	-12.694	-0.362	0.239
-548.339	-200.000	-0.029	0.295
-547.325	800.000	-0.075	0.285
-546.310	102.837	0.063	0.075
-545.296	74.399	0.080	-0.085
-544.281	-90.256	-0.162	-0.047
-543.266	-52.742	-0.071	-0.033
-542.252	511.627	0.128	0.301
-541.237	-23.746	-0.113	-0.068
-540.223	-119.329	0.283	-0.050
-539.208	625.494	0.007	0.019
-538.193	800.000	-0.058	0.183
-537.179	-200.000	0.009	0.259
-536.164	-200.000	0.002	0.050
-535.150	-200.000	-0.013	-0.247
-534.135	-114.005	0.123	0.024
-533.121	-28.758	0.247	0.143
-532.106	-166.551	-0.322	-0.014
-531.091	101.109	0.231	-0.271
-530.077	800.000	0.038	0.112
-529.062	72.385	0.161	0.169
-528.048	580.421	-0.082	0.203
-527.033	321.456	-0.133	0.255
-526.018	800.000	0.054	0.204
-525.004	-3.592	-0.300	0.211
-523.989	9.804	0.293	0.224
-522.975	-88.942	-0.388	0.116
-521.960	-80.466	0.220	-0.074
-520.945	-142.273	0.241	0.024
-519.931	-152.057	-0.193	-0.014
-518.916	-8.442	0.175	-0.119
-517.902	800.000	0.030	0.099
-516.887	-136.320	0.204	0.024
-515.872	-200.000	-0.027	-0.147
-514.858	-59.109	0.252	0.110
-513.843	-200.000	-0.027	-0.192
-512.829	-103.878	-0.240	0.057
-511.814	-177.937	-0.095	-0.002
-510.799	77.377	0.080	-0.086
-509.785	44.935	-0.133	0.124
-508.770	-124.614	-0.247	-0.039
-507.756	-200.000	0.042	0.335
-506.741	-200.000	0.008	-0.298
-505.726	-140.208	-0.177	-0.019
-504.712	136.611	-0.168	-0.222
-503.697	-101.440	0.324	0.080
-502.683	-47.421	0.219	0.107
-501.668	386.132	0.125	0.259
-500.653	-95.780	0.054	0.015
-499.639	-57.543	0.192	-0.085
-498.624	443.119	-0.137	0.303
-497.610	-94.716	0.315	-0.086
-496.595	-26.318	-0.195	0.116
-495.581	38.837	0.119	-0.107
-494.566	-148.297	-0.096	-0.008
-493.551	273.084	0.046	-0.082
-492.537	800.000	-0.049	-0.140
-491.522	316.281	0.044	-0.083
-490.508	-200.000	-0.079	0.436
-489.493	-113.226	0.142	0.028
-488.478	-71.246	-0.064	0.024
-487.464	-80.689	0.155	-0.052
-486.449	800.000	-0.075	0.211
-485.435	-200.000	-0.012	-0.449
-484.420	-113.161	-0.205	0.041
-483.405	603.503	0.070	-0.175
-482.391	114.397	-0.129	0.158
-481.376	-160.251	-0.246	-0.013
-480.362	-65.859	0.295	0.119
-479.347	371.952	0.116	0.236
-478.332	122.488	0.057	-0.072
-477.318	-200.000	0.003	-0.245
-476.303	154.268	0.292	-0.404
-475.289	-182.613	0.270	-0.005
-474.274	-48.954	-0.387	-0.187
-473.259	-69.976	0.156	0.060
-472.245	-63.302	-0.175	-0.072
-471.230	-86.611	-0.328	0.101
-470.216	800.000	-0.082	0.228
-469.201	-84.452	-0.379	-0.121
-468.186	-133.963	0.508	-0.063
-467.172	-200.000	0.038	-0.192
-466.157	-200.000	-0.014	0.312
-465.143	800.000	0.073	0.225
-464.128	-67.153	0.446	0.177
-463.113	-135.779	-0.185	0.022
-462.099	-200.000	0.002	-0.032
-461.084	-36.469	0.096	-0.052
-460.070	-73.074	-0.017	0.006
-459.055	-200.000	-0.005	-0.074
-458.040	-42.668	0.198	0.101
-457.026	11.507	0.117	0.091
-456.011	-150.814	0.212	0.016
-454.997	800.000	0.024	0.091
-453.982	-200.000	-0.038	-0.242
-452.968	6.237	0.216	-0.162
-451.953	386.530	0.107	-0.223
-450.938	800.000	-0.090	-0.313
-449.924	82.488	0.186	-0.203
-448.909	703.766	-0.032	0.085
-447.895	100.428	0.104	0.121
-446.880	-103.494	-0.169	-0.040
-445.865	-200.000	0.021	-0.403
-444.851	-119.468	-0.168	-0.029
-443.836	364.994	-0.053	0.107
-442.822	-95.898	-0.405	-0.109
-441.807	83.243	-0.307	0.336
-440.792	-109.644	0.378	0.080
-439.778	-8.198	0.158	0.107
-438.763	-0.043	0.242	-0.173
-437.749	-6.071	0.169	0.116
-436.734	114.008	0.187	-0.229
-435.719	800.000	0.027	-0.107
-434.705	-200.000	0.042	0.268
-433.690	459.836	-0.047	0.106
-432.676	800.000	-0.049	-0.156
-431.661	-19.522	-0.087	0.054
-430.646	-108.670	-0.412	0.089
-429.632	-200.000	-0.007	0.102
-428.617	5.666	-0.202	-0.150
-427.603	800.000	-0.092	0.354
-426.588	763.768	0.090	-0.246
-425.573	-96.661	0.529	0.140
-424.559	800.000	-0.069	0.238
-423.544	10.116	-0.158	0.121
-422.530	183.996	0.148	-0.221
-421.515	-23.335	-0.259	-0.156
-420.500	-32.624	-0.265	0.148
-419.486	-102.689	0.186	0.045
-418.471	79.253	-0.061	-0.066
-417.457	16.932	0.038	-0.030
-416.442	141.209	0.427	-0.568
-415.428	-200.000	-0.047	0.280
-414.413	231.720	0.221	0.365
-413.398	33.123	0.066	0.058
-412.384	337.471	-0.283	0.553
-411.369	64.507	0.065	0.066
-410.355	694.253	-0.057	-0.149
-409.340	800.000	-0.056	-0.199
-408.325	59.007	-0.025	0.025
-407.311	-58.973	0.215	-0.094
-406.296	-200.000	0.000	-0.221
-405.282	800.000	0.078	-0.304
-404.267	51.728	0.284	-0.271
-403.252	-200.000	-0.038	0.175
-402.238	-194.886	0.123	-0.001
-401.223	367.326	0.048	0.097
-400.209	-33.921	0.145	-0.080
-399.194	-200.000	0.007	-0.232
-398.179	408.910	0.030	0.064
-397.165	-17.185	0.150	-0.095
-396.150	-79.317	-0.215	-0.073
-395.136	-200.000	0.017	0.139
-394.121	204.227	-0.113	0.176
-393.106	-21.500	-0.230	-0.141
-392.092	30.653	-0.070	0.061
-391.077	-200.000	-0.009	0.090
-390.063	49.050	-0.226	0.214
-389.048	-45.356	-0.345	-0.172
-388.033	-200.000	-0.010	-0.338
-387.019	-200.000	0.008	-0.086
-386.004	-176.912	0.295	-0.007
-384.990	-105.243	0.456	-0.104
-383.975	-90.051	-0.537	-0.157
-382.960	124.301	0.142	0.180
-381.946	-200.000	-0.019	-0.094
-380.931	359.785	0.114	0.229
-379.917	-91.993	0.360	-0.102
-378.902	-55.332	0.044	0.020
-377.888	-21.996	0.125	-0.076
-376.873	81.748	-0.167	-0.182
-375.858	-101.143	0.154	0.038
-374.844	-200.000	-0.001	0.136
-373.829	445.774	-0.120	-0.266
-372.815	-200.000	-0.010	0.204
-371.800	-183.912	-0.093	0.002
-370.785	100.662	0.158	0.184
-369.771	-200.000	0.000	0.327
-368.756	-197.299	-0.230	-0.001
-367.742	-9.611	-0.592	-0.396
-366.727	15.628	0.146	0.115
-365.712	-200.000	-0.015	0.142
-364.698	-200.000	0.010	-0.059
-363.683	180.864	-0.082	0.120
-362.669	-55.773	-0.136	-0.061
-361.654	327.541	-0.081	0.155
-360.639	329.873	-0.108	-0.208
-359.625	-200.000	-0.018	-0.124
-358.610	97.141	-0.238	0.274
-357.596	-8.677	0.136	-0.092
-356.581	-81.562	-0.265	-0.087
-355.566	198.013	-0.164	-0.252
-354.552	561.897	-0.061	-0.148
-353.537	-118.614	0.083	-0.015
-352.523	-135.512	0.198	-0.024
-351.508	-200.000	0.017	-0.283
-350.493	-200.000	0.021	0.129
-349.479	57.547	0.188	0.184
-348.464	-200.000	0.043	-0.288
-347.450	116.728	-0.124	-0.153
-346.435	-200.000	0.004	-0.049
-345.420	800.000	-0.050	0.143
-344.406	800.000	-0.077	0.298
-343.391	-200.000	-0.011	-0.342
-342.377	-200.000	0.000	0.015
-341.362	49.232	0.184	-0.174
-340.348	-36.101	0.427	-0.231
-339.333	207.448	-0.132	0.207
-338.318	228.362	0.255	0.416
-337.304	800.000	0.042	0.149
-336.289	-104.695	-0.506	0.117
-335.275	744.608	0.070	-0.189
-334.260	-107.351	-0.300	0.066
-333.245	28.228	0.155	-0.131
-332.231	-198.260	-0.310	0.002
-331.216	-39.055	0.078	-0.041
-330.202	43.619	0.321	0.294
-329.187	-21.262	0.276	0.169
-328.172	-200.000	0.024	-0.213
-327.158	-20.426	0.208	0.128
-326.143	261.181	-0.187	-0.324
-325.129	-48.068	-0.299	-0.145
-324.114	-65.558	0.197	0.079
-323.099	-61.180	-0.093	0.039
-322.085	-200.000	0.012	-0.105
-321.070	-5.871	0.266	0.182
-320.056	614.719	-0.033	0.083
-319.041	429.031	-0.170	0.368
-318.026	-23.743	0.290	0.174
-317.012	-200.000	0.028	0.290
-315.997	-200.000	0.035	0.158
-314.983	-108.159	0.325	0.070
-313.968	99.666	0.366	-0.424
-312.953	-200.000	-0.003	0.045
-311.939	-200.000	0.093	-0.432
-310.924	-200.000	-0.018	-0.250
-309.910	-132.808	-0.273	0.035
-308.895	800.000	0.063	0.201
-307.880	800.000	0.151	-0.481
-306.866	-87.471	-0.090	-0.027
-305.851	38.125	0.198	0.176
-304.837	-148.573	-0.206	0.017
-303.822	351.458	0.187	0.371
-302.807	-13.019	-0.263	0.171
-301.793	36.161	-0.100	-0.088
-300.778	-108.843	0.492	0.105
-299.764	247.374	-0.116	0.195
-298.749	-200.000	-0.046	0.286
-297.735	36.193	-0.128	0.113
-296.720	-43.314	0.082	0.042
-295.705	22.051	-0.271	-0.221
-294.691	111.987	-0.208	-0.251
-293.676	-200.000	0.010	-0.299
-292.662	687.292	0.063	-0.164
-291.647	-11.425	0.131	-0.086
-290.632	202.694	-0.255	-0.393
-289.618	218.534	0.045	-0.072
-288.603	-200.000	0.016	-0.282
-287.589	610.326	0.077	0.192
-286.574	121.950	-0.205	0.256
-285.559	112.174	0.068	-0.082
-284.545	-200.000	0.005	0.332
-283.530	19.651	0.239	-0.193
-282.516	-200.000	0.000	0.054
-281.501	-177.933	0.092	-0.002
-280.486	146.810	0.111	0.149
-279.472	-89.560	-0.250	0.073
-278.457	-42.685	-0.014	0.007
-277.443	-200.000	0.027	-0.123
-276.428	-157.132	-0.326	0.020
-275.413	146.156	-0.035	0.048
-274.399	-115.850	-0.318	-0.059
-273.384	-121.252	-0.038	-0.006
-272.370	-200.000	0.025	0.183
-271.355	-200.000	-0.033	0.188
-270.340	-131.566	0.242	-0.032
-269.326	-200.000	-0.014	-0.094
-268.311	-127.348	-0.164	-0.024
-267.297	-54.504	0.153	-0.069
-266.282	-143.212	-0.187	-0.018
-265.267	-34.779	-0.276	-0.151
-264.253	-193.437	0.164	0.001
-263.238	-200.000	0.022	-0.274
-262.224	-31.010	0.208	-0.117
-261.209	-101.629	0.125	-0.030
-260.195	64.295	-0.123	-0.124
-259.180	774.700	-0.058	-0.159
-258.165	-15.735	-0.014	0.009
-257.151	-200.000	-0.008	-0.051
-256.136	800.000	-0.057	-0.200
-255.122	800.000	-0.096	-0.304
-254.107	-47.846	-0.297	0.144
-253.092	-0.641	0.080	0.057
-252.078	596.920	0.088	0.218
-251.063	326.790	0.166	0.318
-250.049	-77.658	-0.107	-0.037
-249.034	-39.897	-0.257	0.134
-248.019	-6.080	-0.290	0.198
-247.005	-10.408	0.343	-0.227
-245.990	21.252	0.139	0.113
-244.976	-200.000	0.022	0.341
-243.961	-121.647	0.097	0.016
-242.946	800.000	0.068	-0.279
-241.932	-157.964	-0.497	0.029
-240.917	-73.055	0.267	0.098
-239.903	155.178	0.144	0.198
-238.888	-189.045	-0.212	0.003
-237.873	24.115	0.385	0.317
-236.859	414.543	0.109	-0.231
-235.844	38.853	0.168	-0.150
-234.830	-141.496	0.145	-0.015
-233.815	-14.775	-0.146	-0.094
-232.800	-185.437	0.037	-0.001
-231.786	800.000	0.127	0.382
-230.771	8.922	-0.197	-0.148
-229.757	80.147	-0.111	0.120
-228.742	536.294	0.108	0.255
-227.727	27.456	0.132	0.111
-226.713	-200.000	-0.015	-0.171
-225.698	690.736	0.137	0.358
-224.684	-118.511	-0.250	-0.044
-223.669	800.000	-0.088	0.252
-222.655	-59.952	-0.226	0.097
-221.640	102.998	0.187	-0.219
-220.625	-0.674	0.078	-0.055
-219.611	17.470	-0.107	0.085
-218.596	96.932	0.121	-0.139
-217.582	-68.657	0.041	0.016
-216.567	653.409	0.032	-0.082
-215.552	-131.828	-0.095	-0.012
-214.538	-200.000	-0.032	0.188
-213.523	42.499	-0.187	-0.169
-212.509	3.156	-0.347	0.252
-211.494	800.000	0.045	-0.180
-210.479	469.070	-0.093	0.209
-209.465	-50.638	-0.260	0.122
-208.450	249.004	-0.081	-0.136
-207.436	36.839	0.057	-0.051
-206.421	-133.744	-0.258	0.032
-205.406	800.000	0.040	0.159
-204.392	180.789	-0.073	-0.107
-203.377	-96.278	0.098	-0.026
-202.363	46.398	0.210	0.194
-201.348	-13.464	0.323	0.209
-200.333	777.655	0.066	-0.179
-199.319	-39.726	0.184	-0.096
-198.304	-159.464	-0.401	0.022
-197.290	415.055	0.102	-0.216
-196.275	459.039	0.121	-0.268
-195.260	-63.401	-0.024	-0.010
-194.246	53.624	0.276	0.264
-193.231	63.049	0.338	-0.337
-192.217	330.412	-0.100	0.191
-191.202	-200.000	0.055	0.288
-190.187	-163.239	-0.080	-0.004
-189.173	-155.306	0.274	0.018
-188.158	-29.405	0.230	-0.131
-187.144	-92.973	-0.252	0.070
-186.129	800.000	0.135	0.583
-185.114	-133.509	-0.237	-0.030
-184.100	-155.758	-0.452	0.029
-183.085	-121.665	0.266	-0.044
-182.071	126.326	-0.116	0.146
-181.056	94.334	0.049	-0.055
-180.042	434.949	0.140	0.303
-179.027	-200.000	-0.053	-0.370
-178.012	-200.000	-0.016	0.150
-176.998	8.176	0.083	0.062
-175.983	101.114	-0.056	-0.065
-174.969	54.479	-0.368	-0.353
-173.954	371.627	0.041	-0.084
-172.939	48.125	0.165	0.154
-171.925	-62.529	0.061	0.025
-170.910	188.038	-0.039	-0.058
-169.896	-153.972	0.385	0.026
-168.881	-200.000	0.007	0.079
-167.866	298.685	0.106	-0.193
-166.852	-200.000	0.029	0.349
-165.837	-105.238	-0.111	0.025
-164.823	204.839	-0.033	0.050
-163.808	256.692	0.053	-0.091
-162.793	573.564	0.164	-0.398
-161.779	-116.667	0.248	0.045
-160.764	152.944	-0.128	0.174
-159.750	-131.073	0.233	0.031
-158.735	-5.569	-0.079	-0.054
-157.720	-94.049	0.253	0.069
-156.706	-200.000	-0.109	-0.517
-155.691	-200.000	-0.033	-0.162
-154.677	-79.782	-0.214	-0.072
-153.662	-73.051	-0.302	-0.110
-152.647	-8.446	0.362	0.242
-151.633	630.948	0.130	0.327
-150.618	-4.955	0.122	0.084
-149.604	214.127	-0.016	0.025
-148.589	156.399	0.234	-0.321
-147.574	-45.508	-0.130	-0.064
-146.560	256.424	0.214	-0.365
-145.545	-165.708	-0.087	0.004
-144.531	-59.304	0.240	-0.103
-143.516	-200.000	0.041	-0.226
-142.502	414.858	-0.072	0.153
-141.487	-200.000	0.018	0.251
-140.472	800.000	-0.053	-0.229
-139.458	-128.866	0.120	0.017
-138.443	-29.483	-0.307	0.175
-137.429	-109.879	0.158	-0.033
-136.414	-200.000	-0.011	-0.228
-135.399	-59.468	0.041	-0.017
-134.385	-57.296	0.065	0.029
-133.370	-200.000	-0.011	-0.162
-132.356	59.910	0.072	0.071
-131.341	142.781	0.185	0.244
-130.326	-28.957	0.088	-0.050
-129.312	-200.000	-0.035	0.262
-128.297	-130.070	0.174	-0.024
-127.283	146.448	0.183	0.244
-126.268	635.970	0.084	0.213
-125.253	-84.561	0.196	0.062
-124.239	181.647	-0.274	-0.401
-123.224	-200.000	0.078	-0.485
-122.210	-106.604	-0.355	0.078
-121.195	554.948	0.068	0.161
