DTS Sentinel unit serial number:	SN413079Multiplexer serial number:	ORYXHardware model number:	OX4-SRSoftware version number:	ORYX F/W v4.00 Oryx Data Collector v3.7.2.0data status	okinstallation	princeton_trtdifferential loss correction	single-endedforward channel	channel 4reverse channel	N/Adate	2019/09/11time	12:07:11forward acquisition time	60.00reverse acquisition time	0.00gamma	496.2192k internal	0.2286k external	0.2286temperature offset calibration	0.9966default loss term (dB/km)	0.3790temperature slope calibration	1.0000multiplexer offset coefficient	1.0000multiplexer slope coefficient	1.0000fibre end	0.00T internal ref (°C)	39.56T ext. ref 1 (°C)	0.20T ext. ref 2 (°C)	38.11length (m)	temperature (°C)	Stokes	anti-Stokes-747.200	-53.553	0.138	0.065
-746.185	131.533	0.197	0.260
-745.171	-200.000	0.030	0.313
-744.156	-98.574	-0.120	-0.031
-743.142	-200.000	0.052	-0.526
-742.127	-127.010	-0.101	-0.015
-741.112	-24.572	-0.292	-0.179
-740.098	800.000	0.091	0.351
-739.083	800.000	-0.079	0.329
-738.069	194.893	-0.283	0.441
-737.054	131.914	0.080	0.105
-736.039	154.867	-0.035	0.050
-735.025	153.413	0.192	0.270
-734.010	-200.000	-0.036	0.442
-732.996	-184.932	-0.265	-0.004
-731.981	-200.000	0.015	0.246
-730.966	50.569	-0.179	0.174
-729.952	6.484	-0.199	0.152
-728.937	109.942	-0.106	-0.131
-727.923	-76.677	-0.225	0.081
-726.908	-97.456	0.163	0.043
-725.894	-200.000	-0.197	0.000
-724.879	-100.109	-0.186	-0.047
-723.864	161.002	-0.222	-0.317
-722.850	-176.372	-0.356	0.009
-721.835	-53.057	0.165	-0.078
-720.821	-102.276	0.042	-0.010
-719.806	-9.095	0.155	-0.106
-718.791	-47.527	-0.230	-0.114
-717.777	-24.091	0.019	0.012
-716.762	61.013	-0.188	-0.191
-715.748	-200.000	-0.002	0.060
-714.733	-200.000	-0.009	-0.119
-713.718	122.812	0.255	0.327
-712.704	-149.178	-0.083	-0.007
-711.689	800.000	0.129	-0.419
-710.675	-200.000	0.048	0.245
-709.660	150.951	-0.010	0.014
-708.645	-47.719	-0.379	0.188
-707.631	-200.000	-0.065	-0.503
-706.616	13.793	0.154	-0.123
-705.602	-200.000	-0.015	0.070
-704.587	800.000	-0.051	-0.192
-703.572	113.411	0.112	-0.139
-702.558	88.061	0.260	-0.295
-701.543	60.245	0.129	0.131
-700.529	5.315	0.127	-0.096
-699.514	-47.356	0.092	-0.046
-698.499	-15.080	-0.259	-0.170
-697.485	-21.648	-0.225	-0.140
-696.470	17.376	0.112	0.091
-695.456	800.000	-0.071	0.312
-694.441	551.366	0.057	-0.141
-693.426	-46.755	-0.109	0.055
-692.412	64.436	-0.168	-0.173
-691.397	800.000	-0.040	0.160
-690.383	-124.410	0.026	-0.004
-689.368	250.212	0.161	0.280
-688.354	-11.749	0.124	-0.083
-687.339	-200.000	0.009	0.208
-686.324	-200.000	-0.007	0.117
-685.310	51.262	0.086	0.084
-684.295	48.433	0.065	-0.062
-683.281	-88.749	-0.054	0.016
-682.266	-200.000	-0.093	0.424
-681.251	150.847	0.042	-0.058
-680.237	761.695	-0.042	-0.116
-679.222	-24.155	0.060	0.037
-678.208	-200.000	-0.021	0.143
-677.193	22.599	-0.163	-0.136
-676.178	-137.172	0.088	-0.010
-675.164	-175.261	-0.159	0.004
-674.149	800.000	-0.020	-0.088
-673.135	800.000	0.075	-0.277
-672.120	800.000	-0.087	-0.266
-671.105	558.002	-0.072	-0.178
-670.091	414.712	0.070	0.151
-669.076	-143.560	-0.137	-0.013
-668.062	0.150	0.183	-0.134
-667.047	-2.919	0.368	-0.263
-666.032	-200.000	0.006	-0.065
-665.018	36.863	-0.291	-0.263
-664.003	302.689	-0.103	0.194
-662.989	50.502	-0.138	0.133
-661.974	-200.000	-0.028	0.152
-660.959	-107.315	0.546	-0.123
-659.945	-87.960	-0.360	0.111
-658.930	-4.789	0.108	-0.076
-657.916	800.000	-0.103	-0.346
-656.901	3.774	-0.144	-0.108
-655.886	520.298	0.029	-0.070
-654.872	-140.695	-0.178	-0.019
-653.857	-93.898	-0.153	0.043
-652.843	-87.322	-0.509	-0.158
-651.828	-200.000	-0.013	0.283
-650.814	56.178	-0.150	0.149
-649.799	-151.002	0.156	-0.012
-648.784	143.546	0.135	-0.184
-647.770	-186.715	-0.372	0.005
-646.755	-200.000	-0.004	0.079
-645.741	392.090	0.105	-0.223
-644.726	-139.803	-0.120	-0.013
-643.711	12.770	-0.063	-0.050
-642.697	-200.000	-0.008	-0.154
-641.682	-200.000	0.008	-0.142
-640.668	454.692	0.120	0.271
-639.653	-145.699	-0.356	0.032
-638.638	-200.000	-0.023	0.106
-637.624	27.059	0.035	-0.030
-636.609	150.297	-0.131	0.181
-635.595	-200.000	-0.422	0.000
-634.580	-200.000	-0.000	-0.071
-633.565	131.889	-0.070	-0.092
-632.551	-149.571	-0.336	0.027
-631.536	-200.000	-0.017	0.094
-630.522	-19.235	-0.233	-0.148
-629.507	28.649	-0.129	0.112
-628.492	-200.000	-0.026	-0.151
-627.478	-174.371	-0.372	-0.011
-626.463	800.000	-0.015	-0.062
-625.449	-56.728	0.135	0.061
-624.434	-200.000	0.002	0.266
-623.419	9.126	-0.051	0.039
-622.405	711.066	-0.023	0.063
-621.390	-37.708	0.190	0.103
-620.376	-37.147	-0.067	0.036
-619.361	-83.940	-0.256	0.083
-618.346	354.611	-0.100	-0.203
-617.332	-200.000	0.012	0.103
-616.317	-103.497	0.267	-0.064
-615.303	128.102	-0.032	-0.041
-614.288	-122.816	0.199	-0.033
-613.273	-4.478	-0.158	0.111
-612.259	800.000	-0.043	0.183
-611.244	-36.036	0.136	-0.075
-610.230	-200.000	-0.025	-0.138
-609.215	-200.000	-0.027	-0.148
-608.201	-174.543	-0.269	-0.008
-607.186	-200.000	-0.062	0.472
-606.171	-161.398	0.430	-0.023
-605.157	623.265	0.067	0.172
-604.142	10.707	0.324	0.252
-603.128	372.236	-0.047	0.098
-602.113	-83.135	-0.225	-0.074
-601.098	-200.000	-0.031	0.156
-600.084	800.000	0.042	0.129
-599.069	13.180	0.087	0.069
-598.055	-113.411	-0.100	0.020
-597.040	68.520	-0.029	-0.030
-596.025	124.368	-0.104	-0.133
-595.011	-142.310	-0.512	0.052
-593.996	-125.690	-0.112	0.017
-592.982	-8.085	0.059	-0.040
-591.967	-36.854	0.145	0.079
-590.952	-34.226	-0.111	-0.062
-589.938	-73.333	0.240	-0.090
-588.923	128.718	0.175	-0.228
-587.909	67.124	-0.055	0.057
-586.894	456.358	-0.142	0.322
-585.879	-101.986	-0.228	-0.056
-584.865	-74.826	0.117	0.043
-583.850	488.439	0.074	0.173
-582.836	-200.000	-0.039	0.255
-581.821	-179.637	-0.320	-0.007
-580.806	-200.000	0.005	0.025
-579.792	-200.000	-0.014	-0.104
-578.777	-200.000	0.050	0.369
-577.763	-192.256	0.059	-0.001
-576.748	71.405	0.219	-0.232
-575.733	-76.862	-0.222	-0.079
-574.719	42.886	-0.144	0.134
-573.704	-47.700	-0.273	-0.135
-572.690	763.668	-0.076	-0.212
-571.675	498.978	-0.054	0.126
-570.661	119.996	-0.222	-0.281
-569.646	362.897	-0.092	-0.189
-568.631	-200.000	0.033	-0.216
-567.617	800.000	-0.049	-0.156
-566.602	-200.000	-0.037	-0.317
-565.588	-200.000	-0.019	0.180
-564.573	192.959	-0.138	0.213
-563.558	-161.509	0.204	0.011
-562.544	-107.762	-0.292	-0.065
-561.529	-200.000	-0.005	-0.147
-560.515	319.609	-0.200	-0.387
-559.500	-147.788	0.371	0.032
-558.485	22.100	-0.105	0.088
-557.471	-150.683	0.613	-0.048
-556.456	213.280	-0.112	-0.180
-555.442	305.063	0.129	-0.245
-554.427	-200.000	-0.032	-0.315
-553.412	-145.549	-0.346	0.032
-552.398	-90.550	0.326	-0.096
-551.383	61.598	0.294	0.298
-550.369	65.269	-0.045	0.047
-549.354	-200.000	0.016	-0.123
-548.339	162.771	0.220	-0.314
-547.325	-28.365	0.151	0.089
-546.310	-151.056	-0.083	0.006
-545.296	316.281	0.115	-0.222
-544.281	29.585	0.154	0.133
-543.266	-22.278	0.123	-0.076
-542.252	105.727	-0.268	-0.323
-541.237	72.736	-0.205	-0.218
-540.223	-121.176	0.272	-0.046
-539.208	-102.287	0.140	-0.034
-538.193	105.061	-0.114	-0.136
-537.179	30.534	0.164	-0.143
-536.164	59.819	0.121	-0.121
-535.150	-200.000	0.081	0.465
-534.135	800.000	-0.066	0.253
-533.121	-30.493	0.167	-0.096
-532.106	-200.000	-0.198	0.000
-531.091	21.663	0.155	0.128
-530.077	-200.000	-0.020	0.126
-529.062	800.000	0.069	-0.289
-528.048	-62.957	0.044	-0.019
-527.033	119.169	0.235	0.296
-526.018	-105.196	-0.295	-0.069
-525.004	-125.992	-0.131	-0.020
-523.989	16.158	-0.150	0.121
-522.975	25.805	0.133	-0.113
-521.960	84.869	0.062	-0.069
-520.945	-76.839	0.042	-0.015
-519.931	-190.307	0.172	-0.002
-518.916	402.914	0.098	-0.209
-517.902	-200.000	-0.034	-0.257
-516.887	45.403	-0.151	-0.142
-515.872	70.235	-0.170	-0.179
-514.858	3.062	0.212	0.157
-513.843	-70.880	0.454	-0.174
-512.829	709.398	0.100	-0.268
-511.814	-64.401	-0.308	-0.127
-510.799	236.252	-0.088	0.149
-509.785	190.923	0.149	-0.228
-508.770	800.000	-0.084	-0.305
-507.756	-75.132	0.141	0.051
-506.741	25.110	0.136	0.115
-505.726	291.277	0.180	-0.333
-504.712	139.857	0.143	-0.192
-503.697	-92.122	-0.061	0.018
-502.683	-143.416	0.169	-0.016
-501.668	800.000	0.050	0.148
-500.653	-149.872	0.237	0.019
-499.639	-200.000	0.041	-0.194
-498.624	800.000	-0.084	-0.356
-497.610	-55.095	0.293	-0.134
-496.595	-139.053	0.096	0.011
-495.581	800.000	-0.024	-0.073
-494.566	561.288	-0.060	-0.148
-493.551	-28.940	0.182	-0.106
-492.537	-62.295	-0.099	-0.042
-491.522	66.361	0.087	-0.090
-490.508	45.258	0.169	-0.158
-489.493	-35.907	0.279	-0.153
-488.478	33.402	0.101	-0.090
-487.464	72.519	0.130	0.138
-486.449	800.000	0.097	0.279
-485.435	328.866	0.179	0.349
-484.420	-200.000	-0.038	0.212
-483.405	-200.000	-0.001	-0.112
-482.391	-105.064	-0.094	0.022
-481.376	340.020	0.094	0.186
-480.362	-62.509	-0.359	0.152
-479.347	232.335	0.008	0.013
-478.332	-11.405	-0.052	-0.035
-477.318	175.374	-0.073	0.107
-476.303	-200.000	-0.017	0.177
-475.289	-157.425	0.245	0.015
-474.274	136.871	-0.108	0.143
-473.259	-89.575	0.217	0.065
-472.245	-114.123	-0.173	-0.034
-471.230	-79.106	-0.160	0.055
-470.216	-42.128	-0.275	-0.143
-469.201	-107.020	0.210	-0.047
-468.186	747.055	-0.049	-0.134
-467.172	-7.076	0.324	0.223
-466.157	-136.715	-0.357	0.042
-465.143	84.667	-0.179	0.198
-464.128	291.754	-0.133	0.245
-463.113	351.387	0.261	0.524
-462.099	800.000	0.061	-0.179
-461.084	40.310	-0.082	-0.075
-460.070	-200.000	-0.006	-0.274
-459.055	-82.988	0.190	0.062
-458.040	800.000	-0.051	0.147
-457.026	-35.860	0.187	0.103
-456.011	56.375	0.094	-0.092
-454.997	219.019	-0.145	-0.235
-453.982	2.480	0.085	0.062
-452.968	116.867	-0.026	-0.032
-451.953	-72.016	0.134	-0.051
-450.938	-2.605	0.178	-0.127
-449.924	30.501	0.163	-0.141
-448.909	384.487	-0.138	-0.289
-447.895	14.775	-0.227	0.180
-446.880	286.455	-0.245	-0.448
-445.865	32.770	-0.142	0.125
-444.851	183.597	-0.107	0.161
-443.836	-83.186	-0.426	-0.139
-442.822	-105.713	0.239	0.055
-441.807	-35.212	-0.182	0.101
-440.792	140.536	-0.074	0.098
-439.778	-93.903	-0.385	0.107
-438.763	-45.951	-0.385	-0.193
-437.749	-54.140	-0.252	-0.116
-436.734	-16.031	0.194	0.125
-435.719	800.000	0.198	-0.562
-434.705	92.536	0.277	-0.316
-433.690	-15.918	0.171	0.110
-432.676	59.629	0.123	-0.123
-431.661	-144.343	-0.363	-0.034
-430.646	471.271	0.096	-0.218
-429.632	-87.682	0.284	-0.087
-428.617	289.175	-0.028	-0.052
-427.603	211.052	0.051	0.081
-426.588	-200.000	-0.021	-0.271
-425.573	-71.787	0.118	0.044
-424.559	-135.091	-0.233	0.028
-423.544	-11.903	0.197	0.131
-422.530	-138.258	0.201	0.023
-421.515	-9.425	0.327	-0.221
-420.500	-200.000	-0.002	-0.143
-419.486	-100.796	-0.329	-0.082
-418.471	73.133	0.113	-0.119
-417.457	-144.467	0.037	0.003
-416.442	732.146	-0.064	0.173
-415.428	176.287	-0.179	0.264
-414.413	412.412	-0.054	0.115
-413.398	-55.748	-0.043	0.019
-412.384	351.907	-0.048	0.097
-411.369	-11.371	-0.459	0.306
-410.355	582.501	-0.054	-0.134
-409.340	167.130	-0.046	-0.066
-408.325	-200.000	-0.008	0.174
-407.311	-184.633	0.380	-0.006
-406.296	-43.527	0.266	0.136
-405.282	-117.887	-0.200	-0.036
-404.267	-50.903	0.183	0.087
-403.252	800.000	-0.091	-0.327
-402.238	371.121	0.022	-0.045
-401.223	-118.192	-0.204	0.037
-400.209	-89.359	-0.171	0.051
-399.194	128.491	0.121	-0.157
-398.179	-142.435	-0.176	-0.017
-397.165	-200.000	0.006	0.144
-396.150	-102.943	-0.255	0.061
-395.136	-200.000	0.022	0.167
-394.121	180.149	0.243	0.360
-393.106	-200.000	0.012	0.149
-392.092	-90.785	-0.064	0.019
-391.077	-83.551	0.114	0.037
-390.063	800.000	-0.073	-0.251
-389.048	112.460	0.046	-0.056
-388.033	38.145	0.225	-0.203
-387.019	703.451	0.044	0.117
-386.004	-69.117	-0.174	0.068
-384.990	-200.000	0.025	0.257
-383.975	107.516	0.042	-0.051
-382.960	-49.144	0.180	0.087
-381.946	271.809	-0.180	-0.321
-380.931	-84.250	0.327	-0.105
-379.917	-132.737	-0.015	-0.002
-378.902	-200.000	0.019	0.279
-377.888	-200.000	-0.004	-0.117
-376.873	800.000	0.021	0.064
-375.858	199.312	-0.209	0.324
-374.844	579.502	-0.054	-0.135
-373.829	-200.000	-0.041	0.496
-372.815	-123.959	-0.267	-0.043
-371.800	-91.000	0.164	0.048
-370.785	30.778	0.087	0.075
-369.771	439.851	0.092	-0.203
-368.756	174.363	-0.081	0.119
-367.742	-157.625	0.282	-0.017
-366.727	-63.681	-0.327	0.136
-365.712	-95.285	0.168	0.046
-364.698	-60.508	-0.185	0.079
-363.683	197.550	-0.090	-0.139
-362.669	43.011	0.190	-0.175
-361.654	-200.000	-0.031	0.239
-360.639	-200.000	-0.018	-0.161
-359.625	226.141	0.139	0.228
-358.610	800.000	0.013	0.052
-357.596	800.000	0.048	-0.202
-356.581	-200.000	0.025	0.259
-355.566	800.000	-0.120	0.354
-354.552	365.509	-0.169	-0.344
-353.537	438.820	0.035	-0.076
-352.523	-122.829	-0.235	0.038
-351.508	800.000	-0.047	0.133
-350.493	493.269	0.072	-0.167
-349.479	800.000	0.095	0.327
-348.464	607.621	-0.090	-0.228
-347.450	298.232	0.177	0.328
-346.435	-99.447	0.075	-0.019
-345.420	-3.531	-0.054	0.038
-344.406	-37.186	0.091	0.049
-343.391	72.908	0.213	0.224
-342.377	800.000	-0.029	0.081
-341.362	702.458	-0.090	0.239
-340.348	195.870	0.075	-0.116
-339.333	-200.000	-0.040	-0.212
-338.318	-200.000	0.030	-0.217
-337.304	-125.079	-0.527	-0.082
-336.289	137.702	0.203	-0.269
-335.275	-200.000	-0.047	-0.252
-334.260	165.361	0.093	0.133
-333.245	-200.000	-0.038	-0.305
-332.231	36.383	-0.095	0.085
-331.216	208.812	-0.129	0.204
-330.202	-200.000	-0.036	-0.223
-329.187	-69.870	-0.109	-0.042
-328.172	-109.372	0.276	0.059
-327.158	-200.000	-0.050	0.265
-326.143	-142.013	0.051	-0.005
-325.129	-91.621	0.238	0.068
-324.114	800.000	-0.032	-0.138
-323.099	-91.689	0.291	0.083
-322.085	-34.377	0.141	0.078
-321.070	312.320	0.213	0.403
-320.056	154.092	-0.146	-0.203
-319.041	-200.000	0.006	0.089
-318.026	-117.707	0.261	0.047
-317.012	-96.563	0.354	-0.094
-315.997	88.117	-0.239	0.268
-314.983	373.452	0.127	-0.261
-313.968	800.000	0.071	-0.272
-312.953	-55.371	0.162	0.073
-311.939	-103.690	-0.147	0.035
-310.924	-23.006	-0.106	-0.064
-309.910	800.000	0.033	0.104
-308.895	46.693	-0.091	0.086
-307.880	88.688	-0.032	-0.036
-306.866	58.159	-0.141	-0.140
-305.851	-169.231	0.266	-0.010
-304.837	-89.206	-0.522	-0.155
-303.822	800.000	0.069	-0.245
-302.807	378.869	-0.117	-0.242
-301.793	-118.904	-0.246	-0.044
-300.778	-200.000	-0.008	-0.273
-299.764	502.315	-0.052	-0.120
-298.749	-87.392	0.017	0.005
-297.735	800.000	-0.094	-0.362
-296.720	-2.797	0.201	-0.142
-295.705	-183.197	0.166	-0.003
-294.691	800.000	-0.026	-0.076
-293.676	514.343	-0.035	0.082
-292.662	-116.293	0.149	0.028
-291.647	74.872	-0.303	0.322
-290.632	-117.694	-0.092	0.017
-289.618	56.457	-0.129	0.126
-288.603	537.331	0.141	-0.338
-287.589	-200.000	-0.015	0.119
-286.574	-18.393	-0.042	-0.026
-285.559	-15.279	0.336	-0.217
-284.545	-103.650	0.199	-0.047
-283.530	224.318	0.078	-0.128
-282.516	347.390	-0.106	0.210
-281.501	-77.685	-0.364	0.127
-280.486	-31.922	0.276	0.156
-279.472	594.205	-0.042	0.105
-278.457	383.590	0.080	-0.166
-277.443	112.030	-0.159	-0.193
-276.428	216.392	0.104	0.166
-275.413	-200.000	-0.009	-0.080
-274.399	-84.786	-0.171	-0.054
-273.384	388.502	0.049	0.102
-272.370	-164.334	0.305	0.014
-271.355	-125.520	-0.170	-0.026
-270.340	-135.498	-0.358	-0.043
-269.326	39.744	0.241	-0.218
-268.311	23.062	-0.192	0.159
-267.297	-200.000	-0.059	0.277
-266.282	35.837	-0.200	0.177
-265.267	77.004	0.112	0.120
-264.253	-111.804	0.085	-0.017
-263.238	800.000	-0.111	-0.407
-262.224	-8.926	0.161	-0.108
-261.209	76.390	-0.106	0.113
-260.195	66.802	-0.066	0.068
-259.180	-200.000	-0.048	0.278
-258.165	-26.210	0.085	0.050
-257.151	-100.142	0.262	0.066
-256.136	121.899	-0.099	0.124
-255.122	181.258	-0.277	-0.410
-254.107	-127.035	0.316	0.047
-253.092	-200.000	0.034	-0.195
-252.078	7.812	0.127	0.096
-251.063	-80.497	0.365	0.122
-250.049	459.766	0.191	-0.429
-249.034	-200.000	0.040	0.255
-248.019	273.180	0.174	-0.309
-247.005	396.287	0.111	-0.233
-245.990	-6.696	-0.163	-0.111
-244.976	-200.000	0.011	0.112
-243.961	-132.869	0.156	-0.020
-242.946	-94.275	0.183	-0.050
-241.932	141.225	0.075	-0.099
-240.917	107.093	-0.187	0.224
-239.903	-25.663	0.198	0.118
-238.888	800.000	0.161	0.512
-237.873	800.000	-0.020	-0.086
-236.859	-200.000	-0.038	-0.219
-235.844	-144.900	0.504	-0.046
-234.830	800.000	0.079	0.294
-233.815	545.352	-0.161	-0.387
-232.800	-105.280	0.091	0.021
-231.786	-69.740	-0.290	0.111
-230.771	800.000	-0.025	-0.088
-229.757	43.980	0.198	0.183
-228.742	411.665	-0.043	0.092
-227.727	217.902	-0.056	0.089
-226.713	590.360	-0.031	-0.077
-225.698	-124.131	-0.398	-0.063
-224.684	10.553	-0.265	0.203
-223.669	271.872	0.165	0.292
-222.655	-62.784	-0.334	0.139
-221.640	-200.000	-0.059	-0.345
-220.625	274.421	0.034	-0.060
-219.611	399.160	-0.129	0.272
-218.596	21.849	-0.063	-0.051
-217.582	-30.893	-0.162	0.092
-216.567	60.666	0.028	-0.028
-215.552	800.000	-0.025	-0.105
-214.538	249.548	-0.129	-0.220
-213.523	-200.000	0.002	0.131
-212.509	-200.000	0.026	0.165
-211.494	-110.358	0.225	-0.047
-210.479	-16.252	0.148	-0.095
-209.465	-131.747	-0.216	-0.028
-208.450	-163.776	-0.239	0.011
-207.436	-38.426	0.173	-0.092
-206.421	-18.336	-0.112	0.070
-205.406	-156.478	-0.090	-0.006
-204.392	-126.631	-0.213	-0.032
-203.377	-200.000	0.031	0.259
-202.363	352.614	-0.139	0.276
-201.348	17.162	-0.023	0.019
-200.333	-200.000	-0.079	0.389
-199.319	325.977	-0.172	0.331
-198.304	-54.249	-0.125	0.057
-197.290	-167.268	0.076	-0.003
-196.275	34.834	-0.286	-0.252
-195.260	414.349	0.090	-0.192
-194.246	78.383	-0.193	0.207
-193.231	-72.184	0.256	0.095
-192.217	212.766	0.208	0.329
-191.202	800.000	-0.053	0.223
-190.187	-15.269	0.184	-0.118
-189.173	16.483	0.262	0.208
-188.158	-200.000	-0.002	0.296
-187.144	29.821	-0.245	0.209
-186.129	-112.276	-0.313	0.063
-185.114	-200.000	0.060	0.271
-184.100	128.008	0.204	0.261
-183.085	-200.000	-0.030	0.204
-182.071	-200.000	0.009	0.150
-181.056	14.368	0.173	0.136
-180.042	-0.844	0.260	0.185
-179.027	-85.261	-0.468	0.147
-178.012	109.825	-0.200	-0.241
-176.998	-36.612	0.064	0.034
-175.983	-71.690	0.211	0.079
-174.969	-164.610	-0.281	0.013
-173.954	-200.000	-0.009	-0.143
-172.939	376.265	-0.087	0.178
-171.925	368.751	0.085	0.173
-170.910	69.482	-0.265	0.274
-169.896	-147.076	-0.176	-0.015
-168.881	-26.997	-0.299	0.175
-167.866	-117.922	0.155	0.028
-166.852	25.807	-0.054	-0.045
-165.837	420.760	-0.073	-0.157
-164.823	798.522	-0.076	0.210
-163.808	800.000	0.045	0.138
-162.793	549.022	0.097	-0.233
-161.779	-137.730	-0.198	0.022
-160.764	4.087	-0.204	-0.150
-159.750	-193.925	0.617	-0.005
-158.735	390.350	-0.155	-0.323
-157.720	114.776	0.188	-0.230
-156.706	96.641	0.090	-0.103
-155.691	-6.453	0.232	0.158
-154.677	65.527	0.235	-0.238
-153.662	800.000	0.066	-0.228
-152.647	45.874	0.066	-0.061
-151.633	-104.045	0.480	0.112
-150.618	-200.000	0.084	-0.408
-149.604	8.211	0.094	-0.071
-148.589	-92.567	-0.184	-0.052
-147.574	70.255	0.069	0.072
-146.560	12.656	0.300	0.232
-145.545	-57.343	-0.237	-0.104
-144.531	-96.418	-0.178	0.047
-143.516	-200.000	0.002	-0.019
-142.502	-67.095	-0.162	0.064
-141.487	-78.227	-0.059	-0.020
-140.472	27.592	0.098	-0.082
-139.458	800.000	0.060	0.206
-138.443	800.000	0.143	0.417
-137.429	250.418	-0.109	0.185
-136.414	25.980	-0.282	0.236
-135.399	800.000	-0.039	-0.115
-134.385	-176.668	-0.329	-0.008
-133.370	95.633	0.100	-0.114
-132.356	-200.000	0.195	-0.000
-131.341	800.000	0.034	0.124
-130.326	-11.245	-0.322	-0.212
-129.312	-14.789	0.121	-0.078
-128.297	-122.068	-0.403	0.066
-127.283	800.000	-0.044	0.155
-126.268	78.711	-0.123	0.132
-125.253	15.496	-0.086	0.067
-124.239	-5.725	-0.255	-0.175
-123.224	-150.198	0.432	0.034
-122.210	261.316	-0.123	-0.214
