DTS Sentinel unit serial number:	SN413079Multiplexer serial number:	ORYXHardware model number:	OX4-SRSoftware version number:	ORYX F/W v4.00 Oryx Data Collector v3.7.2.0data status	okinstallation	princeton_trtdifferential loss correction	single-endedforward channel	channel 4reverse channel	N/Adate	2019/09/11time	09:55:11forward acquisition time	60.00reverse acquisition time	0.00gamma	496.2192k internal	0.2296k external	0.2296temperature offset calibration	0.9974default loss term (dB/km)	0.3790temperature slope calibration	1.0000multiplexer offset coefficient	1.0000multiplexer slope coefficient	1.0000fibre end	0.00T internal ref (°C)	35.19T ext. ref 1 (°C)	0.13T ext. ref 2 (°C)	32.62length (m)	temperature (°C)	Stokes	anti-Stokes-747.200	-13.505	0.102	0.067
-746.185	-2.544	-0.056	0.040
-745.171	205.441	-0.087	-0.137
-744.156	220.105	-0.220	0.360
-743.142	-138.485	0.078	0.009
-742.127	239.037	-0.068	0.116
-741.112	6.945	-0.180	-0.137
-740.098	-95.345	0.211	-0.058
-739.083	-200.000	0.034	-0.316
-738.069	-112.623	0.393	0.080
-737.054	-57.035	-0.246	0.111
-736.039	-200.000	0.001	0.046
-735.025	43.812	0.233	0.218
-734.010	620.265	0.072	-0.186
-732.996	463.067	0.059	-0.134
-731.981	230.761	-0.144	0.240
-730.966	297.447	0.083	-0.155
-729.952	425.136	-0.115	-0.253
-728.937	213.078	0.243	0.392
-727.923	196.012	-0.126	0.195
-726.908	288.556	0.092	0.171
-725.894	-12.946	-0.082	0.055
-724.879	152.944	0.198	-0.276
-723.864	195.860	-0.056	0.087
-722.850	72.388	0.133	-0.141
-721.835	-140.542	0.240	-0.025
-720.821	-24.044	0.173	-0.105
-719.806	89.250	0.149	-0.170
-718.791	-198.132	-0.300	-0.002
-717.777	-200.000	-0.034	-0.202
-716.762	-200.000	0.009	0.072
-715.748	-96.534	0.057	0.015
-714.733	800.000	-0.085	-0.251
-713.718	586.983	0.087	-0.219
-712.704	60.975	-0.166	-0.168
-711.689	800.000	0.098	-0.296
-710.675	213.305	0.304	-0.490
-709.660	-92.259	-0.396	0.114
-708.645	800.000	0.025	-0.097
-707.631	-178.208	-0.280	-0.007
-706.616	-104.776	0.358	-0.084
-705.602	3.846	-0.371	0.276
-704.587	796.918	-0.091	0.257
-703.572	399.398	0.172	0.369
-702.558	142.376	-0.214	-0.289
-701.543	393.812	-0.188	-0.399
-700.529	800.000	0.056	-0.182
-699.514	-8.153	-0.332	-0.228
-698.499	800.000	-0.165	-0.466
-697.485	40.226	0.180	0.165
-696.470	-40.599	0.075	-0.040
-695.456	-97.776	0.149	-0.039
-694.441	-101.605	-0.245	-0.061
-693.426	143.340	0.163	-0.221
-692.412	265.773	-0.249	0.443
-691.397	111.635	-0.209	0.257
-690.383	-200.000	-0.025	-0.341
-689.368	67.651	-0.053	0.055
-688.354	4.902	-0.302	0.227
-687.339	404.455	-0.084	-0.181
-686.324	308.363	-0.093	-0.177
-685.310	-52.468	-0.170	0.080
-684.295	74.019	-0.422	0.452
-683.281	-112.056	0.149	0.031
-682.266	195.318	-0.023	-0.036
-681.251	-62.862	-0.311	-0.131
-680.237	-159.006	0.338	0.020
-679.222	-200.000	-0.021	0.244
-678.208	-53.973	-0.089	0.042
-677.193	-200.000	0.007	-0.113
-676.178	-90.520	-0.235	-0.069
-675.164	800.000	0.080	0.268
-674.149	-111.218	-0.206	0.043
-673.135	149.209	0.087	-0.119
-672.120	-45.479	0.282	-0.142
-671.105	107.055	-0.071	-0.086
-670.091	800.000	0.047	-0.135
-669.076	92.251	-0.121	0.139
-668.062	670.560	0.074	-0.195
-667.047	-135.142	-0.455	0.056
-666.032	49.247	0.384	0.368
-665.018	-10.241	0.111	0.075
-664.003	-200.000	-0.004	0.091
-662.989	144.868	-0.132	0.180
-661.974	-200.000	-0.025	-0.151
-660.959	342.936	0.145	-0.290
-659.945	128.969	0.210	-0.273
-658.930	-200.000	0.049	-0.332
-657.916	-200.000	0.027	-0.216
-656.901	-55.844	-0.125	-0.057
-655.886	121.149	0.167	0.212
-654.872	155.451	0.142	0.199
-653.857	-59.775	-0.365	0.159
-652.843	145.651	0.130	0.177
-651.828	-94.226	0.210	-0.058
-650.814	-200.000	-0.013	0.200
-649.799	800.000	-0.047	-0.158
-648.784	-55.061	0.245	0.112
-647.770	569.852	0.048	0.118
-646.755	-13.518	-0.109	-0.072
-645.741	81.120	-0.165	0.181
-644.726	-200.000	-0.004	-0.247
-643.711	800.000	0.063	-0.255
-642.697	-42.448	0.401	0.208
-641.682	-200.000	-0.020	0.108
-640.668	-72.298	-0.130	-0.049
-639.653	64.256	-0.194	0.198
-638.638	617.995	-0.007	0.017
-637.624	32.360	-0.087	0.076
-636.609	257.227	0.087	-0.152
-635.595	-103.956	0.109	-0.026
-634.580	318.811	0.014	-0.027
-633.565	-200.000	0.013	0.113
-632.551	-132.071	0.155	0.021
-631.536	-200.000	-0.075	0.445
-630.522	-115.992	0.238	0.045
-629.507	367.862	0.024	0.050
-628.492	91.952	-0.264	0.302
-627.478	27.486	0.167	-0.143
-626.463	-92.527	0.204	0.058
-625.449	78.493	0.204	0.221
-624.434	-47.941	0.190	-0.093
-623.419	601.997	0.121	0.305
-622.405	8.365	-0.241	-0.184
-621.390	-16.334	-0.211	-0.136
-620.376	-23.391	-0.212	-0.130
-619.361	-85.283	0.136	-0.043
-618.346	-200.000	0.013	-0.113
-617.332	-44.243	0.174	0.089
-616.317	-200.000	0.039	0.333
-615.303	800.000	-0.045	0.186
-614.288	-96.380	0.358	-0.096
-613.273	282.539	0.039	0.072
-612.259	-49.079	-0.144	0.070
-611.244	-20.097	-0.269	-0.169
-610.230	-97.525	-0.259	-0.068
-609.215	25.202	-0.092	0.078
-608.201	-10.120	-0.191	0.129
-607.186	-65.916	-0.025	0.010
-606.171	-131.577	-0.103	-0.014
-605.157	144.218	-0.195	-0.264
-604.142	-84.964	0.196	-0.062
-603.128	136.746	-0.164	-0.218
-602.113	157.286	-0.027	0.038
-601.098	-49.973	-0.120	0.058
-600.084	-200.000	-0.028	0.335
-599.069	145.157	-0.249	0.338
-598.055	-69.779	-0.174	0.067
-597.040	-200.000	-0.004	0.137
-596.025	-72.708	0.154	-0.058
-595.011	-151.399	0.297	-0.022
-593.996	203.657	0.008	0.013
-592.982	442.080	0.085	-0.189
-591.967	-200.000	-0.024	-0.339
-590.952	-85.648	-0.262	0.083
-589.938	-128.971	0.131	0.019
-588.923	-31.326	0.138	0.079
-587.909	743.995	0.106	0.289
-586.894	-200.000	-0.050	-0.295
-585.879	-58.130	0.271	0.120
-584.865	-200.000	-0.006	-0.033
-583.850	-68.359	-0.400	-0.158
-582.836	150.122	-0.071	-0.097
-581.821	138.255	0.151	0.202
-580.806	-83.586	-0.161	0.052
-579.792	134.529	0.211	-0.278
-578.777	-200.000	0.001	-0.183
-577.763	28.442	0.235	0.201
-576.748	-81.287	-0.334	-0.112
-575.733	-200.000	0.006	-0.164
-574.719	-77.151	0.275	0.097
-573.704	31.702	-0.221	-0.193
-572.690	-40.090	0.197	0.104
-571.675	-118.604	0.407	0.073
-570.661	62.612	-0.060	0.061
-569.646	257.915	-0.144	0.251
-568.631	-200.000	0.016	0.201
-567.617	274.447	-0.127	0.228
-566.602	30.514	0.094	0.082
-565.588	43.251	-0.233	-0.216
-564.573	800.000	-0.036	-0.108
-563.558	121.147	-0.213	0.269
-562.544	60.205	0.279	0.280
-561.529	-63.401	-0.127	-0.053
-560.515	113.971	0.256	-0.315
-559.500	800.000	-0.034	-0.122
-558.485	169.183	-0.094	0.136
-557.471	233.816	0.177	0.295
-556.456	-200.000	0.000	0.191
-555.442	163.300	-0.200	-0.285
-554.427	82.444	0.201	-0.221
-553.412	-7.776	0.168	-0.115
-552.398	441.738	-0.078	-0.172
-551.383	-200.000	-0.044	0.274
-550.369	-28.576	0.032	0.019
-549.354	282.424	0.091	-0.165
-548.339	-132.371	0.247	0.032
-547.325	-41.146	-0.089	-0.046
-546.310	-62.862	-0.211	0.089
-545.296	800.000	0.038	-0.121
-544.281	338.473	0.065	-0.128
-543.266	-151.126	-0.213	-0.016
-542.252	31.495	0.196	0.171
-541.237	11.459	0.293	0.227
-540.223	-72.830	-0.193	-0.072
-539.208	-144.003	-0.200	-0.019
-538.193	112.173	0.101	-0.124
-537.179	-46.603	-0.050	-0.025
-536.164	-200.000	-0.004	0.130
-535.150	190.422	-0.275	0.418
-534.135	-200.000	0.054	0.340
-533.121	-200.000	0.002	-0.076
-532.106	800.000	0.062	0.268
-531.091	800.000	-0.062	0.224
-530.077	212.354	0.068	0.108
-529.062	-200.000	0.031	0.224
-528.048	292.183	0.207	-0.381
-527.033	-200.000	0.071	-0.360
-526.018	10.317	-0.208	-0.161
-525.004	-34.104	0.075	-0.042
-523.989	800.000	0.042	-0.142
-522.975	-200.000	0.025	-0.175
-521.960	-107.552	-0.159	-0.035
-520.945	-116.405	0.311	-0.058
-519.931	800.000	-0.064	0.219
-518.916	-74.846	-0.346	-0.126
-517.902	-200.000	-0.027	-0.321
-516.887	174.691	-0.087	-0.127
-515.872	-200.000	-0.051	-0.279
-514.858	-53.271	0.539	-0.250
-513.843	800.000	0.117	0.335
-512.829	800.000	-0.054	0.206
-511.814	800.000	-0.063	0.183
-510.799	-200.000	0.006	0.429
-509.785	-83.938	0.270	0.087
-508.770	49.738	0.121	-0.116
-507.756	-104.496	-0.091	-0.021
-506.741	-125.383	0.239	-0.037
-505.726	-200.000	-0.009	-0.142
-504.712	-200.000	0.004	-0.162
-503.697	-200.000	-0.038	-0.280
-502.683	-200.000	-0.118	-0.574
-501.668	800.000	0.124	-0.349
-500.653	-101.821	0.279	0.068
-499.639	38.996	0.283	0.256
-498.624	274.997	0.014	-0.026
-497.610	296.439	-0.132	0.246
-496.595	63.468	0.130	-0.132
-495.581	34.122	-0.138	-0.122
-494.566	-21.546	0.195	-0.120
-493.551	183.681	-0.037	-0.056
-492.537	-189.597	-0.249	0.003
-491.522	385.609	0.065	0.136
-490.508	-127.030	-0.167	-0.025
-489.493	117.919	-0.140	-0.175
-488.478	-18.391	-0.125	0.079
-487.464	-200.000	0.009	-0.097
-486.449	-87.470	-0.051	-0.015
-485.435	761.822	-0.072	-0.197
-484.420	-200.000	0.049	-0.338
-483.405	-57.626	-0.265	-0.117
-482.391	-47.658	0.292	0.143
-481.376	398.866	-0.067	0.141
-480.362	-104.396	0.246	0.058
-479.347	178.568	0.184	-0.272
-478.332	-69.752	0.240	0.093
-477.318	25.229	-0.369	0.310
-476.303	-200.000	-0.012	0.462
-475.289	-115.996	-0.214	0.040
-474.274	520.891	-0.144	0.341
-473.259	-200.000	-0.004	-0.287
-472.245	-200.000	-0.015	-0.221
-471.230	-6.914	0.107	-0.073
-470.216	-68.705	-0.142	-0.055
-469.201	8.459	-0.090	0.069
-468.186	380.653	-0.022	0.046
-467.172	800.000	0.037	-0.148
-466.157	-53.380	0.218	0.101
-465.143	-200.000	0.044	0.316
-464.128	106.069	-0.233	0.279
-463.113	-178.235	0.268	0.006
-462.099	21.827	0.137	-0.112
-461.084	-67.295	-0.033	0.013
-460.070	-1.685	0.152	-0.108
-459.055	97.984	-0.117	0.137
-458.040	319.516	0.003	0.005
-457.026	-176.422	-0.311	0.008
-456.011	34.305	-0.352	0.311
-454.997	50.146	0.083	0.080
-453.982	142.732	0.198	0.266
-452.968	193.225	0.194	0.296
-451.953	-200.000	0.033	0.223
-450.938	-200.000	0.003	-0.108
-449.924	-129.460	-0.426	-0.060
-448.909	-200.000	-0.008	-0.059
-447.895	800.000	0.045	0.160
-446.880	745.418	0.172	0.466
-445.865	-200.000	-0.009	0.053
-444.851	191.943	0.153	0.233
-443.836	62.217	0.044	-0.045
-442.822	-101.077	-0.195	0.048
-441.807	7.139	-0.045	0.034
-440.792	-175.674	-0.081	0.002
-439.778	-6.004	0.068	0.047
-438.763	-50.743	0.436	-0.207
-437.749	101.412	0.191	-0.224
-436.734	157.039	0.051	-0.072
-435.719	-101.857	0.073	0.018
-434.705	800.000	-0.055	0.187
-433.690	-96.956	0.161	-0.043
-432.676	-69.478	-0.121	0.047
-431.661	344.346	-0.047	-0.093
-430.646	278.155	-0.107	0.193
-429.632	-31.454	-0.166	0.094
-428.617	41.836	-0.326	-0.298
-427.603	-7.988	0.181	0.123
-426.588	800.000	-0.108	0.344
-425.573	-96.954	-0.168	0.044
-424.559	-154.400	0.057	-0.004
-423.544	-54.845	0.323	-0.147
-422.530	-47.020	-0.153	0.075
-421.515	-172.722	-0.294	0.009
-420.500	49.311	0.072	0.069
-419.486	101.545	-0.273	0.320
-418.471	688.652	0.069	0.183
-417.457	-166.556	-0.128	-0.005
-416.442	89.360	0.055	-0.062
-415.428	74.184	-0.069	-0.073
-414.413	181.590	0.085	-0.127
-413.398	-65.137	0.278	0.113
-412.384	-58.638	0.102	0.044
-411.369	81.858	0.199	-0.217
-410.355	-200.000	-0.014	0.075
-409.340	-200.000	0.003	0.317
-408.325	-189.111	0.085	0.001
-407.311	368.098	0.057	0.115
-406.296	-41.736	-0.149	-0.077
-405.282	800.000	-0.095	-0.283
-404.267	143.306	-0.129	-0.173
-403.252	505.984	-0.094	0.219
-402.238	-68.301	0.218	-0.086
-401.223	-19.798	-0.234	0.146
-400.209	80.991	0.054	0.059
-399.194	132.650	-0.013	-0.016
-398.179	-200.000	0.011	0.072
-397.165	800.000	0.154	0.516
-396.150	-200.000	0.069	0.308
-395.136	186.867	-0.102	-0.153
-394.121	800.000	0.079	-0.319
-393.106	-88.016	0.057	0.017
-392.092	695.034	-0.057	-0.150
-391.077	-200.000	0.003	-0.170
-390.063	-33.355	0.254	0.142
-389.048	-55.322	-0.144	-0.065
-388.033	-65.114	-0.303	-0.123
-387.019	120.637	-0.113	-0.141
-386.004	-2.698	-0.085	0.060
-384.990	-200.000	-0.023	0.321
-383.975	513.688	-0.111	-0.261
-382.960	67.210	0.023	-0.024
-381.946	-36.002	-0.225	-0.123
-380.931	-200.000	-0.019	-0.328
-379.917	-25.296	0.105	-0.062
-378.902	-200.000	-0.019	-0.123
-377.888	-59.672	-0.025	0.011
-376.873	-137.137	-0.349	0.040
-375.858	-33.768	0.236	0.131
-374.844	-115.149	0.484	-0.092
-373.829	31.554	0.281	0.243
-372.815	-11.382	-0.314	0.208
-371.800	-171.106	0.266	-0.009
-370.785	403.061	0.174	-0.368
-369.771	271.421	-0.028	-0.050
-368.756	-113.051	-0.346	0.069
-367.742	-46.769	0.159	-0.078
-366.727	128.678	-0.026	-0.033
-365.712	-8.331	0.500	-0.339
-364.698	617.262	-0.055	-0.139
-363.683	139.807	0.104	0.138
-362.669	-200.000	0.029	0.172
-361.654	-23.468	0.088	-0.053
-360.639	144.117	0.217	-0.291
-359.625	-200.000	0.012	0.188
-358.610	-200.000	0.020	-0.129
-357.596	126.380	-0.323	-0.412
-356.581	-94.985	0.051	0.014
-355.566	303.376	-0.058	0.109
-354.552	-52.639	-0.341	-0.158
-353.537	-33.780	-0.257	0.143
-352.523	800.000	0.063	0.238
-351.508	-54.328	0.154	0.070
-350.493	114.814	-0.038	-0.047
-349.479	-93.440	-0.067	-0.019
-348.464	-190.557	-0.146	0.002
-347.450	-28.363	0.307	0.178
-346.435	542.788	0.125	-0.300
-345.420	519.268	-0.206	0.485
-344.406	676.735	-0.101	0.264
-343.391	211.310	0.078	-0.123
-342.377	-149.788	-0.268	-0.021
-341.362	-200.000	-0.011	-0.070
-340.348	-166.158	0.103	0.004
-339.333	18.748	-0.084	0.067
-338.318	-98.174	0.295	0.076
-337.304	-200.000	0.005	0.310
-336.289	-30.669	-0.198	-0.113
-335.275	-63.903	-0.247	-0.102
-334.260	81.746	-0.130	-0.142
-333.245	391.880	-0.093	-0.195
-332.231	235.041	-0.126	-0.209
-331.216	-200.000	0.023	-0.125
-330.202	-57.072	-0.238	0.106
-329.187	800.000	0.075	-0.231
-328.172	15.147	-0.309	0.243
-327.158	405.232	-0.075	0.160
-326.143	800.000	0.067	0.239
-325.129	71.169	-0.059	0.062
-324.114	-47.389	-0.182	-0.089
-323.099	-200.000	-0.006	-0.160
-322.085	-47.594	-0.206	0.100
-321.070	-75.735	-0.273	-0.097
-320.056	-126.462	-0.207	-0.031
-319.041	310.078	-0.059	-0.112
-318.026	800.000	0.055	0.217
-317.012	-34.409	-0.113	0.062
-315.997	-200.000	-0.025	0.254
-314.983	-200.000	0.024	-0.311
-313.968	722.274	-0.084	-0.224
-312.953	795.161	-0.047	-0.130
-311.939	-200.000	0.010	0.109
-310.924	157.918	-0.131	0.182
-309.910	-91.995	0.465	0.132
-308.895	235.899	0.170	0.283
-307.880	-2.605	0.256	-0.180
-306.866	-70.771	-0.147	0.056
-305.851	-7.317	0.139	-0.095
-304.837	800.000	0.114	-0.415
-303.822	800.000	-0.075	-0.207
-302.807	13.429	-0.229	-0.179
-301.793	285.981	-0.278	-0.504
-300.778	800.000	0.053	-0.177
-299.764	-200.000	-0.039	0.258
-298.749	364.753	0.114	0.231
-297.735	-118.151	-0.194	-0.035
-296.720	800.000	-0.014	-0.039
-295.705	53.811	0.068	0.066
-294.691	252.046	0.100	0.170
-293.676	36.000	0.239	-0.211
-292.662	275.741	-0.207	0.369
-291.647	-99.517	0.484	-0.122
-290.632	76.875	-0.226	0.241
-289.618	-78.768	-0.094	-0.032
-288.603	56.408	0.144	-0.141
-287.589	-155.348	-0.343	0.022
-286.574	-52.607	0.268	0.124
-285.559	-149.504	-0.245	-0.019
-284.545	39.750	-0.174	-0.157
-283.530	1.244	0.260	0.187
-282.516	-200.000	-0.014	-0.183
-281.501	-200.000	0.197	-0.001
-280.486	-38.413	-0.171	-0.091
-279.472	-132.041	-0.368	0.048
-278.457	189.803	-0.105	-0.158
-277.443	-80.184	0.367	-0.123
-276.428	-3.759	0.334	0.233
-275.413	477.927	0.076	-0.173
-274.399	442.869	0.047	0.104
-273.384	-41.635	0.221	-0.114
-272.370	-152.761	-0.123	0.009
-271.355	800.000	-0.045	0.127
-270.340	-200.000	0.019	-0.277
-269.326	-94.355	-0.181	-0.050
-268.311	216.948	-0.139	-0.221
-267.297	50.143	0.030	-0.028
-266.282	745.746	-0.072	0.194
-265.267	-200.000	-0.038	0.191
-264.253	-154.180	0.052	0.004
-263.238	21.650	0.194	-0.158
-262.224	7.223	-0.108	0.081
-261.209	58.820	0.105	0.104
-260.195	-11.441	-0.117	-0.077
-259.180	18.699	-0.091	0.073
-258.165	56.967	-0.096	-0.094
-257.151	20.315	-0.220	0.178
-256.136	800.000	0.034	0.102
-255.122	-167.601	-0.151	0.006
-254.107	27.309	0.013	0.011
-253.092	-116.153	-0.258	-0.048
-252.078	-143.734	-0.186	-0.018
-251.063	592.330	0.153	-0.379
-250.049	-45.147	0.224	-0.112
-249.034	-157.004	0.209	-0.013
-248.019	118.322	-0.071	-0.088
-247.005	-110.451	0.092	-0.019
-245.990	-88.508	-0.118	-0.035
-244.976	-177.595	-0.185	-0.005
-243.961	-108.399	-0.181	-0.039
-242.946	-200.000	0.212	-0.001
-241.932	-200.000	0.035	-0.408
-240.917	-36.009	0.212	-0.115
-239.903	-43.954	0.222	0.112
-238.888	800.000	-0.072	-0.273
-237.873	800.000	0.029	-0.095
-236.859	28.025	0.145	0.122
-235.844	-200.000	-0.019	-0.189
-234.830	-125.626	-0.185	-0.028
-233.815	20.955	0.105	-0.085
-232.800	-200.000	0.032	-0.149
-231.786	-113.070	-0.292	0.058
-230.771	-111.681	0.016	-0.003
-229.757	305.649	-0.112	0.208
-228.742	-200.000	0.050	0.248
-227.727	-200.000	-0.015	-0.167
-226.713	-102.809	-0.108	0.026
-225.698	-66.729	0.233	0.093
-224.684	335.648	-0.077	-0.149
-223.669	108.174	-0.207	0.247
-222.655	-80.018	0.345	-0.116
-221.640	-154.469	0.391	0.026
-220.625	-26.117	0.167	-0.099
-219.611	-200.000	0.022	-0.137
-218.596	-62.438	-0.184	0.077
-217.582	-173.217	0.136	-0.004
-216.567	107.345	0.180	-0.214
-215.552	-43.871	-0.182	0.091
-214.538	182.546	0.054	-0.080
-213.523	96.041	0.073	0.084
-212.509	102.519	0.272	-0.318
-211.494	125.164	-0.167	-0.210
-210.479	100.509	-0.096	-0.111
-209.465	-187.370	0.098	0.001
-208.450	-200.000	-0.020	-0.296
-207.436	-104.864	-0.248	-0.057
-206.421	-200.000	0.016	0.484
-205.406	-200.000	-0.005	0.109
-204.392	768.452	-0.030	0.083
-203.377	-72.765	0.287	-0.106
-202.363	183.480	-0.102	-0.151
-201.348	53.273	0.152	-0.146
-200.333	-11.778	-0.206	-0.135
-199.319	-200.000	0.004	-0.168
-198.304	-109.600	0.103	-0.022
-197.290	-108.010	0.209	0.045
-196.275	-101.906	-0.254	0.061
-195.260	-200.000	-0.010	0.151
-194.246	-90.872	0.041	0.012
-193.231	-61.549	0.111	0.047
-192.217	-160.741	-0.312	0.017
-191.202	-17.055	0.153	-0.097
-190.187	151.432	-0.052	0.071
-189.173	-93.965	-0.196	-0.054
-188.158	86.244	-0.051	-0.056
-187.144	-115.257	0.301	-0.057
-186.129	-200.000	-0.005	0.396
-185.114	140.112	-0.198	0.260
-184.100	153.985	0.051	-0.070
-183.085	621.828	-0.096	-0.240
-182.071	-91.430	0.323	-0.092
-181.056	13.326	0.066	0.051
-180.042	-200.000	-0.012	0.290
-179.027	800.000	-0.066	-0.246
-178.012	-15.618	-0.125	-0.080
-176.998	-200.000	-0.009	0.117
-175.983	-125.796	-0.369	0.056
-174.969	-200.000	-0.039	-0.198
-173.954	-200.000	-0.073	-0.391
-172.939	-20.624	0.265	-0.163
-171.925	-200.000	0.013	0.090
-170.910	48.736	0.188	0.176
-169.896	-200.000	0.050	-0.253
-168.881	-103.475	0.312	0.073
-167.866	-28.133	-0.249	-0.144
-166.852	25.981	-0.215	0.179
-165.837	-39.472	-0.196	-0.102
-164.823	-200.000	-0.004	-0.184
-163.808	-200.000	-0.007	-0.074
-162.793	800.000	-0.108	0.407
-161.779	552.134	0.092	0.221
-160.764	38.891	0.162	-0.144
-159.750	24.216	-0.141	0.117
-158.735	475.593	-0.078	0.175
-157.720	3.399	0.316	0.230
-156.706	398.643	-0.120	-0.251
-155.691	-200.000	0.033	0.312
-154.677	-30.334	0.165	0.094
-153.662	-173.720	0.116	-0.003
-152.647	630.024	-0.147	-0.372
-151.633	-121.910	0.420	0.069
-150.618	334.756	-0.019	0.036
-149.604	-200.000	0.011	-0.198
-148.589	-200.000	0.035	-0.177
-147.574	-193.698	-0.221	0.002
-146.560	-200.000	0.017	0.312
-145.545	-181.484	0.180	0.004
-144.531	107.841	0.122	0.145
-143.516	-200.000	-0.144	-0.000
-142.502	800.000	-0.019	0.080
-141.487	-200.000	0.017	0.190
-140.472	498.627	-0.024	0.056
-139.458	800.000	-0.017	0.064
-138.443	134.865	-0.177	-0.229
-137.429	-70.289	0.464	-0.176
-136.414	676.502	-0.132	-0.341
-135.399	-35.978	0.150	-0.081
-134.385	734.684	0.056	0.149
-133.370	131.655	0.250	0.321
-132.356	-200.000	0.005	-0.065
-131.341	-35.023	0.455	0.247
-130.326	105.597	-0.141	-0.166
-129.312	102.365	0.180	0.210
-128.297	57.961	-0.114	0.112
-127.283	-200.000	-0.012	-0.095
-126.268	-200.000	-0.005	-0.335
-125.253	-200.000	-0.017	-0.254
-124.239	-30.905	0.327	-0.184
-123.224	71.866	-0.184	0.191
-122.210	800.000	-0.041	0.142
