DTS Sentinel unit serial number:	SN413079Multiplexer serial number:	ORYXHardware model number:	OX4-SRSoftware version number:	ORYX F/W v4.00 Oryx Data Collector v3.7.2.0data status	okinstallation	princeton_trtdifferential loss correction	single-endedforward channel	channel 4reverse channel	N/Adate	2019/09/10time	16:35:10forward acquisition time	60.00reverse acquisition time	0.00gamma	496.2192k internal	0.2296k external	0.2296temperature offset calibration	0.9944default loss term (dB/km)	0.3790temperature slope calibration	1.0000multiplexer offset coefficient	1.0000multiplexer slope coefficient	1.0000fibre end	0.00T internal ref (°C)	37.94T ext. ref 1 (°C)	-0.26T ext. ref 2 (°C)	30.01length (m)	temperature (°C)	Stokes	anti-Stokes-747.200	74.158	-0.083	-0.089
-746.185	188.228	-0.128	-0.196
-745.171	-155.407	-0.166	-0.011
-744.156	57.440	-0.232	0.231
-743.142	-8.977	0.180	0.123
-742.127	-102.839	-0.327	0.080
-741.112	-124.478	-0.020	-0.003
-740.098	220.021	0.189	0.309
-739.083	317.580	-0.069	0.133
-738.069	254.539	-0.155	0.271
-737.054	-200.000	-0.032	-0.240
-736.039	-139.150	-0.120	-0.013
-735.025	16.589	-0.416	0.336
-734.010	-16.393	-0.339	0.220
-732.996	-88.536	-0.315	0.096
-731.981	-62.305	0.194	0.083
-730.966	528.590	0.055	0.133
-729.952	307.815	-0.149	-0.283
-728.937	-200.000	0.023	-0.362
-727.923	185.893	-0.174	0.265
-726.908	38.181	-0.259	-0.236
-725.894	-44.953	-0.135	-0.069
-724.879	61.197	-0.137	0.139
-723.864	800.000	-0.034	-0.130
-722.850	332.416	-0.219	-0.431
-721.835	-200.000	-0.033	-0.148
-720.821	23.131	0.145	0.122
-719.806	-200.000	-0.017	0.142
-718.791	737.261	0.060	0.165
-717.777	-14.910	0.128	0.084
-716.762	240.965	0.005	0.009
-715.748	-39.056	0.289	-0.155
-714.733	-45.319	-0.360	0.182
-713.718	137.382	-0.284	0.379
-712.704	-123.229	-0.251	0.041
-711.689	-64.584	0.080	-0.033
-710.675	-200.000	-0.047	-0.358
-709.660	-200.000	0.004	-0.293
-708.645	-81.983	0.191	0.064
-707.631	-28.183	-0.060	-0.035
-706.616	-103.376	-0.317	0.076
-705.602	-31.381	-0.101	-0.058
-704.587	237.107	-0.015	-0.025
-703.572	-113.036	-0.155	-0.031
-702.558	-38.294	0.359	-0.194
-701.543	206.672	0.175	-0.279
-700.529	-156.732	0.314	-0.020
-699.514	-123.679	0.100	-0.016
-698.499	291.335	-0.076	-0.141
-697.485	-200.000	0.062	-0.423
-696.470	-96.518	0.105	-0.028
-695.456	74.998	-0.302	0.325
-694.441	-177.566	-0.160	0.004
-693.426	800.000	0.045	0.149
-692.412	312.505	-0.211	-0.404
-691.397	-60.775	0.148	0.064
-690.383	28.704	-0.197	0.170
-689.368	-60.237	-0.063	-0.027
-688.354	171.229	-0.177	-0.259
-687.339	-89.620	0.494	-0.148
-686.324	-6.649	-0.065	0.045
-685.310	-200.000	-0.093	0.425
-684.295	800.000	0.076	0.216
-683.281	-132.971	-0.676	-0.088
-682.266	-109.316	0.104	-0.023
-681.251	54.977	0.308	0.303
-680.237	-133.566	0.468	-0.060
-679.222	-200.000	-0.006	-0.043
-678.208	-54.179	-0.054	0.025
-677.193	-200.000	0.001	-0.125
-676.178	-119.730	0.126	0.022
-675.164	17.360	0.209	-0.169
-674.149	-199.183	-0.048	0.000
-673.135	-200.000	-0.023	0.284
-672.120	-71.478	-0.249	-0.095
-671.105	-130.338	0.176	-0.024
-670.091	-99.849	0.165	0.042
-669.076	-200.000	0.039	-0.273
-668.062	-126.855	0.078	-0.012
-667.047	-122.205	0.412	0.069
-666.032	-39.813	-0.082	-0.044
-665.018	-52.302	-0.252	0.119
-664.003	362.090	-0.055	-0.112
-662.989	401.841	-0.062	-0.133
-661.974	-200.000	0.002	0.089
-660.959	656.569	-0.057	0.149
-659.945	329.914	0.005	0.009
-658.930	-9.662	-0.052	-0.035
-657.916	-200.000	-0.037	0.203
-656.901	87.157	-0.073	0.082
-655.886	-200.000	-0.054	0.356
-654.872	753.457	0.107	-0.295
-653.857	-4.733	-0.452	-0.317
-652.843	325.209	0.097	0.189
-651.828	22.099	0.093	0.077
-650.814	288.134	0.159	-0.294
-649.799	221.728	-0.076	-0.124
-648.784	-68.202	-0.435	0.172
-647.770	-200.000	0.010	-0.083
-646.755	-200.000	0.029	0.291
-645.741	-200.000	0.070	0.393
-644.726	-200.000	0.073	-0.377
-643.711	0.848	0.243	0.177
-642.697	123.954	-0.031	-0.040
-641.682	-200.000	0.017	0.105
-640.668	-111.525	0.186	0.038
-639.653	-200.000	0.056	-0.314
-638.638	-200.000	0.026	0.242
-637.624	-119.535	0.100	0.018
-636.609	-126.321	0.380	-0.058
-635.595	-195.733	-0.207	-0.002
-634.580	-200.000	0.022	-0.116
-633.565	218.535	0.064	-0.104
-632.551	-42.149	-0.214	-0.111
-631.536	296.378	-0.209	-0.390
-630.522	-200.000	0.030	-0.234
-629.507	75.196	0.037	0.040
-628.492	800.000	0.066	-0.225
-627.478	544.313	-0.140	-0.341
-626.463	-54.498	-0.239	-0.110
-625.449	14.840	0.111	0.088
-624.434	-19.395	-0.184	0.116
-623.419	800.000	-0.074	-0.227
-622.405	-45.291	-0.070	-0.035
-621.390	-187.362	-0.381	-0.005
-620.376	800.000	-0.067	-0.202
-619.361	800.000	0.052	-0.173
-618.346	-165.027	0.074	0.003
-617.332	-60.605	0.187	0.081
-616.317	37.111	-0.148	0.133
-615.303	-83.057	0.210	-0.069
-614.288	369.368	0.047	-0.096
-613.273	15.847	-0.343	-0.274
-612.259	-200.000	0.024	-0.532
-611.244	-107.837	-0.321	-0.071
-610.230	-179.341	-0.122	-0.003
-609.215	52.711	0.116	-0.112
-608.201	-200.000	-0.035	-0.584
-607.186	286.195	0.059	0.109
-606.171	-19.082	-0.160	0.101
-605.157	-62.650	-0.061	0.026
-604.142	64.689	-0.130	0.133
-603.128	167.040	0.152	0.219
-602.113	322.023	0.135	0.261
-601.098	98.871	0.118	-0.138
-600.084	98.240	0.194	0.227
-599.069	-68.717	0.259	-0.102
-598.055	800.000	-0.156	0.594
-597.040	-11.523	0.330	-0.220
-596.025	-200.000	-0.009	-0.233
-595.011	212.055	-0.086	0.138
-593.996	-124.046	-0.318	-0.051
-592.982	-80.631	0.300	-0.101
-591.967	53.921	-0.106	-0.103
-590.952	800.000	0.093	0.349
-589.938	-200.000	0.006	-0.138
-588.923	82.479	0.171	-0.189
-587.909	800.000	0.065	0.190
-586.894	-200.000	0.015	0.159
-585.879	-165.031	0.297	-0.013
-584.865	800.000	0.060	0.210
-583.850	245.514	0.051	0.088
-582.836	-58.922	0.039	0.017
-581.821	-164.640	0.040	0.002
-580.806	51.008	0.150	0.144
-579.792	800.000	-0.012	0.035
-578.777	-76.448	-0.241	-0.086
-577.763	-95.384	-0.053	-0.014
-576.748	-34.604	-0.059	0.033
-575.733	-200.000	0.007	0.189
-574.719	182.578	-0.109	0.163
-573.704	-200.000	-0.060	0.307
-572.690	-52.158	0.214	0.101
-571.675	387.333	-0.013	0.027
-570.661	-200.000	-0.046	-0.218
-569.646	-98.744	-0.321	-0.083
-568.631	43.530	0.145	-0.134
-567.617	4.489	-0.108	-0.081
-566.602	414.618	0.045	0.097
-565.588	482.671	-0.159	-0.367
-564.573	-180.071	0.112	-0.002
-563.558	-124.784	-0.114	-0.018
-562.544	-31.000	-0.112	0.064
-561.529	-84.788	-0.439	0.140
-560.515	-39.000	0.414	0.221
-559.500	629.156	-0.084	-0.217
-558.485	601.816	0.052	-0.132
-557.471	800.000	-0.071	-0.293
-556.456	-27.857	-0.168	-0.099
-555.442	6.564	-0.227	-0.171
-554.427	-27.950	0.287	0.168
-553.412	-120.539	0.103	-0.018
-552.398	-36.953	0.115	-0.063
-551.383	-152.855	-0.313	-0.022
-550.369	-109.586	0.366	-0.078
-549.354	-200.000	0.009	0.089
-548.339	116.580	0.099	0.123
-547.325	129.673	-0.297	0.385
-546.310	-82.454	0.268	-0.088
-545.296	-90.605	0.325	-0.095
-544.281	-165.573	0.176	-0.008
-543.266	-53.636	0.111	0.051
-542.252	800.000	-0.070	0.262
-541.237	-96.300	-0.325	-0.087
-540.223	-97.891	-0.127	-0.033
-539.208	339.688	0.113	0.223
-538.193	-200.000	-0.018	-0.187
-537.179	84.325	0.008	-0.009
-536.164	-200.000	0.019	-0.603
-535.150	-21.685	-0.203	-0.125
-534.135	47.765	0.189	0.179
-533.121	-200.000	0.011	0.216
-532.106	-58.465	-0.190	-0.083
-531.091	611.760	0.069	-0.174
-530.077	-200.000	-0.071	-0.323
-529.062	-37.966	0.128	0.069
-528.048	131.560	-0.155	0.202
-527.033	-113.946	0.189	0.037
-526.018	22.494	-0.188	0.156
-525.004	-123.674	-0.328	-0.053
-523.989	-154.191	0.231	0.016
-522.975	394.368	-0.133	-0.281
-521.960	800.000	0.044	0.140
-520.945	35.851	0.156	0.139
-519.931	28.855	-0.113	-0.097
-518.916	8.521	-0.174	-0.133
-517.902	800.000	0.038	-0.149
-516.887	-120.748	-0.329	0.056
-515.872	-62.453	-0.082	-0.034
-514.858	269.021	0.250	-0.444
-513.843	201.075	0.078	-0.122
-512.829	620.252	0.037	0.093
-511.814	-100.265	0.086	0.022
-510.799	-200.000	0.002	-0.127
-509.785	-111.573	0.167	0.034
-508.770	-17.274	0.276	0.176
-507.756	134.134	-0.110	0.145
-506.741	236.355	0.078	0.131
-505.726	-49.285	0.072	-0.035
-504.712	-87.207	-0.207	0.064
-503.697	800.000	-0.052	0.180
-502.683	-200.000	-0.054	-0.247
-501.668	196.715	0.208	0.321
-500.653	-50.471	0.221	0.106
-499.639	37.177	-0.226	0.202
-498.624	-155.617	0.181	0.012
-497.610	-94.305	-0.124	-0.034
-496.595	800.000	0.021	0.068
-495.581	132.248	-0.014	-0.018
-494.566	-44.509	-0.237	-0.120
-493.551	119.795	-0.145	0.182
-492.537	-81.807	-0.053	0.018
-491.522	-93.164	0.256	-0.072
-490.508	-79.873	-0.144	0.049
-489.493	-52.463	-0.030	0.014
-488.478	-46.378	0.215	-0.107
-487.464	16.209	-0.138	-0.110
-486.449	-200.000	0.005	0.034
-485.435	-129.103	0.314	-0.044
-484.420	-23.532	0.057	-0.035
-483.405	-200.000	0.013	0.153
-482.391	-133.157	0.137	0.018
-481.376	-82.605	-0.275	-0.090
-480.362	-90.114	0.385	0.113
-479.347	-51.602	-0.266	-0.126
-478.332	296.658	0.054	0.100
-477.318	-37.986	-0.050	0.027
-476.303	10.374	0.039	0.030
-475.289	800.000	-0.070	-0.242
-474.274	800.000	-0.080	-0.265
-473.259	-60.068	0.139	0.060
-472.245	-108.340	-0.112	0.025
-471.230	75.926	0.164	-0.176
-470.216	474.850	0.106	-0.243
-469.201	-200.000	-0.088	0.391
-468.186	-25.227	0.241	0.144
-467.172	-98.210	-0.224	0.058
-466.157	107.071	0.086	-0.104
-465.143	-157.837	-0.279	0.017
-464.128	-200.000	-0.010	0.181
-463.113	237.957	-0.166	-0.278
-462.099	-44.026	-0.243	-0.123
-461.084	143.616	-0.005	0.006
-460.070	-28.214	-0.057	0.033
-459.055	-150.664	-0.304	0.023
-458.040	795.936	0.078	0.218
-457.026	-121.817	-0.243	0.041
-456.011	-200.000	0.026	0.165
-454.997	-200.000	0.060	-0.308
-453.982	800.000	-0.046	0.127
-452.968	704.716	-0.220	-0.586
-451.953	31.888	0.390	-0.339
-450.938	94.392	0.126	0.144
-449.924	54.909	0.019	0.018
-448.909	-140.296	0.129	0.014
-447.895	143.598	-0.036	-0.049
-446.880	-200.000	0.059	-0.371
-445.865	-107.947	-0.156	0.034
-444.851	10.638	-0.264	0.203
-443.836	800.000	-0.048	0.198
-442.822	-19.337	-0.240	0.151
-441.807	227.781	0.128	-0.210
-440.792	183.647	0.043	0.065
-439.778	81.602	-0.159	0.174
-438.763	-200.000	-0.056	0.262
-437.749	130.317	0.202	0.261
-436.734	119.511	0.060	-0.075
-435.719	800.000	0.068	-0.206
-434.705	42.169	-0.187	0.171
-433.690	800.000	0.033	-0.123
-432.676	67.892	0.221	0.228
-431.661	-200.000	-0.047	0.210
-430.646	-34.461	-0.046	0.025
-429.632	-200.000	0.015	-0.165
-428.617	-54.920	-0.061	0.028
-427.603	166.142	0.263	-0.376
-426.588	-67.539	0.144	0.057
-425.573	107.450	-0.270	-0.325
-424.559	75.297	-0.282	-0.300
-423.544	377.904	-0.165	-0.341
-422.530	1.279	-0.242	-0.176
-421.515	623.671	-0.071	0.181
-420.500	-104.769	-0.148	0.034
-419.486	-10.542	-0.021	0.014
-418.471	308.448	-0.039	-0.074
-417.457	-52.687	0.105	-0.049
-416.442	476.727	-0.038	-0.086
-415.428	-136.686	0.263	0.031
-414.413	-87.546	-0.202	-0.062
-413.398	-26.926	-0.097	-0.057
-412.384	213.828	-0.133	0.212
-411.369	-76.389	-0.186	-0.066
-410.355	-12.398	0.164	-0.108
-409.340	84.328	-0.079	0.088
-408.325	2.569	-0.276	-0.202
-407.311	406.778	0.057	0.122
-406.296	64.565	0.118	0.120
-405.282	-200.000	-0.029	0.301
-404.267	-200.000	0.018	0.186
-403.252	-20.339	0.165	-0.102
-402.238	-26.127	-0.072	0.043
-401.223	-117.556	-0.144	0.026
-400.209	800.000	-0.010	-0.032
-399.194	108.795	-0.227	0.274
-398.179	71.329	0.223	0.233
-397.165	-200.000	-0.037	0.299
-396.150	-200.000	0.030	0.134
-395.136	377.753	0.069	0.142
-394.121	-13.199	0.053	0.035
-393.106	8.489	-0.051	0.039
-392.092	-66.617	-0.221	-0.088
-391.077	614.393	0.062	0.157
-390.063	312.472	0.128	-0.242
-389.048	77.535	0.153	-0.164
-388.033	101.844	-0.116	-0.137
-387.019	-76.026	-0.363	-0.129
-386.004	-137.621	0.094	0.011
-384.990	201.079	-0.076	0.117
-383.975	-200.000	0.008	0.110
-382.960	76.375	-0.174	-0.186
-381.946	29.527	-0.128	0.110
-380.931	-200.000	-0.032	0.246
-379.917	102.528	0.282	0.332
-378.902	800.000	-0.016	0.051
-377.888	-101.795	-0.342	0.083
-376.873	141.463	-0.139	-0.186
-375.858	217.289	0.277	0.444
-374.844	-53.806	-0.411	0.189
-373.829	-6.366	0.055	-0.038
-372.815	-200.000	0.001	-0.044
-371.800	-11.916	0.293	-0.193
-370.785	-61.475	0.169	-0.071
-369.771	-124.325	-0.279	-0.044
-368.756	59.886	-0.105	0.105
-367.742	-90.076	0.379	0.111
-366.727	-56.601	-0.250	0.111
-365.712	-39.283	0.150	-0.079
-364.698	-200.000	-0.308	0.000
-363.683	-200.000	0.024	-0.281
-362.669	-200.000	-0.069	0.358
-361.654	14.548	-0.154	0.121
-360.639	-81.669	-0.153	0.050
-359.625	7.725	0.247	-0.186
-358.610	800.000	0.037	0.132
-357.596	-122.281	0.055	0.009
-356.581	-94.159	-0.155	-0.043
-355.566	-158.713	-0.193	-0.011
-354.552	-54.188	0.149	-0.068
-353.537	-83.200	-0.200	-0.065
-352.523	130.293	0.097	0.125
-351.508	-200.000	-0.018	-0.147
-350.493	68.349	0.314	-0.324
-349.479	185.579	-0.057	-0.086
-348.464	294.269	-0.083	0.153
-347.450	77.947	0.168	-0.181
-346.435	103.675	-0.243	0.287
-345.420	-200.000	-0.034	0.281
-344.406	2.129	-0.195	0.142
-343.391	-200.000	0.008	0.215
-342.377	386.004	0.086	-0.179
-341.362	-200.000	0.029	-0.337
-340.348	-200.000	-0.322	0.001
-339.333	12.949	-0.161	0.126
-338.318	-145.897	-0.115	0.010
-337.304	253.288	0.095	0.163
-336.289	106.285	0.212	0.252
-335.275	104.507	-0.138	-0.164
-334.260	800.000	0.069	0.251
-333.245	-14.734	-0.186	-0.120
-332.231	-68.946	-0.226	0.088
-331.216	-63.469	-0.167	0.069
-330.202	94.306	0.205	-0.234
-329.187	-157.374	-0.497	-0.030
-328.172	-64.008	-0.347	0.142
-327.158	-42.625	0.182	0.093
-326.143	377.086	-0.107	0.219
-325.129	3.770	-0.110	0.081
-324.114	140.107	-0.182	-0.241
-323.099	-41.120	-0.152	-0.079
-322.085	-127.020	-0.204	0.030
-321.070	341.227	-0.124	0.244
-320.056	-32.017	0.114	0.064
-319.041	464.558	-0.038	0.086
-318.026	120.188	0.105	-0.131
-317.012	-12.544	-0.172	-0.113
-315.997	-75.801	0.400	-0.143
-314.983	45.174	-0.275	0.255
-313.968	-10.339	0.134	-0.089
-312.953	-125.242	0.258	-0.040
-311.939	78.260	0.114	-0.122
-310.924	12.380	0.118	-0.091
-309.910	800.000	0.168	-0.638
-308.895	-77.624	0.047	0.016
-307.880	-28.547	-0.105	-0.061
-306.866	428.150	-0.070	-0.152
-305.851	584.130	0.064	-0.157
-304.837	24.542	-0.260	0.216
-303.822	-83.738	0.050	-0.016
-302.807	-200.000	0.021	-0.113
-301.793	63.721	-0.186	0.187
-300.778	80.233	0.031	-0.033
-299.764	-115.850	0.068	-0.013
-298.749	-200.000	0.016	0.213
-297.735	-99.566	0.434	0.109
-296.720	-200.000	0.000	-0.254
-295.705	-200.000	-0.022	-0.145
-294.691	26.094	-0.116	0.097
-293.676	-116.064	0.253	-0.047
-292.662	-63.023	0.144	0.060
-291.647	78.965	0.190	-0.204
-290.632	-21.069	-0.281	0.172
-289.618	-146.639	0.156	0.014
-288.603	-200.000	0.008	-0.057
-287.589	800.000	0.113	-0.316
-286.574	-99.668	-0.135	0.034
-285.559	347.682	0.157	-0.311
-284.545	-106.460	0.222	-0.050
-283.530	-86.958	-0.163	0.050
-282.516	-115.400	-0.178	-0.034
-281.501	-83.243	-0.226	0.073
-280.486	89.241	0.275	0.308
-279.472	104.446	0.246	0.290
-278.457	110.418	-0.160	0.193
-277.443	178.802	-0.098	-0.144
-276.428	-99.212	0.448	-0.114
-275.413	-94.209	0.046	0.013
-274.399	84.513	0.247	0.272
-273.384	-92.622	-0.354	-0.100
-272.370	-200.000	0.036	0.208
-271.355	66.318	0.163	-0.166
-270.340	188.405	0.114	0.170
-269.326	-114.558	0.044	0.008
-268.311	-200.000	-0.020	0.351
-267.297	-200.000	-0.019	0.297
-266.282	-43.366	-0.188	0.096
-265.267	-77.999	0.144	0.050
-264.253	-52.087	0.106	-0.049
-263.238	36.182	0.054	0.047
-262.224	324.987	0.152	0.291
-261.209	-88.054	-0.192	-0.058
-260.195	401.532	-0.058	0.123
-259.180	-200.000	0.017	-0.144
-258.165	561.097	0.131	0.318
-257.151	-57.312	0.203	-0.089
-256.136	133.379	0.085	-0.111
-255.122	98.748	-0.111	0.128
-254.107	-95.983	0.194	-0.052
-253.092	84.911	0.048	-0.053
-252.078	-18.947	-0.224	0.139
-251.063	-116.894	0.398	0.073
-250.049	109.022	0.100	-0.120
-249.034	39.331	-0.045	0.040
-248.019	-156.780	0.224	-0.014
-247.005	122.963	0.094	-0.117
-245.990	-200.000	0.068	-0.354
-244.976	-88.319	0.216	0.065
-243.961	-118.494	-0.039	-0.007
-242.946	94.586	-0.043	0.049
-241.932	147.208	0.175	-0.236
-240.917	227.276	0.123	-0.201
-239.903	-143.983	0.295	-0.028
-238.888	-115.380	0.241	0.046
-237.873	208.051	0.091	0.142
-236.859	-103.841	0.098	0.023
-235.844	-89.073	-0.314	0.093
-234.830	110.801	-0.155	-0.187
-233.815	195.273	0.079	0.120
-232.800	-200.000	0.009	0.242
-231.786	-31.951	0.178	-0.100
-230.771	800.000	-0.060	0.189
-229.757	-200.000	-0.009	-0.220
-228.742	601.913	-0.101	-0.252
-227.727	156.243	0.174	0.241
-226.713	-200.000	0.003	-0.130
-225.698	-127.393	0.259	0.038
-224.684	-37.816	-0.112	0.060
-223.669	-200.000	0.014	-0.086
-222.655	66.520	0.090	-0.092
-221.640	-8.312	0.389	0.262
-220.625	-132.925	0.262	-0.033
-219.611	800.000	-0.005	-0.014
-218.596	-200.000	0.020	-0.221
-217.582	165.867	-0.103	-0.146
-216.567	-200.000	0.074	-0.401
-215.552	800.000	0.015	-0.045
-214.538	225.655	0.143	0.232
-213.523	-50.133	-0.114	-0.054
-212.509	262.041	0.073	-0.127
-211.494	-200.000	-0.021	0.238
-210.479	414.907	-0.101	0.215
-209.465	85.634	-0.196	-0.215
-208.450	-200.000	-0.016	0.071
-207.436	-132.896	0.447	0.057
-206.421	-31.668	0.174	-0.097
-205.406	-44.988	0.364	0.181
-204.392	800.000	0.152	0.440
-203.377	-11.949	0.171	-0.112
-202.363	800.000	0.064	0.254
-201.348	-124.747	0.037	0.006
-200.333	-92.787	0.170	0.048
-199.319	800.000	-0.108	0.322
-198.304	-200.000	-0.018	0.088
-197.290	-29.656	-0.094	-0.054
-196.275	-103.385	-0.058	0.014
-195.260	437.119	0.094	-0.204
-194.246	79.369	0.043	-0.046
-193.231	574.292	0.067	-0.163
-192.217	33.534	0.093	0.081
-191.202	-128.355	0.208	0.030
-190.187	800.000	-0.068	0.191
-189.173	-200.000	0.071	0.366
-188.158	-95.599	0.165	-0.044
-187.144	17.231	-0.364	-0.289
-186.129	-76.562	-0.204	-0.072
-185.114	52.591	-0.290	-0.277
-184.100	-122.750	0.245	-0.040
-183.085	-39.243	-0.263	-0.138
-182.071	800.000	-0.127	0.400
-181.056	-200.000	-0.019	-0.087
-180.042	542.185	-0.037	-0.089
-179.027	-121.093	-0.106	-0.018
-178.012	63.880	-0.130	0.130
-176.998	-200.000	-0.015	-0.072
-175.983	16.831	0.156	-0.124
-174.969	76.960	-0.200	-0.212
-173.954	-104.081	0.232	0.054
-172.939	-65.177	0.189	-0.076
-171.925	687.747	0.053	0.139
-170.910	181.732	0.023	-0.034
-169.896	800.000	-0.037	-0.159
-168.881	14.376	-0.304	0.237
-167.866	-101.307	0.362	0.088
-166.852	-114.144	-0.215	0.042
-165.837	659.218	-0.073	-0.188
-164.823	-6.808	-0.287	-0.195
-163.808	-108.047	-0.353	0.076
-162.793	800.000	-0.091	-0.269
-161.779	2.870	-0.072	-0.052
-160.764	-16.163	0.064	-0.041
-159.750	152.424	0.203	0.277
-158.735	-134.089	-0.098	0.012
-157.720	790.790	0.102	0.280
-156.706	297.896	-0.039	0.071
-155.691	119.430	0.154	0.191
-154.677	800.000	0.094	-0.268
-153.662	51.843	0.135	-0.128
-152.647	-177.065	-0.070	0.002
-151.633	-79.467	0.186	0.063
-150.618	-148.476	0.188	0.015
-149.604	18.318	0.257	0.205
-148.589	40.281	0.171	0.154
-147.574	-31.041	-0.480	0.270
-146.560	38.838	0.140	0.125
-145.545	-68.283	-0.300	0.117
-144.531	-200.000	-0.014	0.119
-143.516	23.663	0.095	0.078
-142.502	175.721	0.171	-0.247
-141.487	277.301	0.210	0.374
-140.472	-59.753	-0.022	0.010
-139.458	-108.060	-0.078	-0.017
-138.443	-200.000	-0.017	0.078
-137.429	-41.725	-0.257	-0.131
-136.414	168.115	-0.191	-0.272
-135.399	800.000	-0.083	-0.262
-134.385	102.291	0.261	-0.304
-133.370	-60.968	-0.184	-0.078
-132.356	-39.293	0.452	-0.237
-131.341	800.000	0.087	-0.323
-130.326	800.000	-0.100	0.338
-129.312	101.880	0.172	-0.201
-128.297	800.000	-0.062	-0.191
-127.283	-16.432	-0.173	0.109
-126.268	-40.096	0.164	-0.085
-125.253	6.038	0.528	-0.390
-124.239	693.500	0.045	-0.117
-123.224	43.880	-0.185	-0.169
-122.210	118.051	-0.044	-0.054
-121.195	800.000	-0.029	0.112
