DTS Sentinel unit serial number:	SN413079Multiplexer serial number:	ORYXHardware model number:	OX4-SRSoftware version number:	ORYX F/W v4.00 Oryx Data Collector v3.7.2.0data status	okinstallation	princeton_trtdifferential loss correction	single-endedforward channel	channel 4reverse channel	N/Adate	2019/09/11time	02:43:11forward acquisition time	60.00reverse acquisition time	0.00gamma	496.2192k internal	0.2317k external	0.2317temperature offset calibration	0.9947default loss term (dB/km)	0.3790temperature slope calibration	1.0000multiplexer offset coefficient	1.0000multiplexer slope coefficient	1.0000fibre end	0.00T internal ref (°C)	29.25T ext. ref 1 (°C)	-0.30T ext. ref 2 (°C)	23.17length (m)	temperature (°C)	Stokes	anti-Stokes-747.200	-200.000	-0.060	0.287
-746.185	800.000	-0.067	0.232
-745.171	170.406	-0.132	-0.191
-744.156	-164.242	-0.330	0.015
-743.142	-62.756	-0.219	0.092
-742.127	-40.068	-0.334	0.176
-741.112	-167.901	0.260	-0.010
-740.098	800.000	-0.039	0.157
-739.083	300.416	0.089	-0.167
-738.069	154.625	-0.184	0.256
-737.054	-200.000	0.004	-0.088
-736.039	-200.000	0.010	-0.269
-735.025	-200.000	0.013	0.193
-734.010	-54.039	-0.142	-0.065
-732.996	-200.000	0.115	-0.515
-731.981	223.470	0.108	-0.176
-730.966	-200.000	-0.014	-0.076
-729.952	-200.000	0.007	-0.084
-728.937	-57.263	-0.372	-0.166
-727.923	-169.578	-0.142	-0.005
-726.908	441.631	-0.076	-0.168
-725.894	-55.269	-0.203	-0.092
-724.879	-200.000	0.026	0.168
-723.864	-200.000	-0.007	-0.142
-722.850	800.000	-0.032	-0.129
-721.835	37.682	-0.151	0.136
-720.821	122.388	0.178	0.225
-719.806	-200.000	0.186	0.000
-718.791	555.323	-0.070	-0.170
-717.777	-76.014	0.284	0.102
-716.762	112.019	-0.011	0.014
-715.748	-32.181	0.040	-0.023
-714.733	339.038	0.085	-0.167
-713.718	-104.916	-0.218	0.051
-712.704	-200.000	-0.011	-0.133
-711.689	-156.826	0.395	0.025
-710.675	-57.754	-0.036	0.016
-709.660	250.671	-0.154	-0.264
-708.645	411.399	-0.112	-0.241
-707.631	543.484	-0.022	0.053
-706.616	-74.662	-0.172	0.063
-705.602	-95.819	-0.232	-0.063
-704.587	109.664	0.069	0.084
-703.572	40.837	0.208	-0.190
-702.558	-54.365	-0.450	-0.206
-701.543	-152.757	-0.250	-0.018
-700.529	-200.000	0.015	-0.358
-699.514	-135.569	0.140	-0.017
-698.499	-12.853	0.258	0.170
-697.485	800.000	0.068	0.246
-696.470	48.155	-0.141	0.133
-695.456	281.925	-0.073	-0.133
-694.441	182.014	-0.208	0.310
-693.426	-68.230	0.227	-0.089
-692.412	16.582	-0.134	0.107
-691.397	236.083	0.038	-0.064
-690.383	-61.483	0.183	-0.078
-689.368	69.434	0.275	-0.286
-688.354	-8.100	-0.190	0.129
-687.339	-125.732	0.101	0.015
-686.324	800.000	0.189	-0.551
-685.310	148.720	-0.135	0.185
-684.295	334.470	-0.125	-0.245
-683.281	-200.000	0.012	0.164
-682.266	-200.000	0.002	0.255
-681.251	-48.993	-0.024	0.012
-680.237	-171.630	-0.419	0.014
-679.222	49.551	0.063	-0.060
-678.208	4.892	0.240	-0.178
-677.193	-132.461	0.251	0.033
-676.178	686.000	-0.122	-0.321
-675.164	347.477	0.197	-0.392
-674.149	53.121	-0.080	-0.077
-673.135	-33.671	-0.240	-0.134
-672.120	-142.986	-0.382	-0.037
-671.105	114.157	0.118	-0.144
-670.091	32.517	-0.194	-0.169
-669.076	800.000	-0.099	-0.292
-668.062	242.519	-0.205	0.347
-667.047	-34.307	-0.225	0.125
-666.032	-177.553	-0.413	-0.010
-665.018	11.601	-0.114	-0.088
-664.003	12.074	-0.219	-0.170
-662.989	-173.380	-0.117	-0.004
-661.974	11.560	-0.311	-0.240
-660.959	-200.000	0.013	0.171
-659.945	-57.322	0.223	0.099
-658.930	-39.998	0.252	-0.133
-657.916	-108.156	-0.255	-0.056
-656.901	-112.296	-0.231	0.047
-655.886	800.000	-0.013	-0.041
-654.872	3.983	-0.053	0.039
-653.857	-140.428	-0.205	-0.022
-652.843	-200.000	-0.007	0.192
-651.828	-148.660	-0.712	0.058
-650.814	-200.000	-0.045	-0.222
-649.799	52.606	-0.151	0.145
-648.784	-115.076	-0.107	0.021
-647.770	-113.877	0.112	-0.022
-646.755	-89.794	0.390	0.115
-645.741	800.000	0.125	0.389
-644.726	-62.221	-0.075	-0.031
-643.711	-105.008	-0.402	0.093
-642.697	-30.307	0.131	-0.075
-641.682	40.869	-0.109	0.099
-640.668	145.541	0.204	-0.276
-639.653	128.429	-0.129	-0.166
-638.638	317.166	-0.096	0.183
-637.624	-200.000	-0.051	-0.340
-636.609	445.702	-0.038	0.084
-635.595	-78.338	0.203	0.070
-634.580	367.534	0.068	0.139
-633.565	-107.105	-0.204	-0.045
-632.551	173.732	0.090	-0.131
-631.536	-2.914	-0.145	-0.102
-630.522	-83.694	-0.202	-0.065
-629.507	-200.000	-0.006	-0.170
-628.492	81.610	0.133	-0.145
-627.478	-168.922	-0.156	-0.006
-626.463	225.678	0.072	0.118
-625.449	107.016	0.108	0.129
-624.434	134.871	0.209	-0.273
-623.419	431.448	0.136	-0.297
-622.405	-39.291	-0.104	0.055
-621.390	-175.996	-0.281	-0.008
-620.376	156.418	-0.130	-0.180
-619.361	-200.000	-0.001	0.087
-618.346	137.913	0.203	-0.268
-617.332	798.672	-0.105	0.292
-616.317	23.573	-0.215	-0.178
-615.303	-88.075	0.296	0.090
-614.288	-200.000	-0.031	0.182
-613.273	287.379	0.119	0.216
-612.259	1.570	0.197	-0.143
-611.244	139.529	-0.208	0.276
-610.230	57.943	0.077	0.076
-609.215	-59.822	0.096	0.042
-608.201	117.237	0.051	-0.063
-607.186	759.654	0.152	0.415
-606.171	800.000	-0.050	0.163
-605.157	-200.000	-0.019	0.119
-604.142	-36.198	0.178	-0.097
-603.128	-107.898	0.220	0.048
-602.113	-25.077	-0.211	-0.126
-601.098	-33.279	-0.111	-0.062
-600.084	48.551	0.134	0.127
-599.069	800.000	-0.086	0.328
-598.055	-49.427	-0.161	0.077
-597.040	-200.000	0.007	-0.043
-596.025	185.107	0.100	0.149
-595.011	22.576	0.094	0.078
-593.996	129.806	-0.159	-0.205
-592.982	16.135	-0.089	-0.071
-591.967	-166.190	-0.187	0.008
-590.952	-97.472	-0.118	-0.031
-589.938	-112.096	0.110	-0.022
-588.923	573.117	0.138	-0.339
-587.909	-59.446	-0.187	-0.081
-586.894	800.000	-0.023	0.095
-585.879	-200.000	-0.016	0.150
-584.865	237.314	-0.108	-0.180
-583.850	-200.000	0.008	-0.194
-582.836	-200.000	-0.017	-0.096
-581.821	91.468	-0.260	-0.294
-580.806	459.845	0.106	-0.237
-579.792	322.533	0.089	0.171
-578.777	0.423	0.267	0.192
-577.763	-95.413	0.444	0.120
-576.748	-200.000	0.063	0.361
-575.733	-115.141	-0.190	0.036
-574.719	104.972	0.033	-0.039
-573.704	179.094	0.157	0.231
-572.690	-200.000	-0.012	-0.130
-571.675	349.945	-0.052	-0.103
-570.661	711.913	0.107	0.285
-569.646	33.656	0.091	-0.079
-568.631	-93.259	-0.410	0.114
-567.617	-127.785	-0.211	-0.031
-566.602	40.545	-0.170	0.154
-565.588	-118.726	0.290	-0.051
-564.573	71.638	-0.039	0.041
-563.558	-39.266	0.142	0.075
-562.544	-200.000	-0.010	0.216
-561.529	-121.858	0.101	-0.017
-560.515	20.679	-0.174	-0.142
-559.500	-15.821	-0.231	0.148
-558.485	-200.000	0.042	-0.325
-557.471	-200.000	-0.029	-0.615
-556.456	-13.367	-0.061	0.040
-555.442	116.763	-0.030	-0.037
-554.427	7.846	-0.141	0.106
-553.412	800.000	-0.054	-0.152
-552.398	-107.852	0.047	-0.010
-551.383	340.603	-0.029	-0.057
-550.369	355.282	-0.059	-0.117
-549.354	-81.771	0.157	0.052
-548.339	-97.273	0.093	-0.024
-547.325	767.194	0.155	0.424
-546.310	747.849	0.030	0.081
-545.296	-71.563	-0.144	0.054
-544.281	-111.521	0.117	-0.024
-543.266	180.406	-0.113	0.167
-542.252	-200.000	-0.019	0.453
-541.237	-95.688	0.306	-0.082
-540.223	-200.000	-0.007	-0.184
-539.208	248.385	-0.077	0.131
-538.193	-58.931	-0.178	0.077
-537.179	-77.399	0.426	0.149
-536.164	-200.000	-0.007	0.203
-535.150	-73.765	-0.352	0.129
-534.135	-74.193	-0.151	-0.055
-533.121	-45.611	-0.224	0.111
-532.106	-135.197	-0.252	-0.030
-531.091	68.699	-0.104	-0.108
-530.077	-8.115	0.274	0.185
-529.062	-51.320	0.232	-0.109
-528.048	-200.000	-0.025	0.334
-527.033	198.026	-0.123	0.189
-526.018	127.245	0.139	-0.177
-525.004	753.212	-0.086	-0.232
-523.989	-79.325	-0.108	-0.037
-522.975	-65.419	0.153	-0.062
-521.960	208.002	0.281	-0.440
-520.945	318.686	0.167	-0.317
-519.931	82.570	0.324	-0.353
-518.916	-110.652	-0.243	-0.050
-517.902	-40.572	0.247	-0.129
-516.887	15.080	-0.082	-0.064
-515.872	409.796	-0.070	-0.149
-514.858	-200.000	-0.030	-0.147
-513.843	105.119	0.097	-0.115
-512.829	-200.000	0.025	0.111
-511.814	152.223	-0.260	-0.356
-510.799	-131.963	-0.268	-0.035
-509.785	800.000	-0.142	0.529
-508.770	70.980	0.153	0.159
-507.756	-135.761	-0.384	0.046
-506.741	-127.407	0.173	-0.025
-505.726	-18.435	-0.102	0.064
-504.712	-200.000	0.030	0.325
-503.697	800.000	-0.017	-0.059
-502.683	-200.000	0.044	0.257
-501.668	113.445	-0.140	-0.170
-500.653	-123.153	0.273	0.044
-499.639	-128.343	-0.200	-0.029
-498.624	107.148	0.183	0.218
-497.610	-25.765	0.037	-0.022
-496.595	205.571	-0.023	0.036
-495.581	86.108	-0.300	0.331
-494.566	-200.000	0.041	0.524
-493.551	-200.000	-0.007	-0.355
-492.537	293.872	0.204	-0.374
-491.522	-3.523	0.315	-0.219
-490.508	-200.000	-0.001	-0.212
-489.493	725.150	-0.063	-0.169
-488.478	108.707	0.010	0.011
-487.464	-56.238	-0.296	-0.132
-486.449	-49.574	-0.164	0.078
-485.435	-97.412	0.158	0.041
-484.420	744.738	0.078	-0.211
-483.405	127.342	-0.021	0.027
-482.391	210.863	-0.033	0.053
-481.376	-131.780	-0.181	0.024
-480.362	-200.000	0.011	0.163
-479.347	800.000	-0.049	-0.135
-478.332	-200.000	-0.003	0.403
-477.318	800.000	-0.060	-0.262
-476.303	-167.883	0.298	-0.012
-475.289	-12.886	0.249	0.162
-474.274	8.042	-0.234	-0.176
-473.259	-24.496	0.157	-0.094
-472.245	143.866	0.230	-0.308
-471.230	21.995	-0.233	-0.190
-470.216	-59.509	-0.173	0.075
-469.201	-150.664	0.164	0.013
-468.186	-28.733	-0.097	0.056
-467.172	-121.496	-0.166	0.028
-466.157	800.000	0.078	-0.238
-465.143	134.303	0.082	0.107
-464.128	69.948	-0.237	0.245
-463.113	-200.000	0.018	0.156
-462.099	-200.000	0.039	0.248
-461.084	-200.000	-0.002	0.189
-460.070	141.633	0.115	-0.153
-459.055	800.000	-0.053	-0.197
-458.040	-200.000	0.026	0.330
-457.026	-132.945	0.329	-0.042
-456.011	-78.945	-0.266	-0.091
-454.997	95.048	0.231	0.264
-453.982	-139.211	-0.262	0.028
-452.968	-116.262	0.112	0.021
-451.953	100.390	-0.193	-0.224
-450.938	800.000	0.125	-0.401
-449.924	234.795	-0.053	0.088
-448.909	85.829	0.233	0.256
-447.895	450.897	0.123	0.271
-446.880	114.793	-0.099	0.121
-445.865	-171.701	0.184	0.006
-444.851	-73.430	-0.110	-0.040
-443.836	-154.412	0.133	-0.009
-442.822	-59.326	0.167	-0.072
-441.807	174.426	0.050	-0.072
-440.792	-100.293	-0.089	-0.022
-439.778	-200.000	0.010	-0.402
-438.763	149.779	-0.286	-0.387
-437.749	42.495	0.159	0.144
-436.734	-144.955	-0.301	-0.028
-435.719	-161.339	-0.114	0.006
-434.705	53.224	-0.187	-0.179
-433.690	793.407	-0.044	0.120
-432.676	-200.000	0.012	0.491
-431.661	-200.000	-0.004	-0.444
-430.646	-200.000	0.001	-0.145
-429.632	-148.384	0.350	0.029
-428.617	243.964	0.114	-0.191
-427.603	-110.828	0.314	-0.065
-426.588	167.137	-0.116	-0.165
-425.573	-91.739	0.081	0.023
-424.559	188.487	-0.048	0.071
-423.544	18.149	0.122	-0.097
-422.530	1.450	0.047	-0.034
-421.515	-200.000	0.011	0.263
-420.500	800.000	-0.031	-0.107
-419.486	235.731	0.138	0.228
-418.471	720.294	-0.026	-0.068
-417.457	-52.040	0.163	-0.076
-416.442	-73.649	-0.247	-0.090
-415.428	22.997	0.130	-0.106
-414.413	690.079	-0.122	-0.318
-413.398	-153.648	0.546	0.038
-412.384	5.196	-0.167	0.123
-411.369	-200.000	0.031	-0.285
-410.355	-126.070	0.084	-0.013
-409.340	4.180	-0.208	-0.152
-408.325	43.371	-0.243	-0.222
-407.311	239.288	0.214	-0.355
-406.296	325.834	0.125	0.240
-405.282	113.304	-0.051	-0.061
-404.267	-200.000	0.013	-0.138
-403.252	-117.677	-0.165	-0.030
-402.238	800.000	0.105	0.402
-401.223	110.005	-0.230	-0.276
-400.209	800.000	-0.046	0.185
-399.194	50.323	0.161	-0.152
-398.179	800.000	-0.042	-0.140
-397.165	800.000	-0.129	0.482
-396.150	-200.000	0.009	-0.108
-395.136	-63.184	-0.250	-0.103
-394.121	-200.000	-0.014	-0.204
-393.106	-40.016	0.198	-0.103
-392.092	753.019	-0.018	-0.049
-391.077	-78.290	-0.577	0.198
-390.063	-104.850	-0.097	-0.022
-389.048	-95.812	-0.126	0.034
-388.033	-108.347	0.309	-0.067
-387.019	-21.946	-0.068	-0.041
-386.004	590.781	0.100	-0.245
-384.990	-200.000	0.016	-0.134
-383.975	-105.545	0.101	-0.023
-382.960	-87.820	-0.264	0.079
-381.946	473.111	-0.095	0.214
-380.931	-5.827	-0.218	0.149
-379.917	10.101	-0.138	0.104
-378.902	-115.267	-0.076	-0.014
-377.888	-33.846	-0.192	-0.105
-376.873	-108.025	-0.131	-0.028
-375.858	-190.042	0.075	-0.001
-374.844	-170.462	0.250	0.009
-373.829	20.634	-0.139	-0.112
-372.815	312.958	0.210	-0.393
-371.800	-200.000	0.006	-0.116
-370.785	-94.904	0.046	0.012
-369.771	112.081	0.091	0.109
-368.756	800.000	-0.075	-0.266
-367.742	-19.871	-0.207	0.127
-366.727	-68.797	0.246	0.095
-365.712	54.831	0.182	-0.175
-364.698	800.000	-0.070	-0.217
-363.683	134.526	0.177	0.230
-362.669	281.949	0.034	0.060
-361.654	-200.000	0.007	0.073
-360.639	63.862	-0.185	0.185
-359.625	159.054	0.155	0.215
-358.610	-38.761	-0.195	-0.103
-357.596	-200.000	-0.046	-0.322
-356.581	307.209	-0.159	-0.296
-355.566	-94.308	0.302	-0.082
-354.552	-200.000	0.024	0.392
-353.537	-200.000	-0.001	0.040
-352.523	-111.171	-0.382	0.078
-351.508	230.973	-0.085	-0.139
-350.493	-21.165	-0.054	-0.033
-349.479	120.431	-0.171	-0.211
-348.464	800.000	-0.088	0.331
-347.450	-200.000	-0.042	0.230
-346.435	-200.000	0.011	-0.050
-345.420	100.416	-0.201	-0.233
-344.406	127.150	-0.285	0.361
-343.391	-118.615	-0.164	0.029
-342.377	88.995	-0.055	0.061
-341.362	-200.000	-0.020	-0.534
-340.348	220.206	0.176	-0.281
-339.333	-32.281	0.340	-0.189
-338.318	-66.246	0.174	-0.069
-337.304	-13.700	0.058	0.038
-336.289	64.939	0.089	0.090
-335.275	135.754	0.106	0.138
-334.260	-200.000	-0.056	-0.350
-333.245	800.000	-0.019	0.056
-332.231	-200.000	0.013	-0.462
-331.216	126.212	0.163	-0.205
-330.202	14.956	-0.210	0.164
-329.187	413.720	0.071	-0.150
-328.172	694.350	-0.109	-0.286
-327.158	133.283	-0.114	0.147
-326.143	-82.912	-0.073	0.023
-325.129	800.000	0.063	0.240
-324.114	-200.000	0.000	0.305
-323.099	-60.667	0.312	-0.132
-322.085	240.724	-0.025	-0.042
-321.070	50.774	-0.127	-0.120
-320.056	-200.000	0.018	-0.093
-319.041	123.799	0.177	0.222
-318.026	800.000	-0.022	0.088
-317.012	280.968	-0.194	0.346
-315.997	363.654	-0.056	-0.112
-314.983	196.282	0.139	0.210
-313.968	255.645	-0.116	0.198
-312.953	286.987	0.051	-0.092
-311.939	-136.756	0.086	0.010
-310.924	-41.288	0.102	-0.052
-309.910	1.505	0.140	0.100
-308.895	-134.064	0.366	-0.045
-307.880	-118.179	-0.415	-0.074
-306.866	-29.827	-0.160	-0.091
-305.851	-13.755	-0.126	0.081
-304.837	800.000	0.067	-0.211
-303.822	78.941	0.030	-0.032
-302.807	205.241	0.067	-0.104
-301.793	-50.884	0.177	0.083
-300.778	-1.021	0.126	0.089
-299.764	-160.584	-0.240	0.013
-298.749	800.000	-0.041	-0.136
-297.735	277.067	0.076	-0.135
-296.720	16.508	-0.229	0.180
-295.705	391.419	0.098	0.203
-294.691	-109.269	0.344	-0.073
-293.676	800.000	0.090	0.309
-292.662	762.235	0.136	0.368
-291.647	-53.138	-0.305	0.139
-290.632	77.811	0.040	-0.043
-289.618	-89.429	-0.203	-0.059
-288.603	67.681	0.250	-0.254
-287.589	145.163	-0.166	0.221
-286.574	209.178	-0.151	0.235
-285.559	-89.090	-0.263	-0.077
-284.545	-45.243	0.194	-0.096
-283.530	-3.567	0.067	-0.046
-282.516	88.233	-0.076	-0.084
-281.501	-144.500	-0.446	-0.041
-280.486	10.724	-0.247	0.188
-279.472	-131.648	0.076	0.010
-278.457	415.874	-0.059	-0.125
-277.443	26.419	0.066	0.055
-276.428	182.291	0.076	0.111
-275.413	-200.000	-0.006	0.215
-274.399	723.737	0.027	-0.071
-273.384	-166.329	-0.274	-0.011
-272.370	-40.817	0.311	-0.160
-271.355	-200.000	-0.020	-0.132
-270.340	-57.040	0.042	0.018
-269.326	-95.786	0.267	0.071
-268.311	-200.000	-0.024	0.327
-267.297	-200.000	0.048	0.336
-266.282	-200.000	0.012	0.265
-265.267	-135.032	0.232	0.028
-264.253	74.668	0.164	-0.172
-263.238	800.000	-0.026	-0.113
-262.224	90.266	0.140	0.155
-261.209	99.252	-0.036	0.041
-260.195	-64.476	0.101	-0.041
-259.180	-114.289	0.315	0.060
-258.165	27.758	0.096	-0.080
-257.151	-144.767	0.451	0.041
-256.136	689.804	-0.130	-0.338
-255.122	28.307	-0.328	-0.275
-254.107	-200.000	-0.024	-0.119
-253.092	-71.732	0.099	-0.037
-252.078	67.330	0.055	0.056
-251.063	318.274	-0.109	0.205
-250.049	-112.306	0.473	0.094
-249.034	516.356	-0.068	-0.158
-248.019	800.000	0.130	-0.426
-247.005	-98.128	0.005	-0.001
-245.990	-200.000	-0.024	-0.180
-244.976	-200.000	0.035	0.331
-243.961	-200.000	-0.021	0.252
-242.946	-14.493	-0.157	-0.101
-241.932	104.977	0.146	-0.171
-240.917	46.461	0.136	-0.126
-239.903	-54.287	-0.344	-0.155
-238.888	-200.000	-0.004	-0.036
-237.873	-22.683	-0.275	-0.165
-236.859	-65.714	-0.182	-0.072
-235.844	-128.137	-0.192	-0.027
-234.830	306.680	0.148	0.273
-233.815	108.225	-0.168	0.199
-232.800	-171.827	-0.145	0.005
-231.786	-88.515	0.128	0.038
-230.771	99.109	0.129	-0.148
-229.757	-148.717	0.391	-0.032
-228.742	256.948	0.130	-0.221
-227.727	43.592	0.115	-0.104
-226.713	207.221	-0.160	0.247
-225.698	-176.893	-0.043	0.001
-224.684	-79.525	-0.192	-0.064
-223.669	1.478	-0.128	0.092
-222.655	-20.082	-0.071	0.044
-221.640	75.436	0.288	0.301
-220.625	232.968	-0.008	-0.013
-219.611	385.390	0.106	0.216
-218.596	-6.597	0.110	-0.074
-217.582	290.051	-0.133	-0.239
-216.567	800.000	-0.076	-0.254
-215.552	597.641	-0.060	-0.148
-214.538	-200.000	-0.004	-0.175
-213.523	-13.015	-0.185	0.119
-212.509	-7.452	0.219	0.147
-211.494	-200.000	0.048	-0.385
-210.479	-66.758	-0.018	-0.007
-209.465	-121.141	0.211	-0.035
-208.450	-129.825	0.168	-0.023
-207.436	279.637	-0.156	-0.276
-206.421	-14.723	0.108	-0.069
-205.406	800.000	0.064	0.256
-204.392	241.078	-0.202	-0.334
-203.377	-79.776	-0.061	0.020
-202.363	275.999	-0.131	0.231
-201.348	-81.747	-0.387	-0.126
-200.333	166.000	0.158	0.221
-199.319	46.462	0.219	0.201
-198.304	-200.000	0.011	0.205
-197.290	-46.612	-0.219	-0.107
-196.275	-65.684	0.495	-0.197
-195.260	132.585	0.183	0.234
-194.246	-200.000	0.099	-0.431
-193.231	-128.515	-0.062	-0.009
-192.217	711.731	0.136	0.357
-191.202	119.127	0.112	0.137
-190.187	800.000	0.018	0.052
-189.173	113.823	-0.213	0.257
-188.158	800.000	-0.059	-0.219
-187.144	90.376	0.165	0.183
-186.129	71.567	-0.298	0.307
-185.114	86.164	-0.292	0.319
-184.100	94.727	0.059	0.067
-183.085	-200.000	-0.003	-0.048
-182.071	230.790	0.080	0.130
-181.056	800.000	-0.074	-0.288
-180.042	85.719	0.266	-0.290
-179.027	-200.000	-0.004	0.176
-178.012	-127.473	-0.178	-0.026
-176.998	47.019	0.035	-0.032
-175.983	68.855	0.161	-0.163
-174.969	263.713	-0.102	0.176
-173.954	305.152	-0.175	0.322
-172.939	-200.000	-0.011	-0.204
-171.925	-135.938	-0.244	0.028
-170.910	-115.437	-0.177	-0.033
-169.896	167.210	0.097	0.136
-168.881	-200.000	-0.006	0.451
-167.866	800.000	0.055	0.235
-166.852	800.000	-0.032	0.105
-165.837	800.000	0.066	0.254
-164.823	800.000	-0.079	0.227
-163.808	484.287	0.066	-0.150
-162.793	-131.306	0.290	0.038
-161.779	354.908	0.078	-0.153
-160.764	-200.000	0.018	0.114
-159.750	-53.527	-0.247	-0.112
-158.735	-142.992	0.247	0.024
-157.720	-200.000	-0.090	0.573
-156.706	-200.000	-0.062	0.303
-155.691	32.576	0.145	-0.124
-154.677	-9.315	-0.225	-0.148
-153.662	11.469	-0.210	0.159
-152.647	-17.247	0.183	0.114
-151.633	215.120	0.193	-0.303
-150.618	311.314	0.058	-0.108
-149.604	-199.473	-0.051	0.000
-148.589	800.000	-0.061	-0.211
-147.574	-90.425	0.305	-0.087
-146.560	143.743	-0.056	-0.073
-145.545	-66.693	-0.110	-0.043
-144.531	-88.335	-0.305	-0.090
-143.516	-51.377	0.070	0.032
-142.502	583.997	-0.024	-0.059
-141.487	538.376	-0.046	0.108
-140.472	65.718	-0.233	0.233
-139.458	-157.970	-0.168	-0.010
-138.443	745.267	-0.078	0.207
-137.429	-200.000	0.015	0.161
-136.414	-200.000	-0.029	0.152
-135.399	-70.710	0.113	0.042
-134.385	64.542	-0.246	-0.245
-133.370	-200.000	0.009	-0.135
-132.356	-173.194	0.163	0.005
-131.341	100.889	0.089	-0.102
-130.326	800.000	0.095	0.297
-129.312	243.714	0.127	0.210
-128.297	-25.656	0.186	-0.109
-127.283	-28.750	-0.152	0.087
-126.268	800.000	-0.064	0.199
-125.253	-50.577	0.075	-0.035
-124.239	-59.566	0.031	-0.013
-123.224	-169.688	-0.086	0.003
