DTS Sentinel unit serial number:	SN413079Multiplexer serial number:	ORYXHardware model number:	OX4-SRSoftware version number:	ORYX F/W v4.00 Oryx Data Collector v3.7.2.0data status	okinstallation	princeton_trtdifferential loss correction	single-endedforward channel	channel 4reverse channel	N/Adate	2019/09/11time	07:35:10forward acquisition time	60.00reverse acquisition time	0.00gamma	496.2192k internal	0.2308k external	0.2308temperature offset calibration	0.9942default loss term (dB/km)	0.3790temperature slope calibration	1.0000multiplexer offset coefficient	1.0000multiplexer slope coefficient	1.0000fibre end	0.00T internal ref (°C)	31.25T ext. ref 1 (°C)	-0.04T ext. ref 2 (°C)	27.73length (m)	temperature (°C)	Stokes	anti-Stokes-747.200	-64.642	0.257	0.106
-746.185	20.164	0.055	0.045
-745.171	159.156	-0.081	0.115
-744.156	573.340	-0.107	-0.265
-743.142	368.825	0.108	0.222
-742.127	-12.580	0.332	0.220
-741.112	-116.399	-0.295	-0.055
-740.098	660.718	-0.268	0.700
-739.083	-134.926	0.372	-0.046
-738.069	177.889	-0.064	0.094
-737.054	384.401	-0.068	-0.143
-736.039	-34.404	-0.055	-0.030
-735.025	40.350	0.312	0.285
-734.010	-200.000	0.003	-0.056
-732.996	-78.691	-0.234	0.081
-731.981	-92.607	-0.152	-0.043
-730.966	-200.000	0.021	-0.150
-729.952	-97.278	-0.197	-0.052
-728.937	-43.486	0.256	0.131
-727.923	-133.261	0.207	0.027
-726.908	-107.536	0.205	-0.046
-725.894	-31.135	-0.263	-0.151
-724.879	-123.007	0.317	0.052
-723.864	267.875	0.122	0.218
-722.850	68.918	0.275	0.287
-721.835	58.903	0.142	-0.142
-720.821	623.290	0.084	0.215
-719.806	-147.688	-0.326	0.028
-718.791	196.472	0.164	-0.254
-717.777	-43.270	0.074	0.038
-716.762	-120.638	0.055	-0.010
-715.748	73.468	-0.069	0.073
-714.733	85.124	0.122	-0.136
-713.718	-125.635	0.345	0.053
-712.704	46.545	-0.037	-0.035
-711.689	-16.088	-0.229	0.148
-710.675	-200.000	0.003	-0.074
-709.660	71.578	-0.282	-0.297
-708.645	195.489	-0.112	0.173
-707.631	21.446	-0.114	0.094
-706.616	-81.116	-0.085	-0.028
-705.602	-200.000	-0.001	-0.042
-704.587	-89.564	-0.170	0.051
-703.572	-200.000	0.039	0.562
-702.558	43.606	0.192	0.178
-701.543	800.000	-0.112	-0.335
-700.529	-200.000	0.077	0.431
-699.514	236.778	0.054	-0.091
-698.499	60.112	-0.107	0.107
-697.485	-116.270	-0.115	0.022
-696.470	445.300	-0.160	0.357
-695.456	-25.340	-0.099	0.059
-694.441	-45.947	-0.291	0.146
-693.426	-116.740	-0.283	0.053
-692.412	88.092	-0.133	0.149
-691.397	11.770	-0.071	0.055
-690.383	-200.000	0.052	-0.233
-689.368	-200.000	-0.009	0.053
-688.354	-200.000	0.049	-0.291
-687.339	-164.722	-0.244	0.011
-686.324	3.532	0.160	-0.118
-685.310	46.666	0.108	-0.101
-684.295	99.547	0.128	-0.150
-683.281	348.287	0.140	-0.280
-682.266	-156.629	0.265	-0.017
-681.251	684.752	-0.146	0.385
-680.237	-116.983	-0.158	-0.029
-679.222	748.501	-0.091	0.248
-678.208	-72.593	-0.265	-0.099
-677.193	-200.000	0.004	0.024
-676.178	-117.821	0.292	-0.053
-675.164	-54.218	0.167	-0.077
-674.149	14.372	-0.278	-0.220
-673.135	-111.145	-0.309	0.064
-672.120	-48.593	-0.282	0.137
-671.105	219.527	0.016	0.026
-670.091	39.552	-0.036	-0.033
-669.076	-78.703	-0.190	0.066
-668.062	-110.130	0.093	-0.020
-667.047	-37.139	-0.130	0.071
-666.032	-173.967	-0.314	-0.009
-665.018	-200.000	0.006	-0.100
-664.003	-8.891	-0.201	-0.137
-662.989	-13.714	0.168	-0.110
-661.974	-163.525	-0.315	-0.015
-660.959	-92.743	0.297	-0.084
-659.945	375.942	-0.106	-0.220
-658.930	-153.339	-0.522	-0.037
-657.916	-45.386	0.206	-0.103
-656.901	-200.000	-0.053	-0.280
-655.886	-126.167	0.207	-0.031
-654.872	-169.620	0.091	-0.003
-653.857	456.426	0.107	0.241
-652.843	273.984	0.047	0.085
-651.828	-200.000	0.017	0.209
-650.814	346.853	-0.079	-0.157
-649.799	136.909	0.207	0.274
-648.784	-200.000	0.010	-0.092
-647.770	-159.455	0.184	-0.010
-646.755	-37.534	-0.324	-0.175
-645.741	58.303	0.131	-0.130
-644.726	173.250	0.269	-0.393
-643.711	47.520	0.155	-0.146
-642.697	-99.062	-0.144	-0.037
-641.682	-181.199	0.259	-0.005
-640.668	-104.262	0.400	-0.094
-639.653	-149.326	-0.082	0.007
-638.638	-200.000	0.005	0.099
-637.624	445.070	-0.114	-0.253
-636.609	800.000	0.020	-0.061
-635.595	-54.488	-0.227	-0.104
-634.580	36.749	-0.331	0.296
-633.565	-84.484	-0.181	0.058
-632.551	-28.620	0.362	0.211
-631.536	-68.838	-0.076	-0.030
-630.522	-56.264	-0.055	-0.025
-629.507	169.660	0.222	0.321
-628.492	-163.720	-0.204	-0.010
-627.478	182.988	-0.077	-0.116
-626.463	-65.916	-0.100	-0.040
-625.449	69.501	0.066	-0.069
-624.434	10.465	-0.210	0.162
-623.419	-34.824	-0.162	-0.089
-622.405	-200.000	0.014	0.311
-621.390	800.000	-0.017	0.070
-620.376	-200.000	-0.006	-0.296
-619.361	283.964	-0.108	0.196
-618.346	-89.731	-0.311	-0.092
-617.332	-29.982	-0.066	-0.038
-616.317	-200.000	0.010	0.054
-615.303	-200.000	-0.017	-0.075
-614.288	25.222	0.046	0.039
-613.273	-121.427	0.139	0.023
-612.259	-200.000	-0.007	-0.195
-611.244	225.360	0.085	-0.138
-610.230	341.530	0.092	0.182
-609.215	-24.071	-0.057	-0.034
-608.201	101.993	0.030	0.035
-607.186	-105.394	-0.400	0.092
-606.171	-91.726	-0.091	0.026
-605.157	800.000	0.019	0.077
-604.142	-200.000	-0.034	-0.193
-603.128	399.782	-0.211	0.448
-602.113	800.000	0.070	0.290
-601.098	-200.000	-0.041	-0.381
-600.084	800.000	-0.098	-0.395
-599.069	-1.296	0.027	0.019
-598.055	800.000	-0.070	-0.212
-597.040	-144.216	-0.294	-0.028
-596.025	-99.555	-0.069	0.018
-595.011	42.987	0.151	0.139
-593.996	-67.677	0.348	0.138
-592.982	-200.000	-0.025	-0.129
-591.967	800.000	-0.011	-0.044
-590.952	-104.868	-0.286	-0.066
-589.938	800.000	0.062	-0.179
-588.923	69.192	0.066	0.068
-587.909	800.000	-0.123	0.402
-586.894	-200.000	-0.010	0.345
-585.879	800.000	-0.117	0.367
-584.865	-114.884	-0.504	-0.097
-583.850	-60.670	-0.296	-0.127
-582.836	126.243	0.221	-0.282
-581.821	146.200	0.211	-0.286
-580.806	102.882	-0.233	0.276
-579.792	-200.000	0.004	0.050
-578.777	75.987	0.138	-0.148
-577.763	605.837	-0.014	-0.034
-576.748	73.128	0.034	-0.036
-575.733	-123.042	-0.272	-0.044
-574.719	-18.207	0.063	0.040
-573.704	364.329	-0.095	0.194
-572.690	194.929	-0.224	0.343
-571.675	-92.850	0.149	-0.042
-570.661	-76.735	0.126	0.045
-569.646	-78.569	0.202	0.070
-568.631	-15.772	0.186	-0.119
-567.617	-47.580	0.157	-0.077
-566.602	39.404	-0.032	-0.028
-565.588	213.738	0.185	0.296
-564.573	-23.046	0.204	-0.124
-563.558	1.429	0.103	-0.075
-562.544	-200.000	0.041	0.222
-561.529	-16.095	-0.126	0.081
-560.515	-200.000	0.038	0.238
-559.500	-200.000	0.013	0.172
-558.485	-157.714	-0.289	-0.017
-557.471	-18.454	-0.038	-0.024
-556.456	-106.009	-0.166	0.038
-555.442	-179.473	-0.264	0.006
-554.427	483.033	-0.036	0.082
-553.412	-99.330	-0.159	-0.041
-552.398	-7.169	0.091	-0.062
-551.383	-36.116	0.149	-0.081
-550.369	-36.080	0.159	-0.087
-549.354	606.814	0.024	0.061
-548.339	-118.361	-0.181	-0.032
-547.325	554.050	0.060	-0.145
-546.310	123.827	-0.116	-0.146
-545.296	-78.857	-0.129	0.044
-544.281	366.888	-0.036	0.074
-543.266	493.374	0.046	0.106
-542.252	800.000	0.035	0.105
-541.237	-184.221	-0.112	-0.002
-540.223	800.000	-0.029	0.087
-539.208	-50.389	0.177	-0.084
-538.193	415.134	-0.195	-0.420
-537.179	88.282	0.136	-0.152
-536.164	-200.000	-0.017	-0.122
-535.150	800.000	0.071	-0.234
-534.135	-200.000	0.038	0.504
-533.121	-65.014	0.227	0.092
-532.106	-100.791	-0.028	0.007
-531.091	-52.269	-0.113	-0.053
-530.077	-93.498	-0.128	-0.036
-529.062	-172.096	0.317	-0.010
-528.048	103.419	-0.120	0.141
-527.033	-90.541	0.215	0.063
-526.018	-200.000	-0.020	-0.099
-525.004	84.289	-0.197	0.217
-523.989	-125.533	0.157	0.024
-522.975	800.000	0.044	-0.179
-521.960	65.176	0.114	0.116
-520.945	244.597	-0.085	0.144
-519.931	-200.000	0.009	0.064
-518.916	-200.000	0.007	-0.276
-517.902	-200.000	0.012	-0.056
-516.887	282.130	0.112	0.203
-515.872	168.423	0.098	-0.141
-514.858	-200.000	-0.007	-0.035
-513.843	-200.000	0.005	0.250
-512.829	77.586	0.095	0.102
-511.814	25.354	-0.056	0.047
-510.799	170.451	0.086	0.124
-509.785	125.502	0.045	-0.057
-508.770	-31.745	0.196	0.111
-507.756	112.411	0.047	0.057
-506.741	-85.876	-0.306	0.096
-505.726	84.089	0.150	0.165
-504.712	1.655	0.302	-0.219
-503.697	158.833	0.064	-0.089
-502.683	-200.000	0.035	-0.155
-501.668	388.959	0.083	0.174
-500.653	469.173	0.122	-0.277
-499.639	-200.000	-0.041	0.225
-498.624	57.801	-0.224	0.221
-497.610	-152.305	-0.075	0.005
-496.595	-134.728	-0.163	0.020
-495.581	3.946	0.165	-0.121
-494.566	-72.517	-0.126	0.047
-493.551	-200.000	0.038	-0.270
-492.537	-200.000	-0.008	0.168
-491.522	128.572	-0.015	0.020
-490.508	20.279	0.106	-0.087
-489.493	71.604	-0.215	0.225
-488.478	-27.055	-0.134	-0.079
-487.464	-47.024	-0.094	0.046
-486.449	-200.000	0.012	0.247
-485.435	-46.296	-0.272	-0.135
-484.420	9.908	-0.033	0.025
-483.405	-200.000	0.015	-0.257
-482.391	-200.000	0.016	-0.173
-481.376	13.932	-0.241	0.189
-480.362	312.503	-0.084	0.159
-479.347	-26.985	0.315	-0.185
-478.332	800.000	-0.068	0.190
-477.318	800.000	-0.101	-0.303
-476.303	-51.714	-0.197	-0.092
-475.289	-97.038	-0.268	0.071
-474.274	-92.241	-0.323	-0.092
-473.259	-200.000	0.006	0.251
-472.245	44.604	0.109	0.101
-471.230	-187.321	-0.205	0.003
-470.216	396.749	-0.165	-0.347
-469.201	468.086	0.025	0.057
-468.186	-124.733	0.263	0.041
-467.172	263.528	0.158	0.277
-466.157	-92.380	-0.212	0.060
-465.143	488.687	-0.153	0.352
-464.128	-152.441	0.342	-0.025
-463.113	0.588	-0.025	-0.018
-462.099	87.476	-0.111	-0.124
-461.084	282.790	-0.128	-0.231
-460.070	-200.000	0.025	0.169
-459.055	-59.858	0.088	0.038
-458.040	800.000	-0.035	-0.134
-457.026	-17.587	0.205	-0.130
-456.011	800.000	-0.059	-0.205
-454.997	-200.000	-0.006	-0.178
-453.982	-53.322	0.196	-0.090
-452.968	194.656	0.226	-0.345
-451.953	-200.000	-0.002	0.025
-450.938	-50.568	0.362	0.171
-449.924	800.000	0.103	0.307
-448.909	-29.230	-0.177	0.102
-447.895	193.650	0.236	-0.359
-446.880	104.620	-0.187	-0.221
-445.865	16.915	-0.166	-0.132
-444.851	19.208	-0.206	-0.166
-443.836	85.541	-0.096	0.106
-442.822	-49.966	0.082	-0.039
-441.807	90.293	-0.206	0.232
-440.792	554.062	0.105	0.253
-439.778	186.262	0.077	-0.115
-438.763	-80.519	0.358	0.120
-437.749	-72.628	0.037	-0.014
-436.734	40.457	-0.248	0.224
-435.719	800.000	0.073	-0.309
-434.705	6.004	0.220	0.164
-433.690	-77.916	-0.357	0.124
-432.676	-200.000	0.009	-0.223
-431.661	-200.000	-0.011	0.417
-430.646	-112.131	-0.103	0.021
-429.632	-57.132	-0.151	0.067
-428.617	-1.668	-0.089	-0.063
-427.603	-139.405	-0.175	0.019
-426.588	-107.725	-0.142	0.031
-425.573	-155.867	0.108	-0.007
-424.559	-95.741	0.226	-0.061
-423.544	49.222	0.156	-0.147
-422.530	5.893	-0.061	0.045
-421.515	-70.906	-0.202	0.076
-420.500	-200.000	0.024	-0.308
-419.486	136.102	-0.175	0.229
-418.471	-200.000	-0.021	0.212
-417.457	-60.641	-0.435	0.185
-416.442	90.355	-0.023	0.026
-415.428	2.730	0.240	-0.175
-414.413	800.000	0.083	-0.261
-413.398	-200.000	0.110	-0.576
-412.384	-134.528	-0.232	-0.028
-411.369	-114.910	0.485	-0.093
-410.355	-87.992	-0.136	-0.041
-409.340	230.562	0.047	0.076
-408.325	364.487	0.204	0.412
-407.311	306.844	0.089	-0.167
-406.296	303.286	-0.090	-0.167
-405.282	-200.000	-0.007	-0.060
-404.267	542.503	0.126	0.302
-403.252	-134.015	0.275	-0.034
-402.238	-73.990	-0.112	0.041
-401.223	60.405	0.074	0.073
-400.209	-36.292	-0.397	-0.215
-399.194	642.503	-0.050	0.127
-398.179	-200.000	0.042	0.525
-397.165	267.289	0.117	0.205
-396.150	23.397	0.380	-0.313
-395.136	359.845	0.111	-0.222
-394.121	-23.208	0.058	0.035
-393.106	714.382	-0.038	-0.101
-392.092	-108.405	0.069	0.015
-391.077	-93.970	0.385	-0.106
-390.063	241.598	-0.027	-0.046
-389.048	-159.982	0.456	0.025
-388.033	-69.498	-0.163	0.063
-387.019	-200.000	0.005	-0.133
-386.004	-141.453	0.167	-0.017
-384.990	22.541	0.448	-0.367
-383.975	-144.838	0.403	0.037
-382.960	-149.526	-0.295	-0.023
-381.946	276.902	-0.031	0.055
-380.931	-165.944	-0.130	-0.006
-379.917	-62.584	-0.127	-0.053
-378.902	21.775	-0.323	-0.264
-377.888	-24.710	-0.232	0.138
-376.873	85.664	0.169	-0.186
-375.858	192.361	0.129	-0.195
-374.844	-86.864	0.247	-0.076
-373.829	800.000	-0.070	-0.258
-372.815	51.074	0.121	0.115
-371.800	19.405	0.113	0.091
-370.785	-84.001	0.220	-0.070
-369.771	19.012	0.332	0.266
-368.756	-82.198	-0.380	0.124
-367.742	38.205	0.158	-0.141
-366.727	210.370	0.065	0.102
-365.712	119.810	-0.194	0.240
-364.698	-200.000	0.060	0.403
-363.683	-157.570	0.310	-0.019
-362.669	433.046	0.042	-0.091
-361.654	-168.055	0.052	0.002
-360.639	-200.000	0.048	-0.400
-359.625	-200.000	0.045	-0.671
-358.610	-200.000	-0.004	-0.424
-357.596	-60.071	0.246	0.105
-356.581	248.678	0.183	0.310
-355.566	225.740	0.040	-0.065
-354.552	-35.642	-0.099	0.054
-353.537	-106.604	-0.269	-0.060
-352.523	-200.000	0.029	-0.284
-351.508	-138.314	-0.077	0.009
-350.493	-151.726	-0.484	0.036
-349.479	-200.000	-0.039	0.000
-348.464	800.000	0.132	0.434
-347.450	800.000	-0.042	-0.163
-346.435	38.007	0.096	-0.086
-345.420	81.851	0.024	0.026
-344.406	160.928	0.088	0.123
-343.391	23.752	-0.253	-0.208
-342.377	287.329	-0.087	0.157
-341.362	77.343	0.164	0.175
-340.348	144.273	0.053	0.070
-339.333	-200.000	0.007	0.126
-338.318	620.445	-0.099	0.250
-337.304	279.547	-0.043	0.077
-336.289	82.620	0.276	0.300
-335.275	-113.018	0.227	-0.045
-334.260	-95.767	0.216	-0.058
-333.245	-96.918	0.300	-0.079
-332.231	93.666	0.092	-0.104
-331.216	-82.976	0.118	-0.038
-330.202	-200.000	0.011	0.119
-329.187	800.000	0.016	0.068
-328.172	82.486	0.298	-0.324
-327.158	-59.095	-0.241	-0.104
-326.143	-117.525	-0.094	0.017
-325.129	-196.905	0.254	-0.002
-324.114	68.085	-0.010	-0.010
-323.099	-12.911	-0.300	0.195
-322.085	-78.488	0.104	0.036
-321.070	53.873	0.092	-0.088
-320.056	-19.619	-0.318	-0.197
-319.041	-138.318	0.120	-0.013
-318.026	385.472	-0.046	0.095
-317.012	160.560	0.112	0.156
-315.997	112.662	-0.076	-0.093
-314.983	-200.000	-0.014	0.082
-313.968	291.197	0.122	-0.223
-312.953	-96.264	0.243	0.064
-311.939	-110.259	-0.247	-0.051
-310.924	59.945	-0.090	0.089
-309.910	-130.266	0.169	-0.023
-308.895	-5.399	0.183	-0.126
-307.880	-81.131	-0.489	0.161
-306.866	800.000	0.034	-0.103
-305.851	60.577	0.063	-0.063
-304.837	-104.818	-0.134	-0.031
-303.822	-47.689	-0.296	0.144
-302.807	568.132	-0.079	0.191
-301.793	-71.202	-0.189	0.071
-300.778	-200.000	0.283	0.001
-299.764	-73.410	0.131	0.048
-298.749	800.000	0.068	0.207
-297.735	436.218	0.117	0.254
-296.720	800.000	-0.094	0.273
-295.705	-200.000	0.017	0.274
-294.691	150.969	-0.088	-0.119
-293.676	-139.328	-0.255	-0.027
-292.662	597.757	-0.028	-0.070
-291.647	-95.146	0.100	0.027
-290.632	800.000	0.070	-0.247
-289.618	117.517	-0.020	0.025
-288.603	75.082	-0.155	-0.163
-287.589	-179.519	0.201	-0.004
-286.574	-44.230	-0.310	0.155
-285.559	-159.700	0.171	-0.009
-284.545	6.053	0.184	-0.136
-283.530	800.000	-0.067	-0.238
-282.516	-91.418	-0.029	-0.008
-281.501	-200.000	0.047	0.376
-280.486	177.697	0.018	0.026
-279.472	64.055	-0.263	0.264
-278.457	-200.000	0.017	-0.371
-277.443	800.000	0.085	-0.328
-276.428	230.258	0.157	-0.256
-275.413	215.399	0.036	0.057
-274.399	85.794	0.155	-0.170
-273.384	236.275	-0.187	-0.309
-272.370	-69.260	-0.128	-0.049
-271.355	-200.000	0.002	0.079
-270.340	-200.000	0.020	0.191
-269.326	-200.000	0.044	0.297
-268.311	800.000	0.105	-0.321
-267.297	-6.863	-0.303	0.206
-266.282	-61.198	0.362	-0.152
-265.267	-26.883	-0.147	0.086
-264.253	800.000	0.063	-0.199
-263.238	800.000	0.079	-0.230
-262.224	318.579	0.165	-0.312
-261.209	82.448	0.196	0.212
-260.195	5.600	-0.098	0.072
-259.180	-82.460	0.135	0.044
-258.165	-29.469	0.240	0.137
-257.151	311.672	0.097	-0.181
-256.136	800.000	0.124	0.401
-255.122	-57.705	0.301	-0.131
-254.107	228.099	0.093	0.151
-253.092	-105.176	0.106	0.024
-252.078	430.811	0.200	-0.431
-251.063	43.983	0.030	0.028
-250.049	-200.000	0.039	0.433
-249.034	-200.000	0.016	0.083
-248.019	-200.000	0.001	-0.026
-247.005	208.825	-0.163	0.254
-245.990	711.907	0.068	-0.178
-244.976	208.996	0.125	-0.195
-243.961	178.026	-0.125	0.181
-242.946	-200.000	-0.050	-0.427
-241.932	-56.841	-0.138	0.061
-240.917	-65.406	-0.080	-0.032
-239.903	-88.110	-0.369	0.110
-238.888	35.357	-0.110	0.097
-237.873	143.683	-0.188	-0.250
-236.859	-92.989	0.294	-0.082
-235.844	205.668	0.092	-0.143
-234.830	163.288	-0.067	0.094
-233.815	-43.453	0.201	0.101
-232.800	309.984	-0.071	0.132
-231.786	395.904	0.029	-0.059
-230.771	8.350	-0.100	0.075
-229.757	-89.505	-0.046	0.014
-228.742	-89.371	0.152	0.045
-227.727	-200.000	-0.029	-0.208
-226.713	73.827	-0.161	0.168
-225.698	-68.200	-0.152	-0.059
-224.684	-200.000	0.030	-0.240
-223.669	800.000	-0.054	0.184
-222.655	-52.242	-0.488	0.226
-221.640	170.795	-0.148	0.211
-220.625	335.907	-0.078	-0.150
-219.611	800.000	0.139	-0.386
-218.596	-200.000	0.070	0.334
-217.582	-200.000	-0.013	-0.266
-216.567	-38.544	-0.490	0.258
-215.552	60.080	0.043	0.043
-214.538	-200.000	-0.047	0.292
-213.523	800.000	-0.028	0.107
-212.509	-30.011	-0.258	-0.146
-211.494	-193.262	-0.359	-0.003
-210.479	800.000	-0.027	0.106
-209.465	161.915	-0.036	-0.050
-208.450	187.110	0.070	0.104
-207.436	-200.000	0.005	0.228
-206.421	-144.199	0.248	0.023
-205.406	432.079	-0.055	0.119
-204.392	65.382	0.142	-0.143
-203.377	539.862	0.041	-0.097
-202.363	800.000	0.041	0.129
-201.348	519.324	-0.085	-0.197
-200.333	491.635	0.136	-0.311
-199.319	658.679	0.073	0.188
-198.304	-200.000	0.049	0.238
-197.290	127.667	-0.083	-0.105
-196.275	274.391	0.144	-0.254
-195.260	283.896	-0.016	-0.029
-194.246	-154.132	0.230	-0.016
-193.231	-40.016	-0.247	-0.128
-192.217	-125.707	-0.143	-0.022
-191.202	-68.626	0.082	0.032
-190.187	800.000	0.080	-0.225
-189.173	-178.509	-0.078	-0.002
-188.158	100.781	0.287	0.332
-187.144	294.887	-0.196	0.356
-186.129	-100.858	0.278	0.068
-185.114	65.030	0.087	-0.087
-184.100	-200.000	0.041	-0.372
-183.085	-124.219	0.240	0.037
-182.071	-157.100	0.162	0.010
-181.056	-147.741	0.203	-0.017
-180.042	310.571	0.074	0.137
-179.027	82.964	-0.139	-0.151
-178.012	-10.852	-0.195	-0.128
-176.998	388.291	0.031	0.063
-175.983	-200.000	0.007	0.203
-174.969	-28.829	-0.207	-0.118
-173.954	-200.000	0.028	0.333
-172.939	345.038	-0.028	-0.054
-171.925	-69.905	-0.281	0.106
-170.910	-148.391	0.178	-0.015
-169.896	-80.508	-0.182	-0.060
-168.881	-200.000	0.046	0.363
-167.866	-200.000	0.007	-0.173
-166.852	25.726	-0.102	0.085
-165.837	721.101	-0.091	0.239
-164.823	-200.000	0.002	0.024
-163.808	-200.000	-0.025	-0.249
-162.793	17.127	0.250	0.197
-161.779	-41.235	-0.219	0.112
-160.764	432.784	-0.104	-0.224
-159.750	-200.000	-0.017	-0.257
-158.735	-33.249	-0.139	-0.076
-157.720	46.853	-0.105	-0.097
-156.706	134.906	-0.134	0.173
-155.691	-65.487	-0.215	-0.086
-154.677	1.161	-0.025	-0.018
-153.662	102.441	-0.170	-0.198
-152.647	45.579	0.085	-0.078
-151.633	24.368	-0.120	-0.098
-150.618	-200.000	-0.020	0.389
-149.604	24.866	-0.211	0.174
-148.589	-67.544	-0.088	0.034
-147.574	-124.395	-0.123	0.019
-146.560	-39.549	-0.095	-0.050
-145.545	800.000	0.107	-0.315
-144.531	139.107	-0.051	-0.067
-143.516	227.874	0.180	0.291
-142.502	-23.602	-0.255	0.152
-141.487	-106.242	-0.028	-0.006
-140.472	-36.744	0.076	-0.040
-139.458	72.450	0.125	0.129
-138.443	-89.452	0.215	-0.063
-137.429	32.244	0.004	0.003
-136.414	-71.605	0.271	0.101
-135.399	-200.000	-0.254	-0.000
-134.385	224.299	0.108	-0.173
-133.370	87.539	-0.188	-0.207
-132.356	282.573	-0.126	0.224
-131.341	143.284	-0.216	-0.285
-130.326	-35.991	-0.168	-0.090
-129.312	-92.045	-0.054	0.015
-128.297	175.247	-0.277	-0.398
-127.283	-138.367	-0.086	-0.009
-126.268	-94.333	0.218	0.059
-125.253	60.637	0.111	0.109
-124.239	-200.000	-0.010	-0.116
-123.224	-38.690	0.150	0.078
-122.210	-94.909	0.340	0.091
-121.195	-128.286	-0.125	0.018
