DTS Sentinel unit serial number:	SN413079Multiplexer serial number:	ORYXHardware model number:	OX4-SRSoftware version number:	ORYX F/W v4.00 Oryx Data Collector v3.7.2.0data status	okinstallation	princeton_trtdifferential loss correction	single-endedforward channel	channel 4reverse channel	N/Adate	2019/09/12time	04:31:11forward acquisition time	60.00reverse acquisition time	0.00gamma	496.2192k internal	0.2311k external	0.2311temperature offset calibration	1.0098default loss term (dB/km)	0.3790temperature slope calibration	1.0000multiplexer offset coefficient	1.0000multiplexer slope coefficient	1.0000fibre end	0.00T internal ref (°C)	31.62T ext. ref 1 (°C)	2.27T ext. ref 2 (°C)	26.53length (m)	temperature (°C)	Stokes	anti-Stokes-747.200	-130.564	0.037	-0.005
-746.185	-11.523	-0.096	-0.064
-745.171	800.000	0.031	-0.096
-744.156	-4.814	0.088	0.062
-743.142	433.173	-0.042	-0.091
-742.127	39.801	-0.252	0.229
-741.112	50.946	-0.135	-0.130
-740.098	-200.000	0.029	0.222
-739.083	127.516	0.083	-0.107
-738.069	-1.779	-0.232	0.166
-737.054	38.093	-0.130	0.117
-736.039	77.902	0.139	0.150
-735.025	-50.336	0.169	0.081
-734.010	-26.745	-0.191	-0.113
-732.996	-89.216	-0.206	0.062
-731.981	-25.000	0.240	0.145
-730.966	55.718	0.187	-0.184
-729.952	-200.000	-0.022	-0.149
-728.937	800.000	-0.074	0.306
-727.923	-3.402	-0.125	-0.088
-726.908	-200.000	-0.064	-0.287
-725.894	800.000	0.129	0.366
-724.879	55.660	-0.170	0.167
-723.864	-19.696	-0.082	-0.052
-722.850	16.595	0.207	0.166
-721.835	-103.996	-0.294	-0.070
-720.821	-71.417	-0.216	-0.082
-719.806	-200.000	0.047	0.272
-718.791	354.687	-0.073	-0.147
-717.777	17.326	0.216	-0.174
-716.762	29.443	0.067	-0.058
-715.748	68.027	0.142	-0.147
-714.733	50.249	-0.199	-0.190
-713.718	-119.470	0.251	0.044
-712.704	-102.903	-0.115	0.028
-711.689	41.800	0.292	0.269
-710.675	-101.515	-0.091	0.022
-709.660	409.542	0.102	-0.219
-708.645	-200.000	0.072	0.321
-707.631	19.772	0.300	0.245
-706.616	374.994	0.102	0.212
-705.602	173.949	-0.074	-0.109
-704.587	-78.343	-0.237	-0.082
-703.572	-200.000	-0.041	0.196
-702.558	-84.828	-0.207	0.066
-701.543	-93.037	0.172	-0.048
-700.529	-197.906	-0.363	0.002
-699.514	-200.000	0.035	-0.378
-698.499	-78.926	-0.059	-0.020
-697.485	386.211	-0.114	-0.238
-696.470	-21.656	-0.133	0.082
-695.456	800.000	0.086	-0.297
-694.441	335.333	-0.075	-0.147
-693.426	-6.987	-0.269	0.185
-692.412	-200.000	0.341	0.000
-691.397	-200.000	0.027	0.271
-690.383	800.000	0.078	0.245
-689.368	34.683	-0.197	0.174
-688.354	576.507	-0.110	-0.272
-687.339	390.105	0.190	-0.399
-686.324	800.000	-0.116	-0.430
-685.310	717.749	0.128	-0.344
-684.295	-77.062	0.268	0.095
-683.281	-68.017	-0.152	-0.060
-682.266	361.592	0.162	0.329
-681.251	32.914	-0.318	-0.279
-680.237	800.000	-0.060	0.249
-679.222	-164.120	-0.226	0.011
-678.208	-200.000	0.004	0.226
-677.193	-160.356	0.046	-0.002
-676.178	48.370	-0.201	-0.190
-675.164	-145.352	-0.150	0.014
-674.149	-166.785	0.166	0.007
-673.135	183.591	-0.179	0.268
-672.120	-42.763	-0.104	-0.054
-671.105	-11.744	-0.152	0.101
-670.091	181.487	-0.240	-0.357
-669.076	-104.430	0.138	0.032
-668.062	-62.560	0.262	-0.110
-667.047	-200.000	0.016	0.312
-666.032	800.000	-0.023	-0.076
-665.018	91.240	-0.056	0.063
-664.003	-200.000	-0.009	0.288
-662.989	-200.000	0.025	-0.248
-661.974	209.693	0.071	0.113
-660.959	144.378	-0.156	-0.211
-659.945	-143.093	0.298	0.029
-658.930	-123.856	0.037	-0.006
-657.916	115.342	-0.155	0.191
-656.901	-69.696	0.106	0.041
-655.886	-20.077	-0.068	-0.042
-654.872	449.942	-0.262	-0.584
-653.857	-114.170	0.302	0.059
-652.843	162.511	0.137	0.194
-651.828	-79.043	0.269	-0.093
-650.814	800.000	0.015	-0.047
-649.799	-90.878	-0.344	0.100
-648.784	-152.661	0.176	0.013
-647.770	-6.289	-0.055	0.038
-646.755	-77.418	0.137	-0.048
-645.741	-194.547	0.126	0.001
-644.726	-64.645	0.202	0.083
-643.711	-39.039	0.023	-0.012
-642.697	-83.800	0.007	-0.002
-641.682	-165.975	-0.097	-0.004
-640.668	-46.665	-0.092	-0.045
-639.653	800.000	-0.077	-0.223
-638.638	-200.000	0.051	-0.277
-637.624	116.247	-0.074	-0.091
-636.609	-41.934	0.350	-0.181
-635.595	-100.120	-0.133	-0.033
-634.580	-200.000	-0.029	0.145
-633.565	-200.000	0.025	-0.265
-632.551	90.018	-0.251	-0.283
-631.536	58.295	0.101	-0.100
-630.522	-200.000	0.006	-0.077
-629.507	139.856	-0.190	-0.254
-628.492	9.434	-0.156	-0.119
-627.478	145.083	-0.099	0.134
-626.463	-200.000	-0.017	0.111
-625.449	-200.000	-0.020	-0.128
-624.434	84.529	-0.060	-0.066
-623.419	-200.000	-0.031	0.311
-622.405	-124.384	-0.168	-0.027
-621.390	107.079	-0.070	-0.084
-620.376	-73.175	-0.387	-0.143
-619.361	-16.391	0.413	0.265
-618.346	-179.508	-0.411	0.009
-617.332	-200.000	-0.036	0.359
-616.317	474.672	0.051	-0.115
-615.303	-131.241	-0.282	0.038
-614.288	72.158	0.206	0.216
-613.273	308.165	0.137	-0.258
-612.259	-200.000	-0.034	-0.251
-611.244	-24.657	-0.294	-0.176
-610.230	62.811	0.086	-0.087
-609.215	28.579	-0.429	-0.367
-608.201	57.508	0.023	-0.022
-607.186	-154.197	-0.037	0.002
-606.171	567.067	-0.019	0.047
-605.157	22.564	0.200	0.165
-604.142	27.893	-0.036	0.030
-603.128	-89.635	-0.424	-0.126
-602.113	9.539	0.170	0.130
-601.098	-136.827	-0.405	0.047
-600.084	19.908	-0.043	0.035
-599.069	-23.216	-0.100	-0.061
-598.055	-11.479	-0.225	0.149
-597.040	453.140	-0.079	0.177
-596.025	-88.513	0.224	-0.067
-595.011	-57.026	0.031	0.014
-593.996	-200.000	-0.009	-0.052
-592.982	-82.233	0.052	-0.017
-591.967	-200.000	0.015	-0.138
-590.952	64.095	0.309	0.313
-589.938	-101.021	-0.075	0.019
-588.923	-200.000	-0.071	0.000
-587.909	-93.659	0.370	-0.103
-586.894	-176.608	-0.194	0.005
-585.879	3.850	0.078	0.057
-584.865	209.842	-0.119	-0.189
-583.850	800.000	0.036	0.153
-582.836	-92.389	-0.311	-0.088
-581.821	-16.465	0.276	0.176
-580.806	-62.511	0.116	-0.048
-579.792	-21.268	-0.213	0.131
-578.777	-57.473	-0.147	-0.065
-577.763	800.000	0.133	-0.448
-576.748	100.779	-0.037	0.044
-575.733	156.264	0.158	0.219
-574.719	-106.693	-0.035	0.008
-573.704	-46.630	0.336	-0.166
-572.690	-66.321	0.188	-0.075
-571.675	-11.147	0.204	0.136
-570.661	88.832	-0.154	-0.173
-569.646	54.253	0.106	-0.103
-568.631	-117.038	-0.169	0.031
-567.617	-200.000	-0.037	0.174
-566.602	30.694	0.243	0.209
-565.588	208.137	-0.168	0.265
-564.573	101.379	-0.124	-0.146
-563.558	-200.000	0.017	-0.228
-562.544	543.542	0.148	-0.355
-561.529	186.515	-0.125	-0.187
-560.515	11.818	-0.059	-0.046
-559.500	30.973	0.027	0.023
-558.485	-200.000	0.036	-0.327
-557.471	-200.000	-0.023	-0.353
-556.456	107.179	0.162	0.194
-555.442	-90.315	-0.208	0.061
-554.427	-200.000	-0.068	0.311
-553.412	-137.579	0.206	0.023
-552.398	-28.315	0.167	0.097
-551.383	420.580	-0.046	0.098
-550.369	-200.000	0.030	-0.336
-549.354	46.851	-0.104	-0.097
-548.339	-21.360	-0.165	-0.101
-547.325	134.229	0.112	-0.146
-546.310	-27.192	0.098	-0.058
-545.296	800.000	0.123	-0.351
-544.281	-46.185	-0.093	-0.046
-543.266	-46.728	-0.212	0.105
-542.252	-3.195	-0.275	0.193
-541.237	314.863	-0.082	-0.156
-540.223	379.514	0.041	-0.085
-539.208	-200.000	0.031	0.151
-538.193	399.950	0.076	-0.160
-537.179	-40.632	0.371	-0.193
-536.164	-200.000	-0.019	0.276
-535.150	-33.030	0.214	-0.119
-534.135	800.000	-0.094	0.276
-533.121	316.711	0.031	0.058
-532.106	169.700	0.255	-0.367
-531.091	-60.655	0.068	-0.029
-530.077	56.208	0.121	-0.118
-529.062	-134.872	0.096	-0.012
-528.048	-153.659	0.527	-0.037
-527.033	191.877	0.157	0.237
-526.018	773.962	0.094	0.258
-525.004	66.226	0.270	-0.276
-523.989	800.000	-0.083	-0.343
-522.975	38.118	-0.155	0.139
-521.960	-200.000	-0.015	0.185
-520.945	-128.625	-0.204	0.029
-519.931	-200.000	-0.028	-0.161
-518.916	32.056	0.261	-0.226
-517.902	800.000	-0.067	0.210
-516.887	125.057	0.174	0.221
-515.872	-167.156	-0.073	-0.003
-514.858	458.250	-0.031	0.068
-513.843	-62.932	0.030	-0.012
-512.829	184.337	0.139	-0.207
-511.814	800.000	0.087	-0.262
-510.799	800.000	-0.053	0.211
-509.785	362.923	0.179	0.362
-508.770	-200.000	-0.059	0.402
-507.756	-14.796	0.238	-0.154
-506.741	800.000	-0.112	0.453
-505.726	-141.602	0.221	-0.022
-504.712	-17.786	0.158	-0.100
-503.697	-164.130	0.086	0.004
-502.683	-103.601	0.507	0.120
-501.668	800.000	-0.038	0.155
-500.653	249.132	-0.160	0.272
-499.639	-63.739	0.333	0.137
-498.624	15.604	0.229	0.181
-497.610	433.943	0.190	-0.416
-496.595	-132.668	0.271	0.035
-495.581	-200.000	0.018	0.229
-494.566	39.026	0.185	0.166
-493.551	13.698	0.300	0.235
-492.537	75.809	-0.098	0.104
-491.522	-187.215	0.237	0.003
-490.508	-200.000	0.045	-0.225
-489.493	-183.072	-0.423	0.008
-488.478	-116.985	0.134	0.025
-487.464	-6.930	-0.264	-0.180
-486.449	768.661	0.016	-0.044
-485.435	-102.207	-0.296	-0.071
-484.420	-122.175	0.216	-0.036
-483.405	-181.733	-0.106	0.002
-482.391	51.953	0.038	-0.036
-481.376	63.471	-0.064	-0.065
-480.362	230.291	0.166	-0.272
-479.347	-30.050	-0.246	0.141
-478.332	56.806	-0.254	0.248
-477.318	-75.385	-0.112	0.040
-476.303	-200.000	-0.030	0.172
-475.289	365.359	-0.094	-0.190
-474.274	56.772	0.169	-0.166
-473.259	-132.641	0.347	0.045
-472.245	-153.390	0.092	0.006
-471.230	554.788	-0.073	0.176
-470.216	-34.125	-0.392	-0.216
-469.201	-173.886	0.396	-0.012
-468.186	-200.000	-0.004	-0.125
-467.172	71.623	-0.177	-0.184
-466.157	47.794	0.011	0.010
-465.143	-18.827	-0.149	-0.093
-464.128	72.090	-0.120	-0.125
-463.113	-135.933	0.266	0.031
-462.099	94.105	0.147	-0.168
-461.084	-105.877	-0.191	-0.043
-460.070	-26.863	-0.353	-0.207
-459.055	-84.185	-0.083	0.026
-458.040	106.641	0.234	0.279
-457.026	-176.598	0.120	0.003
-456.011	-48.418	0.153	0.074
-454.997	-23.818	-0.220	-0.132
-453.982	-85.850	-0.179	-0.056
-452.968	800.000	0.020	-0.066
-451.953	-94.641	-0.245	0.067
-450.938	106.636	0.119	-0.142
-449.924	-105.087	-0.311	-0.071
-448.909	250.996	0.072	0.122
-447.895	93.147	-0.105	-0.120
-446.880	3.889	-0.130	0.095
-445.865	-109.807	-0.211	-0.044
-444.851	196.047	-0.101	-0.154
-443.836	-200.000	0.036	0.169
-442.822	-200.000	-0.052	-0.453
-441.807	746.872	0.038	0.104
-440.792	-200.000	-0.013	0.168
-439.778	-200.000	-0.002	0.035
-438.763	-58.666	-0.234	0.102
-437.749	-200.000	0.040	-0.351
-436.734	-54.542	-0.387	-0.176
-435.719	39.295	0.240	-0.215
-434.705	-149.313	0.342	-0.027
-433.690	-200.000	-0.046	0.230
-432.676	-125.536	-0.166	-0.025
-431.661	52.097	-0.249	-0.238
-430.646	-99.819	0.259	-0.065
-429.632	-32.155	0.192	-0.108
-428.617	215.896	-0.140	-0.224
-427.603	-71.562	0.040	-0.015
-426.588	800.000	-0.100	0.320
-425.573	32.008	-0.177	-0.153
-424.559	-47.183	0.129	0.063
-423.544	-6.761	0.228	0.156
-422.530	-163.401	0.156	-0.007
-421.515	33.819	-0.036	0.031
-420.500	-36.757	-0.172	-0.092
-419.486	-200.000	-0.003	0.087
-418.471	236.879	0.037	-0.062
-417.457	114.098	-0.117	-0.143
-416.442	216.840	-0.117	-0.187
-415.428	-200.000	0.345	-0.000
-414.413	-57.831	-0.125	0.055
-413.398	11.731	-0.189	-0.146
-412.384	-200.000	-0.011	0.054
-411.369	-141.437	-0.232	-0.024
-410.355	-200.000	0.016	-0.187
-409.340	-134.656	0.220	0.027
-408.325	800.000	-0.082	0.248
-407.311	310.634	-0.051	-0.096
-406.296	-137.101	0.167	0.019
-405.282	38.529	-0.048	-0.043
-404.267	163.044	-0.023	0.032
-403.252	202.009	-0.111	-0.172
-402.238	-7.207	0.248	0.169
-401.223	-82.090	-0.200	-0.065
-400.209	221.178	-0.157	0.253
-399.194	800.000	0.026	0.089
-398.179	68.173	0.108	0.111
-397.165	276.949	0.124	0.222
-396.150	-200.000	0.066	-0.387
-395.136	-110.961	-0.154	0.032
-394.121	-21.293	-0.187	-0.114
-393.106	-61.962	-0.075	-0.032
-392.092	-195.489	-0.285	-0.002
-391.077	-200.000	0.064	-0.285
-390.063	-64.062	-0.166	0.068
-389.048	58.675	0.279	0.274
-388.033	-65.905	0.204	-0.082
-387.019	-76.904	0.073	-0.025
-386.004	-100.413	0.224	0.055
-384.990	128.054	0.092	0.117
-383.975	-108.317	0.164	0.035
-382.960	-76.509	-0.286	-0.101
-381.946	317.954	-0.156	-0.295
-380.931	226.110	0.021	-0.034
-379.917	800.000	-0.050	-0.200
-378.902	-7.297	-0.299	0.203
-377.888	370.060	0.083	0.169
-376.873	-82.736	0.368	-0.119
-375.858	-38.947	-0.137	-0.072
-374.844	627.728	-0.126	0.319
-373.829	-139.414	0.205	0.022
-372.815	-200.000	-0.032	-0.230
-371.800	-160.582	0.194	0.010
-370.785	-49.592	0.300	0.143
-369.771	-15.854	-0.217	-0.138
-368.756	-68.201	-0.280	0.109
-367.742	147.814	-0.111	0.149
-366.727	97.331	0.066	-0.076
-365.712	-70.096	-0.186	0.071
-364.698	-113.723	0.220	0.043
-363.683	442.991	0.112	-0.245
-362.669	-31.029	-0.109	0.061
-361.654	147.341	-0.220	0.297
-360.639	295.736	-0.026	0.047
-359.625	166.205	0.083	0.117
-358.610	45.151	0.085	-0.079
-357.596	-163.718	0.152	-0.007
-356.581	120.324	-0.204	0.254
-355.566	699.813	0.136	0.357
-354.552	-46.061	-0.078	0.038
-353.537	98.128	-0.150	0.172
-352.523	-61.768	-0.166	-0.070
-351.508	71.297	0.267	-0.277
-350.493	-112.761	-0.214	-0.043
-349.479	-147.837	0.197	0.016
-348.464	533.776	-0.131	0.309
-347.450	-23.677	0.213	0.127
-346.435	-41.541	0.089	0.046
-345.420	26.883	-0.155	0.130
-344.406	-115.201	0.179	-0.034
-343.391	183.435	-0.216	0.319
-342.377	-78.193	0.211	-0.073
-341.362	-200.000	-0.043	0.343
-340.348	308.501	-0.202	-0.376
-339.333	106.885	-0.051	-0.060
-338.318	-200.000	0.057	-0.460
-337.304	-127.470	-0.250	-0.036
-336.289	69.139	-0.153	0.158
-335.275	-74.973	-0.040	-0.014
-334.260	584.195	-0.054	-0.133
-333.245	800.000	-0.027	0.103
-332.231	-86.094	-0.075	-0.023
-331.216	-19.549	0.373	-0.231
-330.202	176.077	0.116	0.168
-329.187	535.282	-0.106	0.250
-328.172	-200.000	0.021	0.128
-327.158	-200.000	-0.048	0.401
-326.143	249.514	0.056	0.094
-325.129	-200.000	0.038	-0.314
-324.114	-200.000	0.003	-0.039
-323.099	-200.000	-0.121	0.000
-322.085	-21.031	-0.248	0.151
-321.070	-200.000	0.032	0.165
-320.056	-48.031	0.151	0.073
-319.041	93.264	-0.299	-0.338
-318.026	-124.779	0.330	-0.051
-317.012	124.253	0.076	-0.096
-315.997	-200.000	0.010	-0.266
-314.983	-140.471	-0.025	0.003
-313.968	15.049	0.124	-0.097
-312.953	736.275	-0.106	-0.285
-311.939	197.404	-0.332	-0.505
-310.924	80.052	-0.133	-0.143
-309.910	2.418	-0.073	-0.053
-308.895	-61.157	0.293	-0.123
-307.880	69.879	0.188	-0.193
-306.866	800.000	-0.018	0.069
-305.851	-200.000	0.040	0.182
-304.837	-54.804	-0.391	0.176
-303.822	800.000	-0.037	-0.134
-302.807	-40.392	-0.020	0.010
-301.793	9.920	-0.183	0.139
-300.778	-200.000	-0.015	-0.103
-299.764	-32.715	-0.077	0.043
-298.749	800.000	-0.118	0.510
-297.735	-200.000	-0.014	0.200
-296.720	800.000	0.055	0.171
-295.705	52.421	-0.301	-0.287
-294.691	304.807	0.219	0.406
-293.676	800.000	0.039	0.164
-292.662	-200.000	0.014	0.197
-291.647	800.000	-0.049	0.174
-290.632	177.848	0.108	-0.157
-289.618	800.000	-0.087	-0.365
-288.603	-200.000	0.023	-0.187
-287.589	28.114	0.090	0.076
-286.574	493.583	0.072	-0.164
-285.559	591.925	-0.054	-0.132
-284.545	800.000	0.063	0.178
-283.530	69.474	0.235	-0.242
-282.516	800.000	0.095	0.329
-281.501	-200.000	-0.004	-0.294
-280.486	-200.000	-0.029	0.232
-279.472	-45.500	0.232	0.115
-278.457	-33.781	-0.140	-0.077
-277.443	-42.608	0.166	0.084
-276.428	-92.957	-0.230	0.064
-275.413	-200.000	-0.008	-0.119
-274.399	800.000	-0.056	0.201
-273.384	59.479	-0.147	-0.145
-272.370	-146.595	0.341	0.030
-271.355	800.000	-0.058	0.222
-270.340	56.803	0.131	-0.127
-269.326	-132.084	-0.188	0.024
-268.311	122.999	0.049	0.062
-267.297	-31.285	-0.254	0.143
-266.282	52.936	-0.103	-0.098
-265.267	-121.484	-0.256	-0.042
-264.253	-12.817	0.274	-0.178
-263.238	-34.333	0.199	0.109
-262.224	-200.000	-0.006	0.073
-261.209	-17.788	-0.141	-0.088
-260.195	61.817	0.229	-0.227
-259.180	-200.000	0.046	-0.250
-258.165	56.468	-0.290	-0.281
-257.151	-132.023	-0.205	-0.027
-256.136	30.475	-0.123	-0.105
-255.122	-200.000	-0.021	0.310
-254.107	-108.353	0.338	0.073
-253.092	70.182	0.013	0.014
-252.078	91.695	0.131	0.146
-251.063	664.185	-0.139	0.357
-250.049	439.674	-0.097	0.211
-249.034	777.303	0.111	-0.302
-248.019	58.470	-0.205	0.200
-247.005	-200.000	-0.033	0.273
-245.990	-200.000	0.074	-0.360
-244.976	83.339	0.121	0.131
-243.961	-77.015	0.278	0.096
-242.946	-200.000	-0.040	0.264
-241.932	-200.000	0.009	-0.288
-240.917	-119.006	-0.170	-0.030
-239.903	511.068	0.144	0.333
-238.888	-83.719	0.211	0.067
-237.873	69.688	0.125	0.128
-236.859	-61.719	0.041	0.017
-235.844	-200.000	-0.004	0.244
-234.830	136.949	-0.324	0.421
-233.815	-155.114	-0.558	0.036
-232.800	-23.827	-0.334	0.199
-231.786	-200.000	-0.061	-0.335
-230.771	800.000	0.099	-0.404
-229.757	800.000	0.138	-0.421
-228.742	-200.000	-0.068	-0.324
-227.727	800.000	-0.046	0.191
-226.713	-97.037	0.189	-0.049
-225.698	428.145	0.106	0.229
-224.684	-45.295	0.062	0.031
-223.669	800.000	0.084	-0.311
-222.655	6.279	0.038	0.028
-221.640	225.852	0.160	-0.258
-220.625	-14.124	0.323	0.207
-219.611	135.641	-0.059	-0.076
-218.596	-142.842	0.182	-0.018
-217.582	-53.141	-0.260	-0.119
-216.567	-143.204	-0.110	-0.010
-215.552	-62.749	-0.192	0.079
-214.538	320.639	0.123	-0.232
-213.523	546.012	-0.107	-0.254
-212.509	-135.385	-0.142	-0.017
-211.494	-124.726	0.134	0.021
-210.479	-57.792	0.247	-0.107
-209.465	149.610	0.144	0.194
-208.450	68.684	-0.163	0.167
-207.436	82.268	0.171	-0.184
-206.421	-200.000	-0.056	0.429
-205.406	-110.909	0.274	-0.056
-204.392	479.934	-0.088	-0.198
-203.377	215.259	0.022	0.035
-202.363	-146.528	-0.126	0.011
-201.348	800.000	-0.100	0.306
-200.333	800.000	0.051	0.149
-199.319	4.035	0.238	0.173
-198.304	-200.000	-0.000	0.080
-197.290	-145.494	0.223	0.020
-196.275	96.577	-0.239	0.271
-195.260	800.000	0.033	0.115
-194.246	246.717	-0.147	0.247
-193.231	-106.149	-0.189	0.042
-192.217	-100.323	0.071	0.017
-191.202	-153.862	-0.146	0.010
-190.187	-107.284	-0.319	0.070
-189.173	-96.077	0.082	0.022
-188.158	174.953	-0.019	0.028
-187.144	397.709	0.199	0.413
-186.129	30.812	0.235	-0.200
-185.114	-102.719	0.172	-0.041
-184.100	-200.000	-0.040	0.410
-183.085	37.498	0.072	0.063
-182.071	-200.000	0.016	0.153
-181.056	-99.989	-0.288	0.071
-180.042	-200.000	0.027	0.237
-179.027	118.851	-0.032	0.039
-178.012	5.218	-0.058	0.042
-176.998	-92.062	0.203	0.057
-175.983	-20.412	-0.355	-0.217
-174.969	204.692	0.143	0.220
-173.954	473.202	-0.117	-0.262
-172.939	393.385	0.174	-0.360
-171.925	-73.011	-0.314	0.114
-170.910	-65.159	0.170	-0.068
-169.896	3.718	-0.212	-0.154
-168.881	89.933	0.144	0.160
-167.866	-43.502	0.111	-0.055
-166.852	-200.000	-0.034	-0.168
-165.837	800.000	0.067	-0.184
-164.823	70.621	-0.073	0.075
-163.808	324.855	0.218	0.413
-162.793	-200.000	-0.033	-0.184
-161.779	126.175	-0.075	-0.094
-160.764	-83.494	0.337	0.107
-159.750	-55.199	-0.134	0.060
-158.735	-57.763	-0.037	0.016
-157.720	-200.000	-0.019	0.167
-156.706	-119.400	0.176	-0.030
-155.691	-52.591	0.240	0.110
-154.677	800.000	-0.090	0.314
-153.662	-200.000	-0.011	0.083
-152.647	-200.000	-0.061	-0.289
-151.633	4.500	0.075	0.055
-150.618	40.445	0.264	0.236
-149.604	146.714	-0.106	0.141
-148.589	-72.153	0.136	0.050
-147.574	-129.927	-0.197	0.027
-146.560	-17.639	-0.601	-0.374
-145.545	-152.791	0.150	0.011
-144.531	-174.208	0.284	-0.008
-143.516	25.245	0.226	-0.186
-142.502	42.018	0.112	0.101
-141.487	-32.854	0.221	-0.122
-140.472	-200.000	-0.050	0.226
-139.458	-0.149	-0.301	0.213
-138.443	376.375	0.137	-0.277
-137.429	800.000	0.019	-0.061
-136.414	800.000	0.084	-0.234
-135.399	50.760	0.134	0.126
-134.385	277.896	0.146	-0.258
-133.370	-108.318	-0.357	0.076
-132.356	-200.000	0.010	0.131
-131.341	800.000	0.070	0.268
-130.326	715.116	-0.072	0.189
-129.312	-200.000	0.035	-0.265
-128.297	800.000	-0.064	-0.198
-127.283	-21.810	-0.286	-0.172
-126.268	-148.430	0.368	-0.030
-125.253	43.687	0.166	0.151
-124.239	-86.279	-0.329	0.100
-123.224	332.864	0.015	-0.029
-122.210	-57.797	-0.211	0.091
-121.195	-200.000	0.075	0.460
