DTS Sentinel unit serial number:	SN413079Multiplexer serial number:	ORYXHardware model number:	OX4-SRSoftware version number:	ORYX F/W v4.00 Oryx Data Collector v3.7.2.0data status	okinstallation	princeton_trtdifferential loss correction	single-endedforward channel	channel 4reverse channel	N/Adate	2019/09/10time	17:59:11forward acquisition time	60.00reverse acquisition time	0.00gamma	496.2192k internal	0.2298k external	0.2298temperature offset calibration	0.9942default loss term (dB/km)	0.3790temperature slope calibration	1.0000multiplexer offset coefficient	1.0000multiplexer slope coefficient	1.0000fibre end	0.00T internal ref (°C)	37.17T ext. ref 1 (°C)	-0.37T ext. ref 2 (°C)	29.66length (m)	temperature (°C)	Stokes	anti-Stokes-747.200	-200.000	0.005	0.085
-746.185	516.253	-0.142	0.340
-745.171	63.105	0.070	-0.071
-744.156	-119.282	-0.185	-0.033
-743.142	-87.930	-0.133	0.041
-742.127	342.202	0.097	0.194
-741.112	664.879	-0.036	0.095
-740.098	-200.000	-0.037	0.239
-739.083	516.755	-0.056	-0.135
-738.069	486.287	0.070	0.163
-737.054	800.000	-0.114	-0.387
-736.039	-58.542	-0.158	0.070
-735.025	228.023	0.118	0.195
-734.010	257.665	-0.185	-0.324
-732.996	-93.152	0.104	-0.030
-731.981	-147.266	-0.186	-0.016
-730.966	573.790	0.028	-0.070
-729.952	441.166	0.057	-0.128
-728.937	-110.071	-0.444	0.095
-727.923	40.435	0.078	-0.071
-726.908	-114.593	-0.320	-0.063
-725.894	-200.000	-0.013	-0.264
-724.879	-19.220	0.183	0.116
-723.864	16.742	0.140	-0.113
-722.850	-86.547	0.098	0.031
-721.835	-15.984	-0.089	0.058
-720.821	-125.100	-0.317	-0.050
-719.806	-200.000	-0.036	0.223
-718.791	-122.386	-0.107	-0.018
-717.777	-122.278	-0.540	-0.090
-716.762	87.057	-0.279	-0.315
-715.748	104.235	0.076	-0.091
-714.733	-107.831	0.161	0.036
-713.718	800.000	-0.022	0.091
-712.704	-200.000	-0.002	-0.319
-711.689	-200.000	-0.011	0.112
-710.675	121.673	0.148	0.188
-709.660	-51.679	-0.297	-0.141
-708.645	129.197	-0.185	-0.240
-707.631	279.026	-0.140	-0.255
-706.616	371.133	-0.092	0.190
-705.602	-67.299	-0.224	-0.090
-704.587	-72.264	-0.222	-0.084
-703.572	-7.071	0.234	0.162
-702.558	-31.606	0.089	0.051
-701.543	800.000	-0.106	-0.356
-700.529	67.531	0.104	0.108
-699.514	362.245	-0.128	0.261
-698.499	659.484	0.041	0.106
-697.485	-86.121	-0.184	0.058
-696.470	800.000	-0.031	0.127
-695.456	-184.388	-0.221	-0.004
-694.441	649.204	0.088	-0.228
-693.426	-42.146	-0.187	-0.098
-692.412	172.457	0.111	0.163
-691.397	800.000	0.086	-0.342
-690.383	78.485	0.267	-0.291
-689.368	-200.000	-0.088	-0.402
-688.354	67.593	0.071	0.074
-687.339	72.987	-0.142	0.151
-686.324	-172.786	0.091	0.003
-685.310	148.696	-0.253	-0.348
-684.295	587.658	-0.164	-0.412
-683.281	359.445	0.040	-0.082
-682.266	-200.000	-0.063	-0.382
-681.251	215.844	0.040	-0.065
-680.237	-80.160	0.252	-0.086
-679.222	-169.935	0.113	-0.004
-678.208	800.000	-0.023	-0.068
-677.193	215.580	-0.022	-0.035
-676.178	50.098	-0.125	-0.120
-675.164	218.231	-0.103	0.168
-674.149	739.611	-0.053	0.144
-673.135	800.000	-0.048	0.209
-672.120	-97.924	0.127	0.033
-671.105	-0.966	-0.373	-0.269
-670.091	280.654	0.133	-0.243
-669.076	-193.180	-0.183	0.002
-668.062	96.047	0.170	0.198
-667.047	-41.331	0.173	-0.091
-666.032	-26.213	0.252	-0.151
-665.018	-0.785	-0.344	-0.248
-664.003	212.979	-0.144	-0.231
-662.989	-36.354	0.555	-0.304
-661.974	-200.000	0.023	0.185
-660.959	-200.000	0.043	0.290
-659.945	130.976	0.083	-0.109
-658.930	89.129	0.215	-0.244
-657.916	-4.316	0.120	-0.085
-656.901	-200.000	0.022	0.274
-655.886	-19.698	0.069	-0.043
-654.872	-29.076	0.486	-0.284
-653.857	593.894	-0.098	0.246
-652.843	25.094	0.210	-0.177
-651.828	-180.294	-0.170	0.004
-650.814	-28.612	0.126	0.074
-649.799	56.956	0.231	0.229
-648.784	-157.487	-0.311	0.019
-647.770	144.257	0.068	-0.092
-646.755	667.639	-0.031	0.082
-645.741	800.000	-0.032	0.134
-644.726	69.325	-0.123	0.129
-643.711	0.523	0.120	-0.087
-642.697	9.460	-0.371	0.286
-641.682	-71.155	-0.244	-0.093
-640.668	80.724	-0.241	-0.264
-639.653	-42.849	0.162	-0.084
-638.638	185.917	-0.067	0.102
-637.624	437.043	0.043	-0.096
-636.609	-133.503	-0.090	0.011
-635.595	-200.000	0.004	-0.401
-634.580	69.061	-0.233	0.243
-633.565	-40.927	0.193	0.101
-632.551	-200.000	0.008	-0.212
-631.536	-200.000	-0.051	-0.397
-630.522	-56.492	0.267	-0.120
-629.507	45.289	-0.286	-0.268
-628.492	-6.317	0.131	0.091
-627.478	-141.094	0.293	-0.030
-626.463	94.959	-0.130	0.150
-625.449	7.965	-0.240	-0.183
-624.434	-49.120	-0.158	-0.077
-623.419	-200.000	-0.007	-0.207
-622.405	-148.874	-0.385	0.032
-621.390	494.912	0.046	0.106
-620.376	377.886	0.088	0.183
-619.361	-110.262	0.255	-0.054
-618.346	-118.651	-0.125	0.022
-617.332	-159.614	0.167	0.009
-616.317	34.083	-0.151	-0.133
-615.303	-200.000	0.058	-0.363
-614.288	-65.736	0.240	0.098
-613.273	800.000	0.095	0.302
-612.259	-200.000	-0.034	0.296
-611.244	-163.500	0.026	-0.001
-610.230	800.000	-0.096	0.349
-609.215	222.032	-0.087	-0.142
-608.201	-190.320	0.361	0.004
-607.186	-113.677	-0.384	0.076
-606.171	379.198	0.078	-0.163
-605.157	-107.134	0.200	-0.045
-604.142	-64.143	-0.360	-0.149
-603.128	-190.311	0.219	0.002
-602.113	-200.000	-0.044	-0.301
-601.098	-110.576	-0.337	0.071
-600.084	-189.672	0.215	-0.003
-599.069	-70.986	-0.184	0.070
-598.055	-200.000	-0.055	-0.263
-597.040	62.688	0.232	0.236
-596.025	-200.000	0.014	-0.126
-595.011	-71.149	0.097	-0.037
-593.996	-51.252	-0.346	0.164
-592.982	15.961	-0.068	-0.055
-591.967	800.000	0.120	-0.456
-590.952	156.916	0.106	-0.148
-589.938	-76.918	0.193	-0.068
-588.923	-122.645	-0.201	-0.033
-587.909	90.910	-0.135	-0.153
-586.894	-167.439	0.126	-0.005
-585.879	-200.000	0.024	0.166
-584.865	109.193	0.072	0.088
-583.850	-92.531	0.276	-0.079
-582.836	-164.945	-0.126	-0.006
-581.821	-200.000	-0.054	0.329
-580.806	-12.833	-0.067	0.044
-579.792	-200.000	-0.033	-0.256
-578.777	-11.346	-0.219	-0.146
-577.763	15.532	0.132	-0.105
-576.748	-30.389	-0.298	-0.172
-575.733	90.586	-0.136	0.154
-574.719	-200.000	0.006	-0.190
-573.704	-144.680	-0.154	-0.014
-572.690	-142.177	0.325	-0.033
-571.675	-136.063	0.173	0.021
-570.661	85.129	0.211	-0.234
-569.646	-200.000	0.040	0.253
-568.631	-68.360	0.547	-0.216
-567.617	46.939	0.143	0.135
-566.602	-59.335	-0.043	-0.019
-565.588	122.014	-0.216	-0.274
-564.573	1.693	0.218	0.160
-563.558	32.808	0.148	-0.130
-562.544	-102.339	0.302	-0.073
-561.529	-200.000	0.003	-0.075
-560.515	-108.161	-0.318	-0.070
-559.500	-175.163	-0.101	0.003
-558.485	-54.789	-0.102	0.047
-557.471	2.546	-0.250	0.183
-556.456	50.161	0.136	-0.130
-555.442	83.032	0.023	0.025
-554.427	-12.710	0.017	-0.011
-553.412	-32.169	-0.203	-0.115
-552.398	-88.114	-0.278	-0.084
-551.383	800.000	0.074	0.302
-550.369	-63.794	-0.222	0.092
-549.354	-85.452	0.343	-0.108
-548.339	-1.091	0.177	-0.127
-547.325	-200.000	-0.017	0.240
-546.310	-190.435	0.261	0.003
-545.296	-200.000	0.033	-0.173
-544.281	36.570	-0.159	-0.142
-543.266	800.000	-0.073	0.238
-542.252	-103.301	-0.276	-0.066
-541.237	800.000	0.074	-0.268
-540.223	285.634	0.032	-0.058
-539.208	7.149	-0.019	-0.015
-538.193	-200.000	0.008	-0.242
-537.179	-70.628	0.222	0.085
-536.164	285.247	0.156	0.285
-535.150	135.821	-0.037	0.049
-534.135	-108.678	0.067	-0.015
-533.121	-55.161	-0.147	0.067
-532.106	-109.963	0.246	0.052
-531.091	-200.000	-0.039	0.382
-530.077	119.709	-0.063	-0.078
-529.062	20.664	0.193	-0.158
-528.048	-44.937	-0.116	0.058
-527.033	-17.680	0.140	-0.089
-526.018	41.856	0.377	0.346
-525.004	180.603	-0.113	0.168
-523.989	-200.000	0.003	-0.264
-522.975	-200.000	0.044	-0.262
-521.960	716.501	-0.034	0.090
-520.945	-138.647	-0.143	-0.016
-519.931	206.547	0.152	-0.240
-518.916	29.718	0.207	-0.179
-517.902	-46.835	-0.182	0.090
-516.887	-28.877	-0.219	0.127
-515.872	40.890	0.205	-0.188
-514.858	-200.000	0.008	0.044
-513.843	111.670	0.167	-0.204
-512.829	9.483	0.282	-0.216
-511.814	404.683	-0.066	0.142
-510.799	-200.000	-0.040	0.337
-509.785	241.961	0.110	0.187
-508.770	-200.000	-0.066	-0.376
-507.756	-79.943	-0.146	0.050
-506.741	-71.446	-0.151	-0.057
-505.726	203.748	-0.069	0.108
-504.712	410.599	0.137	0.294
-503.697	-17.367	0.134	-0.086
-502.683	-14.339	0.141	-0.092
-501.668	800.000	-0.096	0.305
-500.653	-26.605	-0.095	-0.056
-499.639	800.000	-0.073	-0.227
-498.624	-66.450	0.393	-0.158
-497.610	800.000	0.076	0.216
-496.595	-90.991	0.230	0.067
-495.581	-91.828	-0.205	0.059
-494.566	188.424	-0.081	-0.123
-493.551	-200.000	0.008	-0.126
-492.537	25.459	-0.144	-0.121
-491.522	341.861	0.149	0.295
-490.508	75.944	0.108	-0.116
-489.493	375.119	-0.057	-0.118
-488.478	-124.101	0.373	0.059
-487.464	483.475	0.128	0.295
-486.449	160.551	0.239	0.337
-485.435	800.000	0.061	-0.206
-484.420	-68.959	0.339	-0.132
-483.405	-200.000	-0.041	-0.266
-482.391	562.192	-0.050	-0.121
-481.376	426.520	-0.116	-0.254
-480.362	-200.000	0.007	0.232
-479.347	148.856	0.082	0.113
-478.332	-70.948	-0.293	0.111
-477.318	-200.000	0.001	0.186
-476.303	-54.636	-0.185	0.085
-475.289	-200.000	-0.023	-0.119
-474.274	800.000	-0.051	0.199
-473.259	85.461	0.183	0.204
-472.245	800.000	0.055	0.242
-471.230	-200.000	0.031	0.148
-470.216	-101.973	0.270	0.066
-469.201	-200.000	0.006	-0.214
-468.186	53.556	0.108	-0.105
-467.172	-72.314	-0.351	0.131
-466.157	59.075	-0.110	-0.110
-465.143	-200.000	0.020	-0.222
-464.128	-77.306	0.062	-0.022
-463.113	-200.000	0.027	0.250
-462.099	800.000	-0.118	0.436
-461.084	46.809	-0.100	-0.094
-460.070	-200.000	0.010	0.062
-459.055	347.841	0.075	-0.149
-458.040	270.626	-0.159	0.282
-457.026	-159.935	-0.154	-0.009
-456.011	4.194	0.216	0.159
-454.997	800.000	0.101	-0.317
-453.982	166.119	0.057	0.081
-452.968	-54.201	0.183	0.084
-451.953	-200.000	0.028	0.156
-450.938	502.010	-0.005	-0.012
-449.924	-200.000	0.006	-0.142
-448.909	652.728	0.097	-0.251
-447.895	-80.498	-0.219	-0.074
-446.880	305.610	-0.040	0.076
-445.865	133.910	0.053	0.069
-444.851	-200.000	-0.022	-0.279
-443.836	688.684	-0.140	0.370
-442.822	42.395	-0.145	-0.133
-441.807	111.484	0.096	0.117
-440.792	91.692	0.059	0.067
-439.778	-59.059	0.257	-0.112
-438.763	7.912	0.163	0.124
-437.749	-10.311	-0.277	0.185
-436.734	164.414	-0.034	0.048
-435.719	76.844	0.215	0.230
-434.705	-65.508	-0.279	0.113
-433.690	-200.000	-0.040	-0.293
-432.676	-48.761	-0.127	0.062
-431.661	-20.340	0.256	0.159
-430.646	-43.871	0.250	-0.127
-429.632	256.611	-0.062	-0.107
-428.617	800.000	0.050	0.157
-427.603	-200.000	0.048	0.223
-426.588	-87.599	0.137	-0.042
-425.573	65.043	0.194	-0.198
-424.559	-0.368	-0.137	-0.098
-423.544	800.000	0.075	0.230
-422.530	-140.576	-0.224	0.023
-421.515	-86.981	0.112	0.035
-420.500	635.141	-0.078	0.200
-419.486	61.114	-0.196	-0.196
-418.471	-200.000	-0.057	-0.330
-417.457	-61.470	0.031	-0.013
-416.442	255.056	-0.064	0.111
-415.428	175.098	-0.253	-0.369
-414.413	-108.495	-0.307	0.067
-413.398	123.932	0.043	-0.055
-412.384	385.932	-0.175	-0.364
-411.369	800.000	-0.010	0.031
-410.355	-85.544	0.480	-0.150
-409.340	4.730	-0.193	-0.143
-408.325	160.275	-0.075	0.105
-407.311	-200.000	0.001	0.058
-406.296	-200.000	0.020	-0.113
-405.282	-11.687	-0.249	0.165
-404.267	-135.269	0.115	-0.014
-403.252	122.809	-0.193	-0.243
-402.238	-20.721	0.300	0.186
-401.223	-39.844	-0.033	0.017
-400.209	394.550	-0.093	0.195
-399.194	84.373	0.396	-0.436
-398.179	49.617	-0.178	0.169
-397.165	419.734	-0.121	-0.261
-396.150	-153.542	-0.091	-0.006
-395.136	800.000	-0.025	0.078
-394.121	-94.370	0.126	0.035
-393.106	4.587	-0.158	-0.117
-392.092	-23.465	0.171	0.104
-391.077	800.000	0.103	0.394
-390.063	378.408	-0.133	0.275
-389.048	-40.184	0.263	-0.138
-388.033	-132.904	0.279	-0.036
-387.019	-60.543	-0.294	-0.126
-386.004	-41.440	-0.102	-0.053
-384.990	-200.000	-0.026	0.118
-383.975	-116.345	-0.148	-0.028
-382.960	-30.497	-0.281	0.160
-381.946	-88.887	-0.271	0.081
-380.931	-64.253	0.246	0.101
-379.917	709.111	-0.071	0.189
-378.902	-82.117	-0.198	-0.065
-377.888	800.000	0.105	-0.385
-376.873	-59.008	-0.246	-0.107
-375.858	-77.780	0.186	0.065
-374.844	9.017	0.253	-0.192
-373.829	-36.320	0.113	0.061
-372.815	-112.256	-0.163	0.033
-371.800	-159.409	-0.276	-0.016
-370.785	150.278	0.014	0.020
-369.771	-21.489	-0.094	-0.058
-368.756	473.936	0.110	0.249
-367.742	-162.375	0.215	-0.011
-366.727	-75.666	0.176	-0.063
-365.712	47.057	0.156	-0.146
-364.698	-107.163	0.183	0.040
-363.683	-200.000	0.048	0.290
-362.669	227.771	0.145	0.238
-361.654	-49.860	-0.080	0.038
-360.639	-183.201	-0.041	-0.001
-359.625	-81.551	-0.302	-0.100
-358.610	-97.563	-0.357	0.093
-357.596	52.264	0.099	0.095
-356.581	-34.893	0.360	-0.198
-355.566	-200.000	-0.032	0.231
-354.552	-200.000	0.038	0.505
-353.537	-200.000	0.031	0.241
-352.523	658.648	0.041	0.106
-351.508	-41.412	-0.053	0.028
-350.493	-72.586	0.238	-0.088
-349.479	112.098	0.061	0.074
-348.464	17.368	-0.357	0.285
-347.450	-165.798	-0.248	-0.011
-346.435	800.000	-0.065	-0.183
-345.420	-11.294	-0.113	-0.075
-344.406	37.397	-0.108	0.096
-343.391	34.089	0.222	-0.195
-342.377	10.945	0.110	0.085
-341.362	85.296	0.065	0.072
-340.348	-200.000	-0.040	0.247
-339.333	316.748	0.100	0.190
-338.318	-72.582	0.151	-0.056
-337.304	12.840	-0.257	-0.200
-336.289	11.467	0.085	0.065
-335.275	-161.238	0.243	-0.013
-334.260	0.229	-0.239	-0.171
-333.245	426.584	0.050	0.108
-332.231	-72.559	0.058	0.021
-331.216	-18.794	-0.024	-0.015
-330.202	800.000	0.073	0.305
-329.187	83.912	0.281	0.309
-328.172	79.640	0.060	-0.064
-327.158	-150.616	0.231	0.018
-326.143	194.166	-0.268	0.408
-325.129	296.381	0.006	0.011
-324.114	-200.000	-0.006	-0.133
-323.099	-87.266	-0.229	0.070
-322.085	481.160	-0.058	-0.132
-321.070	-200.000	-0.056	0.257
-320.056	-200.000	0.037	-0.268
-319.041	-200.000	-0.017	0.109
-318.026	20.942	-0.121	-0.098
-317.012	104.641	0.187	0.221
-315.997	670.472	0.063	0.163
-314.983	7.607	-0.143	-0.108
-313.968	-200.000	-0.002	-0.098
-312.953	-4.575	0.207	0.143
-311.939	414.821	0.100	0.213
-310.924	-110.514	0.264	-0.055
-309.910	-22.344	-0.043	0.026
-308.895	41.745	0.055	-0.050
-307.880	276.460	-0.099	-0.176
-306.866	-17.447	0.099	-0.062
-305.851	40.888	-0.177	0.160
-304.837	167.395	0.094	-0.134
-303.822	45.977	-0.140	0.130
-302.807	35.256	0.109	-0.096
-301.793	-93.740	0.360	-0.100
-300.778	-200.000	0.017	-0.457
-299.764	-200.000	-0.015	-0.427
-298.749	495.612	0.144	0.332
-297.735	223.342	-0.012	0.019
-296.720	133.629	-0.063	0.082
-295.705	507.546	-0.081	0.189
-294.691	36.201	0.198	0.175
-293.676	-200.000	-0.010	-0.045
-292.662	47.717	0.135	-0.127
-291.647	800.000	0.078	-0.303
-290.632	108.197	-0.040	-0.047
-289.618	-200.000	-0.045	-0.606
-288.603	-200.000	0.019	0.239
-287.589	-132.288	0.097	-0.013
-286.574	174.834	-0.102	0.148
-285.559	28.250	-0.121	-0.102
-284.545	119.302	-0.120	-0.148
-283.530	800.000	-0.103	0.293
-282.516	35.182	-0.062	-0.054
-281.501	286.215	0.042	-0.076
-280.486	800.000	-0.065	0.215
-279.472	-50.848	0.188	-0.089
-278.457	-61.545	-0.150	-0.063
-277.443	-200.000	-0.008	0.174
-276.428	-23.668	-0.273	0.164
-275.413	-200.000	-0.019	-0.114
-274.399	294.473	0.116	-0.213
-273.384	36.271	-0.232	-0.205
-272.370	-200.000	0.011	-0.110
-271.355	8.691	0.089	-0.067
-270.340	72.311	0.065	0.068
-269.326	384.869	-0.140	0.288
-268.311	79.222	-0.165	0.177
-267.297	122.988	0.227	0.285
-266.282	-200.000	-0.081	0.444
-265.267	63.455	-0.288	-0.290
-264.253	-142.724	-0.192	0.019
-263.238	-200.000	0.030	0.180
-262.224	69.035	-0.071	0.074
-261.209	214.190	0.113	-0.180
-260.195	800.000	0.103	-0.285
-259.180	-200.000	-0.052	-0.315
-258.165	-151.697	-0.232	-0.017
-257.151	-200.000	-0.242	0.000
-256.136	161.537	-0.213	0.299
-255.122	798.366	-0.103	-0.284
-254.107	-82.616	0.144	0.047
-253.092	-75.283	-0.360	0.129
-252.078	-50.312	-0.086	-0.041
-251.063	491.689	0.088	-0.201
-250.049	800.000	0.129	-0.474
-249.034	-200.000	-0.003	0.135
-248.019	-68.805	-0.404	0.156
-247.005	-200.000	0.015	0.100
-245.990	4.219	-0.218	0.160
-244.976	-200.000	0.052	0.489
-243.961	758.542	0.052	-0.141
-242.946	-68.020	0.126	-0.049
-241.932	800.000	-0.020	-0.083
-240.917	-200.000	0.038	0.211
-239.903	-40.220	-0.292	-0.152
-238.888	-100.430	0.092	0.023
-237.873	302.124	0.098	0.181
-236.859	-103.366	0.221	0.052
-235.844	574.350	0.065	0.158
-234.830	631.095	0.123	-0.313
-233.815	460.831	-0.075	0.167
-232.800	-71.303	-0.189	-0.071
-231.786	719.460	0.063	0.168
-230.771	77.568	0.146	-0.156
-229.757	15.620	-0.178	-0.140
-228.742	-60.399	0.287	0.122
-227.727	-200.000	0.002	-0.173
-226.713	-33.002	0.235	-0.131
-225.698	-73.299	0.174	0.064
-224.684	-61.806	0.176	-0.074
-223.669	122.233	0.104	-0.130
-222.655	-120.762	0.434	0.073
-221.640	366.156	-0.046	-0.094
-220.625	-28.572	0.047	0.027
-219.611	800.000	0.035	0.111
-218.596	197.977	-0.168	-0.257
-217.582	-11.808	0.124	-0.082
-216.567	800.000	0.035	0.130
-215.552	-86.473	-0.263	0.081
-214.538	10.626	0.007	-0.005
-213.523	-171.504	0.172	-0.006
-212.509	167.659	-0.135	0.191
-211.494	17.678	0.100	0.080
-210.479	-148.500	-0.335	-0.027
-209.465	800.000	-0.026	-0.083
-208.450	-165.054	0.184	0.008
-207.436	-200.000	-0.027	0.179
-206.421	-200.000	-0.398	-0.001
-205.406	-200.000	-0.321	0.000
-204.392	-200.000	0.022	-0.181
-203.377	-200.000	0.005	0.026
-202.363	-72.604	-0.334	-0.123
-201.348	87.514	0.197	0.218
-200.333	-77.625	-0.163	-0.056
-199.319	11.030	0.079	-0.060
-198.304	-13.788	0.121	0.078
-197.290	-62.508	0.184	0.076
-196.275	-200.000	0.019	-0.193
-195.260	187.404	-0.131	-0.195
-194.246	-200.000	0.004	-0.209
-193.231	-10.204	-0.186	-0.123
-192.217	328.218	0.024	-0.045
-191.202	145.408	0.162	0.217
-190.187	800.000	-0.051	-0.209
-189.173	338.974	0.056	-0.108
-188.158	-200.000	-0.026	-0.181
-187.144	800.000	0.035	-0.143
-186.129	-146.720	0.287	0.025
-185.114	-123.988	0.293	-0.046
-184.100	-18.312	-0.372	0.232
-183.085	-79.128	0.393	0.133
-182.071	263.853	-0.041	-0.071
-181.056	3.927	-0.026	-0.019
-180.042	-200.000	-0.002	0.030
-179.027	-200.000	0.007	0.060
-178.012	-200.000	0.016	-0.323
-176.998	-58.148	0.228	0.099
-175.983	111.343	0.102	0.122
-174.969	659.111	0.093	0.240
-173.954	-182.376	0.089	0.002
-172.939	-97.566	0.334	0.087
-171.925	73.807	-0.107	0.111
-170.910	-105.061	-0.268	-0.061
-169.896	-111.123	0.369	-0.076
-168.881	-135.443	-0.364	0.043
-167.866	-64.826	0.269	-0.109
-166.852	-104.733	-0.168	-0.039
-165.837	187.692	-0.104	-0.154
-164.823	58.402	-0.224	-0.219
-163.808	-46.779	0.242	-0.118
-162.793	98.286	-0.184	0.212
-161.779	382.298	0.096	-0.196
-160.764	10.240	-0.339	0.257
-159.750	800.000	-0.018	0.059
-158.735	-93.523	-0.253	0.070
-157.720	570.161	-0.132	0.322
-156.706	-4.181	-0.255	-0.176
-155.691	120.760	0.108	-0.133
-154.677	-200.000	-0.010	0.048
-153.662	-49.534	-0.257	-0.122
-152.647	-116.620	-0.314	0.058
-151.633	-44.578	0.089	-0.045
-150.618	-200.000	0.020	-0.234
-149.604	21.078	-0.042	0.034
-148.589	-42.284	0.188	0.096
-147.574	44.466	0.025	0.023
-146.560	115.025	-0.206	0.251
-145.545	-200.000	0.007	0.059
-144.531	-163.596	0.540	-0.025
-143.516	304.440	-0.111	0.206
-142.502	-200.000	0.039	0.243
-141.487	-113.683	-0.234	0.046
-140.472	-48.941	0.134	0.064
-139.458	-17.435	0.274	0.172
-138.443	73.079	0.241	0.251
-137.429	104.498	0.103	-0.121
-136.414	-26.509	-0.277	0.162
-135.399	-57.917	0.211	-0.092
-134.385	-200.000	0.010	-0.151
-133.370	-200.000	-0.003	0.022
-132.356	-92.109	-0.168	-0.047
-131.341	-38.839	0.147	-0.077
-130.326	249.717	0.072	0.121
-129.312	-200.000	0.017	-0.235
-128.297	501.234	0.039	-0.089
-127.283	-3.013	0.253	-0.176
-126.268	-151.221	-0.140	0.010
-125.253	-31.256	-0.281	0.158
-124.239	-16.406	0.233	0.148
-123.224	468.400	0.101	0.226
-122.210	-151.299	0.276	0.021
-121.195	-15.000	0.260	-0.166
-120.180	42.624	0.093	-0.084
