DTS Sentinel unit serial number:	SN413079Multiplexer serial number:	ORYXHardware model number:	OX4-SRSoftware version number:	ORYX F/W v4.00 Oryx Data Collector v3.7.2.0data status	okinstallation	princeton_trtdifferential loss correction	single-endedforward channel	channel 4reverse channel	N/Adate	2019/09/11time	14:27:11forward acquisition time	60.00reverse acquisition time	0.00gamma	496.2192k internal	0.2281k external	0.2281temperature offset calibration	1.0006default loss term (dB/km)	0.3790temperature slope calibration	1.0000multiplexer offset coefficient	1.0000multiplexer slope coefficient	1.0000fibre end	0.00T internal ref (°C)	42.12T ext. ref 1 (°C)	0.90T ext. ref 2 (°C)	37.53length (m)	temperature (°C)	Stokes	anti-Stokes-747.200	83.011	-0.147	0.165
-746.185	-92.611	-0.172	0.050
-745.171	-4.399	0.338	0.240
-744.156	-200.000	-0.054	0.247
-743.142	-200.000	0.002	0.120
-742.127	-44.308	0.508	0.262
-741.112	39.121	-0.071	0.066
-740.098	5.622	0.278	0.212
-739.083	0.396	0.418	0.307
-738.069	120.407	0.192	0.245
-737.054	707.794	-0.012	0.031
-736.039	48.871	0.145	-0.140
-735.025	800.000	0.046	0.173
-734.010	-76.402	-0.166	-0.060
-732.996	567.082	0.056	-0.141
-731.981	420.211	-0.155	-0.342
-730.966	63.302	-0.217	-0.223
-729.952	579.452	0.115	0.289
-728.937	679.305	-0.022	0.058
-727.923	-96.588	-0.189	0.051
-726.908	-200.000	0.007	-0.173
-725.894	119.797	0.247	-0.314
-724.879	-36.306	0.257	-0.142
-723.864	-156.927	0.551	-0.035
-722.850	-49.866	-0.047	-0.023
-721.835	-200.000	-0.067	0.464
-720.821	20.606	-0.418	0.348
-719.806	-122.313	0.078	0.013
-718.791	289.936	-0.108	0.201
-717.777	-200.000	0.017	-0.165
-716.762	298.199	0.086	-0.162
-715.748	-200.000	-0.008	-0.111
-714.733	-61.792	0.099	-0.043
-713.718	-200.000	-0.056	-0.297
-712.704	114.061	-0.126	0.158
-711.689	800.000	0.053	-0.201
-710.675	-33.544	-0.147	0.083
-709.660	32.626	-0.200	-0.177
-708.645	-200.000	0.100	-0.459
-707.631	-124.714	0.165	-0.026
-706.616	-181.537	0.338	0.007
-705.602	282.426	0.146	0.269
-704.587	800.000	0.140	-0.401
-703.572	716.643	0.087	-0.237
-702.558	-67.399	0.390	0.157
-701.543	169.115	0.101	-0.148
-700.529	-200.000	0.001	0.023
-699.514	182.636	-0.138	-0.210
-698.499	-174.892	0.224	0.006
-697.485	9.904	0.186	-0.145
-696.470	-200.000	-0.032	-0.189
-695.456	-52.273	-0.224	0.107
-694.441	800.000	-0.025	0.108
-693.426	-50.037	0.447	0.218
-692.412	-6.889	0.172	0.120
-691.397	800.000	0.116	0.378
-690.383	-107.216	-0.071	-0.016
-689.368	-78.768	0.360	-0.126
-688.354	723.006	-0.173	-0.474
-687.339	-108.162	0.098	0.022
-686.324	-24.375	-0.238	0.145
-685.310	-200.000	-0.025	0.128
-684.295	800.000	-0.038	0.157
-683.281	230.533	-0.044	-0.073
-682.266	800.000	0.048	-0.200
-681.251	-172.571	-0.413	0.013
-680.237	216.841	0.103	-0.167
-679.222	-16.752	-0.203	0.132
-678.208	265.540	0.102	-0.183
-677.193	188.538	-0.198	-0.304
-676.178	180.056	0.082	-0.124
-675.164	-28.000	-0.075	-0.045
-674.149	-120.870	-0.216	0.037
-673.135	159.817	-0.074	0.105
-672.120	77.451	0.198	-0.216
-671.105	800.000	0.046	0.150
-670.091	-200.000	0.008	0.072
-669.076	176.892	0.105	-0.157
-668.062	-109.310	0.111	-0.024
-667.047	-157.112	0.170	-0.011
-666.032	-80.676	0.147	-0.050
-665.018	302.122	0.184	0.348
-664.003	-117.724	0.253	0.047
-662.989	-72.089	0.057	0.022
-661.974	-106.761	0.121	0.028
-660.959	-56.798	0.095	-0.043
-659.945	-30.474	-0.086	-0.050
-658.930	95.414	0.131	0.153
-657.916	109.763	-0.130	0.160
-656.901	9.867	-0.087	0.068
-655.886	-148.103	-0.167	0.014
-654.872	-10.098	-0.254	0.173
-653.857	239.267	0.156	0.266
-652.843	-104.666	0.286	-0.067
-651.828	-63.470	0.226	-0.095
-650.814	-33.675	0.216	0.122
-649.799	215.258	-0.201	-0.327
-648.784	-157.658	0.214	0.013
-647.770	112.562	0.082	-0.102
-646.755	270.090	0.088	0.159
-645.741	388.009	-0.066	0.139
-644.726	326.408	0.095	-0.186
-643.711	73.821	0.189	-0.203
-642.697	800.000	0.084	-0.371
-641.682	30.491	0.138	-0.121
-640.668	597.224	0.018	-0.045
-639.653	126.873	0.191	0.248
-638.638	17.624	0.223	0.182
-637.624	299.932	0.068	-0.128
-636.609	356.357	-0.033	0.067
-635.595	151.240	-0.060	-0.084
-634.580	-168.936	0.311	-0.012
-633.565	800.000	-0.129	0.394
-632.551	800.000	0.065	0.254
-631.536	-82.957	-0.071	0.023
-630.522	262.032	0.090	0.160
-629.507	-61.645	0.312	-0.134
-628.492	800.000	-0.043	0.145
-627.478	192.277	0.096	0.148
-626.463	273.278	-0.032	-0.059
-625.449	195.757	0.146	-0.227
-624.434	-108.287	0.501	-0.111
-623.419	-122.733	-0.243	-0.040
-622.405	800.000	0.113	0.373
-621.390	42.521	0.156	-0.146
-620.376	13.156	-0.300	-0.238
-619.361	173.207	-0.067	-0.099
-618.346	800.000	0.041	-0.164
-617.332	61.979	-0.083	0.085
-616.317	-163.721	-0.186	-0.009
-615.303	-200.000	0.008	0.332
-614.288	-82.409	0.196	-0.065
-613.273	800.000	-0.010	0.038
-612.259	221.785	-0.106	0.174
-611.244	-41.396	-0.044	0.023
-610.230	-108.951	0.145	0.032
-609.215	800.000	0.065	0.287
-608.201	-139.080	0.225	-0.025
-607.186	106.062	-0.053	0.065
-606.171	-200.000	0.015	0.360
-605.157	-81.974	-0.126	-0.042
-604.142	-200.000	-0.020	0.186
-603.128	40.474	-0.148	-0.137
-602.113	546.672	-0.033	-0.081
-601.098	800.000	-0.143	0.410
-600.084	-5.621	0.156	0.109
-599.069	-6.355	0.144	0.100
-598.055	-26.369	-0.344	-0.206
-597.040	-108.419	0.240	0.053
-596.025	-67.392	-0.140	0.056
-595.011	-114.384	-0.074	0.015
-593.996	-33.581	-0.204	0.115
-592.982	-126.866	-0.084	0.013
-591.967	-100.986	0.139	-0.035
-590.952	800.000	-0.045	0.173
-589.938	-200.000	-0.044	-0.230
-588.923	-29.993	-0.163	0.095
-587.909	63.285	-0.226	0.232
-586.894	-113.841	0.230	-0.046
-585.879	800.000	-0.044	-0.159
-584.865	-118.901	-0.061	0.011
-583.850	-15.775	-0.161	-0.105
-582.836	13.030	-0.055	0.043
-581.821	-123.121	-0.480	-0.079
-580.806	800.000	-0.017	0.070
-579.792	-156.039	0.351	-0.023
-578.777	-139.358	0.083	0.009
-577.763	800.000	-0.114	0.375
-576.748	-200.000	0.005	0.072
-575.733	-149.650	0.164	0.013
-574.719	780.409	-0.062	-0.173
-573.704	522.698	0.040	-0.096
-572.690	-3.720	0.053	0.038
-571.675	-33.286	-0.011	0.006
-570.661	-21.321	0.147	0.091
-569.646	117.709	-0.331	-0.416
-568.631	37.819	0.136	0.124
-567.617	-200.000	0.011	0.234
-566.602	-200.000	-0.008	-0.456
-565.588	209.702	0.167	0.267
-564.573	10.564	-0.254	0.198
-563.558	287.113	0.107	0.197
-562.544	-89.423	0.293	-0.088
-561.529	613.613	0.139	-0.357
-560.515	-109.979	0.215	0.046
-559.500	-200.000	-0.003	0.155
-558.485	126.276	-0.253	-0.326
-557.471	55.319	-0.104	-0.103
-556.456	-200.000	0.003	0.057
-555.442	162.612	-0.077	-0.111
-554.427	149.693	0.113	0.156
-553.412	111.825	-0.188	-0.232
-552.398	-16.833	0.073	-0.047
-551.383	-121.878	-0.080	0.013
-550.369	-200.000	0.065	-0.441
-549.354	-200.000	0.039	-0.187
-548.339	-33.521	0.308	0.174
-547.325	255.843	0.217	-0.379
-546.310	800.000	0.074	0.279
-545.296	32.481	-0.227	0.200
-544.281	88.494	0.164	-0.186
-543.266	-200.000	0.005	-0.082
-542.252	794.537	0.090	-0.253
-541.237	-200.000	0.008	0.219
-540.223	-197.269	-0.306	-0.002
-539.208	193.705	-0.184	0.285
-538.193	-40.592	-0.238	-0.126
-537.179	773.071	0.152	0.424
-536.164	-87.296	-0.109	-0.034
-535.150	-70.555	-0.118	-0.045
-534.135	-88.193	-0.107	-0.033
-533.121	218.769	-0.136	-0.221
-532.106	-200.000	-0.018	-0.097
-531.091	-85.279	0.086	0.027
-530.077	-59.438	-0.274	0.120
-529.062	-77.288	0.304	0.108
-528.048	-45.828	0.411	-0.207
-527.033	800.000	0.106	0.305
-526.018	-143.338	-0.267	-0.026
-525.004	-80.883	0.444	-0.150
-523.989	338.730	-0.140	-0.277
-522.975	2.301	-0.152	0.112
-521.960	-37.231	-0.092	-0.050
-520.945	-200.000	0.034	0.205
-519.931	-63.413	0.340	0.143
-518.916	-200.000	0.019	-0.436
-517.902	-79.500	-0.082	0.028
-516.887	95.032	-0.191	-0.222
-515.872	33.018	-0.147	-0.130
-514.858	-20.297	0.123	-0.077
-513.843	-161.275	-0.376	-0.020
-512.829	800.000	-0.014	0.045
-511.814	800.000	0.042	0.166
-510.799	53.466	-0.117	0.115
-509.785	446.941	0.081	0.181
-508.770	143.203	-0.171	-0.231
-507.756	-200.000	0.028	0.141
-506.741	11.758	-0.101	-0.079
-505.726	-200.000	0.007	-0.523
-504.712	-108.475	0.052	0.011
-503.697	800.000	-0.026	0.083
-502.683	40.169	-0.256	-0.234
-501.668	-32.135	0.128	0.073
-500.653	-200.000	0.004	-0.191
-499.639	-45.821	0.240	0.121
-498.624	569.388	-0.077	-0.192
-497.610	-122.357	0.249	0.041
-496.595	-200.000	0.063	-0.421
-495.581	-158.534	-0.177	-0.010
-494.566	-137.639	0.114	-0.013
-493.551	-161.627	-0.432	-0.023
-492.537	39.635	0.216	0.197
-491.522	-200.000	-0.006	0.293
-490.508	-82.993	-0.306	0.100
-489.493	-200.000	0.003	-0.099
-488.478	-8.714	0.191	0.131
-487.464	-118.577	-0.464	0.084
-486.449	20.925	0.074	-0.061
-485.435	69.225	0.272	0.285
-484.420	-99.129	0.185	-0.048
-483.405	233.800	0.153	-0.256
-482.391	-92.197	0.389	-0.112
-481.376	800.000	-0.087	0.274
-480.362	800.000	-0.124	0.400
-479.347	3.994	0.158	0.117
-478.332	-33.033	-0.139	-0.079
-477.318	-60.222	-0.161	-0.070
-476.303	342.409	-0.202	0.402
-475.289	-93.672	0.311	-0.087
-474.274	-200.000	0.053	-0.622
-473.259	325.360	-0.089	-0.173
-472.245	-200.000	-0.008	-0.288
-471.230	777.376	-0.174	-0.485
-470.216	-25.907	-0.107	-0.064
-469.201	800.000	-0.070	-0.210
-468.186	138.448	-0.144	0.193
-467.172	181.739	0.066	0.099
-466.157	-151.615	0.373	0.028
-465.143	800.000	-0.028	-0.091
-464.128	311.555	0.221	-0.421
-463.113	-140.139	-0.145	-0.015
-462.099	800.000	0.016	0.071
-461.084	800.000	-0.050	-0.209
-460.070	23.824	0.116	-0.097
-459.055	59.131	0.112	0.112
-458.040	175.342	-0.051	0.075
-457.026	245.804	-0.170	0.291
-456.011	454.854	-0.032	-0.072
-454.997	-5.501	0.107	-0.074
-453.982	-200.000	-0.015	-0.342
-452.968	55.718	-0.296	-0.292
-451.953	-16.165	0.073	0.047
-450.938	-200.000	0.038	0.250
-449.924	83.729	0.163	0.181
-448.909	224.776	-0.149	-0.246
-447.895	800.000	-0.020	-0.082
-446.880	333.020	0.042	0.082
-445.865	-157.851	0.380	0.023
-444.851	21.034	0.042	0.035
-443.836	-40.141	0.279	-0.148
-442.822	-16.293	-0.291	-0.187
-441.807	43.495	-0.167	-0.155
-440.792	-147.889	0.527	0.045
-439.778	-88.289	0.133	0.040
-438.763	-59.713	-0.411	-0.179
-437.749	-70.029	0.113	0.044
-436.734	-25.821	0.315	-0.189
-435.719	212.309	-0.180	-0.289
-434.705	108.921	-0.069	-0.084
-433.690	-200.000	0.024	0.171
-432.676	425.125	-0.067	0.147
-431.661	-175.199	0.234	0.007
-430.646	59.744	-0.109	-0.109
-429.632	-107.803	-0.367	0.081
-428.617	-200.000	0.006	0.179
-427.603	-200.000	-0.045	-0.230
-426.588	88.543	0.235	-0.265
-425.573	371.817	0.028	-0.059
-424.559	288.894	-0.084	-0.155
-423.544	-200.000	-0.003	0.072
-422.530	-24.427	-0.179	0.108
-421.515	-148.159	-0.307	0.026
-420.500	9.100	0.177	-0.136
-419.486	-164.553	-0.291	-0.013
-418.471	-99.497	-0.325	0.083
-417.457	-50.854	-0.089	-0.042
-416.442	-102.242	0.262	-0.064
-415.428	-66.161	0.083	0.034
-414.413	-124.332	-0.214	0.034
-413.398	-200.000	-0.016	0.280
-412.384	-21.930	0.113	0.070
-411.369	-200.000	0.013	0.252
-410.355	800.000	-0.050	0.165
-409.340	-90.805	-0.209	-0.061
-408.325	-200.000	-0.011	-0.156
-407.311	-200.000	0.037	0.187
-406.296	-108.733	-0.152	0.033
-405.282	-40.428	-0.132	-0.070
-404.267	-200.000	0.030	-0.191
-403.252	329.738	0.082	0.161
-402.238	-200.000	-0.013	0.157
-401.223	800.000	-0.041	0.170
-400.209	800.000	0.016	0.044
-399.194	464.165	-0.142	0.323
-398.179	-195.689	0.457	0.003
-397.165	2.153	-0.274	-0.201
-396.150	2.317	0.175	0.128
-395.136	238.519	0.103	0.174
-394.121	-175.292	0.141	0.004
-393.106	112.350	-0.087	0.107
-392.092	302.276	0.137	-0.258
-391.077	113.419	-0.033	0.040
-390.063	-172.378	0.194	-0.006
-389.048	-59.048	0.144	0.063
-388.033	-107.245	0.096	0.021
-387.019	-200.000	0.034	-0.263
-386.004	199.664	0.080	-0.124
-384.990	-130.222	0.141	0.019
-383.975	-200.000	0.008	0.255
-382.960	-141.035	0.229	-0.024
-381.946	-150.867	0.236	0.018
-380.931	-155.812	-0.307	0.020
-379.917	-197.428	-0.102	-0.001
-378.902	254.209	0.077	-0.134
-377.888	-24.360	-0.291	0.176
-376.873	-177.150	0.067	0.002
-375.858	-55.970	-0.190	-0.086
-374.844	-18.830	0.288	-0.182
-373.829	-3.025	0.151	0.107
-372.815	-83.897	-0.159	0.051
-371.800	-181.929	-0.341	-0.007
-370.785	-76.510	0.136	-0.049
-369.771	-91.493	-0.301	-0.087
-368.756	-156.391	-0.120	0.008
-367.742	-90.716	-0.098	0.029
-366.727	449.062	-0.026	0.058
-365.712	-72.780	0.284	-0.106
-364.698	12.751	0.096	-0.075
-363.683	546.565	0.134	0.325
-362.669	341.392	-0.067	-0.132
-361.654	0.948	-0.227	-0.165
-360.639	-200.000	0.037	-0.403
-359.625	754.935	-0.072	0.198
-358.610	343.171	0.175	-0.348
-357.596	-121.527	0.357	-0.060
-356.581	-69.653	-0.106	0.041
-355.566	-9.806	-0.236	-0.160
-354.552	5.300	0.301	0.225
-353.537	141.575	0.136	0.182
-352.523	-54.563	0.237	0.109
-351.508	351.868	-0.070	0.141
-350.493	-200.000	-0.098	0.448
-349.479	7.791	0.051	-0.039
-348.464	-187.982	0.414	-0.005
-347.450	800.000	-0.086	0.291
-346.435	-89.287	0.057	-0.017
-345.420	98.549	-0.089	0.103
-344.406	-200.000	0.033	-0.178
-343.391	-200.000	0.009	-0.202
-342.377	800.000	-0.042	-0.132
-341.362	-200.000	-0.015	-0.175
-340.348	-39.925	-0.052	-0.027
-339.333	5.879	-0.083	-0.062
-338.318	-162.545	0.149	0.007
-337.304	-19.083	0.141	-0.089
-336.289	-16.083	-0.331	0.213
-335.275	-41.272	-0.149	0.078
-334.260	4.063	0.063	-0.047
-333.245	277.255	0.139	0.250
-332.231	632.308	-0.090	0.231
-331.216	-119.669	0.123	0.022
-330.202	16.351	0.167	-0.134
-329.187	197.435	-0.123	0.189
-328.172	800.000	-0.084	0.308
-327.158	-42.293	-0.116	-0.060
-326.143	-148.139	-0.487	-0.041
-325.129	337.193	0.185	0.365
-324.114	-200.000	0.009	0.212
-323.099	-118.330	-0.196	0.035
-322.085	-37.563	-0.202	-0.109
-321.070	34.089	-0.167	0.147
-320.056	-200.000	-0.028	0.248
-319.041	-96.583	0.105	-0.028
-318.026	-3.617	0.181	0.128
-317.012	704.780	-0.097	-0.258
-315.997	800.000	-0.089	-0.325
-314.983	142.982	-0.130	-0.175
-313.968	800.000	-0.088	-0.320
-312.953	800.000	-0.024	-0.088
-311.939	78.412	-0.043	-0.047
-310.924	-9.393	0.180	-0.122
-309.910	237.077	-0.062	0.104
-308.895	800.000	0.004	0.014
-307.880	-159.915	-0.437	-0.024
-306.866	-50.151	-0.254	0.122
-305.851	-78.742	-0.371	-0.128
-304.837	252.438	0.063	-0.108
-303.822	19.420	-0.036	-0.029
-302.807	-152.014	0.240	-0.018
-301.793	-43.895	-0.035	-0.018
-300.778	-178.342	0.593	0.014
-299.764	-92.664	0.022	-0.006
-298.749	36.866	0.228	-0.203
-297.735	-55.262	0.147	-0.067
-296.720	150.282	-0.126	-0.173
-295.705	-143.256	0.336	0.033
-294.691	84.809	-0.083	-0.092
-293.676	147.350	-0.006	-0.007
-292.662	-125.890	-0.228	0.035
-291.647	-147.314	0.054	0.005
-290.632	83.555	-0.101	0.111
-289.618	-58.438	-0.174	0.076
-288.603	-12.475	-0.047	-0.031
-287.589	-200.000	0.043	-0.252
-286.574	-96.899	0.379	-0.100
-285.559	-35.758	0.208	0.114
-284.545	47.340	-0.163	-0.154
-283.530	-152.686	0.132	0.010
-282.516	9.926	0.308	-0.236
-281.501	-31.120	-0.081	-0.046
-280.486	174.629	0.057	0.084
-279.472	72.485	-0.112	-0.118
-278.457	-64.781	0.317	0.130
-277.443	18.910	-0.261	0.212
-276.428	-75.835	0.193	-0.069
-275.413	-200.000	-0.001	-0.231
-274.399	800.000	-0.113	0.401
-273.384	71.674	0.248	-0.260
-272.370	318.250	-0.065	0.125
-271.355	-200.000	-0.031	0.258
-270.340	122.546	-0.189	-0.239
-269.326	-80.142	0.342	0.116
-268.311	-200.000	-0.007	0.090
-267.297	-44.460	0.062	-0.031
-266.282	800.000	-0.087	-0.272
-265.267	37.340	0.185	-0.165
-264.253	145.950	-0.089	-0.121
-263.238	-81.409	-0.205	-0.068
-262.224	370.959	-0.157	0.322
-261.209	604.565	0.067	0.168
-260.195	280.270	-0.090	0.162
-259.180	218.848	-0.184	0.297
-258.165	129.725	0.106	-0.137
-257.151	52.980	0.234	-0.226
-256.136	-94.936	0.022	-0.006
-255.122	504.195	0.192	0.448
-254.107	-200.000	-0.034	0.536
-253.092	-96.717	-0.120	0.032
-252.078	5.273	0.218	0.162
-251.063	-200.000	-0.033	-0.225
-250.049	-114.293	-0.297	0.058
-249.034	305.949	0.103	0.194
-248.019	13.202	-0.268	0.209
-247.005	539.090	-0.219	0.524
-245.990	286.346	-0.159	0.289
-244.976	-29.300	-0.120	-0.069
-243.961	-31.350	0.147	0.083
-242.946	240.305	0.047	0.079
-241.932	-121.530	0.180	0.030
-240.917	800.000	-0.036	0.117
-239.903	800.000	-0.025	0.077
-238.888	-101.344	0.095	0.023
-237.873	45.597	0.096	-0.089
-236.859	102.220	-0.182	-0.214
-235.844	776.118	0.023	-0.064
-234.830	369.023	-0.130	-0.264
-233.815	105.499	-0.059	-0.070
-232.800	-200.000	-0.004	0.057
-231.786	501.593	-0.049	0.114
-230.771	-200.000	-0.038	-0.225
-229.757	-72.558	-0.078	0.029
-228.742	-200.000	0.034	-0.295
-227.727	-133.048	-0.189	0.024
-226.713	-200.000	-0.083	0.697
-225.698	-169.004	-0.081	0.003
-224.684	800.000	-0.059	-0.175
-223.669	-33.908	-0.213	-0.118
-222.655	-200.000	0.005	0.107
-221.640	53.650	-0.066	0.064
-220.625	598.669	0.110	-0.275
-219.611	-90.710	0.146	-0.043
-218.596	800.000	0.034	-0.135
-217.582	187.267	0.106	0.160
-216.567	-97.893	0.228	0.059
-215.552	-200.000	-0.009	0.095
-214.538	179.861	-0.112	0.166
-213.523	-46.027	0.222	-0.110
-212.509	625.072	-0.111	-0.283
-211.494	800.000	0.078	0.216
-210.479	-188.755	0.185	0.002
-209.465	59.284	0.177	-0.175
-208.450	-121.445	-0.170	-0.029
-207.436	415.830	-0.061	0.131
-206.421	-200.000	-0.014	0.271
-205.406	10.918	0.345	0.265
-204.392	-82.937	-0.225	-0.073
-203.377	-182.648	-0.449	0.008
-202.363	709.456	0.018	0.049
-201.348	800.000	0.045	-0.197
-200.333	375.534	0.136	-0.279
-199.319	91.585	0.148	-0.167
-198.304	90.585	0.157	-0.178
-197.290	98.333	0.099	-0.114
-196.275	800.000	0.027	0.113
-195.260	-200.000	0.029	-0.152
-194.246	800.000	-0.024	0.080
-193.231	-111.741	0.194	0.039
-192.217	-79.365	0.162	0.055
-191.202	-59.665	-0.167	0.072
-190.187	141.406	-0.151	0.201
-189.173	-159.805	-0.244	-0.014
-188.158	-118.905	-0.222	-0.039
-187.144	89.019	-0.067	0.075
-186.129	-38.059	0.186	0.099
-185.114	-45.820	0.103	-0.051
-184.100	8.951	-0.067	0.051
-183.085	-148.981	0.060	0.005
-182.071	23.144	-0.166	0.137
-181.056	800.000	-0.043	0.143
-180.042	-200.000	-0.014	0.136
-179.027	-186.936	0.311	-0.004
-178.012	-200.000	0.050	0.246
-176.998	73.434	-0.182	0.192
-175.983	-106.125	-0.169	0.038
-174.969	-89.011	-0.317	0.094
-173.954	-157.731	0.207	-0.012
-172.939	-34.592	0.285	-0.157
-171.925	-5.558	0.047	-0.032
-170.910	-200.000	0.007	-0.191
-169.896	-144.337	-0.314	0.029
-168.881	244.309	-0.232	-0.391
-167.866	267.666	-0.113	0.199
-166.852	167.216	-0.238	0.340
-165.837	172.008	0.186	-0.269
-164.823	-200.000	0.008	-0.059
-163.808	376.522	0.031	-0.063
-162.793	800.000	0.033	-0.111
-161.779	-28.891	-0.194	0.112
-160.764	75.249	0.095	-0.100
-159.750	-200.000	-0.047	-0.211
-158.735	16.919	0.197	-0.157
-157.720	-70.590	-0.245	-0.093
-156.706	347.441	-0.031	-0.061
-155.691	23.710	0.067	0.055
-154.677	36.522	0.063	-0.056
-153.662	754.680	0.112	-0.305
-152.647	-6.002	-0.101	0.070
-151.633	612.187	-0.210	0.527
-150.618	-200.000	0.013	-0.227
-149.604	-45.442	0.125	0.062
-148.589	-85.011	0.253	-0.080
-147.574	113.202	-0.337	-0.411
-146.560	-200.000	0.054	-0.287
-145.545	117.871	0.138	-0.170
-144.531	-192.424	0.372	0.004
-143.516	-122.022	0.148	0.024
-142.502	23.096	0.191	-0.158
-141.487	-194.366	0.029	-0.000
-140.472	198.997	-0.094	0.145
-139.458	99.918	0.126	-0.147
-138.443	335.948	0.076	-0.148
-137.429	121.267	0.225	0.282
-136.414	538.609	0.120	0.286
-135.399	188.210	-0.126	0.189
-134.385	-200.000	-0.044	-0.260
-133.370	-200.000	0.005	-0.075
-132.356	-200.000	0.019	-0.149
-131.341	241.067	0.011	0.018
-130.326	17.169	0.171	-0.136
-129.312	800.000	-0.074	-0.274
-128.297	215.212	0.117	-0.186
-127.283	-76.722	0.091	-0.032
-126.268	-200.000	0.043	-0.257
-125.253	-1.993	0.408	-0.288
-124.239	-7.599	0.263	-0.179
-123.224	-200.000	-0.029	-0.358
-122.210	-62.448	0.092	-0.039
-121.195	279.019	0.104	0.187
-120.180	-20.519	0.223	0.138
