DTS Sentinel unit serial number:	SN413079Multiplexer serial number:	ORYXHardware model number:	OX4-SRSoftware version number:	ORYX F/W v4.00 Oryx Data Collector v3.7.2.0data status	okinstallation	princeton_trtdifferential loss correction	single-endedforward channel	channel 4reverse channel	N/Adate	2019/09/11time	18:47:11forward acquisition time	60.00reverse acquisition time	0.00gamma	496.2192k internal	0.2281k external	0.2281temperature offset calibration	1.0030default loss term (dB/km)	0.3790temperature slope calibration	1.0000multiplexer offset coefficient	1.0000multiplexer slope coefficient	1.0000fibre end	0.00T internal ref (°C)	43.11T ext. ref 1 (°C)	1.25T ext. ref 2 (°C)	35.20length (m)	temperature (°C)	Stokes	anti-Stokes-747.200	-95.789	0.037	0.010
-746.185	-9.975	0.086	-0.059
-745.171	29.509	0.219	0.192
-744.156	781.712	-0.165	0.464
-743.142	-165.972	-0.425	0.019
-742.127	800.000	0.071	0.271
-741.112	-7.891	0.332	-0.231
-740.098	67.674	0.337	-0.354
-739.083	651.062	0.041	-0.108
-738.069	-15.773	-0.114	-0.075
-737.054	-133.337	-0.186	-0.024
-736.039	-43.502	-0.172	-0.089
-735.025	93.149	0.190	0.221
-734.010	-190.429	0.208	0.002
-732.996	-124.633	-0.185	-0.030
-731.981	-26.005	0.196	-0.119
-730.966	-37.013	-0.242	-0.133
-729.952	122.009	-0.129	0.165
-728.937	-111.075	-0.103	0.022
-727.923	40.785	0.235	0.218
-726.908	179.004	0.175	0.263
-725.894	378.895	-0.091	-0.192
-724.879	-40.164	-0.070	0.037
-723.864	-87.411	-0.368	-0.115
-722.850	618.755	-0.110	-0.283
-721.835	800.000	0.030	0.098
-720.821	-7.426	-0.159	0.111
-719.806	-200.000	0.022	0.109
-718.791	282.753	0.129	0.238
-717.777	2.262	0.038	0.028
-716.762	261.297	0.139	0.247
-715.748	-102.707	-0.186	0.046
-714.733	-200.000	0.106	0.519
-713.718	-178.887	-0.106	0.002
-712.704	-86.044	-0.217	0.069
-711.689	16.233	-0.296	0.240
-710.675	-81.515	0.054	-0.018
-709.660	45.998	0.001	0.001
-708.645	-124.813	0.096	0.015
-707.631	360.338	-0.075	0.154
-706.616	227.128	0.024	-0.041
-705.602	-9.401	0.322	-0.221
-704.587	30.608	0.276	0.243
-703.572	-32.324	0.156	-0.089
-702.558	-182.021	0.178	-0.003
-701.543	-63.928	-0.261	0.110
-700.529	219.047	-0.064	-0.104
-699.514	365.955	0.062	-0.129
-698.499	400.962	-0.059	-0.127
-697.485	-77.763	0.197	-0.070
-696.470	-200.000	-0.016	0.242
-695.456	287.003	0.154	-0.286
-694.441	-10.550	0.097	0.066
-693.426	602.620	-0.118	-0.301
-692.412	800.000	-0.021	0.063
-691.397	202.397	-0.108	0.172
-690.383	800.000	-0.107	0.344
-689.368	-22.451	0.368	0.229
-688.354	139.138	0.074	0.100
-687.339	-51.515	-0.453	-0.217
-686.324	67.888	-0.097	0.102
-685.310	-50.457	0.074	0.036
-684.295	41.368	-0.042	-0.039
-683.281	-99.864	-0.251	0.064
-682.266	173.260	-0.154	-0.228
-681.251	65.201	-0.319	-0.331
-680.237	800.000	0.026	0.075
-679.222	299.194	0.038	0.072
-678.208	-87.509	0.350	0.109
-677.193	800.000	0.096	0.348
-676.178	-200.000	0.007	-0.194
-675.164	800.000	-0.100	0.345
-674.149	46.341	-0.117	0.111
-673.135	48.420	-0.020	0.020
-672.120	-200.000	0.057	0.339
-671.105	-84.324	-0.535	0.174
-670.091	-200.000	-0.005	0.109
-669.076	800.000	0.094	0.295
-668.062	-102.686	0.271	0.066
-667.047	-200.000	0.027	0.262
-666.032	101.128	-0.077	0.092
-665.018	-62.255	-0.358	-0.153
-664.003	51.449	0.115	0.112
-662.989	628.228	-0.177	-0.458
-661.974	-143.611	-0.109	0.011
-660.959	-200.000	0.017	0.181
-659.945	-200.000	-0.041	0.270
-658.930	-42.763	-0.246	-0.128
-657.916	-28.736	-0.158	0.093
-656.901	-157.493	0.283	-0.017
-655.886	-53.779	0.238	0.111
-654.872	-44.882	-0.257	-0.131
-653.857	-200.000	-0.024	-0.289
-652.843	-200.000	-0.009	0.080
-651.828	243.700	-0.184	-0.316
-650.814	-83.722	0.134	-0.044
-649.799	-174.288	0.254	0.008
-648.784	-139.908	-0.338	0.037
-647.770	-137.760	-0.067	-0.008
-646.755	-170.486	0.086	0.003
-645.741	-7.746	-0.317	0.219
-644.726	-109.221	-0.352	0.077
-643.711	84.982	-0.215	0.241
-642.697	-116.636	-0.135	-0.025
-641.682	800.000	-0.079	0.228
-640.668	-153.112	-0.405	-0.029
-639.653	800.000	-0.128	0.447
-638.638	628.928	0.068	0.177
-637.624	20.587	0.102	0.085
-636.609	-138.698	-0.383	0.043
-635.595	-200.000	0.012	-0.063
-634.580	215.112	-0.145	-0.236
-633.565	170.912	-0.229	-0.336
-632.551	147.026	-0.164	-0.226
-631.536	-57.064	-0.278	0.126
-630.522	-200.000	-0.019	-0.084
-629.507	-65.397	0.085	-0.035
-628.492	289.372	0.176	-0.327
-627.478	-200.000	-0.012	0.226
-626.463	-44.163	-0.095	-0.049
-625.449	800.000	0.035	0.136
-624.434	-14.297	0.035	0.023
-623.419	70.944	-0.295	0.313
-622.405	-53.893	-0.036	-0.017
-621.390	87.571	0.144	-0.163
-620.376	455.150	-0.090	0.205
-619.361	-116.007	-0.427	0.081
-618.346	476.630	0.035	-0.080
-617.332	545.423	0.073	0.179
-616.317	800.000	-0.016	-0.045
-615.303	37.931	-0.150	-0.136
-614.288	-109.957	-0.133	0.028
-613.273	-150.402	0.251	-0.020
-612.259	452.419	-0.081	0.183
-611.244	-200.000	0.005	-0.178
-610.230	23.734	0.086	0.073
-609.215	20.145	0.095	-0.078
-608.201	-143.289	-0.227	-0.022
-607.186	-132.068	0.217	0.029
-606.171	-200.000	-0.007	-0.062
-605.157	49.331	0.137	0.132
-604.142	-200.000	-0.009	0.209
-603.128	340.917	0.152	-0.304
-602.113	-200.000	-0.053	-0.241
-601.098	225.862	-0.150	-0.249
-600.084	800.000	0.083	-0.282
-599.069	59.937	-0.136	0.137
-598.055	473.505	-0.169	0.390
-597.040	-200.000	0.003	0.118
-596.025	-116.670	0.155	0.029
-595.011	75.932	-0.289	-0.313
-593.996	-26.969	0.120	-0.072
-592.982	558.147	0.185	-0.456
-591.967	35.406	-0.278	-0.250
-590.952	703.728	-0.019	-0.051
-589.938	175.289	0.114	-0.168
-588.923	289.271	0.071	0.131
-587.909	71.781	-0.208	-0.222
-586.894	-110.708	-0.202	-0.043
-585.879	-77.494	-0.091	-0.032
-584.865	650.249	-0.099	-0.258
-583.850	51.535	-0.200	0.195
-582.836	1.832	0.178	-0.131
-581.821	34.589	-0.066	-0.059
-580.806	-200.000	0.037	-0.347
-579.792	-200.000	0.033	-0.222
-578.777	477.909	-0.096	-0.222
-577.763	-101.199	0.151	0.038
-576.748	-142.118	0.090	0.009
-575.733	-15.213	-0.137	0.090
-574.719	-200.000	0.005	0.191
-573.704	98.990	0.139	-0.164
-572.690	-200.000	-0.010	-0.115
-571.675	314.413	0.143	0.275
-570.661	800.000	0.068	0.227
-569.646	-200.000	0.003	-0.233
-568.631	-200.000	-0.047	-0.306
-567.617	-200.000	0.024	-0.257
-566.602	800.000	0.079	0.267
-565.588	396.480	0.151	-0.322
-564.573	-118.913	-0.401	-0.072
-563.558	-200.000	-0.034	0.240
-562.544	3.520	-0.225	0.167
-561.529	-51.808	-0.262	-0.125
-560.515	-92.397	-0.222	-0.064
-559.500	-200.000	0.020	0.383
-558.485	40.909	-0.151	0.139
-557.471	55.653	0.078	-0.077
-556.456	227.127	-0.184	-0.305
-555.442	-117.722	0.333	0.061
-554.427	-89.543	-0.365	-0.109
-553.412	-70.870	0.085	-0.033
-552.398	34.618	-0.260	-0.232
-551.383	149.537	0.071	-0.098
-550.369	-180.661	0.434	-0.009
-549.354	220.385	0.257	0.420
-548.339	800.000	-0.018	-0.060
-547.325	485.611	-0.093	0.217
-546.310	67.499	0.175	-0.182
-545.296	-88.777	0.195	-0.059
-544.281	94.477	-0.216	0.251
-543.266	189.301	0.047	0.072
-542.252	110.033	0.154	-0.189
-541.237	-67.425	0.162	0.065
-540.223	193.665	0.122	-0.189
-539.208	-200.000	-0.052	-0.285
-538.193	-71.501	0.239	0.091
-537.179	12.036	0.147	0.115
-536.164	-54.025	-0.386	-0.179
-535.150	-200.000	0.009	-0.241
-534.135	800.000	-0.086	0.337
-533.121	40.142	-0.101	0.093
-532.106	10.857	0.114	0.089
-531.091	520.346	0.077	-0.185
-530.077	17.756	0.178	0.145
-529.062	800.000	-0.007	-0.027
-528.048	-59.522	-0.118	0.052
-527.033	55.211	-0.164	0.162
-526.018	140.915	0.295	0.398
-525.004	-200.000	-0.010	-0.128
-523.989	42.188	-0.082	0.076
-522.975	800.000	-0.092	0.274
-521.960	-70.293	-0.141	-0.055
-520.945	-200.000	0.034	0.157
-519.931	26.883	-0.064	-0.055
-518.916	-143.819	-0.346	0.033
-517.902	7.157	-0.182	-0.139
-516.887	15.963	-0.073	0.058
-515.872	-148.264	0.410	-0.034
-514.858	99.065	-0.069	-0.081
-513.843	-81.379	0.286	-0.096
-512.829	-28.435	0.210	-0.123
-511.814	33.104	-0.043	0.038
-510.799	76.667	0.049	0.053
-509.785	-93.533	0.200	-0.056
-508.770	589.864	-0.108	0.272
-507.756	-200.000	-0.013	-0.377
-506.741	457.980	-0.056	-0.126
-505.726	-59.308	-0.142	0.062
-504.712	-200.000	-0.010	-0.133
-503.697	-127.172	0.149	-0.022
-502.683	-72.049	-0.332	-0.126
-501.668	-200.000	-0.046	0.327
-500.653	179.281	0.168	0.250
-499.639	57.865	0.298	0.297
-498.624	800.000	0.035	0.138
-497.610	-153.186	0.171	-0.012
-496.595	-145.547	0.226	-0.021
-495.581	48.926	0.202	-0.193
-494.566	13.349	0.200	-0.158
-493.551	-73.602	0.159	0.059
-492.537	40.681	-0.050	0.046
-491.522	-87.518	-0.216	0.066
-490.508	94.407	0.204	0.236
-489.493	391.194	0.205	0.434
-488.478	775.504	0.064	0.179
-487.464	800.000	-0.042	0.150
-486.449	-200.000	0.025	0.115
-485.435	-149.104	-0.178	-0.015
-484.420	800.000	0.073	0.269
-483.405	-93.599	0.193	-0.054
-482.391	-200.000	-0.000	-0.007
-481.376	206.313	0.155	-0.246
-480.362	-112.058	-0.085	0.017
-479.347	-43.181	0.389	0.201
-478.332	118.891	0.327	0.411
-477.318	587.436	0.114	0.286
-476.303	-200.000	-0.012	-0.123
-475.289	242.195	0.100	0.170
-474.274	65.901	-0.200	-0.207
-473.259	-34.664	-0.332	-0.185
-472.245	696.364	-0.181	0.484
-471.230	161.684	0.107	-0.152
-470.216	-10.295	0.182	-0.123
-469.201	337.156	-0.062	-0.123
-468.186	-114.370	-0.185	0.036
-467.172	-161.456	0.353	0.019
-466.157	57.494	-0.068	-0.067
-465.143	-200.000	0.018	-0.241
-464.128	800.000	-0.033	-0.137
-463.113	5.967	-0.075	-0.057
-462.099	115.872	-0.206	-0.256
-461.084	-104.949	-0.205	-0.048
-460.070	-79.652	-0.316	-0.108
-459.055	-88.035	0.119	0.036
-458.040	800.000	0.048	-0.179
-457.026	30.017	-0.226	0.196
-456.011	800.000	0.106	-0.428
-454.997	-200.000	0.006	0.240
-453.982	-200.000	0.041	0.236
-452.968	-119.900	-0.070	0.012
-451.953	-200.000	-0.030	-0.152
-450.938	-105.486	0.304	-0.070
-449.924	53.828	0.030	-0.029
-448.909	548.592	-0.088	0.214
-447.895	-54.789	-0.268	-0.123
-446.880	-112.460	0.071	-0.014
-445.865	-23.152	-0.055	-0.034
-444.851	-200.000	-0.000	-0.123
-443.836	-172.341	0.195	0.006
-442.822	-48.536	0.035	0.017
-441.807	-110.439	0.362	0.076
-440.792	800.000	0.056	-0.172
-439.778	-129.002	-0.089	-0.013
-438.763	-82.065	-0.199	0.066
-437.749	-67.193	-0.130	0.052
-436.734	-200.000	0.006	-0.265
-435.719	17.407	0.229	0.185
-434.705	-103.873	-0.161	-0.038
-433.690	-47.784	0.243	0.120
-432.676	175.861	-0.095	0.140
-431.661	45.100	-0.267	0.250
-430.646	24.457	0.204	-0.171
-429.632	-157.470	0.181	-0.011
-428.617	-200.000	-0.083	0.435
-427.603	-86.083	-0.172	0.054
-426.588	153.205	0.183	-0.254
-425.573	495.186	0.084	-0.197
-424.559	-101.631	0.380	0.094
-423.544	-200.000	0.012	0.105
-422.530	-200.000	0.027	-0.240
-421.515	281.609	0.148	0.270
-420.500	800.000	-0.107	0.340
-419.486	-200.000	-0.010	0.120
-418.471	110.353	0.047	0.057
-417.457	-99.750	-0.036	-0.009
-416.442	274.588	-0.116	0.208
-415.428	19.849	-0.148	-0.121
-414.413	26.694	0.061	0.052
-413.398	110.905	-0.120	0.147
-412.384	235.724	-0.152	0.255
-411.369	74.020	-0.079	0.084
-410.355	-200.000	0.003	0.046
-409.340	123.229	-0.071	-0.090
-408.325	800.000	-0.039	-0.118
-407.311	14.611	0.266	0.211
-406.296	-149.680	-0.131	0.011
-405.282	-200.000	-0.020	-0.168
-404.267	-85.380	-0.215	0.068
-403.252	-21.437	0.099	-0.062
-402.238	-147.960	-0.054	0.005
-401.223	-6.590	-0.084	-0.058
-400.209	101.478	0.175	-0.207
-399.194	-96.423	0.127	0.034
-398.179	32.947	-0.308	-0.271
-397.165	24.703	0.137	0.115
-396.150	526.723	0.064	0.153
-395.136	-200.000	0.024	-0.357
-394.121	-76.941	-0.078	-0.028
-393.106	-71.810	-0.217	0.082
-392.092	-114.687	0.183	-0.036
-391.077	368.213	-0.080	-0.163
-390.063	-200.000	-0.015	0.093
-389.048	57.976	-0.163	0.162
-388.033	800.000	-0.086	-0.324
-387.019	-111.029	0.326	0.068
-386.004	-127.308	0.119	0.018
-384.990	-180.959	0.300	-0.006
-383.975	75.367	0.285	-0.305
-382.960	-133.323	0.422	-0.054
-381.946	800.000	0.013	-0.042
-380.931	1.670	0.217	0.158
-379.917	363.073	0.026	0.052
-378.902	-200.000	0.045	0.213
-377.888	-200.000	-0.001	-0.066
-376.873	-200.000	-0.040	0.277
-375.858	258.352	-0.067	0.117
-374.844	-9.224	-0.213	0.144
-373.829	-101.822	-0.321	0.079
-372.815	-200.000	-0.044	0.244
-371.800	-41.915	0.284	-0.148
-370.785	95.354	0.030	-0.035
-369.771	649.820	0.050	0.129
-368.756	800.000	0.048	-0.151
-367.742	-200.000	-0.011	-0.147
-366.727	39.799	-0.088	0.080
-365.712	-123.456	-0.463	-0.075
-364.698	800.000	0.121	-0.355
-363.683	-67.991	-0.132	-0.052
-362.669	-104.844	0.116	-0.027
-361.654	-197.919	0.337	0.002
-360.639	110.259	-0.162	-0.197
-359.625	79.391	0.085	-0.092
-358.610	783.120	-0.067	-0.185
-357.596	-65.007	-0.323	-0.132
-356.581	-42.681	0.109	-0.056
-355.566	-45.350	0.049	-0.025
-354.552	-0.680	-0.254	0.183
-353.537	-200.000	0.032	0.287
-352.523	-200.000	-0.038	-0.351
-351.508	-51.308	-0.034	-0.016
-350.493	-65.527	-0.340	-0.138
-349.479	-9.724	-0.031	-0.021
-348.464	-51.588	0.082	-0.039
-347.450	-98.374	0.506	0.131
-346.435	-48.383	-0.214	0.104
-345.420	-90.216	-0.188	-0.055
-344.406	800.000	-0.015	-0.049
-343.391	279.896	-0.102	0.185
-342.377	-122.889	0.356	0.058
-341.362	751.564	0.074	0.203
-340.348	-124.712	-0.088	0.014
-339.333	-157.331	-0.403	0.025
-338.318	9.268	-0.068	-0.052
-337.304	-200.000	0.066	-0.359
-336.289	370.813	-0.030	0.061
-335.275	-109.267	0.156	-0.033
-334.260	16.702	0.066	0.053
-333.245	46.543	-0.179	-0.168
-332.231	256.379	-0.063	-0.109
-331.216	-76.312	-0.229	0.081
-330.202	-157.348	0.062	-0.004
-329.187	-200.000	0.254	0.000
-328.172	-87.432	-0.153	-0.047
-327.158	101.723	0.045	0.054
-326.143	-200.000	-0.032	0.253
-325.129	126.251	0.179	0.229
-324.114	142.454	0.117	0.158
-323.099	31.279	0.219	0.190
-322.085	154.544	0.117	0.163
-321.070	-200.000	-0.026	-0.200
-320.056	325.699	-0.147	-0.285
-319.041	-66.814	-0.207	0.083
-318.026	-117.069	0.385	-0.071
-317.012	-8.173	-0.262	0.179
-315.997	-118.116	0.096	-0.017
-314.983	-63.463	-0.253	-0.105
-313.968	-23.428	-0.277	0.169
-312.953	98.005	0.069	-0.081
-311.939	-137.363	0.291	0.033
-310.924	189.130	-0.148	0.224
-309.910	112.670	-0.223	0.273
-308.895	-43.414	0.268	0.137
-307.880	-157.945	-0.170	-0.010
-306.866	332.731	0.051	-0.101
-305.851	168.797	-0.107	-0.155
-304.837	-51.428	0.250	-0.118
-303.822	-48.615	0.155	-0.075
-302.807	253.213	-0.143	0.247
-301.793	587.712	-0.066	-0.164
-300.778	-200.000	-0.072	-0.336
-299.764	-36.414	0.254	-0.139
-298.749	-200.000	0.046	-0.208
-297.735	-200.000	-0.001	0.293
-296.720	752.997	-0.053	0.145
-295.705	-200.000	0.051	-0.228
-294.691	280.066	-0.054	0.098
-293.676	30.781	-0.075	0.065
-292.662	255.120	0.099	0.172
-291.647	800.000	-0.041	-0.128
-290.632	-75.292	-0.119	-0.043
-289.618	-4.670	0.285	0.199
-288.603	361.207	0.091	0.184
-287.589	800.000	0.107	0.319
-286.574	-200.000	-0.014	0.233
-285.559	-52.450	0.115	0.054
-284.545	228.063	-0.055	0.091
-283.530	-200.000	-0.011	-0.053
-282.516	-82.115	0.172	-0.057
-281.501	121.595	0.051	-0.064
-280.486	724.178	0.022	0.059
-279.472	-67.351	-0.301	0.120
-278.457	380.714	-0.032	-0.067
-277.443	800.000	-0.003	0.013
-276.428	-81.632	0.030	-0.010
-275.413	65.686	0.054	-0.055
-274.399	-8.898	-0.173	-0.117
-273.384	-88.550	0.244	0.074
-272.370	-22.300	0.160	-0.098
-271.355	549.830	0.151	-0.365
-270.340	113.997	-0.118	-0.145
-269.326	47.435	-0.249	-0.234
-268.311	1.123	-0.020	0.015
-267.297	133.668	-0.164	0.214
-266.282	-118.316	-0.337	0.061
-265.267	-95.575	0.198	0.054
-264.253	-200.000	-0.048	-0.260
-263.238	265.422	0.114	-0.200
-262.224	272.395	0.156	0.279
-261.209	118.993	0.206	0.258
-260.195	-200.000	0.075	0.410
-259.180	181.131	-0.067	0.099
-258.165	-34.821	0.182	-0.100
-257.151	170.248	0.078	0.112
-256.136	-57.925	-0.103	-0.045
-255.122	-200.000	0.032	-0.269
-254.107	20.607	-0.174	-0.142
-253.092	30.995	-0.147	0.127
-252.078	-200.000	-0.011	0.100
-251.063	-200.000	-0.060	0.408
-250.049	800.000	-0.082	0.325
-249.034	-120.062	-0.382	-0.066
-248.019	-200.000	-0.025	-0.143
-247.005	-117.629	-0.272	0.049
-245.990	-57.256	0.080	0.035
-244.976	-137.392	0.260	-0.030
-243.961	-200.000	-0.019	-0.255
-242.946	781.557	-0.080	-0.221
-241.932	-89.016	-0.058	-0.017
-240.917	-146.092	0.186	0.017
-239.903	-38.515	-0.260	0.139
-238.888	800.000	-0.074	0.247
-237.873	2.443	-0.156	-0.114
-236.859	800.000	0.049	-0.159
-235.844	-5.799	-0.221	0.153
-234.830	144.143	-0.136	-0.182
-233.815	800.000	-0.048	0.148
-232.800	538.342	0.084	-0.202
-231.786	-104.451	-0.211	0.049
-230.771	-200.000	-0.082	0.364
-229.757	-179.347	0.072	0.002
-228.742	800.000	0.038	-0.132
-227.727	149.642	0.078	0.107
-226.713	34.577	-0.129	-0.114
-225.698	-115.111	0.259	0.050
-224.684	629.495	0.053	-0.135
-223.669	423.228	-0.091	0.198
-222.655	-18.547	-0.108	0.068
-221.640	-17.399	0.186	0.118
-220.625	141.672	0.177	-0.236
-219.611	-162.014	0.202	-0.010
-218.596	-60.326	0.162	0.069
-217.582	-200.000	0.000	-0.056
-216.567	-81.731	0.257	-0.085
-215.552	800.000	0.017	-0.076
-214.538	-200.000	-0.034	-0.178
-213.523	5.702	0.160	-0.119
-212.509	454.202	0.080	0.179
-211.494	-200.000	0.023	-0.124
-210.479	-49.139	0.214	0.103
-209.465	-162.611	-0.483	-0.024
-208.450	54.452	-0.119	-0.116
-207.436	-12.109	0.178	-0.117
-206.421	211.408	0.126	-0.200
-205.406	118.161	0.119	0.147
-204.392	-76.591	0.057	0.020
-203.377	191.699	0.197	-0.299
-202.363	-109.793	0.101	0.021
-201.348	-36.232	0.253	0.138
-200.333	-29.074	-0.155	-0.090
-199.319	71.750	-0.075	0.078
-198.304	94.462	0.077	0.088
-197.290	-11.892	0.086	0.057
-196.275	-113.708	0.208	0.041
-195.260	304.657	0.156	0.292
-194.246	-85.026	-0.284	0.089
-193.231	28.397	0.217	-0.184
-192.217	-200.000	0.049	-0.290
-191.202	-147.996	-0.179	0.015
-190.187	83.935	0.100	0.110
-189.173	-107.774	0.038	0.008
-188.158	18.795	-0.253	-0.204
-187.144	800.000	0.056	-0.209
-186.129	784.686	0.094	0.260
-185.114	19.382	-0.162	-0.131
-184.100	-1.411	0.083	-0.059
-183.085	-160.376	-0.211	0.011
-182.071	242.715	-0.064	0.108
-181.056	-68.688	0.383	-0.149
-180.042	8.548	0.159	-0.120
-179.027	-200.000	0.016	-0.415
-178.012	-200.000	0.015	0.088
-176.998	-16.503	-0.108	0.069
-175.983	8.995	0.097	-0.074
-174.969	157.749	0.044	-0.062
-173.954	-200.000	-0.015	-0.126
-172.939	-162.996	0.200	0.010
-171.925	-200.000	0.020	0.135
-170.910	-200.000	0.031	-0.209
-169.896	532.875	0.013	0.030
-168.881	147.308	-0.177	-0.239
-167.866	-200.000	0.057	-0.331
-166.852	337.153	-0.100	0.196
-165.837	-163.508	0.194	-0.009
-164.823	293.616	-0.098	-0.180
-163.808	-16.986	0.262	0.167
-162.793	-62.147	0.504	-0.212
-161.779	246.367	-0.257	-0.436
-160.764	281.981	0.122	-0.221
-159.750	218.549	-0.157	0.252
-158.735	-24.109	-0.054	-0.032
-157.720	-166.828	-0.159	-0.007
-156.706	90.399	0.103	0.116
-155.691	429.679	0.019	0.040
-154.677	197.894	0.255	0.391
-153.662	681.560	-0.042	-0.110
-152.647	-188.094	-0.268	-0.003
-151.633	-200.000	-0.066	0.351
-150.618	655.380	0.101	-0.261
-149.604	182.592	-0.111	-0.165
-148.589	23.981	0.150	0.124
-147.574	454.975	-0.117	0.260
-146.560	-82.433	-0.215	0.070
-145.545	-79.525	-0.333	-0.113
-144.531	800.000	-0.025	0.079
-143.516	-200.000	-0.024	-0.176
-142.502	-63.308	0.246	-0.102
-141.487	-50.169	-0.276	0.131
-140.472	7.637	-0.137	-0.103
-139.458	109.839	0.016	0.019
-138.443	-200.000	-0.028	-0.189
-137.429	34.709	0.123	-0.108
-136.414	-43.064	0.199	0.101
-135.399	800.000	-0.097	-0.337
-134.385	-154.497	0.340	0.023
-133.370	-26.171	0.180	0.106
-132.356	800.000	0.045	-0.134
-131.341	-65.073	-0.199	-0.081
-130.326	112.625	0.114	0.139
-129.312	397.292	0.103	0.216
-128.297	162.530	0.165	0.232
-127.283	-128.828	-0.216	-0.030
-126.268	800.000	-0.092	0.318
-125.253	136.043	-0.286	0.374
-124.239	-15.166	0.130	0.084
-123.224	313.929	0.087	0.165
-122.210	-200.000	0.033	0.250
-121.195	-95.717	-0.104	-0.028
