DTS Sentinel unit serial number:	SN413079Multiplexer serial number:	ORYXHardware model number:	OX4-SRSoftware version number:	ORYX F/W v4.00 Oryx Data Collector v3.7.2.0data status	okinstallation	princeton_trtdifferential loss correction	single-endedforward channel	channel 4reverse channel	N/Adate	2019/09/11time	11:03:11forward acquisition time	60.00reverse acquisition time	0.00gamma	496.2192k internal	0.2293k external	0.2293temperature offset calibration	0.9972default loss term (dB/km)	0.3790temperature slope calibration	1.0000multiplexer offset coefficient	1.0000multiplexer slope coefficient	1.0000fibre end	0.00T internal ref (°C)	37.31T ext. ref 1 (°C)	0.17T ext. ref 2 (°C)	34.75length (m)	temperature (°C)	Stokes	anti-Stokes-747.200	800.000	-0.077	0.222
-746.185	75.945	0.105	0.114
-745.171	-200.000	-0.250	0.001
-744.156	-200.000	-0.014	-0.278
-743.142	-67.049	0.126	-0.051
-742.127	-200.000	0.005	0.129
-741.112	-15.859	-0.072	0.047
-740.098	-200.000	-0.099	0.452
-739.083	-200.000	-0.077	0.000
-738.069	-1.142	-0.253	-0.183
-737.054	-132.067	0.289	0.038
-736.039	-200.000	-0.005	0.139
-735.025	11.676	0.304	0.239
-734.010	-81.957	-0.332	-0.111
-732.996	162.794	-0.139	0.199
-731.981	-184.541	-0.326	-0.005
-730.966	-200.000	0.016	-0.175
-729.952	39.847	0.232	-0.213
-728.937	-117.696	-0.080	-0.015
-727.923	583.902	0.060	-0.152
-726.908	-22.100	-0.227	0.141
-725.894	434.435	-0.054	0.119
-724.879	-156.646	-0.068	-0.004
-723.864	800.000	-0.044	0.139
-722.850	219.191	0.078	-0.128
-721.835	-97.518	-0.178	0.047
-720.821	49.678	0.089	0.086
-719.806	-169.576	0.309	0.011
-718.791	188.638	-0.141	0.216
-717.777	-200.000	-0.010	-0.325
-716.762	-200.000	0.019	-0.256
-715.748	-122.341	0.179	-0.030
-714.733	800.000	0.030	0.125
-713.718	-200.000	0.131	-0.000
-712.704	559.269	0.183	0.451
-711.689	-191.604	-0.153	0.002
-710.675	-56.872	-0.217	-0.098
-709.660	800.000	-0.028	0.090
-708.645	-128.019	-0.085	0.012
-707.631	-124.585	0.361	0.057
-706.616	-19.460	-0.078	0.049
-705.602	-122.742	0.399	-0.066
-704.587	159.140	-0.104	-0.148
-703.572	-75.784	0.292	0.106
-702.558	-123.704	-0.062	0.010
-701.543	-200.000	0.084	0.544
-700.529	-63.784	-0.031	-0.013
-699.514	-4.582	0.159	-0.112
-698.499	50.187	0.095	-0.091
-697.485	-118.455	-0.166	-0.030
-696.470	-200.000	0.025	0.115
-695.456	-27.727	-0.195	0.116
-694.441	67.972	-0.176	0.184
-693.426	-106.201	0.177	-0.041
-692.412	-149.299	0.151	-0.012
-691.397	200.353	-0.148	-0.232
-690.383	36.425	-0.135	-0.121
-689.368	-161.074	0.340	-0.018
-688.354	75.293	-0.116	0.125
-687.339	-68.660	-0.479	0.189
-686.324	-200.000	0.012	0.260
-685.310	-37.745	0.208	-0.113
-684.295	-44.682	0.093	-0.047
-683.281	800.000	0.073	-0.319
-682.266	24.536	0.047	0.040
-681.251	-126.470	0.063	0.010
-680.237	219.719	0.180	0.295
-679.222	11.664	0.198	-0.155
-678.208	-39.600	-0.411	0.219
-677.193	303.549	-0.095	-0.180
-676.178	-200.000	0.002	-0.187
-675.164	-200.000	0.004	0.146
-674.149	-177.910	0.311	0.008
-673.135	149.370	0.108	-0.149
-672.120	-126.705	0.269	-0.041
-671.105	443.537	0.102	0.227
-670.091	-182.592	0.110	-0.002
-669.076	90.137	-0.025	0.029
-668.062	-27.730	0.153	0.091
-667.047	29.798	-0.170	-0.147
-666.032	-43.332	0.184	-0.095
-665.018	-200.000	0.041	-0.202
-664.003	295.420	0.065	-0.121
-662.989	-113.796	0.188	0.037
-661.974	800.000	-0.045	0.152
-660.959	-97.807	0.148	-0.039
-659.945	68.066	-0.112	0.117
-658.930	-43.217	-0.166	-0.086
-657.916	182.384	-0.056	0.084
-656.901	-40.315	0.114	-0.061
-655.886	-200.000	0.069	-0.397
-654.872	-200.000	0.005	-0.215
-653.857	27.027	-0.263	0.225
-652.843	16.772	0.144	0.116
-651.828	-137.391	-0.140	0.016
-650.814	-200.000	-0.036	-0.165
-649.799	800.000	0.043	0.125
-648.784	-155.304	0.270	-0.018
-647.770	-74.094	0.294	0.108
-646.755	-200.000	0.016	0.223
-645.741	183.188	-0.094	-0.142
-644.726	224.674	0.125	0.206
-643.711	-136.585	0.159	0.019
-642.697	-200.000	-0.036	-0.173
-641.682	-200.000	-0.036	0.214
-640.668	-59.669	0.236	-0.103
-639.653	-38.829	-0.084	0.045
-638.638	163.285	0.169	-0.241
-637.624	48.456	0.028	-0.027
-636.609	-200.000	-0.054	0.276
-635.595	-56.577	-0.283	-0.128
-634.580	-19.061	-0.304	-0.192
-633.565	153.359	-0.097	0.135
-632.551	-124.349	-0.255	0.041
-631.536	-57.539	-0.221	0.099
-630.522	605.114	0.085	-0.216
-629.507	-31.835	-0.219	0.125
-628.492	800.000	-0.058	0.168
-627.478	103.578	-0.157	-0.188
-626.463	-200.000	-0.021	-0.271
-625.449	161.822	-0.071	0.101
-624.434	8.306	-0.265	-0.203
-623.419	-38.062	-0.264	0.143
-622.405	359.891	0.076	-0.154
-621.390	77.728	-0.206	-0.224
-620.376	-120.200	0.104	-0.018
-619.361	11.019	0.068	-0.053
-618.346	-60.518	0.112	0.048
-617.332	-154.102	0.125	0.009
-616.317	-95.395	0.162	-0.044
-615.303	-71.892	-0.341	-0.129
-614.288	607.186	-0.055	-0.140
-613.273	129.566	-0.085	-0.110
-612.259	-41.326	-0.216	-0.113
-611.244	-130.063	-0.211	0.029
-610.230	-200.000	-0.026	-0.318
-609.215	-77.604	-0.098	-0.035
-608.201	215.524	-0.110	0.178
-607.186	91.246	0.146	-0.167
-606.171	-124.245	0.163	-0.026
-605.157	800.000	-0.027	-0.116
-604.142	190.450	0.086	-0.132
-603.128	-160.989	-0.059	0.003
-602.113	-113.567	0.123	0.025
-601.098	259.231	-0.187	0.329
-600.084	-60.186	0.289	0.125
-599.069	-57.170	-0.306	0.137
-598.055	-151.154	0.152	-0.012
-597.040	-200.000	0.009	-0.324
-596.025	-200.000	0.002	-0.156
-595.011	800.000	-0.077	-0.249
-593.996	-47.000	0.270	-0.134
-592.982	6.424	0.175	0.132
-591.967	-15.589	0.215	-0.139
-590.952	-175.446	0.239	-0.007
-589.938	97.239	-0.114	0.133
-588.923	155.641	-0.099	-0.138
-587.909	18.449	-0.196	-0.159
-586.894	-88.227	0.087	0.027
-585.879	-12.939	0.197	-0.131
-584.865	-200.000	0.045	0.231
-583.850	214.951	-0.097	0.156
-582.836	-93.580	-0.124	-0.035
-581.821	-108.610	0.148	0.032
-580.806	88.436	-0.257	-0.290
-579.792	254.742	-0.112	-0.195
-578.777	323.980	0.127	-0.246
-577.763	20.105	-0.162	-0.133
-576.748	-39.754	-0.145	0.077
-575.733	800.000	0.076	0.216
-574.719	-91.373	-0.161	-0.047
-573.704	-200.000	0.015	0.339
-572.690	-146.433	-0.294	-0.026
-571.675	282.612	-0.162	-0.295
-570.661	688.159	0.083	-0.220
-569.646	610.204	-0.064	0.164
-568.631	351.513	-0.199	0.401
-567.617	268.991	-0.080	0.143
-566.602	-2.037	-0.119	0.085
-565.588	530.707	0.087	0.209
-564.573	-62.013	-0.252	0.107
-563.558	-200.000	-0.061	-0.526
-562.544	38.777	-0.206	-0.187
-561.529	-200.000	0.028	0.285
-560.515	800.000	0.049	0.146
-559.500	800.000	0.069	-0.283
-558.485	-107.239	0.212	0.047
-557.471	-200.000	0.050	0.249
-556.456	-200.000	-0.051	0.242
-555.442	158.499	-0.125	0.176
-554.427	-164.789	-0.283	0.013
-553.412	-200.000	0.021	0.341
-552.398	-117.528	0.142	-0.026
-551.383	67.647	-0.202	-0.210
-550.369	66.700	0.253	-0.261
-549.354	800.000	-0.025	0.088
-548.339	135.055	0.079	-0.104
-547.325	-150.947	-0.310	-0.024
-546.310	-200.000	-0.016	-0.159
-545.296	-89.509	0.207	-0.062
-544.281	-56.934	-0.121	-0.054
-543.266	-11.327	0.145	-0.097
-542.252	270.903	-0.169	-0.302
-541.237	178.359	0.092	-0.137
-540.223	-53.737	-0.135	-0.062
-539.208	358.564	-0.137	0.278
-538.193	-45.844	-0.135	0.068
-537.179	-200.000	0.012	-0.388
-536.164	-200.000	0.008	-0.165
-535.150	-169.229	0.223	0.008
-534.135	63.972	0.097	-0.099
-533.121	100.732	-0.083	-0.098
-532.106	-34.601	0.197	-0.110
-531.091	-25.428	-0.141	0.084
-530.077	527.918	0.040	-0.096
-529.062	-154.372	0.099	0.007
-528.048	216.206	0.109	0.175
-527.033	20.086	0.147	-0.120
-526.018	-93.528	0.314	-0.088
-525.004	-200.000	-0.016	0.086
-523.989	13.629	-0.346	-0.273
-522.975	-44.189	0.066	0.034
-521.960	-15.128	0.245	0.159
-520.945	-71.191	-0.108	-0.041
-519.931	-200.000	0.017	-0.218
-518.916	-200.000	-0.021	-0.356
-517.902	346.915	0.152	-0.304
-516.887	-166.082	0.335	-0.014
-515.872	261.253	0.063	-0.110
-514.858	-156.547	0.208	0.013
-513.843	-64.981	0.281	0.115
-512.829	-22.235	-0.136	0.084
-511.814	427.505	0.100	0.219
-510.799	62.959	-0.119	0.121
-509.785	532.577	-0.116	0.279
-508.770	-178.477	-0.312	0.007
-507.756	-4.180	0.103	-0.072
-506.741	-33.849	-0.210	-0.117
-505.726	-108.899	0.266	-0.057
-504.712	-200.000	0.011	-0.160
-503.697	44.418	-0.074	-0.069
-502.683	-106.658	0.413	0.093
-501.668	342.407	0.227	-0.451
-500.653	-40.884	0.097	-0.051
-499.639	88.502	0.093	0.104
-498.624	-128.208	-0.104	0.015
-497.610	-153.527	0.098	0.007
-496.595	-179.251	-0.115	-0.003
-495.581	72.865	0.116	-0.122
-494.566	47.993	-0.281	-0.266
-493.551	316.363	0.087	0.166
-492.537	-72.579	0.121	-0.045
-491.522	278.161	-0.059	0.106
-490.508	783.343	0.097	0.269
-489.493	-82.041	-0.151	0.050
-488.478	-121.310	-0.266	-0.045
-487.464	800.000	-0.068	0.235
-486.449	596.153	-0.043	-0.108
-485.435	71.331	-0.113	0.119
-484.420	-200.000	0.029	-0.183
-483.405	16.003	0.117	0.093
-482.391	-36.597	-0.210	0.115
-481.376	159.202	-0.068	0.096
-480.362	-52.846	-0.143	-0.067
-479.347	521.325	-0.066	-0.156
-478.332	-42.132	0.082	-0.042
-477.318	-94.074	-0.229	-0.064
-476.303	164.841	0.158	0.226
-475.289	-87.142	-0.157	-0.048
-474.274	109.320	0.143	0.173
-473.259	-200.000	-0.067	0.407
-472.245	275.175	-0.097	-0.174
-471.230	-200.000	0.012	0.169
-470.216	-47.754	0.034	-0.017
-469.201	24.872	-0.272	-0.228
-468.186	192.505	0.124	-0.189
-467.172	800.000	-0.063	-0.214
-466.157	-76.739	-0.158	-0.056
-465.143	-200.000	0.046	0.237
-464.128	800.000	0.041	0.120
-463.113	31.037	0.093	0.081
-462.099	120.761	0.159	-0.200
-461.084	361.562	0.050	-0.102
-460.070	-200.000	0.006	-0.130
-459.055	800.000	-0.122	-0.463
-458.040	14.450	-0.376	0.297
-457.026	31.121	0.146	0.127
-456.011	-126.146	0.383	0.058
-454.997	49.124	0.171	0.163
-453.982	-120.368	0.212	-0.037
-452.968	-95.602	0.129	-0.035
-451.953	-88.658	-0.119	0.036
-450.938	343.870	-0.141	0.280
-449.924	-116.141	0.127	-0.024
-448.909	-27.461	0.209	0.123
-447.895	800.000	0.018	0.066
-446.880	72.168	-0.103	0.109
-445.865	-19.903	-0.100	0.063
-444.851	271.717	0.134	0.239
-443.836	-126.761	0.078	-0.012
-442.822	-140.383	0.073	0.008
-441.807	-78.700	0.139	0.048
-440.792	800.000	0.078	0.336
-439.778	-129.133	-0.207	0.029
-438.763	-200.000	-0.005	0.047
-437.749	800.000	-0.087	0.281
-436.734	139.155	0.130	0.173
-435.719	-25.390	-0.225	-0.134
-434.705	-69.433	0.325	-0.126
-433.690	455.647	0.084	-0.188
-432.676	-103.081	-0.100	0.024
-431.661	-82.694	-0.161	-0.053
-430.646	-75.615	-0.419	-0.150
-429.632	16.578	0.291	-0.233
-428.617	800.000	-0.117	0.341
-427.603	-59.534	0.392	-0.170
-426.588	179.668	-0.108	-0.159
-425.573	-138.464	-0.291	0.032
-424.559	728.720	-0.058	-0.158
-423.544	-149.265	-0.124	0.010
-422.530	-98.573	-0.252	0.065
-421.515	800.000	-0.088	0.318
-420.500	-46.110	0.097	0.048
-419.486	-55.647	-0.159	0.072
-418.471	800.000	0.087	-0.322
-417.457	-36.274	0.136	0.074
-416.442	493.162	0.123	0.286
-415.428	-8.071	0.121	0.082
-414.413	-89.177	-0.155	-0.046
-413.398	211.912	-0.118	0.188
-412.384	-136.206	-0.185	0.022
-411.369	323.689	-0.177	-0.342
-410.355	-113.904	-0.073	0.014
-409.340	87.855	-0.106	-0.118
-408.325	-92.848	0.339	-0.096
-407.311	69.314	0.139	-0.144
-406.296	43.074	-0.054	-0.049
-405.282	-30.711	-0.456	-0.260
-404.267	-35.729	0.257	-0.140
-403.252	-146.625	0.143	0.013
-402.238	322.397	-0.156	-0.300
-401.223	-134.695	0.273	-0.034
-400.209	-200.000	0.018	-0.175
-399.194	-25.157	0.389	-0.232
-398.179	195.716	0.171	-0.263
-397.165	-110.979	-0.326	0.068
-396.150	297.283	-0.183	-0.339
-395.136	800.000	0.082	-0.284
-394.121	-14.864	0.205	0.132
-393.106	-51.053	0.304	0.144
-392.092	-128.048	0.208	0.030
-391.077	-95.511	-0.217	0.059
-390.063	73.426	-0.126	-0.133
-389.048	52.936	-0.205	0.198
-388.033	-200.000	0.049	0.439
-387.019	800.000	-0.113	-0.360
-386.004	-150.260	0.075	0.006
-384.990	-115.400	-0.208	-0.039
-383.975	-200.000	-0.042	-0.316
-382.960	285.490	-0.107	0.195
-381.946	7.881	0.210	0.159
-380.931	238.130	0.126	0.211
-379.917	-68.021	-0.313	0.123
-378.902	-54.757	0.259	0.118
-377.888	257.384	-0.145	-0.251
-376.873	285.145	-0.178	0.323
-375.858	-200.000	0.231	0.000
-374.844	87.574	-0.084	0.094
-373.829	-146.107	-0.197	0.018
-372.815	122.916	-0.119	0.150
-371.800	-200.000	0.016	-0.228
-370.785	-5.593	0.382	-0.264
-369.771	-69.694	-0.079	0.030
-368.756	209.150	-0.172	0.272
-367.742	262.238	-0.078	0.136
-366.727	-200.000	-0.009	-0.227
-365.712	-138.697	0.095	-0.010
-364.698	-190.685	0.104	0.001
-363.683	-118.162	-0.177	0.032
-362.669	-115.829	-0.288	-0.054
-361.654	188.940	-0.112	0.169
-360.639	18.005	0.419	0.337
-359.625	50.561	-0.118	0.113
-358.610	220.170	-0.126	-0.203
-357.596	-119.879	-0.039	-0.007
-356.581	-8.577	-0.159	0.108
-355.566	483.378	0.225	0.516
-354.552	-200.000	-0.006	0.159
-353.537	-200.000	-0.024	-0.166
-352.523	86.588	0.100	0.112
-351.508	-50.721	-0.301	-0.143
-350.493	324.343	0.031	0.060
-349.479	-71.916	-0.069	-0.026
-348.464	-121.279	-0.098	-0.017
-347.450	800.000	-0.053	0.167
-346.435	-87.662	-0.211	0.064
-345.420	-200.000	-0.034	-0.168
-344.406	517.129	0.225	0.529
-343.391	227.378	0.142	0.233
-342.377	414.128	-0.071	0.153
-341.362	800.000	-0.002	-0.005
-340.348	42.634	0.076	0.070
-339.333	-200.000	-0.055	0.469
-338.318	-200.000	0.006	-0.078
-337.304	-154.741	0.361	-0.024
-336.289	800.000	0.051	0.170
-335.275	-200.000	-0.039	-0.245
-334.260	46.999	-0.105	0.098
-333.245	17.917	0.215	-0.172
-332.231	148.307	-0.061	0.084
-331.216	-200.000	0.046	0.271
-330.202	-142.125	-0.247	-0.025
-329.187	19.450	-0.071	0.057
-328.172	67.466	-0.091	-0.093
-327.158	-200.000	0.005	0.054
-326.143	140.852	-0.034	0.045
-325.129	542.392	-0.085	-0.204
-324.114	57.507	0.218	-0.214
-323.099	-92.629	0.231	-0.065
-322.085	-200.000	-0.182	0.001
-321.070	137.604	0.080	-0.105
-320.056	-200.000	-0.019	0.252
-319.041	-51.454	-0.055	0.026
-318.026	29.898	0.092	-0.079
-317.012	-89.229	-0.116	-0.035
-315.997	124.314	0.194	-0.246
-314.983	-184.035	-0.034	-0.001
-313.968	-60.010	0.210	-0.090
-312.953	320.436	-0.089	-0.170
-311.939	95.044	0.095	-0.109
-310.924	-200.000	-0.053	-0.240
-309.910	-137.123	0.305	-0.035
-308.895	-0.835	0.210	0.150
-307.880	12.210	0.092	-0.071
-306.866	-200.000	0.015	0.191
-305.851	302.146	-0.151	0.281
-304.837	-200.000	-0.013	-0.057
-303.822	47.257	-0.033	0.031
-302.807	11.929	-0.108	0.084
-301.793	-5.656	-0.242	0.167
-300.778	126.134	0.096	-0.122
-299.764	153.002	-0.133	-0.183
-298.749	-88.919	0.435	-0.130
-297.735	-125.677	0.155	-0.024
-296.720	-63.140	0.288	-0.120
-295.705	77.949	-0.436	0.467
-294.691	-200.000	0.044	-0.225
-293.676	470.239	-0.047	0.106
-292.662	77.462	0.112	0.120
-291.647	62.954	-0.116	-0.117
-290.632	-200.000	0.007	-0.101
-289.618	541.247	-0.094	-0.224
-288.603	-200.000	0.034	-0.196
-287.589	-200.000	-0.040	0.320
-286.574	159.112	-0.026	0.037
-285.559	-145.761	0.130	0.012
-284.545	-111.862	0.349	-0.071
-283.530	-88.973	0.178	0.053
-282.516	-200.000	-0.013	0.168
-281.501	49.348	0.083	-0.078
-280.486	-47.210	0.042	-0.021
-279.472	-21.937	-0.111	0.068
-278.457	54.086	-0.129	-0.125
-277.443	800.000	0.038	-0.106
-276.428	800.000	-0.078	0.307
-275.413	-200.000	0.011	0.142
-274.399	-200.000	-0.039	0.208
-273.384	-80.007	0.134	-0.045
-272.370	1.442	0.063	-0.046
-271.355	-200.000	-0.010	0.089
-270.340	83.862	0.022	0.025
-269.326	-200.000	-0.029	-0.223
-268.311	-200.000	-0.010	0.107
-267.297	75.751	-0.204	0.216
-266.282	-87.924	0.184	0.056
-265.267	58.950	0.253	0.250
-264.253	-44.500	0.140	-0.070
-263.238	-108.685	0.373	-0.080
-262.224	279.031	0.206	0.369
-261.209	-99.312	0.380	-0.096
-260.195	-44.851	0.139	0.070
-259.180	-40.406	0.067	-0.035
-258.165	-121.021	0.058	-0.010
-257.151	438.809	0.048	-0.106
-256.136	265.655	0.094	-0.165
-255.122	277.969	-0.100	-0.178
-254.107	200.943	-0.019	-0.030
-253.092	-44.721	-0.186	-0.093
-252.078	-145.326	-0.246	0.022
-251.063	-111.740	-0.373	-0.076
-250.049	169.979	0.158	0.227
-249.034	800.000	0.101	0.348
-248.019	-18.586	0.048	0.030
-247.005	-17.851	-0.214	0.135
-245.990	-200.000	0.009	0.063
-244.976	-200.000	-0.010	-0.179
-243.961	-200.000	0.050	0.294
-242.946	-200.000	0.044	-0.357
-241.932	-24.811	0.070	-0.042
-240.917	-166.675	-0.362	-0.015
-239.903	97.276	-0.043	-0.049
-238.888	10.950	0.146	-0.112
-237.873	-149.260	0.119	0.010
-236.859	-46.399	-0.158	-0.078
-235.844	-200.000	-0.076	0.341
-234.830	-200.000	0.050	0.235
-233.815	-109.261	0.313	-0.067
-232.800	-199.067	-0.095	-0.001
-231.786	-200.000	-0.058	0.383
-230.771	-116.463	-0.171	0.032
-229.757	141.809	-0.158	0.210
-228.742	-200.000	0.025	0.172
-227.727	554.633	-0.021	-0.051
-226.713	126.431	0.033	-0.041
-225.698	800.000	-0.014	-0.050
-224.684	-61.938	-0.069	-0.029
-223.669	-7.874	0.303	-0.205
-222.655	521.506	-0.020	0.047
-221.640	800.000	-0.043	0.183
-220.625	-38.565	0.047	0.025
-219.611	-133.942	-0.181	-0.023
-218.596	562.501	-0.121	0.293
-217.582	-3.172	0.258	-0.180
-216.567	-194.459	-0.029	0.000
-215.552	179.474	-0.229	-0.336
-214.538	-200.000	-0.011	0.194
-213.523	176.239	-0.042	-0.061
-212.509	89.472	-0.029	-0.032
-211.494	-200.000	-0.030	-0.477
-210.479	-200.000	0.028	-0.259
-209.465	-146.505	-0.049	-0.004
-208.450	-200.000	-0.022	0.140
-207.436	-1.768	-0.213	-0.150
-206.421	800.000	-0.083	-0.314
-205.406	-84.831	-0.271	0.085
-204.392	319.861	0.099	-0.187
-203.377	-96.762	0.256	0.067
-202.363	800.000	-0.047	0.191
-201.348	-25.374	0.141	-0.083
-200.333	800.000	0.044	-0.177
-199.319	93.337	-0.050	-0.056
-198.304	354.204	-0.082	0.163
-197.290	-72.546	0.093	0.035
-196.275	-25.973	0.031	0.018
-195.260	34.162	-0.077	0.067
-194.246	-70.007	-0.261	0.100
-193.231	-200.000	-0.004	0.063
-192.217	-200.000	0.041	-0.284
-191.202	11.499	-0.263	-0.202
-190.187	167.720	-0.116	0.165
-189.173	800.000	0.085	0.265
-188.158	109.067	-0.196	0.235
-187.144	-71.350	0.150	0.056
-186.129	-24.936	0.180	-0.107
-185.114	141.986	-0.226	-0.300
-184.100	-200.000	0.032	0.306
-183.085	164.280	-0.235	0.332
-182.071	-200.000	0.011	0.127
-181.056	-200.000	-0.028	-0.341
-180.042	-50.423	0.210	0.099
-179.027	396.590	-0.148	0.308
-178.012	-200.000	0.016	-0.120
-176.998	-104.653	-0.098	-0.023
-175.983	115.529	-0.128	-0.157
-174.969	-174.476	0.120	0.003
-173.954	248.227	0.122	0.207
-172.939	-200.000	0.017	0.285
-171.925	-20.955	0.069	-0.042
-170.910	-89.770	-0.052	0.015
-169.896	800.000	0.015	0.052
-168.881	-163.606	0.294	-0.014
-167.866	-106.062	-0.066	-0.015
-166.852	146.699	0.191	-0.256
-165.837	-63.973	0.234	-0.096
-164.823	-0.744	0.347	0.246
-163.808	707.175	0.026	0.069
-162.793	800.000	0.029	-0.087
-161.779	-50.045	0.125	0.059
-160.764	-141.567	-0.227	0.023
-159.750	297.619	-0.056	0.103
-158.735	-136.872	0.189	0.022
-157.720	163.835	0.248	-0.349
-156.706	-135.734	-0.305	0.036
-155.691	170.860	0.048	0.069
-154.677	-145.853	0.430	-0.038
-153.662	1.223	0.071	-0.051
-152.647	-12.824	-0.089	0.058
-151.633	-108.057	0.053	-0.011
-150.618	366.626	0.069	-0.139
-149.604	313.694	-0.086	0.162
-148.589	310.864	0.080	0.150
-147.574	-200.000	-0.033	-0.229
-146.560	-17.759	-0.146	0.092
-145.545	-109.269	-0.170	-0.036
-144.531	-135.850	-0.381	-0.045
-143.516	800.000	0.043	-0.137
-142.502	-200.000	-0.014	0.475
-141.487	338.698	-0.027	-0.053
-140.472	24.141	0.156	0.129
-139.458	-11.795	-0.209	0.137
-138.443	-18.352	-0.280	-0.175
-137.429	-68.672	-0.233	-0.090
-136.414	65.559	-0.162	-0.164
-135.399	-61.680	0.176	0.074
-134.385	266.891	-0.147	-0.256
-133.370	800.000	-0.047	0.191
-132.356	6.796	-0.250	-0.186
-131.341	-175.250	-0.035	0.001
-130.326	233.199	-0.118	0.194
-129.312	-200.000	-0.000	0.204
-128.297	-176.749	-0.098	-0.002
-127.283	-200.000	-0.073	0.416
-126.268	-43.537	0.056	-0.028
-125.253	-200.000	0.024	-0.204
-124.239	-200.000	0.000	0.138
-123.224	-200.000	-0.022	0.183
