DTS Sentinel unit serial number:	SN413079Multiplexer serial number:	ORYXHardware model number:	OX4-SRSoftware version number:	ORYX F/W v4.00 Oryx Data Collector v3.7.2.0data status	okinstallation	princeton_trtdifferential loss correction	single-endedforward channel	channel 4reverse channel	N/Adate	2019/09/11time	15:51:10forward acquisition time	60.00reverse acquisition time	0.00gamma	496.2192k internal	0.2278k external	0.2278temperature offset calibration	1.0015default loss term (dB/km)	0.3790temperature slope calibration	1.0000multiplexer offset coefficient	1.0000multiplexer slope coefficient	1.0000fibre end	0.00T internal ref (°C)	42.91T ext. ref 1 (°C)	1.02T ext. ref 2 (°C)	38.02length (m)	temperature (°C)	Stokes	anti-Stokes-747.200	103.388	-0.056	0.068
-746.185	111.925	0.060	0.075
-745.171	-176.247	-0.184	-0.005
-744.156	-11.052	0.107	-0.073
-743.142	800.000	0.047	-0.193
-742.127	-200.000	0.019	0.169
-741.112	26.193	0.096	-0.083
-740.098	-80.363	0.033	-0.011
-739.083	-66.325	0.167	0.068
-738.069	17.764	0.258	0.211
-737.054	-176.892	0.077	0.002
-736.039	-67.595	-0.378	0.153
-735.025	196.193	0.181	0.284
-734.010	800.000	-0.099	-0.315
-732.996	800.000	0.012	-0.037
-731.981	800.000	0.051	0.225
-730.966	60.923	-0.118	-0.120
-729.952	-128.446	0.186	0.027
-728.937	401.110	-0.103	-0.222
-727.923	-180.125	-0.056	-0.001
-726.908	435.625	-0.053	-0.118
-725.894	800.000	-0.034	-0.140
-724.879	-171.457	-0.245	0.008
-723.864	31.283	0.023	-0.020
-722.850	-200.000	-0.018	0.159
-721.835	306.822	0.127	-0.243
-720.821	-21.145	-0.317	-0.199
-719.806	-200.000	0.016	0.096
-718.791	-102.007	0.077	-0.019
-717.777	289.364	-0.209	-0.391
-716.762	-111.912	0.303	0.063
-715.748	-33.524	-0.438	0.249
-714.733	-126.327	-0.112	0.017
-713.718	800.000	-0.045	-0.155
-712.704	289.644	0.032	0.060
-711.689	234.860	-0.045	0.077
-710.675	-200.000	0.005	0.039
-709.660	-110.148	0.238	0.051
-708.645	-93.098	-0.055	-0.016
-707.631	-44.524	-0.316	-0.162
-706.616	800.000	-0.020	-0.076
-705.602	-200.000	0.023	-0.159
-704.587	-200.000	-0.014	-0.118
-703.572	111.249	-0.105	-0.130
-702.558	-200.000	-0.053	-0.424
-701.543	-200.000	-0.030	0.378
-700.529	-200.000	-0.016	0.298
-699.514	125.952	-0.115	0.150
-698.499	-200.000	0.007	-0.086
-697.485	-1.300	0.179	-0.130
-696.470	-200.000	-0.001	-0.014
-695.456	-18.957	-0.341	-0.218
-694.441	-142.486	-0.262	0.026
-693.426	-69.405	-0.136	-0.054
-692.412	-200.000	0.005	0.097
-691.397	192.493	-0.088	0.136
-690.383	193.813	-0.054	0.083
-689.368	-200.000	-0.004	0.147
-688.354	489.431	0.087	-0.204
-687.339	317.231	0.054	0.106
-686.324	-125.078	0.396	-0.063
-685.310	192.419	-0.078	-0.122
-684.295	-136.150	-0.223	-0.027
-683.281	18.713	0.376	0.309
-682.266	800.000	-0.041	-0.129
-681.251	17.319	0.094	0.077
-680.237	114.993	-0.072	-0.091
-679.222	-200.000	0.019	0.136
-678.208	-2.206	0.282	-0.204
-677.193	28.876	0.103	-0.090
-676.178	35.793	-0.132	-0.119
-675.164	-121.125	0.306	-0.053
-674.149	46.361	0.148	0.141
-673.135	25.042	-0.088	-0.075
-672.120	-200.000	-0.023	-0.216
-671.105	-200.000	-0.004	-0.150
-670.091	19.428	-0.092	0.076
-669.076	-45.623	0.018	-0.009
-668.062	800.000	-0.050	-0.185
-667.047	42.577	-0.111	-0.104
-666.032	-48.880	-0.198	-0.097
-665.018	-200.000	0.019	0.117
-664.003	-89.067	0.248	-0.075
-662.989	800.000	0.070	-0.257
-661.974	706.445	-0.195	0.528
-660.959	17.618	-0.029	-0.023
-659.945	-119.080	0.019	0.003
-658.930	139.952	-0.194	-0.263
-657.916	-200.000	0.027	-0.181
-656.901	-65.474	-0.156	0.064
-655.886	55.564	-0.052	-0.052
-654.872	137.035	0.174	-0.234
-653.857	-36.266	0.134	0.074
-652.843	7.297	0.089	-0.069
-651.828	221.690	-0.079	-0.131
-650.814	-43.143	-0.191	0.099
-649.799	164.723	0.100	0.145
-648.784	83.597	0.083	0.093
-647.770	592.792	-0.064	-0.162
-646.755	388.073	-0.102	-0.216
-645.741	167.379	0.184	0.268
-644.726	120.721	0.194	-0.247
-643.711	-80.114	-0.072	0.025
-642.697	-50.863	-0.141	0.068
-641.682	517.208	-0.075	0.180
-640.668	-151.080	-0.274	0.021
-639.653	388.074	0.130	0.275
-638.638	-185.543	-0.103	0.002
-637.624	-74.479	-0.191	-0.071
-636.609	-118.140	0.183	-0.033
-635.595	509.116	-0.122	0.290
-634.580	-98.031	-0.277	-0.073
-633.565	378.731	-0.079	0.165
-632.551	-200.000	-0.002	-0.172
-631.536	-3.241	0.195	-0.139
-630.522	104.868	0.115	0.139
-629.507	-42.383	-0.220	0.115
-628.492	210.583	-0.047	0.075
-627.478	76.130	0.357	0.388
-626.463	67.973	-0.113	0.119
-625.449	372.109	-0.158	-0.329
-624.434	180.656	-0.102	-0.154
-623.419	800.000	0.031	-0.112
-622.405	56.742	0.113	0.112
-621.390	-35.364	-0.124	0.069
-620.376	425.681	0.161	-0.355
-619.361	-182.200	-0.088	-0.002
-618.346	-15.835	0.232	-0.151
-617.332	35.353	-0.003	-0.003
-616.317	88.747	-0.135	0.154
-615.303	42.336	-0.233	0.217
-614.288	-200.000	-0.016	0.199
-613.273	583.674	0.046	-0.115
-612.259	-79.960	0.263	-0.090
-611.244	41.728	-0.184	-0.171
-610.230	215.974	0.087	0.141
-609.215	16.500	0.423	0.342
-608.201	-158.456	-0.182	0.011
-607.186	14.693	0.074	-0.059
-606.171	-162.359	0.215	0.011
-605.157	-175.237	-0.060	-0.002
-604.142	-103.721	-0.247	0.059
-603.128	71.099	-0.096	-0.101
-602.113	800.000	0.131	-0.444
-601.098	-99.490	0.122	-0.031
-600.084	-20.046	0.034	-0.022
-599.069	179.633	0.010	0.014
-598.055	-200.000	-0.023	-0.382
-597.040	-200.000	0.005	-0.040
-596.025	83.839	0.233	0.260
-595.011	75.935	-0.121	-0.131
-593.996	202.388	0.047	0.074
-592.982	-116.711	-0.301	0.057
-591.967	800.000	0.088	-0.269
-590.952	-121.284	0.246	0.042
-589.938	-200.000	0.007	0.089
-588.923	-87.903	-0.203	-0.062
-587.909	-9.864	0.187	-0.127
-586.894	800.000	-0.035	-0.148
-585.879	-200.000	0.013	-0.060
-584.865	101.036	0.118	-0.141
-583.850	38.880	0.148	0.135
-582.836	-200.000	-0.022	-0.457
-581.821	-8.222	0.229	0.158
-580.806	-18.916	-0.375	0.239
-579.792	731.676	0.085	-0.234
-578.777	90.655	0.207	0.237
-577.763	10.720	-0.323	-0.252
-576.748	-14.250	-0.027	-0.018
-575.733	-129.506	0.227	0.032
-574.719	134.784	-0.049	-0.065
-573.704	170.959	0.095	-0.139
-572.690	800.000	0.027	-0.077
-571.675	-200.000	0.011	-0.143
-570.661	694.703	0.092	0.247
-569.646	-200.000	0.044	0.397
-568.631	-59.013	0.087	-0.038
-567.617	-200.000	0.029	-0.265
-566.602	-96.266	-0.331	-0.090
-565.588	92.595	-0.214	0.247
-564.573	-200.000	-0.002	-0.099
-563.558	800.000	-0.066	-0.230
-562.544	-200.000	0.009	-0.191
-561.529	-200.000	-0.007	0.162
-560.515	221.992	-0.102	-0.168
-559.500	716.277	-0.061	-0.165
-558.485	-164.784	0.150	0.007
-557.471	265.959	-0.069	-0.122
-556.456	669.629	-0.087	0.229
-555.442	330.836	-0.070	0.138
-554.427	-51.622	0.091	-0.044
-553.412	-104.035	0.107	0.025
-552.398	-12.511	-0.050	0.033
-551.383	-42.359	-0.295	0.154
-550.369	329.733	-0.064	0.126
-549.354	325.438	0.113	-0.221
-548.339	613.427	-0.115	-0.294
-547.325	741.640	-0.069	-0.190
-546.310	281.155	-0.142	0.259
-545.296	136.976	-0.136	-0.181
-544.281	59.330	0.204	-0.205
-543.266	-200.000	0.009	-0.331
-542.252	-164.904	-0.423	0.019
-541.237	-65.576	-0.309	-0.126
-540.223	800.000	-0.022	-0.072
-539.208	68.762	0.267	-0.280
-538.193	33.626	0.055	0.049
-537.179	201.763	-0.216	-0.340
-536.164	-5.576	-0.248	0.174
-535.150	-200.000	-0.038	0.212
-534.135	-85.885	0.087	-0.028
-533.121	-200.000	-0.023	-0.265
-532.106	605.129	0.027	0.070
-531.091	800.000	-0.050	-0.210
-530.077	-200.000	-0.036	0.172
-529.062	-200.000	0.048	-0.283
-528.048	-143.265	-0.150	0.015
-527.033	186.817	0.102	0.156
-526.018	800.000	0.095	-0.272
-525.004	164.344	-0.104	-0.149
-523.989	52.529	-0.113	-0.110
-522.975	128.556	0.034	0.044
-521.960	-200.000	0.003	-0.047
-520.945	-114.650	-0.229	0.045
-519.931	-77.335	-0.090	0.032
-518.916	-152.340	-0.099	-0.007
-517.902	14.941	-0.065	-0.052
-516.887	61.260	-0.379	0.384
-515.872	800.000	-0.146	-0.419
-514.858	-13.798	-0.184	0.122
-513.843	251.842	-0.102	-0.176
-512.829	-103.109	0.311	-0.075
-511.814	183.141	0.155	0.233
-510.799	-54.540	0.122	0.057
-509.785	-200.000	0.003	0.150
-508.770	-83.347	0.180	-0.059
-507.756	-45.966	-0.196	0.098
-506.741	-17.159	-0.220	-0.142
-505.726	-101.973	-0.229	0.057
-504.712	-200.000	-0.005	0.121
-503.697	-150.791	-0.217	0.017
-502.683	-26.507	-0.210	0.125
-501.668	-90.031	-0.243	0.072
-500.653	236.052	0.043	0.072
-499.639	185.472	0.220	0.333
-498.624	378.131	-0.135	0.282
-497.610	-145.753	0.372	-0.034
-496.595	-111.907	-0.088	0.018
-495.581	-111.218	-0.170	-0.035
-494.566	-200.000	0.028	-0.205
-493.551	37.560	-0.055	-0.050
-492.537	800.000	0.058	0.251
-491.522	-58.463	-0.061	-0.027
-490.508	800.000	-0.064	0.207
-489.493	24.263	-0.073	0.062
-488.478	-89.937	0.299	0.089
-487.464	64.049	0.133	-0.137
-486.449	106.486	0.142	-0.172
-485.435	213.197	-0.128	0.206
-484.420	-2.883	0.110	-0.079
-483.405	-200.000	0.009	-0.147
-482.391	-98.554	0.124	0.032
-481.376	361.539	0.046	-0.094
-480.362	-200.000	0.004	0.204
-479.347	-200.000	-0.012	-0.195
-478.332	-91.871	-0.324	-0.094
-477.318	-116.992	0.120	-0.022
-476.303	-6.014	0.163	0.114
-475.289	19.957	0.101	-0.083
-474.274	345.813	-0.055	-0.109
-473.259	97.173	-0.094	-0.109
-472.245	800.000	-0.074	-0.273
-471.230	-166.936	0.079	-0.003
-470.216	800.000	-0.103	-0.307
-469.201	65.489	-0.227	-0.234
-468.186	800.000	-0.042	0.166
-467.172	-154.590	-0.271	-0.018
-466.157	-71.038	-0.266	0.102
-465.143	257.123	-0.063	-0.111
-464.128	-67.105	0.138	0.055
-463.113	-200.000	-0.006	-0.052
-462.099	580.578	-0.042	-0.105
-461.084	36.556	-0.327	0.294
-460.070	-69.037	-0.094	0.037
-459.055	800.000	0.063	0.282
-458.040	166.840	-0.142	-0.205
-457.026	-200.000	0.003	-0.113
-456.011	129.688	-0.072	0.093
-454.997	2.052	-0.098	-0.072
-453.982	-69.821	-0.293	-0.114
-452.968	7.720	0.070	-0.053
-451.953	71.161	0.148	-0.157
-450.938	-54.153	-0.233	0.108
-449.924	-34.701	0.303	0.169
-448.909	314.004	0.206	0.395
-447.895	146.833	0.154	0.211
-446.880	115.654	-0.025	0.031
-445.865	-63.572	0.332	0.139
-444.851	800.000	-0.034	-0.125
-443.836	800.000	0.018	0.073
-442.822	-200.000	-0.023	-0.118
-441.807	202.108	-0.122	-0.191
-440.792	237.246	0.050	-0.084
-439.778	-119.043	-0.136	-0.024
-438.763	-133.318	0.455	-0.058
-437.749	204.823	0.151	-0.239
-436.734	-200.000	-0.026	-0.146
-435.719	800.000	-0.089	0.330
-434.705	-105.360	0.390	-0.090
-433.690	-152.565	0.046	0.003
-432.676	-131.939	0.097	0.013
-431.661	-7.957	-0.289	-0.198
-430.646	20.269	0.080	0.066
-429.632	217.334	-0.038	-0.061
-428.617	124.233	0.135	0.173
-427.603	23.078	0.122	0.102
-426.588	-84.659	0.115	-0.037
-425.573	-57.023	-0.217	0.098
-424.559	-186.383	0.287	-0.004
-423.544	800.000	0.109	-0.450
-422.530	672.700	0.035	-0.092
-421.515	-11.092	0.079	0.053
-420.500	-81.195	0.265	-0.089
-419.486	11.629	0.177	-0.138
-418.471	-200.000	0.013	0.281
-417.457	-125.772	0.218	0.033
-416.442	126.062	-0.075	-0.097
-415.428	-148.565	-0.154	-0.013
-414.413	389.946	-0.094	0.198
-413.398	-88.671	-0.265	-0.080
-412.384	159.364	-0.263	-0.372
-411.369	170.261	0.110	0.160
-410.355	-200.000	0.073	-0.372
-409.340	800.000	-0.009	0.039
-408.325	-79.889	0.177	-0.060
-407.311	-160.562	0.057	0.003
-406.296	-200.000	0.001	0.311
-405.282	96.865	-0.167	0.194
-404.267	800.000	0.029	0.093
-403.252	-8.007	0.071	-0.049
-402.238	107.577	0.128	0.155
-401.223	-200.000	-0.068	0.436
-400.209	-200.000	0.052	-0.257
-399.194	-200.000	-0.000	-0.059
-398.179	800.000	0.015	0.050
-397.165	-118.807	-0.146	0.026
-396.150	41.464	0.323	0.297
-395.136	125.016	-0.106	0.136
-394.121	345.348	0.046	-0.091
-393.106	78.126	-0.034	0.037
-392.092	-123.196	-0.295	0.048
-391.077	-200.000	-0.013	0.431
-390.063	-25.139	0.161	-0.097
-389.048	6.723	0.103	0.078
-388.033	663.415	0.042	0.109
-387.019	309.344	-0.102	0.194
-386.004	223.210	-0.216	0.353
-384.990	133.462	-0.155	-0.204
-383.975	177.737	-0.122	0.180
-382.960	-39.524	-0.067	-0.036
-381.946	-200.000	0.022	0.216
-380.931	-73.218	0.290	-0.108
-379.917	-200.000	0.005	-0.063
-378.902	-111.294	0.043	0.009
-377.888	39.349	-0.057	-0.052
-376.873	-63.676	-0.127	0.053
-375.858	-155.075	-0.184	0.012
-374.844	-130.792	-0.268	0.037
-373.829	135.893	0.232	0.306
-372.815	-98.112	0.046	0.012
-371.800	148.532	-0.144	0.197
-370.785	-11.058	-0.278	-0.186
-369.771	-168.004	-0.155	0.006
-368.756	682.671	-0.083	0.220
-367.742	-4.822	0.271	0.190
-366.727	-88.290	0.242	0.073
-365.712	800.000	0.065	-0.198
-364.698	-116.902	0.207	0.038
-363.683	329.636	-0.061	-0.118
-362.669	-73.468	0.422	0.156
-361.654	-200.000	0.053	0.291
-360.639	-175.809	-0.337	0.009
-359.625	138.471	-0.184	-0.245
-358.610	-89.055	0.126	-0.038
-357.596	592.268	-0.042	-0.106
-356.581	160.519	-0.196	0.278
-355.566	155.193	-0.077	-0.108
-354.552	385.788	-0.047	0.099
-353.537	57.333	0.236	0.234
-352.523	446.302	-0.099	0.221
-351.508	-72.824	-0.202	-0.076
-350.493	-94.873	-0.394	-0.108
-349.479	-100.376	-0.265	-0.067
-348.464	20.620	-0.056	0.046
-347.450	-200.000	-0.028	0.162
-346.435	-72.714	-0.249	-0.093
-345.420	-166.391	0.117	0.005
-344.406	-200.000	-0.010	-0.267
-343.391	146.204	-0.185	-0.252
-342.377	-200.000	0.010	-0.207
-341.362	-111.189	0.117	-0.024
-340.348	-200.000	-0.012	0.143
-339.333	-33.338	0.359	-0.201
-338.318	-189.621	0.421	-0.005
-337.304	-72.422	-0.263	0.099
-336.289	-176.396	0.427	0.011
-335.275	-73.165	-0.265	-0.099
-334.260	-137.516	-0.124	-0.014
-333.245	-100.825	-0.129	0.032
-332.231	113.385	0.176	-0.216
-331.216	-131.534	0.239	0.032
-330.202	-45.872	0.062	0.031
-329.187	-200.000	-0.007	0.191
-328.172	-200.000	-0.045	-0.198
-327.158	800.000	0.058	0.208
-326.143	800.000	0.099	0.436
-325.129	-140.298	-0.230	-0.024
-324.114	-56.880	0.266	0.119
-323.099	760.459	0.100	-0.274
-322.085	-37.195	-0.482	-0.261
-321.070	-200.000	0.008	0.092
-320.056	800.000	-0.062	-0.211
-319.041	-200.000	-0.009	-0.057
-318.026	-38.733	0.112	0.060
-317.012	-96.856	-0.135	0.036
-315.997	-123.338	-0.142	0.023
-314.983	-134.270	0.092	-0.011
-313.968	41.841	0.274	-0.251
-312.953	-1.930	-0.026	0.018
-311.939	-200.000	-0.029	0.283
-310.924	-120.885	0.220	0.038
-309.910	-126.396	0.336	-0.051
-308.895	-54.709	0.105	0.048
-307.880	46.070	0.179	0.167
-306.866	-122.757	0.166	-0.027
-305.851	151.407	0.149	0.205
-304.837	-76.187	0.128	-0.046
-303.822	-200.000	-0.046	0.270
-302.807	154.599	0.124	0.173
-301.793	-55.951	0.438	0.198
-300.778	365.834	0.010	0.021
-299.764	50.102	-0.129	0.123
-298.749	386.508	0.073	-0.153
-297.735	185.854	0.037	-0.056
-296.720	-154.373	-0.175	-0.012
-295.705	2.525	0.149	0.110
-294.691	111.954	-0.099	-0.121
-293.676	800.000	0.062	0.219
-292.662	60.810	0.053	0.053
-291.647	95.041	0.115	-0.132
-290.632	-200.000	-0.040	0.190
-289.618	-200.000	-0.016	0.137
-288.603	-168.415	0.272	-0.011
-287.589	-54.073	-0.476	0.219
-286.574	-91.620	0.375	0.108
-285.559	-77.128	-0.169	0.060
-284.545	-200.000	0.012	0.161
-283.530	-200.000	-0.014	0.312
-282.516	350.990	0.102	0.203
-281.501	800.000	-0.042	0.136
-280.486	-119.124	-0.196	0.035
-279.472	52.832	0.115	0.111
-278.457	-168.451	-0.407	0.016
-277.443	-48.362	0.413	-0.201
-276.428	61.958	0.308	0.311
-275.413	593.230	-0.078	-0.194
-274.399	129.959	-0.067	0.086
-273.384	-127.713	-0.240	-0.035
-272.370	-31.425	0.129	-0.073
-271.355	16.721	-0.114	0.091
-270.340	487.197	0.113	0.262
-269.326	-130.222	0.305	-0.042
-268.311	-200.000	-0.027	0.000
-267.297	461.267	-0.080	-0.180
-266.282	595.655	-0.082	-0.206
-265.267	-200.000	-0.000	0.010
-264.253	-200.000	-0.050	-0.404
-263.238	31.660	0.107	0.093
-262.224	-200.000	0.026	-0.174
-261.209	-53.260	-0.211	0.098
-260.195	-121.506	-0.117	-0.020
-259.180	32.165	-0.133	-0.116
-258.165	772.330	0.067	0.185
-257.151	307.821	-0.143	0.269
-256.136	-60.234	0.177	0.076
-255.122	-200.000	0.020	-0.161
-254.107	800.000	0.041	0.147
-253.092	-200.000	-0.010	-0.257
-252.078	0.412	-0.224	-0.162
-251.063	-200.000	0.044	0.236
-250.049	-200.000	-0.047	0.213
-249.034	-34.443	0.087	-0.048
-248.019	-36.801	-0.381	-0.207
-247.005	-122.250	0.185	0.031
-245.990	800.000	-0.039	-0.162
-244.976	117.209	0.158	-0.196
-243.961	-200.000	-0.036	-0.176
-242.946	328.181	0.062	-0.120
-241.932	55.239	0.113	-0.110
-240.917	-200.000	-0.005	0.106
-239.903	96.322	0.154	0.178
-238.888	-138.425	0.177	-0.020
-237.873	-66.381	-0.061	-0.025
-236.859	80.663	-0.224	0.244
-235.844	152.063	-0.134	-0.185
-234.830	-153.633	0.093	0.006
-233.815	-179.346	0.270	0.006
-232.800	-40.710	0.046	0.024
-231.786	630.885	0.063	-0.162
-230.771	51.816	0.072	-0.069
-229.757	143.912	0.117	0.157
-228.742	-200.000	0.016	0.150
-227.727	58.439	-0.060	0.059
-226.713	-200.000	0.029	0.232
-225.698	-200.000	0.004	0.158
-224.684	-31.465	-0.173	-0.098
-223.669	586.460	0.047	-0.117
-222.655	-30.812	-0.275	-0.157
-221.640	540.124	-0.131	-0.315
-220.625	-72.893	-0.181	-0.067
-219.611	800.000	-0.125	0.421
-218.596	-181.626	0.127	0.002
-217.582	800.000	-0.047	-0.158
-216.567	344.746	-0.076	0.151
-215.552	800.000	-0.063	-0.207
-214.538	-148.900	0.143	0.012
-213.523	-184.196	-0.165	0.003
-212.509	-108.065	0.202	0.044
-211.494	24.407	0.290	-0.242
-210.479	800.000	0.049	0.179
-209.465	-83.317	0.363	-0.117
-208.450	139.578	0.174	0.231
-207.436	219.246	-0.058	0.094
-206.421	-82.479	-0.239	-0.078
-205.406	-185.878	0.182	-0.003
-204.392	-4.929	-0.235	0.163
-203.377	-200.000	0.059	-0.413
-202.363	-200.000	0.049	-0.293
-201.348	297.242	0.081	0.149
-200.333	-22.586	0.334	-0.203
-199.319	-7.817	0.400	-0.272
-198.304	71.636	0.183	0.191
-197.290	-200.000	0.020	0.322
-196.275	595.600	-0.035	-0.087
-195.260	-181.514	0.223	0.004
-194.246	-23.404	-0.151	0.091
-193.231	800.000	0.084	0.236
-192.217	-130.325	-0.105	0.014
-191.202	-83.453	0.170	-0.055
-190.187	800.000	-0.156	0.470
-189.173	426.454	0.130	-0.283
-188.158	184.637	0.053	0.079
-187.144	-200.000	-0.013	-0.270
-186.129	-19.345	-0.085	0.053
-185.114	-200.000	-0.045	-0.217
-184.100	-3.301	-0.438	-0.307
-183.085	-38.621	-0.045	0.024
-182.071	-200.000	-0.002	0.150
-181.056	-121.328	-0.106	-0.018
-180.042	6.489	0.036	-0.027
-179.027	-6.735	0.157	-0.108
-178.012	-68.145	0.038	-0.015
-176.998	-200.000	-0.014	0.138
-175.983	-74.878	0.198	0.071
-174.969	-44.336	-0.248	-0.125
-173.954	69.025	0.177	-0.183
-172.939	-18.776	0.300	0.188
-171.925	293.837	0.115	-0.211
-170.910	45.110	-0.152	-0.141
-169.896	-7.261	-0.094	0.064
-168.881	-43.435	-0.209	0.106
-167.866	-200.000	-0.018	0.171
-166.852	70.339	-0.249	0.260
-165.837	800.000	0.084	-0.240
-164.823	-148.168	-0.088	-0.007
-163.808	-200.000	0.042	-0.220
-162.793	278.335	-0.076	0.137
-161.779	220.614	0.074	-0.120
-160.764	800.000	-0.009	-0.033
-159.750	77.073	0.200	-0.214
-158.735	800.000	0.079	-0.287
-157.720	124.602	0.094	0.119
-156.706	414.942	0.048	-0.103
-155.691	800.000	0.054	-0.166
-154.677	-200.000	-0.001	0.206
-153.662	92.299	0.007	-0.008
-152.647	59.117	0.244	-0.242
-151.633	-153.730	-0.357	0.025
-150.618	-115.913	-0.053	0.010
-149.604	119.816	0.087	0.109
-148.589	-92.711	-0.319	0.090
-147.574	-200.000	-0.024	-0.249
-146.560	-200.000	-0.014	-0.286
-145.545	324.199	-0.023	0.044
-144.531	-104.922	0.412	-0.095
-143.516	354.313	-0.037	0.074
-142.502	-60.672	0.128	-0.054
-141.487	-87.827	-0.083	-0.025
-140.472	-3.088	-0.354	0.249
-139.458	-200.000	-0.006	0.111
-138.443	-200.000	-0.019	0.264
-137.429	-94.969	-0.283	-0.077
-136.414	168.505	-0.168	-0.241
-135.399	-73.273	-0.218	-0.080
-134.385	495.753	-0.158	0.366
-133.370	-65.614	0.315	-0.127
-132.356	209.812	-0.177	-0.280
-131.341	-105.207	-0.208	0.048
-130.326	-37.911	-0.425	-0.227
-129.312	376.453	-0.057	-0.117
-128.297	23.402	-0.149	-0.124
-127.283	-35.371	0.274	0.150
-126.268	-200.000	0.005	-0.221
-125.253	590.656	0.094	-0.233
-124.239	2.399	-0.080	-0.059
-123.224	128.546	-0.199	0.254
-122.210	52.833	-0.338	0.325
