DTS Sentinel unit serial number:	SN413079Multiplexer serial number:	ORYXHardware model number:	OX4-SRSoftware version number:	ORYX F/W v4.00 Oryx Data Collector v3.7.2.0data status	okinstallation	princeton_trtdifferential loss correction	single-endedforward channel	channel 4reverse channel	N/Adate	2019/09/10time	18:35:11forward acquisition time	60.00reverse acquisition time	0.00gamma	496.2192k internal	0.2301k external	0.2301temperature offset calibration	0.9944default loss term (dB/km)	0.3790temperature slope calibration	1.0000multiplexer offset coefficient	1.0000multiplexer slope coefficient	1.0000fibre end	0.00T internal ref (°C)	35.64T ext. ref 1 (°C)	-0.36T ext. ref 2 (°C)	27.58length (m)	temperature (°C)	Stokes	anti-Stokes-747.200	-167.632	-0.367	-0.015
-746.185	129.345	0.249	-0.325
-745.171	147.600	0.140	-0.193
-744.156	800.000	0.059	0.232
-743.142	20.672	0.173	-0.143
-742.127	54.474	0.053	-0.052
-741.112	-7.829	-0.130	0.089
-740.098	-142.151	0.152	-0.015
-739.083	-102.567	-0.167	0.041
-738.069	-200.000	-0.008	0.632
-737.054	-129.728	-0.104	0.015
-736.039	241.894	0.032	-0.054
-735.025	295.410	-0.132	0.246
-734.010	-131.137	-0.393	0.053
-732.996	-200.000	-0.065	-0.313
-731.981	468.509	-0.070	-0.161
-730.966	-92.686	-0.083	-0.024
-729.952	-200.000	0.034	-0.283
-728.937	63.047	-0.063	-0.065
-727.923	173.354	-0.150	-0.220
-726.908	-61.041	-0.313	-0.135
-725.894	-200.000	-0.011	-0.124
-724.879	-82.238	0.331	0.110
-723.864	-120.062	-0.027	-0.005
-722.850	-119.479	0.181	0.032
-721.835	-200.000	0.003	0.267
-720.821	-145.731	-0.334	0.030
-719.806	800.000	-0.050	-0.155
-718.791	5.354	-0.102	-0.076
-717.777	800.000	0.080	-0.246
-716.762	-156.940	-0.155	-0.010
-715.748	-133.146	0.166	0.021
-714.733	27.616	-0.091	-0.078
-713.718	107.946	0.054	-0.066
-712.704	-113.324	-0.121	-0.024
-711.689	199.788	-0.127	0.198
-710.675	10.912	0.271	0.210
-709.660	227.774	0.074	-0.122
-708.645	111.887	-0.099	0.122
-707.631	-58.978	-0.217	0.095
-706.616	71.500	-0.247	0.261
-705.602	41.958	-0.246	0.227
-704.587	800.000	0.084	-0.252
-703.572	-13.117	-0.194	0.128
-702.558	800.000	0.043	0.189
-701.543	-200.000	-0.001	0.439
-700.529	-77.390	-0.351	0.124
-699.514	260.178	0.119	-0.209
-698.499	-200.000	-0.018	0.130
-697.485	195.654	-0.228	-0.353
-696.470	-44.019	-0.175	0.089
-695.456	-131.823	0.191	-0.025
-694.441	-77.602	-0.089	-0.031
-693.426	-200.000	-0.009	-0.349
-692.412	-136.949	-0.341	-0.040
-691.397	-200.000	-0.035	-0.371
-690.383	-200.000	-0.019	-0.131
-689.368	-41.564	0.166	-0.087
-688.354	77.907	-0.244	-0.264
-687.339	-73.089	0.100	-0.037
-686.324	15.678	-0.121	0.097
-685.310	-85.074	-0.151	0.048
-684.295	-24.474	-0.041	0.025
-683.281	-200.000	-0.055	-0.251
-682.266	-132.505	0.146	0.019
-681.251	-79.094	-0.329	0.114
-680.237	-22.568	-0.219	-0.134
-679.222	7.986	0.163	0.124
-678.208	800.000	-0.056	-0.191
-677.193	-200.000	-0.016	0.082
-676.178	-112.688	-0.502	0.102
-675.164	800.000	-0.074	-0.301
-674.149	-53.649	0.244	-0.113
-673.135	618.094	0.099	0.252
-672.120	-200.000	0.009	0.152
-671.105	-130.595	-0.291	0.040
-670.091	446.455	-0.054	-0.120
-669.076	74.866	-0.093	-0.099
-668.062	-200.000	0.008	-0.064
-667.047	233.116	-0.317	-0.529
-666.032	-73.962	0.152	-0.056
-665.018	256.136	0.110	-0.192
-664.003	606.642	0.045	-0.114
-662.989	143.302	-0.313	-0.424
-661.974	6.205	-0.360	-0.271
-660.959	-200.000	0.003	-0.291
-659.945	800.000	-0.068	-0.219
-658.930	45.799	-0.090	0.084
-657.916	131.089	-0.232	0.303
-656.901	313.678	-0.162	-0.309
-655.886	30.620	0.186	-0.161
-654.872	-59.684	-0.151	0.066
-653.857	800.000	0.086	0.363
-652.843	89.078	-0.187	0.212
-651.828	379.014	0.153	0.318
-650.814	116.709	0.125	0.156
-649.799	-120.138	-0.110	-0.019
-648.784	255.874	-0.175	-0.305
-647.770	-68.127	-0.219	-0.087
-646.755	-13.539	-0.118	-0.077
-645.741	-89.222	-0.166	0.050
-644.726	-200.000	-0.033	-0.288
-643.711	800.000	-0.025	-0.074
-642.697	-32.132	0.205	-0.117
-641.682	-0.104	-0.160	-0.116
-640.668	74.123	0.131	0.140
-639.653	365.067	0.151	0.308
-638.638	-143.026	0.259	0.025
-637.624	95.749	-0.148	0.171
-636.609	424.221	0.226	-0.494
-635.595	-200.000	0.033	-0.249
-634.580	95.570	-0.090	-0.104
-633.565	48.129	-0.144	-0.137
-632.551	-117.185	-0.185	0.034
-631.536	800.000	-0.103	-0.394
-630.522	-162.271	-0.314	0.016
-629.507	9.166	-0.122	0.094
-628.492	360.670	0.092	0.187
-627.478	-200.000	-0.056	-0.289
-626.463	90.357	-0.201	0.228
-625.449	-88.408	0.229	0.069
-624.434	89.622	-0.131	-0.148
-623.419	-200.000	0.007	0.105
-622.405	298.925	-0.050	-0.094
-621.390	-153.137	-0.182	-0.013
-620.376	30.594	0.024	0.021
-619.361	26.281	-0.107	-0.091
-618.346	314.227	0.113	0.216
-617.332	-30.981	0.234	-0.134
-616.317	800.000	-0.018	0.063
-615.303	-105.850	-0.556	-0.127
-614.288	130.145	-0.053	-0.069
-613.273	55.056	0.079	0.077
-612.259	-200.000	0.005	0.279
-611.244	-108.056	-0.104	-0.023
-610.230	-80.379	-0.373	-0.126
-609.215	-200.000	-0.056	-0.267
-608.201	-64.067	-0.224	0.093
-607.186	-9.636	0.217	0.146
-606.171	-135.320	-0.275	0.033
-605.157	800.000	-0.073	0.213
-604.142	162.767	0.152	0.217
-603.128	-73.998	-0.310	0.114
-602.113	-124.475	-0.386	0.061
-601.098	-40.338	-0.188	0.099
-600.084	279.995	0.076	0.138
-599.069	-98.519	0.413	0.107
-598.055	12.413	-0.072	0.057
-597.040	-62.087	-0.371	0.157
-596.025	594.200	-0.058	-0.146
-595.011	208.016	0.185	-0.293
-593.996	164.677	-0.146	0.208
-592.982	12.692	-0.066	0.051
-591.967	221.562	-0.120	0.196
-590.952	800.000	0.074	0.315
-589.938	-200.000	-0.036	-0.215
-588.923	-200.000	0.019	-0.206
-587.909	-2.459	0.190	-0.135
-586.894	-200.000	-0.021	-0.100
-585.879	-42.480	-0.597	-0.308
-584.865	67.668	0.131	-0.136
-583.850	-61.091	0.149	-0.064
-582.836	-85.896	0.229	-0.072
-581.821	131.427	-0.011	0.014
-580.806	-30.714	-0.343	0.197
-579.792	-97.668	-0.083	0.022
-578.777	186.972	0.136	0.205
-577.763	193.087	0.077	0.119
-576.748	-200.000	0.043	-0.261
-575.733	800.000	0.024	-0.071
-574.719	641.967	-0.158	-0.407
-573.704	-141.347	0.171	-0.018
-572.690	500.762	0.082	0.192
-571.675	-200.000	-0.001	0.113
-570.661	-200.000	0.019	0.273
-569.646	2.672	-0.329	-0.242
-568.631	-200.000	-0.047	-0.307
-567.617	-68.372	-0.170	-0.067
-566.602	-90.145	0.287	0.085
-565.588	-21.874	-0.207	-0.127
-564.573	-161.146	0.063	-0.003
-563.558	231.738	0.085	0.142
-562.544	267.379	-0.153	-0.271
-561.529	191.753	0.206	-0.315
-560.515	-166.240	0.432	0.018
-559.500	-200.000	0.032	-0.185
-558.485	-62.765	-0.245	-0.103
-557.471	162.325	0.186	0.264
-556.456	-1.691	-0.096	0.068
-555.442	-159.082	0.195	0.011
-554.427	-200.000	-0.093	0.430
-553.412	-93.245	-0.341	0.096
-552.398	-77.744	0.191	-0.067
-551.383	10.810	0.113	0.087
-550.369	378.403	-0.125	-0.259
-549.354	-88.255	-0.334	0.101
-548.339	-200.000	0.032	0.277
-547.325	-40.603	-0.161	0.084
-546.310	-200.000	-0.024	0.174
-545.296	363.701	-0.008	-0.017
-544.281	800.000	-0.136	0.384
-543.266	197.687	-0.115	-0.178
-542.252	-6.083	0.361	0.249
-541.237	646.569	-0.165	0.426
-540.223	764.860	-0.030	0.081
-539.208	-59.684	-0.436	0.189
-538.193	800.000	-0.037	0.136
-537.179	29.485	0.091	0.078
-536.164	-142.383	0.070	-0.007
-535.150	64.441	-0.141	-0.143
-534.135	7.289	0.188	-0.142
-533.121	366.716	-0.172	0.352
-532.106	-135.072	-0.224	0.027
-531.091	-71.777	0.147	-0.055
-530.077	324.921	0.065	0.126
-529.062	213.052	0.038	-0.061
-528.048	-200.000	0.007	0.107
-527.033	-122.390	0.124	0.021
-526.018	-91.198	0.381	0.110
-525.004	122.326	-0.241	-0.304
-523.989	800.000	-0.057	-0.196
-522.975	192.001	0.150	-0.229
-521.960	-104.972	-0.257	-0.060
-520.945	360.193	-0.146	0.295
-519.931	-117.400	-0.295	-0.054
-518.916	33.710	-0.420	-0.369
-517.902	-139.970	-0.120	-0.013
-516.887	-12.568	0.480	-0.316
-515.872	-145.619	0.427	0.039
-514.858	168.539	-0.129	-0.186
-513.843	-83.851	-0.262	0.084
-512.829	-200.000	0.010	-0.317
-511.814	-200.000	-0.004	-0.161
-510.799	-142.802	0.362	-0.036
-509.785	217.596	-0.078	0.125
-508.770	230.627	0.089	-0.148
-507.756	-76.562	0.371	0.132
-506.741	107.191	0.147	-0.176
-505.726	-69.524	0.273	0.106
-504.712	-153.421	-0.144	0.010
-503.697	-200.000	-0.019	-0.156
-502.683	-171.412	0.289	-0.010
-501.668	800.000	-0.072	-0.202
-500.653	800.000	-0.048	0.195
-499.639	-37.260	-0.423	-0.228
-498.624	-15.691	0.148	0.095
-497.610	-56.170	-0.381	0.171
-496.595	39.635	0.284	-0.257
-495.581	225.578	-0.025	0.040
-494.566	-80.736	-0.343	-0.115
-493.551	371.903	0.102	0.209
-492.537	-200.000	0.033	-0.232
-491.522	133.938	0.121	0.159
-490.508	-200.000	0.010	-0.121
-489.493	766.203	-0.059	0.161
-488.478	800.000	0.091	0.296
-487.464	445.361	0.038	-0.085
-486.449	-147.031	0.153	0.013
-485.435	-174.982	0.382	0.011
-484.420	-39.161	0.223	0.118
-483.405	172.999	-0.065	-0.094
-482.391	41.196	0.168	0.153
-481.376	-79.342	-0.067	0.023
-480.362	-37.280	-0.141	0.076
-479.347	-176.586	0.353	0.009
-478.332	-24.565	-0.077	0.046
-477.318	118.182	0.024	0.030
-476.303	-200.000	0.010	-0.243
-475.289	386.066	-0.150	-0.312
-474.274	508.547	0.051	-0.120
-473.259	800.000	-0.039	0.146
-472.245	800.000	-0.063	0.252
-471.230	531.458	-0.096	0.230
-470.216	84.637	-0.109	-0.121
-469.201	-134.335	0.099	0.012
-468.186	-78.484	-0.026	-0.009
-467.172	131.417	0.076	-0.098
-466.157	-39.992	-0.244	-0.128
-465.143	-71.337	-0.260	0.098
-464.128	-87.362	-0.210	-0.064
-463.113	-67.060	0.190	-0.075
-462.099	264.092	0.102	0.179
-461.084	111.410	-0.129	0.157
-460.070	-200.000	0.041	-0.182
-459.055	-83.110	0.153	0.049
-458.040	800.000	0.045	-0.195
-457.026	377.706	-0.059	0.122
-456.011	-200.000	-0.050	0.313
-454.997	-72.951	0.228	-0.084
-453.982	5.229	0.095	0.071
-452.968	-104.092	-0.135	0.032
-451.953	82.655	0.219	0.240
-450.938	358.326	0.060	0.120
-449.924	-158.152	0.035	-0.002
-448.909	-94.851	0.484	-0.132
-447.895	-200.000	0.014	-0.201
-446.880	800.000	-0.063	-0.248
-445.865	-12.820	0.088	0.058
-444.851	-200.000	0.009	-0.077
-443.836	-129.464	0.369	-0.052
-442.822	-200.000	-0.057	-0.382
-441.807	-99.434	0.190	0.048
-440.792	-119.709	0.071	-0.012
-439.778	-200.000	-0.022	-0.181
-438.763	163.675	-0.127	-0.180
-437.749	18.185	0.242	0.195
-436.734	-25.945	0.167	0.099
-435.719	-92.811	-0.192	-0.054
-434.705	-18.346	-0.101	-0.064
-433.690	62.168	-0.042	0.042
-432.676	44.103	0.180	-0.166
-431.661	67.330	-0.094	0.096
-430.646	800.000	-0.101	0.401
-429.632	514.355	-0.008	-0.020
-428.617	800.000	-0.086	0.297
-427.603	-10.083	-0.318	0.212
-426.588	743.334	-0.034	0.093
-425.573	-119.522	-0.389	0.068
-424.559	36.630	-0.293	-0.260
-423.544	-200.000	0.006	-0.321
-422.530	372.349	0.145	-0.295
-421.515	525.090	-0.083	-0.197
-420.500	-200.000	0.007	-0.220
-419.486	193.986	-0.114	-0.174
-418.471	34.027	-0.104	-0.091
-417.457	-30.176	-0.090	0.052
-416.442	107.383	0.166	0.199
-415.428	-76.945	0.067	0.023
-414.413	-1.633	0.272	0.193
-413.398	800.000	-0.037	0.161
-412.384	800.000	0.015	-0.064
-411.369	101.128	0.148	0.174
-410.355	-31.925	0.139	-0.079
-409.340	-147.445	-0.147	0.012
-408.325	-56.455	-0.114	0.051
-407.311	52.685	-0.162	-0.156
-406.296	800.000	0.039	-0.171
-405.282	-200.000	-0.017	-0.140
-404.267	143.406	-0.126	0.169
-403.252	-177.020	0.304	-0.008
-402.238	800.000	0.095	0.274
-401.223	800.000	0.031	-0.087
-400.209	-85.583	0.229	-0.072
-399.194	-45.510	-0.229	-0.114
-398.179	-200.000	0.029	-0.179
-397.165	112.776	-0.110	-0.134
-396.150	-117.568	-0.245	-0.045
-395.136	527.728	0.116	0.276
-394.121	115.604	-0.029	-0.036
-393.106	331.484	-0.058	0.112
-392.092	169.945	-0.053	-0.076
-391.077	61.751	0.022	0.022
-390.063	800.000	0.059	-0.244
-389.048	-144.812	-0.309	0.029
-388.033	672.093	-0.071	0.186
-387.019	-69.823	-0.162	0.062
-386.004	41.242	0.198	0.180
-384.990	-36.029	0.121	-0.066
-383.975	691.748	-0.095	-0.249
-382.960	-200.000	0.008	-0.127
-381.946	86.073	-0.064	0.071
-380.931	16.733	0.123	-0.098
-379.917	181.999	-0.089	0.132
-378.902	71.273	-0.142	-0.148
-377.888	285.719	-0.046	-0.083
-376.873	309.734	0.037	0.069
-375.858	-43.922	0.199	-0.101
-374.844	-90.023	0.178	0.052
-373.829	-89.365	-0.096	0.028
-372.815	-133.707	-0.203	-0.025
-371.800	-112.534	0.135	0.027
-370.785	-60.076	0.204	-0.087
-369.771	-80.986	0.293	-0.097
-368.756	-200.000	-0.003	0.163
-367.742	800.000	0.137	-0.381
-366.727	-87.411	-0.212	-0.065
-365.712	-200.000	-0.063	0.303
-364.698	15.326	-0.167	-0.132
-363.683	-200.000	-0.000	0.060
-362.669	-200.000	0.032	-0.164
-361.654	330.721	0.207	-0.401
-360.639	34.573	-0.299	0.263
-359.625	-200.000	-0.012	0.063
-358.610	269.291	-0.096	-0.169
-357.596	67.022	0.272	0.278
-356.581	800.000	0.152	0.491
-355.566	132.468	-0.095	-0.123
-354.552	-71.845	-0.193	-0.072
-353.537	-200.000	0.013	-0.301
-352.523	800.000	-0.128	0.443
-351.508	124.945	0.086	0.109
-350.493	130.917	0.131	0.169
-349.479	-81.106	0.235	0.078
-348.464	60.358	-0.137	-0.136
-347.450	-75.992	-0.090	-0.032
-346.435	19.889	-0.139	-0.112
-345.420	-133.023	0.545	-0.069
-344.406	-111.375	0.153	0.031
-343.391	104.210	0.120	0.142
-342.377	-3.255	-0.225	-0.157
-341.362	-41.115	0.148	0.076
-340.348	-200.000	0.013	-0.353
-339.333	800.000	0.064	0.191
-338.318	377.916	0.109	0.225
-337.304	-200.000	0.023	-0.142
-336.289	161.823	-0.131	-0.184
-335.275	-200.000	-0.036	0.188
-334.260	301.362	-0.050	0.093
-333.245	-200.000	-0.013	0.196
-332.231	47.722	0.260	0.243
-331.216	136.331	-0.244	-0.319
-330.202	120.853	0.147	0.183
-329.187	-49.641	-0.334	0.159
-328.172	-112.852	0.548	-0.109
-327.158	86.135	0.087	-0.096
-326.143	185.435	0.362	-0.540
-325.129	-80.218	-0.219	0.074
-324.114	-41.526	-0.031	-0.016
-323.099	-52.101	-0.266	-0.124
-322.085	-139.157	-0.213	0.023
-321.070	103.860	-0.080	-0.095
-320.056	-132.827	0.113	0.014
-319.041	-200.000	-0.010	-0.146
-318.026	-120.798	0.144	0.024
-317.012	29.795	-0.228	-0.194
-315.997	722.291	0.114	-0.305
-314.983	455.998	-0.147	-0.327
-313.968	-32.878	0.105	-0.058
-312.953	-23.609	-0.300	-0.180
-311.939	-200.000	-0.057	0.280
-310.924	-49.273	-0.081	0.039
-309.910	-70.216	0.137	0.052
-308.895	26.952	-0.250	-0.210
-307.880	107.918	-0.067	0.081
-306.866	174.966	0.164	0.238
-305.851	-200.000	-0.012	-0.136
-304.837	-130.469	0.159	-0.022
-303.822	198.452	-0.096	-0.147
-302.807	404.184	0.094	0.199
-301.793	800.000	0.135	0.433
-300.778	-200.000	-0.005	0.026
-299.764	-89.427	0.135	0.040
-298.749	647.051	0.089	0.227
-297.735	277.556	0.033	0.060
-296.720	800.000	-0.122	-0.514
-295.705	-151.851	0.228	-0.017
-294.691	-51.400	-0.101	-0.047
-293.676	800.000	0.072	-0.250
-292.662	157.716	-0.237	0.328
-291.647	-129.894	0.164	0.023
-290.632	157.081	-0.078	-0.108
-289.618	36.095	-0.275	0.242
-288.603	-106.664	-0.198	0.044
-287.589	-200.000	-0.011	0.142
-286.574	-41.622	0.150	-0.077
-285.559	-129.933	0.257	0.035
-284.545	-54.180	0.432	0.196
-283.530	-133.802	0.103	-0.013
-282.516	-25.466	0.135	-0.080
-281.501	-135.280	0.188	-0.023
-280.486	-200.000	-0.009	-0.052
-279.472	-13.094	0.260	-0.169
-278.457	49.039	-0.026	-0.024
-277.443	461.112	0.101	0.225
-276.428	-20.507	0.451	-0.278
-275.413	-139.484	0.005	-0.001
-274.399	-87.986	-0.235	0.071
-273.384	226.697	0.065	0.105
-272.370	94.397	0.210	0.238
-271.355	14.581	-0.027	-0.021
-270.340	439.143	-0.071	-0.156
-269.326	-28.619	-0.144	0.083
-268.311	-104.304	-0.163	0.038
-267.297	51.829	0.153	-0.146
-266.282	535.782	0.293	-0.697
-265.267	166.885	-0.256	0.364
-264.253	800.000	0.067	-0.194
-263.238	800.000	-0.033	0.144
-262.224	22.323	-0.111	0.091
-261.209	-200.000	-0.006	-0.135
-260.195	149.445	-0.084	-0.114
-259.180	800.000	-0.050	0.140
-258.165	-200.000	-0.005	0.233
-257.151	-68.600	-0.100	0.039
-256.136	123.840	0.033	-0.041
-255.122	-103.230	0.211	-0.050
-254.107	-179.357	0.199	0.004
-253.092	414.172	-0.087	0.185
-252.078	74.113	-0.298	-0.312
-251.063	-115.775	0.116	-0.022
-250.049	104.927	0.088	0.104
-249.034	-200.000	-0.017	0.091
-248.019	-44.080	0.298	-0.150
-247.005	482.443	0.062	0.142
-245.990	-200.000	-0.060	-0.306
-244.976	101.842	0.071	-0.083
-243.961	559.234	0.069	0.165
-242.946	99.901	-0.278	-0.322
-241.932	248.102	-0.148	0.250
-240.917	-174.741	-0.051	-0.001
-239.903	-93.121	0.153	0.043
-238.888	-109.026	0.112	0.024
-237.873	-8.716	-0.224	0.150
-236.859	264.350	-0.083	-0.145
-235.844	800.000	-0.090	0.263
-234.830	170.066	0.079	-0.113
-233.815	-132.249	-0.197	0.025
-232.800	-119.536	-0.388	-0.067
-231.786	-50.923	0.128	0.060
-230.771	251.626	-0.039	0.067
-229.757	-200.000	-0.054	-0.248
-228.742	-200.000	0.000	-0.037
-227.727	-61.925	-0.131	-0.055
-226.713	699.866	-0.112	-0.294
-225.698	800.000	-0.016	-0.061
-224.684	56.190	0.282	0.273
-223.669	132.467	0.221	0.284
-222.655	800.000	0.092	0.393
-221.640	800.000	0.088	0.297
-220.625	116.302	-0.105	-0.128
-219.611	-200.000	-0.066	0.428
-218.596	-32.292	-0.146	-0.082
-217.582	-153.444	0.240	-0.017
-216.567	-66.967	0.397	-0.156
-215.552	-1.746	-0.102	-0.071
-214.538	-98.934	0.210	0.053
-213.523	-200.000	0.005	0.227
-212.509	545.899	-0.070	0.168
-211.494	-119.814	-0.312	0.054
-210.479	25.217	0.201	0.167
-209.465	-103.148	-0.148	0.035
-208.450	-72.030	0.288	-0.107
-207.436	91.703	-0.117	-0.131
-206.421	-200.000	0.010	0.114
-205.406	-200.000	0.013	0.149
-204.392	-59.819	0.153	-0.066
-203.377	-78.489	-0.089	0.030
-202.363	-118.896	0.119	-0.021
-201.348	324.438	-0.156	0.297
-200.333	-200.000	-0.032	-0.149
-199.319	-200.000	0.050	0.302
-198.304	-106.786	0.230	-0.051
-197.290	-155.363	0.173	-0.011
-196.275	-181.343	0.179	-0.004
-195.260	466.491	0.078	-0.174
-194.246	-24.304	-0.083	0.049
-193.231	172.442	-0.072	0.104
-192.217	142.609	0.100	0.133
-191.202	-175.908	0.114	-0.003
-190.187	800.000	-0.090	0.292
-189.173	-200.000	-0.014	0.220
-188.158	-132.835	0.156	-0.020
-187.144	-10.833	-0.041	-0.027
-186.129	422.249	0.117	0.250
-185.114	800.000	-0.024	0.083
-184.100	-43.158	-0.222	0.112
-183.085	71.031	0.094	0.098
-182.071	-54.293	-0.156	0.070
-181.056	-200.000	0.053	-0.390
-180.042	-132.920	0.313	0.040
-179.027	800.000	-0.058	0.170
-178.012	-54.490	0.194	0.088
-176.998	267.138	0.093	0.161
-175.983	107.212	-0.166	0.197
-174.969	-113.824	-0.058	-0.011
-173.954	-160.577	0.076	0.004
-172.939	-137.372	0.078	-0.009
-171.925	800.000	-0.025	-0.078
-170.910	-200.000	0.010	-0.105
-169.896	-69.605	0.034	0.013
-168.881	-200.000	-0.004	0.092
-167.866	-31.784	-0.032	0.018
-166.852	-200.000	-0.020	0.277
-165.837	-71.364	-0.078	-0.029
-164.823	-6.980	-0.071	-0.048
-163.808	-17.912	0.220	-0.137
-162.793	-92.541	0.220	0.062
-161.779	84.740	0.132	0.144
-160.764	9.447	0.154	-0.116
-159.750	14.190	0.097	0.075
-158.735	95.285	-0.102	-0.115
-157.720	47.418	-0.068	0.063
-156.706	-200.000	-0.031	-0.173
-155.691	-19.549	-0.319	-0.197
-154.677	-68.422	0.232	0.090
-153.662	30.430	-0.128	-0.109
-152.647	-111.401	-0.595	-0.121
-151.633	-164.858	0.293	0.013
-150.618	-200.000	-0.003	-0.094
-149.604	348.746	0.110	0.216
-148.589	324.801	-0.040	-0.076
-147.574	-169.185	-0.170	0.006
-146.560	106.597	0.142	0.168
-145.545	-200.000	0.035	-0.195
-144.531	-200.000	0.066	-0.501
-143.516	-38.520	0.204	-0.107
-142.502	800.000	0.054	-0.208
-141.487	-200.000	-0.004	-0.048
-140.472	37.415	-0.320	0.282
-139.458	-200.000	0.002	-0.035
-138.443	-200.000	0.003	-0.078
-137.429	88.199	-0.020	-0.022
-136.414	-200.000	-0.009	0.291
-135.399	-54.148	0.327	0.148
-134.385	442.515	-0.083	0.182
-133.370	-200.000	-0.011	0.085
-132.356	100.955	-0.027	0.032
-131.341	188.894	0.131	0.194
-130.326	130.127	0.153	0.195
-129.312	-136.749	-0.077	-0.009
-128.297	-79.210	-0.132	0.044
-127.283	-175.085	-0.151	0.004
-126.268	-200.000	0.012	-0.110
-125.253	-85.759	-0.127	0.039
-124.239	-100.577	-0.315	0.077
-123.224	-34.754	0.109	-0.059
