DTS Sentinel unit serial number:	SN413079Multiplexer serial number:	ORYXHardware model number:	OX4-SRSoftware version number:	ORYX F/W v4.00 Oryx Data Collector v3.7.2.0data status	okinstallation	princeton_trtdifferential loss correction	single-endedforward channel	channel 4reverse channel	N/Adate	2019/09/10time	16:51:11forward acquisition time	60.00reverse acquisition time	0.00gamma	496.2192k internal	0.2297k external	0.2297temperature offset calibration	0.9936default loss term (dB/km)	0.3790temperature slope calibration	1.0000multiplexer offset coefficient	1.0000multiplexer slope coefficient	1.0000fibre end	0.00T internal ref (°C)	37.62T ext. ref 1 (°C)	-0.33T ext. ref 2 (°C)	32.36length (m)	temperature (°C)	Stokes	anti-Stokes-747.200	488.569	-0.090	0.210
-746.185	-64.703	-0.136	-0.056
-745.171	10.151	-0.147	0.114
-744.156	-89.745	0.434	-0.130
-743.142	147.051	0.141	0.194
-742.127	12.476	-0.180	0.142
-741.112	-79.925	-0.174	-0.060
-740.098	646.113	-0.135	0.353
-739.083	-16.636	-0.095	0.061
-738.069	-200.000	-0.015	0.253
-737.054	23.485	0.222	0.186
-736.039	353.148	-0.081	0.163
-735.025	800.000	-0.053	0.202
-734.010	17.785	-0.117	-0.095
-732.996	-16.071	0.234	-0.152
-731.981	-122.685	-0.270	0.045
-730.966	398.476	0.099	-0.211
-729.952	-102.150	0.146	-0.036
-728.937	-200.000	-0.008	-0.089
-727.923	-77.974	-0.159	0.056
-726.908	-47.949	-0.085	-0.042
-725.894	800.000	0.024	0.074
-724.879	-167.062	-0.151	0.006
-723.864	-190.754	0.154	0.002
-722.850	105.230	0.146	0.176
-721.835	-200.000	-0.027	0.141
-720.821	-200.000	-0.007	0.052
-719.806	84.555	-0.180	-0.201
-718.791	31.772	-0.154	-0.136
-717.777	262.878	-0.118	-0.210
-716.762	-200.000	-0.019	-0.254
-715.748	800.000	0.055	0.194
-714.733	75.357	0.232	0.250
-713.718	105.857	-0.079	0.095
-712.704	63.059	0.276	0.282
-711.689	790.716	0.066	-0.185
-710.675	-132.827	0.538	-0.070
-709.660	-200.000	-0.004	-0.126
-708.645	4.905	-0.090	0.068
-707.631	-118.853	0.149	-0.027
-706.616	-200.000	0.014	-0.163
-705.602	-118.607	0.275	-0.049
-704.587	-80.984	-0.173	0.058
-703.572	116.128	-0.208	0.260
-702.558	800.000	-0.069	0.248
-701.543	-10.932	0.161	0.108
-700.529	86.042	0.063	-0.071
-699.514	250.066	0.083	0.144
-698.499	21.107	-0.119	-0.099
-697.485	20.916	-0.401	-0.331
-696.470	151.913	0.095	0.132
-695.456	55.913	0.283	-0.280
-694.441	33.871	0.314	0.278
-693.426	112.851	-0.238	-0.294
-692.412	-102.646	0.199	-0.048
-691.397	-20.669	0.212	-0.133
-690.383	-87.405	-0.234	0.072
-689.368	-39.681	-0.169	0.090
-688.354	-152.119	0.446	-0.033
-687.339	-64.743	0.257	-0.106
-686.324	260.556	-0.062	0.109
-685.310	-200.000	0.013	0.168
-684.295	172.560	-0.146	-0.214
-683.281	237.882	-0.111	0.187
-682.266	-133.367	-0.277	-0.036
-681.251	305.301	-0.091	-0.172
-680.237	-200.000	-0.013	-0.220
-679.222	-37.252	0.034	-0.018
-678.208	29.426	-0.072	0.062
-677.193	-160.696	-0.332	0.018
-676.178	-100.940	0.135	-0.034
-675.164	8.728	-0.251	-0.193
-674.149	-46.685	0.074	0.037
-673.135	-200.000	-0.018	-0.104
-672.120	-100.477	0.084	-0.021
-671.105	-80.818	0.417	0.141
-670.091	-48.137	-0.252	0.124
-669.076	-200.000	0.019	0.169
-668.062	-163.056	-0.037	0.002
-667.047	-101.703	0.098	-0.024
-666.032	-157.852	0.210	-0.013
-665.018	-10.839	-0.345	0.232
-664.003	332.488	0.027	0.053
-662.989	105.342	0.183	-0.220
-661.974	76.211	0.195	-0.211
-660.959	31.130	0.387	0.338
-659.945	135.501	-0.016	0.022
-658.930	-51.993	0.167	-0.079
-657.916	-200.000	-0.027	0.256
-656.901	14.256	0.170	-0.135
-655.886	800.000	-0.059	0.259
-654.872	-72.216	0.159	-0.060
-653.857	800.000	-0.095	-0.310
-652.843	-200.000	0.022	-0.248
-651.828	-104.208	0.137	-0.032
-650.814	-19.229	0.149	0.094
-649.799	112.495	0.069	0.085
-648.784	53.322	-0.140	-0.137
-647.770	-81.691	-0.306	-0.102
-646.755	800.000	-0.042	0.147
-645.741	-11.140	-0.295	0.198
-644.726	-200.000	0.001	-0.053
-643.711	150.312	0.101	-0.140
-642.697	730.574	-0.148	0.402
-641.682	154.820	-0.236	0.330
-640.668	-136.365	0.120	-0.014
-639.653	145.356	-0.247	-0.336
-638.638	325.153	0.090	0.176
-637.624	73.710	-0.266	-0.283
-636.609	54.860	0.149	-0.146
-635.595	-22.156	-0.105	0.065
-634.580	220.987	0.028	-0.046
-633.565	196.776	0.301	-0.466
-632.551	-170.894	0.287	0.010
-631.536	458.832	0.029	0.066
-630.522	800.000	0.037	0.117
-629.507	800.000	0.087	0.268
-628.492	-6.743	0.149	0.103
-627.478	-59.649	0.228	0.100
-626.463	-200.000	0.048	-0.245
-625.449	613.832	-0.140	0.357
-624.434	800.000	0.075	0.310
-623.419	800.000	0.055	0.186
-622.405	-133.109	0.377	0.049
-621.390	-200.000	0.021	0.172
-620.376	-66.219	0.112	0.046
-619.361	-200.000	-0.020	0.361
-618.346	800.000	-0.096	0.365
-617.332	116.616	-0.173	-0.216
-616.317	-91.866	-0.223	-0.064
-615.303	-153.166	0.193	-0.014
-614.288	-200.000	0.026	0.213
-613.273	597.597	-0.136	-0.341
-612.259	-5.164	0.107	-0.075
-611.244	-89.194	-0.218	0.065
-610.230	-99.014	-0.334	0.086
-609.215	263.268	0.018	-0.031
-608.201	-200.000	0.015	-0.344
-607.186	506.999	-0.060	0.141
-606.171	-200.000	0.019	0.212
-605.157	362.815	-0.073	0.150
-604.142	-200.000	0.017	-0.243
-603.128	-57.115	-0.266	-0.119
-602.113	-5.729	-0.123	-0.086
-601.098	14.214	-0.158	-0.125
-600.084	-53.721	0.146	-0.068
-599.069	-120.796	-0.358	0.061
-598.055	-135.811	-0.206	-0.025
-597.040	-200.000	-0.014	0.085
-596.025	-200.000	-0.090	0.000
-595.011	800.000	0.057	-0.243
-593.996	-181.585	0.183	0.004
-592.982	-3.941	0.116	-0.082
-591.967	-200.000	0.004	-0.156
-590.952	-76.203	0.132	0.047
-589.938	465.570	-0.099	0.225
-588.923	-55.668	0.040	-0.018
-587.909	144.522	0.079	0.107
-586.894	-43.760	0.209	0.107
-585.879	-200.000	0.028	-0.246
-584.865	135.539	-0.227	-0.299
-583.850	-107.813	-0.340	-0.075
-582.836	-200.000	-0.021	0.282
-581.821	72.469	0.157	-0.166
-580.806	-200.000	0.041	-0.282
-579.792	800.000	0.058	0.189
-578.777	-88.256	-0.141	-0.043
-577.763	-200.000	0.042	0.238
-576.748	-38.166	0.140	0.075
-575.733	-24.464	-0.099	0.060
-574.719	-146.556	0.277	-0.024
-573.704	196.964	0.170	-0.264
-572.690	148.670	-0.094	0.129
-571.675	-110.659	0.121	-0.025
-570.661	75.265	0.307	-0.328
-569.646	304.564	0.084	-0.158
-568.631	-59.205	-0.071	0.031
-567.617	-52.924	0.264	0.123
-566.602	0.705	-0.252	-0.183
-565.588	-130.870	-0.107	-0.014
-564.573	-180.363	-0.278	-0.006
-563.558	-30.127	-0.207	0.119
-562.544	91.574	0.162	-0.184
-561.529	-58.548	-0.159	-0.070
-560.515	-200.000	-0.003	0.019
-559.500	-200.000	0.006	0.274
-558.485	709.634	0.071	-0.191
-557.471	304.314	-0.237	-0.446
-556.456	-71.462	0.165	-0.063
-555.442	-200.000	-0.014	-0.217
-554.427	-70.465	0.165	0.063
-553.412	39.007	-0.156	0.142
-552.398	272.613	-0.117	-0.209
-551.383	-200.000	0.030	0.242
-550.369	-38.601	-0.043	0.023
-549.354	-98.320	0.321	0.083
-548.339	800.000	0.060	0.216
-547.325	-200.000	0.029	0.151
-546.310	-123.823	-0.212	-0.034
-545.296	29.801	-0.147	0.127
-544.281	94.276	-0.191	0.220
-543.266	22.352	-0.355	0.294
-542.252	-65.791	-0.232	0.094
-541.237	-63.777	0.111	0.046
-540.223	25.292	-0.144	-0.121
-539.208	50.067	0.110	-0.105
-538.193	-108.319	-0.186	0.041
-537.179	153.035	-0.100	0.139
-536.164	-100.328	0.178	0.045
-535.150	800.000	-0.076	-0.274
-534.135	-200.000	0.009	0.141
-533.121	246.167	0.164	0.281
-532.106	-84.932	0.201	-0.064
-531.091	522.338	-0.155	-0.369
-530.077	-200.000	-0.006	-0.085
-529.062	129.230	0.145	-0.187
-528.048	-200.000	-0.004	0.194
-527.033	-200.000	-0.021	0.348
-526.018	84.467	0.124	0.138
-525.004	-94.448	-0.003	-0.001
-523.989	800.000	0.057	-0.183
-522.975	800.000	-0.079	-0.265
-521.960	202.510	0.061	0.096
-520.945	-200.000	-0.005	-0.202
-519.931	-34.144	0.270	-0.150
-518.916	-60.575	-0.048	-0.021
-517.902	299.562	-0.089	0.167
-516.887	-200.000	0.003	0.199
-515.872	-94.408	-0.146	-0.040
-514.858	22.894	0.039	-0.032
-513.843	-92.864	-0.150	-0.042
-512.829	113.830	-0.116	0.143
-511.814	-200.000	-0.014	0.097
-510.799	-102.011	-0.192	-0.047
-509.785	70.194	0.229	-0.239
-508.770	398.803	0.049	0.104
-507.756	483.225	-0.116	0.267
-506.741	89.533	-0.249	-0.281
-505.726	800.000	0.055	0.203
-504.712	-25.760	0.292	0.174
-503.697	649.480	-0.091	0.237
-502.683	148.512	-0.211	-0.289
-501.668	639.687	-0.064	-0.164
-500.653	800.000	0.062	-0.206
-499.639	-158.397	0.312	-0.018
-498.624	-79.428	-0.043	0.015
-497.610	142.124	0.115	0.155
-496.595	-53.495	0.175	0.081
-495.581	119.775	-0.173	0.217
-494.566	-80.348	0.074	0.025
-493.551	563.338	0.081	-0.197
-492.537	231.283	0.076	-0.126
-491.522	-21.839	-0.206	0.127
-490.508	-200.000	-0.021	0.095
-489.493	-200.000	0.005	0.179
-488.478	-200.000	0.016	0.324
-487.464	800.000	0.052	-0.168
-486.449	246.110	0.141	0.239
-485.435	-79.717	0.229	-0.078
-484.420	130.816	0.135	-0.175
-483.405	-25.558	0.045	0.027
-482.391	29.631	0.168	-0.144
-481.376	-133.058	-0.226	-0.029
-480.362	-200.000	-0.057	-0.279
-479.347	496.138	-0.136	0.317
-478.332	15.914	0.009	0.007
-477.318	81.544	0.281	-0.307
-476.303	78.736	-0.198	0.214
-475.289	800.000	0.049	-0.204
-474.274	-10.385	-0.211	0.141
-473.259	-11.068	0.231	0.154
-472.245	800.000	0.060	0.262
-471.230	-200.000	0.006	-0.136
-470.216	-31.263	-0.166	-0.095
-469.201	-165.859	0.315	0.014
-468.186	-96.893	0.291	0.077
-467.172	462.508	0.108	-0.244
-466.157	800.000	0.022	-0.083
-465.143	65.526	-0.113	-0.115
-464.128	-16.444	0.092	-0.059
-463.113	46.598	0.296	-0.277
-462.099	-200.000	0.013	0.234
-461.084	-200.000	0.311	0.001
-460.070	-200.000	0.016	-0.192
-459.055	800.000	-0.050	0.151
-458.040	-159.041	-0.134	-0.008
-457.026	327.238	-0.110	0.214
-456.011	800.000	0.070	0.217
-454.997	119.521	0.260	0.325
-453.982	-10.426	-0.159	0.106
-452.968	192.288	-0.192	-0.293
-451.953	328.248	-0.127	-0.247
-450.938	-200.000	-0.017	0.125
-449.924	-51.266	0.431	0.204
-448.909	64.557	-0.160	-0.163
-447.895	-135.855	-0.182	-0.022
-446.880	-127.427	0.198	-0.029
-445.865	89.258	-0.061	-0.069
-444.851	-138.436	0.201	-0.022
-443.836	57.731	-0.168	-0.166
-442.822	215.441	-0.188	-0.302
-441.807	800.000	-0.084	-0.353
-440.792	107.300	-0.312	-0.374
-439.778	800.000	0.029	0.117
-438.763	-8.486	0.020	0.013
-437.749	-92.562	-0.153	-0.043
-436.734	41.423	-0.080	-0.073
-435.719	-200.000	-0.056	-0.258
-434.705	-200.000	0.017	-0.207
-433.690	680.798	-0.143	-0.375
-432.676	-17.805	0.150	-0.095
-431.661	118.784	0.124	0.155
-430.646	-1.991	-0.263	0.187
-429.632	-200.000	-0.005	-0.238
-428.617	175.807	0.081	0.119
-427.603	800.000	-0.022	-0.095
-426.588	-70.825	0.185	0.070
-425.573	-150.668	0.176	0.014
-424.559	-130.711	-0.152	0.021
-423.544	-77.067	0.206	-0.072
-422.530	132.154	0.170	-0.221
-421.515	44.533	-0.151	-0.140
-420.500	17.354	-0.254	-0.203
-419.486	-10.480	-0.318	-0.213
-418.471	-101.172	-0.111	0.027
-417.457	800.000	-0.013	-0.051
-416.442	-200.000	-0.008	-0.038
-415.428	-200.000	0.047	-0.268
-414.413	-176.126	0.331	0.009
-413.398	-74.644	0.289	-0.105
-412.384	-91.081	0.045	-0.013
-411.369	-142.522	-0.184	-0.018
-410.355	-40.774	-0.328	-0.171
-409.340	11.853	0.081	0.062
-408.325	49.677	0.077	-0.073
-407.311	17.115	-0.157	-0.125
-406.296	8.230	-0.192	0.146
-405.282	20.131	0.198	0.161
-404.267	-150.380	-0.122	-0.009
-403.252	102.350	-0.139	0.164
-402.238	-134.678	0.246	0.030
-401.223	-200.000	0.020	0.201
-400.209	-60.666	0.085	-0.036
-399.194	84.934	0.251	-0.277
-398.179	-134.851	0.191	0.023
-397.165	-106.247	0.153	-0.035
-396.150	-72.380	-0.217	0.081
-395.136	-129.805	0.332	-0.046
-394.121	-170.261	0.157	-0.006
-393.106	120.189	0.171	0.213
-392.092	127.688	-0.090	0.115
-391.077	459.867	0.210	0.471
-390.063	230.917	-0.033	-0.054
-389.048	-192.215	0.119	-0.001
-388.033	34.124	-0.095	0.083
-387.019	-65.095	-0.071	-0.029
-386.004	-103.842	-0.290	-0.068
-384.990	-100.677	-0.102	-0.025
-383.975	64.285	0.080	0.081
-382.960	-131.762	0.331	-0.044
-381.946	-180.804	-0.452	0.009
-380.931	-180.375	0.323	-0.007
-379.917	-15.473	0.195	0.125
-378.902	78.138	0.115	-0.124
-377.888	800.000	-0.124	-0.369
-376.873	-85.511	-0.434	-0.136
-375.858	491.969	-0.177	-0.407
-374.844	-97.521	-0.067	-0.017
-373.829	-41.740	0.077	-0.040
-372.815	-200.000	-0.036	0.389
-371.800	-200.000	-0.021	0.202
-370.785	-160.084	0.071	0.004
-369.771	-174.503	-0.202	0.006
-368.756	72.975	-0.233	0.245
-367.742	-130.681	-0.329	0.045
-366.727	464.486	-0.086	0.193
-365.712	231.692	-0.101	-0.166
-364.698	362.690	-0.076	-0.153
-363.683	227.396	-0.206	-0.337
-362.669	45.168	-0.136	-0.126
-361.654	800.000	-0.130	0.407
-360.639	-21.177	0.100	0.062
-359.625	-35.787	-0.210	0.114
-358.610	-57.610	0.321	-0.142
-357.596	-55.111	-0.197	0.089
-356.581	-200.000	0.015	0.330
-355.566	190.382	0.095	0.144
-354.552	-82.823	-0.210	0.068
-353.537	-117.711	-0.204	-0.037
-352.523	-53.868	0.223	-0.102
-351.508	-10.073	0.126	-0.084
-350.493	-200.000	0.007	0.209
-349.479	-90.247	0.156	0.046
-348.464	612.803	-0.048	0.122
-347.450	-7.262	0.212	0.144
-346.435	160.605	0.159	0.223
-345.420	800.000	-0.042	-0.160
-344.406	165.436	0.030	0.043
-343.391	-28.591	-0.267	-0.154
-342.377	101.333	-0.044	-0.051
-341.362	-127.000	0.347	0.051
-340.348	800.000	-0.034	-0.130
-339.333	99.603	0.029	-0.034
-338.318	-31.128	-0.058	0.033
-337.304	-99.716	0.497	0.125
-336.289	-200.000	0.002	-0.033
-335.275	128.518	0.178	-0.228
-334.260	800.000	0.093	0.259
-333.245	-200.000	-0.064	0.339
-332.231	-200.000	0.029	-0.159
-331.216	-103.243	0.327	0.078
-330.202	24.163	0.063	0.053
-329.187	9.581	-0.084	0.064
-328.172	-200.000	-0.011	0.167
-327.158	-30.767	-0.089	-0.050
-326.143	-149.704	-0.155	-0.012
-325.129	-61.223	-0.152	0.064
-324.114	198.284	-0.089	-0.137
-323.099	800.000	0.027	-0.094
-322.085	-86.808	-0.186	0.057
-321.070	-200.000	-0.028	0.152
-320.056	-200.000	-0.052	0.328
-319.041	-6.564	-0.116	0.080
-318.026	293.971	0.245	0.449
-317.012	-39.636	0.221	-0.116
-315.997	316.342	-0.117	-0.222
-314.983	-134.367	0.197	-0.024
-313.968	-200.000	0.050	0.311
-312.953	84.371	-0.124	0.136
-311.939	305.871	0.107	-0.199
-310.924	-200.000	0.010	0.055
-309.910	-200.000	-0.010	0.217
-308.895	44.443	-0.064	-0.059
-307.880	-60.603	-0.141	0.060
-306.866	526.274	0.048	0.113
-305.851	-118.576	0.153	-0.027
-304.837	57.963	-0.130	0.128
-303.822	230.882	-0.222	-0.365
-302.807	357.489	-0.045	0.089
-301.793	169.938	-0.136	-0.196
-300.778	-9.571	-0.342	-0.229
-299.764	11.262	0.320	0.246
-298.749	41.572	-0.073	-0.066
-297.735	-4.603	-0.108	-0.075
-296.720	800.000	0.060	-0.209
-295.705	-200.000	-0.035	-0.275
-294.691	82.668	0.277	0.302
-293.676	7.736	0.055	0.041
-292.662	-200.000	0.019	-0.091
-291.647	-119.650	-0.295	-0.051
-290.632	-40.756	0.079	0.041
-289.618	-80.879	0.088	-0.029
-288.603	-95.690	0.199	-0.053
-287.589	28.905	-0.017	-0.015
-286.574	135.608	0.076	-0.099
-285.559	88.648	-0.141	-0.157
-284.545	-86.585	0.300	0.092
-283.530	10.281	0.352	0.268
-282.516	154.730	-0.198	-0.273
-281.501	120.063	0.194	0.242
-280.486	224.996	-0.023	-0.038
-279.472	193.537	-0.214	-0.324
-278.457	-200.000	-0.072	-0.363
-277.443	201.717	0.064	-0.099
-276.428	130.524	0.305	-0.392
-275.413	800.000	0.105	-0.448
-274.399	-88.337	-0.078	0.023
-273.384	188.337	-0.087	-0.130
-272.370	48.961	0.171	0.161
-271.355	800.000	-0.020	-0.071
-270.340	123.253	0.163	-0.205
-269.326	500.267	0.086	-0.198
-268.311	-52.921	0.095	0.044
-267.297	188.719	-0.086	0.129
-266.282	-66.966	-0.275	-0.109
-265.267	-168.399	0.107	-0.004
-264.253	20.760	-0.152	0.123
-263.238	247.094	0.134	0.226
-262.224	113.367	-0.051	0.062
-261.209	-88.076	0.251	0.075
-260.195	-200.000	-0.059	0.319
-259.180	-86.556	-0.339	-0.104
-258.165	59.578	0.145	0.144
-257.151	-156.819	0.239	0.015
-256.136	31.572	0.162	-0.140
-255.122	-11.049	-0.365	0.242
-254.107	-32.735	0.373	0.208
-253.092	-84.108	0.156	0.050
-252.078	-200.000	0.000	-0.216
-251.063	381.251	0.102	-0.209
-250.049	-131.845	0.069	-0.009
-249.034	9.802	0.319	0.243
-248.019	-91.280	-0.083	0.024
-247.005	-27.745	-0.150	-0.087
-245.990	-13.372	0.216	0.140
-244.976	-200.000	-0.000	-0.123
-243.961	308.433	-0.098	0.184
-242.946	-200.000	0.004	-0.088
-241.932	8.381	-0.223	-0.168
-240.917	-115.370	-0.150	-0.028
-239.903	800.000	-0.121	0.424
-238.888	37.673	-0.230	0.204
-237.873	456.888	0.105	0.233
-236.859	800.000	0.054	0.202
-235.844	-200.000	-0.040	-0.280
-234.830	-82.116	-0.348	-0.114
-233.815	-29.562	0.199	0.114
-232.800	-40.902	-0.167	-0.086
-231.786	-200.000	-0.005	0.083
-230.771	800.000	-0.058	0.243
-229.757	-200.000	-0.034	0.171
-228.742	-71.564	-0.244	0.091
-227.727	109.388	-0.090	0.108
-226.713	800.000	-0.062	0.211
-225.698	-47.718	0.310	0.150
-224.684	-43.983	-0.080	-0.040
-223.669	-200.000	0.061	-0.280
-222.655	38.396	-0.066	-0.059
-221.640	-28.931	-0.273	-0.157
-220.625	-26.594	-0.280	0.164
-219.611	-200.000	-0.004	0.203
-218.596	296.589	-0.064	0.117
-217.582	-18.606	0.234	-0.146
-216.567	615.756	0.057	-0.143
-215.552	-200.000	0.020	0.301
-214.538	92.504	0.113	-0.127
-213.523	-131.587	-0.180	-0.024
-212.509	-200.000	0.012	-0.117
-211.494	110.457	-0.259	-0.311
-210.479	-14.626	0.052	-0.033
-209.465	-200.000	0.039	0.370
-208.450	2.993	-0.154	0.112
-207.436	-200.000	0.001	-0.075
-206.421	249.553	-0.114	-0.193
-205.406	120.832	0.131	-0.163
-204.392	-84.085	-0.126	0.040
-203.377	-200.000	0.011	0.152
-202.363	59.162	0.106	-0.105
-201.348	-200.000	0.009	0.175
-200.333	209.021	-0.141	-0.221
-199.319	-112.439	0.164	0.033
-198.304	-200.000	-0.005	-0.102
-197.290	-156.959	0.078	0.005
-196.275	569.068	-0.121	0.295
-195.260	-155.829	-0.057	-0.004
-194.246	-33.817	-0.117	-0.064
-193.231	-139.713	-0.179	-0.019
-192.217	-200.000	0.075	-0.366
-191.202	48.352	-0.121	-0.114
-190.187	302.453	-0.111	0.206
-189.173	800.000	-0.082	-0.282
-188.158	508.844	-0.094	0.217
-187.144	-37.240	0.138	0.074
-186.129	46.681	-0.361	-0.335
-185.114	-32.833	0.126	-0.070
-184.100	-3.305	0.186	0.129
-183.085	-200.000	-0.101	0.621
-182.071	560.177	-0.162	-0.390
-181.056	158.964	-0.119	-0.165
-180.042	-138.715	0.393	-0.043
-179.027	320.321	0.081	0.154
-178.012	800.000	0.091	0.253
-176.998	550.749	-0.051	0.123
-175.983	-129.869	0.170	0.023
-174.969	-117.327	0.323	-0.058
-173.954	-72.326	-0.047	0.017
-172.939	-85.573	0.376	0.117
-171.925	595.569	0.099	0.244
-170.910	396.435	0.225	-0.469
-169.896	-155.908	0.194	0.012
-168.881	136.304	0.017	0.023
-167.866	-60.758	0.400	-0.169
-166.852	-147.409	0.127	0.011
-165.837	61.142	0.326	-0.323
-164.823	112.423	0.097	-0.118
-163.808	-34.327	-0.286	-0.156
-162.793	-154.767	0.064	0.004
-161.779	-60.258	-0.157	0.067
-160.764	800.000	-0.042	0.153
-159.750	62.045	0.184	0.183
-158.735	-200.000	-0.041	-0.237
-157.720	-200.000	0.027	-0.142
-156.706	-146.513	-0.403	0.035
-155.691	-200.000	0.049	-0.268
-154.677	405.179	-0.249	0.525
-153.662	196.007	-0.120	0.182
-152.647	-176.424	0.271	0.007
-151.633	-46.918	-0.137	-0.067
-150.618	8.956	0.239	0.180
-149.604	296.548	-0.184	-0.336
-148.589	-161.588	0.357	0.018
-147.574	800.000	0.081	0.237
-146.560	-161.580	0.166	0.009
-145.545	184.637	-0.154	-0.228
-144.531	-102.570	0.158	0.038
-143.516	800.000	0.078	-0.290
-142.502	429.295	-0.049	0.106
-141.487	322.788	0.043	0.081
-140.472	800.000	0.093	0.291
-139.458	54.857	-0.123	0.118
-138.443	-200.000	-0.023	-0.160
-137.429	-52.958	0.259	0.119
-136.414	-117.187	0.129	0.023
-135.399	-97.326	0.429	-0.112
-134.385	-79.011	0.272	0.092
-133.370	479.071	-0.119	0.270
-132.356	-112.715	0.219	0.043
-131.341	-125.652	0.220	0.033
-130.326	113.006	0.213	0.257
-129.312	-56.274	-0.101	0.045
-128.297	83.307	0.313	-0.340
-127.283	19.303	0.267	-0.214
-126.268	28.455	-0.185	-0.156
-125.253	800.000	0.063	-0.199
-124.239	-83.216	0.286	-0.092
-123.224	15.297	0.219	0.172
-122.210	-200.000	0.030	-0.225
-121.195	-137.835	0.085	-0.009
