DTS Sentinel unit serial number:	SN413079Multiplexer serial number:	ORYXHardware model number:	OX4-SRSoftware version number:	ORYX F/W v4.00 Oryx Data Collector v3.7.2.0data status	okinstallation	princeton_trtdifferential loss correction	single-endedforward channel	channel 4reverse channel	N/Adate	2019/09/10time	22:55:10forward acquisition time	60.00reverse acquisition time	0.00gamma	496.2192k internal	0.2317k external	0.2317temperature offset calibration	0.9947default loss term (dB/km)	0.3790temperature slope calibration	1.0000multiplexer offset coefficient	1.0000multiplexer slope coefficient	1.0000fibre end	0.00T internal ref (°C)	30.11T ext. ref 1 (°C)	-0.30T ext. ref 2 (°C)	23.47length (m)	temperature (°C)	Stokes	anti-Stokes-747.200	153.767	-0.114	-0.158
-746.185	-200.000	0.073	0.382
-745.171	800.000	-0.078	-0.237
-744.156	800.000	-0.072	0.211
-743.142	47.719	-0.218	0.206
-742.127	-122.649	-0.362	-0.059
-741.112	-71.364	-0.228	0.086
-740.098	-70.766	-0.310	-0.118
-739.083	-104.279	-0.313	-0.073
-738.069	-35.271	-0.337	0.186
-737.054	224.488	0.040	-0.066
-736.039	800.000	0.036	0.106
-735.025	200.069	-0.013	-0.020
-734.010	127.607	-0.135	-0.174
-732.996	-45.212	-0.198	-0.099
-731.981	-76.633	0.126	-0.045
-730.966	-200.000	0.005	-0.068
-729.952	-70.691	-0.155	0.059
-728.937	-200.000	0.031	0.393
-727.923	-27.499	0.165	0.097
-726.908	-200.000	-0.012	-0.380
-725.894	800.000	0.054	0.164
-724.879	-200.000	-0.048	-0.250
-723.864	185.938	0.128	-0.192
-722.850	232.091	-0.116	-0.192
-721.835	800.000	-0.142	-0.429
-720.821	536.639	-0.047	0.113
-719.806	-65.371	-0.134	-0.054
-718.791	-200.000	-0.051	-0.299
-717.777	-104.567	-0.185	-0.043
-716.762	-200.000	0.016	-0.214
-715.748	-166.711	-0.284	0.012
-714.733	3.591	0.183	-0.135
-713.718	69.249	-0.027	-0.028
-712.704	-65.618	-0.167	-0.068
-711.689	93.196	-0.142	-0.162
-710.675	-200.000	-0.003	-0.154
-709.660	576.766	0.145	0.359
-708.645	-72.102	-0.187	-0.070
-707.631	-192.447	0.123	-0.001
-706.616	458.181	-0.094	-0.212
-705.602	465.411	-0.127	-0.288
-704.587	-19.608	0.102	-0.064
-703.572	-100.398	-0.382	-0.096
-702.558	-200.000	0.027	0.245
-701.543	-178.536	0.248	0.006
-700.529	-58.476	-0.395	0.174
-699.514	-42.941	-0.269	0.138
-698.499	32.270	0.130	0.114
-697.485	146.478	-0.137	-0.186
-696.470	-31.443	-0.205	-0.117
-695.456	569.048	-0.028	-0.068
-694.441	18.158	0.213	-0.172
-693.426	449.558	0.154	0.343
-692.412	128.622	-0.143	0.185
-691.397	-51.782	0.196	-0.092
-690.383	-94.386	-0.252	-0.069
-689.368	-104.690	-0.232	-0.054
-688.354	194.488	-0.180	-0.276
-687.339	-66.537	-0.160	-0.064
-686.324	352.290	0.059	0.118
-685.310	800.000	-0.078	0.225
-684.295	-192.175	0.300	0.003
-683.281	-200.000	-0.104	0.000
-682.266	737.775	-0.154	0.416
-681.251	54.375	0.018	0.018
-680.237	-0.928	0.107	-0.076
-679.222	-84.205	-0.189	0.060
-678.208	66.427	-0.231	0.237
-677.193	-107.584	-0.110	-0.024
-676.178	-81.205	-0.411	-0.137
-675.164	-12.291	0.081	-0.053
-674.149	155.742	-0.085	0.118
-673.135	-200.000	-0.040	-0.242
-672.120	87.657	0.212	-0.238
-671.105	-200.000	0.065	0.652
-670.091	-132.387	0.023	0.003
-669.076	800.000	0.029	0.096
-668.062	34.370	-0.194	-0.171
-667.047	-146.461	-0.340	0.030
-666.032	-105.275	-0.150	-0.035
-665.018	6.100	0.141	0.106
-664.003	262.576	-0.173	-0.303
-662.989	163.658	-0.099	0.141
-661.974	234.839	0.022	-0.037
-660.959	7.011	-0.042	0.032
-659.945	-25.214	-0.140	0.083
-658.930	-102.080	0.162	0.039
-657.916	800.000	-0.030	-0.117
-656.901	-185.688	-0.382	0.006
-655.886	-200.000	-0.008	-0.256
-654.872	470.875	0.094	-0.213
-653.857	162.470	-0.181	-0.256
-652.843	16.853	-0.149	-0.119
-651.828	-200.000	0.019	0.235
-650.814	507.746	-0.072	0.169
-649.799	-27.467	0.321	-0.188
-648.784	46.834	0.250	0.234
-647.770	508.149	-0.034	0.080
-646.755	37.404	-0.071	0.063
-645.741	680.312	0.042	-0.110
-644.726	-32.206	-0.292	0.165
-643.711	-125.216	0.138	0.021
-642.697	-93.330	0.050	-0.014
-641.682	101.568	-0.145	-0.170
-640.668	197.644	-0.155	-0.238
-639.653	-137.395	0.237	0.027
-638.638	430.789	-0.065	0.141
-637.624	-58.085	0.135	-0.060
-636.609	-200.000	0.008	0.052
-635.595	127.051	0.016	0.020
-634.580	0.406	-0.155	-0.111
-633.565	79.863	-0.010	0.010
-632.551	261.125	-0.159	0.278
-631.536	-15.216	-0.331	0.213
-630.522	-98.650	0.290	-0.075
-629.507	537.741	-0.015	-0.036
-628.492	83.568	0.082	0.090
-627.478	800.000	-0.024	0.097
-626.463	66.174	0.175	-0.179
-625.449	-12.596	0.164	0.108
-624.434	484.799	0.029	-0.066
-623.419	-200.000	0.068	-0.403
-622.405	-71.061	-0.380	-0.144
-621.390	-60.102	-0.183	-0.078
-620.376	12.518	-0.123	-0.096
-619.361	-116.112	0.149	-0.028
-618.346	-200.000	0.004	0.284
-617.332	255.775	-0.093	0.160
-616.317	-90.377	0.125	0.037
-615.303	-116.682	0.285	-0.053
-614.288	310.779	0.146	0.275
-613.273	17.922	-0.187	-0.150
-612.259	-69.830	-0.513	-0.197
-611.244	-84.653	-0.114	-0.036
-610.230	-36.050	-0.203	0.111
-609.215	-174.168	-0.089	0.003
-608.201	85.300	-0.062	-0.069
-607.186	27.965	-0.365	-0.310
-606.171	22.190	0.124	-0.102
-605.157	112.274	0.098	0.119
-604.142	-200.000	0.005	-0.199
-603.128	173.468	0.162	-0.236
-602.113	731.308	-0.092	-0.248
-601.098	-50.721	0.282	0.133
-600.084	-8.443	0.018	-0.012
-599.069	-4.361	-0.078	0.055
-598.055	-107.922	-0.303	-0.066
-597.040	12.733	-0.192	0.150
-596.025	115.449	0.090	-0.110
-595.011	363.886	0.097	-0.196
-593.996	-88.430	-0.071	0.021
-592.982	-116.224	0.236	-0.044
-591.967	-88.645	-0.209	-0.063
-590.952	-29.080	0.097	0.056
-589.938	-200.000	0.003	0.173
-588.923	-82.429	0.182	-0.060
-587.909	-39.179	-0.138	0.073
-586.894	-39.503	0.305	0.161
-585.879	-200.000	-0.028	0.273
-584.865	800.000	-0.012	0.049
-583.850	800.000	0.036	0.132
-582.836	236.533	0.183	0.304
-581.821	31.661	-0.121	0.105
-580.806	-82.267	-0.091	0.030
-579.792	10.677	-0.255	-0.195
-578.777	-43.612	0.151	0.077
-577.763	-86.962	-0.045	0.014
-576.748	-200.000	0.060	-0.283
-575.733	-148.202	-0.195	0.016
-574.719	-200.000	0.000	0.253
-573.704	-200.000	0.026	0.333
-572.690	-200.000	0.016	-0.218
-571.675	195.159	-0.079	0.121
-570.661	-12.008	0.285	0.188
-569.646	800.000	0.126	0.508
-568.631	-200.000	0.030	-0.345
-567.617	-61.567	-0.136	-0.057
-566.602	-200.000	0.014	0.085
-565.588	-29.502	-0.034	0.020
-564.573	139.373	0.199	0.263
-563.558	-126.820	0.206	0.031
-562.544	-70.180	0.284	0.109
-561.529	81.822	-0.081	-0.088
-560.515	800.000	-0.057	0.179
-559.500	307.850	0.061	0.115
-558.485	-127.424	-0.353	0.052
-557.471	-174.773	0.297	-0.008
-556.456	-94.958	-0.381	0.104
-555.442	-59.386	-0.259	0.112
-554.427	-200.000	-0.027	0.183
-553.412	-59.180	0.278	-0.120
-552.398	94.062	-0.134	0.152
-551.383	-160.693	0.399	-0.021
-550.369	-25.166	0.155	-0.092
-549.354	-200.000	-0.044	-0.408
-548.339	-68.084	-0.146	-0.057
-547.325	4.078	0.297	0.219
-546.310	-200.000	-0.048	-0.270
-545.296	-200.000	-0.018	-0.131
-544.281	8.404	-0.288	0.218
-543.266	-126.962	-0.413	-0.061
-542.252	14.254	0.222	0.174
-541.237	-1.579	-0.141	0.100
-540.223	-123.096	-0.149	0.024
-539.208	-137.242	0.096	-0.011
-538.193	800.000	-0.007	-0.028
-537.179	216.998	-0.038	0.062
-536.164	-16.154	-0.254	-0.162
-535.150	-200.000	-0.025	-0.159
-534.135	18.553	0.189	0.152
-533.121	-62.506	0.222	-0.093
-532.106	-76.483	-0.147	0.052
-531.091	-76.956	-0.396	0.139
-530.077	-101.597	-0.247	-0.060
-529.062	62.047	0.207	0.207
-528.048	-166.496	-0.278	0.012
-527.033	-110.535	-0.214	0.044
-526.018	1.477	-0.146	0.105
-525.004	40.322	0.107	-0.096
-523.989	-200.000	0.046	-0.425
-522.975	-200.000	0.015	-0.206
-521.960	-57.361	0.128	0.057
-520.945	94.934	0.077	0.088
-519.931	-115.713	0.023	0.004
-518.916	-95.963	0.310	-0.083
-517.902	-2.360	0.091	0.064
-516.887	156.135	-0.158	-0.219
-515.872	800.000	0.105	0.321
-514.858	-200.000	0.054	-0.367
-513.843	-54.171	0.086	-0.039
-512.829	-179.588	-0.109	0.002
-511.814	-81.783	0.226	-0.074
-510.799	-199.012	0.194	0.001
-509.785	158.362	-0.089	-0.123
-508.770	106.640	0.107	0.128
-507.756	-95.828	0.031	-0.008
-506.741	-200.000	-0.000	-0.143
-505.726	125.616	0.040	-0.050
-504.712	-99.498	0.143	0.036
-503.697	-39.786	-0.363	0.190
-502.683	-105.601	0.165	-0.038
-501.668	75.646	-0.252	-0.267
-500.653	446.408	0.161	0.355
-499.639	-37.186	-0.229	0.123
-498.624	20.537	0.135	0.109
-497.610	800.000	-0.094	-0.368
-496.595	-74.807	-0.161	-0.058
-495.581	-200.000	0.038	-0.311
-494.566	184.015	-0.210	-0.312
-493.551	-63.727	-0.337	-0.139
-492.537	457.938	0.062	-0.137
-491.522	-92.362	0.148	-0.042
-490.508	167.049	-0.065	-0.092
-489.493	13.585	-0.283	-0.221
-488.478	274.309	0.088	0.156
-487.464	128.296	-0.147	-0.187
-486.449	800.000	-0.127	0.403
-485.435	82.706	-0.218	0.238
-484.420	800.000	-0.086	0.350
-483.405	-200.000	0.017	-0.176
-482.391	111.460	0.199	-0.241
-481.376	-1.735	0.225	-0.159
-480.362	488.122	-0.069	-0.157
-479.347	-45.226	-0.347	0.173
-478.332	-200.000	-0.016	-0.104
-477.318	-61.094	0.274	0.116
-476.303	-33.881	-0.159	-0.088
-475.289	-200.000	0.028	0.203
-474.274	-200.000	-0.023	-0.135
-473.259	-99.737	-0.281	0.070
-472.245	-99.524	0.328	0.083
-471.230	77.584	-0.123	0.131
-470.216	-45.431	-0.231	0.115
-469.201	-136.758	-0.166	0.019
-468.186	-194.197	-0.124	-0.001
-467.172	109.767	0.139	-0.167
-466.157	240.987	-0.081	-0.136
-465.143	-134.197	0.276	-0.034
-464.128	-59.046	-0.120	0.052
-463.113	-73.894	-0.041	0.015
-462.099	51.121	-0.198	-0.188
-461.084	-200.000	0.033	0.179
-460.070	-102.258	0.172	-0.041
-459.055	29.806	0.074	-0.063
-458.040	20.873	0.162	0.132
-457.026	-71.626	-0.039	0.015
-456.011	-155.960	-0.219	-0.014
-454.997	800.000	0.069	0.227
-453.982	334.509	0.094	0.182
-452.968	800.000	0.065	-0.255
-451.953	-200.000	-0.027	-0.194
-450.938	-165.315	0.190	0.008
-449.924	800.000	-0.092	-0.340
-448.909	-149.856	-0.243	0.019
-447.895	-200.000	-0.043	0.281
-446.880	800.000	0.025	0.080
-445.865	800.000	0.039	-0.143
-444.851	13.421	-0.299	0.232
-443.836	-111.920	-0.321	-0.065
-442.822	-78.689	0.248	-0.085
-441.807	-85.917	0.144	-0.045
-440.792	78.948	-0.080	0.085
-439.778	229.273	-0.208	-0.339
-438.763	800.000	-0.040	-0.112
-437.749	133.592	0.230	-0.297
-436.734	21.263	-0.088	-0.071
-435.719	-54.064	0.108	0.049
-434.705	59.881	0.213	0.210
-433.690	-77.305	-0.128	0.045
-432.676	800.000	-0.096	0.340
-431.661	-200.000	-0.011	0.367
-430.646	121.446	-0.099	0.124
-429.632	20.895	0.179	-0.145
-428.617	-124.686	-0.320	0.050
-427.603	13.639	0.212	-0.165
-426.588	352.730	-0.151	-0.299
-425.573	-110.226	0.191	0.040
-424.559	648.802	-0.020	0.052
-423.544	107.967	-0.375	0.447
-422.530	-36.831	-0.392	0.210
-421.515	-112.111	0.303	0.061
-420.500	-114.589	0.259	0.050
-419.486	800.000	0.119	-0.348
-418.471	231.748	0.102	-0.167
-417.457	-70.186	0.107	0.041
-416.442	-63.265	0.328	0.135
-415.428	-90.294	0.250	0.073
-414.413	-113.467	0.250	0.049
-413.398	474.790	-0.020	0.046
-412.384	-142.004	-0.096	0.010
-411.369	-200.000	0.018	-0.102
-410.355	-20.601	0.106	-0.065
-409.340	-61.976	0.280	0.117
-408.325	-101.481	0.209	-0.051
-407.311	800.000	0.027	-0.106
-406.296	-16.763	-0.315	0.199
-405.282	16.337	-0.102	-0.081
-404.267	0.255	0.220	0.157
-403.252	-125.330	-0.246	-0.037
-402.238	-107.185	0.484	-0.106
-401.223	87.525	0.086	-0.095
-400.209	-118.424	0.400	0.071
-399.194	-200.000	-0.016	0.076
-398.179	-57.737	-0.235	0.103
-397.165	-95.643	-0.309	0.083
-396.150	115.399	0.095	0.116
-395.136	-200.000	-0.021	0.156
-394.121	221.321	0.178	-0.286
-393.106	800.000	0.113	-0.488
-392.092	-200.000	0.008	0.093
-391.077	800.000	-0.116	0.403
-390.063	359.468	-0.155	0.309
-389.048	-38.568	-0.077	0.040
-388.033	-200.000	-0.023	-0.119
-387.019	-115.231	0.201	0.038
-386.004	-86.288	-0.194	0.060
-384.990	-74.918	0.084	0.030
-383.975	-200.000	0.019	0.230
-382.960	245.229	0.180	-0.302
-381.946	24.418	-0.059	0.049
-380.931	538.074	0.044	0.105
-379.917	64.259	0.106	-0.106
-378.902	604.094	0.057	0.141
-377.888	-169.558	-0.291	-0.011
-376.873	-170.857	0.134	-0.005
-375.858	-194.408	-0.029	0.000
-374.844	1.357	0.176	-0.126
-373.829	-200.000	-0.003	-0.100
-372.815	800.000	0.071	0.219
-371.800	400.304	-0.147	0.307
-370.785	-6.576	0.097	-0.066
-369.771	54.288	-0.353	0.339
-368.756	-186.981	0.439	-0.006
-367.742	-7.783	0.402	0.271
-366.727	7.277	-0.258	0.192
-365.712	800.000	0.028	-0.090
-364.698	-200.000	0.010	-0.229
-363.683	-73.176	0.179	-0.065
-362.669	-96.041	0.285	0.076
-361.654	358.920	0.095	0.188
-360.639	800.000	-0.045	-0.172
-359.625	-8.315	-0.178	0.119
-358.610	-129.393	0.255	-0.035
-357.596	125.649	-0.292	-0.367
-356.581	-60.755	-0.234	-0.099
-355.566	-200.000	0.036	-0.337
-354.552	800.000	-0.075	0.250
-353.537	215.485	-0.163	-0.258
-352.523	-78.326	-0.266	0.091
-351.508	288.905	-0.075	-0.136
-350.493	-186.764	-0.168	-0.002
-349.479	-73.271	0.173	-0.063
-348.464	-61.123	-0.094	0.039
-347.450	-200.000	0.422	0.002
-346.435	35.407	0.199	0.174
-345.420	252.182	0.032	0.054
-344.406	514.491	-0.039	-0.092
-343.391	-168.324	-0.083	0.003
-342.377	200.943	0.186	-0.286
-341.362	64.927	-0.213	0.214
-340.348	-98.517	-0.262	-0.067
-339.333	-80.082	-0.140	0.047
-338.318	53.867	0.169	0.162
-337.304	-133.850	0.349	0.043
-336.289	43.875	0.101	0.092
-335.275	-200.000	-0.005	0.190
-334.260	-200.000	-0.004	-0.171
-333.245	-117.289	0.140	0.025
-332.231	156.674	-0.091	-0.125
-331.216	-200.000	-0.029	-0.135
-330.202	63.070	-0.051	-0.051
-329.187	-24.005	0.144	0.086
-328.172	-9.726	-0.226	0.150
-327.158	-200.000	0.026	0.276
-326.143	-147.369	0.209	0.018
-325.129	123.630	-0.058	-0.072
-324.114	-140.275	0.073	0.008
-323.099	-200.000	0.254	-0.000
-322.085	-53.158	-0.263	0.121
-321.070	-200.000	0.027	-0.357
-320.056	639.171	-0.182	-0.462
-319.041	800.000	0.068	-0.250
-318.026	15.656	-0.157	0.123
-317.012	-74.366	0.328	0.118
-315.997	-115.172	-0.154	0.029
-314.983	-47.561	-0.205	-0.099
-313.968	-108.002	0.284	0.061
-312.953	36.515	-0.040	0.035
-311.939	-200.000	-0.006	0.168
-310.924	615.732	0.098	0.244
-309.910	-42.703	-0.351	0.178
-308.895	-154.557	-0.273	0.018
-307.880	-62.898	-0.189	0.078
-306.866	800.000	-0.051	-0.205
-305.851	133.215	-0.102	0.131
-304.837	59.040	-0.090	0.089
-303.822	-200.000	0.012	0.133
-302.807	677.631	-0.040	-0.104
-301.793	-200.000	-0.039	0.172
-300.778	-68.890	-0.097	0.037
-299.764	26.088	0.151	-0.125
-298.749	-131.285	-0.222	-0.029
-297.735	27.107	0.188	-0.157
-296.720	383.547	0.071	-0.144
-295.705	74.901	0.305	-0.319
-294.691	19.012	0.070	0.056
-293.676	70.024	-0.107	-0.110
-292.662	-156.207	0.098	0.006
-291.647	-200.000	0.052	-0.281
-290.632	-18.816	0.192	0.119
-289.618	-184.499	-0.038	0.001
-288.603	800.000	0.110	0.324
-287.589	62.035	-0.067	-0.066
-286.574	-19.648	-0.235	-0.144
-285.559	-200.000	0.000	-0.335
-284.545	-200.000	0.025	0.125
-283.530	800.000	0.124	0.442
-282.516	554.751	-0.106	0.254
-281.501	-182.155	0.166	-0.003
-280.486	-0.200	0.241	0.171
-279.472	-67.708	0.329	0.128
-278.457	7.020	-0.057	0.042
-277.443	-137.154	0.202	0.023
-276.428	-44.611	0.068	-0.034
-275.413	110.958	0.169	-0.202
-274.399	84.212	0.090	-0.098
-273.384	-200.000	0.040	0.500
-272.370	-200.000	-0.005	0.287
-271.355	-82.332	-0.214	0.069
-270.340	-23.039	-0.200	0.120
-269.326	-56.041	0.310	-0.138
-268.311	-200.000	0.048	0.217
-267.297	42.239	0.193	0.174
-266.282	-200.000	0.133	-0.000
-265.267	-81.280	-0.174	-0.057
-264.253	106.656	-0.142	-0.167
-263.238	143.792	0.180	-0.239
-262.224	206.191	-0.036	0.056
-261.209	-200.000	0.003	-0.268
-260.195	296.883	-0.140	-0.255
-259.180	-124.058	0.252	0.039
-258.165	55.416	0.251	0.242
-257.151	467.031	-0.118	0.262
-256.136	-200.000	-0.001	-0.024
-255.122	-99.301	-0.049	0.012
-254.107	-28.108	-0.152	-0.087
-253.092	21.006	-0.249	0.201
-252.078	-78.656	-0.435	0.148
-251.063	166.987	0.106	-0.150
-250.049	-50.821	-0.215	-0.100
-249.034	485.749	-0.141	-0.320
-248.019	-200.000	-0.004	0.112
-247.005	-3.658	-0.483	0.333
-245.990	160.495	0.015	-0.021
-244.976	460.820	-0.117	-0.260
-243.961	800.000	0.037	-0.134
-242.946	360.120	0.067	0.134
-241.932	-41.625	0.060	0.031
-240.917	-200.000	0.047	-0.206
-239.903	800.000	0.103	-0.429
-238.888	-200.000	0.001	0.138
-237.873	21.912	-0.354	-0.286
-236.859	45.897	0.108	0.099
-235.844	360.340	0.024	0.047
-234.830	474.723	-0.097	0.218
-233.815	-200.000	0.034	-0.275
-232.800	-170.443	0.360	0.012
-231.786	20.722	-0.154	0.124
-230.771	-114.790	0.202	0.038
-229.757	-200.000	0.051	0.285
-228.742	39.692	0.245	-0.218
-227.727	-47.153	0.058	0.028
-226.713	514.927	0.064	0.148
-225.698	-82.824	-0.221	-0.071
-224.684	-180.419	-0.287	-0.006
-223.669	-200.000	-0.052	-0.241
-222.655	800.000	0.093	-0.312
-221.640	-200.000	-0.008	0.083
-220.625	-106.281	-0.248	-0.055
-219.611	-200.000	-0.046	0.212
-218.596	-29.404	-0.256	0.145
-217.582	-47.880	-0.192	0.092
-216.567	-58.059	-0.225	0.097
-215.552	-200.000	0.035	-0.166
-214.538	446.869	0.115	0.251
-213.523	159.117	-0.100	-0.138
-212.509	116.372	0.142	0.173
-211.494	360.800	-0.131	0.261
-210.479	-77.034	-0.043	-0.015
-209.465	-200.000	-0.037	-0.222
-208.450	-77.678	-0.060	-0.021
-207.436	649.657	0.023	-0.059
-206.421	-195.765	-0.330	-0.002
-205.406	-200.000	0.029	0.267
-204.392	73.859	0.151	-0.157
-203.377	-148.273	0.211	0.017
-202.363	800.000	0.041	0.130
-201.348	-175.103	-0.277	-0.008
-200.333	800.000	0.035	-0.106
-199.319	177.335	-0.160	0.231
-198.304	-132.160	0.218	-0.028
-197.290	48.397	-0.288	-0.267
-196.275	-58.650	0.311	-0.134
-195.260	77.768	-0.096	0.102
-194.246	-115.279	-0.044	0.008
-193.231	131.620	0.230	-0.293
-192.217	-19.019	0.575	-0.354
-191.202	136.300	0.163	-0.210
-190.187	23.140	-0.260	0.212
-189.173	-200.000	0.022	0.128
-188.158	672.157	0.150	-0.385
-187.144	-111.608	0.387	-0.078
-186.129	800.000	-0.109	0.315
-185.114	-142.619	0.183	-0.018
-184.100	800.000	-0.053	0.167
-183.085	800.000	0.071	-0.251
-182.071	62.458	0.103	0.102
-181.056	-133.574	0.179	0.022
-180.042	435.007	-0.086	0.185
-179.027	-54.686	0.282	-0.126
-178.012	366.061	0.034	0.067
-176.998	-200.000	0.020	-0.129
-175.983	-200.000	0.031	0.206
-174.969	-200.000	-0.036	0.293
-173.954	-149.743	-0.527	-0.041
-172.939	17.259	0.298	0.234
-171.925	372.085	0.072	0.145
-170.910	-128.585	-0.135	-0.019
-169.896	-131.059	0.318	-0.042
-168.881	133.307	0.274	-0.350
-167.866	448.771	-0.160	-0.350
-166.852	-200.000	-0.007	-0.217
-165.837	246.595	-0.122	0.203
-164.823	-200.000	0.047	-0.235
-163.808	-200.000	0.032	-0.351
-162.793	636.205	-0.028	0.071
-161.779	560.349	0.043	0.103
-160.764	-8.787	0.344	-0.228
-159.750	-21.728	-0.246	-0.149
-158.735	-149.156	0.077	-0.006
-157.720	-200.000	-0.016	0.108
-156.706	800.000	-0.077	0.219
-155.691	418.001	-0.094	-0.198
-154.677	582.584	-0.132	-0.320
-153.662	-86.864	-0.317	-0.096
-152.647	-200.000	0.018	-0.309
-151.633	4.156	0.157	0.113
-150.618	-86.883	-0.197	0.059
-149.604	-126.716	0.259	0.038
-148.589	-96.202	0.402	0.106
-147.574	9.378	0.068	0.051
-146.560	51.743	-0.107	0.101
-145.545	-200.000	0.052	0.232
-144.531	-1.059	-0.129	-0.090
-143.516	-151.054	0.612	0.046
-142.502	-75.021	-0.190	-0.067
-141.487	58.296	-0.115	0.111
-140.472	-114.393	-0.162	-0.031
-139.458	262.861	-0.102	-0.175
-138.443	13.818	-0.219	-0.168
-137.429	53.060	0.323	0.306
-136.414	800.000	-0.027	0.099
-135.399	-157.846	0.043	0.003
-134.385	-200.000	0.029	0.283
-133.370	173.928	-0.084	-0.120
-132.356	-126.714	-0.243	0.036
-131.341	-12.491	-0.261	-0.168
-130.326	373.843	0.100	0.201
-129.312	12.276	0.111	-0.084
-128.297	-97.641	-0.315	-0.081
-127.283	659.748	0.068	0.174
-126.268	5.608	-0.108	0.079
-125.253	99.061	-0.239	-0.272
-124.239	800.000	0.048	-0.199
-123.224	-23.373	-0.208	-0.124
-122.210	-56.925	-0.237	0.103
-121.195	-2.448	-0.123	-0.085
