DTS Sentinel unit serial number:	SN413079Multiplexer serial number:	ORYXHardware model number:	OX4-SRSoftware version number:	ORYX F/W v4.00 Oryx Data Collector v3.7.2.0data status	okinstallation	princeton_trtdifferential loss correction	single-endedforward channel	channel 4reverse channel	N/Adate	2019/09/12time	01:51:11forward acquisition time	60.00reverse acquisition time	0.00gamma	496.2192k internal	0.2309k external	0.2309temperature offset calibration	1.0090default loss term (dB/km)	0.3790temperature slope calibration	1.0000multiplexer offset coefficient	1.0000multiplexer slope coefficient	1.0000fibre end	0.00T internal ref (°C)	32.81T ext. ref 1 (°C)	2.05T ext. ref 2 (°C)	27.42length (m)	temperature (°C)	Stokes	anti-Stokes-747.200	266.740	0.064	0.114
-746.185	-200.000	-0.006	-0.370
-745.171	140.540	0.086	0.116
-744.156	326.979	0.129	0.252
-743.142	-200.000	-0.076	0.446
-742.127	-200.000	-0.075	0.786
-741.112	800.000	-0.059	0.208
-740.098	184.667	0.073	0.110
-739.083	4.785	0.129	-0.096
-738.069	-6.196	0.143	-0.100
-737.054	-101.055	-0.210	0.052
-736.039	261.381	0.028	-0.049
-735.025	-158.254	0.378	0.022
-734.010	38.178	-0.077	-0.069
-732.996	-93.570	0.050	-0.014
-731.981	-101.447	-0.285	-0.071
-730.966	248.737	-0.092	0.159
-729.952	357.570	0.178	0.361
-728.937	73.633	0.053	0.057
-727.923	331.248	-0.019	-0.036
-726.908	-112.338	-0.308	0.063
-725.894	60.391	-0.045	-0.045
-724.879	24.043	0.028	-0.023
-723.864	5.281	-0.198	0.149
-722.850	-200.000	-0.112	0.544
-721.835	-129.555	-0.460	0.065
-720.821	547.688	-0.155	-0.376
-719.806	-116.568	-0.103	-0.019
-718.791	111.984	-0.163	0.200
-717.777	-52.585	-0.196	-0.092
-716.762	800.000	0.090	0.296
-715.748	-117.398	0.108	0.020
-714.733	-70.324	0.052	0.020
-713.718	-200.000	-0.027	0.192
-712.704	220.212	-0.133	0.216
-711.689	-35.362	0.451	-0.249
-710.675	-80.494	0.108	0.037
-709.660	-77.062	-0.212	0.075
-708.645	-76.465	-0.099	-0.035
-707.631	-21.934	0.103	-0.063
-706.616	-200.000	0.016	0.071
-705.602	-200.000	0.032	0.355
-704.587	-21.177	0.068	0.042
-703.572	132.263	0.113	0.148
-702.558	671.897	-0.114	-0.300
-701.543	-200.000	-0.003	-0.078
-700.529	-158.577	0.322	-0.019
-699.514	-155.319	-0.235	-0.015
-698.499	-142.933	0.179	-0.018
-697.485	330.561	0.061	-0.119
-696.470	58.637	0.117	-0.117
-695.456	-22.174	-0.181	-0.111
-694.441	-69.324	0.320	0.125
-693.426	-123.414	0.212	-0.034
-692.412	-123.864	0.281	0.045
-691.397	-200.000	-0.054	-0.346
-690.383	-200.000	0.001	-0.400
-689.368	-200.000	0.018	-0.165
-688.354	-133.456	0.114	-0.015
-687.339	-200.000	0.017	0.139
-686.324	149.079	0.175	-0.240
-685.310	62.888	-0.275	0.279
-684.295	-178.890	-0.569	0.013
-683.281	-168.578	-0.049	0.002
-682.266	-77.838	0.366	-0.128
-681.251	-121.181	0.140	-0.024
-680.237	-14.507	-0.074	-0.048
-679.222	241.046	-0.140	0.236
-678.208	-200.000	-0.044	-0.217
-677.193	11.109	-0.130	-0.101
-676.178	-168.791	-0.136	-0.005
-675.164	15.789	-0.176	0.140
-674.149	21.639	-0.104	0.086
-673.135	9.371	0.297	0.228
-672.120	-200.000	0.000	0.009
-671.105	-200.000	-0.010	0.386
-670.091	-200.000	0.051	0.262
-669.076	-200.000	0.119	-0.000
-668.062	59.377	0.097	-0.097
-667.047	317.794	-0.092	-0.176
-666.032	-54.108	0.093	0.043
-665.018	-108.738	-0.535	0.116
-664.003	131.415	-0.101	-0.132
-662.989	-10.739	0.026	0.018
-661.974	800.000	-0.071	-0.257
-660.959	2.143	-0.228	-0.167
-659.945	340.435	-0.055	0.109
-658.930	-78.568	-0.084	0.029
-657.916	800.000	-0.020	0.075
-656.901	-158.082	0.431	0.026
-655.886	-118.584	-0.300	0.054
-654.872	38.900	0.062	-0.056
-653.857	20.664	-0.322	-0.264
-652.843	-85.534	-0.164	0.052
-651.828	-200.000	-0.031	0.212
-650.814	-10.588	-0.202	0.135
-649.799	-65.929	0.143	0.058
-648.784	-200.000	-0.034	-0.192
-647.770	-87.838	0.338	0.103
-646.755	236.386	0.169	0.283
-645.741	-200.000	0.017	-0.244
-644.726	22.924	0.223	-0.185
-643.711	-200.000	-0.013	-0.269
-642.697	-79.895	0.106	-0.036
-641.682	-16.700	-0.226	0.145
-640.668	14.893	-0.112	0.089
-639.653	17.390	-0.230	-0.185
-638.638	191.542	0.037	-0.056
-637.624	-200.000	-0.034	-0.194
-636.609	348.891	-0.146	-0.291
-635.595	-127.858	0.189	0.027
-634.580	800.000	0.095	0.402
-633.565	800.000	-0.047	-0.141
-632.551	800.000	0.028	-0.081
-631.536	-166.857	-0.254	0.011
-630.522	173.258	-0.093	0.135
-629.507	-110.597	-0.164	-0.034
-628.492	218.094	-0.135	0.218
-627.478	29.042	0.044	0.038
-626.463	-200.000	-0.006	-0.150
-625.449	-28.223	-0.085	-0.050
-624.434	-107.550	-0.228	0.051
-623.419	-75.667	-0.121	-0.043
-622.405	70.824	-0.197	-0.206
-621.390	-134.631	0.321	0.039
-620.376	386.307	-0.047	-0.098
-619.361	39.097	-0.150	0.136
-618.346	-200.000	-0.010	-0.108
-617.332	-18.842	0.098	-0.062
-616.317	-163.635	0.111	0.005
-615.303	-15.109	0.258	0.167
-614.288	-95.445	-0.167	-0.045
-613.273	-200.000	-0.026	-0.256
-612.259	800.000	0.066	-0.282
-611.244	800.000	0.053	-0.169
-610.230	-21.575	0.035	-0.021
-609.215	109.676	-0.250	-0.303
-608.201	800.000	-0.040	-0.133
-607.186	39.176	-0.130	-0.118
-606.171	-200.000	-0.001	-0.220
-605.157	-23.784	-0.167	-0.101
-604.142	-42.286	0.107	0.055
-603.128	-29.162	0.027	-0.016
-602.113	61.939	0.158	0.160
-601.098	-200.000	-0.015	-0.104
-600.084	-158.079	0.288	-0.017
-599.069	218.637	0.058	0.093
-598.055	800.000	0.053	-0.211
-597.040	-54.226	0.433	0.199
-596.025	-144.625	0.181	0.017
-595.011	24.695	0.228	0.191
-593.996	-173.803	-0.343	-0.010
-592.982	267.434	0.041	0.072
-591.967	-11.526	-0.191	-0.127
-590.952	69.480	0.170	-0.177
-589.938	-20.064	0.105	-0.065
-588.923	119.076	0.061	-0.076
-587.909	133.663	0.336	0.439
-586.894	8.090	-0.176	0.133
-585.879	132.222	0.172	0.224
-584.865	446.453	-0.106	-0.235
-583.850	276.469	0.011	0.020
-582.836	-110.414	0.310	0.065
-581.821	800.000	0.068	-0.286
-580.806	166.078	0.179	0.256
-579.792	-46.676	0.120	0.059
-578.777	-145.482	-0.196	-0.018
-577.763	362.723	0.055	-0.110
-576.748	479.529	0.105	0.241
-575.733	800.000	0.134	-0.423
-574.719	-149.800	-0.542	0.043
-573.704	-138.559	0.202	0.022
-572.690	-53.455	-0.020	-0.009
-571.675	-186.349	-0.303	0.004
-570.661	-131.140	0.150	-0.020
-569.646	800.000	0.021	-0.086
-568.631	60.357	0.133	-0.133
-567.617	337.269	-0.051	-0.100
-566.602	29.770	0.087	-0.075
-565.588	63.237	-0.169	0.171
-564.573	-200.000	0.014	0.127
-563.558	-73.754	-0.254	-0.093
-562.544	662.556	0.134	0.348
-561.529	-200.000	0.009	-0.056
-560.515	-200.000	-0.055	0.264
-559.500	-164.790	-0.035	0.002
-558.485	348.990	0.116	0.232
-557.471	-31.222	-0.147	0.084
-556.456	-82.649	-0.482	0.157
-555.442	-60.151	0.071	0.031
-554.427	800.000	0.047	0.171
-553.412	38.980	-0.216	-0.195
-552.398	-105.274	0.035	0.008
-551.383	-148.122	-0.120	0.010
-550.369	-46.208	-0.133	0.066
-549.354	-130.242	0.284	-0.039
-548.339	-117.980	-0.171	0.031
-547.325	398.853	0.084	-0.177
-546.310	196.706	0.064	-0.098
-545.296	163.749	0.142	-0.201
-544.281	800.000	-0.104	-0.312
-543.266	263.651	0.177	-0.309
-542.252	-13.617	0.286	0.187
-541.237	-200.000	0.006	0.048
-540.223	-146.442	-0.395	0.035
-539.208	52.674	0.155	0.149
-538.193	-200.000	0.016	0.114
-537.179	-112.736	-0.186	-0.037
-536.164	205.870	-0.186	-0.291
-535.150	112.087	-0.255	0.310
-534.135	211.018	0.037	-0.059
-533.121	42.247	-0.157	0.144
-532.106	-200.000	0.038	0.185
-531.091	-151.934	-0.156	-0.011
-530.077	-108.217	-0.374	-0.081
-529.062	-119.530	0.214	-0.037
-528.048	-128.993	-0.281	-0.040
-527.033	-75.379	0.242	0.087
-526.018	76.265	-0.349	-0.372
-525.004	110.573	0.096	-0.116
-523.989	-28.962	0.270	-0.156
-522.975	-76.718	-0.260	-0.092
-521.960	510.319	-0.124	-0.290
-520.945	800.000	0.072	-0.295
-519.931	-24.548	-0.109	0.065
-518.916	536.635	-0.071	0.171
-517.902	39.051	0.005	-0.004
-516.887	110.596	0.177	-0.214
-515.872	-38.708	-0.413	-0.219
-514.858	53.493	-0.013	0.013
-513.843	-74.184	0.180	-0.065
-512.829	9.086	0.181	0.138
-511.814	-17.363	-0.060	0.038
-510.799	-7.628	0.269	0.183
-509.785	-51.108	0.444	0.210
-508.770	-200.000	0.000	0.416
-507.756	132.009	-0.123	-0.160
-506.741	-41.892	-0.170	0.088
-505.726	-13.247	-0.228	-0.149
-504.712	396.386	0.048	0.102
-503.697	12.941	0.220	0.172
-502.683	-181.801	-0.195	-0.004
-501.668	-200.000	-0.013	0.245
-500.653	-98.031	-0.185	-0.048
-499.639	-126.053	-0.109	0.016
-498.624	55.505	0.153	0.149
-497.610	-90.597	-0.051	-0.015
-496.595	-166.222	-0.111	0.005
-495.581	348.995	-0.040	-0.080
-494.566	769.652	-0.064	0.174
-493.551	-68.553	-0.235	0.091
-492.537	-27.423	0.289	-0.169
-491.522	-200.000	0.312	-0.000
-490.508	-200.000	-0.029	-0.157
-489.493	-200.000	0.060	-0.312
-488.478	40.157	-0.229	0.207
-487.464	800.000	0.019	0.080
-486.449	152.634	0.045	-0.062
-485.435	800.000	-0.083	-0.355
-484.420	21.567	-0.204	0.167
-483.405	-200.000	-0.004	-0.267
-482.391	-171.394	-0.253	-0.009
-481.376	-200.000	0.082	0.466
-480.362	-147.731	0.365	-0.031
-479.347	-27.452	-0.024	0.014
-478.332	-200.000	-0.039	-0.218
-477.318	162.551	-0.135	-0.191
-476.303	687.717	0.091	0.239
-475.289	553.312	0.054	0.131
-474.274	556.417	-0.039	0.094
-473.259	-62.543	-0.262	-0.109
-472.245	-200.000	0.027	-0.297
-471.230	793.156	0.021	0.057
-470.216	35.575	0.235	0.207
-469.201	70.746	-0.140	0.146
-468.186	-7.067	0.287	0.196
-467.172	800.000	-0.124	0.483
-466.157	-97.518	-0.381	0.099
-465.143	800.000	-0.082	-0.236
-464.128	12.843	-0.094	-0.073
-463.113	414.741	-0.095	0.204
-462.099	-69.768	-0.166	0.064
-461.084	-143.662	-0.282	-0.027
-460.070	800.000	-0.012	0.036
-459.055	-132.889	0.064	0.008
-458.040	154.473	-0.071	-0.098
-457.026	800.000	-0.039	-0.137
-456.011	-58.986	-0.181	-0.079
-454.997	-200.000	0.007	0.227
-453.982	800.000	0.092	0.395
-452.968	17.571	-0.200	0.159
-451.953	-200.000	-0.004	0.091
-450.938	-162.583	0.462	0.023
-449.924	-118.721	-0.088	-0.016
-448.909	46.147	0.068	0.064
-447.895	-101.948	0.144	-0.035
-446.880	67.438	0.105	-0.108
-445.865	87.095	-0.065	0.072
-444.851	-200.000	-0.026	-0.135
-443.836	-124.565	-0.375	-0.059
-442.822	263.631	-0.051	0.088
-441.807	197.405	-0.200	-0.307
-440.792	155.796	0.110	0.152
-439.778	270.480	-0.096	0.169
-438.763	-102.298	0.070	0.017
-437.749	56.837	-0.070	-0.069
-436.734	-29.277	0.107	-0.061
-435.719	800.000	0.107	0.424
-434.705	-200.000	0.025	0.258
-433.690	-200.000	-0.002	0.185
-432.676	213.587	0.096	0.153
-431.661	359.556	-0.073	-0.147
-430.646	17.788	0.120	0.096
-429.632	-120.182	0.233	0.040
-428.617	137.630	-0.236	0.310
-427.603	800.000	0.034	0.142
-426.588	-78.467	-0.238	-0.082
-425.573	529.786	0.199	0.471
-424.559	85.362	0.271	-0.299
-423.544	-32.895	-0.116	-0.065
-422.530	159.001	-0.089	-0.124
-421.515	457.340	0.155	0.345
-420.500	107.029	-0.131	0.156
-419.486	-33.668	-0.089	0.050
-418.471	-3.070	0.277	-0.194
-417.457	-45.471	-0.219	0.109
-416.442	65.289	-0.072	-0.073
-415.428	-82.274	-0.042	0.014
-414.413	-64.615	-0.311	-0.127
-413.398	-200.000	-0.050	-0.373
-412.384	34.869	-0.154	0.135
-411.369	-70.467	-0.145	0.055
-410.355	95.785	-0.160	-0.183
-409.340	-32.191	0.116	0.065
-408.325	-200.000	0.046	0.279
-407.311	800.000	0.071	-0.252
-406.296	190.826	-0.106	-0.160
-405.282	-200.000	0.010	0.438
-404.267	92.029	0.219	0.247
-403.252	-81.946	0.147	-0.048
-402.238	11.064	0.036	0.027
-401.223	800.000	0.095	-0.296
-400.209	-200.000	-0.081	-0.456
-399.194	800.000	-0.152	-0.551
-398.179	-127.338	-0.211	0.031
-397.165	-186.566	0.212	-0.003
-396.150	-73.617	-0.403	-0.147
-395.136	-22.876	-0.395	-0.239
-394.121	-22.009	0.172	-0.105
-393.106	-13.782	-0.235	-0.153
-392.092	50.721	0.148	0.141
-391.077	-200.000	-0.008	-0.322
-390.063	-200.000	0.001	-0.323
-389.048	-74.390	0.321	0.116
-388.033	-200.000	0.010	-0.054
-387.019	257.105	0.081	0.140
-386.004	204.045	0.038	0.059
-384.990	166.113	-0.239	0.339
-383.975	-148.774	0.307	-0.025
-382.960	-60.863	-0.083	-0.035
-381.946	-174.804	-0.015	-0.000
-380.931	-200.000	0.056	0.000
-379.917	-89.419	-0.330	0.097
-378.902	40.546	0.107	0.097
-377.888	313.273	-0.080	0.150
-376.873	-200.000	0.020	-0.206
-375.858	141.311	-0.179	-0.238
-374.844	135.825	-0.121	-0.158
-373.829	45.941	-0.024	0.022
-372.815	-153.827	-0.525	0.036
-371.800	136.042	0.158	-0.206
-370.785	-81.958	-0.174	-0.057
-369.771	40.345	-0.142	0.128
-368.756	92.475	0.222	-0.250
-367.742	-150.051	0.129	-0.010
-366.727	470.056	0.170	-0.383
-365.712	650.537	-0.059	0.152
-364.698	-200.000	-0.039	-0.262
-363.683	391.626	-0.161	-0.335
-362.669	362.485	-0.043	-0.087
-361.654	-51.830	-0.310	-0.144
-360.639	800.000	-0.129	-0.421
-359.625	95.181	0.176	-0.200
-358.610	-90.578	-0.119	0.035
-357.596	116.163	0.045	0.056
-356.581	481.925	0.034	0.077
-355.566	132.728	-0.308	0.398
-354.552	-184.337	0.259	0.004
-353.537	228.471	-0.095	-0.155
-352.523	15.883	-0.265	-0.209
-351.508	128.822	0.100	0.128
-350.493	-44.211	-0.033	-0.017
-349.479	800.000	-0.057	0.215
-348.464	-63.492	-0.131	0.054
-347.450	-175.137	0.086	0.002
-346.435	-134.691	-0.070	-0.009
-345.420	-200.000	-0.020	0.098
-344.406	94.754	-0.128	-0.145
-343.391	-52.691	0.126	-0.058
-342.377	-33.564	0.222	-0.122
-341.362	800.000	-0.053	0.186
-340.348	576.218	-0.065	0.159
-339.333	-200.000	0.004	-0.082
-338.318	-28.671	0.219	0.126
-337.304	-64.549	-0.091	0.037
-336.289	194.793	0.161	0.244
-335.275	176.052	0.263	0.382
-334.260	-200.000	0.034	0.290
-333.245	800.000	0.063	-0.212
-332.231	41.983	0.209	-0.190
-331.216	-200.000	-0.031	0.201
-330.202	-115.097	0.255	-0.048
-329.187	-162.444	-0.120	0.006
-328.172	800.000	-0.029	0.123
-327.158	-30.811	-0.287	0.162
-326.143	-88.128	0.090	0.027
-325.129	11.711	0.156	-0.119
-324.114	-200.000	-0.063	0.351
-323.099	-43.848	-0.301	0.151
-322.085	800.000	0.117	0.339
-321.070	-200.000	-0.067	0.358
-320.056	499.759	-0.047	0.108
-319.041	-110.050	0.257	-0.054
-318.026	-38.448	0.201	-0.106
-317.012	800.000	-0.033	0.094
-315.997	-128.583	0.035	0.005
-314.983	254.648	0.238	-0.407
-313.968	18.133	0.167	-0.133
-312.953	50.648	-0.237	0.224
-311.939	-107.794	-0.456	-0.099
-310.924	-130.797	0.171	0.023
-309.910	70.577	-0.096	-0.099
-308.895	-167.482	0.145	-0.006
-307.880	800.000	0.048	-0.181
-306.866	-200.000	0.047	-0.236
-305.851	-27.037	0.234	-0.137
-304.837	648.207	-0.055	0.140
-303.822	439.413	0.061	-0.132
-302.807	-200.000	0.006	-0.035
-301.793	-146.956	-0.074	0.006
-300.778	-200.000	0.008	0.424
-299.764	-82.344	0.047	0.015
-298.749	-43.696	0.176	-0.088
-297.735	-200.000	0.012	0.279
-296.720	220.436	0.086	-0.138
-295.705	-29.558	-0.184	-0.105
-294.691	-134.995	0.379	0.046
-293.676	-200.000	-0.049	-0.306
-292.662	-88.243	0.013	-0.004
-291.647	-200.000	0.049	-0.314
-290.632	-21.932	0.146	-0.088
-289.618	-75.603	-0.225	0.080
-288.603	459.357	-0.082	-0.182
-287.589	800.000	-0.108	0.462
-286.574	-200.000	-0.018	-0.299
-285.559	-55.025	0.291	0.131
-284.545	800.000	-0.067	-0.240
-283.530	-200.000	-0.109	-0.555
-282.516	800.000	0.183	-0.580
-281.501	-8.756	0.309	-0.207
-280.486	-200.000	-0.014	0.101
-279.472	800.000	0.027	0.107
-278.457	800.000	0.065	0.191
-277.443	129.264	-0.257	-0.328
-276.428	-200.000	0.033	-0.149
-275.413	-96.633	0.358	-0.094
-274.399	-85.431	-0.190	-0.059
-273.384	800.000	-0.026	0.106
-272.370	-200.000	0.031	0.187
-271.355	22.679	0.239	0.195
-270.340	-108.675	0.339	0.073
-269.326	-63.072	-0.106	0.043
-268.311	14.313	0.074	0.057
-267.297	-200.000	-0.006	0.188
-266.282	-151.383	0.414	0.031
-265.267	9.868	0.205	-0.155
-264.253	800.000	0.056	0.191
-263.238	-200.000	-0.009	-0.280
-262.224	160.125	0.200	0.278
-261.209	98.613	0.192	0.220
-260.195	-28.847	-0.317	0.182
-259.180	173.040	-0.205	0.294
-258.165	-93.478	-0.212	0.058
-257.151	800.000	-0.031	-0.098
-256.136	9.755	0.194	-0.146
-255.122	-48.735	-0.025	-0.012
-254.107	-23.165	-0.069	-0.041
-253.092	-200.000	0.022	0.239
-252.078	443.491	-0.112	-0.246
-251.063	-200.000	0.001	0.197
-250.049	20.535	-0.272	0.220
-249.034	-49.205	-0.138	-0.066
-248.019	158.473	0.298	-0.411
-247.005	-119.980	-0.141	-0.024
-245.990	-87.174	0.020	-0.006
-244.976	47.428	0.071	-0.066
-243.961	-68.208	0.430	-0.167
-242.946	403.563	0.082	0.171
-241.932	200.682	0.090	0.138
-240.917	408.263	0.067	0.141
-239.903	-30.626	0.386	-0.218
-238.888	-74.993	-0.346	-0.123
-237.873	-200.000	-0.045	0.348
-236.859	300.023	0.071	0.131
-235.844	-67.843	-0.065	0.025
-234.830	-156.316	0.140	0.009
-233.815	-5.830	0.167	-0.114
-232.800	-8.181	0.117	0.078
-231.786	656.768	0.037	-0.094
-230.771	-49.744	-0.193	-0.091
-229.757	-133.414	0.126	-0.016
-228.742	-200.000	0.027	-0.319
-227.727	800.000	0.023	-0.095
-226.713	-133.663	0.356	0.044
-225.698	293.583	0.060	-0.109
-224.684	-200.000	-0.027	0.338
-223.669	-49.598	-0.073	0.035
-222.655	127.787	0.147	0.186
-221.640	90.825	-0.159	-0.177
-220.625	32.186	0.047	0.040
-219.611	145.976	0.284	0.380
-218.596	122.490	-0.064	-0.080
-217.582	-200.000	0.006	0.340
-216.567	733.848	-0.072	0.192
-215.552	-200.000	0.029	-0.244
-214.538	671.142	-0.041	0.106
-213.523	37.663	0.078	0.069
-212.509	800.000	0.053	0.186
-211.494	-149.910	0.174	-0.013
-210.479	-40.784	0.292	0.150
-209.465	122.863	0.048	-0.059
-208.450	-79.841	-0.083	0.028
-207.436	22.316	0.272	-0.221
-206.421	50.584	-0.251	0.236
-205.406	-98.181	-0.142	-0.036
-204.392	114.430	-0.083	0.101
-203.377	204.043	0.085	0.131
-202.363	-115.700	-0.278	0.052
-201.348	117.660	0.038	-0.046
-200.333	-200.000	0.036	0.192
-199.319	61.809	-0.108	0.107
-198.304	208.774	-0.022	0.035
-197.290	-41.836	0.123	-0.063
-196.275	68.812	-0.201	-0.205
-195.260	274.465	0.121	0.213
-194.246	-200.000	0.002	-0.213
-193.231	63.628	-0.169	0.169
-192.217	42.648	0.118	0.107
-191.202	-200.000	0.001	-0.426
-190.187	-24.103	0.111	-0.066
-189.173	800.000	-0.040	0.122
-188.158	63.104	0.165	0.164
-187.144	13.647	-0.171	-0.132
-186.129	62.835	0.126	0.125
-185.114	-76.015	0.226	-0.079
-184.100	15.603	0.438	-0.342
-183.085	800.000	-0.075	0.205
-182.071	-140.476	-0.199	0.021
-181.056	800.000	0.056	0.227
-180.042	800.000	-0.027	0.096
-179.027	-4.351	-0.098	-0.067
-178.012	343.883	0.074	0.144
-176.998	43.205	-0.219	0.199
-175.983	-39.874	-0.152	-0.079
-174.969	800.000	0.095	-0.272
-173.954	-200.000	0.000	-0.139
-172.939	-24.819	0.046	0.027
-171.925	18.261	-0.171	0.135
-170.910	183.418	0.060	-0.088
-169.896	-9.496	0.214	0.142
-168.881	310.468	0.041	0.075
-167.866	487.406	0.023	-0.052
-166.852	800.000	-0.028	-0.102
-165.837	-72.467	-0.392	-0.144
-164.823	14.289	-0.121	0.094
-163.808	-200.000	0.002	-0.284
-162.793	-5.542	0.151	0.103
-161.779	-58.082	0.080	0.035
-160.764	-76.887	-0.459	-0.159
-159.750	457.665	0.123	-0.272
-158.735	108.917	0.035	-0.042
-157.720	-9.925	0.085	-0.056
-156.706	166.990	0.182	0.257
-155.691	-197.888	-0.057	-0.000
-154.677	28.695	0.142	0.119
-153.662	421.204	-0.093	0.199
-152.647	536.641	-0.046	0.108
-151.633	-200.000	-0.059	0.310
-150.618	-142.346	0.229	-0.022
-149.604	-160.558	0.132	-0.007
-148.589	144.799	-0.140	0.186
-147.574	-200.000	0.021	0.282
-146.560	-119.120	-0.284	0.049
-145.545	-200.000	0.113	-0.000
-144.531	-78.347	0.222	0.075
-143.516	-41.939	0.056	-0.028
-142.502	-91.398	-0.101	0.029
-141.487	-93.614	0.247	0.068
-140.472	-84.635	-0.340	0.106
-139.458	-69.759	-0.105	0.040
-138.443	800.000	-0.073	0.298
-137.429	800.000	-0.123	0.402
-136.414	212.366	0.040	0.063
-135.399	-130.006	0.090	0.012
-134.385	-156.498	0.065	0.004
-133.370	-93.525	-0.149	-0.041
-132.356	206.760	-0.162	0.250
-131.341	113.869	0.126	-0.152
-130.326	-78.337	-0.122	0.042
-129.312	-124.486	-0.098	-0.015
-128.297	382.459	0.106	0.216
-127.283	-200.000	0.018	0.106
-126.268	70.705	0.061	-0.062
-125.253	-200.000	-0.062	-0.324
-124.239	-128.287	0.109	-0.015
-123.224	18.203	0.083	-0.066
-122.210	800.000	-0.051	0.198
-121.195	-200.000	0.007	-0.035
