DTS Sentinel unit serial number:	SN413079Multiplexer serial number:	ORYXHardware model number:	OX4-SRSoftware version number:	ORYX F/W v4.00 Oryx Data Collector v3.7.2.0data status	okinstallation	princeton_trtdifferential loss correction	single-endedforward channel	channel 4reverse channel	N/Adate	2019/09/11time	22:07:10forward acquisition time	60.00reverse acquisition time	0.00gamma	496.2192k internal	0.2306k external	0.2306temperature offset calibration	1.0074default loss term (dB/km)	0.3790temperature slope calibration	1.0000multiplexer offset coefficient	1.0000multiplexer slope coefficient	1.0000fibre end	0.00T internal ref (°C)	35.44T ext. ref 1 (°C)	1.76T ext. ref 2 (°C)	29.41length (m)	temperature (°C)	Stokes	anti-Stokes-747.200	203.491	-0.141	0.222
-746.185	108.357	-0.067	0.082
-745.171	-166.511	-0.364	0.015
-744.156	293.942	0.047	-0.088
-743.142	-6.681	-0.090	0.062
-742.127	489.637	0.032	-0.074
-741.112	-29.826	0.200	-0.116
-740.098	56.398	0.056	0.055
-739.083	-89.097	-0.082	-0.025
-738.069	572.464	-0.114	0.282
-737.054	210.293	0.082	-0.131
-736.039	-29.285	0.110	-0.064
-735.025	33.899	0.203	-0.179
-734.010	274.467	-0.057	-0.103
-732.996	203.894	-0.139	-0.219
-731.981	-187.390	-0.363	0.005
-730.966	135.467	-0.046	-0.061
-729.952	112.918	-0.104	0.128
-728.937	-20.864	-0.205	-0.128
-727.923	-33.123	-0.236	-0.133
-726.908	38.758	0.239	0.217
-725.894	336.481	0.255	-0.504
-724.879	800.000	0.024	-0.087
-723.864	378.444	-0.089	0.185
-722.850	-200.000	0.011	0.199
-721.835	800.000	0.034	-0.118
-720.821	117.514	0.060	0.075
-719.806	115.905	0.041	0.050
-718.791	261.833	-0.127	0.224
-717.777	-166.032	-0.317	0.014
-716.762	42.199	-0.162	-0.150
-715.748	-200.000	-0.012	0.086
-714.733	124.888	0.104	-0.134
-713.718	800.000	0.059	-0.204
-712.704	24.510	-0.140	-0.118
-711.689	-200.000	0.033	-0.381
-710.675	310.835	-0.108	-0.206
-709.660	233.947	-0.197	-0.329
-708.645	800.000	0.121	-0.470
-707.631	101.906	-0.206	0.245
-706.616	-4.162	-0.339	0.238
-705.602	123.539	0.045	-0.057
-704.587	4.578	-0.178	0.133
-703.572	79.382	0.181	0.197
-702.558	645.193	-0.038	-0.097
-701.543	375.000	0.093	-0.194
-700.529	-53.303	-0.127	0.059
-699.514	-200.000	-0.037	0.173
-698.499	-94.671	0.246	0.068
-697.485	244.327	0.059	0.101
-696.470	-126.290	-0.198	0.030
-695.456	-75.597	-0.140	0.051
-694.441	-153.723	-0.345	-0.024
-693.426	-85.719	-0.354	0.112
-692.412	-108.910	-0.108	0.023
-691.397	-200.000	-0.021	0.120
-690.383	-200.000	0.025	0.346
-689.368	-84.545	-0.276	0.088
-688.354	-37.659	-0.210	-0.113
-687.339	230.184	-0.137	0.228
-686.324	-168.571	0.465	0.018
-685.310	-100.813	-0.028	0.007
-684.295	336.512	0.052	0.103
-683.281	-69.174	-0.199	-0.078
-682.266	-77.285	-0.128	-0.045
-681.251	-57.790	-0.524	0.233
-680.237	597.805	-0.158	0.397
-679.222	-200.000	-0.013	0.086
-678.208	62.868	-0.009	-0.009
-677.193	-160.501	0.367	-0.020
-676.178	-55.275	0.289	-0.132
-675.164	-24.785	0.154	-0.093
-674.149	42.697	-0.138	-0.128
-673.135	295.072	-0.126	-0.234
-672.120	14.900	-0.219	0.174
-671.105	-200.000	0.023	0.243
-670.091	-12.464	-0.154	0.102
-669.076	65.136	-0.237	-0.243
-668.062	184.141	-0.134	0.200
-667.047	102.479	-0.297	0.352
-666.032	63.877	-0.167	-0.171
-665.018	-27.597	-0.114	0.067
-664.003	-69.434	0.136	0.053
-662.989	-200.000	-0.008	-0.066
-661.974	-48.708	-0.220	-0.107
-660.959	42.825	0.233	-0.215
-659.945	-64.464	-0.163	-0.067
-658.930	-15.433	-0.116	-0.075
-657.916	632.587	-0.089	-0.230
-656.901	129.175	0.069	-0.089
-655.886	-109.848	-0.198	0.042
-654.872	18.567	-0.137	-0.111
-653.857	800.000	-0.036	0.106
-652.843	-24.037	-0.212	0.128
-651.828	800.000	-0.064	0.213
-650.814	283.329	0.173	-0.315
-649.799	-110.800	0.239	-0.050
-648.784	51.744	-0.152	0.147
-647.770	22.843	0.122	-0.102
-646.755	-119.270	-0.350	0.062
-645.741	-29.315	-0.147	0.085
-644.726	482.097	0.080	-0.184
-643.711	129.387	0.038	0.050
-642.697	146.425	0.322	0.438
-641.682	691.438	0.120	0.317
-640.668	-50.147	0.123	0.059
-639.653	167.250	-0.202	-0.291
-638.638	88.261	-0.062	0.070
-637.624	800.000	0.049	0.176
-636.609	482.571	-0.140	-0.322
-635.595	800.000	0.044	0.134
-634.580	-200.000	0.003	0.437
-633.565	4.034	0.267	0.198
-632.551	-150.152	0.380	0.030
-631.536	45.676	-0.081	-0.076
-630.522	-122.320	0.167	-0.028
-629.507	-64.824	-0.217	-0.089
-628.492	448.741	-0.077	-0.173
-627.478	98.288	-0.469	0.547
-626.463	195.303	0.080	-0.124
-625.449	-63.786	0.453	0.188
-624.434	-200.000	-0.035	0.213
-623.419	-77.676	0.192	-0.067
-622.405	133.425	0.093	-0.122
-621.390	106.853	-0.089	-0.107
-620.376	165.851	-0.044	0.062
-619.361	-74.065	0.221	0.081
-618.346	69.528	0.351	-0.366
-617.332	624.277	0.063	0.161
-616.317	-72.428	-0.221	0.083
-615.303	31.867	-0.090	-0.079
-614.288	62.296	0.226	0.228
-613.273	64.200	-0.134	-0.136
-612.259	-158.584	-0.439	0.026
-611.244	-71.555	-0.099	-0.037
-610.230	185.837	-0.093	0.139
-609.215	-163.206	-0.294	0.014
-608.201	84.647	-0.145	-0.160
-607.186	141.793	0.082	0.110
-606.171	-18.580	0.137	0.086
-605.157	-200.000	0.068	0.322
-604.142	69.572	-0.394	-0.411
-603.128	-200.000	0.039	0.284
-602.113	361.573	0.021	-0.042
-601.098	61.607	-0.149	0.150
-600.084	-200.000	-0.002	-0.033
-599.069	20.881	0.229	-0.188
-598.055	177.880	0.177	0.260
-597.040	800.000	-0.139	-0.388
-596.025	67.016	0.222	-0.228
-595.011	300.771	-0.059	0.110
-593.996	572.145	0.111	-0.272
-592.982	137.735	0.027	-0.035
-591.967	-73.837	-0.190	0.070
-590.952	-87.123	-0.261	-0.080
-589.938	152.730	0.200	-0.276
-588.923	-200.000	-0.005	0.221
-587.909	-153.698	-0.265	0.018
-586.894	-20.669	-0.076	-0.047
-585.879	106.262	-0.016	-0.019
-584.865	216.623	0.127	0.204
-583.850	800.000	-0.129	-0.465
-582.836	639.621	-0.092	-0.235
-581.821	-125.432	-0.117	0.018
-580.806	51.511	-0.124	-0.120
-579.792	800.000	0.109	0.352
-578.777	44.526	-0.383	-0.356
-577.763	-200.000	-0.004	0.056
-576.748	421.010	0.114	0.248
-575.733	439.522	-0.089	0.196
-574.719	235.428	0.146	0.243
-573.704	796.685	0.134	0.373
-572.690	97.611	-0.148	-0.172
-571.675	-40.319	0.166	0.087
-570.661	-200.000	0.041	-0.192
-569.646	-200.000	0.012	-0.227
-568.631	-200.000	0.077	-0.393
-567.617	-16.287	-0.303	-0.195
-566.602	-200.000	-0.036	-0.245
-565.588	331.300	0.128	-0.249
-564.573	-81.711	0.336	0.111
-563.558	105.184	0.141	0.168
-562.544	800.000	-0.130	0.397
-561.529	800.000	-0.072	0.267
-560.515	-200.000	-0.074	0.350
-559.500	800.000	-0.031	-0.102
-558.485	-121.484	0.323	0.054
-557.471	203.670	-0.115	-0.180
-556.456	-73.627	0.117	-0.043
-555.442	144.589	-0.158	-0.214
-554.427	-75.818	-0.331	0.118
-553.412	40.368	-0.078	-0.071
-552.398	-58.802	-0.199	-0.087
-551.383	89.400	0.088	0.099
-550.369	74.102	0.100	-0.106
-549.354	800.000	-0.015	-0.045
-548.339	800.000	-0.046	0.189
-547.325	-34.348	-0.102	-0.056
-546.310	-119.817	0.325	0.057
-545.296	800.000	0.098	-0.288
-544.281	-21.869	-0.335	-0.206
-543.266	-86.618	-0.228	-0.070
-542.252	152.320	-0.131	-0.181
-541.237	-142.798	0.231	-0.023
-540.223	-100.227	-0.205	-0.052
-539.208	-129.067	0.188	-0.027
-538.193	-34.390	-0.056	0.031
-537.179	-13.219	-0.145	-0.095
-536.164	-148.453	0.044	0.004
-535.150	800.000	-0.040	-0.171
-534.135	30.829	0.225	0.194
-533.121	323.787	-0.030	-0.057
-532.106	80.242	-0.131	0.142
-531.091	-67.355	-0.113	-0.045
-530.077	24.644	0.086	0.072
-529.062	221.328	0.021	-0.034
-528.048	800.000	0.066	0.225
-527.033	-106.810	0.102	-0.023
-526.018	59.722	-0.195	-0.195
-525.004	-200.000	-0.017	0.142
-523.989	-200.000	-0.005	0.331
-522.975	-179.598	-0.213	0.005
-521.960	95.029	-0.119	-0.137
-520.945	-16.337	-0.087	-0.056
-519.931	-200.000	-0.117	-0.544
-518.916	156.591	0.171	-0.239
-517.902	126.268	-0.127	-0.163
-516.887	4.432	-0.059	-0.044
-515.872	245.120	0.152	0.258
-514.858	64.515	0.125	-0.127
-513.843	-194.262	0.137	-0.001
-512.829	-95.491	-0.090	0.024
-511.814	-49.029	-0.121	-0.059
-510.799	-200.000	-0.009	0.102
-509.785	181.394	0.136	-0.202
-508.770	-80.486	0.258	0.087
-507.756	46.709	-0.075	0.070
-506.741	-200.000	-0.011	0.259
-505.726	545.071	-0.048	-0.117
-504.712	81.044	-0.161	0.175
-503.697	-143.863	0.294	0.028
-502.683	380.707	0.114	-0.236
-501.668	15.330	0.270	-0.214
-500.653	496.052	0.122	0.282
-499.639	-56.665	0.266	-0.119
-498.624	800.000	-0.111	-0.413
-497.610	302.789	-0.090	0.168
-496.595	68.070	-0.167	-0.173
-495.581	8.649	0.023	0.018
-494.566	-0.972	0.369	0.263
-493.551	55.441	0.041	0.040
-492.537	79.885	0.091	0.099
-491.522	-89.471	0.059	-0.018
-490.508	-139.551	-0.103	-0.011
-489.493	-90.268	-0.148	-0.043
-488.478	-96.958	0.404	-0.107
-487.464	-147.060	-0.339	0.029
-486.449	800.000	-0.125	-0.393
-485.435	-168.226	-0.215	-0.008
-484.420	800.000	0.051	-0.214
-483.405	-14.237	-0.196	-0.127
-482.391	800.000	-0.022	-0.079
-481.376	-11.658	0.343	-0.227
-480.362	28.561	0.127	0.108
-479.347	-200.000	-0.045	-0.269
-478.332	-200.000	0.024	0.161
-477.318	185.075	0.083	-0.123
-476.303	-96.097	0.260	-0.070
-475.289	-52.169	0.203	-0.095
-474.274	-176.628	-0.181	-0.005
-473.259	-184.657	0.344	-0.006
-472.245	-200.000	0.014	0.124
-471.230	-133.640	-0.355	0.045
-470.216	-163.855	0.351	0.017
-469.201	-200.000	0.018	-0.273
-468.186	767.633	-0.074	-0.203
-467.172	-200.000	0.009	-0.047
-466.157	800.000	0.084	0.281
-465.143	346.664	0.069	0.137
-464.128	-200.000	-0.039	0.271
-463.113	-34.826	-0.050	-0.028
-462.099	493.129	-0.137	0.315
-461.084	800.000	0.034	-0.111
-460.070	740.252	-0.084	0.227
-459.055	168.277	-0.168	0.240
-458.040	181.862	-0.090	0.133
-457.026	-1.311	-0.248	-0.176
-456.011	-132.687	-0.366	-0.047
-454.997	-123.022	-0.135	0.022
-453.982	1.579	-0.246	0.178
-452.968	-104.628	-0.152	-0.035
-451.953	-26.522	0.213	0.125
-450.938	-178.118	0.184	-0.004
-449.924	99.332	0.093	0.109
-448.909	-98.550	-0.225	0.058
-447.895	-170.358	-0.313	0.011
-446.880	-114.990	0.396	-0.076
-445.865	155.906	0.293	-0.406
-444.851	156.396	-0.140	-0.194
-443.836	-200.000	0.045	-0.210
-442.822	800.000	0.087	0.250
-441.807	-88.268	-0.070	-0.021
-440.792	-65.635	0.183	0.074
-439.778	-66.752	-0.132	-0.052
-438.763	-200.000	-0.008	-0.058
-437.749	601.703	-0.046	-0.115
-436.734	-108.657	-0.353	0.076
-435.719	-200.000	-0.013	-0.194
-434.705	115.342	-0.158	0.194
-433.690	430.925	0.176	0.384
-432.676	-114.034	-0.252	-0.049
-431.661	-91.648	-0.133	0.038
-430.646	367.255	0.055	0.111
-429.632	800.000	-0.051	0.164
-428.617	-144.113	-0.198	0.019
-427.603	-51.505	-0.208	-0.098
-426.588	60.867	0.218	0.217
-425.573	-82.851	0.282	-0.092
-424.559	615.456	-0.072	-0.180
-423.544	800.000	0.065	-0.199
-422.530	-71.901	0.385	0.144
-421.515	-30.863	-0.378	0.215
-420.500	-11.383	0.227	-0.150
-419.486	290.807	0.124	-0.227
-418.471	-40.450	-0.014	0.007
-417.457	254.976	0.227	0.391
-416.442	-35.546	-0.382	0.208
-415.428	-200.000	0.018	-0.096
-414.413	-78.923	-0.230	-0.079
-413.398	11.120	-0.277	-0.213
-412.384	800.000	-0.099	-0.291
-411.369	-200.000	-0.009	0.283
-410.355	-76.112	-0.244	-0.087
-409.340	-101.349	-0.105	-0.026
-408.325	-90.557	0.068	-0.020
-407.311	153.572	-0.008	-0.010
-406.296	-128.569	0.134	-0.019
-405.282	711.190	-0.092	-0.244
-404.267	-200.000	0.024	-0.131
-403.252	-20.563	-0.026	-0.016
-402.238	800.000	0.067	0.276
-401.223	-200.000	0.010	-0.121
-400.209	-51.783	0.112	-0.052
-399.194	-79.927	-0.179	-0.060
-398.179	318.996	0.069	0.131
-397.165	115.972	-0.129	-0.158
-396.150	242.607	-0.194	0.325
-395.136	-163.272	-0.248	0.012
-394.121	193.907	0.136	-0.206
-393.106	-102.036	0.196	0.048
-392.092	178.414	0.030	-0.044
-391.077	43.715	0.113	-0.104
-390.063	-40.544	0.078	-0.041
-389.048	-77.798	0.185	0.064
-388.033	-200.000	-0.060	-0.266
-387.019	-200.000	-0.049	-0.232
-386.004	173.340	0.148	0.214
-384.990	-27.205	-0.211	-0.123
-383.975	-200.000	0.018	-0.137
-382.960	-200.000	0.013	-0.263
-381.946	-115.490	0.234	0.044
-380.931	22.534	0.181	0.149
-379.917	209.482	-0.101	0.159
-378.902	-63.347	-0.257	-0.106
-377.888	567.791	-0.028	-0.067
-376.873	-93.422	0.076	-0.021
-375.858	-200.000	0.061	0.461
-374.844	-81.570	-0.167	0.055
-373.829	4.974	0.228	-0.168
-372.815	644.518	-0.087	0.223
-371.800	185.981	0.099	0.147
-370.785	-200.000	0.008	-0.303
-369.771	45.447	0.185	0.171
-368.756	131.221	0.158	-0.203
-367.742	-36.872	-0.213	-0.114
-366.727	70.173	-0.102	-0.106
-365.712	193.219	-0.076	0.114
-364.698	300.926	0.106	-0.196
-363.683	-200.000	-0.044	-0.221
-362.669	-8.030	0.104	0.070
-361.654	-102.591	-0.080	0.019
-360.639	117.324	0.223	0.274
-359.625	-19.237	0.173	-0.108
-358.610	196.767	-0.193	0.294
-357.596	-200.000	-0.001	-0.207
-356.581	-12.611	0.107	-0.070
-355.566	-122.719	-0.154	0.025
-354.552	-200.000	0.099	-0.465
-353.537	24.508	-0.075	-0.062
-352.523	-46.603	-0.354	-0.174
-351.508	52.468	0.092	0.088
-350.493	296.952	-0.236	0.433
-349.479	-82.683	0.408	-0.132
-348.464	800.000	0.088	-0.335
-347.450	800.000	0.125	0.366
-346.435	-52.226	-0.146	-0.068
-345.420	-79.195	0.083	0.028
-344.406	-200.000	0.068	-0.325
-343.391	-32.082	-0.191	-0.107
-342.377	-128.991	-0.532	0.075
-341.362	-114.178	0.265	0.051
-340.348	191.848	-0.121	0.182
-339.333	-105.763	-0.199	-0.045
-338.318	-149.333	0.228	-0.018
-337.304	-200.000	0.047	-0.228
-336.289	247.011	-0.011	-0.019
-335.275	-80.893	-0.134	0.044
-334.260	155.970	0.069	-0.095
-333.245	197.008	0.215	0.329
-332.231	36.795	0.297	-0.263
-331.216	15.314	0.096	-0.075
-330.202	-46.165	0.336	0.166
-329.187	611.768	-0.065	-0.162
-328.172	-90.293	0.325	0.095
-327.158	800.000	-0.018	0.051
-326.143	-200.000	-0.010	0.052
-325.129	-200.000	-0.005	0.183
-324.114	-200.000	0.006	-0.060
-323.099	92.233	-0.071	-0.080
-322.085	-200.000	0.021	-0.142
-321.070	-150.210	0.200	-0.016
-320.056	512.549	-0.162	0.377
-319.041	-0.589	-0.089	0.063
-318.026	-111.925	0.347	-0.070
-317.012	-22.059	0.082	0.050
-315.997	246.505	-0.180	0.304
-314.983	6.553	0.144	-0.107
-313.968	-116.329	0.127	-0.023
-312.953	-12.764	-0.209	-0.136
-311.939	-200.000	-0.010	-0.059
-310.924	173.512	-0.046	-0.067
-309.910	-200.000	0.043	0.262
-308.895	-200.000	0.030	-0.398
-307.880	-200.000	0.082	-0.537
-306.866	800.000	-0.031	-0.089
-305.851	-200.000	-0.011	0.204
-304.837	104.592	0.111	-0.131
-303.822	-200.000	0.014	0.061
-302.807	22.567	0.028	-0.023
-301.793	800.000	0.062	0.270
-300.778	800.000	0.102	0.287
-299.764	-200.000	-0.055	0.320
-298.749	-112.206	-0.181	-0.036
-297.735	21.110	0.101	-0.082
-296.720	-6.354	-0.171	0.117
-295.705	95.170	0.019	-0.022
-294.691	-125.350	-0.025	0.004
-293.676	-57.476	0.132	0.058
-292.662	-200.000	0.012	-0.202
-291.647	-130.771	0.071	0.010
-290.632	800.000	0.028	-0.092
-289.618	-149.346	-0.448	0.036
-288.603	-200.000	0.022	-0.178
-287.589	-46.501	0.244	0.120
-286.574	-200.000	-0.026	-0.126
-285.559	76.175	-0.124	0.131
-284.545	68.527	0.043	-0.044
-283.530	555.856	0.025	-0.061
-282.516	-47.912	-0.061	-0.029
-281.501	-113.492	0.457	0.089
-280.486	-97.475	0.409	0.106
-279.472	287.873	-0.055	-0.100
-278.457	109.004	0.091	0.109
-277.443	393.112	0.089	-0.184
-276.428	158.398	0.129	0.179
-275.413	-51.562	-0.224	0.105
-274.399	-86.862	0.178	0.054
-273.384	-182.167	0.455	0.009
-272.370	140.295	0.114	-0.150
-271.355	10.919	-0.134	0.102
-270.340	-89.725	-0.232	-0.068
-269.326	146.967	-0.196	-0.263
-268.311	15.321	-0.067	-0.053
-267.297	-95.655	-0.303	0.081
-266.282	12.260	0.013	0.010
-265.267	800.000	-0.111	-0.348
-264.253	5.419	-0.145	-0.107
-263.238	258.425	0.102	0.175
-262.224	-73.551	-0.080	-0.029
-261.209	-200.000	-0.060	0.356
-260.195	156.271	-0.077	-0.105
-259.180	800.000	-0.032	0.101
-258.165	800.000	0.084	-0.336
-257.151	-12.486	0.179	-0.117
-256.136	46.366	-0.086	0.080
-255.122	151.778	0.175	0.238
-254.107	-81.098	-0.260	-0.086
-253.092	-78.445	0.159	-0.054
-252.078	-144.943	0.157	-0.014
-251.063	-141.404	-0.263	-0.027
-250.049	-43.746	0.269	-0.135
-249.034	104.606	-0.132	-0.155
-248.019	238.844	0.050	-0.084
-247.005	289.911	0.157	-0.284
-245.990	-107.322	0.250	0.055
-244.976	-200.000	0.017	0.282
-243.961	-60.587	0.050	-0.021
-242.946	-123.633	0.043	0.007
-241.932	216.491	-0.161	0.255
-240.917	-169.148	-0.310	0.011
-239.903	-151.191	-0.079	-0.006
-238.888	-200.000	0.009	-0.094
-237.873	233.347	-0.063	0.103
-236.859	800.000	-0.017	-0.071
-235.844	-200.000	-0.032	-0.172
-234.830	280.727	0.069	0.122
-233.815	-89.169	-0.353	0.104
-232.800	-90.984	0.169	-0.048
-231.786	-84.649	0.130	-0.041
-230.771	-126.880	-0.096	0.014
-229.757	800.000	-0.125	-0.447
-228.742	-25.501	-0.250	0.147
-227.727	263.828	-0.156	-0.271
-226.713	544.568	-0.070	-0.167
-225.698	800.000	-0.037	0.159
-224.684	-107.676	-0.146	0.032
-223.669	-122.712	-0.070	0.011
-222.655	355.731	0.178	0.353
-221.640	156.474	-0.013	-0.018
-220.625	-36.284	0.235	-0.127
-219.611	248.941	0.097	0.164
-218.596	44.011	-0.152	-0.139
-217.582	616.169	0.093	-0.234
-216.567	-13.097	0.144	-0.094
-215.552	144.223	-0.046	0.061
-214.538	26.065	-0.180	0.150
-213.523	-200.000	0.023	0.218
-212.509	-200.000	-0.018	-0.207
-211.494	42.362	-0.205	-0.185
-210.479	444.563	-0.147	0.321
-209.465	138.342	-0.146	0.190
-208.450	129.553	0.226	-0.288
-207.436	-117.019	0.361	0.066
-206.421	-129.509	0.370	0.051
-205.406	-200.000	0.026	0.347
-204.392	800.000	-0.101	-0.340
-203.377	-200.000	-0.046	-0.213
-202.363	142.912	0.073	0.096
-201.348	800.000	0.102	-0.320
-200.333	27.376	-0.039	0.033
-199.319	-24.960	0.309	-0.182
-198.304	-93.497	0.467	0.129
-197.290	75.428	-0.171	0.180
-196.275	-183.930	0.252	0.004
-195.260	548.922	0.055	0.132
-194.246	-164.025	0.101	-0.005
-193.231	-40.448	0.085	-0.044
-192.217	553.498	-0.125	0.300
-191.202	-61.321	0.205	0.086
-190.187	30.337	-0.287	0.244
-189.173	-35.705	0.225	0.122
-188.158	-174.307	0.162	0.005
-187.144	-72.369	-0.167	0.062
-186.129	176.452	0.218	0.315
-185.114	-152.500	0.072	0.005
-184.100	-8.199	-0.306	0.205
-183.085	150.708	0.244	0.330
-182.071	-122.186	-0.434	-0.071
-181.056	-127.124	-0.226	-0.033
-180.042	-63.296	-0.102	-0.042
-179.027	800.000	0.039	0.121
-178.012	19.844	-0.116	-0.093
-176.998	46.450	-0.114	0.105
-175.983	184.081	0.036	-0.053
-174.969	-5.134	-0.269	0.184
-173.954	437.346	0.159	0.346
-172.939	373.629	0.103	0.208
-171.925	669.534	-0.253	0.651
-170.910	-24.102	-0.062	0.037
-169.896	800.000	-0.101	0.288
-168.881	-171.145	-0.183	-0.006
-167.866	335.235	-0.177	-0.341
-166.852	-108.980	0.070	0.015
-165.837	376.906	0.256	0.520
-164.823	565.840	-0.067	0.161
-163.808	494.546	-0.197	-0.451
-162.793	-41.055	0.318	-0.163
-161.779	-200.000	-0.005	-0.109
-160.764	-200.000	-0.011	0.139
-159.750	-132.620	0.076	0.010
-158.735	760.016	-0.022	-0.059
-157.720	800.000	-0.085	-0.271
-156.706	212.930	-0.056	-0.087
-155.691	-87.558	0.079	0.024
-154.677	-162.595	-0.199	-0.010
-153.662	800.000	0.044	0.179
-152.647	500.773	-0.119	0.272
-151.633	-182.277	0.236	0.004
-150.618	800.000	0.072	-0.233
-149.604	-92.368	-0.108	0.030
-148.589	262.262	0.128	-0.220
-147.574	136.487	0.090	-0.117
-146.560	62.347	-0.119	0.118
-145.545	-81.294	-0.188	-0.062
-144.531	6.905	-0.108	0.080
-143.516	46.600	-0.259	-0.239
-142.502	-32.848	0.269	0.149
-141.487	-92.559	0.283	-0.079
-140.472	-20.542	-0.129	0.079
-139.458	-36.562	-0.101	0.054
-138.443	-18.972	-0.152	-0.094
-137.429	-200.000	-0.008	-0.076
-136.414	137.760	-0.114	0.148
-135.399	-200.000	-0.030	0.167
-134.385	-200.000	-0.044	0.214
-133.370	-82.341	-0.259	-0.084
-132.356	162.868	-0.058	-0.081
-131.341	-200.000	-0.062	0.430
-130.326	-138.164	0.256	-0.028
-129.312	-62.305	-0.040	0.016
-128.297	234.504	-0.099	0.163
-127.283	-91.476	-0.145	0.041
-126.268	-99.785	0.288	0.072
-125.253	-134.730	-0.144	-0.017
-124.239	800.000	0.043	-0.150
-123.224	800.000	0.036	0.104
-122.210	200.818	0.203	-0.309
