DTS Sentinel unit serial number:	SN413079Multiplexer serial number:	ORYXHardware model number:	OX4-SRSoftware version number:	ORYX F/W v4.00 Oryx Data Collector v3.7.2.0data status	okinstallation	princeton_trtdifferential loss correction	single-endedforward channel	channel 4reverse channel	N/Adate	2019/09/11time	01:39:10forward acquisition time	60.00reverse acquisition time	0.00gamma	496.2192k internal	0.2317k external	0.2317temperature offset calibration	0.9949default loss term (dB/km)	0.3790temperature slope calibration	1.0000multiplexer offset coefficient	1.0000multiplexer slope coefficient	1.0000fibre end	0.00T internal ref (°C)	29.14T ext. ref 1 (°C)	-0.30T ext. ref 2 (°C)	23.56length (m)	temperature (°C)	Stokes	anti-Stokes-747.200	-33.503	-0.057	-0.032
-746.185	-52.324	-0.090	-0.042
-745.171	-105.768	-0.105	-0.024
-744.156	-0.480	-0.101	-0.072
-743.142	800.000	0.045	0.130
-742.127	-74.815	-0.031	-0.011
-741.112	-200.000	-0.017	-0.093
-740.098	274.876	-0.186	0.334
-739.083	-200.000	-0.164	-0.000
-738.069	170.016	0.141	-0.204
-737.054	-200.000	0.001	-0.167
-736.039	128.490	-0.374	-0.482
-735.025	-92.088	0.299	0.086
-734.010	416.690	0.058	-0.125
-732.996	554.923	0.046	-0.113
-731.981	-19.835	-0.165	0.103
-730.966	-36.197	0.303	0.166
-729.952	-200.000	-0.033	-0.205
-728.937	706.365	0.060	-0.159
-727.923	-160.378	-0.046	-0.003
-726.908	-87.235	-0.145	-0.045
-725.894	-59.860	0.133	0.057
-724.879	96.488	-0.123	-0.142
-723.864	94.313	-0.188	-0.216
-722.850	-200.000	0.025	0.278
-721.835	-171.044	-0.445	0.015
-720.821	800.000	-0.051	-0.217
-719.806	250.875	-0.095	-0.163
-718.791	-200.000	0.028	-0.183
-717.777	-200.000	-0.010	0.151
-716.762	-116.002	0.229	-0.043
-715.748	-138.834	-0.428	0.047
-714.733	-158.084	-0.248	-0.015
-713.718	377.265	-0.124	0.257
-712.704	339.478	-0.160	-0.314
-711.689	-5.247	-0.265	-0.184
-710.675	-116.186	0.181	0.034
-709.660	355.475	0.133	0.267
-708.645	85.291	0.059	0.066
-707.631	38.257	-0.312	-0.281
-706.616	148.871	0.087	-0.118
-705.602	-200.000	0.009	0.141
-704.587	-200.000	-0.040	-0.250
-703.572	-26.127	0.114	0.068
-702.558	314.844	0.151	-0.288
-701.543	19.231	0.212	-0.172
-700.529	-80.782	0.270	-0.091
-699.514	-200.000	0.002	-0.054
-698.499	766.737	-0.022	-0.060
-697.485	-68.513	0.213	-0.083
-696.470	-200.000	-0.012	-0.134
-695.456	800.000	0.052	-0.155
-694.441	-13.321	0.076	-0.050
-693.426	47.016	0.062	0.058
-692.412	-93.361	-0.051	-0.014
-691.397	169.159	0.103	-0.148
-690.383	-51.132	-0.274	-0.130
-689.368	-72.306	0.098	0.037
-688.354	730.061	-0.096	0.259
-687.339	-159.359	-0.194	-0.011
-686.324	-200.000	-0.003	-0.077
-685.310	-172.399	0.166	0.005
-684.295	-93.926	0.318	-0.088
-683.281	-142.780	0.161	-0.016
-682.266	-200.000	-0.009	-0.168
-681.251	-49.736	-0.073	0.035
-680.237	29.015	0.149	0.127
-679.222	-26.155	-0.066	-0.039
-678.208	127.480	-0.238	0.305
-677.193	-185.057	-0.449	-0.007
-676.178	-79.136	0.172	-0.059
-675.164	-200.000	-0.016	0.124
-674.149	-68.005	-0.197	0.077
-673.135	-200.000	0.053	-0.271
-672.120	-174.433	-0.226	-0.007
-671.105	472.740	0.107	0.244
-670.091	205.253	0.060	-0.095
-669.076	18.887	0.076	0.062
-668.062	-138.302	0.373	0.042
-667.047	800.000	0.100	0.315
-666.032	-200.000	-0.020	-0.126
-665.018	-83.871	0.089	-0.028
-664.003	-113.390	-0.191	-0.038
-662.989	352.027	0.124	-0.248
-661.974	-100.279	-0.182	-0.046
-660.959	-200.000	-0.003	-0.180
-659.945	-35.329	0.010	-0.006
-658.930	-85.281	-0.240	0.076
-657.916	63.985	0.192	0.194
-656.901	800.000	0.018	-0.054
-655.886	-37.702	-0.140	0.075
-654.872	-200.000	0.036	-0.275
-653.857	-28.978	-0.149	0.086
-652.843	404.583	-0.093	0.197
-651.828	800.000	-0.016	0.049
-650.814	430.720	-0.016	-0.036
-649.799	-140.332	-0.282	0.030
-648.784	-200.000	-0.052	-0.356
-647.770	-93.862	-0.321	0.089
-646.755	53.974	0.181	-0.176
-645.741	-200.000	-0.055	-0.284
-644.726	-102.683	0.263	-0.063
-643.711	800.000	0.031	0.090
-642.697	-58.700	-0.179	-0.078
-641.682	-200.000	-0.100	0.566
-640.668	-109.506	0.487	0.104
-639.653	108.951	0.098	-0.119
-638.638	-123.358	-0.340	0.055
-637.624	-200.000	-0.023	-0.131
-636.609	-140.058	-0.314	0.033
-635.595	-200.000	0.003	-0.121
-634.580	41.593	0.499	0.456
-633.565	70.732	0.121	-0.127
-632.551	-178.261	0.113	0.003
-631.536	89.702	-0.140	-0.157
-630.522	94.931	-0.100	0.115
-629.507	-154.963	-0.301	0.020
-628.492	-100.107	-0.078	-0.020
-627.478	163.940	0.130	0.184
-626.463	-200.000	0.034	-0.192
-625.449	-70.964	-0.053	-0.020
-624.434	-200.000	0.062	0.322
-623.419	-113.228	-0.137	0.027
-622.405	-41.506	0.080	-0.041
-621.390	-190.221	0.204	-0.002
-620.376	105.677	-0.174	-0.207
-619.361	-200.000	0.033	0.264
-618.346	-15.869	-0.366	-0.234
-617.332	-200.000	-0.024	-0.421
-616.317	158.293	-0.085	0.119
-615.303	-200.000	-0.028	0.229
-614.288	113.565	-0.165	0.202
-613.273	-123.374	-0.193	0.031
-612.259	44.508	-0.077	0.071
-611.244	25.868	-0.088	0.074
-610.230	-200.000	-0.019	-0.096
-609.215	620.699	-0.130	-0.328
-608.201	-113.371	-0.190	-0.037
-607.186	-200.000	0.026	-0.224
-606.171	-88.345	-0.232	-0.070
-605.157	-143.957	-0.190	-0.018
-604.142	24.830	0.105	-0.088
-603.128	-200.000	-0.014	-0.272
-602.113	-115.071	-0.126	0.024
-601.098	-18.283	0.067	-0.042
-600.084	-129.890	0.087	-0.012
-599.069	-69.882	-0.222	0.085
-598.055	-200.000	0.000	-0.078
-597.040	282.749	-0.062	0.112
-596.025	-127.694	-0.067	0.010
-595.011	95.262	0.073	0.083
-593.996	-63.299	0.234	-0.097
-592.982	-96.686	-0.286	0.076
-591.967	210.673	0.096	-0.152
-590.952	574.924	-0.013	0.032
-589.938	-151.614	-0.345	-0.026
-588.923	-19.129	0.053	-0.033
-587.909	223.426	-0.112	0.182
-586.894	800.000	0.047	-0.177
-585.879	-71.333	0.066	0.025
-584.865	800.000	-0.048	-0.165
-583.850	431.962	-0.037	-0.081
-582.836	503.048	-0.147	-0.342
-581.821	108.073	-0.087	-0.104
-580.806	158.277	0.032	0.044
-579.792	314.307	-0.107	0.203
-578.777	-157.835	0.323	0.019
-577.763	132.048	0.049	-0.064
-576.748	-69.237	-0.197	0.076
-575.733	-80.136	0.269	0.091
-574.719	68.869	0.061	-0.063
-573.704	-94.942	0.289	0.079
-572.690	268.294	0.161	0.284
-571.675	154.825	-0.298	0.412
-570.661	-61.891	0.140	-0.059
-569.646	343.835	-0.086	-0.169
-568.631	-62.792	0.128	-0.053
-567.617	-71.850	0.265	0.099
-566.602	-130.809	-0.147	0.020
-565.588	-200.000	0.031	-0.299
-564.573	-200.000	0.024	0.177
-563.558	-47.646	-0.218	-0.107
-562.544	-78.353	0.426	-0.147
-561.529	800.000	0.115	0.328
-560.515	800.000	0.042	-0.171
-559.500	-136.484	0.144	-0.017
-558.485	-200.000	-0.013	0.165
-557.471	-126.888	0.096	-0.014
-556.456	34.351	-0.111	-0.097
-555.442	-84.465	-0.440	0.140
-554.427	-200.000	0.000	-0.143
-553.412	-77.905	0.427	-0.148
-552.398	19.186	0.200	-0.161
-551.383	-200.000	0.000	0.084
-550.369	-35.070	0.261	0.143
-549.354	145.614	0.159	-0.214
-548.339	40.320	-0.080	-0.073
-547.325	-136.690	0.125	0.015
-546.310	-81.784	0.288	-0.095
-545.296	800.000	-0.013	0.037
-544.281	-0.796	-0.371	0.264
-543.266	-17.185	-0.122	0.078
-542.252	489.193	0.029	0.067
-541.237	59.740	0.292	-0.289
-540.223	-102.459	-0.233	-0.056
-539.208	-200.000	0.017	-0.087
-538.193	-113.244	0.202	-0.040
-537.179	800.000	0.071	-0.198
-536.164	800.000	0.064	0.185
-535.150	658.703	0.066	-0.170
-534.135	800.000	-0.032	-0.128
-533.121	-49.583	-0.124	0.059
-532.106	-144.789	-0.250	-0.023
-531.091	-132.162	-0.320	-0.042
-530.077	-61.704	0.227	0.096
-529.062	-80.983	0.152	-0.051
-528.048	-68.369	0.156	0.061
-527.033	-135.681	0.253	-0.030
-526.018	-17.717	-0.152	-0.096
-525.004	-131.539	-0.131	0.017
-523.989	-92.849	-0.207	0.058
-522.975	-33.798	-0.116	0.064
-521.960	-70.168	-0.148	0.056
-520.945	-200.000	0.000	-0.151
-519.931	275.094	-0.083	0.147
-518.916	80.465	-0.081	-0.088
-517.902	-136.816	-0.217	-0.025
-516.887	-58.230	-0.725	-0.317
-515.872	-27.391	-0.207	-0.121
-514.858	-49.908	0.256	-0.122
-513.843	-200.000	-0.049	-0.260
-512.829	-62.509	0.228	0.095
-511.814	-102.706	0.246	0.059
-510.799	800.000	0.085	-0.322
-509.785	-138.677	0.102	0.011
-508.770	-96.057	0.083	-0.022
-507.756	468.375	-0.126	-0.284
-506.741	174.897	0.074	-0.107
-505.726	-40.214	0.180	0.094
-504.712	-3.679	-0.266	-0.186
-503.697	-183.187	-0.204	-0.004
-502.683	164.124	-0.084	-0.119
-501.668	-86.079	0.093	0.029
-500.653	202.196	-0.181	-0.279
-499.639	-31.207	-0.033	0.019
-498.624	-36.631	-0.123	-0.067
-497.610	1.957	-0.165	-0.119
-496.595	331.947	0.206	-0.398
-495.581	-200.000	0.062	0.314
-494.566	51.931	-0.169	0.161
-493.551	16.060	0.267	0.211
-492.537	-200.000	-0.012	-0.112
-491.522	59.020	-0.240	0.237
-490.508	-39.746	-0.102	-0.054
-489.493	800.000	0.114	-0.381
-488.478	211.562	-0.022	0.034
-487.464	800.000	-0.011	0.049
-486.449	-141.215	0.280	-0.029
-485.435	323.763	0.110	-0.211
-484.420	594.893	0.054	-0.134
-483.405	6.026	-0.121	0.090
-482.391	-200.000	-0.007	-0.174
-481.376	-163.434	0.278	-0.013
-480.362	384.843	0.092	-0.190
-479.347	411.526	-0.132	-0.280
-478.332	130.166	-0.014	0.018
-477.318	-200.000	-0.000	0.260
-476.303	800.000	-0.008	-0.025
-475.289	702.747	0.036	-0.095
-474.274	144.599	0.181	-0.242
-473.259	800.000	-0.048	0.148
-472.245	-91.940	-0.199	0.057
-471.230	104.897	-0.277	0.327
-470.216	-128.398	-0.220	0.031
-469.201	3.871	-0.089	0.065
-468.186	29.984	0.142	0.121
-467.172	-95.013	-0.359	-0.097
-466.157	369.354	0.047	-0.095
-465.143	429.002	-0.067	-0.146
-464.128	37.986	0.160	-0.142
-463.113	-107.479	0.225	0.049
-462.099	111.152	-0.181	-0.218
-461.084	198.193	0.108	-0.166
-460.070	229.835	-0.128	-0.209
-459.055	225.477	0.158	0.256
-458.040	68.531	-0.045	-0.047
-457.026	592.469	-0.121	0.300
-456.011	-20.683	-0.239	0.147
-454.997	95.150	-0.084	0.096
-453.982	52.048	-0.284	-0.271
-452.968	-200.000	0.063	0.300
-451.953	231.805	0.132	-0.217
-450.938	-200.000	-0.036	0.305
-449.924	10.173	-0.219	0.166
-448.909	800.000	0.023	0.074
-447.895	28.756	-0.390	-0.330
-446.880	-10.245	0.221	0.147
-445.865	-101.286	-0.235	-0.058
-444.851	-200.000	-0.041	0.206
-443.836	107.425	0.076	0.091
-442.822	672.721	-0.061	0.157
-441.807	11.677	-0.012	0.009
-440.792	116.015	-0.158	-0.193
-439.778	-94.268	0.309	0.085
-438.763	-1.830	-0.168	0.118
-437.749	-79.047	-0.223	0.076
-436.734	-117.757	0.202	-0.036
-435.719	799.165	-0.046	0.126
-434.705	800.000	0.010	0.034
-433.690	146.830	-0.114	0.153
-432.676	-200.000	-0.003	0.187
-431.661	424.160	-0.047	-0.100
-430.646	-24.485	-0.139	0.083
-429.632	596.948	0.108	0.267
-428.617	-24.064	-0.357	0.213
-427.603	7.176	0.398	-0.297
-426.588	-124.842	-0.143	-0.022
-425.573	-169.930	0.203	-0.007
-424.559	39.470	-0.121	-0.108
-423.544	-49.788	0.217	0.103
-422.530	433.109	-0.084	0.182
-421.515	-21.551	-0.093	0.057
-420.500	154.375	0.175	-0.240
-419.486	-149.974	-0.074	-0.006
-418.471	206.052	-0.324	-0.504
-417.457	-155.777	-0.193	0.012
-416.442	-58.536	0.072	-0.031
-415.428	-200.000	-0.069	0.421
-414.413	220.039	0.057	-0.092
-413.398	-146.286	-0.235	-0.021
-412.384	-81.919	0.105	0.034
-411.369	723.074	-0.098	-0.260
-410.355	228.410	-0.089	-0.144
-409.340	195.581	0.150	0.228
-408.325	76.064	0.039	0.041
-407.311	108.204	0.111	0.133
-406.296	800.000	-0.018	0.056
-405.282	-90.312	-0.073	-0.021
-404.267	264.874	0.202	0.351
-403.252	63.654	0.134	0.134
-402.238	-29.807	0.118	-0.067
-401.223	-49.181	-0.058	0.028
-400.209	800.000	-0.065	-0.196
-399.194	30.183	-0.263	-0.224
-398.179	49.605	0.070	0.066
-397.165	58.205	0.100	-0.098
-396.150	118.918	0.172	-0.212
-395.136	800.000	0.107	-0.313
-394.121	514.401	-0.077	-0.179
-393.106	800.000	0.023	-0.066
-392.092	-48.680	-0.214	-0.103
-391.077	-200.000	-0.076	0.389
-390.063	462.068	0.077	0.171
-389.048	800.000	-0.085	0.306
-388.033	-53.341	-0.274	-0.125
-387.019	-87.196	-0.292	0.088
-386.004	45.970	0.198	-0.183
-384.990	-19.416	-0.154	-0.095
-383.975	345.665	-0.127	0.248
-382.960	-19.836	-0.116	0.072
-381.946	-92.275	0.082	-0.023
-380.931	-196.986	0.184	0.001
-379.917	31.039	0.195	0.167
-378.902	29.250	-0.209	-0.177
-377.888	400.461	0.115	-0.242
-376.873	77.105	0.152	0.161
-375.858	-69.410	-0.216	0.083
-374.844	153.013	0.230	0.314
-373.829	-99.170	0.241	-0.061
-372.815	-200.000	0.014	-0.119
-371.800	-16.444	0.318	-0.201
-370.785	18.092	0.106	0.084
-369.771	-59.822	0.288	-0.123
-368.756	204.526	-0.111	-0.172
-367.742	-137.544	0.596	0.067
-366.727	54.360	0.318	-0.305
-365.712	13.370	0.155	-0.120
-364.698	9.459	0.222	0.168
-363.683	655.774	-0.101	0.259
-362.669	800.000	0.032	-0.091
-361.654	-200.000	-0.001	-0.040
-360.639	-95.444	0.148	0.040
-359.625	-200.000	-0.006	-0.226
-358.610	-82.315	0.286	-0.093
-357.596	-21.738	0.248	0.150
-356.581	491.011	0.104	0.238
-355.566	-151.545	-0.254	0.019
-354.552	-148.651	-0.168	0.014
-353.537	39.890	0.069	-0.061
-352.523	68.536	-0.094	0.096
-351.508	800.000	0.034	-0.115
-350.493	-200.000	0.023	-0.275
-349.479	211.592	0.157	-0.247
-348.464	-108.633	-0.028	-0.006
-347.450	127.957	0.165	-0.209
-346.435	-200.000	-0.034	0.150
-345.420	-39.389	0.250	-0.131
-344.406	101.767	-0.169	0.196
-343.391	-30.863	-0.192	0.108
-342.377	-200.000	0.016	-0.090
-341.362	-64.161	-0.291	0.118
-340.348	-27.129	-0.063	-0.037
-339.333	-69.843	0.388	-0.148
-338.318	-200.000	-0.012	0.195
-337.304	162.882	0.029	0.041
-336.289	800.000	-0.045	-0.138
-335.275	2.362	0.203	0.146
-334.260	-200.000	0.036	-0.252
-333.245	800.000	0.117	-0.428
-332.231	800.000	0.055	0.207
-331.216	-92.380	-0.110	0.031
-330.202	-200.000	0.032	0.193
-329.187	-200.000	0.021	-0.268
-328.172	14.258	-0.245	-0.190
-327.158	51.158	0.230	-0.217
-326.143	94.205	-0.214	0.242
-325.129	81.609	0.088	0.095
-324.114	-200.000	-0.006	0.212
-323.099	263.967	-0.230	0.398
-322.085	144.656	-0.075	-0.100
-321.070	800.000	-0.097	-0.268
-320.056	800.000	-0.013	0.039
-319.041	584.142	0.098	0.238
-318.026	40.076	-0.260	0.233
-317.012	-200.000	-0.071	0.332
-315.997	-28.757	0.189	0.109
-314.983	310.623	0.130	-0.243
-313.968	299.391	-0.131	-0.241
-312.953	-44.159	-0.102	-0.051
-311.939	-200.000	0.000	0.102
-310.924	103.940	-0.059	0.069
-309.910	-176.049	0.209	0.005
-308.895	-36.327	0.170	0.091
-307.880	19.366	-0.301	-0.241
-306.866	-66.356	-0.323	-0.128
-305.851	-200.000	0.080	0.382
-304.837	-200.000	-0.022	0.470
-303.822	-76.468	0.138	0.048
-302.807	-65.187	0.164	0.066
-301.793	-200.000	0.166	-0.001
-300.778	-200.000	-0.008	0.043
-299.764	-28.542	-0.105	-0.060
-298.749	-200.000	0.062	0.309
-297.735	518.768	0.031	0.073
-296.720	-106.828	-0.144	-0.032
-295.705	-135.708	-0.077	0.009
-294.691	-42.669	0.224	-0.113
-293.676	-94.574	0.130	0.035
-292.662	327.674	-0.084	0.160
-291.647	-51.885	-0.177	0.082
-290.632	55.106	-0.232	-0.223
-289.618	-200.000	-0.017	-0.090
-288.603	739.800	-0.090	-0.242
-287.589	-66.650	-0.160	-0.063
-286.574	61.950	-0.059	0.058
-285.559	11.545	0.135	0.103
-284.545	118.791	-0.265	0.326
-283.530	-200.000	0.031	0.210
-282.516	746.520	-0.105	-0.282
-281.501	-80.460	0.484	0.161
-280.486	382.367	-0.079	0.162
-279.472	462.907	0.086	-0.191
-278.457	50.091	0.114	-0.107
-277.443	6.848	-0.193	-0.143
-276.428	-53.264	0.100	0.046
-275.413	-25.433	0.102	-0.060
-274.399	452.601	-0.170	-0.373
-273.384	-127.158	-0.156	0.023
-272.370	100.867	-0.132	0.152
-271.355	103.041	0.226	-0.263
-270.340	164.331	-0.168	0.235
-269.326	94.046	-0.195	0.220
-268.311	156.582	0.216	-0.296
-267.297	-2.172	-0.160	-0.112
-266.282	-68.523	0.173	0.067
-265.267	545.562	0.092	0.219
-264.253	-122.170	-0.182	0.030
-263.238	800.000	-0.025	0.074
-262.224	-51.820	-0.203	-0.094
-261.209	-187.015	0.151	-0.002
-260.195	401.948	-0.093	-0.195
-259.180	91.816	-0.067	0.075
-258.165	220.042	0.099	0.158
-257.151	-66.187	0.304	0.120
-256.136	432.981	-0.060	0.130
-255.122	171.900	0.057	0.081
-254.107	-200.000	-0.020	0.317
-253.092	45.521	-0.085	0.078
-252.078	800.000	-0.047	-0.189
-251.063	462.483	0.024	-0.054
-250.049	62.192	-0.120	0.119
-249.034	-73.232	0.409	-0.149
-248.019	12.995	-0.160	-0.123
-247.005	426.444	-0.116	-0.249
-245.990	-200.000	0.053	-0.265
-244.976	-45.568	0.064	-0.031
-243.961	-86.958	0.432	0.131
-242.946	172.307	-0.245	0.350
-241.932	-67.381	-0.164	-0.064
-240.917	-22.329	-0.262	-0.158
-239.903	-154.088	-0.373	-0.025
-238.888	-72.834	0.325	-0.119
-237.873	-33.939	0.153	-0.084
-236.859	-29.290	0.455	-0.259
-235.844	136.331	0.258	-0.334
-234.830	800.000	-0.055	0.200
-233.815	800.000	0.073	0.244
-232.800	-200.000	-0.002	-0.113
-231.786	563.712	0.049	0.119
-230.771	-79.710	-0.150	-0.050
-229.757	-126.861	0.070	0.010
-228.742	-44.547	0.153	0.076
-227.727	86.949	-0.073	0.080
-226.713	-16.749	0.269	0.169
-225.698	-50.339	0.084	-0.039
-224.684	800.000	-0.114	-0.469
-223.669	171.830	0.060	0.086
-222.655	800.000	-0.028	-0.120
-221.640	-200.000	0.002	-0.061
-220.625	92.788	0.090	0.101
-219.611	800.000	0.086	-0.259
-218.596	136.680	0.136	-0.176
-217.582	-200.000	0.038	0.386
-216.567	61.261	0.296	0.291
-215.552	-116.906	0.240	0.044
-214.538	151.230	-0.045	0.061
-213.523	664.500	0.037	-0.095
-212.509	89.148	-0.112	0.124
-211.494	-46.563	0.266	0.129
-210.479	-96.189	0.189	0.050
-209.465	-76.641	-0.074	-0.026
-208.450	-15.540	-0.106	0.067
-207.436	378.505	0.056	-0.113
-206.421	15.799	0.131	0.102
-205.406	-200.000	0.061	0.321
-204.392	-200.000	-0.031	-0.137
-203.377	800.000	-0.077	-0.249
-202.363	-200.000	-0.013	0.539
-201.348	44.209	-0.262	0.239
-200.333	800.000	-0.078	0.300
-199.319	-90.074	0.120	-0.035
-198.304	218.128	-0.030	-0.047
-197.290	-149.155	-0.068	-0.005
-196.275	304.033	0.074	-0.135
-195.260	45.980	0.203	-0.186
-194.246	258.680	0.165	0.281
-193.231	-200.000	0.037	0.223
-192.217	-88.327	-0.106	0.031
-191.202	-68.886	-0.370	-0.141
-190.187	-55.466	0.184	0.082
-189.173	-98.620	0.414	-0.105
-188.158	-172.423	0.457	-0.014
-187.144	-54.139	-0.197	0.089
-186.129	800.000	0.063	0.179
-185.114	-142.408	0.168	-0.016
-184.100	-88.868	-0.177	0.052
-183.085	-200.000	-0.014	-0.114
-182.071	-161.063	-0.303	0.016
-181.056	-200.000	0.005	0.065
-180.042	800.000	-0.028	0.103
-179.027	-200.000	-0.209	0.001
-178.012	800.000	0.092	0.298
-176.998	-128.652	0.260	-0.036
-175.983	-39.350	-0.115	0.060
-174.969	11.488	-0.121	0.092
-173.954	353.399	0.044	-0.087
-172.939	260.791	-0.035	-0.060
-171.925	-55.110	0.334	0.149
-170.910	318.905	0.147	0.276
-169.896	-109.834	-0.201	-0.042
-168.881	777.549	0.123	-0.333
-167.866	-115.267	-0.392	0.073
-166.852	-146.180	-0.176	-0.015
-165.837	153.901	0.093	-0.126
-164.823	-141.058	0.409	0.041
-163.808	-134.641	0.286	-0.035
-162.793	-200.000	0.016	0.218
-161.779	800.000	0.081	0.224
-160.764	-200.000	-0.007	0.033
-159.750	100.479	-0.171	0.197
-158.735	642.276	0.041	-0.102
-157.720	-167.454	-0.239	-0.009
-156.706	-117.994	0.304	0.054
-155.691	-200.000	-0.022	0.207
-154.677	-49.317	-0.157	-0.074
-153.662	-129.896	-0.104	-0.014
-152.647	-101.758	-0.427	0.102
-151.633	-105.783	0.151	0.034
-150.618	253.482	-0.127	0.214
-149.604	-87.643	0.122	-0.036
-148.589	81.414	-0.157	0.168
-147.574	-107.938	-0.222	0.048
-146.560	27.581	-0.320	-0.266
-145.545	168.035	0.104	-0.147
-144.531	-112.627	0.225	-0.044
-143.516	398.388	-0.088	-0.182
-142.502	-28.797	0.191	0.108
-141.487	-128.488	0.260	-0.036
-140.472	-200.000	-0.005	0.199
-139.458	187.670	-0.081	0.120
-138.443	-200.000	0.022	0.097
-137.429	-12.602	-0.253	-0.163
-136.414	-86.870	0.270	-0.081
-135.399	63.039	0.255	-0.253
-134.385	-161.428	0.315	-0.016
-133.370	800.000	0.151	-0.430
-132.356	-54.006	0.292	-0.132
-131.341	800.000	-0.041	0.175
-130.326	-93.105	-0.107	-0.030
-129.312	-31.496	-0.132	0.074
-128.297	-96.357	-0.140	0.037
-127.283	800.000	-0.072	0.238
-126.268	-116.706	0.135	0.025
-125.253	-65.718	-0.226	0.090
-124.239	-53.392	0.408	-0.185
-123.224	-89.768	-0.229	-0.066
-122.210	800.000	0.080	0.258
