DTS Sentinel unit serial number:	SN413079Multiplexer serial number:	ORYXHardware model number:	OX4-SRSoftware version number:	ORYX F/W v4.00 Oryx Data Collector v3.7.2.0data status	okinstallation	princeton_trtdifferential loss correction	single-endedforward channel	channel 3reverse channel	N/Adate	2019/09/11time	08:58:11forward acquisition time	60.00reverse acquisition time	0.00gamma	496.2192k internal	0.2309k external	0.2309temperature offset calibration	0.9940default loss term (dB/km)	0.3790temperature slope calibration	1.0000multiplexer offset coefficient	1.0000multiplexer slope coefficient	1.0000fibre end	0.00T internal ref (°C)	34.05T ext. ref 1 (°C)	0.09T ext. ref 2 (°C)	30.59length (m)	temperature (°C)	Stokes	anti-Stokes-747.200	-111.897	-0.147	0.030
-746.185	-200.000	-0.011	0.083
-745.171	205.825	0.219	-0.346
-744.156	-80.318	0.278	0.094
-743.142	-200.000	0.006	-0.034
-742.127	97.766	-0.177	-0.207
-741.112	573.358	0.037	-0.092
-740.098	69.493	-0.170	0.178
-739.083	-90.567	-0.038	0.011
-738.069	-14.934	0.229	0.149
-737.054	-83.000	-0.127	0.042
-736.039	-11.084	-0.044	0.030
-735.025	-200.000	0.023	0.237
-734.010	99.629	-0.119	0.140
-732.996	-113.061	-0.358	0.072
-731.981	-84.121	-0.164	-0.053
-730.966	559.420	-0.140	0.343
-729.952	78.425	-0.090	-0.098
-728.937	-57.284	-0.160	-0.071
-727.923	-86.074	0.164	0.051
-726.908	-11.107	-0.256	-0.172
-725.894	-200.000	0.027	-0.304
-724.879	-56.997	-0.141	0.063
-723.864	-41.446	0.195	0.102
-722.850	104.183	-0.154	0.184
-721.835	-200.000	0.033	0.180
-720.821	382.562	-0.126	0.262
-719.806	10.560	0.239	-0.185
-718.791	514.642	0.073	-0.172
-717.777	-135.531	-0.173	-0.021
-716.762	32.636	0.213	0.187
-715.748	26.397	0.218	0.185
-714.733	139.030	0.123	0.164
-713.718	-119.538	-0.127	-0.022
-712.704	76.514	0.213	0.230
-711.689	30.298	0.052	0.045
-710.675	-174.948	-0.266	0.008
-709.660	-1.627	0.269	0.193
-708.645	-134.684	0.490	0.061
-707.631	800.000	0.082	0.250
-706.616	143.535	-0.169	-0.229
-705.602	-105.497	-0.181	-0.042
-704.587	-200.000	-0.004	0.025
-703.572	-47.267	0.241	-0.119
-702.558	-86.510	0.350	-0.109
-701.543	-200.000	0.009	-0.202
-700.529	-47.342	-0.472	-0.233
-699.514	-73.663	-0.250	-0.092
-698.499	7.300	-0.063	-0.048
-697.485	-77.024	-0.266	0.094
-696.470	-66.328	0.106	-0.043
-695.456	66.349	0.161	-0.166
-694.441	-182.919	0.294	0.005
-693.426	243.837	-0.060	0.102
-692.412	-84.358	-0.072	0.023
-691.397	71.869	0.117	0.124
-690.383	-200.000	-0.032	-0.185
-689.368	-200.000	-0.001	-0.077
-688.354	-80.132	-0.315	0.107
-687.339	-108.775	-0.199	0.043
-686.324	-200.000	-0.062	0.277
-685.310	-200.000	-0.041	-0.210
-684.295	800.000	0.033	0.114
-683.281	-56.592	-0.381	0.171
-682.266	-22.342	0.216	-0.133
-681.251	571.299	0.101	-0.248
-680.237	-99.774	0.195	0.049
-679.222	63.105	-0.378	0.384
-678.208	609.284	0.052	-0.132
-677.193	-164.175	0.196	-0.009
-676.178	-200.000	0.016	-0.178
-675.164	352.966	-0.068	-0.137
-674.149	800.000	-0.054	-0.202
-673.135	-200.000	-0.022	-0.167
-672.120	-66.713	-0.318	0.128
-671.105	-200.000	0.019	-0.103
-670.091	-32.995	-0.028	-0.016
-669.076	-160.526	-0.104	0.006
-668.062	137.422	0.207	-0.275
-667.047	-200.000	-0.032	-0.199
-666.032	162.176	-0.198	0.281
-665.018	800.000	0.091	0.317
-664.003	800.000	0.087	0.264
-662.989	-200.000	-0.002	-0.167
-661.974	-125.485	-0.254	0.039
-660.959	-137.492	-0.048	0.006
-659.945	-123.872	-0.159	0.025
-658.930	356.752	-0.054	-0.108
-657.916	262.979	-0.135	0.237
-656.901	-89.519	0.425	0.126
-655.886	346.832	-0.130	-0.259
-654.872	-200.000	0.009	-0.392
-653.857	-131.732	-0.266	0.035
-652.843	691.821	0.051	-0.136
-651.828	15.159	0.340	0.270
-650.814	71.128	-0.176	-0.184
-649.799	98.027	-0.213	0.248
-648.784	147.507	-0.230	-0.313
-647.770	-78.077	-0.394	-0.137
-646.755	196.421	0.093	-0.143
-645.741	-141.673	0.408	0.042
-644.726	-30.023	0.254	0.146
-643.711	-200.000	0.040	-0.293
-642.697	-200.000	0.008	0.149
-641.682	-31.015	0.169	-0.096
-640.668	572.310	-0.069	-0.169
-639.653	-200.000	-0.001	0.082
-638.638	216.290	-0.043	-0.068
-637.624	99.270	0.031	-0.036
-636.609	-120.032	-0.323	0.056
-635.595	24.003	0.142	-0.119
-634.580	-200.000	-0.010	-0.175
-633.565	31.001	-0.098	0.085
-632.551	-200.000	0.012	0.061
-631.536	50.087	-0.076	-0.073
-630.522	-200.000	-0.005	-0.194
-629.507	-200.000	-0.027	-0.520
-628.492	-200.000	-0.055	0.264
-627.478	-200.000	0.015	-0.100
-626.463	-200.000	0.017	0.171
-625.449	-33.510	0.082	0.046
-624.434	800.000	-0.114	-0.389
-623.419	800.000	-0.080	-0.252
-622.405	-46.441	-0.084	0.042
-621.390	-48.893	0.437	-0.212
-620.376	-200.000	-0.003	0.106
-619.361	-151.925	0.283	-0.021
-618.346	18.498	0.303	0.245
-617.332	800.000	0.072	-0.203
-616.317	-136.988	-0.127	-0.015
-615.303	-112.559	0.230	-0.046
-614.288	-200.000	-0.024	-0.259
-613.273	-58.803	-0.263	-0.115
-612.259	78.702	0.260	0.281
-611.244	330.286	0.215	0.418
-610.230	800.000	-0.043	-0.173
-609.215	-40.667	-0.166	0.087
-608.201	-200.000	0.009	0.068
-607.186	-200.000	-0.047	0.278
-606.171	-31.038	0.101	-0.058
-605.157	-64.921	-0.168	0.069
-604.142	14.471	-0.435	0.343
-603.128	7.472	-0.192	0.145
-602.113	800.000	0.057	0.212
-601.098	14.321	0.127	0.100
-600.084	39.728	-0.171	0.155
-599.069	230.360	0.154	-0.254
-598.055	800.000	0.069	-0.245
-597.040	800.000	0.043	0.139
-596.025	-81.829	0.273	0.090
-595.011	41.241	0.184	0.168
-593.996	42.580	-0.164	-0.151
-592.982	120.438	-0.183	0.229
-591.967	-114.323	-0.278	-0.054
-590.952	138.928	0.123	0.163
-589.938	-150.583	-0.121	0.009
-588.923	65.665	-0.166	0.170
-587.909	42.534	0.228	0.210
-586.894	716.387	0.059	-0.159
-585.879	101.303	-0.255	0.300
-584.865	-139.783	-0.220	-0.024
-583.850	-200.000	0.072	-0.383
-582.836	-200.000	0.020	-0.168
-581.821	-200.000	0.005	-0.055
-580.806	-200.000	-0.005	-0.215
-579.792	151.244	0.203	-0.279
-578.777	58.970	0.143	-0.142
-577.763	800.000	0.108	-0.362
-576.748	283.182	-0.138	-0.250
-575.733	40.450	-0.276	-0.250
-574.719	68.848	0.321	0.333
-573.704	-34.829	0.182	0.101
-572.690	-65.239	0.023	0.009
-571.675	24.981	-0.084	0.070
-570.661	-48.872	-0.093	0.045
-569.646	89.373	0.206	-0.232
-568.631	149.630	0.084	-0.114
-567.617	27.436	-0.375	-0.318
-566.602	46.319	0.034	0.032
-565.588	40.142	-0.197	0.178
-564.573	-20.233	-0.314	0.195
-563.558	321.441	-0.033	0.064
-562.544	800.000	0.016	-0.055
-561.529	800.000	0.077	-0.247
-560.515	800.000	-0.019	-0.071
-559.500	596.139	-0.046	0.115
-558.485	2.865	0.287	-0.210
-557.471	25.291	0.150	0.126
-556.456	-48.975	0.056	-0.027
-555.442	-200.000	0.016	0.195
-554.427	-143.218	0.087	-0.008
-553.412	150.972	0.281	-0.385
-552.398	-200.000	-0.045	-0.448
-551.383	-28.374	-0.018	-0.010
-550.369	-200.000	0.001	-0.049
-549.354	-152.218	0.309	0.023
-548.339	-200.000	0.029	-0.174
-547.325	101.765	-0.023	-0.027
-546.310	-62.306	-0.215	-0.090
-545.296	390.156	-0.117	-0.245
-544.281	8.582	-0.323	-0.245
-543.266	-132.897	-0.372	0.048
-542.252	243.706	0.138	0.233
-541.237	-200.000	-0.001	-0.273
-540.223	-182.360	-0.143	0.003
-539.208	-200.000	-0.035	0.178
-538.193	224.171	0.083	0.136
-537.179	800.000	0.021	0.073
-536.164	-200.000	0.050	-0.404
-535.150	56.370	-0.154	-0.151
-534.135	-52.613	0.212	-0.099
-533.121	-121.016	-0.100	-0.017
-532.106	56.319	0.285	-0.279
-531.091	-23.439	0.140	0.085
-530.077	800.000	-0.019	0.071
-529.062	24.520	0.106	0.088
-528.048	-200.000	-0.015	-0.065
-527.033	-139.868	0.221	-0.024
-526.018	-119.521	-0.207	0.036
-525.004	6.697	-0.213	-0.159
-523.989	800.000	-0.022	-0.061
-522.975	67.317	-0.144	0.148
-521.960	800.000	-0.113	0.350
-520.945	212.169	0.131	0.208
-519.931	231.687	-0.093	-0.154
-518.916	51.213	-0.115	-0.110
-517.902	31.505	-0.122	0.105
-516.887	221.849	-0.253	0.409
-515.872	304.783	-0.050	0.094
-514.858	54.335	-0.392	0.380
-513.843	-78.715	0.128	0.044
-512.829	232.914	0.064	0.106
-511.814	264.048	0.245	0.429
-510.799	-75.983	-0.308	0.110
-509.785	-200.000	-0.025	-0.131
-508.770	227.796	-0.214	-0.351
-507.756	-200.000	0.036	-0.329
-506.741	-131.273	-0.115	-0.015
-505.726	-147.027	-0.129	0.011
-504.712	-200.000	-0.000	-0.117
-503.697	-200.000	-0.004	-0.021
-502.683	-200.000	0.073	0.358
-501.668	17.479	0.172	-0.137
-500.653	-44.841	-0.152	-0.076
-499.639	-20.557	0.065	-0.040
-498.624	13.506	-0.064	-0.050
-497.610	63.158	-0.123	-0.124
-496.595	-69.196	0.181	-0.070
-495.581	55.762	0.324	0.316
-494.566	101.035	0.140	0.164
-493.551	-121.027	0.288	-0.049
-492.537	-145.646	0.389	-0.035
-491.522	-90.677	0.141	-0.041
-490.508	-200.000	-0.049	0.251
-489.493	598.578	-0.079	-0.198
-488.478	515.126	-0.101	-0.238
-487.464	123.988	-0.018	-0.023
-486.449	597.628	-0.104	-0.259
-485.435	-53.095	0.135	0.063
-484.420	33.594	0.045	-0.039
-483.405	449.014	0.127	0.281
-482.391	-0.700	-0.112	-0.080
-481.376	800.000	0.053	-0.194
-480.362	800.000	-0.082	0.273
-479.347	171.562	-0.184	0.265
-478.332	-91.776	0.078	0.022
-477.318	-200.000	0.003	-0.039
-476.303	24.125	-0.046	-0.039
-475.289	239.965	-0.133	-0.223
-474.274	204.258	0.083	-0.130
-473.259	-78.557	-0.232	0.080
-472.245	126.138	-0.195	-0.248
-471.230	-109.650	0.280	-0.059
-470.216	-9.589	-0.143	-0.096
-469.201	-200.000	0.021	0.218
-468.186	800.000	-0.054	0.190
-467.172	-179.019	0.308	0.007
-466.157	-170.460	0.174	0.006
-465.143	2.829	0.376	0.274
-464.128	749.279	-0.032	0.086
-463.113	-135.748	-0.136	0.016
-462.099	-200.000	0.008	-0.061
-461.084	108.257	0.313	0.375
-460.070	-141.884	-0.408	0.041
-459.055	201.476	-0.208	0.321
-458.040	-148.506	-0.099	-0.008
-457.026	-106.790	0.137	-0.031
-456.011	226.753	0.223	-0.364
-454.997	-200.000	-0.025	-0.109
-453.982	-124.699	-0.102	-0.016
-452.968	78.547	0.149	-0.160
-451.953	322.258	0.142	0.272
-450.938	-112.570	-0.243	-0.049
-449.924	-171.060	0.217	-0.007
-448.909	-158.318	0.200	0.012
-447.895	82.759	0.112	-0.122
-446.880	143.050	0.207	0.276
-445.865	-200.000	-0.061	0.327
-444.851	667.653	0.016	0.041
-443.836	-148.303	-0.319	-0.026
-442.822	-200.000	-0.025	-0.402
-441.807	-200.000	-0.068	0.429
-440.792	-127.733	0.117	0.017
-439.778	-52.681	-0.140	0.065
-438.763	-108.341	0.089	0.019
-437.749	653.203	0.003	-0.009
-436.734	467.523	0.092	0.208
-435.719	-86.257	0.118	0.036
-434.705	180.779	-0.154	-0.226
-433.690	800.000	-0.025	-0.083
-432.676	-200.000	-0.004	0.100
-431.661	-200.000	-0.019	0.179
-430.646	-87.637	0.144	0.044
-429.632	-200.000	-0.020	-0.432
-428.617	-104.926	0.319	0.073
-427.603	80.422	0.100	0.108
-426.588	78.622	0.299	-0.321
-425.573	329.134	0.094	-0.181
-424.559	-128.774	0.245	-0.035
-423.544	-88.696	-0.236	0.070
-422.530	-5.429	-0.226	0.156
-421.515	-6.357	0.204	0.140
-420.500	260.213	-0.166	-0.287
-419.486	-127.569	0.242	0.035
-418.471	-105.626	0.145	0.033
-417.457	-20.652	0.044	0.027
-416.442	200.739	0.209	-0.323
-415.428	-178.003	-0.292	0.007
-414.413	-115.906	-0.119	-0.022
-413.398	225.293	0.086	-0.139
-412.384	221.391	0.178	-0.287
-411.369	-186.414	0.238	0.003
-410.355	182.322	-0.070	0.103
-409.340	64.322	-0.074	0.075
-408.325	-128.920	-0.376	-0.053
-407.311	160.428	-0.134	0.187
-406.296	32.194	0.274	-0.237
-405.282	-75.817	0.127	-0.045
-404.267	-200.000	-0.011	-0.096
-403.252	268.451	0.101	-0.178
-402.238	800.000	0.041	0.139
-401.223	-200.000	0.013	0.116
-400.209	800.000	-0.088	0.308
-399.194	41.596	-0.092	0.083
-398.179	-86.617	-0.113	-0.035
-397.165	800.000	-0.024	0.079
-396.150	800.000	0.005	0.015
-395.136	-59.066	-0.221	0.096
-394.121	45.538	-0.389	0.360
-393.106	284.685	0.081	-0.146
-392.092	-84.493	-0.668	0.211
-391.077	111.975	-0.225	-0.273
-390.063	-200.000	0.005	-0.236
-389.048	-72.679	0.091	-0.034
-388.033	-200.000	-0.045	-0.309
-387.019	566.586	0.081	-0.196
-386.004	160.113	-0.150	-0.209
-384.990	-80.853	-0.289	0.096
-383.975	-57.434	0.201	-0.089
-382.960	192.584	0.066	-0.099
-381.946	399.413	0.014	0.029
-380.931	800.000	0.029	0.111
-379.917	-173.015	0.249	0.008
-378.902	417.327	0.188	0.402
-377.888	-115.554	-0.102	-0.019
-376.873	386.976	-0.059	0.123
-375.858	-200.000	0.039	0.247
-374.844	-56.882	0.112	0.049
-373.829	-151.993	-0.317	-0.023
-372.815	-90.249	-0.219	0.064
-371.800	-14.442	-0.246	-0.159
-370.785	-149.359	-0.298	0.024
-369.771	-90.008	-0.246	-0.072
-368.756	28.655	0.125	-0.106
-367.742	-9.244	0.196	-0.131
-366.727	302.090	0.125	0.231
-365.712	157.986	-0.072	0.100
-364.698	-87.020	0.084	-0.026
-363.683	-37.182	-0.304	0.163
-362.669	800.000	0.096	-0.292
-361.654	294.628	-0.118	0.216
-360.639	2.626	0.127	0.092
-359.625	-109.456	0.207	-0.044
-358.610	-63.348	0.111	0.046
-357.596	318.630	0.078	-0.148
-356.581	-134.450	-0.209	-0.026
-355.566	-133.172	0.162	0.020
-354.552	88.348	-0.093	-0.103
-353.537	-16.366	-0.097	-0.061
-352.523	-200.000	0.098	-0.526
-351.508	-85.827	-0.317	0.098
-350.493	-46.196	0.089	-0.044
-349.479	271.900	-0.181	-0.319
-348.464	93.829	0.095	-0.108
-347.450	179.922	0.047	-0.070
-346.435	-83.033	-0.228	0.074
-345.420	800.000	0.049	-0.162
-344.406	-34.641	0.157	0.086
-343.391	47.442	0.030	-0.028
-342.377	-11.993	0.161	0.106
-341.362	166.432	0.110	0.156
-340.348	-31.948	0.190	0.107
-339.333	-101.071	-0.189	-0.046
-338.318	-200.000	0.049	-0.311
-337.304	334.870	0.094	-0.183
-336.289	220.723	-0.051	0.082
-335.275	800.000	0.067	-0.206
-334.260	145.178	0.160	-0.214
-333.245	315.678	0.079	0.150
-332.231	-72.348	0.268	-0.099
-331.216	15.665	-0.147	0.116
-330.202	124.282	-0.032	-0.040
-329.187	-46.424	0.301	-0.148
-328.172	16.500	-0.223	-0.176
-327.158	-139.965	0.219	0.023
-326.143	-200.000	0.024	0.223
-325.129	-200.000	0.016	0.120
-324.114	256.958	0.069	-0.119
-323.099	186.571	0.192	-0.286
-322.085	-62.222	-0.133	-0.055
-321.070	261.274	-0.086	-0.150
-320.056	62.711	-0.291	-0.291
-319.041	-185.740	-0.138	0.002
-318.026	439.806	-0.074	0.161
-317.012	800.000	-0.090	0.275
-315.997	-200.000	0.061	0.272
-314.983	-96.749	0.064	-0.017
-313.968	53.546	0.165	-0.158
-312.953	298.870	0.156	0.287
-311.939	800.000	0.062	0.191
-310.924	29.941	-0.226	0.192
-309.910	-23.143	0.057	0.034
-308.895	26.701	-0.087	0.073
-307.880	800.000	0.074	-0.230
-306.866	-200.000	0.029	0.180
-305.851	554.984	-0.116	-0.278
-304.837	370.089	0.065	-0.131
-303.822	-30.761	0.138	-0.078
-302.807	0.750	0.272	-0.194
-301.793	8.203	-0.115	-0.086
-300.778	-62.661	-0.238	-0.098
-299.764	-134.672	0.136	0.016
-298.749	82.418	-0.329	0.357
-297.735	-68.200	0.305	-0.118
-296.720	19.006	-0.152	0.122
-295.705	-141.336	0.127	0.013
-294.691	-37.625	-0.150	-0.080
-293.676	7.702	0.251	-0.188
-292.662	73.190	-0.054	-0.056
-291.647	-22.122	-0.277	0.168
-290.632	183.775	0.062	0.092
-289.618	-100.030	0.211	-0.053
-288.603	65.923	0.159	-0.161
-287.589	-117.067	-0.120	0.022
-286.574	-77.931	-0.090	0.031
-285.559	46.717	0.152	0.141
-284.545	209.165	0.128	-0.199
-283.530	17.544	0.220	0.175
-282.516	-200.000	-0.006	-0.167
-281.501	-200.000	0.050	-0.226
-280.486	79.768	0.160	-0.171
-279.472	-51.089	0.202	-0.094
-278.457	193.776	-0.208	0.315
-277.443	-43.544	0.255	0.128
-276.428	-25.519	-0.302	0.178
-275.413	-60.763	0.332	-0.140
-274.399	-200.000	-0.021	-0.125
-273.384	-72.390	-0.448	0.165
-272.370	-133.538	0.355	-0.044
-271.355	800.000	0.046	-0.181
-270.340	-132.654	-0.292	0.037
-269.326	-48.320	-0.348	0.167
-268.311	-5.322	-0.052	0.036
-267.297	-81.599	0.188	0.062
-266.282	-200.000	0.021	-0.158
-265.267	-170.536	0.163	0.006
-264.253	-200.000	-0.001	-0.293
-263.238	-65.366	-0.142	-0.057
-262.224	19.619	-0.138	0.111
-261.209	116.846	0.083	0.101
-260.195	544.906	0.051	0.120
-259.180	-79.973	0.389	0.130
-258.165	-37.697	-0.225	0.119
-257.151	-200.000	-0.026	-0.149
-256.136	73.016	-0.376	0.392
-255.122	-200.000	-0.036	0.286
-254.107	-51.146	0.124	-0.058
-253.092	381.247	0.133	0.272
-252.078	87.742	-0.213	0.235
-251.063	438.935	-0.105	-0.229
-250.049	-60.462	0.195	0.083
-249.034	785.752	-0.026	0.072
-248.019	-200.000	-0.016	0.111
-247.005	150.323	-0.159	0.215
-245.990	166.494	0.153	0.216
-244.976	-41.317	0.027	-0.014
-243.961	-113.817	-0.108	0.021
-242.946	-88.953	0.156	0.046
-241.932	-48.789	0.183	0.087
-240.917	-110.220	0.304	0.063
-239.903	407.432	0.048	0.101
-238.888	-89.007	-0.287	0.085
-237.873	47.290	-0.111	-0.103
-236.859	-200.000	-0.059	-0.299
-235.844	-6.460	0.201	-0.137
-234.830	-59.317	-0.240	-0.103
-233.815	-102.416	0.179	0.043
-232.800	126.139	0.114	0.143
-231.786	463.130	-0.105	-0.234
-230.771	215.546	0.107	-0.170
-229.757	-160.310	-0.265	0.014
-228.742	-200.000	0.003	0.050
-227.727	-189.487	-0.167	-0.002
-226.713	800.000	-0.042	0.156
-225.698	526.944	-0.158	0.370
-224.684	800.000	-0.023	-0.067
-223.669	741.421	-0.018	0.048
-222.655	11.017	0.213	0.162
-221.640	-200.000	0.025	0.292
-220.625	591.383	-0.046	-0.114
-219.611	-74.528	0.324	0.116
-218.596	137.248	0.021	0.027
-217.582	-200.000	-0.035	0.233
-216.567	-200.000	-0.081	0.576
-215.552	-200.000	0.025	0.291
-214.538	-3.511	-0.154	0.106
-213.523	99.034	-0.127	-0.146
-212.509	-101.774	-0.151	-0.036
-211.494	-122.914	-0.317	-0.051
-210.479	-200.000	-0.004	-0.166
-209.465	-35.239	-0.358	-0.194
-208.450	-41.011	-0.105	0.054
-207.436	148.243	-0.105	0.142
-206.421	-66.526	0.279	-0.110
-205.406	207.214	0.048	-0.074
-204.392	800.000	-0.080	-0.289
-203.377	-200.000	0.009	0.106
-202.363	71.703	0.137	0.141
-201.348	-200.000	0.029	0.144
-200.333	277.863	0.194	-0.344
-199.319	-200.000	0.001	-0.254
-198.304	800.000	-0.095	0.287
-197.290	-34.643	0.116	-0.063
-196.275	-116.805	0.085	0.015
-195.260	-58.260	0.225	0.098
-194.246	-21.673	-0.171	0.104
-193.231	112.117	0.024	0.029
-192.217	404.288	0.088	-0.184
-191.202	800.000	0.042	0.145
-190.187	244.155	0.156	0.260
-189.173	153.362	0.095	-0.130
-188.158	-77.789	-0.119	-0.041
-187.144	34.751	-0.326	0.283
-186.129	-200.000	0.021	-0.221
-185.114	115.213	-0.141	0.172
-184.100	39.191	-0.069	-0.061
-183.085	-28.632	0.092	0.053
-182.071	29.571	0.103	0.088
-181.056	334.497	-0.105	0.202
-180.042	50.714	-0.244	0.229
-179.027	227.087	-0.125	-0.202
-178.012	82.872	-0.105	0.113
-176.998	159.872	0.212	0.294
-175.983	-5.314	0.265	0.181
-174.969	-200.000	0.005	0.516
-173.954	86.019	0.105	-0.114
-172.939	-171.476	-0.189	-0.006
-171.925	-28.891	-0.205	0.117
-170.910	311.955	-0.029	-0.053
-169.896	-126.411	0.194	0.029
-168.881	-200.000	0.019	-0.362
-167.866	615.194	-0.077	0.193
-166.852	-200.000	-0.051	0.241
-165.837	275.955	-0.115	-0.202
-164.823	-64.818	0.219	-0.088
-163.808	-100.513	-0.257	0.063
-162.793	-150.721	-0.269	0.020
-161.779	-147.925	-0.169	0.014
-160.764	800.000	-0.126	-0.382
-159.750	-154.338	0.247	0.016
-158.735	-11.464	-0.097	-0.063
-157.720	800.000	0.055	0.165
-156.706	-200.000	0.271	-0.001
-155.691	56.189	0.154	-0.148
-154.677	-44.793	0.249	-0.123
-153.662	-153.703	0.107	0.007
-152.647	-77.626	-0.033	-0.011
-151.633	-200.000	0.019	0.136
-150.618	573.667	0.082	-0.199
-149.604	800.000	0.071	0.262
-148.589	-90.775	0.258	0.074
-147.574	191.926	-0.109	0.164
-146.560	-200.000	-0.023	-0.154
-145.545	-200.000	-0.028	0.126
-144.531	-200.000	0.021	-0.122
-143.516	271.379	0.060	0.106
-142.502	-156.955	0.056	-0.003
-141.487	-92.269	0.254	-0.071
-140.472	29.501	-0.182	0.153
-139.458	800.000	-0.039	-0.168
-138.443	732.757	-0.105	-0.278
-137.429	800.000	0.064	0.259
-136.414	120.903	0.078	-0.096
-135.399	68.911	-0.154	-0.156
-134.385	-41.889	-0.354	-0.180
-133.370	107.146	-0.227	-0.267
-132.356	-200.000	-0.033	0.256
-131.341	10.196	0.202	-0.153
-130.326	85.155	-0.158	-0.172
-129.312	-200.000	-0.002	0.155
-128.297	-101.705	-0.161	0.039
-127.283	-200.000	0.018	0.099
-126.268	140.391	-0.056	0.073
-125.253	800.000	0.152	0.431
-124.239	-120.694	-0.310	0.052
-123.224	87.188	-0.146	0.160
-122.210	733.049	-0.079	-0.209
-121.195	-200.000	-0.014	-0.177
