DTS Sentinel unit serial number:	SN413079Multiplexer serial number:	ORYXHardware model number:	OX4-SRSoftware version number:	ORYX F/W v4.00 Oryx Data Collector v3.7.2.0data status	okinstallation	princeton_trtdifferential loss correction	single-endedforward channel	channel 3reverse channel	N/Adate	2019/09/11time	18:26:10forward acquisition time	60.00reverse acquisition time	0.00gamma	496.2192k internal	0.2287k external	0.2287temperature offset calibration	0.9997default loss term (dB/km)	0.3790temperature slope calibration	1.0000multiplexer offset coefficient	1.0000multiplexer slope coefficient	1.0000fibre end	0.00T internal ref (°C)	43.94T ext. ref 1 (°C)	1.15T ext. ref 2 (°C)	37.81length (m)	temperature (°C)	Stokes	anti-Stokes-747.200	-39.930	-0.016	-0.009
-746.185	800.000	-0.098	0.371
-745.171	-160.934	-0.105	0.006
-744.156	-153.533	-0.136	0.010
-743.142	54.993	0.176	0.174
-742.127	-50.754	0.053	0.026
-741.112	-70.433	-0.072	0.028
-740.098	800.000	0.079	0.276
-739.083	153.284	0.168	-0.236
-738.069	171.855	-0.083	-0.122
-737.054	-37.764	-0.015	0.008
-736.039	800.000	-0.160	0.467
-735.025	-142.395	0.436	0.044
-734.010	30.228	-0.173	0.152
-732.996	-200.000	0.025	-0.398
-731.981	-66.845	-0.075	0.030
-730.966	19.836	0.248	-0.205
-729.952	-12.446	-0.097	-0.065
-728.937	-186.679	-0.347	-0.005
-727.923	-112.544	-0.295	-0.060
-726.908	-173.054	-0.287	0.009
-725.894	-27.653	-0.234	-0.139
-724.879	-107.242	-0.148	-0.033
-723.864	-84.889	-0.223	0.072
-722.850	-68.587	0.190	-0.075
-721.835	-60.349	0.113	0.049
-720.821	-36.090	0.187	-0.104
-719.806	234.988	0.164	0.278
-718.791	-147.292	0.192	-0.017
-717.777	-177.078	0.324	0.008
-716.762	224.266	0.112	-0.186
-715.748	-135.992	-0.333	0.040
-714.733	323.743	-0.201	0.394
-713.718	-94.183	-0.239	-0.067
-712.704	800.000	-0.112	0.339
-711.689	-64.213	-0.214	0.089
-710.675	800.000	-0.086	0.300
-709.660	-115.014	0.216	0.042
-708.645	-197.268	0.094	0.001
-707.631	-200.000	0.015	-0.128
-706.616	-158.176	-0.282	-0.017
-705.602	69.038	-0.207	0.218
-704.587	-88.006	-0.151	-0.046
-703.572	-88.430	-0.243	-0.074
-702.558	-131.847	-0.209	0.028
-701.543	-200.000	-0.006	-0.108
-700.529	-154.416	0.220	-0.015
-699.514	709.336	0.067	-0.180
-698.499	69.834	-0.098	-0.103
-697.485	-200.000	0.002	0.154
-696.470	-87.153	0.134	0.042
-695.456	350.570	-0.047	0.095
-694.441	182.979	-0.117	0.178
-693.426	-41.918	-0.287	-0.151
-692.412	516.073	0.098	0.235
-691.397	800.000	-0.132	0.461
-690.383	-87.857	0.229	0.071
-689.368	4.174	-0.167	-0.125
-688.354	800.000	0.069	0.280
-687.339	-200.000	0.003	-0.040
-686.324	800.000	-0.056	-0.209
-685.310	-200.000	-0.022	-0.116
-684.295	92.559	-0.132	0.152
-683.281	-36.244	-0.335	-0.185
-682.266	50.159	0.093	-0.090
-681.251	24.637	0.210	0.178
-680.237	16.617	-0.088	-0.071
-679.222	-96.124	-0.317	-0.086
-678.208	-200.000	0.154	-0.000
-677.193	-91.376	0.139	-0.041
-676.178	39.596	-0.235	-0.216
-675.164	-159.569	-0.055	0.003
-674.149	236.928	-0.159	0.269
-673.135	-126.139	-0.086	-0.013
-672.120	-169.582	0.032	0.001
-671.105	800.000	0.137	0.461
-670.091	-39.916	0.040	0.021
-669.076	144.419	-0.132	-0.181
-668.062	-200.000	-0.022	0.176
-667.047	-142.411	-0.431	-0.043
-666.032	-200.000	0.005	0.075
-665.018	-196.767	0.242	-0.002
-664.003	-192.101	-0.089	-0.001
-662.989	609.010	0.126	-0.320
-661.974	-200.000	0.038	0.327
-660.959	86.411	-0.176	-0.198
-659.945	355.072	0.118	-0.241
-658.930	-159.058	-0.172	0.010
-657.916	-55.552	-0.189	-0.087
-656.901	53.396	-0.057	0.056
-655.886	-65.318	-0.162	0.067
-654.872	-200.000	0.013	-0.128
-653.857	548.343	0.035	-0.086
-652.843	-89.194	0.272	0.082
-651.828	193.880	-0.063	-0.098
-650.814	-200.000	0.036	0.256
-649.799	-200.000	-0.035	-0.269
-648.784	201.547	-0.236	-0.372
-647.770	800.000	-0.168	-0.476
-646.755	-25.051	-0.260	-0.157
-645.741	347.927	0.085	0.171
-644.726	378.818	-0.052	-0.108
-643.711	-46.151	0.076	0.038
-642.697	5.983	0.162	0.123
-641.682	-200.000	-0.069	-0.359
-640.668	-35.129	-0.202	-0.113
-639.653	2.591	-0.082	-0.060
-638.638	-110.467	0.234	0.050
-637.624	-80.818	-0.324	0.110
-636.609	-200.000	-0.045	0.306
-635.595	182.649	0.039	-0.059
-634.580	-62.696	-0.183	-0.077
-633.565	146.130	-0.175	0.240
-632.551	-74.118	-0.129	-0.048
-631.536	-145.787	-0.114	0.010
-630.522	800.000	0.160	0.487
-629.507	-51.499	-0.226	-0.108
-628.492	-200.000	-0.011	-0.150
-627.478	-115.101	0.230	-0.045
-626.463	-124.607	0.182	0.029
-625.449	686.102	-0.080	-0.213
-624.434	77.496	-0.021	-0.023
-623.419	-200.000	-0.051	-0.257
-622.405	-77.428	0.137	0.048
-621.390	45.340	0.222	0.209
-620.376	-21.038	0.379	0.237
-619.361	-200.000	0.027	-0.145
-618.346	-77.408	0.253	-0.090
-617.332	-200.000	0.074	-0.459
-616.317	100.627	-0.186	-0.221
-615.303	49.547	-0.193	0.186
-614.288	133.889	-0.102	-0.134
-613.273	-200.000	-0.047	-0.326
-612.259	-135.713	-0.207	0.025
-611.244	-16.769	-0.055	0.036
-610.230	188.225	0.224	0.342
-609.215	-133.456	0.135	-0.017
-608.201	-14.027	0.150	-0.099
-607.186	78.572	-0.195	0.213
-606.171	10.774	0.373	0.290
-605.157	373.949	-0.051	0.105
-604.142	444.184	-0.221	0.494
-603.128	216.139	-0.097	0.157
-602.113	-200.000	-0.004	-0.197
-601.098	800.000	-0.099	0.299
-600.084	-200.000	-0.019	0.110
-599.069	244.089	-0.087	-0.149
-598.055	-24.798	0.293	-0.177
-597.040	-47.476	-0.295	0.146
-596.025	-200.000	-0.046	0.328
-595.011	-60.739	-0.067	-0.029
-593.996	144.627	-0.131	0.179
-592.982	-110.731	0.044	0.009
-591.967	228.932	-0.123	-0.205
-590.952	-106.025	0.295	0.068
-589.938	-88.432	0.073	0.022
-588.923	-121.772	-0.259	0.044
-587.909	447.784	-0.036	0.081
-586.894	156.462	-0.118	0.167
-585.879	-123.308	0.153	0.025
-584.865	672.539	0.097	-0.255
-583.850	-200.000	0.021	0.000
-582.836	-88.977	-0.553	-0.167
-581.821	-181.717	0.196	0.004
-580.806	-131.284	0.111	0.015
-579.792	-111.551	0.436	-0.090
-578.777	-200.000	-0.019	0.204
-577.763	-200.000	0.001	0.084
-576.748	800.000	0.073	-0.287
-575.733	416.359	0.107	0.233
-574.719	-161.441	0.102	0.005
-573.704	-199.174	0.244	0.001
-572.690	187.944	-0.135	0.206
-571.675	77.134	-0.257	0.278
-570.661	348.659	0.203	-0.409
-569.646	-88.857	0.173	0.052
-568.631	-144.274	0.295	-0.028
-567.617	142.648	-0.189	-0.255
-566.602	5.684	-0.381	-0.287
-565.588	-200.000	0.016	0.327
-564.573	0.977	-0.184	-0.134
-563.558	131.997	-0.217	-0.285
-562.544	-49.967	0.254	0.123
-561.529	-104.346	-0.094	-0.022
-560.515	5.509	-0.246	-0.185
-559.500	122.730	-0.129	0.164
-558.485	800.000	0.065	-0.277
-557.471	-24.941	-0.110	-0.067
-556.456	130.868	-0.188	0.245
-555.442	-70.405	-0.303	0.117
-554.427	8.266	0.182	0.140
-553.412	90.216	-0.089	-0.102
-552.398	204.816	-0.011	0.017
-551.383	800.000	0.048	0.140
-550.369	116.290	-0.191	0.238
-549.354	269.084	0.065	-0.116
-548.339	-61.242	-0.150	0.064
-547.325	-200.000	0.026	-0.141
-546.310	258.545	0.065	0.114
-545.296	-200.000	-0.003	-0.372
-544.281	-200.000	-0.067	-0.326
-543.266	-126.161	-0.149	-0.023
-542.252	800.000	-0.071	0.241
-541.237	-129.142	0.264	0.038
-540.223	-40.703	0.098	0.052
-539.208	519.213	-0.101	0.240
-538.193	43.338	-0.090	0.084
-537.179	14.334	0.132	-0.105
-536.164	-200.000	0.011	0.082
-535.150	31.367	0.158	-0.138
-534.135	-127.710	0.194	-0.028
-533.121	-127.042	0.169	-0.025
-532.106	800.000	0.021	-0.071
-531.091	24.616	0.163	-0.137
-530.077	-36.987	-0.236	-0.129
-529.062	-87.681	-0.238	0.073
-528.048	7.673	0.098	-0.075
-527.033	-200.000	0.021	0.121
-526.018	800.000	0.038	0.111
-525.004	128.944	0.138	0.180
-523.989	219.636	0.076	-0.124
-522.975	581.038	-0.102	0.253
-521.960	261.216	0.217	0.382
-520.945	-16.902	-0.201	-0.129
-519.931	23.956	-0.128	-0.107
-518.916	101.889	-0.109	0.130
-517.902	-200.000	0.000	0.214
-516.887	207.092	-0.127	0.201
-515.872	7.508	0.113	0.086
-514.858	-32.583	-0.149	0.085
-513.843	-177.122	-0.081	-0.002
-512.829	-164.333	-0.181	-0.008
-511.814	-26.043	0.168	0.101
-510.799	84.359	-0.212	0.235
-509.785	188.861	0.131	0.199
-508.770	-137.968	0.273	-0.031
-507.756	54.441	0.094	-0.092
-506.741	-18.251	0.306	0.195
-505.726	246.847	0.026	-0.045
-504.712	800.000	-0.042	-0.156
-503.697	136.249	0.258	0.342
-502.683	-99.988	0.131	-0.033
-501.668	-59.872	-0.260	0.113
-500.653	661.287	-0.067	0.175
-499.639	336.440	0.050	-0.098
-498.624	-70.308	-0.243	0.094
-497.610	-106.068	-0.104	0.024
-496.595	-200.000	0.261	-0.001
-495.581	-200.000	0.003	0.049
-494.566	-154.525	-0.369	-0.025
-493.551	183.646	-0.327	0.491
-492.537	298.780	0.108	0.201
-491.522	-45.373	-0.188	-0.095
-490.508	-27.372	-0.405	0.239
-489.493	729.983	-0.051	-0.139
-488.478	65.014	-0.220	-0.226
-487.464	-31.522	-0.070	0.040
-486.449	-200.000	0.003	-0.059
-485.435	193.331	0.134	-0.205
-484.420	-200.000	0.027	-0.251
-483.405	286.634	0.022	0.041
-482.391	186.507	-0.059	0.089
-481.376	-56.458	0.213	0.096
-480.362	355.097	0.100	0.202
-479.347	-177.314	-0.301	-0.008
-478.332	-102.392	0.141	0.034
-477.318	-200.000	-0.094	0.451
-476.303	800.000	-0.026	0.112
-475.289	800.000	0.048	0.145
-474.274	-74.188	-0.242	0.089
-473.259	100.939	0.291	0.343
-472.245	70.644	-0.161	-0.169
-471.230	-64.739	-0.264	0.108
-470.216	-81.156	-0.126	0.042
-469.201	800.000	0.035	0.133
-468.186	768.487	-0.057	-0.157
-467.172	800.000	0.095	-0.295
-466.157	800.000	-0.062	0.175
-465.143	-200.000	-0.035	0.185
-464.128	-155.462	0.048	-0.003
-463.113	-200.000	0.040	-0.255
-462.099	-169.774	-0.195	-0.007
-461.084	-39.538	0.085	0.045
-460.070	-129.270	-0.383	-0.054
-459.055	-200.000	0.081	0.414
-458.040	800.000	-0.026	0.073
-457.026	66.610	0.163	-0.168
-456.011	-200.000	-0.056	0.292
-454.997	-186.750	0.147	0.002
-453.982	-60.907	0.302	-0.130
-452.968	-97.797	-0.273	0.071
-451.953	117.211	0.215	-0.268
-450.938	149.277	-0.221	0.304
-449.924	130.881	-0.156	-0.203
-448.909	627.391	0.145	-0.372
-447.895	-17.045	0.214	0.137
-446.880	48.574	-0.125	-0.119
-445.865	-200.000	-0.006	-0.215
-444.851	-0.650	0.134	0.096
-443.836	-133.559	0.452	-0.057
-442.822	358.816	0.104	0.210
-441.807	679.474	0.008	0.021
-440.792	-102.697	0.195	0.047
-439.778	-80.185	0.069	0.023
-438.763	37.070	-0.134	-0.120
-437.749	800.000	-0.036	0.102
-436.734	-56.718	-0.242	-0.109
-435.719	-40.089	-0.188	0.099
-434.705	-58.993	-0.093	0.040
-433.690	517.096	-0.115	-0.272
-432.676	800.000	-0.101	-0.365
-431.661	17.430	-0.064	-0.052
-430.646	-65.004	-0.177	0.073
-429.632	543.606	-0.064	0.156
-428.617	-104.664	0.309	0.072
-427.603	-165.646	-0.101	0.004
-426.588	386.364	-0.029	-0.060
-425.573	-4.402	0.113	-0.079
-424.559	48.263	0.117	0.111
-423.544	-159.522	0.142	0.008
-422.530	-23.680	0.212	-0.129
-421.515	-6.934	-0.112	-0.077
-420.500	800.000	0.040	0.135
-419.486	-200.000	-0.000	-0.386
-418.471	-162.928	0.175	0.009
-417.457	800.000	0.040	-0.144
-416.442	92.932	-0.260	0.298
-415.428	519.174	0.076	0.181
-414.413	-17.508	0.213	0.136
-413.398	474.097	0.079	0.181
-412.384	28.765	0.069	0.059
-411.369	568.830	0.042	-0.104
-410.355	800.000	0.098	0.405
-409.340	-10.113	0.134	0.090
-408.325	-61.351	-0.179	-0.076
-407.311	0.055	-0.189	0.137
-406.296	-45.182	0.243	0.122
-405.282	-19.558	-0.183	-0.114
-404.267	-86.181	-0.151	0.047
-403.252	800.000	0.068	0.219
-402.238	250.961	0.114	0.197
-401.223	-200.000	0.046	0.323
-400.209	-200.000	0.016	-0.191
-399.194	180.207	-0.116	-0.173
-398.179	800.000	0.119	0.399
-397.165	76.331	-0.133	0.142
-396.150	305.159	-0.207	-0.388
-395.136	731.064	-0.093	-0.251
-394.121	-200.000	0.015	-0.094
-393.106	-72.509	0.258	-0.097
-392.092	-129.770	0.048	0.007
-391.077	-67.626	-0.177	0.070
-390.063	44.112	-0.205	0.190
-389.048	74.927	-0.162	0.172
-388.033	212.153	-0.071	0.113
-387.019	800.000	-0.084	-0.369
-386.004	-78.274	0.069	-0.024
-384.990	-200.000	-0.003	-0.108
-383.975	-144.773	-0.241	0.022
-382.960	2.382	0.222	0.163
-381.946	-114.011	0.020	-0.004
-380.931	800.000	-0.070	-0.223
-379.917	-5.414	-0.096	-0.066
-378.902	-69.965	0.024	0.009
-377.888	800.000	-0.054	-0.226
-376.873	-38.118	0.174	-0.093
-375.858	-121.242	-0.239	-0.040
-374.844	-191.282	0.158	-0.002
-373.829	-60.881	-0.175	-0.075
-372.815	-37.834	-0.140	0.075
-371.800	68.324	0.108	0.112
-370.785	-200.000	0.028	-0.143
-369.771	-115.430	-0.155	0.030
-368.756	195.457	0.296	-0.454
-367.742	319.336	-0.005	0.010
-366.727	-92.115	-0.062	-0.018
-365.712	113.442	-0.186	0.229
-364.698	-43.040	-0.150	-0.077
-363.683	-129.400	0.265	-0.037
-362.669	283.303	0.033	0.060
-361.654	-200.000	0.028	-0.256
-360.639	325.134	0.059	0.113
-359.625	55.133	0.171	0.167
-358.610	194.305	0.222	0.339
-357.596	726.345	0.053	-0.143
-356.581	-99.151	-0.240	0.061
-355.566	-69.181	-0.289	-0.112
-354.552	480.254	0.005	-0.011
-353.537	-97.189	0.108	-0.029
-352.523	-200.000	0.061	0.342
-351.508	-109.661	-0.031	-0.007
-350.493	-180.467	0.453	0.009
-349.479	-190.991	-0.195	-0.002
-348.464	-80.986	-0.327	-0.109
-347.450	-17.535	-0.273	0.173
-346.435	102.176	-0.043	0.051
-345.420	-200.000	0.008	0.181
-344.406	-200.000	-0.092	-0.564
-343.391	-200.000	0.004	-0.061
-342.377	-85.829	-0.212	0.066
-341.362	-200.000	-0.001	-0.009
-340.348	-103.619	0.047	0.011
-339.333	237.411	0.205	-0.343
-338.318	-200.000	0.028	-0.125
-337.304	-73.292	0.410	0.151
-336.289	1.354	-0.321	-0.233
-335.275	23.028	-0.152	0.126
-334.260	64.223	0.106	-0.108
-333.245	-29.433	-0.082	-0.047
-332.231	-141.998	-0.282	0.028
-331.216	249.663	0.068	-0.117
-330.202	-66.393	-0.260	0.104
-329.187	-10.884	-0.185	0.123
-328.172	75.094	-0.075	0.080
-327.158	414.609	-0.123	-0.265
-326.143	31.068	0.121	0.104
-325.129	422.163	0.047	-0.102
-324.114	334.958	-0.137	0.267
-323.099	-200.000	-0.026	0.267
-322.085	-161.752	0.115	-0.006
-321.070	800.000	-0.070	0.204
-320.056	16.842	-0.192	0.153
-319.041	518.607	-0.179	-0.423
-318.026	136.808	-0.083	0.110
-317.012	10.592	-0.153	-0.118
-315.997	-76.853	0.151	-0.053
-314.983	-200.000	0.005	-0.234
-313.968	-200.000	-0.018	0.280
-312.953	-69.295	-0.181	0.070
-311.939	117.624	-0.021	0.026
-310.924	-61.938	0.108	-0.046
-309.910	131.275	0.166	0.215
-308.895	-85.728	0.252	0.079
-307.880	59.958	-0.022	-0.022
-306.866	-12.090	-0.160	-0.106
-305.851	45.168	0.028	-0.026
-304.837	-13.520	0.235	0.153
-303.822	-39.774	0.232	-0.122
-302.807	-74.349	0.240	0.087
-301.793	167.126	-0.203	-0.290
-300.778	698.176	-0.041	0.109
-299.764	800.000	-0.068	0.244
-298.749	-135.055	-0.233	-0.028
-297.735	164.009	0.072	0.103
-296.720	800.000	0.027	-0.077
-295.705	-35.316	-0.176	-0.096
-294.691	272.953	0.051	0.090
-293.676	-158.854	0.044	0.003
-292.662	-58.862	0.222	0.097
-291.647	781.377	-0.116	-0.320
-290.632	99.609	0.157	-0.183
-289.618	-200.000	0.046	0.214
-288.603	-19.538	0.231	0.144
-287.589	251.443	0.057	-0.097
-286.574	453.751	0.035	0.077
-285.559	29.329	-0.137	-0.117
-284.545	-55.578	-0.175	0.079
-283.530	800.000	0.035	0.119
-282.516	-71.453	0.105	0.040
-281.501	110.116	-0.121	-0.147
-280.486	800.000	-0.141	-0.458
-279.472	308.732	-0.109	-0.205
-278.457	243.988	-0.174	-0.294
-277.443	-110.135	0.207	-0.043
-276.428	-98.588	0.178	0.046
-275.413	66.829	0.167	-0.171
-274.399	-5.013	-0.269	-0.186
-273.384	0.088	0.262	-0.188
-272.370	-45.805	0.335	-0.167
-271.355	-112.778	0.199	-0.040
-270.340	800.000	-0.099	-0.373
-269.326	-23.589	0.335	0.202
-268.311	-37.761	-0.083	0.045
-267.297	62.862	-0.067	0.067
-266.282	164.287	-0.181	-0.257
-265.267	-72.358	0.502	-0.187
-264.253	18.354	0.235	-0.189
-263.238	-38.993	-0.204	-0.108
-262.224	-109.604	0.180	-0.038
-261.209	-200.000	-0.062	0.335
-260.195	39.248	0.064	0.058
-259.180	-200.000	-0.052	-0.254
-258.165	407.155	-0.140	-0.299
-257.151	-200.000	-0.015	-0.104
-256.136	-200.000	-0.047	-0.274
-255.122	215.154	-0.121	-0.194
-254.107	800.000	-0.103	0.291
-253.092	76.668	0.140	0.149
-252.078	-17.991	0.367	0.232
-251.063	408.454	0.091	-0.194
-250.049	131.293	-0.026	-0.033
-249.034	104.006	0.113	-0.134
-248.019	-149.679	0.294	-0.023
-247.005	-112.850	-0.256	-0.051
-245.990	195.178	-0.085	-0.129
-244.976	14.907	-0.134	0.105
-243.961	3.011	0.087	-0.063
-242.946	221.907	0.103	-0.167
-241.932	333.238	-0.275	-0.535
-240.917	-134.636	-0.254	-0.031
-239.903	-48.311	-0.153	-0.074
-238.888	-114.160	-0.198	-0.039
-237.873	-122.768	0.275	0.045
-236.859	3.107	-0.133	-0.097
-235.844	-107.252	-0.168	0.037
-234.830	-163.270	0.573	-0.028
-233.815	28.135	0.120	0.101
-232.800	316.859	-0.100	0.190
-231.786	148.465	-0.182	-0.247
-230.771	36.833	-0.217	-0.193
-229.757	411.071	0.094	0.200
-228.742	-83.482	0.231	-0.074
-227.727	-200.000	0.018	-0.091
-226.713	-200.000	-0.013	0.085
-225.698	176.089	0.114	-0.167
-224.684	-200.000	-0.024	0.112
-223.669	21.977	0.151	-0.124
-222.655	109.120	0.063	-0.075
-221.640	35.828	0.050	-0.044
-220.625	46.521	0.137	0.128
-219.611	32.431	-0.186	-0.161
-218.596	-180.329	-0.120	-0.003
-217.582	8.005	0.225	-0.170
-216.567	471.349	-0.111	-0.250
-215.552	-200.000	0.036	0.200
-214.538	-200.000	-0.003	-0.088
-213.523	-138.017	-0.262	0.029
-212.509	-94.113	0.023	0.006
-211.494	-135.600	0.327	-0.039
-210.479	-200.000	0.002	-0.190
-209.465	70.116	0.308	0.319
-208.450	-200.000	-0.037	0.519
-207.436	145.246	-0.189	0.254
-206.421	216.824	0.103	0.165
-205.406	-200.000	-0.029	0.369
-204.392	-200.000	0.044	-0.198
-203.377	115.015	-0.084	-0.103
-202.363	800.000	0.101	0.348
-201.348	800.000	0.096	0.302
-200.333	-200.000	0.018	0.126
-199.319	189.044	-0.246	-0.370
-198.304	-200.000	-0.275	0.000
-197.290	-89.940	0.048	-0.014
-196.275	114.019	0.249	-0.304
-195.260	194.392	0.237	0.361
-194.246	404.233	-0.129	0.273
-193.231	800.000	-0.065	0.222
-192.217	-124.965	0.494	-0.076
-191.202	-200.000	0.027	-0.198
-190.187	-101.968	0.219	-0.053
-189.173	-140.634	0.482	0.050
-188.158	-19.255	-0.111	0.069
-187.144	-200.000	-0.022	-0.273
-186.129	-69.574	-0.057	-0.022
-185.114	4.412	-0.020	0.014
-184.100	-77.097	-0.088	-0.031
-183.085	-17.044	-0.171	0.108
-182.071	128.774	-0.094	-0.120
-181.056	-197.440	-0.097	0.001
-180.042	373.373	-0.036	-0.073
-179.027	-78.825	0.444	-0.152
-178.012	327.451	-0.128	-0.246
-176.998	-200.000	0.016	-0.262
-175.983	248.534	0.053	0.090
-174.969	41.107	-0.145	0.132
-173.954	-200.000	0.022	0.149
-172.939	-200.000	0.016	0.095
-171.925	-120.110	0.028	-0.005
-170.910	651.647	0.075	-0.192
-169.896	-46.425	-0.205	-0.101
-168.881	-167.203	0.289	0.012
-167.866	-73.891	0.329	0.120
-166.852	-200.000	-0.006	0.182
-165.837	299.141	0.124	0.230
-164.823	-125.548	-0.270	-0.041
-163.808	608.235	-0.127	-0.317
-162.793	-66.133	0.098	-0.039
-161.779	-200.000	-0.031	-0.216
-160.764	800.000	0.074	0.296
-159.750	800.000	0.055	-0.175
-158.735	-82.499	0.434	0.141
-157.720	586.239	0.208	-0.512
-156.706	50.394	0.165	-0.156
-155.691	-200.000	-0.008	0.056
-154.677	261.555	-0.094	0.164
-153.662	-200.000	-0.049	0.267
-152.647	40.674	0.317	0.286
-151.633	546.448	0.047	0.113
-150.618	-103.511	0.242	-0.057
-149.604	607.316	-0.148	-0.369
-148.589	72.019	-0.259	-0.270
-147.574	667.386	-0.070	-0.182
-146.560	-113.433	-0.214	-0.042
-145.545	-40.664	0.238	-0.124
-144.531	800.000	-0.022	-0.088
-143.516	7.138	0.080	-0.060
-142.502	-79.216	-0.119	-0.040
-141.487	-15.389	0.175	0.112
-140.472	-85.780	-0.136	-0.042
-139.458	66.896	-0.062	0.063
-138.443	-200.000	-0.040	0.250
-137.429	631.515	-0.100	-0.254
-136.414	-126.089	-0.056	0.008
-135.399	78.004	0.051	-0.055
-134.385	75.647	-0.100	0.106
-133.370	312.351	0.119	-0.224
-132.356	214.467	0.049	0.078
-131.341	-98.100	0.342	-0.088
-130.326	-200.000	-0.052	-0.273
-129.312	-200.000	0.025	0.188
-128.297	-72.211	0.020	-0.008
-127.283	39.685	-0.052	0.047
-126.268	-1.145	0.077	0.055
-125.253	800.000	0.050	-0.160
-124.239	-200.000	0.016	0.153
-123.224	-106.504	0.325	-0.073
-122.210	-200.000	0.065	0.307
