DTS Sentinel unit serial number:	SN413079Multiplexer serial number:	ORYXHardware model number:	OX4-SRSoftware version number:	ORYX F/W v4.00 Oryx Data Collector v3.7.2.0data status	okinstallation	princeton_trtdifferential loss correction	single-endedforward channel	channel 3reverse channel	N/Adate	2019/09/11time	04:58:11forward acquisition time	60.00reverse acquisition time	0.00gamma	496.2192k internal	0.2330k external	0.2330temperature offset calibration	0.9909default loss term (dB/km)	0.3790temperature slope calibration	1.0000multiplexer offset coefficient	1.0000multiplexer slope coefficient	1.0000fibre end	0.00T internal ref (°C)	29.47T ext. ref 1 (°C)	-0.27T ext. ref 2 (°C)	23.27length (m)	temperature (°C)	Stokes	anti-Stokes-747.200	-200.000	-0.063	-0.288
-746.185	-126.035	-0.372	-0.056
-745.171	511.256	0.126	-0.294
-744.156	309.979	0.203	0.382
-743.142	54.147	-0.255	-0.247
-742.127	-200.000	0.012	0.225
-741.112	-5.450	0.043	0.029
-740.098	-124.663	-0.242	0.038
-739.083	-119.438	-0.070	0.012
-738.069	13.145	-0.232	0.180
-737.054	-200.000	-0.046	-0.460
-736.039	-111.932	-0.334	-0.068
-735.025	-200.000	0.017	-0.108
-734.010	-31.351	-0.494	-0.280
-732.996	-200.000	0.038	-0.265
-731.981	-184.284	-0.187	-0.003
-730.966	-200.000	0.013	-0.072
-729.952	199.697	-0.125	-0.192
-728.937	401.263	-0.103	-0.217
-727.923	-77.615	-0.340	-0.118
-726.908	223.818	-0.122	0.198
-725.894	738.852	-0.097	-0.261
-724.879	38.011	0.093	-0.083
-723.864	243.563	0.116	0.195
-722.850	135.096	-0.184	0.241
-721.835	246.692	-0.156	-0.264
-720.821	-200.000	0.010	0.119
-719.806	75.554	-0.257	0.273
-718.791	-200.000	-0.042	0.283
-717.777	-11.528	0.082	0.054
-716.762	-74.899	0.292	0.105
-715.748	-130.846	-0.182	0.024
-714.733	-200.000	0.026	-0.138
-713.718	-134.883	-0.083	-0.010
-712.704	283.092	-0.031	-0.055
-711.689	0.202	-0.232	-0.167
-710.675	146.046	0.159	-0.215
-709.660	-40.769	-0.313	0.163
-708.645	73.211	-0.198	0.208
-707.631	100.684	-0.277	0.323
-706.616	800.000	-0.072	0.230
-705.602	69.831	-0.049	-0.051
-704.587	-200.000	-0.006	-0.305
-703.572	800.000	-0.059	-0.211
-702.558	800.000	-0.032	0.101
-701.543	292.821	0.278	0.510
-700.529	315.835	-0.152	0.289
-699.514	-22.735	-0.029	0.018
-698.499	-161.776	0.219	-0.011
-697.485	124.011	-0.076	0.097
-696.470	169.672	0.117	0.168
-695.456	-97.720	0.504	0.131
-694.441	-23.676	0.157	-0.095
-693.426	-200.000	0.020	0.115
-692.412	612.752	-0.149	-0.375
-691.397	245.183	-0.071	-0.120
-690.383	-200.000	-0.012	-0.098
-689.368	-200.000	0.011	-0.048
-688.354	-59.599	-0.230	-0.099
-687.339	-157.641	-0.089	-0.005
-686.324	186.254	-0.096	0.144
-685.310	-62.148	-0.272	-0.114
-684.295	-62.174	-0.158	0.066
-683.281	-182.933	0.189	-0.003
-682.266	-119.725	0.034	-0.006
-681.251	-200.000	0.050	-0.296
-680.237	124.686	-0.050	-0.063
-679.222	-200.000	0.021	-0.241
-678.208	-54.468	0.129	-0.059
-677.193	-106.952	-0.236	-0.052
-676.178	-98.958	0.295	0.075
-675.164	181.700	0.057	0.084
-674.149	291.023	-0.123	-0.225
-673.135	-149.353	-0.564	-0.045
-672.120	134.964	-0.099	0.129
-671.105	-149.277	-0.113	0.009
-670.091	-200.000	-0.036	-0.249
-669.076	800.000	0.007	0.030
-668.062	239.949	-0.168	0.281
-667.047	34.442	-0.106	0.093
-666.032	-68.062	0.379	0.148
-665.018	-200.000	-0.014	-0.077
-664.003	1.857	0.210	-0.152
-662.989	-197.810	-0.242	-0.001
-661.974	-159.124	-0.163	0.009
-660.959	75.869	0.336	-0.356
-659.945	-37.137	0.292	0.157
-658.930	-200.000	-0.004	-0.171
-657.916	117.385	-0.205	0.253
-656.901	530.197	-0.152	0.360
-655.886	66.127	-0.177	-0.180
-654.872	-75.580	-0.328	-0.117
-653.857	18.580	0.101	-0.081
-652.843	50.384	0.106	-0.101
-651.828	-200.000	-0.028	0.402
-650.814	558.974	0.044	-0.106
-649.799	252.681	-0.101	0.172
-648.784	800.000	-0.056	-0.155
-647.770	598.791	-0.107	0.267
-646.755	-10.247	-0.256	-0.170
-645.741	-74.290	0.177	0.064
-644.726	112.778	0.150	-0.182
-643.711	41.832	-0.164	-0.149
-642.697	37.240	-0.091	0.081
-641.682	800.000	0.114	0.349
-640.668	509.402	0.082	-0.190
-639.653	-200.000	0.071	-0.387
-638.638	-60.383	0.200	-0.085
-637.624	294.584	-0.089	-0.163
-636.609	-153.986	0.404	-0.028
-635.595	114.406	-0.172	-0.211
-634.580	-67.473	0.135	-0.053
-633.565	53.531	0.141	0.136
-632.551	-77.860	-0.239	0.083
-631.536	-9.100	0.127	-0.085
-630.522	444.001	-0.068	-0.150
-629.507	105.474	-0.126	0.149
-628.492	-71.957	0.353	0.131
-627.478	800.000	-0.058	0.210
-626.463	79.922	-0.105	0.113
-625.449	-30.028	-0.133	-0.076
-624.434	71.582	0.105	0.110
-623.419	-138.842	-0.259	0.028
-622.405	541.695	-0.154	0.367
-621.390	148.016	-0.157	0.212
-620.376	-40.690	-0.206	0.107
-619.361	-143.754	0.112	-0.011
-618.346	576.028	-0.154	-0.377
-617.332	492.959	0.052	-0.120
-616.317	-2.827	-0.244	-0.171
-615.303	239.155	-0.141	-0.235
-614.288	10.375	0.181	0.138
-613.273	-153.384	0.067	-0.005
-612.259	141.813	0.164	0.218
-611.244	-2.230	0.090	-0.064
-610.230	157.507	-0.133	0.184
-609.215	46.848	-0.133	-0.124
-608.201	800.000	-0.036	-0.131
-607.186	-200.000	-0.022	0.273
-606.171	800.000	0.022	-0.077
-605.157	-4.887	-0.102	0.070
-604.142	-149.476	-0.140	-0.011
-603.128	-1.778	0.174	0.123
-602.113	-177.958	-0.359	-0.009
-601.098	-139.127	0.397	-0.043
-600.084	-149.189	0.352	-0.028
-599.069	742.789	0.022	0.059
-598.055	740.910	-0.066	0.179
-597.040	-77.037	0.267	0.093
-596.025	482.198	-0.179	0.407
-595.011	5.090	-0.273	0.201
-593.996	-200.000	0.028	-0.362
-592.982	66.022	-0.100	0.102
-591.967	-95.417	-0.252	-0.068
-590.952	-58.257	0.184	-0.080
-589.938	-170.427	-0.119	0.004
-588.923	-199.985	0.158	0.001
-587.909	-91.400	-0.298	0.085
-586.894	-44.429	-0.061	0.030
-585.879	800.000	-0.039	0.119
-584.865	-200.000	-0.019	-0.173
-583.850	-200.000	-0.039	-0.323
-582.836	-137.313	0.132	0.015
-581.821	-66.977	-0.543	-0.215
-580.806	-42.567	0.302	0.154
-579.792	800.000	0.041	-0.168
-578.777	-47.341	-0.166	-0.081
-577.763	-181.843	-0.102	0.002
-576.748	33.088	0.193	-0.167
-575.733	44.859	0.073	-0.067
-574.719	-200.000	-0.017	0.078
-573.704	61.856	-0.231	-0.230
-572.690	149.553	0.189	0.256
-571.675	109.243	-0.089	-0.106
-570.661	9.095	-0.121	-0.091
-569.646	-50.832	-0.191	-0.090
-568.631	-102.446	0.392	-0.094
-567.617	110.429	-0.215	0.258
-566.602	-200.000	0.084	0.704
-565.588	44.546	0.082	-0.076
-564.573	-147.855	-0.314	-0.026
-563.558	-200.000	0.018	-0.106
-562.544	-91.689	-0.059	0.017
-561.529	-200.000	-0.087	-0.408
-560.515	-77.368	0.025	-0.009
-559.500	-200.000	-0.070	-0.491
-558.485	111.412	-0.063	0.076
-557.471	-62.336	-0.250	-0.104
-556.456	-200.000	-0.013	-0.221
-555.442	-59.697	-0.281	-0.120
-554.427	-48.835	0.084	0.040
-553.412	6.268	-0.077	-0.057
-552.398	-41.932	-0.164	-0.084
-551.383	510.201	-0.072	-0.166
-550.369	-127.989	0.031	-0.004
-549.354	-119.042	-0.089	0.016
-548.339	201.685	0.124	0.190
-547.325	619.639	-0.045	-0.114
-546.310	197.863	-0.077	-0.118
-545.296	-200.000	-0.043	0.225
-544.281	-200.000	0.012	-0.095
-543.266	28.994	-0.070	0.059
-542.252	-173.117	0.144	-0.004
-541.237	-13.371	-0.170	0.110
-540.223	120.618	-0.180	0.223
-539.208	-200.000	-0.001	-0.208
-538.193	-200.000	0.028	-0.208
-537.179	-128.015	-0.493	-0.071
-536.164	471.093	0.107	-0.240
-535.150	-121.009	-0.233	-0.039
-534.135	74.841	0.240	-0.252
-533.121	-148.884	-0.292	-0.024
-532.106	191.988	0.051	0.077
-531.091	800.000	0.097	-0.348
-530.077	68.766	-0.206	0.211
-529.062	-200.000	0.021	0.121
-528.048	-112.204	0.119	0.024
-527.033	358.517	0.127	-0.254
-526.018	-56.635	0.289	-0.128
-525.004	178.060	0.058	-0.085
-523.989	53.284	0.128	0.122
-522.975	15.479	0.261	0.205
-521.960	-93.900	-0.300	-0.082
-520.945	800.000	-0.151	-0.430
-519.931	97.301	0.292	-0.335
-518.916	-200.000	0.013	-0.220
-517.902	100.482	-0.148	-0.171
-516.887	68.056	0.188	-0.192
-515.872	-56.210	0.138	-0.061
-514.858	621.840	-0.101	0.254
-513.843	676.916	0.065	-0.168
-512.829	-21.024	0.249	0.152
-511.814	-197.331	-0.182	-0.001
-510.799	274.239	0.070	0.124
-509.785	-102.123	0.133	-0.032
-508.770	800.000	-0.072	-0.289
-507.756	-77.993	-0.417	0.143
-506.741	579.404	0.027	0.067
-505.726	72.800	0.114	-0.119
-504.712	185.236	0.137	-0.203
-503.697	-149.006	0.325	-0.026
-502.683	-8.135	-0.083	0.055
-501.668	-110.179	0.139	0.029
-500.653	112.098	-0.280	0.338
-499.639	-28.612	0.106	0.061
-498.624	-67.632	0.312	0.122
-497.610	163.960	-0.152	-0.213
-496.595	-39.723	0.058	-0.030
-495.581	-105.058	-0.083	0.019
-494.566	-183.580	0.129	-0.002
-493.551	306.270	0.041	-0.076
-492.537	258.387	0.012	-0.020
-491.522	-200.000	-0.033	-0.300
-490.508	-121.355	0.219	0.036
-489.493	748.294	-0.086	0.232
-488.478	-36.816	0.197	0.106
-487.464	785.859	0.094	0.258
-486.449	15.856	-0.162	0.127
-485.435	-200.000	0.054	-0.284
-484.420	-200.000	-0.009	-0.245
-483.405	487.560	0.066	-0.150
-482.391	25.999	0.263	0.218
-481.376	59.384	-0.124	-0.122
-480.362	-200.000	-0.004	-0.467
-479.347	-107.960	0.035	0.008
-478.332	267.000	-0.006	-0.011
-477.318	110.112	0.055	-0.066
-476.303	800.000	-0.066	0.287
-475.289	25.908	-0.228	0.189
-474.274	136.964	0.116	-0.152
-473.259	-86.712	-0.185	-0.056
-472.245	-178.404	0.063	-0.001
-471.230	-200.000	0.004	0.271
-470.216	361.106	0.007	0.014
-469.201	-116.376	-0.128	0.024
-468.186	-123.064	0.385	-0.062
-467.172	-110.094	0.201	-0.042
-466.157	88.197	0.065	0.072
-465.143	-200.000	0.047	-0.401
-464.128	89.610	0.131	-0.145
-463.113	-20.570	-0.093	-0.057
-462.099	800.000	-0.056	0.214
-461.084	-13.456	0.229	0.148
-460.070	-200.000	-0.034	-0.171
-459.055	-200.000	-0.055	0.304
-458.040	800.000	-0.056	0.190
-457.026	746.772	0.098	-0.262
-456.011	147.292	0.127	0.170
-454.997	-98.428	0.292	-0.074
-453.982	48.254	-0.224	0.209
-452.968	-200.000	-0.005	0.133
-451.953	16.055	-0.099	-0.078
-450.938	182.214	0.032	0.047
-449.924	800.000	-0.163	-0.457
-448.909	49.180	0.185	0.173
-447.895	160.813	-0.138	-0.192
-446.880	-113.106	-0.293	0.057
-445.865	-200.000	0.025	0.375
-444.851	-200.000	0.025	-0.138
-443.836	-200.000	0.030	-0.418
-442.822	-106.394	-0.258	-0.057
-441.807	-22.925	-0.156	0.094
-440.792	-133.357	0.114	-0.014
-439.778	-200.000	0.002	-0.029
-438.763	-121.883	-0.209	0.034
-437.749	20.074	0.176	-0.141
-436.734	-200.000	-0.006	-0.081
-435.719	-94.394	0.057	0.016
-434.705	-163.127	0.222	-0.011
-433.690	150.238	0.317	-0.428
-432.676	195.176	0.161	-0.243
-431.661	800.000	0.073	0.308
-430.646	406.352	-0.030	0.064
-429.632	-104.231	0.287	0.066
-428.617	-58.504	0.162	-0.070
-427.603	-41.018	0.090	-0.046
-426.588	174.910	-0.140	-0.201
-425.573	-200.000	-0.043	0.309
-424.559	-49.747	-0.117	0.055
-423.544	-52.712	-0.363	0.167
-422.530	-102.732	0.043	-0.010
-421.515	389.111	0.042	-0.086
-420.500	800.000	-0.095	-0.395
-419.486	61.516	0.239	-0.237
-418.471	-107.841	-0.297	0.064
-417.457	-200.000	0.024	-0.104
-416.442	101.940	0.168	0.195
-415.428	-62.433	0.085	0.035
-414.413	553.522	0.094	-0.225
-413.398	637.983	-0.082	-0.208
-412.384	-123.535	-0.156	0.025
-411.369	-42.561	-0.253	-0.128
-410.355	-45.679	-0.144	-0.071
-409.340	-153.053	0.388	-0.027
-408.325	120.750	0.097	0.119
-407.311	-200.000	0.057	0.301
-406.296	-33.402	0.137	0.076
-405.282	-125.135	0.336	-0.051
-404.267	49.676	-0.246	0.231
-403.252	-145.807	0.038	-0.003
-402.238	-123.002	-0.240	0.038
-401.223	-200.000	0.021	-0.316
-400.209	764.290	0.059	-0.160
-399.194	54.825	0.079	0.075
-398.179	-200.000	-0.006	0.218
-397.165	-200.000	0.033	0.152
-396.150	50.119	0.125	0.117
-395.136	-200.000	0.361	-0.000
-394.121	-169.656	-0.250	-0.009
-393.106	800.000	0.073	-0.289
-392.092	-142.675	0.228	0.022
-391.077	176.495	-0.165	0.239
-390.063	-200.000	-0.035	0.164
-389.048	-71.848	-0.138	0.051
-388.033	-110.909	0.191	-0.039
-387.019	91.731	-0.085	-0.095
-386.004	-121.177	-0.227	0.038
-384.990	-167.638	-0.161	-0.006
-383.975	-200.000	-0.056	-0.345
-382.960	-171.034	-0.180	-0.006
-381.946	-75.401	-0.151	0.053
-380.931	110.158	0.104	0.124
-379.917	-120.318	0.161	-0.027
-378.902	-200.000	-0.047	0.207
-377.888	-155.679	-0.332	0.021
-376.873	-11.546	-0.109	0.071
-375.858	11.452	-0.129	0.098
-374.844	-44.282	-0.129	0.064
-373.829	-97.275	0.251	0.065
-372.815	39.589	-0.039	-0.035
-371.800	-200.000	0.052	0.316
-370.785	-200.000	-0.002	-0.011
-369.771	112.530	0.126	0.151
-368.756	-200.000	0.027	0.361
-367.742	-167.395	0.103	-0.004
-366.727	-200.000	0.009	-0.286
-365.712	800.000	-0.055	-0.181
-364.698	18.676	-0.078	-0.062
-363.683	173.449	-0.246	0.352
-362.669	732.231	0.122	-0.323
-361.654	-118.444	-0.284	0.050
-360.639	-25.586	0.337	0.197
-359.625	41.425	-0.239	-0.214
-358.610	149.018	-0.175	0.234
-357.596	800.000	0.100	-0.317
-356.581	20.068	-0.255	-0.204
-355.566	282.003	0.187	-0.332
-354.552	-61.910	0.283	0.117
-353.537	-60.682	-0.311	-0.131
-352.523	42.094	-0.251	-0.226
-351.508	3.420	-0.080	-0.058
-350.493	62.333	-0.242	-0.239
-349.479	315.308	-0.078	0.145
-348.464	-200.000	-0.029	0.285
-347.450	745.615	-0.087	0.232
-346.435	64.738	0.090	0.090
-345.420	71.665	-0.215	0.222
-344.406	-66.348	0.161	-0.063
-343.391	42.429	-0.086	-0.078
-342.377	4.041	-0.286	-0.207
-341.362	800.000	-0.058	0.208
-340.348	-50.929	-0.070	0.033
-339.333	-38.869	-0.036	0.019
-338.318	-74.072	0.258	0.093
-337.304	-64.120	-0.172	-0.069
-336.289	-131.263	0.209	0.027
-335.275	-30.940	-0.194	0.108
-334.260	132.758	-0.135	-0.173
-333.245	-48.595	-0.171	-0.081
-332.231	-196.975	0.459	-0.003
-331.216	-200.000	0.001	-0.276
-330.202	-31.875	-0.220	0.122
-329.187	-64.262	-0.305	-0.123
-328.172	-200.000	-0.057	0.307
-327.158	-200.000	-0.071	-0.322
-326.143	-125.676	0.416	0.062
-325.129	-200.000	0.074	-0.398
-324.114	-200.000	0.030	0.318
-323.099	800.000	0.090	-0.296
-322.085	-200.000	0.008	0.083
-321.070	86.212	0.285	0.311
-320.056	-125.371	0.222	0.034
-319.041	-1.736	-0.015	0.010
-318.026	222.745	0.163	0.260
-317.012	-104.462	0.031	0.007
-315.997	-200.000	0.025	0.252
-314.983	37.437	-0.085	-0.075
-313.968	-119.836	-0.372	0.063
-312.953	-140.105	0.127	0.013
-311.939	800.000	0.013	0.054
-310.924	-96.596	-0.289	0.075
-309.910	-101.850	-0.218	0.052
-308.895	276.990	0.110	0.193
-307.880	-200.000	-0.005	-0.317
-306.866	-28.034	0.244	0.139
-305.851	-15.681	0.140	-0.088
-304.837	-97.609	-0.240	0.062
-303.822	-100.415	0.103	-0.025
-302.807	272.679	-0.057	-0.099
-301.793	12.231	-0.141	-0.108
-300.778	800.000	0.061	-0.206
-299.764	-18.888	0.194	0.120
-298.749	284.872	-0.114	0.203
-297.735	-112.490	-0.170	-0.034
-296.720	64.174	0.242	-0.241
-295.705	65.779	0.240	0.240
-294.691	800.000	0.038	0.144
-293.676	800.000	-0.037	0.152
-292.662	-9.655	-0.125	0.082
-291.647	31.108	0.109	-0.092
-290.632	494.145	-0.157	0.357
-289.618	501.716	-0.059	0.134
-288.603	1.472	0.346	0.246
-287.589	-104.786	0.130	-0.030
-286.574	-139.561	-0.356	-0.038
-285.559	-72.318	0.115	0.042
-284.545	-108.162	-0.398	0.085
-283.530	800.000	0.121	-0.414
-282.516	-56.156	0.287	-0.126
-281.501	71.956	-0.151	-0.156
-280.486	-200.000	0.036	0.160
-279.472	8.414	-0.056	-0.042
-278.457	-57.396	-0.224	0.097
-277.443	-92.154	-0.265	-0.074
-276.428	415.655	-0.078	-0.165
-275.413	50.061	-0.218	0.203
-274.399	490.081	0.085	-0.191
-273.384	24.678	0.057	-0.046
-272.370	-200.000	-0.003	0.027
-271.355	-15.176	0.231	-0.146
-270.340	203.572	0.088	0.135
-269.326	62.557	-0.082	-0.081
-268.311	-200.000	0.027	-0.396
-267.297	144.449	0.160	0.211
-266.282	-96.026	0.208	0.055
-265.267	21.881	-0.221	-0.178
-264.253	-200.000	0.046	-0.352
-263.238	155.101	0.132	0.179
-262.224	-105.507	-0.287	-0.064
-261.209	-200.000	0.089	0.501
-260.195	-63.036	0.187	-0.076
-259.180	-0.985	-0.057	-0.040
-258.165	6.409	0.105	0.077
-257.151	104.167	-0.062	-0.073
-256.136	-200.000	-0.007	0.247
-255.122	-200.000	0.017	0.179
-254.107	221.395	0.133	0.210
-253.092	284.538	0.143	0.255
-252.078	68.596	0.008	-0.008
-251.063	626.938	-0.142	-0.353
-250.049	-200.000	-0.007	-0.115
-249.034	65.603	0.242	-0.242
-248.019	38.243	-0.007	0.006
-247.005	-88.634	0.336	-0.099
-245.990	31.245	0.278	-0.236
-244.976	-16.158	-0.226	-0.142
-243.961	-58.102	-0.078	-0.034
-242.946	-63.241	0.190	-0.077
-241.932	-196.536	0.297	0.002
-240.917	-154.779	0.195	-0.013
-239.903	-108.767	-0.271	0.057
-238.888	158.784	-0.125	0.171
-237.873	-145.055	0.454	0.041
-236.859	28.103	0.242	-0.202
-235.844	-200.000	0.014	-0.172
-234.830	182.586	-0.157	0.229
-233.815	-79.385	0.256	-0.086
-232.800	-10.988	0.413	0.269
-231.786	-181.517	0.244	-0.005
-230.771	-200.000	0.037	-0.194
-229.757	800.000	-0.110	0.401
-228.742	-200.000	-0.053	0.415
-227.727	800.000	0.161	0.476
-226.713	-68.182	0.428	0.164
-225.698	-104.161	-0.103	-0.024
-224.684	-10.660	-0.184	-0.120
-223.669	-200.000	0.019	-0.174
-222.655	-32.587	-0.125	0.069
-221.640	162.799	0.026	-0.036
-220.625	337.152	0.123	-0.236
-219.611	-200.000	-0.002	0.097
-218.596	-101.697	0.022	-0.005
-217.582	-119.418	-0.197	0.034
-216.567	800.000	0.069	0.199
-215.552	232.575	-0.087	-0.141
-214.538	-134.881	-0.009	-0.001
-213.523	113.874	0.183	-0.220
-212.509	329.609	-0.031	0.059
-211.494	192.104	-0.149	0.221
-210.479	-74.249	-0.266	0.095
-209.465	-2.803	-0.103	0.071
-208.450	-98.787	-0.160	-0.040
-207.436	-128.716	-0.061	0.008
-206.421	93.540	-0.086	-0.096
-205.406	130.370	-0.138	0.174
-204.392	109.771	0.117	0.138
-203.377	29.043	-0.158	0.132
-202.363	249.324	0.013	-0.021
-201.348	800.000	0.030	0.094
-200.333	55.716	-0.052	0.050
-199.319	800.000	-0.033	0.121
-198.304	-200.000	-0.025	0.414
-197.290	800.000	0.071	0.302
-196.275	-51.087	-0.033	-0.015
-195.260	-8.942	-0.288	-0.190
-194.246	-69.608	-0.119	0.045
-193.231	-92.646	-0.087	0.024
-192.217	-46.939	0.107	0.052
-191.202	-85.932	-0.447	0.136
-190.187	800.000	-0.033	0.135
-189.173	-68.150	0.295	0.113
-188.158	34.427	0.224	-0.192
-187.144	100.460	-0.128	-0.146
-186.129	-200.000	0.067	-0.373
-185.114	-118.236	0.459	-0.080
-184.100	800.000	-0.061	0.200
-183.085	-92.699	0.220	-0.061
-182.071	-23.873	0.101	0.060
-181.056	-13.698	0.315	-0.200
-180.042	-186.399	0.368	0.005
-179.027	-200.000	-0.046	0.273
-178.012	782.585	0.049	0.131
-176.998	-82.314	0.046	0.015
-175.983	-200.000	-0.022	0.217
-174.969	-105.732	-0.031	0.007
-173.954	99.399	0.276	0.314
-172.939	800.000	-0.059	0.233
-171.925	225.882	-0.106	0.169
-170.910	270.880	0.082	0.142
-169.896	94.076	-0.084	0.094
-168.881	-127.802	-0.163	-0.023
-167.866	42.747	0.056	0.050
-166.852	800.000	0.088	-0.252
-165.837	-13.134	-0.080	-0.051
-164.823	800.000	-0.045	-0.140
-163.808	5.358	-0.331	0.240
-162.793	800.000	0.044	-0.125
-161.779	-61.012	0.231	0.096
-160.764	3.374	-0.238	-0.170
-159.750	800.000	-0.052	0.195
-158.735	800.000	-0.104	-0.296
-157.720	-77.278	-0.166	-0.057
-156.706	-168.969	0.428	0.016
-155.691	122.401	-0.138	0.170
-154.677	55.064	0.358	0.340
-153.662	-105.714	-0.288	-0.064
-152.647	-148.511	-0.114	-0.009
-151.633	-122.646	0.221	0.035
-150.618	-200.000	0.020	0.237
-149.604	-130.825	0.094	-0.012
-148.589	-117.813	-0.097	-0.017
-147.574	219.365	-0.110	-0.174
-146.560	-200.000	0.008	0.405
-145.545	127.614	-0.125	0.156
-144.531	-99.742	-0.267	-0.066
-143.516	316.194	-0.117	-0.218
-142.502	-200.000	-0.024	-0.130
-141.487	-48.034	0.274	-0.130
-140.472	159.272	-0.150	-0.205
-139.458	-106.191	-0.018	0.004
-138.443	103.476	-0.139	0.161
-137.429	-38.286	-0.244	0.127
-136.414	-164.749	0.153	-0.007
-135.399	800.000	-0.028	-0.077
-134.385	-61.176	0.216	0.090
-133.370	103.908	0.220	0.254
-132.356	-122.942	-0.162	0.026
-131.341	-183.685	-0.140	-0.002
-130.326	-200.000	-0.018	0.102
-129.312	744.231	0.058	0.155
-128.297	-65.183	-0.232	-0.092
-127.283	114.100	0.081	0.097
-126.268	410.597	-0.094	0.197
-125.253	19.770	0.048	0.038
-124.239	-37.976	0.032	0.017
-123.224	-200.000	0.002	0.021
