DTS Sentinel unit serial number:	SN413079Multiplexer serial number:	ORYXHardware model number:	OX4-SRSoftware version number:	ORYX F/W v4.00 Oryx Data Collector v3.7.2.0data status	okinstallation	princeton_trtdifferential loss correction	single-endedforward channel	channel 3reverse channel	N/Adate	2019/09/10time	18:34:10forward acquisition time	60.00reverse acquisition time	0.00gamma	496.2192k internal	0.2307k external	0.2307temperature offset calibration	0.9913default loss term (dB/km)	0.3790temperature slope calibration	1.0000multiplexer offset coefficient	1.0000multiplexer slope coefficient	1.0000fibre end	0.00T internal ref (°C)	35.69T ext. ref 1 (°C)	-0.38T ext. ref 2 (°C)	27.71length (m)	temperature (°C)	Stokes	anti-Stokes-747.200	54.870	0.168	0.165
-746.185	119.084	0.197	0.247
-745.171	17.547	-0.141	0.114
-744.156	-67.568	-0.582	0.232
-743.142	-49.324	0.131	0.064
-742.127	-72.306	-0.112	-0.042
-741.112	6.012	-0.096	-0.072
-740.098	78.390	-0.173	-0.187
-739.083	-144.487	0.229	-0.022
-738.069	-200.000	0.017	0.264
-737.054	-0.280	0.152	0.110
-736.039	-49.727	-0.191	-0.092
-735.025	-76.471	0.426	-0.152
-734.010	-200.000	0.001	0.014
-732.996	800.000	-0.061	-0.213
-731.981	-72.798	0.237	-0.089
-730.966	473.877	0.078	-0.180
-729.952	180.001	-0.180	-0.268
-728.937	-200.000	-0.018	-0.240
-727.923	91.086	-0.153	-0.175
-726.908	25.756	-0.108	0.092
-725.894	-64.652	0.204	-0.084
-724.879	51.763	0.059	-0.057
-723.864	5.423	-0.066	-0.049
-722.850	800.000	0.038	0.166
-721.835	-39.271	0.167	0.089
-720.821	-122.150	0.050	0.008
-719.806	-200.000	0.004	-0.188
-718.791	-200.000	-0.002	0.126
-717.777	69.688	-0.089	-0.093
-716.762	233.300	0.108	-0.181
-715.748	-25.646	0.165	-0.099
-714.733	-62.539	0.174	0.073
-713.718	-42.162	0.132	0.069
-712.704	507.398	-0.099	-0.234
-711.689	-72.619	0.038	-0.014
-710.675	34.158	-0.058	-0.051
-709.660	-94.535	0.324	0.090
-708.645	-137.390	0.138	0.016
-707.631	800.000	0.009	0.033
-706.616	23.161	0.166	0.138
-705.602	-87.441	0.115	-0.035
-704.587	357.667	0.142	0.287
-703.572	-18.988	0.125	0.079
-702.558	-200.000	-0.031	-0.218
-701.543	-149.223	0.130	0.011
-700.529	251.071	-0.105	0.181
-699.514	35.874	-0.342	-0.305
-698.499	-3.820	-0.301	-0.212
-697.485	289.418	0.029	-0.053
-696.470	-126.455	-0.018	0.003
-695.456	-200.000	0.032	-0.394
-694.441	-95.150	-0.257	-0.070
-693.426	-121.745	0.163	0.027
-692.412	68.890	-0.231	0.241
-691.397	-186.030	-0.189	-0.003
-690.383	31.225	-0.082	0.071
-689.368	34.441	-0.286	0.253
-688.354	-200.000	0.030	0.245
-687.339	-200.000	0.000	-0.055
-686.324	51.684	-0.097	0.094
-685.310	-151.269	-0.035	0.003
-684.295	-58.546	0.249	-0.109
-683.281	-62.096	-0.234	0.099
-682.266	-90.405	-0.133	0.039
-681.251	590.389	-0.071	-0.178
-680.237	-4.719	-0.235	-0.164
-679.222	327.390	0.059	-0.114
-678.208	-18.399	0.139	-0.088
-677.193	800.000	0.015	-0.046
-676.178	800.000	0.047	-0.198
-675.164	81.988	-0.339	-0.372
-674.149	-200.000	-0.037	-0.501
-673.135	800.000	0.104	-0.330
-672.120	-200.000	0.006	-0.281
-671.105	378.803	0.095	0.196
-670.091	7.709	-0.112	0.085
-669.076	-200.000	0.050	0.269
-668.062	184.974	0.129	-0.195
-667.047	180.212	-0.134	0.200
-666.032	36.528	-0.153	-0.137
-665.018	-200.000	0.046	-0.422
-664.003	2.629	0.219	-0.161
-662.989	590.477	0.125	0.312
-661.974	-170.289	-0.192	-0.007
-660.959	-52.983	-0.229	0.107
-659.945	-39.357	-0.290	-0.154
-658.930	-5.755	0.185	-0.128
-657.916	-200.000	-0.021	-0.154
-656.901	-200.000	-0.041	-0.232
-655.886	101.757	0.023	-0.028
-654.872	-200.000	0.054	-0.361
-653.857	800.000	-0.059	0.197
-652.843	800.000	-0.039	0.168
-651.828	800.000	-0.039	-0.130
-650.814	63.758	-0.044	-0.044
-649.799	71.478	0.243	0.256
-648.784	-153.507	0.182	-0.013
-647.770	-200.000	0.028	0.202
-646.755	-200.000	0.003	0.365
-645.741	-118.927	-0.402	0.071
-644.726	54.575	-0.068	0.067
-643.711	-88.711	0.041	0.012
-642.697	-200.000	-0.040	0.433
-641.682	351.335	-0.023	-0.045
-640.668	-10.283	-0.170	-0.114
-639.653	186.055	-0.143	-0.215
-638.638	47.909	-0.156	-0.148
-637.624	91.024	0.273	-0.310
-636.609	-117.160	-0.138	0.025
-635.595	-66.757	0.107	-0.043
-634.580	800.000	0.070	0.236
-633.565	-200.000	0.000	-0.174
-632.551	87.312	-0.079	0.089
-631.536	-200.000	0.071	0.332
-630.522	41.126	-0.094	0.086
-629.507	51.637	0.300	-0.288
-628.492	278.467	-0.141	-0.255
-627.478	-168.042	0.365	-0.014
-626.463	203.187	0.143	-0.225
-625.449	-103.323	0.321	0.077
-624.434	546.878	-0.158	-0.384
-623.419	-48.047	-0.042	0.020
-622.405	473.918	-0.039	-0.089
-621.390	-35.155	0.153	-0.084
-620.376	-95.247	-0.320	0.087
-619.361	-61.873	0.188	-0.080
-618.346	226.625	0.081	0.133
-617.332	-114.189	0.054	0.011
-616.317	-49.594	0.384	0.185
-615.303	-144.584	0.020	0.002
-614.288	-43.451	-0.266	0.136
-613.273	4.016	0.299	-0.221
-612.259	11.727	0.104	-0.081
-611.244	-103.889	0.271	-0.064
-610.230	468.412	-0.109	0.247
-609.215	-200.000	-0.012	-0.108
-608.201	-63.095	0.348	-0.145
-607.186	-200.000	-0.019	0.163
-606.171	-149.774	0.198	-0.016
-605.157	-112.355	0.332	0.067
-604.142	138.071	-0.258	-0.342
-603.128	122.452	-0.129	0.163
-602.113	-200.000	-0.268	0.001
-601.098	141.360	-0.090	-0.121
-600.084	116.707	0.125	-0.155
-599.069	194.316	0.084	-0.129
-598.055	282.847	-0.050	-0.091
-597.040	-158.799	0.234	-0.014
-596.025	800.000	-0.120	-0.372
-595.011	277.177	0.111	-0.200
-593.996	530.168	-0.069	0.165
-592.982	779.877	0.078	0.215
-591.967	-200.000	0.038	-0.229
-590.952	800.000	0.031	-0.103
-589.938	3.632	0.305	-0.225
-588.923	-113.876	0.195	0.038
-587.909	-95.784	-0.185	-0.050
-586.894	-200.000	0.025	0.136
-585.879	-116.785	-0.234	0.043
-584.865	151.353	-0.067	-0.092
-583.850	-58.510	0.337	-0.148
-582.836	-200.000	0.047	0.245
-581.821	-111.960	-0.298	-0.061
-580.806	-16.812	-0.173	0.111
-579.792	10.124	-0.095	0.073
-578.777	291.452	-0.215	0.395
-577.763	324.724	-0.087	-0.167
-576.748	-148.355	0.098	0.008
-575.733	82.500	0.027	0.030
-574.719	235.265	-0.129	0.216
-573.704	-115.050	0.424	-0.081
-572.690	-200.000	-0.028	0.245
-571.675	14.393	0.190	-0.150
-570.661	60.982	-0.127	0.127
-569.646	11.944	0.173	-0.134
-568.631	800.000	-0.136	0.401
-567.617	-80.544	-0.032	0.011
-566.602	112.913	-0.148	0.182
-565.588	-124.813	-0.300	-0.047
-564.573	800.000	0.056	-0.192
-563.558	-55.552	0.108	-0.049
-562.544	13.929	0.255	0.200
-561.529	-39.040	-0.187	0.100
-560.515	-87.089	0.049	0.015
-559.500	116.491	0.215	0.266
-558.485	-67.308	-0.094	0.037
-557.471	-200.000	-0.034	0.158
-556.456	342.079	0.133	-0.262
-555.442	255.982	-0.060	0.104
-554.427	110.596	0.136	-0.165
-553.412	751.292	0.118	-0.322
-552.398	-200.000	-0.035	0.238
-551.383	-200.000	-0.084	0.434
-550.369	76.255	0.103	-0.110
-549.354	612.999	-0.071	0.179
-548.339	-110.595	0.188	-0.039
-547.325	476.901	0.090	-0.205
-546.310	-15.546	0.301	-0.194
-545.296	78.399	-0.238	-0.257
-544.281	-200.000	0.021	-0.119
-543.266	-200.000	0.039	0.457
-542.252	-200.000	0.024	0.438
-541.237	396.804	0.124	0.261
-540.223	-20.600	0.345	-0.214
-539.208	-72.445	0.165	0.062
-538.193	-4.140	-0.166	0.116
-537.179	-4.601	0.152	0.106
-536.164	-200.000	0.015	0.190
-535.150	-200.000	-0.009	-0.216
-534.135	-102.235	-0.342	-0.083
-533.121	-105.505	0.321	-0.073
-532.106	-133.831	0.156	-0.020
-531.091	-41.420	0.164	0.085
-530.077	519.406	-0.101	-0.239
-529.062	-92.171	-0.051	-0.014
-528.048	-158.913	-0.131	0.008
-527.033	-47.016	-0.106	0.052
-526.018	-95.266	-0.272	-0.074
-525.004	-80.361	-0.128	0.043
-523.989	-37.989	0.303	0.162
-522.975	-57.375	-0.582	-0.258
-521.960	9.542	0.202	0.154
-520.945	82.723	0.268	-0.294
-519.931	292.298	-0.178	-0.328
-518.916	-200.000	0.085	-0.398
-517.902	22.720	0.085	0.071
-516.887	800.000	0.059	-0.233
-515.872	687.924	0.157	-0.413
-514.858	-128.742	0.211	-0.030
-513.843	-53.495	0.252	0.116
-512.829	317.327	-0.029	-0.055
-511.814	800.000	0.021	-0.064
-510.799	22.525	-0.096	-0.079
-509.785	800.000	-0.050	0.192
-508.770	-77.002	-0.410	-0.144
-507.756	28.274	-0.182	-0.155
-506.741	125.429	0.086	-0.110
-505.726	-29.545	-0.077	0.044
-504.712	-134.525	-0.290	-0.036
-503.697	-200.000	0.039	-0.304
-502.683	-101.730	0.239	0.058
-501.668	-200.000	0.014	-0.340
-500.653	-200.000	0.041	-0.219
-499.639	-8.033	-0.265	-0.180
-498.624	-22.342	0.224	-0.137
-497.610	-60.068	0.133	0.057
-496.595	-136.030	0.083	0.010
-495.581	-76.979	0.081	-0.028
-494.566	-21.772	-0.107	-0.066
-493.551	800.000	-0.010	-0.036
-492.537	243.523	0.088	-0.149
-491.522	111.343	0.113	0.137
-490.508	337.833	0.200	0.392
-489.493	-200.000	0.012	0.263
-488.478	-40.929	-0.305	-0.159
-487.464	-33.908	-0.103	0.057
-486.449	-3.458	0.194	-0.136
-485.435	36.993	-0.089	-0.079
-484.420	-146.080	-0.087	0.008
-483.405	194.616	0.275	-0.419
-482.391	-200.000	0.003	-0.022
-481.376	-109.041	-0.153	0.033
-480.362	-129.902	0.162	0.022
-479.347	-48.933	-0.055	0.026
-478.332	-200.000	0.036	0.217
-477.318	23.614	0.070	0.058
-476.303	800.000	0.130	0.377
-475.289	800.000	0.028	-0.080
-474.274	-200.000	0.027	0.372
-473.259	187.429	0.036	0.054
-472.245	800.000	-0.092	0.330
-471.230	10.985	-0.206	-0.159
-470.216	-142.030	0.102	0.010
-469.201	290.013	-0.065	-0.119
-468.186	-60.790	-0.262	0.112
-467.172	440.935	0.149	-0.328
-466.157	-63.821	0.228	0.094
-465.143	309.289	0.090	-0.169
-464.128	-142.894	-0.161	-0.016
-463.113	-153.100	-0.340	0.024
-462.099	613.333	0.007	-0.018
-461.084	284.497	-0.127	0.230
-460.070	-149.173	-0.072	0.006
-459.055	76.275	-0.163	-0.173
-458.040	332.694	0.147	0.285
-457.026	-113.597	0.090	-0.018
-456.011	569.513	-0.067	-0.165
-454.997	-142.572	-0.608	-0.060
-453.982	800.000	-0.062	0.178
-452.968	-69.321	0.143	-0.055
-451.953	606.507	-0.201	-0.503
-450.938	491.334	0.147	-0.338
-449.924	-150.633	0.120	0.009
-448.909	157.290	-0.035	0.049
-447.895	-131.820	0.396	-0.052
-446.880	-160.686	0.369	0.020
-445.865	-79.728	-0.282	-0.096
-444.851	5.923	0.280	0.209
-443.836	-40.697	0.062	0.032
-442.822	32.745	0.133	-0.116
-441.807	-115.136	-0.088	0.017
-440.792	-129.005	-0.147	0.021
-439.778	-200.000	0.001	0.050
-438.763	-200.000	0.005	-0.209
-437.749	-200.000	-0.009	0.152
-436.734	21.400	-0.010	0.008
-435.719	54.249	0.159	-0.154
-434.705	-82.540	0.146	0.048
-433.690	218.475	0.121	-0.195
-432.676	-198.347	-0.260	-0.002
-431.661	-83.037	-0.220	0.071
-430.646	-47.760	0.217	-0.106
-429.632	567.540	0.070	-0.172
-428.617	-20.866	0.466	-0.287
-427.603	800.000	-0.067	-0.223
-426.588	415.545	-0.034	0.073
-425.573	-15.163	-0.228	0.146
-424.559	800.000	-0.024	0.097
-423.544	-200.000	-0.000	-0.034
-422.530	-82.066	-0.484	-0.159
-421.515	96.375	-0.129	-0.148
-420.500	76.095	0.285	-0.303
-419.486	-76.108	-0.377	-0.134
-418.471	226.458	-0.060	-0.098
-417.457	-200.000	-0.057	-0.275
-416.442	166.865	-0.205	0.292
-415.428	115.845	0.117	0.144
-414.413	800.000	0.042	0.160
-413.398	-136.219	-0.231	0.027
-412.384	-120.497	-0.269	0.046
-411.369	-107.369	-0.162	0.036
-410.355	64.224	-0.133	-0.135
-409.340	62.794	-0.117	-0.117
-408.325	800.000	0.101	-0.335
-407.311	527.025	0.041	0.097
-406.296	-123.296	0.131	0.021
-405.282	-100.091	-0.116	0.029
-404.267	10.284	0.219	-0.167
-403.252	-83.224	0.143	0.046
-402.238	-139.625	-0.168	0.018
-401.223	-89.082	0.394	0.117
-400.209	-200.000	-0.018	0.174
-399.194	800.000	-0.076	0.263
-398.179	-200.000	0.052	0.261
-397.165	-200.000	0.001	0.712
-396.150	84.504	0.167	0.184
-395.136	738.745	-0.012	0.031
-394.121	7.282	0.119	0.089
-393.106	-137.025	0.355	0.041
-392.092	513.425	0.079	0.185
-391.077	-153.691	0.260	0.018
-390.063	-200.000	0.002	-0.015
-389.048	800.000	0.050	-0.167
-388.033	35.879	-0.191	0.169
-387.019	-200.000	-0.007	0.267
-386.004	224.274	0.021	-0.033
-384.990	271.431	-0.044	0.077
-383.975	800.000	-0.084	-0.233
-382.960	-5.184	0.026	0.018
-381.946	800.000	0.030	-0.101
-380.931	209.713	0.090	0.142
-379.917	-127.347	0.191	0.028
-378.902	209.379	0.146	-0.230
-377.888	131.499	0.140	0.180
-376.873	590.529	0.098	0.242
-375.858	-111.037	-0.100	0.021
-374.844	182.317	0.092	-0.136
-373.829	-111.898	0.365	0.074
-372.815	-118.939	-0.229	-0.040
-371.800	-9.380	0.235	0.157
-370.785	167.544	-0.087	-0.125
-369.771	-200.000	0.011	0.267
-368.756	16.837	-0.148	0.118
-367.742	-159.521	-0.162	0.009
-366.727	800.000	-0.134	-0.460
-365.712	-130.851	-0.162	-0.022
-364.698	-200.000	0.009	-0.187
-363.683	-151.762	-0.418	0.031
-362.669	-200.000	0.007	0.327
-361.654	45.030	0.270	-0.249
-360.639	-197.546	-0.336	-0.002
-359.625	298.416	-0.068	-0.125
-358.610	800.000	-0.056	-0.236
-357.596	148.039	-0.191	-0.258
-356.581	112.558	0.142	0.172
-355.566	-63.235	-0.050	-0.020
-354.552	108.263	0.112	0.134
-353.537	369.847	-0.106	0.215
-352.523	-32.609	-0.126	-0.070
-351.508	-200.000	-0.007	-0.041
-350.493	-95.473	-0.174	0.047
-349.479	-3.684	-0.107	0.074
-348.464	87.805	-0.148	0.164
-347.450	122.254	-0.113	0.141
-346.435	0.690	0.140	0.100
-345.420	-73.066	-0.358	0.132
-344.406	575.215	-0.117	0.287
-343.391	800.000	-0.023	0.078
-342.377	800.000	-0.071	0.288
-341.362	-120.778	-0.228	0.039
-340.348	-200.000	0.010	0.314
-339.333	8.692	-0.239	0.181
-338.318	800.000	-0.091	-0.294
-337.304	-200.000	-0.040	-0.224
-336.289	800.000	-0.108	0.332
-335.275	281.971	0.240	0.431
-334.260	-111.038	-0.076	0.016
-333.245	162.529	0.201	-0.283
-332.231	-200.000	0.026	-0.173
-331.216	-200.000	0.015	0.172
-330.202	218.855	0.124	0.198
-329.187	-44.617	-0.183	0.092
-328.172	-3.532	0.295	0.205
-327.158	-47.838	0.119	0.058
-326.143	135.796	-0.055	0.072
-325.129	111.773	0.128	-0.154
-324.114	-56.053	-0.134	-0.060
-323.099	-131.775	-0.082	0.011
-322.085	-99.541	0.173	-0.043
-321.070	-60.712	-0.181	-0.077
-320.056	800.000	0.055	-0.180
-319.041	-200.000	0.023	0.164
-318.026	23.968	-0.051	-0.042
-317.012	-137.721	-0.079	0.009
-315.997	-101.771	-0.062	0.015
-314.983	-200.000	0.054	-0.322
-313.968	800.000	-0.118	-0.386
-312.953	-117.378	-0.467	-0.085
-311.939	-70.646	-0.208	0.079
-310.924	10.658	-0.143	-0.109
-309.910	787.382	-0.124	0.341
-308.895	213.460	0.037	-0.059
-307.880	-58.829	0.430	-0.186
-306.866	781.997	0.147	-0.402
-305.851	135.269	0.137	-0.179
-304.837	31.298	0.088	-0.076
-303.822	166.085	-0.080	0.113
-302.807	-38.525	-0.081	0.043
-301.793	-44.117	-0.136	-0.068
-300.778	-61.898	-0.236	0.099
-299.764	16.782	-0.188	0.149
-298.749	-20.083	0.018	-0.011
-297.735	-183.656	0.130	-0.002
-296.720	477.303	-0.112	0.253
-295.705	-4.851	0.054	0.037
-294.691	-101.684	0.220	0.053
-293.676	-140.867	0.235	0.024
-292.662	82.531	-0.335	0.364
-291.647	-66.229	-0.083	0.033
-290.632	32.299	-0.172	0.149
-289.618	-79.247	-0.275	0.093
-288.603	227.208	0.286	0.464
-287.589	-200.000	0.016	0.112
-286.574	-28.208	0.056	0.032
-285.559	-32.105	0.252	-0.141
-284.545	-97.289	-0.229	0.060
-283.530	20.415	-0.068	0.055
-282.516	800.000	0.034	-0.111
-281.501	-37.615	-0.090	-0.048
-280.486	-20.922	-0.102	0.062
-279.472	-79.891	0.244	-0.082
-278.457	18.208	-0.292	-0.233
-277.443	-23.034	0.065	0.039
-276.428	800.000	0.059	0.186
-275.413	227.106	-0.247	0.402
-274.399	298.649	-0.232	0.426
-273.384	-101.513	0.201	0.049
-272.370	231.894	-0.096	0.157
-271.355	358.990	0.150	-0.299
-270.340	50.468	-0.147	-0.139
-269.326	800.000	0.051	0.178
-268.311	194.481	0.084	0.127
-267.297	-88.036	0.293	0.088
-266.282	-200.000	-0.003	0.134
-265.267	-77.945	-0.079	-0.027
-264.253	234.379	0.197	-0.324
-263.238	800.000	-0.034	-0.122
-262.224	-135.411	0.264	0.031
-261.209	-200.000	-0.006	-0.280
-260.195	144.811	-0.053	0.071
-259.180	-1.723	-0.083	-0.058
-258.165	-200.000	-0.009	-0.199
-257.151	37.588	0.186	-0.164
-256.136	-127.300	0.283	0.041
-255.122	-200.000	-0.000	0.013
-254.107	266.711	-0.114	-0.199
-253.092	-89.645	0.534	-0.156
-252.078	-142.489	-0.120	-0.012
-251.063	-200.000	0.086	-0.427
-250.049	-138.449	-0.170	0.019
-249.034	390.465	0.035	0.073
-248.019	-23.977	0.071	-0.043
-247.005	-92.960	-0.272	0.076
-245.990	-152.421	-0.104	-0.007
-244.976	-6.407	-0.086	0.058
-243.961	-50.207	-0.146	-0.069
-242.946	343.202	-0.101	0.197
-241.932	-15.219	-0.052	-0.033
-240.917	25.324	0.038	-0.032
-239.903	-175.309	-0.118	0.003
-238.888	-200.000	-0.024	0.125
-237.873	-67.709	0.229	-0.089
-236.859	-24.681	0.159	-0.094
-235.844	46.813	0.160	0.149
-234.830	5.679	-0.199	-0.147
-233.815	-117.012	0.215	-0.039
-232.800	25.613	0.288	0.239
-231.786	-22.582	-0.142	-0.085
-230.771	-200.000	0.088	0.000
-229.757	-32.077	0.128	0.071
-228.742	-120.386	-0.204	-0.035
-227.727	119.760	-0.208	-0.257
-226.713	-130.005	0.182	0.025
-225.698	-200.000	0.000	-0.004
-224.684	-200.000	-0.009	-0.142
-223.669	296.286	0.014	0.025
-222.655	-96.030	0.266	0.071
-221.640	8.445	0.212	-0.159
-220.625	11.000	-0.246	0.187
-219.611	-93.618	0.311	0.086
-218.596	456.312	-0.125	0.277
-217.582	-97.871	-0.362	-0.093
-216.567	-41.313	0.158	0.081
-215.552	20.253	-0.205	-0.165
-214.538	-81.947	0.205	0.067
-213.523	5.188	-0.229	-0.168
-212.509	-200.000	-0.014	-0.323
-211.494	90.167	-0.202	0.225
-210.479	-88.621	-0.080	-0.024
-209.465	-171.351	-0.253	0.008
-208.450	64.775	-0.125	0.125
-207.436	-200.000	0.023	0.186
-206.421	-144.031	0.063	0.006
-205.406	-20.105	0.166	-0.102
-204.392	-200.000	0.006	0.216
-203.377	97.259	-0.125	0.142
-202.363	-200.000	-0.027	0.157
-201.348	127.641	0.039	0.049
-200.333	98.100	0.219	-0.251
-199.319	-87.577	-0.331	-0.100
-198.304	-68.131	-0.096	0.037
-197.290	800.000	0.035	0.148
-196.275	-98.162	-0.028	-0.007
-195.260	645.398	0.095	0.242
-194.246	302.642	-0.085	-0.157
-193.231	-166.052	0.265	0.011
-192.217	-21.546	-0.367	-0.222
-191.202	800.000	0.044	0.165
-190.187	53.614	-0.082	0.078
-189.173	-97.684	-0.253	0.065
-188.158	-11.469	0.088	-0.058
-187.144	-16.464	0.119	0.075
-186.129	348.786	0.104	0.204
-185.114	81.221	-0.174	0.188
-184.100	-112.724	0.226	-0.045
-183.085	17.002	-0.217	-0.171
-182.071	23.811	0.213	-0.175
-181.056	-200.000	0.004	-0.116
-180.042	129.646	-0.106	0.135
-179.027	-113.221	-0.296	0.058
-178.012	31.512	-0.028	0.024
-176.998	95.101	-0.210	0.238
-175.983	-200.000	0.034	-0.197
-174.969	395.186	0.174	0.361
-173.954	800.000	-0.077	0.304
-172.939	-200.000	0.018	-0.119
-171.925	-103.885	-0.259	-0.060
-170.910	391.716	0.176	-0.364
-169.896	115.355	-0.055	-0.067
-168.881	-200.000	-0.002	-0.095
-167.866	29.242	-0.178	-0.150
-166.852	102.946	-0.144	-0.167
-165.837	-120.406	0.149	-0.025
-164.823	109.274	0.179	0.213
-163.808	207.391	0.186	-0.288
-162.793	-28.042	-0.237	-0.136
-161.779	-63.426	-0.095	0.039
-160.764	-103.344	0.109	0.026
-159.750	-200.000	0.026	0.227
-158.735	-37.846	0.288	0.152
-157.720	-111.267	0.075	-0.015
-156.706	-0.932	-0.182	-0.128
-155.691	800.000	-0.087	-0.321
-154.677	540.639	-0.113	-0.268
-153.662	20.552	-0.146	-0.117
-152.647	-75.062	0.237	-0.084
-151.633	383.399	0.054	0.110
-150.618	-182.968	-0.160	-0.003
-149.604	483.434	0.085	0.191
-148.589	-42.263	0.186	-0.094
-147.574	29.397	0.122	-0.103
-146.560	-44.635	0.264	-0.131
-145.545	-114.110	-0.381	0.073
-144.531	518.026	-0.073	0.170
-143.516	-67.365	-0.162	-0.063
-142.502	146.336	-0.115	0.153
-141.487	9.589	-0.180	0.136
-140.472	-54.369	0.109	0.049
-139.458	-200.000	-0.049	-0.362
-138.443	140.783	-0.166	-0.218
-137.429	-108.664	-0.083	-0.018
-136.414	599.014	0.041	-0.102
-135.399	800.000	-0.009	-0.027
-134.385	-15.790	0.078	-0.049
-133.370	-138.423	0.065	0.007
-132.356	133.416	0.214	-0.275
-131.341	76.917	0.057	-0.060
-130.326	-55.956	-0.355	-0.157
-129.312	-200.000	0.001	-0.045
-128.297	265.861	0.062	0.107
-127.283	-150.711	0.135	0.010
-126.268	332.105	-0.048	-0.092
-125.253	185.024	-0.106	-0.157
-124.239	330.928	-0.125	-0.239
-123.224	-106.871	-0.266	-0.059
-122.210	150.041	-0.044	-0.060
-121.195	-200.000	0.033	-0.192
