DTS Sentinel unit serial number:	SN413079Multiplexer serial number:	ORYXHardware model number:	OX4-SRSoftware version number:	ORYX F/W v4.00 Oryx Data Collector v3.7.2.0data status	okinstallation	princeton_trtdifferential loss correction	single-endedforward channel	channel 3reverse channel	N/Adate	2019/09/11time	11:58:10forward acquisition time	60.00reverse acquisition time	0.00gamma	496.2192k internal	0.2292k external	0.2292temperature offset calibration	0.9937default loss term (dB/km)	0.3790temperature slope calibration	1.0000multiplexer offset coefficient	1.0000multiplexer slope coefficient	1.0000fibre end	0.00T internal ref (°C)	39.19T ext. ref 1 (°C)	0.23T ext. ref 2 (°C)	36.92length (m)	temperature (°C)	Stokes	anti-Stokes-747.200	-26.226	0.126	0.076
-746.185	-179.501	0.042	-0.001
-745.171	-97.592	0.243	-0.064
-744.156	-200.000	0.007	0.105
-743.142	509.464	0.023	-0.055
-742.127	-200.000	0.005	0.218
-741.112	-111.526	0.077	-0.016
-740.098	800.000	0.098	0.346
-739.083	332.854	0.111	-0.219
-738.069	-107.057	-0.122	-0.027
-737.054	396.722	-0.124	0.264
-736.039	-42.501	-0.303	0.158
-735.025	185.570	0.096	0.146
-734.010	-2.852	-0.200	0.143
-732.996	12.391	-0.244	-0.193
-731.981	-200.000	0.001	-0.443
-730.966	-113.762	-0.046	0.009
-729.952	800.000	-0.116	-0.330
-728.937	-58.162	-0.313	-0.139
-727.923	-135.750	0.330	0.040
-726.908	-72.077	-0.012	0.005
-725.894	-200.000	0.201	-0.000
-724.879	-61.431	0.302	0.130
-723.864	800.000	0.047	-0.137
-722.850	29.141	0.389	-0.337
-721.835	49.294	-0.193	-0.185
-720.821	800.000	-0.052	-0.205
-719.806	-200.000	-0.026	-0.367
-718.791	-200.000	0.011	-0.349
-717.777	-77.451	0.222	-0.079
-716.762	-0.461	-0.167	0.121
-715.748	800.000	0.021	0.079
-714.733	800.000	0.094	0.267
-713.718	-96.753	-0.229	0.061
-712.704	-200.000	0.027	0.176
-711.689	-162.136	0.446	-0.023
-710.675	-36.465	0.217	0.119
-709.660	-103.613	-0.469	0.113
-708.645	-67.401	0.063	0.025
-707.631	-64.406	-0.469	0.195
-706.616	486.373	0.191	-0.445
-705.602	-200.000	-0.067	-0.376
-704.587	176.012	0.173	0.256
-703.572	-129.239	0.326	0.046
-702.558	800.000	0.116	-0.394
-701.543	800.000	0.060	-0.181
-700.529	-200.000	-0.011	-0.050
-699.514	-200.000	-0.023	-0.155
-698.499	-159.205	-0.083	0.005
-697.485	-174.147	-0.161	-0.005
-696.470	80.764	0.214	-0.236
-695.456	-67.048	0.130	0.052
-694.441	-173.941	0.299	-0.009
-693.426	-200.000	-0.040	-0.240
-692.412	-200.000	0.089	-0.464
-691.397	-135.019	-0.168	0.021
-690.383	-133.001	-0.257	-0.033
-689.368	-22.847	-0.332	-0.204
-688.354	-34.851	0.157	0.088
-687.339	210.749	0.102	-0.164
-686.324	548.102	-0.036	0.088
-685.310	144.151	0.144	-0.196
-684.295	-0.660	-0.182	-0.132
-683.281	-46.019	-0.058	-0.029
-682.266	-200.000	-0.065	-0.400
-681.251	-11.585	-0.097	0.065
-680.237	-23.395	-0.179	-0.110
-679.222	71.535	0.373	0.395
-678.208	144.103	0.138	0.188
-677.193	124.560	0.281	-0.361
-676.178	-70.506	-0.309	-0.119
-675.164	-143.198	0.204	-0.020
-674.149	-200.000	-0.020	0.134
-673.135	30.606	-0.075	0.066
-672.120	-45.325	-0.095	-0.048
-671.105	-120.854	0.101	0.017
-670.091	-200.000	-0.022	0.253
-669.076	324.948	0.088	0.172
-668.062	215.580	-0.180	0.291
-667.047	-15.635	-0.250	-0.163
-666.032	-74.548	-0.242	0.089
-665.018	-131.423	0.237	0.032
-664.003	800.000	-0.020	0.062
-662.989	-115.520	0.108	-0.021
-661.974	192.141	-0.040	0.061
-660.959	-35.651	-0.089	-0.049
-659.945	-98.733	0.387	-0.101
-658.930	64.520	0.196	-0.201
-657.916	78.525	-0.030	0.032
-656.901	800.000	0.053	0.178
-655.886	-68.961	0.206	0.081
-654.872	-40.366	0.239	-0.127
-653.857	306.210	0.073	0.139
-652.843	-104.756	-0.275	0.064
-651.828	257.037	0.153	0.268
-650.814	-200.000	0.023	0.297
-649.799	4.717	-0.223	0.167
-648.784	-58.644	-0.294	-0.130
-647.770	-200.000	-0.009	0.148
-646.755	-156.252	0.195	-0.013
-645.741	-25.973	0.103	0.062
-644.726	279.419	0.232	-0.422
-643.711	-72.011	0.144	0.054
-642.697	124.390	-0.061	0.079
-641.682	75.625	-0.054	0.058
-640.668	-109.131	0.155	-0.034
-639.653	59.000	0.073	0.073
-638.638	-192.264	-0.209	0.002
-637.624	-7.583	0.208	-0.143
-636.609	800.000	-0.037	-0.135
-635.595	409.913	-0.150	0.324
-634.580	-200.000	0.058	0.300
-633.565	-126.599	0.211	0.032
-632.551	-200.000	-0.051	0.403
-631.536	-200.000	0.088	-0.471
-630.522	-79.956	-0.188	-0.064
-629.507	-200.000	-0.034	-0.293
-628.492	56.417	0.279	-0.276
-627.478	800.000	0.059	-0.252
-626.463	-19.355	-0.077	-0.049
-625.449	-200.000	-0.030	0.351
-624.434	-173.108	-0.395	-0.012
-623.419	414.241	0.104	0.226
-622.405	28.062	0.521	0.448
-621.390	-200.000	0.012	-0.098
-620.376	-99.312	-0.108	-0.028
-619.361	41.546	-0.195	-0.180
-618.346	396.559	0.067	0.143
-617.332	800.000	-0.101	-0.309
-616.317	-9.171	-0.119	-0.081
-615.303	120.614	0.229	0.290
-614.288	57.267	0.186	-0.185
-613.273	-93.559	0.001	0.000
-612.259	148.308	-0.104	0.142
-611.244	-195.519	-0.055	-0.000
-610.230	208.301	0.223	0.355
-609.215	-98.200	-0.147	-0.038
-608.201	-77.553	-0.227	-0.080
-607.186	-156.518	0.148	0.009
-606.171	800.000	0.047	-0.156
-605.157	32.903	0.111	0.098
-604.142	-180.409	0.080	-0.002
-603.128	-200.000	-0.014	-0.309
-602.113	-99.141	-0.364	-0.094
-601.098	-26.370	0.120	0.072
-600.084	-89.931	0.260	-0.077
-599.069	292.569	-0.155	-0.288
-598.055	-200.000	-0.051	-0.289
-597.040	31.846	-0.188	-0.164
-596.025	688.714	-0.079	-0.211
-595.011	-200.000	0.062	-0.304
-593.996	800.000	0.062	0.189
-592.982	49.064	0.224	0.214
-591.967	-200.000	-0.021	-0.199
-590.952	296.412	0.136	0.254
-589.938	34.318	0.068	0.060
-588.923	-200.000	-0.053	-0.248
-587.909	-200.000	0.019	-0.099
-586.894	-30.353	-0.045	-0.026
-585.879	800.000	-0.047	0.140
-584.865	800.000	0.076	-0.280
-583.850	-200.000	0.026	-0.159
-582.836	-200.000	-0.033	-0.194
-581.821	-154.723	0.113	0.008
-580.806	800.000	0.063	0.210
-579.792	56.705	0.258	0.256
-578.777	-59.871	-0.177	0.077
-577.763	800.000	0.036	0.100
-576.748	800.000	-0.106	0.321
-575.733	-121.687	-0.433	0.073
-574.719	800.000	-0.072	-0.233
-573.704	-200.000	0.051	-0.241
-572.690	-55.977	-0.094	0.042
-571.675	69.336	-0.149	-0.155
-570.661	249.698	0.110	-0.190
-569.646	-197.718	-0.398	0.002
-568.631	-102.010	0.272	0.067
-567.617	-200.000	0.018	-0.256
-566.602	694.764	0.234	-0.623
-565.588	165.364	0.035	0.050
-564.573	239.035	-0.156	0.264
-563.558	-78.944	-0.352	-0.122
-562.544	-73.628	0.131	0.048
-561.529	800.000	-0.055	0.165
-560.515	-88.612	-0.295	0.089
-559.500	-141.198	0.165	0.017
-558.485	433.439	-0.132	0.290
-557.471	-127.387	-0.122	0.018
-556.456	-134.231	-0.027	-0.003
-555.442	-150.773	0.076	-0.006
-554.427	6.868	0.199	0.151
-553.412	-92.247	-0.275	-0.079
-552.398	800.000	-0.058	0.175
-551.383	87.713	0.017	-0.019
-550.369	330.516	0.126	-0.247
-549.354	-48.171	0.114	0.056
-548.339	-119.880	-0.198	-0.035
-547.325	-62.706	-0.087	0.037
-546.310	144.447	0.082	-0.111
-545.296	-108.685	0.166	-0.036
-544.281	-17.273	0.176	0.113
-543.266	-61.036	-0.134	0.058
-542.252	-65.150	-0.099	0.041
-541.237	800.000	-0.022	0.084
-540.223	800.000	0.081	-0.284
-539.208	-200.000	0.029	-0.263
-538.193	800.000	-0.006	-0.019
-537.179	-88.330	0.345	-0.105
-536.164	-119.936	0.044	-0.008
-535.150	25.415	0.180	0.152
-534.135	800.000	0.040	0.129
-533.121	800.000	0.082	0.281
-532.106	-127.472	-0.029	-0.004
-531.091	-200.000	-0.272	0.001
-530.077	-200.000	0.039	0.242
-529.062	-36.219	-0.205	0.113
-528.048	-200.000	0.009	0.151
-527.033	119.031	0.181	0.228
-526.018	-200.000	0.002	0.324
-525.004	800.000	-0.035	0.116
-523.989	800.000	0.042	-0.134
-522.975	-200.000	-0.223	-0.001
-521.960	-55.079	0.119	-0.054
-520.945	-132.420	0.331	-0.043
-519.931	-200.000	0.086	0.382
-518.916	-52.002	0.319	0.150
-517.902	87.683	-0.344	0.386
-516.887	296.374	-0.179	-0.333
-515.872	145.386	-0.108	-0.147
-514.858	658.851	0.042	-0.111
-513.843	-12.994	-0.022	-0.014
-512.829	800.000	-0.067	0.192
-511.814	74.482	-0.202	-0.216
-510.799	-87.867	-0.242	0.074
-509.785	2.258	-0.099	-0.072
-508.770	-61.590	0.152	0.065
-507.756	75.968	-0.088	0.094
-506.741	-76.692	0.143	-0.051
-505.726	-116.463	-0.161	-0.030
-504.712	-200.000	0.027	-0.240
-503.697	800.000	0.055	-0.234
-502.683	312.673	0.094	-0.179
-501.668	11.156	-0.171	0.133
-500.653	-85.451	-0.261	0.082
-499.639	-93.243	0.022	0.006
-498.624	-200.000	-0.012	-0.141
-497.610	800.000	0.043	-0.133
-496.595	-34.858	0.009	0.005
-495.581	-163.644	0.128	0.006
-494.566	43.450	-0.150	0.139
-493.551	-200.000	-0.003	-0.168
-492.537	-200.000	-0.073	0.499
-491.522	-200.000	-0.020	0.251
-490.508	27.423	0.127	-0.108
-489.493	800.000	-0.028	0.086
-488.478	290.520	0.030	-0.056
-487.464	-136.727	-0.042	0.005
-486.449	-90.588	0.206	0.060
-485.435	-200.000	0.021	-0.142
-484.420	-193.826	0.307	0.003
-483.405	-200.000	0.076	0.346
-482.391	-200.000	-0.004	0.115
-481.376	-83.029	0.212	-0.069
-480.362	140.072	-0.146	0.196
-479.347	800.000	-0.088	0.315
-478.332	20.469	-0.210	-0.172
-477.318	-163.062	-0.098	0.005
-476.303	18.366	-0.126	-0.102
-475.289	-29.322	-0.224	0.130
-474.274	-70.217	-0.342	0.131
-473.259	308.810	0.047	0.089
-472.245	800.000	0.053	-0.160
-471.230	227.167	0.121	-0.200
-470.216	800.000	0.087	0.385
-469.201	-200.000	-0.028	0.170
-468.186	-200.000	-0.046	-0.218
-467.172	800.000	0.049	-0.181
-466.157	-118.481	0.368	0.066
-465.143	-157.466	-0.053	-0.003
-464.128	-200.000	0.014	-0.197
-463.113	-200.000	-0.017	-0.166
-462.099	-200.000	-0.065	0.355
-461.084	25.669	-0.282	0.238
-460.070	112.617	0.056	0.069
-459.055	-200.000	-0.017	0.082
-458.040	25.230	0.176	0.148
-457.026	-116.513	-0.180	0.034
-456.011	-200.000	0.113	-0.593
-454.997	84.292	-0.146	0.162
-453.982	800.000	0.140	0.424
-452.968	-200.000	0.012	0.134
-451.953	539.446	-0.124	0.298
-450.938	195.796	0.032	0.049
-449.924	387.105	-0.133	0.277
-448.909	-109.807	-0.130	0.028
-447.895	-87.270	-0.021	0.006
-446.880	-111.703	0.393	-0.080
-445.865	76.087	-0.185	-0.198
-444.851	800.000	0.062	0.181
-443.836	199.546	0.094	0.146
-442.822	4.031	0.135	0.100
-441.807	-200.000	0.045	-0.516
-440.792	66.321	-0.020	-0.020
-439.778	14.387	0.171	-0.135
-438.763	-200.000	-0.073	-0.433
-437.749	800.000	-0.099	-0.327
-436.734	-144.252	0.196	-0.019
-435.719	-200.000	-0.049	0.280
-434.705	170.390	0.108	0.156
-433.690	359.982	0.193	0.390
-432.676	-200.000	-0.010	0.157
-431.661	-177.565	0.110	-0.003
-430.646	-200.000	-0.023	0.368
-429.632	-63.538	-0.132	-0.055
-428.617	800.000	-0.037	-0.146
-427.603	-145.337	-0.110	0.010
-426.588	-138.903	-0.212	0.023
-425.573	-29.794	-0.163	-0.094
-424.559	29.908	-0.338	0.291
-423.544	-26.895	0.373	0.220
-422.530	800.000	-0.037	0.142
-421.515	800.000	-0.095	0.293
-420.500	-186.608	0.157	0.002
-419.486	-38.721	0.240	-0.128
-418.471	-128.612	0.120	-0.017
-417.457	-71.671	-0.114	-0.043
-416.442	800.000	-0.094	-0.265
-415.428	705.117	-0.046	-0.122
-414.413	228.746	0.210	0.345
-413.398	-200.000	-0.009	0.106
-412.384	-134.853	-0.524	-0.064
-411.369	105.194	0.116	0.138
-410.355	-200.000	0.059	0.333
-409.340	-110.803	-0.140	0.029
-408.325	-100.530	-0.217	-0.054
-407.311	451.546	0.105	-0.235
-406.296	-136.804	0.167	-0.019
-405.282	800.000	0.053	-0.222
-404.267	54.641	0.249	0.243
-403.252	571.603	0.139	0.342
-402.238	-78.509	-0.145	0.050
-401.223	-54.818	-0.307	-0.140
-400.209	371.839	-0.073	0.151
-399.194	99.139	-0.113	0.132
-398.179	-90.488	-0.151	0.044
-397.165	-24.061	0.295	0.178
-396.150	-150.800	0.313	-0.024
-395.136	-11.193	0.080	-0.053
-394.121	800.000	-0.072	-0.264
-393.106	-64.687	-0.114	-0.047
-392.092	34.469	-0.061	0.054
-391.077	-200.000	0.004	0.299
-390.063	378.248	0.141	-0.292
-389.048	259.360	-0.111	-0.194
-388.033	590.728	-0.055	-0.138
-387.019	-200.000	0.004	0.028
-386.004	-46.000	0.203	-0.101
-384.990	-155.487	-0.097	0.006
-383.975	800.000	0.070	-0.224
-382.960	-3.087	-0.085	0.060
-381.946	154.650	0.048	0.066
-380.931	-17.070	-0.249	-0.159
-379.917	256.547	0.097	0.169
-378.902	-160.225	0.151	0.008
-377.888	-200.000	0.015	0.173
-376.873	-94.129	-0.131	-0.036
-375.858	188.356	-0.122	-0.184
-374.844	-200.000	-0.016	-0.130
-373.829	800.000	-0.088	0.312
-372.815	742.804	0.075	0.203
-371.800	149.257	-0.100	-0.136
-370.785	-200.000	0.007	0.263
-369.771	800.000	-0.040	-0.128
-368.756	271.460	0.113	-0.202
-367.742	800.000	0.079	-0.261
-366.727	-55.261	-0.248	-0.112
-365.712	242.007	-0.160	-0.269
-364.698	412.223	0.082	-0.175
-363.683	-27.262	0.320	0.188
-362.669	800.000	0.069	0.296
-361.654	631.584	-0.088	-0.223
-360.639	800.000	-0.028	-0.085
-359.625	98.438	0.054	0.063
-358.610	-91.320	0.106	0.030
-357.596	-200.000	0.015	-0.195
-356.581	4.267	-0.093	-0.069
-355.566	-200.000	-0.013	0.134
-354.552	145.987	0.082	0.111
-353.537	800.000	0.070	-0.214
-352.523	-81.167	-0.276	0.092
-351.508	29.207	0.135	-0.115
-350.493	-82.471	0.391	0.128
-349.479	96.834	-0.283	0.327
-348.464	-96.131	-0.108	0.029
-347.450	295.569	0.067	0.123
-346.435	-109.989	0.022	0.005
-345.420	-51.052	0.033	-0.016
-344.406	-200.000	-0.096	0.000
-343.391	8.323	0.262	-0.199
-342.377	-38.039	-0.107	-0.057
-341.362	-105.683	0.436	0.100
-340.348	-200.000	-0.001	-0.074
-339.333	732.781	0.080	0.215
-338.318	-103.135	-0.165	-0.039
-337.304	-200.000	0.041	0.209
-336.289	15.737	0.206	0.163
-335.275	172.542	-0.160	0.231
-334.260	-200.000	0.032	0.229
-333.245	-63.065	-0.236	-0.098
-332.231	142.022	0.189	0.252
-331.216	379.558	0.117	-0.241
-330.202	26.612	-0.156	-0.131
-329.187	744.064	0.147	-0.399
-328.172	237.708	-0.149	-0.249
-327.158	-186.310	-0.318	0.005
-326.143	800.000	0.042	-0.145
-325.129	-4.361	0.223	-0.156
-324.114	149.468	0.135	0.184
-323.099	-45.346	0.265	0.132
-322.085	49.220	-0.221	-0.209
-321.070	53.377	-0.196	0.189
-320.056	-90.686	0.125	-0.036
-319.041	-33.499	-0.182	-0.101
-318.026	-133.737	-0.106	0.013
-317.012	-33.523	0.238	0.133
-315.997	-43.320	-0.213	0.108
-314.983	417.611	-0.108	-0.232
-313.968	252.856	-0.146	-0.251
-312.953	800.000	0.153	-0.463
-311.939	-118.232	-0.197	0.035
-310.924	-75.747	0.247	-0.088
-309.910	-60.151	0.129	-0.055
-308.895	-84.821	-0.156	-0.049
-307.880	359.199	-0.019	0.039
-306.866	-127.070	0.199	0.029
-305.851	-148.615	0.210	-0.017
-304.837	-134.225	0.128	-0.016
-303.822	419.845	-0.164	-0.354
-302.807	-42.578	0.052	-0.027
-301.793	66.298	0.050	-0.051
-300.778	-200.000	-0.040	-0.193
-299.764	1.066	-0.273	-0.197
-298.749	-200.000	-0.024	-0.283
-297.735	41.953	0.140	-0.128
-296.720	-133.344	0.075	0.010
-295.705	336.730	0.120	-0.234
-294.691	-75.174	-0.270	0.097
-293.676	-200.000	-0.014	-0.186
-292.662	159.499	-0.085	-0.119
-291.647	-200.000	-0.028	-0.199
-290.632	-163.764	0.192	0.009
-289.618	-134.556	0.224	0.028
-288.603	125.128	-0.178	0.226
-287.589	-200.000	0.015	-0.093
-286.574	-143.995	-0.515	0.049
-285.559	-200.000	-0.013	0.150
-284.545	-110.588	-0.245	0.051
-283.530	-84.579	0.194	-0.061
-282.516	34.343	0.149	0.131
-281.501	-132.054	0.157	-0.021
-280.486	221.840	-0.219	0.354
-279.472	-200.000	0.005	-0.219
-278.457	-200.000	0.016	-0.229
-277.443	293.360	0.095	0.174
-276.428	-107.050	-0.116	0.026
-275.413	-63.937	0.050	0.020
-274.399	18.548	0.230	-0.185
-273.384	-200.000	-0.005	-0.135
-272.370	89.209	-0.063	0.071
-271.355	24.244	-0.102	0.084
-270.340	77.122	0.241	0.258
-269.326	-116.350	-0.260	-0.048
-268.311	22.980	0.107	0.088
-267.297	-81.936	0.240	0.079
-266.282	-70.577	-0.137	0.052
-265.267	9.576	-0.226	0.172
-264.253	38.432	-0.229	0.205
-263.238	-13.118	0.162	0.106
-262.224	800.000	0.079	-0.251
-261.209	495.537	-0.137	-0.316
-260.195	-132.703	-0.146	-0.019
-259.180	671.790	0.073	-0.189
-258.165	177.157	-0.150	-0.219
-257.151	-149.082	-0.383	-0.031
-256.136	800.000	0.067	-0.289
-255.122	-200.000	-0.072	-0.371
-254.107	93.182	-0.102	-0.116
-253.092	800.000	0.037	0.148
-252.078	-24.455	0.331	0.198
-251.063	-143.087	0.074	-0.007
-250.049	19.937	-0.171	-0.138
-249.034	501.342	0.067	0.155
-248.019	800.000	0.013	-0.048
-247.005	800.000	-0.053	-0.207
-245.990	194.942	0.240	-0.365
-244.976	-200.000	-0.037	0.274
-243.961	-39.378	0.228	0.120
-242.946	-200.000	0.028	-0.306
-241.932	800.000	-0.042	-0.156
-240.917	-200.000	0.004	-0.267
-239.903	-199.008	-0.359	0.002
-238.888	83.135	-0.258	0.282
-237.873	101.820	-0.205	-0.240
-236.859	-90.177	0.154	-0.045
-235.844	-128.396	-0.082	0.012
-234.830	-12.503	-0.159	-0.104
-233.815	68.024	0.091	0.093
-232.800	-33.906	-0.272	0.150
-231.786	-174.476	0.200	-0.006
-230.771	-200.000	-0.057	0.290
-229.757	35.372	-0.077	-0.068
-228.742	-46.752	-0.194	-0.095
-227.727	506.353	-0.132	0.306
-226.713	-34.659	-0.085	-0.046
-225.698	14.883	-0.189	-0.148
-224.684	136.326	0.122	0.159
-223.669	2.071	0.229	0.166
-222.655	-126.683	0.093	-0.014
-221.640	-200.000	0.011	0.325
-220.625	-47.286	-0.088	0.043
-219.611	-200.000	0.007	-0.247
-218.596	15.505	0.223	0.176
-217.582	14.500	0.234	-0.183
-216.567	-200.000	-0.016	-0.163
-215.552	96.735	0.183	-0.210
-214.538	-138.820	-0.146	0.016
-213.523	-80.621	0.207	0.069
-212.509	492.157	0.149	-0.342
-211.494	-4.615	0.457	-0.316
-210.479	10.359	-0.123	-0.093
-209.465	-134.589	-0.464	-0.057
-208.450	37.407	-0.062	0.055
-207.436	-200.000	-0.028	0.131
-206.421	-65.312	-0.197	-0.079
-205.406	800.000	-0.040	-0.121
-204.392	1.383	-0.281	-0.202
-203.377	-129.832	-0.187	-0.026
-202.363	-200.000	0.044	0.280
-201.348	70.860	-0.263	0.273
-200.333	-73.872	0.222	0.081
-199.319	254.252	0.151	0.259
-198.304	-60.749	-0.281	0.119
-197.290	37.170	0.017	-0.015
-196.275	-200.000	-0.009	-0.118
-195.260	-46.265	0.115	-0.057
-194.246	31.277	-0.074	-0.064
-193.231	7.697	0.254	0.190
-192.217	800.000	-0.090	0.275
-191.202	569.079	-0.039	-0.095
-190.187	71.360	0.134	0.139
-189.173	703.636	-0.012	0.033
-188.158	72.618	0.180	-0.188
-187.144	-7.610	-0.268	0.181
-186.129	-200.000	-0.049	0.242
-185.114	-22.753	-0.139	0.084
-184.100	-133.924	0.385	-0.048
-183.085	202.278	0.136	0.210
-182.071	-9.318	0.326	-0.218
-181.056	-10.493	-0.084	0.056
-180.042	557.182	0.136	-0.329
-179.027	365.716	0.101	-0.204
-178.012	44.499	0.093	0.086
-176.998	314.675	-0.047	-0.090
-175.983	800.000	0.085	0.265
-174.969	-37.581	0.149	0.079
-173.954	47.652	0.114	-0.106
-172.939	-87.477	-0.296	-0.090
-171.925	39.319	0.332	0.297
-170.910	-0.019	0.057	-0.041
-169.896	12.067	0.029	0.022
-168.881	13.465	0.299	0.232
-167.866	94.866	0.087	0.099
-166.852	44.767	-0.150	-0.138
-165.837	-132.847	0.106	0.014
-164.823	-41.019	0.268	-0.138
-163.808	344.430	0.071	-0.139
-162.793	241.127	-0.075	0.125
-161.779	-44.940	0.147	-0.073
-160.764	-200.000	0.058	0.368
-159.750	-103.209	-0.234	-0.055
-158.735	-200.000	0.001	-0.229
-157.720	544.670	0.100	0.238
-156.706	88.145	-0.140	-0.155
-155.691	-63.987	0.133	0.054
-154.677	-116.106	-0.092	-0.017
-153.662	-122.304	-0.099	0.016
-152.647	28.731	-0.094	-0.080
-151.633	461.685	0.094	0.210
-150.618	28.958	0.261	-0.222
-149.604	283.151	0.061	0.110
-148.589	-172.631	-0.202	-0.006
-147.574	205.666	-0.021	-0.033
-146.560	-84.156	0.191	0.061
-145.545	54.079	-0.076	-0.073
-144.531	311.118	-0.154	-0.288
-143.516	-200.000	-0.021	0.130
-142.502	49.231	0.146	-0.137
-141.487	177.867	0.048	-0.070
-140.472	492.300	-0.050	0.116
-139.458	175.106	-0.043	0.062
-138.443	43.659	0.129	-0.118
-137.429	185.725	0.122	-0.182
-136.414	800.000	0.041	-0.160
-135.399	12.363	0.080	-0.061
-134.385	-182.957	0.267	0.005
-133.370	800.000	-0.058	0.207
-132.356	-200.000	-0.057	-0.251
-131.341	17.218	0.297	0.236
-130.326	800.000	0.088	-0.274
-129.312	-131.385	0.330	-0.044
-128.297	-77.431	0.140	-0.049
-127.283	-87.007	0.141	0.043
-126.268	28.184	0.120	-0.101
-125.253	-33.580	-0.335	-0.185
-124.239	-200.000	-0.011	0.168
-123.224	19.692	0.103	0.083
-122.210	-130.914	-0.209	-0.028
-121.195	-90.864	0.281	0.081
