DTS Sentinel unit serial number:	SN413079Multiplexer serial number:	ORYXHardware model number:	OX4-SRSoftware version number:	ORYX F/W v4.00 Oryx Data Collector v3.7.2.0data status	okinstallation	princeton_trtdifferential loss correction	single-endedforward channel	channel 3reverse channel	N/Adate	2019/09/12time	02:34:11forward acquisition time	60.00reverse acquisition time	0.00gamma	496.2192k internal	0.2321k external	0.2321temperature offset calibration	1.0068default loss term (dB/km)	0.3790temperature slope calibration	1.0000multiplexer offset coefficient	1.0000multiplexer slope coefficient	1.0000fibre end	0.00T internal ref (°C)	32.44T ext. ref 1 (°C)	2.08T ext. ref 2 (°C)	27.36length (m)	temperature (°C)	Stokes	anti-Stokes-747.200	-115.528	0.450	-0.086
-746.185	-144.550	-0.201	0.019
-745.171	-26.237	0.154	-0.092
-744.156	60.058	-0.146	0.146
-743.142	-200.000	0.051	0.262
-742.127	66.321	0.187	0.192
-741.112	-111.589	0.260	0.053
-740.098	-200.000	-0.056	0.279
-739.083	-170.554	-0.210	-0.007
-738.069	-152.034	0.113	-0.008
-737.054	-200.000	-0.025	-0.147
-736.039	-48.636	-0.276	-0.134
-735.025	281.997	0.093	0.169
-734.010	403.064	0.093	-0.198
-732.996	-83.506	-0.066	0.021
-731.981	161.977	0.046	-0.065
-730.966	-200.000	0.048	0.375
-729.952	-200.000	-0.011	-0.099
-728.937	-75.374	-0.136	-0.049
-727.923	463.521	-0.125	0.282
-726.908	-98.255	-0.184	0.048
-725.894	-43.029	-0.061	0.031
-724.879	466.904	0.043	-0.098
-723.864	423.492	-0.078	-0.169
-722.850	-69.220	-0.151	0.059
-721.835	-98.822	0.135	0.035
-720.821	774.630	-0.081	0.223
-719.806	-109.989	-0.164	-0.035
-718.791	40.294	-0.336	-0.305
-717.777	-75.576	0.106	-0.038
-716.762	349.057	0.100	0.199
-715.748	73.841	0.135	-0.143
-714.733	274.310	-0.101	-0.181
-713.718	-165.122	-0.308	-0.014
-712.704	15.513	0.138	-0.109
-711.689	800.000	-0.032	-0.098
-710.675	800.000	0.079	-0.223
-709.660	269.601	-0.071	-0.126
-708.645	800.000	-0.105	-0.400
-707.631	-200.000	-0.030	-0.331
-706.616	-157.838	-0.305	-0.018
-705.602	115.610	-0.075	0.093
-704.587	-56.104	0.206	-0.093
-703.572	773.781	-0.091	-0.249
-702.558	-200.000	-0.019	-0.124
-701.543	95.272	-0.120	0.138
-700.529	-200.000	-0.008	0.129
-699.514	-78.137	-0.235	0.082
-698.499	-26.778	-0.316	0.186
-697.485	-200.000	0.001	-0.075
-696.470	-200.000	-0.013	0.331
-695.456	-23.478	0.047	-0.028
-694.441	800.000	-0.006	-0.019
-693.426	168.495	0.201	0.289
-692.412	-200.000	-0.005	-0.485
-691.397	-8.456	-0.127	0.086
-690.383	125.268	0.307	0.390
-689.368	-36.514	-0.291	-0.158
-688.354	-136.330	0.089	-0.011
-687.339	427.854	-0.193	0.421
-686.324	800.000	-0.024	0.081
-685.310	231.649	0.133	-0.220
-684.295	-141.360	-0.241	-0.025
-683.281	-154.896	-0.408	-0.027
-682.266	165.062	-0.143	-0.204
-681.251	264.298	-0.088	-0.155
-680.237	-105.877	-0.156	-0.035
-679.222	-24.556	0.151	0.091
-678.208	-45.795	0.061	0.030
-677.193	-200.000	0.064	0.376
-676.178	625.820	-0.156	0.397
-675.164	12.392	-0.235	-0.183
-674.149	800.000	-0.044	-0.135
-673.135	800.000	0.014	-0.040
-672.120	310.326	0.060	0.113
-671.105	-200.000	0.004	0.047
-670.091	23.908	0.249	-0.207
-669.076	444.477	0.071	-0.158
-668.062	-67.567	-0.248	-0.098
-667.047	126.092	0.243	-0.309
-666.032	189.976	-0.090	-0.136
-665.018	-200.000	0.037	-0.224
-664.003	-200.000	0.015	0.175
-662.989	144.626	-0.060	-0.081
-661.974	-200.000	-0.012	-0.310
-660.959	36.832	-0.250	-0.223
-659.945	179.264	0.107	-0.158
-658.930	701.125	-0.048	0.127
-657.916	453.759	0.072	0.161
-656.901	762.986	0.100	-0.274
-655.886	19.454	0.182	-0.147
-654.872	-107.369	-0.116	0.026
-653.857	37.986	-0.173	0.155
-652.843	148.179	-0.143	-0.195
-651.828	-48.182	0.254	-0.124
-650.814	-135.009	0.130	0.016
-649.799	-200.000	-0.035	-0.260
-648.784	-95.613	-0.371	0.100
-647.770	-129.137	-0.178	0.025
-646.755	-135.569	0.132	0.016
-645.741	508.083	-0.047	-0.110
-644.726	-46.364	0.339	0.168
-643.711	-58.168	-0.147	0.064
-642.697	-10.995	0.201	0.134
-641.682	-151.894	-0.280	-0.021
-640.668	205.833	-0.024	0.038
-639.653	392.410	-0.066	0.139
-638.638	36.456	0.272	-0.241
-637.624	-200.000	-0.012	0.079
-636.609	-174.329	-0.106	-0.003
-635.595	-200.000	-0.007	-0.375
-634.580	-59.465	-0.183	-0.079
-633.565	-200.000	0.022	-0.222
-632.551	-46.687	0.272	-0.134
-631.536	435.934	-0.051	-0.111
-630.522	-21.690	-0.304	0.186
-629.507	739.476	-0.110	-0.298
-628.492	104.059	0.266	0.314
-627.478	-200.000	0.076	0.366
-626.463	-87.896	0.326	0.099
-625.449	-27.464	0.384	-0.225
-624.434	750.628	0.045	0.123
-623.419	84.170	0.157	-0.172
-622.405	800.000	-0.133	0.379
-621.390	-134.330	0.331	0.041
-620.376	66.412	-0.180	0.184
-619.361	-66.536	-0.326	0.130
-618.346	5.641	0.174	-0.129
-617.332	74.153	0.231	-0.244
-616.317	-102.678	0.195	-0.047
-615.303	-44.909	-0.116	-0.058
-614.288	30.824	0.232	0.199
-613.273	-96.972	0.137	-0.036
-612.259	281.330	-0.130	-0.234
-611.244	-200.000	0.007	-0.353
-610.230	115.401	-0.174	-0.214
-609.215	352.702	-0.060	0.120
-608.201	-13.334	-0.122	-0.079
-607.186	-200.000	0.011	0.294
-606.171	63.441	0.213	-0.215
-605.157	-60.625	-0.154	-0.066
-604.142	-200.000	-0.002	0.062
-603.128	107.942	-0.229	0.275
-602.113	304.494	-0.145	0.270
-601.098	-74.307	0.071	0.026
-600.084	-53.246	0.218	0.101
-599.069	800.000	0.050	-0.176
-598.055	350.452	-0.153	0.304
-597.040	800.000	0.080	0.286
-596.025	386.261	-0.077	0.159
-595.011	-182.839	-0.253	-0.005
-593.996	-114.142	-0.348	-0.068
-592.982	496.499	0.037	-0.086
-591.967	130.435	0.164	-0.211
-590.952	-200.000	-0.009	-0.578
-589.938	-82.642	-0.467	-0.152
-588.923	-20.043	0.128	0.079
-587.909	-200.000	-0.006	-0.360
-586.894	-200.000	0.008	-0.265
-585.879	-100.379	0.039	0.010
-584.865	800.000	0.085	-0.334
-583.850	-200.000	-0.056	-0.379
-582.836	-200.000	0.008	0.143
-581.821	43.156	-0.054	0.049
-580.806	104.150	-0.170	-0.200
-579.792	16.017	-0.116	-0.092
-578.777	275.367	-0.244	-0.434
-577.763	-92.444	-0.169	0.048
-576.748	-155.195	-0.515	0.034
-575.733	-200.000	-0.026	-0.367
-574.719	-180.145	-0.478	0.010
-573.704	-124.370	0.241	0.038
-572.690	800.000	0.024	-0.090
-571.675	-145.590	0.241	-0.022
-570.661	-46.501	-0.045	0.022
-569.646	-68.320	0.083	0.032
-568.631	575.263	-0.059	0.144
-567.617	-8.460	0.174	-0.118
-566.602	238.692	0.071	-0.118
-565.588	-164.368	-0.029	-0.001
-564.573	339.955	0.138	-0.270
-563.558	-200.000	-0.014	0.368
-562.544	-172.322	-0.043	0.001
-561.529	-45.737	-0.168	0.083
-560.515	559.995	0.020	0.049
-559.500	130.477	0.120	0.155
-558.485	800.000	0.033	-0.093
-557.471	-151.547	-0.288	-0.021
-556.456	-134.156	0.259	0.032
-555.442	79.996	0.188	0.203
-554.427	-30.328	-0.238	0.135
-553.412	-35.820	0.147	0.080
-552.398	483.094	0.051	0.117
-551.383	-7.736	0.369	0.250
-550.369	123.593	0.088	-0.111
-549.354	800.000	-0.051	0.176
-548.339	733.765	0.006	0.015
-547.325	145.741	-0.116	-0.156
-546.310	9.120	0.263	0.199
-545.296	506.856	-0.097	-0.226
-544.281	359.469	-0.093	0.186
-543.266	-90.436	-0.239	0.069
-542.252	-122.366	-0.097	-0.016
-541.237	-32.881	-0.079	-0.044
-540.223	383.649	0.077	0.159
-539.208	-63.243	-0.051	-0.021
-538.193	-200.000	0.034	-0.213
-537.179	124.184	-0.157	0.198
-536.164	-115.851	-0.145	0.027
-535.150	463.105	0.076	-0.169
-534.135	-200.000	0.009	0.128
-533.121	-102.215	0.223	-0.054
-532.106	-3.877	0.160	-0.111
-531.091	-15.958	-0.155	-0.099
-530.077	-150.964	0.217	-0.016
-529.062	107.793	-0.230	0.274
-528.048	4.456	-0.019	0.014
-527.033	362.622	-0.040	-0.081
-526.018	-132.279	0.195	0.025
-525.004	13.123	0.308	0.239
-523.989	208.017	-0.122	0.191
-522.975	164.529	0.102	-0.144
-521.960	-200.000	-0.031	-0.333
-520.945	7.536	0.138	0.103
-519.931	-22.436	-0.178	0.108
-518.916	238.922	-0.191	-0.318
-517.902	132.670	0.169	-0.218
-516.887	277.943	0.072	0.129
-515.872	-200.000	-0.100	0.488
-514.858	-200.000	0.009	-0.099
-513.843	-55.218	-0.007	0.003
-512.829	55.710	0.038	0.037
-511.814	800.000	0.097	-0.302
-510.799	35.373	-0.339	-0.298
-509.785	-102.450	-0.315	-0.076
-508.770	-138.965	-0.334	0.036
-507.756	800.000	-0.053	-0.175
-506.741	-6.549	0.266	-0.181
-505.726	793.838	0.072	0.199
-504.712	30.638	0.125	0.107
-503.697	-93.808	-0.382	-0.105
-502.683	-105.308	-0.120	0.027
-501.668	800.000	0.003	-0.011
-500.653	-26.118	-0.336	0.198
-499.639	-22.027	0.306	0.186
-498.624	-35.527	0.110	0.060
-497.610	800.000	0.085	0.331
-496.595	800.000	-0.059	0.193
-495.581	166.741	0.066	-0.094
-494.566	67.462	-0.177	0.181
-493.551	78.025	0.059	-0.063
-492.537	426.480	-0.124	0.268
-491.522	-163.884	-0.158	-0.007
-490.508	712.691	-0.046	-0.122
-489.493	-98.701	0.251	-0.064
-488.478	-158.326	-0.210	0.012
-487.464	-57.998	-0.163	0.071
-486.449	-200.000	0.013	-0.129
-485.435	-50.096	-0.235	0.111
-484.420	715.194	0.041	-0.109
-483.405	-200.000	0.024	-0.215
-482.391	800.000	0.075	0.247
-481.376	800.000	-0.021	0.075
-480.362	273.621	-0.056	-0.100
-479.347	-37.496	0.182	0.097
-478.332	-75.664	-0.227	0.081
-477.318	-200.000	0.002	0.138
-476.303	248.482	0.215	-0.364
-475.289	800.000	-0.036	0.141
-474.274	-46.256	-0.235	-0.115
-473.259	-71.775	-0.090	-0.033
-472.245	50.731	0.117	-0.111
-471.230	210.092	-0.125	0.197
-470.216	-133.705	0.200	0.025
-469.201	-79.106	0.128	-0.043
-468.186	-127.777	-0.008	-0.001
-467.172	-200.000	0.056	-0.601
-466.157	-200.000	0.069	-0.405
-465.143	530.137	-0.054	-0.127
-464.128	241.540	-0.055	-0.092
-463.113	-108.574	0.158	-0.034
-462.099	529.885	-0.067	0.158
-461.084	200.502	0.033	-0.051
-460.070	-1.982	0.102	0.072
-459.055	-11.757	-0.307	-0.201
-458.040	593.566	-0.130	-0.320
-457.026	800.000	-0.076	-0.281
-456.011	-19.117	0.158	-0.098
-454.997	-200.000	0.043	-0.328
-453.982	22.398	-0.101	0.083
-452.968	-101.152	0.280	0.068
-451.953	288.180	0.211	-0.381
-450.938	-200.000	0.029	-0.136
-449.924	18.983	0.253	-0.203
-448.909	247.582	0.126	0.212
-447.895	-200.000	-0.009	0.053
-446.880	-200.000	-0.011	-0.226
-445.865	-200.000	-0.018	0.383
-444.851	45.411	0.038	0.035
-443.836	58.392	-0.143	-0.140
-442.822	-111.347	0.109	0.022
-441.807	87.015	-0.081	-0.090
-440.792	0.975	0.075	0.053
-439.778	-37.631	0.258	-0.137
-438.763	-200.000	-0.015	-0.309
-437.749	-161.838	0.456	-0.023
-436.734	225.403	0.139	0.225
-435.719	112.358	0.167	-0.202
-434.705	45.083	0.101	-0.093
-433.690	715.407	0.049	0.130
-432.676	76.184	0.303	0.320
-431.661	173.846	-0.048	0.069
-430.646	214.866	0.138	0.218
-429.632	-109.050	0.083	0.018
-428.617	-42.467	-0.138	-0.070
-427.603	-64.027	0.086	0.035
-426.588	411.205	0.076	-0.161
-425.573	28.843	-0.193	0.163
-424.559	141.884	0.130	-0.172
-423.544	-32.562	0.192	0.107
-422.530	8.392	-0.252	-0.189
-421.515	564.172	-0.089	0.216
-420.500	800.000	0.114	0.357
-419.486	800.000	0.143	0.408
-418.471	-119.362	-0.103	-0.018
-417.457	-139.110	0.226	-0.024
-416.442	-71.811	0.210	-0.078
-415.428	-200.000	0.011	-0.229
-414.413	800.000	0.059	0.223
-413.398	-200.000	0.031	0.277
-412.384	15.478	0.235	-0.184
-411.369	-200.000	0.002	-0.106
-410.355	40.361	-0.236	-0.212
-409.340	189.997	-0.265	-0.396
-408.325	47.759	-0.229	-0.213
-407.311	155.325	0.137	-0.188
-406.296	-50.813	-0.164	0.077
-405.282	32.666	-0.110	0.095
-404.267	-200.000	0.051	0.232
-403.252	113.055	0.064	0.078
-402.238	195.098	0.214	0.325
-401.223	128.419	-0.097	0.124
-400.209	-109.550	0.296	0.062
-399.194	-71.931	-0.360	-0.134
-398.179	75.011	-0.169	0.177
-397.165	-112.731	0.381	0.075
-396.150	-78.784	-0.211	0.072
-395.136	-200.000	-0.005	0.048
-394.121	-200.000	0.032	0.210
-393.106	-131.583	-0.394	0.052
-392.092	22.740	0.207	0.169
-391.077	17.971	0.186	-0.148
-390.063	9.558	-0.060	0.046
-389.048	-12.193	0.236	-0.154
-388.033	-153.522	0.125	0.009
-387.019	479.907	-0.073	-0.165
-386.004	800.000	-0.110	0.370
-384.990	644.613	-0.110	0.281
-383.975	-87.489	-0.359	-0.108
-382.960	-200.000	0.022	0.100
-381.946	-67.616	-0.174	-0.068
-380.931	-60.813	0.221	0.093
-379.917	21.287	-0.166	0.135
-378.902	28.464	-0.232	-0.196
-377.888	-115.434	-0.160	-0.030
-376.873	-133.581	-0.240	-0.030
-375.858	614.204	-0.083	0.206
-374.844	-200.000	0.066	0.404
-373.829	152.634	-0.075	0.103
-372.815	373.808	-0.058	0.118
-371.800	-200.000	-0.009	0.450
-370.785	-94.022	0.274	-0.075
-369.771	-54.309	-0.302	0.137
-368.756	800.000	-0.059	-0.205
-367.742	290.690	-0.015	0.026
-366.727	-149.456	-0.064	-0.005
-365.712	401.371	0.146	0.304
-364.698	-200.000	-0.001	-0.293
-363.683	15.995	-0.199	0.156
-362.669	-119.450	0.218	0.038
-361.654	-200.000	-0.042	0.000
-360.639	-200.000	-0.061	-0.294
-359.625	-118.526	0.385	0.068
-358.610	-122.161	0.247	-0.040
-357.596	-38.335	0.053	0.028
-356.581	-14.705	0.187	0.120
-355.566	-200.000	-0.043	-0.285
-354.552	111.206	-0.164	-0.196
-353.537	186.343	0.283	-0.419
-352.523	800.000	0.038	0.152
-351.508	800.000	-0.031	-0.128
-350.493	38.581	0.203	0.180
-349.479	800.000	-0.054	-0.231
-348.464	-97.237	-0.284	-0.074
-347.450	-200.000	-0.007	-0.059
-346.435	-38.315	-0.205	-0.108
-345.420	-13.334	0.077	0.049
-344.406	-200.000	0.035	0.184
-343.391	-111.940	-0.277	-0.056
-342.377	400.754	0.080	-0.168
-341.362	60.744	-0.115	0.114
-340.348	12.086	0.327	-0.250
-339.333	-79.506	0.290	-0.097
-338.318	-61.509	-0.388	0.162
-337.304	-167.445	0.195	0.008
-336.289	-93.101	-0.313	0.087
-335.275	702.348	-0.175	-0.458
-334.260	800.000	0.054	0.222
-333.245	2.536	-0.170	0.123
-332.231	41.550	-0.153	-0.138
-331.216	-80.083	0.111	-0.037
-330.202	-66.997	-0.118	0.046
-329.187	66.284	-0.154	0.155
-328.172	70.758	-0.145	-0.149
-327.158	-54.963	0.136	0.061
-326.143	-130.405	-0.335	-0.045
-325.129	6.113	-0.239	0.176
-324.114	-152.922	-0.114	-0.008
-323.099	-200.000	0.028	-0.209
-322.085	-113.545	0.234	-0.045
-321.070	-93.289	-0.579	0.160
-320.056	-200.000	0.027	-0.290
-319.041	-200.000	0.032	0.259
-318.026	212.993	0.137	0.216
-317.012	-74.617	-0.296	-0.106
-315.997	-200.000	-0.004	0.142
-314.983	771.061	0.053	0.144
-313.968	-51.974	-0.202	-0.093
-312.953	449.974	0.107	0.235
-311.939	227.274	-0.038	0.061
-310.924	170.726	0.282	-0.402
-309.910	595.325	-0.074	0.183
-308.895	96.642	0.114	0.130
-307.880	-151.229	0.144	0.011
-306.866	-200.000	0.057	0.303
-305.851	-200.000	-0.026	-0.116
-304.837	-200.000	-0.052	0.470
-303.822	-5.166	0.125	0.086
-302.807	429.527	0.187	0.401
-301.793	800.000	-0.028	0.100
-300.778	-200.000	0.033	0.207
-299.764	-88.823	-0.220	-0.065
-298.749	-27.317	0.142	-0.082
-297.735	265.695	0.254	0.440
-296.720	413.880	0.150	-0.317
-295.705	-71.729	-0.216	-0.080
-294.691	-200.000	-0.039	-0.310
-293.676	-73.104	-0.296	-0.108
-292.662	175.924	-0.084	0.120
-291.647	-200.000	0.015	0.091
-290.632	463.476	-0.079	0.174
-289.618	-13.129	0.307	-0.198
-288.603	22.124	0.165	-0.134
-287.589	-144.603	0.178	-0.016
-286.574	-122.847	0.408	-0.065
-285.559	-59.482	0.259	0.110
-284.545	-5.888	-0.120	0.082
-283.530	-129.291	0.463	0.064
-282.516	106.951	-0.136	0.161
-281.501	-28.460	0.169	0.097
-280.486	489.525	0.135	-0.305
-279.472	305.426	-0.163	-0.301
-278.457	28.276	0.166	-0.140
-277.443	-100.387	-0.064	-0.016
-276.428	-200.000	0.008	-0.387
-275.413	23.726	0.078	-0.064
-274.399	156.828	-0.254	0.349
-273.384	175.205	0.174	-0.250
-272.370	65.613	-0.212	-0.213
-271.355	315.915	0.205	-0.384
-270.340	-5.772	-0.138	0.094
-269.326	522.119	0.088	0.205
-268.311	800.000	0.058	-0.226
-267.297	-200.000	0.005	-0.103
-266.282	-123.941	0.261	0.041
-265.267	198.061	-0.039	0.058
-264.253	-200.000	0.076	0.490
-263.238	-9.981	0.151	0.099
-262.224	-200.000	-0.021	-0.213
-261.209	-200.000	0.018	-0.189
-260.195	-79.218	0.086	-0.029
-259.180	-200.000	0.008	0.139
-258.165	24.936	0.157	-0.129
-257.151	148.254	-0.268	0.358
-256.136	324.229	0.203	0.384
-255.122	-25.703	-0.272	0.159
-254.107	22.621	0.341	-0.277
-253.092	263.900	0.039	0.068
-252.078	174.447	0.079	-0.113
-251.063	-200.000	-0.028	-0.411
-250.049	-5.272	-0.126	-0.086
-249.034	-200.000	-0.020	0.199
-248.019	93.777	-0.188	-0.211
-247.005	-45.547	0.163	-0.080
-245.990	-181.364	-0.166	-0.003
-244.976	-127.851	-0.027	0.004
-243.961	800.000	0.105	-0.290
-242.946	-5.281	0.151	0.103
-241.932	296.900	-0.095	0.173
-240.917	118.994	-0.278	0.340
-239.903	800.000	-0.038	-0.127
-238.888	-200.000	-0.007	0.307
-237.873	52.504	0.233	0.221
-236.859	239.606	0.118	-0.195
-235.844	-200.000	0.066	0.466
-234.830	-151.991	-0.255	0.018
-233.815	688.659	0.078	0.202
-232.800	-181.195	-0.301	-0.006
-231.786	106.836	-0.061	-0.072
-230.771	-200.000	0.161	-0.001
-229.757	-173.722	0.238	0.007
-228.742	-200.000	0.004	0.224
-227.727	-185.998	0.201	-0.003
-226.713	-66.817	0.174	-0.068
-225.698	-200.000	-0.006	0.314
-224.684	489.510	0.072	-0.164
-223.669	-83.478	0.343	0.109
-222.655	377.481	0.103	-0.208
-221.640	-8.610	-0.234	-0.156
-220.625	27.504	-0.231	-0.193
-219.611	-117.040	0.300	-0.054
-218.596	16.508	0.174	0.136
-217.582	609.673	-0.071	-0.176
-216.567	9.267	-0.285	0.213
-215.552	358.530	0.112	0.221
-214.538	-200.000	-0.004	0.150
-213.523	-34.430	-0.194	0.105
-212.509	776.489	0.042	-0.113
-211.494	30.764	-0.206	-0.174
-210.479	443.209	0.088	-0.191
-209.465	41.830	-0.174	-0.156
-208.450	-101.101	0.095	-0.023
-207.436	-110.593	0.221	0.045
-206.421	-115.018	-0.257	-0.048
-205.406	28.511	-0.164	-0.137
-204.392	800.000	-0.135	-0.393
-203.377	-24.020	0.164	-0.097
-202.363	800.000	0.069	0.216
-201.348	800.000	-0.047	-0.192
-200.333	-37.123	-0.223	0.118
-199.319	-131.005	0.173	-0.023
-198.304	-114.625	-0.244	0.046
-197.290	380.447	0.104	0.210
-196.275	-139.677	-0.263	0.028
-195.260	-28.250	-0.208	0.119
-194.246	-19.365	0.102	-0.063
-193.231	800.000	-0.062	-0.182
-192.217	-27.701	0.121	0.070
-191.202	82.372	-0.256	0.275
-190.187	11.218	-0.182	-0.137
-189.173	-180.232	-0.306	-0.006
-188.158	441.342	-0.032	-0.069
-187.144	7.847	0.192	-0.142
-186.129	-200.000	0.026	0.179
-185.114	58.515	-0.225	0.218
-184.100	800.000	0.153	0.467
-183.085	-200.000	-0.027	0.125
-182.071	-200.000	-0.005	-0.061
-181.056	-43.789	0.225	-0.112
-180.042	364.990	-0.132	0.262
-179.027	-79.692	-0.205	-0.068
-178.012	-200.000	-0.025	0.245
-176.998	-200.000	0.115	0.525
-175.983	191.772	-0.123	-0.183
-174.969	-135.228	-0.251	-0.030
-173.954	800.000	-0.045	-0.170
-172.939	12.838	0.273	0.208
-171.925	35.568	-0.078	0.067
-170.910	241.324	-0.041	-0.067
-169.896	-8.402	0.477	-0.317
-168.881	-20.331	-0.037	0.023
-167.866	-59.477	0.282	0.120
-166.852	406.732	0.163	0.340
-165.837	30.016	0.096	0.081
-164.823	180.164	0.140	0.203
-163.808	-200.000	0.011	-0.260
-162.793	-88.706	0.170	-0.050
-161.779	174.263	-0.025	0.036
-160.764	-43.597	-0.152	-0.076
-159.750	85.365	-0.055	-0.060
-158.735	-31.179	-0.086	-0.048
-157.720	-200.000	-0.001	-0.164
-156.706	48.584	-0.004	-0.004
-155.691	-139.422	-0.069	-0.007
-154.677	790.004	0.057	-0.154
-153.662	-24.736	0.076	0.045
-152.647	294.683	-0.099	-0.180
-151.633	276.925	-0.048	-0.085
-150.618	109.568	0.024	0.028
-149.604	1.716	0.127	0.091
-148.589	53.979	-0.249	-0.236
-147.574	-200.000	0.019	-0.148
-146.560	-17.761	0.318	0.197
-145.545	26.105	-0.169	0.139
-144.531	-21.553	0.061	0.037
-143.516	439.193	-0.041	-0.089
-142.502	345.909	-0.084	0.163
-141.487	800.000	0.102	0.411
-140.472	34.213	0.102	0.088
-139.458	507.187	-0.056	-0.129
-138.443	75.900	0.224	-0.233
-137.429	-149.651	0.540	-0.042
-136.414	6.526	0.131	0.096
-135.399	-36.629	0.058	-0.031
-134.385	6.751	-0.109	0.080
-133.370	40.976	0.197	0.175
-132.356	-142.785	0.211	-0.020
-131.341	647.765	-0.050	-0.126
-130.326	-139.320	-0.206	-0.022
-129.312	507.488	-0.062	-0.141
-128.297	-37.775	-0.470	0.247
-127.283	-200.000	0.016	-0.354
-126.268	-200.000	-0.023	0.320
-125.253	299.765	0.102	-0.186
-124.239	-200.000	-0.027	-0.138
-123.224	-68.591	0.286	-0.109
-122.210	800.000	0.045	0.167
