DTS Sentinel unit serial number:	SN413079Multiplexer serial number:	ORYXHardware model number:	OX4-SRSoftware version number:	ORYX F/W v4.00 Oryx Data Collector v3.7.2.0data status	okinstallation	princeton_trtdifferential loss correction	single-endedforward channel	channel 3reverse channel	N/Adate	2019/09/10time	18:30:10forward acquisition time	60.00reverse acquisition time	0.00gamma	496.2192k internal	0.2306k external	0.2306temperature offset calibration	0.9916default loss term (dB/km)	0.3790temperature slope calibration	1.0000multiplexer offset coefficient	1.0000multiplexer slope coefficient	1.0000fibre end	0.00T internal ref (°C)	35.87T ext. ref 1 (°C)	-0.36T ext. ref 2 (°C)	27.97length (m)	temperature (°C)	Stokes	anti-Stokes-747.200	-99.749	0.274	0.070
-746.185	-200.000	0.003	0.184
-745.171	-106.510	0.127	0.029
-744.156	-25.559	-0.275	-0.165
-743.142	-69.450	-0.217	0.085
-742.127	193.397	-0.192	0.295
-741.112	301.192	0.122	0.230
-740.098	-108.932	0.123	-0.027
-739.083	800.000	-0.059	-0.229
-738.069	48.523	0.227	-0.216
-737.054	670.902	0.040	-0.106
-736.039	-124.244	-0.198	0.032
-735.025	800.000	0.104	0.347
-734.010	-118.222	-0.280	0.051
-732.996	-135.618	-0.356	-0.043
-731.981	-179.824	0.186	-0.004
-730.966	-200.000	-0.056	0.262
-729.952	311.187	-0.029	-0.054
-728.937	-111.529	-0.120	0.025
-727.923	-83.786	-0.125	0.041
-726.908	183.208	-0.094	-0.140
-725.894	446.111	-0.082	0.184
-724.879	28.803	0.129	0.111
-723.864	-62.601	-0.386	0.163
-722.850	800.000	0.038	-0.123
-721.835	619.213	0.092	-0.236
-720.821	-192.830	-0.294	-0.003
-719.806	800.000	-0.106	-0.314
-718.791	-4.123	-0.150	-0.105
-717.777	-200.000	-0.002	-0.353
-716.762	-136.901	0.402	-0.047
-715.748	233.827	0.128	0.215
-714.733	734.168	-0.064	0.173
-713.718	11.743	-0.118	-0.092
-712.704	-200.000	0.065	0.321
-711.689	176.633	-0.151	0.223
-710.675	-72.509	-0.129	0.049
-709.660	67.026	-0.179	-0.185
-708.645	289.302	0.127	0.234
-707.631	32.170	-0.054	0.048
-706.616	-200.000	-0.036	0.165
-705.602	-104.335	0.385	0.091
-704.587	19.320	0.134	-0.109
-703.572	-166.111	-0.033	0.001
-702.558	-118.754	-0.045	-0.008
-701.543	-200.000	-0.063	0.280
-700.529	800.000	0.082	0.282
-699.514	-200.000	0.034	0.232
-698.499	800.000	-0.049	-0.177
-697.485	538.338	-0.030	0.073
-696.470	-166.333	0.186	0.008
-695.456	275.473	-0.088	-0.159
-694.441	325.118	-0.086	-0.168
-693.426	-23.158	-0.245	0.150
-692.412	-200.000	0.002	-0.137
-691.397	-200.000	0.058	-0.271
-690.383	-41.897	0.327	0.170
-689.368	67.809	0.173	-0.179
-688.354	452.558	-0.097	-0.217
-687.339	800.000	0.062	-0.257
-686.324	-47.013	-0.179	0.089
-685.310	73.177	0.218	-0.231
-684.295	2.656	-0.033	0.024
-683.281	308.820	0.170	-0.322
-682.266	781.063	-0.056	0.157
-681.251	3.177	-0.106	-0.078
-680.237	800.000	-0.062	-0.252
-679.222	164.319	-0.086	-0.123
-678.208	-9.929	-0.169	-0.114
-677.193	-91.744	-0.268	0.077
-676.178	-77.112	0.239	-0.085
-675.164	-200.000	0.029	-0.202
-674.149	-200.000	-0.016	-0.487
-673.135	150.004	-0.076	-0.105
-672.120	-127.733	-0.234	0.034
-671.105	-51.038	0.075	0.036
-670.091	82.242	0.304	0.334
-669.076	-100.727	-0.372	0.093
-668.062	-75.473	-0.294	-0.106
-667.047	207.955	-0.089	0.141
-666.032	-115.781	-0.332	0.063
-665.018	-77.381	-0.246	0.087
-664.003	800.000	0.053	0.189
-662.989	-200.000	-0.006	0.245
-661.974	72.700	-0.078	-0.082
-660.959	-46.045	0.174	-0.087
-659.945	-1.729	0.394	-0.281
-658.930	-37.060	-0.291	-0.158
-657.916	104.939	0.252	0.301
-656.901	98.306	0.189	0.221
-655.886	370.964	0.177	0.364
-654.872	625.842	0.037	0.095
-653.857	146.641	-0.096	-0.130
-652.843	467.551	-0.231	0.524
-651.828	139.770	-0.083	0.111
-650.814	568.531	-0.070	0.173
-649.799	-200.000	-0.041	0.218
-648.784	-200.000	0.059	-0.359
-647.770	800.000	-0.020	-0.090
-646.755	176.625	0.171	-0.252
-645.741	-10.498	0.099	-0.067
-644.726	48.373	0.092	-0.088
-643.711	-174.325	0.088	-0.003
-642.697	317.771	0.173	0.331
-641.682	800.000	0.045	-0.135
-640.668	-108.144	0.195	-0.043
-639.653	-68.240	0.065	-0.026
-638.638	-6.361	0.252	-0.174
-637.624	800.000	0.030	-0.123
-636.609	240.314	0.092	0.155
-635.595	-200.000	0.027	0.161
-634.580	-32.411	0.063	-0.036
-633.565	-22.095	-0.143	-0.088
-632.551	-62.776	0.310	0.130
-631.536	-36.707	-0.095	0.052
-630.522	-200.000	0.056	-0.266
-629.507	11.632	0.212	-0.164
-628.492	-83.830	-0.356	0.115
-627.478	-64.965	0.333	-0.136
-626.463	-34.977	0.200	0.111
-625.449	505.151	-0.055	-0.130
-624.434	-71.894	0.221	-0.083
-623.419	536.559	-0.115	0.276
-622.405	42.334	-0.213	0.196
-621.390	620.171	-0.059	0.150
-620.376	137.288	0.139	0.184
-619.361	-200.000	-0.000	-0.247
-618.346	-55.272	0.058	-0.026
-617.332	735.706	0.029	-0.079
-616.317	-128.825	-0.104	0.015
-615.303	528.110	0.062	-0.148
-614.288	175.876	0.090	-0.133
-613.273	-117.009	-0.096	-0.018
-612.259	-95.030	-0.088	-0.024
-611.244	-70.579	0.306	-0.117
-610.230	-200.000	-0.029	0.142
-609.215	163.584	-0.053	-0.076
-608.201	331.286	0.253	-0.493
-607.186	157.534	0.235	0.329
-606.171	-16.308	-0.081	0.052
-605.157	800.000	0.081	-0.271
-604.142	-100.047	-0.124	0.031
-603.128	-144.347	0.168	0.016
-602.113	-2.618	0.220	-0.156
-601.098	683.736	-0.038	-0.101
-600.084	-118.423	-0.160	0.029
-599.069	-78.015	-0.474	0.165
-598.055	212.773	-0.133	0.212
-597.040	-25.638	0.149	-0.089
-596.025	-118.940	0.172	0.030
-595.011	-54.302	-0.276	0.127
-593.996	-200.000	0.033	-0.386
-592.982	800.000	-0.015	-0.061
-591.967	-83.033	-0.222	-0.072
-590.952	20.286	0.156	-0.128
-589.938	800.000	-0.106	-0.357
-588.923	-200.000	0.046	-0.347
-587.909	-200.000	-0.029	-0.226
-586.894	800.000	0.045	0.145
-585.879	800.000	-0.161	-0.541
-584.865	-86.642	0.076	-0.023
-583.850	-52.012	-0.177	-0.083
-582.836	137.047	-0.100	-0.132
-581.821	36.275	-0.228	0.203
-580.806	-77.806	0.226	-0.079
-579.792	-200.000	0.065	-0.462
-578.777	37.977	-0.241	-0.217
-577.763	236.567	-0.117	-0.195
-576.748	-97.409	-0.252	-0.066
-575.733	22.974	0.043	-0.036
-574.719	-23.602	-0.141	0.085
-573.704	37.643	-0.309	0.277
-572.690	-59.413	-0.080	0.035
-571.675	276.106	-0.200	-0.358
-570.661	431.588	0.169	0.370
-569.646	-146.242	0.078	-0.007
-568.631	800.000	-0.036	-0.122
-567.617	24.778	-0.223	-0.186
-566.602	466.633	-0.080	0.181
-565.588	-200.000	0.017	0.103
-564.573	-200.000	0.002	-0.089
-563.558	-62.841	-0.369	0.154
-562.544	-44.085	-0.080	-0.041
-561.529	131.345	-0.332	-0.431
-560.515	-164.323	0.136	-0.006
-559.500	-101.842	0.230	0.056
-558.485	-8.422	-0.113	0.077
-557.471	-200.000	-0.009	-0.043
-556.456	28.385	-0.158	0.135
-555.442	800.000	-0.029	-0.113
-554.427	-200.000	-0.027	-0.264
-553.412	-200.000	-0.034	-0.249
-552.398	-96.463	-0.147	-0.039
-551.383	175.132	0.011	0.016
-550.369	-86.955	0.164	0.051
-549.354	776.415	0.084	-0.232
-548.339	-77.886	-0.333	0.116
-547.325	-200.000	-0.036	0.225
-546.310	305.436	0.071	0.133
-545.296	-158.076	-0.101	-0.006
-544.281	55.630	-0.209	0.204
-543.266	-200.000	0.011	0.508
-542.252	-128.102	0.042	0.006
-541.237	-141.930	0.548	-0.055
-540.223	108.206	-0.070	-0.084
-539.208	19.751	0.288	-0.234
-538.193	4.099	-0.128	0.095
-537.179	-200.000	-0.030	0.191
-536.164	-84.540	-0.255	0.081
-535.150	-151.190	0.093	-0.007
-534.135	-141.266	-0.241	0.025
-533.121	53.426	-0.230	0.222
-532.106	-200.000	0.013	0.259
-531.091	-200.000	-0.062	0.303
-530.077	-200.000	-0.010	0.127
-529.062	117.020	0.083	0.102
-528.048	496.714	-0.093	-0.216
-527.033	45.114	-0.064	-0.060
-526.018	-54.933	0.109	-0.050
-525.004	-53.144	0.241	0.112
-523.989	-101.029	-0.002	0.001
-522.975	-144.668	-0.409	-0.038
-521.960	758.588	0.069	-0.190
-520.945	49.692	0.113	-0.107
-519.931	-131.239	-0.400	-0.054
-518.916	147.083	-0.115	0.156
-517.902	71.695	-0.168	-0.177
-516.887	-78.497	0.190	-0.066
-515.872	402.055	0.102	-0.216
-514.858	-62.454	0.101	-0.042
-513.843	395.503	0.134	-0.283
-512.829	-90.921	0.294	0.085
-511.814	77.292	0.077	0.082
-510.799	-11.233	-0.241	-0.160
-509.785	-200.000	0.008	0.174
-508.770	-66.134	-0.295	0.119
-507.756	-200.000	-0.039	0.175
-506.741	-200.000	-0.007	-0.090
-505.726	68.555	-0.125	-0.130
-504.712	226.175	0.090	-0.147
-503.697	-200.000	0.030	-0.320
-502.683	148.381	-0.063	-0.086
-501.668	-200.000	0.033	-0.165
-500.653	-48.328	0.258	-0.125
-499.639	30.510	0.127	-0.110
-498.624	-200.000	0.070	0.362
-497.610	-74.441	0.364	0.132
-496.595	-91.323	0.375	0.108
-495.581	-200.000	0.040	-0.318
-494.566	-200.000	-0.005	-0.052
-493.551	-74.356	-0.284	0.103
-492.537	-58.660	-0.051	-0.022
-491.522	40.983	-0.089	-0.081
-490.508	-88.352	0.301	0.091
-489.493	-200.000	-0.023	0.290
-488.478	-200.000	0.021	0.256
-487.464	-89.733	-0.127	0.038
-486.449	-127.510	-0.227	-0.033
-485.435	-200.000	0.008	0.274
-484.420	18.229	0.259	-0.208
-483.405	800.000	0.031	-0.128
-482.391	-49.018	-0.240	0.116
-481.376	43.910	0.057	0.052
-480.362	100.687	0.036	-0.042
-479.347	471.728	-0.051	0.116
-478.332	398.371	0.170	0.359
-477.318	800.000	-0.098	0.303
-476.303	111.195	-0.102	0.124
-475.289	0.083	-0.101	-0.072
-474.274	60.877	0.071	0.071
-473.259	-22.281	-0.099	-0.061
-472.245	198.937	-0.213	-0.329
-471.230	-132.360	-0.240	0.031
-470.216	-200.000	-0.021	-0.146
-469.201	62.060	-0.156	0.157
-468.186	800.000	-0.023	0.088
-467.172	359.217	0.111	0.224
-466.157	52.634	-0.328	0.316
-465.143	87.359	0.294	-0.328
-464.128	-35.724	-0.172	0.094
-463.113	800.000	0.030	0.106
-462.099	8.335	0.121	-0.092
-461.084	79.812	0.279	0.302
-460.070	19.680	0.048	0.039
-459.055	-4.565	0.053	-0.037
-458.040	-94.875	0.113	0.031
-457.026	800.000	0.035	-0.127
-456.011	800.000	-0.042	-0.120
-454.997	-154.661	-0.267	-0.018
-453.982	-200.000	0.022	0.505
-452.968	-200.000	-0.062	0.363
-451.953	602.896	-0.048	-0.120
-450.938	39.485	-0.077	0.069
-449.924	-30.136	0.083	0.048
-448.909	-53.466	-0.230	0.106
-447.895	9.332	0.204	-0.155
-446.880	71.324	-0.186	-0.194
-445.865	-140.531	-0.269	-0.028
-444.851	-200.000	-0.088	0.419
-443.836	413.121	-0.147	0.314
-442.822	383.350	-0.123	0.254
-441.807	41.534	-0.126	0.115
-440.792	392.553	0.103	-0.215
-439.778	800.000	0.079	-0.280
-438.763	-200.000	0.020	0.193
-437.749	-87.771	-0.281	-0.085
-436.734	57.162	-0.116	0.114
-435.719	-127.968	-0.182	-0.026
-434.705	-95.109	0.265	0.072
-433.690	-10.950	-0.114	0.076
-432.676	-92.663	-0.331	-0.093
-431.661	64.703	-0.242	-0.245
-430.646	597.850	0.030	-0.074
-429.632	-8.123	-0.161	0.109
-428.617	-129.429	0.479	0.067
-427.603	62.792	-0.130	-0.131
-426.588	-58.423	0.379	0.166
-425.573	800.000	-0.038	-0.160
-424.559	49.033	-0.225	-0.212
-423.544	-200.000	0.022	0.333
-422.530	800.000	0.089	-0.257
-421.515	-89.708	-0.253	-0.075
-420.500	26.831	0.054	-0.046
-419.486	97.754	0.146	-0.168
-418.471	442.443	0.167	0.368
-417.457	-200.000	0.032	-0.159
-416.442	-43.794	0.389	-0.197
-415.428	-129.985	-0.126	-0.017
-414.413	800.000	-0.020	-0.087
-413.398	-200.000	0.017	-0.243
-412.384	-74.251	-0.362	-0.132
-411.369	-24.155	-0.028	-0.017
-410.355	800.000	0.079	0.340
-409.340	-59.888	0.259	-0.111
-408.325	121.693	0.106	-0.133
-407.311	-200.000	0.009	0.066
-406.296	63.529	-0.036	0.037
-405.282	-39.269	-0.303	-0.160
-404.267	-93.321	0.060	-0.017
-403.252	800.000	0.079	0.329
-402.238	-102.966	0.233	0.055
-401.223	-200.000	-0.018	0.130
-400.209	0.885	0.208	-0.150
-399.194	-200.000	0.031	0.327
-398.179	211.822	0.093	0.147
-397.165	-82.950	-0.093	0.030
-396.150	-110.242	-0.163	-0.034
-395.136	671.000	0.082	-0.213
-394.121	54.637	-0.062	-0.060
-393.106	76.965	-0.204	-0.218
-392.092	-200.000	0.003	-0.107
-391.077	706.611	0.056	0.148
-390.063	-83.496	0.058	0.019
-389.048	-55.226	0.150	0.068
-388.033	800.000	-0.037	0.158
-387.019	213.363	-0.127	0.201
-386.004	-200.000	0.008	-0.451
-384.990	-53.528	-0.207	0.095
-383.975	77.021	0.109	0.117
-382.960	-49.552	0.070	0.034
-381.946	6.101	-0.027	0.020
-380.931	361.057	-0.090	0.180
-379.917	171.329	0.177	-0.255
-378.902	-200.000	-0.003	-0.279
-377.888	-69.971	-0.255	0.098
-376.873	800.000	0.038	-0.149
-375.858	214.356	0.139	-0.221
-374.844	582.702	-0.056	0.139
-373.829	-76.587	0.264	0.093
-372.815	-189.507	0.400	-0.005
-371.800	-93.366	-0.468	-0.130
-370.785	-87.093	0.020	0.006
-369.771	449.560	-0.072	0.159
-368.756	524.340	-0.029	0.067
-367.742	-25.462	-0.115	0.068
-366.727	563.167	0.174	0.422
-365.712	-62.566	0.276	-0.115
-364.698	-200.000	-0.011	-0.171
-363.683	-80.367	0.256	-0.086
-362.669	373.102	0.097	-0.198
-361.654	-113.996	-0.079	-0.015
-360.639	23.057	0.067	0.055
-359.625	153.044	-0.078	-0.107
-358.610	11.954	0.183	-0.141
-357.596	554.072	0.062	-0.151
-356.581	11.365	0.069	0.053
-355.566	-200.000	-0.059	0.533
-354.552	49.117	0.243	-0.229
-353.537	-30.016	-0.151	0.086
-352.523	-86.263	-0.170	0.052
-351.508	52.537	0.153	0.146
-350.493	-200.000	0.044	-0.248
-349.479	-57.860	-0.234	-0.103
-348.464	-126.619	-0.286	-0.042
-347.450	206.985	-0.103	0.162
-346.435	-200.000	0.023	-0.146
-345.420	-52.284	-0.187	0.087
-344.406	34.690	0.207	0.181
-343.391	237.673	-0.064	0.107
-342.377	800.000	0.052	0.156
-341.362	-200.000	0.068	0.374
-340.348	-12.044	0.087	0.057
-339.333	-64.725	-0.218	0.089
-338.318	-200.000	0.002	-0.110
-337.304	-200.000	-0.049	-0.258
-336.289	55.042	-0.206	-0.199
-335.275	-24.233	-0.234	-0.140
-334.260	321.248	0.114	-0.217
-333.245	380.110	-0.012	0.024
-332.231	800.000	-0.083	0.242
-331.216	11.424	-0.157	0.120
-330.202	-37.522	0.207	0.111
-329.187	-200.000	0.020	-0.183
-328.172	-200.000	0.022	-0.163
-327.158	-200.000	-0.018	-0.116
-326.143	-200.000	0.026	0.261
-325.129	-95.489	0.106	-0.029
-324.114	-163.153	-0.180	-0.009
-323.099	135.324	0.167	-0.218
-322.085	-119.165	-0.103	-0.018
-321.070	800.000	0.088	-0.335
-320.056	462.443	-0.149	-0.333
-319.041	800.000	-0.055	0.228
-318.026	9.685	-0.347	0.263
-317.012	148.469	-0.047	-0.063
-315.997	-82.517	0.267	-0.087
-314.983	800.000	0.087	-0.244
-313.968	-102.319	-0.136	0.033
-312.953	78.518	-0.075	0.080
-311.939	-200.000	-0.003	-0.015
-310.924	-158.198	0.034	-0.002
-309.910	-13.835	-0.270	0.175
-308.895	800.000	0.155	-0.509
-307.880	-200.000	0.002	0.120
-306.866	-200.000	-0.011	0.106
-305.851	-47.666	0.092	-0.045
-304.837	-200.000	-0.019	0.171
-303.822	66.541	-0.156	0.159
-302.807	-43.055	0.172	-0.087
-301.793	-35.000	-0.151	0.082
-300.778	-3.206	0.063	-0.044
-299.764	-17.074	-0.045	-0.028
-298.749	103.207	0.150	-0.176
-297.735	-200.000	0.000	0.048
-296.720	17.944	0.237	-0.189
-295.705	1.981	0.166	0.120
-294.691	96.399	-0.201	0.230
-293.676	800.000	0.073	0.262
-292.662	170.749	-0.121	-0.173
-291.647	10.036	0.087	-0.066
-290.632	351.407	-0.132	0.261
-289.618	229.422	-0.217	-0.354
-288.603	-87.090	0.172	0.052
-287.589	-200.000	0.026	0.115
-286.574	89.369	0.228	0.254
-285.559	-4.424	-0.077	-0.053
-284.545	-16.553	-0.048	-0.030
-283.530	-200.000	0.118	0.001
-282.516	-110.525	-0.036	0.007
-281.501	800.000	-0.092	-0.358
-280.486	214.828	-0.149	-0.236
-279.472	800.000	0.071	0.216
-278.457	-30.359	-0.387	-0.219
-277.443	3.705	0.247	-0.180
-276.428	-200.000	-0.012	0.149
-275.413	-154.933	0.064	0.004
-274.399	-177.972	-0.172	0.004
-273.384	201.186	-0.142	0.218
-272.370	-40.951	-0.207	-0.107
-271.355	-90.326	0.231	0.067
-270.340	-144.427	0.214	0.020
-269.326	565.138	-0.117	0.284
-268.311	800.000	-0.137	0.475
-267.297	-117.570	0.088	0.016
-266.282	800.000	0.158	0.530
-265.267	-87.135	0.183	0.056
-264.253	-107.478	0.120	-0.026
-263.238	-200.000	-0.014	0.098
-262.224	53.047	-0.129	-0.123
-261.209	33.577	0.246	-0.214
-260.195	-200.000	0.002	0.075
-259.180	-71.181	-0.297	0.111
-258.165	284.837	0.061	0.109
-257.151	200.152	0.109	0.166
-256.136	-103.233	-0.267	0.063
-255.122	-139.769	-0.230	-0.024
-254.107	12.402	-0.215	0.165
-253.092	-200.000	0.021	0.177
-252.078	225.168	-0.124	0.200
-251.063	32.694	-0.046	-0.040
-250.049	753.165	-0.091	-0.246
-249.034	-200.000	0.047	0.315
-248.019	132.814	0.071	0.091
-247.005	-139.980	0.082	0.009
-245.990	91.521	-0.110	0.123
-244.976	9.030	-0.352	-0.266
-243.961	-104.555	0.351	0.081
-242.946	-167.366	0.146	0.006
-241.932	-19.881	0.090	-0.055
-240.917	-200.000	0.008	-0.060
-239.903	-200.000	-0.015	-0.215
-238.888	31.866	0.137	-0.117
-237.873	735.358	0.062	0.166
-236.859	-78.700	0.187	0.064
-235.844	-200.000	-0.009	0.103
-234.830	-70.628	-0.147	0.055
-233.815	302.666	-0.134	0.247
-232.800	-200.000	0.014	0.207
-231.786	191.569	-0.116	-0.174
-230.771	-146.077	0.139	0.012
-229.757	-200.000	-0.026	0.120
-228.742	-200.000	0.017	0.262
-227.727	-200.000	0.017	-0.091
-226.713	-29.795	-0.031	0.017
-225.698	800.000	0.148	0.502
-224.684	-81.720	0.317	0.104
-223.669	63.237	0.117	0.117
-222.655	11.750	-0.131	-0.100
-221.640	-200.000	-0.032	-0.258
-220.625	-84.144	-0.180	0.057
-219.611	206.835	0.092	-0.142
-218.596	-87.623	-0.378	-0.114
-217.582	330.763	0.039	-0.076
-216.567	371.340	0.207	-0.419
-215.552	-21.408	0.312	0.190
-214.538	-121.903	0.206	0.034
-213.523	281.471	-0.080	-0.143
-212.509	144.215	0.086	0.115
-211.494	-200.000	-0.035	-0.399
-210.479	78.522	0.227	-0.241
-209.465	-200.000	0.047	-0.307
-208.450	-113.187	0.376	0.074
-207.436	71.675	0.261	-0.270
-206.421	-106.591	0.135	-0.030
-205.406	395.675	0.069	-0.144
-204.392	110.871	-0.278	-0.333
-203.377	800.000	0.049	-0.145
-202.363	31.773	0.113	-0.097
-201.348	-105.819	-0.247	-0.056
-200.333	448.038	0.028	-0.062
-199.319	-54.510	0.296	-0.134
-198.304	-200.000	-0.008	-0.122
-197.290	99.300	-0.038	0.044
-196.275	-200.000	-0.112	0.501
-195.260	-111.571	0.076	0.015
-194.246	-180.381	-0.075	-0.002
-193.231	100.712	0.199	0.230
-192.217	-86.300	0.166	-0.051
-191.202	290.272	-0.167	-0.302
-190.187	-13.846	0.287	0.185
-189.173	744.522	0.036	0.097
-188.158	-14.410	-0.171	0.109
-187.144	288.265	0.133	-0.240
-186.129	-42.421	-0.068	-0.034
-185.114	800.000	-0.082	-0.231
-184.100	339.824	0.134	-0.260
-183.085	800.000	0.044	0.156
-182.071	800.000	-0.073	-0.209
-181.056	-200.000	0.030	-0.381
-180.042	-45.442	0.224	0.111
-179.027	-111.194	0.303	-0.062
-178.012	-93.914	-0.249	0.068
-176.998	-20.284	0.170	-0.104
-175.983	-101.999	-0.121	0.029
-174.969	-75.094	0.179	0.064
-173.954	777.894	0.128	-0.349
-172.939	-106.520	0.081	0.018
-171.925	43.804	-0.127	-0.116
-170.910	-104.360	-0.365	0.084
-169.896	-51.236	0.207	-0.097
-168.881	390.736	0.139	0.286
-167.866	800.000	-0.102	0.335
-166.852	-56.982	-0.103	0.045
-165.837	-143.511	0.098	-0.009
-164.823	-177.224	0.302	-0.007
-163.808	131.989	-0.142	0.181
-162.793	80.971	-0.174	0.187
-161.779	38.299	0.125	0.111
-160.764	-141.219	-0.219	-0.022
-159.750	-133.817	0.234	-0.029
-158.735	-20.835	-0.081	-0.049
-157.720	102.107	-0.404	0.469
-156.706	-200.000	0.101	0.499
-155.691	800.000	0.115	0.406
-154.677	68.872	0.249	0.254
-153.662	-26.608	-0.273	0.159
-152.647	-141.504	0.220	-0.022
-151.633	-29.853	0.155	-0.088
-150.618	498.819	-0.051	-0.117
-149.604	91.161	-0.132	-0.147
-148.589	-200.000	-0.090	0.427
-147.574	-142.601	0.231	0.022
-146.560	-102.412	0.096	0.023
-145.545	-172.180	0.072	0.002
-144.531	800.000	-0.061	0.174
-143.516	-200.000	0.026	0.436
-142.502	-200.000	-0.033	-0.186
-141.487	329.646	-0.141	0.270
-140.472	-200.000	-0.025	0.219
-139.458	678.881	-0.079	-0.204
-138.443	-200.000	0.060	-0.365
-137.429	-123.055	-0.057	0.009
-136.414	-107.717	0.290	0.063
-135.399	75.803	0.205	0.215
-134.385	-81.596	0.259	0.085
-133.370	-97.084	0.122	-0.032
-132.356	46.449	0.318	0.293
-131.341	711.490	0.063	-0.167
-130.326	30.746	-0.025	0.021
-129.312	-112.830	-0.039	0.008
-128.297	-148.852	0.365	0.029
-127.283	-200.000	0.040	-0.218
-126.268	-56.392	0.253	-0.112
-125.253	-200.000	0.038	0.254
-124.239	-63.060	-0.151	-0.062
-123.224	-19.229	-0.205	0.126
-122.210	256.734	-0.161	-0.275
-121.195	-164.658	-0.038	0.002
