DTS Sentinel unit serial number:	SN413079Multiplexer serial number:	ORYXHardware model number:	OX4-SRSoftware version number:	ORYX F/W v4.00 Oryx Data Collector v3.7.2.0data status	okinstallation	princeton_trtdifferential loss correction	single-endedforward channel	channel 3reverse channel	N/Adate	2019/09/11time	03:10:11forward acquisition time	60.00reverse acquisition time	0.00gamma	496.2192k internal	0.2331k external	0.2331temperature offset calibration	0.9913default loss term (dB/km)	0.3790temperature slope calibration	1.0000multiplexer offset coefficient	1.0000multiplexer slope coefficient	1.0000fibre end	0.00T internal ref (°C)	29.31T ext. ref 1 (°C)	-0.31T ext. ref 2 (°C)	24.03length (m)	temperature (°C)	Stokes	anti-Stokes-747.200	222.390	0.096	0.155
-746.185	-200.000	0.012	0.221
-745.171	149.306	-0.308	0.419
-744.156	-25.778	0.308	0.183
-743.142	438.027	-0.070	-0.153
-742.127	218.866	-0.276	0.444
-741.112	-47.358	0.119	0.058
-740.098	-189.194	0.121	-0.001
-739.083	70.834	-0.122	-0.127
-738.069	-156.601	-0.303	0.019
-737.054	-88.307	0.253	-0.076
-736.039	-200.000	-0.039	0.308
-735.025	-160.621	0.117	-0.006
-734.010	-111.392	-0.311	0.064
-732.996	-200.000	0.001	-0.152
-731.981	-200.000	0.015	-0.161
-730.966	-21.005	0.267	-0.164
-729.952	-200.000	-0.041	-0.370
-728.937	157.561	-0.026	0.036
-727.923	800.000	0.073	0.265
-726.908	-146.156	0.279	0.025
-725.894	800.000	-0.033	0.124
-724.879	-129.597	-0.199	-0.028
-723.864	39.083	-0.180	-0.162
-722.850	687.706	0.049	0.129
-721.835	-200.000	0.004	-0.201
-720.821	-133.812	0.188	-0.023
-719.806	-163.005	-0.272	0.013
-718.791	39.551	0.111	-0.100
-717.777	-143.043	0.285	-0.028
-716.762	-148.942	0.325	0.026
-715.748	800.000	0.101	0.306
-714.733	53.593	0.123	0.118
-713.718	261.333	-0.160	-0.279
-712.704	0.137	0.190	0.136
-711.689	-154.092	-0.328	-0.022
-710.675	-47.053	-0.166	-0.081
-709.660	-200.000	-0.049	-0.397
-708.645	-154.209	0.133	0.009
-707.631	-200.000	-0.002	0.111
-706.616	-85.016	0.213	-0.067
-705.602	-4.028	0.407	0.284
-704.587	-200.000	0.013	0.216
-703.572	37.124	-0.036	-0.032
-702.558	-84.785	-0.147	0.046
-701.543	800.000	-0.075	-0.303
-700.529	800.000	-0.095	-0.294
-699.514	-13.410	-0.297	0.193
-698.499	-200.000	-0.003	0.194
-697.485	50.573	0.163	0.155
-696.470	-122.145	0.135	-0.022
-695.456	-115.374	0.088	-0.017
-694.441	-200.000	0.002	0.026
-693.426	-200.000	-0.056	0.326
-692.412	53.298	0.214	0.206
-691.397	8.052	0.200	0.150
-690.383	563.861	-0.117	-0.284
-689.368	-23.942	-0.265	0.159
-688.354	-200.000	-0.019	0.160
-687.339	424.745	-0.041	-0.089
-686.324	139.104	-0.316	0.418
-685.310	616.943	-0.088	0.222
-684.295	21.960	0.190	-0.155
-683.281	554.298	0.014	0.033
-682.266	-68.067	-0.116	0.046
-681.251	497.750	-0.085	0.197
-680.237	244.619	0.092	-0.155
-679.222	-65.987	0.096	-0.039
-678.208	-200.000	-0.011	0.352
-677.193	-19.581	-0.252	-0.156
-676.178	-171.529	0.141	0.005
-675.164	-200.000	0.012	-0.131
-674.149	17.225	-0.093	0.074
-673.135	-200.000	0.012	0.067
-672.120	-137.508	0.344	0.039
-671.105	-200.000	-0.014	-0.305
-670.091	800.000	-0.072	-0.276
-669.076	-200.000	-0.001	0.056
-668.062	339.418	-0.027	0.052
-667.047	-200.000	0.030	0.231
-666.032	554.800	0.028	-0.067
-665.018	50.064	0.201	-0.191
-664.003	138.641	0.213	0.280
-662.989	189.374	0.123	-0.185
-661.974	98.251	-0.042	-0.049
-660.959	256.634	0.170	-0.293
-659.945	-117.425	-0.321	0.058
-658.930	-99.585	-0.154	0.039
-657.916	138.957	0.103	-0.135
-656.901	-67.848	0.221	-0.086
-655.886	-200.000	-0.049	0.280
-654.872	-200.000	-0.042	-0.366
-653.857	-87.940	-0.113	-0.034
-652.843	-89.396	0.258	0.076
-651.828	73.212	-0.042	0.044
-650.814	76.298	-0.310	0.329
-649.799	-34.250	0.272	-0.149
-648.784	-161.884	-0.160	-0.008
-647.770	53.216	-0.247	0.237
-646.755	800.000	0.085	-0.244
-645.741	-200.000	-0.002	-0.224
-644.726	174.732	-0.200	0.290
-643.711	-163.561	-0.192	-0.009
-642.697	548.307	-0.090	-0.217
-641.682	-31.692	-0.349	-0.196
-640.668	-200.000	0.006	-0.293
-639.653	-200.000	0.038	0.250
-638.638	103.521	0.056	-0.066
-637.624	-45.569	-0.121	-0.060
-636.609	-94.451	0.008	-0.002
-635.595	-200.000	-0.034	0.150
-634.580	-150.976	0.235	-0.018
-633.565	5.201	-0.394	0.291
-632.551	-200.000	-0.014	0.110
-631.536	51.427	-0.045	-0.043
-630.522	800.000	-0.085	0.317
-629.507	-76.950	0.330	-0.115
-628.492	713.260	0.124	0.329
-627.478	-102.858	-0.071	-0.017
-626.463	278.175	0.135	-0.241
-625.449	256.556	0.086	-0.148
-624.434	162.755	-0.165	0.232
-623.419	800.000	0.038	-0.115
-622.405	-118.846	-0.251	0.044
-621.390	-200.000	-0.001	0.008
-620.376	-200.000	-0.029	-0.276
-619.361	-200.000	0.058	-0.381
-618.346	74.706	-0.219	0.231
-617.332	252.466	0.143	0.245
-616.317	-49.149	0.201	-0.096
-615.303	209.856	-0.261	0.410
-614.288	104.059	-0.099	-0.116
-613.273	139.740	0.056	0.073
-612.259	485.161	0.055	-0.127
-611.244	-147.735	0.467	-0.039
-610.230	800.000	-0.086	-0.267
-609.215	800.000	-0.100	-0.316
-608.201	-174.533	0.056	-0.002
-607.186	-69.591	-0.254	0.097
-606.171	-200.000	0.061	0.320
-605.157	-55.783	-0.205	0.091
-604.142	180.271	0.188	-0.276
-603.128	43.002	0.199	0.182
-602.113	-200.000	-0.052	-0.265
-601.098	800.000	-0.032	0.133
-600.084	-139.828	-0.406	0.043
-599.069	-101.347	-0.138	0.034
-598.055	-94.621	-0.161	0.044
-597.040	-200.000	-0.075	0.368
-596.025	-52.641	-0.038	-0.017
-595.011	143.456	-0.055	0.073
-593.996	-200.000	-0.003	-0.110
-592.982	-200.000	-0.025	0.240
-591.967	-18.583	0.063	0.039
-590.952	-153.275	-0.375	0.026
-589.938	800.000	0.003	0.010
-588.923	101.549	-0.022	0.026
-587.909	104.166	-0.116	0.137
-586.894	657.162	-0.046	-0.119
-585.879	273.752	0.077	0.137
-584.865	-112.454	-0.204	-0.041
-583.850	800.000	0.062	0.231
-582.836	608.257	0.111	0.278
-581.821	35.091	0.227	-0.199
-580.806	376.454	0.056	0.114
-579.792	25.489	0.201	0.167
-578.777	-200.000	-0.024	-0.219
-577.763	194.614	0.070	0.106
-576.748	367.313	0.081	-0.163
-575.733	-177.560	-0.212	-0.005
-574.719	-118.628	0.409	0.072
-573.704	299.877	0.075	-0.137
-572.690	-38.400	-0.150	0.079
-571.675	-137.400	0.126	0.014
-570.661	-30.157	0.089	0.051
-569.646	-200.000	-0.034	-0.188
-568.631	-37.739	-0.328	-0.175
-567.617	-153.516	-0.077	-0.005
-566.602	-200.000	-0.017	-0.084
-565.588	-2.318	-0.194	0.136
-564.573	800.000	-0.093	-0.265
-563.558	-2.876	-0.223	0.156
-562.544	147.353	0.095	0.128
-561.529	104.558	0.072	0.084
-560.515	-68.711	0.205	-0.079
-559.500	-61.982	0.097	0.040
-558.485	-107.904	-0.135	0.029
-557.471	-121.240	-0.319	0.053
-556.456	349.455	-0.114	0.224
-555.442	-143.694	0.083	0.008
-554.427	422.412	-0.067	-0.144
-553.412	152.827	-0.050	-0.069
-552.398	-200.000	-0.004	-0.192
-551.383	-68.279	-0.310	-0.120
-550.369	145.693	-0.195	-0.261
-549.354	391.858	-0.016	0.034
-548.339	-54.118	0.108	0.049
-547.325	-131.777	0.147	-0.019
-546.310	201.554	-0.103	0.158
-545.296	-200.000	0.002	-0.447
-544.281	224.545	-0.045	-0.072
-543.266	116.354	-0.167	0.205
-542.252	490.004	0.123	0.281
-541.237	337.988	-0.029	-0.056
-540.223	592.954	-0.088	-0.217
-539.208	-200.000	0.058	0.279
-538.193	800.000	-0.067	0.230
-537.179	-65.262	-0.043	-0.017
-536.164	229.199	-0.061	-0.099
-535.150	110.423	-0.229	0.274
-534.135	168.167	0.201	-0.286
-533.121	-200.000	0.025	-0.288
-532.106	-12.436	0.111	0.072
-531.091	163.927	0.099	-0.139
-530.077	800.000	-0.045	-0.133
-529.062	-70.980	0.085	0.032
-528.048	-163.966	0.469	0.022
-527.033	-59.785	0.285	0.122
-526.018	-5.950	-0.166	-0.113
-525.004	800.000	-0.080	-0.222
-523.989	83.038	0.103	-0.112
-522.975	136.163	-0.130	0.168
-521.960	-200.000	-0.051	0.716
-520.945	206.544	-0.153	0.238
-519.931	-200.000	-0.040	0.197
-518.916	-1.117	-0.074	-0.052
-517.902	-93.216	0.188	0.052
-516.887	-151.099	-0.284	0.021
-515.872	-40.196	-0.376	0.195
-514.858	84.849	-0.222	-0.243
-513.843	64.126	0.113	0.113
-512.829	684.167	0.041	0.107
-511.814	363.378	0.042	-0.084
-510.799	80.304	-0.206	-0.221
-509.785	-143.799	0.442	0.042
-508.770	800.000	-0.015	0.044
-507.756	-142.729	0.369	0.036
-506.741	-18.557	0.223	-0.139
-505.726	32.415	0.294	0.253
-504.712	160.482	-0.144	-0.200
-503.697	-200.000	-0.033	0.313
-502.683	447.405	-0.046	-0.101
-501.668	359.102	-0.048	-0.096
-500.653	-73.531	-0.190	-0.069
-499.639	-200.000	0.010	0.148
-498.624	180.770	0.109	0.160
-497.610	-0.818	-0.140	0.099
-496.595	-156.114	0.281	0.018
-495.581	800.000	-0.033	0.135
-494.566	-112.039	0.167	-0.033
-493.551	-6.303	-0.197	-0.134
-492.537	-176.130	0.284	0.007
-491.522	-86.263	-0.336	-0.103
-490.508	-98.369	0.266	0.068
-489.493	26.092	0.305	-0.254
-488.478	47.366	0.213	-0.198
-487.464	428.930	0.149	-0.322
-486.449	-110.165	0.182	0.038
-485.435	-31.636	-0.375	-0.210
-484.420	90.661	0.200	0.223
-483.405	-18.245	0.045	0.028
-482.391	-147.165	0.211	-0.018
-481.376	474.066	-0.099	-0.223
-480.362	-200.000	0.001	0.094
-479.347	-92.365	0.121	-0.034
-478.332	800.000	-0.071	-0.209
-477.318	-200.000	-0.050	-0.275
-476.303	-69.717	-0.249	0.095
-475.289	-57.880	0.347	-0.151
-474.274	-119.532	-0.129	-0.022
-473.259	-108.092	0.107	-0.023
-472.245	-86.365	-0.059	0.018
-471.230	-20.284	-0.061	0.038
-470.216	378.894	-0.087	0.178
-469.201	70.282	0.128	0.132
-468.186	-129.100	0.276	-0.038
-467.172	800.000	0.066	0.279
-466.157	280.139	0.054	-0.096
-465.143	211.059	0.034	-0.054
-464.128	800.000	-0.131	0.478
-463.113	224.746	0.176	-0.283
-462.099	-125.556	0.145	0.022
-461.084	-200.000	-0.011	0.145
-460.070	16.856	0.098	-0.077
-459.055	-200.000	-0.041	0.221
-458.040	-152.078	0.082	0.006
-457.026	800.000	0.063	0.210
-456.011	628.183	-0.083	-0.210
-454.997	-114.488	0.115	0.022
-453.982	-200.000	-0.006	-0.105
-452.968	134.831	-0.053	0.068
-451.953	-60.986	-0.221	-0.093
-450.938	-159.962	0.230	-0.013
-449.924	-101.651	-0.241	-0.058
-448.909	-118.262	-0.305	0.054
-447.895	-64.090	0.095	0.039
-446.880	-65.125	0.106	-0.042
-445.865	212.788	0.197	0.310
-444.851	19.569	-0.361	0.289
-443.836	670.472	-0.139	-0.358
-442.822	250.654	0.132	0.223
-441.807	677.272	0.045	-0.116
-440.792	80.179	0.190	-0.203
-439.778	800.000	0.049	0.202
-438.763	-68.780	-0.116	0.044
-437.749	140.054	-0.172	-0.225
-436.734	-75.704	-0.392	-0.138
-435.719	-150.538	0.370	-0.028
-434.705	-40.520	-0.091	-0.047
-433.690	-13.532	-0.245	-0.158
-432.676	-200.000	0.007	0.087
-431.661	151.187	0.159	-0.216
-430.646	-128.581	-0.088	0.012
-429.632	800.000	0.148	0.436
-428.617	800.000	-0.081	0.342
-427.603	420.050	0.111	0.236
-426.588	-113.953	0.040	-0.008
-425.573	359.244	0.133	0.265
-424.559	6.919	0.091	0.067
-423.544	-173.168	-0.255	0.008
-422.530	326.626	0.089	-0.170
-421.515	800.000	-0.049	-0.203
-420.500	-200.000	-0.037	-0.251
-419.486	125.251	-0.067	-0.084
-418.471	-61.152	-0.264	0.111
-417.457	57.303	-0.040	-0.039
-416.442	118.651	0.176	0.216
-415.428	-200.000	0.356	0.002
-414.413	155.245	0.173	0.236
-413.398	-90.412	-0.136	0.039
-412.384	7.885	0.316	0.235
-411.369	-116.500	-0.244	-0.045
-410.355	-74.709	0.217	0.078
-409.340	-200.000	0.014	0.256
-408.325	95.693	-0.194	0.220
-407.311	800.000	0.058	0.176
-406.296	-77.384	-0.242	-0.084
-405.282	-14.076	0.046	-0.029
-404.267	180.417	0.081	-0.117
-403.252	78.328	-0.082	0.087
-402.238	-23.292	0.292	0.174
-401.223	89.218	0.151	-0.167
-400.209	-108.034	0.180	0.039
-399.194	53.388	-0.181	0.172
-398.179	-200.000	0.012	0.084
-397.165	-200.000	-0.016	0.207
-396.150	-125.790	0.363	-0.054
-395.136	-200.000	0.013	0.111
-394.121	133.776	0.150	-0.193
-393.106	88.331	0.228	0.252
-392.092	704.513	-0.060	-0.157
-391.077	-200.000	-0.003	0.116
-390.063	132.301	0.071	0.091
-389.048	418.593	-0.134	0.284
-388.033	800.000	-0.044	-0.138
-387.019	154.110	0.086	-0.117
-386.004	-7.878	-0.104	0.070
-384.990	180.004	0.079	0.115
-383.975	-39.927	0.296	0.154
-382.960	-200.000	-0.013	0.163
-381.946	-200.000	-0.016	-0.166
-380.931	188.985	0.171	0.254
-379.917	-200.000	0.044	-0.420
-378.902	-64.073	-0.163	0.066
-377.888	-41.489	0.132	-0.068
-376.873	-200.000	-0.061	0.316
-375.858	444.805	-0.125	0.271
-374.844	800.000	0.026	0.092
-373.829	-200.000	0.030	0.222
-372.815	404.752	0.160	0.335
-371.800	48.556	0.069	-0.064
-370.785	-175.326	0.334	0.009
-369.771	-200.000	-0.016	0.210
-368.756	669.844	-0.030	-0.076
-367.742	-68.456	0.246	-0.095
-366.727	-18.909	-0.085	-0.053
-365.712	-43.482	0.152	-0.076
-364.698	-106.790	-0.014	0.003
-363.683	112.555	0.061	0.073
-362.669	48.531	-0.156	0.145
-361.654	800.000	0.054	0.212
-360.639	213.113	0.106	0.166
-359.625	214.837	0.137	0.215
-358.610	-145.459	-0.317	-0.028
-357.596	228.438	-0.105	-0.169
-356.581	-200.000	0.025	0.190
-355.566	16.465	-0.096	0.075
-354.552	-32.789	0.196	-0.108
-353.537	-179.892	-0.215	0.005
-352.523	800.000	0.026	0.095
-351.508	413.393	-0.052	-0.109
-350.493	-105.845	-0.130	0.029
-349.479	202.013	0.271	0.414
-348.464	53.167	-0.146	-0.138
-347.450	-50.671	0.088	-0.041
-346.435	-200.000	-0.025	-0.359
-345.420	54.384	-0.086	-0.082
-344.406	-57.539	-0.320	-0.139
-343.391	-33.627	-0.060	-0.033
-342.377	-176.194	0.096	-0.002
-341.362	96.992	0.083	-0.095
-340.348	-94.262	0.123	-0.033
-339.333	-200.000	0.004	0.079
-338.318	-97.313	-0.187	-0.048
-337.304	-200.000	-0.006	0.337
-336.289	-200.000	0.086	0.424
-335.275	180.150	0.195	-0.283
-334.260	-200.000	-0.005	-0.297
-333.245	26.354	-0.228	-0.188
-332.231	95.103	-0.206	-0.232
-331.216	800.000	0.149	0.414
-330.202	-106.572	0.154	-0.034
-329.187	8.905	-0.196	-0.146
-328.172	-200.000	0.006	-0.091
-327.158	-200.000	-0.042	0.358
-326.143	-181.011	-0.162	-0.003
-325.129	-193.037	-0.156	-0.001
-324.114	800.000	-0.053	-0.220
-323.099	120.850	-0.090	0.111
-322.085	800.000	0.049	0.172
-321.070	-85.135	-0.421	-0.130
-320.056	230.283	0.163	0.264
-319.041	-200.000	0.032	-0.283
-318.026	112.497	0.085	0.102
-317.012	-200.000	0.029	0.408
-315.997	-124.566	0.236	0.036
-314.983	-5.362	0.265	-0.180
-313.968	-126.895	-0.062	-0.009
-312.953	-200.000	-0.004	0.123
-311.939	800.000	0.070	0.226
-310.924	201.677	-0.017	0.027
-309.910	-87.535	0.045	-0.013
-308.895	-91.669	-0.205	0.058
-307.880	-110.283	-0.324	-0.067
-306.866	-74.937	-0.112	-0.040
-305.851	-29.559	-0.318	-0.180
-304.837	800.000	-0.042	-0.157
-303.822	-200.000	0.024	0.175
-302.807	-0.184	0.232	-0.163
-301.793	800.000	0.018	0.063
-300.778	2.267	-0.233	-0.167
-299.764	354.872	-0.269	-0.529
-298.749	-27.550	-0.181	-0.104
-297.735	-5.876	0.138	-0.093
-296.720	-200.000	0.008	-0.263
-295.705	-23.650	0.127	-0.075
-294.691	429.796	-0.072	0.153
-293.676	11.124	-0.127	0.096
-292.662	-142.628	-0.544	0.053
-291.647	82.705	-0.183	0.196
-290.632	250.419	0.094	-0.157
-289.618	800.000	0.013	0.048
-288.603	97.396	0.299	-0.339
-287.589	-149.790	0.124	-0.010
-286.574	172.149	0.088	-0.125
-285.559	110.955	-0.084	0.100
-284.545	-21.852	-0.100	-0.060
-283.530	151.416	0.185	-0.249
-282.516	-200.000	0.024	-0.225
-281.501	-79.086	-0.221	0.074
-280.486	134.504	-0.195	0.250
-279.472	24.349	0.017	-0.014
-278.457	-63.488	0.139	-0.056
-277.443	-1.012	-0.098	-0.069
-276.428	-200.000	0.040	0.211
-275.413	79.957	0.190	0.202
-274.399	-122.198	0.224	0.036
-273.384	293.798	0.078	-0.141
-272.370	800.000	0.055	0.197
-271.355	-41.155	-0.057	-0.029
-270.340	-91.428	0.224	0.063
-269.326	638.961	-0.072	0.181
-268.311	-88.311	-0.290	-0.086
-267.297	-168.909	0.089	0.003
-266.282	179.651	-0.177	-0.256
-265.267	-200.000	0.034	-0.200
-264.253	80.638	0.143	-0.153
-263.238	25.446	-0.249	-0.205
-262.224	51.226	-0.134	-0.125
-261.209	-27.604	-0.040	0.023
-260.195	8.298	-0.134	0.100
-259.180	-81.891	0.207	-0.067
-258.165	13.420	-0.116	0.089
-257.151	72.556	0.066	0.068
-256.136	-48.823	0.170	0.081
-255.122	-54.349	0.048	-0.021
-254.107	-24.935	-0.036	0.021
-253.092	298.732	-0.110	-0.200
-252.078	309.560	0.121	-0.223
-251.063	-200.000	0.030	-0.242
-250.049	-56.010	-0.284	-0.125
-249.034	800.000	-0.081	0.232
-248.019	-200.000	0.011	0.216
-247.005	690.410	-0.121	0.313
-245.990	104.186	-0.188	-0.218
-244.976	-82.494	-0.297	0.095
-243.961	381.345	-0.072	-0.146
-242.946	-31.232	0.078	-0.043
-241.932	20.585	0.393	-0.313
-240.917	-136.957	-0.008	-0.001
-239.903	73.650	-0.244	-0.253
-238.888	35.938	-0.080	0.069
-237.873	117.602	-0.303	0.368
-236.859	-3.992	-0.082	0.056
-235.844	-200.000	0.028	-0.261
-234.830	-41.518	0.095	0.048
-233.815	800.000	-0.107	-0.333
-232.800	-73.655	-0.205	-0.074
-231.786	-33.812	-0.171	0.093
-230.771	176.702	-0.085	0.122
-229.757	-103.933	0.253	0.058
-228.742	-38.237	0.434	0.227
-227.727	-200.000	0.026	0.366
-226.713	800.000	-0.057	0.208
-225.698	412.152	0.192	-0.402
-224.684	-47.514	0.062	0.030
-223.669	800.000	-0.082	-0.247
-222.655	-58.917	-0.118	-0.050
-221.640	-75.635	0.344	-0.121
-220.625	-79.229	0.114	-0.038
-219.611	-10.665	0.048	0.032
-218.596	-80.292	0.156	-0.051
-217.582	17.945	0.227	0.178
-216.567	38.271	0.315	-0.276
-215.552	-102.629	-0.203	-0.048
-214.538	-200.000	0.002	-0.129
-213.523	-200.000	-0.023	-0.258
-212.509	800.000	-0.123	0.428
-211.494	181.264	-0.034	-0.049
-210.479	-200.000	-0.033	-0.372
-209.465	-71.065	0.120	0.044
-208.450	11.267	-0.347	-0.262
-207.436	-136.784	-0.164	0.019
-206.421	-49.145	-0.161	0.076
-205.406	-95.606	0.396	-0.104
-204.392	204.684	0.133	-0.203
-203.377	-200.000	-0.122	0.543
-202.363	707.659	0.115	-0.300
-201.348	369.763	-0.189	-0.377
-200.333	800.000	-0.115	-0.401
-199.319	6.459	-0.353	0.258
-198.304	-47.799	0.214	0.102
-197.290	250.034	0.134	0.225
-196.275	48.060	-0.100	-0.092
-195.260	476.022	0.107	-0.239
-194.246	314.985	-0.055	0.103
-193.231	18.753	0.173	0.136
-192.217	-142.086	0.262	-0.026
-191.202	20.197	0.093	-0.074
-190.187	28.123	0.116	0.096
-189.173	800.000	0.080	-0.282
-188.158	800.000	0.069	-0.237
-187.144	770.417	0.073	-0.196
-186.129	249.928	0.082	0.138
-185.114	-200.000	0.042	-0.387
-184.100	-15.408	0.181	0.114
-183.085	800.000	-0.023	0.096
-182.071	16.780	-0.145	-0.113
-181.056	800.000	0.046	0.140
-180.042	3.501	0.142	-0.102
-179.027	373.242	-0.154	-0.308
-178.012	800.000	-0.048	-0.142
-176.998	416.825	-0.051	0.108
-175.983	-200.000	-0.026	0.139
-174.969	40.177	0.194	-0.172
-173.954	3.997	-0.046	-0.033
-172.939	10.778	-0.234	0.176
-171.925	-31.972	0.330	-0.182
-170.910	-200.000	-0.020	-0.232
-169.896	-81.151	-0.053	-0.017
-168.881	297.459	0.103	-0.186
-167.866	800.000	-0.057	-0.214
-166.852	-116.216	0.171	-0.031
-165.837	172.756	0.237	0.336
-164.823	497.545	-0.087	0.197
-163.808	-4.483	0.088	-0.060
-162.793	-25.624	-0.131	0.076
-161.779	128.451	-0.100	-0.126
-160.764	-200.000	0.024	0.215
-159.750	800.000	0.089	-0.251
-158.735	206.256	-0.169	-0.259
-157.720	181.072	0.116	-0.167
-156.706	-133.546	0.029	-0.004
-155.691	129.627	0.204	-0.256
-154.677	19.301	-0.140	0.111
-153.662	-200.000	0.046	0.289
-152.647	306.301	-0.061	-0.112
-151.633	110.047	0.030	-0.036
-150.618	179.011	-0.087	-0.125
-149.604	-107.826	0.494	-0.106
-148.589	-153.977	0.148	0.010
-147.574	794.150	0.051	-0.137
-146.560	-200.000	-0.021	0.124
-145.545	236.953	-0.102	-0.166
-144.531	75.244	-0.210	0.218
-143.516	177.451	0.059	-0.085
-142.502	-45.190	0.292	0.143
-141.487	-155.925	0.100	0.006
-140.472	551.490	-0.214	0.506
-139.458	-185.635	0.172	0.003
-138.443	113.963	-0.146	0.174
-137.429	-200.000	-0.060	0.340
-136.414	224.129	-0.134	0.213
-135.399	-200.000	0.010	0.215
-134.385	-200.000	-0.029	0.365
-133.370	141.624	-0.219	-0.285
-132.356	110.015	0.157	0.185
-131.341	-81.336	-0.360	-0.117
-130.326	-104.506	0.231	0.052
-129.312	281.957	0.190	0.335
-128.297	-63.695	0.102	0.041
-127.283	787.267	0.068	0.182
-126.268	13.721	0.162	0.124
-125.253	-57.748	-0.169	-0.073
-124.239	-200.000	0.010	-0.183
-123.224	-49.155	0.113	-0.053
-122.210	-9.822	-0.289	0.189
-121.195	43.641	-0.127	0.114
