DTS Sentinel unit serial number:	SN413079Multiplexer serial number:	ORYXHardware model number:	OX4-SRSoftware version number:	ORYX F/W v4.00 Oryx Data Collector v3.7.2.0data status	okinstallation	princeton_trtdifferential loss correction	single-endedforward channel	channel 3reverse channel	N/Adate	2019/09/10time	17:30:11forward acquisition time	60.00reverse acquisition time	0.00gamma	496.2192k internal	0.2298k external	0.2298temperature offset calibration	0.9913default loss term (dB/km)	0.3790temperature slope calibration	1.0000multiplexer offset coefficient	1.0000multiplexer slope coefficient	1.0000fibre end	0.00T internal ref (°C)	37.66T ext. ref 1 (°C)	-0.34T ext. ref 2 (°C)	31.83length (m)	temperature (°C)	Stokes	anti-Stokes-747.200	770.991	0.100	-0.279
-746.185	-200.000	0.007	0.356
-745.171	-157.398	0.305	0.019
-744.156	-91.283	-0.131	-0.038
-743.142	-124.276	0.093	-0.015
-742.127	800.000	0.122	-0.416
-741.112	113.477	0.037	0.045
-740.098	-200.000	-0.019	-0.143
-739.083	450.440	-0.095	-0.215
-738.069	38.967	-0.269	0.245
-737.054	58.482	-0.220	0.220
-736.039	-200.000	-0.002	-0.026
-735.025	-131.254	-0.416	0.056
-734.010	691.236	-0.077	-0.207
-732.996	392.463	0.128	-0.272
-731.981	800.000	-0.071	-0.203
-730.966	30.715	-0.126	0.110
-729.952	115.361	-0.097	-0.121
-728.937	800.000	0.028	-0.108
-727.923	71.911	-0.239	-0.254
-726.908	117.221	-0.089	-0.112
-725.894	-65.620	0.175	-0.072
-724.879	800.000	-0.023	0.078
-723.864	-82.368	0.207	0.068
-722.850	800.000	-0.034	-0.121
-721.835	-176.741	-0.291	-0.008
-720.821	800.000	0.063	-0.222
-719.806	787.137	0.079	-0.221
-718.791	76.878	-0.217	-0.235
-717.777	763.341	-0.094	0.261
-716.762	-102.978	0.171	0.041
-715.748	533.143	-0.080	-0.194
-714.733	-200.000	-0.058	0.261
-713.718	-86.512	-0.217	0.068
-712.704	-57.144	0.144	-0.065
-711.689	272.562	-0.088	-0.158
-710.675	-125.494	0.272	0.042
-709.660	-11.581	-0.532	0.356
-708.645	-200.000	0.039	0.328
-707.631	-110.205	-0.275	0.058
-706.616	303.088	-0.077	0.145
-705.602	99.753	0.142	-0.168
-704.587	-162.186	-0.268	-0.014
-703.572	-48.042	0.070	0.035
-702.558	50.014	0.170	0.164
-701.543	16.075	0.196	0.157
-700.529	-23.382	0.123	-0.076
-699.514	209.668	-0.052	0.083
-698.499	-36.179	-0.132	-0.073
-697.485	-91.855	0.178	0.051
-696.470	35.494	-0.153	0.137
-695.456	-39.330	-0.171	-0.091
-694.441	357.387	-0.046	0.093
-693.426	550.532	0.092	-0.225
-692.412	-200.000	-0.076	-0.423
-691.397	21.737	-0.177	-0.147
-690.383	-42.899	0.247	0.128
-689.368	-70.821	-0.209	-0.080
-688.354	800.000	0.115	-0.378
-687.339	410.010	0.040	0.086
-686.324	-4.010	-0.302	0.213
-685.310	-200.000	0.005	0.246
-684.295	-200.000	0.015	-0.139
-683.281	-123.279	-0.344	0.056
-682.266	-127.482	-0.191	-0.028
-681.251	-200.000	0.014	0.225
-680.237	206.201	-0.096	0.153
-679.222	159.325	-0.096	0.136
-678.208	94.556	-0.295	0.342
-677.193	-200.000	0.037	0.464
-676.178	-27.617	0.197	-0.117
-675.164	-71.379	-0.166	0.063
-674.149	-12.942	-0.142	-0.094
-673.135	152.884	0.186	-0.259
-672.120	-169.750	0.296	-0.011
-671.105	93.296	0.099	0.114
-670.091	-97.595	0.060	0.016
-669.076	93.616	0.083	-0.096
-668.062	-43.097	-0.088	0.046
-667.047	-200.000	0.037	-0.212
-666.032	-93.294	0.145	0.041
-665.018	-96.953	0.057	0.015
-664.003	430.482	-0.059	-0.130
-662.989	-138.629	-0.169	0.019
-661.974	-200.000	-0.016	-0.080
-660.959	-200.000	0.019	-0.190
-659.945	800.000	-0.052	-0.161
-658.930	-13.808	-0.272	0.179
-657.916	-200.000	0.028	0.387
-656.901	-144.661	-0.332	0.031
-655.886	-51.448	0.115	-0.054
-654.872	-60.055	-0.153	0.066
-653.857	-89.090	-0.277	0.083
-652.843	800.000	0.019	0.058
-651.828	-78.133	-0.121	-0.042
-650.814	188.242	0.043	0.065
-649.799	-41.616	-0.261	0.137
-648.784	-200.000	0.017	0.075
-647.770	426.853	0.098	0.216
-646.755	-5.936	-0.177	0.123
-645.741	-172.583	-0.200	-0.006
-644.726	785.641	0.043	-0.119
-643.711	-23.879	-0.158	0.096
-642.697	-199.156	0.161	0.001
-641.682	147.532	0.114	0.156
-640.668	100.670	0.116	-0.137
-639.653	-141.430	0.204	0.021
-638.638	-168.616	-0.465	-0.018
-637.624	-77.689	-0.187	0.066
-636.609	662.079	0.054	0.143
-635.595	67.742	-0.264	0.274
-634.580	324.497	-0.165	0.319
-633.565	-200.000	0.073	-0.374
-632.551	107.649	-0.094	0.113
-631.536	800.000	-0.102	0.297
-630.522	-200.000	0.006	0.199
-629.507	359.824	-0.025	-0.051
-628.492	20.351	0.214	-0.176
-627.478	74.779	-0.139	0.149
-626.463	-200.000	-0.013	0.175
-625.449	-200.000	0.011	0.104
-624.434	-200.000	0.076	0.339
-623.419	-121.434	0.095	0.016
-622.405	179.950	0.193	0.288
-621.390	-9.655	-0.408	0.276
-620.376	204.731	-0.037	0.058
-619.361	-200.000	0.002	-0.021
-618.346	225.580	-0.078	0.128
-617.332	209.401	0.057	0.091
-616.317	-200.000	-0.006	-0.114
-615.303	-200.000	-0.001	-0.070
-614.288	174.845	0.112	-0.164
-613.273	-200.000	-0.078	0.413
-612.259	257.627	0.224	0.391
-611.244	-113.062	0.386	-0.077
-610.230	-131.418	-0.177	0.024
-609.215	-115.739	-0.269	-0.051
-608.201	551.323	-0.035	-0.085
-607.186	800.000	-0.120	-0.367
-606.171	-13.520	-0.099	-0.065
-605.157	800.000	-0.097	-0.292
-604.142	0.978	0.147	0.107
-603.128	-63.380	0.196	0.082
-602.113	15.259	-0.113	0.090
-601.098	-14.621	0.306	-0.200
-600.084	-148.265	-0.068	-0.006
-599.069	37.012	-0.200	-0.179
-598.055	-200.000	0.062	-0.417
-597.040	9.699	0.155	-0.119
-596.025	-27.694	0.369	0.217
-595.011	800.000	-0.026	0.080
-593.996	-121.588	0.114	0.019
-592.982	800.000	0.070	0.257
-591.967	40.293	-0.163	0.149
-590.952	-64.556	0.233	-0.096
-589.938	-159.102	-0.204	0.012
-588.923	800.000	-0.038	0.146
-587.909	-107.545	-0.105	0.023
-586.894	644.883	0.053	-0.136
-585.879	-63.685	-0.218	0.091
-584.865	-56.437	0.227	-0.102
-583.850	-91.395	-0.138	-0.040
-582.836	-52.298	0.337	0.158
-581.821	5.675	-0.061	0.046
-580.806	218.116	0.044	-0.070
-579.792	-200.000	-0.007	0.088
-578.777	164.624	-0.182	0.260
-577.763	-114.335	0.590	-0.115
-576.748	590.379	-0.086	-0.216
-575.733	-76.213	-0.145	0.052
-574.719	-140.561	-0.270	0.028
-573.704	-75.131	-0.315	0.114
-572.690	283.333	-0.107	0.195
-571.675	575.713	-0.109	0.270
-570.661	-128.491	-0.190	-0.027
-569.646	-63.797	-0.395	-0.164
-568.631	800.000	0.035	0.139
-567.617	62.993	-0.135	-0.137
-566.602	-40.771	0.089	-0.047
-565.588	75.306	-0.136	-0.146
-564.573	55.154	-0.111	-0.108
-563.558	-161.166	-0.084	-0.004
-562.544	-200.000	0.031	-0.341
-561.529	-41.385	0.322	-0.168
-560.515	285.016	-0.090	-0.164
-559.500	-46.540	-0.186	-0.092
-558.485	-47.630	-0.373	-0.183
-557.471	-139.333	0.125	-0.014
-556.456	-200.000	0.014	-0.249
-555.442	800.000	-0.038	-0.167
-554.427	-200.000	-0.050	-0.381
-553.412	-27.645	-0.084	0.050
-552.398	101.805	0.070	0.083
-551.383	800.000	-0.106	-0.392
-550.369	800.000	0.063	-0.177
-549.354	-109.263	-0.022	-0.005
-548.339	34.723	0.112	0.099
-547.325	359.408	-0.147	-0.297
-546.310	-136.315	0.257	0.030
-545.296	-200.000	-0.005	0.420
-544.281	-113.007	0.218	0.044
-543.266	479.265	0.058	-0.132
-542.252	454.195	0.076	-0.170
-541.237	196.028	0.072	-0.111
-540.223	-27.647	0.100	0.059
-539.208	278.430	0.111	-0.201
-538.193	-87.259	-0.221	-0.068
-537.179	-200.000	-0.014	-0.120
-536.164	-124.196	-0.427	0.068
-535.150	-79.167	0.187	0.064
-534.135	-85.750	0.290	0.091
-533.121	800.000	0.064	0.220
-532.106	-142.484	-0.115	-0.011
-531.091	-142.015	-0.526	0.053
-530.077	-130.032	-0.166	0.023
-529.062	228.912	-0.086	-0.141
-528.048	-123.645	-0.306	0.049
-527.033	-68.582	0.049	0.019
-526.018	-39.137	0.172	0.092
-525.004	315.274	-0.043	-0.082
-523.989	-100.971	0.071	0.018
-522.975	5.655	0.233	0.174
-521.960	116.940	0.245	0.304
-520.945	-200.000	0.008	-0.217
-519.931	-45.450	0.123	0.062
-518.916	800.000	-0.076	-0.291
-517.902	-200.000	-0.030	-0.206
-516.887	-26.527	0.160	-0.095
-515.872	143.158	-0.083	0.112
-514.858	138.403	-0.284	0.377
-513.843	433.808	0.181	0.397
-512.829	452.038	0.027	-0.060
-511.814	91.434	0.133	-0.151
-510.799	-16.573	-0.112	-0.071
-509.785	-160.696	-0.264	0.014
-508.770	-168.259	0.107	-0.004
-507.756	-56.650	0.258	-0.115
-506.741	-200.000	0.033	0.197
-505.726	54.629	-0.291	0.284
-504.712	484.841	0.086	0.198
-503.697	253.408	-0.017	0.030
-502.683	622.043	-0.157	-0.400
-501.668	-94.636	0.227	-0.062
-500.653	175.862	0.129	-0.190
-499.639	-200.000	0.038	-0.202
-498.624	-117.747	0.257	0.047
-497.610	-200.000	-0.251	0.001
-496.595	275.597	0.177	-0.317
-495.581	174.325	-0.052	0.075
-494.566	226.364	-0.018	0.030
-493.551	800.000	-0.050	-0.151
-492.537	-200.000	0.013	-0.077
-491.522	-5.553	-0.270	0.187
-490.508	-200.000	0.039	0.348
-489.493	-38.229	0.193	-0.103
-488.478	97.489	-0.209	0.242
-487.464	-75.489	-0.243	0.087
-486.449	63.339	-0.117	0.119
-485.435	-200.000	-0.015	-0.081
-484.420	152.163	-0.180	-0.249
-483.405	800.000	0.063	0.212
-482.391	-200.000	-0.030	0.272
-481.376	-20.680	0.277	0.172
-480.362	8.913	0.168	0.128
-479.347	405.490	-0.110	0.234
-478.332	-80.350	0.054	-0.018
-477.318	-118.604	-0.118	-0.021
-476.303	71.417	-0.313	0.328
-475.289	25.673	-0.108	0.091
-474.274	-27.733	0.078	0.046
-473.259	120.901	-0.171	-0.215
-472.245	-200.000	0.096	-0.467
-471.230	-2.959	0.193	0.136
-470.216	88.023	-0.154	-0.172
-469.201	-200.000	0.007	0.069
-468.186	-100.715	0.157	-0.039
-467.172	800.000	0.026	-0.077
-466.157	331.949	-0.106	-0.206
-465.143	8.226	-0.128	0.097
-464.128	2.384	0.061	-0.045
-463.113	-62.356	0.255	0.107
-462.099	-53.973	-0.451	0.207
-461.084	-122.695	0.261	0.043
-460.070	-60.935	-0.227	-0.097
-459.055	-200.000	-0.022	0.114
-458.040	81.128	0.109	0.119
-457.026	746.125	0.062	-0.168
-456.011	-108.005	-0.317	-0.070
-454.997	800.000	0.100	0.393
-453.982	-118.156	-0.406	0.073
-452.968	-200.000	0.016	0.313
-451.953	-92.469	0.301	0.085
-450.938	800.000	0.119	-0.343
-449.924	-48.395	0.235	0.114
-448.909	800.000	-0.134	0.450
-447.895	460.333	0.173	0.389
-446.880	84.805	0.274	-0.303
-445.865	-115.418	0.198	-0.038
-444.851	-41.384	0.142	0.074
-443.836	117.938	0.150	-0.186
-442.822	342.519	0.081	-0.161
-441.807	-26.924	-0.160	-0.094
-440.792	-200.000	0.008	0.308
-439.778	179.822	-0.178	-0.264
-438.763	-200.000	0.074	-0.354
-437.749	-200.000	-0.054	0.403
-436.734	612.901	0.076	0.192
-435.719	-96.824	0.299	-0.079
-434.705	-9.953	0.117	0.079
-433.690	800.000	0.037	0.129
-432.676	36.272	-0.096	-0.085
-431.661	-89.833	0.158	0.047
-430.646	741.922	0.123	-0.332
-429.632	-115.412	-0.438	0.083
-428.617	69.584	-0.043	0.045
-427.603	-141.044	0.724	-0.075
-426.588	-200.000	0.030	0.232
-425.573	-136.773	0.342	0.040
-424.559	-200.000	0.005	-0.170
-423.544	-200.000	0.045	0.285
-422.530	27.363	0.072	-0.061
-421.515	-151.333	0.286	0.021
-420.500	116.189	0.151	-0.187
-419.486	800.000	0.133	0.394
-418.471	-36.561	-0.325	0.176
-417.457	-66.812	-0.047	0.019
-416.442	1.772	0.039	-0.028
-415.428	465.183	0.074	-0.166
-414.413	191.509	-0.131	-0.199
-413.398	-108.288	0.147	-0.032
-412.384	-142.226	-0.043	0.004
-411.369	289.371	0.082	0.150
-410.355	800.000	0.107	0.460
-409.340	-200.000	-0.124	0.001
-408.325	-149.215	-0.277	-0.022
-407.311	-0.066	0.136	0.097
-406.296	800.000	-0.053	-0.174
-405.282	552.855	-0.199	-0.482
-404.267	-200.000	0.039	-0.240
-403.252	800.000	-0.083	0.250
-402.238	-4.565	-0.147	-0.102
-401.223	800.000	-0.038	-0.125
-400.209	68.932	-0.081	-0.084
-399.194	103.380	0.156	0.185
-398.179	149.252	-0.236	-0.322
-397.165	215.233	0.138	-0.220
-396.150	81.779	-0.042	0.045
-395.136	-68.159	-0.162	0.063
-394.121	-168.797	-0.267	-0.010
-393.106	-32.837	-0.335	0.188
-392.092	60.064	-0.124	-0.123
-391.077	-44.395	-0.195	-0.098
-390.063	5.361	-0.068	0.051
-389.048	-63.882	0.307	-0.126
-388.033	10.323	0.200	-0.153
-387.019	-126.731	-0.407	0.061
-386.004	207.895	-0.032	-0.051
-384.990	184.233	0.207	0.308
-383.975	-29.908	-0.421	0.241
-382.960	-101.464	0.001	0.000
-381.946	-32.188	0.280	0.157
-380.931	-183.573	-0.102	0.002
-379.917	800.000	0.044	-0.174
-378.902	-200.000	-0.081	-0.510
-377.888	-102.830	-0.192	-0.046
-376.873	218.891	-0.049	-0.080
-375.858	800.000	-0.066	0.236
-374.844	4.484	0.258	0.190
-373.829	-47.144	-0.525	0.258
-372.815	-23.453	0.148	0.089
-371.800	374.035	0.201	-0.412
-370.785	800.000	-0.035	-0.145
-369.771	-200.000	0.025	0.148
-368.756	-107.589	-0.014	-0.003
-367.742	-200.000	0.002	0.158
-366.727	142.038	-0.152	-0.202
-365.712	37.640	0.198	-0.177
-364.698	-91.326	0.312	-0.090
-363.683	-184.437	-0.256	-0.004
-362.669	42.716	0.028	-0.025
-361.654	800.000	0.114	0.330
-360.639	5.174	0.162	0.120
-359.625	65.817	0.207	0.211
-358.610	-200.000	-0.005	0.068
-357.596	-58.999	-0.154	-0.067
-356.581	7.297	0.139	0.105
-355.566	-200.000	0.004	0.183
-354.552	64.070	-0.021	0.021
-353.537	-30.755	0.263	-0.150
-352.523	673.044	0.029	-0.077
-351.508	-33.490	-0.172	0.096
-350.493	-131.987	-0.116	-0.015
-349.479	260.056	-0.102	-0.177
-348.464	120.840	-0.128	0.160
-347.450	628.349	0.194	-0.492
-346.435	540.309	-0.052	-0.123
-345.420	239.899	0.058	-0.097
-344.406	11.269	-0.156	0.120
-343.391	449.879	0.106	-0.235
-342.377	117.647	-0.176	-0.218
-341.362	69.611	0.185	0.192
-340.348	800.000	-0.081	0.277
-339.333	800.000	-0.037	0.158
-338.318	-75.672	0.122	0.044
-337.304	-200.000	0.045	0.336
-336.289	75.192	-0.222	-0.235
-335.275	3.674	0.261	-0.191
-334.260	214.632	-0.092	-0.147
-333.245	-22.227	-0.225	0.137
-332.231	9.794	-0.063	-0.048
-331.216	355.477	-0.142	0.283
-330.202	-16.940	-0.201	0.128
-329.187	82.388	0.077	-0.084
-328.172	182.978	-0.234	0.346
-327.158	-198.284	0.246	0.001
-326.143	-72.892	-0.080	0.030
-325.129	3.774	0.084	-0.061
-324.114	68.571	-0.251	-0.258
-323.099	-200.000	0.026	-0.187
-322.085	-112.068	-0.172	0.035
-321.070	321.222	-0.250	0.477
-320.056	-134.345	0.293	0.036
-319.041	-35.737	0.172	-0.093
-318.026	-106.679	0.179	-0.040
-317.012	800.000	0.035	-0.132
-315.997	203.557	-0.087	-0.134
-314.983	19.243	-0.230	0.185
-313.968	45.535	0.172	0.160
-312.953	-127.667	-0.318	0.046
-311.939	115.819	-0.190	0.233
-310.924	16.557	0.271	-0.215
-309.910	376.930	0.073	0.149
-308.895	-154.978	0.294	0.019
-307.880	162.947	0.084	0.118
-306.866	-46.929	0.026	0.013
-305.851	-125.867	0.362	-0.055
-304.837	72.396	-0.198	0.207
-303.822	-200.000	-0.000	0.015
-302.807	-98.445	-0.251	-0.064
-301.793	-200.000	-0.030	0.240
-300.778	-133.912	-0.277	-0.034
-299.764	9.578	0.050	0.038
-298.749	147.513	-0.079	-0.106
-297.735	-200.000	-0.018	-0.182
-296.720	-189.205	0.295	0.004
-295.705	-200.000	0.013	-0.109
-294.691	-39.533	0.417	-0.219
-293.676	800.000	0.055	-0.210
-292.662	-93.995	0.221	-0.061
-291.647	114.459	0.261	-0.318
-290.632	-90.632	0.210	-0.061
-289.618	-18.267	0.023	0.015
-288.603	-1.755	-0.185	0.131
-287.589	800.000	-0.055	0.152
-286.574	-200.000	-0.066	-0.354
-285.559	-30.576	0.293	-0.167
-284.545	800.000	-0.050	-0.154
-283.530	16.375	-0.300	-0.237
-282.516	48.847	0.209	-0.196
-281.501	-200.000	-0.025	-0.378
-280.486	-46.505	0.220	-0.108
-279.472	25.210	0.134	0.112
-278.457	-88.284	0.184	0.055
-277.443	210.171	0.090	-0.142
-276.428	24.251	-0.088	0.073
-275.413	-39.176	-0.279	0.147
-274.399	104.236	0.139	-0.164
-273.384	-200.000	-0.127	-0.001
-272.370	-200.000	0.040	-0.318
-271.355	-93.753	-0.256	0.071
-270.340	-5.786	0.117	-0.081
-269.326	-28.876	-0.229	0.132
-268.311	-200.000	0.052	-0.403
-267.297	162.977	-0.160	-0.225
-266.282	1.242	-0.079	0.057
-265.267	-65.854	-0.229	-0.092
-264.253	800.000	-0.092	0.300
-263.238	461.982	-0.203	-0.453
-262.224	-200.000	-0.027	-0.138
-261.209	-70.057	-0.084	-0.032
-260.195	22.110	0.154	-0.126
-259.180	800.000	0.049	0.179
-258.165	-200.000	-0.007	-0.078
-257.151	17.238	-0.252	0.200
-256.136	-49.987	-0.317	0.150
-255.122	800.000	0.086	-0.244
-254.107	10.564	-0.135	0.103
-253.092	800.000	0.037	-0.121
-252.078	255.027	-0.034	-0.058
-251.063	-94.319	-0.150	0.041
-250.049	-34.251	-0.203	-0.112
-249.034	-4.472	0.373	0.258
-248.019	-5.558	-0.077	-0.053
-247.005	-85.580	0.097	0.030
-245.990	-40.921	0.125	-0.065
-244.976	-17.604	0.321	0.202
-243.961	-60.785	0.218	0.092
-242.946	-2.729	0.215	-0.151
-241.932	-200.000	-0.024	-0.158
-240.917	21.501	0.077	0.063
-239.903	-32.080	0.147	-0.083
-238.888	-152.124	0.306	0.022
-237.873	-200.000	-0.008	-0.370
-236.859	-171.492	0.124	0.004
-235.844	32.434	0.043	0.037
-234.830	-24.706	-0.158	-0.094
-233.815	686.447	-0.093	-0.242
-232.800	800.000	0.050	-0.211
-231.786	-104.182	0.389	-0.091
-230.771	800.000	0.023	-0.098
-229.757	-194.911	0.410	-0.003
-228.742	-174.052	0.172	-0.005
-227.727	-200.000	0.032	0.169
-226.713	93.382	0.183	0.207
-225.698	-200.000	0.006	0.107
-224.684	353.700	0.123	0.244
-223.669	-105.842	-0.052	-0.012
-222.655	800.000	0.070	-0.194
-221.640	-97.798	-0.185	0.048
-220.625	262.318	0.150	0.261
-219.611	-120.503	0.019	-0.003
-218.596	753.664	-0.078	-0.210
-217.582	-89.412	-0.142	-0.042
-216.567	702.819	0.132	-0.347
-215.552	16.333	0.189	-0.150
-214.538	-121.356	-0.295	-0.049
-213.523	-200.000	-0.004	-0.155
-212.509	-35.654	-0.179	-0.097
-211.494	-200.000	-0.037	0.185
-210.479	328.234	-0.055	0.105
-209.465	123.742	-0.153	-0.191
-208.450	-176.236	-0.103	-0.003
-207.436	187.710	-0.082	-0.123
-206.421	-120.968	-0.132	-0.022
-205.406	277.615	0.074	0.132
-204.392	8.822	0.175	-0.132
-203.377	-27.982	-0.322	-0.186
-202.363	-152.005	-0.032	0.002
-201.348	222.612	-0.135	0.217
-200.333	-65.165	-0.293	-0.118
-199.319	35.910	0.261	0.230
-198.304	-200.000	-0.007	0.225
-197.290	7.149	0.094	0.070
-196.275	-63.480	-0.281	-0.115
-195.260	132.779	0.022	0.028
-194.246	-102.564	-0.187	0.045
-193.231	128.002	0.109	-0.139
-192.217	103.453	0.207	0.242
-191.202	800.000	-0.103	0.392
-190.187	-200.000	-0.040	0.252
-189.173	133.778	-0.123	0.159
-188.158	800.000	-0.081	-0.278
-187.144	111.493	0.237	-0.286
-186.129	800.000	-0.044	-0.149
-185.114	-116.390	-0.440	-0.081
-184.100	75.396	0.185	-0.195
-183.085	71.562	0.094	-0.098
-182.071	-39.176	0.163	-0.085
-181.056	7.219	-0.385	0.287
-180.042	-127.371	0.242	0.035
-179.027	-142.566	-0.145	0.014
-178.012	-140.100	0.394	0.041
-176.998	-200.000	0.005	0.267
-175.983	800.000	0.091	0.334
-174.969	-117.261	0.260	0.047
-173.954	-200.000	0.001	-0.073
-172.939	-166.392	-0.197	0.008
-171.925	200.478	0.091	-0.140
-170.910	356.207	-0.152	0.301
-169.896	800.000	0.095	-0.273
-168.881	318.438	0.043	0.081
-167.866	-47.444	0.104	-0.050
-166.852	-28.119	0.198	-0.114
-165.837	-109.048	0.348	0.074
-164.823	329.793	-0.120	-0.230
-163.808	427.089	-0.051	0.109
-162.793	-200.000	0.004	0.135
-161.779	-71.909	0.141	-0.052
-160.764	-71.454	-0.045	0.017
-159.750	-124.430	0.133	-0.021
-158.735	-126.898	0.213	0.031
-157.720	471.808	0.077	0.173
-156.706	-200.000	-0.061	0.367
-155.691	116.565	-0.199	0.244
-154.677	-22.495	0.292	-0.177
-153.662	-31.679	-0.273	-0.153
-152.647	-76.319	0.119	-0.042
-151.633	94.666	0.097	-0.110
-150.618	-200.000	-0.033	0.230
-149.604	110.255	0.154	0.185
-148.589	-85.065	0.278	-0.087
-147.574	-200.000	-0.013	-0.081
-146.560	-20.377	0.258	-0.159
-145.545	-48.897	0.073	-0.035
-144.531	7.556	0.121	0.091
-143.516	-82.593	0.195	0.063
-142.502	514.681	-0.120	0.278
-141.487	-200.000	-0.052	0.448
-140.472	-200.000	-0.003	-0.087
-139.458	-4.130	-0.146	0.101
-138.443	25.552	-0.025	0.021
-137.429	-32.687	0.256	0.142
-136.414	150.738	-0.210	-0.285
-135.399	39.456	0.091	-0.081
-134.385	47.750	0.090	0.083
-133.370	-200.000	0.018	-0.158
-132.356	277.052	-0.096	-0.170
-131.341	15.231	-0.190	-0.149
-130.326	800.000	-0.122	-0.356
-129.312	800.000	0.065	-0.209
-128.297	-122.240	-0.277	-0.045
-127.283	-200.000	-0.041	0.187
-126.268	800.000	-0.082	0.236
-125.253	800.000	-0.059	-0.231
-124.239	109.881	0.170	-0.203
-123.224	-200.000	0.000	0.109
-122.210	-46.850	-0.309	0.150
-121.195	91.340	-0.293	0.327
