DTS Sentinel unit serial number:	SN413079Multiplexer serial number:	ORYXHardware model number:	OX4-SRSoftware version number:	ORYX F/W v4.00 Oryx Data Collector v3.7.2.0data status	okinstallation	princeton_trtdifferential loss correction	single-endedforward channel	channel 3reverse channel	N/Adate	2019/09/11time	09:06:10forward acquisition time	60.00reverse acquisition time	0.00gamma	496.2192k internal	0.2308k external	0.2308temperature offset calibration	0.9938default loss term (dB/km)	0.3790temperature slope calibration	1.0000multiplexer offset coefficient	1.0000multiplexer slope coefficient	1.0000fibre end	0.00T internal ref (°C)	34.22T ext. ref 1 (°C)	0.09T ext. ref 2 (°C)	30.16length (m)	temperature (°C)	Stokes	anti-Stokes-747.200	220.758	0.042	0.069
-746.185	-104.954	-0.233	0.054
-745.171	784.558	-0.080	0.223
-744.156	-200.000	-0.070	0.559
-743.142	23.744	-0.240	-0.201
-742.127	-23.888	0.281	0.171
-741.112	699.786	-0.143	0.383
-740.098	-124.649	-0.195	0.031
-739.083	-92.003	-0.153	0.044
-738.069	-101.647	-0.358	0.088
-737.054	-37.802	0.160	0.087
-736.039	-200.000	0.021	-0.218
-735.025	-179.877	0.305	0.007
-734.010	-115.079	-0.410	-0.079
-732.996	-200.000	-0.002	0.150
-731.981	287.237	-0.091	0.168
-730.966	318.626	0.050	0.096
-729.952	-0.810	-0.068	-0.049
-728.937	341.019	-0.114	0.226
-727.923	800.000	0.104	-0.338
-726.908	800.000	-0.046	-0.151
-725.894	-42.399	-0.253	0.131
-724.879	-128.717	0.173	0.025
-723.864	-189.514	-0.305	0.004
-722.850	21.740	-0.458	0.379
-721.835	5.640	-0.103	-0.077
-720.821	-112.973	-0.226	-0.045
-719.806	-177.776	-0.168	-0.004
-718.791	53.607	-0.114	0.111
-717.777	800.000	0.070	-0.211
-716.762	-93.112	-0.134	-0.038
-715.748	800.000	0.102	-0.321
-714.733	353.689	0.109	0.220
-713.718	-88.082	-0.169	-0.052
-712.704	-200.000	0.002	0.051
-711.689	730.040	-0.073	-0.197
-710.675	354.670	0.075	-0.151
-709.660	128.871	-0.096	0.124
-708.645	329.728	-0.192	0.376
-707.631	800.000	-0.084	0.260
-706.616	-200.000	-0.052	0.277
-705.602	800.000	0.033	-0.135
-704.587	-133.893	0.064	0.008
-703.572	-125.958	0.230	0.035
-702.558	800.000	-0.049	-0.173
-701.543	-75.740	-0.207	-0.074
-700.529	-63.911	0.175	0.073
-699.514	310.398	0.089	-0.169
-698.499	-97.397	-0.230	-0.061
-697.485	42.133	-0.132	0.122
-696.470	70.316	0.090	0.094
-695.456	72.937	-0.174	-0.185
-694.441	-46.790	0.353	0.175
-693.426	-3.135	0.065	0.046
-692.412	800.000	-0.029	-0.119
-691.397	372.703	0.087	0.180
-690.383	396.879	0.091	-0.193
-689.368	-90.973	0.260	-0.076
-688.354	58.493	0.025	0.025
-687.339	378.068	-0.073	0.151
-686.324	-57.388	-0.173	0.077
-685.310	-74.762	0.382	0.139
-684.295	46.022	0.208	0.195
-683.281	-136.904	-0.128	0.015
-682.266	0.481	-0.169	-0.122
-681.251	-89.290	-0.141	-0.042
-680.237	76.875	0.150	0.161
-679.222	32.516	0.376	0.330
-678.208	-167.740	-0.513	0.021
-677.193	779.251	-0.133	-0.368
-676.178	15.808	-0.243	-0.194
-675.164	-142.808	0.037	-0.004
-674.149	39.013	-0.146	-0.132
-673.135	132.094	0.192	0.250
-672.120	-56.988	-0.107	-0.048
-671.105	99.371	-0.147	-0.173
-670.091	-152.410	0.061	0.004
-669.076	800.000	-0.080	0.271
-668.062	743.293	0.099	-0.269
-667.047	-53.216	0.145	0.067
-666.032	94.772	0.263	0.303
-665.018	-200.000	-0.008	0.152
-664.003	537.659	0.028	0.066
-662.989	-143.541	-0.318	0.031
-661.974	-156.579	0.116	-0.007
-660.959	-164.364	-0.316	-0.015
-659.945	38.143	-0.218	0.197
-658.930	103.819	-0.026	0.030
-657.916	800.000	0.079	0.308
-656.901	409.431	-0.077	0.165
-655.886	800.000	0.054	-0.175
-654.872	-27.366	-0.092	-0.054
-653.857	235.124	0.052	0.086
-652.843	-3.810	-0.281	0.198
-651.828	800.000	-0.047	0.182
-650.814	-48.170	-0.053	0.026
-649.799	800.000	-0.077	-0.278
-648.784	-30.431	0.126	0.072
-647.770	499.886	-0.085	0.199
-646.755	-46.035	-0.173	-0.086
-645.741	-66.234	-0.185	-0.075
-644.726	-113.993	-0.414	0.081
-643.711	-42.764	-0.346	-0.178
-642.697	189.079	-0.195	-0.296
-641.682	18.402	-0.166	0.134
-640.668	-17.831	-0.192	0.122
-639.653	379.555	0.073	0.152
-638.638	-2.977	-0.176	-0.125
-637.624	-111.932	0.150	-0.031
-636.609	800.000	0.069	-0.301
-635.595	82.861	-0.132	0.145
-634.580	-29.405	0.143	0.083
-633.565	800.000	-0.076	0.304
-632.551	-200.000	-0.032	0.355
-631.536	18.761	0.051	0.042
-630.522	25.928	-0.076	0.064
-629.507	-200.000	-0.032	-0.242
-628.492	192.401	-0.046	-0.071
-627.478	-186.477	0.080	0.001
-626.463	3.980	0.450	-0.333
-625.449	20.864	0.217	0.178
-624.434	149.379	-0.043	0.059
-623.419	22.909	0.014	0.011
-622.405	21.212	-0.136	0.112
-621.390	-200.000	0.000	-0.183
-620.376	-95.547	0.194	0.053
-619.361	800.000	0.118	0.342
-618.346	55.448	0.171	0.167
-617.332	-146.031	0.169	0.015
-616.317	-42.340	-0.292	0.151
-615.303	-50.289	0.119	-0.057
-614.288	338.929	-0.277	-0.546
-613.273	23.879	0.142	0.118
-612.259	-136.656	-0.244	0.029
-611.244	298.593	-0.165	0.306
-610.230	590.857	-0.129	-0.321
-609.215	-140.803	0.030	-0.003
-608.201	-127.216	0.365	0.054
-607.186	458.997	0.063	0.143
-606.171	-22.583	0.172	-0.105
-605.157	-153.390	-0.145	0.010
-604.142	474.072	-0.139	0.317
-603.128	-162.087	-0.147	-0.007
-602.113	-46.341	0.210	-0.104
-601.098	800.000	-0.075	-0.210
-600.084	251.004	-0.077	0.132
-599.069	-61.090	0.153	-0.065
-598.055	145.095	-0.174	0.235
-597.040	-6.830	-0.137	-0.094
-596.025	105.779	0.095	0.113
-595.011	-142.143	0.275	0.028
-593.996	-103.491	-0.305	0.072
-592.982	563.605	0.030	0.073
-591.967	-156.856	-0.182	0.011
-590.952	203.958	-0.154	-0.240
-589.938	95.626	-0.336	0.387
-588.923	207.875	-0.073	0.116
-587.909	-49.481	0.313	-0.151
-586.894	200.345	-0.117	0.181
-585.879	121.519	0.257	-0.324
-584.865	-11.838	-0.278	-0.185
-583.850	15.906	-0.169	-0.134
-582.836	73.767	0.236	-0.250
-581.821	-200.000	-0.008	-0.199
-580.806	-200.000	0.064	-0.389
-579.792	-90.221	-0.170	0.050
-578.777	-70.649	0.144	-0.055
-577.763	-200.000	0.009	0.290
-576.748	334.560	0.188	0.368
-575.733	118.912	-0.083	-0.104
-574.719	267.815	-0.088	-0.156
-573.704	800.000	-0.055	-0.226
-572.690	-124.933	0.220	-0.034
-571.675	-95.905	0.317	-0.085
-570.661	-134.580	0.312	0.038
-569.646	593.230	0.087	0.216
-568.631	800.000	0.046	0.151
-567.617	-200.000	-0.037	0.304
-566.602	44.212	0.306	-0.283
-565.588	-50.415	0.060	0.029
-564.573	109.726	0.045	0.055
-563.558	-73.040	-0.162	-0.060
-562.544	-200.000	0.016	0.252
-561.529	800.000	-0.028	-0.081
-560.515	-119.248	0.373	-0.066
-559.500	2.524	-0.141	-0.103
-558.485	785.411	-0.049	0.135
-557.471	-93.609	-0.211	0.059
-556.456	-101.183	0.218	-0.054
-555.442	40.235	0.106	0.096
-554.427	214.254	-0.079	-0.127
-553.412	636.408	0.202	0.518
-552.398	-68.036	-0.247	0.097
-551.383	-14.383	-0.263	-0.171
-550.369	268.396	-0.143	-0.253
-549.354	392.715	0.115	0.242
-548.339	800.000	-0.024	0.104
-547.325	-71.802	-0.139	0.052
-546.310	-141.225	-0.125	0.013
-545.296	-115.457	0.015	-0.003
-544.281	-200.000	-0.027	0.193
-543.266	-38.488	0.098	-0.052
-542.252	-93.174	0.241	-0.068
-541.237	-7.909	0.190	-0.129
-540.223	492.500	-0.108	0.250
-539.208	800.000	-0.141	0.438
-538.193	-124.426	0.345	-0.054
-537.179	-24.080	0.068	0.041
-536.164	-200.000	0.033	-0.191
-535.150	-23.244	0.118	-0.072
-534.135	91.561	-0.297	0.336
-533.121	-200.000	-0.006	-0.122
-532.106	-43.569	0.144	-0.073
-531.091	339.953	-0.036	-0.071
-530.077	-172.717	0.375	0.012
-529.062	-79.577	-0.267	0.091
-528.048	91.087	-0.221	-0.250
-527.033	-181.190	0.168	-0.003
-526.018	-168.292	-0.218	-0.008
-525.004	47.425	0.073	-0.068
-523.989	117.449	-0.128	0.159
-522.975	38.355	-0.240	-0.216
-521.960	382.464	-0.218	0.451
-520.945	-102.337	0.531	-0.128
-519.931	-57.989	-0.255	-0.112
-518.916	207.285	-0.071	0.111
-517.902	599.881	0.071	-0.176
-516.887	-29.752	0.108	-0.062
-515.872	107.161	0.191	-0.229
-514.858	-33.249	-0.086	-0.048
-513.843	30.619	0.339	0.292
-512.829	-103.833	0.160	-0.038
-511.814	102.038	0.155	-0.182
-510.799	-199.639	0.381	0.002
-509.785	-56.742	-0.191	0.085
-508.770	-98.417	0.238	0.061
-507.756	800.000	-0.146	-0.430
-506.741	274.154	0.045	-0.080
-505.726	800.000	-0.077	0.291
-504.712	-92.890	-0.196	0.055
-503.697	-200.000	-0.030	0.138
-502.683	27.242	-0.254	0.215
-501.668	-186.648	-0.164	0.002
-500.653	217.121	-0.094	-0.151
-499.639	800.000	-0.059	-0.211
-498.624	-47.745	0.392	-0.192
-497.610	439.815	-0.128	0.281
-496.595	-37.865	-0.252	0.135
-495.581	46.932	0.093	-0.087
-494.566	-66.392	-0.151	-0.061
-493.551	-106.671	-0.391	0.087
-492.537	492.100	-0.053	-0.122
-491.522	800.000	-0.080	-0.225
-490.508	-200.000	0.040	0.000
-489.493	13.642	0.168	0.132
-488.478	-173.443	0.031	0.001
-487.464	-73.988	-0.211	-0.077
-486.449	-154.261	0.464	0.031
-485.435	154.794	-0.157	0.218
-484.420	717.556	0.154	-0.410
-483.405	-158.739	0.378	0.022
-482.391	-44.590	0.211	0.106
-481.376	201.241	0.120	0.185
-480.362	-41.068	0.234	0.122
-479.347	-93.373	0.136	-0.038
-478.332	-118.978	-0.212	0.037
-477.318	113.206	-0.079	-0.096
-476.303	139.380	0.068	0.090
-475.289	312.828	-0.182	-0.345
-474.274	-85.123	-0.025	-0.008
-473.259	153.891	-0.201	-0.277
-472.245	92.082	-0.165	-0.187
-471.230	-116.883	-0.081	-0.015
-470.216	-23.441	0.043	0.026
-469.201	-129.749	-0.259	0.036
-468.186	383.470	-0.159	0.329
-467.172	-200.000	0.008	0.125
-466.157	800.000	-0.042	0.128
-465.143	224.409	-0.026	-0.042
-464.128	104.884	-0.097	0.115
-463.113	-58.182	0.180	-0.079
-462.099	372.816	-0.035	0.072
-461.084	-118.857	0.220	0.039
-460.070	800.000	-0.085	0.255
-459.055	-125.360	0.496	0.076
-458.040	-33.655	0.232	-0.129
-457.026	-200.000	-0.292	0.001
-456.011	-64.849	-0.082	0.033
-454.997	-200.000	-0.073	-0.401
-453.982	-18.238	-0.137	0.086
-452.968	-35.829	0.050	0.027
-451.953	487.063	-0.096	-0.219
-450.938	26.692	-0.213	-0.180
-449.924	-73.814	-0.074	-0.027
-448.909	158.036	-0.088	-0.122
-447.895	545.396	-0.119	-0.285
-446.880	-7.469	0.087	-0.059
-445.865	-200.000	0.021	-0.196
-444.851	-67.473	0.358	0.141
-443.836	-129.376	-0.054	0.008
-442.822	-120.290	0.328	-0.056
-441.807	-142.910	-0.110	0.011
-440.792	57.654	-0.146	0.143
-439.778	-63.429	-0.092	0.038
-438.763	-57.532	-0.129	-0.057
-437.749	-133.138	0.122	-0.016
-436.734	20.478	-0.267	-0.217
-435.719	-49.091	0.266	0.128
-434.705	-200.000	-0.002	0.233
-433.690	-200.000	0.062	-0.430
-432.676	-134.794	-0.334	-0.041
-431.661	-134.910	0.270	0.033
-430.646	73.704	0.103	0.108
-429.632	-113.573	-0.183	-0.036
-428.617	310.406	-0.058	0.109
-427.603	210.225	0.044	-0.069
-426.588	-68.541	0.137	0.053
-425.573	-200.000	0.008	0.065
-424.559	-73.332	0.136	-0.050
-423.544	-142.430	0.131	0.013
-422.530	-50.202	-0.237	0.112
-421.515	493.835	-0.142	-0.327
-420.500	56.379	-0.089	0.087
-419.486	-168.221	0.070	0.003
-418.471	-27.534	0.217	0.126
-417.457	800.000	0.014	0.047
-416.442	-90.000	-0.347	0.102
-415.428	-200.000	-0.017	-0.184
-414.413	-31.248	0.158	0.089
-413.398	368.468	0.058	0.117
-412.384	2.224	-0.178	-0.129
-411.369	-82.756	-0.210	0.068
-410.355	69.378	0.144	-0.149
-409.340	20.333	0.284	-0.230
-408.325	24.348	0.090	0.075
-407.311	-139.610	0.258	0.028
-406.296	292.147	-0.142	-0.260
-405.282	-75.107	-0.102	-0.037
-404.267	20.740	0.532	0.432
-403.252	-88.611	0.113	-0.034
-402.238	-5.771	-0.199	-0.137
-401.223	-200.000	-0.003	-0.086
-400.209	800.000	0.107	-0.366
-399.194	33.564	-0.098	-0.085
-398.179	-43.549	-0.280	0.142
-397.165	-109.851	0.181	0.038
-396.150	-67.350	-0.081	0.032
-395.136	-100.337	-0.048	-0.012
-394.121	-116.519	-0.077	-0.014
-393.106	110.550	0.161	0.194
-392.092	10.330	0.265	-0.202
-391.077	-200.000	0.022	-0.208
-390.063	-200.000	-0.019	-0.263
-389.048	76.419	-0.057	0.060
-388.033	-200.000	-0.054	-0.368
-387.019	141.978	0.154	0.204
-386.004	-39.007	0.172	0.091
-384.990	-200.000	-0.001	0.241
-383.975	800.000	0.127	0.373
-382.960	-102.879	0.096	-0.023
-381.946	-100.759	0.160	0.040
-380.931	130.436	0.139	-0.179
-379.917	-163.170	-0.156	0.008
-378.902	-96.140	-0.190	0.051
-377.888	-27.581	-0.184	-0.107
-376.873	58.475	0.374	0.367
-375.858	-114.390	-0.190	-0.037
-374.844	172.466	0.149	0.214
-373.829	-53.786	0.113	-0.051
-372.815	487.929	-0.086	-0.196
-371.800	-92.176	-0.287	-0.081
-370.785	-80.370	0.443	0.148
-369.771	-200.000	-0.029	0.202
-368.756	717.845	0.078	0.208
-367.742	79.262	-0.095	0.102
-366.727	-197.281	0.100	0.001
-365.712	-150.449	0.322	0.025
-364.698	46.081	-0.226	-0.210
-363.683	-200.000	0.044	-0.318
-362.669	139.322	-0.151	0.199
-361.654	800.000	-0.057	0.182
-360.639	-70.022	0.590	-0.225
-359.625	-80.502	-0.273	0.091
-358.610	-127.819	0.266	0.038
-357.596	-85.601	-0.184	0.057
-356.581	-30.431	0.193	0.110
-355.566	-0.880	0.029	0.021
-354.552	41.587	0.066	-0.060
-353.537	800.000	0.091	-0.380
-352.523	741.981	-0.131	-0.351
-351.508	800.000	0.007	0.027
-350.493	-200.000	0.036	0.276
-349.479	24.462	-0.075	-0.062
-348.464	800.000	0.059	0.217
-347.450	9.293	-0.269	-0.204
-346.435	784.172	0.043	0.119
-345.420	-16.273	0.061	-0.039
-344.406	632.416	-0.128	0.323
-343.391	-119.587	-0.279	-0.048
-342.377	56.878	-0.196	0.191
-341.362	-111.956	0.123	-0.025
-340.348	-75.764	0.313	0.111
-339.333	48.490	0.065	-0.061
-338.318	403.330	0.079	-0.165
-337.304	800.000	-0.037	0.123
-336.289	-6.423	0.054	0.037
-335.275	100.805	-0.139	-0.162
-334.260	109.416	-0.229	-0.274
-333.245	103.581	0.163	-0.192
-332.231	-200.000	0.081	-0.409
-331.216	-76.009	-0.168	0.059
-330.202	-124.575	-0.052	0.008
-329.187	-111.654	0.403	0.082
-328.172	-200.000	0.018	-0.232
-327.158	800.000	0.038	-0.143
-326.143	-200.000	0.022	-0.400
-325.129	-145.518	0.261	0.023
-324.114	60.761	-0.115	-0.114
-323.099	-118.685	-0.125	-0.022
-322.085	-200.000	0.007	0.208
-321.070	-152.149	0.082	-0.006
-320.056	-126.050	-0.263	0.039
-319.041	-111.964	-0.173	0.035
-318.026	800.000	-0.182	0.513
-317.012	-57.433	-0.151	0.066
-315.997	-119.339	0.181	0.031
-314.983	22.092	-0.116	0.094
-313.968	-109.131	-0.102	-0.022
-312.953	390.179	0.065	-0.136
-311.939	-200.000	-0.014	0.156
-310.924	-70.473	-0.261	-0.099
-309.910	-55.279	0.427	0.192
-308.895	67.869	0.198	0.202
-307.880	800.000	-0.014	0.052
-306.866	-200.000	-0.009	-0.072
-305.851	-51.891	0.118	-0.055
-304.837	-0.273	-0.186	0.132
-303.822	-200.000	0.002	-0.148
-302.807	800.000	-0.050	0.177
-301.793	140.166	0.029	0.039
-300.778	-200.000	0.004	0.304
-299.764	50.536	-0.112	-0.106
-298.749	416.080	0.048	0.103
-297.735	435.169	-0.156	-0.338
-296.720	-41.189	0.072	-0.037
-295.705	-11.293	0.052	0.034
-294.691	41.411	0.296	-0.268
-293.676	-109.745	-0.542	0.114
-292.662	-87.168	-0.114	-0.035
-291.647	161.007	0.121	-0.169
-290.632	-95.864	0.303	0.081
-289.618	220.830	-0.073	-0.117
-288.603	465.807	-0.135	0.301
-287.589	-200.000	-0.029	0.286
-286.574	357.163	-0.142	-0.283
-285.559	-49.768	-0.122	-0.058
-284.545	800.000	0.087	0.302
-283.530	-200.000	0.032	-0.261
-282.516	71.976	-0.283	-0.294
-281.501	800.000	-0.052	0.172
-280.486	-69.078	-0.074	0.029
-279.472	-92.215	-0.338	0.095
-278.457	125.536	-0.120	-0.152
-277.443	-23.394	0.233	0.140
-276.428	194.783	-0.114	-0.172
-275.413	-92.555	0.246	-0.069
-274.399	800.000	0.075	0.217
-273.384	515.037	-0.007	0.016
-272.370	136.968	0.199	-0.260
-271.355	135.839	-0.044	0.057
-270.340	22.710	0.493	-0.403
-269.326	43.861	-0.182	-0.166
-268.311	-106.598	0.076	-0.017
-267.297	-53.035	-0.117	-0.054
-266.282	-200.000	0.027	-0.143
-265.267	40.720	0.280	-0.252
-264.253	-200.000	-0.009	0.224
-263.238	-200.000	0.010	-0.215
-262.224	800.000	-0.103	-0.371
-261.209	-113.181	0.103	0.020
-260.195	91.734	-0.211	0.237
-259.180	25.691	-0.370	0.308
-258.165	-116.099	0.174	-0.032
-257.151	-72.170	-0.225	-0.083
-256.136	-162.833	-0.092	-0.004
-255.122	-157.056	-0.322	0.020
-254.107	733.750	0.092	0.246
-253.092	262.697	0.075	-0.129
-252.078	-83.817	0.509	-0.162
-251.063	-200.000	-0.015	-0.105
-250.049	93.745	-0.047	-0.053
-249.034	-78.032	0.173	0.059
-248.019	-53.854	-0.155	-0.070
-247.005	-200.000	0.003	0.129
-245.990	800.000	0.085	0.261
-244.976	-59.561	-0.364	-0.156
-243.961	-61.153	0.336	0.141
-242.946	90.834	0.151	-0.168
-241.932	-19.007	-0.227	0.141
-240.917	-200.000	0.025	0.327
-239.903	-117.644	0.187	0.034
-238.888	-200.000	-0.036	0.166
-237.873	-66.298	-0.508	0.202
-236.859	-200.000	-0.036	0.170
-235.844	-137.886	0.138	0.015
-234.830	-25.388	0.088	-0.052
-233.815	-200.000	0.037	-0.207
-232.800	-155.631	-0.111	-0.007
-231.786	-6.763	0.181	-0.123
-230.771	-85.107	-0.146	-0.045
-229.757	-104.848	-0.090	0.021
-228.742	-200.000	-0.017	0.083
-227.727	-99.091	-0.290	0.073
-226.713	-100.152	-0.273	-0.068
-225.698	70.809	-0.191	0.197
-224.684	78.577	-0.272	0.290
-223.669	-7.005	0.236	0.160
-222.655	221.630	-0.189	-0.303
-221.640	-150.470	0.079	0.006
-220.625	800.000	0.060	0.176
-219.611	-20.166	0.128	-0.079
-218.596	109.481	0.156	-0.186
-217.582	-77.053	-0.277	0.096
-216.567	41.301	-0.237	0.213
-215.552	800.000	0.036	-0.144
-214.538	-44.847	0.083	-0.041
-213.523	-103.980	-0.061	-0.014
-212.509	-50.342	-0.158	0.074
-211.494	-102.870	-0.188	-0.044
-210.479	-33.953	-0.049	-0.027
-209.465	-86.750	0.317	0.097
-208.450	264.020	-0.099	0.172
-207.436	354.258	-0.179	0.355
-206.421	34.905	-0.188	0.163
-205.406	72.418	0.248	-0.257
-204.392	45.304	0.164	-0.151
-203.377	87.798	0.069	-0.076
-202.363	-54.115	0.205	0.093
-201.348	40.853	0.082	-0.073
-200.333	-137.172	-0.194	0.022
-199.319	-200.000	-0.036	0.383
-198.304	-135.582	-0.285	0.034
-197.290	-101.733	-0.257	-0.062
-196.275	-129.937	0.171	0.023
-195.260	-151.917	0.212	0.015
-194.246	-172.459	0.321	0.010
-193.231	-144.537	0.160	-0.015
-192.217	-200.000	0.013	0.179
-191.202	-73.784	-0.101	0.036
-190.187	5.748	0.269	-0.198
-189.173	648.222	-0.077	-0.197
-188.158	-141.110	0.059	-0.006
-187.144	-200.000	-0.075	-0.559
-186.129	457.022	-0.070	-0.155
-185.114	-200.000	-0.023	0.201
-184.100	-200.000	0.042	-0.267
-183.085	96.940	0.111	-0.126
-182.071	-59.600	0.179	-0.076
-181.056	456.875	-0.035	-0.078
-180.042	-51.867	-0.109	0.050
-179.027	598.033	-0.140	0.345
-178.012	-61.025	-0.303	-0.127
-176.998	-24.373	-0.136	0.081
-175.983	-19.539	-0.190	-0.117
-174.969	-200.000	0.054	0.308
-173.954	173.972	-0.190	0.273
-172.939	-111.074	-0.433	-0.088
-171.925	4.637	0.304	0.222
-170.910	-101.218	-0.056	-0.014
-169.896	-200.000	-0.019	-0.171
-168.881	-179.918	0.302	-0.006
-167.866	-58.691	-0.068	0.029
-166.852	137.143	-0.104	-0.136
-165.837	112.770	-0.088	-0.105
-164.823	-200.000	-0.010	0.146
-163.808	-66.559	0.130	-0.051
-162.793	11.169	0.077	-0.059
-161.779	8.915	-0.049	-0.037
-160.764	561.334	0.121	-0.292
-159.750	-22.266	0.154	-0.092
-158.735	-200.000	0.011	0.163
-157.720	-138.496	0.123	0.013
-156.706	-200.000	-0.063	0.432
-155.691	-173.850	0.241	-0.007
-154.677	-127.581	0.224	0.032
-153.662	-10.590	0.108	-0.071
-152.647	-54.174	0.363	0.164
-151.633	18.741	-0.181	0.144
-150.618	-18.166	-0.448	0.278
-149.604	-128.077	0.164	-0.023
-148.589	108.030	-0.153	0.181
-147.574	-87.035	-0.202	-0.061
-146.560	42.786	-0.139	-0.125
-145.545	126.045	-0.126	0.158
-144.531	-78.882	0.192	-0.065
-143.516	-200.000	-0.037	0.278
-142.502	-8.639	-0.146	0.097
-141.487	-78.566	-0.462	-0.157
-140.472	44.400	0.136	0.124
-139.458	-200.000	0.061	-0.308
-138.443	50.170	0.275	-0.258
-137.429	800.000	-0.073	0.260
-136.414	-133.136	-0.076	0.010
-135.399	-200.000	0.021	-0.101
-134.385	137.745	-0.231	0.300
-133.370	-90.166	-0.205	-0.059
-132.356	-155.865	-0.281	0.018
-131.341	252.966	-0.149	-0.251
-130.326	-149.558	0.272	0.021
-129.312	674.241	-0.080	-0.206
-128.297	281.131	0.101	0.179
-127.283	-200.000	-0.033	0.306
-126.268	598.765	0.095	0.234
-125.253	-200.000	0.041	-0.361
-124.239	22.705	0.314	0.255
-123.224	287.176	0.141	-0.252
-122.210	-113.730	-0.114	0.022
-121.195	161.395	-0.080	0.111
