DTS Sentinel unit serial number:	SN413079Multiplexer serial number:	ORYXHardware model number:	OX4-SRSoftware version number:	ORYX F/W v4.00 Oryx Data Collector v3.7.2.0data status	okinstallation	princeton_trtdifferential loss correction	single-endedforward channel	channel 3reverse channel	N/Adate	2019/09/10time	23:54:11forward acquisition time	60.00reverse acquisition time	0.00gamma	496.2192k internal	0.2331k external	0.2331temperature offset calibration	0.9916default loss term (dB/km)	0.3790temperature slope calibration	1.0000multiplexer offset coefficient	1.0000multiplexer slope coefficient	1.0000fibre end	0.00T internal ref (°C)	29.50T ext. ref 1 (°C)	-0.33T ext. ref 2 (°C)	23.00length (m)	temperature (°C)	Stokes	anti-Stokes-747.200	-63.846	-0.049	0.020
-746.185	-8.677	0.165	0.112
-745.171	55.762	-0.280	-0.273
-744.156	292.235	0.059	0.107
-743.142	144.318	0.100	0.135
-742.127	186.514	-0.234	0.350
-741.112	-103.669	0.213	-0.050
-740.098	216.906	-0.124	0.199
-739.083	-37.071	-0.033	-0.018
-738.069	-200.000	-0.066	0.570
-737.054	-96.744	-0.083	0.022
-736.039	-63.455	-0.401	-0.166
-735.025	11.306	-0.193	0.149
-734.010	76.671	-0.220	-0.235
-732.996	303.214	-0.104	-0.193
-731.981	-155.236	-0.062	-0.004
-730.966	34.388	0.043	0.038
-729.952	65.836	0.101	0.103
-728.937	-72.372	-0.228	-0.085
-727.923	-200.000	-0.005	-0.286
-726.908	800.000	-0.050	-0.176
-725.894	-39.096	-0.148	0.078
-724.879	-57.797	-0.125	0.055
-723.864	-144.647	0.148	0.014
-722.850	-137.686	0.234	0.026
-721.835	-66.495	-0.060	-0.024
-720.821	800.000	0.118	-0.340
-719.806	-18.075	-0.270	-0.170
-718.791	-17.788	-0.203	0.128
-717.777	372.538	0.247	0.505
-716.762	81.753	-0.136	-0.148
-715.748	-131.777	0.043	0.006
-714.733	-200.000	0.003	-0.123
-713.718	-92.739	-0.105	0.029
-712.704	141.057	-0.086	-0.114
-711.689	800.000	-0.218	0.684
-710.675	-200.000	-0.039	0.238
-709.660	232.678	0.176	0.290
-708.645	47.296	0.266	0.249
-707.631	69.159	0.237	-0.245
-706.616	408.246	-0.109	-0.232
-705.602	-43.475	-0.538	0.273
-704.587	-62.531	0.224	-0.093
-703.572	37.380	0.180	0.160
-702.558	45.417	0.186	-0.172
-701.543	48.195	-0.074	0.070
-700.529	-200.000	0.011	0.372
-699.514	122.807	0.178	0.224
-698.499	-200.000	-0.046	0.430
-697.485	-72.453	0.091	-0.034
-696.470	-32.762	-0.234	0.131
-695.456	-73.167	0.432	0.159
-694.441	-200.000	0.027	-0.148
-693.426	-161.602	0.088	-0.005
-692.412	324.014	-0.037	-0.070
-691.397	153.917	-0.038	-0.052
-690.383	-200.000	-0.005	0.024
-689.368	284.450	-0.192	-0.348
-688.354	-122.375	-0.150	0.025
-687.339	399.155	-0.128	-0.268
-686.324	-135.753	-0.234	-0.028
-685.310	174.053	0.102	-0.148
-684.295	63.589	-0.275	-0.278
-683.281	-68.234	0.178	-0.069
-682.266	202.133	0.064	0.099
-681.251	-150.314	-0.520	-0.040
-680.237	191.813	-0.064	-0.097
-679.222	-29.043	0.145	-0.083
-678.208	521.995	-0.007	-0.017
-677.193	283.892	-0.130	0.234
-676.178	128.227	-0.160	0.204
-675.164	108.747	0.102	0.123
-674.149	-200.000	-0.281	0.001
-673.135	-83.693	-0.325	0.104
-672.120	-119.815	0.070	0.012
-671.105	175.690	-0.124	-0.181
-670.091	-108.990	-0.400	-0.086
-669.076	23.119	-0.087	0.071
-668.062	-35.904	-0.141	-0.076
-667.047	-130.461	0.217	-0.029
-666.032	171.358	0.139	-0.200
-665.018	-200.000	-0.023	-0.217
-664.003	-95.683	-0.181	0.049
-662.989	-142.817	0.349	0.034
-661.974	507.494	0.102	0.237
-660.959	197.204	-0.153	0.235
-659.945	-110.482	-0.284	0.059
-658.930	102.767	-0.145	-0.170
-657.916	145.974	0.030	0.041
-656.901	-180.063	0.158	0.003
-655.886	-200.000	0.013	-0.179
-654.872	-200.000	-0.013	0.092
-653.857	3.946	0.146	-0.107
-652.843	-109.189	0.072	-0.015
-651.828	-23.140	0.139	0.084
-650.814	-200.000	-0.042	-0.195
-649.799	-60.045	-0.213	0.091
-648.784	60.171	0.118	-0.117
-647.770	81.258	-0.031	-0.034
-646.755	800.000	0.136	0.408
-645.741	-200.000	0.026	0.158
-644.726	-200.000	-0.014	-0.354
-643.711	-105.250	0.057	0.013
-642.697	10.229	0.328	-0.250
-641.682	567.555	0.084	-0.205
-640.668	800.000	-0.064	0.192
-639.653	11.762	-0.134	-0.103
-638.638	-200.000	0.026	-0.160
-637.624	182.844	-0.134	0.199
-636.609	114.768	-0.086	0.105
-635.595	170.832	-0.074	-0.106
-634.580	89.486	-0.161	-0.180
-633.565	-69.102	0.225	0.087
-632.551	-168.155	-0.158	-0.006
-631.536	-54.947	-0.380	0.172
-630.522	241.960	-0.253	-0.423
-629.507	-200.000	-0.034	-0.230
-628.492	352.060	-0.166	0.330
-627.478	273.023	-0.046	-0.081
-626.463	21.767	-0.048	0.040
-625.449	0.168	-0.319	0.228
-624.434	800.000	0.043	-0.152
-623.419	-200.000	0.032	-0.352
-622.405	-171.713	0.354	0.012
-621.390	117.516	0.144	-0.178
-620.376	-130.644	-0.230	0.031
-619.361	-200.000	0.002	-0.080
-618.346	279.525	0.086	0.154
-617.332	-176.281	0.296	0.008
-616.317	-200.000	-0.007	-0.134
-615.303	-62.466	-0.166	0.069
-614.288	365.123	-0.092	0.185
-613.273	346.594	-0.145	-0.286
-612.259	-61.104	-0.198	-0.084
-611.244	800.000	-0.068	-0.220
-610.230	75.520	0.120	-0.127
-609.215	-76.139	0.218	-0.077
-608.201	0.565	-0.100	-0.072
-607.186	266.430	0.129	-0.226
-606.171	17.325	-0.078	-0.062
-605.157	20.762	-0.088	0.072
-604.142	-196.690	-0.170	0.001
-603.128	59.507	-0.037	-0.037
-602.113	462.219	0.050	0.112
-601.098	-187.948	-0.272	-0.004
-600.084	331.615	-0.193	0.373
-599.069	112.410	0.162	0.196
-598.055	493.853	0.157	0.360
-597.040	322.673	-0.116	0.221
-596.025	39.481	0.077	0.069
-595.011	770.281	-0.078	-0.214
-593.996	-145.411	-0.067	0.006
-592.982	-108.888	0.035	-0.007
-591.967	19.947	-0.245	-0.198
-590.952	-200.000	-0.029	-0.191
-589.938	39.603	0.175	0.157
-588.923	429.402	0.043	-0.093
-587.909	651.485	-0.141	-0.361
-586.894	800.000	0.036	-0.144
-585.879	311.039	-0.052	-0.097
-584.865	-6.699	-0.306	0.209
-583.850	-49.606	-0.252	0.120
-582.836	341.231	0.093	-0.182
-581.821	194.719	-0.227	-0.344
-580.806	800.000	-0.088	-0.306
-579.792	335.599	0.036	0.070
-578.777	144.275	0.093	0.124
-577.763	7.156	-0.119	-0.089
-576.748	69.949	0.087	0.089
-575.733	-4.846	0.277	0.191
-574.719	-32.965	-0.164	-0.091
-573.704	-38.715	-0.094	-0.050
-572.690	-29.753	-0.182	0.104
-571.675	-200.000	-0.021	-0.167
-570.661	-43.993	-0.231	-0.116
-569.646	-200.000	0.037	0.176
-568.631	-87.311	-0.347	0.105
-567.617	-177.448	-0.125	0.003
-566.602	-41.429	-0.565	-0.291
-565.588	-82.891	-0.238	-0.077
-564.573	81.154	-0.031	-0.034
-563.558	-41.282	0.199	-0.102
-562.544	90.698	0.130	-0.146
-561.529	-75.833	-0.384	-0.136
-560.515	-120.249	-0.167	0.029
-559.500	157.263	0.134	0.186
-558.485	3.549	0.063	-0.046
-557.471	603.391	0.068	-0.169
-556.456	126.372	0.111	0.141
-555.442	274.987	-0.052	-0.092
-554.427	117.722	0.047	0.057
-553.412	-200.000	0.012	-0.127
-552.398	11.881	0.168	0.129
-551.383	215.708	0.074	0.117
-550.369	-200.000	0.013	-0.096
-549.354	-78.903	-0.407	0.139
-548.339	-182.573	-0.099	0.002
-547.325	105.614	-0.172	0.203
-546.310	-2.823	-0.235	-0.164
-545.296	126.962	-0.258	0.326
-544.281	800.000	0.061	-0.241
-543.266	59.605	0.145	-0.143
-542.252	211.529	-0.160	0.251
-541.237	189.959	0.088	-0.132
-540.223	628.505	0.106	0.269
-539.208	-200.000	-0.009	-0.167
-538.193	-108.970	0.218	0.046
-537.179	800.000	-0.067	-0.188
-536.164	-19.853	0.324	-0.200
-535.150	-200.000	-0.043	0.213
-534.135	-79.806	0.073	0.025
-533.121	-200.000	-0.014	0.170
-532.106	457.917	-0.015	-0.034
-531.091	-124.340	-0.398	0.062
-530.077	2.842	-0.048	-0.035
-529.062	257.857	0.041	0.071
-528.048	77.876	0.077	-0.082
-527.033	-92.987	-0.324	0.090
-526.018	-77.624	-0.296	-0.102
-525.004	-200.000	0.037	-0.198
-523.989	33.819	-0.276	0.239
-522.975	-180.245	-0.102	-0.002
-521.960	690.419	-0.099	-0.259
-520.945	89.191	0.074	0.082
-519.931	283.447	0.258	-0.462
-518.916	3.684	-0.151	0.110
-517.902	-176.827	0.160	0.004
-516.887	-8.132	-0.377	-0.253
-515.872	-82.660	0.403	0.130
-514.858	-200.000	-0.046	0.257
-513.843	800.000	-0.037	0.118
-512.829	-126.616	-0.219	0.032
-511.814	800.000	-0.092	-0.362
-510.799	-65.477	-0.173	0.069
-509.785	29.759	0.136	0.116
-508.770	-108.545	-0.162	0.035
-507.756	95.067	-0.150	0.171
-506.741	189.654	-0.110	0.164
-505.726	170.246	-0.129	0.185
-504.712	28.187	-0.181	-0.153
-503.697	43.863	0.174	-0.159
-502.683	360.245	-0.237	-0.473
-501.668	-8.471	-0.090	-0.060
-500.653	34.770	-0.116	0.101
-499.639	-175.061	0.138	-0.004
-498.624	-105.168	-0.474	-0.108
-497.610	-104.964	0.148	-0.034
-496.595	800.000	-0.093	0.257
-495.581	600.376	-0.024	0.059
-494.566	-137.235	0.320	-0.036
-493.551	257.044	-0.119	0.204
-492.537	413.448	-0.226	-0.478
-491.522	-113.076	0.115	0.023
-490.508	-162.237	0.055	-0.003
-489.493	-28.508	0.268	-0.154
-488.478	800.000	0.033	0.127
-487.464	658.203	0.132	0.338
-486.449	16.666	-0.246	-0.194
-485.435	800.000	-0.031	-0.123
-484.420	-200.000	0.059	-0.272
-483.405	-70.870	-0.338	-0.127
-482.391	106.185	0.101	0.119
-481.376	-116.398	0.115	0.021
-480.362	36.064	-0.025	0.022
-479.347	128.791	0.198	-0.251
-478.332	129.406	0.064	0.081
-477.318	800.000	-0.076	0.321
-476.303	709.547	0.070	0.186
-475.289	-59.810	-0.046	-0.020
-474.274	800.000	-0.073	-0.251
-473.259	-200.000	0.033	-0.299
-472.245	56.097	0.173	-0.167
-471.230	-33.277	0.289	-0.159
-470.216	468.459	0.104	0.232
-469.201	-200.000	-0.036	-0.178
-468.186	-6.427	-0.332	0.225
-467.172	-200.000	-0.040	0.282
-466.157	-200.000	-0.015	0.154
-465.143	590.885	-0.061	-0.150
-464.128	9.030	-0.081	-0.061
-463.113	800.000	0.009	0.028
-462.099	-200.000	-0.006	0.054
-461.084	214.087	-0.064	-0.101
-460.070	800.000	-0.037	0.121
-459.055	-49.039	-0.215	-0.103
-458.040	379.581	-0.111	0.227
-457.026	708.307	0.111	0.291
-456.011	-200.000	-0.006	0.145
-454.997	25.346	0.067	0.055
-453.982	56.734	-0.072	0.069
-452.968	47.085	-0.172	-0.160
-451.953	-16.404	0.159	-0.100
-450.938	-72.607	0.209	0.077
-449.924	-139.819	-0.129	0.014
-448.909	-128.243	-0.227	0.032
-447.895	-150.891	0.127	-0.010
-446.880	-200.000	0.022	-0.097
-445.865	-200.000	0.036	0.346
-444.851	-116.826	0.314	0.057
-443.836	-98.673	0.064	0.016
-442.822	-111.044	-0.260	0.053
-441.807	-75.741	-0.203	0.072
-440.792	-101.728	0.400	-0.097
-439.778	-9.814	0.195	-0.129
-438.763	-200.000	0.065	0.346
-437.749	398.022	-0.009	0.020
-436.734	-191.280	0.397	0.004
-435.719	-94.197	0.119	-0.032
-434.705	-162.355	0.097	0.005
-433.690	-97.398	0.393	0.102
-432.676	53.865	0.168	0.160
-431.661	38.400	-0.139	0.123
-430.646	-108.300	-0.263	0.056
-429.632	-85.575	0.426	0.132
-428.617	120.806	-0.116	0.143
-427.603	266.134	0.161	-0.279
-426.588	432.252	0.151	-0.325
-425.573	74.592	0.070	0.073
-424.559	-76.436	-0.199	-0.070
-423.544	651.712	-0.120	-0.305
-422.530	-99.671	0.254	0.063
-421.515	483.121	0.117	0.265
-420.500	-77.180	-0.279	-0.097
-419.486	-77.010	0.095	-0.033
-418.471	-200.000	0.016	0.286
-417.457	-160.253	0.427	0.023
-416.442	22.872	0.051	0.041
-415.428	-108.742	0.189	0.040
-414.413	-51.985	0.227	-0.105
-413.398	-27.205	0.094	-0.054
-412.384	-200.000	-0.043	0.413
-411.369	409.853	-0.120	0.253
-410.355	-148.610	-0.245	-0.020
-409.340	-37.338	0.196	0.104
-408.325	305.635	0.036	-0.066
-407.311	-19.480	-0.021	-0.013
-406.296	-200.000	0.027	-0.165
-405.282	800.000	-0.057	-0.158
-404.267	800.000	0.181	-0.497
-403.252	-200.000	-0.006	-0.080
-402.238	-170.165	-0.178	0.006
-401.223	-80.164	0.396	-0.132
-400.209	-109.283	0.025	-0.005
-399.194	-131.548	-0.259	0.034
-398.179	153.988	0.021	0.029
-397.165	53.324	-0.184	0.175
-396.150	-113.450	0.113	0.022
-395.136	-0.753	-0.105	-0.074
-394.121	134.783	-0.031	0.040
-393.106	-200.000	0.038	0.214
-392.092	-123.912	-0.152	0.024
-391.077	-200.000	0.006	-0.097
-390.063	-139.034	-0.465	0.050
-389.048	800.000	0.073	-0.282
-388.033	163.203	-0.199	0.278
-387.019	-51.597	0.094	0.044
-386.004	-100.775	0.210	-0.051
-384.990	-133.529	-0.144	-0.018
-383.975	-82.853	0.114	-0.036
-382.960	-3.478	0.118	-0.081
-381.946	-82.205	-0.043	-0.014
-380.931	800.000	-0.091	-0.303
-379.917	224.743	0.091	0.145
-378.902	-68.305	-0.254	0.098
-377.888	25.572	-0.265	0.219
-376.873	281.315	-0.037	-0.066
-375.858	800.000	-0.105	0.332
-374.844	309.465	-0.114	-0.212
-373.829	-200.000	0.009	0.156
-372.815	-25.439	0.330	0.193
-371.800	17.111	-0.062	0.049
-370.785	-157.116	-0.321	0.019
-369.771	-38.176	-0.219	0.115
-368.756	-183.981	0.333	-0.006
-367.742	-74.542	-0.170	-0.061
-366.727	-200.000	-0.027	-0.125
-365.712	-1.127	-0.206	0.145
-364.698	-70.752	0.274	-0.103
-363.683	151.938	-0.101	0.137
-362.669	-146.183	0.183	-0.016
-361.654	602.761	0.083	-0.204
-360.639	-81.183	0.146	-0.048
-359.625	-29.697	0.154	0.087
-358.610	-141.127	0.169	-0.017
-357.596	800.000	0.026	0.110
-356.581	-200.000	0.005	-0.332
-355.566	420.564	-0.071	-0.151
-354.552	-135.366	0.175	0.021
-353.537	361.879	0.154	0.306
-352.523	-44.068	-0.362	-0.180
-351.508	95.092	-0.069	-0.078
-350.493	36.040	-0.066	-0.057
-349.479	-9.417	0.265	-0.175
-348.464	33.420	0.245	-0.211
-347.450	-64.251	0.076	0.031
-346.435	-45.887	0.109	0.053
-345.420	110.268	-0.196	-0.234
-344.406	-63.851	0.074	0.030
-343.391	-56.284	0.300	0.132
-342.377	-200.000	-0.006	-0.152
-341.362	800.000	0.035	-0.146
-340.348	222.269	0.276	0.440
-339.333	-154.995	0.174	0.011
-338.318	-114.096	0.240	0.046
-337.304	-9.634	-0.242	0.160
-336.289	46.631	0.134	-0.123
-335.275	57.952	-0.097	0.094
-334.260	-200.000	-0.017	0.124
-333.245	-108.780	0.228	0.048
-332.231	49.901	-0.063	0.059
-331.216	-13.767	-0.160	0.103
-330.202	-115.132	-0.290	0.054
-329.187	-123.091	-0.399	0.063
-328.172	321.686	0.116	-0.219
-327.158	25.340	-0.142	-0.117
-326.143	-136.569	-0.281	-0.032
-325.129	59.418	-0.097	0.094
-324.114	51.355	0.185	0.174
-323.099	-75.621	-0.255	-0.090
-322.085	338.880	-0.097	-0.187
-321.070	-200.000	0.030	-0.503
-320.056	-67.469	0.252	-0.098
-319.041	-76.467	0.223	0.078
-318.026	221.488	0.012	0.019
-317.012	-97.842	-0.173	-0.044
-315.997	-20.321	0.547	0.333
-314.983	246.691	0.153	0.256
-313.968	120.924	-0.074	-0.091
-312.953	800.000	0.053	0.195
-311.939	676.720	-0.127	-0.326
-310.924	-52.750	0.170	0.078
-309.910	-114.573	0.196	0.037
-308.895	800.000	-0.036	0.153
-307.880	125.948	0.171	-0.214
-306.866	20.476	0.155	-0.124
-305.851	377.157	0.093	0.187
-304.837	-200.000	0.040	0.212
-303.822	-61.058	-0.085	-0.035
-302.807	-76.593	0.263	-0.091
-301.793	-101.301	-0.366	-0.088
-300.778	751.705	0.126	0.337
-299.764	800.000	-0.053	0.216
-298.749	800.000	-0.057	0.198
-297.735	-128.091	0.271	-0.038
-296.720	159.749	-0.124	0.171
-295.705	18.514	0.100	0.079
-294.691	68.019	0.193	0.195
-293.676	-153.052	0.135	-0.009
-292.662	-128.453	-0.196	-0.028
-291.647	-64.584	0.336	-0.135
-290.632	73.328	0.191	0.198
-289.618	-195.068	0.067	-0.001
-288.603	-144.086	0.251	-0.023
-287.589	-20.397	-0.039	0.024
-286.574	478.753	-0.093	-0.208
-285.559	298.307	0.173	-0.315
-284.545	-71.951	0.176	-0.065
-283.530	-141.684	-0.192	-0.019
-282.516	61.400	0.078	-0.076
-281.501	800.000	0.030	0.106
-280.486	-200.000	-0.003	0.247
-279.472	-168.029	-0.060	0.002
-278.457	124.063	-0.212	-0.263
-277.443	-32.726	-0.236	0.130
-276.428	357.426	-0.118	0.232
-275.413	-200.000	0.046	-0.220
-274.399	-200.000	0.005	-0.134
-273.384	-158.057	0.159	-0.009
-272.370	800.000	0.067	-0.270
-271.355	-26.845	-0.156	0.090
-270.340	-200.000	-0.030	0.146
-269.326	-45.817	-0.231	0.113
-268.311	-73.121	-0.225	0.082
-267.297	-116.064	-0.089	0.016
-266.282	-200.000	0.017	-0.152
-265.267	74.135	0.102	0.106
-264.253	-200.000	-0.045	0.410
-263.238	126.006	0.061	0.076
-262.224	30.233	-0.180	-0.152
-261.209	-102.686	0.426	0.100
-260.195	-2.252	0.165	-0.114
-259.180	652.230	0.046	0.115
-258.165	336.335	-0.198	0.379
-257.151	-96.311	-0.160	0.042
-256.136	163.421	0.039	-0.054
-255.122	655.403	0.097	0.246
-254.107	-81.534	0.015	-0.005
-253.092	677.118	0.144	0.368
-252.078	-47.174	0.077	0.037
-251.063	619.952	0.058	-0.144
-250.049	40.939	-0.241	-0.215
-249.034	-21.289	0.325	-0.196
-248.019	28.854	0.084	-0.071
-247.005	748.043	-0.076	-0.202
-245.990	-200.000	-0.002	0.096
-244.976	-200.000	-0.020	-0.297
-243.961	633.923	-0.061	0.154
-242.946	-200.000	0.003	0.181
-241.932	190.634	0.186	-0.275
-240.917	-44.113	-0.200	0.099
-239.903	-200.000	-0.005	0.137
-238.888	390.293	-0.207	-0.424
-237.873	-200.000	0.002	0.259
-236.859	26.294	0.331	0.273
-235.844	-178.186	0.394	-0.009
-234.830	56.145	-0.132	-0.126
-233.815	179.498	-0.045	0.065
-232.800	-121.010	0.417	-0.069
-231.786	-200.000	0.002	0.068
-230.771	800.000	0.038	-0.136
-229.757	-116.069	-0.386	-0.071
-228.742	-27.944	0.193	-0.110
-227.727	533.736	-0.061	0.143
-226.713	63.303	-0.150	-0.148
-225.698	-200.000	0.046	0.243
-224.684	-200.000	0.062	0.359
-223.669	-157.127	0.201	0.012
-222.655	-200.000	-0.013	-0.241
-221.640	-58.005	-0.202	0.087
-220.625	-200.000	0.029	0.249
-219.611	-119.648	-0.179	0.030
-218.596	-200.000	0.019	0.189
-217.582	207.784	-0.064	0.099
-216.567	-200.000	-0.049	0.365
-215.552	-88.573	0.223	0.066
-214.538	800.000	-0.144	0.563
-213.523	-200.000	0.031	0.235
-212.509	126.034	-0.277	-0.345
-211.494	578.974	-0.068	-0.164
-210.479	160.077	-0.159	-0.219
-209.465	-4.764	0.427	0.290
-208.450	-184.924	-0.127	-0.002
-207.436	-65.270	0.139	-0.055
-206.421	-134.231	0.258	-0.031
-205.406	-62.655	0.073	0.030
-204.392	111.377	-0.035	0.042
-203.377	410.698	0.113	0.237
-202.363	-107.952	0.138	0.030
-201.348	-21.707	-0.231	-0.139
-200.333	258.614	0.160	-0.272
-199.319	167.115	0.173	0.242
-198.304	253.050	0.133	0.223
-197.290	800.000	0.112	-0.328
-196.275	-103.013	-0.226	-0.053
-195.260	609.962	-0.113	-0.278
-194.246	147.939	0.173	-0.230
-193.231	53.524	0.120	0.113
-192.217	-94.442	-0.185	0.050
-191.202	-127.316	-0.171	-0.025
-190.187	102.375	0.086	0.099
-189.173	800.000	0.038	-0.106
-188.158	-127.645	-0.214	0.030
-187.144	682.626	-0.170	-0.436
-186.129	-16.103	0.093	0.058
-185.114	-98.959	0.232	-0.058
-184.100	-25.312	0.131	-0.076
-183.085	606.470	0.046	-0.114
-182.071	-76.455	-0.395	0.137
-181.056	800.000	0.081	-0.298
-180.042	96.727	0.076	-0.085
-179.027	410.002	0.078	-0.162
-178.012	-38.048	-0.148	-0.077
-176.998	59.298	0.224	-0.217
-175.983	-34.791	-0.110	-0.059
-174.969	-157.670	0.258	0.015
-173.954	35.134	-0.130	0.113
-172.939	181.185	0.088	0.127
-171.925	800.000	-0.130	0.353
-170.910	672.618	-0.171	-0.437
-169.896	-73.534	-0.110	0.040
-168.881	-60.118	0.077	0.032
-167.866	28.310	0.256	0.213
-166.852	258.961	-0.092	0.157
-165.837	-149.162	0.396	0.031
-164.823	154.645	-0.180	-0.243
-163.808	372.975	0.141	-0.282
-162.793	-46.879	0.305	-0.147
-161.779	800.000	0.024	0.085
-160.764	-62.783	0.052	-0.021
-159.750	48.015	0.206	-0.189
-158.735	-149.112	0.018	-0.001
-157.720	356.109	-0.064	0.126
-156.706	335.925	-0.161	0.308
-155.691	-33.565	0.138	0.075
-154.677	384.505	0.124	-0.252
-153.662	-8.029	0.237	0.157
-152.647	136.913	0.217	0.279
-151.633	800.000	0.052	-0.156
-150.618	-61.391	0.162	0.067
-149.604	800.000	-0.042	0.124
-148.589	-90.215	-0.245	0.070
-147.574	41.361	0.250	-0.223
-146.560	585.904	-0.181	-0.437
-145.545	90.625	0.071	-0.078
-144.531	98.109	0.168	0.190
-143.516	106.387	-0.074	0.087
-142.502	-122.460	-0.050	-0.008
-141.487	-53.089	-0.219	0.099
-140.472	42.649	0.176	0.157
-139.458	-77.821	0.047	-0.016
-138.443	-200.000	0.012	0.207
-137.429	-200.000	0.006	-0.060
-136.414	352.972	-0.114	0.223
-135.399	41.739	0.131	-0.117
-134.385	111.286	0.050	-0.059
-133.370	-76.628	-0.232	-0.080
-132.356	153.115	0.105	-0.141
-131.341	202.269	-0.097	0.148
-130.326	93.137	0.169	0.188
-129.312	293.107	0.058	-0.104
-128.297	-112.105	-0.517	0.102
-127.283	167.254	0.208	-0.290
-126.268	-200.000	0.031	0.183
-125.253	-200.000	0.058	-0.545
-124.239	566.288	0.008	0.018
-123.224	-5.491	-0.109	0.074
-122.210	800.000	-0.060	-0.176
-121.195	212.678	0.084	-0.130
