DTS Sentinel unit serial number:	SN413079Multiplexer serial number:	ORYXHardware model number:	OX4-SRSoftware version number:	ORYX F/W v4.00 Oryx Data Collector v3.7.2.0data status	okinstallation	princeton_trtdifferential loss correction	single-endedforward channel	channel 3reverse channel	N/Adate	2019/09/11time	21:18:10forward acquisition time	60.00reverse acquisition time	0.00gamma	496.2192k internal	0.2308k external	0.2308temperature offset calibration	1.0043default loss term (dB/km)	0.3790temperature slope calibration	1.0000multiplexer offset coefficient	1.0000multiplexer slope coefficient	1.0000fibre end	0.00T internal ref (°C)	36.25T ext. ref 1 (°C)	1.66T ext. ref 2 (°C)	30.30length (m)	temperature (°C)	Stokes	anti-Stokes-747.200	-90.357	-0.268	0.079
-746.185	559.022	-0.112	0.274
-745.171	800.000	-0.059	-0.239
-744.156	-35.788	-0.162	-0.089
-743.142	-17.425	-0.313	0.200
-742.127	1.803	-0.083	0.061
-741.112	-200.000	0.002	0.239
-740.098	-86.333	-0.183	0.057
-739.083	0.698	0.226	0.164
-738.069	267.362	0.085	0.151
-737.054	587.775	0.063	-0.157
-736.039	-139.698	0.089	-0.010
-735.025	-63.827	0.068	0.028
-734.010	-200.000	-0.014	-0.156
-732.996	129.127	-0.054	0.070
-731.981	670.327	-0.082	0.214
-730.966	800.000	0.060	0.174
-729.952	-144.050	-0.212	-0.020
-728.937	-126.807	-0.267	-0.040
-727.923	416.606	-0.084	-0.182
-726.908	-109.641	0.254	-0.054
-725.894	-200.000	-0.022	-0.136
-724.879	-200.000	0.028	-0.145
-723.864	259.697	-0.034	-0.059
-722.850	72.272	0.250	-0.265
-721.835	24.064	0.120	0.101
-720.821	-47.179	0.163	0.081
-719.806	-200.000	0.003	-0.258
-718.791	75.662	0.073	-0.078
-717.777	413.808	-0.110	-0.237
-716.762	-84.070	0.266	0.086
-715.748	800.000	0.099	-0.396
-714.733	-200.000	-0.012	-0.329
-713.718	-200.000	-0.021	0.150
-712.704	192.121	0.165	0.253
-711.689	470.366	0.084	-0.191
-710.675	-21.602	-0.440	-0.272
-709.660	198.744	0.144	-0.225
-708.645	-200.000	-0.028	-0.204
-707.631	-200.000	-0.001	-0.029
-706.616	587.267	0.198	-0.495
-705.602	-174.669	0.288	-0.008
-704.587	6.856	-0.388	-0.293
-703.572	59.242	0.056	0.056
-702.558	185.847	0.173	0.260
-701.543	-164.961	0.111	-0.005
-700.529	79.044	0.022	-0.024
-699.514	-185.096	-0.280	-0.004
-698.499	146.720	0.142	0.194
-697.485	145.253	0.078	-0.106
-696.470	-200.000	0.039	-0.574
-695.456	-49.373	-0.151	-0.073
-694.441	385.686	0.068	-0.143
-693.426	565.615	0.029	-0.071
-692.412	-200.000	-0.022	0.277
-691.397	-17.974	0.268	0.170
-690.383	235.089	-0.252	-0.422
-689.368	325.753	0.149	-0.289
-688.354	-69.254	0.249	-0.097
-687.339	-28.758	-0.262	-0.153
-686.324	-90.526	0.108	-0.032
-685.310	-149.446	0.229	0.018
-684.295	-116.562	-0.474	0.089
-683.281	-5.340	-0.110	0.077
-682.266	800.000	-0.074	0.289
-681.251	508.329	-0.081	0.191
-680.237	-50.154	-0.237	-0.114
-679.222	-157.774	0.106	0.006
-678.208	65.166	0.214	-0.220
-677.193	800.000	0.041	0.159
-676.178	-115.042	-0.285	0.055
-675.164	-2.215	-0.345	0.245
-674.149	-85.595	-0.047	-0.015
-673.135	346.952	-0.160	-0.319
-672.120	-200.000	0.006	-0.031
-671.105	88.622	0.086	0.097
-670.091	482.189	-0.033	-0.076
-669.076	-200.000	0.031	0.137
-668.062	-42.547	0.165	-0.085
-667.047	800.000	-0.103	-0.312
-666.032	-90.195	0.108	-0.032
-665.018	-110.626	-0.045	0.009
-664.003	-113.951	0.089	-0.018
-662.989	70.343	-0.266	-0.279
-661.974	-200.000	0.020	-0.114
-660.959	174.482	0.091	-0.133
-659.945	80.368	0.198	-0.215
-658.930	-200.000	0.003	0.129
-657.916	-62.966	0.285	-0.119
-656.901	110.782	-0.073	-0.089
-655.886	-124.501	-0.065	-0.010
-654.872	115.481	-0.159	-0.197
-653.857	-171.836	-0.105	-0.003
-652.843	659.504	-0.037	-0.095
-651.828	-167.985	0.088	0.003
-650.814	-200.000	-0.032	-0.168
-649.799	60.583	-0.066	0.066
-648.784	6.344	-0.204	0.153
-647.770	-88.896	0.117	-0.035
-646.755	-102.893	0.218	0.052
-645.741	-102.713	-0.121	0.029
-644.726	-55.732	0.112	0.051
-643.711	134.428	0.250	0.328
-642.697	-200.000	0.035	-0.386
-641.682	-157.574	-0.221	0.013
-640.668	-200.000	-0.001	-0.139
-639.653	54.007	0.267	-0.260
-638.638	-18.126	-0.147	0.093
-637.624	-153.264	0.263	0.019
-636.609	-200.000	-0.004	0.265
-635.595	-200.000	-0.010	-0.230
-634.580	397.509	0.034	-0.071
-633.565	-200.000	-0.003	0.207
-632.551	-120.208	-0.248	-0.043
-631.536	800.000	0.083	0.361
-630.522	-116.937	-0.150	-0.028
-629.507	-70.851	-0.135	-0.052
-628.492	-32.965	0.128	0.072
-627.478	-29.324	-0.151	-0.087
-626.463	-65.624	0.220	0.089
-625.449	89.747	0.078	-0.088
-624.434	-84.475	0.023	-0.007
-623.419	-160.566	0.372	0.020
-622.405	-82.883	-0.078	0.025
-621.390	469.209	0.189	0.430
-620.376	-41.029	0.104	-0.054
-619.361	800.000	0.069	-0.212
-618.346	5.510	-0.160	0.120
-617.332	-122.931	-0.213	0.035
-616.317	800.000	-0.120	0.451
-615.303	62.237	-0.252	-0.254
-614.288	-197.622	-0.191	0.001
-613.273	-200.000	-0.014	0.071
-612.259	-200.000	0.024	0.326
-611.244	58.046	0.174	0.173
-610.230	54.911	-0.178	-0.174
-609.215	-102.407	-0.183	0.044
-608.201	800.000	0.076	-0.325
-607.186	800.000	0.111	-0.412
-606.171	479.981	0.099	0.227
-605.157	258.476	0.025	0.043
-604.142	2.019	-0.217	0.158
-603.128	800.000	0.102	0.342
-602.113	-91.762	0.221	0.063
-601.098	-200.000	0.007	-0.032
-600.084	-200.000	0.005	-0.123
-599.069	200.952	-0.065	0.100
-598.055	-29.272	0.137	0.079
-597.040	408.827	-0.140	-0.300
-596.025	-64.185	-0.123	-0.051
-595.011	29.009	0.060	-0.052
-593.996	-200.000	-0.000	0.172
-592.982	52.539	0.149	0.144
-591.967	800.000	-0.062	-0.174
-590.952	229.357	0.092	-0.152
-589.938	-135.796	0.283	0.034
-588.923	-150.314	-0.104	-0.008
-587.909	-126.334	-0.260	0.039
-586.894	-200.000	0.070	-0.389
-585.879	-155.684	-0.078	-0.005
-584.865	-171.666	0.363	-0.012
-583.850	-8.873	0.205	-0.139
-582.836	181.158	-0.150	0.223
-581.821	61.332	-0.051	-0.052
-580.806	800.000	0.083	0.253
-579.792	604.464	-0.148	0.373
-578.777	-82.783	-0.257	0.084
-577.763	-31.967	0.144	0.081
-576.748	-138.569	0.203	0.022
-575.733	51.341	0.209	0.201
-574.719	-46.123	-0.380	0.189
-573.704	-200.000	0.063	-0.317
-572.690	-56.735	-0.228	-0.102
-571.675	113.867	-0.074	-0.091
-570.661	98.452	0.191	0.222
-569.646	58.190	-0.189	-0.187
-568.631	-59.207	-0.142	-0.062
-567.617	-27.787	0.407	-0.238
-566.602	-200.000	-0.039	0.236
-565.588	-179.135	-0.131	-0.003
-564.573	5.802	-0.070	0.052
-563.558	-200.000	0.008	-0.048
-562.544	-64.811	-0.195	0.080
-561.529	173.211	-0.156	-0.226
-560.515	-16.785	-0.062	0.040
-559.500	-14.263	-0.110	0.071
-558.485	150.538	0.165	-0.226
-557.471	800.000	0.027	-0.085
-556.456	-90.373	-0.229	-0.067
-555.442	161.237	0.081	-0.114
-554.427	34.917	0.178	-0.157
-553.412	-93.270	-0.188	-0.053
-552.398	227.992	0.081	0.133
-551.383	-20.503	-0.124	0.077
-550.369	-155.655	-0.120	0.008
-549.354	-33.657	-0.214	-0.119
-548.339	-200.000	-0.018	-0.138
-547.325	691.485	-0.067	-0.177
-546.310	42.868	-0.452	-0.416
-545.296	-57.279	0.107	-0.047
-544.281	-6.843	0.083	-0.057
-543.266	-200.000	0.018	-0.282
-542.252	-5.625	-0.287	0.198
-541.237	-166.609	-0.283	-0.012
-540.223	-7.970	-0.311	0.211
-539.208	-200.000	0.030	0.389
-538.193	-6.084	0.231	-0.160
-537.179	38.557	-0.176	0.158
-536.164	-96.106	-0.222	-0.060
-535.150	-37.064	0.135	0.073
-534.135	125.069	-0.053	0.068
-533.121	-34.224	-0.171	0.095
-532.106	-60.053	0.127	0.054
-531.091	69.142	0.166	-0.172
-530.077	642.980	-0.102	0.263
-529.062	800.000	0.064	0.230
-528.048	-200.000	-0.015	-0.092
-527.033	495.503	0.009	-0.021
-526.018	-82.412	0.011	-0.003
-525.004	800.000	0.041	-0.177
-523.989	-127.447	0.106	0.015
-522.975	179.934	0.083	-0.122
-521.960	650.403	0.102	0.262
-520.945	-200.000	0.039	0.277
-519.931	-200.000	0.013	0.088
-518.916	-41.325	0.018	0.009
-517.902	90.441	0.140	-0.158
-516.887	800.000	-0.046	-0.185
-515.872	132.896	0.063	-0.082
-514.858	14.345	0.223	-0.175
-513.843	-93.591	-0.314	-0.087
-512.829	-149.604	0.412	-0.033
-511.814	29.607	0.286	0.245
-510.799	800.000	-0.073	0.218
-509.785	264.596	-0.108	-0.189
-508.770	-120.620	-0.111	0.019
-507.756	450.824	0.117	0.261
-506.741	183.133	0.132	-0.197
-505.726	-50.244	-0.082	0.039
-504.712	17.547	0.141	-0.113
-503.697	217.804	0.197	-0.316
-502.683	49.850	0.267	0.253
-501.668	509.154	-0.048	0.112
-500.653	10.169	-0.164	0.125
-499.639	519.406	-0.140	0.329
-498.624	315.766	-0.136	-0.258
-497.610	314.407	0.114	0.216
-496.595	24.181	-0.117	0.097
-495.581	50.253	0.417	-0.397
-494.566	271.048	0.203	-0.359
-493.551	800.000	0.050	-0.151
-492.537	18.713	-0.177	0.142
-491.522	-200.000	0.046	0.204
-490.508	-142.374	-0.126	-0.012
-489.493	-22.637	-0.351	0.214
-488.478	111.155	0.207	-0.250
-487.464	-70.354	0.114	0.044
-486.449	800.000	0.069	0.196
-485.435	-78.618	-0.039	0.013
-484.420	-118.341	-0.468	0.084
-483.405	9.805	0.070	0.054
-482.391	75.009	-0.092	0.098
-481.376	366.615	0.048	0.098
-480.362	-85.217	-0.145	0.046
-479.347	-68.423	0.197	0.077
-478.332	42.534	0.181	-0.165
-477.318	-200.000	0.049	-0.298
-476.303	774.374	-0.054	-0.148
-475.289	154.875	-0.262	-0.363
-474.274	270.723	0.032	0.057
-473.259	301.875	0.120	0.224
-472.245	-10.528	0.118	0.078
-471.230	-200.000	0.008	-0.104
-470.216	-27.917	0.103	-0.060
-469.201	-100.824	-0.085	-0.021
-468.186	79.609	0.316	0.341
-467.172	163.744	0.150	-0.213
-466.157	800.000	0.026	0.098
-465.143	-31.669	-0.167	0.094
-464.128	-200.000	-0.004	-0.259
-463.113	221.592	0.259	0.419
-462.099	-117.533	-0.118	0.022
-461.084	13.142	-0.147	-0.114
-460.070	-200.000	0.042	0.239
-459.055	136.880	0.107	-0.140
-458.040	-200.000	0.068	0.357
-457.026	-157.487	0.313	-0.019
-456.011	221.956	-0.070	-0.113
-454.997	800.000	-0.078	0.308
-453.982	-12.653	0.160	0.105
-452.968	-6.861	0.122	0.084
-451.953	74.009	0.133	0.140
-450.938	552.497	-0.062	-0.150
-449.924	800.000	0.018	0.056
-448.909	41.715	-0.157	0.143
-447.895	-27.102	0.027	-0.016
-446.880	-110.431	0.306	0.064
-445.865	23.194	-0.303	0.250
-444.851	-200.000	0.041	0.198
-443.836	-116.435	-0.049	-0.009
-442.822	504.982	0.181	-0.421
-441.807	-105.022	0.147	0.034
-440.792	-200.000	-0.024	0.107
-439.778	-200.000	0.056	0.294
-438.763	-171.347	-0.333	-0.011
-437.749	-19.102	0.107	-0.067
-436.734	515.310	-0.051	-0.120
-435.719	17.843	0.084	0.067
-434.705	-28.350	-0.265	0.154
-433.690	800.000	0.132	-0.484
-432.676	-200.000	-0.048	-0.213
-431.661	-161.546	0.198	0.010
-430.646	800.000	-0.029	0.111
-429.632	-83.024	0.102	-0.033
-428.617	193.690	-0.167	-0.254
-427.603	800.000	0.039	0.151
-426.588	800.000	0.021	-0.079
-425.573	194.784	0.058	0.088
-424.559	-132.173	0.199	0.026
-423.544	601.775	-0.031	-0.077
-422.530	-72.272	0.280	0.104
-421.515	107.627	0.072	-0.086
-420.500	-119.470	-0.379	0.066
-419.486	38.057	0.204	0.182
-418.471	-54.163	-0.215	0.098
-417.457	-80.297	-0.238	0.080
-416.442	-200.000	-0.007	0.245
-415.428	-140.025	0.203	0.022
-414.413	-200.000	0.014	-0.141
-413.398	123.909	-0.044	-0.055
-412.384	-123.892	0.176	0.028
-411.369	85.266	0.042	0.046
-410.355	368.761	-0.139	0.283
-409.340	-82.292	0.226	-0.074
-408.325	-200.000	0.027	-0.243
-407.311	800.000	-0.137	0.483
-406.296	-96.949	0.077	0.020
-405.282	-128.622	-0.369	0.052
-404.267	800.000	-0.033	0.140
-403.252	-200.000	-0.061	0.333
-402.238	-200.000	-0.003	0.256
-401.223	-115.250	-0.289	0.055
-400.209	230.248	-0.069	-0.113
-399.194	800.000	-0.062	-0.257
-398.179	-200.000	-0.025	-0.233
-397.165	187.341	0.150	-0.224
-396.150	73.935	-0.303	-0.318
-395.136	29.088	-0.140	-0.119
-394.121	-200.000	-0.023	-0.134
-393.106	-178.392	0.336	-0.008
-392.092	-97.124	-0.172	-0.045
-391.077	-61.023	0.205	0.087
-390.063	800.000	0.063	0.181
-389.048	745.843	-0.096	0.260
-388.033	57.196	-0.178	0.174
-387.019	-81.802	0.282	0.093
-386.004	800.000	0.039	-0.161
-384.990	-52.869	-0.028	0.013
-383.975	-150.691	-0.038	-0.003
-382.960	217.829	0.136	0.217
-381.946	86.545	-0.101	-0.111
-380.931	-159.851	0.264	-0.015
-379.917	-200.000	0.019	0.127
-378.902	-124.430	-0.346	-0.054
-377.888	-3.912	-0.265	-0.184
-376.873	800.000	0.096	0.272
-375.858	22.694	0.219	-0.180
-374.844	-35.807	-0.055	0.030
-373.829	191.573	-0.082	-0.124
-372.815	285.188	0.146	-0.264
-371.800	-200.000	0.005	-0.062
-370.785	-200.000	0.016	-0.294
-369.771	201.605	0.198	0.306
-368.756	49.076	0.068	0.064
-367.742	-13.314	-0.330	-0.215
-366.727	418.629	0.086	-0.185
-365.712	139.882	0.175	-0.231
-364.698	800.000	-0.053	0.227
-363.683	-200.000	0.012	0.071
-362.669	800.000	0.033	-0.107
-361.654	-200.000	0.000	-0.301
-360.639	19.424	0.185	0.149
-359.625	42.350	-0.082	0.075
-358.610	-127.206	-0.103	-0.015
-357.596	-144.152	-0.176	0.017
-356.581	175.701	-0.176	-0.256
-355.566	-118.580	0.252	0.045
-354.552	-114.269	0.129	0.025
-353.537	170.199	-0.287	0.412
-352.523	314.013	-0.118	0.222
-351.508	-200.000	-0.004	0.341
-350.493	265.430	0.104	-0.182
-349.479	800.000	0.053	-0.168
-348.464	-172.238	-0.148	0.005
-347.450	147.252	0.033	-0.044
-346.435	-95.229	-0.112	-0.030
-345.420	-50.140	0.127	0.060
-344.406	-200.000	0.004	-0.077
-343.391	3.088	0.145	0.106
-342.377	-63.070	-0.126	-0.052
-341.362	800.000	0.097	-0.273
-340.348	261.981	0.109	0.188
-339.333	64.123	-0.054	0.054
-338.318	154.458	0.032	-0.043
-337.304	800.000	0.036	0.148
-336.289	-141.823	0.043	-0.004
-335.275	-200.000	0.038	-0.217
-334.260	101.004	-0.058	0.068
-333.245	-120.267	0.505	-0.086
-332.231	565.743	0.051	-0.125
-331.216	109.135	-0.266	-0.318
-330.202	-200.000	0.022	-0.180
-329.187	-129.726	0.261	-0.036
-328.172	-200.000	0.031	-0.194
-327.158	800.000	0.122	0.477
-326.143	-98.111	-0.205	-0.053
-325.129	-128.385	0.100	-0.014
-324.114	402.017	0.046	-0.097
-323.099	180.288	-0.204	0.299
-322.085	-200.000	-0.013	0.128
-321.070	28.435	0.157	0.133
-320.056	29.879	0.242	0.206
-319.041	-53.126	-0.016	-0.007
-318.026	-200.000	-0.049	-0.398
-317.012	-200.000	0.060	0.318
-315.997	64.142	-0.164	0.165
-314.983	208.388	0.131	-0.204
-313.968	-21.346	0.122	0.074
-312.953	85.163	0.141	0.155
-311.939	289.065	-0.158	-0.285
-310.924	-124.303	-0.150	-0.023
-309.910	-200.000	-0.031	-0.342
-308.895	-126.892	0.144	0.021
-307.880	-122.386	-0.148	-0.024
-306.866	-200.000	0.036	-0.228
-305.851	116.316	-0.050	-0.061
-304.837	-34.798	-0.291	0.159
-303.822	23.294	0.273	-0.224
-302.807	-200.000	-0.057	-0.251
-301.793	258.392	-0.084	-0.144
-300.778	800.000	0.060	-0.220
-299.764	-139.802	0.265	0.028
-298.749	-200.000	0.011	-0.149
-297.735	188.492	0.011	0.016
-296.720	800.000	0.020	0.066
-295.705	450.889	0.014	-0.031
-294.691	27.251	-0.113	-0.095
-293.676	-82.084	0.229	-0.075
-292.662	731.360	-0.064	-0.170
-291.647	500.592	-0.069	-0.158
-290.632	340.209	-0.045	0.088
-289.618	126.771	-0.048	-0.061
-288.603	-17.812	0.276	-0.173
-287.589	-19.831	-0.243	0.150
-286.574	108.362	0.241	0.287
-285.559	-162.672	-0.248	0.012
-284.545	6.401	-0.200	-0.148
-283.530	241.275	-0.087	-0.144
-282.516	-200.000	0.014	0.267
-281.501	800.000	-0.085	-0.339
-280.486	800.000	0.077	0.228
-279.472	-200.000	0.033	0.264
-278.457	-200.000	0.016	-0.087
-277.443	800.000	0.015	-0.045
-276.428	-200.000	-0.115	0.000
-275.413	-169.510	0.069	-0.003
-274.399	486.363	-0.112	-0.256
-273.384	-109.388	-0.075	0.016
-272.370	219.320	-0.110	0.176
-271.355	800.000	0.116	0.498
-270.340	-0.114	0.354	0.252
-269.326	-200.000	-0.037	0.188
-268.311	14.433	-0.428	0.333
-267.297	233.366	-0.091	-0.150
-266.282	-20.440	-0.116	-0.071
-265.267	101.108	0.059	0.068
-264.253	-200.000	-0.003	0.101
-263.238	-68.708	-0.195	0.075
-262.224	-200.000	-0.002	0.013
-261.209	92.140	0.170	-0.191
-260.195	590.964	0.175	-0.430
-259.180	800.000	0.032	0.095
-258.165	-193.585	-0.131	-0.001
-257.151	21.760	0.087	0.071
-256.136	385.093	-0.107	0.220
-255.122	123.624	0.134	-0.168
-254.107	-88.161	0.365	0.109
-253.092	-200.000	-0.021	0.354
-252.078	-136.947	0.088	-0.010
-251.063	800.000	-0.040	0.155
-250.049	-123.262	0.210	-0.033
-249.034	333.310	-0.050	-0.096
-248.019	-2.961	-0.113	0.079
-247.005	-58.320	0.245	0.106
-245.990	-72.679	0.181	-0.066
-244.976	-70.983	-0.343	0.129
-243.961	-61.181	0.162	0.068
-242.946	-58.475	-0.345	0.149
-241.932	-40.169	-0.152	0.079
-240.917	-145.179	-0.143	0.013
-239.903	-25.658	0.261	-0.154
-238.888	-128.342	0.133	0.019
-237.873	9.176	0.094	-0.071
-236.859	-68.743	-0.101	0.039
-235.844	221.024	0.029	-0.047
-234.830	800.000	0.055	0.167
-233.815	-200.000	-0.038	0.263
-232.800	-170.035	-0.142	-0.005
-231.786	-200.000	-0.016	0.275
-230.771	-11.984	0.277	-0.181
-229.757	-131.082	-0.185	-0.025
-228.742	-200.000	-0.009	0.141
-227.727	190.438	0.161	0.241
-226.713	164.559	0.077	0.108
-225.698	-98.614	-0.347	-0.088
-224.684	267.981	0.040	0.069
-223.669	-200.000	0.003	-0.059
-222.655	-126.697	0.277	-0.041
-221.640	800.000	-0.154	0.492
-220.625	-87.282	-0.327	0.099
-219.611	800.000	-0.068	-0.226
-218.596	-142.707	-0.073	-0.007
-217.582	-89.497	-0.347	0.102
-216.567	-200.000	-0.013	0.152
-215.552	436.719	-0.156	-0.339
-214.538	-122.780	-0.046	-0.007
-213.523	-53.592	0.058	-0.026
-212.509	-194.591	-0.377	0.003
-211.494	554.662	0.158	0.378
-210.479	-9.449	0.353	-0.234
-209.465	-41.900	0.373	0.190
-208.450	-49.152	-0.257	0.122
-207.436	161.593	0.177	-0.247
-206.421	234.511	-0.054	-0.089
-205.406	-37.925	-0.619	-0.327
-204.392	-71.628	0.387	-0.144
-203.377	-200.000	0.013	-0.291
-202.363	-23.986	-0.210	0.125
-201.348	410.078	-0.054	0.113
-200.333	-48.874	0.085	0.040
-199.319	-19.442	-0.108	-0.067
-198.304	-4.194	-0.211	-0.145
-197.290	19.947	0.149	0.120
-196.275	-200.000	-0.021	0.140
-195.260	35.827	0.141	-0.124
-194.246	-52.760	0.239	-0.110
-193.231	109.151	-0.208	-0.247
-192.217	57.714	-0.275	-0.268
-191.202	-151.838	-0.182	-0.013
-190.187	-79.367	0.174	-0.058
-189.173	800.000	0.013	-0.041
-188.158	-116.832	-0.161	0.029
-187.144	800.000	0.025	-0.081
-186.129	-50.007	0.099	0.047
-185.114	1.380	-0.277	0.198
-184.100	4.353	0.270	0.197
-183.085	-13.955	-0.166	0.106
-182.071	-5.336	0.164	-0.112
-181.056	-114.744	0.179	0.034
-180.042	86.456	0.103	-0.113
-179.027	110.243	0.199	-0.238
-178.012	434.418	-0.030	-0.065
-176.998	-200.000	-0.005	-0.270
-175.983	-200.000	0.010	-0.174
-174.969	202.063	-0.026	0.040
-173.954	116.199	-0.098	-0.119
-172.939	132.825	-0.090	0.115
-171.925	787.396	-0.061	0.168
-170.910	800.000	0.101	-0.299
-169.896	73.567	-0.059	-0.062
-168.881	-200.000	-0.020	-0.111
-167.866	498.331	0.074	-0.170
-166.852	797.380	0.093	-0.254
-165.837	-47.264	-0.123	0.060
-164.823	-108.431	0.338	0.072
-163.808	-19.617	-0.209	-0.128
-162.793	532.982	0.074	-0.174
-161.779	-68.833	0.191	-0.073
-160.764	-94.044	-0.249	-0.068
-159.750	55.478	-0.304	0.292
-158.735	800.000	-0.038	0.135
-157.720	800.000	-0.070	-0.257
-156.706	83.565	0.280	-0.304
-155.691	-125.830	-0.151	0.023
-154.677	263.049	0.064	-0.110
-153.662	800.000	-0.039	-0.130
-152.647	-200.000	-0.050	-0.231
-151.633	-200.000	-0.029	-0.387
-150.618	44.680	0.136	-0.124
-149.604	-172.413	-0.099	0.003
-148.589	800.000	-0.035	0.108
-147.574	-69.768	0.214	0.081
-146.560	-16.024	-0.069	0.043
-145.545	-115.602	0.148	-0.028
-144.531	800.000	0.037	-0.113
-143.516	771.101	0.031	0.083
-142.502	-144.949	-0.228	-0.021
-141.487	-200.000	-0.011	0.248
-140.472	-93.258	0.385	0.106
-139.458	-124.859	-0.252	0.039
-138.443	56.086	0.184	0.178
-137.429	-144.118	0.083	-0.008
-136.414	-200.000	-0.119	-0.000
-135.399	-137.572	0.228	0.026
-134.385	-85.456	-0.181	-0.056
-133.370	-97.881	-0.167	0.043
-132.356	175.608	0.093	0.134
-131.341	-200.000	-0.021	0.301
-130.326	39.440	0.163	0.145
-129.312	800.000	0.092	0.257
-128.297	-158.935	0.288	-0.016
-127.283	-134.343	-0.281	0.034
-126.268	225.182	-0.195	-0.313
-125.253	154.956	-0.057	0.078
-124.239	21.995	0.062	-0.051
-123.224	-127.144	-0.154	0.022
-122.210	108.971	0.264	0.313
-121.195	-41.080	-0.238	-0.122
