DTS Sentinel unit serial number:	SN413079Multiplexer serial number:	ORYXHardware model number:	OX4-SRSoftware version number:	ORYX F/W v4.00 Oryx Data Collector v3.7.2.0data status	okinstallation	princeton_trtdifferential loss correction	single-endedforward channel	channel 3reverse channel	N/Adate	2019/09/11time	22:34:11forward acquisition time	60.00reverse acquisition time	0.00gamma	496.2192k internal	0.2314k external	0.2314temperature offset calibration	1.0047default loss term (dB/km)	0.3790temperature slope calibration	1.0000multiplexer offset coefficient	1.0000multiplexer slope coefficient	1.0000fibre end	0.00T internal ref (°C)	35.00T ext. ref 1 (°C)	1.81T ext. ref 2 (°C)	29.07length (m)	temperature (°C)	Stokes	anti-Stokes-747.200	546.548	0.007	-0.017
-746.185	18.798	-0.308	0.250
-745.171	-93.473	0.225	-0.063
-744.156	169.040	-0.183	0.265
-743.142	800.000	-0.067	-0.259
-742.127	-111.349	0.151	-0.031
-741.112	-200.000	0.008	0.081
-740.098	-158.601	0.412	0.024
-739.083	-39.959	-0.220	-0.116
-738.069	20.133	0.459	0.376
-737.054	-119.108	-0.219	-0.039
-736.039	-95.389	-0.347	-0.094
-735.025	16.112	0.183	-0.146
-734.010	210.739	0.058	0.092
-732.996	-181.797	-0.200	0.004
-731.981	800.000	-0.030	-0.086
-730.966	118.103	0.121	-0.150
-729.952	800.000	-0.113	-0.485
-728.937	162.250	0.157	-0.223
-727.923	-137.966	-0.345	0.039
-726.908	284.512	-0.214	0.391
-725.894	-30.806	-0.296	0.170
-724.879	395.730	0.062	-0.130
-723.864	-74.071	-0.152	-0.056
-722.850	126.652	-0.135	0.173
-721.835	-169.663	0.113	-0.004
-720.821	334.480	-0.089	0.175
-719.806	92.619	-0.054	-0.061
-718.791	-5.856	0.147	-0.102
-717.777	-200.000	-0.023	-0.290
-716.762	552.413	0.120	-0.292
-715.748	800.000	-0.090	-0.375
-714.733	468.234	-0.187	-0.425
-713.718	-97.450	-0.268	0.071
-712.704	-112.749	-0.159	-0.032
-711.689	-11.409	0.231	-0.154
-710.675	-78.081	-0.158	-0.055
-709.660	235.777	-0.094	-0.157
-708.645	56.311	-0.176	-0.173
-707.631	-26.794	-0.172	-0.102
-706.616	800.000	0.042	-0.134
-705.602	159.113	0.314	0.442
-704.587	261.875	0.138	-0.241
-703.572	-200.000	-0.078	-0.381
-702.558	-136.789	-0.272	-0.032
-701.543	-200.000	0.041	0.205
-700.529	56.602	0.113	0.111
-699.514	-31.527	-0.123	0.070
-698.499	637.128	0.063	0.163
-697.485	10.899	-0.041	-0.032
-696.470	800.000	-0.040	-0.147
-695.456	91.950	0.145	-0.165
-694.441	-123.932	0.208	0.033
-693.426	-200.000	-0.027	-0.325
-692.412	-110.958	-0.251	0.052
-691.397	159.104	-0.117	-0.165
-690.383	800.000	-0.089	-0.339
-689.368	-69.909	-0.519	0.200
-688.354	360.407	-0.069	0.139
-687.339	-200.000	-0.027	-0.380
-686.324	800.000	-0.082	-0.275
-685.310	-146.989	-0.349	-0.030
-684.295	534.233	0.139	0.332
-683.281	9.245	-0.191	0.146
-682.266	209.079	0.094	-0.148
-681.251	117.860	-0.055	-0.068
-680.237	-62.714	0.086	-0.036
-679.222	800.000	-0.123	0.399
-678.208	-35.494	0.117	0.064
-677.193	-200.000	0.000	-0.093
-676.178	22.763	-0.108	0.090
-675.164	-80.099	0.255	-0.086
-674.149	800.000	0.012	0.044
-673.135	-77.689	0.344	0.120
-672.120	119.189	-0.194	-0.243
-671.105	187.264	0.065	0.098
-670.091	-126.552	0.125	-0.019
-669.076	-115.065	0.176	-0.034
-668.062	-153.803	0.202	0.014
-667.047	535.668	0.095	-0.228
-666.032	109.028	-0.121	-0.147
-665.018	-200.000	-0.025	-0.358
-664.003	-49.455	-0.193	-0.093
-662.989	500.912	-0.104	0.244
-661.974	12.401	-0.078	-0.061
-660.959	533.113	-0.057	0.136
-659.945	-99.354	0.449	-0.114
-658.930	-44.996	0.085	0.043
-657.916	570.285	0.115	-0.284
-656.901	-93.533	0.143	-0.040
-655.886	256.258	0.053	0.091
-654.872	41.685	-0.161	0.147
-653.857	180.744	0.094	0.140
-652.843	-79.358	-0.055	-0.019
-651.828	1.718	-0.135	0.098
-650.814	-200.000	-0.009	-0.063
-649.799	-81.312	0.040	-0.013
-648.784	246.822	-0.071	0.122
-647.770	-117.658	0.175	0.032
-646.755	78.829	-0.148	0.160
-645.741	800.000	0.036	-0.102
-644.726	-87.129	-0.209	-0.064
-643.711	-200.000	-0.026	0.394
-642.697	-200.000	0.004	0.166
-641.682	-139.525	-0.227	0.025
-640.668	-200.000	-0.047	-0.213
-639.653	23.831	0.079	0.066
-638.638	-200.000	0.016	0.341
-637.624	82.906	0.046	-0.050
-636.609	29.121	0.084	0.072
-635.595	-200.000	0.095	-0.431
-634.580	55.540	-0.226	-0.221
-633.565	-200.000	-0.025	-0.123
-632.551	-200.000	0.003	-0.118
-631.536	314.790	-0.150	0.285
-630.522	-92.361	0.255	0.073
-629.507	-200.000	0.014	0.231
-628.492	800.000	-0.128	-0.361
-627.478	-97.038	0.248	0.065
-626.463	-127.108	0.173	-0.026
-625.449	198.703	-0.109	0.168
-624.434	-144.333	0.303	0.028
-623.419	-200.000	0.005	-0.374
-622.405	-57.471	-0.244	-0.108
-621.390	-155.131	-0.148	-0.010
-620.376	-200.000	-0.054	-0.283
-619.361	-103.376	0.315	0.075
-618.346	800.000	0.074	-0.282
-617.332	-200.000	0.007	0.152
-616.317	1.797	0.174	0.127
-615.303	714.328	0.016	-0.043
-614.288	310.630	0.080	-0.151
-613.273	-200.000	0.025	-0.159
-612.259	-143.125	-0.319	-0.031
-611.244	196.416	0.069	-0.106
-610.230	-69.719	-0.229	0.088
-609.215	-52.720	0.303	-0.141
-608.201	800.000	0.121	0.342
-607.186	32.020	-0.156	-0.135
-606.171	-41.279	0.213	-0.111
-605.157	127.457	0.134	-0.171
-604.142	-200.000	-0.004	-0.056
-603.128	-200.000	0.030	0.178
-602.113	-34.866	0.318	-0.175
-601.098	-38.804	0.218	0.116
-600.084	211.554	0.106	-0.168
-599.069	-200.000	0.043	0.326
-598.055	-200.000	0.037	-0.196
-597.040	800.000	0.122	-0.476
-596.025	132.947	0.031	0.040
-595.011	-126.616	0.409	-0.061
-593.996	-200.000	-0.069	-0.340
-592.982	-44.794	0.125	0.063
-591.967	-200.000	0.011	-0.071
-590.952	55.377	-0.162	-0.158
-589.938	8.130	0.106	0.080
-588.923	-200.000	-0.021	-0.199
-587.909	-75.525	-0.265	-0.095
-586.894	-200.000	-0.027	0.127
-585.879	-200.000	-0.017	-0.135
-584.865	-31.730	0.209	0.118
-583.850	-200.000	-0.079	0.369
-582.836	483.575	-0.081	-0.185
-581.821	-15.199	0.219	0.141
-580.806	13.789	0.122	-0.095
-579.792	268.017	0.077	0.137
-578.777	-77.466	-0.249	-0.087
-577.763	-27.327	-0.086	0.051
-576.748	-119.496	0.232	0.041
-575.733	-18.629	-0.204	-0.128
-574.719	-200.000	-0.005	-0.277
-573.704	95.148	0.146	0.167
-572.690	-150.923	-0.255	-0.019
-571.675	-57.164	-0.301	-0.134
-570.661	-105.473	0.095	0.022
-569.646	800.000	-0.037	0.106
-568.631	-48.351	0.279	0.135
-567.617	180.285	-0.197	0.291
-566.602	-200.000	-0.033	-0.201
-565.588	-103.493	-0.064	0.015
-564.573	28.893	-0.178	0.152
-563.558	800.000	0.066	0.191
-562.544	214.112	-0.127	0.203
-561.529	158.987	0.098	-0.137
-560.515	-200.000	0.022	0.155
-559.500	97.494	-0.170	0.196
-558.485	-200.000	0.055	0.377
-557.471	-66.870	-0.522	0.208
-556.456	117.857	0.065	0.080
-555.442	-32.524	-0.212	-0.119
-554.427	-112.964	0.174	-0.035
-553.412	-130.256	0.249	0.034
-552.398	73.640	-0.016	0.017
-551.383	-120.244	-0.286	-0.049
-550.369	54.840	0.075	0.073
-549.354	504.590	0.182	-0.424
-548.339	-1.279	0.045	0.032
-547.325	-200.000	0.025	0.138
-546.310	800.000	-0.061	0.185
-545.296	-154.310	0.162	-0.011
-544.281	121.280	-0.121	0.152
-543.266	8.666	-0.149	-0.113
-542.252	4.578	0.151	-0.111
-541.237	-98.585	-0.162	-0.042
-540.223	-59.536	-0.108	0.046
-539.208	-39.090	-0.152	0.081
-538.193	538.940	0.188	0.450
-537.179	800.000	0.067	-0.209
-536.164	27.184	0.280	0.236
-535.150	641.684	0.120	-0.307
-534.135	140.484	0.146	-0.194
-533.121	-137.664	-0.134	-0.015
-532.106	401.441	-0.085	0.180
-531.091	-164.826	-0.187	0.008
-530.077	-6.990	0.194	-0.133
-529.062	23.822	-0.091	0.076
-528.048	-200.000	0.003	0.101
-527.033	446.590	-0.093	0.206
-526.018	44.870	-0.240	0.222
-525.004	-54.695	-0.261	0.119
-523.989	-84.555	0.153	-0.048
-522.975	-87.155	-0.090	-0.027
-521.960	315.978	0.050	-0.095
-520.945	-3.853	0.186	0.130
-519.931	-169.169	0.168	0.006
-518.916	-123.012	0.203	0.033
-517.902	148.614	0.047	0.064
-516.887	-200.000	-0.037	-0.309
-515.872	-107.957	-0.511	0.111
-514.858	340.537	0.118	0.232
-513.843	-76.146	-0.154	-0.055
-512.829	-65.262	-0.390	-0.158
-511.814	800.000	-0.064	0.195
-510.799	-94.209	-0.266	-0.073
-509.785	168.069	-0.068	0.097
-508.770	-200.000	0.104	-0.482
-507.756	-200.000	0.011	-0.225
-506.741	86.504	0.104	0.115
-505.726	-147.323	0.113	0.010
-504.712	1.069	-0.029	-0.021
-503.697	26.581	0.055	0.047
-502.683	-126.943	0.096	-0.014
-501.668	-58.672	-0.393	0.171
-500.653	778.287	0.093	-0.254
-499.639	318.492	0.178	-0.338
-498.624	548.181	-0.110	-0.265
-497.610	-21.664	-0.328	0.201
-496.595	-2.611	0.197	0.139
-495.581	249.760	0.168	-0.287
-494.566	-200.000	0.052	0.246
-493.551	184.167	-0.287	0.427
-492.537	-158.754	-0.126	0.007
-491.522	-79.690	-0.153	-0.052
-490.508	-130.664	-0.476	0.064
-489.493	-200.000	-0.007	-0.063
-488.478	800.000	0.056	0.228
-487.464	13.719	-0.117	-0.091
-486.449	-106.154	0.090	0.020
-485.435	-200.000	-0.014	-0.138
-484.420	44.429	0.137	0.127
-483.405	-146.524	-0.325	0.028
-482.391	-127.497	0.295	-0.043
-481.376	-200.000	-0.005	0.178
-480.362	8.257	0.096	-0.072
-479.347	-13.011	-0.071	0.046
-478.332	-94.880	0.302	-0.082
-477.318	-46.476	0.176	-0.087
-476.303	20.091	0.153	0.124
-475.289	-200.000	-0.059	0.295
-474.274	287.344	-0.118	-0.214
-473.259	-135.716	0.086	0.010
-472.245	-134.023	0.462	-0.057
-471.230	800.000	0.065	0.261
-470.216	285.700	0.278	0.503
-469.201	-200.000	0.018	0.107
-468.186	78.513	0.177	-0.190
-467.172	-62.783	-0.131	-0.054
-466.157	-178.057	-0.474	0.011
-465.143	800.000	-0.049	0.159
-464.128	-38.299	-0.199	-0.106
-463.113	384.760	0.074	-0.154
-462.099	-88.343	0.188	0.056
-461.084	-131.112	-0.359	0.048
-460.070	237.263	0.160	0.266
-459.055	385.073	-0.048	-0.098
-458.040	800.000	0.017	-0.054
-457.026	-165.113	0.343	-0.015
-456.011	-200.000	-0.080	0.363
-454.997	135.546	0.093	-0.121
-453.982	-122.668	0.353	-0.057
-452.968	288.086	-0.120	0.218
-451.953	-52.401	-0.101	-0.047
-450.938	113.385	0.174	-0.211
-449.924	103.289	0.183	0.215
-448.909	351.775	-0.178	0.354
-447.895	-197.740	-0.096	0.001
-446.880	36.382	0.241	0.213
-445.865	-200.000	0.017	0.229
-444.851	646.369	-0.150	0.385
-443.836	393.198	0.287	0.599
-442.822	-1.119	-0.183	0.129
-441.807	-200.000	0.004	-0.044
-440.792	28.915	-0.311	0.264
-439.778	-163.377	0.102	0.005
-438.763	-21.186	0.426	-0.261
-437.749	-200.000	-0.012	0.215
-436.734	-68.477	-0.302	0.117
-435.719	324.033	-0.115	-0.219
-434.705	-200.000	-0.007	-0.194
-433.690	197.169	-0.089	-0.136
-432.676	233.717	0.105	0.174
-431.661	270.253	-0.050	-0.087
-430.646	145.385	0.170	-0.228
-429.632	10.785	-0.139	-0.107
-428.617	687.676	0.009	-0.023
-427.603	120.469	0.111	-0.138
-426.588	305.920	-0.190	0.354
-425.573	118.711	0.182	-0.225
-424.559	-90.270	-0.264	-0.077
-423.544	-200.000	0.070	-0.350
-422.530	74.027	-0.114	-0.119
-421.515	180.355	-0.138	-0.203
-420.500	222.005	0.103	-0.167
-419.486	34.964	-0.098	0.086
-418.471	-182.988	-0.159	0.003
-417.457	-175.389	-0.228	-0.006
-416.442	-200.000	-0.050	-0.296
-415.428	-200.000	-0.008	-0.230
-414.413	-17.826	-0.295	-0.185
-413.398	-149.373	0.151	-0.012
-412.384	-199.942	0.063	0.000
-411.369	3.064	-0.105	-0.077
-410.355	86.823	0.077	-0.085
-409.340	11.032	0.123	-0.094
-408.325	-37.001	-0.293	-0.157
-407.311	-116.027	-0.196	-0.037
-406.296	-200.000	0.046	-0.217
-405.282	2.831	0.259	0.188
-404.267	149.913	-0.061	-0.083
-403.252	-200.000	0.024	-0.303
-402.238	800.000	0.024	-0.097
-401.223	227.771	0.146	0.237
-400.209	30.286	0.165	-0.141
-399.194	708.647	-0.079	0.209
-398.179	-200.000	0.001	0.004
-397.165	35.109	-0.221	0.194
-396.150	313.381	0.070	-0.132
-395.136	-109.437	-0.219	-0.046
-394.121	800.000	0.041	-0.175
-393.106	-146.342	0.119	-0.010
-392.092	-30.796	-0.130	-0.073
-391.077	221.177	0.076	0.123
-390.063	362.592	0.152	-0.306
-389.048	-200.000	0.026	-0.328
-388.033	86.495	-0.083	0.091
-387.019	-108.815	0.328	0.070
-386.004	800.000	-0.017	-0.065
-384.990	145.130	-0.170	-0.228
-383.975	5.063	0.074	-0.054
-382.960	-200.000	0.031	-0.339
-381.946	492.867	0.055	-0.126
-380.931	22.129	0.203	-0.165
-379.917	623.277	0.101	-0.254
-378.902	-200.000	-0.031	0.386
-377.888	87.555	-0.293	-0.324
-376.873	25.101	-0.184	0.153
-375.858	113.293	-0.130	0.158
-374.844	800.000	-0.063	0.209
-373.829	422.210	0.107	0.230
-372.815	204.417	0.139	0.216
-371.800	-200.000	-0.015	-0.079
-370.785	109.375	0.108	-0.129
-369.771	800.000	0.143	0.558
-368.756	800.000	0.050	0.145
-367.742	-200.000	0.024	0.286
-366.727	800.000	-0.016	-0.050
-365.712	800.000	-0.138	-0.455
-364.698	-27.045	0.137	0.080
-363.683	-56.260	0.360	-0.160
-362.669	199.948	-0.256	0.392
-361.654	31.168	0.124	-0.107
-360.639	174.506	-0.169	-0.243
-359.625	133.060	-0.292	0.377
-358.610	145.040	-0.020	-0.026
-357.596	-41.070	0.391	-0.202
-356.581	103.864	0.112	0.131
-355.566	-87.191	-0.119	0.036
-354.552	41.136	0.124	0.111
-353.537	800.000	-0.028	0.089
-352.523	259.059	-0.078	0.134
-351.508	-141.926	-0.119	-0.012
-350.493	-88.205	-0.092	0.027
-349.479	-200.000	-0.002	0.042
-348.464	400.499	0.100	-0.209
-347.450	-200.000	0.140	-0.615
-346.435	-200.000	0.095	0.424
-345.420	196.612	0.263	-0.400
-344.406	7.374	0.160	0.119
-343.391	-175.970	-0.083	-0.002
-342.377	204.969	-0.080	-0.123
-341.362	-12.958	-0.386	0.250
-340.348	-71.836	0.123	-0.046
-339.333	-34.107	0.195	0.107
-338.318	-39.974	-0.078	-0.041
-337.304	282.339	-0.174	0.312
-336.289	-130.856	-0.021	-0.003
-335.275	-74.516	0.272	-0.098
-334.260	-148.954	-0.255	-0.020
-333.245	-14.312	0.184	-0.118
-332.231	6.824	0.241	-0.179
-331.216	800.000	-0.043	0.135
-330.202	269.510	0.054	-0.095
-329.187	-180.029	-0.162	0.003
-328.172	-68.200	-0.224	0.087
-327.158	-35.073	-0.079	-0.043
-326.143	800.000	-0.039	0.131
-325.129	-25.841	0.220	-0.129
-324.114	800.000	-0.045	-0.186
-323.099	27.756	0.103	-0.086
-322.085	-169.574	0.008	0.000
-321.070	95.509	-0.174	0.198
-320.056	-87.851	-0.253	0.076
-319.041	-113.947	-0.272	0.053
-318.026	337.972	-0.067	0.129
-317.012	-45.005	-0.208	-0.103
-315.997	-182.795	0.264	-0.005
-314.983	-200.000	0.039	-0.387
-313.968	-68.430	-0.218	0.084
-312.953	-0.209	-0.122	-0.086
-311.939	413.843	0.009	0.018
-310.924	800.000	-0.079	-0.277
-309.910	45.088	-0.128	-0.118
-308.895	-3.949	-0.214	-0.148
-307.880	92.862	0.254	0.285
-306.866	-13.551	-0.273	0.176
-305.851	80.222	-0.079	0.085
-304.837	16.633	0.087	0.068
-303.822	10.490	0.199	-0.151
-302.807	-48.471	0.129	0.062
-301.793	-137.902	-0.216	-0.024
-300.778	-200.000	-0.006	0.069
-299.764	-110.024	0.102	-0.021
-298.749	525.570	0.091	0.213
-297.735	-200.000	-0.001	0.062
-296.720	-71.698	0.019	-0.007
-295.705	206.257	-0.157	0.243
-294.691	272.700	-0.070	0.124
-293.676	144.626	-0.077	-0.102
-292.662	-27.178	0.098	0.057
-291.647	-74.089	-0.062	0.022
-290.632	228.642	0.143	-0.232
-289.618	-51.822	-0.178	-0.083
-288.603	239.272	0.122	-0.202
-287.589	-124.044	0.090	-0.014
-286.574	790.243	0.035	0.096
-285.559	-200.000	0.079	0.361
-284.545	68.089	-0.100	0.102
-283.530	-17.366	-0.363	0.227
-282.516	-115.263	0.102	-0.019
-281.501	-31.170	0.150	0.084
-280.486	-54.694	-0.212	0.095
-279.472	-90.319	-0.041	0.012
-278.457	-102.927	-0.158	-0.037
-277.443	48.151	0.164	0.153
-276.428	-200.000	0.012	0.274
-275.413	800.000	-0.030	-0.111
-274.399	197.291	0.071	0.107
-273.384	-167.193	0.125	0.005
-272.370	283.347	0.103	-0.185
-271.355	640.408	0.082	0.209
-270.340	-200.000	-0.005	0.295
-269.326	-15.738	0.196	0.124
-268.311	-28.913	0.177	0.101
-267.297	709.364	-0.149	-0.392
-266.282	404.529	-0.127	-0.266
-265.267	41.225	0.104	0.094
-264.253	-7.200	-0.094	-0.063
-263.238	-84.340	0.239	0.075
-262.224	170.416	0.127	0.181
-261.209	-18.590	0.166	-0.103
-260.195	-6.949	-0.083	-0.056
-259.180	35.886	0.223	0.195
-258.165	-107.506	-0.315	0.069
-257.151	115.785	-0.105	0.128
-256.136	-200.000	-0.036	-0.264
-255.122	-200.000	-0.017	-0.278
-254.107	775.441	0.052	0.140
-253.092	-0.903	0.333	-0.235
-252.078	-50.612	0.155	0.073
-251.063	397.616	0.156	-0.324
-250.049	437.234	-0.090	-0.196
-249.034	-98.149	-0.236	0.060
-248.019	555.876	0.021	-0.051
-247.005	43.817	-0.052	-0.048
-245.990	-113.774	0.261	0.050
-244.976	-200.000	0.077	0.471
-243.961	-200.000	-0.014	-0.248
-242.946	-200.000	-0.036	0.209
-241.932	302.970	-0.126	0.232
-240.917	43.424	0.033	-0.030
-239.903	616.751	-0.063	-0.156
-238.888	-127.153	0.136	-0.020
-237.873	800.000	0.036	-0.135
-236.859	40.675	0.170	-0.152
-235.844	-200.000	-0.010	0.214
-234.830	-67.930	-0.088	-0.034
-233.815	-200.000	0.017	0.127
-232.800	-104.766	-0.195	0.045
-231.786	-200.000	0.008	-0.110
-230.771	800.000	-0.056	-0.199
-229.757	-73.048	0.410	0.150
-228.742	-4.237	-0.152	0.104
-227.727	421.880	-0.031	0.067
-226.713	60.700	-0.112	0.110
-225.698	138.820	0.071	-0.093
-224.684	-200.000	0.026	-0.137
-223.669	-26.670	-0.310	-0.180
-222.655	800.000	-0.062	0.225
-221.640	-134.818	0.289	0.035
-220.625	8.554	-0.254	-0.190
-219.611	-92.923	0.368	-0.102
-218.596	117.707	0.314	-0.384
-217.582	149.447	-0.101	0.136
-216.567	-200.000	0.012	-0.143
-215.552	22.947	-0.064	0.052
-214.538	68.653	-0.186	-0.189
-213.523	-36.691	0.272	-0.145
-212.509	52.628	0.157	-0.149
-211.494	249.233	-0.138	0.232
-210.479	-4.373	0.203	0.140
-209.465	-66.792	0.178	-0.070
-208.450	145.624	0.133	0.177
-207.436	-11.506	0.033	0.021
-206.421	-200.000	0.031	-0.180
-205.406	385.141	0.106	-0.217
-204.392	575.469	-0.060	-0.145
-203.377	800.000	0.046	0.156
-202.363	-30.841	0.106	0.060
-201.348	-200.000	-0.001	0.007
-200.333	-149.030	-0.271	0.022
-199.319	-200.000	0.015	0.144
-198.304	124.640	0.207	-0.258
-197.290	-49.427	-0.366	-0.173
-196.275	-200.000	0.003	0.108
-195.260	-65.774	0.077	-0.031
-194.246	676.404	-0.053	0.138
-193.231	-130.505	-0.279	-0.037
-192.217	379.023	-0.066	-0.135
-191.202	108.980	-0.123	0.146
-190.187	49.253	-0.118	-0.110
-189.173	-151.273	-0.397	0.029
-188.158	-124.501	-0.192	-0.030
-187.144	-116.112	0.088	-0.016
-186.129	-125.039	-0.297	0.045
-185.114	-200.000	0.005	-0.532
-184.100	-180.015	-0.444	-0.009
-183.085	35.452	0.066	0.057
-182.071	-200.000	0.036	0.184
-181.056	21.265	-0.086	0.069
-180.042	-103.226	0.067	-0.016
-179.027	-200.000	-0.008	-0.140
-178.012	800.000	-0.049	-0.209
-176.998	-156.631	0.251	-0.015
-175.983	105.385	0.207	-0.242
-174.969	21.273	-0.205	-0.165
-173.954	-31.776	0.054	-0.030
-172.939	-75.674	0.298	0.105
-171.925	-80.667	-0.164	0.054
-170.910	487.120	-0.122	0.277
-169.896	-65.995	0.175	-0.069
-168.881	-57.915	-0.034	0.015
-167.866	-119.505	-0.037	-0.006
-166.852	-106.974	-0.136	-0.030
-165.837	-105.034	0.329	0.075
-164.823	161.573	-0.266	0.369
-163.808	-57.268	0.104	-0.045
-162.793	157.071	-0.298	-0.408
-161.779	-34.331	0.076	0.041
-160.764	-22.772	0.119	0.071
-159.750	96.229	0.141	0.160
-158.735	-45.269	0.194	-0.096
-157.720	-200.000	-0.051	-0.000
-156.706	-29.179	0.289	0.164
-155.691	18.450	-0.045	0.035
-154.677	-15.919	-0.221	0.139
-153.662	-200.000	-0.054	0.246
-152.647	-192.742	0.374	-0.003
-151.633	75.435	-0.060	-0.063
-150.618	-114.324	-0.132	-0.025
-149.604	-200.000	0.003	-0.324
-148.589	-200.000	0.001	-0.266
-147.574	88.012	-0.103	-0.114
-146.560	-106.037	0.510	0.114
-145.545	800.000	0.062	-0.228
-144.531	-200.000	0.002	0.153
-143.516	-63.530	0.192	-0.078
-142.502	-131.671	0.107	-0.014
-141.487	84.936	0.100	-0.109
-140.472	800.000	-0.054	0.150
-139.458	131.928	-0.104	0.132
-138.443	18.813	0.139	-0.110
-137.429	-126.663	-0.392	0.057
-136.414	-103.242	0.248	0.058
-135.399	-195.522	-0.185	-0.001
-134.385	-125.896	-0.184	-0.027
-133.370	-200.000	-0.032	0.171
-132.356	-63.325	-0.083	-0.034
-131.341	-95.851	-0.053	0.014
-130.326	-200.000	0.005	0.436
-129.312	-200.000	0.052	-0.228
-128.297	-58.443	-0.239	0.103
-127.283	58.947	-0.230	0.224
-126.268	-200.000	-0.004	0.046
-125.253	-200.000	-0.106	-0.553
-124.239	236.952	-0.197	-0.323
-123.224	69.811	-0.099	0.101
-122.210	-200.000	0.054	0.259
