DTS Sentinel unit serial number:	SN413079Multiplexer serial number:	ORYXHardware model number:	OX4-SRSoftware version number:	ORYX F/W v4.00 Oryx Data Collector v3.7.2.0data status	okinstallation	princeton_trtdifferential loss correction	single-endedforward channel	channel 3reverse channel	N/Adate	2019/09/11time	03:58:10forward acquisition time	60.00reverse acquisition time	0.00gamma	496.2192k internal	0.2331k external	0.2331temperature offset calibration	0.9912default loss term (dB/km)	0.3790temperature slope calibration	1.0000multiplexer offset coefficient	1.0000multiplexer slope coefficient	1.0000fibre end	0.00T internal ref (°C)	29.56T ext. ref 1 (°C)	-0.30T ext. ref 2 (°C)	23.68length (m)	temperature (°C)	Stokes	anti-Stokes-747.200	137.399	-0.244	-0.322
-746.185	1.393	-0.246	0.178
-745.171	-111.204	-0.124	-0.026
-744.156	-184.978	-0.389	-0.006
-743.142	85.149	0.065	-0.072
-742.127	-73.447	-0.263	-0.097
-741.112	85.563	0.146	-0.161
-740.098	-200.000	0.029	-0.138
-739.083	117.698	0.109	-0.135
-738.069	404.489	-0.132	0.281
-737.054	89.488	-0.300	-0.337
-736.039	-142.681	-0.185	-0.018
-735.025	-200.000	0.009	0.068
-734.010	235.778	-0.265	-0.441
-732.996	800.000	-0.067	-0.197
-731.981	-141.599	-0.439	0.045
-730.966	211.100	0.153	-0.242
-729.952	-43.838	-0.450	-0.228
-728.937	-126.249	0.154	0.023
-727.923	-200.000	-0.009	-0.085
-726.908	-44.759	-0.212	-0.106
-725.894	493.714	-0.103	0.238
-724.879	68.995	0.153	0.158
-723.864	-116.147	-0.315	-0.059
-722.850	-200.000	0.079	0.379
-721.835	-154.269	0.019	-0.001
-720.821	14.014	-0.097	-0.076
-719.806	330.577	-0.110	0.213
-718.791	-62.705	-0.059	0.025
-717.777	356.711	0.060	-0.120
-716.762	155.399	-0.058	-0.080
-715.748	-200.000	0.041	0.188
-714.733	4.006	-0.207	0.152
-713.718	302.366	-0.113	-0.210
-712.704	-93.780	-0.307	0.085
-711.689	108.549	0.073	-0.087
-710.675	143.637	-0.184	-0.246
-709.660	76.628	-0.193	-0.206
-708.645	-22.881	-0.203	-0.123
-707.631	-46.098	-0.387	-0.192
-706.616	14.973	0.188	-0.148
-705.602	-28.306	-0.274	0.159
-704.587	800.000	0.073	-0.209
-703.572	652.997	-0.139	0.357
-702.558	386.091	0.049	0.101
-701.543	78.269	-0.171	-0.184
-700.529	419.949	0.116	-0.249
-699.514	27.850	-0.235	-0.199
-698.499	630.131	0.064	-0.163
-697.485	-95.320	-0.400	0.108
-696.470	-89.780	-0.528	0.155
-695.456	-11.543	-0.171	-0.113
-694.441	-200.000	0.074	0.357
-693.426	-200.000	0.053	0.274
-692.412	93.847	-0.208	0.237
-691.397	110.537	-0.059	-0.071
-690.383	800.000	-0.086	0.364
-689.368	26.165	-0.256	-0.215
-688.354	376.557	0.168	0.346
-687.339	-16.522	-0.138	0.088
-686.324	-200.000	0.061	-0.389
-685.310	406.673	0.236	0.501
-684.295	155.589	-0.205	-0.283
-683.281	800.000	0.073	0.303
-682.266	-74.329	-0.114	0.041
-681.251	-151.235	0.348	0.026
-680.237	-8.513	-0.086	0.058
-679.222	262.884	0.116	-0.202
-678.208	158.053	0.093	0.129
-677.193	-200.000	0.017	-0.098
-676.178	-3.371	0.212	-0.148
-675.164	-89.157	-0.193	-0.057
-674.149	-200.000	0.003	0.018
-673.135	-58.701	0.295	0.128
-672.120	-116.455	0.271	0.050
-671.105	-200.000	0.024	-0.126
-670.091	-200.000	0.009	-0.067
-669.076	471.496	-0.004	-0.010
-668.062	-200.000	0.099	0.522
-667.047	-31.245	0.506	0.286
-666.032	229.551	-0.075	0.123
-665.018	-3.262	-0.217	0.151
-664.003	-49.260	0.095	0.046
-662.989	-146.154	-0.134	-0.012
-661.974	-98.789	0.148	-0.038
-660.959	-109.911	0.071	-0.015
-659.945	-37.171	-0.138	-0.074
-658.930	559.446	0.139	-0.336
-657.916	-155.149	-0.186	-0.012
-656.901	-200.000	0.060	0.327
-655.886	-200.000	-0.001	0.167
-654.872	-200.000	0.005	-0.084
-653.857	682.007	0.041	0.106
-652.843	-51.608	-0.196	0.092
-651.828	2.442	0.182	0.132
-650.814	-200.000	-0.006	0.077
-649.799	53.852	-0.104	-0.101
-648.784	800.000	0.039	0.113
-647.770	-23.405	0.072	-0.044
-646.755	-200.000	-0.056	0.310
-645.741	141.653	-0.086	-0.115
-644.726	396.436	-0.119	-0.250
-643.711	800.000	0.110	0.379
-642.697	-125.406	-0.128	-0.020
-641.682	-9.424	0.078	0.052
-640.668	-142.672	0.402	0.039
-639.653	161.437	0.005	-0.007
-638.638	510.124	0.033	0.077
-637.624	74.050	-0.098	-0.103
-636.609	11.984	-0.020	0.015
-635.595	-200.000	0.045	0.279
-634.580	800.000	0.119	0.385
-633.565	-200.000	0.000	0.092
-632.551	800.000	-0.101	-0.351
-631.536	-200.000	0.048	-0.251
-630.522	-40.566	-0.199	-0.104
-629.507	-46.744	0.149	-0.073
-628.492	-200.000	0.021	0.247
-627.478	-64.622	-0.117	0.047
-626.463	-48.992	-0.126	-0.060
-625.449	-75.197	-0.158	-0.057
-624.434	206.683	-0.152	-0.237
-623.419	-68.411	0.135	0.052
-622.405	-52.124	-0.095	0.044
-621.390	-89.767	0.055	-0.016
-620.376	-200.000	-0.000	0.340
-619.361	800.000	-0.064	-0.233
-618.346	-94.755	-0.088	0.024
-617.332	8.072	0.349	-0.263
-616.317	445.458	-0.037	0.080
-615.303	-200.000	0.012	-0.234
-614.288	800.000	0.035	-0.130
-613.273	5.066	-0.141	0.104
-612.259	403.010	0.033	0.069
-611.244	98.754	-0.153	-0.177
-610.230	-66.146	0.117	0.047
-609.215	-20.893	-0.186	-0.114
-608.201	-30.016	0.122	0.070
-607.186	-200.000	-0.002	-0.085
-606.171	62.180	-0.243	-0.242
-605.157	-200.000	-0.001	-0.314
-604.142	8.089	-0.082	-0.061
-603.128	-198.464	0.420	-0.002
-602.113	-200.000	-0.055	0.388
-601.098	-200.000	-0.071	0.381
-600.084	32.792	-0.105	-0.091
-599.069	-21.714	0.348	-0.212
-598.055	-32.493	0.193	-0.108
-597.040	-19.514	-0.172	-0.106
-596.025	329.136	0.126	0.242
-595.011	103.643	0.174	-0.204
-593.996	-88.193	0.133	-0.040
-592.982	-148.491	-0.247	-0.020
-591.967	-142.511	0.178	-0.017
-590.952	-200.000	-0.022	-0.207
-589.938	800.000	-0.095	0.381
-588.923	77.002	-0.124	-0.132
-587.909	500.191	-0.049	0.114
-586.894	-75.437	0.093	0.033
-585.879	163.841	-0.015	0.021
-584.865	-97.180	-0.235	0.061
-583.850	132.721	0.056	0.072
-582.836	102.351	0.067	0.079
-581.821	6.846	-0.384	0.286
-580.806	-200.000	-0.049	-0.244
-579.792	10.045	-0.382	0.291
-578.777	-200.000	0.009	-0.153
-577.763	692.066	-0.067	-0.175
-576.748	-159.948	-0.092	0.005
-575.733	377.895	-0.154	0.314
-574.719	-94.594	-0.141	-0.038
-573.704	8.848	-0.155	-0.117
-572.690	-200.000	-0.005	-0.172
-571.675	120.257	-0.112	0.140
-570.661	-64.175	0.140	-0.057
-569.646	-27.103	-0.187	-0.109
-568.631	587.930	-0.052	-0.128
-567.617	-200.000	0.007	-0.107
-566.602	-90.125	-0.155	0.045
-565.588	-200.000	0.006	0.179
-564.573	-23.026	0.139	-0.084
-563.558	82.213	-0.163	-0.176
-562.544	-45.118	-0.062	-0.031
-561.529	46.401	0.243	-0.225
-560.515	326.757	-0.061	0.116
-559.500	-6.660	0.319	-0.217
-558.485	-200.000	-0.015	0.204
-557.471	-200.000	-0.008	0.255
-556.456	-74.982	0.191	0.068
-555.442	-159.653	0.151	0.008
-554.427	202.299	-0.055	-0.085
-553.412	-94.936	-0.260	0.070
-552.398	-200.000	-0.242	-0.000
-551.383	-97.679	0.284	0.073
-550.369	-200.000	-0.011	0.072
-549.354	-1.789	0.232	-0.163
-548.339	721.074	0.037	-0.099
-547.325	-174.677	0.098	-0.003
-546.310	172.481	-0.275	0.396
-545.296	22.052	-0.192	0.157
-544.281	490.907	-0.117	-0.267
-543.266	74.165	0.055	-0.058
-542.252	-15.981	0.092	0.058
-541.237	159.624	0.037	-0.052
-540.223	69.844	-0.175	0.180
-539.208	-76.464	-0.239	-0.084
-538.193	83.268	-0.054	0.059
-537.179	-200.000	0.043	0.358
-536.164	-161.638	-0.218	-0.011
-535.150	43.310	-0.160	-0.146
-534.135	-63.069	0.172	0.071
-533.121	97.971	0.155	0.178
-532.106	-153.438	0.373	-0.026
-531.091	-153.672	-0.305	0.021
-530.077	313.853	-0.039	0.073
-529.062	-29.394	0.275	0.157
-528.048	459.929	0.063	0.140
-527.033	800.000	-0.030	0.100
-526.018	-195.971	0.298	-0.002
-525.004	-8.316	0.326	-0.219
-523.989	161.744	-0.149	0.208
-522.975	422.964	0.097	0.209
-521.960	-200.000	0.020	0.306
-520.945	-160.542	-0.188	-0.010
-519.931	-200.000	-0.017	-0.170
-518.916	-46.516	-0.250	-0.122
-517.902	1.237	0.260	-0.186
-516.887	-92.412	-0.159	-0.045
-515.872	-113.901	0.345	0.067
-514.858	113.217	-0.087	0.105
-513.843	525.694	0.071	-0.167
-512.829	117.405	0.120	0.147
-511.814	49.581	0.074	0.070
-510.799	206.346	0.042	-0.065
-509.785	800.000	-0.011	-0.034
-508.770	64.705	-0.190	0.191
-507.756	800.000	-0.160	-0.462
-506.741	800.000	-0.058	0.171
-505.726	303.437	0.038	-0.071
-504.712	187.712	0.127	-0.189
-503.697	-100.281	0.216	0.053
-502.683	145.913	-0.144	-0.192
-501.668	426.180	0.062	-0.134
-500.653	-63.081	0.396	-0.163
-499.639	183.869	0.069	-0.102
-498.624	3.890	-0.223	-0.162
-497.610	-106.811	-0.083	-0.018
-496.595	-200.000	0.014	0.300
-495.581	47.599	-0.306	-0.284
-494.566	264.347	-0.107	-0.186
-493.551	-176.861	-0.553	-0.014
-492.537	138.436	-0.159	-0.208
-491.522	-103.433	-0.363	-0.085
-490.508	800.000	0.040	-0.149
-489.493	786.030	-0.075	-0.204
-488.478	-200.000	-0.028	-0.196
-487.464	-47.790	-0.070	0.034
-486.449	800.000	0.094	0.299
-485.435	-24.890	-0.194	-0.115
-484.420	-118.280	-0.107	0.019
-483.405	67.791	-0.242	-0.247
-482.391	62.789	0.173	-0.172
-481.376	32.436	0.107	0.092
-480.362	-66.633	0.110	-0.043
-479.347	800.000	0.063	0.265
-478.332	-200.000	-0.079	0.347
-477.318	23.859	0.159	0.131
-476.303	-200.000	-0.023	-0.222
-475.289	-58.118	-0.080	0.035
-474.274	-200.000	-0.019	-0.181
-473.259	-1.184	0.163	0.115
-472.245	-122.783	-0.248	0.040
-471.230	-145.359	-0.082	0.007
-470.216	100.509	-0.146	0.169
-469.201	-200.000	-0.042	-0.201
-468.186	-175.878	-0.186	0.005
-467.172	-64.450	0.173	0.070
-466.157	548.393	-0.107	0.255
-465.143	-92.091	-0.211	0.059
-464.128	-67.698	0.184	0.072
-463.113	231.176	-0.147	-0.240
-462.099	62.694	0.225	-0.224
-461.084	-109.229	0.143	-0.030
-460.070	341.905	0.168	-0.327
-459.055	-34.728	-0.161	0.087
-458.040	380.832	-0.062	-0.126
-457.026	77.184	-0.261	0.276
-456.011	800.000	0.044	0.131
-454.997	-136.419	0.055	0.006
-453.982	-200.000	-0.045	-0.391
-452.968	-200.000	-0.089	-0.578
-451.953	190.800	-0.087	-0.131
-450.938	-114.332	-0.056	0.011
-449.924	16.063	-0.208	0.163
-448.909	130.990	-0.281	0.359
-447.895	-100.385	0.110	-0.027
-446.880	-21.316	0.158	-0.096
-445.865	30.308	-0.102	-0.086
-444.851	-122.487	0.154	0.025
-443.836	-98.755	-0.044	0.011
-442.822	7.598	0.223	-0.166
-441.807	238.094	-0.044	-0.073
-440.792	-83.415	0.064	-0.020
-439.778	-139.991	-0.234	-0.025
-438.763	758.973	0.082	-0.222
-437.749	-55.838	-0.488	0.217
-436.734	80.337	-0.116	-0.124
-435.719	40.523	0.168	-0.150
-434.705	-200.000	0.015	-0.268
-433.690	-74.438	0.112	0.040
-432.676	191.376	-0.111	-0.166
-431.661	-117.209	0.200	-0.036
-430.646	-138.069	0.325	-0.036
-429.632	-200.000	0.003	-0.195
-428.617	-17.920	0.128	-0.080
-427.603	43.647	-0.074	-0.067
-426.588	-34.098	0.425	0.232
-425.573	-33.824	-0.240	-0.131
-424.559	-200.000	0.033	-0.187
-423.544	800.000	0.019	-0.065
-422.530	800.000	0.030	0.112
-421.515	48.144	0.090	-0.084
-420.500	-123.196	0.192	0.031
-419.486	770.547	-0.120	0.324
-418.471	332.096	-0.043	0.083
-417.457	-200.000	0.048	0.247
-416.442	136.056	-0.142	-0.184
-415.428	297.806	-0.008	0.015
-414.413	800.000	-0.202	0.614
-413.398	-200.000	0.013	0.067
-412.384	-200.000	0.073	0.321
-411.369	-156.237	-0.172	0.011
-410.355	-68.361	0.182	0.070
-409.340	-123.538	-0.151	0.024
-408.325	90.933	-0.177	-0.198
-407.311	445.622	-0.035	-0.076
-406.296	800.000	-0.038	-0.105
-405.282	-200.000	0.011	-0.248
-404.267	79.749	-0.404	0.431
-403.252	-46.894	0.348	0.169
-402.238	-200.000	0.016	-0.098
-401.223	-200.000	0.103	0.481
-400.209	-126.938	-0.175	0.026
-399.194	42.338	0.238	-0.215
-398.179	-200.000	-0.002	-0.179
-397.165	-67.871	0.214	-0.083
-396.150	800.000	0.115	-0.326
-395.136	-200.000	0.015	0.073
-394.121	-104.623	-0.348	-0.080
-393.106	-166.652	0.296	0.012
-392.092	-93.891	-0.046	-0.013
-391.077	-35.774	0.034	0.018
-390.063	-63.093	0.172	0.071
-389.048	-73.121	0.296	-0.108
-388.033	22.482	0.155	-0.125
-387.019	299.777	-0.098	-0.179
-386.004	-16.901	0.123	0.077
-384.990	-200.000	-0.018	-0.085
-383.975	641.795	-0.126	-0.318
-382.960	267.371	0.093	-0.162
-381.946	-186.287	0.198	-0.003
-380.931	-30.591	-0.434	0.244
-379.917	275.165	-0.069	-0.122
-378.902	11.427	0.126	-0.095
-377.888	-43.760	-0.047	0.024
-376.873	-200.000	0.060	-0.385
-375.858	-119.406	-0.195	-0.034
-374.844	297.948	0.098	0.179
-373.829	-65.614	0.190	0.076
-372.815	-95.839	0.317	-0.084
-371.800	108.863	-0.098	0.116
-370.785	-108.326	0.098	-0.021
-369.771	17.186	-0.122	0.096
-368.756	-200.000	0.016	0.076
-367.742	61.237	-0.051	0.050
-366.727	800.000	-0.022	0.076
-365.712	-38.335	-0.105	-0.055
-364.698	-200.000	-0.048	-0.303
-363.683	181.238	0.081	0.118
-362.669	800.000	0.008	0.031
-361.654	-200.000	-0.030	0.227
-360.639	-74.533	0.478	-0.171
-359.625	50.947	0.182	-0.171
-358.610	231.507	0.180	-0.292
-357.596	-195.845	-0.290	0.002
-356.581	240.797	0.134	-0.222
-355.566	273.715	-0.170	0.298
-354.552	217.859	0.108	-0.172
-353.537	-200.000	0.004	-0.198
-352.523	-25.352	0.220	-0.129
-351.508	-93.416	-0.159	0.044
-350.493	-131.762	-0.358	-0.047
-349.479	129.905	-0.059	-0.075
-348.464	0.934	-0.269	-0.191
-347.450	-35.426	0.179	-0.096
-346.435	191.459	0.219	-0.327
-345.420	-5.871	-0.080	0.054
-344.406	-200.000	0.006	0.161
-343.391	-36.832	0.266	-0.141
-342.377	219.664	-0.104	-0.165
-341.362	-200.000	0.086	0.528
-340.348	-108.717	0.232	-0.049
-339.333	125.140	-0.060	0.074
-338.318	-51.126	-0.090	-0.042
-337.304	81.729	-0.400	0.429
-336.289	235.607	0.065	0.107
-335.275	-200.000	0.012	0.120
-334.260	19.834	-0.181	0.144
-333.245	-200.000	0.016	0.183
-332.231	-6.522	0.282	0.190
-331.216	-200.000	-0.004	0.056
-330.202	-31.260	0.096	0.054
-329.187	-0.902	0.200	-0.140
-328.172	800.000	0.062	0.186
-327.158	-144.930	0.151	-0.014
-326.143	-61.131	0.265	-0.111
-325.129	-200.000	0.041	-0.228
-324.114	511.631	0.097	-0.223
-323.099	587.023	0.071	0.172
-322.085	425.773	-0.165	-0.351
-321.070	60.766	0.105	-0.103
-320.056	167.077	-0.121	-0.170
-319.041	102.128	-0.072	-0.084
-318.026	539.853	0.118	0.279
-317.012	130.955	0.126	-0.160
-315.997	-55.934	-0.174	-0.077
-314.983	80.710	-0.199	0.212
-313.968	10.878	0.083	-0.062
-312.953	-138.693	0.429	0.046
-311.939	38.239	-0.286	0.252
-310.924	-62.752	-0.292	-0.120
-309.910	-53.353	-0.274	-0.124
-308.895	727.523	0.146	0.386
-307.880	705.864	-0.023	0.059
-306.866	336.282	-0.044	-0.084
-305.851	-53.099	-0.119	0.054
-304.837	218.011	0.023	0.036
-303.822	314.056	0.197	0.366
-302.807	-200.000	-0.029	0.146
-301.793	-200.000	-0.009	-0.106
-300.778	-31.142	-0.084	0.047
-299.764	467.848	0.030	-0.066
-298.749	-97.605	-0.346	-0.089
-297.735	-36.713	0.118	0.063
-296.720	-7.774	0.039	0.026
-295.705	83.205	-0.083	-0.090
-294.691	-200.000	-0.015	0.246
-293.676	239.129	0.182	0.299
-292.662	-27.605	0.160	0.092
-291.647	-122.213	-0.238	-0.039
-290.632	-59.110	-0.191	-0.082
-289.618	113.895	-0.200	-0.241
-288.603	-173.870	0.264	-0.008
-287.589	67.189	-0.075	-0.075
-286.574	30.269	0.165	-0.139
-285.559	800.000	0.064	-0.190
-284.545	57.121	-0.268	-0.259
-283.530	-99.820	0.397	0.098
-282.516	92.019	0.166	0.185
-281.501	-63.291	0.288	-0.117
-280.486	-99.797	0.229	0.057
-279.472	-175.163	0.063	-0.002
-278.457	13.702	-0.167	0.129
-277.443	-131.375	-0.214	-0.028
-276.428	-132.108	-0.108	0.014
-275.413	-47.121	-0.232	-0.112
-274.399	90.537	0.096	0.106
-273.384	-9.042	0.114	0.076
-272.370	-95.736	0.432	-0.114
-271.355	-119.945	-0.309	0.052
-270.340	800.000	-0.046	-0.167
-269.326	-12.844	0.188	0.121
-268.311	-29.118	0.057	0.032
-267.297	-110.482	0.152	0.031
-266.282	-168.462	-0.152	0.006
-265.267	186.259	0.091	0.133
-264.253	547.214	0.063	0.149
-263.238	241.152	0.107	0.176
-262.224	-125.616	-0.155	0.023
-261.209	-184.287	-0.514	0.008
-260.195	-36.753	-0.231	0.122
-259.180	-38.280	-0.117	-0.061
-258.165	-17.958	0.276	-0.171
-257.151	-96.132	-0.205	-0.054
-256.136	800.000	0.041	0.138
-255.122	265.241	0.153	0.263
-254.107	-200.000	-0.016	-0.124
-253.092	-128.283	-0.215	0.030
-252.078	-200.000	0.021	0.254
-251.063	-58.621	-0.295	0.126
-250.049	-87.862	0.496	-0.147
-249.034	45.039	0.318	-0.289
-248.019	245.730	-0.147	0.245
-247.005	57.002	0.225	0.216
-245.990	800.000	-0.066	0.233
-244.976	-132.388	-0.060	-0.008
-243.961	189.887	-0.095	-0.140
-242.946	195.913	-0.035	-0.053
-241.932	-200.000	-0.010	-0.164
-240.917	136.688	-0.180	0.232
-239.903	19.600	0.094	-0.074
-238.888	-200.000	0.018	0.097
-237.873	43.108	-0.124	0.111
-236.859	28.508	0.127	0.106
-235.844	66.459	0.130	0.131
-234.830	-125.322	-0.171	0.026
-233.815	201.265	0.038	-0.057
-232.800	-14.264	-0.101	-0.064
-231.786	116.531	0.107	0.130
-230.771	800.000	0.017	-0.057
-229.757	-121.842	-0.401	0.065
-228.742	-109.018	-0.038	0.008
-227.727	298.569	-0.121	0.220
-226.713	-123.449	0.255	-0.040
-225.698	114.303	-0.136	-0.163
-224.684	-129.283	0.241	0.033
-223.669	-28.748	0.120	-0.068
-222.655	-200.000	-0.014	-0.143
-221.640	-200.000	0.044	0.366
-220.625	-200.000	-0.025	0.128
-219.611	-195.028	-0.200	-0.002
-218.596	-200.000	-0.029	0.174
-217.582	327.565	0.050	-0.094
-216.567	65.541	0.186	0.186
-215.552	-97.718	-0.166	-0.042
-214.538	-200.000	0.002	0.034
-213.523	-200.000	-0.009	0.257
-212.509	-200.000	0.027	-0.162
-211.494	11.588	0.107	0.081
-210.479	44.563	-0.128	-0.116
-209.465	176.778	0.158	0.226
-208.450	519.778	-0.025	-0.057
-207.436	335.358	-0.078	0.149
-206.421	16.180	0.246	-0.191
-205.406	-86.057	0.230	-0.070
-204.392	-65.585	-0.253	-0.100
-203.377	316.051	-0.155	0.288
-202.363	-68.468	0.492	0.188
-201.348	45.513	0.197	0.179
-200.333	103.191	0.061	-0.071
-199.319	27.037	-0.325	-0.269
-198.304	370.136	0.066	0.131
-197.290	-200.000	0.026	-0.213
-196.275	-200.000	0.040	-0.259
-195.260	800.000	0.160	0.477
-194.246	-200.000	-0.001	0.166
-193.231	800.000	-0.066	0.241
-192.217	288.492	-0.038	-0.068
-191.202	-8.161	-0.065	-0.043
-190.187	-115.239	-0.302	0.056
-189.173	35.021	0.093	0.080
-188.158	-145.236	-0.277	-0.025
-187.144	-142.278	-0.192	-0.019
-186.129	245.589	0.049	-0.081
-185.114	-149.718	0.039	-0.003
-184.100	-200.000	0.051	-0.230
-183.085	93.906	-0.121	0.135
-182.071	216.633	-0.106	0.166
-181.056	-103.740	0.107	0.025
-180.042	-41.165	0.089	-0.045
-179.027	-157.226	0.418	-0.025
-178.012	-35.822	-0.071	-0.038
-176.998	-138.447	0.325	0.035
-175.983	-200.000	0.014	0.342
-174.969	-105.273	0.429	0.096
-173.954	92.311	-0.188	0.209
-172.939	-25.781	-0.259	0.150
-171.925	113.638	-0.085	0.101
-170.910	167.126	-0.098	-0.136
-169.896	96.850	0.163	0.184
-168.881	-200.000	0.007	0.059
-167.866	88.241	0.035	0.038
-166.852	156.157	-0.070	-0.095
-165.837	-200.000	0.021	0.209
-164.823	56.190	-0.223	-0.213
-163.808	196.760	0.080	-0.120
-162.793	-200.000	-0.095	-0.473
-161.779	445.652	-0.104	-0.225
-160.764	-123.015	0.038	0.006
-159.750	-200.000	0.021	0.314
-158.735	-52.445	0.313	0.142
-157.720	149.192	0.149	-0.198
-156.706	-70.586	0.218	-0.081
-155.691	33.757	0.095	-0.082
-154.677	-200.000	0.023	-0.344
-153.662	409.095	-0.114	-0.238
-152.647	11.853	0.097	0.074
-151.633	-43.219	0.332	-0.165
-150.618	-24.426	0.381	0.223
-149.604	-200.000	0.207	0.001
-148.589	193.532	-0.186	-0.277
-147.574	-112.093	0.223	-0.044
-146.560	-200.000	0.045	-0.335
-145.545	-134.523	-0.229	0.027
-144.531	154.904	0.207	0.280
-143.516	239.766	0.080	0.131
-142.502	446.979	0.050	-0.108
-141.487	-152.895	0.159	-0.011
-140.472	110.883	0.190	0.225
-139.458	800.000	-0.036	-0.103
-138.443	-93.644	0.076	0.021
-137.429	34.830	0.300	0.258
-136.414	-62.003	-0.216	-0.089
-135.399	158.096	-0.129	0.176
-134.385	-200.000	-0.001	0.032
-133.370	56.905	0.199	-0.191
-132.356	-43.898	-0.253	0.125
-131.341	566.419	-0.072	0.171
-130.326	7.384	0.095	0.070
-129.312	-77.837	-0.299	0.101
-128.297	-123.533	-0.342	0.053
-127.283	-200.000	-0.072	-0.403
-126.268	-100.697	-0.280	-0.068
-125.253	23.471	-0.149	0.121
-124.239	105.794	-0.102	0.119
-123.224	-81.018	-0.157	0.051
-122.210	70.583	-0.131	-0.133
-121.195	-55.161	0.167	0.074
