DTS Sentinel unit serial number:	SN413079Multiplexer serial number:	ORYXHardware model number:	OX4-SRSoftware version number:	ORYX F/W v4.00 Oryx Data Collector v3.7.2.0data status	okinstallation	princeton_trtdifferential loss correction	single-endedforward channel	channel 3reverse channel	N/Adate	2019/09/12time	01:10:11forward acquisition time	60.00reverse acquisition time	0.00gamma	496.2192k internal	0.2320k external	0.2320temperature offset calibration	1.0071default loss term (dB/km)	0.3790temperature slope calibration	1.0000multiplexer offset coefficient	1.0000multiplexer slope coefficient	1.0000fibre end	0.00T internal ref (°C)	33.06T ext. ref 1 (°C)	2.10T ext. ref 2 (°C)	27.72length (m)	temperature (°C)	Stokes	anti-Stokes-747.200	-106.925	0.338	-0.076
-746.185	-41.996	0.355	-0.184
-745.171	349.621	-0.167	-0.333
-744.156	-78.777	0.400	0.138
-743.142	0.641	-0.077	-0.055
-742.127	-63.426	-0.131	0.055
-741.112	591.820	0.040	0.100
-740.098	406.735	0.145	0.309
-739.083	354.188	0.096	0.193
-738.069	-3.783	0.167	0.117
-737.054	-179.268	-0.140	0.003
-736.039	-87.400	-0.138	0.042
-735.025	-200.000	0.012	0.173
-734.010	-95.858	-0.161	0.043
-732.996	800.000	-0.021	0.069
-731.981	-76.264	-0.282	0.100
-730.966	-200.000	-0.026	-0.130
-729.952	102.318	-0.183	-0.216
-728.937	-66.920	-0.396	-0.158
-727.923	-96.123	-0.043	0.012
-726.908	12.317	0.177	-0.138
-725.894	308.735	-0.106	-0.200
-724.879	-59.758	0.101	0.044
-723.864	-57.772	-0.272	-0.120
-722.850	295.216	-0.046	-0.085
-721.835	-31.679	-0.438	0.248
-720.821	66.071	-0.137	0.141
-719.806	-12.041	-0.197	0.130
-718.791	800.000	-0.083	-0.298
-717.777	-200.000	0.031	-0.219
-716.762	-65.748	0.316	-0.128
-715.748	178.439	-0.273	0.403
-714.733	-200.000	-0.017	-0.181
-713.718	800.000	0.046	-0.181
-712.704	-200.000	0.021	-0.241
-711.689	197.726	0.126	0.194
-710.675	131.604	0.104	-0.134
-709.660	800.000	-0.112	0.420
-708.645	-153.593	-0.155	-0.011
-707.631	38.608	0.225	0.203
-706.616	-41.208	-0.044	0.023
-705.602	-46.087	0.208	0.104
-704.587	-200.000	0.001	-0.030
-703.572	-200.000	-0.003	-0.132
-702.558	601.773	0.143	-0.358
-701.543	-125.408	-0.085	-0.013
-700.529	-200.000	0.037	0.279
-699.514	23.145	-0.245	0.203
-698.499	108.393	0.042	-0.050
-697.485	65.526	0.347	0.355
-696.470	-86.880	-0.342	-0.105
-695.456	-200.000	0.003	-0.403
-694.441	21.810	-0.288	-0.237
-693.426	135.858	0.053	0.069
-692.412	18.330	-0.138	0.111
-691.397	388.283	-0.080	-0.167
-690.383	2.087	-0.317	-0.231
-689.368	-21.989	0.155	-0.095
-688.354	-110.653	-0.141	0.029
-687.339	-178.749	0.215	-0.005
-686.324	225.530	-0.008	0.014
-685.310	198.058	-0.125	-0.193
-684.295	-200.000	0.006	-0.400
-683.281	-129.820	-0.151	0.021
-682.266	-89.421	-0.197	-0.058
-681.251	-198.691	0.304	0.002
-680.237	22.775	0.076	-0.062
-679.222	-53.504	-0.146	0.068
-678.208	340.823	0.106	-0.209
-677.193	-200.000	-0.017	-0.163
-676.178	456.002	-0.132	-0.296
-675.164	-56.990	0.181	-0.081
-674.149	-200.000	0.239	0.001
-673.135	-200.000	0.002	0.204
-672.120	-96.851	-0.257	-0.068
-671.105	800.000	0.116	-0.346
-670.091	-66.100	-0.097	0.039
-669.076	30.855	0.165	-0.143
-668.062	-200.000	-0.000	-0.215
-667.047	-23.902	0.225	-0.136
-666.032	698.968	-0.055	-0.145
-665.018	185.134	-0.031	-0.046
-664.003	-150.209	0.142	-0.011
-662.989	-200.000	0.003	-0.073
-661.974	-97.055	0.308	-0.081
-660.959	34.813	0.125	-0.110
-659.945	-162.925	-0.099	-0.005
-658.930	188.562	-0.223	-0.336
-657.916	248.932	-0.229	-0.391
-656.901	568.188	0.099	0.242
-655.886	-114.359	-0.179	0.035
-654.872	-200.000	0.031	-0.204
-653.857	-200.000	0.002	0.225
-652.843	8.878	0.146	0.111
-651.828	-58.849	0.091	-0.040
-650.814	-22.443	0.250	-0.153
-649.799	-138.168	-0.308	0.034
-648.784	800.000	0.065	0.239
-647.770	-50.219	-0.370	0.176
-646.755	-200.000	0.051	-0.304
-645.741	800.000	0.025	-0.091
-644.726	-109.136	-0.214	0.046
-643.711	-36.800	-0.151	-0.082
-642.697	338.811	0.252	-0.494
-641.682	800.000	-0.062	-0.196
-640.668	288.345	-0.082	-0.149
-639.653	800.000	-0.035	0.102
-638.638	80.674	0.276	0.300
-637.624	56.487	-0.213	0.209
-636.609	-51.018	-0.304	-0.143
-635.595	-84.160	0.187	-0.060
-634.580	102.100	-0.137	0.161
-633.565	-68.981	0.052	0.020
-632.551	549.178	0.041	0.098
-631.536	-37.681	0.156	-0.084
-630.522	39.026	0.032	0.029
-629.507	-51.513	-0.200	0.094
-628.492	-75.396	0.156	0.056
-627.478	800.000	-0.035	0.136
-626.463	-33.261	-0.254	-0.142
-625.449	-15.293	-0.420	0.270
-624.434	493.879	0.086	0.199
-623.419	-200.000	0.009	0.056
-622.405	-200.000	-0.001	-0.073
-621.390	117.056	0.012	0.015
-620.376	280.551	-0.058	-0.104
-619.361	-200.000	-0.011	0.176
-618.346	256.825	-0.200	0.345
-617.332	369.767	-0.249	0.507
-616.317	-79.852	-0.296	-0.100
-615.303	-85.377	0.095	-0.030
-614.288	373.503	0.099	-0.202
-613.273	304.832	-0.070	0.131
-612.259	-200.000	-0.057	0.270
-611.244	399.176	-0.039	-0.082
-610.230	-140.405	0.261	0.027
-609.215	-200.000	0.023	-0.173
-608.201	468.289	0.080	-0.180
-607.186	-124.455	-0.243	-0.038
-606.171	800.000	0.048	0.160
-605.157	-40.376	0.193	-0.101
-604.142	-4.568	0.065	-0.045
-603.128	-45.383	-0.328	-0.164
-602.113	-200.000	-0.014	-0.155
-601.098	-72.505	-0.143	-0.053
-600.084	131.122	-0.066	0.085
-599.069	462.953	0.030	-0.068
-598.055	760.930	0.043	-0.117
-597.040	153.553	-0.208	-0.286
-596.025	-1.388	-0.056	0.040
-595.011	-2.719	-0.138	0.097
-593.996	382.301	0.068	0.140
-592.982	-42.203	-0.316	-0.162
-591.967	76.120	0.258	0.275
-590.952	-156.583	-0.300	0.019
-589.938	800.000	-0.064	-0.217
-588.923	9.567	0.191	0.145
-587.909	-200.000	0.034	-0.264
-586.894	-169.287	-0.057	0.002
-585.879	150.636	-0.029	0.040
-584.865	26.721	-0.130	0.109
-583.850	-114.103	0.315	-0.061
-582.836	-19.782	-0.306	0.190
-581.821	-73.008	0.240	-0.089
-580.806	800.000	0.088	-0.374
-579.792	-200.000	0.033	0.237
-578.777	-88.732	0.199	0.059
-577.763	6.978	0.313	-0.235
-576.748	159.700	0.145	0.203
-575.733	173.189	-0.164	-0.238
-574.719	800.000	0.102	-0.327
-573.704	-15.636	-0.114	-0.073
-572.690	-42.502	0.112	0.057
-571.675	13.040	0.104	-0.081
-570.661	-178.901	-0.112	0.003
-569.646	672.356	-0.164	-0.426
-568.631	-23.451	0.215	-0.130
-567.617	-77.375	-0.408	0.142
-566.602	-47.925	0.359	-0.174
-565.588	747.528	0.037	0.100
-564.573	64.803	-0.081	0.082
-563.558	-22.016	0.109	-0.067
-562.544	-200.000	-0.013	-0.057
-561.529	800.000	0.078	-0.288
-560.515	-80.786	0.085	-0.028
-559.500	800.000	-0.033	-0.141
-558.485	-200.000	0.093	-0.594
-557.471	106.236	-0.044	-0.053
-556.456	272.894	0.196	-0.347
-555.442	150.815	-0.123	-0.168
-554.427	-160.165	-0.144	-0.008
-553.412	11.636	-0.319	-0.246
-552.398	-108.756	0.252	-0.054
-551.383	-200.000	-0.078	0.430
-550.369	285.019	-0.062	-0.113
-549.354	-200.000	0.012	0.264
-548.339	-37.084	0.083	0.045
-547.325	193.910	0.208	-0.316
-546.310	277.246	0.098	-0.176
-545.296	118.805	0.071	0.088
-544.281	-200.000	0.024	-0.123
-543.266	336.227	0.067	-0.131
-542.252	-138.211	-0.199	-0.022
-541.237	520.558	-0.106	0.250
-540.223	-200.000	-0.030	-0.218
-539.208	318.305	0.072	0.137
-538.193	-160.420	-0.303	0.016
-537.179	17.041	0.092	-0.073
-536.164	-30.938	0.450	-0.255
-535.150	16.522	-0.104	-0.082
-534.135	-110.013	-0.155	-0.032
-533.121	-144.685	-0.330	-0.030
-532.106	-12.773	0.527	0.344
-531.091	213.202	-0.132	-0.210
-530.077	-162.285	-0.190	0.010
-529.062	-54.481	0.154	0.070
-528.048	75.349	0.123	0.130
-527.033	328.916	-0.059	0.114
-526.018	38.224	0.358	0.320
-525.004	-200.000	-0.014	-0.252
-523.989	653.171	0.026	0.067
-522.975	-200.000	0.034	-0.239
-521.960	-200.000	0.045	0.398
-520.945	198.144	0.040	0.061
-519.931	-81.524	0.077	-0.025
-518.916	458.134	0.102	0.227
-517.902	-127.960	0.105	-0.015
-516.887	-79.837	0.173	0.058
-515.872	-200.000	0.004	0.025
-514.858	-200.000	0.010	0.155
-513.843	-146.159	-0.319	-0.028
-512.829	-88.482	0.214	-0.064
-511.814	191.432	-0.068	-0.103
-510.799	272.430	0.098	-0.174
-509.785	-125.097	0.108	-0.017
-508.770	-90.467	-0.384	-0.112
-507.756	-65.958	-0.214	0.086
-506.741	-200.000	0.063	-0.453
-505.726	-29.723	-0.350	-0.200
-504.712	164.639	-0.150	0.212
-503.697	-72.878	-0.180	-0.066
-502.683	-132.811	-0.127	-0.016
-501.668	800.000	0.154	-0.576
-500.653	165.066	-0.035	-0.050
-499.639	800.000	0.087	0.251
-498.624	-200.000	0.020	0.092
-497.610	-94.921	0.037	-0.010
-496.595	86.876	-0.236	0.261
-495.581	15.516	-0.222	0.175
-494.566	-131.500	0.121	0.016
-493.551	87.801	-0.085	-0.095
-492.537	65.289	0.098	0.099
-491.522	28.591	-0.176	-0.149
-490.508	-200.000	0.034	-0.184
-489.493	297.607	-0.171	-0.315
-488.478	-200.000	0.036	0.240
-487.464	-132.444	0.037	0.005
-486.449	-137.223	0.098	-0.011
-485.435	41.810	-0.141	-0.128
-484.420	800.000	-0.083	-0.346
-483.405	-52.255	-0.295	0.137
-482.391	-28.776	0.160	-0.092
-481.376	-12.405	-0.437	-0.286
-480.362	-138.017	-0.304	-0.034
-479.347	-125.216	-0.046	0.007
-478.332	172.122	0.012	-0.017
-477.318	134.551	-0.239	-0.310
-476.303	-200.000	-0.004	-0.058
-475.289	800.000	-0.086	0.342
-474.274	-0.956	0.126	-0.089
-473.259	140.386	-0.076	-0.101
-472.245	-57.795	0.200	-0.088
-471.230	-27.443	-0.093	-0.054
-470.216	285.545	0.093	0.167
-469.201	79.755	-0.196	0.210
-468.186	318.746	-0.070	-0.133
-467.172	465.528	-0.046	-0.103
-466.157	-129.064	-0.325	-0.045
-465.143	-53.503	-0.299	-0.137
-464.128	800.000	-0.020	0.064
-463.113	-18.159	0.106	0.066
-462.099	800.000	-0.084	-0.320
-461.084	-15.758	-0.064	0.041
-460.070	-200.000	-0.002	0.061
-459.055	206.460	-0.133	0.208
-458.040	229.711	-0.161	-0.263
-457.026	258.562	0.095	-0.163
-456.011	147.360	0.186	0.251
-454.997	-95.306	0.162	0.044
-453.982	217.416	-0.174	0.277
-452.968	33.498	-0.149	-0.129
-451.953	310.834	0.147	-0.275
-450.938	-93.819	0.134	-0.037
-449.924	-180.243	0.272	-0.006
-448.909	-33.387	-0.134	-0.074
-447.895	-26.662	-0.140	-0.082
-446.880	-200.000	-0.004	-0.092
-445.865	-200.000	-0.020	0.140
-444.851	-45.178	0.240	-0.119
-443.836	341.136	-0.091	-0.179
-442.822	-139.749	0.292	0.031
-441.807	800.000	0.112	-0.392
-440.792	188.618	0.168	-0.251
-439.778	27.729	0.330	0.278
-438.763	-32.065	0.340	0.190
-437.749	188.847	0.045	-0.067
-436.734	-174.924	-0.170	0.005
-435.719	-110.634	0.168	0.035
-434.705	332.153	0.099	-0.191
-433.690	-200.000	-0.000	0.208
-432.676	-85.567	0.161	0.050
-431.661	-74.232	-0.157	-0.057
-430.646	-76.316	-0.135	0.048
-429.632	-65.552	-0.171	-0.069
-428.617	-200.000	-0.055	-0.438
-427.603	15.706	0.134	0.105
-426.588	-89.073	-0.299	0.088
-425.573	-37.621	-0.267	0.142
-424.559	-200.000	0.019	-0.158
-423.544	125.970	0.209	-0.264
-422.530	76.348	-0.159	-0.168
-421.515	-200.000	-0.059	-0.369
-420.500	-9.729	-0.066	-0.044
-419.486	-200.000	0.019	-0.342
-418.471	-90.154	-0.179	0.052
-417.457	146.734	0.303	-0.406
-416.442	-43.241	0.241	-0.122
-415.428	63.622	0.268	-0.268
-414.413	-92.570	-0.234	0.066
-413.398	104.692	-0.214	0.252
-412.384	-113.125	0.204	0.040
-411.369	99.782	0.137	-0.158
-410.355	307.419	0.066	-0.122
-409.340	-5.223	-0.130	-0.089
-408.325	-200.000	0.047	-0.239
-407.311	177.021	-0.188	0.273
-406.296	-200.000	0.012	0.340
-405.282	304.488	-0.148	0.274
-404.267	-200.000	0.062	0.404
-403.252	156.209	-0.035	0.048
-402.238	-200.000	-0.005	0.299
-401.223	-30.390	0.551	0.312
-400.209	800.000	0.046	-0.170
-399.194	-200.000	0.018	-0.312
-398.179	166.668	0.299	0.422
-397.165	19.854	-0.160	0.128
-396.150	1.045	0.256	-0.183
-395.136	-90.625	0.214	0.062
-394.121	-200.000	-0.002	0.086
-393.106	800.000	0.071	0.281
-392.092	-3.562	0.106	0.074
-391.077	79.067	-0.121	0.129
-390.063	-130.889	-0.234	-0.031
-389.048	231.060	0.103	0.168
-388.033	-200.000	0.004	-0.055
-387.019	-8.658	0.055	-0.037
-386.004	10.074	-0.144	0.109
-384.990	277.729	-0.135	0.239
-383.975	258.903	0.051	0.088
-382.960	-77.626	-0.167	-0.058
-381.946	-139.456	0.412	-0.044
-380.931	-140.187	-0.504	0.053
-379.917	-55.124	0.100	0.045
-378.902	-200.000	-0.067	0.498
-377.888	-200.000	0.023	0.109
-376.873	41.271	-0.043	-0.038
-375.858	14.305	-0.155	-0.121
-374.844	42.087	0.093	-0.084
-373.829	125.267	0.271	-0.341
-372.815	15.133	0.050	0.039
-371.800	-188.962	0.211	0.003
-370.785	538.734	-0.118	0.280
-369.771	800.000	-0.030	0.109
-368.756	-85.957	0.147	-0.045
-367.742	-25.575	0.115	0.068
-366.727	-78.106	0.161	-0.055
-365.712	-176.367	-0.119	-0.003
-364.698	443.914	0.071	0.156
-363.683	-90.807	-0.262	0.075
-362.669	41.356	0.123	0.110
-361.654	25.233	0.292	0.241
-360.639	265.236	-0.052	0.091
-359.625	-200.000	0.012	0.106
-358.610	358.009	0.256	0.509
-357.596	-97.600	0.523	-0.135
-356.581	544.960	-0.076	-0.181
-355.566	725.148	-0.037	0.097
-354.552	-200.000	-0.023	-0.612
-353.537	437.315	-0.147	0.318
-352.523	-14.968	-0.437	0.279
-351.508	-46.767	-0.354	-0.173
-350.493	-200.000	-0.006	-0.050
-349.479	-38.612	-0.067	0.035
-348.464	-10.528	-0.417	-0.275
-347.450	-137.456	0.165	0.019
-346.435	-200.000	0.009	-0.467
-345.420	22.998	0.098	-0.080
-344.406	0.554	-0.090	0.064
-343.391	44.153	0.259	-0.236
-342.377	-200.000	0.038	0.442
-341.362	25.724	0.036	-0.030
-340.348	-133.086	0.376	0.047
-339.333	-59.173	-0.336	-0.144
-338.318	-200.000	0.007	0.075
-337.304	383.306	-0.058	0.118
-336.289	186.534	0.120	-0.178
-335.275	272.378	0.065	-0.115
-334.260	-44.065	0.130	-0.065
-333.245	203.207	-0.086	0.133
-332.231	108.145	0.240	-0.285
-331.216	-84.147	-0.155	-0.049
-330.202	-200.000	-0.097	0.000
-329.187	287.460	-0.146	0.264
-328.172	37.491	-0.103	-0.091
-327.158	-78.289	0.481	-0.164
-326.143	800.000	0.050	0.180
-325.129	36.923	0.225	0.198
-324.114	-10.588	-0.282	0.186
-323.099	-92.339	-0.283	0.079
-322.085	-25.622	0.180	-0.106
-321.070	-155.471	-0.521	-0.033
-320.056	61.834	0.221	-0.219
-319.041	-200.000	-0.015	0.066
-318.026	155.412	0.177	0.242
-317.012	-34.549	0.032	-0.018
-315.997	-29.243	-0.122	0.070
-314.983	675.079	-0.058	0.150
-313.968	-136.198	-0.304	0.035
-312.953	52.905	-0.161	-0.153
-311.939	-200.000	0.022	0.156
-310.924	-200.000	0.025	-0.123
-309.910	-200.000	-0.001	0.014
-308.895	-176.407	0.214	0.006
-307.880	86.486	0.192	0.210
-306.866	800.000	0.032	0.136
-305.851	110.870	0.144	0.173
-304.837	546.312	-0.123	-0.292
-303.822	-24.750	-0.254	-0.150
-302.807	-171.226	-0.063	0.002
-301.793	2.393	-0.067	-0.048
-300.778	-128.530	0.131	0.018
-299.764	-200.000	0.038	0.219
-298.749	747.945	-0.134	-0.359
-297.735	-129.567	-0.162	-0.022
-296.720	570.282	0.047	-0.114
-295.705	-97.105	-0.510	-0.133
-294.691	-200.000	-0.005	0.042
-293.676	-91.598	-0.100	-0.028
-292.662	-49.165	0.184	0.087
-291.647	-26.098	0.082	0.048
-290.632	75.493	-0.196	0.205
-289.618	-182.545	-0.289	-0.005
-288.603	-151.808	0.035	0.003
-287.589	-200.000	-0.001	-0.074
-286.574	-47.318	0.438	0.212
-285.559	-200.000	0.016	-0.113
-284.545	-92.426	-0.274	0.077
-283.530	-200.000	0.031	-0.299
-282.516	-117.917	0.381	0.068
-281.501	-200.000	-0.093	0.579
-280.486	411.282	-0.095	0.199
-279.472	274.465	-0.115	-0.202
-278.457	415.769	0.074	-0.156
-277.443	212.099	0.081	0.126
-276.428	109.511	-0.191	0.227
-275.413	-4.266	-0.004	-0.003
-274.399	304.313	0.037	-0.069
-273.384	-72.870	-0.109	-0.040
-272.370	271.318	0.085	0.149
-271.355	181.971	0.171	-0.251
-270.340	-104.460	0.192	0.044
-269.326	-200.000	-0.009	-0.071
-268.311	-200.000	0.027	0.234
-267.297	-200.000	-0.063	0.524
-266.282	-120.515	0.231	-0.039
-265.267	272.327	0.135	0.237
-264.253	-134.752	0.412	-0.050
-263.238	-85.186	0.324	-0.101
-262.224	-200.000	0.001	0.126
-261.209	800.000	-0.043	0.129
-260.195	-200.000	0.070	-0.360
-259.180	-200.000	-0.020	-0.127
-258.165	-200.000	0.007	0.038
-257.151	-127.139	0.388	-0.056
-256.136	19.713	0.210	0.168
-255.122	-200.000	0.006	0.058
-254.107	-200.000	-0.004	0.181
-253.092	477.649	-0.117	-0.264
-252.078	-88.296	-0.112	-0.033
-251.063	-200.000	0.022	0.263
-250.049	96.993	-0.172	-0.195
-249.034	4.919	0.118	-0.086
-248.019	59.426	0.291	0.284
-247.005	-55.075	-0.255	0.114
-245.990	23.039	0.086	0.070
-244.976	-200.000	0.055	0.373
-243.961	168.969	0.176	0.249
-242.946	-39.802	-0.197	0.102
-241.932	77.610	0.143	0.151
-240.917	62.995	-0.112	-0.111
-239.903	275.301	-0.092	-0.162
-238.888	-200.000	0.006	0.196
-237.873	88.527	0.042	-0.046
-236.859	-189.471	0.174	0.002
-235.844	385.240	-0.111	-0.227
-234.830	-105.816	-0.163	-0.037
-233.815	-148.378	0.302	-0.025
-232.800	-109.853	-0.315	-0.066
-231.786	-56.929	-0.244	-0.107
-230.771	123.097	-0.067	-0.084
-229.757	-0.707	-0.142	0.100
-228.742	-188.818	0.473	0.006
-227.727	-200.000	0.003	-0.031
-226.713	-200.000	0.011	0.178
-225.698	-200.000	-0.025	-0.140
-224.684	-54.939	-0.117	-0.052
-223.669	14.886	-0.304	-0.236
-222.655	-130.728	-0.347	0.046
-221.640	336.028	0.072	0.137
-220.625	102.277	0.137	-0.158
-219.611	32.621	0.165	-0.141
-218.596	-19.233	-0.179	-0.110
-217.582	32.548	0.185	0.158
-216.567	415.614	0.081	0.171
-215.552	447.451	0.108	-0.236
-214.538	-129.556	0.279	-0.038
-213.523	318.390	-0.058	0.108
-212.509	-168.206	0.362	0.014
-211.494	153.541	0.155	0.210
-210.479	41.039	-0.409	0.366
-209.465	646.859	-0.029	-0.073
-208.450	-200.000	0.031	0.218
-207.436	-130.824	-0.139	0.018
-206.421	-152.898	0.185	0.013
-205.406	-92.381	0.333	0.093
-204.392	-95.820	0.137	-0.036
-203.377	-200.000	-0.014	0.092
-202.363	285.617	-0.087	0.155
-201.348	800.000	0.059	0.200
-200.333	-29.431	-0.179	-0.101
-199.319	88.596	0.117	0.128
-198.304	-87.680	-0.144	-0.043
-197.290	-66.317	0.256	-0.101
-196.275	153.176	-0.094	-0.127
-195.260	-28.067	0.260	-0.149
-194.246	-140.141	0.303	-0.032
-193.231	-0.525	0.374	0.263
-192.217	-21.513	0.180	-0.109
-191.202	116.240	-0.102	0.124
-190.187	-7.733	-0.381	0.255
-189.173	800.000	-0.090	0.327
-188.158	181.171	0.197	0.286
-187.144	-61.545	-0.180	0.075
-186.129	800.000	-0.073	-0.205
-185.114	714.740	-0.099	0.261
-184.100	-21.895	0.257	-0.155
-183.085	351.071	0.103	0.202
-182.071	283.537	0.087	-0.154
-181.056	-200.000	0.011	-0.417
-180.042	-179.907	-0.108	-0.002
-179.027	-98.403	0.149	0.038
-178.012	-43.377	-0.087	-0.044
-176.998	-200.000	0.070	0.437
-175.983	105.320	0.181	0.212
-174.969	97.661	-0.123	0.140
-173.954	-200.000	0.005	-0.317
-172.939	82.410	-0.132	-0.141
-171.925	-200.000	0.022	-0.154
-170.910	300.325	0.049	-0.089
-169.896	-72.817	-0.544	0.198
-168.881	194.465	-0.066	-0.098
-167.866	138.302	0.120	0.156
-166.852	-107.486	-0.003	-0.001
-165.837	800.000	0.061	-0.175
-164.823	-23.501	0.174	0.104
-163.808	-10.353	0.165	-0.108
-162.793	-151.808	-0.088	0.006
-161.779	-200.000	-0.019	-0.293
-160.764	-60.981	-0.395	0.165
-159.750	-200.000	-0.038	0.420
-158.735	63.262	0.103	-0.102
-157.720	-93.732	-0.183	0.050
-156.706	383.746	0.096	-0.195
-155.691	-15.576	0.401	0.253
-154.677	535.554	-0.041	-0.096
-153.662	22.082	0.147	-0.118
-152.647	800.000	-0.045	-0.161
-151.633	-200.000	0.009	0.287
-150.618	-85.774	0.251	-0.077
-149.604	-97.443	-0.129	0.033
-148.589	107.936	-0.140	0.165
-147.574	-34.307	-0.240	0.130
-146.560	-97.554	0.139	0.036
-145.545	-114.650	0.212	-0.040
-144.531	381.905	-0.189	-0.383
-143.516	259.031	0.199	0.339
-142.502	-151.898	0.197	-0.014
-141.487	-91.285	0.354	0.100
-140.472	-200.000	0.015	0.094
-139.458	-102.539	-0.152	-0.036
-138.443	206.312	-0.144	-0.221
-137.429	-118.999	-0.251	-0.043
-136.414	-97.563	-0.261	0.067
-135.399	-32.003	0.180	-0.099
-134.385	-114.562	-0.201	0.038
-133.370	120.966	0.035	0.043
-132.356	116.875	-0.215	-0.260
-131.341	135.929	-0.093	0.120
-130.326	-200.000	-0.004	-0.192
-129.312	372.969	-0.122	-0.245
-128.297	-200.000	0.012	0.090
-127.283	35.246	0.023	0.020
-126.268	-32.051	-0.313	0.173
-125.253	246.027	-0.194	-0.323
-124.239	68.320	0.261	0.264
-123.224	-9.715	0.231	0.152
-122.210	36.647	-0.041	-0.036
