DTS Sentinel unit serial number:	SN413079Multiplexer serial number:	ORYXHardware model number:	OX4-SRSoftware version number:	ORYX F/W v4.00 Oryx Data Collector v3.7.2.0data status	okinstallation	princeton_trtdifferential loss correction	single-endedforward channel	channel 3reverse channel	N/Adate	2019/09/10time	22:46:10forward acquisition time	60.00reverse acquisition time	0.00gamma	496.2192k internal	0.2331k external	0.2331temperature offset calibration	0.9917default loss term (dB/km)	0.3790temperature slope calibration	1.0000multiplexer offset coefficient	1.0000multiplexer slope coefficient	1.0000fibre end	0.00T internal ref (°C)	30.19T ext. ref 1 (°C)	-0.32T ext. ref 2 (°C)	23.58length (m)	temperature (°C)	Stokes	anti-Stokes-747.200	40.972	0.439	-0.399
-746.185	-39.734	0.357	0.188
-745.171	-114.384	0.099	-0.019
-744.156	797.110	-0.035	0.096
-743.142	401.820	-0.126	-0.267
-742.127	800.000	0.052	0.171
-741.112	-157.380	0.250	0.015
-740.098	-200.000	-0.009	-0.049
-739.083	139.823	-0.132	-0.176
-738.069	104.405	-0.410	0.486
-737.054	-32.553	-0.258	-0.145
-736.039	-28.235	-0.306	-0.178
-735.025	800.000	-0.028	0.095
-734.010	-200.000	-0.037	-0.404
-732.996	-33.887	-0.105	-0.058
-731.981	-150.500	-0.092	-0.007
-730.966	490.928	0.185	0.427
-729.952	-200.000	-0.004	-0.021
-728.937	-104.238	-0.275	0.064
-727.923	-123.663	-0.222	0.035
-726.908	481.388	0.087	-0.198
-725.894	52.145	-0.223	-0.214
-724.879	671.351	-0.164	-0.426
-723.864	800.000	0.042	0.135
-722.850	457.729	0.050	-0.111
-721.835	800.000	0.009	0.038
-720.821	-67.434	-0.335	0.132
-719.806	800.000	-0.057	-0.202
-718.791	711.872	-0.033	0.089
-717.777	800.000	-0.052	-0.172
-716.762	261.868	0.150	-0.261
-715.748	657.706	-0.133	-0.344
-714.733	447.751	0.030	-0.065
-713.718	169.770	0.091	-0.130
-712.704	800.000	0.084	-0.249
-711.689	712.255	0.035	-0.094
-710.675	122.960	-0.155	-0.195
-709.660	800.000	-0.103	0.299
-708.645	75.325	-0.187	-0.198
-707.631	-65.982	-0.106	-0.042
-706.616	-45.024	0.184	-0.092
-705.602	550.424	-0.033	-0.079
-704.587	-91.685	-0.062	0.018
-703.572	399.316	-0.096	-0.201
-702.558	-142.680	-0.101	-0.010
-701.543	-17.770	-0.094	-0.060
-700.529	156.479	-0.282	0.392
-699.514	308.722	-0.182	0.342
-698.499	-116.177	-0.106	0.020
-697.485	-119.162	0.239	0.042
-696.470	-200.000	0.018	-0.088
-695.456	-200.000	0.012	-0.263
-694.441	800.000	0.134	-0.511
-693.426	228.387	0.073	-0.119
-692.412	200.880	0.109	-0.168
-691.397	145.871	-0.142	-0.192
-690.383	21.306	0.102	0.084
-689.368	800.000	-0.052	0.185
-688.354	-95.983	0.321	-0.086
-687.339	800.000	0.060	-0.194
-686.324	101.779	0.115	-0.134
-685.310	25.135	-0.063	-0.052
-684.295	-200.000	-0.003	-0.125
-683.281	-22.950	-0.065	-0.039
-682.266	43.586	-0.133	-0.122
-681.251	-5.590	-0.182	-0.125
-680.237	800.000	-0.056	-0.206
-679.222	344.418	-0.187	-0.368
-678.208	-29.991	0.222	0.127
-677.193	429.444	0.089	-0.192
-676.178	800.000	-0.161	0.454
-675.164	-68.966	-0.115	0.045
-674.149	82.373	0.094	-0.103
-673.135	-48.780	-0.071	0.034
-672.120	-160.439	-0.192	-0.010
-671.105	-200.000	0.010	-0.068
-670.091	-28.705	-0.211	0.122
-669.076	-33.203	0.143	-0.079
-668.062	364.936	0.122	0.247
-667.047	41.284	0.144	-0.131
-666.032	-200.000	0.005	-0.291
-665.018	-200.000	0.015	-0.265
-664.003	17.666	-0.235	-0.188
-662.989	-200.000	0.026	-0.405
-661.974	71.257	-0.215	-0.224
-660.959	349.693	-0.169	0.335
-659.945	538.673	0.117	0.279
-658.930	217.264	0.128	-0.204
-657.916	-200.000	-0.044	-0.307
-656.901	180.426	0.164	0.242
-655.886	5.442	0.222	-0.165
-654.872	800.000	-0.076	0.262
-653.857	800.000	0.036	-0.133
-652.843	-90.128	0.325	-0.095
-651.828	-148.790	-0.378	0.031
-650.814	-73.090	0.045	0.017
-649.799	117.779	0.137	0.169
-648.784	65.600	-0.267	-0.271
-647.770	-200.000	-0.021	0.242
-646.755	-19.992	0.141	-0.087
-645.741	299.348	-0.113	0.208
-644.726	-64.146	-0.057	-0.023
-643.711	237.492	0.154	-0.255
-642.697	566.686	0.172	-0.417
-641.682	-200.000	-0.046	-0.324
-640.668	85.877	0.202	-0.223
-639.653	-200.000	0.028	-0.158
-638.638	508.986	-0.094	0.219
-637.624	321.399	0.197	-0.375
-636.609	102.388	-0.099	-0.116
-635.595	-81.202	0.252	-0.083
-634.580	-152.729	-0.484	-0.035
-633.565	-181.812	0.519	0.010
-632.551	157.939	-0.062	0.086
-631.536	-200.000	-0.015	0.137
-630.522	571.353	0.097	0.236
-629.507	-0.657	-0.086	0.061
-628.492	440.633	0.183	0.401
-627.478	-103.981	0.196	0.046
-626.463	454.668	0.156	0.346
-625.449	-142.056	-0.097	0.010
-624.434	25.229	-0.259	0.215
-623.419	-53.079	0.213	0.098
-622.405	-93.827	-0.100	0.028
-621.390	-33.028	-0.192	0.107
-620.376	102.549	-0.076	0.089
-619.361	154.778	0.077	-0.106
-618.346	176.494	-0.202	0.293
-617.332	-51.803	0.524	0.244
-616.317	800.000	-0.066	0.249
-615.303	214.409	-0.097	-0.154
-614.288	-29.897	0.154	-0.088
-613.273	47.539	-0.100	0.093
-612.259	-92.448	-0.135	-0.038
-611.244	64.474	-0.247	-0.249
-610.230	23.268	-0.161	-0.132
-609.215	30.719	-0.194	0.166
-608.201	-200.000	0.054	0.244
-607.186	-29.663	-0.165	0.094
-606.171	-190.426	0.316	0.003
-605.157	52.405	0.243	-0.232
-604.142	22.426	0.190	0.156
-603.128	-30.201	-0.458	0.261
-602.113	-63.402	-0.051	-0.021
-601.098	-169.863	-0.207	0.007
-600.084	-65.858	-0.183	0.073
-599.069	-147.229	0.261	-0.022
-598.055	146.660	-0.136	0.183
-597.040	-112.550	0.271	-0.054
-596.025	15.899	-0.222	-0.175
-595.011	-67.950	-0.115	-0.045
-593.996	-200.000	-0.043	0.236
-592.982	107.453	-0.082	-0.097
-591.967	174.880	0.064	0.093
-590.952	288.374	0.157	-0.285
-589.938	-72.107	0.226	-0.084
-588.923	584.350	0.094	0.230
-587.909	175.759	-0.120	0.174
-586.894	135.208	0.009	0.012
-585.879	-200.000	0.014	0.438
-584.865	82.145	0.133	-0.144
-583.850	58.187	-0.066	0.065
-582.836	800.000	0.031	-0.103
-581.821	15.777	-0.257	0.202
-580.806	-24.120	-0.259	-0.155
-579.792	-142.856	0.274	-0.027
-578.777	-71.478	-0.323	-0.121
-577.763	-200.000	0.068	-0.358
-576.748	152.095	-0.163	-0.222
-575.733	118.455	-0.266	0.328
-574.719	59.592	-0.177	0.175
-573.704	-32.480	-0.125	0.069
-572.690	-67.171	0.334	0.131
-571.675	800.000	0.035	0.131
-570.661	264.721	0.146	0.254
-569.646	-131.234	-0.078	-0.010
-568.631	7.999	-0.163	0.122
-567.617	-83.479	-0.345	0.110
-566.602	481.785	0.103	0.234
-565.588	-6.086	0.029	-0.020
-564.573	-12.602	-0.207	-0.135
-563.558	-200.000	-0.048	0.250
-562.544	6.069	-0.054	0.040
-561.529	800.000	-0.068	-0.290
-560.515	-82.977	-0.103	-0.033
-559.500	-5.681	0.108	0.074
-558.485	-200.000	-0.030	0.185
-557.471	-53.647	-0.247	0.113
-556.456	297.991	-0.151	0.277
-555.442	146.597	0.153	0.206
-554.427	800.000	-0.041	0.155
-553.412	-200.000	-0.066	-0.323
-552.398	287.079	0.184	0.331
-551.383	-52.056	0.279	0.129
-550.369	-79.009	0.389	0.132
-549.354	338.404	-0.104	-0.203
-548.339	-130.153	-0.237	-0.032
-547.325	317.319	0.048	0.090
-546.310	269.397	-0.021	0.037
-545.296	249.581	0.100	-0.170
-544.281	-200.000	-0.020	0.264
-543.266	147.845	0.170	0.229
-542.252	-148.051	-0.229	-0.019
-541.237	100.583	0.158	-0.183
-540.223	800.000	0.033	0.094
-539.208	-36.840	-0.206	0.110
-538.193	-172.285	-0.103	0.003
-537.179	130.457	0.206	-0.264
-536.164	800.000	-0.060	-0.228
-535.150	547.098	-0.117	0.280
-534.135	44.412	0.103	0.095
-533.121	-10.981	-0.363	-0.239
-532.106	-47.757	0.342	-0.166
-531.091	800.000	-0.188	-0.568
-530.077	-200.000	0.033	-0.287
-529.062	-200.000	0.007	-0.291
-528.048	-24.834	-0.213	0.126
-527.033	-200.000	-0.026	-0.190
-526.018	-96.067	-0.079	0.021
-525.004	-69.716	-0.230	-0.088
-523.989	216.912	0.186	0.295
-522.975	-1.793	-0.198	0.139
-521.960	28.607	0.106	0.089
-520.945	240.266	0.128	0.214
-519.931	-54.634	-0.422	-0.190
-518.916	-2.677	0.081	0.057
-517.902	-105.762	-0.296	-0.067
-516.887	-89.134	-0.162	0.048
-515.872	-120.628	-0.190	-0.032
-514.858	-123.414	-0.148	0.023
-513.843	251.340	-0.135	0.229
-512.829	22.586	0.095	0.078
-511.814	112.603	0.075	0.091
-510.799	258.492	-0.097	0.166
-509.785	-33.173	0.076	0.042
-508.770	-145.377	-0.068	0.006
-507.756	-76.533	0.194	-0.068
-506.741	61.374	0.275	-0.273
-505.726	-200.000	0.043	0.232
-504.712	-165.225	-0.159	0.007
-503.697	163.289	0.298	-0.418
-502.683	136.896	-0.055	0.072
-501.668	-200.000	-0.000	-0.029
-500.653	287.281	0.019	-0.034
-499.639	800.000	0.085	-0.340
-498.624	-152.388	0.120	-0.009
-497.610	-115.609	-0.285	0.053
-496.595	123.242	0.161	0.202
-495.581	-22.761	-0.098	0.059
-494.566	133.189	-0.055	-0.071
-493.551	329.331	0.141	0.269
-492.537	-97.664	-0.128	0.033
-491.522	-128.595	-0.163	-0.023
-490.508	184.883	-0.126	-0.186
-489.493	-178.969	-0.318	0.007
-488.478	-145.750	0.220	-0.020
-487.464	350.141	0.127	0.250
-486.449	-30.357	-0.194	0.110
-485.435	108.053	0.138	-0.164
-484.420	-200.000	-0.001	-0.270
-483.405	202.728	-0.117	0.179
-482.391	59.273	-0.033	-0.032
-481.376	310.514	-0.123	0.229
-480.362	-200.000	-0.045	-0.207
-479.347	44.713	0.197	-0.180
-478.332	-200.000	0.037	-0.452
-477.318	-65.699	0.140	-0.056
-476.303	800.000	-0.093	-0.268
-475.289	-38.065	0.237	-0.125
-474.274	-84.413	-0.140	0.044
-473.259	187.854	-0.070	0.105
-472.245	-200.000	-0.015	-0.287
-471.230	207.997	0.121	0.188
-470.216	11.441	-0.218	0.166
-469.201	-156.907	0.272	-0.017
-468.186	-69.849	0.111	-0.042
-467.172	-87.505	-0.336	-0.101
-466.157	33.126	0.242	-0.209
-465.143	-200.000	0.066	0.326
-464.128	-200.000	-0.006	0.387
-463.113	264.633	0.169	0.293
-462.099	800.000	-0.065	0.184
-461.084	-200.000	-0.056	-0.252
-460.070	-18.485	0.205	0.127
-459.055	105.142	0.131	-0.154
-458.040	-14.918	0.172	-0.110
-457.026	39.056	0.209	0.186
-456.011	-98.699	-0.129	0.033
-454.997	-108.031	0.427	0.092
-453.982	226.049	0.176	0.284
-452.968	-121.468	0.046	0.008
-451.953	115.502	-0.090	-0.109
-450.938	-136.957	0.175	-0.020
-449.924	3.980	-0.116	0.084
-448.909	-22.040	-0.170	0.102
-447.895	622.685	0.123	-0.309
-446.880	262.605	0.105	-0.182
-445.865	-93.273	0.252	0.070
-444.851	-39.353	0.017	0.009
-443.836	-70.544	0.189	0.071
-442.822	800.000	-0.138	0.380
-441.807	-98.503	0.041	0.010
-440.792	-64.455	0.024	0.010
-439.778	10.801	0.204	-0.155
-438.763	205.811	-0.063	-0.097
-437.749	354.014	-0.085	-0.169
-436.734	800.000	0.074	-0.289
-435.719	-200.000	-0.018	-0.286
-434.705	29.098	-0.195	-0.165
-433.690	179.423	-0.126	0.183
-432.676	-77.075	-0.219	-0.076
-431.661	-75.476	-0.207	0.073
-430.646	353.576	-0.070	0.138
-429.632	-31.240	0.053	-0.029
-428.617	213.106	0.043	0.068
-427.603	-57.575	-0.188	0.082
-426.588	-107.321	0.307	0.067
-425.573	395.431	0.124	0.256
-424.559	-23.595	0.150	0.090
-423.544	-200.000	-0.004	0.237
-422.530	24.715	-0.136	0.112
-421.515	30.610	0.166	0.141
-420.500	251.225	-0.057	0.097
-419.486	-107.597	0.372	-0.081
-418.471	335.028	-0.069	-0.134
-417.457	152.007	0.150	0.204
-416.442	65.665	-0.114	-0.115
-415.428	-28.631	0.167	-0.096
-414.413	280.129	0.193	-0.342
-413.398	16.780	0.148	-0.116
-412.384	800.000	0.064	-0.192
-411.369	-200.000	0.009	0.079
-410.355	-200.000	0.031	0.376
-409.340	691.153	-0.057	0.148
-408.325	800.000	-0.023	0.069
-407.311	-29.877	-0.334	-0.189
-406.296	-24.898	0.044	-0.026
-405.282	442.006	-0.027	-0.059
-404.267	-122.210	0.174	-0.028
-403.252	-81.691	-0.176	0.057
-402.238	96.907	-0.154	-0.176
-401.223	32.280	0.156	-0.134
-400.209	-200.000	0.018	-0.089
-399.194	-10.878	0.104	0.068
-398.179	58.969	-0.074	0.072
-397.165	-130.581	-0.129	-0.017
-396.150	374.683	0.135	-0.273
-395.136	-46.027	-0.117	0.057
-394.121	791.495	-0.059	-0.161
-393.106	-200.000	-0.021	-0.122
-392.092	-200.000	0.001	-0.142
-391.077	-38.827	0.268	0.140
-390.063	-108.543	0.241	-0.051
-389.048	800.000	0.047	-0.149
-388.033	260.255	0.154	-0.263
-387.019	-130.105	-0.286	0.039
-386.004	-115.941	0.286	-0.053
-384.990	-64.241	-0.434	0.175
-383.975	62.707	-0.116	-0.115
-382.960	301.491	0.171	0.313
-381.946	511.144	0.083	-0.191
-380.931	337.081	-0.029	-0.057
-379.917	800.000	0.111	0.409
-378.902	-8.030	0.315	-0.211
-377.888	-86.029	0.101	-0.031
-376.873	-76.346	0.339	-0.118
-375.858	-200.000	-0.000	0.116
-374.844	734.713	-0.149	-0.395
-373.829	-22.338	-0.203	0.122
-372.815	102.422	-0.174	-0.202
-371.800	-109.761	-0.227	-0.047
-370.785	-6.058	0.202	-0.137
-369.771	-157.805	-0.315	0.019
-368.756	-200.000	0.003	0.148
-367.742	5.619	-0.238	-0.174
-366.727	-87.337	0.304	0.092
-365.712	-97.420	-0.395	-0.102
-364.698	-58.480	0.213	-0.092
-363.683	140.979	-0.041	-0.054
-362.669	-200.000	-0.069	0.387
-361.654	-70.178	-0.274	0.103
-360.639	550.351	-0.052	0.124
-359.625	800.000	-0.062	0.262
-358.610	723.066	0.135	0.356
-357.596	-104.649	0.197	-0.045
-356.581	-40.901	0.164	0.084
-355.566	-200.000	-0.016	-0.090
-354.552	437.360	0.123	0.266
-353.537	-110.633	-0.415	0.085
-352.523	89.977	-0.185	-0.204
-351.508	-200.000	0.010	0.095
-350.493	6.349	-0.275	-0.202
-349.479	-171.190	-0.172	-0.006
-348.464	-35.726	0.151	-0.081
-347.450	-85.355	-0.062	0.019
-346.435	-200.000	0.105	0.460
-345.420	-104.648	-0.162	0.037
-344.406	13.857	-0.238	0.183
-343.391	233.514	0.230	-0.375
-342.377	50.090	-0.223	-0.208
-341.362	800.000	0.092	-0.266
-340.348	119.904	0.135	0.166
-339.333	-200.000	-0.010	-0.166
-338.318	-64.777	0.054	-0.022
-337.304	-81.809	-0.103	-0.033
-336.289	-200.000	-0.011	0.365
-335.275	265.180	0.110	0.190
-334.260	245.292	-0.227	-0.378
-333.245	34.757	0.052	0.045
-332.231	50.218	0.191	-0.179
-331.216	-200.000	0.069	-0.337
-330.202	87.802	0.158	-0.173
-329.187	-23.672	0.310	0.184
-328.172	25.275	0.174	0.143
-327.158	137.884	-0.192	0.249
-326.143	154.913	-0.203	0.277
-325.129	164.601	-0.201	0.280
-324.114	667.750	-0.082	0.209
-323.099	-42.075	-0.043	-0.022
-322.085	566.252	-0.044	-0.106
-321.070	-7.631	-0.017	-0.011
-320.056	5.378	-0.101	0.073
-319.041	-100.108	-0.278	0.069
-318.026	92.220	0.249	0.277
-317.012	-22.266	0.228	-0.137
-315.997	67.122	-0.103	0.104
-314.983	-200.000	0.048	0.253
-313.968	-200.000	-0.019	-0.483
-312.953	-35.852	0.110	0.059
-311.939	800.000	-0.025	-0.105
-310.924	-45.182	-0.154	-0.076
-309.910	-108.792	0.154	-0.033
-308.895	9.379	-0.113	-0.085
-307.880	-200.000	0.050	0.456
-306.866	289.574	-0.165	-0.297
-305.851	196.428	-0.100	0.151
-304.837	279.008	0.070	-0.124
-303.822	107.362	-0.222	-0.261
-302.807	72.613	0.147	-0.151
-301.793	-7.031	-0.094	-0.063
-300.778	-101.987	-0.251	-0.060
-299.764	62.660	-0.092	0.090
-298.749	-46.589	0.122	0.059
-297.735	190.534	0.089	0.133
-296.720	800.000	-0.043	0.163
-295.705	39.254	0.369	-0.327
-294.691	-141.975	0.402	0.040
-293.676	142.148	-0.178	0.234
-292.662	800.000	0.103	-0.333
-291.647	20.784	-0.031	-0.025
-290.632	800.000	-0.082	-0.306
-289.618	800.000	-0.060	0.216
-288.603	-34.594	-0.182	-0.098
-287.589	322.305	-0.031	0.059
-286.574	91.535	-0.269	0.299
-285.559	103.559	-0.079	-0.092
-284.545	62.433	0.215	-0.212
-283.530	657.945	-0.096	-0.245
-282.516	-200.000	0.029	0.255
-281.501	-109.993	0.155	-0.032
-280.486	349.679	0.123	-0.240
-279.472	800.000	0.092	-0.290
-278.457	357.227	-0.101	-0.199
-277.443	-200.000	0.055	-0.334
-276.428	-14.332	-0.095	-0.061
-275.413	-80.065	-0.118	-0.039
-274.399	32.818	-0.230	0.197
-273.384	-54.373	0.048	0.022
-272.370	-200.000	0.063	0.373
-271.355	-200.000	0.063	0.449
-270.340	800.000	-0.071	0.198
-269.326	5.846	-0.152	-0.111
-268.311	293.110	0.126	0.227
-267.297	-25.462	-0.317	-0.185
-266.282	63.793	-0.297	-0.295
-265.267	-181.183	-0.364	0.007
-264.253	476.422	0.141	-0.314
-263.238	-191.674	0.154	0.002
-262.224	-73.091	-0.401	-0.145
-261.209	-37.236	0.225	0.119
-260.195	104.101	0.207	-0.241
-259.180	-23.112	0.140	-0.083
-258.165	-101.890	-0.018	-0.004
-257.151	77.407	0.155	-0.163
-256.136	-17.929	-0.087	0.054
-255.122	680.156	0.085	0.219
-254.107	-107.832	0.397	0.085
-253.092	-200.000	-0.013	-0.295
-252.078	-26.927	-0.118	-0.068
-251.063	800.000	-0.057	0.168
-250.049	-84.356	0.025	-0.008
-249.034	139.207	0.090	-0.117
-248.019	-182.921	-0.211	0.004
-247.005	-15.714	-0.198	0.125
-245.990	-161.537	0.119	-0.006
-244.976	-200.000	-0.022	-0.322
-243.961	77.214	0.162	-0.170
-242.946	-200.000	-0.041	-0.432
-241.932	243.569	-0.033	-0.054
-240.917	273.586	0.074	-0.130
-239.903	3.590	0.247	0.178
-238.888	91.077	-0.131	-0.145
-237.873	74.629	0.234	0.243
-236.859	-86.975	-0.369	-0.111
-235.844	-128.680	0.250	-0.035
-234.830	800.000	-0.091	0.266
-233.815	303.079	-0.173	-0.316
-232.800	-17.080	-0.179	-0.111
-231.786	231.586	-0.025	0.040
-230.771	414.521	0.215	-0.452
-229.757	800.000	0.085	-0.284
-228.742	-200.000	0.021	0.099
-227.727	-140.109	0.293	0.030
-226.713	-132.281	0.204	0.026
-225.698	76.906	0.100	-0.104
-224.684	-3.630	0.098	0.068
-223.669	-190.339	-0.236	0.003
-222.655	-175.932	-0.148	0.004
-221.640	176.070	0.146	0.209
-220.625	748.182	0.081	0.215
-219.611	800.000	0.100	-0.295
-218.596	-29.866	0.148	-0.083
-217.582	-74.826	0.107	0.038
-216.567	-43.052	0.352	-0.176
-215.552	-103.304	-0.331	0.077
-214.538	65.675	-0.093	0.093
-213.523	89.260	-0.071	0.078
-212.509	-200.000	-0.038	-0.360
-211.494	-200.000	0.003	-0.103
-210.479	56.492	0.329	0.315
-209.465	-200.000	0.014	-0.105
-208.450	174.006	0.172	-0.245
-207.436	-36.075	-0.153	-0.081
-206.421	298.407	-0.131	-0.237
-205.406	28.052	-0.116	-0.097
-204.392	-48.795	0.256	0.121
-203.377	-36.781	-0.112	-0.059
-202.363	47.559	0.105	-0.096
-201.348	-200.000	0.026	0.279
-200.333	-164.645	-0.207	0.009
-199.319	-200.000	0.021	-0.303
-198.304	-18.998	-0.063	0.038
-197.290	-200.000	0.012	0.140
-196.275	181.761	0.075	0.109
-195.260	800.000	-0.066	0.216
-194.246	800.000	-0.084	-0.277
-193.231	-200.000	-0.010	-0.316
-192.217	-108.016	-0.350	0.075
-191.202	-102.625	0.318	-0.075
-190.187	800.000	0.030	-0.094
-189.173	-50.395	0.127	0.059
-188.158	82.592	-0.040	-0.043
-187.144	44.970	0.325	0.295
-186.129	-149.797	0.126	-0.010
-185.114	28.236	-0.383	0.318
-184.100	-87.949	0.130	0.039
-183.085	-125.166	-0.238	-0.036
-182.071	191.499	-0.132	-0.195
-181.056	369.110	0.157	0.313
-180.042	-108.902	0.199	-0.042
-179.027	-11.514	-0.218	-0.141
-178.012	800.000	-0.021	-0.062
-176.998	61.944	0.274	0.269
-175.983	800.000	-0.132	0.423
-174.969	-200.000	-0.031	0.173
-173.954	-0.785	0.240	0.167
-172.939	-51.946	-0.174	0.080
-171.925	268.279	0.130	0.225
-170.910	-200.000	0.058	-0.288
-169.896	16.722	-0.200	0.156
-168.881	670.752	0.102	0.260
-167.866	-59.741	0.157	-0.066
-166.852	-18.515	-0.238	-0.146
-165.837	-123.708	0.109	-0.017
-164.823	278.430	-0.127	0.223
-163.808	-113.797	-0.140	0.027
-162.793	-143.521	-0.227	-0.021
-161.779	202.113	0.177	-0.269
-160.764	76.019	-0.191	0.198
-159.750	203.106	0.071	-0.108
-158.735	48.962	0.109	-0.101
-157.720	7.353	-0.220	-0.162
-156.706	800.000	0.057	0.175
-155.691	66.984	0.090	0.090
-154.677	143.663	0.201	-0.263
-153.662	47.195	0.323	-0.296
-152.647	-105.503	0.153	-0.034
-151.633	239.519	0.162	0.265
-150.618	800.000	0.030	0.091
-149.604	800.000	0.126	0.364
-148.589	800.000	-0.052	0.169
-147.574	272.921	-0.093	-0.161
-146.560	200.811	-0.105	-0.159
-145.545	688.313	-0.075	-0.194
-144.531	-71.494	-0.192	-0.071
-143.516	-36.810	-0.218	-0.115
-142.502	-82.802	-0.064	-0.020
-141.487	738.950	-0.074	0.194
-140.472	545.070	0.014	0.032
-139.458	-200.000	0.389	0.001
-138.443	87.167	0.143	-0.156
-137.429	-200.000	0.057	0.301
-136.414	113.622	-0.161	-0.193
-135.399	-51.543	-0.154	0.071
-134.385	-12.660	-0.073	-0.047
-133.370	-200.000	0.004	-0.034
-132.356	-200.000	0.052	0.343
-131.341	150.543	0.092	0.123
-130.326	758.043	-0.103	-0.275
-129.312	3.602	0.183	0.131
-128.297	-41.052	-0.241	0.122
-127.283	-95.677	0.338	0.089
-126.268	143.275	-0.110	-0.144
-125.253	-86.547	0.121	0.037
-124.239	-200.000	0.016	0.241
-123.224	-85.852	-0.318	-0.097
-122.210	64.136	-0.064	-0.063
-121.195	-97.114	0.208	-0.053
