DTS Sentinel unit serial number:	SN413079Multiplexer serial number:	ORYXHardware model number:	OX4-SRSoftware version number:	ORYX F/W v4.00 Oryx Data Collector v3.7.2.0data status	okinstallation	princeton_trtdifferential loss correction	single-endedforward channel	channel 3reverse channel	N/Adate	2019/09/11time	15:22:11forward acquisition time	60.00reverse acquisition time	0.00gamma	496.2192k internal	0.2290k external	0.2290temperature offset calibration	0.9981default loss term (dB/km)	0.3790temperature slope calibration	1.0000multiplexer offset coefficient	1.0000multiplexer slope coefficient	1.0000fibre end	0.00T internal ref (°C)	42.87T ext. ref 1 (°C)	0.98T ext. ref 2 (°C)	36.67length (m)	temperature (°C)	Stokes	anti-Stokes-747.200	-64.395	-0.420	-0.175
-746.185	21.282	-0.286	0.238
-745.171	-160.730	0.299	-0.016
-744.156	-200.000	-0.055	0.469
-743.142	-106.311	-0.093	-0.021
-742.127	-39.922	0.104	0.056
-741.112	450.856	-0.033	0.074
-740.098	159.642	-0.124	-0.176
-739.083	151.974	-0.190	0.265
-738.069	71.405	0.163	0.173
-737.054	-35.010	0.334	0.187
-736.039	-124.693	-0.081	0.013
-735.025	-12.673	0.185	0.124
-734.010	-108.257	0.213	-0.047
-732.996	129.193	-0.058	-0.076
-731.981	-200.000	0.024	-0.306
-730.966	187.995	0.118	0.180
-729.952	-89.504	-0.286	-0.086
-728.937	-86.024	-0.087	-0.027
-727.923	800.000	-0.055	0.189
-726.908	362.071	-0.185	-0.380
-725.894	14.092	-0.394	-0.315
-724.879	255.855	0.133	-0.234
-723.864	97.952	0.223	-0.262
-722.850	-200.000	-0.018	-0.187
-721.835	-200.000	-0.029	-0.304
-720.821	260.808	-0.099	-0.176
-719.806	32.775	0.150	0.133
-718.791	318.039	0.216	-0.419
-717.777	543.374	-0.055	-0.135
-716.762	106.110	0.015	0.018
-715.748	10.526	-0.307	-0.240
-714.733	-51.672	0.193	-0.092
-713.718	-129.926	0.335	0.047
-712.704	6.828	-0.201	-0.153
-711.689	800.000	0.078	-0.271
-710.675	199.596	-0.135	0.211
-709.660	-111.347	-0.487	-0.102
-708.645	197.527	0.102	-0.159
-707.631	245.302	-0.159	-0.273
-706.616	57.103	-0.146	-0.146
-705.602	468.006	0.055	-0.125
-704.587	408.651	-0.108	-0.233
-703.572	328.658	-0.011	-0.021
-702.558	72.118	0.099	0.105
-701.543	71.719	0.278	0.296
-700.529	-200.000	-0.016	0.267
-699.514	-7.816	0.129	-0.089
-698.499	-78.720	0.261	0.091
-697.485	608.285	-0.088	-0.224
-696.470	-49.362	0.422	-0.206
-695.456	-163.780	-0.378	0.018
-694.441	57.017	0.182	0.181
-693.426	119.281	0.194	0.245
-692.412	-135.140	0.269	0.033
-691.397	-200.000	0.019	-0.188
-690.383	336.246	-0.117	-0.232
-689.368	249.106	0.046	0.080
-688.354	96.071	-0.169	-0.197
-687.339	-107.897	-0.190	0.042
-686.324	53.566	-0.180	-0.176
-685.310	800.000	-0.161	0.493
-684.295	800.000	-0.028	-0.100
-683.281	-200.000	-0.022	-0.284
-682.266	202.859	-0.185	-0.292
-681.251	338.146	-0.047	0.094
-680.237	-200.000	0.023	0.223
-679.222	51.147	-0.173	0.168
-678.208	-0.670	0.187	-0.136
-677.193	52.080	0.262	-0.255
-676.178	427.787	0.040	-0.089
-675.164	-144.203	-0.262	0.025
-674.149	-200.000	-0.005	-0.083
-673.135	-69.458	-0.196	0.077
-672.120	-200.000	0.030	-0.158
-671.105	77.839	-0.161	-0.175
-670.091	-105.499	0.078	-0.018
-669.076	-102.902	-0.479	0.116
-668.062	116.165	-0.161	0.202
-667.047	6.798	0.120	0.091
-666.032	10.635	0.215	0.167
-665.018	75.946	-0.256	-0.276
-664.003	107.789	-0.181	0.220
-662.989	-110.283	-0.363	-0.077
-661.974	215.467	0.166	-0.269
-660.959	-41.952	0.070	0.037
-659.945	110.075	0.049	0.060
-658.930	-191.649	0.139	-0.001
-657.916	-37.007	0.116	-0.063
-656.901	97.138	-0.159	-0.187
-655.886	89.734	-0.068	0.078
-654.872	-144.177	0.164	0.016
-653.857	-200.000	0.018	0.090
-652.843	304.939	-0.081	-0.153
-651.828	-200.000	0.018	0.333
-650.814	-200.000	-0.410	0.000
-649.799	-139.677	0.062	0.007
-648.784	-200.000	0.027	0.268
-647.770	404.612	-0.192	-0.414
-646.755	-171.804	-0.259	0.009
-645.741	80.455	-0.156	0.171
-644.726	-200.000	0.008	-0.211
-643.711	-173.519	-0.165	0.005
-642.697	-148.995	-0.293	-0.024
-641.682	-26.327	-0.323	-0.193
-640.668	800.000	-0.081	0.275
-639.653	800.000	-0.053	0.174
-638.638	136.334	0.087	-0.115
-637.624	-139.135	0.165	-0.018
-636.609	-69.830	-0.269	0.105
-635.595	-159.797	-0.108	-0.006
-634.580	-97.092	-0.147	0.039
-633.565	800.000	0.057	0.168
-632.551	95.185	0.334	0.388
-631.536	145.939	0.069	0.095
-630.522	67.421	-0.041	-0.043
-629.507	240.384	0.165	0.281
-628.492	800.000	0.048	0.197
-627.478	-103.896	-0.064	0.015
-626.463	29.468	0.139	0.120
-625.449	-200.000	-0.313	0.001
-624.434	800.000	0.078	0.305
-623.419	-17.899	0.039	0.025
-622.405	328.835	-0.127	0.248
-621.390	68.443	-0.287	-0.300
-620.376	-148.080	-0.304	0.026
-619.361	41.476	-0.080	0.074
-618.346	-200.000	-0.009	0.295
-617.332	800.000	-0.041	-0.146
-616.317	189.009	0.109	-0.166
-615.303	-200.000	-0.020	0.261
-614.288	-120.227	0.234	-0.041
-613.273	265.427	0.227	-0.403
-612.259	-146.351	-0.405	-0.036
-611.244	-140.317	-0.113	0.012
-610.230	5.444	0.208	0.157
-609.215	-55.785	-0.246	0.112
-608.201	-39.351	-0.062	-0.033
-607.186	800.000	-0.069	-0.210
-606.171	719.291	0.047	-0.127
-605.157	-76.488	0.547	0.196
-604.142	-32.054	-0.185	-0.105
-603.128	-74.992	-0.158	-0.058
-602.113	44.655	-0.135	0.127
-601.098	2.064	0.213	-0.156
-600.084	292.969	-0.122	0.226
-599.069	440.666	-0.136	0.303
-598.055	-52.861	-0.015	0.007
-597.040	-197.062	-0.311	-0.002
-596.025	180.784	-0.075	-0.112
-595.011	264.093	-0.119	0.211
-593.996	26.919	-0.278	0.237
-592.982	157.975	0.108	0.153
-591.967	-61.963	-0.312	-0.133
-590.952	-83.515	-0.353	-0.115
-589.938	-115.987	0.074	-0.014
-588.923	312.580	0.097	-0.186
-587.909	-200.000	-0.009	-0.140
-586.894	-200.000	-0.045	0.317
-585.879	65.316	0.047	-0.049
-584.865	-32.973	-0.176	0.100
-583.850	101.432	-0.042	-0.050
-582.836	348.707	0.208	0.417
-581.821	-52.570	0.125	-0.059
-580.806	-26.961	-0.095	0.057
-579.792	-84.231	0.201	0.065
-578.777	-153.831	0.134	-0.009
-577.763	-81.341	0.187	-0.063
-576.748	-200.000	0.069	-0.538
-575.733	254.747	0.048	0.084
-574.719	368.944	-0.075	-0.153
-573.704	78.302	-0.098	-0.107
-572.690	-56.161	-0.180	-0.082
-571.675	3.405	0.342	-0.254
-570.661	284.102	0.042	-0.077
-569.646	-200.000	0.013	0.113
-568.631	629.808	-0.131	0.337
-567.617	800.000	0.049	-0.183
-566.602	598.286	-0.040	0.101
-565.588	-13.706	-0.081	-0.053
-564.573	-59.268	-0.168	-0.074
-563.558	-200.000	-0.027	0.239
-562.544	-60.637	0.187	0.081
-561.529	119.919	-0.055	0.069
-560.515	18.185	-0.066	0.054
-559.500	-200.000	-0.005	0.145
-558.485	-36.183	-0.238	-0.131
-557.471	-170.996	-0.156	-0.005
-556.456	800.000	0.019	0.067
-555.442	-140.605	-0.110	0.012
-554.427	-140.296	0.295	-0.031
-553.412	-65.859	0.191	-0.078
-552.398	-13.463	-0.111	-0.073
-551.383	-181.544	0.341	-0.007
-550.369	-200.000	0.095	0.000
-549.354	587.348	-0.149	-0.372
-548.339	138.571	-0.074	-0.099
-547.325	800.000	-0.059	0.178
-546.310	409.349	0.097	-0.210
-545.296	-120.758	0.426	-0.073
-544.281	-200.000	0.019	0.169
-543.266	-29.383	0.082	-0.047
-542.252	37.728	0.465	-0.420
-541.237	-200.000	0.008	0.235
-540.223	379.724	-0.091	-0.189
-539.208	236.264	0.092	0.154
-538.193	-200.000	-0.006	-0.128
-537.179	-31.815	0.112	0.064
-536.164	345.823	0.235	0.469
-535.150	-62.802	-0.093	0.039
-534.135	800.000	0.049	0.156
-533.121	-138.998	0.076	-0.008
-532.106	77.478	0.073	0.079
-531.091	643.587	-0.110	-0.286
-530.077	-20.036	-0.187	0.117
-529.062	-200.000	-0.076	-0.357
-528.048	-200.000	-0.015	-0.328
-527.033	681.071	0.104	0.276
-526.018	-156.786	0.298	-0.019
-525.004	420.302	0.067	0.145
-523.989	-200.000	0.061	-0.476
-522.975	-45.428	0.330	-0.166
-521.960	-11.158	0.272	0.182
-520.945	578.563	-0.138	0.342
-519.931	800.000	0.123	-0.383
-518.916	-200.000	-0.033	0.155
-517.902	-151.444	-0.051	-0.004
-516.887	95.944	0.278	-0.323
-515.872	-5.123	-0.170	-0.119
-514.858	104.652	0.030	0.036
-513.843	800.000	0.064	0.211
-512.829	-158.606	-0.047	-0.003
-511.814	-200.000	-0.020	0.147
-510.799	800.000	-0.055	-0.203
-509.785	-48.858	0.015	0.007
-508.770	529.931	-0.013	0.032
-507.756	800.000	-0.058	-0.217
-506.741	-200.000	-0.019	-0.241
-505.726	4.959	0.368	-0.275
-504.712	109.251	0.127	0.154
-503.697	652.117	-0.060	-0.157
-502.683	-112.846	0.103	0.021
-501.668	158.637	0.231	0.325
-500.653	560.646	-0.076	-0.188
-499.639	-134.786	-0.118	-0.014
-498.624	800.000	0.062	0.186
-497.610	-21.286	0.098	-0.061
-496.595	527.246	-0.120	-0.287
-495.581	313.703	-0.114	-0.218
-494.566	-111.866	0.270	-0.055
-493.551	-200.000	-0.020	-0.119
-492.537	-85.674	0.031	-0.010
-491.522	-73.563	0.098	-0.036
-490.508	-81.677	-0.212	0.070
-489.493	-102.637	-0.227	0.055
-488.478	-142.308	-0.186	-0.019
-487.464	250.179	0.124	0.213
-486.449	77.352	0.151	0.163
-485.435	-28.312	-0.039	0.023
-484.420	-35.334	-0.211	0.116
-483.405	261.950	-0.298	-0.525
-482.391	-13.746	0.217	-0.143
-481.376	329.546	0.052	-0.101
-480.362	-123.105	-0.108	0.018
-479.347	-11.343	-0.166	-0.111
-478.332	-22.390	-0.095	-0.059
-477.318	-5.974	-0.466	-0.323
-476.303	100.149	0.112	0.132
-475.289	-53.778	-0.247	-0.114
-474.274	-93.428	-0.065	0.018
-473.259	352.598	-0.041	-0.083
-472.245	758.484	-0.039	0.108
-471.230	800.000	0.085	-0.267
-470.216	65.196	-0.176	0.181
-469.201	-118.923	0.213	0.038
-468.186	800.000	0.084	-0.238
-467.172	-102.672	0.131	0.032
-466.157	318.566	-0.077	0.148
-465.143	279.114	0.094	0.170
-464.128	800.000	0.056	0.195
-463.113	-98.049	0.187	0.049
-462.099	25.819	0.250	0.211
-461.084	-80.436	-0.159	0.054
-460.070	-181.859	-0.203	-0.004
-459.055	800.000	-0.060	0.203
-458.040	-124.672	0.386	-0.061
-457.026	-41.030	0.223	-0.117
-456.011	-35.831	-0.298	-0.163
-454.997	-24.810	-0.188	0.113
-453.982	-41.482	-0.237	-0.124
-452.968	-4.601	0.087	0.061
-451.953	20.393	-0.118	0.097
-450.938	47.345	0.234	0.220
-449.924	500.826	-0.063	-0.148
-448.909	-28.861	0.519	0.302
-447.895	-65.094	0.307	-0.125
-446.880	-138.696	-0.171	-0.019
-445.865	-161.227	0.136	0.007
-444.851	112.380	0.238	-0.292
-443.836	-143.018	0.300	0.029
-442.822	-167.463	-0.085	0.003
-441.807	604.566	-0.139	-0.350
-440.792	-73.238	-0.180	-0.067
-439.778	-85.489	-0.263	-0.083
-438.763	-60.369	-0.325	0.140
-437.749	-120.322	-0.142	0.025
-436.734	-141.316	-0.190	0.020
-435.719	76.099	-0.151	0.161
-434.705	-90.772	0.182	-0.053
-433.690	800.000	-0.020	0.066
-432.676	302.235	-0.156	-0.292
-431.661	-54.253	-0.037	-0.017
-430.646	266.623	-0.103	0.182
-429.632	-105.867	-0.067	-0.015
-428.617	-90.242	0.199	-0.059
-427.603	-138.427	0.231	0.026
-426.588	157.418	-0.159	-0.223
-425.573	136.435	-0.063	0.083
-424.559	459.560	-0.161	0.362
-423.544	63.281	0.263	0.266
-422.530	-16.525	-0.156	-0.100
-421.515	800.000	-0.059	-0.248
-420.500	800.000	-0.021	-0.092
-419.486	-200.000	-0.000	-0.021
-418.471	68.257	0.167	-0.173
-417.457	207.001	-0.093	-0.147
-416.442	-24.760	-0.243	-0.146
-415.428	-200.000	-0.039	-0.423
-414.413	-39.157	-0.210	-0.112
-413.398	343.965	-0.129	0.255
-412.384	17.726	0.364	0.293
-411.369	-200.000	0.012	0.070
-410.355	-72.365	-0.225	0.084
-409.340	667.026	-0.036	0.095
-408.325	756.740	0.062	0.171
-407.311	470.308	0.158	-0.358
-406.296	-41.993	0.131	0.068
-405.282	-102.326	0.174	-0.042
-404.267	-146.116	0.394	-0.035
-403.252	19.554	-0.166	-0.135
-402.238	-200.000	0.039	0.209
-401.223	60.042	-0.076	-0.076
-400.209	274.721	-0.216	-0.387
-399.194	616.197	0.088	-0.224
-398.179	-200.000	-0.005	0.174
-397.165	136.162	0.143	-0.188
-396.150	34.130	0.079	0.070
-395.136	143.671	-0.153	0.206
-394.121	-122.421	-0.192	0.032
-393.106	-187.894	-0.051	-0.001
-392.092	-200.000	0.023	-0.152
-391.077	173.238	0.071	0.103
-390.063	57.065	0.159	0.157
-389.048	800.000	-0.082	-0.250
-388.033	-29.356	0.120	0.070
-387.019	800.000	-0.045	-0.189
-386.004	56.828	0.073	0.071
-384.990	212.814	0.116	-0.185
-383.975	-142.755	-0.137	-0.013
-382.960	251.195	-0.208	-0.358
-381.946	2.650	0.296	-0.217
-380.931	54.176	-0.130	0.126
-379.917	249.111	-0.197	0.337
-378.902	-126.951	0.428	-0.064
-377.888	92.838	0.082	0.094
-376.873	-141.543	-0.050	0.005
-375.858	17.304	0.162	-0.129
-374.844	136.014	-0.124	0.163
-373.829	-200.000	-0.027	0.367
-372.815	800.000	0.041	0.150
-371.800	-127.746	-0.349	-0.051
-370.785	111.181	0.073	-0.089
-369.771	-125.641	-0.331	-0.051
-368.756	-200.000	0.054	-0.269
-367.742	-131.014	-0.274	-0.037
-366.727	-200.000	0.001	0.047
-365.712	-200.000	-0.305	0.000
-364.698	-66.657	0.209	0.084
-363.683	195.405	0.197	0.303
-362.669	-95.533	0.293	-0.079
-361.654	441.019	0.042	0.093
-360.639	242.965	0.151	0.256
-359.625	501.212	0.021	0.048
-358.610	-200.000	0.043	-0.265
-357.596	-114.576	-0.068	-0.013
-356.581	-102.199	0.258	0.063
-355.566	425.011	0.153	0.333
-354.552	-112.696	-0.028	-0.006
-353.537	306.203	-0.147	0.277
-352.523	-121.248	-0.074	0.013
-351.508	-200.000	0.007	0.132
-350.493	-110.599	0.167	-0.035
-349.479	60.101	0.065	-0.065
-348.464	42.029	-0.226	0.207
-347.450	137.106	0.140	0.185
-346.435	283.263	0.081	0.146
-345.420	-70.300	-0.362	0.138
-344.406	34.679	-0.032	0.028
-343.391	-200.000	0.018	0.270
-342.377	800.000	-0.117	0.348
-341.362	800.000	-0.046	0.133
-340.348	-132.760	-0.264	0.034
-339.333	-200.000	0.072	-0.323
-338.318	800.000	0.060	-0.185
-337.304	-200.000	0.000	0.072
-336.289	-200.000	-0.005	-0.118
-335.275	-130.696	0.501	-0.068
-334.260	66.659	-0.095	-0.097
-333.245	-200.000	0.050	0.331
-332.231	-47.932	0.129	0.063
-331.216	339.256	0.106	-0.208
-330.202	-73.381	0.157	0.058
-329.187	-200.000	-0.039	-0.195
-328.172	-200.000	-0.009	0.332
-327.158	-200.000	0.049	0.250
-326.143	-154.182	0.340	0.023
-325.129	800.000	-0.130	-0.371
-324.114	-200.000	-0.015	0.123
-323.099	800.000	0.014	0.050
-322.085	800.000	0.084	-0.252
-321.070	-118.841	0.113	0.020
-320.056	59.804	-0.272	-0.271
-319.041	290.051	-0.099	-0.182
-318.026	-20.604	-0.115	-0.071
-317.012	414.506	0.044	-0.093
-315.997	65.880	-0.305	-0.312
-314.983	-174.218	-0.459	-0.013
-313.968	-30.441	0.255	0.146
-312.953	800.000	0.048	0.151
-311.939	-56.577	-0.107	0.048
-310.924	731.162	-0.042	0.113
-309.910	-131.910	0.296	-0.039
-308.895	236.466	-0.081	0.136
-307.880	129.536	-0.187	-0.240
-306.866	-200.000	-0.087	0.442
-305.851	-81.421	-0.164	-0.054
-304.837	-75.308	0.283	0.102
-303.822	56.811	-0.135	-0.133
-302.807	-200.000	-0.029	-0.238
-301.793	416.118	0.062	-0.132
-300.778	266.237	0.069	0.122
-299.764	319.099	0.035	0.067
-298.749	165.412	-0.131	-0.186
-297.735	-48.311	-0.260	0.126
-296.720	133.543	0.130	0.169
-295.705	-18.236	0.401	-0.252
-294.691	800.000	-0.044	-0.181
-293.676	121.338	0.040	-0.050
-292.662	62.164	-0.098	-0.098
-291.647	800.000	0.017	0.071
-290.632	438.935	0.061	-0.135
-289.618	-1.549	-0.212	0.150
-288.603	80.851	-0.044	0.047
-287.589	-14.316	-0.147	-0.096
-286.574	-200.000	0.067	0.393
-285.559	203.217	-0.166	0.259
-284.545	164.986	0.074	-0.105
-283.530	-5.550	0.074	-0.051
-282.516	256.644	-0.054	-0.093
-281.501	198.501	-0.015	-0.023
-280.486	-63.434	-0.069	-0.029
-279.472	-106.650	-0.248	-0.055
-278.457	-36.398	0.281	-0.152
-277.443	-200.000	-0.022	-0.229
-276.428	800.000	-0.036	0.104
-275.413	-106.413	-0.166	-0.037
-274.399	-200.000	-0.113	0.000
-273.384	-200.000	-0.003	0.203
-272.370	49.068	0.147	0.139
-271.355	-200.000	0.013	-0.094
-270.340	248.688	0.062	0.106
-269.326	-200.000	0.017	0.150
-268.311	800.000	-0.045	0.128
-267.297	559.703	-0.022	0.053
-266.282	81.637	0.157	0.171
-265.267	734.670	0.108	0.290
-264.253	107.369	0.153	0.183
-263.238	242.640	-0.142	-0.239
-262.224	-139.618	-0.196	-0.021
-261.209	-82.630	-0.360	-0.117
-260.195	86.851	0.084	0.093
-259.180	-177.227	-0.074	-0.002
-258.165	83.567	-0.152	-0.167
-257.151	-68.192	0.182	0.071
-256.136	504.695	0.046	-0.106
-255.122	-151.651	0.289	0.021
-254.107	582.065	-0.051	0.125
-253.092	303.529	0.180	-0.335
-252.078	139.206	0.264	-0.348
-251.063	34.337	0.080	-0.070
-250.049	-200.000	0.032	-0.183
-249.034	317.208	0.139	0.263
-248.019	-117.518	0.177	-0.032
-247.005	-50.267	0.033	-0.015
-245.990	-92.036	-0.146	-0.041
-244.976	-31.516	-0.034	0.019
-243.961	243.357	0.052	0.087
-242.946	-200.000	-0.014	-0.097
-241.932	-84.786	-0.152	0.048
-240.917	-20.412	-0.241	0.149
-239.903	-5.149	-0.171	-0.118
-238.888	544.940	0.057	-0.137
-237.873	-49.464	0.155	-0.074
-236.859	-154.776	0.075	-0.005
-235.844	261.491	-0.148	-0.257
-234.830	-9.907	-0.044	0.030
-233.815	-8.656	0.295	0.199
-232.800	463.066	0.103	0.232
-231.786	-200.000	-0.001	0.045
-230.771	28.998	0.182	0.155
-229.757	35.389	0.274	-0.242
-228.742	-200.000	-0.023	0.232
-227.727	-21.012	-0.048	0.030
-226.713	-200.000	-0.001	-0.347
-225.698	-115.326	-0.051	-0.010
-224.684	67.992	-0.198	0.204
-223.669	-69.536	0.100	-0.038
-222.655	-29.084	-0.328	-0.189
-221.640	-102.861	-0.282	0.067
-220.625	36.475	0.159	0.141
-219.611	-6.584	-0.121	0.083
-218.596	-154.868	0.173	0.011
-217.582	521.968	-0.085	-0.200
-216.567	447.959	-0.067	-0.147
-215.552	498.321	0.051	-0.117
-214.538	-95.206	0.252	-0.068
-213.523	38.715	-0.152	-0.136
-212.509	169.620	-0.060	-0.086
-211.494	-56.862	-0.252	0.112
-210.479	800.000	0.121	0.343
-209.465	-47.382	0.361	0.176
-208.450	-200.000	-0.000	0.131
-207.436	1.568	0.391	0.283
-206.421	-200.000	0.002	-0.032
-205.406	800.000	-0.047	-0.153
-204.392	-0.247	-0.135	-0.096
-203.377	400.666	0.041	0.087
-202.363	800.000	-0.099	-0.309
-201.348	800.000	0.025	0.077
-200.333	156.431	0.108	-0.149
-199.319	-21.207	-0.398	-0.244
-198.304	800.000	-0.122	-0.449
-197.290	800.000	0.028	-0.090
-196.275	386.346	0.123	0.254
-195.260	-1.919	0.116	0.082
-194.246	88.111	-0.102	0.113
-193.231	-200.000	-0.007	0.100
-192.217	797.655	-0.088	0.242
-191.202	80.734	0.127	0.137
-190.187	59.482	0.274	0.271
-189.173	174.364	-0.075	-0.109
-188.158	449.944	-0.074	0.163
-187.144	38.576	-0.160	-0.143
-186.129	800.000	-0.027	0.086
-185.114	125.765	0.147	0.186
-184.100	285.115	-0.095	-0.172
-183.085	800.000	-0.067	-0.192
-182.071	-34.979	-0.161	0.088
-181.056	-146.861	-0.005	0.000
-180.042	60.284	0.166	0.165
-179.027	336.917	0.160	-0.311
-178.012	-19.585	-0.169	-0.105
-176.998	-200.000	-0.017	-0.300
-175.983	785.456	-0.017	-0.048
-174.969	-33.278	0.194	0.108
-173.954	-200.000	0.062	0.363
-172.939	-200.000	0.107	0.490
-171.925	-89.792	-0.105	0.031
-170.910	-200.000	-0.032	0.401
-169.896	-29.362	0.126	-0.072
-168.881	5.004	-0.067	-0.049
-167.866	197.296	-0.170	0.260
-166.852	-104.289	0.204	0.047
-165.837	15.135	0.168	0.132
-164.823	-132.349	-0.542	-0.070
-163.808	-70.205	0.266	-0.101
-162.793	-122.079	0.417	0.068
-161.779	267.473	-0.265	0.465
-160.764	162.272	0.060	0.084
-159.750	674.777	0.140	-0.363
-158.735	101.521	0.278	-0.325
-157.720	-200.000	0.003	-0.229
-156.706	-200.000	-0.015	-0.247
-155.691	-200.000	-0.005	-0.303
-154.677	-99.773	0.164	-0.041
-153.662	404.492	-0.057	0.121
-152.647	800.000	0.035	-0.148
-151.633	265.620	0.059	-0.104
-150.618	-200.000	0.037	0.295
-149.604	-105.113	-0.260	0.059
-148.589	58.435	-0.126	-0.124
-147.574	-140.874	0.145	-0.015
-146.560	-17.992	0.347	0.217
-145.545	-200.000	-0.015	0.217
-144.531	800.000	-0.057	-0.164
-143.516	721.167	0.095	-0.252
-142.502	-31.661	0.067	-0.037
-141.487	800.000	0.032	0.124
-140.472	590.820	0.087	0.215
-139.458	-23.442	0.106	-0.063
-138.443	-42.563	0.179	0.091
-137.429	-200.000	-0.003	0.177
-136.414	55.118	0.120	0.116
-135.399	-131.275	0.266	0.035
-134.385	195.969	-0.108	0.165
-133.370	-134.378	-0.103	-0.013
-132.356	800.000	0.049	0.156
-131.341	-40.618	0.197	0.102
-130.326	3.580	0.129	0.094
-129.312	-81.601	0.184	0.061
-128.297	645.558	-0.083	0.213
-127.283	49.139	-0.100	0.094
-126.268	-6.154	0.288	-0.197
-125.253	160.443	-0.068	0.095
-124.239	-200.000	-0.051	-0.429
-123.224	-16.405	0.095	0.061
-122.210	-200.000	0.008	0.072
