DTS Sentinel unit serial number:	SN413079Multiplexer serial number:	ORYXHardware model number:	OX4-SRSoftware version number:	ORYX F/W v4.00 Oryx Data Collector v3.7.2.0data status	okinstallation	princeton_trtdifferential loss correction	single-endedforward channel	channel 3reverse channel	N/Adate	2019/09/11time	06:54:10forward acquisition time	60.00reverse acquisition time	0.00gamma	496.2192k internal	0.2329k external	0.2329temperature offset calibration	0.9902default loss term (dB/km)	0.3790temperature slope calibration	1.0000multiplexer offset coefficient	1.0000multiplexer slope coefficient	1.0000fibre end	0.00T internal ref (°C)	30.00T ext. ref 1 (°C)	-0.12T ext. ref 2 (°C)	25.40length (m)	temperature (°C)	Stokes	anti-Stokes-747.200	317.839	0.057	-0.108
-746.185	126.492	-0.049	0.063
-745.171	-200.000	0.004	0.193
-744.156	324.121	0.104	0.199
-743.142	110.816	0.385	0.467
-742.127	183.176	0.094	0.140
-741.112	800.000	-0.044	-0.164
-740.098	405.347	0.009	-0.020
-739.083	-38.850	-0.256	0.136
-738.069	-133.978	-0.273	0.034
-737.054	-200.000	-0.021	-0.191
-736.039	5.039	-0.407	0.302
-735.025	151.546	-0.167	0.230
-734.010	10.349	0.182	0.140
-732.996	-64.041	-0.465	-0.191
-731.981	-85.866	0.295	0.092
-730.966	36.494	-0.147	-0.131
-729.952	-169.404	0.209	0.008
-728.937	458.207	-0.129	-0.288
-727.923	34.304	0.233	-0.204
-726.908	444.628	0.082	-0.182
-725.894	800.000	-0.038	-0.164
-724.879	800.000	0.108	0.372
-723.864	-141.127	-0.249	-0.026
-722.850	86.736	0.262	-0.291
-721.835	-35.826	-0.369	-0.201
-720.821	-23.685	-0.264	-0.159
-719.806	-33.091	-0.097	-0.054
-718.791	-200.000	0.038	-0.254
-717.777	800.000	-0.008	0.032
-716.762	-179.122	-0.198	-0.004
-715.748	780.747	0.092	0.253
-714.733	-1.883	-0.115	-0.082
-713.718	800.000	0.047	-0.203
-712.704	-200.000	-0.013	-0.060
-711.689	484.890	-0.101	-0.232
-710.675	-200.000	0.015	0.332
-709.660	35.198	-0.299	0.264
-708.645	-143.934	0.280	-0.027
-707.631	80.129	-0.150	-0.162
-706.616	-10.019	0.267	-0.178
-705.602	-200.000	-0.009	-0.096
-704.587	245.019	0.069	-0.116
-703.572	403.070	0.113	-0.239
-702.558	383.208	-0.040	-0.084
-701.543	52.038	-0.137	0.132
-700.529	106.423	-0.073	-0.087
-699.514	-151.668	0.106	-0.008
-698.499	193.675	-0.058	-0.089
-697.485	84.820	0.098	-0.108
-696.470	800.000	-0.032	0.122
-695.456	-129.123	0.036	0.005
-694.441	-157.577	0.163	0.010
-693.426	-137.220	0.282	-0.032
-692.412	26.579	0.301	-0.253
-691.397	72.900	-0.172	-0.180
-690.383	-116.239	-0.400	-0.075
-689.368	-31.736	-0.351	-0.198
-688.354	-200.000	-0.064	-0.334
-687.339	-121.416	0.221	0.037
-686.324	515.921	0.133	-0.311
-685.310	800.000	-0.064	0.237
-684.295	733.437	-0.093	-0.250
-683.281	298.933	-0.190	-0.352
-682.266	-138.853	0.397	-0.043
-681.251	214.760	0.130	-0.207
-680.237	800.000	0.124	-0.485
-679.222	92.838	-0.137	-0.156
-678.208	8.658	-0.082	0.062
-677.193	-164.226	0.270	0.012
-676.178	-50.977	-0.038	-0.018
-675.164	137.669	-0.142	-0.187
-674.149	-53.009	0.124	-0.057
-673.135	59.380	0.247	-0.245
-672.120	160.146	0.059	-0.082
-671.105	652.167	-0.136	-0.351
-670.091	300.417	-0.138	-0.256
-669.076	-143.370	0.222	0.021
-668.062	6.737	-0.240	0.179
-667.047	-200.000	-0.018	-0.202
-666.032	-200.000	-0.014	-0.313
-665.018	-47.688	0.240	0.117
-664.003	156.274	-0.047	-0.065
-662.989	634.782	-0.044	0.113
-661.974	-34.837	0.183	0.100
-660.959	-74.465	-0.030	-0.011
-659.945	800.000	-0.112	-0.412
-658.930	-98.802	0.099	0.025
-657.916	800.000	0.028	-0.113
-656.901	-52.936	-0.415	-0.192
-655.886	141.404	-0.080	-0.106
-654.872	223.985	-0.026	-0.041
-653.857	-92.197	0.031	-0.009
-652.843	-200.000	-0.003	0.022
-651.828	135.086	-0.058	-0.076
-650.814	377.268	-0.094	0.193
-649.799	9.691	0.268	-0.204
-648.784	-181.047	0.309	-0.006
-647.770	186.844	0.107	-0.159
-646.755	27.746	-0.211	0.178
-645.741	181.396	-0.018	0.027
-644.726	-76.333	-0.058	-0.021
-643.711	-102.527	-0.038	-0.009
-642.697	-195.894	-0.080	-0.001
-641.682	-13.001	0.442	-0.289
-640.668	-25.239	0.312	-0.185
-639.653	-178.148	-0.082	-0.002
-638.638	-13.382	0.169	-0.110
-637.624	-81.081	0.119	0.039
-636.609	167.102	0.192	-0.273
-635.595	-200.000	-0.008	0.060
-634.580	-5.507	0.132	0.091
-633.565	-135.738	-0.127	0.015
-632.551	-73.328	-0.237	0.087
-631.536	800.000	0.081	0.233
-630.522	-141.199	0.340	0.035
-629.507	800.000	0.035	0.147
-628.492	-101.142	0.256	0.063
-627.478	67.796	-0.162	-0.167
-626.463	3.200	0.042	-0.031
-625.449	-79.748	-0.074	-0.025
-624.434	16.347	-0.122	-0.097
-623.419	-75.933	-0.167	-0.059
-622.405	-133.776	-0.176	-0.022
-621.390	800.000	0.031	-0.100
-620.376	-200.000	0.073	0.342
-619.361	-33.895	0.155	0.085
-618.346	-200.000	0.033	0.162
-617.332	-174.730	0.303	-0.009
-616.317	205.582	-0.168	-0.262
-615.303	-96.282	-0.251	0.067
-614.288	-200.000	0.034	-0.160
-613.273	-157.863	-0.123	-0.007
-612.259	-200.000	0.047	-0.209
-611.244	-42.751	0.293	-0.149
-610.230	238.287	0.135	-0.224
-609.215	-200.000	-0.008	-0.502
-608.201	351.061	-0.053	-0.105
-607.186	-138.040	-0.298	-0.033
-606.171	-124.925	-0.346	0.053
-605.157	158.912	0.162	-0.226
-604.142	800.000	-0.046	-0.189
-603.128	53.344	-0.084	-0.081
-602.113	800.000	-0.015	-0.059
-601.098	-127.960	0.282	-0.041
-600.084	121.219	0.018	-0.022
-599.069	-100.454	-0.175	-0.043
-598.055	81.179	-0.221	-0.239
-597.040	-45.413	0.225	-0.112
-596.025	-200.000	-0.019	0.134
-595.011	800.000	-0.113	-0.313
-593.996	-70.014	0.055	-0.021
-592.982	11.359	-0.228	-0.175
-591.967	-50.886	0.191	0.090
-590.952	-200.000	0.019	0.126
-589.938	695.917	-0.048	0.127
-588.923	652.891	0.080	0.204
-587.909	-104.117	-0.392	-0.091
-586.894	163.651	-0.138	0.194
-585.879	26.159	0.291	0.243
-584.865	-200.000	0.015	-0.152
-583.850	-32.546	-0.295	0.164
-582.836	-200.000	0.039	-0.220
-581.821	800.000	-0.070	-0.304
-580.806	-137.630	0.097	0.011
-579.792	-5.170	0.197	0.136
-578.777	380.150	-0.068	0.140
-577.763	-69.700	0.257	0.098
-576.748	-200.000	0.015	-0.106
-575.733	-85.061	0.232	-0.073
-574.719	-78.647	0.129	0.044
-573.704	153.664	-0.305	-0.418
-572.690	-126.742	0.177	-0.026
-571.675	-73.199	0.238	-0.087
-570.661	-64.955	0.274	0.111
-569.646	146.563	0.153	-0.205
-568.631	0.887	-0.052	-0.037
-567.617	165.640	-0.055	0.078
-566.602	60.655	0.073	-0.073
-565.588	-161.836	0.497	0.025
-564.573	800.000	0.101	-0.300
-563.558	-23.719	-0.232	0.139
-562.544	800.000	0.055	-0.182
-561.529	-123.317	0.320	-0.051
-560.515	11.926	-0.091	0.070
-559.500	87.011	0.222	0.246
-558.485	-149.091	-0.310	-0.025
-557.471	69.491	-0.114	-0.118
-556.456	800.000	0.111	-0.354
-555.442	432.351	0.155	-0.336
-554.427	-200.000	-0.012	-0.300
-553.412	800.000	-0.044	-0.191
-552.398	98.901	-0.090	-0.104
-551.383	-200.000	0.022	-0.386
-550.369	566.089	-0.173	0.420
-549.354	-91.109	0.150	-0.043
-548.339	800.000	0.083	-0.307
-547.325	60.099	0.311	-0.308
-546.310	-157.000	-0.495	-0.030
-545.296	-59.707	0.152	-0.065
-544.281	-12.174	0.102	0.067
-543.266	-128.997	-0.315	0.044
-542.252	73.377	-0.030	-0.032
-541.237	-152.369	0.219	0.016
-540.223	-75.591	0.157	0.056
-539.208	-130.201	0.225	0.031
-538.193	800.000	-0.042	-0.175
-537.179	-200.000	0.020	0.148
-536.164	459.291	-0.052	-0.116
-535.150	-150.413	-0.083	-0.006
-534.135	-68.285	-0.287	-0.111
-533.121	-200.000	0.079	0.393
-532.106	-8.173	0.244	-0.164
-531.091	537.605	-0.135	-0.320
-530.077	800.000	0.178	0.529
-529.062	-53.886	-0.260	0.118
-528.048	-200.000	-0.022	0.393
-527.033	-88.345	-0.168	0.050
-526.018	-200.000	0.004	-0.035
-525.004	7.355	0.356	0.265
-523.989	178.491	0.204	0.297
-522.975	-99.504	-0.174	0.044
-521.960	118.026	-0.133	-0.164
-520.945	-123.791	-0.324	0.051
-519.931	343.877	0.058	-0.114
-518.916	-95.371	-0.241	0.065
-517.902	-94.126	0.271	-0.074
-516.887	800.000	-0.035	0.152
-515.872	33.483	-0.160	0.139
-514.858	124.424	-0.154	-0.194
-513.843	800.000	0.019	0.054
-512.829	-30.550	-0.232	0.131
-511.814	-65.491	0.160	0.064
-510.799	-20.954	-0.093	0.057
-509.785	-84.454	-0.276	-0.087
-508.770	-33.673	-0.213	0.117
-507.756	-15.622	0.209	-0.133
-506.741	-76.696	-0.314	0.110
-505.726	-53.627	-0.187	0.085
-504.712	-2.894	0.110	-0.077
-503.697	-120.582	0.251	-0.042
-502.683	297.763	0.150	-0.276
-501.668	166.611	-0.136	-0.192
-500.653	-200.000	0.021	0.320
-499.639	800.000	0.006	0.026
-498.624	-46.923	0.246	-0.120
-497.610	22.258	-0.286	0.233
-496.595	-177.243	0.420	0.010
-495.581	81.089	-0.120	0.129
-494.566	-200.000	0.039	0.213
-493.551	315.585	0.077	0.145
-492.537	-97.982	0.204	0.053
-491.522	-42.093	-0.212	-0.108
-490.508	-137.619	0.286	-0.032
-489.493	31.000	-0.194	-0.166
-488.478	82.037	-0.046	0.050
-487.464	-134.495	0.353	-0.043
-486.449	-163.492	-0.122	-0.006
-485.435	218.140	0.011	0.018
-484.420	800.000	-0.071	-0.220
-483.405	204.586	0.123	0.190
-482.391	56.882	0.185	0.180
-481.376	-200.000	-0.023	-0.226
-480.362	359.187	-0.089	-0.177
-479.347	-200.000	-0.044	0.250
-478.332	164.457	-0.182	0.256
-477.318	-200.000	0.043	-0.351
-476.303	-25.510	0.107	0.063
-475.289	184.594	0.029	-0.043
-474.274	227.111	0.170	-0.275
-473.259	84.251	0.255	0.277
-472.245	159.366	0.147	0.204
-471.230	321.377	0.046	0.088
-470.216	-49.607	-0.074	0.035
-469.201	800.000	-0.031	-0.104
-468.186	138.813	0.060	-0.078
-467.172	-64.321	0.145	-0.059
-466.157	800.000	-0.051	-0.176
-465.143	-148.700	-0.463	-0.038
-464.128	-131.641	0.233	-0.031
-463.113	509.377	-0.183	0.424
-462.099	-67.961	0.028	-0.011
-461.084	37.828	-0.145	0.129
-460.070	-71.898	-0.420	0.156
-459.055	217.857	0.131	-0.208
-458.040	173.754	-0.104	-0.150
-457.026	-151.962	-0.326	0.024
-456.011	-80.548	0.258	0.086
-454.997	-83.982	0.177	0.056
-453.982	-89.886	0.247	0.072
-452.968	33.433	-0.258	-0.223
-451.953	98.991	0.132	-0.152
-450.938	663.414	0.082	-0.211
-449.924	199.686	0.194	0.296
-448.909	-200.000	-0.001	-0.145
-447.895	-200.000	-0.049	0.269
-446.880	-200.000	0.008	0.145
-445.865	800.000	0.106	0.445
-444.851	-200.000	-0.052	-0.229
-443.836	468.416	0.077	-0.173
-442.822	192.870	-0.038	0.058
-441.807	44.758	-0.241	-0.221
-440.792	-200.000	-0.018	0.147
-439.778	800.000	-0.070	0.263
-438.763	160.426	0.149	-0.207
-437.749	5.088	-0.583	-0.427
-436.734	345.280	-0.063	0.124
-435.719	253.177	0.112	0.190
-434.705	800.000	0.049	0.190
-433.690	-200.000	0.045	0.223
-432.676	72.890	-0.141	0.147
-431.661	66.220	-0.188	0.190
-430.646	292.668	0.286	0.518
-429.632	-200.000	0.010	0.204
-428.617	424.569	-0.046	0.099
-427.603	-155.628	-0.177	0.011
-426.588	125.424	-0.136	-0.171
-425.573	-76.612	-0.310	-0.108
-424.559	-50.920	-0.317	-0.148
-423.544	199.055	0.102	-0.155
-422.530	-200.000	0.047	-0.241
-421.515	78.187	-0.155	0.164
-420.500	-113.743	-0.272	0.053
-419.486	800.000	-0.117	0.368
-418.471	-2.490	-0.093	0.065
-417.457	-65.968	-0.192	-0.076
-416.442	325.843	0.026	0.049
-415.428	2.114	-0.400	0.287
-414.413	-200.000	-0.009	0.239
-413.398	-108.496	0.192	-0.041
-412.384	21.009	-0.145	0.117
-411.369	-115.167	-0.159	0.030
-410.355	290.152	0.108	0.195
-409.340	-138.703	0.288	-0.031
-408.325	-17.377	-0.289	0.181
-407.311	-93.476	-0.133	0.037
-406.296	54.941	-0.032	-0.030
-405.282	-86.545	-0.237	-0.072
-404.267	-114.238	-0.155	0.030
-403.252	22.049	0.160	0.130
-402.238	-181.570	0.153	0.003
-401.223	-200.000	-0.038	-0.181
-400.209	800.000	0.012	0.039
-399.194	344.327	0.118	-0.230
-398.179	6.170	0.254	-0.187
-397.165	-39.565	0.129	0.067
-396.150	-35.085	0.114	-0.062
-395.136	-200.000	-0.016	0.233
-394.121	134.872	0.234	0.302
-393.106	222.311	0.081	-0.129
-392.092	-200.000	-0.042	-0.333
-391.077	-15.566	0.157	-0.099
-390.063	125.429	-0.192	0.241
-389.048	-200.000	-0.014	0.289
-388.033	215.639	0.019	-0.030
-387.019	-200.000	-0.027	-0.157
-386.004	800.000	-0.022	0.088
-384.990	75.397	0.160	-0.168
-383.975	-159.852	-0.381	-0.021
-382.960	42.796	0.067	-0.061
-381.946	800.000	0.092	-0.252
-380.931	151.211	-0.081	-0.109
-379.917	297.027	0.063	-0.115
-378.902	-78.258	-0.297	0.101
-377.888	796.765	0.089	-0.243
-376.873	10.608	0.220	-0.167
-375.858	800.000	-0.051	-0.142
-374.844	-30.479	0.402	0.226
-373.829	33.734	0.231	0.199
-372.815	-98.215	-0.462	0.118
-371.800	-200.000	-0.050	0.272
-370.785	-200.000	0.013	-0.152
-369.771	197.453	0.121	-0.183
-368.756	-200.000	0.010	-0.251
-367.742	130.514	0.064	0.081
-366.727	-113.853	-0.213	0.041
-365.712	3.834	-0.126	0.091
-364.698	-8.818	-0.101	0.067
-363.683	-200.000	0.015	0.128
-362.669	-200.000	-0.012	-0.122
-361.654	-200.000	-0.021	-0.133
-360.639	-25.552	-0.135	-0.079
-359.625	265.977	-0.152	-0.264
-358.610	-200.000	-0.016	-0.163
-357.596	-114.697	0.238	-0.045
-356.581	661.505	-0.128	-0.328
-355.566	53.002	0.171	0.163
-354.552	-30.573	0.178	0.100
-353.537	-124.066	-0.244	0.038
-352.523	113.536	0.292	0.351
-351.508	61.491	0.248	0.245
-350.493	221.959	0.108	0.172
-349.479	17.563	-0.040	0.032
-348.464	-200.000	0.009	0.404
-347.450	-137.437	-0.132	0.015
-346.435	38.952	0.139	0.123
-345.420	-200.000	0.047	0.299
-344.406	-200.000	0.022	0.290
-343.391	-43.965	-0.076	-0.038
-342.377	-200.000	-0.068	-0.319
-341.362	445.708	-0.071	-0.155
-340.348	-200.000	-0.032	0.141
-339.333	-200.000	0.028	0.211
-338.318	-28.108	0.132	-0.076
-337.304	-200.000	0.007	-0.317
-336.289	-143.830	-0.483	-0.045
-335.275	-78.901	0.020	-0.007
-334.260	-10.766	0.108	0.070
-333.245	231.729	0.017	-0.027
-332.231	800.000	-0.091	-0.321
-331.216	800.000	-0.043	0.132
-330.202	-200.000	-0.040	0.237
-329.187	376.007	-0.039	0.078
-328.172	-19.779	0.137	-0.084
-327.158	28.785	-0.255	0.214
-326.143	-186.589	0.262	-0.004
-325.129	140.057	-0.042	0.055
-324.114	762.997	-0.078	0.211
-323.099	-65.812	-0.412	0.163
-322.085	-10.894	0.229	0.150
-321.070	-94.694	0.134	0.036
-320.056	-200.000	0.058	-0.254
-319.041	-200.000	0.001	0.251
-318.026	800.000	-0.074	0.265
-317.012	-200.000	-0.056	-0.256
-315.997	-94.402	-0.200	-0.054
-314.983	800.000	-0.064	0.262
-313.968	-150.022	0.154	0.012
-312.953	-200.000	0.057	0.347
-311.939	800.000	-0.069	-0.277
-310.924	-200.000	0.337	0.001
-309.910	173.877	-0.189	0.271
-308.895	-200.000	-0.049	0.531
-307.880	706.596	0.123	0.322
-306.866	100.084	0.180	-0.207
-305.851	-35.607	-0.348	-0.187
-304.837	-73.312	0.270	-0.098
-303.822	-120.838	-0.204	0.034
-302.807	-200.000	0.004	0.108
-301.793	-75.479	-0.377	-0.133
-300.778	-200.000	0.045	-0.391
-299.764	-148.860	-0.296	-0.024
-298.749	519.312	0.106	0.245
-297.735	-44.142	-0.271	0.135
-296.720	-118.762	-0.170	-0.030
-295.705	-200.000	-0.046	0.366
-294.691	-200.000	0.031	-0.263
-293.676	-23.797	0.255	0.151
-292.662	800.000	-0.147	0.415
-291.647	46.560	0.056	0.051
-290.632	-103.923	0.164	-0.038
-289.618	-76.670	-0.147	-0.051
-288.603	4.646	-0.107	-0.078
-287.589	60.222	-0.223	-0.218
-286.574	-28.382	-0.200	0.114
-285.559	-99.793	0.311	-0.077
-284.545	-18.539	0.273	-0.168
-283.530	-38.431	0.166	0.087
-282.516	800.000	-0.059	-0.243
-281.501	-70.502	0.120	-0.045
-280.486	-200.000	0.022	0.106
-279.472	9.699	-0.164	0.123
-278.457	751.603	-0.077	0.207
-277.443	-50.026	0.175	0.082
-276.428	-141.268	-0.161	0.016
-275.413	376.483	-0.048	0.097
-274.399	-117.180	0.266	-0.048
-273.384	-194.271	-0.372	0.003
-272.370	48.177	-0.351	0.325
-271.355	-163.139	0.233	-0.011
-270.340	-200.000	-0.054	-0.262
-269.326	-33.803	-0.351	-0.191
-268.311	89.034	-0.246	0.271
-267.297	-200.000	0.043	0.228
-266.282	666.022	0.033	0.084
-265.267	-189.874	0.263	-0.003
-264.253	83.264	-0.127	0.136
-263.238	44.452	-0.084	0.076
-262.224	800.000	-0.032	0.117
-261.209	9.423	-0.204	-0.152
-260.195	-133.280	0.120	-0.015
-259.180	800.000	-0.019	-0.070
-258.165	176.888	0.232	-0.334
-257.151	358.459	0.114	-0.225
-256.136	-153.252	-0.032	0.002
-255.122	178.408	-0.136	-0.196
-254.107	-200.000	0.009	-0.161
-253.092	-200.000	-0.042	0.410
-252.078	-101.541	0.096	-0.023
-251.063	11.677	0.201	0.152
-250.049	-200.000	0.009	0.146
-249.034	-200.000	-0.041	-0.205
-248.019	800.000	-0.037	-0.111
-247.005	-192.352	-0.098	0.001
-245.990	-172.533	-0.033	-0.001
-244.976	-146.721	0.167	0.014
-243.961	-200.000	0.016	0.302
-242.946	38.167	-0.094	0.083
-241.932	41.768	0.134	0.120
-240.917	-184.616	0.194	-0.003
-239.903	-39.841	-0.156	-0.081
-238.888	-61.395	0.232	0.096
-237.873	67.113	0.105	-0.106
-236.859	-200.000	0.005	-0.037
-235.844	147.500	0.256	-0.341
-234.830	22.853	0.099	0.080
-233.815	159.500	0.177	0.244
-232.800	-200.000	-0.004	0.266
-231.786	-61.419	-0.344	0.143
-230.771	-200.000	-0.035	-0.240
-229.757	-33.810	-0.098	-0.054
-228.742	270.703	-0.237	0.412
-227.727	-93.878	0.185	0.050
-226.713	-114.496	0.230	0.044
-225.698	75.632	-0.120	-0.125
-224.684	477.859	0.093	0.209
-223.669	2.567	0.133	0.095
-222.655	-63.267	-0.393	-0.160
-221.640	123.672	0.257	-0.318
-220.625	-173.388	-0.095	0.003
-219.611	255.980	0.195	-0.331
-218.596	105.461	0.054	-0.062
-217.582	571.899	-0.142	0.342
-216.567	-85.081	0.143	-0.044
-215.552	-16.048	0.242	-0.152
-214.538	-81.047	0.172	0.056
-213.523	-158.977	-0.040	-0.002
-212.509	361.703	-0.248	-0.491
-211.494	-105.981	-0.143	-0.032
-210.479	-200.000	-0.042	-0.382
-209.465	-77.838	0.212	0.072
-208.450	-200.000	0.018	-0.093
-207.436	-109.979	-0.112	-0.023
-206.421	78.652	0.171	-0.180
-205.406	196.943	-0.081	-0.122
-204.392	-200.000	-0.005	0.258
-203.377	-164.345	-0.236	0.011
-202.363	-95.754	0.339	-0.089
-201.348	30.803	0.178	0.150
-200.333	800.000	-0.035	-0.111
-199.319	-28.927	0.092	0.052
-198.304	-13.436	0.174	-0.111
-197.290	148.012	-0.220	-0.292
-196.275	578.355	0.037	0.089
-195.260	800.000	-0.046	-0.193
-194.246	-70.063	0.248	0.093
-193.231	72.196	0.165	-0.170
-192.217	-139.776	-0.008	-0.001
-191.202	246.888	0.122	0.203
-190.187	-200.000	0.005	0.075
-189.173	109.376	0.190	0.225
-188.158	-4.957	-0.054	0.037
-187.144	-59.696	-0.266	-0.112
-186.129	-200.000	-0.022	-0.135
-185.114	435.865	0.116	-0.249
-184.100	209.937	-0.335	-0.519
-183.085	-89.117	0.126	0.037
-182.071	-200.000	0.017	0.443
-181.056	-200.000	0.025	0.129
-180.042	-200.000	-0.008	0.330
-179.027	301.694	-0.156	0.284
-178.012	800.000	0.063	-0.188
-176.998	27.850	-0.094	-0.078
-175.983	-30.748	-0.212	-0.118
-174.969	-22.260	0.226	-0.135
-173.954	378.051	0.033	0.066
-172.939	176.938	-0.235	0.337
-171.925	21.274	0.247	-0.198
-170.910	155.280	-0.141	-0.191
-169.896	612.577	-0.028	-0.069
-168.881	-170.777	-0.206	-0.007
-167.866	-94.446	0.089	0.024
-166.852	-153.499	-0.224	-0.015
-165.837	351.282	0.032	-0.063
-164.823	-16.865	-0.103	0.064
-163.808	726.518	-0.100	0.264
-162.793	41.356	0.258	-0.230
-161.779	-12.155	-0.257	-0.166
-160.764	800.000	0.016	-0.066
-159.750	343.223	0.096	-0.184
-158.735	-4.563	0.235	0.160
-157.720	-113.455	0.128	-0.025
-156.706	-133.523	0.302	0.037
-155.691	-200.000	-0.084	-0.429
-154.677	24.026	-0.062	0.050
-153.662	61.240	-0.135	-0.132
-152.647	153.805	0.058	0.078
-151.633	6.734	-0.109	0.080
-150.618	32.001	0.221	0.188
-149.604	-55.802	0.418	-0.184
-148.589	473.026	0.087	0.194
-147.574	-87.957	0.259	0.077
-146.560	396.548	-0.129	-0.264
-145.545	-25.451	0.364	0.212
-144.531	524.583	-0.062	0.143
-143.516	800.000	-0.025	-0.084
-142.502	14.504	-0.094	0.073
-141.487	-149.992	-0.302	0.023
-140.472	-69.303	0.461	0.174
-139.458	-120.974	-0.072	-0.012
-138.443	102.727	-0.064	-0.074
-137.429	307.266	0.103	0.189
-136.414	-91.148	0.353	-0.100
-135.399	-129.107	-0.123	0.017
-134.385	51.384	-0.091	-0.085
-133.370	800.000	0.047	-0.162
-132.356	-148.251	0.099	0.008
-131.341	-200.000	-0.013	0.107
-130.326	21.633	0.170	0.136
-129.312	725.497	-0.067	-0.177
-128.297	-132.537	0.350	0.044
-127.283	-46.197	-0.446	0.216
-126.268	22.887	-0.197	-0.159
-125.253	-122.713	-0.065	-0.010
-124.239	-12.159	0.336	-0.216
-123.224	-74.961	-0.265	-0.093
-122.210	-200.000	-0.002	0.146
