DTS Sentinel unit serial number:	SN413079Multiplexer serial number:	ORYXHardware model number:	OX4-SRSoftware version number:	ORYX F/W v4.00 Oryx Data Collector v3.7.2.0data status	okinstallation	princeton_trtdifferential loss correction	single-endedforward channel	channel 3reverse channel	N/Adate	2019/09/11time	19:02:11forward acquisition time	60.00reverse acquisition time	0.00gamma	496.2192k internal	0.2291k external	0.2291temperature offset calibration	1.0008default loss term (dB/km)	0.3790temperature slope calibration	1.0000multiplexer offset coefficient	1.0000multiplexer slope coefficient	1.0000fibre end	0.00T internal ref (°C)	42.16T ext. ref 1 (°C)	1.26T ext. ref 2 (°C)	34.37length (m)	temperature (°C)	Stokes	anti-Stokes-747.200	-126.765	0.436	-0.066
-746.185	163.231	0.102	-0.147
-745.171	736.562	0.136	-0.373
-744.156	167.282	-0.107	-0.156
-743.142	-90.810	0.072	-0.021
-742.127	-84.438	-0.281	-0.091
-741.112	800.000	-0.010	-0.029
-740.098	-200.000	0.017	0.298
-739.083	14.617	-0.256	-0.205
-738.069	463.508	-0.165	0.377
-737.054	-70.427	-0.205	0.079
-736.039	-83.052	-0.147	-0.048
-735.025	62.653	0.217	0.222
-734.010	-200.000	-0.003	-0.159
-732.996	55.951	-0.234	-0.232
-731.981	-123.150	-0.157	-0.026
-730.966	-120.294	0.064	0.011
-729.952	37.062	-0.092	0.083
-728.937	-20.102	0.251	-0.159
-727.923	109.764	-0.225	0.277
-726.908	-65.768	-0.153	0.063
-725.894	800.000	0.044	-0.175
-724.879	-46.564	0.314	0.158
-723.864	-200.000	-0.027	0.122
-722.850	800.000	-0.009	0.034
-721.835	38.226	-0.319	0.290
-720.821	262.811	0.054	-0.096
-719.806	-44.171	0.051	0.026
-718.791	-34.469	-0.046	0.026
-717.777	-91.802	-0.103	0.030
-716.762	59.005	0.125	-0.126
-715.748	-38.768	0.404	0.218
-714.733	-200.000	0.028	-0.313
-713.718	312.102	-0.067	0.128
-712.704	338.379	-0.028	-0.056
-711.689	11.897	-0.122	0.096
-710.675	-86.021	-0.150	0.047
-709.660	184.077	-0.187	0.283
-708.645	191.284	-0.259	-0.399
-707.631	-200.000	-0.006	0.169
-706.616	15.727	-0.238	0.191
-705.602	-37.212	0.143	0.078
-704.587	274.087	-0.110	-0.199
-703.572	800.000	-0.062	-0.206
-702.558	6.330	-0.110	-0.084
-701.543	-37.099	-0.064	-0.035
-700.529	-200.000	-0.004	-0.377
-699.514	-3.392	0.102	-0.073
-698.499	352.496	-0.097	0.196
-697.485	-142.661	-0.139	-0.014
-696.470	668.907	0.062	0.163
-695.456	6.723	-0.194	-0.147
-694.441	-200.000	-0.000	-0.129
-693.426	-200.000	-0.047	-0.261
-692.412	49.980	-0.079	-0.076
-691.397	-30.316	-0.288	-0.167
-690.383	183.799	0.123	-0.186
-689.368	543.291	0.044	-0.107
-688.354	-79.562	0.120	-0.041
-687.339	-103.546	-0.174	0.042
-686.324	800.000	0.064	0.196
-685.310	-200.000	-0.020	0.142
-684.295	-94.859	0.128	-0.036
-683.281	-89.972	0.281	-0.084
-682.266	800.000	0.048	-0.208
-681.251	327.575	-0.035	-0.068
-680.237	-184.826	0.279	-0.005
-679.222	-58.819	-0.184	-0.081
-678.208	14.426	0.006	-0.005
-677.193	800.000	-0.097	-0.318
-676.178	-91.657	-0.071	-0.021
-675.164	-71.396	0.305	-0.117
-674.149	-116.273	0.120	-0.023
-673.135	9.405	-0.027	0.021
-672.120	-30.641	0.149	-0.086
-671.105	23.657	-0.134	0.113
-670.091	570.364	-0.044	0.110
-669.076	483.541	-0.062	-0.145
-668.062	-200.000	0.074	0.398
-667.047	-111.146	-0.352	0.074
-666.032	-140.817	-0.130	0.014
-665.018	23.659	-0.148	-0.125
-664.003	-200.000	0.004	-0.335
-662.989	800.000	0.065	-0.185
-661.974	-22.540	-0.190	-0.117
-660.959	190.250	0.172	0.264
-659.945	-200.000	0.034	-0.172
-658.930	-120.346	0.067	-0.012
-657.916	-200.000	-0.011	0.069
-656.901	238.091	0.097	-0.165
-655.886	-25.211	-0.295	-0.178
-654.872	800.000	0.046	0.164
-653.857	74.575	-0.266	0.285
-652.843	-200.000	-0.002	-0.084
-651.828	800.000	0.026	0.108
-650.814	-200.000	0.010	-0.077
-649.799	-29.130	-0.093	0.054
-648.784	77.903	0.145	-0.157
-647.770	-6.874	0.074	-0.051
-646.755	131.232	0.267	0.350
-645.741	-137.375	0.433	-0.050
-644.726	386.220	0.117	-0.246
-643.711	-9.706	0.154	-0.104
-642.697	283.357	0.071	-0.131
-641.682	333.456	0.145	-0.285
-640.668	-49.220	0.025	-0.012
-639.653	-20.160	0.077	-0.048
-638.638	800.000	-0.111	-0.359
-637.624	-141.044	-0.194	0.020
-636.609	-200.000	0.107	0.489
-635.595	-200.000	-0.024	0.206
-634.580	65.257	0.241	-0.249
-633.565	101.342	0.095	-0.113
-632.551	800.000	-0.126	-0.358
-631.536	-200.000	-0.050	-0.323
-630.522	-43.931	0.141	0.072
-629.507	172.053	-0.285	0.417
-628.492	645.367	0.106	-0.277
-627.478	-82.732	-0.463	0.153
-626.463	-43.362	-0.299	-0.154
-625.449	800.000	-0.126	-0.475
-624.434	-200.000	0.046	0.396
-623.419	-200.000	0.059	0.308
-622.405	-80.549	-0.066	-0.022
-621.390	-91.951	0.413	-0.119
-620.376	-7.533	-0.307	-0.212
-619.361	769.261	0.041	-0.114
-618.346	-106.785	-0.315	0.071
-617.332	50.826	0.255	-0.246
-616.317	29.919	-0.260	-0.226
-615.303	110.160	0.094	-0.115
-614.288	-103.571	-0.316	-0.076
-613.273	486.463	-0.056	-0.131
-612.259	63.386	0.132	-0.135
-611.244	-200.000	-0.014	-0.371
-610.230	-119.415	0.085	0.015
-609.215	95.895	0.067	-0.078
-608.201	112.199	-0.183	-0.226
-607.186	800.000	0.031	-0.102
-606.171	311.719	-0.100	0.191
-605.157	20.340	0.356	-0.293
-604.142	40.406	-0.178	-0.163
-603.128	-200.000	-0.063	0.404
-602.113	409.071	0.089	-0.191
-601.098	-136.348	0.262	-0.031
-600.084	52.257	-0.284	-0.276
-599.069	-13.197	-0.138	-0.091
-598.055	77.043	-0.137	-0.149
-597.040	-65.749	0.119	-0.049
-596.025	51.761	-0.139	0.134
-595.011	2.094	-0.187	0.137
-593.996	88.969	-0.153	-0.174
-592.982	-200.000	-0.038	0.200
-591.967	-161.290	-0.206	-0.011
-590.952	732.515	0.109	0.296
-589.938	-14.869	-0.309	0.202
-588.923	-162.154	-0.205	-0.010
-587.909	-200.000	0.039	0.406
-586.894	-200.000	-0.008	-0.130
-585.879	24.509	-0.072	-0.060
-584.865	300.168	0.081	0.152
-583.850	23.361	0.074	0.062
-582.836	-142.167	-0.245	0.025
-581.821	-98.553	0.035	0.009
-580.806	122.119	0.153	0.194
-579.792	-8.848	0.199	0.136
-578.777	-106.415	0.188	-0.043
-577.763	-29.564	-0.136	0.079
-576.748	402.925	0.138	0.295
-575.733	-148.793	0.057	-0.005
-574.719	103.717	-0.178	-0.212
-573.704	111.512	0.198	-0.244
-572.690	33.077	-0.193	0.170
-571.675	-200.000	-0.001	-0.207
-570.661	116.490	0.063	0.079
-569.646	-13.841	-0.082	0.054
-568.631	-65.776	-0.457	0.186
-567.617	33.536	-0.141	0.124
-566.602	202.608	0.165	0.259
-565.588	-200.000	-0.038	-0.181
-564.573	386.337	0.140	-0.294
-563.558	326.368	0.075	-0.146
-562.544	-22.202	-0.101	-0.062
-561.529	-0.804	-0.228	-0.164
-560.515	800.000	-0.044	0.140
-559.500	279.673	-0.069	-0.125
-558.485	800.000	-0.038	-0.157
-557.471	-80.139	-0.285	0.097
-556.456	232.307	0.157	0.261
-555.442	-200.000	0.033	-0.272
-554.427	-96.814	-0.093	-0.025
-553.412	-43.386	0.335	0.172
-552.398	-128.402	0.239	-0.035
-551.383	800.000	0.101	-0.387
-550.369	-79.284	0.346	-0.119
-549.354	-12.632	-0.248	0.164
-548.339	-200.000	-0.064	0.299
-547.325	285.233	-0.037	0.068
-546.310	-5.992	-0.102	-0.071
-545.296	800.000	0.093	-0.289
-544.281	2.615	0.226	0.166
-543.266	146.640	0.216	0.294
-542.252	-36.891	0.295	0.161
-541.237	-39.998	-0.288	-0.153
-540.223	-200.000	-0.052	-0.317
-539.208	-138.481	-0.193	0.022
-538.193	-59.836	0.379	0.165
-537.179	213.413	0.136	-0.218
-536.164	71.454	-0.158	-0.166
-535.150	212.354	0.069	0.111
-534.135	800.000	0.078	0.302
-533.121	-26.212	-0.092	-0.055
-532.106	-159.760	0.144	0.008
-531.091	-109.629	-0.149	-0.032
-530.077	238.623	0.112	-0.189
-529.062	-200.000	0.025	-0.170
-528.048	-24.611	0.012	-0.007
-527.033	-89.857	-0.426	0.126
-526.018	198.681	0.103	0.160
-525.004	-43.175	-0.069	0.036
-523.989	-25.702	-0.056	-0.033
-522.975	800.000	0.039	-0.158
-521.960	-48.102	0.344	0.169
-520.945	-200.000	-0.100	-0.624
-519.931	-184.593	0.168	-0.003
-518.916	141.752	0.106	-0.143
-517.902	238.415	-0.150	-0.253
-516.887	-200.000	-0.010	0.229
-515.872	53.159	-0.239	0.232
-514.858	660.324	-0.060	-0.158
-513.843	396.925	0.066	-0.141
-512.829	-200.000	0.005	-0.152
-511.814	346.177	-0.092	0.183
-510.799	-180.586	0.125	0.003
-509.785	-120.911	0.241	-0.041
-508.770	-200.000	-0.055	0.407
-507.756	-200.000	-0.027	-0.371
-506.741	-63.444	0.130	0.054
-505.726	-200.000	-0.067	0.467
-504.712	800.000	0.055	0.214
-503.697	-200.000	0.002	0.198
-502.683	-118.359	-0.510	0.092
-501.668	800.000	0.064	0.251
-500.653	121.939	-0.144	-0.182
-499.639	687.023	-0.030	0.081
-498.624	-35.641	0.105	0.058
-497.610	-200.000	0.310	-0.001
-496.595	-100.029	-0.302	0.076
-495.581	-48.369	-0.142	0.069
-494.566	-200.000	0.034	-0.301
-493.551	-69.584	0.212	0.082
-492.537	422.986	0.115	-0.251
-491.522	-76.014	-0.096	0.034
-490.508	21.015	-0.341	-0.281
-489.493	25.412	0.167	0.141
-488.478	461.068	0.083	-0.188
-487.464	235.568	-0.043	0.073
-486.449	82.165	0.044	-0.048
-485.435	-8.132	-0.153	-0.105
-484.420	559.689	0.078	0.192
-483.405	12.661	0.130	-0.102
-482.391	-116.271	0.384	0.072
-481.376	-200.000	0.015	0.086
-480.362	-200.000	-0.004	-0.047
-479.347	2.679	-0.258	-0.189
-478.332	-18.137	-0.075	-0.047
-477.318	-120.553	0.391	-0.067
-476.303	554.708	0.086	0.209
-475.289	138.621	-0.156	-0.208
-474.274	-138.505	0.257	0.029
-473.259	800.000	-0.081	-0.295
-472.245	-200.000	0.027	-0.123
-471.230	637.346	0.176	-0.453
-470.216	-135.741	-0.195	0.023
-469.201	-4.310	-0.080	-0.056
-468.186	-29.782	-0.205	-0.119
-467.172	-95.955	0.157	0.042
-466.157	-57.734	0.303	0.134
-465.143	-2.793	-0.176	-0.125
-464.128	-200.000	0.010	-0.094
-463.113	800.000	0.013	-0.043
-462.099	-200.000	0.045	0.402
-461.084	-9.302	-0.174	0.118
-460.070	800.000	0.157	-0.465
-459.055	-54.013	-0.378	-0.174
-458.040	-140.933	-0.082	-0.009
-457.026	-200.000	0.004	0.184
-456.011	16.983	-0.114	-0.092
-454.997	-92.691	0.192	0.055
-453.982	800.000	0.074	-0.211
-452.968	-52.290	-0.369	-0.173
-451.953	-65.531	-0.329	-0.134
-450.938	388.236	0.125	0.262
-449.924	146.187	-0.184	0.250
-448.909	800.000	-0.092	0.336
-447.895	-67.295	-0.158	0.063
-446.880	95.109	0.125	0.144
-445.865	-140.058	0.119	0.013
-444.851	-99.847	0.302	0.077
-443.836	-25.673	0.196	0.117
-442.822	-70.037	0.137	-0.053
-441.807	176.006	0.110	0.162
-440.792	613.057	0.129	0.327
-439.778	-40.134	0.194	-0.102
-438.763	-121.605	-0.059	-0.010
-437.749	74.949	0.229	-0.244
-436.734	549.335	0.158	-0.383
-435.719	-200.000	0.011	0.140
-434.705	-14.472	-0.101	0.066
-433.690	-200.000	-0.032	-0.146
-432.676	-21.677	0.381	0.235
-431.661	-200.000	-0.009	0.139
-430.646	233.276	-0.177	-0.294
-429.632	-185.493	-0.266	0.004
-428.617	111.130	-0.287	0.349
-427.603	6.984	-0.144	-0.109
-426.588	-158.688	0.086	0.005
-425.573	-200.000	0.037	0.205
-424.559	-78.313	0.245	0.085
-423.544	-100.790	0.209	0.052
-422.530	10.690	-0.328	-0.253
-421.515	-24.840	0.096	-0.058
-420.500	-64.199	-0.145	-0.060
-419.486	-132.307	0.285	0.037
-418.471	-200.000	-0.003	0.094
-417.457	-41.752	-0.212	-0.110
-416.442	800.000	-0.046	-0.164
-415.428	463.045	0.216	0.489
-414.413	497.657	-0.145	0.337
-413.398	27.998	-0.136	-0.116
-412.384	800.000	0.058	-0.253
-411.369	-200.000	-0.053	0.289
-410.355	-181.907	0.219	0.004
-409.340	657.808	0.071	0.183
-408.325	94.472	-0.182	0.209
-407.311	370.622	-0.124	-0.254
-406.296	433.707	-0.096	0.210
-405.282	83.027	0.059	-0.065
-404.267	-56.650	0.112	-0.050
-403.252	47.257	0.167	-0.158
-402.238	15.435	-0.369	-0.293
-401.223	141.468	0.051	0.069
-400.209	-158.143	0.164	-0.010
-399.194	-200.000	-0.024	0.228
-398.179	13.854	-0.060	0.047
-397.165	-153.469	0.132	-0.009
-396.150	-200.000	0.031	-0.171
-395.136	556.975	0.050	0.122
-394.121	-43.565	-0.438	0.223
-393.106	414.418	0.053	0.113
-392.092	79.705	0.243	-0.263
-391.077	183.531	-0.091	0.136
-390.063	-115.448	0.241	0.046
-389.048	-200.000	0.026	-0.124
-388.033	39.910	-0.244	-0.221
-387.019	177.103	-0.054	-0.079
-386.004	800.000	0.030	0.105
-384.990	24.394	-0.067	-0.056
-383.975	-200.000	0.011	0.173
-382.960	28.892	-0.195	0.167
-381.946	41.690	-0.094	0.086
-380.931	-3.712	0.183	-0.128
-379.917	56.106	-0.068	-0.066
-378.902	-107.832	0.405	0.089
-377.888	71.330	-0.106	-0.111
-376.873	-4.263	-0.325	0.227
-375.858	-9.460	-0.136	0.091
-374.844	-200.000	-0.007	-0.196
-373.829	77.979	-0.210	-0.226
-372.815	-94.765	-0.258	-0.071
-371.800	-96.331	-0.180	-0.048
-370.785	759.709	0.055	0.151
-369.771	800.000	0.051	-0.159
-368.756	137.280	-0.095	0.125
-367.742	-144.619	0.122	-0.011
-366.727	-101.532	0.075	-0.018
-365.712	-50.539	-0.112	-0.053
-364.698	-33.818	0.176	-0.098
-363.683	800.000	0.022	0.072
-362.669	431.033	0.021	0.046
-361.654	-200.000	0.025	-0.139
-360.639	70.783	0.175	-0.183
-359.625	-200.000	0.000	0.045
-358.610	800.000	0.060	0.262
-357.596	-78.914	0.290	-0.100
-356.581	-30.070	0.128	-0.074
-355.566	52.988	-0.150	0.144
-354.552	-114.816	0.184	-0.035
-353.537	118.830	-0.078	0.098
-352.523	-80.569	0.422	-0.142
-351.508	-156.933	0.126	-0.008
-350.493	553.190	-0.075	0.182
-349.479	210.343	0.055	-0.086
-348.464	393.227	-0.064	-0.135
-347.450	-5.382	-0.108	-0.075
-346.435	800.000	-0.028	-0.099
-345.420	-44.979	0.285	0.143
-344.406	491.302	-0.155	-0.358
-343.391	190.458	-0.159	-0.240
-342.377	60.418	-0.228	0.227
-341.362	118.790	-0.144	0.179
-340.348	-65.623	0.133	-0.054
-339.333	531.977	-0.111	-0.265
-338.318	-98.601	0.187	-0.048
-337.304	-195.891	-0.258	0.002
-336.289	-54.129	-0.058	0.027
-335.275	-200.000	0.023	0.283
-334.260	-200.000	-0.004	-0.081
-333.245	44.122	-0.159	0.147
-332.231	177.010	0.104	-0.153
-331.216	53.712	0.149	-0.145
-330.202	-102.170	0.085	-0.021
-329.187	800.000	-0.078	-0.223
-328.172	33.920	0.229	0.201
-327.158	209.592	0.072	0.114
-326.143	-200.000	-0.011	0.181
-325.129	207.267	-0.219	0.344
-324.114	-3.798	-0.178	-0.124
-323.099	-17.799	-0.355	-0.225
-322.085	6.405	0.162	0.121
-321.070	800.000	-0.068	-0.215
-320.056	800.000	-0.085	0.283
-319.041	800.000	0.035	0.147
-318.026	187.709	0.129	0.194
-317.012	-200.000	-0.005	-0.166
-315.997	48.624	-0.019	0.018
-314.983	-93.237	-0.086	0.024
-313.968	362.774	0.119	0.240
-312.953	76.350	-0.258	0.275
-311.939	-191.064	0.264	0.003
-310.924	-115.345	0.353	0.067
-309.910	-200.000	0.009	-0.156
-308.895	-78.297	0.384	0.133
-307.880	-105.883	0.227	-0.052
-306.866	-85.777	-0.444	-0.139
-305.851	432.098	-0.083	0.181
-304.837	-79.139	-0.165	-0.056
-303.822	20.037	0.161	-0.131
-302.807	800.000	-0.063	-0.244
-301.793	-1.426	-0.155	0.110
-300.778	-43.440	-0.064	0.032
-299.764	800.000	0.149	-0.456
-298.749	-200.000	0.037	0.276
-297.735	-78.917	-0.228	0.078
-296.720	360.760	0.094	0.189
-295.705	800.000	0.044	-0.140
-294.691	74.911	0.135	-0.143
-293.676	800.000	-0.036	0.133
-292.662	51.799	0.202	0.193
-291.647	-77.488	-0.148	0.052
-290.632	442.197	-0.022	0.049
-289.618	-41.133	-0.244	0.127
-288.603	19.458	-0.077	-0.062
-287.589	67.292	-0.037	-0.038
-286.574	800.000	-0.066	0.208
-285.559	-83.689	-0.157	-0.050
-284.545	24.043	-0.110	0.091
-283.530	800.000	0.116	0.429
-282.516	-200.000	-0.017	-0.271
-281.501	709.580	0.142	0.377
-280.486	-59.145	0.354	0.153
-279.472	-200.000	0.004	-0.238
-278.457	456.813	0.149	-0.332
-277.443	-200.000	0.009	-0.114
-276.428	25.502	-0.256	0.214
-275.413	47.325	-0.146	-0.137
-274.399	-26.158	0.028	0.017
-273.384	-151.769	0.092	0.007
-272.370	-137.144	-0.393	0.045
-271.355	-121.995	-0.043	0.007
-270.340	-115.465	0.110	-0.021
-269.326	103.490	-0.062	0.073
-268.311	606.449	0.048	-0.119
-267.297	258.053	-0.108	-0.186
-266.282	-79.952	0.179	-0.060
-265.267	-200.000	0.011	0.082
-264.253	800.000	0.059	-0.182
-263.238	63.231	-0.093	-0.093
-262.224	97.544	0.120	-0.139
-261.209	800.000	0.032	-0.135
-260.195	-200.000	0.026	0.216
-259.180	-38.456	-0.208	0.111
-258.165	65.505	-0.156	-0.159
-257.151	-161.299	0.150	0.008
-256.136	-200.000	-0.013	-0.104
-255.122	-200.000	0.032	0.329
-254.107	-0.823	-0.113	0.081
-253.092	-142.187	0.230	-0.023
-252.078	-164.932	0.389	-0.017
-251.063	677.955	0.030	0.078
-250.049	11.712	-0.057	-0.044
-249.034	207.797	-0.147	-0.230
-248.019	139.346	-0.150	-0.199
-247.005	800.000	0.092	-0.282
-245.990	-23.203	0.238	-0.144
-244.976	-185.562	0.191	0.003
-243.961	-103.472	-0.121	0.029
-242.946	6.843	-0.073	0.054
-241.932	-10.312	-0.359	-0.239
-240.917	18.576	-0.135	0.108
-239.903	-15.592	-0.164	0.105
-238.888	-95.250	-0.116	-0.031
-237.873	399.045	-0.129	0.271
-236.859	-200.000	-0.031	0.309
-235.844	-200.000	0.006	0.244
-234.830	800.000	0.110	0.450
-233.815	-161.253	0.150	-0.008
-232.800	345.121	0.085	0.167
-231.786	389.805	-0.065	0.135
-230.771	-119.989	0.392	-0.067
-229.757	-64.869	0.281	0.114
-228.742	179.711	-0.172	0.253
-227.727	-139.583	-0.220	-0.024
-226.713	-200.000	-0.013	-0.169
-225.698	-200.000	0.044	-0.266
-224.684	28.565	0.142	0.120
-223.669	31.342	0.153	-0.132
-222.655	220.242	-0.058	-0.093
-221.640	-200.000	0.039	-0.198
-220.625	-71.633	-0.060	0.022
-219.611	-118.522	-0.010	-0.002
-218.596	85.926	-0.137	-0.151
-217.582	-200.000	-0.019	0.114
-216.567	-91.804	0.123	0.035
-215.552	-123.443	-0.125	0.020
-214.538	33.340	0.162	0.141
-213.523	463.558	0.048	-0.108
-212.509	99.609	0.297	0.345
-211.494	-200.000	0.011	-0.151
-210.479	-115.748	0.278	-0.052
-209.465	97.329	-0.108	-0.124
-208.450	327.988	0.072	-0.139
-207.436	400.046	-0.089	0.187
-206.421	77.932	0.234	0.250
-205.406	93.675	-0.121	-0.138
-204.392	-9.744	-0.177	0.118
-203.377	-12.227	0.193	-0.126
-202.363	800.000	0.091	0.397
-201.348	102.323	0.106	-0.124
-200.333	800.000	-0.011	0.042
-199.319	-109.822	0.185	-0.039
-198.304	-12.700	0.245	0.160
-197.290	16.420	-0.185	0.147
-196.275	-100.456	0.149	-0.037
-195.260	503.362	-0.007	0.016
-194.246	-200.000	0.061	0.278
-193.231	-200.000	-0.044	-0.366
-192.217	-44.420	-0.270	-0.135
-191.202	-147.050	-0.174	0.015
-190.187	141.380	-0.173	-0.229
-189.173	-124.038	-0.012	-0.002
-188.158	163.437	-0.196	-0.275
-187.144	-73.966	-0.195	-0.071
-186.129	800.000	-0.075	0.227
-185.114	238.440	0.244	0.405
-184.100	-141.860	-0.127	0.013
-183.085	48.253	-0.192	0.180
-182.071	272.146	0.181	0.320
-181.056	104.922	0.195	0.230
-180.042	90.304	0.109	-0.122
-179.027	-200.000	0.033	0.427
-178.012	-200.000	0.051	-0.248
-176.998	-61.345	0.188	-0.079
-175.983	-200.000	-0.048	0.214
-174.969	800.000	-0.070	-0.204
-173.954	-51.662	0.351	-0.164
-172.939	223.736	0.173	-0.280
-171.925	-88.699	-0.066	0.020
-170.910	46.870	-0.052	-0.048
-169.896	0.652	-0.162	0.116
-168.881	-104.920	-0.340	0.078
-167.866	-124.042	-0.155	-0.024
-166.852	800.000	0.051	0.176
-165.837	-151.034	0.125	-0.009
-164.823	-182.056	0.082	0.002
-163.808	319.152	-0.017	-0.032
-162.793	-63.937	-0.261	-0.107
-161.779	-179.714	0.195	-0.004
-160.764	99.546	0.112	-0.130
-159.750	800.000	0.013	-0.038
-158.735	-117.423	-0.135	0.024
-157.720	15.555	0.125	0.099
-156.706	104.433	-0.057	-0.068
-155.691	248.921	-0.123	0.208
-154.677	12.498	-0.133	0.103
-153.662	97.761	-0.268	0.308
-152.647	39.829	0.192	0.173
-151.633	-200.000	0.027	-0.122
-150.618	3.799	0.188	0.138
-149.604	-166.590	0.208	-0.009
-148.589	214.028	0.098	0.156
-147.574	142.739	-0.153	-0.203
-146.560	800.000	-0.034	-0.145
-145.545	310.979	-0.119	-0.222
-144.531	173.302	-0.163	-0.235
-143.516	-44.619	-0.027	-0.014
-142.502	665.303	-0.015	-0.039
-141.487	800.000	0.098	0.409
-140.472	520.968	0.100	-0.233
-139.458	55.389	-0.145	-0.140
-138.443	260.726	-0.041	-0.071
-137.429	78.177	0.034	0.037
-136.414	-200.000	0.041	-0.246
-135.399	-200.000	0.082	0.674
-134.385	-131.445	-0.304	-0.040
-133.370	-114.743	0.140	0.027
-132.356	-38.487	0.385	-0.204
-131.341	800.000	0.051	0.222
-130.326	142.461	0.147	-0.195
-129.312	-51.178	-0.214	-0.100
-128.297	255.439	0.076	-0.130
-127.283	-83.073	-0.156	0.050
-126.268	-134.762	0.216	-0.026
-125.253	-82.857	-0.276	-0.089
-124.239	200.422	-0.100	-0.153
-123.224	800.000	-0.027	-0.094
-122.210	800.000	0.029	-0.085
-121.195	-200.000	-0.017	0.102
