DTS Sentinel unit serial number:	SN413079Multiplexer serial number:	ORYXHardware model number:	OX4-SRSoftware version number:	ORYX F/W v4.00 Oryx Data Collector v3.7.2.0data status	okinstallation	princeton_trtdifferential loss correction	single-endedforward channel	channel 3reverse channel	N/Adate	2019/09/12time	02:22:10forward acquisition time	60.00reverse acquisition time	0.00gamma	496.2192k internal	0.2321k external	0.2321temperature offset calibration	1.0068default loss term (dB/km)	0.3790temperature slope calibration	1.0000multiplexer offset coefficient	1.0000multiplexer slope coefficient	1.0000fibre end	0.00T internal ref (°C)	32.55T ext. ref 1 (°C)	2.09T ext. ref 2 (°C)	26.83length (m)	temperature (°C)	Stokes	anti-Stokes-747.200	-200.000	0.021	0.000
-746.185	-101.986	-0.095	-0.023
-745.171	-79.290	-0.414	0.142
-744.156	433.489	0.111	0.243
-743.142	-128.072	0.036	0.005
-742.127	-112.678	0.110	-0.022
-741.112	-20.869	-0.061	-0.038
-740.098	800.000	0.066	-0.227
-739.083	800.000	-0.032	0.139
-738.069	-2.031	-0.375	0.266
-737.054	84.357	0.029	-0.032
-736.039	-200.000	-0.005	0.050
-735.025	614.041	-0.033	-0.084
-734.010	49.330	-0.158	0.150
-732.996	215.259	-0.178	-0.285
-731.981	89.715	0.021	-0.024
-730.966	-122.234	0.013	-0.002
-729.952	-73.361	0.110	-0.041
-728.937	-200.000	0.048	-0.230
-727.923	425.260	-0.160	-0.348
-726.908	45.694	0.028	0.026
-725.894	175.571	-0.066	0.096
-724.879	-155.130	0.088	-0.006
-723.864	169.765	-0.122	0.177
-722.850	-29.046	-0.251	-0.146
-721.835	-48.130	-0.560	0.273
-720.821	-6.702	-0.178	0.122
-719.806	-165.089	0.385	-0.017
-718.791	-128.053	-0.152	-0.022
-717.777	-114.989	-0.315	-0.060
-716.762	800.000	-0.080	-0.263
-715.748	-200.000	-0.057	-0.256
-714.733	800.000	-0.075	-0.322
-713.718	-200.000	0.009	-0.277
-712.704	-5.178	-0.388	-0.269
-711.689	-75.183	-0.186	0.067
-710.675	-36.885	0.194	-0.105
-709.660	-145.966	-0.532	-0.048
-708.645	153.757	0.333	-0.461
-707.631	-26.056	-0.205	0.122
-706.616	412.323	0.082	0.176
-705.602	-97.578	0.355	0.093
-704.587	-5.894	-0.160	0.111
-703.572	24.500	0.219	0.183
-702.558	-145.765	0.134	-0.012
-701.543	-117.527	-0.156	0.028
-700.529	-2.368	-0.172	-0.122
-699.514	-18.580	0.133	0.083
-698.499	292.329	-0.151	0.277
-697.485	157.611	0.055	0.076
-696.470	-92.442	0.211	0.060
-695.456	22.859	-0.266	-0.220
-694.441	145.319	0.029	0.039
-693.426	68.398	0.009	-0.009
-692.412	-101.157	-0.230	0.057
-691.397	800.000	0.065	-0.199
-690.383	159.665	0.210	-0.295
-689.368	601.325	-0.061	0.153
-688.354	-171.161	-0.133	0.005
-687.339	-84.751	-0.367	0.116
-686.324	800.000	0.070	0.286
-685.310	-200.000	0.028	-0.157
-684.295	51.065	0.242	0.232
-683.281	-109.514	-0.083	-0.018
-682.266	172.120	0.074	-0.107
-681.251	800.000	0.028	-0.085
-680.237	800.000	-0.050	0.145
-679.222	800.000	0.046	-0.161
-678.208	-176.537	-0.152	0.004
-677.193	800.000	-0.100	-0.353
-676.178	800.000	-0.054	-0.202
-675.164	-47.726	-0.255	0.124
-674.149	-200.000	0.005	-0.120
-673.135	244.405	0.081	0.138
-672.120	-43.174	-0.040	-0.021
-671.105	508.077	-0.122	0.284
-670.091	561.918	0.060	-0.146
-669.076	291.306	0.117	0.215
-668.062	107.894	0.116	-0.140
-667.047	-81.607	-0.476	-0.157
-666.032	-116.677	0.118	0.022
-665.018	-157.552	0.205	0.012
-664.003	705.131	-0.075	0.199
-662.989	-64.803	-0.178	-0.073
-661.974	0.398	0.125	0.090
-660.959	-74.349	0.024	-0.009
-659.945	54.032	0.239	0.231
-658.930	64.594	-0.142	-0.144
-657.916	263.055	-0.138	0.242
-656.901	800.000	0.052	-0.162
-655.886	-123.666	-0.388	0.062
-654.872	-131.227	-0.130	0.017
-653.857	-15.564	0.083	-0.053
-652.843	304.025	-0.140	-0.261
-651.828	205.916	0.190	-0.297
-650.814	-5.106	-0.041	-0.028
-649.799	-200.000	-0.003	0.487
-648.784	49.393	0.088	0.083
-647.770	99.598	0.251	-0.293
-646.755	800.000	-0.012	-0.044
-645.741	337.286	-0.050	0.097
-644.726	-122.139	0.233	-0.038
-643.711	800.000	0.039	-0.164
-642.697	-8.185	0.180	-0.122
-641.682	148.279	-0.104	0.141
-640.668	800.000	-0.105	-0.331
-639.653	193.142	0.130	0.198
-638.638	-200.000	0.004	-0.037
-637.624	49.287	0.120	0.114
-636.609	-139.317	-0.379	0.041
-635.595	-24.491	0.247	-0.148
-634.580	-83.050	-0.276	-0.089
-633.565	-34.086	-0.160	-0.088
-632.551	800.000	0.090	0.264
-631.536	-137.305	0.102	0.012
-630.522	351.641	-0.070	-0.139
-629.507	52.135	-0.202	-0.193
-628.492	-43.630	-0.194	-0.099
-627.478	129.954	0.069	0.089
-626.463	-3.761	-0.278	-0.194
-625.449	-7.155	-0.119	-0.081
-624.434	-200.000	-0.046	0.390
-623.419	-79.426	0.348	0.119
-622.405	69.996	0.171	-0.178
-621.390	800.000	-0.043	0.125
-620.376	88.445	0.237	-0.265
-619.361	-128.559	0.312	0.044
-618.346	-117.529	-0.284	-0.052
-617.332	-102.533	-0.282	-0.068
-616.317	800.000	0.089	-0.294
-615.303	800.000	0.081	0.325
-614.288	-12.254	0.092	0.061
-613.273	800.000	-0.041	-0.134
-612.259	-200.000	0.023	-0.134
-611.244	178.028	0.034	-0.050
-610.230	164.900	-0.082	-0.116
-609.215	73.760	-0.147	-0.155
-608.201	328.156	-0.103	0.198
-607.186	-146.302	-0.285	0.025
-606.171	228.402	-0.065	0.106
-605.157	-54.622	0.254	0.115
-604.142	-200.000	0.008	0.119
-603.128	-39.048	-0.347	0.184
-602.113	-191.811	0.263	0.003
-601.098	-44.335	-0.370	-0.186
-600.084	-133.964	0.214	0.027
-599.069	-200.000	0.056	-0.321
-598.055	-42.143	0.225	-0.116
-597.040	89.923	-0.246	0.276
-596.025	-34.386	-0.216	-0.119
-595.011	-200.000	-0.025	0.321
-593.996	-200.000	0.002	-0.137
-592.982	705.168	0.023	0.060
-591.967	5.605	0.173	0.129
-590.952	-200.000	0.014	-0.147
-589.938	26.909	-0.228	-0.192
-588.923	50.673	-0.102	-0.097
-587.909	383.970	-0.070	0.146
-586.894	1.459	0.371	0.268
-585.879	-73.575	-0.321	0.118
-584.865	7.307	-0.077	0.058
-583.850	-65.765	0.195	-0.079
-582.836	594.351	0.061	-0.152
-581.821	219.430	-0.054	0.086
-580.806	-28.510	0.349	-0.202
-579.792	-37.687	-0.207	0.111
-578.777	800.000	-0.038	0.165
-577.763	-106.426	-0.145	0.033
-576.748	-42.626	-0.028	0.014
-575.733	-154.914	0.310	-0.021
-574.719	17.629	-0.227	-0.181
-573.704	-200.000	0.014	-0.363
-572.690	151.207	-0.045	-0.062
-571.675	-200.000	0.002	0.195
-570.661	-109.192	-0.305	-0.065
-569.646	-72.624	0.015	0.005
-568.631	800.000	0.107	0.400
-567.617	-200.000	0.014	-0.163
-566.602	-30.753	-0.258	0.147
-565.588	-200.000	0.024	0.288
-564.573	230.778	-0.027	-0.044
-563.558	-58.575	-0.397	-0.173
-562.544	-53.465	-0.071	0.033
-561.529	800.000	0.049	0.164
-560.515	151.753	0.109	-0.150
-559.500	251.577	-0.100	0.170
-558.485	-144.829	-0.074	0.007
-557.471	800.000	0.051	0.170
-556.456	-0.465	-0.166	0.118
-555.442	-102.133	-0.221	-0.053
-554.427	118.302	-0.150	0.186
-553.412	-57.583	0.151	0.067
-552.398	207.877	0.057	-0.090
-551.383	-200.000	0.016	0.127
-550.369	-20.846	0.346	-0.213
-549.354	-51.024	-0.092	-0.044
-548.339	-18.918	0.225	0.140
-547.325	95.115	0.179	-0.205
-546.310	105.281	-0.118	-0.139
-545.296	-58.755	0.074	-0.032
-544.281	529.606	-0.146	0.347
-543.266	14.661	0.041	0.032
-542.252	0.654	0.423	0.304
-541.237	-200.000	-0.046	-0.269
-540.223	-200.000	-0.017	-0.139
-539.208	1.927	-0.270	0.195
-538.193	176.273	0.087	-0.127
-537.179	101.832	-0.233	0.273
-536.164	-200.000	0.024	-0.114
-535.150	-166.837	0.181	0.007
-534.135	-32.390	-0.162	0.090
-533.121	594.080	-0.116	-0.287
-532.106	145.324	0.120	0.162
-531.091	332.269	-0.145	-0.281
-530.077	321.156	-0.087	-0.167
-529.062	-107.686	0.374	-0.082
-528.048	24.823	-0.016	-0.014
-527.033	-106.950	-0.286	0.063
-526.018	-56.107	-0.364	-0.162
-525.004	-200.000	-0.010	-0.260
-523.989	-113.702	0.207	0.040
-522.975	96.945	-0.078	0.089
-521.960	-92.668	-0.385	-0.108
-520.945	174.264	0.157	0.228
-519.931	203.706	-0.108	-0.167
-518.916	-200.000	-0.008	0.200
-517.902	13.514	-0.308	0.240
-516.887	12.639	-0.363	-0.281
-515.872	-155.120	0.182	0.012
-514.858	-200.000	0.031	0.174
-513.843	-124.528	0.267	0.042
-512.829	-8.493	-0.073	-0.049
-511.814	-11.631	0.109	-0.072
-510.799	-3.778	0.115	0.080
-509.785	-200.000	0.005	0.076
-508.770	121.910	-0.158	-0.197
-507.756	-9.394	-0.265	0.177
-506.741	-166.783	-0.117	-0.005
-505.726	581.385	-0.073	-0.179
-504.712	-0.994	0.235	-0.167
-503.697	-107.858	-0.384	-0.084
-502.683	-136.356	0.322	-0.038
-501.668	321.287	-0.027	0.051
-500.653	213.398	-0.037	-0.058
-499.639	-146.106	0.076	-0.007
-498.624	-200.000	-0.009	-0.254
-497.610	-12.664	-0.064	-0.042
-496.595	-200.000	0.022	0.111
-495.581	-135.145	0.172	0.021
-494.566	119.222	-0.223	0.276
-493.551	12.443	-0.187	-0.144
-492.537	20.444	0.183	0.148
-491.522	778.689	0.028	0.076
-490.508	-7.517	0.204	0.138
-489.493	-41.489	-0.048	-0.025
-488.478	-119.544	0.164	-0.028
-487.464	60.474	-0.087	0.086
-486.449	-101.353	-0.153	-0.037
-485.435	-46.497	0.320	0.157
-484.420	-200.000	-0.027	-0.131
-483.405	320.316	0.050	-0.095
-482.391	-200.000	0.037	-0.403
-481.376	50.280	0.058	0.055
-480.362	-78.092	-0.278	0.096
-479.347	-8.251	-0.065	0.044
-478.332	7.979	-0.087	-0.065
-477.318	-200.000	0.030	0.148
-476.303	-200.000	0.010	0.075
-475.289	-200.000	0.040	0.380
-474.274	416.303	-0.047	-0.101
-473.259	-200.000	-0.005	-0.105
-472.245	-91.715	0.232	0.066
-471.230	-200.000	0.016	-0.080
-470.216	-132.494	0.254	0.033
-469.201	-51.267	-0.238	-0.111
-468.186	-47.180	-0.056	-0.027
-467.172	-25.955	0.143	-0.084
-466.157	-178.822	0.075	0.002
-465.143	800.000	0.078	-0.253
-464.128	-21.577	0.132	-0.080
-463.113	-200.000	0.024	-0.332
-462.099	800.000	0.038	0.162
-461.084	23.495	-0.138	-0.114
-460.070	302.754	0.129	-0.238
-459.055	800.000	-0.140	0.474
-458.040	800.000	0.056	0.180
-457.026	-117.522	-0.275	0.050
-456.011	-200.000	-0.091	0.468
-454.997	65.707	-0.276	-0.280
-453.982	-165.391	-0.141	-0.006
-452.968	-144.718	-0.109	-0.010
-451.953	-136.380	-0.253	-0.029
-450.938	-145.787	0.187	-0.017
-449.924	19.986	0.223	-0.180
-448.909	50.467	-0.267	0.252
-447.895	800.000	-0.133	-0.383
-446.880	50.124	0.137	-0.130
-445.865	-200.000	-0.056	0.284
-444.851	-200.000	-0.025	-0.452
-443.836	-73.488	-0.376	-0.137
-442.822	-50.037	-0.181	0.086
-441.807	451.245	-0.049	0.109
-440.792	251.475	0.105	-0.178
-439.778	783.702	-0.222	0.609
-438.763	33.776	0.271	0.235
-437.749	71.226	0.091	-0.094
-436.734	-63.344	-0.072	-0.030
-435.719	451.723	-0.081	-0.178
-434.705	800.000	0.073	0.242
-433.690	199.967	0.161	0.246
-432.676	19.016	-0.095	-0.076
-431.661	-3.854	0.331	0.229
-430.646	-157.418	0.127	0.008
-429.632	-103.010	-0.388	0.092
-428.617	484.289	0.169	0.383
-427.603	800.000	-0.024	0.101
-426.588	367.901	-0.055	-0.111
-425.573	800.000	0.059	0.240
-424.559	155.459	-0.130	0.179
-423.544	535.603	-0.039	0.092
-422.530	-59.063	0.036	-0.015
-421.515	-3.265	0.122	0.085
-420.500	92.705	-0.058	-0.065
-419.486	72.049	-0.107	-0.112
-418.471	246.224	-0.157	0.264
-417.457	-121.165	0.296	0.049
-416.442	222.484	-0.240	0.386
-415.428	800.000	-0.097	-0.307
-414.413	148.645	-0.162	-0.219
-413.398	-200.000	-0.009	-0.289
-412.384	-148.868	0.400	0.032
-411.369	8.139	-0.330	0.247
-410.355	-110.997	0.356	0.073
-409.340	267.412	0.168	0.293
-408.325	-109.974	-0.191	0.040
-407.311	-150.768	-0.263	0.020
-406.296	35.909	-0.014	-0.012
-405.282	-89.992	0.125	-0.036
-404.267	-123.559	0.114	-0.018
-403.252	-200.000	-0.058	-0.260
-402.238	-200.000	-0.041	-0.490
-401.223	-61.459	-0.181	-0.076
-400.209	-65.711	0.341	-0.136
-399.194	215.124	0.204	0.323
-398.179	-88.583	-0.134	0.040
-397.165	391.908	0.046	0.096
-396.150	-200.000	0.007	-0.038
-395.136	407.199	-0.111	-0.233
-394.121	-200.000	-0.002	-0.112
-393.106	-24.451	0.254	0.151
-392.092	118.593	-0.106	-0.130
-391.077	169.508	0.161	0.230
-390.063	-54.182	0.211	0.096
-389.048	166.062	-0.198	0.280
-388.033	-68.341	-0.394	0.153
-387.019	-73.585	-0.227	0.083
-386.004	699.895	0.143	-0.374
-384.990	72.730	-0.089	0.092
-383.975	274.241	-0.129	-0.227
-382.960	123.432	0.238	-0.298
-381.946	-132.008	0.220	0.029
-380.931	51.194	-0.169	-0.160
-379.917	-32.227	0.093	-0.052
-378.902	142.806	0.092	0.122
-377.888	236.087	0.126	0.207
-376.873	125.671	-0.233	0.293
-375.858	-119.856	0.340	-0.058
-374.844	40.445	0.303	-0.271
-373.829	-0.899	-0.051	-0.036
-372.815	800.000	-0.073	-0.253
-371.800	110.624	-0.104	-0.124
-370.785	-200.000	-0.051	0.266
-369.771	31.130	0.074	-0.063
-368.756	99.607	0.188	0.217
-367.742	-126.700	-0.148	0.022
-366.727	-11.246	-0.248	-0.163
-365.712	-139.803	-0.106	0.011
-364.698	-61.169	-0.402	0.169
-363.683	-153.464	-0.299	-0.021
-362.669	-91.908	-0.191	0.054
-361.654	5.159	-0.230	-0.169
-360.639	-196.455	-0.230	-0.002
-359.625	-104.436	0.284	0.065
-358.610	-15.509	0.143	0.091
-357.596	280.749	-0.149	-0.265
-356.581	144.738	0.188	0.250
-355.566	31.683	0.054	0.046
-354.552	800.000	-0.106	-0.395
-353.537	-52.226	-0.176	-0.081
-352.523	24.337	-0.256	-0.211
-351.508	-200.000	-0.022	-0.145
-350.493	-200.000	0.020	0.184
-349.479	-39.822	0.151	-0.079
-348.464	143.984	0.127	0.169
-347.450	106.887	0.200	0.237
-346.435	800.000	0.062	0.193
-345.420	800.000	0.070	-0.231
-344.406	-200.000	0.047	0.285
-343.391	-3.702	-0.120	-0.083
-342.377	-134.575	0.377	0.046
-341.362	227.113	0.107	-0.173
-340.348	1.147	-0.105	-0.075
-339.333	-104.675	0.283	-0.065
-338.318	800.000	-0.024	-0.066
-337.304	-121.612	-0.322	-0.053
-336.289	-136.246	0.113	0.013
-335.275	-92.870	-0.320	-0.089
-334.260	-200.000	0.011	0.056
-333.245	160.357	0.136	0.189
-332.231	-101.085	-0.191	0.046
-331.216	-200.000	-0.002	-0.252
-330.202	-101.602	-0.283	0.068
-329.187	250.735	0.199	0.336
-328.172	3.881	-0.089	-0.065
-327.158	34.755	0.215	0.187
-326.143	130.173	-0.038	-0.048
-325.129	-46.707	-0.126	-0.062
-324.114	138.409	-0.134	0.175
-323.099	-200.000	-0.035	-0.253
-322.085	-119.607	0.565	0.097
-321.070	-104.743	0.116	-0.027
-320.056	148.294	0.242	0.324
-319.041	-141.588	-0.204	0.020
-318.026	800.000	0.051	0.198
-317.012	-200.000	0.038	0.267
-315.997	18.759	-0.183	0.146
-314.983	261.079	-0.183	-0.315
-313.968	-36.126	0.150	-0.081
-312.953	31.981	-0.231	-0.198
-311.939	-200.000	-0.039	-0.436
-310.924	313.689	0.167	-0.311
-309.910	378.419	0.261	-0.531
-308.895	-110.262	-0.009	0.002
-307.880	-200.000	0.004	0.074
-306.866	120.259	0.204	-0.251
-305.851	-73.179	-0.275	-0.100
-304.837	-175.021	-0.227	-0.006
-303.822	800.000	0.078	-0.251
-302.807	-194.689	-0.088	0.001
-301.793	36.176	0.122	0.107
-300.778	-153.649	-0.142	-0.010
-299.764	-40.215	-0.236	-0.122
-298.749	-200.000	0.010	-0.361
-297.735	800.000	-0.070	0.208
-296.720	-78.743	-0.089	-0.030
-295.705	-200.000	-0.039	0.245
-294.691	487.509	0.075	0.171
-293.676	800.000	-0.042	-0.137
-292.662	148.154	-0.080	0.107
-291.647	-41.076	-0.239	-0.123
-290.632	-19.736	0.313	-0.192
-289.618	195.629	0.057	-0.086
-288.603	-121.330	-0.170	0.028
-287.589	43.798	0.132	0.120
-286.574	220.425	0.105	0.167
-285.559	-200.000	0.001	0.231
-284.545	-135.644	0.256	-0.030
-283.530	-85.664	-0.310	0.096
-282.516	-111.197	0.370	0.075
-281.501	-81.042	0.292	0.096
-280.486	113.011	0.200	-0.241
-279.472	-68.793	0.223	0.086
-278.457	-200.000	0.027	0.186
-277.443	-15.847	-0.111	-0.070
-276.428	46.174	0.086	-0.079
-275.413	63.299	0.149	0.148
-274.399	-30.622	0.226	-0.127
-273.384	-200.000	0.049	0.248
-272.370	-93.283	0.136	-0.037
-271.355	-40.999	-0.182	0.094
-270.340	800.000	0.026	0.086
-269.326	292.586	-0.103	0.187
-268.311	800.000	0.047	-0.132
-267.297	-200.000	-0.020	0.138
-266.282	2.477	0.387	0.278
-265.267	-78.323	0.355	0.121
-264.253	-65.729	0.245	0.097
-263.238	-200.000	0.013	-0.225
-262.224	42.806	-0.048	0.044
-261.209	800.000	0.049	-0.183
-260.195	304.619	0.224	0.413
-259.180	128.009	0.303	-0.382
-258.165	-200.000	-0.003	-0.228
-257.151	-200.000	0.097	0.436
-256.136	-122.917	-0.066	0.010
-255.122	-200.000	0.007	-0.366
-254.107	92.742	0.289	-0.323
-253.092	73.568	-0.147	-0.152
-252.078	800.000	0.055	0.213
-251.063	-200.000	-0.024	0.129
-250.049	-200.000	0.013	-0.078
-249.034	-121.561	-0.028	0.005
-248.019	-4.132	-0.379	0.260
-247.005	-136.306	0.252	0.029
-245.990	270.390	-0.085	-0.149
-244.976	-52.994	-0.152	0.069
-243.961	-170.765	-0.207	0.007
-242.946	-200.000	-0.015	-0.259
-241.932	793.546	-0.116	0.315
-240.917	800.000	-0.051	-0.144
-239.903	296.582	0.096	-0.175
-238.888	-200.000	0.076	0.337
-237.873	-145.898	-0.391	0.034
-236.859	-51.399	0.367	-0.170
-235.844	298.790	-0.177	0.322
-234.830	-110.461	0.223	-0.046
-233.815	-200.000	0.027	-0.366
-232.800	-11.173	-0.166	-0.108
-231.786	383.636	-0.131	0.266
-230.771	-200.000	0.009	0.231
-229.757	127.985	-0.051	0.064
-228.742	533.470	0.136	-0.320
-227.727	800.000	-0.044	0.140
-226.713	-16.599	0.184	-0.116
-225.698	-192.037	0.273	0.003
-224.684	3.987	-0.141	-0.102
-223.669	-58.799	-0.239	-0.103
-222.655	-200.000	-0.005	-0.028
-221.640	-23.543	0.085	-0.050
-220.625	659.265	-0.039	-0.100
-219.611	-83.711	-0.241	0.076
-218.596	242.784	-0.117	-0.195
-217.582	-24.516	-0.069	-0.041
-216.567	-200.000	0.044	0.441
-215.552	10.080	0.179	0.135
-214.538	800.000	0.187	-0.625
-213.523	800.000	0.087	0.337
-212.509	-14.398	-0.122	-0.078
-211.494	800.000	-0.070	-0.221
-210.479	419.483	0.064	0.136
-209.465	33.070	-0.167	0.144
-208.450	77.411	-0.115	0.121
-207.436	-1.345	0.185	0.129
-206.421	87.272	0.180	-0.197
-205.406	-86.452	-0.114	-0.035
-204.392	800.000	-0.039	-0.165
-203.377	163.210	-0.089	0.124
-202.363	-24.495	0.216	0.127
-201.348	-22.795	0.263	0.157
-200.333	800.000	-0.083	0.314
-199.319	-92.421	0.157	0.044
-198.304	257.212	0.103	-0.176
-197.290	-75.618	0.181	0.064
-196.275	-200.000	-0.021	0.145
-195.260	209.267	0.035	-0.055
-194.246	106.097	0.219	0.256
-193.231	-139.649	-0.070	0.007
-192.217	-128.144	0.498	0.071
-191.202	150.480	-0.053	0.072
-190.187	-16.773	-0.171	-0.107
-189.173	-65.019	-0.112	-0.045
-188.158	666.075	0.076	0.193
-187.144	241.761	-0.147	0.243
-186.129	45.386	0.085	0.077
-185.114	41.279	-0.042	-0.037
-184.100	-95.910	0.261	0.069
-183.085	-117.821	-0.066	-0.012
-182.071	17.322	-0.288	-0.226
-181.056	-82.113	0.303	-0.098
-180.042	117.539	0.065	-0.079
-179.027	77.608	0.126	0.132
-178.012	-200.000	-0.025	-0.336
-176.998	-124.068	0.176	0.027
-175.983	-77.296	-0.246	-0.084
-174.969	-72.704	0.172	0.063
-173.954	-200.000	0.049	0.215
-172.939	-200.000	0.030	0.376
-171.925	800.000	0.063	0.205
-170.910	-42.586	0.260	-0.131
-169.896	800.000	0.129	-0.358
-168.881	-33.351	-0.227	0.124
-167.866	444.174	0.100	-0.217
-166.852	-129.735	0.092	-0.013
-165.837	788.980	-0.091	0.247
-164.823	10.194	-0.247	-0.186
-163.808	-200.000	-0.084	-0.381
-162.793	295.476	-0.122	-0.220
-161.779	477.073	0.088	0.196
-160.764	-5.335	-0.184	-0.125
-159.750	316.996	0.139	-0.260
-158.735	-200.000	0.024	-0.191
-157.720	-200.000	-0.021	-0.478
-156.706	-99.500	0.183	-0.045
-155.691	-105.530	-0.305	0.068
-154.677	-189.319	0.158	-0.002
-153.662	168.264	0.137	-0.192
-152.647	102.224	0.024	-0.028
-151.633	-200.000	-0.021	0.364
-150.618	-11.573	0.223	0.145
-149.604	-200.000	0.010	0.122
-148.589	-24.074	-0.030	0.018
-147.574	-164.674	0.391	-0.017
-146.560	36.729	-0.120	0.105
-145.545	-200.000	-0.049	-0.348
-144.531	-52.445	-0.172	-0.079
-143.516	-37.981	0.189	0.099
-142.502	-103.868	0.548	0.126
-141.487	96.082	-0.313	0.354
-140.472	-36.423	0.127	0.067
-139.458	-76.063	-0.112	-0.039
-138.443	-149.435	0.225	0.018
-137.429	-103.065	0.332	0.078
-136.414	-68.175	0.094	-0.036
-135.399	10.092	-0.298	0.223
-134.385	122.464	0.187	-0.231
-133.370	711.171	0.052	-0.137
-132.356	416.084	0.243	0.511
-131.341	800.000	-0.039	-0.131
-130.326	-200.000	0.046	0.320
-129.312	206.085	0.146	0.224
-128.297	-113.832	0.397	0.076
-127.283	197.876	-0.035	0.053
-126.268	-138.993	0.143	-0.015
-125.253	98.676	-0.014	-0.016
-124.239	-200.000	-0.003	-0.164
-123.224	-170.706	0.107	-0.004
-122.210	-64.993	-0.395	0.157
-121.195	-32.162	0.128	-0.070
