DTS Sentinel unit serial number:	SN413079Multiplexer serial number:	ORYXHardware model number:	OX4-SRSoftware version number:	ORYX F/W v4.00 Oryx Data Collector v3.7.2.0data status	okinstallation	princeton_trtdifferential loss correction	single-endedforward channel	channel 3reverse channel	N/Adate	2019/09/11time	16:26:11forward acquisition time	60.00reverse acquisition time	0.00gamma	496.2192k internal	0.2287k external	0.2287temperature offset calibration	0.9987default loss term (dB/km)	0.3790temperature slope calibration	1.0000multiplexer offset coefficient	1.0000multiplexer slope coefficient	1.0000fibre end	0.00T internal ref (°C)	43.56T ext. ref 1 (°C)	1.06T ext. ref 2 (°C)	38.89length (m)	temperature (°C)	Stokes	anti-Stokes-747.200	-42.079	-0.046	0.024
-746.185	-51.523	-0.278	0.133
-745.171	-200.000	0.028	0.285
-744.156	-40.944	0.128	0.068
-743.142	-80.831	-0.230	-0.078
-742.127	-182.241	-0.219	-0.004
-741.112	-200.000	0.023	0.115
-740.098	800.000	-0.069	0.248
-739.083	13.482	0.146	-0.116
-738.069	53.852	-0.073	0.072
-737.054	11.375	-0.152	0.119
-736.039	185.477	-0.086	0.130
-735.025	-36.183	0.164	-0.091
-734.010	230.248	-0.084	-0.140
-732.996	305.651	-0.047	-0.091
-731.981	-200.000	-0.060	-0.313
-730.966	439.928	-0.180	0.404
-729.952	-95.927	-0.267	-0.073
-728.937	25.547	-0.191	0.163
-727.923	-200.000	0.016	0.071
-726.908	-122.401	-0.141	0.024
-725.894	70.074	-0.047	-0.049
-724.879	-24.827	-0.144	0.088
-723.864	212.728	-0.060	-0.098
-722.850	750.443	0.079	-0.218
-721.835	-84.739	-0.128	-0.041
-720.821	5.787	-0.402	0.305
-719.806	-25.949	-0.196	0.118
-718.791	-200.000	-0.065	-0.388
-717.777	632.685	-0.108	-0.281
-716.762	-127.212	0.153	0.023
-715.748	-80.684	-0.120	0.041
-714.733	-104.723	0.255	0.060
-713.718	-86.894	0.226	-0.071
-712.704	217.831	0.094	-0.153
-711.689	135.627	-0.118	0.157
-710.675	-114.504	-0.307	-0.060
-709.660	32.357	-0.101	0.089
-708.645	800.000	0.025	-0.079
-707.631	69.323	-0.056	-0.059
-706.616	65.550	0.095	0.098
-705.602	258.894	-0.240	0.423
-704.587	-85.904	-0.250	-0.079
-703.572	-40.774	-0.303	0.161
-702.558	43.405	0.158	-0.147
-701.543	12.506	-0.122	-0.096
-700.529	-51.618	-0.107	-0.051
-699.514	-8.007	-0.134	-0.093
-698.499	-36.538	0.066	-0.036
-697.485	-41.891	-0.282	-0.148
-696.470	800.000	-0.055	0.236
-695.456	-106.416	0.263	-0.060
-694.441	126.374	0.104	0.135
-693.426	-65.775	0.310	-0.127
-692.412	800.000	-0.018	-0.063
-691.397	-200.000	-0.022	0.202
-690.383	-146.967	-0.165	-0.014
-689.368	570.184	-0.202	0.502
-688.354	-100.409	0.180	-0.046
-687.339	325.138	0.016	-0.032
-686.324	61.255	-0.143	-0.145
-685.310	5.386	-0.183	-0.138
-684.295	4.889	-0.255	-0.192
-683.281	237.046	-0.090	0.152
-682.266	-9.031	0.118	0.081
-681.251	-84.298	-0.201	-0.065
-680.237	-69.681	0.140	0.055
-679.222	413.846	-0.097	-0.212
-678.208	236.571	-0.099	0.167
-677.193	-9.589	0.099	0.068
-676.178	130.739	0.150	-0.196
-675.164	196.659	0.175	0.273
-674.149	-43.225	-0.144	-0.075
-673.135	75.152	-0.231	-0.249
-672.120	298.136	0.081	0.152
-671.105	-80.427	0.262	-0.090
-670.091	382.153	-0.128	-0.269
-669.076	3.147	0.059	-0.044
-668.062	-27.616	-0.194	0.115
-667.047	-144.134	0.204	0.020
-666.032	-60.051	-0.311	-0.136
-665.018	-22.970	0.103	-0.063
-664.003	-137.088	0.016	-0.002
-662.989	-200.000	-0.087	0.447
-661.974	-85.128	0.330	-0.106
-660.959	-74.561	0.181	0.067
-659.945	175.046	0.181	0.268
-658.930	-78.929	-0.244	-0.085
-657.916	800.000	-0.083	0.301
-656.901	157.623	0.044	0.063
-655.886	19.543	-0.143	-0.118
-654.872	578.569	-0.090	-0.225
-653.857	289.828	0.046	0.085
-652.843	-58.708	0.417	0.185
-651.828	221.822	-0.148	-0.244
-650.814	127.262	-0.213	-0.277
-649.799	-47.770	0.025	-0.012
-648.784	311.382	-0.085	0.163
-647.770	146.494	-0.157	-0.215
-646.755	-121.281	0.223	-0.038
-645.741	-200.000	-0.002	-0.027
-644.726	-200.000	0.002	-0.078
-643.711	800.000	-0.081	-0.293
-642.697	-200.000	-0.016	0.124
-641.682	800.000	-0.021	-0.073
-640.668	-161.966	-0.154	0.008
-639.653	-36.870	-0.186	-0.102
-638.638	-115.513	0.105	0.020
-637.624	-132.266	-0.261	-0.034
-636.609	356.223	0.108	-0.220
-635.595	297.337	-0.162	-0.304
-634.580	-42.847	0.378	-0.196
-633.565	116.898	0.134	-0.168
-632.551	367.420	0.055	-0.114
-631.536	3.112	0.208	-0.154
-630.522	644.119	0.069	-0.181
-629.507	-22.953	-0.179	-0.110
-628.492	51.188	0.192	0.186
-627.478	35.436	-0.214	-0.191
-626.463	-109.448	-0.241	-0.052
-625.449	-200.000	0.012	0.148
-624.434	-200.000	-0.004	0.242
-623.419	-200.000	0.004	0.191
-622.405	-200.000	-0.023	-0.249
-621.390	128.829	0.146	0.190
-620.376	9.501	0.129	-0.100
-619.361	245.479	0.084	0.145
-618.346	-200.000	-0.005	-0.100
-617.332	-200.000	-0.012	-0.233
-616.317	344.253	-0.022	-0.044
-615.303	-111.414	0.353	-0.073
-614.288	-25.466	0.220	-0.132
-613.273	-73.867	0.174	0.064
-612.259	-11.701	0.067	-0.045
-611.244	361.355	0.023	0.047
-610.230	-163.700	-0.208	-0.010
-609.215	22.542	-0.098	-0.082
-608.201	-91.348	0.249	-0.073
-607.186	174.831	0.154	0.228
-606.171	800.000	-0.068	0.208
-605.157	-124.904	0.090	0.014
-604.142	19.458	-0.110	-0.090
-603.128	33.926	-0.113	0.100
-602.113	-117.181	-0.154	-0.029
-601.098	136.626	0.231	-0.308
-600.084	164.818	-0.111	-0.159
-599.069	578.965	0.037	0.092
-598.055	-6.711	-0.211	0.147
-597.040	194.212	0.104	-0.161
-596.025	-103.339	-0.097	-0.023
-595.011	-200.000	-0.043	0.243
-593.996	-182.597	0.260	0.005
-592.982	800.000	-0.100	-0.344
-591.967	-147.179	-0.250	0.022
-590.952	-112.543	0.178	-0.036
-589.938	695.422	0.063	-0.168
-588.923	49.139	-0.172	-0.165
-587.909	-200.000	-0.017	-0.093
-586.894	-200.000	-0.066	-0.386
-585.879	-140.318	-0.140	-0.015
-584.865	-200.000	-0.029	0.264
-583.850	-66.815	-0.107	0.043
-582.836	800.000	-0.042	0.127
-581.821	-78.557	-0.054	-0.019
-580.806	24.869	0.030	-0.025
-579.792	800.000	0.015	0.052
-578.777	800.000	0.046	0.135
-577.763	13.876	0.251	0.199
-576.748	-31.675	-0.314	-0.179
-575.733	-200.000	0.010	0.181
-574.719	-200.000	0.092	-0.441
-573.704	81.396	-0.158	-0.174
-572.690	24.650	0.086	-0.073
-571.675	-187.291	0.298	0.004
-570.661	43.984	-0.185	-0.173
-569.646	-63.347	0.200	-0.084
-568.631	18.549	-0.177	0.144
-567.617	-92.866	0.226	-0.064
-566.602	-43.025	-0.235	-0.121
-565.588	86.548	-0.264	0.296
-564.573	705.739	0.058	0.156
-563.558	-84.927	-0.087	-0.028
-562.544	26.982	-0.094	0.081
-561.529	-200.000	0.023	-0.142
-560.515	120.307	-0.330	-0.417
-559.500	-168.961	-0.139	0.005
-558.485	56.989	0.123	-0.122
-557.471	800.000	-0.137	0.513
-556.456	800.000	0.063	0.248
-555.442	52.400	-0.067	-0.065
-554.427	-8.137	0.261	0.179
-553.412	-92.302	0.338	0.097
-552.398	-142.426	-0.135	0.014
-551.383	800.000	0.080	-0.247
-550.369	494.566	-0.046	-0.108
-549.354	769.686	-0.033	-0.091
-548.339	-96.251	-0.360	-0.097
-547.325	800.000	0.045	0.187
-546.310	800.000	-0.101	0.374
-545.296	-33.043	0.210	-0.119
-544.281	-18.048	0.206	0.131
-543.266	-119.181	-0.082	0.014
-542.252	-21.521	0.212	-0.132
-541.237	36.958	0.246	0.221
-540.223	-65.888	0.097	-0.039
-539.208	169.463	-0.142	-0.206
-538.193	34.430	-0.389	0.345
-537.179	-48.452	-0.217	0.106
-536.164	282.654	-0.038	-0.070
-535.150	-133.248	0.510	-0.066
-534.135	-36.140	-0.129	-0.071
-533.121	103.748	-0.126	-0.150
-532.106	572.310	-0.011	-0.028
-531.091	800.000	0.050	-0.190
-530.077	-82.787	-0.133	0.044
-529.062	-80.897	-0.137	0.046
-528.048	-22.146	-0.141	-0.087
-527.033	10.988	0.214	-0.166
-526.018	41.476	-0.263	0.242
-525.004	-39.689	-0.115	-0.061
-523.989	-51.533	-0.177	-0.084
-522.975	-113.683	-0.100	0.020
-521.960	-200.000	-0.019	-0.217
-520.945	800.000	0.030	-0.131
-519.931	-76.727	0.210	0.075
-518.916	581.206	0.066	0.165
-517.902	800.000	-0.098	-0.356
-516.887	-70.498	0.082	-0.032
-515.872	109.899	-0.064	-0.078
-514.858	-55.954	0.148	0.067
-513.843	291.362	0.216	-0.399
-512.829	697.987	-0.038	0.102
-511.814	-8.292	-0.159	-0.109
-510.799	-77.995	-0.244	-0.085
-509.785	18.058	0.337	-0.273
-508.770	-132.170	-0.152	-0.020
-507.756	-200.000	-0.016	-0.146
-506.741	-13.796	0.057	0.038
-505.726	-200.000	0.068	-0.351
-504.712	1.836	0.140	0.103
-503.697	-0.203	-0.348	0.251
-502.683	129.153	0.105	-0.136
-501.668	-197.271	-0.336	-0.002
-500.653	378.266	0.102	-0.213
-499.639	-27.343	-0.157	-0.093
-498.624	611.988	-0.051	-0.130
-497.610	155.546	-0.120	0.168
-496.595	6.828	0.190	-0.144
-495.581	-15.656	-0.265	0.172
-494.566	6.977	0.036	0.027
-493.551	31.068	-0.041	0.036
-492.537	10.620	-0.385	-0.298
-491.522	16.300	0.183	-0.147
-490.508	-122.283	0.080	-0.013
-489.493	565.841	-0.140	-0.345
-488.478	800.000	-0.042	-0.150
-487.464	-42.549	-0.157	-0.081
-486.449	-17.516	-0.166	0.106
-485.435	-200.000	-0.023	0.118
-484.420	-128.315	0.386	-0.056
-483.405	160.332	-0.086	-0.121
-482.391	-5.661	0.153	-0.106
-481.376	-144.267	0.165	0.016
-480.362	-16.902	-0.097	-0.062
-479.347	-99.511	0.206	-0.053
-478.332	399.804	0.107	-0.227
-477.318	-81.934	0.092	0.030
-476.303	440.556	-0.046	-0.101
-475.289	111.093	0.145	-0.177
-474.274	-21.990	0.334	0.206
-473.259	-66.272	0.204	0.082
-472.245	322.615	0.050	0.096
-471.230	-109.488	0.341	-0.073
-470.216	800.000	0.060	-0.172
-469.201	800.000	0.129	-0.430
-468.186	-51.359	0.355	0.169
-467.172	42.919	0.125	0.116
-466.157	-181.536	-0.302	-0.006
-465.143	766.819	0.155	-0.427
-464.128	800.000	-0.084	0.366
-463.113	-110.898	0.125	-0.026
-462.099	-179.379	0.117	0.003
-461.084	-200.000	0.011	-0.324
-460.070	257.986	-0.131	-0.229
-459.055	53.933	-0.052	-0.050
-458.040	-200.000	-0.010	0.412
-457.026	-197.271	0.383	-0.002
-456.011	-30.018	-0.311	0.180
-454.997	-54.774	-0.106	-0.049
-453.982	-110.342	-0.349	-0.074
-452.968	-1.771	-0.262	-0.187
-451.953	155.154	-0.069	-0.096
-450.938	278.378	-0.039	0.071
-449.924	-2.224	-0.234	-0.166
-448.909	-54.963	0.304	0.139
-447.895	96.680	-0.094	-0.109
-446.880	-200.000	-0.006	-0.186
-445.865	-29.797	-0.141	-0.081
-444.851	21.231	-0.081	0.067
-443.836	169.134	0.237	-0.343
-442.822	-94.047	-0.238	-0.066
-441.807	-200.000	-0.031	-0.312
-440.792	27.646	-0.137	0.117
-439.778	-200.000	0.004	0.042
-438.763	-30.753	-0.126	0.072
-437.749	-180.227	-0.123	0.003
-436.734	30.163	0.206	0.178
-435.719	-125.461	-0.178	-0.027
-434.705	593.634	0.081	-0.204
-433.690	373.138	-0.086	-0.178
-432.676	21.172	-0.150	-0.124
-431.661	269.068	0.067	-0.120
-430.646	175.439	-0.157	0.231
-429.632	-15.321	0.182	0.118
-428.617	59.381	-0.167	0.167
-427.603	-200.000	-0.113	0.530
-426.588	440.201	0.122	0.270
-425.573	-150.646	0.103	0.008
-424.559	-130.965	-0.273	-0.037
-423.544	-200.000	-0.019	0.144
-422.530	-200.000	0.081	0.542
-421.515	-200.000	0.036	0.264
-420.500	-163.614	-0.113	0.005
-419.486	-97.519	-0.144	-0.038
-418.471	-101.746	-0.191	0.047
-417.457	-73.318	0.297	-0.110
-416.442	-94.750	0.265	0.073
-415.428	-38.305	0.162	-0.087
-414.413	33.551	-0.207	0.182
-413.398	-200.000	0.040	-0.216
-412.384	-39.061	0.411	0.219
-411.369	243.138	-0.160	-0.272
-410.355	800.000	0.079	0.254
-409.340	706.988	0.093	-0.249
-408.325	800.000	0.049	-0.186
-407.311	-200.000	0.017	0.083
-406.296	698.377	-0.070	0.186
-405.282	54.275	-0.231	-0.225
-404.267	-23.057	-0.091	0.055
-403.252	126.968	-0.094	0.120
-402.238	-67.724	0.163	0.065
-401.223	-15.425	0.292	0.189
-400.209	25.807	0.029	-0.025
-399.194	-9.361	-0.149	-0.101
-398.179	-172.199	0.079	0.003
-397.165	800.000	-0.087	0.330
-396.150	-200.000	-0.010	-0.213
-395.136	-200.000	0.056	-0.280
-394.121	-90.006	0.194	-0.057
-393.106	-99.425	-0.130	0.033
-392.092	-114.346	-0.123	-0.024
-391.077	-13.831	0.240	0.157
-390.063	-81.168	0.227	0.076
-389.048	-23.922	0.147	-0.089
-388.033	388.510	0.114	0.238
-387.019	-54.111	0.201	0.093
-386.004	-169.407	-0.222	-0.008
-384.990	12.458	-0.271	-0.212
-383.975	-126.940	0.147	-0.022
-382.960	-58.451	0.196	0.086
-381.946	-61.643	-0.118	-0.050
-380.931	121.248	-0.167	0.211
-379.917	-113.741	0.342	-0.067
-378.902	800.000	0.076	-0.247
-377.888	-200.000	-0.037	-0.331
-376.873	-96.178	0.105	-0.028
-375.858	369.384	0.168	0.344
-374.844	120.934	-0.345	0.434
-373.829	47.847	-0.143	0.135
-372.815	-91.484	0.114	0.033
-371.800	241.912	0.206	0.348
-370.785	130.296	0.360	0.467
-369.771	81.222	0.325	0.355
-368.756	4.346	-0.250	-0.186
-367.742	-200.000	0.007	0.515
-366.727	201.500	-0.057	-0.088
-365.712	-200.000	-0.026	-0.155
-364.698	-61.083	0.143	-0.061
-363.683	657.195	0.099	-0.257
-362.669	46.648	0.150	0.141
-361.654	-107.299	0.306	0.068
-360.639	-138.587	-0.146	-0.016
-359.625	243.338	0.163	-0.276
-358.610	-107.169	-0.243	-0.054
-357.596	39.528	-0.277	-0.251
-356.581	660.909	0.025	-0.065
-355.566	-89.731	-0.360	-0.107
-354.552	-49.165	-0.133	-0.064
-353.537	-132.748	0.318	0.041
-352.523	-200.000	0.096	0.527
-351.508	152.749	-0.108	0.149
-350.493	-140.439	-0.169	-0.018
-349.479	800.000	0.060	0.239
-348.464	-44.765	0.085	-0.043
-347.450	-200.000	-0.015	0.247
-346.435	-200.000	0.000	-0.024
-345.420	-76.614	-0.146	0.052
-344.406	-93.258	0.277	-0.078
-343.391	10.377	0.017	0.013
-342.377	-33.935	-0.074	0.041
-341.362	52.894	0.205	0.198
-340.348	336.882	0.105	0.206
-339.333	497.125	0.145	-0.337
-338.318	799.799	-0.093	-0.260
-337.304	283.792	0.089	0.161
-336.289	-141.203	0.148	0.015
-335.275	-158.642	0.155	-0.009
-334.260	243.654	0.150	0.254
-333.245	502.671	0.084	-0.196
-332.231	-200.000	0.042	0.235
-331.216	148.880	0.144	0.196
-330.202	-13.319	-0.289	0.189
-329.187	-65.344	0.207	-0.084
-328.172	11.002	0.264	0.204
-327.158	-20.808	0.185	0.115
-326.143	231.943	-0.035	0.057
-325.129	-72.722	-0.137	-0.051
-324.114	-123.406	-0.224	0.036
-323.099	-85.898	-0.086	-0.027
-322.085	-84.334	0.261	-0.083
-321.070	-133.324	-0.226	0.029
-320.056	800.000	-0.043	0.125
-319.041	-32.948	-0.017	-0.010
-318.026	800.000	-0.029	0.107
-317.012	-90.807	0.127	0.037
-315.997	466.329	0.160	-0.362
-314.983	-79.316	-0.334	-0.114
-313.968	5.477	-0.056	0.042
-312.953	275.299	-0.048	-0.085
-311.939	342.033	0.078	0.153
-310.924	-29.001	0.381	-0.221
-309.910	-162.676	-0.380	0.019
-308.895	26.090	-0.211	0.177
-307.880	180.170	0.170	0.251
-306.866	-200.000	-0.037	0.171
-305.851	187.538	-0.116	0.174
-304.837	212.608	0.271	0.431
-303.822	-7.380	0.146	0.100
-302.807	800.000	-0.048	0.146
-301.793	800.000	-0.084	0.276
-300.778	-79.146	-0.266	0.091
-299.764	72.467	-0.188	0.198
-298.749	-29.268	0.272	0.157
-297.735	26.101	0.051	-0.043
-296.720	-181.779	0.089	-0.002
-295.705	166.066	-0.122	-0.175
-294.691	-200.000	0.033	0.274
-293.676	9.862	0.214	0.164
-292.662	-200.000	0.035	0.225
-291.647	326.677	-0.082	0.158
-290.632	-7.892	-0.157	0.107
-289.618	6.152	0.145	0.108
-288.603	-200.000	-0.000	0.015
-287.589	-200.000	-0.001	0.306
-286.574	-69.605	0.302	-0.117
-285.559	-97.367	-0.155	0.041
-284.545	157.074	0.043	0.059
-283.530	166.839	-0.211	-0.301
-282.516	-96.728	-0.208	0.055
-281.501	643.261	0.076	-0.196
-280.486	-200.000	-0.042	-0.261
-279.472	-175.874	0.092	0.002
-278.457	85.512	-0.038	-0.042
-277.443	82.530	0.087	0.095
-276.428	800.000	0.027	-0.099
-275.413	246.472	-0.112	-0.191
-274.399	-90.395	0.029	-0.008
-273.384	264.065	-0.127	-0.223
-272.370	-200.000	0.024	0.333
-271.355	-5.649	-0.199	0.137
-270.340	-21.547	-0.276	-0.170
-269.326	85.552	-0.211	-0.234
-268.311	-23.219	0.486	0.295
-267.297	799.814	0.044	0.123
-266.282	366.799	-0.018	0.037
-265.267	800.000	-0.031	0.107
-264.253	17.092	-0.079	0.063
-263.238	28.168	0.215	0.182
-262.224	112.339	0.399	-0.485
-261.209	296.303	-0.039	-0.072
-260.195	21.571	-0.220	0.180
-259.180	-8.694	-0.050	-0.034
-258.165	-72.578	0.045	-0.017
-257.151	-109.951	-0.174	0.037
-256.136	-200.000	0.004	0.127
-255.122	-76.356	-0.095	0.034
-254.107	-107.233	-0.085	-0.019
-253.092	-18.033	-0.266	0.167
-252.078	-21.587	-0.120	-0.074
-251.063	272.164	-0.149	-0.264
-250.049	-51.209	0.301	-0.142
-249.034	31.988	0.220	0.191
-248.019	42.264	-0.136	-0.124
-247.005	-200.000	0.045	0.291
-245.990	28.961	-0.246	0.210
-244.976	800.000	0.071	0.263
-243.961	-200.000	0.028	-0.249
-242.946	-69.444	0.078	-0.030
-241.932	-81.575	0.232	-0.077
-240.917	-74.962	0.176	0.063
-239.903	360.473	-0.096	-0.194
-238.888	70.252	0.071	0.074
-237.873	800.000	0.090	0.347
-236.859	800.000	0.071	0.272
-235.844	-78.918	0.085	0.029
-234.830	-144.721	0.146	-0.014
-233.815	63.255	-0.211	-0.213
-232.800	122.266	-0.171	0.214
-231.786	-44.352	-0.318	0.160
-230.771	1.206	0.260	0.188
-229.757	124.708	0.145	0.183
-228.742	-3.575	-0.195	-0.136
-227.727	-200.000	-0.002	-0.133
-226.713	633.308	-0.109	-0.279
-225.698	249.679	-0.078	0.134
-224.684	103.409	-0.132	-0.155
-223.669	-60.931	-0.336	-0.143
-222.655	235.989	-0.143	-0.237
-221.640	579.270	-0.019	-0.048
-220.625	456.609	-0.078	0.174
-219.611	279.050	-0.263	-0.471
-218.596	-200.000	-0.016	-0.273
-217.582	-200.000	0.008	0.400
-216.567	144.493	0.132	0.177
-215.552	-66.550	0.326	-0.130
-214.538	-60.643	-0.231	0.098
-213.523	-200.000	-0.022	0.392
-212.509	-134.950	0.141	0.017
-211.494	60.697	-0.198	-0.197
-210.479	465.034	-0.071	-0.159
-209.465	22.566	0.107	0.088
-208.450	800.000	-0.101	-0.318
-207.436	69.638	-0.247	0.255
-206.421	678.078	-0.026	0.068
-205.406	102.854	-0.033	0.039
-204.392	241.906	0.176	0.296
-203.377	88.896	-0.245	-0.274
-202.363	-133.461	0.187	-0.024
-201.348	-165.825	-0.509	0.022
-200.333	141.061	-0.026	0.034
-199.319	-40.529	0.049	0.026
-198.304	-200.000	0.065	-0.539
-197.290	800.000	-0.011	-0.034
-196.275	119.312	-0.137	-0.170
-195.260	102.240	0.205	-0.240
-194.246	800.000	-0.103	-0.319
-193.231	-137.688	0.072	-0.008
-192.217	71.371	-0.052	0.054
-191.202	-144.101	-0.241	-0.023
-190.187	-95.585	0.288	0.077
-189.173	358.690	0.137	0.274
-188.158	800.000	-0.119	-0.365
-187.144	-200.000	-0.031	-0.225
-186.129	-20.975	-0.153	0.094
-185.114	52.882	-0.081	0.078
-184.100	-1.409	0.021	-0.015
-183.085	771.032	0.194	0.531
-182.071	800.000	0.135	0.390
-181.056	-87.435	0.052	-0.016
-180.042	-75.839	0.569	0.202
-179.027	141.406	0.179	0.237
-178.012	800.000	0.011	-0.043
-176.998	-200.000	0.008	-0.037
-175.983	521.618	-0.038	0.089
-174.969	280.145	0.055	0.099
-173.954	-200.000	-0.034	-0.279
-172.939	-113.116	-0.114	0.023
-171.925	21.357	-0.177	-0.144
-170.910	6.411	-0.118	0.088
-169.896	15.758	-0.193	0.153
-168.881	-120.683	-0.160	-0.027
-167.866	-52.641	0.292	0.135
-166.852	-200.000	-0.031	0.174
-165.837	-148.809	0.256	-0.021
-164.823	-101.096	0.404	-0.099
-163.808	-200.000	-0.015	-0.428
-162.793	800.000	-0.094	-0.296
-161.779	223.707	0.057	0.093
-160.764	562.151	0.104	0.253
-159.750	-10.887	-0.183	-0.121
-158.735	340.085	-0.097	-0.191
-157.720	795.293	-0.075	0.208
-156.706	-128.979	0.239	-0.034
-155.691	-200.000	-0.403	-0.001
-154.677	-52.928	0.193	-0.089
-153.662	187.352	-0.145	-0.217
-152.647	-200.000	-0.012	0.556
-151.633	-108.903	-0.242	0.052
-150.618	721.242	-0.077	-0.204
-149.604	-165.779	-0.033	0.001
-148.589	349.114	-0.103	0.204
-147.574	-200.000	-0.019	-0.168
-146.560	-200.000	0.048	0.252
-145.545	-123.816	0.328	-0.052
-144.531	800.000	0.021	0.073
-143.516	-200.000	0.004	-0.085
-142.502	-200.000	0.020	-0.168
-141.487	-117.482	-0.105	0.019
-140.472	253.333	0.188	0.321
-139.458	187.838	0.106	0.158
-138.443	-4.820	0.296	0.204
-137.429	-200.000	-0.008	-0.254
-136.414	-91.305	0.132	0.038
-135.399	-200.000	-0.018	0.104
-134.385	-102.673	0.155	-0.037
-133.370	149.755	-0.092	0.125
-132.356	-125.476	0.118	0.018
-131.341	321.328	-0.164	-0.313
-130.326	-138.955	-0.385	0.042
-129.312	145.967	-0.107	-0.144
-128.297	425.176	0.106	-0.228
-127.283	-161.116	-0.356	0.019
-126.268	85.521	-0.097	-0.107
-125.253	-144.937	-0.209	0.019
-124.239	-76.357	-0.152	0.054
-123.224	-104.805	-0.061	-0.014
-122.210	-84.819	-0.082	0.026
-121.195	-93.289	0.409	-0.114
