DTS Sentinel unit serial number:	SN413079Multiplexer serial number:	ORYXHardware model number:	OX4-SRSoftware version number:	ORYX F/W v4.00 Oryx Data Collector v3.7.2.0data status	okinstallation	princeton_trtdifferential loss correction	single-endedforward channel	channel 3reverse channel	N/Adate	2019/09/11time	19:34:11forward acquisition time	60.00reverse acquisition time	0.00gamma	496.2192k internal	0.2297k external	0.2297temperature offset calibration	1.0014default loss term (dB/km)	0.3790temperature slope calibration	1.0000multiplexer offset coefficient	1.0000multiplexer slope coefficient	1.0000fibre end	0.00T internal ref (°C)	40.19T ext. ref 1 (°C)	1.32T ext. ref 2 (°C)	32.27length (m)	temperature (°C)	Stokes	anti-Stokes-747.200	83.771	0.498	0.555
-746.185	78.752	0.037	0.041
-745.171	-200.000	-0.032	0.227
-744.156	169.599	-0.039	0.057
-743.142	206.721	0.262	0.416
-742.127	800.000	-0.086	0.340
-741.112	-23.201	0.237	-0.145
-740.098	296.587	0.227	0.424
-739.083	34.035	-0.055	0.049
-738.069	143.185	-0.145	0.196
-737.054	307.205	-0.098	0.186
-736.039	79.075	-0.023	-0.026
-735.025	-135.993	0.144	-0.017
-734.010	-121.257	-0.185	-0.031
-732.996	-200.000	0.004	0.223
-731.981	800.000	0.070	-0.226
-730.966	9.622	-0.388	0.300
-729.952	-44.078	-0.248	0.127
-728.937	-18.795	-0.261	-0.166
-727.923	532.726	-0.167	-0.403
-726.908	-200.000	0.025	-0.164
-725.894	419.992	0.280	-0.611
-724.879	-36.839	-0.324	0.178
-723.864	212.407	-0.057	-0.092
-722.850	-200.000	0.008	-0.117
-721.835	-124.338	-0.198	-0.032
-720.821	-200.000	0.062	-0.337
-719.806	800.000	-0.027	0.094
-718.791	-22.888	-0.315	-0.194
-717.777	-200.000	-0.012	0.158
-716.762	-200.000	0.027	-0.145
-715.748	214.604	-0.080	0.129
-714.733	800.000	-0.058	-0.172
-713.718	-200.000	-0.031	0.173
-712.704	243.325	-0.047	0.080
-711.689	-128.092	-0.172	-0.025
-710.675	-49.354	0.309	-0.151
-709.660	144.308	-0.058	-0.079
-708.645	43.395	0.070	-0.065
-707.631	800.000	-0.050	-0.212
-706.616	-97.028	0.215	0.057
-705.602	-55.855	0.200	-0.091
-704.587	-128.691	0.197	0.028
-703.572	-200.000	-0.019	0.131
-702.558	-98.614	-0.171	0.044
-701.543	136.761	0.099	-0.132
-700.529	-86.073	0.181	-0.057
-699.514	692.586	0.043	-0.116
-698.499	59.922	0.161	0.162
-697.485	-200.000	-0.048	-0.232
-696.470	-133.103	0.389	-0.050
-695.456	-200.000	0.036	-0.198
-694.441	603.888	0.038	0.097
-693.426	202.892	0.025	0.039
-692.412	509.218	0.106	-0.252
-691.397	334.271	0.131	-0.259
-690.383	456.846	-0.057	-0.128
-689.368	436.609	0.028	0.062
-688.354	-77.844	0.078	-0.027
-687.339	-63.115	0.095	-0.040
-686.324	21.286	-0.146	-0.121
-685.310	800.000	0.034	-0.123
-684.295	168.520	0.114	0.166
-683.281	-200.000	0.018	0.360
-682.266	25.481	-0.110	-0.094
-681.251	-200.000	-0.003	-0.180
-680.237	800.000	0.151	-0.613
-679.222	-17.336	0.384	0.247
-678.208	-200.000	-0.006	-0.051
-677.193	-12.596	-0.075	-0.050
-676.178	45.873	0.027	0.025
-675.164	-114.405	-0.264	-0.052
-674.149	-115.723	0.134	-0.026
-673.135	429.377	-0.048	0.105
-672.120	159.980	-0.141	0.200
-671.105	-123.555	-0.161	0.026
-670.091	-47.277	0.246	-0.122
-669.076	800.000	0.075	-0.280
-668.062	447.768	-0.055	-0.123
-667.047	2.827	-0.232	-0.172
-666.032	225.736	-0.033	0.055
-665.018	41.736	-0.217	-0.200
-664.003	800.000	-0.034	0.099
-662.989	47.563	-0.213	0.202
-661.974	800.000	0.048	-0.153
-660.959	-113.744	0.153	-0.030
-659.945	-200.000	-0.008	0.058
-658.930	-200.000	0.000	0.200
-657.916	58.037	-0.261	-0.260
-656.901	21.338	0.162	0.134
-655.886	-23.915	0.129	0.079
-654.872	-146.696	-0.255	0.023
-653.857	-102.363	-0.164	-0.040
-652.843	88.800	-0.109	-0.123
-651.828	-200.000	0.041	-0.212
-650.814	603.789	0.135	-0.343
-649.799	-200.000	0.024	-0.247
-648.784	-24.805	-0.216	-0.130
-647.770	800.000	-0.030	-0.120
-646.755	71.214	0.100	0.105
-645.741	785.394	-0.035	0.099
-644.726	-55.220	-0.234	0.107
-643.711	-19.185	-0.134	0.084
-642.697	-147.378	0.167	-0.014
-641.682	146.370	0.114	-0.156
-640.668	104.983	-0.062	-0.075
-639.653	-85.095	0.179	-0.057
-638.638	800.000	-0.069	-0.232
-637.624	156.998	0.258	0.362
-636.609	25.600	0.197	0.167
-635.595	-100.374	-0.112	-0.028
-634.580	-112.765	-0.147	-0.030
-633.565	-91.352	-0.136	-0.040
-632.551	-40.723	0.033	-0.017
-631.536	-64.848	-0.347	-0.143
-630.522	115.440	-0.079	0.098
-629.507	79.941	0.150	0.163
-628.492	-200.000	0.021	-0.096
-627.478	601.117	0.069	-0.173
-626.463	-200.000	-0.038	-0.255
-625.449	69.612	-0.224	-0.235
-624.434	-133.212	0.470	0.060
-623.419	-93.883	0.142	-0.040
-622.405	31.955	-0.008	0.007
-621.390	-84.147	0.172	-0.055
-620.376	-33.763	0.176	-0.098
-619.361	-26.516	-0.075	-0.044
-618.346	171.603	-0.110	0.161
-617.332	193.863	-0.057	0.088
-616.317	-96.171	0.181	0.049
-615.303	-175.557	0.187	-0.005
-614.288	165.807	0.224	0.322
-613.273	-49.453	-0.052	-0.025
-612.259	-61.736	-0.297	0.126
-611.244	24.962	-0.210	-0.177
-610.230	-149.849	0.213	-0.017
-609.215	-156.555	-0.104	0.007
-608.201	239.705	-0.148	0.250
-607.186	126.454	-0.179	-0.230
-606.171	168.705	-0.182	-0.263
-605.157	-200.000	-0.048	-0.436
-604.142	215.079	0.084	-0.136
-603.128	78.934	-0.121	-0.132
-602.113	114.691	0.114	0.141
-601.098	-98.132	-0.143	-0.037
-600.084	17.514	0.098	0.079
-599.069	-28.505	-0.400	-0.234
-598.055	-117.608	0.094	-0.017
-597.040	86.934	0.206	0.231
-596.025	-56.688	0.166	0.075
-595.011	108.585	0.208	-0.253
-593.996	-27.662	-0.032	0.019
-592.982	-200.000	0.058	-0.322
-591.967	87.409	-0.095	0.107
-590.952	-64.574	0.169	-0.070
-589.938	800.000	0.124	0.430
-588.923	-85.821	0.218	0.069
-587.909	-129.032	-0.092	0.013
-586.894	66.605	0.053	0.055
-585.879	46.713	-0.094	-0.088
-584.865	102.435	-0.128	-0.152
-583.850	-200.000	0.007	-0.249
-582.836	624.391	0.025	-0.063
-581.821	-40.842	0.170	0.089
-580.806	-200.000	0.017	0.186
-579.792	-200.000	0.050	-0.306
-578.777	800.000	0.084	0.318
-577.763	-39.182	-0.065	-0.035
-576.748	-200.000	0.033	0.287
-575.733	438.281	-0.161	-0.356
-574.719	-73.542	-0.144	-0.053
-573.704	484.270	0.132	-0.304
-572.690	800.000	0.113	0.328
-571.675	-200.000	0.005	0.138
-570.661	-37.813	-0.488	-0.263
-569.646	222.777	0.043	-0.070
-568.631	-200.000	0.025	-0.277
-567.617	-200.000	-0.001	-0.136
-566.602	-200.000	-0.017	0.155
-565.588	-200.000	-0.018	0.117
-564.573	7.275	0.078	-0.059
-563.558	242.469	0.128	-0.218
-562.544	-200.000	0.000	-0.322
-561.529	-3.032	-0.235	0.167
-560.515	-13.759	0.302	0.198
-559.500	-83.611	-0.155	0.050
-558.485	336.470	0.166	0.327
-557.471	-4.469	0.065	-0.045
-556.456	-113.616	-0.271	-0.054
-555.442	-102.110	-0.280	0.068
-554.427	150.306	0.147	-0.202
-553.412	-46.781	0.192	-0.095
-552.398	36.913	0.129	-0.116
-551.383	-22.531	-0.315	0.193
-550.369	22.828	0.198	-0.164
-549.354	112.996	0.194	-0.238
-548.339	247.134	-0.216	-0.370
-547.325	-200.000	0.003	0.048
-546.310	148.725	-0.117	0.161
-545.296	-38.083	0.147	-0.079
-544.281	-123.766	0.288	-0.046
-543.266	-94.165	-0.182	-0.051
-542.252	800.000	-0.087	-0.272
-541.237	141.905	-0.189	0.254
-540.223	603.849	0.009	-0.022
-539.208	-40.564	-0.326	-0.171
-538.193	-64.541	-0.113	0.046
-537.179	800.000	-0.011	-0.048
-536.164	-18.194	0.351	0.222
-535.150	-95.285	0.063	-0.017
-534.135	96.177	-0.242	0.280
-533.121	0.739	0.221	0.160
-532.106	-47.153	0.260	-0.128
-531.091	-32.671	0.104	0.058
-530.077	151.426	0.078	0.107
-529.062	800.000	-0.053	0.231
-528.048	48.442	0.177	0.168
-527.033	-200.000	-0.023	-0.138
-526.018	190.426	0.161	0.245
-525.004	800.000	0.085	-0.276
-523.989	800.000	-0.084	-0.309
-522.975	-200.000	-0.055	-0.257
-521.960	628.880	-0.031	0.079
-520.945	-66.995	-0.290	-0.116
-519.931	6.126	-0.242	-0.182
-518.916	-133.371	-0.283	0.036
-517.902	-101.691	-0.156	0.038
-516.887	-191.714	0.181	-0.002
-515.872	189.674	-0.188	-0.285
-514.858	78.898	0.251	0.272
-513.843	453.785	0.105	0.236
-512.829	-86.154	0.332	-0.104
-511.814	-200.000	0.004	0.235
-510.799	-200.000	0.051	0.289
-509.785	648.781	-0.123	0.318
-508.770	164.404	-0.048	0.069
-507.756	-100.556	-0.324	0.081
-506.741	4.785	-0.059	0.044
-505.726	206.153	-0.091	0.143
-504.712	-200.000	-0.007	0.194
-503.697	-41.101	-0.154	0.080
-502.683	-55.197	-0.348	0.158
-501.668	-200.000	0.031	-0.193
-500.653	-128.347	0.181	0.026
-499.639	-138.208	0.202	0.023
-498.624	800.000	0.049	0.168
-497.610	13.456	0.173	0.136
-496.595	-40.443	-0.117	0.062
-495.581	-143.822	-0.085	-0.008
-494.566	-92.504	-0.210	-0.060
-493.551	2.901	-0.355	0.261
-492.537	-99.908	-0.145	-0.037
-491.522	-200.000	-0.016	-0.299
-490.508	188.565	0.180	-0.272
-489.493	4.306	-0.237	0.176
-488.478	-0.289	-0.321	-0.231
-487.464	50.477	-0.130	-0.125
-486.449	800.000	0.047	0.158
-485.435	-51.736	-0.283	0.134
-484.420	151.546	-0.138	-0.190
-483.405	-166.613	0.086	0.004
-482.391	-138.562	0.059	-0.007
-481.376	-129.085	-0.210	-0.030
-480.362	56.900	0.076	0.075
-479.347	800.000	0.098	-0.329
-478.332	-200.000	-0.001	0.030
-477.318	32.716	-0.027	0.024
-476.303	178.417	0.092	0.136
-475.289	-200.000	0.011	-0.335
-474.274	800.000	0.009	0.026
-473.259	-120.737	0.270	0.046
-472.245	-200.000	-0.011	-0.081
-471.230	510.200	-0.079	-0.185
-470.216	118.122	-0.125	0.155
-469.201	86.844	0.097	-0.109
-468.186	-110.695	0.169	-0.035
-467.172	-200.000	0.009	0.263
-466.157	-200.000	-0.055	0.365
-465.143	-6.828	0.106	0.073
-464.128	133.771	0.054	0.070
-463.113	800.000	-0.079	0.237
-462.099	-11.821	-0.284	0.188
-461.084	-65.432	0.263	0.107
-460.070	72.375	0.171	-0.180
-459.055	9.136	-0.099	0.075
-458.040	-200.000	-0.010	-0.235
-457.026	608.680	0.167	0.420
-456.011	671.721	-0.067	0.175
-454.997	364.703	-0.118	0.240
-453.982	311.108	0.117	-0.222
-452.968	-27.278	0.044	-0.026
-451.953	-41.214	-0.054	-0.028
-450.938	167.148	-0.077	-0.111
-449.924	13.539	-0.114	0.089
-448.909	-200.000	0.005	0.436
-447.895	198.830	0.050	-0.077
-446.880	94.481	-0.065	0.074
-445.865	-141.654	0.067	0.007
-444.851	39.425	-0.128	0.116
-443.836	-0.973	-0.173	-0.124
-442.822	303.510	-0.141	-0.263
-441.807	-200.000	0.029	0.331
-440.792	-200.000	0.010	-0.127
-439.778	-129.741	0.408	-0.057
-438.763	-200.000	0.035	-0.413
-437.749	312.986	-0.055	-0.105
-436.734	-110.467	0.068	-0.014
-435.719	66.404	0.165	0.169
-434.705	200.611	-0.068	0.106
-433.690	40.687	-0.067	0.061
-432.676	148.327	-0.042	-0.057
-431.661	800.000	-0.125	-0.403
-430.646	-108.614	0.087	-0.019
-429.632	-94.289	0.232	-0.064
-428.617	-124.319	0.363	-0.057
-427.603	208.727	0.031	-0.049
-426.588	140.636	0.050	-0.067
-425.573	10.558	0.066	0.051
-424.559	246.967	0.075	-0.128
-423.544	800.000	-0.040	0.137
-422.530	364.645	0.029	0.058
-421.515	800.000	-0.089	-0.253
-420.500	52.372	0.334	-0.321
-419.486	212.307	-0.027	0.044
-418.471	-122.396	-0.119	-0.020
-417.457	25.835	0.125	-0.105
-416.442	367.023	-0.059	0.119
-415.428	161.820	0.098	0.138
-414.413	151.922	0.062	0.085
-413.398	-35.580	-0.488	0.267
-412.384	605.766	0.098	-0.246
-411.369	267.425	-0.040	-0.070
-410.355	85.046	-0.185	-0.205
-409.340	-130.588	-0.348	0.047
-408.325	133.090	-0.033	0.043
-407.311	-200.000	0.039	-0.196
-406.296	800.000	-0.043	0.173
-405.282	-152.237	-0.111	0.008
-404.267	800.000	0.054	-0.191
-403.252	-71.926	0.109	-0.041
-402.238	-90.262	0.154	0.045
-401.223	800.000	0.027	0.106
-400.209	-54.039	0.119	-0.055
-399.194	332.496	0.213	-0.415
-398.179	-154.427	-0.131	-0.009
-397.165	235.108	-0.181	-0.300
-396.150	-200.000	-0.038	0.243
-395.136	75.982	0.144	-0.153
-394.121	-31.597	-0.123	0.070
-393.106	-200.000	-0.039	0.187
-392.092	39.773	0.090	-0.081
-391.077	800.000	-0.081	-0.291
-390.063	-70.386	-0.339	0.129
-389.048	685.923	0.077	-0.202
-388.033	800.000	-0.133	-0.429
-387.019	36.543	0.165	-0.146
-386.004	-122.210	-0.215	0.035
-384.990	-88.106	-0.446	0.135
-383.975	-51.808	-0.204	0.096
-382.960	482.645	0.170	-0.388
-381.946	176.018	-0.121	-0.176
-380.931	-78.110	-0.225	0.078
-379.917	750.194	-0.029	0.079
-378.902	-200.000	0.000	-0.030
-377.888	-94.608	-0.329	0.090
-376.873	799.988	-0.170	0.472
-375.858	344.504	0.211	0.418
-374.844	20.086	0.159	-0.129
-373.829	-56.784	-0.271	-0.121
-372.815	165.749	0.092	-0.131
-371.800	9.337	0.145	-0.110
-370.785	-50.410	-0.326	0.155
-369.771	-65.166	-0.166	0.067
-368.756	-200.000	-0.017	-0.081
-367.742	74.393	-0.117	-0.124
-366.727	800.000	0.089	0.308
-365.712	-200.000	-0.046	-0.264
-364.698	-81.655	0.280	-0.092
-363.683	22.939	-0.240	-0.198
-362.669	270.496	0.171	0.302
-361.654	800.000	-0.089	0.274
-360.639	0.143	0.211	0.151
-359.625	44.915	-0.271	0.251
-358.610	-96.861	0.169	0.045
-357.596	-200.000	-0.007	-0.224
-356.581	583.691	0.061	-0.150
-355.566	150.607	-0.101	-0.138
-354.552	-114.024	0.213	-0.042
-353.537	800.000	0.020	0.070
-352.523	800.000	0.017	-0.073
-351.508	116.283	-0.165	-0.203
-350.493	-116.538	0.255	0.047
-349.479	28.545	0.034	0.029
-348.464	329.925	-0.102	-0.198
-347.450	-141.472	0.309	-0.031
-346.435	800.000	-0.016	-0.062
-345.420	-200.000	0.024	0.255
-344.406	-200.000	0.011	0.066
-343.391	800.000	-0.014	-0.057
-342.377	-200.000	0.013	-0.112
-341.362	344.764	0.038	-0.075
-340.348	217.568	-0.035	-0.056
-339.333	-200.000	-0.023	0.127
-338.318	-160.728	0.376	-0.020
-337.304	-84.985	-0.213	0.067
-336.289	-86.401	0.105	-0.033
-335.275	-80.357	-0.421	0.141
-334.260	-200.000	-0.008	0.305
-333.245	136.619	-0.067	0.087
-332.231	-114.974	-0.102	0.020
-331.216	-200.000	0.050	0.260
-330.202	72.565	-0.211	0.221
-329.187	-69.955	0.233	0.089
-328.172	61.339	-0.074	0.074
-327.158	109.529	0.199	-0.240
-326.143	-47.035	-0.225	0.110
-325.129	-63.653	-0.051	-0.021
-324.114	-42.370	0.041	0.021
-323.099	122.410	-0.011	-0.013
-322.085	95.903	-0.196	-0.225
-321.070	251.670	0.101	-0.172
-320.056	800.000	0.024	0.086
-319.041	-200.000	-0.004	0.189
-318.026	-200.000	-0.004	-0.212
-317.012	220.165	0.029	0.047
-315.997	43.636	-0.167	-0.153
-314.983	-101.507	0.190	-0.046
-313.968	-200.000	-0.037	-0.210
-312.953	-185.965	0.187	-0.003
-311.939	-200.000	-0.070	0.000
-310.924	54.336	-0.076	0.073
-309.910	-200.000	-0.013	-0.173
-308.895	-200.000	0.009	-0.117
-307.880	-200.000	-0.008	-0.408
-306.866	800.000	-0.030	-0.098
-305.851	-59.362	0.155	-0.067
-304.837	-25.231	-0.095	0.057
-303.822	-19.084	-0.193	0.121
-302.807	-112.732	0.066	0.013
-301.793	-42.680	-0.380	-0.194
-300.778	186.425	-0.028	-0.042
-299.764	338.647	-0.112	-0.220
-298.749	-148.757	-0.281	0.023
-297.735	-29.324	0.208	0.119
-296.720	-119.420	0.401	0.070
-295.705	-200.000	-0.003	-0.116
-294.691	-43.906	-0.095	-0.048
-293.676	-0.549	0.096	0.068
-292.662	-45.324	-0.251	-0.125
-291.647	-75.851	0.069	-0.025
-290.632	-100.489	0.088	-0.022
-289.618	413.987	0.087	0.186
-288.603	-108.995	0.168	-0.036
-287.589	-32.424	-0.150	0.084
-286.574	134.160	-0.032	-0.042
-285.559	800.000	-0.055	0.206
-284.545	191.658	0.046	-0.070
-283.530	-52.000	-0.405	-0.189
-282.516	-195.040	0.342	-0.003
-281.501	-12.513	0.035	-0.023
-280.486	-56.194	-0.162	0.072
-279.472	-97.033	0.089	-0.023
-278.457	-70.245	0.228	0.087
-277.443	-71.463	0.096	0.036
-276.428	14.632	-0.107	-0.083
-275.413	-1.259	0.118	-0.084
-274.399	142.844	-0.172	-0.230
-273.384	-200.000	0.008	-0.270
-272.370	-107.703	-0.304	0.066
-271.355	78.837	-0.139	0.149
-270.340	279.650	0.231	0.414
-269.326	128.021	0.185	0.236
-268.311	-181.741	0.349	0.007
-267.297	-76.033	0.071	-0.025
-266.282	-54.486	-0.218	-0.099
-265.267	-175.406	0.096	0.003
-264.253	-200.000	-0.025	0.196
-263.238	-53.864	0.419	0.191
-262.224	-7.362	0.075	0.051
-261.209	-96.687	-0.122	0.032
-260.195	154.478	-0.260	-0.357
-259.180	-200.000	-0.005	0.371
-258.165	-79.299	0.243	-0.082
-257.151	-44.044	-0.045	-0.023
-256.136	585.388	0.087	0.214
-255.122	-3.206	-0.030	0.021
-254.107	-192.479	-0.084	0.001
-253.092	347.316	-0.220	0.434
-252.078	142.777	0.054	0.072
-251.063	-103.399	0.158	-0.037
-250.049	-45.087	-0.208	-0.104
-249.034	-150.044	0.083	0.006
-248.019	46.820	-0.089	-0.083
-247.005	620.196	0.127	-0.321
-245.990	693.123	-0.031	-0.082
-244.976	-134.719	-0.159	-0.019
-243.961	800.000	0.079	-0.248
-242.946	-82.952	0.246	0.079
-241.932	127.952	-0.101	-0.128
-240.917	-153.628	0.137	0.009
-239.903	800.000	-0.089	0.386
-238.888	405.151	-0.207	0.437
-237.873	257.782	0.030	-0.052
-236.859	-103.056	-0.211	-0.050
-235.844	401.241	0.122	-0.257
-234.830	800.000	0.059	0.210
-233.815	800.000	0.018	0.054
-232.800	-200.000	0.076	-0.425
-231.786	34.156	0.186	-0.163
-230.771	-200.000	0.030	0.243
-229.757	-200.000	0.051	0.385
-228.742	189.891	-0.169	-0.254
-227.727	211.020	0.063	0.099
-226.713	-96.035	-0.360	0.096
-225.698	-200.000	0.013	0.067
-224.684	-29.930	0.074	-0.042
-223.669	84.691	-0.219	-0.240
-222.655	69.472	0.282	-0.291
-221.640	72.759	0.106	-0.111
-220.625	214.700	0.107	-0.170
-219.611	77.335	-0.243	0.259
-218.596	409.536	-0.097	0.205
-217.582	800.000	-0.094	0.408
-216.567	-87.005	0.264	-0.080
-215.552	-70.418	0.313	-0.119
-214.538	58.920	-0.128	-0.126
-213.523	-53.307	-0.060	0.028
-212.509	-200.000	0.030	0.187
-211.494	-14.044	0.286	-0.185
-210.479	233.335	0.130	-0.214
-209.465	-182.484	-0.107	0.002
-208.450	-200.000	0.042	0.234
-207.436	-161.531	0.200	0.010
-206.421	29.634	-0.157	-0.134
-205.406	-200.000	-0.002	0.109
-204.392	800.000	0.051	0.208
-203.377	-92.064	-0.443	0.125
-202.363	-24.852	-0.295	0.175
-201.348	123.434	-0.200	-0.251
-200.333	162.635	0.051	-0.071
-199.319	800.000	-0.077	0.268
-198.304	208.181	-0.159	-0.249
-197.290	-200.000	-0.017	0.163
-196.275	-92.063	-0.188	-0.053
-195.260	-23.313	-0.050	-0.030
-194.246	-129.922	0.153	-0.021
-193.231	-166.163	0.201	0.009
-192.217	371.567	-0.125	0.254
-191.202	-63.580	0.188	0.077
-190.187	-73.802	0.234	-0.085
-189.173	-113.365	0.228	-0.045
-188.158	-36.325	-0.172	-0.093
-187.144	-200.000	-0.048	0.258
-186.129	-56.613	0.347	-0.154
-185.114	-61.363	0.285	0.120
-184.100	749.668	0.034	0.092
-183.085	483.325	-0.014	0.032
-182.071	-105.866	0.283	0.064
-181.056	-98.678	0.083	0.021
-180.042	-148.066	0.204	-0.017
-179.027	-108.726	0.082	0.018
-178.012	95.776	-0.083	0.094
-176.998	-200.000	-0.004	0.079
-175.983	-200.000	0.008	-0.125
-174.969	-117.772	0.342	0.061
-173.954	-139.644	-0.141	-0.015
-172.939	-78.805	0.111	-0.038
-171.925	266.718	-0.120	-0.210
-170.910	800.000	-0.054	-0.182
-169.896	800.000	0.094	0.306
-168.881	265.053	-0.075	-0.131
-167.866	122.231	-0.160	0.199
-166.852	-159.387	0.437	0.024
-165.837	-200.000	0.004	-0.057
-164.823	206.539	0.210	-0.326
-163.808	90.083	0.137	0.153
-162.793	3.816	-0.106	0.077
-161.779	433.068	0.108	0.235
-160.764	-200.000	0.096	0.458
-159.750	-4.759	0.091	0.063
-158.735	800.000	0.095	0.369
-157.720	-52.918	-0.137	0.063
-156.706	-13.905	0.088	-0.057
-155.691	800.000	-0.043	0.181
-154.677	-119.717	0.428	0.074
-153.662	-200.000	0.023	0.187
-152.647	2.928	0.149	0.108
-151.633	486.583	-0.045	-0.103
-150.618	-102.375	0.210	-0.050
-149.604	86.105	-0.096	-0.105
-148.589	-200.000	-0.051	-0.230
-147.574	161.636	-0.145	-0.203
-146.560	240.396	0.151	0.251
-145.545	-30.312	-0.069	0.039
-144.531	-200.000	-0.013	0.097
-143.516	800.000	-0.078	0.276
-142.502	-145.956	-0.078	-0.007
-141.487	-91.972	0.152	0.043
-140.472	577.172	-0.056	-0.137
-139.458	-200.000	0.001	-0.192
-138.443	39.582	-0.186	0.166
-137.429	-21.282	0.309	-0.188
-136.414	-124.950	-0.176	0.027
-135.399	491.519	-0.071	-0.162
-134.385	311.170	0.138	-0.258
-133.370	-101.023	-0.193	0.047
-132.356	-97.064	0.076	0.020
-131.341	163.592	0.223	0.312
-130.326	-93.529	0.137	0.038
-129.312	-109.523	0.244	-0.051
-128.297	-69.209	-0.026	0.010
-127.283	-126.919	-0.180	0.026
-126.268	503.478	0.108	-0.250
-125.253	361.392	-0.138	-0.275
-124.239	155.137	-0.043	-0.059
-123.224	-142.505	0.153	0.015
-122.210	-200.000	0.008	0.078
-121.195	-56.176	0.296	0.131
