DTS Sentinel unit serial number:	SN413079Multiplexer serial number:	ORYXHardware model number:	OX4-SRSoftware version number:	ORYX F/W v4.00 Oryx Data Collector v3.7.2.0data status	okinstallation	princeton_trtdifferential loss correction	single-endedforward channel	channel 3reverse channel	N/Adate	2019/09/12time	06:22:11forward acquisition time	60.00reverse acquisition time	0.00gamma	496.2192k internal	0.2320k external	0.2320temperature offset calibration	1.0031default loss term (dB/km)	0.3790temperature slope calibration	1.0000multiplexer offset coefficient	1.0000multiplexer slope coefficient	1.0000fibre end	0.00T internal ref (°C)	32.16T ext. ref 1 (°C)	1.57T ext. ref 2 (°C)	27.37length (m)	temperature (°C)	Stokes	anti-Stokes-747.200	800.000	0.096	0.291
-746.185	724.835	0.207	0.558
-745.171	-38.945	-0.089	-0.047
-744.156	140.342	0.175	0.233
-743.142	43.326	-0.005	0.005
-742.127	-200.000	0.011	0.470
-741.112	25.286	0.227	-0.191
-740.098	-138.822	-0.311	-0.034
-739.083	-10.216	0.458	0.307
-738.069	800.000	-0.032	0.105
-737.054	73.834	0.248	-0.263
-736.039	67.605	-0.290	-0.299
-735.025	-52.013	0.136	-0.064
-734.010	43.465	-0.075	0.070
-732.996	-200.000	0.056	-0.364
-731.981	-154.026	-0.167	-0.011
-730.966	-115.110	-0.367	0.070
-729.952	11.685	-0.092	-0.071
-728.937	800.000	-0.116	0.382
-727.923	-200.000	-0.003	-0.161
-726.908	143.573	0.090	0.122
-725.894	273.675	0.201	-0.360
-724.879	-167.098	-0.403	-0.017
-723.864	-46.167	0.121	0.060
-722.850	-200.000	0.100	-0.471
-721.835	800.000	-0.020	-0.060
-720.821	106.825	0.155	0.186
-719.806	800.000	-0.075	0.311
-718.791	800.000	-0.069	0.279
-717.777	-142.711	0.332	0.033
-716.762	-200.000	-0.023	0.260
-715.748	76.853	-0.123	-0.132
-714.733	-38.398	-0.221	-0.118
-713.718	-118.078	0.311	0.056
-712.704	-200.000	0.012	-0.063
-711.689	131.121	-0.063	0.081
-710.675	-127.377	0.313	-0.046
-709.660	-75.553	0.116	0.042
-708.645	370.063	0.080	0.163
-707.631	253.842	0.159	-0.275
-706.616	-200.000	0.041	0.267
-705.602	-135.071	-0.420	-0.051
-704.587	-27.977	-0.086	0.050
-703.572	-116.378	0.201	0.037
-702.558	800.000	-0.015	-0.064
-701.543	-131.606	0.172	0.023
-700.529	-92.684	0.275	-0.078
-699.514	244.972	0.190	0.322
-698.499	276.299	0.107	-0.192
-697.485	64.125	0.203	-0.206
-696.470	26.452	-0.307	0.259
-695.456	3.709	-0.129	0.095
-694.441	10.229	0.185	-0.142
-693.426	343.585	-0.142	0.281
-692.412	151.002	-0.113	-0.156
-691.397	-200.000	0.053	0.389
-690.383	-75.300	-0.443	-0.160
-689.368	-52.303	-0.127	0.060
-688.354	-200.000	0.035	0.416
-687.339	-200.000	-0.011	-0.083
-686.324	-5.497	-0.211	-0.146
-685.310	446.047	-0.022	0.048
-684.295	800.000	-0.114	-0.350
-683.281	609.624	-0.029	-0.072
-682.266	56.698	-0.074	-0.073
-681.251	219.989	-0.132	0.214
-680.237	-108.137	-0.235	-0.051
-679.222	-30.272	0.256	-0.147
-678.208	-200.000	-0.029	0.173
-677.193	-200.000	-0.065	-0.321
-676.178	-154.336	0.205	-0.014
-675.164	74.220	0.093	0.098
-674.149	-72.965	-0.321	0.119
-673.135	-154.121	-0.240	0.016
-672.120	135.478	-0.094	-0.124
-671.105	-200.000	-0.046	-0.208
-670.091	-90.369	0.008	-0.002
-669.076	-135.793	0.149	0.018
-668.062	-134.408	-0.127	0.016
-667.047	-155.069	0.435	0.029
-666.032	474.951	-0.079	-0.180
-665.018	353.425	0.198	0.396
-664.003	464.654	0.028	0.064
-662.989	-200.000	0.020	0.355
-661.974	117.445	-0.020	0.025
-660.959	33.961	0.118	-0.104
-659.945	-9.057	-0.271	-0.183
-658.930	594.673	-0.102	0.254
-657.916	16.762	-0.113	0.090
-656.901	-200.000	0.030	0.195
-655.886	-182.606	-0.152	-0.003
-654.872	800.000	0.033	-0.105
-653.857	-89.847	-0.152	-0.045
-652.843	132.346	0.040	-0.052
-651.828	-55.546	0.160	0.072
-650.814	6.764	-0.136	0.102
-649.799	-200.000	0.031	-0.201
-648.784	800.000	0.058	0.195
-647.770	53.009	0.424	-0.409
-646.755	-10.425	0.061	-0.041
-645.741	-72.960	-0.181	0.067
-644.726	350.615	0.099	-0.197
-643.711	-188.992	-0.414	-0.005
-642.697	665.959	-0.048	-0.124
-641.682	-112.342	0.167	0.034
-640.668	-200.000	-0.022	-0.112
-639.653	291.093	0.046	-0.085
-638.638	-200.000	-0.017	-0.185
-637.624	-3.954	0.355	-0.248
-636.609	-73.548	-0.326	0.120
-635.595	-0.824	-0.149	-0.106
-634.580	347.521	-0.068	-0.135
-633.565	695.863	0.145	0.384
-632.551	-51.016	-0.257	0.121
-631.536	34.698	-0.199	-0.175
-630.522	420.708	-0.068	-0.147
-629.507	-6.370	-0.194	0.133
-628.492	-86.295	-0.304	0.094
-627.478	-118.095	0.302	-0.054
-626.463	6.197	-0.295	0.220
-625.449	800.000	0.119	0.374
-624.434	170.400	-0.273	0.394
-623.419	-200.000	-0.007	0.081
-622.405	-35.987	-0.119	0.065
-621.390	800.000	0.039	0.150
-620.376	-200.000	-0.004	-0.146
-619.361	800.000	0.095	-0.300
-618.346	800.000	0.040	0.134
-617.332	-200.000	0.173	0.000
-616.317	-67.034	-0.076	-0.030
-615.303	71.134	-0.183	0.191
-614.288	36.674	0.256	0.227
-613.273	54.289	-0.060	0.058
-612.259	-200.000	-0.001	-0.024
-611.244	-126.632	-0.143	0.021
-610.230	-34.863	-0.138	-0.076
-609.215	-14.081	0.255	-0.166
-608.201	-131.447	0.189	-0.025
-607.186	-8.644	-0.258	-0.175
-606.171	800.000	-0.066	-0.246
-605.157	264.953	-0.097	0.171
-604.142	-13.070	0.210	0.138
-603.128	73.087	0.262	-0.275
-602.113	24.911	0.188	0.157
-601.098	-160.959	-0.379	0.020
-600.084	611.063	-0.052	0.130
-599.069	189.990	0.088	-0.133
-598.055	252.218	0.288	-0.493
-597.040	-106.237	0.283	-0.064
-596.025	-200.000	-0.056	0.339
-595.011	-12.540	0.152	-0.099
-593.996	-56.047	-0.057	0.025
-592.982	-8.620	0.243	0.164
-591.967	39.461	0.169	-0.153
-590.952	-2.587	0.410	0.289
-589.938	-59.248	0.216	-0.093
-588.923	-35.116	-0.135	-0.074
-587.909	-28.042	0.113	0.066
-586.894	-191.573	-0.072	-0.001
-585.879	800.000	0.047	0.170
-584.865	145.941	0.111	0.150
-583.850	441.855	-0.091	0.199
-582.836	17.067	-0.065	0.052
-581.821	117.994	0.115	-0.143
-580.806	111.968	-0.045	0.054
-579.792	13.715	-0.257	0.200
-578.777	30.668	0.194	0.167
-577.763	-18.214	-0.303	0.191
-576.748	267.217	0.045	0.079
-575.733	-5.007	-0.098	-0.068
-574.719	25.330	-0.211	0.176
-573.704	-40.085	-0.035	-0.018
-572.690	789.869	-0.055	-0.151
-571.675	298.672	-0.087	-0.162
-570.661	-200.000	-0.013	0.150
-569.646	678.805	-0.085	0.222
-568.631	12.579	0.047	-0.036
-567.617	-200.000	0.017	0.146
-566.602	800.000	0.048	-0.134
-565.588	-200.000	0.020	-0.103
-564.573	257.817	-0.145	0.251
-563.558	800.000	-0.038	-0.109
-562.544	-70.554	0.191	-0.073
-561.529	-200.000	-0.012	0.118
-560.515	67.319	-0.195	-0.200
-559.500	-36.113	-0.239	0.129
-558.485	-20.496	-0.128	0.079
-557.471	-29.021	0.210	-0.121
-556.456	-32.755	0.306	-0.171
-555.442	8.386	-0.417	0.315
-554.427	213.093	0.100	-0.159
-553.412	800.000	-0.085	-0.306
-552.398	-96.305	-0.242	-0.064
-551.383	112.758	0.151	0.183
-550.369	-200.000	0.018	0.101
-549.354	800.000	0.140	-0.593
-548.339	641.649	-0.019	0.048
-547.325	-71.430	0.235	0.088
-546.310	444.406	0.040	-0.088
-545.296	-200.000	-0.340	0.000
-544.281	-129.254	0.036	-0.005
-543.266	-66.609	0.145	0.058
-542.252	86.878	-0.131	0.145
-541.237	355.957	0.103	0.206
-540.223	-44.492	-0.115	-0.058
-539.208	-76.317	-0.102	-0.036
-538.193	23.646	0.274	-0.226
-537.179	-200.000	-0.036	-0.271
-536.164	-40.311	-0.153	-0.080
-535.150	-64.337	-0.191	0.078
-534.135	-47.354	-0.172	0.084
-533.121	158.101	0.066	-0.091
-532.106	800.000	0.051	0.154
-531.091	-200.000	0.003	-0.145
-530.077	800.000	0.165	-0.460
-529.062	-39.009	-0.056	-0.030
-528.048	365.455	-0.060	-0.122
-527.033	-11.230	0.287	0.190
-526.018	-138.643	0.355	0.039
-525.004	-126.604	0.166	0.025
-523.989	-22.257	-0.289	0.176
-522.975	-174.595	0.113	0.003
-521.960	-89.229	-0.149	0.044
-520.945	138.460	0.105	0.138
-519.931	-88.557	0.211	-0.063
-518.916	-56.098	0.223	0.100
-517.902	-83.018	-0.164	-0.053
-516.887	-13.780	-0.229	-0.149
-515.872	-148.737	0.237	0.019
-514.858	42.168	-0.151	0.138
-513.843	800.000	-0.097	0.339
-512.829	14.848	0.328	-0.257
-511.814	9.209	-0.155	0.117
-510.799	52.304	0.060	0.058
-509.785	-24.832	-0.057	-0.034
-508.770	108.852	-0.110	-0.132
-507.756	161.287	0.126	-0.176
-506.741	-14.093	-0.299	0.193
-505.726	97.844	-0.134	-0.155
-504.712	32.564	-0.222	-0.192
-503.697	-153.269	-0.328	-0.023
-502.683	-200.000	0.005	-0.109
-501.668	159.786	-0.133	-0.185
-500.653	800.000	-0.073	-0.309
-499.639	-200.000	-0.022	-0.172
-498.624	-200.000	-0.022	-0.158
-497.610	-65.017	-0.018	-0.007
-496.595	-169.100	0.333	0.012
-495.581	-24.364	0.189	0.113
-494.566	-200.000	-0.066	0.298
-493.551	800.000	0.041	-0.161
-492.537	101.793	0.131	0.154
-491.522	9.037	0.035	-0.027
-490.508	-88.167	-0.043	-0.013
-489.493	-0.576	0.006	-0.004
-488.478	649.278	0.079	-0.203
-487.464	180.492	0.085	-0.124
-486.449	115.784	-0.290	-0.355
-485.435	-109.232	-0.075	0.016
-484.420	89.693	-0.193	-0.216
-483.405	-133.781	0.198	-0.025
-482.391	33.584	-0.251	-0.218
-481.376	84.604	0.215	0.236
-480.362	-200.000	-0.056	-0.358
-479.347	363.393	-0.124	0.250
-478.332	99.245	0.080	-0.092
-477.318	-17.400	0.041	0.026
-476.303	-103.202	0.253	0.060
-475.289	339.481	-0.101	0.197
-474.274	-14.612	-0.113	0.073
-473.259	-80.760	0.098	-0.032
-472.245	-85.864	0.104	0.032
-471.230	-79.416	0.031	0.010
-470.216	235.101	-0.073	0.121
-469.201	5.147	0.192	0.142
-468.186	-83.644	0.292	-0.093
-467.172	197.390	0.188	0.287
-466.157	635.987	0.058	0.148
-465.143	-114.710	0.250	0.048
-464.128	578.674	0.111	0.271
-463.113	800.000	0.009	0.040
-462.099	-40.940	-0.164	0.085
-461.084	800.000	-0.180	-0.540
-460.070	-71.322	-0.260	0.098
-459.055	40.292	0.208	-0.187
-458.040	81.933	0.078	-0.084
-457.026	30.771	-0.156	-0.133
-456.011	78.182	0.206	-0.220
-454.997	739.607	0.072	0.192
-453.982	-76.149	0.076	-0.027
-452.968	-200.000	-0.075	0.507
-451.953	-200.000	-0.012	0.128
-450.938	662.394	-0.277	-0.714
-449.924	77.207	0.353	-0.375
-448.909	-6.217	-0.260	-0.177
-447.895	-128.907	0.273	0.038
-446.880	92.344	0.131	0.147
-445.865	57.050	-0.249	0.242
-444.851	-78.198	0.112	0.038
-443.836	154.736	0.151	0.208
-442.822	80.451	0.091	0.098
-441.807	-35.529	-0.197	0.107
-440.792	-200.000	-0.041	0.305
-439.778	-200.000	0.099	0.461
-438.763	-110.015	-0.182	0.038
-437.749	-200.000	0.056	0.362
-436.734	273.874	-0.175	-0.310
-435.719	-37.109	-0.066	0.035
-434.705	-200.000	-0.009	-0.067
-433.690	280.033	0.100	-0.179
-432.676	44.587	0.142	0.130
-431.661	-171.889	0.138	-0.004
-430.646	-10.576	0.066	0.044
-429.632	140.302	-0.165	-0.218
-428.617	-116.976	-0.155	0.028
-427.603	480.549	0.156	-0.354
-426.588	672.350	-0.142	-0.368
-425.573	-200.000	0.037	-0.420
-424.559	8.101	-0.112	-0.084
-423.544	232.328	-0.098	0.161
-422.530	-200.000	0.029	-0.171
-421.515	-52.756	0.100	0.046
-420.500	-103.864	0.278	0.065
-419.486	553.188	-0.130	0.312
-418.471	800.000	0.098	0.283
-417.457	19.020	-0.232	0.186
-416.442	46.889	-0.151	-0.140
-415.428	-156.843	-0.172	-0.011
-414.413	800.000	-0.033	0.133
-413.398	57.131	-0.116	0.113
-412.384	503.006	-0.137	0.317
-411.369	800.000	-0.080	-0.256
-410.355	800.000	0.087	0.287
-409.340	-44.375	0.069	0.035
-408.325	-200.000	0.001	-0.036
-407.311	-111.374	0.010	0.002
-406.296	-200.000	-0.023	0.305
-405.282	-139.239	0.109	0.012
-404.267	443.321	0.060	-0.132
-403.252	-200.000	-0.010	0.102
-402.238	272.693	-0.139	-0.245
-401.223	452.934	0.018	0.040
-400.209	800.000	0.002	0.007
-399.194	-8.524	-0.360	-0.242
-398.179	444.345	0.067	-0.147
-397.165	263.329	-0.159	0.276
-396.150	800.000	-0.101	0.362
-395.136	76.057	0.123	0.130
-394.121	292.343	0.096	-0.175
-393.106	-200.000	-0.029	-0.150
-392.092	646.024	0.057	0.144
-391.077	800.000	0.044	-0.142
-390.063	800.000	0.030	-0.094
-389.048	261.730	0.068	-0.117
-388.033	218.012	0.032	-0.051
-387.019	84.993	-0.185	0.202
-386.004	137.853	0.058	0.076
-384.990	800.000	-0.079	0.284
-383.975	-60.370	0.214	-0.091
-382.960	800.000	-0.048	-0.157
-381.946	-97.789	0.203	0.052
-380.931	-200.000	0.001	-0.040
-379.917	82.306	-0.210	0.227
-378.902	-33.153	0.400	-0.221
-377.888	106.834	-0.158	-0.187
-376.873	-200.000	0.057	-0.387
-375.858	606.832	-0.120	0.299
-374.844	-200.000	0.002	0.109
-373.829	800.000	-0.049	-0.143
-372.815	-131.956	0.335	-0.043
-371.800	-200.000	-0.003	0.029
-370.785	448.118	0.088	-0.194
-369.771	12.922	-0.106	-0.082
-368.756	95.972	-0.123	-0.140
-367.742	-105.679	0.177	-0.040
-366.727	145.053	0.043	0.058
-365.712	-44.661	-0.080	0.040
-364.698	-103.921	-0.184	-0.043
-363.683	149.659	-0.128	-0.172
-362.669	35.816	-0.293	0.257
-361.654	-141.459	-0.206	0.021
-360.639	153.123	0.085	0.115
-359.625	-99.903	-0.117	-0.029
-358.610	-200.000	0.033	-0.198
-357.596	448.234	0.028	0.062
-356.581	-11.410	-0.254	-0.166
-355.566	-13.002	0.106	0.069
-354.552	-200.000	0.003	-0.090
-353.537	394.335	0.107	-0.223
-352.523	200.184	0.149	-0.227
-351.508	122.992	-0.104	0.130
-350.493	-93.418	0.132	0.036
-349.479	-79.521	-0.332	0.112
-348.464	-144.422	0.268	-0.025
-347.450	22.761	0.177	-0.144
-346.435	211.366	-0.162	0.253
-345.420	-53.264	0.257	0.117
-344.406	-107.594	0.199	0.043
-343.391	-200.000	-0.020	0.101
-342.377	169.459	-0.146	0.208
-341.362	-35.099	-0.282	0.153
-340.348	-200.000	-0.188	0.000
-339.333	-103.152	0.035	-0.008
-338.318	800.000	-0.028	0.090
-337.304	72.111	-0.246	-0.255
-336.289	-200.000	-0.019	-0.201
-335.275	800.000	0.092	0.276
-334.260	173.378	-0.075	-0.108
-333.245	21.437	-0.171	0.138
-332.231	-200.000	0.026	-0.273
-331.216	-85.536	-0.082	-0.025
-330.202	-98.704	0.313	0.079
-329.187	287.266	0.095	0.171
-328.172	87.040	0.105	-0.116
-327.158	783.497	-0.042	-0.114
-326.143	75.760	0.170	0.179
-325.129	754.320	0.049	0.132
-324.114	800.000	0.072	0.225
-323.099	529.705	-0.071	-0.166
-322.085	-147.238	0.037	-0.003
-321.070	94.830	-0.186	0.211
-320.056	-136.891	-0.099	-0.011
-319.041	0.270	-0.137	0.097
-318.026	-108.259	0.114	-0.025
-317.012	471.944	0.015	0.033
-315.997	-200.000	-0.008	0.221
-314.983	125.669	-0.127	0.159
-313.968	14.081	0.081	0.063
-312.953	0.291	0.215	-0.152
-311.939	730.259	0.108	-0.287
-310.924	224.743	0.074	-0.119
-309.910	800.000	-0.091	-0.333
-308.895	800.000	0.016	0.053
-307.880	73.428	-0.227	0.237
-306.866	206.412	0.132	-0.204
-305.851	-101.535	0.223	-0.054
-304.837	-143.643	0.382	0.036
-303.822	578.182	0.029	-0.071
-302.807	-200.000	0.008	-0.158
-301.793	-41.540	-0.339	-0.173
-300.778	34.361	0.059	0.051
-299.764	517.901	0.140	0.324
-298.749	-146.098	0.206	-0.018
-297.735	77.067	-0.111	-0.117
-296.720	-200.000	-0.014	-0.083
-295.705	40.615	-0.225	0.202
-294.691	-68.478	0.077	0.030
-293.676	-200.000	-0.000	0.203
-292.662	-200.000	-0.006	0.173
-291.647	-124.776	-0.180	-0.028
-290.632	-31.832	0.133	0.074
-289.618	-200.000	0.018	0.169
-288.603	-12.766	-0.131	-0.085
-287.589	-154.081	0.257	0.017
-286.574	139.608	0.076	0.099
-285.559	800.000	-0.046	0.179
-284.545	251.205	0.066	-0.112
-283.530	-67.601	0.208	-0.081
-282.516	247.150	-0.103	0.174
-281.501	-122.211	0.247	-0.040
-280.486	-200.000	0.040	-0.186
-279.472	185.094	-0.069	0.101
-278.457	-32.901	-0.070	0.038
-277.443	-154.969	0.216	-0.014
-276.428	170.052	0.181	0.257
-275.413	420.807	0.050	0.107
-274.399	53.077	0.058	-0.055
-273.384	743.460	-0.133	-0.355
-272.370	-10.315	-0.086	-0.056
-271.355	-23.202	0.150	-0.090
-270.340	-145.589	-0.077	0.007
-269.326	248.720	-0.141	0.237
-268.311	36.292	0.144	-0.126
-267.297	-200.000	-0.012	-0.262
-266.282	-151.542	-0.195	-0.014
-265.267	-116.725	0.095	-0.017
-264.253	-200.000	-0.022	0.329
-263.238	52.813	0.205	-0.194
-262.224	-200.000	-0.006	-0.321
-261.209	-19.876	-0.200	0.123
-260.195	800.000	-0.131	0.405
-259.180	-59.165	0.199	0.085
-258.165	-28.624	0.135	0.077
-257.151	-175.786	-0.224	-0.006
-256.136	-69.291	0.106	-0.040
-255.122	205.396	-0.048	0.073
-254.107	-108.615	-0.391	0.083
-253.092	-156.647	0.212	0.013
-252.078	701.995	0.099	-0.259
-251.063	78.130	0.043	0.046
-250.049	-47.449	-0.241	0.116
-249.034	14.205	0.350	-0.270
-248.019	-200.000	-0.040	0.207
-247.005	-84.129	-0.098	-0.031
-245.990	800.000	-0.085	-0.354
-244.976	800.000	0.028	0.096
-243.961	-62.450	-0.152	0.063
-242.946	-200.000	-0.033	-0.294
-241.932	-200.000	-0.012	0.224
-240.917	147.858	-0.167	-0.224
-239.903	381.002	0.032	-0.064
-238.888	232.870	-0.083	0.136
-237.873	-42.464	0.068	0.034
-236.859	51.539	-0.163	0.154
-235.844	20.781	0.126	0.101
-234.830	-96.268	-0.141	-0.037
-233.815	631.875	-0.034	-0.085
-232.800	67.499	-0.079	0.080
-231.786	-39.043	-0.119	0.062
-230.771	-200.000	0.016	-0.107
-229.757	-63.039	-0.088	-0.036
-228.742	-85.917	-0.309	0.095
-227.727	-43.015	-0.121	0.061
-226.713	-23.778	-0.175	0.104
-225.698	800.000	0.066	0.276
-224.684	364.455	-0.036	-0.073
-223.669	-200.000	-0.036	0.386
-222.655	-9.275	0.074	-0.049
-221.640	-53.137	-0.079	0.036
-220.625	-110.523	-0.220	-0.045
-219.611	-65.903	0.395	-0.156
-218.596	-128.950	0.499	-0.069
-217.582	51.964	0.185	-0.174
-216.567	-34.722	-0.027	-0.015
-215.552	-179.150	-0.106	-0.002
-214.538	82.449	0.187	0.202
-213.523	800.000	0.055	-0.220
-212.509	-196.323	-0.507	-0.003
-211.494	-76.325	0.151	-0.053
-210.479	-42.551	-0.310	0.157
-209.465	-25.902	0.294	-0.172
-208.450	-200.000	-0.046	0.212
-207.436	800.000	0.034	-0.136
-206.421	-200.000	-0.072	-0.379
-205.406	-178.952	0.114	0.003
-204.392	168.202	0.076	-0.107
-203.377	481.867	-0.133	-0.298
-202.363	1.145	-0.259	-0.184
-201.348	550.455	-0.120	0.284
-200.333	127.251	0.087	0.110
-199.319	33.520	0.040	0.035
-198.304	-118.213	0.209	-0.037
-197.290	-108.058	0.129	-0.028
-196.275	-79.297	0.145	-0.049
-195.260	-200.000	-0.036	0.368
-194.246	-200.000	0.019	-0.107
-193.231	747.762	-0.068	0.182
-192.217	-119.949	0.057	-0.010
-191.202	-178.172	-0.204	0.005
-190.187	-128.612	-0.133	0.019
-189.173	541.398	-0.094	0.221
-188.158	-200.000	-0.017	0.143
-187.144	-200.000	0.016	-0.127
-186.129	-200.000	0.189	-0.001
-185.114	-178.848	-0.256	-0.006
-184.100	-200.000	-0.020	0.278
-183.085	112.350	-0.211	-0.253
-182.071	-200.000	-0.066	-0.350
-181.056	-147.173	0.130	-0.011
-180.042	-104.351	0.347	0.080
-179.027	800.000	0.048	-0.148
-178.012	43.583	0.184	0.166
-176.998	91.136	0.187	-0.207
-175.983	800.000	-0.071	0.219
-174.969	800.000	-0.107	-0.369
-173.954	424.851	0.193	-0.412
-172.939	61.565	-0.129	-0.127
-171.925	39.524	0.149	-0.132
-170.910	-76.073	-0.449	-0.157
-169.896	24.127	0.032	-0.026
-168.881	-200.000	-0.000	0.099
-167.866	-200.000	0.011	0.107
-166.852	454.457	0.101	-0.221
-165.837	800.000	-0.070	0.273
-164.823	-200.000	-0.037	0.287
-163.808	-107.425	0.160	0.035
-162.793	800.000	-0.055	0.174
-161.779	-200.000	0.035	0.304
-160.764	-200.000	-0.010	-0.312
-159.750	90.594	0.248	0.275
-158.735	113.467	0.049	-0.059
-157.720	162.615	0.097	0.134
-156.706	-36.517	0.251	0.133
-155.691	-96.578	-0.489	-0.128
-154.677	67.637	-0.124	-0.126
-153.662	-108.515	0.125	0.027
-152.647	141.338	0.096	-0.125
-151.633	24.205	0.177	0.145
-150.618	-200.000	0.032	-0.189
-149.604	3.678	0.214	-0.154
-148.589	-193.628	-0.349	-0.003
-147.574	-14.523	0.117	-0.074
-146.560	452.239	0.074	-0.161
-145.545	800.000	-0.046	-0.135
-144.531	79.624	0.113	0.120
-143.516	-200.000	-0.054	0.252
-142.502	-200.000	-0.014	0.204
-141.487	376.634	0.150	-0.302
-140.472	-91.695	0.055	0.016
-139.458	-83.430	0.282	-0.089
-138.443	-200.000	-0.006	0.067
-137.429	613.338	0.129	0.319
-136.414	-108.131	0.258	-0.055
-135.399	499.000	0.175	-0.398
-134.385	-56.946	-0.117	-0.051
-133.370	-106.802	-0.385	-0.084
-132.356	800.000	-0.039	0.151
-131.341	7.965	0.242	0.179
-130.326	338.731	0.083	0.160
-129.312	46.077	0.312	-0.285
-128.297	-14.016	0.074	-0.047
-127.283	117.660	-0.207	-0.252
-126.268	68.531	0.383	0.388
-125.253	-36.789	0.183	0.097
-124.239	468.125	-0.123	-0.273
-123.224	800.000	-0.079	0.248
-122.210	-64.370	-0.089	-0.036
-121.195	-200.000	-0.003	0.111
-120.180	91.638	0.037	-0.042
