DTS Sentinel unit serial number:	SN413079Multiplexer serial number:	ORYXHardware model number:	OX4-SRSoftware version number:	ORYX F/W v4.00 Oryx Data Collector v3.7.2.0data status	okinstallation	princeton_trtdifferential loss correction	single-endedforward channel	channel 3reverse channel	N/Adate	2019/09/10time	23:22:11forward acquisition time	60.00reverse acquisition time	0.00gamma	496.2192k internal	0.2331k external	0.2331temperature offset calibration	0.9918default loss term (dB/km)	0.3790temperature slope calibration	1.0000multiplexer offset coefficient	1.0000multiplexer slope coefficient	1.0000fibre end	0.00T internal ref (°C)	29.80T ext. ref 1 (°C)	-0.31T ext. ref 2 (°C)	23.20length (m)	temperature (°C)	Stokes	anti-Stokes-747.200	-90.023	-0.125	0.037
-746.185	800.000	-0.021	-0.086
-745.171	-200.000	-0.032	0.156
-744.156	146.315	-0.280	0.379
-743.142	-200.000	0.010	-0.200
-742.127	-62.309	-0.314	-0.131
-741.112	-133.834	-0.182	0.023
-740.098	36.128	-0.083	0.073
-739.083	-85.773	-0.471	0.147
-738.069	410.747	-0.083	-0.177
-737.054	-200.000	0.050	-0.257
-736.039	-104.397	-0.058	0.013
-735.025	-6.174	0.271	-0.186
-734.010	79.373	-0.354	-0.382
-732.996	-200.000	0.031	-0.378
-731.981	156.141	-0.102	-0.141
-730.966	-200.000	0.035	0.165
-729.952	-200.000	-0.062	-0.358
-728.937	-88.964	-0.392	0.117
-727.923	-18.502	-0.079	-0.050
-726.908	-185.061	0.146	-0.002
-725.894	-30.637	0.142	0.081
-724.879	48.009	0.174	0.164
-723.864	800.000	-0.030	-0.086
-722.850	-200.000	0.001	-0.108
-721.835	-200.000	-0.013	-0.076
-720.821	11.013	-0.375	-0.288
-719.806	-101.700	-0.358	-0.087
-718.791	-114.162	-0.317	0.062
-717.777	800.000	0.059	-0.177
-716.762	-3.825	0.118	-0.082
-715.748	-127.366	-0.150	0.022
-714.733	-200.000	-0.007	-0.153
-713.718	92.376	0.116	-0.132
-712.704	401.095	0.063	-0.132
-711.689	-59.733	-0.435	-0.188
-710.675	-150.588	-0.248	0.019
-709.660	800.000	-0.031	-0.092
-708.645	-138.306	-0.049	-0.005
-707.631	222.328	-0.177	-0.286
-706.616	-129.935	0.326	0.045
-705.602	548.743	0.105	0.253
-704.587	-1.127	-0.241	0.171
-703.572	167.651	-0.205	-0.292
-702.558	-36.884	-0.025	-0.013
-701.543	437.274	0.109	0.240
-700.529	-10.681	0.267	0.178
-699.514	167.635	-0.033	-0.047
-698.499	11.217	-0.073	-0.056
-697.485	800.000	-0.071	0.252
-696.470	342.589	-0.046	0.091
-695.456	-107.019	0.167	0.037
-694.441	-156.020	-0.087	-0.006
-693.426	487.559	0.117	-0.268
-692.412	-200.000	-0.004	0.141
-691.397	171.676	-0.065	-0.094
-690.383	-34.753	-0.235	-0.129
-689.368	800.000	-0.128	-0.411
-688.354	-111.114	0.210	0.043
-687.339	800.000	-0.037	0.151
-686.324	-200.000	-0.013	0.149
-685.310	-16.932	0.114	0.073
-684.295	-3.798	-0.184	0.128
-683.281	-193.715	0.093	-0.001
-682.266	-200.000	-0.021	-0.116
-681.251	-82.634	-0.160	0.052
-680.237	-54.170	-0.292	0.133
-679.222	-104.098	0.051	0.012
-678.208	-200.000	-0.004	-0.092
-677.193	-200.000	-0.003	-0.110
-676.178	-158.326	0.027	0.002
-675.164	286.392	0.151	0.274
-674.149	53.192	-0.359	0.345
-673.135	647.299	0.110	0.283
-672.120	-200.000	0.005	0.253
-671.105	143.261	-0.214	-0.285
-670.091	-5.559	-0.101	0.070
-669.076	-200.000	0.015	0.114
-668.062	800.000	0.025	-0.101
-667.047	75.007	0.031	0.032
-666.032	800.000	-0.093	0.324
-665.018	215.932	-0.231	0.369
-664.003	800.000	0.020	0.061
-662.989	-114.357	0.269	-0.052
-661.974	92.843	-0.066	-0.075
-660.959	255.103	-0.132	-0.227
-659.945	-200.000	0.005	0.105
-658.930	-200.000	0.027	-0.170
-657.916	85.302	0.246	-0.271
-656.901	-200.000	0.007	-0.234
-655.886	252.523	-0.101	-0.173
-654.872	-10.329	0.128	0.085
-653.857	-118.224	0.318	0.057
-652.843	281.469	0.285	-0.512
-651.828	-1.886	-0.035	0.025
-650.814	-92.152	-0.093	0.026
-649.799	374.707	0.120	-0.245
-648.784	19.311	-0.240	0.193
-647.770	248.303	-0.066	0.111
-646.755	290.285	-0.254	0.462
-645.741	-79.537	-0.372	-0.126
-644.726	-44.689	0.247	-0.123
-643.711	158.893	-0.109	-0.152
-642.697	-38.370	-0.112	0.059
-641.682	-91.415	0.143	0.041
-640.668	40.582	0.049	0.045
-639.653	168.167	-0.109	0.156
-638.638	-22.744	-0.414	0.251
-637.624	-87.241	0.059	0.018
-636.609	383.377	-0.084	0.174
-635.595	-32.357	-0.112	-0.062
-634.580	-200.000	0.009	0.264
-633.565	-200.000	-0.003	0.326
-632.551	-52.118	0.155	-0.072
-631.536	118.542	-0.110	0.137
-630.522	800.000	-0.045	0.161
-629.507	-37.436	-0.277	0.148
-628.492	-64.516	-0.113	-0.046
-627.478	-200.000	0.003	0.107
-626.463	-39.511	0.113	-0.059
-625.449	-17.816	0.175	-0.110
-624.434	-134.799	-0.441	-0.054
-623.419	-200.000	0.026	0.214
-622.405	-167.815	-0.209	0.008
-621.390	-115.926	-0.283	0.053
-620.376	14.725	0.101	0.079
-619.361	-31.787	0.136	0.076
-618.346	-69.324	0.298	-0.115
-617.332	40.907	0.251	0.227
-616.317	14.262	0.064	-0.050
-615.303	800.000	-0.042	0.135
-614.288	372.528	-0.043	-0.088
-613.273	399.862	0.164	-0.345
-612.259	-85.374	-0.542	-0.169
-611.244	-135.111	-0.283	-0.034
-610.230	144.630	0.121	0.162
-609.215	-185.121	0.280	-0.004
-608.201	-200.000	-0.373	-0.001
-607.186	641.554	-0.036	0.091
-606.171	201.150	0.051	-0.079
-605.157	-17.779	-0.177	0.111
-604.142	800.000	0.034	0.107
-603.128	39.578	0.074	-0.067
-602.113	-200.000	0.037	0.180
-601.098	-177.645	0.254	-0.006
-600.084	-200.000	0.005	0.051
-599.069	800.000	-0.043	-0.174
-598.055	-113.651	0.122	-0.024
-597.040	95.258	0.042	-0.048
-596.025	227.698	-0.023	0.037
-595.011	800.000	0.182	-0.507
-593.996	358.862	0.096	-0.193
-592.982	-20.491	0.215	0.132
-591.967	14.235	0.113	0.088
-590.952	-120.261	-0.047	0.008
-589.938	-158.079	0.094	-0.006
-588.923	800.000	-0.016	0.049
-587.909	304.504	0.032	-0.060
-586.894	-97.192	0.376	0.098
-585.879	-73.354	-0.259	0.095
-584.865	357.914	-0.021	0.041
-583.850	178.739	0.073	-0.107
-582.836	74.376	0.226	-0.237
-581.821	16.215	0.333	-0.263
-580.806	-75.161	-0.438	-0.157
-579.792	127.484	0.098	-0.124
-578.777	91.788	0.220	-0.248
-577.763	-39.886	0.270	0.141
-576.748	-50.476	0.195	0.092
-575.733	800.000	-0.084	0.347
-574.719	-163.393	-0.129	0.006
-573.704	246.637	-0.157	-0.265
-572.690	109.004	-0.225	-0.269
-571.675	96.687	-0.165	0.189
-570.661	47.682	0.107	-0.100
-569.646	-200.000	0.041	0.205
-568.631	31.963	-0.113	-0.097
-567.617	-200.000	-0.006	0.177
-566.602	82.985	-0.096	-0.105
-565.588	-200.000	-0.010	0.159
-564.573	-200.000	0.018	0.291
-563.558	-200.000	0.476	-0.002
-562.544	19.369	-0.270	-0.217
-561.529	-128.765	-0.154	-0.022
-560.515	-200.000	-0.001	0.032
-559.500	517.850	-0.097	-0.228
-558.485	401.638	0.038	-0.081
-557.471	287.867	0.081	-0.146
-556.456	324.030	0.197	-0.376
-555.442	408.018	-0.065	0.137
-554.427	261.654	-0.120	0.207
-553.412	-200.000	-0.053	-0.400
-552.398	-200.000	0.014	-0.251
-551.383	245.483	-0.086	0.144
-550.369	-115.161	0.483	0.091
-549.354	109.031	-0.055	-0.066
-548.339	53.339	-0.137	-0.131
-547.325	22.736	-0.429	-0.351
-546.310	800.000	0.051	0.159
-545.296	-32.682	0.038	0.021
-544.281	-180.575	0.256	0.005
-543.266	59.827	0.152	-0.150
-542.252	-150.599	0.221	0.017
-541.237	-164.510	0.253	-0.011
-540.223	-128.215	-0.289	0.041
-539.208	-134.294	-0.171	0.021
-538.193	-83.330	0.212	0.068
-537.179	80.240	0.227	0.244
-536.164	170.222	-0.064	0.092
-535.150	5.212	0.101	0.074
-534.135	-106.116	0.296	-0.066
-533.121	-73.969	0.122	0.044
-532.106	-200.000	-0.095	-0.504
-531.091	-72.383	-0.334	0.123
-530.077	-49.755	-0.090	0.043
-529.062	-200.000	-0.036	-0.238
-528.048	-39.635	0.067	-0.035
-527.033	800.000	0.032	-0.105
-526.018	286.575	-0.223	0.401
-525.004	-86.025	-0.230	-0.071
-523.989	-55.313	0.277	-0.124
-522.975	194.257	-0.170	0.257
-521.960	23.968	0.255	-0.210
-520.945	-200.000	0.009	-0.065
-519.931	52.128	0.363	0.346
-518.916	-200.000	-0.027	-0.318
-517.902	-162.641	0.183	0.009
-516.887	-19.910	-0.162	-0.100
-515.872	15.863	-0.098	-0.077
-514.858	-200.000	-0.053	0.432
-513.843	800.000	0.105	0.320
-512.829	-121.146	0.092	-0.015
-511.814	-109.241	-0.009	-0.002
-510.799	301.565	0.154	0.284
-509.785	464.543	-0.102	-0.227
-508.770	30.345	-0.105	0.089
-507.756	28.787	-0.188	0.158
-506.741	226.081	-0.214	-0.346
-505.726	366.411	0.046	0.092
-504.712	-200.000	-0.012	-0.068
-503.697	800.000	0.090	0.256
-502.683	734.530	0.161	0.429
-501.668	-65.739	-0.093	-0.037
-500.653	20.574	-0.171	-0.138
-499.639	188.312	0.032	0.047
-498.624	-55.616	0.139	0.062
-497.610	-121.628	-0.246	-0.041
-496.595	11.015	-0.032	0.024
-495.581	-79.420	-0.255	-0.086
-494.566	118.532	0.176	-0.217
-493.551	-54.550	0.120	-0.054
-492.537	113.923	-0.231	-0.279
-491.522	-80.869	-0.318	-0.105
-490.508	22.827	-0.178	0.146
-489.493	195.108	0.208	0.315
-488.478	-108.486	-0.105	0.022
-487.464	140.251	0.075	-0.098
-486.449	85.297	0.131	0.143
-485.435	-138.360	-0.200	-0.022
-484.420	-66.203	0.233	0.093
-483.405	180.135	-0.081	0.119
-482.391	800.000	0.067	-0.258
-481.376	-200.000	0.013	0.198
-480.362	21.319	-0.108	0.087
-479.347	-80.650	-0.167	-0.055
-478.332	-133.746	0.217	0.027
-477.318	216.119	-0.100	-0.159
-476.303	-200.000	-0.021	-0.233
-475.289	-76.238	0.315	0.111
-474.274	11.793	-0.181	-0.138
-473.259	-104.757	0.117	-0.027
-472.245	420.551	-0.054	-0.116
-471.230	800.000	0.102	-0.283
-470.216	56.195	-0.429	0.415
-469.201	623.507	-0.045	-0.113
-468.186	-35.498	-0.335	-0.181
-467.172	-200.000	0.021	0.278
-466.157	-200.000	0.063	0.428
-465.143	-200.000	-0.043	0.234
-464.128	213.252	-0.058	0.091
-463.113	59.258	-0.176	-0.173
-462.099	-82.497	-0.116	0.038
-461.084	19.461	0.088	0.070
-460.070	480.618	-0.162	0.367
-459.055	-200.000	-0.005	0.148
-458.040	29.260	-0.092	0.078
-457.026	-200.000	-0.007	-0.146
-456.011	-120.135	0.274	0.047
-454.997	-107.343	0.417	0.091
-453.982	800.000	-0.036	0.108
-452.968	23.281	0.178	0.146
-451.953	-25.109	-0.082	-0.049
-450.938	66.901	0.330	0.335
-449.924	-131.396	0.342	0.045
-448.909	-200.000	0.012	-0.068
-447.895	156.002	-0.061	0.084
-446.880	36.674	0.212	0.186
-445.865	-200.000	0.013	-0.087
-444.851	162.776	0.156	-0.218
-443.836	-72.476	0.143	-0.053
-442.822	-161.661	0.296	0.015
-441.807	465.684	0.057	-0.128
-440.792	3.965	0.094	-0.068
-439.778	40.879	-0.147	-0.132
-438.763	306.555	-0.139	-0.258
-437.749	-96.744	-0.180	-0.047
-436.734	106.359	0.171	-0.201
-435.719	800.000	0.075	0.303
-434.705	-122.163	0.129	-0.021
-433.690	-74.680	0.286	0.102
-432.676	641.284	-0.042	0.106
-431.661	800.000	0.019	-0.073
-430.646	265.250	-0.187	0.324
-429.632	19.809	0.267	-0.214
-428.617	3.752	0.144	0.105
-427.603	-200.000	-0.001	0.283
-426.588	-200.000	0.022	-0.156
-425.573	-200.000	-0.019	-0.321
-424.559	-22.744	-0.224	0.134
-423.544	-41.344	-0.115	-0.059
-422.530	236.057	-0.052	0.086
-421.515	-200.000	-0.035	0.203
-420.500	-68.873	-0.349	-0.134
-419.486	-159.592	0.243	-0.013
-418.471	-12.140	-0.142	0.093
-417.457	800.000	-0.013	-0.055
-416.442	-45.956	-0.308	0.151
-415.428	-137.311	-0.084	0.009
-414.413	-28.842	0.194	0.111
-413.398	-88.617	0.103	0.030
-412.384	800.000	0.106	-0.388
-411.369	423.714	0.040	-0.085
-410.355	222.742	-0.121	-0.193
-409.340	-200.000	-0.056	-0.297
-408.325	-200.000	-0.018	0.144
-407.311	491.796	0.084	0.191
-406.296	-3.263	0.142	0.099
-405.282	127.823	-0.068	-0.086
-404.267	-200.000	0.003	0.232
-403.252	76.220	0.123	0.130
-402.238	800.000	0.026	-0.077
-401.223	291.437	0.076	0.137
-400.209	-147.809	0.267	0.022
-399.194	-200.000	0.002	-0.110
-398.179	800.000	-0.035	-0.104
-397.165	-200.000	-0.019	0.152
-396.150	38.351	-0.400	-0.354
-395.136	-118.318	-0.232	0.041
-394.121	-38.226	-0.150	-0.079
-393.106	-7.125	-0.055	0.037
-392.092	800.000	0.066	-0.204
-391.077	440.620	-0.101	-0.220
-390.063	136.936	-0.168	0.217
-389.048	-200.000	-0.038	0.366
-388.033	800.000	-0.045	0.139
-387.019	-26.372	-0.057	0.033
-386.004	-50.857	-0.192	-0.090
-384.990	55.591	0.147	-0.141
-383.975	800.000	-0.051	0.181
-382.960	60.443	-0.284	-0.279
-381.946	84.490	0.150	-0.163
-380.931	50.635	-0.060	-0.057
-379.917	-142.550	-0.074	0.007
-378.902	-167.601	0.277	0.011
-377.888	179.602	-0.132	-0.192
-376.873	-102.532	0.227	0.054
-375.858	354.789	-0.206	-0.406
-374.844	170.612	0.267	-0.379
-373.829	102.265	0.139	-0.161
-372.815	728.889	0.028	-0.073
-371.800	39.940	-0.283	-0.252
-370.785	800.000	0.044	-0.139
-369.771	-41.035	0.232	0.119
-368.756	-28.752	0.373	-0.213
-367.742	268.338	0.170	-0.295
-366.727	139.651	0.113	-0.148
-365.712	115.101	-0.198	0.239
-364.698	26.742	-0.140	0.117
-363.683	800.000	-0.142	0.393
-362.669	119.754	-0.092	0.114
-361.654	800.000	0.015	-0.056
-360.639	-74.182	0.195	-0.070
-359.625	-159.497	-0.219	-0.012
-358.610	800.000	-0.127	0.416
-357.596	225.344	0.187	0.299
-356.581	-39.524	-0.221	-0.115
-355.566	-200.000	-0.023	-0.223
-354.552	800.000	-0.219	-0.728
-353.537	-133.697	-0.009	-0.001
-352.523	800.000	-0.047	0.158
-351.508	60.930	-0.209	0.205
-350.493	-131.637	-0.336	-0.044
-349.479	469.257	-0.081	0.179
-348.464	151.810	-0.250	0.338
-347.450	-108.345	0.420	-0.090
-346.435	-200.000	-0.019	-0.336
-345.420	-130.303	0.046	0.006
-344.406	363.883	0.098	0.195
-343.391	28.165	-0.153	0.128
-342.377	-125.590	-0.405	-0.061
-341.362	-39.062	-0.091	-0.048
-340.348	14.763	0.125	0.097
-339.333	-16.326	-0.376	0.236
-338.318	220.715	0.153	0.243
-337.304	-127.835	-0.126	0.018
-336.289	-121.072	-0.181	-0.030
-335.275	800.000	0.060	0.226
-334.260	127.527	0.129	-0.162
-333.245	-55.730	0.123	0.055
-332.231	-62.105	0.200	-0.083
-331.216	-63.038	0.206	-0.084
-330.202	-200.000	-0.005	-0.141
-329.187	-62.501	-0.160	-0.066
-328.172	202.377	0.061	-0.093
-327.158	-92.621	-0.411	-0.114
-326.143	86.685	0.323	-0.353
-325.129	474.553	0.033	0.074
-324.114	800.000	-0.020	0.077
-323.099	-200.000	-0.028	-0.300
-322.085	129.967	0.067	0.085
-321.070	-200.000	-0.003	-0.091
-320.056	800.000	0.068	-0.224
-319.041	164.682	-0.156	-0.218
-318.026	-136.839	-0.144	0.016
-317.012	84.424	-0.220	0.238
-315.997	258.995	-0.121	-0.207
-314.983	-97.917	0.055	-0.014
-313.968	-100.911	-0.253	0.061
-312.953	170.376	-0.152	0.215
-311.939	-200.000	-0.024	-0.212
-310.924	46.858	0.084	-0.077
-309.910	800.000	0.104	0.431
-308.895	13.980	0.089	-0.069
-307.880	800.000	-0.051	-0.187
-306.866	-200.000	-0.026	0.399
-305.851	-200.000	-0.026	0.400
-304.837	185.889	-0.144	0.212
-303.822	633.820	-0.025	0.062
-302.807	800.000	-0.055	0.233
-301.793	-200.000	0.007	-0.404
-300.778	-35.615	-0.188	0.101
-299.764	-140.682	0.093	-0.010
-298.749	-200.000	-0.024	-0.233
-297.735	132.020	0.100	0.128
-296.720	-200.000	-0.018	-0.080
-295.705	10.353	0.268	0.201
-294.691	195.622	0.023	-0.034
-293.676	136.547	-0.055	-0.071
-292.662	-31.562	-0.035	-0.019
-291.647	-200.000	-0.005	-0.089
-290.632	371.898	0.131	-0.263
-289.618	367.217	0.052	-0.105
-288.603	-71.035	-0.098	0.036
-287.589	58.765	0.229	0.223
-286.574	115.586	0.132	0.159
-285.559	-105.150	-0.147	0.033
-284.545	-38.913	0.029	-0.015
-283.530	3.346	0.213	0.154
-282.516	681.397	-0.023	-0.059
-281.501	-88.845	-0.205	0.060
-280.486	556.514	-0.085	-0.203
-279.472	25.482	0.042	-0.035
-278.457	-8.400	0.265	-0.176
-277.443	191.526	-0.228	-0.340
-276.428	-75.460	0.311	-0.110
-275.413	136.502	-0.042	0.055
-274.399	73.138	-0.187	-0.193
-273.384	60.462	0.085	-0.084
-272.370	368.048	0.202	-0.403
-271.355	410.981	0.140	-0.293
-270.340	800.000	0.110	0.373
-269.326	56.676	0.311	-0.299
-268.311	-169.469	0.113	0.004
-267.297	-116.555	0.012	-0.002
-266.282	-69.936	0.040	-0.015
-265.267	-108.679	0.297	0.063
-264.253	800.000	0.019	-0.083
-263.238	-137.276	-0.443	0.050
-262.224	-200.000	-0.051	0.228
-261.209	-41.445	0.230	-0.117
-260.195	523.566	0.101	0.234
-259.180	-200.000	-0.005	0.049
-258.165	-65.846	-0.022	0.009
-257.151	-200.000	-0.031	-0.310
-256.136	91.982	-0.235	-0.261
-255.122	167.442	0.017	-0.025
-254.107	-172.185	0.268	0.009
-253.092	-3.514	0.086	0.059
-252.078	-200.000	-0.060	0.597
-251.063	-200.000	0.024	-0.284
-250.049	-161.701	-0.281	-0.014
-249.034	-1.093	-0.140	0.098
-248.019	-116.672	0.262	0.048
-247.005	-66.517	0.195	-0.076
-245.990	-33.050	-0.328	0.179
-244.976	-200.000	-0.002	-0.174
-243.961	-200.000	0.001	0.504
-242.946	-200.000	0.031	-0.350
-241.932	800.000	-0.123	0.360
-240.917	350.083	0.134	0.262
-239.903	19.305	0.084	-0.067
-238.888	209.878	-0.084	0.130
-237.873	-49.983	0.381	0.178
-236.859	269.662	-0.125	0.216
-235.844	-196.327	-0.362	-0.002
-234.830	39.028	0.111	-0.098
-233.815	-126.842	-0.338	-0.049
-232.800	71.238	0.041	-0.042
-231.786	800.000	0.175	-0.526
-230.771	-200.000	-0.102	-0.564
-229.757	-38.728	0.174	-0.091
-228.742	-10.490	0.085	0.056
-227.727	-200.000	0.030	-0.191
-226.713	-105.924	-0.359	0.080
-225.698	-200.000	0.007	-0.033
-224.684	38.572	0.256	0.226
-223.669	-11.857	-0.241	0.156
-222.655	800.000	-0.124	0.427
-221.640	-74.301	-0.227	0.081
-220.625	-67.761	0.054	-0.021
-219.611	-155.982	0.421	0.026
-218.596	800.000	-0.063	0.198
-217.582	-98.888	0.234	-0.059
-216.567	-102.330	-0.301	0.071
-215.552	596.288	0.031	-0.077
-214.538	68.696	-0.080	-0.081
-213.523	-9.123	-0.297	-0.196
-212.509	-200.000	0.068	-0.315
-211.494	-200.000	-0.027	0.175
-210.479	-38.958	0.072	0.037
-209.465	-40.169	0.228	0.117
-208.450	-60.743	-0.110	0.046
-207.436	-48.689	-0.209	0.099
-206.421	42.732	-0.228	0.205
-205.406	52.854	0.128	0.120
-204.392	268.844	0.162	0.280
-203.377	-98.996	-0.362	-0.091
-202.363	151.930	-0.055	0.075
-201.348	-147.997	-0.477	-0.039
-200.333	407.709	-0.010	0.020
-199.319	66.793	-0.187	-0.188
-198.304	-11.263	0.126	0.082
-197.290	-54.239	-0.279	-0.125
-196.275	-72.754	0.146	-0.053
-195.260	-164.610	0.351	-0.016
-194.246	-26.141	-0.234	-0.136
-193.231	119.276	-0.140	0.171
-192.217	-45.564	0.362	-0.177
-191.202	-12.919	0.186	-0.119
-190.187	-126.446	-0.299	0.044
-189.173	299.552	-0.009	0.017
-188.158	-168.794	-0.114	0.004
-187.144	800.000	0.075	-0.256
-186.129	-81.559	0.143	0.046
-185.114	170.237	0.059	-0.083
-184.100	-82.995	0.146	0.046
-183.085	152.867	0.052	0.070
-182.071	24.470	0.190	0.155
-181.056	34.639	0.191	0.164
-180.042	77.826	-0.065	0.068
-179.027	-200.000	-0.332	0.001
-178.012	-70.502	-0.066	0.025
-176.998	-130.500	0.290	-0.039
-175.983	-87.919	0.075	0.022
-174.969	73.594	0.084	-0.087
-173.954	800.000	-0.028	0.091
-172.939	-200.000	0.056	-0.246
-171.925	484.096	0.112	0.251
-170.910	538.078	-0.074	0.172
-169.896	-117.904	0.365	0.064
-168.881	-75.544	-0.046	-0.016
-167.866	800.000	0.082	0.284
-166.852	800.000	-0.054	-0.170
-165.837	-8.865	-0.036	0.024
-164.823	-31.081	-0.253	-0.141
-163.808	-121.878	0.136	-0.022
-162.793	8.160	0.421	0.311
-161.779	-143.243	0.245	-0.023
-160.764	800.000	-0.126	-0.409
-159.750	73.193	0.375	-0.386
-158.735	-88.573	0.333	0.098
-157.720	800.000	-0.157	-0.431
-156.706	-105.301	0.121	0.027
-155.691	-38.609	0.100	0.052
-154.677	32.627	0.157	0.134
-153.662	-88.043	0.284	0.084
-152.647	-31.655	-0.133	-0.073
-151.633	-55.542	-0.233	0.103
-150.618	153.869	0.120	0.161
-149.604	-88.162	-0.253	-0.075
-148.589	-200.000	0.050	-0.229
-147.574	800.000	0.059	-0.167
-146.560	-158.606	-0.268	0.015
-145.545	80.414	-0.130	0.138
-144.531	304.371	-0.076	0.139
-143.516	140.633	-0.011	0.014
-142.502	-61.387	-0.236	-0.098
-141.487	-50.643	-0.147	-0.068
-140.472	-20.643	0.165	-0.099
-139.458	-103.250	-0.117	0.027
-138.443	-123.108	-0.225	-0.036
-137.429	-54.003	0.202	-0.090
-136.414	15.832	0.200	0.155
-135.399	460.967	-0.011	-0.024
-134.385	-34.240	0.050	0.027
-133.370	4.851	0.085	0.061
-132.356	20.926	0.110	0.087
-131.341	-200.000	-0.038	0.209
-130.326	-110.112	0.152	-0.031
-129.312	-116.862	-0.037	0.007
-128.297	193.164	0.051	0.076
-127.283	-186.081	0.099	0.001
-126.268	-130.997	-0.149	0.019
-125.253	649.291	0.084	-0.211
-124.239	-200.000	-0.156	-0.000
-123.224	336.096	-0.070	0.134
-122.210	677.418	-0.089	-0.227
