DTS Sentinel unit serial number:	SN413079Multiplexer serial number:	ORYXHardware model number:	OX4-SRSoftware version number:	ORYX F/W v4.00 Oryx Data Collector v3.7.2.0data status	okinstallation	princeton_trtdifferential loss correction	single-endedforward channel	channel 3reverse channel	N/Adate	2019/09/11time	02:18:11forward acquisition time	60.00reverse acquisition time	0.00gamma	496.2192k internal	0.2331k external	0.2331temperature offset calibration	0.9914default loss term (dB/km)	0.3790temperature slope calibration	1.0000multiplexer offset coefficient	1.0000multiplexer slope coefficient	1.0000fibre end	0.00T internal ref (°C)	29.19T ext. ref 1 (°C)	-0.30T ext. ref 2 (°C)	23.50length (m)	temperature (°C)	Stokes	anti-Stokes-747.200	-200.000	0.017	0.321
-746.185	37.736	-0.103	-0.092
-745.171	-30.606	0.180	-0.103
-744.156	97.399	-0.191	-0.221
-743.142	-126.680	0.125	-0.019
-742.127	-89.511	-0.222	-0.066
-741.112	-200.000	0.024	-0.175
-740.098	-200.000	-0.046	-0.315
-739.083	325.234	0.161	-0.309
-738.069	80.775	0.389	0.422
-737.054	-200.000	-0.053	0.280
-736.039	-145.422	-0.145	0.013
-735.025	-200.000	0.033	0.365
-734.010	37.710	-0.194	-0.173
-732.996	590.948	-0.114	-0.284
-731.981	800.000	-0.088	-0.360
-730.966	-200.000	-0.057	-0.261
-729.952	-177.098	-0.221	0.006
-728.937	-65.478	-0.259	-0.105
-727.923	-200.000	-0.012	-0.449
-726.908	-145.377	-0.276	-0.025
-725.894	207.475	0.040	-0.063
-724.879	-64.623	-0.133	0.054
-723.864	-26.155	-0.165	-0.097
-722.850	-3.366	-0.068	0.048
-721.835	-119.759	-0.209	0.036
-720.821	-149.992	0.233	0.018
-719.806	-106.054	0.114	0.026
-718.791	-74.118	0.293	0.107
-717.777	-156.326	-0.251	-0.016
-716.762	-200.000	-0.010	-0.172
-715.748	310.607	0.067	-0.126
-714.733	28.331	0.138	0.117
-713.718	800.000	0.032	-0.123
-712.704	-76.796	-0.330	-0.116
-711.689	-8.842	-0.300	-0.202
-710.675	205.643	0.198	-0.309
-709.660	145.930	0.028	-0.037
-708.645	547.082	-0.102	-0.246
-707.631	-18.649	0.066	0.041
-706.616	35.532	-0.226	-0.199
-705.602	21.422	0.111	0.091
-704.587	294.941	-0.082	-0.150
-703.572	219.695	-0.077	0.124
-702.558	-200.000	-0.003	-0.042
-701.543	20.207	-0.098	0.079
-700.529	-106.863	0.191	0.043
-699.514	-38.505	-0.215	-0.114
-698.499	-200.000	0.022	-0.199
-697.485	-73.192	0.315	-0.116
-696.470	-166.143	0.171	0.007
-695.456	-186.835	-0.143	-0.002
-694.441	-134.797	-0.405	0.049
-693.426	-26.773	-0.254	-0.149
-692.412	-71.883	0.129	-0.048
-691.397	800.000	-0.176	-0.608
-690.383	-56.763	-0.269	-0.119
-689.368	-157.441	0.377	0.023
-688.354	-21.394	0.116	0.071
-687.339	-71.857	0.182	-0.068
-686.324	-32.492	-0.219	0.123
-685.310	215.158	0.037	-0.059
-684.295	312.710	0.138	0.261
-683.281	-200.000	-0.048	0.313
-682.266	88.651	0.157	-0.176
-681.251	-200.000	0.014	-0.138
-680.237	636.299	0.060	0.153
-679.222	182.962	-0.159	0.236
-678.208	-5.629	0.239	0.165
-677.193	-200.000	-0.011	-0.132
-676.178	-66.921	-0.413	-0.164
-675.164	2.248	-0.032	-0.023
-674.149	-26.578	-0.170	0.100
-673.135	-71.961	-0.128	-0.048
-672.120	298.232	-0.143	0.263
-671.105	-200.000	0.001	0.161
-670.091	-200.000	0.057	0.250
-669.076	39.442	-0.240	-0.215
-668.062	256.601	0.142	0.245
-667.047	196.546	-0.238	0.363
-666.032	-128.607	-0.328	-0.047
-665.018	-55.337	0.188	-0.085
-664.003	-96.293	0.159	-0.042
-662.989	-200.000	-0.008	0.117
-661.974	-37.165	0.085	-0.045
-660.959	305.501	0.056	-0.104
-659.945	-64.638	0.159	-0.065
-658.930	-133.749	0.202	-0.025
-657.916	800.000	0.061	-0.188
-656.901	800.000	-0.072	0.225
-655.886	-163.513	-0.400	0.019
-654.872	499.560	0.095	-0.221
-653.857	-199.475	-0.080	-0.000
-652.843	76.170	0.132	-0.140
-651.828	238.787	-0.112	0.186
-650.814	800.000	0.080	-0.290
-649.799	316.947	-0.053	-0.100
-648.784	-34.285	-0.341	0.188
-647.770	-200.000	-0.052	-0.289
-646.755	43.391	-0.260	0.239
-645.741	-94.790	0.498	0.135
-644.726	4.634	0.134	0.099
-643.711	-138.187	0.450	0.050
-642.697	800.000	-0.058	-0.186
-641.682	-136.323	0.157	-0.018
-640.668	-38.195	-0.075	0.040
-639.653	578.735	0.108	-0.265
-638.638	46.639	0.031	0.029
-637.624	-83.685	0.164	0.052
-636.609	-116.473	-0.360	-0.067
-635.595	-17.810	-0.047	0.029
-634.580	-101.968	-0.205	-0.050
-633.565	466.490	0.091	0.204
-632.551	-95.803	0.450	0.120
-631.536	721.100	-0.079	-0.211
-630.522	67.452	0.116	-0.118
-629.507	-121.054	0.196	-0.033
-628.492	-164.807	0.087	-0.004
-627.478	-70.563	0.338	-0.128
-626.463	800.000	-0.096	-0.293
-625.449	110.296	0.078	-0.094
-624.434	-200.000	-0.067	0.351
-623.419	-200.000	-0.005	-0.265
-622.405	-200.000	-0.044	-0.341
-621.390	-17.134	-0.055	-0.035
-620.376	-91.604	-0.114	-0.032
-619.361	-28.001	0.356	-0.206
-618.346	-71.331	0.259	-0.097
-617.332	-200.000	0.058	0.325
-616.317	-176.765	-0.067	0.002
-615.303	-192.456	0.251	-0.002
-614.288	800.000	-0.012	-0.042
-613.273	-53.969	-0.346	-0.158
-612.259	-200.000	-0.018	-0.258
-611.244	-101.705	0.293	-0.071
-610.230	-124.309	0.120	0.019
-609.215	-191.118	-0.255	-0.003
-608.201	800.000	0.075	-0.269
-607.186	95.527	-0.143	0.163
-606.171	-200.000	0.017	0.097
-605.157	129.725	0.176	0.226
-604.142	-200.000	-0.008	-0.329
-603.128	-26.127	0.089	-0.052
-602.113	66.903	-0.058	0.059
-601.098	-3.534	0.052	0.036
-600.084	284.151	-0.125	-0.225
-599.069	-117.160	0.469	0.085
-598.055	163.159	-0.173	-0.243
-597.040	413.460	-0.128	-0.272
-596.025	-78.561	-0.219	0.075
-595.011	614.986	0.132	-0.332
-593.996	-33.354	-0.212	0.117
-592.982	-47.219	0.180	0.088
-591.967	248.240	0.134	0.227
-590.952	-188.042	-0.159	-0.002
-589.938	121.978	0.141	-0.176
-588.923	237.529	0.100	0.166
-587.909	-109.435	0.213	-0.045
-586.894	-200.000	-0.030	0.175
-585.879	306.918	0.091	0.170
-584.865	43.641	-0.320	0.293
-583.850	80.916	-0.215	0.232
-582.836	-160.508	-0.263	-0.014
-581.821	-69.734	-0.287	0.110
-580.806	800.000	-0.011	-0.037
-579.792	-32.242	-0.215	0.120
-578.777	-64.943	-0.345	0.139
-577.763	800.000	-0.065	-0.231
-576.748	-200.000	0.005	-0.103
-575.733	-9.147	-0.211	-0.141
-574.719	-200.000	-0.010	-0.119
-573.704	54.700	0.299	0.288
-572.690	-136.352	-0.196	0.023
-571.675	-200.000	0.043	-0.253
-570.661	21.430	-0.151	-0.122
-569.646	56.039	-0.136	-0.132
-568.631	16.457	-0.124	0.098
-567.617	45.196	-0.180	-0.166
-566.602	-24.651	-0.216	0.128
-565.588	355.602	0.082	-0.164
-564.573	11.832	-0.271	-0.208
-563.558	-200.000	-0.050	0.232
-562.544	-200.000	-0.064	0.319
-561.529	-118.610	0.229	0.040
-560.515	800.000	-0.120	-0.337
-559.500	-200.000	-0.020	-0.472
-558.485	-98.672	0.130	-0.033
-557.471	-131.713	-0.247	0.032
-556.456	464.806	0.059	-0.132
-555.442	800.000	0.090	0.263
-554.427	-173.445	0.217	0.007
-553.412	-141.457	-0.040	-0.004
-552.398	471.117	-0.145	-0.325
-551.383	59.227	-0.272	-0.267
-550.369	18.713	-0.184	0.147
-549.354	-108.593	-0.341	-0.073
-548.339	-169.362	0.243	0.009
-547.325	205.459	0.048	-0.075
-546.310	179.812	-0.064	-0.093
-545.296	-80.456	-0.126	-0.042
-544.281	-94.605	0.208	-0.057
-543.266	94.596	0.282	-0.320
-542.252	-149.847	0.148	0.012
-541.237	12.921	0.151	0.117
-540.223	131.633	-0.137	-0.176
-539.208	-137.169	-0.337	-0.038
-538.193	-200.000	0.019	0.166
-537.179	123.909	-0.239	0.300
-536.164	151.845	0.082	0.112
-535.150	-80.778	-0.155	0.051
-534.135	116.569	0.148	-0.181
-533.121	498.333	0.070	0.162
-532.106	800.000	-0.011	0.037
-531.091	21.652	-0.133	0.108
-530.077	28.054	0.192	0.162
-529.062	-200.000	0.019	0.247
-528.048	-200.000	0.002	-0.098
-527.033	-76.782	0.370	-0.129
-526.018	-117.192	0.299	-0.054
-525.004	95.936	-0.180	0.205
-523.989	16.252	-0.065	0.051
-522.975	490.242	-0.027	-0.062
-521.960	-82.768	-0.232	0.075
-520.945	-183.135	-0.088	0.002
-519.931	110.949	-0.195	-0.235
-518.916	122.206	0.048	0.060
-517.902	57.444	-0.063	0.061
-516.887	-81.665	0.243	-0.080
-515.872	112.838	-0.098	-0.118
-514.858	25.143	0.030	-0.025
-513.843	56.333	0.230	-0.223
-512.829	-166.562	0.262	0.011
-511.814	300.643	-0.041	-0.076
-510.799	-98.660	-0.250	-0.064
-509.785	800.000	-0.038	-0.105
-508.770	-11.060	0.052	-0.034
-507.756	-30.547	-0.259	-0.146
-506.741	-58.566	0.213	0.092
-505.726	-33.432	0.078	-0.043
-504.712	-81.632	0.078	-0.025
-503.697	172.804	-0.162	-0.233
-502.683	-200.000	0.031	-0.425
-501.668	74.243	0.014	0.014
-500.653	3.104	-0.062	-0.045
-499.639	74.545	-0.241	0.252
-498.624	-24.146	-0.211	0.126
-497.610	-79.224	0.114	0.039
-496.595	4.070	0.261	-0.190
-495.581	-89.020	0.213	0.063
-494.566	-200.000	0.031	-0.187
-493.551	-200.000	0.028	-0.235
-492.537	-107.601	0.289	0.063
-491.522	-87.680	0.158	0.047
-490.508	485.944	-0.080	0.181
-489.493	-200.000	0.026	0.179
-488.478	131.748	-0.151	0.193
-487.464	-71.252	-0.432	0.162
-486.449	112.546	0.216	0.260
-485.435	62.360	-0.271	0.270
-484.420	258.749	-0.066	0.113
-483.405	-94.948	0.015	0.004
-482.391	135.813	-0.075	-0.097
-481.376	577.169	-0.148	0.360
-480.362	-72.324	-0.522	0.193
-479.347	-12.926	-0.088	-0.057
-478.332	-200.000	-0.014	-0.119
-477.318	671.091	0.077	0.200
-476.303	16.096	0.305	-0.240
-475.289	311.463	0.129	-0.241
-474.274	800.000	0.021	-0.085
-473.259	800.000	-0.054	-0.230
-472.245	121.089	0.157	0.195
-471.230	-24.803	0.099	-0.058
-470.216	79.117	-0.256	0.272
-469.201	20.848	-0.370	0.299
-468.186	-53.094	-0.248	-0.113
-467.172	800.000	0.020	-0.069
-466.157	314.441	0.135	0.253
-465.143	-200.000	-0.040	0.375
-464.128	800.000	-0.080	-0.252
-463.113	-100.356	0.356	-0.088
-462.099	-28.458	-0.269	-0.154
-461.084	-163.565	-0.214	-0.010
-460.070	-92.065	-0.173	-0.049
-459.055	447.509	-0.086	0.189
-458.040	675.701	0.023	-0.060
-457.026	449.523	0.055	-0.121
-456.011	239.999	0.104	0.172
-454.997	313.821	-0.161	0.302
-453.982	137.066	-0.157	0.204
-452.968	-49.386	0.220	0.104
-451.953	-72.889	-0.132	-0.048
-450.938	-44.134	-0.159	-0.079
-449.924	52.688	0.145	0.138
-448.909	231.863	-0.214	0.349
-447.895	-200.000	0.014	0.236
-446.880	-85.762	-0.316	-0.097
-445.865	800.000	0.026	0.073
-444.851	27.102	0.073	0.061
-443.836	332.692	-0.054	0.103
-442.822	558.632	-0.011	0.027
-441.807	185.755	0.122	-0.181
-440.792	-39.633	-0.383	0.199
-439.778	800.000	0.038	-0.114
-438.763	-150.663	-0.071	0.005
-437.749	784.740	0.060	-0.164
-436.734	140.787	-0.162	-0.212
-435.719	-200.000	0.017	-0.202
-434.705	-200.000	-0.030	0.207
-433.690	596.237	0.036	-0.088
-432.676	800.000	0.086	-0.342
-431.661	-200.000	0.015	-0.292
-430.646	-31.953	-0.300	0.167
-429.632	800.000	-0.079	0.251
-428.617	-140.844	-0.035	0.004
-427.603	26.905	0.251	0.209
-426.588	-200.000	0.039	-0.253
-425.573	386.149	-0.162	0.333
-424.559	-200.000	0.015	-0.112
-423.544	-29.455	-0.060	-0.034
-422.530	64.551	-0.179	0.180
-421.515	-200.000	-0.056	-0.501
-420.500	-73.366	-0.143	-0.052
-419.486	-73.448	-0.162	-0.059
-418.471	-38.206	-0.151	-0.080
-417.457	-44.965	-0.170	0.084
-416.442	12.910	0.266	-0.204
-415.428	645.301	0.040	0.102
-414.413	714.694	-0.082	-0.217
-413.398	-28.340	0.330	-0.189
-412.384	-146.522	-0.474	0.041
-411.369	-167.421	0.128	-0.005
-410.355	-27.246	-0.440	0.255
-409.340	-5.770	0.301	0.205
-408.325	-200.000	-0.047	-0.227
-407.311	138.231	-0.078	-0.102
-406.296	-140.877	0.228	-0.023
-405.282	-95.888	-0.098	0.026
-404.267	-115.766	0.160	0.030
-403.252	-107.595	0.534	0.116
-402.238	536.637	0.010	0.023
-401.223	-93.576	0.181	0.050
-400.209	47.886	0.077	0.071
-399.194	88.582	0.080	-0.088
-398.179	778.745	-0.049	0.134
-397.165	800.000	0.055	0.233
-396.150	-15.107	0.337	0.214
-395.136	334.547	-0.058	0.112
-394.121	-30.206	0.223	-0.126
-393.106	800.000	-0.042	0.177
-392.092	57.443	-0.171	-0.166
-391.077	-65.060	0.133	0.053
-390.063	-158.762	0.391	-0.022
-389.048	150.234	-0.188	0.253
-388.033	223.905	0.244	0.390
-387.019	-139.950	0.226	0.024
-386.004	-200.000	-0.009	-0.191
-384.990	-68.568	-0.064	-0.025
-383.975	800.000	-0.059	0.238
-382.960	-141.618	-0.309	-0.031
-381.946	-158.926	0.218	-0.012
-380.931	-80.082	0.027	-0.009
-379.917	-129.442	0.319	0.044
-378.902	196.064	-0.083	0.126
-377.888	-127.140	-0.252	-0.037
-376.873	189.155	-0.126	-0.188
-375.858	800.000	0.133	0.485
-374.844	-200.000	0.015	-0.077
-373.829	800.000	0.089	-0.258
-372.815	-200.000	-0.052	0.277
-371.800	-105.369	0.132	0.030
-370.785	-3.422	-0.164	-0.113
-369.771	47.637	-0.141	-0.131
-368.756	800.000	-0.116	-0.372
-367.742	-88.794	-0.087	0.026
-366.727	-200.000	-0.007	-0.221
-365.712	88.743	0.187	0.206
-364.698	260.835	0.274	0.470
-363.683	-54.661	-0.085	-0.038
-362.669	423.203	0.102	0.218
-361.654	149.645	0.077	0.103
-360.639	-117.316	0.173	-0.031
-359.625	-88.616	-0.374	0.111
-358.610	422.798	-0.125	0.266
-357.596	7.644	-0.017	0.013
-356.581	-180.663	0.573	-0.012
-355.566	-73.602	0.308	-0.111
-354.552	107.704	0.111	-0.131
-353.537	-119.431	0.320	-0.055
-352.523	-59.871	-0.098	0.042
-351.508	-182.363	0.128	-0.002
-350.493	-111.369	0.220	0.044
-349.479	-107.455	-0.272	0.059
-348.464	-67.801	0.201	0.078
-347.450	-94.013	-0.083	-0.023
-346.435	-111.790	0.040	-0.008
-345.420	172.085	0.224	-0.320
-344.406	-200.000	0.041	-0.300
-343.391	800.000	-0.081	0.295
-342.377	594.916	-0.023	-0.057
-341.362	800.000	-0.027	0.114
-340.348	164.498	-0.088	0.122
-339.333	-17.485	-0.264	0.164
-338.318	-200.000	0.011	0.050
-337.304	-200.000	-0.018	-0.298
-336.289	39.387	-0.200	-0.177
-335.275	78.841	0.102	-0.108
-334.260	-144.998	0.145	0.013
-333.245	108.562	0.090	0.106
-332.231	136.259	0.064	-0.083
-331.216	36.451	0.437	-0.382
-330.202	201.222	-0.064	0.097
-329.187	-200.000	-0.025	0.114
-328.172	-48.100	0.208	-0.099
-327.158	-200.000	-0.015	0.088
-326.143	177.106	0.101	0.146
-325.129	69.629	0.100	0.102
-324.114	141.963	0.135	0.177
-323.099	-200.000	0.024	0.324
-322.085	-133.837	0.155	-0.019
-321.070	-61.186	0.196	0.082
-320.056	-6.377	0.312	-0.211
-319.041	-21.252	-0.122	-0.074
-318.026	272.235	-0.141	0.247
-317.012	-83.715	-0.236	0.075
-315.997	-200.000	0.019	0.154
-314.983	-2.016	0.212	0.147
-313.968	-83.696	-0.180	-0.057
-312.953	800.000	-0.086	0.288
-311.939	163.731	-0.226	0.314
-310.924	-200.000	-0.015	-0.071
-309.910	-126.663	-0.224	-0.033
-308.895	10.108	0.216	-0.163
-307.880	-62.704	0.120	0.049
-306.866	42.944	-0.118	-0.107
-305.851	533.253	-0.225	0.526
-304.837	-200.000	-0.009	-0.273
-303.822	-200.000	0.016	-0.106
-302.807	800.000	-0.040	0.119
-301.793	21.837	-0.162	0.131
-300.778	-200.000	0.012	0.210
-299.764	45.479	-0.073	-0.066
-298.749	192.664	0.206	-0.308
-297.735	800.000	0.054	-0.217
-296.720	-65.086	-0.339	0.135
-295.705	-128.809	-0.323	-0.045
-294.691	92.443	0.088	-0.098
-293.676	431.725	-0.081	-0.174
-292.662	63.753	-0.151	0.150
-291.647	166.533	0.052	-0.073
-290.632	35.529	-0.162	0.140
-289.618	283.866	-0.052	0.093
-288.603	3.578	-0.239	-0.172
-287.589	8.546	0.041	0.031
-286.574	5.086	0.111	-0.080
-285.559	-32.941	-0.318	-0.174
-284.545	-32.801	0.058	0.032
-283.530	89.416	0.113	-0.124
-282.516	-98.936	-0.147	0.037
-281.501	-200.000	-0.057	0.340
-280.486	-128.638	-0.114	0.016
-279.472	47.144	0.159	0.147
-278.457	-106.209	-0.324	0.072
-277.443	800.000	-0.014	0.059
-276.428	743.219	-0.034	-0.091
-275.413	176.749	0.137	0.196
-274.399	-113.244	-0.164	-0.032
-273.384	-200.000	0.034	-0.235
-272.370	-81.434	-0.249	-0.081
-271.355	-200.000	-0.059	-0.286
-270.340	-200.000	-0.057	-0.316
-269.326	-174.116	0.188	0.005
-268.311	-85.346	0.213	-0.066
-267.297	800.000	0.026	0.102
-266.282	800.000	-0.056	-0.175
-265.267	456.133	0.059	0.130
-264.253	645.300	-0.069	0.175
-263.238	-17.006	-0.176	-0.110
-262.224	163.558	0.101	-0.140
-261.209	-67.298	-0.149	-0.058
-260.195	-200.000	-0.022	-0.122
-259.180	-200.000	0.049	0.237
-258.165	800.000	-0.027	0.086
-257.151	-93.562	0.302	0.083
-256.136	-200.000	-0.004	-0.119
-255.122	27.771	0.021	-0.017
-254.107	800.000	-0.060	-0.181
-253.092	-59.780	0.284	0.120
-252.078	-118.250	0.645	-0.113
-251.063	-31.811	0.247	0.137
-250.049	-168.257	0.148	0.006
-249.034	-15.497	-0.097	0.061
-248.019	399.727	-0.029	-0.060
-247.005	317.927	0.062	0.116
-245.990	153.689	-0.142	-0.192
-244.976	64.937	0.181	0.180
-243.961	-26.937	0.122	-0.071
-242.946	-200.000	-0.019	0.269
-241.932	-102.898	-0.297	-0.070
-240.917	89.800	0.018	0.020
-239.903	670.549	-0.048	0.122
-238.888	282.100	-0.065	-0.114
-237.873	-123.152	-0.206	-0.033
-236.859	800.000	-0.043	0.118
-235.844	271.309	0.094	0.163
-234.830	-200.000	0.005	-0.350
-233.815	313.422	-0.021	-0.039
-232.800	23.531	-0.169	-0.137
-231.786	-200.000	0.025	-0.391
-230.771	-76.978	0.199	0.069
-229.757	800.000	-0.050	0.199
-228.742	-187.093	0.258	-0.003
-227.727	-8.148	-0.244	-0.162
-226.713	151.806	0.087	0.117
-225.698	-200.000	-0.025	0.178
-224.684	361.878	-0.038	-0.075
-223.669	244.788	-0.113	-0.188
-222.655	298.621	0.152	-0.276
-221.640	108.952	0.167	-0.196
-220.625	318.094	-0.154	-0.287
-219.611	140.782	0.032	-0.041
-218.596	38.577	-0.090	-0.079
-217.582	-177.499	0.235	0.006
-216.567	-119.872	0.187	0.032
-215.552	30.302	0.041	0.034
-214.538	-200.000	0.019	-0.309
-213.523	-113.017	-0.131	-0.025
-212.509	-9.186	-0.140	0.092
-211.494	-76.248	0.256	-0.089
-210.479	17.380	0.160	0.125
-209.465	41.667	0.246	0.219
-208.450	-100.429	0.194	0.047
-207.436	-200.000	0.015	-0.118
-206.421	-108.551	0.097	0.021
-205.406	-200.000	0.036	-0.192
-204.392	-136.334	0.238	-0.027
-203.377	-93.897	-0.150	0.041
-202.363	139.701	0.140	-0.181
-201.348	800.000	0.105	0.363
-200.333	-18.548	0.143	-0.088
-199.319	800.000	0.055	0.205
-198.304	-18.393	-0.232	0.143
-197.290	-14.735	0.183	-0.116
-196.275	-114.329	0.272	-0.052
-195.260	-136.696	0.191	0.022
-194.246	-200.000	0.008	-0.043
-193.231	-71.304	0.196	0.073
-192.217	220.571	-0.039	-0.062
-191.202	92.412	0.286	-0.318
-190.187	-102.957	0.255	0.060
-189.173	64.923	0.051	-0.051
-188.158	151.221	-0.175	-0.234
-187.144	-1.164	-0.065	-0.045
-186.129	789.874	-0.105	-0.284
-185.114	-200.000	-0.023	0.239
-184.100	551.862	0.099	-0.235
-183.085	21.343	-0.182	0.145
-182.071	94.875	-0.099	0.111
-181.056	-200.000	0.004	0.362
-180.042	-200.000	0.322	-0.001
-179.027	-200.000	-0.030	-0.192
-178.012	-13.716	-0.079	-0.050
-176.998	13.917	-0.220	0.168
-175.983	27.473	-0.183	-0.151
-174.969	-128.558	0.153	-0.021
-173.954	-96.159	-0.379	0.099
-172.939	-58.957	0.225	-0.096
-171.925	-95.659	-0.290	0.076
-170.910	-200.000	-0.026	0.426
-169.896	-200.000	-0.002	-0.198
-168.881	-5.776	-0.056	-0.038
-167.866	-200.000	0.016	-0.132
-166.852	146.751	0.070	0.093
-165.837	-200.000	-0.064	0.313
-164.823	-83.217	-0.321	-0.101
-163.808	-200.000	-0.007	0.072
-162.793	-134.327	-0.154	0.019
-161.779	337.616	-0.074	-0.142
-160.764	208.364	-0.263	0.405
-159.750	55.317	-0.105	-0.100
-158.735	-43.581	0.516	0.256
-157.720	-200.000	0.003	0.287
-156.706	-30.256	0.098	-0.055
-155.691	-129.810	0.133	-0.018
-154.677	408.655	-0.160	-0.334
-153.662	-154.662	-0.423	0.028
-152.647	65.353	-0.192	0.191
-151.633	-128.399	0.217	0.030
-150.618	-23.375	-0.150	-0.089
-149.604	-120.160	0.155	0.026
-148.589	-200.000	0.024	-0.261
-147.574	-2.934	-0.165	-0.113
-146.560	33.435	-0.385	-0.329
-145.545	-5.718	0.179	0.120
-144.531	192.087	0.189	0.280
-143.516	800.000	-0.014	-0.045
-142.502	-200.000	0.062	0.339
-141.487	-54.835	-0.319	0.142
-140.472	-170.255	0.258	0.009
-139.458	121.481	0.025	-0.031
-138.443	119.578	-0.253	-0.307
-137.429	-5.959	-0.382	-0.256
-136.414	252.878	0.085	0.142
-135.399	-146.111	0.316	0.027
-134.385	137.850	-0.143	0.183
-133.370	-56.372	-0.126	0.055
-132.356	-64.021	0.126	-0.051
-131.341	85.341	0.169	-0.183
-130.326	-28.456	0.249	0.141
-129.312	232.219	-0.223	0.359
-128.297	6.985	0.185	-0.135
-127.283	-68.151	-0.203	0.077
-126.268	111.240	0.110	-0.130
-125.253	590.701	0.068	0.165
-124.239	120.951	-0.115	-0.140
-123.224	-135.150	-0.273	-0.032
-122.210	6.266	0.525	0.382
