DTS Sentinel unit serial number:	SN413079Multiplexer serial number:	ORYXHardware model number:	OX4-SRSoftware version number:	ORYX F/W v4.00 Oryx Data Collector v3.7.2.0data status	okinstallation	princeton_trtdifferential loss correction	single-endedforward channel	channel 3reverse channel	N/Adate	2019/09/11time	10:54:11forward acquisition time	60.00reverse acquisition time	0.00gamma	496.2192k internal	0.2296k external	0.2296temperature offset calibration	0.9940default loss term (dB/km)	0.3790temperature slope calibration	1.0000multiplexer offset coefficient	1.0000multiplexer slope coefficient	1.0000fibre end	0.00T internal ref (°C)	37.05T ext. ref 1 (°C)	0.18T ext. ref 2 (°C)	34.16length (m)	temperature (°C)	Stokes	anti-Stokes-747.200	-156.252	-0.370	-0.024
-746.185	-75.244	-0.092	-0.033
-745.171	-164.962	0.227	0.010
-744.156	-148.525	0.090	-0.008
-743.142	19.750	0.111	0.091
-742.127	800.000	0.146	0.420
-741.112	577.085	-0.150	-0.376
-740.098	-200.000	0.007	0.275
-739.083	144.984	-0.102	0.140
-738.069	-200.000	-0.049	0.243
-737.054	-200.000	0.024	-0.184
-736.039	-57.800	-0.067	0.030
-735.025	800.000	0.014	0.039
-734.010	-40.351	0.518	0.275
-732.996	147.781	0.164	-0.226
-731.981	-92.703	-0.200	-0.057
-730.966	19.570	-0.220	-0.181
-729.952	514.357	0.145	-0.345
-728.937	-154.761	0.285	0.019
-727.923	-116.004	0.432	-0.082
-726.908	-176.044	-0.522	-0.014
-725.894	-99.979	-0.279	0.071
-724.879	-186.818	0.124	0.002
-723.864	101.461	-0.041	-0.048
-722.850	-73.376	-0.109	-0.041
-721.835	-59.565	-0.203	-0.089
-720.821	-57.245	0.340	-0.153
-719.806	468.470	-0.051	-0.116
-718.791	174.162	0.050	0.074
-717.777	161.301	0.193	0.275
-716.762	528.267	-0.087	-0.210
-715.748	586.427	-0.110	0.277
-714.733	236.281	-0.017	0.029
-713.718	800.000	0.020	-0.090
-712.704	800.000	-0.115	-0.330
-711.689	-91.839	0.135	0.039
-710.675	-200.000	0.040	0.383
-709.660	205.695	0.070	-0.111
-708.645	-77.713	0.192	-0.068
-707.631	-121.305	-0.183	-0.031
-706.616	83.204	-0.075	-0.084
-705.602	-25.622	-0.090	-0.054
-704.587	-125.769	0.224	0.035
-703.572	89.760	-0.236	-0.269
-702.558	-189.855	0.204	0.002
-701.543	28.616	0.055	-0.047
-700.529	-200.000	-0.584	0.000
-699.514	-158.832	0.245	0.014
-698.499	-150.102	-0.038	-0.003
-697.485	82.214	0.196	0.216
-696.470	-160.419	0.233	0.013
-695.456	800.000	0.093	0.400
-694.441	800.000	-0.039	0.166
-693.426	31.686	0.134	0.118
-692.412	-200.000	-0.067	0.310
-691.397	-136.331	-0.383	-0.045
-690.383	-200.000	0.041	0.250
-689.368	379.475	0.247	0.515
-688.354	-137.409	-0.246	0.028
-687.339	134.597	-0.040	-0.053
-686.324	-41.899	0.105	-0.055
-685.310	128.449	0.078	-0.102
-684.295	245.195	0.096	0.165
-683.281	-158.755	0.208	-0.012
-682.266	55.350	0.250	0.246
-681.251	-200.000	-0.052	-0.256
-680.237	259.254	-0.076	-0.133
-679.222	36.224	0.167	-0.150
-678.208	254.444	0.067	0.117
-677.193	277.693	-0.163	0.295
-676.178	800.000	0.091	0.322
-675.164	8.235	0.038	-0.029
-674.149	-200.000	0.078	-0.369
-673.135	10.524	0.063	-0.049
-672.120	-140.698	0.038	0.004
-671.105	147.195	0.151	0.206
-670.091	123.503	0.264	0.337
-669.076	446.593	0.056	-0.124
-668.062	-200.000	0.001	0.091
-667.047	126.165	0.135	-0.175
-666.032	-76.646	-0.024	0.009
-665.018	-35.871	-0.141	0.078
-664.003	-128.343	-0.156	-0.023
-662.989	19.111	-0.187	-0.153
-661.974	-135.633	-0.172	0.021
-660.959	-200.000	0.024	-0.133
-659.945	800.000	0.089	-0.335
-658.930	-200.000	0.025	-0.264
-657.916	-200.000	0.011	0.252
-656.901	455.110	0.082	-0.186
-655.886	-76.069	-0.117	0.042
-654.872	-191.381	-0.168	-0.002
-653.857	364.323	-0.056	0.114
-652.843	288.595	-0.102	0.188
-651.828	154.300	0.152	-0.212
-650.814	26.026	-0.145	0.123
-649.799	63.940	-0.153	-0.156
-648.784	-22.638	-0.317	-0.195
-647.770	-45.633	0.291	0.147
-646.755	-200.000	-0.001	0.029
-645.741	-200.000	-0.016	0.297
-644.726	800.000	0.022	0.097
-643.711	800.000	0.015	0.057
-642.697	800.000	0.106	-0.314
-641.682	36.846	0.190	0.171
-640.668	13.798	-0.101	0.080
-639.653	-200.000	0.014	-0.139
-638.638	345.197	0.151	0.301
-637.624	-89.742	-0.181	-0.054
-636.609	23.625	-0.058	-0.049
-635.595	-38.540	0.097	0.052
-634.580	790.057	-0.050	-0.140
-633.565	-200.000	0.029	0.233
-632.551	32.308	0.138	-0.122
-631.536	-74.445	-0.160	-0.059
-630.522	112.368	0.171	-0.211
-629.507	57.740	-0.320	0.319
-628.492	107.940	-0.075	-0.091
-627.478	425.984	-0.064	-0.140
-626.463	-168.064	0.242	-0.010
-625.449	225.093	-0.200	-0.330
-624.434	-45.729	-0.342	0.172
-623.419	249.683	-0.027	-0.047
-622.405	-86.649	0.093	-0.029
-621.390	-95.517	-0.446	0.122
-620.376	800.000	-0.037	-0.111
-619.361	73.592	-0.121	0.129
-618.346	-80.495	0.461	0.156
-617.332	-40.062	-0.391	-0.207
-616.317	612.208	0.073	-0.185
-615.303	-27.249	0.224	-0.132
-614.288	-121.759	-0.111	0.019
-613.273	390.247	-0.005	-0.010
-612.259	-108.704	0.127	0.028
-611.244	72.248	0.146	-0.155
-610.230	-61.187	-0.131	-0.056
-609.215	237.943	0.133	-0.225
-608.201	-110.685	-0.387	0.081
-607.186	800.000	0.084	0.290
-606.171	104.400	0.181	0.217
-605.157	-34.391	0.251	-0.140
-604.142	560.885	-0.142	-0.348
-603.128	476.225	0.121	0.279
-602.113	494.899	0.117	-0.274
-601.098	800.000	-0.069	0.272
-600.084	-57.602	0.019	-0.008
-599.069	186.382	0.187	-0.283
-598.055	-92.812	0.157	-0.045
-597.040	800.000	0.040	-0.154
-596.025	202.676	-0.156	0.244
-595.011	-200.000	-0.012	-0.102
-593.996	-200.000	0.013	-0.083
-592.982	-176.412	0.202	0.005
-591.967	-200.000	0.022	-0.337
-590.952	3.892	0.387	0.288
-589.938	-200.000	0.019	0.237
-588.923	-200.000	-0.057	-0.309
-587.909	-200.000	0.015	0.178
-586.894	-200.000	0.053	-0.319
-585.879	-79.825	-0.134	-0.046
-584.865	39.040	0.139	-0.126
-583.850	-200.000	-0.021	-0.343
-582.836	-22.885	-0.137	-0.084
-581.821	33.721	-0.101	-0.090
-580.806	405.132	0.129	-0.277
-579.792	166.763	-0.044	-0.063
-578.777	152.399	0.168	0.234
-577.763	800.000	-0.054	-0.154
-576.748	177.024	0.057	-0.084
-575.733	800.000	0.054	0.227
-574.719	205.545	-0.148	0.233
-573.704	-99.358	0.086	0.022
-572.690	-136.896	-0.319	0.037
-571.675	-86.636	0.113	-0.035
-570.661	-40.491	0.050	-0.026
-569.646	11.092	-0.201	-0.156
-568.631	215.036	-0.138	-0.223
-567.617	-200.000	0.022	0.239
-566.602	-28.697	-0.193	0.113
-565.588	32.853	-0.184	0.161
-564.573	185.633	-0.116	-0.175
-563.558	-62.206	0.144	-0.061
-562.544	0.451	-0.157	-0.114
-561.529	-50.939	-0.143	0.068
-560.515	62.529	-0.098	0.099
-559.500	-200.000	-0.007	0.333
-558.485	-139.655	0.241	0.026
-557.471	-200.000	-0.014	-0.142
-556.456	83.824	0.043	-0.047
-555.442	800.000	0.080	-0.342
-554.427	-20.819	0.164	-0.102
-553.412	51.999	-0.275	-0.266
-552.398	77.380	0.256	-0.276
-551.383	800.000	-0.051	-0.219
-550.369	-122.512	0.190	0.031
-549.354	133.098	0.141	0.184
-548.339	-46.923	-0.084	0.042
-547.325	-47.976	-0.048	0.023
-546.310	800.000	-0.055	-0.178
-545.296	49.288	0.082	-0.078
-544.281	-178.839	-0.297	-0.007
-543.266	134.042	-0.054	0.071
-542.252	-143.497	0.333	-0.032
-541.237	-129.483	0.278	0.039
-540.223	-23.775	-0.237	-0.144
-539.208	-98.779	-0.289	0.074
-538.193	497.153	0.067	0.156
-537.179	-200.000	-0.016	0.180
-536.164	453.573	0.017	0.039
-535.150	-176.389	0.235	-0.006
-534.135	61.214	0.020	-0.021
-533.121	38.262	-0.115	0.103
-532.106	-145.266	-0.280	0.026
-531.091	136.508	0.132	-0.174
-530.077	233.498	-0.035	0.059
-529.062	-200.000	-0.026	-0.239
-528.048	611.600	-0.114	-0.289
-527.033	-200.000	-0.033	0.200
-526.018	16.204	0.211	-0.169
-525.004	377.018	-0.058	0.119
-523.989	227.847	-0.046	-0.076
-522.975	-114.614	0.088	-0.017
-521.960	-200.000	0.004	-0.060
-520.945	-144.995	-0.566	-0.052
-519.931	-87.140	-0.186	0.057
-518.916	301.413	0.070	0.130
-517.902	370.894	-0.117	-0.240
-516.887	800.000	-0.083	0.248
-515.872	23.386	0.133	-0.111
-514.858	-172.869	0.116	-0.004
-513.843	136.812	-0.096	0.126
-512.829	-76.081	0.420	0.150
-511.814	-69.045	0.084	-0.033
-510.799	-69.530	-0.511	-0.198
-509.785	-40.823	-0.095	0.050
-508.770	327.318	0.046	-0.088
-507.756	-145.300	-0.261	-0.024
-506.741	-15.400	-0.091	-0.059
-505.726	296.691	0.148	-0.276
-504.712	-64.076	-0.265	-0.110
-503.697	43.406	0.096	0.088
-502.683	2.671	-0.264	-0.194
-501.668	-171.066	0.221	-0.008
-500.653	270.113	0.120	-0.214
-499.639	538.394	0.045	0.109
-498.624	-31.977	-0.078	0.044
-497.610	-118.662	-0.146	0.026
-496.595	18.215	0.219	0.177
-495.581	427.884	0.074	-0.163
-494.566	800.000	0.141	-0.429
-493.551	-200.000	0.063	-0.472
-492.537	-49.527	-0.137	-0.066
-491.522	213.699	-0.021	-0.033
-490.508	800.000	-0.065	0.197
-489.493	25.104	-0.110	-0.092
-488.478	120.210	0.289	-0.362
-487.464	-108.968	-0.174	-0.038
-486.449	76.211	-0.274	-0.293
-485.435	64.560	0.230	0.235
-484.420	-61.440	0.124	0.053
-483.405	-6.611	-0.096	0.066
-482.391	89.399	0.253	0.286
-481.376	800.000	-0.074	0.292
-480.362	800.000	0.067	0.281
-479.347	147.369	-0.122	-0.167
-478.332	50.481	-0.322	-0.308
-477.318	-77.164	-0.163	-0.057
-476.303	35.867	-0.045	-0.040
-475.289	72.611	0.083	0.088
-474.274	-88.585	0.301	0.091
-473.259	-0.494	0.183	-0.132
-472.245	-44.037	0.197	-0.100
-471.230	800.000	0.103	0.429
-470.216	-62.859	0.383	0.160
-469.201	-153.046	-0.469	0.033
-468.186	-200.000	0.001	-0.195
-467.172	35.532	0.137	-0.122
-466.157	-31.538	0.306	-0.174
-465.143	-69.095	-0.110	0.043
-464.128	-200.000	0.018	-0.137
-463.113	478.746	0.055	0.126
-462.099	-200.000	-0.001	0.021
-461.084	-24.482	0.313	0.188
-460.070	156.025	-0.045	0.063
-459.055	105.194	-0.043	-0.052
-458.040	607.543	-0.030	0.076
-457.026	-57.371	-0.300	-0.133
-456.011	800.000	-0.020	-0.059
-454.997	784.426	0.081	0.223
-453.982	-4.006	-0.148	-0.103
-452.968	800.000	0.032	-0.096
-451.953	-200.000	0.003	-0.033
-450.938	-200.000	-0.005	0.257
-449.924	105.876	-0.103	0.123
-448.909	39.081	0.207	0.187
-447.895	-135.626	0.224	0.027
-446.880	800.000	-0.019	0.077
-445.865	-123.449	-0.136	0.022
-444.851	-200.000	0.030	-0.294
-443.836	-200.000	-0.044	0.229
-442.822	800.000	0.121	0.388
-441.807	208.364	-0.085	0.135
-440.792	-200.000	0.000	-0.207
-439.778	258.052	-0.069	-0.121
-438.763	-200.000	0.019	-0.411
-437.749	-200.000	0.034	-0.193
-436.734	288.687	0.234	-0.429
-435.719	-127.640	-0.170	0.025
-434.705	-200.000	-0.012	0.484
-433.690	25.955	-0.130	-0.110
-432.676	312.046	0.107	0.203
-431.661	221.392	-0.056	0.092
-430.646	-42.644	-0.180	-0.092
-429.632	800.000	-0.126	-0.521
-428.617	-86.418	-0.283	-0.088
-427.603	518.300	0.104	0.246
-426.588	-200.000	0.017	0.206
-425.573	513.134	-0.204	0.480
-424.559	-175.401	0.096	0.003
-423.544	-200.000	0.007	0.042
-422.530	424.760	-0.123	0.267
-421.515	-71.762	0.108	0.041
-420.500	414.413	-0.061	0.132
-419.486	-174.098	-0.419	0.012
-418.471	-38.418	0.359	-0.192
-417.457	-200.000	0.052	-0.261
-416.442	-153.516	-0.136	0.009
-415.428	-90.049	-0.217	-0.064
-414.413	443.380	-0.074	-0.164
-413.398	800.000	-0.026	-0.105
-412.384	-66.152	-0.113	-0.046
-411.369	-32.720	0.103	-0.058
-410.355	-49.929	-0.097	0.046
-409.340	-200.000	-0.000	-0.024
-408.325	-42.174	-0.435	-0.224
-407.311	-186.551	0.230	0.003
-406.296	-200.000	0.020	-0.167
-405.282	-30.253	-0.109	0.062
-404.267	-117.480	-0.106	0.019
-403.252	-200.000	0.003	-0.222
-402.238	230.849	-0.032	0.053
-401.223	-164.638	0.145	-0.007
-400.209	30.540	0.167	0.144
-399.194	215.800	0.095	0.152
-398.179	-69.362	-0.050	-0.019
-397.165	-34.036	0.350	-0.194
-396.150	282.776	0.084	0.152
-395.136	202.197	0.075	-0.116
-394.121	235.953	-0.154	-0.256
-393.106	17.100	-0.071	0.057
-392.092	-200.000	-0.013	0.346
-391.077	-27.618	0.224	-0.131
-390.063	322.506	0.165	0.317
-389.048	-96.008	0.166	-0.045
-388.033	56.586	0.107	-0.104
-387.019	220.159	0.036	-0.058
-386.004	-47.501	-0.105	-0.051
-384.990	-200.000	0.005	-0.115
-383.975	-86.251	0.287	0.089
-382.960	-145.026	-0.245	-0.023
-381.946	263.438	0.142	0.249
-380.931	800.000	-0.025	0.083
-379.917	-23.579	-0.148	-0.089
-378.902	70.065	0.257	0.267
-377.888	117.520	0.077	0.096
-376.873	-35.054	0.224	-0.123
-375.858	800.000	0.081	-0.229
-374.844	262.155	-0.145	-0.253
-373.829	-141.345	0.162	0.017
-372.815	-79.386	0.327	0.111
-371.800	-188.987	-0.341	0.004
-370.785	800.000	-0.033	0.114
-369.771	-14.897	-0.096	-0.062
-368.756	-200.000	0.040	0.219
-367.742	92.361	0.015	-0.017
-366.727	-78.630	-0.138	0.047
-365.712	-67.602	0.252	0.099
-364.698	690.472	0.045	0.119
-363.683	-56.534	-0.083	0.037
-362.669	4.631	0.353	-0.261
-361.654	800.000	-0.009	0.028
-360.639	-83.105	-0.220	-0.071
-359.625	103.265	-0.225	0.265
-358.610	61.949	-0.170	0.170
-357.596	-89.222	0.424	-0.126
-356.581	-111.088	-0.329	0.068
-355.566	601.579	0.099	0.247
-354.552	-66.789	-0.258	-0.103
-353.537	-60.047	0.083	-0.036
-352.523	307.906	-0.162	0.304
-351.508	-6.436	0.100	0.069
-350.493	-21.319	0.107	-0.066
-349.479	-200.000	-0.015	-0.110
-348.464	74.829	0.065	0.069
-347.450	-173.955	0.111	-0.003
-346.435	-127.957	-0.179	0.026
-345.420	63.975	0.341	0.345
-344.406	549.361	0.017	-0.041
-343.391	-67.741	-0.483	-0.190
-342.377	-200.000	0.017	0.107
-341.362	7.701	-0.023	-0.018
-340.348	297.809	-0.275	0.509
-339.333	-114.451	0.339	0.066
-338.318	260.632	0.162	0.283
-337.304	800.000	-0.033	-0.112
-336.289	-175.533	0.270	-0.007
-335.275	68.447	-0.111	0.114
-334.260	767.656	-0.066	-0.181
-333.245	15.332	-0.261	0.206
-332.231	88.247	0.059	0.065
-331.216	228.235	0.179	0.292
-330.202	142.660	-0.128	0.171
-329.187	159.676	0.137	0.191
-328.172	415.351	-0.094	0.200
-327.158	135.968	0.214	0.280
-326.143	58.267	0.114	0.112
-325.129	315.504	0.174	0.331
-324.114	-102.841	-0.423	-0.101
-323.099	-200.000	0.033	-0.254
-322.085	-119.565	-0.207	0.036
-321.070	-52.129	0.304	0.142
-320.056	800.000	-0.116	0.370
-319.041	102.589	0.172	0.202
-318.026	24.004	0.252	0.209
-317.012	-200.000	0.021	-0.106
-315.997	-200.000	0.052	0.275
-314.983	-96.126	-0.206	0.055
-313.968	-117.148	-0.178	0.033
-312.953	16.391	-0.188	-0.149
-311.939	-200.000	0.002	0.159
-310.924	-6.988	-0.028	0.019
-309.910	310.691	-0.028	-0.053
-308.895	-200.000	0.015	-0.115
-307.880	606.942	0.155	0.388
-306.866	800.000	-0.025	0.099
-305.851	-43.926	0.217	-0.110
-304.837	-13.221	-0.239	-0.156
-303.822	-23.709	0.079	0.047
-302.807	-26.416	-0.089	-0.052
-301.793	-29.985	-0.080	-0.046
-300.778	15.345	-0.248	-0.195
-299.764	-125.679	-0.234	0.036
-298.749	149.315	-0.064	-0.088
-297.735	315.277	-0.074	0.139
-296.720	800.000	-0.097	0.281
-295.705	-146.684	0.388	0.034
-294.691	-86.186	-0.221	-0.069
-293.676	47.326	-0.181	-0.169
-292.662	17.936	-0.155	-0.124
-291.647	-200.000	-0.020	-0.379
-290.632	-113.812	-0.417	0.082
-289.618	454.642	0.113	-0.251
-288.603	-194.547	-0.370	0.003
-287.589	-45.336	0.147	0.073
-286.574	-60.198	0.163	-0.070
-285.559	-116.496	-0.180	-0.033
-284.545	454.731	0.139	0.308
-283.530	251.371	0.075	0.128
-282.516	-65.120	-0.178	-0.072
-281.501	800.000	0.094	-0.346
-280.486	290.683	-0.177	-0.323
-279.472	65.332	-0.115	0.117
-278.457	-54.278	-0.302	0.137
-277.443	12.511	-0.188	0.145
-276.428	800.000	0.010	-0.033
-275.413	149.343	0.076	0.103
-274.399	-166.810	0.108	-0.004
-273.384	-110.094	0.377	0.079
-272.370	580.440	-0.095	-0.233
-271.355	-144.974	0.222	0.020
-270.340	-41.303	0.260	0.135
-269.326	9.947	0.224	0.171
-268.311	-55.820	0.083	0.037
-267.297	-200.000	0.024	0.143
-266.282	-107.060	-0.154	-0.034
-265.267	21.262	-0.325	-0.264
-264.253	-19.700	0.066	0.041
-263.238	-112.439	-0.072	-0.014
-262.224	-165.604	-0.058	0.003
-261.209	-60.168	-0.079	-0.034
-260.195	-150.307	-0.410	-0.032
-259.180	-200.000	0.058	0.302
-258.165	622.067	-0.060	-0.150
-257.151	-161.185	0.050	-0.003
-256.136	27.783	0.094	-0.080
-255.122	-159.112	-0.321	-0.018
-254.107	-1.607	0.112	0.079
-253.092	410.917	-0.088	-0.188
-252.078	-147.813	-0.039	-0.003
-251.063	5.602	0.091	-0.067
-250.049	-15.626	0.292	0.187
-249.034	-119.696	0.405	0.070
-248.019	-200.000	-0.041	0.183
-247.005	800.000	-0.015	-0.064
-245.990	-64.651	0.329	0.134
-244.976	-134.152	-0.120	-0.015
-243.961	41.877	-0.084	-0.076
-242.946	-79.034	-0.105	-0.036
-241.932	266.073	-0.103	0.181
-240.917	800.000	-0.049	0.169
-239.903	96.991	0.050	0.057
-238.888	-100.739	-0.128	-0.032
-237.873	800.000	-0.044	0.143
-236.859	-200.000	-0.020	0.217
-235.844	-82.564	-0.276	-0.090
-234.830	-35.814	-0.215	0.116
-233.815	-200.000	0.001	-0.125
-232.800	-30.027	-0.042	0.024
-231.786	-200.000	-0.025	0.213
-230.771	-144.646	0.198	0.018
-229.757	800.000	-0.040	0.139
-228.742	239.568	-0.117	-0.194
-227.727	203.920	0.205	0.318
-226.713	-73.653	-0.235	-0.086
-225.698	800.000	0.066	0.214
-224.684	-200.000	0.034	0.188
-223.669	20.840	-0.103	-0.084
-222.655	199.743	0.257	0.395
-221.640	91.166	-0.142	-0.159
-220.625	97.375	0.115	-0.133
-219.611	-32.628	-0.164	0.091
-218.596	428.881	-0.187	-0.403
-217.582	-156.956	0.237	0.015
-216.567	319.678	0.114	0.216
-215.552	-52.492	0.284	0.131
-214.538	-200.000	-0.008	-0.221
-213.523	800.000	-0.041	0.125
-212.509	-32.511	0.132	0.074
-211.494	800.000	0.034	0.116
-210.479	-44.736	0.105	0.053
-209.465	-98.576	-0.218	-0.056
-208.450	-67.357	0.288	-0.113
-207.436	-93.383	0.128	0.035
-206.421	27.355	-0.128	-0.107
-205.406	-123.351	-0.103	-0.016
-204.392	363.686	-0.178	-0.357
-203.377	-53.704	0.185	0.084
-202.363	-125.006	-0.141	-0.022
-201.348	-200.000	-0.003	-0.089
-200.333	-2.396	0.385	0.270
-199.319	800.000	0.133	0.421
-198.304	-4.753	0.154	-0.106
-197.290	800.000	-0.018	-0.049
-196.275	28.957	-0.210	0.178
-195.260	-200.000	0.031	-0.277
-194.246	800.000	-0.122	-0.385
-193.231	25.040	0.098	-0.082
-192.217	-39.094	0.186	-0.098
-191.202	-154.268	0.222	0.015
-190.187	-200.000	-0.008	-0.111
-189.173	408.482	-0.099	-0.210
-188.158	573.911	0.056	0.136
-187.144	-200.000	0.039	-0.194
-186.129	127.810	-0.189	0.240
-185.114	199.452	0.070	0.108
-184.100	534.670	-0.116	-0.274
-183.085	-200.000	-0.044	-0.243
-182.071	-200.000	-0.039	-0.212
-181.056	-200.000	-0.037	-0.267
-180.042	87.336	0.185	0.205
-179.027	-57.906	0.138	-0.060
-178.012	-200.000	0.032	0.188
-176.998	800.000	0.052	-0.215
-175.983	463.685	-0.083	-0.185
-174.969	-62.601	-0.084	-0.035
-173.954	-200.000	0.057	0.464
-172.939	-6.358	0.162	-0.110
-171.925	28.758	0.082	0.069
-170.910	-31.095	-0.153	-0.086
-169.896	-164.248	-0.404	0.019
-168.881	-141.503	0.240	-0.024
-167.866	-102.940	0.187	-0.044
-166.852	201.298	0.108	-0.167
-165.837	-82.659	0.360	0.116
-164.823	-200.000	0.045	-0.255
-163.808	216.100	0.055	-0.087
-162.793	800.000	-0.066	-0.231
-161.779	-191.663	0.258	0.003
-160.764	-157.920	0.081	-0.005
-159.750	613.530	0.089	0.222
-158.735	-61.893	0.335	0.140
-157.720	-164.744	-0.184	-0.008
-156.706	200.050	0.086	-0.132
-155.691	394.883	0.068	0.142
-154.677	34.090	0.191	0.166
-153.662	-167.731	-0.144	0.006
-152.647	-112.189	-0.215	0.043
-151.633	-200.000	0.062	-0.359
-150.618	800.000	0.038	-0.113
-149.604	-24.278	-0.337	-0.201
-148.589	152.889	-0.084	0.114
-147.574	-200.000	-0.045	0.416
-146.560	-200.000	0.010	0.173
-145.545	-200.000	0.103	-0.490
-144.531	101.773	0.049	0.058
-143.516	114.819	-0.041	-0.050
-142.502	425.929	-0.033	0.070
-141.487	-139.019	-0.096	0.010
-140.472	-50.940	-0.107	0.050
-139.458	1.527	0.235	0.169
-138.443	-14.517	0.161	0.103
-137.429	-107.014	-0.239	0.053
-136.414	-112.031	-0.231	0.046
-135.399	-121.115	-0.316	-0.053
-134.385	-139.439	0.262	-0.028
-133.370	315.521	-0.133	0.250
-132.356	-56.543	0.391	-0.173
-131.341	-200.000	0.044	-0.228
-130.326	-200.000	0.015	-0.095
-129.312	-200.000	-0.059	0.380
-128.297	-200.000	0.064	0.350
-127.283	800.000	0.070	0.288
-126.268	522.972	-0.182	0.426
-125.253	168.804	0.220	-0.313
-124.239	800.000	-0.175	-0.543
-123.224	-104.548	0.573	-0.132
-122.210	355.684	-0.114	-0.226
