DTS Sentinel unit serial number:	SN413079Multiplexer serial number:	ORYXHardware model number:	OX4-SRSoftware version number:	ORYX F/W v4.00 Oryx Data Collector v3.7.2.0data status	okinstallation	princeton_trtdifferential loss correction	single-endedforward channel	channel 3reverse channel	N/Adate	2019/09/10time	19:14:10forward acquisition time	60.00reverse acquisition time	0.00gamma	496.2192k internal	0.2316k external	0.2316temperature offset calibration	0.9910default loss term (dB/km)	0.3790temperature slope calibration	1.0000multiplexer offset coefficient	1.0000multiplexer slope coefficient	1.0000fibre end	0.00T internal ref (°C)	34.03T ext. ref 1 (°C)	-0.36T ext. ref 2 (°C)	26.32length (m)	temperature (°C)	Stokes	anti-Stokes-747.200	310.290	0.104	-0.197
-746.185	-59.902	0.199	0.086
-745.171	800.000	0.110	-0.336
-744.156	122.571	-0.153	0.194
-743.142	-72.948	-0.132	-0.049
-742.127	52.303	-0.198	0.191
-741.112	74.448	-0.205	-0.219
-740.098	175.422	-0.070	0.103
-739.083	-27.622	-0.122	-0.072
-738.069	-63.524	-0.174	-0.072
-737.054	107.879	0.231	0.279
-736.039	-200.000	0.013	-0.144
-735.025	-82.728	0.128	-0.042
-734.010	-86.584	-0.039	-0.012
-732.996	-111.184	-0.377	-0.078
-731.981	-54.599	-0.064	0.029
-730.966	-114.915	0.173	-0.033
-729.952	-200.000	-0.021	-0.233
-728.937	206.000	0.181	-0.285
-727.923	800.000	0.027	-0.114
-726.908	605.237	0.069	0.174
-725.894	-43.233	-0.400	-0.205
-724.879	-93.854	0.376	0.105
-723.864	161.959	0.154	0.218
-722.850	46.260	-0.092	-0.087
-721.835	-90.946	0.146	0.043
-720.821	800.000	-0.066	0.216
-719.806	11.591	-0.194	0.150
-718.791	-200.000	-0.028	0.226
-717.777	-200.000	0.013	0.136
-716.762	126.590	-0.082	-0.106
-715.748	-55.939	-0.025	-0.011
-714.733	221.514	0.178	-0.290
-713.718	154.859	-0.134	0.187
-712.704	47.620	-0.257	-0.243
-711.689	130.587	0.033	-0.042
-710.675	273.221	-0.294	0.526
-709.660	-200.000	0.008	-0.294
-708.645	610.188	-0.142	-0.358
-707.631	28.539	0.155	0.132
-706.616	-130.971	-0.125	-0.017
-705.602	-200.000	-0.016	0.186
-704.587	18.809	0.472	-0.382
-703.572	-79.689	0.248	-0.084
-702.558	435.921	0.138	-0.303
-701.543	-4.905	0.100	0.069
-700.529	38.166	0.226	-0.204
-699.514	-54.478	0.334	-0.153
-698.499	-200.000	-0.017	-0.192
-697.485	160.638	-0.217	0.306
-696.470	34.877	0.298	-0.263
-695.456	800.000	0.007	-0.029
-694.441	681.300	0.092	0.243
-693.426	-99.823	-0.214	0.054
-692.412	800.000	0.108	-0.353
-691.397	-62.243	-0.243	0.102
-690.383	-187.939	-0.438	0.006
-689.368	-50.608	0.103	-0.049
-688.354	19.215	-0.280	-0.227
-687.339	654.098	0.074	0.191
-686.324	-33.951	0.198	0.110
-685.310	-112.177	0.068	-0.014
-684.295	185.249	0.103	-0.155
-683.281	-65.782	0.300	0.121
-682.266	245.947	-0.198	0.337
-681.251	107.998	-0.236	0.285
-680.237	-40.003	-0.192	-0.101
-679.222	-42.151	0.194	0.100
-678.208	800.000	-0.066	-0.201
-677.193	-10.182	0.261	-0.175
-676.178	-56.071	0.047	0.021
-675.164	289.241	-0.074	-0.135
-674.149	-167.947	0.149	0.006
-673.135	5.268	-0.267	0.199
-672.120	159.767	-0.125	-0.176
-671.105	-76.816	-0.257	0.091
-670.091	372.621	-0.063	-0.130
-669.076	-200.000	0.012	0.255
-668.062	92.862	-0.266	-0.304
-667.047	63.956	-0.125	-0.127
-666.032	-77.079	0.234	-0.082
-665.018	-21.820	0.053	-0.032
-664.003	-134.880	-0.321	0.039
-662.989	800.000	-0.044	-0.149
-661.974	111.667	0.291	0.354
-660.959	0.572	-0.330	0.238
-659.945	311.713	0.157	-0.297
-658.930	-120.155	0.062	0.011
-657.916	490.144	-0.207	0.479
-656.901	510.247	0.081	0.191
-655.886	-23.303	0.143	0.087
-654.872	-187.706	0.040	-0.001
-653.857	362.710	-0.030	-0.060
-652.843	651.861	0.037	-0.096
-651.828	288.657	-0.216	0.395
-650.814	86.638	0.135	-0.151
-649.799	-200.000	-0.001	0.014
-648.784	-16.239	0.062	0.040
-647.770	800.000	0.063	0.274
-646.755	13.321	0.083	0.065
-645.741	-30.410	-0.143	0.082
-644.726	-123.936	-0.064	-0.010
-643.711	312.137	-0.071	-0.134
-642.697	-78.836	-0.119	0.041
-641.682	60.675	-0.178	0.178
-640.668	-47.606	-0.093	0.046
-639.653	14.329	0.233	-0.183
-638.638	550.139	-0.093	-0.224
-637.624	-129.441	0.183	-0.026
-636.609	67.661	-0.185	-0.190
-635.595	-64.848	0.203	0.083
-634.580	-200.000	0.045	0.239
-633.565	800.000	0.118	0.331
-632.551	-41.423	-0.180	-0.094
-631.536	-62.932	-0.316	-0.132
-630.522	-27.214	0.194	0.114
-629.507	-200.000	-0.010	-0.070
-628.492	22.727	-0.444	-0.366
-627.478	112.522	-0.113	-0.138
-626.463	82.949	-0.046	-0.050
-625.449	136.107	0.150	-0.198
-624.434	25.178	-0.211	-0.177
-623.419	3.621	0.204	-0.150
-622.405	70.369	-0.103	-0.107
-621.390	418.472	0.155	0.335
-620.376	-136.374	-0.317	-0.037
-619.361	63.456	-0.230	-0.232
-618.346	-15.212	-0.158	0.102
-617.332	-63.159	-0.088	-0.037
-616.317	-200.000	0.041	-0.202
-615.303	124.544	-0.183	0.232
-614.288	463.363	0.084	0.190
-613.273	211.989	-0.179	0.284
-612.259	-117.851	0.302	0.055
-611.244	800.000	-0.043	0.152
-610.230	56.332	0.168	-0.164
-609.215	-200.000	-0.031	0.148
-608.201	103.862	0.010	-0.012
-607.186	-56.586	-0.092	-0.041
-606.171	-200.000	0.034	-0.285
-605.157	-99.006	-0.290	0.074
-604.142	-200.000	-0.003	-0.503
-603.128	-103.382	0.206	0.049
-602.113	-122.173	-0.136	0.022
-601.098	-111.773	-0.351	-0.072
-600.084	-125.018	0.131	-0.020
-599.069	-73.924	0.257	0.094
-598.055	112.789	-0.074	0.090
-597.040	-200.000	-0.029	0.211
-596.025	152.715	-0.033	-0.046
-595.011	-83.319	0.354	-0.114
-593.996	55.174	-0.130	0.126
-592.982	-72.354	0.239	0.089
-591.967	800.000	0.046	0.159
-590.952	172.411	-0.185	-0.267
-589.938	-65.735	0.132	0.053
-588.923	-106.725	0.192	0.043
-587.909	-3.448	-0.123	-0.086
-586.894	433.459	-0.103	0.225
-585.879	-200.000	-0.000	-0.110
-584.865	163.726	-0.099	-0.140
-583.850	128.325	-0.065	-0.083
-582.836	-77.422	0.178	-0.062
-581.821	-200.000	0.028	0.403
-580.806	800.000	-0.059	-0.239
-579.792	176.125	0.101	0.148
-578.777	578.560	-0.119	-0.292
-577.763	-200.000	-0.041	-0.286
-576.748	-200.000	0.016	-0.251
-575.733	129.936	0.099	0.127
-574.719	-138.850	-0.159	-0.017
-573.704	-15.565	-0.202	0.130
-572.690	-200.000	-0.027	0.208
-571.675	251.633	-0.137	-0.234
-570.661	-53.376	0.352	0.162
-569.646	537.780	-0.030	-0.072
-568.631	-55.960	-0.105	-0.047
-567.617	-64.912	-0.312	0.127
-566.602	43.555	-0.341	0.314
-565.588	121.453	0.025	-0.032
-564.573	-188.755	-0.237	0.003
-563.558	-133.133	0.046	0.006
-562.544	-200.000	0.001	-0.358
-561.529	177.878	0.063	-0.092
-560.515	-58.557	-0.179	-0.078
-559.500	-200.000	0.026	0.235
-558.485	34.119	0.244	0.214
-557.471	-110.382	0.092	0.019
-556.456	-159.648	0.347	-0.019
-555.442	147.212	-0.055	-0.074
-554.427	536.581	0.102	0.243
-553.412	-7.323	0.105	0.071
-552.398	-93.767	-0.236	-0.065
-551.383	-200.000	0.048	-0.319
-550.369	-67.775	-0.313	-0.123
-549.354	734.886	0.086	0.231
-548.339	-90.897	-0.066	-0.019
-547.325	-42.844	-0.129	-0.066
-546.310	116.366	-0.120	-0.148
-545.296	800.000	-0.101	-0.388
-544.281	-8.315	0.016	-0.011
-543.266	-71.056	-0.233	-0.088
-542.252	29.526	-0.105	-0.089
-541.237	-44.564	0.146	0.073
-540.223	-77.531	0.138	-0.048
-539.208	92.771	-0.021	0.023
-538.193	-59.798	0.390	-0.168
-537.179	406.420	0.058	-0.122
-536.164	24.879	0.183	0.152
-535.150	800.000	0.084	0.270
-534.135	-39.305	-0.246	-0.130
-533.121	54.509	-0.303	0.293
-532.106	800.000	0.057	0.183
-531.091	80.378	-0.050	0.054
-530.077	-96.851	-0.323	0.085
-529.062	28.747	0.188	0.160
-528.048	-9.623	-0.123	0.082
-527.033	-33.757	-0.117	0.065
-526.018	71.106	0.182	-0.189
-525.004	40.701	0.114	-0.103
-523.989	60.635	0.185	0.184
-522.975	626.243	-0.129	0.326
-521.960	435.638	0.034	0.073
-520.945	-200.000	-0.067	0.347
-519.931	483.072	-0.120	-0.275
-518.916	45.293	-0.221	-0.204
-517.902	161.334	-0.135	-0.189
-516.887	-81.250	-0.366	0.121
-515.872	-200.000	0.056	-0.343
-514.858	-200.000	0.124	-0.668
-513.843	106.030	0.130	0.155
-512.829	235.752	-0.122	0.202
-511.814	-60.106	-0.105	-0.045
-510.799	-128.983	0.225	0.032
-509.785	-184.076	0.387	0.006
-508.770	221.346	0.076	0.123
-507.756	152.695	0.051	0.070
-506.741	-200.000	0.010	0.235
-505.726	-28.367	-0.154	0.089
-504.712	288.453	-0.204	0.370
-503.697	-45.221	0.219	0.109
-502.683	800.000	-0.061	0.215
-501.668	299.431	-0.046	-0.084
-500.653	-77.175	0.342	-0.120
-499.639	-21.645	0.188	-0.115
-498.624	-200.000	0.025	0.275
-497.610	110.574	-0.187	0.225
-496.595	-64.513	0.121	0.049
-495.581	800.000	0.088	0.271
-494.566	301.398	-0.195	-0.362
-493.551	800.000	0.143	-0.451
-492.537	-200.000	-0.048	0.268
-491.522	247.947	0.236	0.400
-490.508	-200.000	0.006	0.029
-489.493	-168.731	-0.202	0.008
-488.478	-200.000	0.006	-0.150
-487.464	-6.744	0.118	0.081
-486.449	-200.000	-0.014	-0.193
-485.435	-200.000	0.062	-0.329
-484.420	800.000	-0.045	-0.176
-483.405	182.939	0.061	0.091
-482.391	-46.460	0.085	-0.042
-481.376	-51.425	-0.543	-0.255
-480.362	-78.796	-0.203	-0.069
-479.347	187.096	-0.100	0.150
-478.332	784.526	-0.050	-0.138
-477.318	-193.800	-0.199	-0.002
-476.303	-87.188	-0.144	-0.044
-475.289	175.277	0.115	-0.167
-474.274	-200.000	-0.040	0.551
-473.259	0.375	-0.072	0.051
-472.245	263.205	-0.104	-0.181
-471.230	140.901	0.129	-0.170
-470.216	92.801	0.045	0.051
-469.201	800.000	0.048	0.140
-468.186	800.000	0.148	-0.522
-467.172	88.643	0.117	0.130
-466.157	-200.000	-0.012	0.232
-465.143	-109.444	-0.327	-0.069
-464.128	-46.982	-0.080	-0.039
-463.113	-200.000	0.026	-0.299
-462.099	-68.450	-0.242	-0.094
-461.084	-200.000	0.009	-0.497
-460.070	800.000	-0.044	0.182
-459.055	-200.000	0.008	-0.099
-458.040	-200.000	-0.052	-0.322
-457.026	342.694	0.077	-0.152
-456.011	24.291	-0.360	0.298
-454.997	9.477	0.167	0.127
-453.982	800.000	-0.031	-0.094
-452.968	800.000	0.065	-0.245
-451.953	-125.532	0.187	0.029
-450.938	-98.229	-0.377	0.097
-449.924	800.000	0.043	0.186
-448.909	-42.545	0.123	-0.063
-447.895	-200.000	-0.002	0.240
-446.880	90.015	-0.293	-0.327
-445.865	328.831	-0.056	-0.108
-444.851	-88.475	0.145	0.043
-443.836	-30.557	0.274	-0.155
-442.822	-42.566	0.228	0.116
-441.807	2.394	-0.414	0.300
-440.792	-200.000	-0.006	0.077
-439.778	-200.000	0.050	-0.220
-438.763	-200.000	-0.024	0.351
-437.749	-200.000	0.040	-0.205
-436.734	-67.377	0.120	-0.047
-435.719	109.413	-0.158	-0.190
-434.705	-49.698	0.081	-0.038
-433.690	-85.255	0.462	0.144
-432.676	46.514	-0.184	-0.170
-431.661	-123.128	-0.316	0.051
-430.646	78.182	-0.235	-0.251
-429.632	166.807	-0.218	0.309
-428.617	-200.000	-0.052	0.357
-427.603	68.336	-0.106	-0.109
-426.588	-80.242	0.257	-0.086
-425.573	28.450	-0.132	-0.111
-424.559	-83.957	0.401	0.128
-423.544	555.515	0.125	0.300
-422.530	-130.533	-0.152	-0.021
-421.515	280.731	-0.164	0.293
-420.500	-180.607	-0.132	-0.003
-419.486	-25.609	0.219	-0.129
-418.471	-173.828	-0.162	-0.005
-417.457	52.045	0.296	-0.282
-416.442	221.618	0.158	-0.255
-415.428	-200.000	-0.032	0.155
-414.413	-66.220	-0.290	-0.116
-413.398	-200.000	-0.014	-0.109
-412.384	118.329	0.027	0.033
-411.369	136.799	-0.166	-0.217
-410.355	367.442	0.092	0.187
-409.340	216.154	0.043	0.068
-408.325	-77.510	-0.500	0.173
-407.311	354.737	0.071	0.141
-406.296	64.762	0.082	0.082
-405.282	-165.377	0.181	-0.008
-404.267	462.466	-0.137	0.306
-403.252	-200.000	-0.005	0.101
-402.238	-200.000	-0.021	-0.127
-401.223	-200.000	0.017	-0.233
-400.209	407.908	0.046	0.096
-399.194	4.673	-0.158	0.116
-398.179	-154.402	0.251	-0.017
-397.165	800.000	0.014	-0.049
-396.150	-139.375	0.276	-0.030
-395.136	-60.614	0.166	-0.070
-394.121	-84.371	0.319	-0.101
-393.106	-105.475	0.212	-0.048
-392.092	-75.153	0.275	0.098
-391.077	304.424	0.067	0.124
-390.063	800.000	0.010	-0.032
-389.048	340.569	0.032	-0.063
-388.033	32.725	-0.128	-0.111
-387.019	209.351	-0.094	0.148
-386.004	-84.768	-0.134	0.042
-384.990	-72.228	0.128	-0.047
-383.975	-163.525	0.173	-0.008
-382.960	-200.000	-0.021	0.110
-381.946	435.233	0.134	0.290
-380.931	-200.000	-0.068	-0.473
-379.917	-200.000	0.000	-0.266
-378.902	-143.169	0.394	-0.038
-377.888	-110.234	0.102	-0.021
-376.873	457.627	-0.121	-0.268
-375.858	800.000	-0.055	0.160
-374.844	-155.318	-0.287	-0.019
-373.829	-200.000	-0.055	-0.289
-372.815	-75.156	0.213	0.076
-371.800	-195.938	-0.154	-0.001
-370.785	-125.096	0.131	-0.020
-369.771	-188.986	-0.300	-0.004
-368.756	388.165	-0.153	-0.316
-367.742	323.367	-0.104	-0.198
-366.727	-62.477	0.077	0.032
-365.712	168.987	-0.163	-0.232
-364.698	146.125	-0.169	-0.227
-363.683	-194.295	-0.153	-0.001
-362.669	-13.316	-0.173	-0.112
-361.654	-35.466	0.319	-0.173
-360.639	-100.499	0.163	-0.040
-359.625	800.000	0.132	0.385
-358.610	618.906	0.034	-0.086
-357.596	6.628	0.093	0.069
-356.581	800.000	-0.039	-0.139
-355.566	16.327	-0.150	-0.118
-354.552	800.000	-0.054	-0.150
-353.537	-76.795	0.097	-0.034
-352.523	32.388	-0.222	0.191
-351.508	250.787	-0.080	0.135
-350.493	9.269	-0.085	0.064
-349.479	94.032	-0.152	0.172
-348.464	-200.000	-0.009	0.170
-347.450	606.952	-0.042	0.105
-346.435	132.538	0.113	-0.145
-345.420	220.125	-0.037	0.060
-344.406	-23.073	0.187	0.112
-343.391	-200.000	0.019	0.284
-342.377	251.895	0.073	0.123
-341.362	551.996	-0.101	0.243
-340.348	800.000	-0.107	0.325
-339.333	252.161	0.261	-0.444
-338.318	800.000	0.040	-0.145
-337.304	-165.102	-0.096	0.004
-336.289	87.962	-0.259	0.286
-335.275	151.727	0.168	-0.228
-334.260	-197.032	0.101	0.001
-333.245	756.343	0.067	-0.182
-332.231	146.816	-0.078	0.105
-331.216	81.139	0.200	0.215
-330.202	23.398	0.179	-0.146
-329.187	-157.802	-0.177	0.010
-328.172	233.468	-0.078	-0.128
-327.158	-200.000	0.056	-0.321
-326.143	148.586	0.100	-0.135
-325.129	121.251	-0.132	0.164
-324.114	-200.000	-0.002	0.228
-323.099	-200.000	0.012	-0.141
-322.085	176.801	0.155	-0.224
-321.070	-200.000	-0.060	0.287
-320.056	239.185	0.119	0.197
-319.041	361.130	-0.141	-0.282
-318.026	-21.593	-0.025	-0.015
-317.012	800.000	0.092	0.283
-315.997	209.102	0.112	-0.175
-314.983	-129.642	-0.108	0.015
-313.968	-200.000	0.011	0.079
-312.953	40.423	0.032	-0.029
-311.939	230.992	0.163	-0.265
-310.924	42.691	0.061	0.055
-309.910	-200.000	0.001	0.078
-308.895	266.287	-0.056	-0.097
-307.880	192.173	0.098	-0.147
-306.866	-26.801	0.444	-0.259
-305.851	60.407	-0.042	-0.041
-304.837	-9.744	-0.056	0.037
-303.822	-186.865	0.434	-0.006
-302.807	-200.000	0.007	0.337
-301.793	86.018	0.185	0.202
-300.778	800.000	-0.035	-0.116
-299.764	28.537	0.152	0.128
-298.749	-111.946	0.101	-0.020
-297.735	118.414	-0.184	0.227
-296.720	-40.983	-0.173	-0.089
-295.705	-200.000	0.022	-0.297
-294.691	278.075	0.074	0.131
-293.676	-87.525	-0.429	0.129
-292.662	-179.599	-0.167	-0.004
-291.647	-82.584	0.410	-0.132
-290.632	-60.303	-0.126	0.053
-289.618	41.585	-0.149	0.134
-288.603	246.356	-0.149	0.249
-287.589	44.988	-0.171	0.156
-286.574	800.000	-0.077	0.254
-285.559	-102.083	0.250	0.060
-284.545	-119.831	-0.133	0.023
-283.530	-28.849	0.104	0.059
-282.516	-200.000	-0.005	-0.112
-281.501	-77.904	-0.181	-0.062
-280.486	-110.220	0.137	-0.028
-279.472	-192.195	0.182	-0.002
-278.457	-200.000	0.011	0.336
-277.443	800.000	0.064	0.188
-276.428	17.639	0.053	-0.042
-275.413	-60.311	0.204	-0.086
-274.399	-200.000	-0.002	-0.158
-273.384	-200.000	0.123	0.554
-272.370	72.973	0.113	0.118
-271.355	-103.317	0.446	-0.104
-270.340	800.000	0.067	0.242
-269.326	108.391	0.182	-0.215
-268.311	800.000	-0.025	-0.097
-267.297	-108.657	0.131	0.028
-266.282	57.410	0.100	-0.097
-265.267	34.632	-0.118	-0.102
-264.253	-184.882	-0.336	0.005
-263.238	-95.953	0.096	-0.025
-262.224	-189.780	0.336	0.004
-261.209	-45.375	0.191	-0.094
-260.195	-200.000	0.020	-0.175
-259.180	-200.000	0.023	-0.163
-258.165	-161.670	0.091	-0.005
-257.151	104.219	-0.173	-0.202
-256.136	-32.119	0.028	-0.015
-255.122	28.058	0.132	-0.110
-254.107	800.000	0.050	0.153
-253.092	-105.643	0.460	-0.104
-252.078	-150.520	0.272	0.021
-251.063	-200.000	-0.023	-0.127
-250.049	123.155	0.152	-0.189
-249.034	-36.373	0.390	0.209
-248.019	-38.682	0.120	0.063
-247.005	-199.825	-0.078	-0.000
-245.990	306.901	0.167	0.310
-244.976	101.031	0.043	0.050
-243.961	422.430	-0.104	0.221
-242.946	-105.351	0.439	-0.099
-241.932	343.253	0.159	-0.310
-240.917	-87.032	0.198	-0.060
-239.903	-15.671	0.253	-0.161
-238.888	442.211	0.059	-0.128
-237.873	-98.897	-0.170	-0.043
-236.859	-21.904	0.033	0.020
-235.844	-135.322	-0.156	0.018
-234.830	537.455	0.078	-0.184
-233.815	85.905	-0.263	0.287
-232.800	800.000	0.100	0.363
-231.786	313.857	-0.064	-0.119
-230.771	-28.685	-0.090	0.052
-229.757	-47.148	0.136	-0.066
-228.742	203.334	-0.077	0.119
-227.727	-200.000	-0.008	0.144
-226.713	-200.000	0.011	0.480
-225.698	-200.000	0.013	-0.292
-224.684	800.000	0.086	0.253
-223.669	-43.887	-0.035	-0.017
-222.655	-27.446	-0.119	0.069
-221.640	-200.000	0.001	0.017
-220.625	622.096	-0.116	-0.290
-219.611	800.000	0.112	0.334
-218.596	-8.753	0.287	-0.191
-217.582	-144.585	0.279	-0.026
-216.567	-169.888	-0.122	0.004
-215.552	-200.000	-0.026	-0.213
-214.538	-198.924	-0.256	0.001
-213.523	800.000	-0.148	-0.427
-212.509	482.947	0.070	0.159
-211.494	87.527	-0.188	-0.206
-210.479	-200.000	-0.012	-0.159
-209.465	-17.125	0.239	-0.149
-208.450	485.929	-0.053	0.121
-207.436	-200.000	0.037	-0.238
-206.421	-175.296	-0.252	0.007
-205.406	506.220	0.089	0.204
-204.392	-200.000	-0.062	0.440
-203.377	-170.328	-0.397	-0.014
-202.363	24.702	0.056	-0.046
-201.348	-200.000	-0.010	-0.191
-200.333	187.652	0.084	-0.124
-199.319	202.487	0.169	0.258
-198.304	194.124	-0.071	-0.106
-197.290	800.000	0.020	0.068
-196.275	24.304	-0.432	-0.354
-195.260	-105.229	0.308	-0.070
-194.246	201.802	0.144	0.219
-193.231	487.018	-0.199	0.450
-192.217	13.313	0.237	-0.182
-191.202	240.585	-0.077	0.127
-190.187	800.000	-0.027	0.094
-189.173	-200.000	-0.008	-0.074
-188.158	69.622	-0.190	-0.194
-187.144	-200.000	0.081	0.363
-186.129	340.302	-0.164	0.316
-185.114	-41.590	-0.098	0.050
-184.100	-200.000	0.000	-0.281
-183.085	-92.835	-0.138	-0.038
-182.071	-99.104	0.186	0.047
-181.056	-69.114	0.251	-0.096
-180.042	-70.644	-0.144	-0.054
-179.027	-200.000	-0.022	0.111
-178.012	-200.000	-0.044	0.448
-176.998	800.000	0.154	0.483
-175.983	572.082	-0.073	0.177
-174.969	51.331	-0.057	-0.053
-173.954	30.697	0.144	-0.122
-172.939	64.675	-0.097	-0.097
-171.925	-96.119	-0.059	0.015
-170.910	233.494	-0.081	0.133
-169.896	183.210	-0.107	0.156
-168.881	-200.000	0.045	-0.197
-167.866	197.651	0.208	-0.314
-166.852	-11.256	-0.152	-0.099
-165.837	-93.939	-0.082	-0.022
-164.823	10.154	-0.049	0.037
-163.808	-200.000	0.014	-0.122
-162.793	-76.210	0.347	-0.121
-161.779	-200.000	0.003	0.153
-160.764	-98.590	-0.278	0.070
-159.750	75.269	-0.171	0.178
-158.735	-200.000	-0.026	0.248
-157.720	-95.850	-0.171	-0.045
-156.706	-143.541	-0.544	0.051
-155.691	-200.000	-0.005	0.194
-154.677	47.665	-0.067	-0.062
-153.662	-61.470	0.173	0.072
-152.647	495.350	0.138	-0.314
-151.633	-82.339	-0.198	-0.064
-150.618	-149.167	-0.112	0.009
-149.604	106.706	-0.211	0.248
-148.589	-15.205	0.183	-0.116
-147.574	-200.000	0.062	0.298
-146.560	64.075	0.232	0.231
-145.545	582.498	-0.052	0.126
-144.531	-200.000	0.013	-0.178
-143.516	-116.358	-0.239	-0.044
-142.502	-87.384	0.109	0.033
-141.487	800.000	0.053	-0.145
-140.472	316.680	0.155	0.290
-139.458	-200.000	-0.014	-0.068
-138.443	387.943	-0.062	-0.127
-137.429	33.084	-0.113	-0.097
-136.414	800.000	0.094	-0.312
-135.399	-200.000	0.020	0.293
-134.385	-200.000	0.022	0.325
-133.370	2.727	-0.092	-0.066
-132.356	-147.057	-0.354	-0.030
-131.341	272.026	-0.027	0.048
-130.326	800.000	0.133	0.425
-129.312	389.333	-0.120	-0.245
-128.297	37.395	0.060	-0.052
-127.283	-200.000	0.011	-0.413
-126.268	-116.398	-0.097	-0.018
-125.253	-13.948	0.264	-0.168
-124.239	49.658	-0.103	-0.096
-123.224	-43.313	-0.173	0.087
-122.210	179.391	-0.105	0.153
