DTS Sentinel unit serial number:	SN413079Multiplexer serial number:	ORYXHardware model number:	OX4-SRSoftware version number:	ORYX F/W v4.00 Oryx Data Collector v3.7.2.0data status	okinstallation	princeton_trtdifferential loss correction	single-endedforward channel	channel 3reverse channel	N/Adate	2019/09/11time	19:26:11forward acquisition time	60.00reverse acquisition time	0.00gamma	496.2192k internal	0.2295k external	0.2295temperature offset calibration	1.0013default loss term (dB/km)	0.3790temperature slope calibration	1.0000multiplexer offset coefficient	1.0000multiplexer slope coefficient	1.0000fibre end	0.00T internal ref (°C)	40.67T ext. ref 1 (°C)	1.33T ext. ref 2 (°C)	33.06length (m)	temperature (°C)	Stokes	anti-Stokes-747.200	800.000	0.026	-0.083
-746.185	164.229	0.143	0.206
-745.171	429.912	-0.139	0.308
-744.156	60.027	-0.229	-0.231
-743.142	316.914	0.083	-0.161
-742.127	0.366	0.125	0.091
-741.112	-17.093	-0.104	-0.067
-740.098	409.391	-0.156	-0.337
-739.083	-52.156	-0.275	0.131
-738.069	81.488	-0.230	-0.254
-737.054	503.594	0.070	-0.166
-736.039	-41.525	-0.038	-0.020
-735.025	103.741	-0.217	0.260
-734.010	-200.000	0.021	-0.209
-732.996	12.956	0.208	0.165
-731.981	571.383	0.015	0.037
-730.966	-200.000	0.031	-0.149
-729.952	90.706	0.197	-0.225
-728.937	-91.557	-0.115	0.034
-727.923	-14.967	-0.177	0.116
-726.908	295.459	0.147	-0.274
-725.894	-200.000	-0.065	-0.322
-724.879	-200.000	-0.012	0.228
-723.864	-83.173	-0.352	0.116
-722.850	70.194	-0.294	-0.310
-721.835	-93.685	-0.361	0.102
-720.821	-71.951	0.098	-0.037
-719.806	14.963	0.249	-0.199
-718.791	359.911	-0.214	-0.438
-717.777	3.175	-0.416	-0.309
-716.762	511.699	-0.118	-0.280
-715.748	258.196	-0.105	-0.185
-714.733	59.027	0.189	-0.190
-713.718	-200.000	-0.013	-0.138
-712.704	84.942	0.091	-0.101
-711.689	201.604	0.125	-0.197
-710.675	64.229	0.121	-0.125
-709.660	-114.460	-0.078	0.015
-708.645	-94.082	0.208	-0.058
-707.631	24.535	0.187	0.158
-706.616	40.457	0.076	0.070
-705.602	-103.070	0.205	-0.050
-704.587	-27.475	0.273	-0.162
-703.572	-4.257	-0.272	0.192
-702.558	-81.799	-0.110	-0.037
-701.543	-76.803	0.354	0.126
-700.529	87.194	-0.071	-0.080
-699.514	126.405	-0.080	-0.103
-698.499	2.115	0.024	0.018
-697.485	-38.197	-0.223	-0.121
-696.470	-92.348	-0.244	0.070
-695.456	800.000	0.040	-0.165
-694.441	591.972	-0.117	0.295
-693.426	800.000	-0.071	0.310
-692.412	-48.315	-0.144	0.071
-691.397	-200.000	-0.011	0.114
-690.383	573.430	0.140	0.348
-689.368	-153.147	0.093	-0.007
-688.354	-25.551	0.135	-0.081
-687.339	-200.000	-0.028	0.153
-686.324	-26.994	-0.239	0.142
-685.310	169.105	0.079	0.115
-684.295	-200.000	-0.015	0.383
-683.281	441.377	-0.076	0.169
-682.266	469.522	-0.139	-0.318
-681.251	-22.789	-0.410	-0.253
-680.237	800.000	0.070	-0.201
-679.222	-200.000	-0.017	-0.310
-678.208	368.799	0.114	-0.234
-677.193	-113.598	-0.197	0.039
-676.178	185.047	0.170	0.257
-675.164	-200.000	0.065	0.449
-674.149	800.000	-0.031	0.090
-673.135	-200.000	0.098	-0.508
-672.120	-82.539	-0.359	-0.119
-671.105	-107.846	-0.323	-0.072
-670.091	-57.405	0.264	0.118
-669.076	46.820	-0.333	0.315
-668.062	7.745	-0.115	0.088
-667.047	-91.018	-0.379	-0.111
-666.032	253.120	-0.135	-0.235
-665.018	54.171	-0.286	0.281
-664.003	-52.330	0.372	0.176
-662.989	-116.634	0.309	-0.058
-661.974	6.975	-0.241	-0.183
-660.959	-200.000	0.014	0.158
-659.945	-76.691	-0.301	0.108
-658.930	25.483	0.140	-0.119
-657.916	-200.000	0.014	-0.066
-656.901	189.617	0.053	-0.081
-655.886	-200.000	0.022	-0.307
-654.872	-56.551	-0.265	0.120
-653.857	-131.824	-0.367	-0.049
-652.843	488.225	0.173	0.402
-651.828	-200.000	0.039	-0.427
-650.814	-110.553	0.416	-0.088
-649.799	-200.000	0.043	-0.289
-648.784	503.279	-0.057	-0.134
-647.770	-56.649	0.286	-0.129
-646.755	41.783	0.186	0.172
-645.741	-200.000	0.007	-0.103
-644.726	115.870	-0.084	-0.105
-643.711	-200.000	0.021	0.160
-642.697	-6.925	-0.124	0.086
-641.682	-200.000	-0.008	-0.040
-640.668	-4.688	-0.112	0.078
-639.653	-200.000	-0.036	-0.163
-638.638	-67.732	0.210	0.083
-637.624	-86.989	0.176	0.055
-636.609	-124.970	-0.145	-0.023
-635.595	90.769	0.150	-0.172
-634.580	-200.000	-0.017	-0.293
-633.565	13.881	-0.270	-0.213
-632.551	-200.000	0.016	-0.315
-631.536	-134.767	-0.188	-0.023
-630.522	75.535	0.252	0.271
-629.507	-36.219	0.121	0.067
-628.492	-6.230	-0.336	-0.234
-627.478	-112.448	-0.325	-0.066
-626.463	7.504	0.120	0.091
-625.449	-19.992	-0.318	0.200
-624.434	-89.958	-0.262	-0.078
-623.419	182.873	-0.284	-0.427
-622.405	-200.000	-0.034	-0.187
-621.390	-168.050	-0.212	0.008
-620.376	57.943	0.156	0.156
-619.361	-200.000	0.029	-0.323
-618.346	54.226	0.059	0.058
-617.332	129.810	-0.235	0.305
-616.317	20.690	0.336	0.276
-615.303	-200.000	-0.001	0.035
-614.288	-156.484	0.491	-0.031
-613.273	-60.185	0.129	0.056
-612.259	-200.000	-0.024	0.126
-611.244	163.725	-0.050	-0.071
-610.230	-78.498	-0.126	-0.044
-609.215	545.185	-0.086	0.208
-608.201	800.000	-0.065	0.208
-607.186	-58.199	-0.086	0.038
-606.171	-45.201	-0.067	0.034
-605.157	-186.986	0.302	0.004
-604.142	-92.173	0.135	-0.039
-603.128	-8.560	0.109	-0.075
-602.113	-200.000	0.008	0.139
-601.098	90.945	-0.109	0.124
-600.084	-119.540	0.215	-0.038
-599.069	4.303	-0.156	-0.116
-598.055	-200.000	0.015	0.284
-597.040	-200.000	-0.032	-0.291
-596.025	-54.306	-0.196	0.090
-595.011	110.488	0.151	0.185
-593.996	-157.538	0.150	-0.009
-592.982	-83.648	-0.282	-0.091
-591.967	-11.880	-0.079	-0.052
-590.952	-84.596	-0.055	0.018
-589.938	800.000	-0.024	0.087
-588.923	-81.640	-0.301	0.100
-587.909	800.000	-0.063	-0.224
-586.894	-98.729	-0.050	-0.013
-585.879	308.784	0.077	-0.146
-584.865	12.341	-0.194	-0.152
-583.850	-200.000	-0.004	0.163
-582.836	661.693	0.063	-0.166
-581.821	-10.318	-0.175	0.118
-580.806	-19.267	-0.267	0.168
-579.792	672.287	-0.035	-0.093
-578.777	79.664	0.100	0.109
-577.763	-85.908	0.125	-0.039
-576.748	-200.000	-0.447	-0.001
-575.733	-96.936	-0.304	-0.081
-574.719	-18.085	0.174	-0.111
-573.704	185.603	0.270	0.408
-572.690	4.208	0.243	-0.180
-571.675	-200.000	-0.001	-0.037
-570.661	-200.000	0.013	0.147
-569.646	-117.306	0.079	-0.014
-568.631	128.934	0.121	0.156
-567.617	-46.870	-0.140	-0.069
-566.602	31.677	0.249	0.217
-565.588	63.213	0.220	0.224
-564.573	-149.607	-0.029	0.002
-563.558	302.125	-0.118	-0.221
-562.544	-200.000	-0.031	-0.171
-561.529	7.155	-0.216	-0.164
-560.515	-195.971	-0.071	-0.001
-559.500	-200.000	0.011	-0.126
-558.485	-80.344	0.359	-0.122
-557.471	-67.422	0.313	-0.125
-556.456	232.166	0.044	-0.073
-555.442	-200.000	-0.049	0.222
-554.427	-200.000	-0.032	0.146
-553.412	61.543	0.012	-0.012
-552.398	800.000	-0.008	-0.028
-551.383	-163.450	0.103	-0.005
-550.369	40.373	-0.494	0.451
-549.354	437.241	0.107	0.237
-548.339	72.053	0.105	-0.111
-547.325	-26.432	-0.205	-0.122
-546.310	800.000	0.017	0.056
-545.296	-200.000	0.015	-0.249
-544.281	11.663	0.140	-0.109
-543.266	-200.000	-0.058	-0.425
-542.252	-19.501	0.209	-0.131
-541.237	170.861	0.190	0.276
-540.223	448.043	-0.123	-0.275
-539.208	-45.045	0.260	0.131
-538.193	-98.324	-0.222	-0.058
-537.179	548.588	-0.138	-0.335
-536.164	-129.794	0.087	0.012
-535.150	136.359	0.039	-0.051
-534.135	19.670	-0.109	-0.089
-533.121	-200.000	-0.021	0.156
-532.106	107.229	-0.094	-0.113
-531.091	-77.587	-0.212	-0.075
-530.077	800.000	0.077	-0.330
-529.062	-111.654	-0.279	0.057
-528.048	-128.870	0.284	-0.040
-527.033	55.500	0.216	0.212
-526.018	800.000	0.182	0.648
-525.004	334.250	0.175	0.344
-523.989	253.091	0.048	-0.083
-522.975	501.031	-0.086	-0.202
-521.960	-74.154	-0.282	0.103
-520.945	-200.000	-0.046	-0.341
-519.931	-188.355	0.180	-0.002
-518.916	5.579	-0.280	0.210
-517.902	15.600	-0.225	0.179
-516.887	169.579	0.184	-0.267
-515.872	58.802	-0.051	0.051
-514.858	644.482	0.068	0.176
-513.843	-200.000	-0.008	0.160
-512.829	293.366	0.057	0.106
-511.814	-200.000	0.005	0.029
-510.799	-137.538	-0.271	-0.031
-509.785	-85.903	0.223	0.070
-508.770	386.581	0.084	0.175
-507.756	-94.953	-0.239	-0.066
-506.741	-200.000	-0.001	0.077
-505.726	4.631	-0.360	0.268
-504.712	-200.000	-0.005	0.143
-503.697	-89.870	0.108	0.032
-502.683	338.760	0.154	0.304
-501.668	99.100	-0.222	0.259
-500.653	0.641	-0.252	-0.183
-499.639	721.079	0.043	-0.116
-498.624	-200.000	0.019	-0.122
-497.610	-22.205	0.303	0.186
-496.595	592.364	-0.068	0.171
-495.581	-167.555	0.318	0.013
-494.566	-174.425	0.029	-0.001
-493.551	-126.502	-0.202	-0.030
-492.537	-200.000	-0.001	-0.070
-491.522	-65.066	0.195	0.080
-490.508	88.551	-0.190	-0.214
-489.493	-185.238	0.118	-0.002
-488.478	181.545	0.271	0.403
-487.464	-200.000	-0.045	-0.430
-486.449	-6.604	0.410	0.282
-485.435	-200.000	-0.030	0.154
-484.420	455.905	-0.020	-0.044
-483.405	-200.000	0.019	-0.116
-482.391	-200.000	-0.000	-0.101
-481.376	-200.000	0.020	0.124
-480.362	800.000	-0.069	0.238
-479.347	800.000	-0.106	-0.317
-478.332	-128.629	-0.294	0.042
-477.318	-118.649	0.260	-0.046
-476.303	235.533	-0.060	-0.101
-475.289	-93.359	0.259	-0.073
-474.274	35.034	-0.226	0.200
-473.259	154.162	0.047	0.065
-472.245	-76.612	0.155	0.055
-471.230	408.259	-0.126	-0.270
-470.216	-65.455	0.194	-0.079
-469.201	290.563	0.066	-0.121
-468.186	800.000	-0.114	-0.335
-467.172	632.864	0.084	-0.216
-466.157	58.288	0.076	0.076
-465.143	-114.545	0.294	0.057
-464.128	-200.000	-0.038	-0.236
-463.113	138.210	0.055	-0.073
-462.099	-157.327	0.383	0.023
-461.084	264.895	-0.032	0.056
-460.070	-26.257	0.196	0.116
-459.055	12.631	-0.330	-0.257
-458.040	55.915	0.100	-0.098
-457.026	-200.000	0.028	0.446
-456.011	800.000	0.039	-0.172
-454.997	9.133	0.224	0.171
-453.982	116.583	0.137	0.170
-452.968	-9.008	0.263	0.178
-451.953	-64.226	-0.430	-0.177
-450.938	296.320	-0.041	0.076
-449.924	463.642	-0.025	0.057
-448.909	-5.956	0.223	-0.154
-447.895	514.859	-0.094	-0.222
-446.880	378.607	0.057	0.117
-445.865	-200.000	0.058	0.380
-444.851	-200.000	0.040	0.267
-443.836	-55.027	0.069	-0.031
-442.822	800.000	-0.010	-0.043
-441.807	41.405	-0.403	-0.368
-440.792	-75.430	0.289	0.104
-439.778	-78.071	-0.024	0.008
-438.763	211.685	0.184	0.293
-437.749	800.000	0.065	0.187
-436.734	800.000	0.070	-0.235
-435.719	-181.703	0.073	-0.001
-434.705	353.157	-0.142	0.285
-433.690	611.516	-0.059	0.150
-432.676	68.866	-0.403	-0.418
-431.661	-200.000	-0.005	-0.125
-430.646	121.977	0.138	0.174
-429.632	495.254	-0.039	-0.091
-428.617	97.885	-0.020	0.023
-427.603	-77.772	0.193	-0.067
-426.588	162.273	0.110	0.156
-425.573	-55.740	0.268	0.121
-424.559	-62.681	-0.342	-0.143
-423.544	-132.606	0.202	0.026
-422.530	-64.010	-0.136	0.056
-421.515	-111.568	0.357	-0.073
-420.500	800.000	-0.033	0.140
-419.486	389.964	0.154	0.322
-418.471	-94.131	0.180	-0.050
-417.457	-0.261	0.221	0.159
-416.442	-6.777	0.075	0.051
-415.428	-200.000	0.005	0.349
-414.413	132.286	-0.213	-0.277
-413.398	-148.318	-0.459	-0.038
-412.384	-200.000	-0.005	-0.087
-411.369	-200.000	-0.006	0.300
-410.355	-103.288	-0.112	0.027
-409.340	184.958	0.117	0.176
-408.325	214.216	-0.139	0.221
-407.311	32.309	0.052	0.045
-406.296	-64.343	0.207	-0.085
-405.282	731.125	0.077	0.207
-404.267	-34.123	0.118	0.065
-403.252	-200.000	-0.020	-0.257
-402.238	-100.578	-0.199	-0.049
-401.223	-166.192	0.158	0.007
-400.209	83.285	-0.128	0.140
-399.194	18.540	0.307	0.247
-398.179	-200.000	-0.068	-0.396
-397.165	800.000	-0.112	-0.384
-396.150	405.723	-0.047	-0.100
-395.136	-200.000	0.007	-0.141
-394.121	263.343	0.046	-0.081
-393.106	-93.312	-0.400	0.112
-392.092	-200.000	-0.003	-0.124
-391.077	-52.678	-0.102	-0.048
-390.063	52.135	-0.093	0.089
-389.048	5.336	-0.102	0.076
-388.033	230.376	0.216	-0.357
-387.019	167.938	0.096	-0.137
-386.004	-155.859	-0.479	-0.031
-384.990	10.324	-0.085	0.065
-383.975	-73.547	-0.225	0.083
-382.960	210.208	0.103	0.162
-381.946	-96.723	-0.075	-0.020
-380.931	-98.910	-0.296	0.076
-379.917	-70.939	0.130	0.050
-378.902	137.870	-0.035	0.047
-377.888	-7.848	0.123	-0.083
-376.873	-113.701	-0.161	-0.032
-375.858	-35.216	-0.406	-0.222
-374.844	35.434	0.404	0.357
-373.829	-34.189	0.276	0.153
-372.815	105.423	0.189	-0.225
-371.800	261.861	-0.177	-0.310
-370.785	-116.345	-0.374	0.070
-369.771	-181.122	0.240	0.005
-368.756	-76.791	-0.249	0.088
-367.742	633.526	0.133	-0.340
-366.727	-200.000	-0.003	0.125
-365.712	66.905	0.224	0.230
-364.698	-181.860	0.443	0.009
-363.683	-32.908	-0.109	-0.061
-362.669	-24.777	-0.063	-0.037
-361.654	-131.580	0.242	-0.032
-360.639	-56.267	0.158	0.071
-359.625	281.662	-0.134	0.242
-358.610	-200.000	-0.001	0.075
-357.596	800.000	-0.072	-0.305
-356.581	-200.000	0.029	0.178
-355.566	-200.000	-0.022	-0.115
-354.552	-34.673	-0.224	-0.124
-353.537	159.891	-0.168	0.236
-352.523	257.263	0.163	0.283
-351.508	-15.565	-0.567	0.364
-350.493	800.000	-0.052	-0.163
-349.479	199.097	0.082	0.126
-348.464	217.969	-0.042	0.067
-347.450	20.556	0.191	-0.156
-346.435	26.858	-0.322	0.272
-345.420	-113.930	-0.086	0.017
-344.406	6.288	-0.133	0.100
-343.391	71.262	0.087	-0.090
-342.377	-193.788	0.413	-0.004
-341.362	800.000	-0.056	-0.229
-340.348	-200.000	-0.050	-0.258
-339.333	-141.492	-0.185	0.019
-338.318	-191.646	0.247	-0.002
-337.304	168.761	0.157	0.225
-336.289	52.162	0.199	-0.191
-335.275	-19.414	-0.380	-0.237
-334.260	225.350	0.102	0.166
-333.245	-200.000	0.038	-0.196
-332.231	236.243	-0.195	0.324
-331.216	-171.895	0.224	0.007
-330.202	800.000	-0.055	-0.236
-329.187	-140.147	0.481	0.051
-328.172	800.000	0.047	-0.149
-327.158	-20.531	0.235	-0.145
-326.143	-200.000	-0.009	-0.165
-325.129	-200.000	0.016	0.216
-324.114	-145.631	0.270	-0.024
-323.099	-142.578	-0.246	0.024
-322.085	13.283	-0.093	-0.073
-321.070	-31.701	-0.120	-0.068
-320.056	123.810	-0.111	-0.140
-319.041	-62.331	-0.306	0.128
-318.026	600.921	-0.120	-0.300
-317.012	-1.241	-0.184	-0.130
-315.997	95.589	-0.157	-0.180
-314.983	-124.004	-0.322	-0.051
-313.968	294.311	0.180	-0.331
-312.953	649.093	0.084	0.216
-311.939	-123.256	0.180	-0.029
-310.924	279.067	0.189	-0.340
-309.910	-200.000	0.001	-0.387
-308.895	-20.623	0.165	0.102
-307.880	-33.484	-0.155	0.086
-306.866	-55.403	0.213	0.096
-305.851	106.626	0.107	-0.127
-304.837	-57.879	0.135	-0.059
-303.822	800.000	0.008	-0.029
-302.807	73.700	-0.139	-0.146
-301.793	181.537	-0.213	-0.315
-300.778	-130.306	0.119	0.016
-299.764	134.454	-0.102	-0.132
-298.749	30.370	-0.094	0.080
-297.735	43.466	-0.152	0.139
-296.720	-84.951	0.240	0.075
-295.705	22.903	0.247	-0.204
-294.691	-140.402	0.184	0.019
-293.676	287.985	-0.188	0.341
-292.662	800.000	-0.038	0.128
-291.647	87.784	-0.083	0.093
-290.632	-200.000	0.043	0.338
-289.618	-200.000	0.011	0.053
-288.603	638.775	0.079	0.201
-287.589	-200.000	0.014	-0.424
-286.574	5.101	0.128	0.094
-285.559	-15.628	-0.357	0.229
-284.545	-86.557	-0.394	-0.121
-283.530	-43.859	-0.345	-0.174
-282.516	-200.000	-0.011	0.087
-281.501	-94.278	-0.022	0.006
-280.486	55.341	0.084	-0.082
-279.472	-92.656	0.146	0.041
-278.457	800.000	0.046	-0.127
-277.443	-94.133	-0.107	-0.029
-276.428	-21.809	0.140	0.085
-275.413	345.136	0.189	0.373
-274.399	-112.458	0.177	0.036
-273.384	160.751	-0.054	-0.076
-272.370	349.974	0.089	0.176
-271.355	-64.384	-0.395	0.161
-270.340	-113.452	0.138	-0.027
-269.326	-40.370	-0.052	-0.027
-268.311	-200.000	0.016	-0.337
-267.297	800.000	0.125	-0.443
-266.282	-86.055	-0.134	-0.042
-265.267	9.902	0.168	-0.128
-264.253	286.318	-0.153	0.277
-263.238	-60.719	0.620	-0.264
-262.224	15.661	-0.180	-0.142
-261.209	86.189	0.211	0.233
-260.195	-16.241	0.185	0.118
-259.180	45.257	-0.161	-0.149
-258.165	293.875	0.166	0.304
-257.151	101.320	0.222	0.260
-256.136	-27.230	-0.091	0.053
-255.122	-200.000	-0.016	-0.227
-254.107	-64.094	0.331	0.135
-253.092	65.026	-0.130	0.132
-252.078	707.149	-0.077	0.205
-251.063	170.383	0.056	0.080
-250.049	-200.000	0.016	-0.254
-249.034	-101.954	-0.241	-0.058
-248.019	800.000	0.042	0.166
-247.005	-200.000	-0.064	0.380
-245.990	716.280	0.008	-0.020
-244.976	-105.212	-0.232	-0.053
-243.961	-35.430	-0.120	0.065
-242.946	-156.086	-0.132	0.008
-241.932	-132.750	-0.215	0.028
-240.917	555.490	-0.072	0.174
-239.903	61.808	-0.050	-0.050
-238.888	184.633	-0.074	0.110
-237.873	-97.293	-0.392	0.102
-236.859	-81.829	0.173	-0.057
-235.844	22.954	-0.244	0.201
-234.830	273.565	-0.095	0.168
-233.815	-93.955	-0.186	-0.051
-232.800	788.757	-0.060	-0.165
-231.786	-80.424	0.176	0.059
-230.771	-72.950	-0.330	-0.121
-229.757	724.166	0.115	-0.307
-228.742	-200.000	-0.003	-0.345
-227.727	-140.287	0.342	-0.036
-226.713	755.779	-0.075	-0.202
-225.698	420.153	-0.051	-0.110
-224.684	-21.211	0.214	0.131
-223.669	-84.899	-0.177	-0.056
-222.655	800.000	-0.054	0.151
-221.640	-200.000	-0.019	-0.121
-220.625	-96.891	0.141	0.037
-219.611	-200.000	-0.017	-0.077
-218.596	-200.000	0.018	-0.159
-217.582	71.321	0.128	0.133
-216.567	41.658	0.083	-0.076
-215.552	8.993	0.153	0.115
-214.538	-111.509	0.098	0.020
-213.523	-143.297	0.118	-0.011
-212.509	579.797	-0.058	0.143
-211.494	8.915	0.138	0.105
-210.479	31.377	-0.046	0.040
-209.465	-48.277	0.313	0.151
-208.450	-200.000	0.025	-0.239
-207.436	-200.000	0.000	-0.008
-206.421	99.200	-0.209	0.241
-205.406	35.200	-0.332	-0.291
-204.392	346.460	-0.174	-0.342
-203.377	128.595	0.301	-0.384
-202.363	-200.000	-0.016	-0.181
-201.348	800.000	-0.092	0.344
-200.333	-200.000	-0.038	0.231
-199.319	66.450	-0.152	-0.155
-198.304	-116.070	-0.249	-0.046
-197.290	-200.000	-0.005	-0.095
-196.275	326.869	0.069	0.132
-195.260	-100.579	0.128	0.032
-194.246	-121.588	0.138	-0.023
-193.231	328.074	0.149	-0.287
-192.217	211.867	0.127	-0.201
-191.202	-17.582	-0.138	-0.087
-190.187	-192.164	-0.180	-0.002
-189.173	16.258	0.117	-0.092
-188.158	91.457	-0.213	-0.239
-187.144	-92.291	-0.173	-0.049
-186.129	56.321	0.276	0.268
-185.114	41.994	-0.217	0.197
-184.100	-200.000	-0.064	-0.330
-183.085	45.389	0.131	-0.121
-182.071	-184.505	-0.196	0.003
-181.056	15.746	-0.232	0.182
-180.042	-32.535	0.133	-0.074
-179.027	-135.615	-0.417	-0.049
-178.012	-200.000	-0.012	-0.075
-176.998	9.774	0.172	-0.130
-175.983	8.919	-0.116	-0.087
-174.969	44.331	0.170	0.156
-173.954	-38.557	-0.130	0.069
-172.939	800.000	0.010	0.033
-171.925	409.311	-0.074	0.157
-170.910	-200.000	-0.013	-0.077
-169.896	-173.482	-0.317	0.010
-168.881	-13.351	0.231	0.150
-167.866	477.358	0.236	0.534
-166.852	140.585	-0.161	0.213
-165.837	-129.643	-0.222	-0.031
-164.823	42.949	-0.078	-0.071
-163.808	462.844	-0.211	-0.471
-162.793	-20.787	0.376	0.230
-161.779	-104.519	0.301	-0.069
-160.764	800.000	0.101	0.364
-159.750	-143.798	-0.128	-0.012
-158.735	-53.634	0.323	-0.147
-157.720	-105.791	0.194	0.044
-156.706	-200.000	0.037	0.339
-155.691	40.404	0.267	0.240
-154.677	650.303	0.038	0.098
-153.662	161.022	0.100	-0.139
-152.647	50.808	-0.065	-0.061
-151.633	504.457	0.080	-0.186
-150.618	25.452	-0.111	-0.092
-149.604	800.000	0.144	0.456
-148.589	307.197	-0.070	0.130
-147.574	116.415	0.046	-0.056
-146.560	390.453	0.143	0.296
-145.545	135.962	-0.168	0.218
-144.531	-47.246	-0.131	0.064
-143.516	-106.031	0.249	-0.056
-142.502	95.608	0.295	-0.336
-141.487	-200.000	0.048	0.242
-140.472	-133.310	0.055	0.007
-139.458	800.000	0.069	0.244
-138.443	-101.790	-0.130	-0.032
-137.429	-200.000	-0.013	-0.236
-136.414	-121.859	0.280	0.046
-135.399	-200.000	-0.053	0.336
-134.385	-96.128	-0.057	0.015
-133.370	125.903	-0.070	0.088
-132.356	-131.465	0.265	0.035
-131.341	800.000	0.107	0.346
-130.326	-200.000	-0.054	-0.379
-129.312	349.092	0.187	0.367
-128.297	-148.465	0.430	0.035
-127.283	94.762	0.270	0.307
-126.268	-80.157	-0.362	-0.121
-125.253	167.577	-0.151	0.214
-124.239	-200.000	-0.052	0.235
-123.224	22.458	-0.244	-0.199
-122.210	77.461	-0.204	-0.216
-121.195	-200.000	0.046	-0.587
