DTS Sentinel unit serial number:	SN413079Multiplexer serial number:	ORYXHardware model number:	OX4-SRSoftware version number:	ORYX F/W v4.00 Oryx Data Collector v3.7.2.0data status	okinstallation	princeton_trtdifferential loss correction	single-endedforward channel	channel 3reverse channel	N/Adate	2019/09/10time	19:58:11forward acquisition time	60.00reverse acquisition time	0.00gamma	496.2192k internal	0.2323k external	0.2323temperature offset calibration	0.9920default loss term (dB/km)	0.3790temperature slope calibration	1.0000multiplexer offset coefficient	1.0000multiplexer slope coefficient	1.0000fibre end	0.00T internal ref (°C)	32.69T ext. ref 1 (°C)	-0.31T ext. ref 2 (°C)	25.62length (m)	temperature (°C)	Stokes	anti-Stokes-747.200	-200.000	-0.011	-0.154
-746.185	20.726	0.046	-0.038
-745.171	-200.000	0.021	0.282
-744.156	480.264	-0.070	0.159
-743.142	-73.111	-0.069	0.025
-742.127	282.113	-0.074	0.135
-741.112	-195.344	0.273	-0.002
-740.098	-200.000	-0.080	0.360
-739.083	39.216	-0.216	0.195
-738.069	663.388	-0.127	0.330
-737.054	51.048	-0.144	-0.138
-736.039	100.295	0.175	-0.205
-735.025	-200.000	0.066	-0.482
-734.010	-200.000	-0.039	-0.391
-732.996	-200.000	-0.032	-0.430
-731.981	-28.193	-0.114	0.066
-730.966	10.379	-0.170	-0.131
-729.952	800.000	-0.025	0.092
-728.937	-93.984	-0.247	-0.068
-727.923	96.902	-0.077	0.089
-726.908	-1.405	0.175	0.125
-725.894	3.431	-0.185	0.136
-724.879	-185.301	-0.237	-0.004
-723.864	107.218	0.269	-0.322
-722.850	-112.141	0.160	-0.032
-721.835	89.536	-0.077	0.087
-720.821	74.639	-0.089	-0.094
-719.806	145.994	0.200	-0.271
-718.791	227.728	0.189	0.310
-717.777	800.000	-0.045	-0.164
-716.762	3.530	-0.074	-0.055
-715.748	-200.000	-0.065	-0.390
-714.733	-146.093	-0.280	-0.025
-713.718	-117.336	-0.411	0.075
-712.704	17.101	-0.227	0.181
-711.689	161.465	0.150	0.212
-710.675	-72.938	-0.456	-0.169
-709.660	-200.000	0.012	-0.143
-708.645	800.000	0.078	-0.334
-707.631	470.767	-0.118	0.269
-706.616	-144.727	0.123	0.011
-705.602	800.000	-0.107	0.396
-704.587	-200.000	0.048	-0.407
-703.572	89.674	-0.148	-0.166
-702.558	60.879	-0.037	0.037
-701.543	222.210	-0.159	0.258
-700.529	-200.000	0.003	-0.219
-699.514	-183.902	0.151	-0.003
-698.499	6.682	-0.271	0.203
-697.485	-200.000	0.040	0.374
-696.470	800.000	-0.018	-0.078
-695.456	-200.000	-0.051	-0.231
-694.441	58.433	0.191	-0.188
-693.426	73.242	0.122	-0.128
-692.412	-200.000	0.012	-0.073
-691.397	800.000	-0.067	0.238
-690.383	164.964	-0.116	-0.165
-689.368	217.365	-0.097	-0.155
-688.354	-200.000	-0.043	-0.291
-687.339	-85.544	-0.023	0.007
-686.324	800.000	0.098	0.434
-685.310	-77.313	0.154	-0.054
-684.295	-89.249	-0.274	0.081
-683.281	73.227	0.106	-0.112
-682.266	-193.596	0.071	0.001
-681.251	43.206	-0.189	-0.174
-680.237	-124.171	-0.169	-0.027
-679.222	800.000	-0.143	-0.439
-678.208	443.192	0.061	0.134
-677.193	-62.768	-0.361	0.151
-676.178	-179.958	-0.185	-0.004
-675.164	-45.551	-0.107	-0.053
-674.149	-12.917	0.141	-0.092
-673.135	-84.058	0.361	0.116
-672.120	-200.000	0.036	-0.234
-671.105	-200.000	-0.090	0.459
-670.091	-200.000	-0.024	-0.161
-669.076	504.514	0.120	-0.280
-668.062	127.214	-0.107	0.137
-667.047	-79.734	0.044	-0.015
-666.032	-6.078	-0.118	0.081
-665.018	355.946	-0.248	0.497
-664.003	-29.174	-0.098	0.057
-662.989	-200.000	-0.009	0.112
-661.974	60.327	-0.155	0.154
-660.959	61.709	-0.281	0.282
-659.945	561.052	-0.102	-0.249
-658.930	-54.059	0.298	0.136
-657.916	-19.052	-0.093	0.058
-656.901	-161.848	0.105	-0.005
-655.886	-168.678	-0.155	-0.006
-654.872	-131.402	-0.161	-0.021
-653.857	129.456	-0.060	0.078
-652.843	-92.401	-0.047	-0.013
-651.828	-152.437	-0.267	0.019
-650.814	-10.318	-0.076	-0.051
-649.799	-59.203	-0.095	-0.041
-648.784	-200.000	-0.022	-0.166
-647.770	-23.643	-0.251	-0.151
-646.755	-200.000	-0.003	0.075
-645.741	-158.027	-0.305	-0.018
-644.726	26.738	0.175	-0.147
-643.711	-39.615	0.127	0.067
-642.697	530.714	0.041	0.098
-641.682	83.229	0.011	0.012
-640.668	-24.622	0.217	-0.130
-639.653	800.000	-0.042	0.131
-638.638	594.723	0.156	-0.389
-637.624	-200.000	-0.046	-0.229
-636.609	-200.000	0.031	0.553
-635.595	-110.218	0.166	0.035
-634.580	-200.000	-0.016	0.316
-633.565	-57.426	-0.258	0.114
-632.551	-105.509	-0.366	0.084
-631.536	-200.000	0.024	-0.157
-630.522	800.000	-0.011	-0.033
-629.507	800.000	0.102	-0.339
-628.492	-79.205	-0.197	0.067
-627.478	-200.000	-0.229	0.000
-626.463	-200.000	0.012	-0.237
-625.449	-200.000	-0.006	-0.214
-624.434	-170.411	0.242	-0.009
-623.419	-17.949	-0.291	0.184
-622.405	136.353	0.131	-0.172
-621.390	-40.090	-0.026	0.013
-620.376	-83.703	-0.164	-0.053
-619.361	-44.142	-0.037	0.019
-618.346	-74.573	0.262	-0.095
-617.332	-67.879	0.232	-0.091
-616.317	800.000	-0.013	-0.044
-615.303	-94.568	-0.269	0.073
-614.288	306.111	-0.017	-0.033
-613.273	4.825	0.169	-0.125
-612.259	-126.579	-0.193	-0.029
-611.244	-67.737	0.125	-0.049
-610.230	-97.552	0.358	0.093
-609.215	800.000	-0.086	0.293
-608.201	-200.000	-0.004	0.126
-607.186	-200.000	0.068	0.365
-606.171	169.437	0.095	0.136
-605.157	244.178	0.076	-0.129
-604.142	-54.606	0.172	0.078
-603.128	498.750	-0.073	-0.168
-602.113	-30.729	-0.350	-0.199
-601.098	327.869	0.174	-0.335
-600.084	-200.000	-0.037	-0.325
-599.069	-35.793	0.130	-0.070
-598.055	-78.641	-0.324	-0.111
-597.040	44.866	0.298	0.275
-596.025	-115.787	0.234	-0.044
-595.011	-110.403	0.119	-0.025
-593.996	11.504	-0.318	-0.245
-592.982	800.000	0.095	-0.305
-591.967	329.354	-0.077	0.149
-590.952	91.358	-0.050	-0.056
-589.938	27.226	0.278	0.235
-588.923	541.803	0.094	-0.225
-587.909	-71.139	-0.297	0.112
-586.894	800.000	-0.036	0.108
-585.879	-200.000	-0.036	0.185
-584.865	-200.000	0.001	0.135
-583.850	800.000	-0.052	-0.207
-582.836	-200.000	0.007	-0.454
-581.821	580.739	-0.099	0.244
-580.806	84.223	0.115	-0.126
-579.792	759.381	-0.108	0.292
-578.777	-101.247	-0.190	0.046
-577.763	-42.938	0.108	0.055
-576.748	-200.000	0.000	-0.143
-575.733	-102.995	-0.096	-0.023
-574.719	-200.000	-0.008	0.162
-573.704	-29.365	0.031	0.018
-572.690	15.130	-0.183	-0.144
-571.675	-108.214	0.321	-0.070
-570.661	-86.971	-0.089	-0.027
-569.646	-200.000	0.003	-0.186
-568.631	-97.250	-0.242	-0.063
-567.617	646.635	0.139	-0.356
-566.602	-110.775	-0.113	-0.023
-565.588	-102.967	-0.333	0.079
-564.573	537.646	-0.118	0.282
-563.558	-188.788	0.270	-0.003
-562.544	209.418	-0.024	0.038
-561.529	-200.000	-0.014	0.240
-560.515	164.884	0.255	0.361
-559.500	-145.997	-0.170	0.015
-558.485	92.433	-0.055	-0.063
-557.471	-61.869	0.173	0.073
-556.456	-26.592	0.261	0.153
-555.442	572.640	0.136	0.333
-554.427	-200.000	0.024	-0.365
-553.412	-200.000	0.005	-0.210
-552.398	495.100	0.066	0.152
-551.383	204.004	-0.064	-0.100
-550.369	-11.967	-0.044	-0.029
-549.354	-200.000	-0.043	0.240
-548.339	95.805	-0.188	0.215
-547.325	-200.000	0.012	-0.131
-546.310	800.000	0.067	-0.270
-545.296	254.933	0.021	-0.037
-544.281	-127.288	0.343	-0.050
-543.266	57.728	0.164	0.161
-542.252	-153.745	-0.127	-0.009
-541.237	-200.000	-0.007	-0.088
-540.223	-90.524	0.181	-0.053
-539.208	-95.107	-0.247	-0.067
-538.193	-24.293	-0.171	-0.102
-537.179	-200.000	0.004	0.020
-536.164	-200.000	-0.018	0.289
-535.150	427.694	-0.018	-0.039
-534.135	-83.037	0.389	-0.126
-533.121	-200.000	0.035	-0.360
-532.106	-200.000	0.000	-0.108
-531.091	-200.000	-0.008	0.224
-530.077	-37.956	-0.280	0.149
-529.062	-118.787	0.196	-0.034
-528.048	262.735	-0.126	-0.219
-527.033	800.000	-0.085	0.234
-526.018	-29.735	-0.293	-0.167
-525.004	-58.113	-0.341	0.149
-523.989	-41.369	0.096	0.049
-522.975	26.760	-0.223	-0.187
-521.960	67.896	-0.025	0.026
-520.945	142.101	-0.190	-0.253
-519.931	116.808	0.074	0.091
-518.916	-200.000	0.020	0.269
-517.902	-123.269	0.364	0.058
-516.887	-200.000	-0.009	0.120
-515.872	-1.248	-0.288	-0.203
-514.858	216.318	-0.104	-0.166
-513.843	800.000	-0.103	-0.397
-512.829	-20.461	-0.201	-0.124
-511.814	144.709	0.128	-0.172
-510.799	156.687	-0.125	0.172
-509.785	800.000	0.035	-0.119
-508.770	-200.000	0.020	-0.099
-507.756	-200.000	0.008	-0.071
-506.741	-145.836	-0.021	-0.002
-505.726	-82.289	-0.010	-0.003
-504.712	-111.440	-0.164	0.033
-503.697	-45.542	0.103	-0.051
-502.683	-141.610	0.113	0.011
-501.668	-171.463	0.295	0.010
-500.653	139.208	0.150	0.197
-499.639	-22.561	0.273	0.165
-498.624	-200.000	0.024	0.190
-497.610	-200.000	-0.001	0.050
-496.595	-128.573	0.276	0.039
-495.581	-200.000	-0.033	-0.236
-494.566	800.000	0.084	0.277
-493.551	329.123	-0.094	0.181
-492.537	166.428	0.156	-0.221
-491.522	-39.008	0.292	-0.154
-490.508	276.584	0.101	-0.180
-489.493	432.693	0.145	-0.316
-488.478	-120.703	-0.175	0.030
-487.464	-59.418	-0.061	-0.026
-486.449	-200.000	-0.000	-0.098
-485.435	145.021	-0.212	0.283
-484.420	-85.649	-0.175	-0.054
-483.405	129.630	0.110	-0.141
-482.391	-200.000	0.031	0.144
-481.376	800.000	0.063	-0.203
-480.362	-19.857	-0.118	-0.073
-479.347	-17.085	-0.078	-0.049
-478.332	-103.634	0.310	-0.073
-477.318	246.954	-0.083	0.140
-476.303	-200.000	-0.091	-0.000
-475.289	-3.766	0.297	0.206
-474.274	-200.000	-0.013	0.090
-473.259	298.827	-0.239	0.440
-472.245	-53.879	0.069	0.031
-471.230	278.542	-0.086	0.152
-470.216	-83.969	0.286	-0.091
-469.201	-97.712	0.324	0.084
-468.186	770.307	0.142	0.386
-467.172	505.430	0.114	0.263
-466.157	265.188	-0.081	0.141
-465.143	54.458	0.122	0.117
-464.128	-200.000	0.008	0.168
-463.113	248.165	0.028	0.047
-462.099	363.832	0.058	0.116
-461.084	-200.000	-0.002	0.064
-460.070	-97.898	0.223	-0.057
-459.055	42.456	-0.077	-0.070
-458.040	-112.695	-0.341	-0.068
-457.026	9.164	-0.295	-0.223
-456.011	-11.074	0.224	0.147
-454.997	-9.350	-0.038	0.025
-453.982	-111.548	-0.289	-0.059
-452.968	-71.286	-0.017	-0.007
-451.953	24.481	-0.226	0.186
-450.938	-200.000	0.044	-0.265
-449.924	85.826	0.077	-0.084
-448.909	123.066	-0.100	0.125
-447.895	-101.665	0.189	-0.046
-446.880	800.000	-0.125	0.350
-445.865	57.564	-0.107	0.105
-444.851	-200.000	-0.036	-0.230
-443.836	-48.736	-0.215	0.103
-442.822	-119.848	-0.369	-0.063
-441.807	-123.504	0.208	0.033
-440.792	89.069	0.178	0.197
-439.778	-100.894	0.282	-0.069
-438.763	800.000	0.066	-0.188
-437.749	800.000	0.024	-0.074
-436.734	88.180	-0.189	0.210
-435.719	117.842	-0.092	0.113
-434.705	-85.624	0.171	-0.053
-433.690	-123.349	0.195	0.031
-432.676	556.136	0.042	0.100
-431.661	-200.000	-0.016	0.252
-430.646	800.000	-0.066	0.247
-429.632	187.919	-0.095	0.141
-428.617	-34.511	-0.357	-0.195
-427.603	800.000	-0.040	0.160
-426.588	93.778	0.086	-0.098
-425.573	149.662	-0.166	-0.225
-424.559	-200.000	-0.001	-0.220
-423.544	-98.106	0.100	0.026
-422.530	152.175	0.200	0.273
-421.515	309.588	0.142	0.264
-420.500	-200.000	0.001	-0.228
-419.486	57.178	0.400	0.389
-418.471	800.000	0.105	-0.387
-417.457	-200.000	-0.049	0.513
-416.442	391.326	0.084	-0.174
-415.428	725.013	-0.047	-0.124
-414.413	-168.149	0.131	0.005
-413.398	-46.500	-0.108	-0.053
-412.384	-200.000	0.073	0.350
-411.369	-24.208	-0.138	0.082
-410.355	-200.000	-0.045	0.221
-409.340	19.807	0.321	0.258
-408.325	-81.296	0.071	0.023
-407.311	35.627	0.190	0.166
-406.296	-106.635	0.191	0.042
-405.282	-49.342	-0.307	-0.146
-404.267	-2.456	0.329	0.229
-403.252	-104.031	0.320	-0.074
-402.238	182.405	-0.121	0.178
-401.223	-66.943	-0.205	-0.081
-400.209	717.898	-0.047	-0.125
-399.194	-32.860	0.366	0.203
-398.179	47.432	-0.081	0.075
-397.165	74.241	0.069	-0.072
-396.150	47.746	-0.195	0.181
-395.136	-81.178	0.177	-0.058
-394.121	-200.000	0.019	-0.169
-393.106	-114.516	0.362	0.069
-392.092	-99.962	-0.133	-0.033
-391.077	182.549	-0.220	-0.323
-390.063	-200.000	-0.024	0.117
-389.048	-14.938	0.109	-0.070
-388.033	800.000	0.146	0.427
-387.019	2.028	0.250	0.180
-386.004	-200.000	0.058	-0.281
-384.990	-68.917	0.095	0.036
-383.975	-142.959	-0.300	0.029
-382.960	-115.803	-0.138	0.026
-381.946	-40.876	0.184	-0.095
-380.931	-37.666	0.248	-0.132
-379.917	-127.477	-0.058	0.008
-378.902	-110.591	-0.167	-0.034
-377.888	657.383	0.076	-0.195
-376.873	-200.000	0.011	0.102
-375.858	216.888	0.078	-0.123
-374.844	-200.000	0.029	0.306
-373.829	-98.004	0.295	-0.076
-372.815	-134.961	0.221	0.027
-371.800	391.029	0.081	0.168
-370.785	-59.908	-0.252	0.107
-369.771	800.000	-0.027	-0.096
-368.756	800.000	-0.102	0.313
-367.742	-24.598	-0.179	0.106
-366.727	-68.925	-0.271	0.104
-365.712	107.191	-0.157	0.186
-364.698	421.115	0.029	0.062
-363.683	-200.000	0.039	0.242
-362.669	34.633	0.197	0.171
-361.654	-200.000	0.039	0.175
-360.639	-91.031	0.108	-0.031
-359.625	-119.781	-0.315	0.054
-358.610	19.779	-0.105	0.084
-357.596	323.135	-0.114	-0.216
-356.581	-200.000	-0.020	-0.147
-355.566	153.930	0.136	-0.185
-354.552	272.958	-0.049	-0.086
-353.537	114.892	0.097	-0.118
-352.523	332.944	-0.006	-0.012
-351.508	-91.899	0.271	-0.077
-350.493	-37.185	0.333	-0.177
-349.479	623.224	-0.116	-0.290
-348.464	-117.557	-0.306	-0.055
-347.450	-78.066	-0.263	0.090
-346.435	-139.552	-0.155	0.016
-345.420	733.797	0.134	0.356
-344.406	-98.857	0.228	0.058
-343.391	800.000	-0.024	0.087
-342.377	-200.000	-0.010	-0.165
-341.362	800.000	-0.089	0.278
-340.348	-36.811	0.057	-0.030
-339.333	521.972	0.100	0.233
-338.318	-55.773	-0.129	0.057
-337.304	-139.922	-0.180	0.019
-336.289	-200.000	0.055	-0.418
-335.275	38.310	-0.178	-0.157
-334.260	-32.689	0.099	-0.055
-333.245	-200.000	-0.027	0.151
-332.231	-75.093	-0.266	-0.095
-331.216	-77.301	-0.138	0.048
-330.202	-181.565	0.210	-0.004
-329.187	98.963	-0.028	-0.032
-328.172	250.095	-0.205	-0.346
-327.158	185.943	-0.074	-0.109
-326.143	-62.513	0.215	-0.089
-325.129	361.784	-0.144	0.286
-324.114	229.333	0.077	-0.124
-323.099	800.000	0.032	-0.097
-322.085	-122.508	-0.145	0.023
-321.070	-128.038	-0.061	-0.009
-320.056	800.000	0.027	-0.076
-319.041	57.626	-0.212	-0.205
-318.026	-99.570	-0.185	-0.046
-317.012	-66.946	-0.193	-0.076
-315.997	-200.000	-0.006	0.139
-314.983	27.568	-0.057	0.048
-313.968	-48.911	-0.142	0.068
-312.953	183.098	0.076	-0.111
-311.939	89.922	0.350	0.388
-310.924	800.000	0.038	-0.124
-309.910	-142.388	0.060	0.006
-308.895	-83.728	0.218	0.069
-307.880	178.056	0.188	-0.273
-306.866	61.742	-0.052	0.051
-305.851	-132.852	0.113	0.014
-304.837	148.435	-0.161	0.216
-303.822	-200.000	-0.003	-0.366
-302.807	-88.530	0.110	0.033
-301.793	-126.304	0.184	-0.027
-300.778	-46.145	-0.237	0.116
-299.764	-200.000	-0.001	0.193
-298.749	-117.869	0.207	-0.037
-297.735	27.145	0.065	0.054
-296.720	-114.132	-0.101	0.019
-295.705	-75.646	-0.171	-0.060
-294.691	112.858	-0.089	0.107
-293.676	417.131	0.122	-0.259
-292.662	217.260	0.027	0.043
-291.647	-200.000	-0.042	-0.233
-290.632	190.449	0.106	-0.157
-289.618	760.993	-0.209	-0.561
-288.603	-200.000	-0.001	-0.122
-287.589	800.000	0.031	-0.112
-286.574	127.693	-0.224	0.283
-285.559	-133.807	-0.182	-0.022
-284.545	404.549	0.080	0.166
-283.530	-1.018	0.122	-0.085
-282.516	-25.728	-0.212	0.124
-281.501	-118.876	-0.051	-0.009
-280.486	769.695	-0.057	-0.153
-279.472	-42.103	-0.181	0.092
-278.457	-200.000	0.300	0.001
-277.443	528.539	-0.129	-0.303
-276.428	410.692	0.037	-0.079
-275.413	21.277	0.133	-0.107
-274.399	-89.164	-0.112	0.033
-273.384	292.362	0.019	-0.033
-272.370	462.529	-0.050	-0.110
-271.355	-40.182	-0.232	0.120
-270.340	-170.010	0.412	0.015
-269.326	-113.689	0.122	-0.024
-268.311	325.279	-0.098	0.186
-267.297	-17.955	-0.231	-0.143
-266.282	-200.000	0.005	0.309
-265.267	197.935	-0.142	0.215
-264.253	21.811	0.273	0.220
-263.238	12.884	0.209	0.160
-262.224	-62.079	0.279	0.116
-261.209	118.061	-0.075	0.092
-260.195	56.668	-0.311	-0.300
-259.180	-168.117	-0.182	-0.007
-258.165	-5.369	0.080	0.054
-257.151	-57.550	-0.157	0.068
-256.136	688.578	0.136	0.351
-255.122	401.486	0.073	-0.152
-254.107	-200.000	0.044	0.333
-253.092	800.000	0.075	-0.207
-252.078	-165.880	0.287	0.012
-251.063	112.128	-0.109	0.130
-250.049	-200.000	-0.031	-0.210
-249.034	416.236	0.085	-0.180
-248.019	251.995	-0.113	0.191
-247.005	-87.255	0.092	0.028
-245.990	-200.000	-0.002	0.057
-244.976	23.739	0.175	-0.143
-243.961	800.000	0.068	0.212
-242.946	-47.707	-0.259	-0.125
-241.932	800.000	-0.060	0.208
-240.917	-82.890	-0.295	-0.094
-239.903	82.142	-0.196	0.210
-238.888	130.428	-0.108	-0.137
-237.873	55.456	0.186	-0.178
-236.859	-85.388	0.605	-0.187
-235.844	-153.447	0.069	0.005
-234.830	31.620	-0.183	0.156
-233.815	1.884	0.169	0.120
-232.800	119.082	-0.188	0.230
-231.786	-200.000	0.043	-0.349
-230.771	-115.278	0.188	0.035
-229.757	39.506	0.073	0.065
-228.742	253.854	0.039	0.066
-227.727	800.000	0.025	-0.075
-226.713	504.569	-0.079	0.181
-225.698	629.823	0.093	-0.232
-224.684	-12.088	0.330	-0.214
-223.669	-118.996	-0.175	-0.030
-222.655	-200.000	0.018	-0.092
-221.640	52.591	0.336	-0.318
-220.625	-174.185	-0.331	-0.010
-219.611	349.817	0.032	0.062
-218.596	-114.842	0.318	-0.060
-217.582	-198.933	0.251	0.001
-216.567	-79.831	0.271	0.090
-215.552	-80.078	-0.426	0.141
-214.538	-97.959	-0.375	0.096
-213.523	-200.000	-0.004	0.028
-212.509	95.250	0.166	-0.188
-211.494	-0.219	-0.242	-0.170
-210.479	-98.337	-0.108	0.027
-209.465	-97.013	-0.337	-0.087
-208.450	-38.744	0.143	-0.074
-207.436	390.473	0.040	-0.083
-206.421	-30.693	0.310	-0.174
-205.406	-200.000	0.004	0.266
-204.392	-200.000	0.095	-0.438
-203.377	354.617	-0.091	0.179
-202.363	-53.751	-0.186	0.084
-201.348	-166.589	0.437	0.018
-200.333	-45.359	-0.141	0.069
-199.319	189.172	0.100	0.148
-198.304	-74.653	0.051	-0.018
-197.290	-191.651	0.153	0.002
-196.275	-68.469	0.099	0.038
-195.260	800.000	-0.063	-0.212
-194.246	459.203	-0.107	0.236
-193.231	-45.836	0.064	-0.031
-192.217	-200.000	-0.054	0.447
-191.202	-30.921	-0.166	-0.093
-190.187	-106.420	0.283	0.063
-189.173	-6.260	-0.157	-0.106
-188.158	-61.731	0.170	-0.070
-187.144	-200.000	0.050	-0.371
-186.129	238.244	-0.112	0.184
-185.114	-91.436	-0.331	-0.093
-184.100	-66.591	-0.480	0.188
-183.085	800.000	-0.033	0.094
-182.071	438.738	-0.119	0.256
-181.056	223.195	0.171	-0.273
-180.042	425.530	-0.079	-0.167
-179.027	173.996	0.111	-0.158
-178.012	-200.000	-0.005	-0.508
-176.998	62.580	-0.151	0.149
-175.983	-200.000	0.006	-0.197
-174.969	-37.223	-0.095	0.050
-173.954	117.724	0.230	-0.280
-172.939	192.780	-0.088	-0.131
-171.925	55.831	-0.132	0.126
-170.910	60.160	0.076	-0.074
-169.896	321.904	-0.008	-0.015
-168.881	-80.133	-0.033	0.011
-167.866	34.454	-0.241	-0.208
-166.852	12.460	0.012	-0.009
-165.837	-110.932	-0.387	0.079
-164.823	-96.815	-0.427	0.111
-163.808	-200.000	-0.055	-0.357
-162.793	800.000	-0.012	0.045
-161.779	800.000	-0.041	0.137
-160.764	-200.000	-0.018	-0.273
-159.750	-113.108	-0.299	0.058
-158.735	43.324	-0.160	0.144
-157.720	136.693	0.108	-0.139
-156.706	200.288	-0.122	0.186
-155.691	280.157	0.039	0.070
-154.677	52.105	0.207	-0.195
-153.662	-172.839	-0.291	-0.009
-152.647	-128.337	0.537	-0.076
-151.633	148.803	-0.124	0.165
-150.618	-36.632	-0.179	-0.095
-149.604	153.919	-0.186	-0.252
-148.589	-59.873	0.101	0.042
-147.574	-113.348	0.253	-0.049
-146.560	-11.168	0.188	0.122
-145.545	-100.228	0.279	0.068
-144.531	-200.000	-0.052	0.232
-143.516	-154.899	-0.208	-0.014
-142.502	166.748	0.127	0.178
-141.487	-200.000	-0.007	-0.052
-140.472	-58.540	0.078	0.033
-139.458	800.000	-0.037	0.103
-138.443	800.000	0.047	0.145
-137.429	46.484	0.142	0.130
-136.414	-46.769	0.217	0.105
-135.399	-103.971	-0.283	-0.065
-134.385	-91.412	-0.304	0.086
-133.370	800.000	0.130	-0.382
-132.356	7.874	0.305	0.225
-131.341	156.304	0.179	-0.244
-130.326	26.702	0.113	0.093
-129.312	219.706	-0.103	-0.162
-128.297	800.000	0.089	0.259
-127.283	512.904	-0.043	0.100
-126.268	-200.000	0.014	-0.219
-125.253	62.043	0.047	-0.046
-124.239	75.198	-0.091	0.094
-123.224	-45.207	0.111	0.054
