DTS Sentinel unit serial number:	SN413079Multiplexer serial number:	ORYXHardware model number:	OX4-SRSoftware version number:	ORYX F/W v4.00 Oryx Data Collector v3.7.2.0data status	okinstallation	princeton_trtdifferential loss correction	single-endedforward channel	channel 3reverse channel	N/Adate	2019/09/10time	17:42:10forward acquisition time	60.00reverse acquisition time	0.00gamma	496.2192k internal	0.2298k external	0.2298temperature offset calibration	0.9911default loss term (dB/km)	0.3790temperature slope calibration	1.0000multiplexer offset coefficient	1.0000multiplexer slope coefficient	1.0000fibre end	0.00T internal ref (°C)	37.56T ext. ref 1 (°C)	-0.33T ext. ref 2 (°C)	30.98length (m)	temperature (°C)	Stokes	anti-Stokes-747.200	-34.914	0.212	-0.118
-746.185	193.183	0.096	0.149
-745.171	15.888	0.135	-0.108
-744.156	360.994	-0.199	0.407
-743.142	-200.000	-0.015	0.149
-742.127	800.000	0.040	0.120
-741.112	16.623	-0.166	0.134
-740.098	1.250	-0.302	0.221
-739.083	127.142	0.181	0.235
-738.069	-111.987	-0.340	-0.070
-737.054	17.724	0.106	-0.086
-736.039	-91.224	-0.432	0.126
-735.025	34.882	0.226	0.201
-734.010	208.893	-0.107	-0.170
-732.996	-109.756	-0.301	-0.065
-731.981	-130.399	-0.251	0.035
-730.966	95.832	-0.157	-0.183
-729.952	800.000	-0.067	-0.284
-728.937	571.010	-0.009	-0.023
-727.923	800.000	0.064	-0.181
-726.908	-200.000	0.063	0.283
-725.894	800.000	-0.126	0.382
-724.879	90.748	-0.181	0.207
-723.864	800.000	-0.135	0.429
-722.850	545.321	-0.060	-0.147
-721.835	-92.969	-0.098	0.028
-720.821	555.564	-0.125	0.306
-719.806	-76.792	0.291	0.104
-718.791	100.852	-0.333	-0.394
-717.777	40.624	-0.280	-0.258
-716.762	-157.644	0.109	0.007
-715.748	-131.177	0.203	0.027
-714.733	-200.000	-0.061	-0.342
-713.718	-29.242	-0.224	0.131
-712.704	47.179	0.090	0.085
-711.689	-132.676	-0.221	-0.029
-710.675	800.000	-0.091	-0.369
-709.660	34.444	0.197	-0.176
-708.645	53.655	-0.131	-0.128
-707.631	-86.264	-0.287	-0.090
-706.616	-55.338	0.028	0.013
-705.602	451.828	-0.036	0.081
-704.587	16.228	0.116	0.093
-703.572	-200.000	0.008	-0.143
-702.558	20.657	0.197	0.163
-701.543	90.043	0.327	-0.373
-700.529	203.936	0.155	-0.244
-699.514	-116.315	-0.287	-0.054
-698.499	244.863	0.033	-0.056
-697.485	378.254	0.065	0.136
-696.470	800.000	0.073	0.222
-695.456	93.275	-0.082	-0.094
-694.441	-27.971	-0.173	0.102
-693.426	165.524	-0.025	-0.036
-692.412	99.212	-0.070	-0.083
-691.397	82.426	-0.251	-0.278
-690.383	122.035	-0.048	-0.060
-689.368	-200.000	0.015	-0.132
-688.354	-92.361	-0.281	-0.081
-687.339	-47.145	0.253	0.126
-686.324	-200.000	-0.043	-0.222
-685.310	629.256	0.170	-0.439
-684.295	365.271	-0.060	-0.123
-683.281	516.021	-0.050	-0.120
-682.266	800.000	0.038	0.127
-681.251	380.282	0.153	-0.319
-680.237	-117.646	0.031	-0.006
-679.222	178.712	-0.073	0.108
-678.208	332.750	0.226	0.444
-677.193	-200.000	-0.016	0.210
-676.178	-200.000	-0.067	-0.382
-675.164	800.000	-0.048	0.157
-674.149	30.201	-0.349	-0.304
-673.135	-200.000	-0.017	-0.293
-672.120	256.113	-0.166	-0.290
-671.105	245.660	-0.166	-0.284
-670.091	622.341	0.107	0.275
-669.076	527.642	0.166	0.399
-668.062	184.206	-0.137	-0.207
-667.047	-121.638	-0.167	0.028
-666.032	800.000	0.069	-0.198
-665.018	800.000	-0.019	-0.064
-664.003	196.998	-0.039	0.061
-662.989	-200.000	-0.265	-0.001
-661.974	-44.566	-0.399	-0.203
-660.959	-200.000	-0.009	0.159
-659.945	-142.698	-0.185	0.018
-658.930	237.159	-0.079	0.133
-657.916	-200.000	0.063	-0.382
-656.901	507.568	0.115	-0.270
-655.886	800.000	0.044	0.161
-654.872	800.000	0.124	0.473
-653.857	239.507	-0.018	0.030
-652.843	-112.817	0.104	-0.021
-651.828	496.395	-0.053	-0.125
-650.814	170.337	0.051	0.074
-649.799	-76.940	0.221	-0.078
-648.784	-108.966	-0.270	-0.059
-647.770	-86.310	-0.040	-0.012
-646.755	-112.705	0.550	-0.111
-645.741	23.499	-0.437	-0.365
-644.726	43.897	-0.338	0.315
-643.711	-129.695	0.279	0.039
-642.697	22.233	-0.290	-0.241
-641.682	15.927	0.199	-0.160
-640.668	-163.738	0.370	0.018
-639.653	44.473	-0.186	-0.174
-638.638	-200.000	0.034	-0.169
-637.624	19.697	0.161	0.132
-636.609	-19.256	-0.136	-0.086
-635.595	79.504	-0.151	0.165
-634.580	551.796	-0.098	-0.240
-633.565	-71.383	-0.209	-0.080
-632.551	69.597	-0.126	-0.132
-631.536	-168.623	-0.245	0.009
-630.522	-124.586	-0.347	0.055
-629.507	-51.947	-0.104	-0.049
-628.492	83.292	-0.181	0.201
-627.478	-73.697	-0.249	-0.092
-626.463	-200.000	-0.006	0.127
-625.449	97.914	0.212	0.247
-624.434	-144.022	0.190	0.018
-623.419	-64.916	0.185	0.076
-622.405	-200.000	0.031	0.339
-621.390	551.756	-0.017	-0.042
-620.376	-50.141	-0.211	0.101
-619.361	-54.197	-0.217	0.100
-618.346	-200.000	-0.043	0.281
-617.332	631.290	0.066	-0.170
-616.317	-44.849	-0.240	-0.122
-615.303	-200.000	-0.046	-0.340
-614.288	122.995	-0.182	0.232
-613.273	-200.000	0.010	0.158
-612.259	-152.716	-0.021	0.002
-611.244	-200.000	-0.017	-0.079
-610.230	13.808	0.094	0.074
-609.215	-113.064	0.117	0.023
-608.201	-158.908	-0.096	0.006
-607.186	-172.339	0.186	0.006
-606.171	-105.568	0.161	0.037
-605.157	-200.000	-0.008	0.094
-604.142	142.991	0.034	0.046
-603.128	-200.000	0.057	0.336
-602.113	108.382	-0.138	0.168
-601.098	-146.804	-0.163	-0.014
-600.084	-7.697	0.017	0.012
-599.069	759.433	-0.071	-0.195
-598.055	46.733	-0.095	0.089
-597.040	53.628	0.137	0.133
-596.025	-200.000	-0.021	0.161
-595.011	-200.000	-0.012	0.288
-593.996	-6.060	0.122	0.085
-592.982	-135.704	0.177	-0.021
-591.967	11.531	0.015	0.011
-590.952	-123.491	-0.156	0.025
-589.938	800.000	0.069	-0.197
-588.923	212.578	0.146	-0.233
-587.909	195.891	0.184	0.284
-586.894	-200.000	-0.025	0.261
-585.879	800.000	0.025	-0.103
-584.865	-134.227	-0.124	0.016
-583.850	515.625	-0.059	0.139
-582.836	-112.201	0.220	0.045
-581.821	-44.139	-0.203	0.103
-580.806	-200.000	-0.051	-0.257
-579.792	-48.071	-0.154	-0.075
-578.777	317.777	0.084	-0.162
-577.763	208.083	0.145	-0.229
-576.748	800.000	0.047	0.158
-575.733	800.000	-0.081	-0.256
-574.719	270.133	-0.152	-0.271
-573.704	39.032	-0.042	0.038
-572.690	800.000	-0.077	0.265
-571.675	-0.934	0.261	-0.188
-570.661	386.010	-0.063	0.131
-569.646	-56.265	-0.054	-0.024
-568.631	283.966	0.095	-0.174
-567.617	15.695	-0.068	0.054
-566.602	-170.331	-0.214	-0.008
-565.588	140.468	-0.108	0.145
-564.573	157.565	0.232	0.326
-563.558	18.018	0.038	0.031
-562.544	76.740	0.065	0.070
-561.529	236.503	0.072	0.121
-560.515	-92.261	-0.337	-0.096
-559.500	162.689	-0.071	0.102
-558.485	16.386	0.173	0.138
-557.471	740.398	-0.117	-0.318
-556.456	800.000	0.027	0.101
-555.442	767.416	-0.019	-0.052
-554.427	-39.814	0.144	-0.076
-553.412	-28.072	0.252	-0.148
-552.398	94.827	0.091	0.105
-551.383	67.695	-0.121	-0.126
-550.369	800.000	0.110	-0.385
-549.354	-82.029	0.282	-0.093
-548.339	-26.151	0.406	-0.242
-547.325	-0.811	0.167	-0.120
-546.310	297.827	-0.173	-0.322
-545.296	-100.579	0.234	-0.059
-544.281	256.544	0.167	-0.291
-543.266	150.955	-0.209	-0.288
-542.252	-89.818	-0.113	0.034
-541.237	-26.741	0.267	0.158
-540.223	-20.159	-0.068	-0.043
-539.208	800.000	0.043	-0.133
-538.193	465.162	0.083	0.189
-537.179	-200.000	0.008	0.397
-536.164	-42.192	0.063	-0.033
-535.150	-149.501	-0.169	0.014
-534.135	-200.000	-0.049	0.229
-533.121	-50.771	0.218	-0.104
-532.106	60.903	0.163	-0.164
-531.091	87.219	-0.137	-0.153
-530.077	43.976	0.189	-0.175
-529.062	208.581	0.202	0.319
-528.048	10.310	0.094	-0.072
-527.033	-200.000	-0.001	0.468
-526.018	-200.000	-0.014	0.186
-525.004	-200.000	0.015	0.111
-523.989	-152.215	0.281	0.021
-522.975	-30.946	-0.192	0.109
-521.960	-119.347	-0.299	-0.053
-520.945	224.211	-0.249	0.407
-519.931	35.739	-0.068	0.060
-518.916	800.000	0.040	-0.154
-517.902	-121.141	0.358	-0.061
-516.887	-200.000	0.006	-0.113
-515.872	-200.000	0.009	0.088
-514.858	628.062	-0.035	0.089
-513.843	-184.800	-0.141	-0.002
-512.829	674.980	0.005	0.013
-511.814	-145.103	-0.268	-0.025
-510.799	-28.886	0.096	-0.056
-509.785	800.000	-0.071	0.312
-508.770	-142.575	0.222	-0.022
-507.756	385.382	-0.145	0.303
-506.741	-78.759	0.210	-0.073
-505.726	248.957	-0.076	0.131
-504.712	-200.000	0.014	0.157
-503.697	88.165	-0.130	-0.146
-502.683	-8.498	-0.136	0.093
-501.668	257.511	-0.215	0.375
-500.653	-200.000	0.000	-0.064
-499.639	40.235	0.231	0.210
-498.624	-144.681	-0.189	-0.018
-497.610	84.019	0.317	-0.350
-496.595	-26.793	0.243	-0.144
-495.581	14.047	-0.097	0.076
-494.566	252.889	-0.090	-0.156
-493.551	101.480	-0.074	0.087
-492.537	800.000	0.037	0.147
-491.522	-200.000	0.044	0.198
-490.508	-10.463	0.279	-0.187
-489.493	151.085	0.142	0.196
-488.478	-130.762	0.184	0.025
-487.464	-95.541	-0.161	-0.044
-486.449	349.654	-0.004	-0.008
-485.435	376.936	0.112	-0.230
-484.420	-200.000	-0.141	-0.000
-483.405	-41.564	-0.100	-0.052
-482.391	330.755	0.157	-0.305
-481.376	800.000	-0.068	-0.288
-480.362	-7.199	0.351	-0.240
-479.347	-135.015	-0.129	0.016
-478.332	-200.000	0.008	-0.183
-477.318	306.293	-0.015	0.028
-476.303	-27.933	0.291	-0.170
-475.289	15.366	0.140	0.111
-474.274	153.370	-0.146	0.202
-473.259	693.122	0.075	0.198
-472.245	-200.000	-0.015	0.205
-471.230	41.638	0.277	0.253
-470.216	800.000	0.035	-0.125
-469.201	300.799	0.129	-0.240
-468.186	-23.079	-0.086	0.052
-467.172	135.056	-0.231	0.303
-466.157	110.943	-0.200	0.243
-465.143	-13.828	-0.060	-0.039
-464.128	15.333	0.074	0.059
-463.113	-0.103	-0.469	-0.337
-462.099	-161.674	0.142	0.007
-461.084	-40.880	0.132	0.069
-460.070	56.621	0.020	-0.020
-459.055	-33.644	-0.030	0.017
-458.040	800.000	-0.054	-0.194
-457.026	433.002	0.024	0.052
-456.011	-79.511	-0.214	-0.073
-454.997	800.000	-0.032	0.121
-453.982	-200.000	-0.005	-0.175
-452.968	368.395	0.074	-0.150
-451.953	14.030	0.101	-0.079
-450.938	800.000	0.096	0.292
-449.924	108.854	0.236	0.285
-448.909	-31.448	0.131	-0.074
-447.895	-86.572	0.196	0.061
-446.880	288.633	0.145	-0.266
-445.865	-200.000	0.030	-0.358
-444.851	-192.594	-0.433	-0.004
-443.836	-42.722	-0.174	0.089
-442.822	150.934	0.167	0.229
-441.807	-143.975	-0.036	0.003
-440.792	-99.509	-0.186	0.047
-439.778	-39.841	-0.063	0.033
-438.763	-176.074	-0.330	-0.009
-437.749	800.000	-0.080	-0.267
-436.734	800.000	-0.106	-0.309
-435.719	77.256	0.025	0.027
-434.705	174.988	0.193	0.281
-433.690	191.627	-0.217	0.330
-432.676	101.048	0.079	0.092
-431.661	68.812	0.258	0.267
-430.646	125.389	0.046	0.059
-429.632	643.990	-0.188	-0.484
-428.617	117.198	0.062	-0.077
-427.603	800.000	-0.075	0.262
-426.588	-69.753	0.074	-0.028
-425.573	290.780	-0.087	0.159
-424.559	219.794	0.057	-0.092
-423.544	-71.271	-0.119	0.045
-422.530	79.374	-0.063	0.068
-421.515	-70.497	-0.293	-0.112
-420.500	707.128	-0.069	0.183
-419.486	-117.204	-0.229	0.042
-418.471	-140.913	0.592	0.061
-417.457	-106.121	0.179	-0.041
-416.442	-57.216	0.080	0.036
-415.428	-49.405	-0.437	0.210
-414.413	-23.197	0.252	-0.153
-413.398	-100.445	0.109	-0.027
-412.384	-113.317	-0.317	0.063
-411.369	800.000	-0.025	-0.078
-410.355	-200.000	0.003	0.257
-409.340	57.770	-0.342	0.337
-408.325	257.033	-0.121	-0.210
-407.311	-200.000	-0.025	-0.223
-406.296	174.672	0.154	-0.224
-405.282	-141.268	0.235	-0.024
-404.267	73.185	0.092	0.097
-403.252	-63.408	0.090	-0.037
-402.238	-120.610	0.168	0.029
-401.223	-120.889	0.119	-0.020
-400.209	699.858	0.056	0.150
-399.194	-114.005	-0.053	-0.010
-398.179	316.253	-0.056	-0.107
-397.165	-69.253	0.388	-0.150
-396.150	570.165	0.051	-0.125
-395.136	-52.331	0.074	-0.035
-394.121	40.657	0.119	0.108
-393.106	135.508	0.085	0.112
-392.092	82.315	0.221	-0.242
-391.077	-25.765	0.154	0.091
-390.063	54.410	0.107	0.104
-389.048	-160.541	-0.263	0.014
-388.033	-200.000	-0.007	-0.107
-387.019	288.319	-0.040	0.074
-386.004	76.606	-0.075	-0.080
-384.990	-112.520	0.117	-0.024
-383.975	407.542	-0.167	-0.356
-382.960	-162.637	-0.343	0.017
-381.946	-200.000	0.008	0.161
-380.931	79.099	-0.180	-0.195
-379.917	770.993	0.048	-0.132
-378.902	242.530	-0.091	0.153
-377.888	105.058	-0.133	-0.158
-376.873	-200.000	-0.015	0.076
-375.858	-121.401	-0.110	0.018
-374.844	800.000	-0.055	0.167
-373.829	800.000	0.025	0.109
-372.815	-188.987	-0.236	0.003
-371.800	187.147	-0.145	-0.218
-370.785	105.794	-0.052	0.062
-369.771	-14.179	0.259	0.168
-368.756	547.968	0.043	-0.104
-367.742	187.784	-0.060	0.089
-366.727	-62.420	-0.097	-0.040
-365.712	-200.000	0.043	0.232
-364.698	-30.670	0.057	-0.032
-363.683	8.302	-0.496	-0.375
-362.669	274.307	-0.201	-0.358
-361.654	292.578	-0.016	0.029
-360.639	52.374	-0.085	-0.081
-359.625	-174.859	-0.222	-0.006
-358.610	-39.612	0.160	0.084
-357.596	800.000	0.048	-0.182
-356.581	149.398	0.150	-0.204
-355.566	-86.131	-0.237	0.074
-354.552	114.927	-0.057	0.069
-353.537	-111.888	0.224	-0.045
-352.523	51.892	-0.046	-0.044
-351.508	-200.000	-0.009	0.225
-350.493	45.879	0.083	-0.077
-349.479	90.828	0.138	0.156
-348.464	96.367	0.101	-0.116
-347.450	800.000	0.066	-0.188
-346.435	800.000	0.055	-0.193
-345.420	-66.763	-0.369	-0.147
-344.406	-84.508	0.206	0.065
-343.391	56.311	-0.261	0.255
-342.377	125.614	-0.343	0.435
-341.362	-200.000	-0.017	-0.077
-340.348	124.322	-0.034	-0.043
-339.333	262.665	0.052	0.090
-338.318	-200.000	-0.022	-0.228
-337.304	-85.461	-0.066	-0.021
-336.289	-110.914	-0.221	0.046
-335.275	-167.187	0.174	0.007
-334.260	-168.662	0.192	0.007
-333.245	-134.273	0.156	-0.019
-332.231	66.265	0.157	0.160
-331.216	-25.351	-0.103	0.061
-330.202	800.000	-0.066	-0.199
-329.187	54.915	-0.257	0.249
-328.172	-100.398	0.245	-0.061
-327.158	800.000	-0.050	0.160
-326.143	-200.000	0.041	-0.230
-325.129	-24.892	-0.103	0.062
-324.114	-12.004	0.318	0.209
-323.099	800.000	-0.061	-0.183
-322.085	800.000	-0.067	-0.193
-321.070	75.039	-0.286	0.302
-320.056	-142.167	0.062	0.006
-319.041	142.353	0.279	-0.371
-318.026	43.367	0.146	0.134
-317.012	-145.964	-0.318	0.028
-315.997	91.184	-0.252	0.284
-314.983	-29.213	-0.162	0.093
-313.968	288.380	0.188	-0.342
-312.953	555.721	0.083	0.200
-311.939	203.379	0.123	0.190
-310.924	800.000	-0.019	-0.055
-309.910	-3.193	0.102	0.071
-308.895	762.989	-0.078	-0.213
-307.880	-55.150	0.181	-0.082
-306.866	-112.548	-0.033	-0.007
-305.851	-200.000	-0.021	-0.133
-304.837	-200.000	0.001	-0.058
-303.822	-42.940	0.285	0.145
-302.807	-130.201	-0.065	-0.009
-301.793	-200.000	-0.036	0.178
-300.778	-200.000	0.040	0.359
-299.764	-36.590	-0.185	0.100
-298.749	-56.922	-0.148	-0.065
-297.735	-57.303	0.105	-0.047
-296.720	141.679	-0.112	-0.149
-295.705	-200.000	-0.032	-0.284
-294.691	50.260	0.248	0.235
-293.676	103.450	-0.125	0.148
-292.662	-112.552	0.282	-0.056
-291.647	800.000	-0.048	-0.168
-290.632	-68.563	-0.159	-0.062
-289.618	12.390	0.056	-0.043
-288.603	-68.602	-0.163	0.063
-287.589	172.161	-0.119	0.172
-286.574	800.000	-0.042	-0.128
-285.559	62.202	0.108	0.108
-284.545	-200.000	-0.019	0.160
-283.530	800.000	0.050	-0.169
-282.516	153.690	-0.071	0.098
-281.501	-200.000	-0.014	0.206
-280.486	40.072	-0.147	0.133
-279.472	-25.382	-0.230	-0.136
-278.457	30.991	0.042	0.036
-277.443	122.642	0.150	-0.188
-276.428	-168.680	-0.268	0.010
-275.413	-57.727	-0.316	0.139
-274.399	-22.285	-0.193	0.117
-273.384	165.427	0.038	0.054
-272.370	-8.513	-0.206	0.139
-271.355	-43.017	0.038	-0.019
-270.340	42.515	0.090	-0.082
-269.326	-96.558	0.123	-0.033
-268.311	800.000	-0.044	0.160
-267.297	-98.713	-0.343	-0.088
-266.282	250.221	0.102	0.174
-265.267	60.552	-0.201	0.200
-264.253	800.000	-0.103	0.287
-263.238	250.092	-0.138	0.234
-262.224	-28.152	0.311	0.180
-261.209	-88.381	0.039	0.012
-260.195	-94.784	-0.196	-0.053
-259.180	-141.534	-0.187	0.019
-258.165	480.814	0.102	-0.231
-257.151	57.243	-0.249	-0.243
-256.136	102.794	0.156	-0.182
-255.122	4.427	-0.184	-0.135
-254.107	800.000	-0.034	-0.141
-253.092	31.891	0.185	-0.159
-252.078	112.239	0.013	0.015
-251.063	-200.000	0.038	-0.272
-250.049	63.093	0.317	0.318
-249.034	-137.154	-0.093	-0.011
-248.019	505.551	0.158	-0.367
-247.005	33.215	-0.246	-0.213
-245.990	91.859	-0.024	0.027
-244.976	-31.225	-0.095	0.053
-243.961	35.526	0.120	-0.106
-242.946	559.398	0.240	0.581
-241.932	252.196	-0.139	-0.236
-240.917	-200.000	-0.009	-0.074
-239.903	-93.185	-0.333	-0.093
-238.888	-45.035	0.140	-0.070
-237.873	800.000	0.174	-0.538
-236.859	-200.000	-0.059	0.334
-235.844	-45.984	-0.314	-0.155
-234.830	761.279	-0.041	-0.111
-233.815	-3.606	0.215	-0.149
-232.800	-40.215	-0.106	0.055
-231.786	373.476	-0.121	-0.247
-230.771	-200.000	0.008	0.125
-229.757	67.927	-0.159	-0.163
-228.742	296.736	0.041	0.076
-227.727	-84.915	0.157	0.049
-226.713	645.235	-0.068	0.175
-225.698	74.916	0.168	-0.177
-224.684	276.224	0.108	-0.192
-223.669	-152.760	0.223	0.016
-222.655	-37.890	0.156	0.083
-221.640	-200.000	0.033	-0.214
-220.625	154.580	0.141	-0.194
-219.611	-58.720	0.130	0.056
-218.596	679.025	-0.108	-0.282
-217.582	-36.982	-0.112	0.060
-216.567	-92.544	0.148	-0.041
-215.552	392.316	0.033	0.068
-214.538	-137.537	0.085	0.010
-213.523	-200.000	-0.025	0.633
-212.509	30.978	0.292	-0.250
-211.494	-36.816	-0.217	0.117
-210.479	349.570	-0.087	-0.172
-209.465	-165.244	0.399	0.018
-208.450	-136.823	-0.073	-0.008
-207.436	-200.000	-0.038	0.271
-206.421	-31.864	-0.101	-0.056
-205.406	538.092	0.113	-0.268
-204.392	-172.664	-0.257	0.008
-203.377	310.940	-0.040	-0.075
-202.363	-95.103	-0.114	-0.031
-201.348	163.491	0.116	-0.163
-200.333	-7.940	-0.327	0.221
-199.319	-39.366	-0.065	0.034
-198.304	-71.733	0.157	0.058
-197.290	-200.000	-0.067	0.319
-196.275	97.022	-0.099	0.114
-195.260	-200.000	-0.002	-0.108
-194.246	800.000	0.054	-0.163
-193.231	234.271	0.245	-0.403
-192.217	78.731	-0.149	-0.159
-191.202	-200.000	0.048	0.223
-190.187	-25.201	0.308	-0.182
-189.173	-191.944	-0.188	-0.002
-188.158	800.000	0.085	-0.270
-187.144	-200.000	-0.042	-0.201
-186.129	755.593	0.137	0.370
-185.114	-31.999	-0.057	0.032
-184.100	800.000	-0.085	-0.339
-183.085	-41.534	-0.336	-0.172
-182.071	-46.563	0.204	0.100
-181.056	-76.847	-0.116	-0.041
-180.042	-135.001	-0.075	0.009
-179.027	-200.000	-0.062	0.426
-178.012	82.221	0.350	0.379
-176.998	-125.848	0.145	0.022
-175.983	-200.000	0.055	0.270
-174.969	800.000	-0.070	0.275
-173.954	45.136	0.340	-0.313
-172.939	203.493	0.168	0.260
-171.925	-4.411	0.261	0.180
-170.910	-47.993	0.215	0.104
-169.896	248.647	-0.075	-0.126
-168.881	4.288	0.135	-0.099
-167.866	-200.000	0.007	0.082
-166.852	32.539	-0.115	0.099
-165.837	-55.216	0.220	-0.099
-164.823	-91.081	-0.183	-0.052
-163.808	50.442	0.038	-0.036
-162.793	504.616	0.189	-0.437
-161.779	-161.435	-0.169	-0.009
-160.764	201.338	0.114	-0.175
-159.750	-34.666	0.098	0.054
-158.735	-194.187	0.140	0.001
-157.720	-12.968	-0.224	-0.145
-156.706	265.223	-0.022	0.037
-155.691	77.927	0.124	0.132
-154.677	-200.000	0.015	-0.248
-153.662	-80.760	-0.176	-0.058
-152.647	-175.911	0.370	-0.010
-151.633	308.686	0.151	0.281
-150.618	-147.384	0.176	-0.015
-149.604	-200.000	0.007	-0.135
-148.589	207.404	-0.149	0.232
-147.574	67.638	0.192	0.196
-146.560	14.001	-0.141	-0.109
-145.545	35.571	0.145	0.127
-144.531	-200.000	0.038	0.185
-143.516	636.676	0.141	0.358
-142.502	-200.000	-0.007	0.043
-141.487	-33.303	-0.257	-0.142
-140.472	-3.434	0.301	0.209
-139.458	800.000	0.023	-0.068
-138.443	461.343	0.170	0.378
-137.429	-130.443	-0.421	0.057
-136.414	-59.939	0.327	0.139
-135.399	51.914	0.325	0.308
-134.385	-200.000	0.073	0.364
-133.370	83.285	-0.046	0.050
-132.356	-74.503	-0.360	0.129
-131.341	42.674	0.158	0.143
-130.326	72.556	0.147	0.153
-129.312	44.539	0.079	0.072
-128.297	800.000	0.082	0.232
-127.283	100.416	-0.263	0.304
-126.268	-15.017	0.181	0.116
-125.253	-200.000	-0.001	-0.128
-124.239	-129.564	-0.089	-0.012
-123.224	785.448	-0.065	-0.177
-122.210	-21.551	0.151	-0.092
-121.195	-200.000	0.022	0.134
-120.180	261.625	0.201	0.347
