DTS Sentinel unit serial number:	SN413079Multiplexer serial number:	ORYXHardware model number:	OX4-SRSoftware version number:	ORYX F/W v4.00 Oryx Data Collector v3.7.2.0data status	okinstallation	princeton_trtdifferential loss correction	single-endedforward channel	channel 3reverse channel	N/Adate	2019/09/11time	18:38:11forward acquisition time	60.00reverse acquisition time	0.00gamma	496.2192k internal	0.2288k external	0.2288temperature offset calibration	0.9995default loss term (dB/km)	0.3790temperature slope calibration	1.0000multiplexer offset coefficient	1.0000multiplexer slope coefficient	1.0000fibre end	0.00T internal ref (°C)	43.56T ext. ref 1 (°C)	1.18T ext. ref 2 (°C)	36.23length (m)	temperature (°C)	Stokes	anti-Stokes-747.200	-86.475	-0.223	0.070
-746.185	238.255	0.233	0.396
-745.171	584.492	-0.155	0.390
-744.156	-200.000	-0.023	0.328
-743.142	38.344	0.306	-0.279
-742.127	-178.342	0.187	0.004
-741.112	74.289	-0.081	0.087
-740.098	800.000	0.021	0.062
-739.083	28.923	-0.135	-0.118
-738.069	800.000	-0.190	0.688
-737.054	5.544	0.125	0.095
-736.039	286.308	-0.265	0.490
-735.025	-84.584	0.090	0.029
-734.010	176.065	-0.220	0.328
-732.996	312.890	-0.241	-0.464
-731.981	-136.114	0.349	0.042
-730.966	275.058	-0.083	0.150
-729.952	4.334	-0.171	-0.128
-728.937	96.632	-0.030	0.035
-727.923	800.000	-0.044	-0.191
-726.908	-200.000	-0.003	0.174
-725.894	-164.254	0.073	0.003
-724.879	800.000	0.078	-0.221
-723.864	-173.706	-0.251	-0.008
-722.850	-78.487	-0.157	0.055
-721.835	-24.272	0.138	-0.084
-720.821	-19.596	0.214	0.136
-719.806	-14.525	-0.044	0.029
-718.791	-147.573	-0.145	0.012
-717.777	784.769	-0.041	-0.114
-716.762	732.956	-0.015	-0.042
-715.748	-200.000	-0.034	-0.187
-714.733	-73.019	0.285	0.107
-713.718	398.404	-0.063	-0.135
-712.704	-4.858	0.083	-0.059
-711.689	-86.937	-0.380	-0.119
-710.675	178.760	0.123	0.184
-709.660	-16.693	-0.033	-0.022
-708.645	33.167	-0.256	-0.227
-707.631	487.499	-0.159	0.372
-706.616	-1.736	0.209	0.150
-705.602	-79.099	0.110	-0.038
-704.587	88.548	-0.127	-0.145
-703.572	-35.994	-0.367	-0.203
-702.558	-31.059	-0.305	-0.176
-701.543	179.544	-0.230	-0.345
-700.529	88.331	0.170	0.193
-699.514	-44.121	-0.127	-0.065
-698.499	53.346	-0.148	0.146
-697.485	45.449	-0.347	0.328
-696.470	251.748	0.198	0.345
-695.456	112.508	-0.160	0.198
-694.441	353.957	0.062	-0.126
-693.426	-200.000	0.013	-0.229
-692.412	800.000	0.132	0.413
-691.397	59.304	-0.199	0.201
-690.383	549.194	0.027	-0.066
-689.368	-200.000	0.040	-0.213
-688.354	109.713	0.190	0.233
-687.339	800.000	-0.047	-0.142
-686.324	-92.225	0.061	-0.018
-685.310	183.170	0.070	0.106
-684.295	-90.380	-0.188	-0.056
-683.281	15.156	0.188	-0.151
-682.266	-39.429	-0.131	0.070
-681.251	622.473	-0.065	0.168
-680.237	-169.329	-0.387	0.015
-679.222	331.058	0.136	-0.268
-678.208	-50.849	0.193	-0.093
-677.193	-24.760	-0.259	0.157
-676.178	-40.284	-0.103	0.055
-675.164	25.070	-0.148	-0.125
-674.149	800.000	0.016	0.047
-673.135	701.961	-0.116	-0.312
-672.120	62.375	0.226	0.230
-671.105	800.000	0.054	-0.225
-670.091	-149.848	-0.141	0.011
-669.076	800.000	0.068	0.280
-668.062	-151.083	0.362	-0.028
-667.047	-200.000	0.004	0.212
-666.032	-200.000	-0.006	0.115
-665.018	-20.210	-0.059	0.037
-664.003	800.000	0.063	0.206
-662.989	205.661	-0.324	0.514
-661.974	206.300	-0.082	0.130
-660.959	705.335	0.014	-0.036
-659.945	13.861	-0.091	-0.072
-658.930	-200.000	-0.039	0.268
-657.916	800.000	0.046	0.131
-656.901	-200.000	-0.039	-0.402
-655.886	112.431	0.298	0.368
-654.872	-26.286	-0.134	-0.080
-653.857	-28.829	-0.124	-0.073
-652.843	-200.000	0.016	-0.360
-651.828	-71.376	-0.169	-0.065
-650.814	79.741	0.203	-0.222
-649.799	38.623	-0.145	0.133
-648.784	67.702	0.106	0.110
-647.770	-39.645	-0.267	0.143
-646.755	-81.980	-0.328	-0.109
-645.741	-70.689	0.198	-0.076
-644.726	-200.000	-0.065	-0.637
-643.711	800.000	0.121	-0.531
-642.697	-138.367	0.119	-0.013
-641.682	252.418	-0.083	-0.145
-640.668	50.432	-0.142	-0.137
-639.653	-19.991	0.099	-0.062
-638.638	-200.000	-0.169	-0.001
-637.624	149.439	-0.085	-0.117
-636.609	4.082	0.101	0.075
-635.595	787.747	-0.061	-0.171
-634.580	-16.839	0.180	0.116
-633.565	-140.733	-0.208	0.022
-632.551	-200.000	-0.014	-0.371
-631.536	-165.397	0.092	-0.004
-630.522	82.355	-0.157	-0.174
-629.507	-106.993	0.293	0.066
-628.492	191.492	-0.159	-0.245
-627.478	34.553	-0.218	-0.195
-626.463	287.552	0.118	0.218
-625.449	800.000	-0.054	0.237
-624.434	-94.569	-0.180	0.050
-623.419	-72.102	0.317	-0.120
-622.405	369.626	-0.096	-0.199
-621.390	223.722	-0.155	0.255
-620.376	-159.289	-0.157	-0.009
-619.361	126.363	-0.219	-0.283
-618.346	-33.922	-0.097	0.054
-617.332	165.240	0.085	-0.122
-616.317	800.000	-0.104	-0.343
-615.303	314.973	0.270	-0.520
-614.288	591.048	-0.070	-0.175
-613.273	351.452	0.040	0.080
-612.259	-58.965	-0.108	-0.048
-611.244	465.807	-0.067	0.153
-610.230	209.831	0.025	-0.041
-609.215	310.432	-0.064	-0.122
-608.201	311.195	0.020	0.038
-607.186	-200.000	0.026	0.219
-606.171	14.869	-0.123	0.098
-605.157	-200.000	-0.007	0.044
-604.142	345.302	0.108	0.217
-603.128	146.144	-0.120	0.164
-602.113	-200.000	0.019	0.143
-601.098	552.092	0.098	0.240
-600.084	446.219	0.046	-0.104
-599.069	-200.000	-0.021	0.102
-598.055	16.990	0.224	0.181
-597.040	0.577	-0.044	0.032
-596.025	98.825	-0.031	0.037
-595.011	800.000	0.064	-0.285
-593.996	-140.561	0.316	-0.033
-592.982	17.906	-0.317	0.258
-591.967	800.000	0.036	-0.158
-590.952	-31.026	-0.392	0.226
-589.938	800.000	0.013	0.046
-588.923	266.868	-0.182	-0.325
-587.909	-87.214	0.239	-0.074
-586.894	-84.431	-0.115	0.037
-585.879	-11.879	0.235	0.157
-584.865	800.000	0.110	0.314
-583.850	-200.000	0.008	0.101
-582.836	-66.073	0.202	-0.082
-581.821	-184.165	-0.278	-0.005
-580.806	-200.000	0.021	0.181
-579.792	75.810	-0.043	0.047
-578.777	24.747	-0.092	-0.077
-577.763	-77.683	-0.217	0.076
-576.748	287.694	0.097	-0.179
-575.733	-200.000	0.003	-0.053
-574.719	402.088	0.104	0.222
-573.704	-4.782	-0.143	0.100
-572.690	800.000	-0.052	0.205
-571.675	-200.000	0.000	-0.151
-570.661	-51.480	0.070	0.033
-569.646	-88.339	0.292	0.089
-568.631	-190.373	-0.364	0.004
-567.617	125.395	-0.160	0.205
-566.602	-81.646	-0.185	0.062
-565.588	-37.842	0.084	-0.046
-564.573	-200.000	-0.006	-0.105
-563.558	-30.987	-0.124	0.071
-562.544	-200.000	-0.019	0.217
-561.529	-200.000	-0.069	-0.343
-560.515	-200.000	0.046	0.224
-559.500	55.052	-0.242	-0.238
-558.485	-200.000	0.033	0.182
-557.471	-56.538	0.533	-0.240
-556.456	74.306	0.117	0.125
-555.442	723.455	0.045	0.122
-554.427	-200.000	-0.005	0.257
-553.412	-97.989	-0.135	-0.035
-552.398	596.190	0.138	-0.348
-551.383	50.472	-0.236	-0.227
-550.369	-105.963	0.151	-0.035
-549.354	-140.733	-0.389	-0.041
-548.339	800.000	-0.015	0.054
-547.325	11.105	0.185	0.144
-546.310	-171.139	-0.248	-0.009
-545.296	-43.907	0.193	0.099
-544.281	146.653	0.148	-0.203
-543.266	-65.260	-0.238	0.098
-542.252	800.000	0.040	0.120
-541.237	187.653	-0.170	0.258
-540.223	300.161	0.114	0.214
-539.208	-31.547	0.164	0.094
-538.193	224.719	-0.195	0.320
-537.179	-131.921	-0.128	0.017
-536.164	-108.561	-0.242	-0.053
-535.150	51.845	-0.181	-0.175
-534.135	193.787	0.146	-0.224
-533.121	184.350	-0.146	0.220
-532.106	24.115	-0.045	0.038
-531.091	298.978	-0.180	-0.337
-530.077	-128.514	0.115	-0.017
-529.062	-200.000	0.001	-0.322
-528.048	800.000	-0.051	0.195
-527.033	-75.156	0.266	0.097
-526.018	-167.580	-0.071	0.003
-525.004	800.000	0.050	-0.200
-523.989	-94.608	-0.233	0.065
-522.975	-72.198	0.150	0.057
-521.960	-121.470	0.162	0.027
-520.945	-19.682	0.357	0.225
-519.931	-142.521	-0.163	-0.016
-518.916	381.307	0.028	-0.059
-517.902	50.688	0.339	-0.326
-516.887	449.528	-0.121	-0.272
-515.872	800.000	-0.180	-0.598
-514.858	-126.527	0.034	0.005
-513.843	194.584	-0.075	0.115
-512.829	87.305	-0.136	-0.153
-511.814	27.102	0.065	-0.056
-510.799	-76.494	-0.313	0.112
-509.785	15.996	0.065	0.052
-508.770	-0.827	0.069	0.049
-507.756	-200.000	-0.012	0.078
-506.741	654.634	0.008	0.020
-505.726	-148.707	0.476	0.039
-504.712	-9.169	-0.249	-0.169
-503.697	200.652	-0.092	-0.143
-502.683	-31.184	0.220	0.126
-501.668	-67.845	0.132	-0.052
-500.653	-200.000	0.114	-0.000
-499.639	309.814	-0.009	-0.017
-498.624	-130.639	-0.370	-0.051
-497.610	107.358	-0.051	0.062
-496.595	761.828	0.039	0.108
-495.581	-200.000	0.052	-0.370
-494.566	-200.000	-0.006	-0.190
-493.551	800.000	0.050	-0.196
-492.537	75.741	0.063	0.068
-491.522	800.000	-0.053	0.159
-490.508	-91.807	0.198	0.057
-489.493	-200.000	0.027	0.636
-488.478	-120.171	0.279	0.048
-487.464	-21.066	0.124	-0.077
-486.449	55.077	0.233	-0.228
-485.435	-200.000	0.015	-0.067
-484.420	-200.000	-0.004	0.112
-483.405	63.812	0.083	-0.085
-482.391	-200.000	-0.017	0.329
-481.376	-124.010	-0.372	0.059
-480.362	-11.671	-0.200	-0.134
-479.347	21.699	-0.125	0.103
-478.332	457.454	-0.162	0.365
-477.318	199.779	-0.051	0.080
-476.303	800.000	0.046	0.179
-475.289	686.979	0.089	0.235
-474.274	54.337	-0.225	-0.220
-473.259	574.463	0.070	0.172
-472.245	800.000	-0.054	0.228
-471.230	31.534	0.071	0.062
-470.216	-200.000	0.012	0.056
-469.201	-80.768	-0.225	-0.076
-468.186	-40.173	-0.191	0.101
-467.172	-171.917	0.191	-0.006
-466.157	26.147	0.074	0.063
-465.143	-33.774	-0.178	0.100
-464.128	-200.000	-0.036	0.333
-463.113	38.890	0.134	0.122
-462.099	-200.000	-0.056	-0.528
-461.084	75.856	0.150	-0.161
-460.070	-95.282	-0.155	-0.042
-459.055	-200.000	0.003	-0.191
-458.040	-47.949	0.247	0.121
-457.026	-78.202	-0.106	0.037
-456.011	58.034	0.141	0.140
-454.997	-114.497	-0.418	0.081
-453.982	40.904	-0.391	0.357
-452.968	-125.914	0.178	0.027
-451.953	-151.416	0.322	-0.024
-450.938	408.488	-0.081	-0.173
-449.924	-200.000	-0.025	0.308
-448.909	-64.952	-0.529	-0.217
-447.895	-179.174	0.293	-0.007
-446.880	39.880	0.086	0.078
-445.865	-44.077	0.154	0.078
-444.851	205.543	0.176	0.276
-443.836	120.434	0.186	-0.234
-442.822	-48.883	0.137	-0.066
-441.807	458.032	0.168	-0.378
-440.792	-95.902	-0.071	-0.019
-439.778	800.000	0.027	-0.111
-438.763	41.941	0.221	-0.203
-437.749	-135.990	-0.358	-0.043
-436.734	-180.201	0.060	-0.001
-435.719	149.807	-0.157	-0.216
-434.705	-34.652	0.057	-0.032
-433.690	7.268	0.152	0.115
-432.676	-117.588	0.124	0.023
-431.661	-200.000	-0.014	0.249
-430.646	-107.630	-0.273	0.061
-429.632	0.913	0.045	-0.033
-428.617	665.635	-0.119	0.311
-427.603	-111.271	0.065	0.014
-426.588	800.000	0.029	0.095
-425.573	-10.840	-0.069	-0.046
-424.559	21.305	-0.085	-0.070
-423.544	150.512	0.107	0.147
-422.530	-1.599	0.097	0.069
-421.515	-96.314	0.276	-0.074
-420.500	722.882	-0.087	-0.235
-419.486	-13.556	-0.459	-0.301
-418.471	39.812	0.099	0.090
-417.457	800.000	-0.074	0.243
-416.442	800.000	-0.085	0.242
-415.428	47.603	0.116	0.110
-414.413	472.406	-0.154	-0.350
-413.398	41.093	0.102	0.093
-412.384	-130.671	0.183	0.025
-411.369	418.285	-0.107	-0.231
-410.355	-152.612	0.249	-0.018
-409.340	-123.971	0.236	0.038
-408.325	-200.000	0.058	0.336
-407.311	88.804	0.129	-0.146
-406.296	-200.000	-0.013	0.297
-405.282	710.868	-0.018	0.047
-404.267	-77.205	0.345	0.122
-403.252	89.229	0.139	0.157
-402.238	-36.190	0.214	-0.117
-401.223	144.063	0.007	0.010
-400.209	-200.000	-0.006	0.221
-399.194	-160.894	0.357	0.019
-398.179	78.458	0.195	-0.211
-397.165	-78.389	0.146	0.051
-396.150	-200.000	-0.024	-0.509
-395.136	-106.623	0.137	-0.031
-394.121	20.314	-0.217	-0.177
-393.106	8.039	-0.264	0.201
-392.092	800.000	-0.045	0.148
-391.077	-137.747	-0.207	0.023
-390.063	7.741	-0.181	-0.137
-389.048	49.116	-0.064	0.061
-388.033	-151.234	0.367	0.028
-387.019	63.175	-0.214	-0.216
-386.004	-200.000	-0.015	-0.396
-384.990	-200.000	-0.022	0.308
-383.975	-85.150	-0.343	0.108
-382.960	-139.782	0.105	0.011
-381.946	-200.000	-0.048	-0.299
-380.931	764.499	-0.015	-0.040
-379.917	-21.342	0.111	-0.069
-378.902	-97.625	-0.307	0.080
-377.888	-48.507	0.173	0.084
-376.873	-200.000	-0.021	-0.180
-375.858	139.933	-0.177	0.236
-374.844	-200.000	-0.038	-0.387
-373.829	236.202	-0.030	-0.051
-372.815	501.261	-0.029	0.067
-371.800	-25.012	0.104	-0.062
-370.785	-65.215	-0.228	0.093
-369.771	168.608	-0.109	-0.157
-368.756	200.697	-0.061	-0.094
-367.742	100.801	0.097	0.114
-366.727	-14.579	0.119	-0.077
-365.712	-183.271	-0.254	0.004
-364.698	-34.962	-0.308	0.170
-363.683	606.731	0.067	-0.169
-362.669	-200.000	-0.031	-0.199
-361.654	-43.425	0.063	-0.032
-360.639	-200.000	-0.029	0.465
-359.625	-12.539	-0.210	0.139
-358.610	-200.000	0.020	-0.159
-357.596	-60.488	0.278	0.119
-356.581	103.040	-0.141	-0.167
-355.566	-200.000	-0.017	0.093
-354.552	-70.321	0.310	-0.119
-353.537	-95.294	0.155	-0.042
-352.523	-200.000	0.012	-0.085
-351.508	558.179	0.040	-0.097
-350.493	-200.000	-0.017	-0.101
-349.479	-127.323	-0.127	-0.019
-348.464	56.731	-0.255	0.251
-347.450	83.260	-0.054	-0.060
-346.435	-129.936	-0.130	-0.018
-345.420	-111.075	0.241	0.050
-344.406	-119.315	0.162	-0.028
-343.391	-144.575	0.447	0.042
-342.377	-200.000	0.021	-0.342
-341.362	-12.478	-0.167	0.110
-340.348	-79.608	-0.371	0.126
-339.333	-117.752	-0.250	-0.045
-338.318	-80.292	-0.210	-0.071
-337.304	800.000	0.044	-0.154
-336.289	-130.787	-0.180	0.024
-335.275	800.000	-0.021	0.083
-334.260	800.000	-0.051	0.223
-333.245	-181.756	-0.296	-0.006
-332.231	34.923	-0.327	-0.289
-331.216	120.278	-0.251	0.314
-330.202	244.335	-0.189	-0.320
-329.187	88.013	0.253	-0.284
-328.172	800.000	0.054	0.204
-327.158	77.660	-0.354	-0.380
-326.143	124.473	-0.059	0.074
-325.129	-39.730	0.165	-0.087
-324.114	-66.936	-0.057	-0.023
-323.099	-37.604	-0.251	0.135
-322.085	299.359	0.059	0.110
-321.070	-14.978	-0.239	-0.155
-320.056	800.000	0.049	0.214
-319.041	9.571	-0.067	0.051
-318.026	-200.000	0.014	0.282
-317.012	-90.918	-0.171	-0.050
-315.997	-108.765	0.064	-0.014
-314.983	-86.437	0.097	-0.030
-313.968	-200.000	0.059	-0.321
-312.953	111.438	0.103	0.125
-311.939	-25.770	0.206	0.123
-310.924	72.523	-0.139	0.146
-309.910	518.324	-0.083	0.195
-308.895	268.534	0.081	0.144
-307.880	-72.973	0.281	0.104
-306.866	-186.701	-0.191	0.003
-305.851	800.000	-0.021	-0.080
-304.837	-200.000	0.021	0.180
-303.822	214.713	0.126	0.202
-302.807	103.051	-0.102	0.121
-301.793	143.996	0.064	-0.087
-300.778	63.847	0.267	0.270
-299.764	-200.000	0.057	-0.264
-298.749	-35.849	-0.240	-0.131
-297.735	800.000	0.028	-0.092
-296.720	-156.520	0.303	0.019
-295.705	132.326	-0.228	0.296
-294.691	-23.897	0.294	-0.177
-293.676	4.069	-0.107	-0.079
-292.662	371.870	0.170	-0.347
-291.647	8.203	-0.344	0.260
-290.632	-63.814	-0.253	0.105
-289.618	-200.000	-0.007	-0.095
-288.603	10.154	-0.053	-0.041
-287.589	-108.922	0.169	-0.036
-286.574	-76.749	-0.453	0.160
-285.559	-91.105	0.238	0.069
-284.545	-200.000	0.006	-0.173
-283.530	371.518	-0.160	-0.328
-282.516	-62.622	-0.246	0.103
-281.501	78.067	0.102	0.110
-280.486	18.153	-0.094	0.076
-279.472	-159.287	0.256	-0.014
-278.457	-200.000	-0.026	-0.201
-277.443	-200.000	-0.019	0.105
-276.428	-77.024	0.232	0.081
-275.413	800.000	-0.092	0.323
-274.399	-85.797	0.108	-0.034
-273.384	-43.346	0.177	0.090
-272.370	65.091	-0.115	-0.117
-271.355	-72.304	-0.487	0.182
-270.340	-200.000	0.014	0.171
-269.326	800.000	-0.064	-0.181
-268.311	-200.000	-0.013	0.150
-267.297	800.000	0.016	0.065
-266.282	139.353	-0.100	-0.132
-265.267	-200.000	-0.012	0.060
-264.253	75.564	0.165	0.176
-263.238	5.555	-0.159	0.118
-262.224	-109.478	0.154	-0.033
-261.209	271.992	-0.201	0.356
-260.195	24.084	0.416	-0.346
-259.180	-42.913	0.312	-0.159
-258.165	-200.000	0.009	-0.059
-257.151	-126.396	0.341	-0.051
-256.136	-80.159	0.199	0.067
-255.122	155.344	-0.177	0.245
-254.107	33.144	0.315	-0.275
-253.092	165.633	0.162	-0.230
-252.078	369.416	-0.052	0.105
-251.063	102.470	-0.055	0.065
-250.049	-98.370	0.145	-0.037
-249.034	-75.654	0.218	-0.078
-248.019	21.305	-0.129	-0.106
-247.005	-60.148	0.058	-0.025
-245.990	-7.707	0.178	0.121
-244.976	25.688	0.115	0.096
-243.961	-82.655	0.374	-0.122
-242.946	177.017	-0.088	0.129
-241.932	87.769	0.126	-0.141
-240.917	190.725	-0.078	0.118
-239.903	42.773	-0.021	-0.019
-238.888	366.049	-0.087	0.176
-237.873	-66.950	-0.157	0.062
-236.859	-128.954	0.489	0.069
-235.844	800.000	0.025	-0.077
-234.830	-0.491	0.163	-0.116
-233.815	-200.000	-0.060	-0.367
-232.800	291.271	-0.064	0.117
-231.786	-93.345	-0.262	-0.073
-230.771	-200.000	0.034	-0.378
-229.757	-200.000	0.007	-0.274
-228.742	216.986	-0.125	-0.200
-227.727	218.381	0.212	0.340
-226.713	14.421	0.459	-0.360
-225.698	-162.949	-0.034	0.002
-224.684	-117.309	0.107	0.019
-223.669	-104.721	0.271	-0.063
-222.655	97.983	-0.008	0.009
-221.640	690.566	0.078	0.205
-220.625	198.987	0.071	-0.109
-219.611	15.185	0.340	0.268
-218.596	800.000	0.064	-0.263
-217.582	-51.730	0.313	-0.146
-216.567	-200.000	-0.052	0.268
-215.552	217.090	0.108	0.172
-214.538	607.439	0.047	0.118
-213.523	-29.944	-0.400	0.229
-212.509	758.763	-0.080	0.218
-211.494	404.168	-0.189	0.400
-210.479	-105.969	-0.083	0.019
-209.465	276.969	-0.103	0.184
-208.450	-200.000	0.030	0.200
-207.436	-200.000	-0.033	-0.190
-206.421	174.599	-0.064	-0.093
-205.406	-80.133	0.170	-0.057
-204.392	-1.907	-0.067	-0.047
-203.377	-97.825	0.098	-0.025
-202.363	800.000	-0.048	-0.195
-201.348	-54.245	-0.153	-0.070
-200.333	-101.479	0.079	-0.019
-199.319	-200.000	0.005	-0.218
-198.304	-154.372	0.281	-0.019
-197.290	-14.356	-0.247	0.160
-196.275	-51.365	0.178	-0.084
-195.260	-200.000	0.029	-0.161
-194.246	65.025	-0.113	0.115
-193.231	-200.000	0.020	-0.458
-192.217	107.324	0.099	-0.119
-191.202	-18.921	-0.046	-0.029
-190.187	63.246	-0.154	-0.155
-189.173	-57.309	-0.259	0.114
-188.158	800.000	0.026	0.083
-187.144	-25.826	0.137	0.081
-186.129	800.000	-0.057	0.206
-185.114	800.000	-0.033	0.144
-184.100	-84.035	-0.213	0.068
-183.085	192.097	-0.090	0.137
-182.071	800.000	-0.089	-0.267
-181.056	-35.767	0.369	-0.200
-180.042	56.731	0.259	-0.253
-179.027	147.749	0.126	-0.170
-178.012	-75.411	-0.217	-0.078
-176.998	-100.746	-0.153	0.038
-175.983	239.278	0.101	0.169
-174.969	-109.453	-0.132	0.028
-173.954	-77.901	0.331	0.115
-172.939	5.710	0.171	0.127
-171.925	-137.322	0.241	0.027
-170.910	-113.402	-0.151	-0.030
-169.896	800.000	-0.088	-0.275
-168.881	-200.000	-0.035	0.218
-167.866	-61.899	0.344	0.144
-166.852	-38.125	-0.078	0.041
-165.837	-88.894	0.435	-0.129
-164.823	-114.877	0.227	0.043
-163.808	-118.203	-0.209	0.037
-162.793	237.608	0.194	-0.323
-161.779	-131.088	0.368	-0.049
-160.764	-12.209	-0.363	0.238
-159.750	31.813	-0.245	0.211
-158.735	-87.438	-0.178	-0.054
-157.720	-4.337	0.129	-0.089
-156.706	800.000	0.010	0.032
-155.691	-52.492	0.066	0.030
-154.677	455.394	-0.150	0.334
-153.662	26.623	-0.180	0.151
-152.647	18.626	0.264	-0.212
-151.633	800.000	-0.089	0.372
-150.618	-47.844	0.199	0.097
-149.604	800.000	0.103	-0.394
-148.589	34.925	0.305	-0.267
-147.574	-100.575	0.281	0.070
-146.560	-200.000	-0.024	-0.309
-145.545	-200.000	0.012	-0.086
-144.531	657.382	0.092	-0.237
-143.516	10.349	0.238	0.181
-142.502	214.174	0.030	0.047
-141.487	-176.663	-0.241	-0.006
-140.472	-67.776	-0.069	-0.027
-139.458	103.602	-0.129	0.151
-138.443	550.167	-0.033	-0.079
-137.429	-200.000	0.001	0.254
-136.414	-123.544	0.299	-0.048
-135.399	-3.199	-0.021	-0.015
-134.385	-62.669	0.356	0.148
-133.370	-93.489	-0.247	0.068
-132.356	426.329	-0.204	-0.440
-131.341	-60.254	0.110	0.047
-130.326	-194.978	0.071	-0.001
-129.312	-160.198	0.087	-0.005
-128.297	-95.284	0.364	0.098
-127.283	88.454	-0.165	-0.184
-126.268	-3.760	-0.054	-0.038
-125.253	39.699	-0.187	-0.168
-124.239	-200.000	0.011	-0.374
-123.224	16.869	-0.179	0.142
-122.210	-99.558	-0.236	-0.059
-121.195	95.728	0.148	0.169
-120.180	29.243	0.247	0.209
