DTS Sentinel unit serial number:	SN413079Multiplexer serial number:	ORYXHardware model number:	OX4-SRSoftware version number:	ORYX F/W v4.00 Oryx Data Collector v3.7.2.0data status	okinstallation	princeton_trtdifferential loss correction	single-endedforward channel	channel 3reverse channel	N/Adate	2019/09/11time	07:14:10forward acquisition time	60.00reverse acquisition time	0.00gamma	496.2192k internal	0.2327k external	0.2327temperature offset calibration	0.9901default loss term (dB/km)	0.3790temperature slope calibration	1.0000multiplexer offset coefficient	1.0000multiplexer slope coefficient	1.0000fibre end	0.00T internal ref (°C)	30.50T ext. ref 1 (°C)	-0.06T ext. ref 2 (°C)	26.80length (m)	temperature (°C)	Stokes	anti-Stokes-747.200	156.035	-0.095	-0.132
-746.185	304.872	0.100	0.188
-745.171	-200.000	-0.027	0.273
-744.156	126.250	-0.199	0.254
-743.142	-100.119	-0.017	0.004
-742.127	-200.000	-0.009	0.188
-741.112	-82.373	0.053	-0.017
-740.098	-92.336	-0.151	-0.043
-739.083	476.437	0.170	-0.388
-738.069	-110.104	-0.117	-0.025
-737.054	-119.389	0.316	0.055
-736.039	-56.306	-0.332	0.149
-735.025	546.076	0.175	0.422
-734.010	-50.820	-0.072	-0.034
-732.996	71.934	0.101	-0.106
-731.981	-18.113	-0.246	0.155
-730.966	56.642	-0.181	0.177
-729.952	-28.617	0.319	0.185
-728.937	624.792	-0.056	-0.141
-727.923	685.049	0.111	-0.292
-726.908	-164.902	-0.331	-0.015
-725.894	-14.655	0.149	0.096
-724.879	-157.257	-0.397	0.024
-723.864	153.524	-0.151	-0.208
-722.850	-73.543	-0.243	-0.089
-721.835	-80.007	-0.031	-0.011
-720.821	-59.210	-0.299	-0.130
-719.806	174.940	0.009	0.013
-718.791	-200.000	0.024	-0.319
-717.777	19.563	0.272	0.220
-716.762	168.839	0.130	0.186
-715.748	-138.619	-0.331	-0.037
-714.733	276.987	0.057	0.103
-713.718	26.464	0.204	-0.171
-712.704	-121.672	-0.307	-0.051
-711.689	197.304	-0.088	-0.135
-710.675	-77.602	0.334	-0.116
-709.660	405.082	0.126	-0.268
-708.645	800.000	-0.077	-0.293
-707.631	-119.879	0.393	-0.068
-706.616	-116.827	0.036	0.007
-705.602	182.749	-0.085	0.126
-704.587	-200.000	0.070	0.468
-703.572	298.858	0.069	0.128
-702.558	-91.591	0.351	-0.101
-701.543	214.564	-0.178	0.284
-700.529	-91.144	-0.149	0.043
-699.514	123.677	0.117	-0.148
-698.499	127.074	-0.205	-0.261
-697.485	-130.480	-0.087	-0.012
-696.470	6.172	-0.183	-0.136
-695.456	-200.000	0.006	0.161
-694.441	-155.404	-0.372	-0.024
-693.426	-111.157	0.178	-0.037
-692.412	152.210	0.058	-0.080
-691.397	-123.351	0.087	-0.014
-690.383	117.081	-0.439	-0.543
-689.368	-71.369	-0.086	-0.033
-688.354	133.842	-0.030	0.038
-687.339	-145.347	0.393	0.036
-686.324	299.751	0.145	0.269
-685.310	800.000	-0.044	-0.187
-684.295	-130.658	-0.228	-0.031
-683.281	238.175	-0.067	0.112
-682.266	-200.000	-0.021	-0.133
-681.251	-200.000	0.006	-0.115
-680.237	800.000	0.031	0.117
-679.222	-19.742	-0.081	0.050
-678.208	57.661	-0.077	0.076
-677.193	-200.000	-0.025	-0.623
-676.178	-157.683	0.232	-0.014
-675.164	152.332	0.095	-0.131
-674.149	-128.140	-0.086	-0.012
-673.135	-157.982	0.210	0.012
-672.120	-125.490	0.222	0.034
-671.105	-107.606	-0.097	0.021
-670.091	800.000	0.043	-0.177
-669.076	-200.000	-0.034	-0.207
-668.062	150.145	0.158	0.216
-667.047	-16.601	-0.311	0.198
-666.032	800.000	0.075	0.306
-665.018	-200.000	0.097	-0.455
-664.003	-200.000	-0.028	-0.191
-662.989	446.326	-0.093	0.205
-661.974	211.762	-0.117	0.185
-660.959	790.864	0.048	0.132
-659.945	-200.000	-0.071	-0.364
-658.930	-103.786	-0.301	0.071
-657.916	800.000	-0.057	0.197
-656.901	406.869	-0.050	0.106
-655.886	-200.000	0.012	0.128
-654.872	-148.742	-0.197	-0.016
-653.857	120.031	0.096	-0.119
-652.843	314.900	-0.031	-0.059
-651.828	800.000	-0.047	0.144
-650.814	192.826	-0.103	-0.157
-649.799	-200.000	0.051	0.430
-648.784	-53.393	-0.155	-0.071
-647.770	-23.633	0.218	0.131
-646.755	-85.038	-0.291	-0.092
-645.741	-200.000	0.000	-0.158
-644.726	635.937	-0.037	0.094
-643.711	800.000	-0.041	-0.133
-642.697	-89.224	-0.420	0.124
-641.682	137.937	0.192	-0.252
-640.668	-200.000	0.010	-0.161
-639.653	-200.000	0.005	-0.081
-638.638	223.949	-0.150	-0.243
-637.624	164.629	0.211	-0.299
-636.609	384.349	-0.034	-0.070
-635.595	-121.511	-0.317	0.053
-634.580	-24.370	-0.281	0.168
-633.565	42.838	0.131	-0.119
-632.551	-61.788	-0.179	0.075
-631.536	-95.984	0.146	-0.039
-630.522	-200.000	-0.023	0.200
-629.507	-112.852	0.164	0.033
-628.492	95.400	0.328	-0.375
-627.478	-111.990	0.134	0.027
-626.463	190.318	0.282	-0.425
-625.449	28.132	-0.052	-0.044
-624.434	-63.611	0.197	-0.081
-623.419	-200.000	0.009	-0.055
-622.405	-137.569	0.110	0.012
-621.390	-31.412	-0.213	0.120
-620.376	-75.753	0.130	0.046
-619.361	-50.001	-0.327	0.155
-618.346	271.084	-0.042	0.074
-617.332	193.257	-0.144	-0.218
-616.317	-45.380	-0.130	0.065
-615.303	9.385	-0.342	0.259
-614.288	800.000	0.186	-0.541
-613.273	96.489	0.122	-0.140
-612.259	-124.634	-0.114	-0.018
-611.244	800.000	-0.121	-0.366
-610.230	-200.000	-0.001	-0.226
-609.215	39.118	-0.125	0.112
-608.201	-15.895	0.485	0.310
-607.186	-200.000	-0.031	-0.239
-606.171	132.408	-0.147	-0.190
-605.157	76.133	-0.193	-0.204
-604.142	-78.032	0.309	0.107
-603.128	-200.000	-0.001	0.014
-602.113	-200.000	-0.040	-0.386
-601.098	487.178	0.129	-0.294
-600.084	-72.179	-0.119	-0.044
-599.069	-92.075	-0.440	0.125
-598.055	-62.558	0.071	-0.030
-597.040	800.000	0.064	-0.206
-596.025	460.613	0.144	0.322
-595.011	-47.777	-0.099	-0.048
-593.996	182.070	0.216	-0.318
-592.982	-200.000	-0.002	0.057
-591.967	98.290	0.104	-0.120
-590.952	-200.000	-0.040	-0.411
-589.938	-107.525	-0.155	0.034
-588.923	5.870	0.114	-0.084
-587.909	53.960	0.239	0.230
-586.894	64.750	0.063	0.064
-585.879	63.466	-0.128	-0.129
-584.865	423.589	0.031	-0.067
-583.850	2.823	-0.368	0.267
-582.836	108.002	-0.090	-0.107
-581.821	25.554	0.241	0.201
-580.806	253.829	-0.053	0.091
-579.792	-200.000	0.004	-0.047
-578.777	265.761	0.107	-0.188
-577.763	800.000	-0.067	-0.291
-576.748	800.000	-0.035	-0.120
-575.733	-200.000	0.015	-0.338
-574.719	622.998	0.165	-0.416
-573.704	-200.000	-0.007	-0.296
-572.690	537.636	-0.048	-0.114
-571.675	41.446	0.165	0.149
-570.661	800.000	-0.105	0.306
-569.646	-200.000	0.022	0.329
-568.631	66.127	0.070	0.071
-567.617	281.148	-0.052	-0.094
-566.602	-123.014	-0.146	0.023
-565.588	-200.000	-0.077	-0.431
-564.573	-63.528	-0.437	-0.180
-563.558	29.157	0.009	-0.007
-562.544	-83.849	-0.190	-0.060
-561.529	-200.000	-0.003	-0.319
-560.515	-35.456	0.094	-0.051
-559.500	56.439	0.272	0.265
-558.485	136.287	-0.065	-0.085
-557.471	442.782	-0.081	0.177
-556.456	551.488	0.050	0.120
-555.442	31.528	0.304	-0.262
-554.427	273.356	-0.111	0.197
-553.412	-124.880	0.222	0.034
-552.398	554.445	-0.070	0.169
-551.383	-55.359	0.279	0.125
-550.369	-12.205	0.104	0.068
-549.354	-139.675	-0.420	0.045
-548.339	-35.330	0.049	0.027
-547.325	800.000	-0.035	-0.107
-546.310	74.227	-0.113	-0.118
-545.296	5.591	-0.132	-0.098
-544.281	-68.711	0.257	0.099
-543.266	-121.208	0.187	-0.031
-542.252	3.899	-0.105	0.076
-541.237	-34.100	0.291	-0.160
-540.223	731.323	0.119	0.318
-539.208	-197.308	0.147	-0.001
-538.193	27.033	0.091	-0.077
-537.179	104.501	0.120	-0.141
-536.164	19.421	-0.195	0.157
-535.150	-200.000	-0.060	0.292
-534.135	393.208	-0.306	0.637
-533.121	25.231	0.112	-0.093
-532.106	351.505	-0.122	0.242
-531.091	-94.328	-0.188	0.051
-530.077	-87.655	-0.068	-0.021
-529.062	336.963	-0.181	0.352
-528.048	653.889	0.054	-0.139
-527.033	-28.338	-0.366	-0.211
-526.018	150.707	-0.135	-0.183
-525.004	260.566	0.022	-0.039
-523.989	-142.757	0.310	-0.030
-522.975	-72.218	0.176	-0.065
-521.960	88.261	0.112	0.124
-520.945	7.485	-0.123	-0.092
-519.931	-111.876	-0.269	0.054
-518.916	-91.190	0.120	0.034
-517.902	146.983	0.048	0.064
-516.887	-16.511	-0.328	-0.208
-515.872	-200.000	-0.015	0.404
-514.858	-10.625	0.318	0.210
-513.843	-69.821	-0.387	0.148
-512.829	-65.318	-0.417	-0.167
-511.814	-76.507	0.149	-0.052
-510.799	-130.760	-0.180	-0.024
-509.785	230.559	-0.103	-0.168
-508.770	217.310	-0.152	0.242
-507.756	800.000	-0.069	0.202
-506.741	-200.000	-0.001	0.310
-505.726	-10.057	-0.036	0.024
-504.712	800.000	0.054	-0.207
-503.697	-200.000	0.050	-0.224
-502.683	-200.000	-0.007	-0.414
-501.668	-43.646	0.051	-0.025
-500.653	446.654	-0.013	-0.028
-499.639	-35.836	-0.188	-0.102
-498.624	-147.605	-0.168	-0.014
-497.610	175.650	0.031	0.044
-496.595	9.117	0.112	0.084
-495.581	-200.000	0.028	-0.373
-494.566	-37.491	-0.090	0.048
-493.551	-63.640	0.179	-0.073
-492.537	-160.517	-0.401	-0.021
-491.522	66.779	-0.236	-0.240
-490.508	-39.803	0.177	-0.092
-489.493	-200.000	-0.005	-0.263
-488.478	-18.275	0.184	0.115
-487.464	-175.546	-0.265	0.007
-486.449	-200.000	0.067	0.358
-485.435	123.280	0.173	0.217
-484.420	-133.113	0.341	-0.043
-483.405	-200.000	0.014	0.231
-482.391	-100.018	-0.217	-0.054
-481.376	108.558	-0.240	0.286
-480.362	-142.754	0.322	-0.031
-479.347	-200.000	0.023	-0.226
-478.332	-1.087	-0.347	0.245
-477.318	335.417	0.108	-0.209
-476.303	145.728	-0.146	-0.196
-475.289	-112.745	0.355	-0.070
-474.274	0.681	-0.347	0.248
-473.259	-133.683	0.207	-0.026
-472.245	-200.000	-0.012	-0.074
-471.230	647.368	0.066	0.169
-470.216	221.640	-0.138	-0.221
-469.201	-65.959	0.217	-0.086
-468.186	-37.669	0.146	-0.077
-467.172	800.000	-0.132	-0.501
-466.157	-182.557	0.201	0.004
-465.143	-0.757	-0.047	-0.033
-464.128	-39.830	-0.130	-0.068
-463.113	-58.184	-0.456	-0.198
-462.099	201.536	-0.104	-0.159
-461.084	148.914	0.232	0.312
-460.070	-200.000	0.020	0.232
-459.055	-71.856	-0.134	-0.050
-458.040	-150.061	0.309	-0.024
-457.026	-114.386	0.307	0.059
-456.011	-30.119	0.306	-0.174
-454.997	800.000	-0.070	-0.240
-453.982	522.946	0.097	0.227
-452.968	78.483	-0.076	-0.081
-451.953	800.000	0.057	-0.190
-450.938	-92.649	-0.155	-0.043
-449.924	-82.560	-0.330	-0.107
-448.909	-54.230	-0.260	-0.118
-447.895	-200.000	-0.007	0.041
-446.880	-154.407	-0.079	-0.005
-445.865	54.642	-0.121	0.117
-444.851	-200.000	-0.029	-0.167
-443.836	-200.000	0.032	-0.163
-442.822	-162.528	0.215	0.011
-441.807	103.960	-0.151	-0.176
-440.792	-200.000	0.018	-0.153
-439.778	-200.000	-0.011	0.263
-438.763	800.000	-0.050	-0.177
-437.749	14.794	-0.272	0.212
-436.734	-200.000	0.033	0.148
-435.719	-27.771	-0.232	-0.134
-434.705	-9.649	-0.267	-0.177
-433.690	-182.693	0.248	-0.004
-432.676	19.774	-0.236	0.189
-431.661	56.792	-0.370	-0.359
-430.646	-92.835	-0.129	0.036
-429.632	-51.475	-0.058	-0.027
-428.617	142.262	0.206	-0.273
-427.603	233.635	0.217	0.356
-426.588	200.577	-0.132	0.202
-425.573	132.347	0.212	0.272
-424.559	153.625	0.233	0.317
-423.544	-200.000	0.029	0.222
-422.530	298.390	-0.026	0.048
-421.515	-60.602	0.228	0.096
-420.500	-181.375	0.126	-0.002
-419.486	-133.700	0.151	0.019
-418.471	-23.587	0.128	-0.076
-417.457	-132.706	0.381	-0.049
-416.442	13.508	-0.219	-0.169
-415.428	-149.130	-0.131	-0.010
-414.413	-187.840	-0.064	-0.001
-413.398	-200.000	0.034	-0.275
-412.384	611.619	0.115	0.287
-411.369	-22.156	-0.054	-0.033
-410.355	373.059	-0.352	-0.711
-409.340	-70.894	0.281	-0.105
-408.325	-33.067	-0.391	-0.216
-407.311	-82.073	-0.263	0.085
-406.296	-111.392	-0.177	0.036
-405.282	71.538	-0.060	-0.062
-404.267	-5.934	-0.156	0.106
-403.252	-200.000	-0.009	-0.117
-402.238	-114.064	0.131	0.025
-401.223	-26.515	0.353	0.206
-400.209	335.342	-0.033	-0.063
-399.194	352.189	0.163	-0.321
-398.179	-200.000	0.048	0.298
-397.165	800.000	-0.036	0.132
-396.150	-103.521	0.187	0.044
-395.136	24.771	-0.272	-0.224
-394.121	439.404	0.012	-0.026
-393.106	800.000	0.095	0.267
-392.092	-9.655	0.273	0.181
-391.077	-78.329	0.063	0.022
-390.063	800.000	0.090	0.304
-389.048	144.820	-0.079	0.105
-388.033	800.000	-0.089	0.358
-387.019	-5.914	0.086	-0.058
-386.004	192.524	-0.198	-0.297
-384.990	-200.000	-0.005	0.045
-383.975	122.803	0.073	0.091
-382.960	-76.859	-0.076	-0.026
-381.946	-69.692	0.387	0.147
-380.931	-131.315	0.230	-0.030
-379.917	-31.460	-0.165	0.092
-378.902	-200.000	0.011	-0.259
-377.888	111.678	-0.121	0.146
-376.873	40.102	0.097	-0.087
-375.858	673.657	-0.046	0.120
-374.844	800.000	0.088	-0.279
-373.829	-47.883	0.203	0.098
-372.815	322.686	-0.174	-0.329
-371.800	-71.988	0.354	0.131
-370.785	-104.890	0.225	0.051
-369.771	162.827	0.047	-0.066
-368.756	800.000	-0.029	-0.106
-367.742	-189.224	0.446	0.005
-366.727	42.955	-0.119	-0.108
-365.712	392.997	-0.154	0.319
-364.698	218.600	0.204	-0.324
-363.683	-184.320	-0.269	-0.004
-362.669	130.186	-0.134	-0.170
-361.654	73.432	0.127	-0.132
-360.639	-77.810	0.130	-0.045
-359.625	137.126	0.162	-0.210
-358.610	-155.373	-0.442	0.028
-357.596	-151.193	0.356	-0.026
-356.581	-146.620	-0.298	-0.026
-355.566	-131.852	0.291	0.038
-354.552	497.191	-0.032	0.073
-353.537	-99.138	0.088	0.022
-352.523	-68.751	0.135	0.052
-351.508	80.385	0.131	0.140
-350.493	155.651	0.175	0.240
-349.479	-115.813	0.260	0.048
-348.464	-26.066	-0.204	-0.119
-347.450	-200.000	0.033	-0.187
-346.435	92.098	0.109	0.122
-345.420	439.314	-0.045	-0.098
-344.406	120.567	-0.168	-0.208
-343.391	-146.298	-0.247	-0.021
-342.377	800.000	-0.064	-0.243
-341.362	599.037	0.076	-0.188
-340.348	-200.000	-0.038	-0.531
-339.333	-200.000	-0.026	-0.176
-338.318	-76.730	0.309	0.107
-337.304	-94.373	-0.315	-0.085
-336.289	-200.000	0.035	0.243
-335.275	800.000	-0.035	0.098
-334.260	102.097	-0.060	-0.070
-333.245	200.161	0.125	0.190
-332.231	-86.154	0.238	0.073
-331.216	-200.000	-0.044	0.255
-330.202	28.624	-0.288	-0.241
-329.187	-43.536	0.123	0.062
-328.172	-109.887	0.080	0.017
-327.158	800.000	-0.065	0.188
-326.143	-179.233	0.210	-0.005
-325.129	150.607	0.196	0.264
-324.114	800.000	0.138	0.387
-323.099	298.918	0.095	0.173
-322.085	342.295	0.115	0.223
-321.070	392.221	0.054	-0.111
-320.056	1.601	0.039	-0.028
-319.041	117.443	0.118	0.144
-318.026	-68.408	0.118	-0.045
-317.012	10.264	-0.328	0.247
-315.997	-200.000	-0.089	0.422
-314.983	-48.975	0.317	-0.150
-313.968	82.363	0.083	-0.089
-312.953	70.110	-0.135	0.138
-311.939	130.983	-0.233	0.296
-310.924	227.892	0.181	0.293
-309.910	193.728	0.312	0.468
-308.895	-37.075	-0.202	0.107
-307.880	-145.066	-0.128	0.012
-306.866	0.869	-0.138	0.098
-305.851	-8.177	-0.151	-0.101
-304.837	-148.798	-0.082	0.007
-303.822	457.415	-0.155	-0.342
-302.807	-96.112	-0.213	-0.056
-301.793	-34.785	-0.139	0.075
-300.778	-91.270	0.168	0.048
-299.764	-136.197	-0.203	0.024
-298.749	272.760	0.106	0.185
-297.735	90.878	-0.166	0.185
-296.720	800.000	0.091	0.397
-295.705	-41.253	0.300	-0.153
-294.691	-200.000	0.077	-0.364
-293.676	361.103	-0.120	-0.238
-292.662	409.208	0.090	0.188
-291.647	760.274	0.156	0.418
-290.632	39.409	0.154	0.137
-289.618	133.964	0.062	0.079
-288.603	4.534	-0.148	-0.107
-287.589	-89.927	0.109	0.031
-286.574	-39.595	-0.077	-0.040
-285.559	800.000	-0.137	0.426
-284.545	-69.525	-0.085	0.032
-283.530	-88.309	0.200	-0.059
-282.516	-21.202	0.168	0.102
-281.501	84.264	-0.125	-0.136
-280.486	182.673	0.093	0.135
-279.472	-4.275	-0.162	-0.111
-278.457	800.000	-0.007	0.018
-277.443	205.270	0.195	0.300
-276.428	-129.241	-0.289	-0.040
-275.413	-101.686	-0.197	-0.047
-274.399	-127.750	0.095	0.014
-273.384	200.405	0.032	0.049
-272.370	-123.808	0.017	0.003
-271.355	-200.000	-0.046	0.280
-270.340	513.465	0.028	-0.065
-269.326	28.332	-0.148	0.123
-268.311	800.000	-0.078	0.274
-267.297	-12.650	-0.159	-0.103
-266.282	128.248	0.174	-0.219
-265.267	-61.608	0.194	0.080
-264.253	83.717	0.110	-0.119
-263.238	525.920	0.141	0.328
-262.224	-102.359	-0.233	0.055
-261.209	549.247	0.087	0.207
-260.195	-35.862	0.154	-0.082
-259.180	9.200	-0.203	0.152
-258.165	194.410	-0.073	-0.109
-257.151	-93.583	0.405	0.111
-256.136	-144.759	0.278	0.025
-255.122	-200.000	-0.007	0.073
-254.107	-15.750	-0.145	-0.091
-253.092	81.873	-0.248	-0.265
-252.078	71.772	0.125	0.129
-251.063	-17.198	-0.306	0.191
-250.049	-61.261	-0.105	-0.044
-249.034	-184.659	-0.096	-0.002
-248.019	-134.874	0.448	0.054
-247.005	-122.601	-0.278	0.045
-245.990	-28.583	0.208	-0.119
-244.976	-121.028	0.165	0.027
-243.961	-200.000	0.026	0.132
-242.946	105.374	-0.211	0.247
-241.932	-23.630	0.084	-0.050
-240.917	-121.741	0.127	0.021
-239.903	61.401	-0.091	-0.089
-238.888	-76.557	0.104	-0.036
-237.873	800.000	0.022	-0.072
-236.859	-103.096	0.285	-0.067
-235.844	-122.006	-0.272	0.044
-234.830	-160.822	0.161	0.008
-233.815	-121.676	-0.150	0.025
-232.800	-191.552	-0.364	-0.004
-231.786	-30.618	0.211	-0.118
-230.771	-91.686	-0.326	0.092
-229.757	267.104	0.069	-0.119
-228.742	800.000	0.032	0.103
-227.727	544.824	0.121	0.285
-226.713	800.000	-0.031	0.090
-225.698	252.238	-0.188	-0.316
-224.684	95.157	-0.147	0.165
-223.669	-200.000	0.025	0.209
-222.655	31.917	0.114	0.097
-221.640	-128.352	0.241	0.034
-220.625	-149.300	-0.363	0.029
-219.611	-98.185	0.113	-0.029
-218.596	-42.437	-0.117	-0.059
-217.582	800.000	-0.002	0.005
-216.567	-147.085	0.367	0.031
-215.552	800.000	0.071	0.264
-214.538	-123.052	-0.157	-0.025
-213.523	246.702	0.074	0.123
-212.509	415.523	0.052	-0.110
-211.494	-127.489	0.281	-0.040
-210.479	54.220	0.270	-0.257
-209.465	-200.000	0.050	-0.261
-208.450	-200.000	-0.020	0.266
-207.436	-200.000	0.028	-0.284
-206.421	-200.000	0.009	0.150
-205.406	263.426	0.120	-0.205
-204.392	47.948	-0.300	-0.277
-203.377	-78.067	0.339	0.115
-202.363	-200.000	-0.031	0.414
-201.348	-200.000	0.019	-0.148
-200.333	628.188	-0.052	-0.129
-199.319	384.170	-0.169	0.344
-198.304	-200.000	0.060	0.377
-197.290	29.510	-0.429	-0.360
-196.275	156.106	-0.127	-0.173
-195.260	186.352	-0.091	0.133
-194.246	-120.900	0.023	-0.004
-193.231	7.905	-0.279	-0.206
-192.217	-200.000	0.009	0.088
-191.202	-37.615	0.197	-0.104
-190.187	11.064	-0.361	0.272
-189.173	800.000	0.050	0.139
-188.158	85.285	-0.161	-0.174
-187.144	438.850	-0.135	0.291
-186.129	-200.000	0.055	-0.285
-185.114	58.781	-0.152	-0.147
-184.100	-121.765	0.225	0.037
-183.085	-128.531	0.274	0.038
-182.071	102.894	0.114	0.131
-181.056	-134.929	0.068	-0.008
-180.042	-66.896	-0.100	0.039
-179.027	-100.768	0.250	0.061
-178.012	-200.000	-0.011	-0.105
-176.998	-39.953	-0.159	-0.082
-175.983	29.046	0.074	-0.062
-174.969	269.259	0.051	0.088
-173.954	-200.000	0.026	-0.142
-172.939	-55.358	-0.243	-0.107
-171.925	-200.000	-0.020	0.321
-170.910	286.800	-0.109	0.194
-169.896	-139.046	-0.391	-0.042
-168.881	-55.996	-0.248	-0.109
-167.866	800.000	0.032	-0.094
-166.852	67.152	-0.196	0.197
-165.837	-56.363	0.182	0.080
-164.823	-159.326	0.262	-0.014
-163.808	-23.794	0.276	0.163
-162.793	371.898	-0.041	-0.081
-161.779	15.805	0.235	0.182
-160.764	800.000	-0.089	-0.324
-159.750	-103.269	0.198	-0.046
-158.735	-200.000	0.040	0.183
-157.720	490.640	-0.074	0.166
-156.706	-8.062	0.146	-0.097
-155.691	153.527	0.060	-0.081
-154.677	118.835	-0.189	0.230
-153.662	-97.464	0.350	0.090
-152.647	-24.403	0.274	-0.161
-151.633	243.572	-0.115	-0.190
-150.618	653.128	0.044	-0.111
-149.604	800.000	-0.044	-0.129
-148.589	-30.024	-0.235	-0.132
-147.574	-200.000	0.009	-0.323
-146.560	79.020	0.078	-0.083
-145.545	67.670	0.173	-0.174
-144.531	-168.328	-0.108	-0.004
-143.516	-57.455	-0.303	-0.131
-142.502	42.252	-0.266	0.238
-141.487	43.012	-0.165	-0.148
-140.472	-88.807	0.153	-0.045
-139.458	-134.065	0.274	0.033
-138.443	-35.575	0.342	0.183
-137.429	18.890	-0.156	0.123
-136.414	200.793	-0.131	-0.199
-135.399	800.000	-0.054	-0.199
-134.385	29.380	0.165	0.138
-133.370	49.952	-0.295	0.273
-132.356	-200.000	0.066	-0.360
-131.341	-200.000	0.017	-0.147
-130.326	-200.000	0.000	0.078
-129.312	-200.000	0.009	-0.074
-128.297	249.241	0.252	0.420
-127.283	91.430	-0.110	0.121
-126.268	-117.932	-0.224	-0.040
-125.253	-17.482	0.262	-0.162
-124.239	-200.000	0.000	0.121
-123.224	167.853	0.317	-0.444
-122.210	-179.435	-0.491	-0.011
