DTS Sentinel unit serial number:	SN413079Multiplexer serial number:	ORYXHardware model number:	OX4-SRSoftware version number:	ORYX F/W v4.00 Oryx Data Collector v3.7.2.0data status	okinstallation	princeton_trtdifferential loss correction	single-endedforward channel	channel 3reverse channel	N/Adate	2019/09/11time	23:46:10forward acquisition time	60.00reverse acquisition time	0.00gamma	496.2192k internal	0.2318k external	0.2318temperature offset calibration	1.0058default loss term (dB/km)	0.3790temperature slope calibration	1.0000multiplexer offset coefficient	1.0000multiplexer slope coefficient	1.0000fibre end	0.00T internal ref (°C)	34.00T ext. ref 1 (°C)	1.97T ext. ref 2 (°C)	27.31length (m)	temperature (°C)	Stokes	anti-Stokes-747.200	-73.631	-0.322	0.119
-746.185	55.330	-0.236	0.231
-745.171	-1.240	-0.139	0.100
-744.156	578.979	-0.181	0.448
-743.142	212.753	-0.146	0.233
-742.127	-89.932	0.101	0.030
-741.112	-67.226	-0.217	-0.086
-740.098	231.069	0.145	0.240
-739.083	23.434	0.363	-0.302
-738.069	691.747	0.055	0.147
-737.054	39.168	0.127	-0.115
-736.039	-151.121	-0.351	0.027
-735.025	800.000	-0.054	0.175
-734.010	-42.129	-0.248	-0.128
-732.996	-54.089	-0.108	-0.050
-731.981	-51.509	-0.189	0.089
-730.966	227.884	0.144	-0.237
-729.952	-38.697	-0.277	0.148
-728.937	-54.472	-0.087	-0.040
-727.923	4.160	-0.226	-0.167
-726.908	800.000	-0.109	-0.449
-725.894	59.274	-0.070	-0.070
-724.879	0.936	-0.167	0.121
-723.864	-101.143	0.114	0.028
-722.850	-81.595	0.056	0.019
-721.835	348.867	-0.028	-0.057
-720.821	-183.743	0.045	-0.001
-719.806	-200.000	-0.006	-0.055
-718.791	259.649	-0.123	0.215
-717.777	-55.307	0.049	0.022
-716.762	-83.586	0.060	0.019
-715.748	-154.827	0.067	-0.004
-714.733	28.940	0.111	-0.095
-713.718	-65.096	0.247	-0.101
-712.704	428.425	-0.031	-0.068
-711.689	-10.420	0.170	-0.114
-710.675	-90.856	0.088	-0.026
-709.660	-83.062	-0.282	-0.092
-708.645	288.284	-0.113	0.206
-707.631	-92.547	-0.254	-0.072
-706.616	-200.000	-0.048	0.215
-705.602	-38.711	0.115	0.061
-704.587	-200.000	0.013	-0.144
-703.572	83.904	-0.177	-0.195
-702.558	48.338	-0.143	-0.135
-701.543	504.950	-0.057	0.133
-700.529	800.000	0.042	-0.127
-699.514	-54.605	0.150	-0.069
-698.499	-73.044	-0.042	-0.016
-697.485	133.783	-0.126	0.165
-696.470	-200.000	-0.017	-0.206
-695.456	-71.317	0.174	0.066
-694.441	69.789	0.278	-0.290
-693.426	-200.000	0.068	0.310
-692.412	-75.508	-0.136	0.049
-691.397	-200.000	0.015	-0.177
-690.383	125.657	0.124	0.158
-689.368	237.315	-0.110	0.184
-688.354	242.298	-0.066	0.112
-687.339	-30.813	0.099	0.056
-686.324	-121.059	-0.206	-0.035
-685.310	766.041	-0.047	0.129
-684.295	65.337	-0.155	0.158
-683.281	800.000	0.030	-0.084
-682.266	-53.677	0.004	0.002
-681.251	-136.908	0.146	-0.017
-680.237	-95.774	0.278	0.075
-679.222	124.417	-0.175	0.223
-678.208	-130.835	-0.291	-0.039
-677.193	-200.000	0.100	-0.458
-676.178	-19.702	0.168	-0.105
-675.164	-200.000	-0.005	-0.251
-674.149	-46.376	-0.145	-0.072
-673.135	800.000	0.009	0.035
-672.120	800.000	0.033	-0.114
-671.105	-111.471	-0.246	0.051
-670.091	-32.806	0.373	-0.209
-669.076	-200.000	-0.015	0.101
-668.062	-106.203	0.189	-0.043
-667.047	-118.914	-0.252	-0.045
-666.032	-135.022	0.109	0.013
-665.018	800.000	-0.056	-0.158
-664.003	800.000	-0.038	-0.143
-662.989	391.632	-0.040	0.084
-661.974	-71.142	-0.160	0.061
-660.959	-116.618	-0.531	0.099
-659.945	275.312	0.080	-0.143
-658.930	-173.986	-0.399	0.012
-657.916	-84.000	0.251	0.080
-656.901	112.311	0.135	0.164
-655.886	-165.549	-0.220	-0.010
-654.872	-200.000	-0.002	-0.024
-653.857	100.496	0.196	0.230
-652.843	-200.000	0.016	-0.123
-651.828	-8.474	-0.211	0.143
-650.814	-101.313	0.149	0.037
-649.799	-116.685	-0.106	-0.020
-648.784	-85.144	-0.221	-0.070
-647.770	-68.470	-0.249	0.097
-646.755	-0.530	-0.240	0.171
-645.741	-39.481	0.165	0.087
-644.726	38.543	-0.166	0.149
-643.711	-1.186	-0.023	0.016
-642.697	800.000	0.105	0.323
-641.682	-200.000	0.008	-0.343
-640.668	30.246	0.122	-0.105
-639.653	-200.000	0.014	-0.089
-638.638	18.276	0.088	-0.071
-637.624	334.165	0.097	0.190
-636.609	-16.352	-0.194	0.124
-635.595	-81.681	-0.175	0.058
-634.580	19.730	0.405	-0.328
-633.565	-200.000	-0.021	-0.220
-632.551	800.000	-0.040	-0.141
-631.536	800.000	-0.057	-0.226
-630.522	102.802	0.140	-0.165
-629.507	-20.091	-0.079	-0.049
-628.492	20.507	-0.062	-0.050
-627.478	140.475	0.098	-0.130
-626.463	55.020	0.233	0.227
-625.449	-47.961	0.194	0.094
-624.434	32.513	-0.093	0.081
-623.419	-149.467	0.507	-0.041
-622.405	479.774	-0.029	0.067
-621.390	24.487	-0.165	-0.137
-620.376	-36.971	-0.261	-0.141
-619.361	-200.000	-0.030	0.139
-618.346	-200.000	0.015	-0.146
-617.332	800.000	0.040	0.130
-616.317	187.746	0.110	-0.165
-615.303	171.392	0.147	-0.213
-614.288	219.848	-0.114	-0.184
-613.273	649.758	0.056	-0.143
-612.259	176.877	-0.106	0.155
-611.244	537.481	0.084	0.201
-610.230	-200.000	-0.028	0.254
-609.215	242.678	-0.057	0.096
-608.201	-53.773	-0.211	0.097
-607.186	122.643	-0.185	-0.233
-606.171	-117.266	-0.269	0.049
-605.157	227.896	0.163	0.267
-604.142	800.000	0.040	-0.122
-603.128	48.934	-0.301	0.284
-602.113	295.260	0.126	-0.232
-601.098	-122.547	-0.186	0.030
-600.084	448.058	0.098	-0.218
-599.069	-145.046	0.181	0.017
-598.055	-103.538	-0.265	-0.063
-597.040	-200.000	0.004	0.210
-596.025	614.180	-0.064	0.161
-595.011	100.300	0.247	0.289
-593.996	126.070	-0.093	-0.119
-592.982	282.415	-0.211	0.381
-591.967	800.000	-0.080	0.248
-590.952	179.665	-0.210	0.309
-589.938	-100.195	-0.125	-0.031
-588.923	71.675	0.174	0.182
-587.909	-11.883	0.111	-0.073
-586.894	21.361	-0.165	-0.135
-585.879	-33.996	0.190	0.105
-584.865	100.612	-0.287	-0.335
-583.850	-200.000	0.002	0.165
-582.836	800.000	0.088	-0.247
-581.821	-200.000	0.020	0.193
-580.806	-200.000	-0.021	-0.109
-579.792	800.000	-0.072	-0.214
-578.777	-103.321	-0.175	0.041
-577.763	200.754	0.038	0.059
-576.748	-58.866	0.199	-0.087
-575.733	9.004	-0.233	0.177
-574.719	-200.000	-0.010	-0.073
-573.704	-63.809	-0.048	-0.020
-572.690	267.804	0.124	0.218
-571.675	-108.929	0.131	-0.028
-570.661	-167.845	0.115	0.005
-569.646	-86.981	-0.155	-0.048
-568.631	-119.137	-0.259	-0.045
-567.617	92.324	-0.092	0.105
-566.602	-94.343	0.206	0.057
-565.588	155.663	-0.098	-0.136
-564.573	-106.999	-0.018	0.004
-563.558	-127.175	0.025	-0.004
-562.544	-200.000	0.032	-0.164
-561.529	120.543	0.082	-0.103
-560.515	-200.000	-0.009	0.233
-559.500	800.000	-0.128	0.480
-558.485	11.858	-0.173	0.134
-557.471	800.000	-0.046	0.136
-556.456	16.609	0.273	-0.217
-555.442	-114.734	0.125	0.024
-554.427	800.000	-0.081	0.280
-553.412	213.773	-0.022	-0.035
-552.398	80.656	-0.260	0.282
-551.383	800.000	-0.055	0.221
-550.369	-43.276	-0.081	0.041
-549.354	-29.921	-0.218	-0.125
-548.339	-114.013	-0.270	-0.053
-547.325	-75.065	0.033	-0.012
-546.310	-119.818	0.262	0.045
-545.296	-117.186	0.358	0.065
-544.281	251.104	0.148	0.252
-543.266	-25.132	0.076	0.045
-542.252	85.518	-0.157	0.173
-541.237	78.949	0.107	0.115
-540.223	191.845	0.110	0.167
-539.208	-200.000	-0.016	0.359
-538.193	-11.320	-0.173	-0.114
-537.179	-200.000	-0.051	-0.262
-536.164	-3.156	0.238	-0.166
-535.150	330.238	-0.007	0.013
-534.135	448.684	-0.004	0.009
-533.121	-200.000	-0.049	0.335
-532.106	128.402	0.176	0.224
-531.091	73.536	0.029	0.030
-530.077	105.111	-0.248	0.294
-529.062	800.000	0.068	0.234
-528.048	-200.000	-0.042	0.374
-527.033	197.298	0.195	0.299
-526.018	-20.702	-0.246	-0.151
-525.004	-116.384	-0.240	0.044
-523.989	-133.921	0.174	0.022
-522.975	217.715	-0.090	-0.144
-521.960	156.838	0.223	-0.309
-520.945	-57.629	0.266	-0.117
-519.931	-67.012	0.328	-0.130
-518.916	800.000	-0.082	-0.232
-517.902	16.976	-0.135	-0.107
-516.887	46.850	0.040	0.037
-515.872	-166.368	0.050	-0.002
-514.858	137.269	-0.195	-0.256
-513.843	595.028	0.025	0.061
-512.829	-3.651	-0.100	0.070
-511.814	167.315	0.066	-0.094
-510.799	-1.638	0.030	-0.021
-509.785	-13.649	-0.038	-0.025
-508.770	-200.000	0.041	-0.199
-507.756	-104.686	0.167	0.039
-506.741	-200.000	-0.082	0.601
-505.726	-8.101	-0.300	-0.202
-504.712	-34.528	-0.192	-0.105
-503.697	240.074	-0.090	-0.151
-502.683	-159.124	0.406	0.023
-501.668	-22.839	0.091	-0.055
-500.653	-131.557	0.286	0.038
-499.639	-200.000	0.015	-0.275
-498.624	-87.491	-0.237	0.072
-497.610	-26.637	-0.378	-0.222
-496.595	-12.777	0.250	0.163
-495.581	-6.894	0.212	0.144
-494.566	-24.573	0.146	0.087
-493.551	544.648	0.070	0.167
-492.537	21.789	0.213	0.174
-491.522	-200.000	-0.001	0.177
-490.508	238.770	-0.183	-0.304
-489.493	-0.247	-0.088	-0.063
-488.478	-200.000	-0.009	-0.285
-487.464	-200.000	0.071	0.432
-486.449	-89.722	-0.109	0.032
-485.435	-64.444	0.463	0.189
-484.420	-48.516	0.255	-0.123
-483.405	-200.000	-0.037	-0.327
-482.391	-127.517	0.182	-0.026
-481.376	76.815	-0.135	-0.144
-480.362	-200.000	-0.075	0.000
-479.347	-200.000	0.032	-0.390
-478.332	-88.897	-0.323	0.096
-477.318	-153.321	0.185	-0.013
-476.303	-119.888	0.167	-0.029
-475.289	-21.682	-0.177	-0.108
-474.274	-200.000	-0.035	-0.170
-473.259	15.504	0.075	-0.059
-472.245	-161.295	-0.095	-0.005
-471.230	44.690	0.253	0.233
-470.216	-188.749	0.167	0.002
-469.201	-40.948	0.192	-0.099
-468.186	20.021	0.189	0.152
-467.172	-52.314	0.096	0.045
-466.157	730.716	0.114	-0.306
-465.143	70.688	0.036	-0.037
-464.128	-200.000	0.181	0.000
-463.113	17.203	0.122	0.097
-462.099	22.996	0.183	0.151
-461.084	-6.641	-0.333	-0.227
-460.070	101.609	-0.138	-0.161
-459.055	-200.000	0.012	0.056
-458.040	800.000	-0.039	-0.154
-457.026	59.700	0.075	-0.074
-456.011	800.000	-0.129	0.394
-454.997	-200.000	0.021	-0.207
-453.982	-139.461	-0.342	0.037
-452.968	254.277	-0.159	-0.271
-451.953	-101.224	-0.258	0.063
-450.938	800.000	0.033	-0.123
-449.924	-141.710	-0.152	-0.015
-448.909	-94.521	0.287	0.078
-447.895	-154.645	-0.196	-0.013
-446.880	-200.000	0.072	-0.346
-445.865	-98.943	-0.173	0.044
-444.851	-113.687	0.083	0.016
-443.836	800.000	0.059	-0.203
-442.822	266.531	-0.081	0.141
-441.807	40.928	0.215	-0.194
-440.792	-54.223	-0.454	-0.206
-439.778	4.678	-0.282	-0.207
-438.763	800.000	-0.032	-0.107
-437.749	362.997	0.066	0.133
-436.734	28.808	-0.111	-0.094
-435.719	97.480	-0.066	0.075
-434.705	-82.268	0.262	0.085
-433.690	-200.000	0.019	0.309
-432.676	-40.928	-0.308	-0.159
-431.661	-55.336	-0.248	-0.111
-430.646	-200.000	0.027	0.226
-429.632	472.959	-0.063	-0.142
-428.617	60.384	-0.221	0.218
-427.603	-24.104	0.144	-0.086
-426.588	756.681	-0.075	0.202
-425.573	487.326	0.090	0.205
-424.559	172.786	-0.158	0.227
-423.544	-200.000	-0.020	-0.262
-422.530	-66.913	-0.040	-0.016
-421.515	226.979	-0.194	-0.315
-420.500	800.000	0.057	-0.167
-419.486	81.425	0.149	0.161
-418.471	800.000	-0.098	-0.310
-417.457	276.716	0.081	-0.144
-416.442	81.842	0.252	0.272
-415.428	-124.775	-0.523	-0.081
-414.413	-145.403	0.166	0.015
-413.398	800.000	-0.129	0.384
-412.384	-84.522	0.091	0.029
-411.369	32.435	0.207	0.179
-410.355	-58.810	-0.028	0.012
-409.340	-51.635	0.197	-0.092
-408.325	800.000	0.063	-0.237
-407.311	203.963	0.200	-0.309
-406.296	61.682	-0.215	-0.213
-405.282	-44.295	-0.038	-0.019
-404.267	140.513	0.191	0.252
-403.252	-200.000	-0.005	-0.573
-402.238	-83.812	0.460	-0.147
-401.223	94.389	-0.160	0.181
-400.209	14.015	-0.178	0.138
-399.194	-200.000	0.066	-0.444
-398.179	-200.000	-0.024	0.286
-397.165	-53.720	0.176	-0.080
-396.150	-133.151	0.072	-0.009
-395.136	-71.045	-0.448	0.168
-394.121	-115.133	0.275	-0.052
-393.106	-52.133	-0.175	-0.081
-392.092	-134.656	0.142	0.017
-391.077	154.760	0.101	0.139
-390.063	144.464	-0.081	0.108
-389.048	432.491	0.099	-0.214
-388.033	-200.000	0.053	-0.292
-387.019	-200.000	0.025	0.149
-386.004	448.195	0.116	-0.255
-384.990	-11.849	-0.180	-0.118
-383.975	-200.000	0.026	0.141
-382.960	-200.000	-0.012	-0.144
-381.946	-119.249	0.169	-0.029
-380.931	-75.978	-0.190	-0.067
-379.917	397.293	0.084	0.176
-378.902	-33.751	-0.042	-0.023
-377.888	800.000	-0.023	0.095
-376.873	37.397	-0.055	-0.049
-375.858	-200.000	0.073	-0.331
-374.844	-117.205	0.213	-0.039
-373.829	-91.765	-0.228	-0.065
-372.815	-106.610	0.312	0.069
-371.800	-87.168	-0.115	0.035
-370.785	79.398	0.054	-0.057
-369.771	-173.658	-0.175	-0.005
-368.756	800.000	0.085	0.256
-367.742	-92.411	-0.323	0.091
-366.727	244.281	-0.087	-0.146
-365.712	134.039	-0.080	0.104
-364.698	443.066	-0.170	-0.371
-363.683	186.274	-0.186	0.275
-362.669	-5.955	0.222	-0.152
-361.654	6.714	0.236	-0.175
-360.639	29.462	0.285	0.242
-359.625	155.064	-0.141	-0.193
-358.610	453.176	0.080	0.176
-357.596	48.517	-0.193	0.180
-356.581	-200.000	-0.022	0.256
-355.566	69.787	-0.122	-0.125
-354.552	2.435	-0.201	-0.145
-353.537	17.761	0.032	0.025
-352.523	-164.771	0.053	-0.002
-351.508	-64.601	0.320	0.129
-350.493	-200.000	0.004	-0.103
-349.479	-200.000	-0.045	0.199
-348.464	800.000	-0.038	-0.155
-347.450	1.044	-0.093	-0.067
-346.435	462.883	0.035	0.078
-345.420	-200.000	0.056	-0.320
-344.406	-56.830	0.197	0.087
-343.391	32.407	0.274	0.236
-342.377	800.000	0.057	-0.208
-341.362	123.826	-0.086	0.107
-340.348	62.317	0.355	0.354
-339.333	33.802	0.286	0.248
-338.318	114.742	0.193	0.234
-337.304	-200.000	0.012	0.078
-336.289	271.958	0.091	0.159
-335.275	-200.000	0.062	-0.289
-334.260	282.899	-0.038	-0.067
-333.245	507.149	-0.099	-0.229
-332.231	244.472	-0.247	0.413
-331.216	800.000	0.092	0.327
-330.202	-122.137	0.123	-0.020
-329.187	-53.066	-0.169	-0.077
-328.172	105.060	-0.144	0.169
-327.158	-200.000	0.019	-0.126
-326.143	800.000	-0.081	-0.271
-325.129	-19.441	0.235	0.145
-324.114	-78.689	0.284	-0.096
-323.099	168.732	0.247	0.350
-322.085	-33.389	0.150	-0.082
-321.070	272.986	0.203	0.357
-320.056	-200.000	-0.058	0.291
-319.041	-200.000	0.044	-0.282
-318.026	-200.000	0.006	-0.314
-317.012	313.951	0.115	-0.216
-315.997	800.000	0.061	0.169
-314.983	-123.837	-0.285	0.045
-313.968	-155.646	-0.035	-0.002
-312.953	100.557	-0.081	0.094
-311.939	67.453	0.074	0.075
-310.924	-200.000	-0.005	-0.306
-309.910	89.684	-0.179	-0.198
-308.895	-37.740	-0.352	0.187
-307.880	-29.531	0.223	0.127
-306.866	438.955	0.109	-0.237
-305.851	-115.219	0.248	0.047
-304.837	125.682	0.169	0.212
-303.822	800.000	-0.065	0.262
-302.807	-4.437	-0.173	-0.119
-301.793	-45.440	-0.090	0.044
-300.778	630.680	0.090	-0.227
-299.764	-31.972	-0.139	-0.077
-298.749	-200.000	-0.228	0.000
-297.735	-30.336	0.180	-0.102
-296.720	-117.433	-0.191	0.034
-295.705	-78.402	-0.276	-0.094
-294.691	-113.020	-0.148	-0.029
-293.676	401.444	0.203	0.425
-292.662	287.568	-0.043	0.077
-291.647	-5.599	-0.385	-0.262
-290.632	-194.533	0.165	0.001
-289.618	-27.517	-0.122	-0.071
-288.603	-200.000	0.019	-0.268
-287.589	800.000	0.033	0.099
-286.574	-147.223	0.210	0.018
-285.559	317.862	-0.213	0.400
-284.545	-119.566	-0.208	0.036
-283.530	800.000	0.065	0.232
-282.516	140.017	0.077	0.102
-281.501	36.065	0.125	0.109
-280.486	800.000	0.083	-0.304
-279.472	-140.850	-0.187	0.019
-278.457	130.424	-0.191	0.243
-277.443	-200.000	-0.050	-0.256
-276.428	-77.792	0.107	0.037
-275.413	226.931	-0.011	0.017
-274.399	-122.217	-0.169	0.027
-273.384	23.501	-0.240	-0.196
-272.370	-93.572	-0.273	-0.075
-271.355	-99.555	-0.052	-0.013
-270.340	-80.290	0.125	-0.041
-269.326	-200.000	-0.034	0.251
-268.311	145.822	0.182	0.242
-267.297	-129.367	-0.206	0.028
-266.282	-5.221	0.177	-0.121
-265.267	-200.000	-0.008	0.058
-264.253	-200.000	0.009	-0.112
-263.238	37.153	0.277	-0.243
-262.224	-137.466	-0.310	0.035
-261.209	-164.635	0.296	0.013
-260.195	-36.053	0.184	0.099
-259.180	-200.000	-0.045	0.278
-258.165	99.077	-0.095	-0.109
-257.151	-71.918	0.275	-0.102
-256.136	118.490	-0.119	-0.146
-255.122	-84.984	-0.298	0.093
-254.107	14.692	0.070	-0.055
-253.092	-195.746	0.065	-0.000
-252.078	-196.738	0.118	-0.001
-251.063	223.577	0.104	-0.166
-250.049	-86.376	-0.167	0.051
-249.034	75.023	-0.093	0.097
-248.019	-34.104	-0.171	0.093
-247.005	-141.512	-0.220	0.022
-245.990	274.612	-0.046	0.081
-244.976	800.000	0.124	-0.385
-243.961	50.203	0.234	0.219
-242.946	800.000	-0.096	0.339
-241.932	17.992	0.104	-0.083
-240.917	345.056	0.069	-0.134
-239.903	-200.000	-0.019	-0.087
-238.888	-72.680	0.224	-0.082
-237.873	-74.678	0.193	0.069
-236.859	-31.347	-0.210	-0.117
-235.844	56.661	0.223	0.216
-234.830	800.000	-0.094	0.294
-233.815	-22.078	0.191	0.115
-232.800	17.236	-0.118	-0.093
-231.786	-132.467	-0.361	-0.046
-230.771	-134.711	0.165	-0.020
-229.757	-48.454	0.248	-0.119
-228.742	455.619	0.071	-0.157
-227.727	455.587	0.083	-0.182
-226.713	-200.000	0.011	-0.343
-225.698	-200.000	-0.119	-0.545
-224.684	-65.817	0.214	0.085
-223.669	-68.504	-0.094	-0.036
-222.655	64.906	0.019	-0.019
-221.640	-85.128	0.134	0.041
-220.625	200.724	0.161	0.245
-219.611	-200.000	0.029	-0.280
-218.596	385.458	-0.132	-0.269
-217.582	21.351	-0.173	-0.140
-216.567	-29.308	-0.188	0.107
-215.552	247.766	0.075	0.126
-214.538	-75.086	-0.265	0.094
-213.523	-168.940	-0.330	0.012
-212.509	6.594	-0.118	-0.087
-211.494	141.493	-0.102	-0.134
-210.479	403.331	-0.171	0.357
-209.465	35.326	0.227	0.197
-208.450	-100.993	-0.073	-0.018
-207.436	100.209	0.124	-0.142
-206.421	257.793	0.072	0.123
-205.406	-3.810	0.225	0.155
-204.392	-200.000	-0.033	-0.187
-203.377	18.638	0.237	0.188
-202.363	-58.715	-0.359	0.154
-201.348	728.146	-0.062	-0.164
-200.333	-75.132	0.103	-0.036
-199.319	-69.578	-0.257	0.097
-198.304	102.281	-0.215	-0.248
-197.290	800.000	0.094	0.363
-196.275	-200.000	0.033	-0.153
-195.260	-55.304	0.230	0.102
-194.246	-200.000	0.000	0.056
-193.231	169.918	-0.179	0.253
-192.217	57.394	0.271	-0.262
-191.202	800.000	0.083	0.247
-190.187	103.425	0.020	0.023
-189.173	-107.306	0.256	0.056
-188.158	55.285	0.312	-0.299
-187.144	-90.355	-0.173	-0.050
-186.129	800.000	0.067	0.215
-185.114	-35.414	-0.218	0.117
-184.100	-176.184	-0.165	0.004
-183.085	800.000	-0.092	-0.273
-182.071	-156.926	0.101	-0.006
-181.056	3.001	-0.089	0.064
-180.042	-200.000	-0.020	-0.101
-179.027	56.564	-0.182	-0.175
-178.012	-161.606	0.347	0.018
-176.998	-35.775	-0.209	-0.112
-175.983	-99.400	-0.400	-0.100
-174.969	-35.688	-0.182	-0.098
-173.954	273.078	0.133	0.232
-172.939	92.922	0.118	-0.132
-171.925	169.516	0.162	0.230
-170.910	800.000	0.053	0.173
-169.896	256.708	0.101	-0.171
-168.881	-9.434	0.189	-0.125
-167.866	63.883	0.059	0.059
-166.852	-52.455	-0.095	0.043
-165.837	-200.000	0.007	-0.240
-164.823	15.451	0.095	-0.073
-163.808	43.197	0.230	-0.207
-162.793	800.000	0.062	-0.212
-161.779	-176.606	0.478	0.012
-160.764	-143.180	-0.255	0.024
-159.750	-34.015	0.133	-0.072
-158.735	50.957	-0.025	0.024
-157.720	-200.000	-0.028	-0.355
-156.706	26.192	-0.326	-0.269
-155.691	148.150	0.140	0.186
-154.677	-171.575	-0.073	-0.002
-153.662	315.089	0.051	0.096
-152.647	258.042	-0.239	0.407
-151.633	-140.194	-0.022	-0.002
-150.618	88.592	-0.077	0.084
-149.604	-131.278	0.413	0.054
-148.589	800.000	-0.080	-0.247
-147.574	-118.702	-0.228	-0.040
-146.560	-200.000	0.014	-0.381
-145.545	15.714	0.155	0.120
-144.531	-74.848	0.104	-0.037
-143.516	51.535	-0.157	-0.147
-142.502	800.000	0.062	0.213
-141.487	163.538	-0.160	0.222
-140.472	-122.959	0.132	-0.021
-139.458	12.029	0.049	0.037
-138.443	-118.376	-0.300	-0.053
-137.429	-118.182	0.187	-0.033
-136.414	-19.767	0.118	-0.072
-135.399	-121.230	-0.069	-0.011
-134.385	-200.000	-0.000	0.208
-133.370	136.060	-0.159	-0.205
-132.356	-200.000	-0.017	-0.110
-131.341	-60.943	-0.235	-0.098
-130.326	-140.473	0.176	-0.018
-129.312	800.000	0.046	0.127
-128.297	528.160	0.054	-0.127
-127.283	800.000	-0.043	-0.119
-126.268	88.217	0.279	-0.306
-125.253	103.443	-0.157	-0.182
-124.239	391.026	-0.158	0.324
-123.224	37.914	0.078	0.068
-122.210	121.290	-0.170	0.210
-121.195	-105.094	-0.190	0.043
