DTS Sentinel unit serial number:	SN413079Multiplexer serial number:	ORYXHardware model number:	OX4-SRSoftware version number:	ORYX F/W v4.00 Oryx Data Collector v3.7.2.0data status	okinstallation	princeton_trtdifferential loss correction	single-endedforward channel	channel 3reverse channel	N/Adate	2019/09/11time	21:34:11forward acquisition time	60.00reverse acquisition time	0.00gamma	496.2192k internal	0.2310k external	0.2310temperature offset calibration	1.0033default loss term (dB/km)	0.3790temperature slope calibration	1.0000multiplexer offset coefficient	1.0000multiplexer slope coefficient	1.0000fibre end	0.00T internal ref (°C)	35.94T ext. ref 1 (°C)	1.63T ext. ref 2 (°C)	30.02length (m)	temperature (°C)	Stokes	anti-Stokes-747.200	-52.497	-0.108	0.051
-746.185	800.000	-0.059	0.222
-745.171	670.550	0.103	-0.272
-744.156	756.375	-0.033	0.090
-743.142	9.546	0.154	-0.119
-742.127	13.011	0.082	0.064
-741.112	33.657	-0.150	-0.133
-740.098	178.302	-0.162	0.240
-739.083	3.361	0.271	0.200
-738.069	186.603	0.052	-0.079
-737.054	-51.151	-0.216	0.103
-736.039	51.694	-0.176	-0.170
-735.025	-133.193	0.140	0.018
-734.010	-30.057	0.312	-0.180
-732.996	87.970	0.064	0.072
-731.981	-1.573	-0.135	0.096
-730.966	-40.879	0.091	-0.048
-729.952	-200.000	-0.017	0.291
-728.937	-18.921	0.025	-0.016
-727.923	367.155	-0.182	-0.373
-726.908	-13.043	0.096	0.064
-725.894	800.000	-0.018	-0.059
-724.879	10.576	0.149	-0.115
-723.864	563.189	-0.110	-0.271
-722.850	-200.000	-0.026	-0.234
-721.835	800.000	-0.045	0.200
-720.821	78.722	0.292	-0.316
-719.806	800.000	0.078	0.250
-718.791	299.819	-0.167	-0.312
-717.777	-200.000	-0.007	0.210
-716.762	221.095	0.062	0.101
-715.748	-47.781	-0.417	0.205
-714.733	593.279	0.110	-0.277
-713.718	-123.633	-0.428	-0.069
-712.704	-193.577	-0.163	-0.001
-711.689	-42.292	-0.182	0.094
-710.675	-5.637	-0.180	0.125
-709.660	-130.541	-0.381	0.052
-708.645	-101.546	-0.105	-0.026
-707.631	-24.430	0.221	-0.134
-706.616	-200.000	0.001	0.147
-705.602	-90.440	0.317	-0.093
-704.587	-23.017	-0.030	-0.018
-703.572	146.826	-0.253	-0.345
-702.558	-168.876	0.263	0.010
-701.543	-35.378	0.304	0.168
-700.529	211.884	0.064	-0.102
-699.514	-49.961	-0.097	-0.046
-698.499	-200.000	0.020	0.117
-697.485	185.482	0.112	0.168
-696.470	800.000	0.055	0.198
-695.456	155.013	-0.091	-0.126
-694.441	332.544	-0.163	0.319
-693.426	48.883	0.157	0.149
-692.412	800.000	0.075	0.228
-691.397	-135.624	0.191	-0.023
-690.383	467.192	0.100	0.226
-689.368	-88.511	-0.328	-0.099
-688.354	800.000	0.075	-0.266
-687.339	-5.843	-0.162	-0.112
-686.324	473.310	-0.146	-0.334
-685.310	61.264	0.023	-0.023
-684.295	-200.000	-0.007	0.129
-683.281	800.000	0.041	-0.158
-682.266	-26.572	0.287	-0.170
-681.251	-102.889	0.268	-0.065
-680.237	-200.000	-0.013	-0.068
-679.222	-68.754	-0.021	-0.008
-678.208	-154.796	0.362	-0.024
-677.193	99.087	-0.062	-0.073
-676.178	4.258	-0.095	-0.070
-675.164	117.475	0.032	0.040
-674.149	-200.000	-0.002	-0.106
-673.135	-200.000	0.024	0.113
-672.120	394.691	-0.101	-0.214
-671.105	-36.316	-0.045	0.025
-670.091	-124.845	0.342	-0.053
-669.076	-200.000	0.045	0.312
-668.062	113.981	-0.073	0.090
-667.047	10.378	0.394	-0.304
-666.032	-189.283	-0.131	-0.002
-665.018	314.996	-0.030	0.057
-664.003	235.286	-0.087	0.145
-662.989	661.044	-0.048	0.125
-661.974	184.381	0.087	0.131
-660.959	494.180	0.060	0.140
-659.945	79.671	-0.306	-0.332
-658.930	709.082	-0.060	-0.160
-657.916	7.908	-0.115	-0.088
-656.901	8.209	0.079	-0.060
-655.886	93.739	-0.126	-0.145
-654.872	-200.000	-0.006	0.107
-653.857	-75.915	0.266	0.095
-652.843	-80.918	-0.131	-0.044
-651.828	800.000	-0.027	0.075
-650.814	-162.329	-0.296	0.015
-649.799	615.858	0.082	0.208
-648.784	215.737	-0.116	0.187
-647.770	-191.749	-0.111	0.001
-646.755	130.219	0.049	0.063
-645.741	-158.832	-0.305	0.018
-644.726	-136.064	0.314	0.037
-643.711	-200.000	-0.297	-0.001
-642.697	58.187	-0.079	-0.079
-641.682	-106.537	0.223	0.050
-640.668	-2.276	-0.336	-0.238
-639.653	-200.000	0.072	-0.386
-638.638	-188.997	-0.180	-0.002
-637.624	168.612	-0.013	-0.019
-636.609	-92.160	0.280	0.080
-635.595	-5.783	0.153	0.106
-634.580	-200.000	-0.119	-0.000
-633.565	-102.915	0.231	-0.055
-632.551	162.347	-0.027	0.038
-631.536	-200.000	0.028	0.196
-630.522	84.625	0.126	-0.140
-629.507	-200.000	-0.030	0.196
-628.492	478.785	-0.088	0.202
-627.478	161.070	-0.274	0.387
-626.463	32.855	0.156	0.137
-625.449	800.000	0.110	0.324
-624.434	-51.052	-0.389	-0.185
-623.419	800.000	0.054	0.185
-622.405	285.327	0.124	0.226
-621.390	-11.790	0.069	-0.046
-620.376	59.011	-0.170	-0.169
-619.361	-200.000	0.013	-0.181
-618.346	-40.002	0.210	-0.111
-617.332	197.875	-0.192	0.296
-616.317	-19.763	0.113	0.071
-615.303	-61.401	0.147	0.062
-614.288	-40.802	-0.093	-0.049
-613.273	-200.000	0.077	0.385
-612.259	168.944	0.278	0.401
-611.244	106.370	-0.288	-0.344
-610.230	-48.176	-0.150	0.073
-609.215	-200.000	0.038	-0.198
-608.201	84.028	0.201	-0.222
-607.186	-200.000	-0.003	-0.340
-606.171	-148.758	0.158	0.013
-605.157	291.595	0.079	-0.145
-604.142	-200.000	0.034	-0.250
-603.128	-3.570	0.195	0.137
-602.113	-52.911	0.064	-0.030
-601.098	4.628	-0.224	0.166
-600.084	474.916	0.056	0.128
-599.069	-200.000	-0.023	0.126
-598.055	-39.387	-0.113	0.060
-597.040	-68.005	-0.039	-0.015
-596.025	-113.359	0.203	-0.040
-595.011	-56.088	-0.324	0.146
-593.996	-200.000	0.050	-0.404
-592.982	320.442	0.037	-0.072
-591.967	260.609	0.140	-0.244
-590.952	-36.044	-0.300	-0.164
-589.938	20.885	0.126	-0.103
-588.923	800.000	-0.011	0.033
-587.909	-55.924	0.252	-0.114
-586.894	-140.105	-0.419	0.044
-585.879	485.766	-0.057	0.132
-584.865	-99.029	-0.135	-0.035
-583.850	317.243	0.062	0.118
-582.836	509.938	0.155	-0.364
-581.821	-57.724	0.229	-0.101
-580.806	146.197	0.026	0.035
-579.792	242.296	-0.150	0.253
-578.777	-200.000	-0.014	0.213
-577.763	-147.071	0.099	-0.009
-576.748	193.928	0.221	0.337
-575.733	-86.105	0.230	0.072
-574.719	-185.835	0.202	0.003
-573.704	14.112	-0.176	-0.139
-572.690	30.552	-0.089	-0.077
-571.675	133.422	-0.075	-0.098
-570.661	-200.000	0.074	0.482
-569.646	125.886	-0.208	0.265
-568.631	800.000	-0.034	-0.136
-567.617	-81.487	0.066	0.022
-566.602	629.075	-0.123	-0.314
-565.588	626.706	-0.042	0.106
-564.573	-200.000	-0.053	0.272
-563.558	-75.126	-0.103	-0.037
-562.544	-27.860	-0.162	-0.095
-561.529	-99.987	0.029	-0.007
-560.515	84.054	0.290	-0.320
-559.500	257.616	0.138	-0.239
-558.485	-52.358	-0.107	-0.050
-557.471	611.288	-0.067	0.169
-556.456	-33.906	0.026	-0.014
-555.442	-13.233	0.357	-0.234
-554.427	-200.000	-0.031	-0.176
-553.412	56.993	-0.411	0.404
-552.398	417.162	0.082	0.176
-551.383	187.217	0.152	0.229
-550.369	96.139	-0.277	0.319
-549.354	800.000	0.071	0.262
-548.339	-81.729	0.329	-0.109
-547.325	-72.766	0.049	-0.018
-546.310	-99.306	0.049	0.012
-545.296	241.573	-0.259	-0.437
-544.281	800.000	-0.052	-0.150
-543.266	800.000	-0.062	-0.195
-542.252	800.000	-0.076	-0.242
-541.237	-200.000	-0.008	0.349
-540.223	-114.610	-0.224	0.043
-539.208	-95.042	0.253	0.069
-538.193	-31.656	-0.264	0.149
-537.179	-200.000	-0.040	-0.223
-536.164	800.000	0.025	-0.072
-535.150	218.766	-0.040	-0.065
-534.135	112.800	-0.149	-0.182
-533.121	56.277	-0.105	0.102
-532.106	800.000	-0.047	0.146
-531.091	69.597	-0.199	-0.207
-530.077	678.185	-0.079	0.206
-529.062	-112.816	0.230	0.046
-528.048	-200.000	-0.016	0.262
-527.033	-173.794	-0.053	-0.002
-526.018	613.543	-0.034	-0.085
-525.004	-67.602	-0.295	-0.116
-523.989	-200.000	-0.021	-0.112
-522.975	-103.802	-0.211	0.050
-521.960	585.371	0.022	-0.055
-520.945	36.173	0.126	-0.112
-519.931	229.150	-0.035	-0.057
-518.916	428.295	-0.072	-0.156
-517.902	-200.000	0.043	0.203
-516.887	-72.473	-0.471	0.175
-515.872	-200.000	-0.005	-0.275
-514.858	-57.035	0.143	0.064
-513.843	-200.000	0.005	-0.182
-512.829	800.000	0.060	-0.182
-511.814	150.305	-0.159	0.217
-510.799	-200.000	-0.060	0.429
-509.785	-200.000	0.011	-0.171
-508.770	121.868	-0.137	0.171
-507.756	59.065	-0.020	-0.020
-506.741	296.742	-0.104	0.193
-505.726	-89.911	-0.147	-0.043
-504.712	-172.094	-0.077	-0.002
-503.697	715.173	0.105	-0.279
-502.683	-101.675	-0.372	-0.091
-501.668	166.293	0.050	0.071
-500.653	-200.000	-0.017	0.149
-499.639	-176.574	0.158	-0.004
-498.624	144.117	0.200	0.268
-497.610	415.322	-0.058	-0.123
-496.595	73.861	-0.069	-0.073
-495.581	-200.000	-0.049	-0.336
-494.566	-145.776	-0.271	0.024
-493.551	-114.336	0.125	-0.024
-492.537	-6.920	0.321	0.220
-491.522	197.588	-0.073	0.113
-490.508	9.996	0.107	-0.082
-489.493	787.151	-0.065	-0.179
-488.478	221.401	0.072	-0.116
-487.464	-200.000	-0.065	0.556
-486.449	-129.268	-0.293	-0.041
-485.435	229.962	0.189	0.311
-484.420	-200.000	-0.005	-0.246
-483.405	-18.458	0.325	0.204
-482.391	-200.000	0.003	-0.054
-481.376	-200.000	0.041	0.183
-480.362	-50.193	-0.171	0.081
-479.347	-151.101	0.052	0.004
-478.332	-78.370	-0.234	-0.081
-477.318	-129.979	0.195	-0.027
-476.303	-200.000	0.002	-0.066
-475.289	-200.000	-0.025	-0.183
-474.274	-164.013	-0.068	0.003
-473.259	46.327	0.186	-0.173
-472.245	91.677	-0.254	-0.287
-471.230	-188.750	-0.150	0.002
-470.216	-23.836	0.209	-0.126
-469.201	-65.917	0.277	0.111
-468.186	-7.986	-0.184	-0.124
-467.172	-200.000	-0.434	-0.001
-466.157	351.926	0.009	-0.019
-465.143	81.099	0.301	-0.326
-464.128	312.746	-0.084	-0.159
-463.113	-71.607	0.569	0.214
-462.099	-65.206	-0.134	0.054
-461.084	-60.312	0.447	0.191
-460.070	-104.844	-0.116	-0.027
-459.055	-200.000	-0.050	-0.309
-458.040	-93.927	-0.079	0.022
-457.026	173.061	0.085	0.123
-456.011	-96.211	0.295	0.079
-454.997	-37.359	0.169	0.090
-453.982	-64.148	-0.281	0.115
-452.968	-81.025	0.504	0.168
-451.953	-136.118	-0.359	-0.042
-450.938	90.092	0.073	0.082
-449.924	191.908	0.106	-0.161
-448.909	-93.976	0.363	-0.100
-447.895	-23.143	-0.142	0.086
-446.880	-200.000	0.019	0.226
-445.865	230.899	0.061	0.101
-444.851	-68.851	-0.196	0.076
-443.836	-125.295	0.170	0.026
-442.822	-200.000	0.004	-0.195
-441.807	-200.000	-0.033	0.249
-440.792	97.070	0.066	-0.076
-439.778	-114.612	0.094	0.018
-438.763	-15.100	0.233	-0.150
-437.749	-128.654	-0.167	-0.024
-436.734	-134.494	-0.117	0.014
-435.719	-200.000	-0.033	-0.293
-434.705	168.814	0.041	0.059
-433.690	28.008	0.305	-0.258
-432.676	-7.057	0.141	0.096
-431.661	800.000	0.046	0.195
-430.646	143.534	-0.311	-0.416
-429.632	1.628	-0.137	0.099
-428.617	616.151	0.053	0.133
-427.603	-6.048	-0.267	0.183
-426.588	49.083	-0.240	-0.227
-425.573	-200.000	-0.049	-0.311
-424.559	634.861	-0.111	-0.282
-423.544	211.863	-0.100	-0.158
-422.530	-156.635	0.152	0.009
-421.515	-156.972	-0.094	-0.006
-420.500	30.936	-0.062	-0.053
-419.486	85.449	-0.045	-0.049
-418.471	800.000	-0.128	-0.423
-417.457	126.506	-0.031	0.040
-416.442	72.293	0.260	0.272
-415.428	-200.000	-0.030	-0.218
-414.413	-10.932	-0.288	0.190
-413.398	295.332	0.251	0.462
-412.384	130.213	0.075	0.096
-411.369	-200.000	-0.005	-0.396
-410.355	-200.000	0.008	0.213
-409.340	-45.104	-0.041	0.020
-408.325	695.137	0.114	-0.300
-407.311	-90.168	0.303	0.088
-406.296	-200.000	0.071	-0.370
-405.282	437.659	0.256	0.559
-404.267	-182.411	0.180	0.003
-403.252	800.000	0.129	-0.390
-402.238	-124.646	-0.181	-0.028
-401.223	27.473	0.166	0.140
-400.209	-174.469	-0.173	-0.005
-399.194	-66.493	0.153	0.061
-398.179	-127.449	-0.122	0.018
-397.165	-136.891	0.377	-0.043
-396.150	-44.982	0.196	-0.098
-395.136	-60.100	-0.213	-0.091
-394.121	352.619	0.051	-0.101
-393.106	203.755	-0.078	-0.121
-392.092	-125.725	-0.309	-0.047
-391.077	28.349	0.315	0.266
-390.063	245.785	-0.139	0.235
-389.048	311.279	0.019	-0.036
-388.033	-52.660	-0.157	-0.073
-387.019	266.693	0.131	0.229
-386.004	-55.354	-0.110	-0.050
-384.990	-110.663	0.415	-0.086
-383.975	-200.000	0.020	-0.087
-382.960	99.999	0.038	0.045
-381.946	-77.523	0.287	-0.100
-380.931	624.036	0.095	0.239
-379.917	-34.707	-0.167	0.092
-378.902	-137.365	-0.235	-0.027
-377.888	-100.635	-0.236	0.058
-376.873	53.612	-0.220	0.211
-375.858	5.733	-0.324	0.240
-374.844	-7.156	-0.130	-0.088
-373.829	158.912	-0.166	-0.231
-372.815	143.442	-0.104	-0.139
-371.800	16.445	-0.070	0.055
-370.785	23.138	-0.055	-0.046
-369.771	216.105	-0.107	0.170
-368.756	-98.427	0.420	0.108
-367.742	418.346	-0.147	0.315
-366.727	-95.049	0.145	0.039
-365.712	25.417	-0.133	0.111
-364.698	-55.612	-0.205	-0.092
-363.683	140.952	-0.218	0.289
-362.669	-88.706	0.314	-0.094
-361.654	5.521	0.197	-0.146
-360.639	-200.000	0.016	-0.078
-359.625	723.415	0.051	-0.135
-358.610	-17.739	-0.119	0.075
-357.596	-141.545	-0.336	0.034
-356.581	-200.000	0.024	-0.172
-355.566	-61.967	0.133	0.055
-354.552	318.463	0.072	0.136
-353.537	107.106	0.085	-0.102
-352.523	-137.247	-0.189	-0.021
-351.508	-200.000	0.025	-0.183
-350.493	-200.000	0.053	-0.285
-349.479	43.516	-0.472	-0.432
-348.464	724.320	-0.087	0.231
-347.450	-200.000	0.034	0.225
-346.435	-73.382	-0.195	0.071
-345.420	-200.000	-0.098	0.000
-344.406	-39.652	-0.033	-0.017
-343.391	-79.646	-0.390	0.131
-342.377	118.082	0.127	0.156
-341.362	-195.026	-0.108	-0.001
-340.348	623.522	-0.090	-0.228
-339.333	263.126	0.199	-0.345
-338.318	7.175	0.139	0.104
-337.304	-112.049	0.249	-0.050
-336.289	-200.000	0.021	0.115
-335.275	113.591	-0.098	0.118
-334.260	-200.000	-0.069	0.312
-333.245	-117.652	0.080	-0.014
-332.231	115.286	0.097	0.118
-331.216	-74.763	-0.030	-0.011
-330.202	800.000	0.105	-0.361
-329.187	-37.364	0.063	0.034
-328.172	-200.000	-0.007	-0.144
-327.158	-200.000	0.036	-0.207
-326.143	-68.772	0.332	0.128
-325.129	26.748	-0.401	-0.336
-324.114	673.488	0.124	-0.321
-323.099	103.799	0.098	-0.115
-322.085	77.286	-0.124	0.131
-321.070	184.086	0.165	0.245
-320.056	-200.000	0.032	0.176
-319.041	58.443	0.153	-0.150
-318.026	-77.834	0.056	0.019
-317.012	24.372	0.271	0.223
-315.997	80.105	-0.073	-0.078
-314.983	-200.000	0.023	0.115
-313.968	369.622	-0.185	0.375
-312.953	800.000	0.028	-0.080
-311.939	-25.292	-0.021	-0.012
-310.924	-105.183	-0.083	0.019
-309.910	381.209	-0.063	-0.129
-308.895	738.162	0.053	-0.142
-307.880	-200.000	0.007	0.073
-306.866	587.764	0.067	0.165
-305.851	-38.524	0.243	0.128
-304.837	-200.000	-0.015	0.324
-303.822	146.746	-0.073	0.098
-302.807	-4.856	-0.295	-0.203
-301.793	-129.065	0.185	-0.026
-300.778	380.951	0.090	0.184
-299.764	391.811	0.022	0.045
-298.749	420.984	0.168	-0.360
-297.735	-131.069	-0.135	0.018
-296.720	285.067	0.056	-0.101
-295.705	572.675	-0.130	-0.317
-294.691	800.000	-0.087	0.326
-293.676	-200.000	-0.002	-0.304
-292.662	-126.835	0.082	-0.012
-291.647	34.425	0.145	-0.126
-290.632	18.873	0.052	0.042
-289.618	163.037	0.173	-0.243
-288.603	430.889	-0.148	0.319
-287.589	-200.000	-0.186	0.000
-286.574	-112.426	-0.315	-0.063
-285.559	-86.233	-0.102	0.031
-284.545	-107.669	-0.053	-0.012
-283.530	-169.797	0.311	0.011
-282.516	155.799	0.062	0.086
-281.501	-47.192	-0.144	-0.070
-280.486	-166.997	0.300	0.012
-279.472	-117.462	0.156	-0.028
-278.457	-1.542	0.089	-0.062
-277.443	-182.870	0.081	-0.001
-276.428	164.317	0.141	-0.198
-275.413	-40.814	-0.220	-0.114
-274.399	-79.937	-0.083	-0.028
-273.384	-12.210	-0.210	-0.137
-272.370	-2.611	0.293	0.205
-271.355	42.688	-0.071	0.064
-270.340	-117.215	0.299	-0.054
-269.326	585.906	0.092	0.226
-268.311	42.007	0.169	-0.153
-267.297	33.643	-0.183	0.158
-266.282	-162.008	-0.226	0.011
-265.267	-200.000	-0.040	0.192
-264.253	409.450	0.186	-0.393
-263.238	461.772	0.017	-0.038
-262.224	-200.000	0.047	-0.315
-261.209	-200.000	-0.063	0.304
-260.195	-68.520	0.204	-0.079
-259.180	-85.060	0.152	0.047
-258.165	-200.000	-0.004	0.059
-257.151	-11.546	-0.234	-0.153
-256.136	-200.000	0.006	-0.135
-255.122	489.096	0.148	0.338
-254.107	800.000	0.053	0.201
-253.092	53.570	-0.140	-0.134
-252.078	122.530	0.176	0.219
-251.063	-94.669	0.289	0.078
-250.049	36.223	0.261	0.229
-249.034	-170.911	-0.354	0.012
-248.019	-61.958	0.411	-0.171
-247.005	34.761	-0.025	-0.022
-245.990	189.532	0.047	-0.070
-244.976	-93.832	0.169	0.046
-243.961	-85.438	0.032	0.010
-242.946	-42.678	0.107	-0.054
-241.932	-66.528	-0.128	0.051
-240.917	800.000	0.073	-0.239
-239.903	258.465	-0.256	-0.438
-238.888	-125.925	-0.284	0.043
-237.873	269.196	-0.052	0.091
-236.859	-67.610	-0.051	-0.020
-235.844	40.221	0.196	0.175
-234.830	-73.179	0.237	-0.086
-233.815	350.985	0.053	-0.104
-232.800	33.959	-0.040	-0.034
-231.786	-12.660	-0.301	-0.195
-230.771	-110.584	-0.195	0.040
-229.757	-87.602	-0.137	-0.041
-228.742	-45.740	0.439	0.216
-227.727	253.711	-0.100	-0.170
-226.713	-85.848	0.088	-0.027
-225.698	80.611	0.173	0.185
-224.684	132.314	0.122	0.156
-223.669	-173.539	-0.008	-0.000
-222.655	-69.031	-0.151	-0.058
-221.640	80.593	-0.357	0.382
-220.625	165.872	0.017	0.023
-219.611	306.411	0.052	-0.096
-218.596	-41.147	0.246	0.126
-217.582	800.000	-0.040	0.153
-216.567	-200.000	-0.004	-0.247
-215.552	-24.739	0.375	-0.221
-214.538	-154.896	0.347	0.023
-213.523	-172.188	0.141	0.005
-212.509	-177.914	-0.292	-0.007
-211.494	-200.000	0.012	-0.151
-210.479	71.643	-0.182	0.188
-209.465	-58.963	0.034	0.015
-208.450	800.000	-0.029	-0.094
-207.436	-80.307	-0.204	0.068
-206.421	800.000	-0.063	0.269
-205.406	-38.476	-0.304	-0.160
-204.392	26.414	-0.521	-0.433
-203.377	800.000	-0.047	-0.181
-202.363	143.019	0.115	-0.152
-201.348	-58.535	-0.182	0.079
-200.333	-88.816	-0.292	0.086
-199.319	-25.429	0.288	0.169
-198.304	5.137	0.158	0.116
-197.290	-6.635	-0.158	0.107
-196.275	202.520	-0.097	0.150
-195.260	-79.441	-0.043	0.014
-194.246	590.887	-0.132	0.323
-193.231	625.777	-0.090	0.226
-192.217	-200.000	-0.020	0.111
-191.202	77.675	0.214	0.226
-190.187	-91.442	-0.228	0.065
-189.173	-200.000	0.017	0.190
-188.158	-79.198	0.430	0.145
-187.144	800.000	0.061	0.208
-186.129	47.023	-0.143	0.132
-185.114	-105.107	-0.301	-0.068
-184.100	23.989	-0.009	0.007
-183.085	800.000	-0.043	-0.125
-182.071	-200.000	-0.009	-0.255
-181.056	-109.672	0.307	0.064
-180.042	-121.396	0.190	-0.031
-179.027	-25.282	-0.107	0.063
-178.012	-41.516	-0.096	-0.049
-176.998	-61.292	0.079	0.033
-175.983	347.395	0.121	-0.237
-174.969	-53.610	-0.171	-0.078
-173.954	35.703	0.189	-0.165
-172.939	-21.815	0.131	0.079
-171.925	155.534	-0.144	0.197
-170.910	23.191	-0.035	-0.028
-169.896	72.863	0.140	-0.146
-168.881	-79.021	-0.305	-0.103
-167.866	-200.000	-0.065	-0.311
-166.852	-200.000	-0.102	0.500
-165.837	800.000	0.069	-0.292
-164.823	61.852	0.091	0.090
-163.808	-44.484	0.049	-0.024
-162.793	-47.881	0.065	-0.031
-161.779	10.309	-0.108	-0.082
-160.764	800.000	-0.054	-0.203
-159.750	-138.343	0.026	0.003
-158.735	-200.000	0.052	-0.453
-157.720	93.938	-0.107	-0.120
-156.706	-200.000	0.001	-0.022
-155.691	-53.502	-0.230	0.104
-154.677	-94.998	0.125	0.033
-153.662	-151.154	0.231	-0.017
-152.647	-0.469	0.096	0.068
-151.633	-125.586	0.273	0.041
-150.618	-131.709	0.237	0.031
-149.604	-200.000	-0.004	-0.398
-148.589	-91.631	0.175	-0.049
-147.574	395.024	-0.142	0.293
-146.560	-200.000	-0.031	-0.249
-145.545	-36.866	0.080	-0.043
-144.531	-200.000	-0.025	0.163
-143.516	-33.722	0.373	0.204
-142.502	15.644	0.197	0.153
-141.487	-127.618	0.278	-0.040
-140.472	41.419	0.281	-0.252
-139.458	16.495	0.125	-0.098
-138.443	-31.126	-0.094	-0.053
-137.429	-9.306	0.187	-0.124
-136.414	-200.000	0.015	0.283
-135.399	-64.390	0.274	-0.110
-134.385	-28.675	0.207	-0.118
-133.370	800.000	-0.067	-0.232
-132.356	-200.000	0.037	0.168
-131.341	-48.032	-0.280	-0.134
-130.326	-200.000	-0.018	-0.324
-129.312	-84.812	-0.165	-0.051
-128.297	15.734	0.070	-0.054
-127.283	493.380	-0.027	-0.061
-126.268	-77.750	-0.191	0.066
-125.253	493.942	-0.114	-0.260
-124.239	686.267	0.130	0.335
-123.224	-200.000	0.014	-0.080
-122.210	17.415	-0.050	0.039
-121.195	-128.412	0.199	-0.028
