DTS Sentinel unit serial number:	SN413079Multiplexer serial number:	ORYXHardware model number:	OX4-SRSoftware version number:	ORYX F/W v4.00 Oryx Data Collector v3.7.2.0data status	okinstallation	princeton_trtdifferential loss correction	single-endedforward channel	channel 3reverse channel	N/Adate	2019/09/11time	22:46:11forward acquisition time	60.00reverse acquisition time	0.00gamma	496.2192k internal	0.2315k external	0.2315temperature offset calibration	1.0048default loss term (dB/km)	0.3790temperature slope calibration	1.0000multiplexer offset coefficient	1.0000multiplexer slope coefficient	1.0000fibre end	0.00T internal ref (°C)	34.81T ext. ref 1 (°C)	1.84T ext. ref 2 (°C)	29.01length (m)	temperature (°C)	Stokes	anti-Stokes-747.200	-101.559	0.084	-0.021
-746.185	-39.227	0.084	-0.045
-745.171	76.862	-0.204	-0.220
-744.156	329.183	-0.058	0.112
-743.142	5.696	0.323	-0.242
-742.127	-99.059	0.222	-0.057
-741.112	18.140	0.105	-0.085
-740.098	-22.704	-0.039	0.024
-739.083	800.000	0.064	0.208
-738.069	800.000	0.068	0.293
-737.054	1.175	0.152	-0.111
-736.039	-200.000	-0.251	0.001
-735.025	-75.438	-0.182	-0.066
-734.010	-6.273	-0.145	-0.100
-732.996	0.304	-0.230	-0.166
-731.981	-200.000	0.018	0.107
-730.966	-11.493	0.426	-0.284
-729.952	-194.918	-0.272	0.002
-728.937	199.650	-0.047	-0.073
-727.923	52.685	0.125	0.121
-726.908	530.747	0.058	-0.138
-725.894	775.964	-0.049	-0.136
-724.879	-38.526	-0.219	0.117
-723.864	-200.000	-0.008	-0.038
-722.850	294.589	0.113	0.210
-721.835	101.373	-0.027	0.032
-720.821	31.765	-0.060	-0.052
-719.806	-84.477	0.205	0.066
-718.791	-116.111	0.097	0.018
-717.777	-147.346	-0.334	-0.029
-716.762	45.658	-0.093	0.087
-715.748	-43.183	-0.108	0.056
-714.733	162.164	-0.087	0.123
-713.718	-60.386	0.193	0.083
-712.704	97.216	-0.081	0.094
-711.689	-168.562	-0.272	-0.010
-710.675	-25.580	0.127	0.076
-709.660	-42.301	0.087	-0.045
-708.645	147.158	-0.153	-0.208
-707.631	-53.425	0.326	0.151
-706.616	435.734	-0.023	-0.050
-705.602	-117.362	-0.301	0.055
-704.587	800.000	-0.083	-0.239
-703.572	521.482	-0.038	0.089
-702.558	-68.645	-0.329	0.129
-701.543	146.228	0.101	-0.137
-700.529	632.360	-0.063	0.162
-699.514	20.393	-0.176	-0.144
-698.499	-151.856	0.147	-0.011
-697.485	-83.325	0.324	0.105
-696.470	-83.642	0.356	-0.115
-695.456	-82.910	-0.350	0.114
-694.441	447.261	-0.082	-0.182
-693.426	-102.254	-0.261	0.064
-692.412	23.222	0.152	-0.126
-691.397	123.996	-0.119	-0.151
-690.383	190.203	-0.187	-0.285
-689.368	-55.439	-0.136	0.062
-688.354	282.092	-0.063	-0.115
-687.339	-200.000	0.021	0.149
-686.324	-141.115	-0.225	0.023
-685.310	272.340	0.041	-0.073
-684.295	242.663	-0.080	0.135
-683.281	800.000	-0.087	-0.301
-682.266	367.950	-0.090	-0.185
-681.251	282.736	0.136	-0.247
-680.237	-63.797	-0.146	-0.060
-679.222	-200.000	0.012	-0.128
-678.208	69.598	-0.322	-0.335
-677.193	324.329	0.035	-0.068
-676.178	-29.665	0.235	0.135
-675.164	54.648	0.052	-0.051
-674.149	364.357	-0.194	-0.393
-673.135	8.546	-0.257	-0.195
-672.120	191.919	0.183	0.279
-671.105	-129.987	-0.091	-0.013
-670.091	-200.000	-0.300	-0.000
-669.076	-200.000	-0.001	-0.200
-668.062	-164.323	-0.025	0.001
-667.047	279.408	-0.053	-0.096
-666.032	65.064	0.084	-0.085
-665.018	-120.186	-0.185	-0.032
-664.003	-132.219	0.027	0.004
-662.989	-118.705	-0.123	0.022
-661.974	800.000	-0.043	0.161
-660.959	89.403	-0.194	0.219
-659.945	243.530	0.070	0.119
-658.930	-128.498	0.167	-0.024
-657.916	-120.501	0.187	0.032
-656.901	379.547	0.117	-0.243
-655.886	44.839	0.307	-0.285
-654.872	-6.817	-0.118	0.081
-653.857	281.303	-0.139	0.252
-652.843	-90.646	0.134	0.039
-651.828	-200.000	-0.004	0.246
-650.814	253.536	0.075	0.130
-649.799	132.239	0.412	-0.536
-648.784	61.706	-0.191	-0.192
-647.770	447.612	-0.029	-0.064
-646.755	800.000	-0.080	-0.339
-645.741	-102.849	-0.107	-0.026
-644.726	-63.239	0.233	-0.097
-643.711	-141.765	0.117	0.012
-642.697	800.000	-0.046	-0.133
-641.682	-76.469	-0.298	0.106
-640.668	800.000	-0.032	-0.116
-639.653	-200.000	-0.015	-0.099
-638.638	-45.542	0.085	-0.043
-637.624	-43.080	0.187	-0.096
-636.609	-106.334	-0.286	0.065
-635.595	-36.122	0.225	-0.122
-634.580	-148.659	-0.196	0.016
-633.565	800.000	0.035	-0.105
-632.551	49.620	-0.125	0.119
-631.536	-200.000	0.009	0.139
-630.522	-145.062	-0.135	-0.012
-629.507	-45.656	-0.361	0.180
-628.492	-51.471	-0.180	-0.085
-627.478	-128.055	-0.064	-0.009
-626.463	502.785	-0.029	-0.068
-625.449	372.800	-0.126	0.258
-624.434	-20.414	-0.099	0.061
-623.419	-188.071	0.428	-0.006
-622.405	-120.569	0.192	0.033
-621.390	-114.022	-0.110	0.021
-620.376	-34.575	0.414	0.228
-619.361	-40.410	0.183	-0.096
-618.346	-200.000	0.063	0.412
-617.332	-77.774	-0.306	0.107
-616.317	800.000	0.030	-0.106
-615.303	-121.887	0.176	0.029
-614.288	42.713	-0.313	0.287
-613.273	288.107	0.088	0.160
-612.259	-161.556	0.008	-0.000
-611.244	586.183	-0.069	-0.172
-610.230	-200.000	0.000	0.045
-609.215	-67.250	-0.262	-0.104
-608.201	296.839	-0.017	-0.031
-607.186	112.202	0.115	-0.140
-606.171	439.533	-0.037	0.081
-605.157	120.080	-0.087	-0.109
-604.142	800.000	0.097	0.324
-603.128	205.120	0.018	-0.028
-602.113	-81.682	-0.191	0.063
-601.098	-177.284	0.121	-0.003
-600.084	48.852	-0.098	0.092
-599.069	-200.000	-0.006	-0.141
-598.055	280.098	-0.206	-0.371
-597.040	159.722	-0.279	-0.392
-596.025	-176.765	0.031	0.001
-595.011	-200.000	0.012	-0.131
-593.996	157.318	-0.191	-0.266
-592.982	-200.000	0.046	0.380
-591.967	-92.431	-0.387	-0.110
-590.952	-28.352	0.067	-0.039
-589.938	-16.694	-0.269	-0.172
-588.923	77.837	-0.149	0.160
-587.909	44.918	-0.092	0.085
-586.894	-44.566	-0.385	-0.194
-585.879	703.186	0.053	0.141
-584.865	78.135	0.072	0.077
-583.850	-200.000	0.054	-0.414
-582.836	800.000	0.112	0.317
-581.821	-200.000	0.025	0.151
-580.806	-106.533	0.564	-0.127
-579.792	58.129	0.152	-0.150
-578.777	-200.000	0.042	-0.193
-577.763	-200.000	-0.046	0.232
-576.748	-142.418	0.348	-0.034
-575.733	-64.280	-0.188	0.077
-574.719	20.589	-0.211	-0.172
-573.704	17.437	-0.172	-0.138
-572.690	-200.000	0.016	0.379
-571.675	-200.000	0.019	-0.261
-570.661	-70.370	0.230	0.088
-569.646	-61.823	0.145	0.061
-568.631	305.234	-0.067	0.125
-567.617	-200.000	0.032	-0.199
-566.602	-123.652	-0.236	-0.038
-565.588	26.874	-0.245	0.207
-564.573	409.105	-0.139	-0.296
-563.558	89.554	0.101	-0.113
-562.544	-200.000	0.099	0.440
-561.529	104.142	0.168	0.199
-560.515	66.784	-0.187	-0.191
-559.500	-200.000	0.038	-0.323
-558.485	-79.205	0.165	0.056
-557.471	-96.830	0.179	0.047
-556.456	800.000	-0.017	-0.060
-555.442	800.000	-0.076	0.227
-554.427	-200.000	0.311	-0.001
-553.412	63.034	0.335	-0.338
-552.398	-200.000	0.022	-0.186
-551.383	18.154	-0.128	0.103
-550.369	-79.441	0.075	0.026
-549.354	202.613	0.087	0.135
-548.339	-40.882	0.303	0.158
-547.325	-200.000	-0.083	-0.578
-546.310	-200.000	-0.000	-0.101
-545.296	-200.000	-0.041	0.207
-544.281	70.174	0.100	-0.103
-543.266	-39.616	-0.205	0.108
-542.252	287.045	0.097	0.176
-541.237	-174.503	0.076	-0.002
-540.223	-200.000	0.035	0.281
-539.208	-29.400	-0.081	0.047
-538.193	-38.923	-0.079	-0.042
-537.179	-200.000	-0.011	-0.105
-536.164	800.000	0.098	-0.308
-535.150	200.715	-0.135	-0.209
-534.135	800.000	0.021	0.067
-533.121	79.701	0.152	0.163
-532.106	706.018	-0.059	0.156
-531.091	402.437	0.081	-0.171
-530.077	42.715	0.220	0.201
-529.062	-119.388	0.311	0.054
-528.048	-109.279	-0.257	-0.055
-527.033	-104.846	-0.343	0.079
-526.018	343.239	0.036	0.071
-525.004	88.126	-0.176	0.196
-523.989	800.000	-0.049	-0.163
-522.975	800.000	0.076	-0.216
-521.960	116.232	0.088	0.108
-520.945	186.373	0.066	-0.099
-519.931	215.632	-0.060	-0.096
-518.916	-10.142	-0.052	0.034
-517.902	-152.419	-0.397	-0.029
-516.887	800.000	0.040	-0.125
-515.872	132.299	0.124	-0.161
-514.858	-15.442	-0.261	0.167
-513.843	228.424	0.135	0.220
-512.829	10.298	0.030	0.023
-511.814	-76.824	0.265	0.093
-510.799	119.438	-0.099	-0.122
-509.785	-47.832	0.051	0.025
-508.770	-127.008	0.312	-0.046
-507.756	331.119	-0.052	0.101
-506.741	-6.301	-0.192	0.132
-505.726	-200.000	0.008	0.086
-504.712	14.837	0.242	0.190
-503.697	-14.859	-0.097	-0.062
-502.683	-200.000	-0.025	-0.201
-501.668	107.460	0.286	-0.341
-500.653	10.046	0.087	0.066
-499.639	379.544	0.151	-0.310
-498.624	-10.837	0.173	-0.115
-497.610	-63.436	-0.171	0.071
-496.595	71.776	-0.172	0.179
-495.581	-73.634	0.259	0.095
-494.566	-125.471	-0.186	-0.028
-493.551	-83.101	-0.063	0.020
-492.537	-200.000	0.071	0.397
-491.522	69.407	0.298	-0.308
-490.508	143.340	0.032	-0.043
-489.493	-200.000	-0.063	-0.282
-488.478	71.223	-0.132	0.138
-487.464	420.489	0.004	0.009
-486.449	-5.769	0.053	-0.036
-485.435	-34.564	0.038	-0.021
-484.420	23.584	0.144	-0.119
-483.405	69.001	0.311	0.320
-482.391	569.458	0.083	-0.203
-481.376	-102.328	-0.260	-0.062
-480.362	35.123	0.180	-0.158
-479.347	-110.169	-0.503	0.105
-478.332	343.632	0.097	-0.190
-477.318	-18.979	0.237	0.148
-476.303	152.667	0.040	0.054
-475.289	45.251	-0.059	-0.054
-474.274	83.618	-0.180	-0.197
-473.259	70.115	-0.399	-0.413
-472.245	-2.930	-0.287	0.201
-471.230	-81.169	0.519	0.172
-470.216	-148.387	-0.430	-0.035
-469.201	540.302	0.066	-0.157
-468.186	-200.000	-0.025	-0.273
-467.172	-48.856	-0.268	0.129
-466.157	-80.459	-0.082	-0.028
-465.143	-200.000	-0.020	-0.171
-464.128	-5.242	0.192	0.132
-463.113	-53.560	0.007	-0.003
-462.099	-200.000	-0.066	-0.356
-461.084	-188.123	0.201	-0.003
-460.070	-33.058	0.115	-0.064
-459.055	205.483	-0.035	-0.055
-458.040	341.828	0.209	-0.409
-457.026	-148.786	-0.192	-0.016
-456.011	800.000	-0.031	-0.089
-454.997	800.000	0.041	-0.138
-453.982	-200.000	-0.050	0.308
-452.968	-115.629	0.272	0.051
-451.953	-200.000	-0.034	0.261
-450.938	-104.973	-0.261	0.060
-449.924	-120.779	-0.091	-0.015
-448.909	-165.449	-0.181	-0.008
-447.895	-79.009	-0.046	-0.016
-446.880	-149.459	0.158	0.013
-445.865	800.000	0.144	-0.415
-444.851	130.279	-0.223	0.286
-443.836	140.040	0.181	0.239
-442.822	98.215	0.212	0.244
-441.807	263.533	0.129	0.225
-440.792	-81.376	0.200	-0.066
-439.778	97.678	0.148	0.170
-438.763	232.288	0.040	-0.066
-437.749	-3.639	-0.150	0.104
-436.734	195.024	0.237	-0.360
-435.719	22.659	-0.257	0.211
-434.705	318.604	-0.040	-0.076
-433.690	-90.408	-0.061	-0.018
-432.676	-183.144	-0.576	0.010
-431.661	-37.537	0.102	-0.055
-430.646	-156.549	-0.268	-0.017
-429.632	-106.653	0.361	0.080
-428.617	-85.745	-0.150	0.047
-427.603	800.000	0.107	0.303
-426.588	-97.776	0.112	0.029
-425.573	-200.000	0.032	-0.288
-424.559	-161.659	-0.031	0.002
-423.544	376.457	-0.168	-0.343
-422.530	800.000	-0.002	-0.007
-421.515	-200.000	0.071	-0.366
-420.500	30.257	-0.122	-0.104
-419.486	249.908	-0.095	0.162
-418.471	127.011	-0.116	0.147
-417.457	-112.459	-0.165	-0.033
-416.442	20.094	0.184	0.148
-415.428	211.466	-0.063	-0.100
-414.413	-94.777	-0.065	0.018
-413.398	172.189	-0.167	-0.241
-412.384	-55.004	0.125	0.056
-411.369	-200.000	0.006	0.050
-410.355	31.378	0.115	0.099
-409.340	49.352	0.211	0.198
-408.325	-200.000	0.006	-0.075
-407.311	-200.000	-0.050	0.292
-406.296	75.293	0.336	0.355
-405.282	685.612	0.053	-0.138
-404.267	-200.000	0.040	0.208
-403.252	-90.716	0.121	-0.035
-402.238	-200.000	0.024	0.150
-401.223	85.404	0.173	0.189
-400.209	-200.000	0.066	-0.371
-399.194	800.000	-0.083	-0.304
-398.179	-136.729	0.333	0.038
-397.165	100.917	-0.302	0.352
-396.150	-200.000	0.026	0.166
-395.136	-54.076	0.225	-0.102
-394.121	-111.809	-0.193	0.039
-393.106	51.091	-0.090	-0.085
-392.092	510.402	0.091	0.211
-391.077	-153.204	0.150	-0.010
-390.063	-200.000	-0.003	-0.147
-389.048	-20.312	0.425	0.261
-388.033	-200.000	0.029	0.195
-387.019	-29.234	0.011	0.006
-386.004	-8.895	-0.257	-0.172
-384.990	132.721	-0.275	-0.354
-383.975	-25.082	-0.120	0.071
-382.960	109.928	-0.162	0.194
-381.946	-200.000	0.178	-0.000
-380.931	375.001	-0.146	-0.298
-379.917	-45.431	-0.215	0.107
-378.902	-76.860	0.202	-0.071
-377.888	-200.000	0.004	-0.189
-376.873	-200.000	-0.027	-0.177
-375.858	297.338	-0.104	-0.192
-374.844	324.120	-0.105	0.201
-373.829	75.369	0.320	-0.337
-372.815	18.102	0.155	0.123
-371.800	-52.274	0.144	0.067
-370.785	-115.503	-0.238	-0.045
-369.771	-200.000	-0.048	-0.335
-368.756	-52.201	0.075	-0.035
-367.742	386.140	-0.068	-0.140
-366.727	-179.710	-0.057	0.001
-365.712	-50.502	-0.116	-0.055
-364.698	-21.531	0.394	0.240
-363.683	-101.860	0.174	-0.042
-362.669	-200.000	0.031	0.258
-361.654	-66.224	-0.286	-0.114
-360.639	150.677	0.113	0.153
-359.625	21.086	0.244	-0.198
-358.610	369.435	0.168	0.339
-357.596	196.579	-0.140	0.212
-356.581	-150.325	-0.258	-0.020
-355.566	763.508	0.066	0.179
-354.552	-54.439	-0.240	0.109
-353.537	71.733	-0.373	0.387
-352.523	-37.784	0.160	-0.085
-351.508	-129.403	0.196	0.027
-350.493	800.000	0.156	0.449
-349.479	800.000	0.052	-0.157
-348.464	79.471	-0.062	-0.066
-347.450	93.342	-0.030	0.034
-346.435	278.865	0.040	0.072
-345.420	-200.000	-0.018	-0.404
-344.406	339.230	-0.097	-0.189
-343.391	-99.759	0.080	-0.020
-342.377	800.000	0.097	-0.367
-341.362	-94.496	0.172	0.047
-340.348	-97.810	0.158	0.041
-339.333	56.130	0.229	0.222
-338.318	-108.125	-0.197	0.042
-337.304	-103.808	-0.234	0.055
-336.289	-29.844	0.165	0.094
-335.275	800.000	0.130	-0.394
-334.260	-173.385	0.332	-0.010
-333.245	264.770	-0.140	0.242
-332.231	-135.363	-0.408	0.049
-331.216	268.124	-0.075	0.132
-330.202	-31.322	0.503	-0.282
-329.187	34.577	0.188	-0.163
-328.172	92.017	-0.070	0.079
-327.158	800.000	-0.086	-0.306
-326.143	-200.000	-0.038	0.222
-325.129	57.965	0.180	-0.176
-324.114	128.235	-0.188	0.238
-323.099	-129.402	-0.314	-0.044
-322.085	270.587	-0.100	-0.175
-321.070	350.249	0.108	0.212
-320.056	-30.242	-0.243	-0.138
-319.041	800.000	0.069	0.212
-318.026	-78.735	-0.282	0.096
-317.012	-59.012	-0.217	0.093
-315.997	-72.304	-0.222	-0.082
-314.983	-70.629	-0.271	-0.102
-313.968	30.447	0.054	-0.046
-312.953	81.805	-0.121	-0.130
-311.939	-12.229	-0.167	0.109
-310.924	70.050	-0.250	0.257
-309.910	-181.916	0.261	0.005
-308.895	94.182	0.066	0.074
-307.880	57.810	0.060	0.059
-306.866	132.952	0.128	-0.165
-305.851	69.148	-0.268	-0.274
-304.837	-200.000	-0.094	0.441
-303.822	-33.412	0.267	0.147
-302.807	87.317	0.171	0.188
-301.793	-155.257	0.171	-0.011
-300.778	210.486	0.098	0.153
-299.764	486.250	-0.035	-0.080
-298.749	-200.000	0.006	-0.242
-297.735	-39.751	0.076	0.039
-296.720	135.629	-0.179	-0.232
-295.705	-94.404	-0.768	0.209
-294.691	508.025	-0.097	-0.225
-293.676	38.541	0.075	-0.067
-292.662	800.000	0.041	0.132
-291.647	-200.000	-0.023	-0.151
-290.632	800.000	0.031	-0.092
-289.618	-116.544	0.043	0.008
-288.603	-125.277	0.193	-0.029
-287.589	-92.816	-0.187	0.052
-286.574	-93.889	-0.353	-0.097
-285.559	-87.552	0.347	-0.104
-284.545	-87.107	-0.099	-0.030
-283.530	-0.186	-0.117	-0.083
-282.516	-200.000	0.010	0.109
-281.501	-200.000	0.016	-0.193
-280.486	-80.239	-0.261	-0.087
-279.472	42.108	0.158	-0.143
-278.457	800.000	-0.043	-0.141
-277.443	800.000	-0.035	-0.125
-276.428	178.814	-0.202	-0.293
-275.413	304.109	0.091	-0.167
-274.399	-42.271	-0.123	-0.063
-273.384	38.267	0.108	0.096
-272.370	104.770	-0.096	-0.113
-271.355	-75.334	-0.323	-0.115
-270.340	-132.452	0.092	0.012
-269.326	310.873	-0.114	-0.212
-268.311	12.504	-0.062	-0.048
-267.297	565.690	-0.053	0.127
-266.282	499.470	-0.082	0.187
-265.267	20.854	0.180	0.145
-264.253	137.493	0.019	-0.024
-263.238	-52.045	0.198	0.092
-262.224	-111.908	-0.123	0.025
-261.209	173.075	0.083	0.119
-260.195	205.977	0.028	-0.043
-259.180	296.006	-0.087	-0.159
-258.165	1.085	0.246	0.175
-257.151	134.476	-0.171	0.221
-256.136	-89.423	0.305	0.089
-255.122	147.128	0.076	0.102
-254.107	800.000	-0.047	0.154
-253.092	312.634	0.139	0.260
-252.078	280.716	0.139	-0.247
-251.063	-116.665	-0.355	-0.065
-250.049	-69.091	-0.152	-0.058
-249.034	44.580	-0.280	-0.256
-248.019	-87.055	-0.279	-0.084
-247.005	-112.927	0.111	-0.022
-245.990	40.414	0.082	-0.073
-244.976	243.327	-0.078	-0.129
-243.961	800.000	-0.031	-0.109
-242.946	-140.642	0.469	-0.048
-241.932	800.000	-0.061	0.176
-240.917	-146.005	0.390	0.034
-239.903	-34.081	-0.202	0.111
-238.888	-99.882	0.087	-0.022
-237.873	-200.000	0.014	-0.209
-236.859	-174.636	0.275	0.008
-235.844	373.306	0.125	-0.253
-234.830	-200.000	-0.041	-0.193
-233.815	89.107	-0.352	0.389
-232.800	-6.228	0.220	-0.149
-231.786	-200.000	-0.015	-0.319
-230.771	-200.000	0.039	-0.223
-229.757	235.174	0.097	0.159
-228.742	123.540	-0.161	-0.200
-227.727	261.254	0.135	0.232
-226.713	97.958	0.238	-0.272
-225.698	269.702	0.157	0.275
-224.684	-93.677	0.164	-0.045
-223.669	389.973	-0.054	0.111
-222.655	126.289	-0.137	0.172
-221.640	206.944	0.245	0.379
-220.625	800.000	0.076	0.306
-219.611	-167.184	-0.271	0.011
-218.596	-126.314	-0.163	0.024
-217.582	-82.325	0.184	0.059
-216.567	-84.589	0.152	-0.048
-215.552	-122.979	0.279	-0.045
-214.538	-200.000	-0.050	0.360
-213.523	25.263	0.102	-0.084
-212.509	-200.000	0.078	-0.431
-211.494	-18.801	-0.119	0.074
-210.479	-9.696	-0.014	-0.009
-209.465	162.398	-0.015	0.021
-208.450	722.695	-0.044	-0.116
-207.436	54.286	0.081	-0.077
-206.421	800.000	-0.083	0.318
-205.406	-200.000	-0.014	0.119
-204.392	725.187	0.065	0.172
-203.377	-64.622	0.174	-0.070
-202.363	596.575	0.053	0.129
-201.348	-200.000	0.033	0.195
-200.333	800.000	0.076	0.271
-199.319	-160.124	-0.252	0.014
-198.304	-25.037	0.214	-0.126
-197.290	-74.354	-0.085	-0.031
-196.275	90.892	-0.133	-0.148
-195.260	-200.000	0.270	-0.001
-194.246	800.000	-0.033	0.125
-193.231	-12.201	-0.206	0.134
-192.217	47.393	-0.152	0.140
-191.202	-4.450	0.059	0.041
-190.187	-200.000	0.036	-0.183
-189.173	-21.223	-0.250	0.151
-188.158	606.150	0.070	0.173
-187.144	-200.000	-0.001	0.127
-186.129	-111.956	0.034	0.007
-185.114	-200.000	-0.031	0.263
-184.100	25.034	0.024	0.019
-183.085	-168.085	-0.110	0.004
-182.071	166.845	0.246	0.345
-181.056	-200.000	0.074	-0.379
-180.042	81.478	-0.182	0.195
-179.027	-22.913	-0.231	0.138
-178.012	4.140	-0.103	0.075
-176.998	406.051	-0.025	0.052
-175.983	-91.608	-0.260	-0.074
-174.969	800.000	0.034	-0.143
-173.954	-40.877	-0.113	0.058
-172.939	636.514	0.134	-0.336
-171.925	212.019	0.103	0.160
-170.910	-140.904	-0.257	-0.026
-169.896	-130.765	-0.196	-0.026
-168.881	-200.000	-0.003	0.172
-167.866	38.178	0.281	0.248
-166.852	238.425	-0.112	0.184
-165.837	53.590	0.178	0.169
-164.823	-200.000	0.019	-0.212
-163.808	778.716	0.139	0.377
-162.793	499.744	0.127	0.289
-161.779	800.000	-0.033	-0.125
-160.764	-53.714	0.155	-0.070
-159.750	450.750	-0.069	-0.152
-158.735	-46.723	-0.215	0.104
-157.720	81.216	0.202	0.216
-156.706	454.375	0.073	0.160
-155.691	69.194	0.087	0.088
-154.677	-101.325	-0.122	0.029
-153.662	43.687	0.267	-0.242
-152.647	-200.000	-0.018	0.170
-151.633	-79.157	0.097	0.033
-150.618	-185.262	-0.129	-0.002
-149.604	181.207	0.055	0.080
-148.589	-41.548	0.062	0.032
-147.574	800.000	0.089	-0.342
-146.560	-183.276	0.450	0.008
-145.545	-200.000	0.061	0.557
-144.531	-3.436	-0.101	-0.070
-143.516	71.839	0.189	-0.194
-142.502	-4.317	0.273	-0.187
-141.487	528.640	-0.105	-0.245
-140.472	311.214	0.011	0.021
-139.458	104.616	0.147	0.172
-138.443	-37.229	-0.240	-0.127
-137.429	-50.065	0.088	0.041
-136.414	-200.000	0.019	0.089
-135.399	49.311	-0.146	-0.136
-134.385	433.722	0.059	0.127
-133.370	172.676	-0.193	0.275
-132.356	-49.118	-0.140	-0.066
-131.341	-116.315	-0.100	0.018
-130.326	77.561	0.032	-0.034
-129.312	-155.585	0.130	-0.008
-128.297	445.731	-0.110	0.239
-127.283	128.057	-0.212	-0.266
-126.268	720.134	0.049	-0.129
-125.253	468.993	0.087	-0.193
-124.239	-142.839	0.044	-0.004
-123.224	8.843	0.321	-0.240
-122.210	483.710	-0.130	-0.292
-121.195	272.201	0.129	0.225
