DTS Sentinel unit serial number:	SN413079Multiplexer serial number:	ORYXHardware model number:	OX4-SRSoftware version number:	ORYX F/W v4.00 Oryx Data Collector v3.7.2.0data status	okinstallation	princeton_trtdifferential loss correction	single-endedforward channel	channel 3reverse channel	N/Adate	2019/09/11time	12:38:11forward acquisition time	60.00reverse acquisition time	0.00gamma	496.2192k internal	0.2294k external	0.2294temperature offset calibration	0.9935default loss term (dB/km)	0.3790temperature slope calibration	1.0000multiplexer offset coefficient	1.0000multiplexer slope coefficient	1.0000fibre end	0.00T internal ref (°C)	40.77T ext. ref 1 (°C)	0.20T ext. ref 2 (°C)	38.37length (m)	temperature (°C)	Stokes	anti-Stokes-747.200	800.000	-0.074	0.306
-746.185	-200.000	0.045	0.439
-745.171	117.557	-0.112	0.141
-744.156	-200.000	0.043	0.519
-743.142	-200.000	-0.006	-0.062
-742.127	72.919	0.138	0.147
-741.112	82.020	-0.197	0.218
-740.098	648.469	0.113	0.296
-739.083	-78.486	0.147	0.052
-738.069	-48.474	0.101	-0.050
-737.054	66.643	-0.253	0.263
-736.039	38.904	-0.193	-0.176
-735.025	82.937	0.130	0.144
-734.010	-200.000	-0.008	0.056
-732.996	-37.440	-0.468	0.256
-731.981	541.374	0.053	-0.128
-730.966	800.000	0.105	0.333
-729.952	-83.268	0.089	0.029
-728.937	496.717	0.129	0.304
-727.923	-94.927	-0.355	0.098
-726.908	-136.345	0.267	0.032
-725.894	-200.000	-0.018	-0.284
-724.879	-59.356	-0.391	-0.172
-723.864	-72.320	-0.184	-0.070
-722.850	800.000	0.144	-0.425
-721.835	-200.000	0.015	-0.465
-720.821	-6.999	0.158	-0.110
-719.806	-200.000	-0.035	-0.159
-718.791	-147.615	-0.398	-0.034
-717.777	800.000	-0.084	0.354
-716.762	-10.562	-0.236	0.160
-715.748	162.978	0.104	-0.149
-714.733	-117.699	-0.465	-0.086
-713.718	167.384	0.123	0.179
-712.704	362.163	-0.165	-0.339
-711.689	-200.000	-0.005	0.204
-710.675	-200.000	0.028	0.311
-709.660	-200.000	0.065	-0.408
-708.645	-194.984	0.325	0.003
-707.631	100.829	-0.121	-0.143
-706.616	483.223	0.126	-0.292
-705.602	117.514	0.026	0.033
-704.587	345.498	-0.173	-0.347
-703.572	252.767	0.153	-0.266
-702.558	29.756	0.259	-0.226
-701.543	-66.674	-0.216	-0.087
-700.529	-90.039	-0.077	0.023
-699.514	-60.717	0.135	-0.058
-698.499	-67.829	-0.635	-0.253
-697.485	778.969	-0.084	-0.234
-696.470	-5.737	-0.263	0.184
-695.456	-121.018	0.332	-0.057
-694.441	-128.954	0.097	0.014
-693.426	-57.624	-0.212	0.095
-692.412	800.000	-0.105	0.379
-691.397	800.000	0.105	0.310
-690.383	121.147	-0.054	-0.068
-689.368	-102.415	0.333	0.081
-688.354	-123.122	-0.129	-0.021
-687.339	800.000	0.055	-0.170
-686.324	-200.000	-0.066	-0.339
-685.310	-200.000	-0.021	-0.319
-684.295	-32.040	0.129	0.073
-683.281	12.066	0.099	0.078
-682.266	353.747	-0.084	0.170
-681.251	800.000	0.106	0.409
-680.237	102.829	0.114	0.137
-679.222	134.841	-0.035	-0.046
-678.208	-154.632	0.308	-0.021
-677.193	-149.587	0.228	0.018
-676.178	800.000	-0.036	-0.121
-675.164	37.084	0.254	0.229
-674.149	-200.000	0.005	0.276
-673.135	123.387	0.338	0.432
-672.120	434.337	0.161	0.357
-671.105	257.160	-0.044	0.077
-670.091	-35.166	0.037	-0.020
-669.076	-23.071	0.211	0.130
-668.062	-114.711	-0.124	0.024
-667.047	-37.782	-0.184	0.100
-666.032	612.308	-0.150	-0.382
-665.018	136.285	0.213	-0.283
-664.003	-92.325	0.269	0.077
-662.989	-200.000	-0.035	0.293
-661.974	212.228	-0.140	-0.225
-660.959	800.000	0.036	-0.159
-659.945	-185.952	-0.267	0.004
-658.930	-9.765	-0.230	-0.156
-657.916	800.000	0.006	0.024
-656.901	800.000	0.038	-0.164
-655.886	800.000	0.094	-0.339
-654.872	-113.785	-0.251	0.050
-653.857	182.055	0.154	0.231
-652.843	364.623	-0.090	-0.184
-651.828	227.131	0.100	-0.166
-650.814	346.908	-0.083	0.167
-649.799	-46.782	0.082	-0.041
-648.784	-149.724	0.191	-0.015
-647.770	-200.000	-0.004	-0.162
-646.755	142.825	-0.214	0.289
-645.741	-154.926	-0.027	0.002
-644.726	-42.733	-0.159	-0.082
-643.711	113.322	-0.060	0.074
-642.697	9.681	0.047	-0.037
-641.682	-5.528	0.057	0.040
-640.668	-131.822	-0.442	-0.059
-639.653	-12.164	0.213	0.142
-638.638	-200.000	0.030	0.244
-637.624	291.953	0.040	-0.075
-636.609	-28.825	-0.059	-0.034
-635.595	-99.137	0.160	-0.041
-634.580	-16.513	0.176	-0.113
-633.565	-200.000	-0.041	-0.261
-632.551	-6.721	-0.333	-0.231
-631.536	-160.026	0.406	-0.023
-630.522	-116.398	0.276	0.052
-629.507	-97.285	-0.246	0.065
-628.492	-71.047	-0.045	0.017
-627.478	243.759	-0.052	-0.089
-626.463	-29.720	-0.183	-0.106
-625.449	800.000	-0.058	-0.219
-624.434	-200.000	-0.024	0.119
-623.419	-96.345	-0.135	-0.036
-622.405	442.217	-0.059	-0.131
-621.390	111.140	-0.081	-0.100
-620.376	-160.573	-0.156	-0.008
-619.361	122.383	0.309	0.393
-618.346	-67.414	-0.469	0.188
-617.332	3.194	0.116	-0.086
-616.317	800.000	0.064	-0.249
-615.303	-11.500	-0.193	-0.129
-614.288	95.701	0.120	-0.139
-613.273	114.106	0.045	0.055
-612.259	-200.000	0.027	-0.142
-611.244	66.222	-0.123	0.127
-610.230	-57.030	-0.149	-0.067
-609.215	479.036	0.093	-0.215
-608.201	-117.795	0.115	0.021
-607.186	-200.000	0.069	0.399
-606.171	-200.000	-0.082	-0.369
-605.157	-76.831	-0.302	-0.107
-604.142	-113.906	0.278	-0.055
-603.128	-163.946	-0.176	0.008
-602.113	-56.485	0.312	-0.141
-601.098	800.000	0.076	0.228
-600.084	139.822	0.221	0.297
-599.069	-54.650	-0.224	-0.103
-598.055	75.889	-0.064	-0.069
-597.040	16.899	-0.149	-0.120
-596.025	-129.377	0.359	0.051
-595.011	135.792	0.092	-0.122
-593.996	-83.198	-0.142	0.046
-592.982	-137.812	-0.213	-0.024
-591.967	-79.999	-0.257	-0.088
-590.952	741.245	-0.069	0.189
-589.938	800.000	0.085	0.250
-588.923	-51.795	-0.086	-0.041
-587.909	-116.077	-0.066	-0.013
-586.894	-119.234	0.224	-0.040
-585.879	-43.221	0.302	-0.155
-584.865	-200.000	0.016	-0.162
-583.850	-119.526	-0.306	0.054
-582.836	-188.294	0.310	-0.004
-581.821	-200.000	-0.010	-0.065
-580.806	336.129	0.099	-0.195
-579.792	-56.686	-0.073	-0.033
-578.777	288.471	0.095	-0.175
-577.763	-104.607	-0.125	-0.029
-576.748	-78.276	-0.101	-0.035
-575.733	-91.609	0.049	0.014
-574.719	208.827	-0.190	-0.302
-573.704	-121.547	0.148	0.025
-572.690	475.572	-0.087	-0.200
-571.675	-200.000	0.020	-0.112
-570.661	465.115	-0.069	0.158
-569.646	123.462	0.184	-0.235
-568.631	-78.468	-0.385	0.134
-567.617	-200.000	0.024	-0.335
-566.602	-64.467	0.316	-0.130
-565.588	-5.273	-0.138	-0.096
-564.573	392.747	-0.134	0.284
-563.558	-200.000	-0.005	-0.241
-562.544	-115.677	-0.334	-0.064
-561.529	39.886	0.026	0.024
-560.515	-200.000	-0.017	-0.259
-559.500	-84.471	-0.167	0.053
-558.485	-85.723	0.135	-0.042
-557.471	112.562	-0.293	-0.360
-556.456	-51.559	-0.095	0.045
-555.442	800.000	-0.052	0.147
-554.427	38.427	-0.320	0.290
-553.412	371.404	-0.154	0.318
-552.398	417.541	-0.132	-0.285
-551.383	-200.000	0.041	0.196
-550.369	-200.000	-0.010	-0.064
-549.354	-126.580	0.372	0.056
-548.339	38.780	0.201	-0.182
-547.325	51.343	-0.225	0.217
-546.310	-130.613	-0.266	0.036
-545.296	-15.181	0.131	0.085
-544.281	-88.022	-0.158	-0.048
-543.266	-42.958	-0.043	0.022
-542.252	-129.218	0.128	0.018
-541.237	4.152	-0.360	-0.268
-540.223	479.531	0.099	-0.228
-539.208	84.359	0.116	0.128
-538.193	-22.607	0.221	0.136
-537.179	36.612	0.112	-0.101
-536.164	21.953	0.221	-0.183
-535.150	-200.000	-0.020	-0.124
-534.135	-55.223	-0.231	-0.105
-533.121	280.563	-0.242	0.439
-532.106	800.000	0.098	-0.281
-531.091	-200.000	-0.053	-0.334
-530.077	-200.000	-0.006	-0.215
-529.062	2.693	0.303	-0.222
-528.048	-69.653	-0.235	0.091
-527.033	-200.000	0.019	-0.119
-526.018	-96.207	0.334	0.090
-525.004	768.544	-0.079	-0.219
-523.989	16.848	-0.217	0.174
-522.975	-200.000	-0.014	0.230
-521.960	-119.159	0.273	-0.048
-520.945	-130.837	0.099	0.013
-519.931	800.000	0.020	-0.065
-518.916	-98.873	-0.041	-0.011
-517.902	-152.076	0.285	-0.021
-516.887	91.942	-0.222	-0.253
-515.872	-152.152	0.331	0.024
-514.858	135.456	-0.143	0.189
-513.843	8.017	-0.137	0.104
-512.829	-64.093	0.367	-0.152
-511.814	-14.575	-0.175	-0.114
-510.799	-79.132	-0.432	-0.149
-509.785	234.773	-0.225	0.376
-508.770	-38.044	-0.394	0.212
-507.756	-152.404	0.240	-0.017
-506.741	-26.764	0.176	-0.104
-505.726	-75.654	0.458	0.165
-504.712	-57.298	-0.281	-0.125
-503.697	31.082	-0.177	-0.154
-502.683	-78.588	-0.099	0.034
-501.668	800.000	0.055	0.154
-500.653	-200.000	-0.033	-0.265
-499.639	9.437	-0.375	-0.288
-498.624	-37.690	0.156	-0.084
-497.610	-11.445	0.178	-0.118
-496.595	-54.774	-0.211	-0.097
-495.581	-200.000	0.016	-0.382
-494.566	-57.813	0.302	0.134
-493.551	-151.977	0.315	0.023
-492.537	800.000	-0.129	0.410
-491.522	-200.000	-0.025	0.287
-490.508	-200.000	0.057	0.288
-489.493	-92.843	-0.387	0.109
-488.478	-200.000	-0.007	0.075
-487.464	22.500	0.211	-0.175
-486.449	-106.668	0.198	0.045
-485.435	800.000	-0.097	-0.298
-484.420	-108.128	0.056	-0.012
-483.405	402.134	-0.101	0.214
-482.391	190.976	-0.174	-0.265
-481.376	-100.049	-0.170	-0.043
-480.362	96.913	-0.183	0.212
-479.347	265.571	-0.074	0.131
-478.332	270.653	-0.108	0.192
-477.318	-28.894	-0.199	0.116
-476.303	4.210	0.127	-0.094
-475.289	80.803	-0.088	-0.096
-474.274	-94.010	0.117	-0.033
-473.259	-21.807	0.278	-0.171
-472.245	80.725	0.100	-0.109
-471.230	-200.000	0.010	0.183
-470.216	492.044	-0.113	0.263
-469.201	309.562	0.010	-0.020
-468.186	212.054	0.055	0.087
-467.172	-200.000	0.018	0.141
-466.157	800.000	0.088	0.348
-465.143	7.993	0.268	-0.204
-464.128	502.579	-0.201	0.470
-463.113	-28.078	0.108	0.063
-462.099	43.424	0.184	-0.170
-461.084	-199.476	0.081	-0.000
-460.070	249.593	0.157	-0.270
-459.055	104.848	-0.137	0.164
-458.040	29.086	0.149	0.128
-457.026	352.857	0.095	0.190
-456.011	-37.841	-0.289	0.156
-454.997	186.188	-0.086	0.129
-453.982	6.545	-0.107	0.080
-452.968	523.222	-0.097	0.231
-451.953	12.217	0.241	0.187
-450.938	-55.749	0.158	0.071
-449.924	544.071	-0.164	-0.397
-448.909	-55.780	0.216	-0.098
-447.895	-200.000	0.045	-0.377
-446.880	14.473	0.334	-0.264
-445.865	-141.591	0.222	0.023
-444.851	133.050	0.056	-0.073
-443.836	-98.410	0.191	0.049
-442.822	-19.996	0.149	0.093
-441.807	136.305	-0.185	0.243
-440.792	37.211	0.293	-0.262
-439.778	-200.000	0.000	-0.035
-438.763	-200.000	-0.021	-0.121
-437.749	-200.000	-0.059	-0.275
-436.734	-200.000	0.000	-0.238
-435.719	-110.545	0.074	-0.015
-434.705	-93.133	-0.462	-0.130
-433.690	189.745	0.213	0.322
-432.676	26.392	0.185	0.156
-431.661	-92.326	-0.091	0.026
-430.646	800.000	0.105	0.340
-429.632	-200.000	0.018	0.194
-428.617	-111.625	0.173	0.035
-427.603	24.147	0.114	0.095
-426.588	-17.649	-0.023	0.015
-425.573	800.000	0.068	-0.261
-424.559	-200.000	-0.011	0.093
-423.544	-191.715	-0.286	-0.003
-422.530	85.984	-0.082	0.091
-421.515	-200.000	0.046	0.342
-420.500	92.438	-0.016	-0.018
-419.486	800.000	-0.189	-0.625
-418.471	-200.000	0.012	-0.261
-417.457	-200.000	-0.011	-0.299
-416.442	11.379	-0.056	-0.043
-415.428	-81.880	0.384	-0.127
-414.413	800.000	0.054	0.229
-413.398	188.370	-0.073	-0.110
-412.384	601.405	-0.072	-0.180
-411.369	-200.000	-0.013	0.134
-410.355	212.251	-0.077	0.123
-409.340	-200.000	-0.022	-0.180
-408.325	771.097	-0.039	-0.108
-407.311	313.464	-0.147	-0.279
-406.296	-57.341	-0.171	0.076
-405.282	10.441	-0.047	0.036
-404.267	-200.000	0.035	0.303
-403.252	-23.985	-0.069	0.042
-402.238	120.283	-0.215	-0.270
-401.223	116.300	0.174	-0.216
-400.209	-21.418	0.391	0.241
-399.194	-108.605	-0.135	0.029
-398.179	-60.085	0.139	-0.060
-397.165	-63.545	0.159	0.066
-396.150	188.375	-0.008	0.012
-395.136	77.270	0.233	-0.249
-394.121	290.203	0.042	-0.077
-393.106	-200.000	-0.025	-0.249
-392.092	800.000	0.068	0.299
-391.077	181.091	-0.053	-0.079
-390.063	76.258	-0.161	-0.172
-389.048	21.115	0.265	0.217
-388.033	-200.000	-0.035	0.166
-387.019	-200.000	-0.023	0.215
-386.004	-134.124	0.462	0.058
-384.990	-200.000	-0.055	-0.297
-383.975	-200.000	-0.038	-0.184
-382.960	-75.416	0.204	0.073
-381.946	-146.273	0.097	0.009
-380.931	-112.471	0.242	-0.049
-379.917	190.018	-0.158	-0.239
-378.902	123.868	0.142	-0.180
-377.888	-96.749	0.196	-0.052
-376.873	-200.000	-0.044	0.269
-375.858	-200.000	0.031	0.393
-374.844	-38.404	0.207	-0.110
-373.829	-200.000	0.026	0.210
-372.815	367.244	-0.016	-0.033
-371.800	58.934	-0.211	0.210
-370.785	513.254	-0.189	0.445
-369.771	-44.075	-0.445	-0.225
-368.756	-140.168	0.135	-0.014
-367.742	-44.947	-0.286	0.144
-366.727	629.385	0.110	0.279
-365.712	-70.330	0.236	0.090
-364.698	-95.381	0.213	0.058
-363.683	98.555	0.163	-0.189
-362.669	220.802	0.047	-0.076
-361.654	-113.523	0.216	0.043
-360.639	800.000	-0.063	0.226
-359.625	-175.212	-0.262	0.007
-358.610	345.114	0.081	0.160
-357.596	-200.000	0.049	0.413
-356.581	-200.000	0.006	0.121
-355.566	101.774	0.224	-0.263
-354.552	800.000	0.020	-0.065
-353.537	800.000	0.048	-0.198
-352.523	79.867	-0.126	-0.136
-351.508	-200.000	-0.067	-0.000
-350.493	-200.000	0.022	0.099
-349.479	-105.606	0.277	0.063
-348.464	175.085	-0.098	-0.142
-347.450	-149.251	-0.103	-0.008
-346.435	23.062	0.088	0.072
-345.420	-200.000	0.018	-0.253
-344.406	800.000	-0.068	0.219
-343.391	-168.075	0.069	0.003
-342.377	786.554	0.063	-0.175
-341.362	-32.628	-0.245	0.137
-340.348	800.000	-0.086	-0.244
-339.333	175.041	0.157	0.229
-338.318	800.000	-0.058	0.174
-337.304	177.369	-0.094	0.138
-336.289	115.174	-0.164	-0.202
-335.275	-58.418	-0.276	-0.121
-334.260	800.000	0.066	0.195
-333.245	199.995	0.086	0.134
-332.231	-20.329	-0.292	-0.181
-331.216	-144.904	-0.163	0.015
-330.202	800.000	-0.047	-0.162
-329.187	-148.558	-0.099	-0.008
-328.172	-169.169	-0.069	-0.003
-327.158	-200.000	0.004	-0.118
-326.143	-38.639	0.096	-0.051
-325.129	-10.385	-0.118	0.079
-324.114	60.218	-0.090	0.090
-323.099	395.781	0.246	0.516
-322.085	800.000	0.054	-0.195
-321.070	800.000	0.122	-0.501
-320.056	-200.000	-0.025	0.132
-319.041	-48.295	0.201	-0.097
-318.026	-185.250	-0.283	0.004
-317.012	-19.988	-0.407	-0.252
-315.997	-91.442	0.210	0.060
-314.983	-72.148	-0.158	0.059
-313.968	220.855	-0.151	-0.244
-312.953	800.000	0.034	-0.149
-311.939	-33.612	0.368	-0.204
-310.924	-104.853	0.333	-0.077
-309.910	-200.000	0.002	0.164
-308.895	13.209	0.317	-0.247
-307.880	-154.848	-0.132	-0.009
-306.866	237.065	0.088	0.147
-305.851	-113.319	0.333	0.066
-304.837	65.059	0.264	0.268
-303.822	-200.000	-0.024	-0.120
-302.807	-92.560	-0.178	-0.050
-301.793	-68.028	0.289	-0.113
-300.778	-2.852	-0.094	-0.066
-299.764	-26.724	-0.164	0.096
-298.749	610.092	-0.148	-0.370
-297.735	126.460	0.187	-0.239
-296.720	-49.767	0.154	-0.074
-295.705	13.811	0.089	-0.070
-294.691	36.799	0.109	-0.097
-293.676	-96.556	-0.117	-0.031
-292.662	-200.000	-0.030	0.235
-291.647	-159.325	-0.312	-0.018
-290.632	-116.592	0.347	0.064
-289.618	-60.008	0.079	0.034
-288.603	286.023	0.087	0.158
-287.589	-200.000	-0.049	0.531
-286.574	800.000	-0.066	0.242
-285.559	76.086	0.069	0.074
-284.545	-101.176	-0.080	0.020
-283.530	622.475	0.028	0.072
-282.516	428.029	-0.130	-0.283
-281.501	-26.113	0.399	0.235
-280.486	-5.319	0.114	0.079
-279.472	800.000	-0.020	-0.068
-278.457	-200.000	-0.022	-0.373
-277.443	800.000	0.066	0.242
-276.428	302.978	-0.134	-0.249
-275.413	-171.896	0.252	0.008
-274.399	44.801	0.068	0.063
-273.384	-96.576	-0.178	0.047
-272.370	88.302	-0.164	-0.183
-271.355	41.829	-0.081	0.074
-270.340	-174.736	0.178	0.005
-269.326	416.503	-0.095	-0.203
-268.311	-200.000	0.103	0.462
-267.297	292.644	-0.156	0.285
-266.282	201.141	0.142	-0.219
-265.267	-189.250	-0.403	-0.005
-264.253	229.446	0.075	0.123
-263.238	-200.000	-0.021	0.328
-262.224	800.000	-0.081	-0.300
-261.209	800.000	-0.117	0.353
-260.195	27.581	-0.143	-0.121
-259.180	724.046	0.104	0.278
-258.165	5.450	0.219	-0.162
-257.151	151.844	-0.099	-0.135
-256.136	207.275	-0.203	0.317
-255.122	144.042	-0.182	0.244
-254.107	-200.000	0.048	0.264
-253.092	475.964	0.069	-0.156
-252.078	375.245	0.041	-0.084
-251.063	402.323	0.181	-0.383
-250.049	277.386	0.079	-0.141
-249.034	797.945	0.048	-0.134
-248.019	-35.944	0.196	-0.106
-247.005	-21.934	-0.249	-0.152
-245.990	85.460	-0.244	-0.269
-244.976	-153.594	-0.548	0.038
-243.961	800.000	0.031	0.121
-242.946	800.000	-0.034	-0.103
-241.932	-82.843	-0.148	-0.048
-240.917	757.395	-0.040	-0.109
-239.903	103.273	-0.254	-0.299
-238.888	-151.325	0.066	-0.005
-237.873	697.712	0.065	0.172
-236.859	-182.121	0.202	0.004
-235.844	-74.514	0.168	0.061
-234.830	114.839	0.179	-0.219
-233.815	-17.258	-0.249	-0.157
-232.800	-200.000	-0.081	0.459
-231.786	180.550	-0.096	0.141
-230.771	-67.830	-0.130	-0.051
-229.757	221.714	-0.119	0.192
-228.742	-200.000	-0.013	0.067
-227.727	387.511	-0.114	0.237
-226.713	508.287	-0.138	0.321
-225.698	-200.000	0.015	-0.101
-224.684	-200.000	-0.021	0.208
-223.669	124.591	-0.213	0.269
-222.655	18.992	0.248	0.199
-221.640	-200.000	-0.065	0.329
-220.625	165.443	0.200	0.283
-219.611	358.447	-0.074	0.148
-218.596	460.295	0.121	0.270
-217.582	74.610	-0.186	0.196
-216.567	123.587	0.093	-0.117
-215.552	-200.000	0.246	-0.001
-214.538	-200.000	-0.039	0.295
-213.523	800.000	0.073	0.260
-212.509	532.802	-0.138	-0.327
-211.494	-42.587	0.231	-0.118
-210.479	-105.823	-0.194	-0.044
-209.465	494.944	0.143	0.329
-208.450	-200.000	0.057	0.468
-207.436	-0.912	-0.331	-0.235
-206.421	800.000	-0.099	-0.407
-205.406	-57.707	-0.153	-0.067
-204.392	-139.405	-0.210	0.022
-203.377	85.608	0.225	0.247
-202.363	-153.808	0.392	-0.027
-201.348	69.373	-0.254	-0.262
-200.333	-125.167	0.172	0.026
-199.319	99.328	0.268	0.310
-198.304	2.631	-0.171	0.124
-197.290	581.143	-0.047	-0.115
-196.275	-108.981	0.451	-0.096
-195.260	51.572	0.080	0.076
-194.246	-200.000	0.058	-0.306
-193.231	-79.048	-0.298	0.101
-192.217	-200.000	-0.051	-0.324
-191.202	-86.410	-0.039	0.012
-190.187	-159.691	0.050	0.003
-189.173	-106.716	-0.115	-0.025
-188.158	-200.000	-0.033	-0.231
-187.144	235.308	-0.060	-0.098
-186.129	-8.184	0.373	0.251
-185.114	-200.000	0.058	0.390
-184.100	196.190	0.053	0.081
-183.085	800.000	0.095	0.268
-182.071	292.383	0.085	0.156
-181.056	-143.617	-0.254	-0.024
-180.042	255.067	0.069	0.118
-179.027	445.446	0.104	-0.229
-178.012	800.000	0.009	0.029
-176.998	45.092	0.267	0.246
-175.983	94.130	0.073	-0.082
-174.969	-90.429	-0.338	0.098
-173.954	-101.466	-0.102	0.025
-172.939	800.000	-0.123	0.355
-171.925	-62.155	-0.097	-0.040
-170.910	203.165	-0.146	-0.225
-169.896	21.758	0.138	0.112
-168.881	410.200	-0.091	-0.193
-167.866	0.619	0.110	-0.079
-166.852	-192.276	-0.190	0.002
-165.837	-169.337	-0.172	0.006
-164.823	398.398	0.073	-0.152
-163.808	-8.062	0.242	-0.163
-162.793	-70.932	-0.043	-0.016
-161.779	-200.000	0.032	-0.177
-160.764	-155.669	-0.144	0.009
-159.750	-101.247	-0.281	-0.069
-158.735	-26.113	0.412	0.242
-157.720	800.000	-0.060	0.191
-156.706	-85.768	0.213	0.066
-155.691	30.962	-0.279	-0.239
-154.677	29.993	-0.128	-0.109
-153.662	144.316	0.067	-0.089
-152.647	-169.122	-0.267	-0.010
-151.633	361.189	0.178	0.357
-150.618	-159.378	0.464	-0.026
-149.604	-13.571	0.353	0.228
-148.589	375.247	-0.090	-0.184
-147.574	-200.000	-0.054	-0.446
-146.560	4.363	-0.255	-0.187
-145.545	410.444	-0.072	0.152
-144.531	-119.039	-0.370	-0.065
-143.516	27.722	-0.131	-0.110
-142.502	38.305	-0.359	0.319
-141.487	800.000	0.105	0.407
-140.472	-101.519	0.220	-0.053
-139.458	-200.000	0.077	0.445
-138.443	-95.711	0.029	0.008
-137.429	-29.295	0.086	-0.049
-136.414	-34.109	0.201	-0.110
-135.399	141.781	0.160	-0.211
-134.385	-200.000	-0.028	-0.166
-133.370	394.966	-0.127	0.265
-132.356	423.989	0.022	0.047
-131.341	53.946	-0.182	-0.175
-130.326	431.666	-0.084	-0.183
-129.312	-47.567	-0.173	0.084
-128.297	141.511	0.146	0.193
-127.283	197.244	0.012	-0.019
-126.268	-3.727	0.198	-0.137
-125.253	-200.000	-0.030	-0.268
-124.239	27.761	0.181	0.152
-123.224	-200.000	-0.028	0.392
-122.210	800.000	-0.030	-0.095
