DTS Sentinel unit serial number:	SN413079Multiplexer serial number:	ORYXHardware model number:	OX4-SRSoftware version number:	ORYX F/W v4.00 Oryx Data Collector v3.7.2.0data status	okinstallation	princeton_trtdifferential loss correction	single-endedforward channel	channel 3reverse channel	N/Adate	2019/09/11time	09:54:10forward acquisition time	60.00reverse acquisition time	0.00gamma	496.2192k internal	0.2302k external	0.2302temperature offset calibration	0.9941default loss term (dB/km)	0.3790temperature slope calibration	1.0000multiplexer offset coefficient	1.0000multiplexer slope coefficient	1.0000fibre end	0.00T internal ref (°C)	35.19T ext. ref 1 (°C)	0.14T ext. ref 2 (°C)	32.42length (m)	temperature (°C)	Stokes	anti-Stokes-747.200	-200.000	0.012	0.101
-746.185	-62.493	0.172	0.073
-745.171	42.627	0.183	0.170
-744.156	800.000	-0.066	-0.272
-743.142	-85.138	0.020	-0.006
-742.127	225.645	-0.111	0.184
-741.112	311.364	-0.068	0.129
-740.098	393.937	0.050	-0.107
-739.083	130.400	0.133	-0.174
-738.069	-20.385	-0.290	-0.182
-737.054	103.730	0.106	-0.127
-736.039	-34.918	-0.290	0.161
-735.025	-40.517	0.280	-0.148
-734.010	295.141	-0.140	-0.261
-732.996	-118.261	-0.357	0.065
-731.981	165.813	0.091	0.131
-730.966	180.560	-0.067	-0.100
-729.952	800.000	-0.069	-0.210
-728.937	-200.000	-0.198	0.000
-727.923	199.514	-0.068	-0.106
-726.908	38.623	-0.090	-0.082
-725.894	-27.249	-0.185	0.110
-724.879	800.000	-0.057	0.227
-723.864	-200.000	0.008	-0.275
-722.850	499.883	-0.067	-0.157
-721.835	-200.000	-0.045	-0.310
-720.821	113.784	-0.127	-0.157
-719.806	-153.404	-0.540	-0.038
-718.791	-17.329	0.095	0.061
-717.777	-90.105	-0.127	0.038
-716.762	800.000	-0.041	-0.117
-715.748	169.891	-0.037	0.054
-714.733	190.621	0.118	-0.181
-713.718	123.028	-0.109	-0.139
-712.704	-186.323	0.110	0.002
-711.689	33.644	0.178	0.157
-710.675	-112.838	-0.279	0.056
-709.660	89.753	-0.226	0.256
-708.645	-101.690	-0.086	-0.021
-707.631	-52.170	-0.222	0.105
-706.616	599.864	0.201	0.508
-705.602	-172.502	0.231	0.007
-704.587	-200.000	-0.012	-0.081
-703.572	-200.000	-0.004	0.222
-702.558	148.668	0.222	0.305
-701.543	-200.000	0.074	-0.491
-700.529	-96.420	-0.138	-0.037
-699.514	99.985	0.082	0.097
-698.499	800.000	-0.040	-0.124
-697.485	-25.883	0.259	0.155
-696.470	54.071	-0.032	-0.032
-695.456	-32.516	-0.065	0.037
-694.441	-200.000	0.006	-0.074
-693.426	-89.602	0.196	0.059
-692.412	369.485	0.049	0.101
-691.397	-96.897	-0.200	-0.054
-690.383	-77.150	0.213	0.075
-689.368	-50.527	0.083	0.040
-688.354	-84.995	0.142	-0.045
-687.339	-114.030	0.191	0.038
-686.324	800.000	-0.077	-0.254
-685.310	-200.000	0.062	-0.320
-684.295	55.503	-0.095	0.093
-683.281	769.984	-0.033	-0.090
-682.266	470.587	-0.073	0.166
-681.251	146.890	-0.198	-0.271
-680.237	-114.305	-0.118	-0.023
-679.222	-200.000	-0.023	0.175
-678.208	800.000	-0.057	-0.185
-677.193	67.434	0.316	0.328
-676.178	-26.027	0.171	-0.102
-675.164	101.585	0.105	-0.124
-674.149	-106.221	-0.041	0.009
-673.135	171.080	-0.237	0.345
-672.120	-158.902	0.248	0.014
-671.105	202.188	-0.071	-0.111
-670.091	-99.337	-0.150	0.039
-669.076	111.223	-0.243	-0.298
-668.062	5.630	0.133	-0.100
-667.047	-88.523	-0.272	0.082
-666.032	-90.222	-0.235	-0.070
-665.018	-4.278	-0.110	0.077
-664.003	772.469	0.096	0.267
-662.989	-200.000	0.010	0.268
-661.974	30.047	0.138	-0.119
-660.959	148.691	-0.143	0.196
-659.945	800.000	-0.085	-0.258
-658.930	-17.219	-0.130	-0.083
-657.916	77.676	0.194	-0.210
-656.901	167.377	-0.065	0.094
-655.886	-200.000	0.015	-0.111
-654.872	-200.000	0.029	-0.190
-653.857	58.753	0.136	-0.136
-652.843	159.843	0.127	0.179
-651.828	-161.335	0.144	-0.008
-650.814	-200.000	-0.020	-0.209
-649.799	-33.778	-0.262	-0.147
-648.784	95.227	0.128	-0.148
-647.770	736.633	0.073	-0.199
-646.755	800.000	-0.054	0.241
-645.741	-200.000	0.024	-0.144
-644.726	-200.000	-0.025	-0.347
-643.711	-200.000	-0.311	-0.001
-642.697	340.653	0.053	-0.105
-641.682	-200.000	-0.054	0.245
-640.668	51.368	0.104	-0.101
-639.653	-200.000	-0.050	-0.362
-638.638	338.518	-0.129	-0.256
-637.624	16.881	0.076	-0.061
-636.609	14.558	-0.208	0.165
-635.595	655.151	-0.050	-0.130
-634.580	-200.000	0.016	0.259
-633.565	-39.881	-0.171	0.091
-632.551	263.726	-0.193	-0.341
-631.536	258.748	-0.110	0.193
-630.522	-200.000	0.052	-0.373
-629.507	-175.505	0.216	-0.006
-628.492	-200.000	0.063	0.361
-627.478	-101.876	-0.286	0.070
-626.463	-134.865	-0.102	-0.013
-625.449	-102.536	0.107	-0.026
-624.434	349.561	-0.063	0.125
-623.419	800.000	0.036	0.104
-622.405	-200.000	-0.047	-0.279
-621.390	800.000	0.070	0.213
-620.376	-200.000	0.044	0.303
-619.361	153.324	-0.102	-0.141
-618.346	-78.024	0.321	-0.112
-617.332	-200.000	0.057	-0.265
-616.317	167.178	-0.147	0.211
-615.303	-106.833	-0.077	-0.017
-614.288	800.000	0.058	0.257
-613.273	94.505	-0.059	0.068
-612.259	-200.000	-0.063	-0.294
-611.244	-200.000	-0.230	-0.001
-610.230	-16.835	-0.268	0.171
-609.215	41.822	0.075	-0.069
-608.201	-0.535	-0.076	-0.055
-607.186	124.255	-0.111	0.142
-606.171	-200.000	-0.005	0.280
-605.157	406.646	0.072	-0.153
-604.142	8.851	-0.235	0.180
-603.128	61.337	0.135	0.136
-602.113	90.246	0.101	0.115
-601.098	800.000	-0.079	-0.314
-600.084	-200.000	-0.005	-0.246
-599.069	-146.494	-0.507	0.045
-598.055	800.000	0.057	-0.247
-597.040	305.616	0.019	-0.036
-596.025	24.761	-0.118	-0.099
-595.011	-58.839	-0.240	-0.105
-593.996	-56.404	0.078	-0.035
-592.982	62.806	-0.112	-0.114
-591.967	-44.888	-0.207	-0.105
-590.952	607.790	0.082	0.207
-589.938	800.000	0.095	0.279
-588.923	122.959	0.067	-0.085
-587.909	136.186	-0.151	0.199
-586.894	222.251	0.111	-0.181
-585.879	-112.385	0.282	0.057
-584.865	186.082	-0.048	0.073
-583.850	69.235	-0.238	-0.248
-582.836	-200.000	-0.028	-0.157
-581.821	124.250	0.076	-0.097
-580.806	-133.649	-0.334	0.042
-579.792	270.121	0.090	0.161
-578.777	-135.414	-0.090	-0.011
-577.763	-69.399	-0.067	-0.026
-576.748	-200.000	0.032	0.270
-575.733	37.625	0.243	-0.219
-574.719	-200.000	-0.054	0.300
-573.704	48.946	-0.147	-0.140
-572.690	-38.561	-0.085	0.045
-571.675	-85.389	0.217	-0.069
-570.661	800.000	0.016	0.061
-569.646	-175.495	0.042	-0.001
-568.631	-29.884	0.302	0.174
-567.617	-77.902	0.272	0.095
-566.602	95.001	0.128	-0.147
-565.588	-131.957	0.196	-0.026
-564.573	800.000	-0.083	-0.314
-563.558	786.391	-0.144	0.400
-562.544	226.731	-0.210	0.346
-561.529	-21.833	-0.115	-0.071
-560.515	625.381	-0.065	-0.166
-559.500	759.458	-0.012	-0.033
-558.485	120.065	0.130	-0.163
-557.471	799.612	-0.078	-0.218
-556.456	155.251	-0.145	0.202
-555.442	-26.076	-0.248	0.148
-554.427	-144.725	0.244	-0.023
-553.412	94.074	-0.228	-0.262
-552.398	-75.549	-0.453	-0.163
-551.383	-70.369	0.230	0.088
-550.369	-153.024	0.115	-0.008
-549.354	-200.000	-0.043	0.253
-548.339	109.346	0.091	-0.111
-547.325	-14.485	0.170	-0.111
-546.310	-200.000	-0.040	-0.244
-545.296	590.578	0.056	-0.140
-544.281	86.591	-0.176	0.196
-543.266	-185.681	-0.148	0.002
-542.252	-18.849	-0.191	-0.120
-541.237	106.839	0.204	0.245
-540.223	220.608	0.143	-0.232
-539.208	-138.771	0.150	0.016
-538.193	-200.000	-0.017	0.186
-537.179	39.414	0.033	0.030
-536.164	-200.000	-0.053	-0.335
-535.150	39.765	0.224	-0.203
-534.135	506.177	0.140	0.328
-533.121	744.525	-0.063	-0.173
-532.106	0.051	0.265	0.191
-531.091	-200.000	0.065	0.296
-530.077	10.835	0.253	-0.195
-529.062	432.076	-0.165	-0.362
-528.048	-200.000	-0.031	-0.411
-527.033	202.369	-0.015	-0.023
-526.018	-38.592	0.193	-0.103
-525.004	800.000	-0.102	0.353
-523.989	-200.000	-0.026	0.255
-522.975	-177.806	-0.026	0.001
-521.960	800.000	-0.136	0.404
-520.945	-93.396	-0.094	0.026
-519.931	-76.858	0.097	-0.034
-518.916	-43.766	0.171	0.087
-517.902	-106.497	-0.214	0.048
-516.887	800.000	0.098	-0.416
-515.872	-36.390	-0.251	0.137
-514.858	200.558	0.059	0.092
-513.843	-18.091	0.461	-0.292
-512.829	-133.395	-0.354	0.045
-511.814	-200.000	-0.003	-0.094
-510.799	-200.000	-0.040	-0.192
-509.785	-176.145	-0.172	0.005
-508.770	-90.967	0.322	-0.094
-507.756	395.858	0.056	0.118
-506.741	184.565	-0.083	-0.124
-505.726	17.001	0.177	-0.142
-504.712	444.872	-0.022	0.049
-503.697	-200.000	-0.012	0.225
-502.683	-3.893	0.185	0.129
-501.668	-200.000	0.045	-0.235
-500.653	-57.827	-0.175	-0.077
-499.639	-7.371	-0.213	-0.146
-498.624	-91.499	-0.175	-0.050
-497.610	-200.000	0.016	0.165
-496.595	-6.524	-0.120	0.082
-495.581	-200.000	-0.030	-0.176
-494.566	-200.000	0.009	0.258
-493.551	800.000	0.053	-0.198
-492.537	-31.798	-0.335	-0.190
-491.522	-35.339	-0.127	-0.070
-490.508	800.000	-0.057	0.222
-489.493	10.798	-0.136	0.104
-488.478	-79.139	0.156	-0.054
-487.464	-85.599	-0.406	0.127
-486.449	-200.000	0.042	-0.286
-485.435	579.342	-0.108	0.267
-484.420	800.000	0.093	0.351
-483.405	-52.929	-0.104	0.048
-482.391	155.881	0.138	0.192
-481.376	463.394	0.157	-0.355
-480.362	-111.987	0.098	0.020
-479.347	518.015	0.123	0.291
-478.332	165.124	-0.195	-0.277
-477.318	-34.002	-0.217	0.121
-476.303	622.981	-0.142	0.362
-475.289	-200.000	-0.021	0.128
-474.274	577.423	0.121	-0.299
-473.259	-127.634	-0.333	0.049
-472.245	51.321	-0.286	-0.274
-471.230	-22.038	-0.107	0.065
-470.216	12.048	0.161	-0.125
-469.201	800.000	-0.028	-0.098
-468.186	-200.000	0.021	-0.101
-467.172	55.771	-0.111	0.108
-466.157	-200.000	-0.058	0.258
-465.143	-128.774	0.459	-0.065
-464.128	-55.321	0.095	0.043
-463.113	800.000	-0.059	0.206
-462.099	758.390	-0.104	0.284
-461.084	58.050	0.258	0.254
-460.070	-144.187	-0.081	0.008
-459.055	276.221	0.136	-0.244
-458.040	-30.419	-0.142	0.081
-457.026	-200.000	-0.020	0.143
-456.011	206.139	0.055	0.086
-454.997	-164.458	0.122	0.006
-453.982	-55.464	-0.407	-0.184
-452.968	-103.984	0.278	-0.065
-451.953	158.416	0.044	0.062
-450.938	-152.160	-0.213	-0.016
-449.924	800.000	-0.029	0.120
-448.909	547.747	-0.190	0.458
-447.895	17.065	0.147	0.117
-446.880	800.000	-0.044	0.177
-445.865	-4.673	-0.051	-0.036
-444.851	610.154	0.103	0.258
-443.836	-177.629	-0.253	-0.006
-442.822	41.790	0.171	0.156
-441.807	-200.000	0.020	-0.343
-440.792	-92.138	0.116	-0.033
-439.778	127.258	-0.102	0.130
-438.763	-200.000	0.031	-0.232
-437.749	697.998	0.059	0.156
-436.734	-125.672	-0.232	0.035
-435.719	-128.248	0.294	0.042
-434.705	435.176	0.052	0.114
-433.690	800.000	-0.038	0.121
-432.676	-131.226	0.206	-0.028
-431.661	-200.000	0.008	-0.366
-430.646	-46.087	0.237	-0.118
-429.632	104.669	-0.102	-0.121
-428.617	30.716	-0.089	0.077
-427.603	229.506	0.085	0.140
-426.588	-134.095	-0.145	0.018
-425.573	-200.000	0.003	-0.403
-424.559	445.801	0.016	-0.035
-423.544	-32.796	-0.110	0.062
-422.530	-166.829	-0.244	-0.010
-421.515	125.105	-0.184	-0.233
-420.500	-115.691	0.271	-0.051
-419.486	218.139	-0.069	-0.111
-418.471	88.915	0.132	-0.148
-417.457	448.187	0.055	-0.121
-416.442	-169.559	-0.202	0.007
-415.428	129.785	0.052	-0.067
-414.413	-200.000	-0.025	0.430
-413.398	0.679	0.196	-0.141
-412.384	42.037	0.152	0.139
-411.369	800.000	0.068	-0.233
-410.355	510.931	-0.036	0.085
-409.340	694.442	0.089	-0.236
-408.325	16.363	-0.167	-0.132
-407.311	-0.640	0.203	-0.145
-406.296	-186.368	0.411	-0.006
-405.282	-200.000	-0.043	-0.217
-404.267	-200.000	-0.024	-0.271
-403.252	50.252	0.213	0.203
-402.238	800.000	0.053	-0.217
-401.223	-200.000	-0.042	0.288
-400.209	800.000	0.036	0.132
-399.194	-61.783	0.168	0.071
-398.179	-140.919	-0.204	0.021
-397.165	181.729	0.096	0.141
-396.150	107.338	-0.118	-0.142
-395.136	-200.000	0.028	0.192
-394.121	-112.937	-0.074	0.015
-393.106	103.846	0.170	0.201
-392.092	-200.000	-0.001	-0.071
-391.077	120.596	0.171	-0.214
-390.063	-54.896	0.351	-0.159
-389.048	13.930	-0.055	0.043
-388.033	16.535	-0.260	0.207
-387.019	134.934	0.191	-0.250
-386.004	-95.388	-0.402	0.109
-384.990	-200.000	-0.018	0.127
-383.975	-200.000	-0.015	0.215
-382.960	-99.956	-0.179	-0.045
-381.946	-106.774	-0.137	0.031
-380.931	247.415	0.110	0.187
-379.917	-23.309	-0.414	0.250
-378.902	-156.351	0.345	0.022
-377.888	-71.991	-0.124	0.046
-376.873	-112.294	0.195	-0.039
-375.858	-152.063	0.088	-0.006
-374.844	-57.041	0.119	0.053
-373.829	800.000	-0.127	0.367
-372.815	185.201	0.143	-0.213
-371.800	56.871	0.062	-0.061
-370.785	-178.204	-0.400	-0.009
-369.771	-200.000	-0.032	-0.191
-368.756	136.392	0.119	0.155
-367.742	-0.591	-0.214	-0.152
-366.727	632.391	0.057	-0.146
-365.712	-90.361	0.305	-0.089
-364.698	-154.471	0.040	0.003
-363.683	252.011	-0.060	0.103
-362.669	63.284	-0.335	-0.337
-361.654	-122.536	0.224	0.036
-360.639	21.088	0.135	-0.110
-359.625	-200.000	-0.037	-0.183
-358.610	67.459	-0.286	-0.294
-357.596	459.620	0.210	-0.470
-356.581	-176.630	0.079	-0.002
-355.566	-5.323	0.361	-0.249
-354.552	-127.257	0.178	0.026
-353.537	277.385	0.132	-0.235
-352.523	-109.328	-0.358	-0.076
-351.508	142.895	0.213	-0.284
-350.493	116.208	-0.226	-0.278
-349.479	-60.510	0.181	-0.077
-348.464	-46.847	-0.164	0.081
-347.450	649.414	-0.079	0.203
-346.435	-200.000	-0.009	0.144
-345.420	-59.214	0.060	-0.026
-344.406	-200.000	0.009	0.075
-343.391	64.139	-0.046	0.047
-342.377	428.632	0.134	-0.291
-341.362	25.315	0.111	0.092
-340.348	-200.000	-0.017	-0.105
-339.333	800.000	-0.065	0.223
-338.318	70.018	-0.183	0.189
-337.304	-96.076	0.293	-0.078
-336.289	800.000	-0.025	0.097
-335.275	-10.882	-0.198	-0.131
-334.260	328.080	0.074	-0.143
-333.245	800.000	-0.035	0.124
-332.231	-6.608	-0.182	0.124
-331.216	270.515	-0.073	0.128
-330.202	-200.000	0.005	-0.374
-329.187	22.673	0.221	0.182
-328.172	-200.000	0.016	-0.078
-327.158	-114.021	0.124	0.024
-326.143	800.000	0.063	-0.249
-325.129	-200.000	-0.012	-0.278
-324.114	453.200	-0.052	-0.114
-323.099	-200.000	0.002	-0.049
-322.085	-200.000	0.050	0.257
-321.070	-112.744	0.170	0.034
-320.056	378.967	-0.052	0.108
-319.041	284.161	-0.065	0.118
-318.026	-155.172	-0.274	-0.018
-317.012	-73.735	-0.264	-0.096
-315.997	38.853	-0.197	-0.176
-314.983	-200.000	-0.013	-0.239
-313.968	116.071	0.066	-0.081
-312.953	385.899	0.056	-0.117
-311.939	-39.864	0.173	-0.091
-310.924	13.845	-0.263	-0.205
-309.910	64.691	0.037	-0.037
-308.895	-200.000	-0.032	0.156
-307.880	386.227	-0.183	0.378
-306.866	355.433	0.100	0.200
-305.851	-94.949	0.056	-0.015
-304.837	-34.331	0.311	-0.171
-303.822	63.798	-0.008	0.008
-302.807	-113.313	0.111	0.022
-301.793	-89.411	0.220	-0.065
-300.778	-132.070	-0.138	0.018
-299.764	-181.581	0.250	-0.005
-298.749	800.000	-0.046	-0.170
-297.735	-200.000	-0.008	0.060
-296.720	291.652	-0.162	0.296
-295.705	-200.000	0.000	0.202
-294.691	-6.910	0.090	-0.061
-293.676	8.273	-0.202	0.152
-292.662	800.000	0.052	-0.152
-291.647	633.462	-0.164	0.416
-290.632	-36.712	0.108	-0.058
-289.618	800.000	0.056	-0.191
-288.603	-144.885	-0.126	0.012
-287.589	-200.000	-0.028	0.136
-286.574	108.904	0.061	0.073
-285.559	-145.643	0.357	-0.032
-284.545	138.910	0.169	-0.223
-283.530	29.549	-0.036	0.030
-282.516	-141.959	0.248	0.025
-281.501	-6.555	-0.313	0.213
-280.486	331.080	-0.157	0.302
-279.472	158.403	0.061	-0.084
-278.457	-45.189	0.408	-0.203
-277.443	-80.231	-0.346	0.116
-276.428	-130.863	-0.096	0.013
-275.413	-31.819	0.227	0.127
-274.399	-134.353	0.307	0.038
-273.384	-136.580	-0.066	-0.008
-272.370	1.297	-0.332	-0.239
-271.355	246.000	0.223	0.375
-270.340	11.742	0.160	-0.123
-269.326	336.911	-0.088	0.171
-268.311	95.744	0.232	0.265
-267.297	17.006	-0.296	-0.235
-266.282	145.841	0.026	0.035
-265.267	800.000	-0.099	0.283
-264.253	-200.000	-0.021	0.119
-263.238	-200.000	-0.022	-0.137
-262.224	119.451	0.210	-0.261
-261.209	-42.050	-0.260	-0.133
-260.195	254.063	-0.171	0.292
-259.180	584.921	-0.089	0.219
-258.165	-14.982	0.210	0.134
-257.151	-134.322	-0.236	-0.029
-256.136	800.000	0.059	-0.254
-255.122	795.683	-0.049	0.135
-254.107	-130.545	-0.202	-0.027
-253.092	-17.975	0.243	0.152
-252.078	290.400	0.169	0.307
-251.063	-127.520	-0.279	0.041
-250.049	-43.985	0.169	0.085
-249.034	-57.795	0.100	0.044
-248.019	104.600	0.154	0.181
-247.005	-101.098	0.116	0.029
-245.990	800.000	0.086	-0.260
-244.976	-1.929	-0.188	-0.132
-243.961	22.101	0.155	0.127
-242.946	-200.000	-0.043	0.483
-241.932	-200.000	0.091	-0.457
-240.917	294.623	0.032	0.058
-239.903	-55.772	-0.202	-0.090
-238.888	-121.134	0.018	-0.003
-237.873	-32.874	0.164	-0.091
-236.859	34.463	-0.199	0.174
-235.844	-61.364	-0.132	0.055
-234.830	800.000	0.034	-0.138
-233.815	-171.316	-0.403	-0.014
-232.800	800.000	-0.018	-0.059
-231.786	297.887	0.073	0.133
-230.771	318.380	-0.006	0.012
-229.757	-113.721	-0.159	-0.031
-228.742	800.000	0.049	0.175
-227.727	-200.000	0.007	0.194
-226.713	-111.129	0.459	-0.094
-225.698	800.000	0.052	-0.165
-224.684	478.687	-0.032	-0.073
-223.669	-46.271	-0.297	-0.146
-222.655	37.696	-0.147	-0.130
-221.640	800.000	0.082	0.272
-220.625	-46.254	0.089	0.044
-219.611	-200.000	0.000	-0.040
-218.596	80.994	0.062	-0.067
-217.582	-142.663	0.263	-0.026
-216.567	386.751	-0.036	-0.074
-215.552	-200.000	0.013	0.368
-214.538	43.166	-0.044	-0.040
-213.523	-162.589	-0.260	-0.013
-212.509	-83.839	0.089	0.028
-211.494	-11.266	-0.185	0.122
-210.479	-78.234	-0.234	-0.080
-209.465	66.293	-0.194	0.197
-208.450	-200.000	0.039	0.388
-207.436	-18.281	0.286	0.179
-206.421	-200.000	-0.021	-0.164
-205.406	-164.583	0.317	0.014
-204.392	-97.845	0.198	-0.051
-203.377	-200.000	-0.003	-0.025
-202.363	-100.254	0.108	0.027
-201.348	124.449	-0.097	-0.122
-200.333	-131.652	0.306	0.040
-199.319	800.000	-0.077	0.324
-198.304	308.833	0.070	-0.130
-197.290	-109.807	-0.102	-0.021
-196.275	723.172	-0.128	-0.339
-195.260	-200.000	-0.033	0.243
-194.246	-25.537	-0.139	-0.082
-193.231	-38.082	0.067	0.036
-192.217	-144.844	0.236	0.022
-191.202	-89.123	0.051	-0.015
-190.187	-62.041	0.308	-0.128
-189.173	-71.895	-0.259	-0.096
-188.158	163.263	-0.091	0.127
-187.144	354.813	0.121	-0.239
-186.129	-92.343	-0.141	0.039
-185.114	-178.623	-0.116	0.003
-184.100	-69.376	-0.350	-0.134
-183.085	48.282	-0.316	-0.295
-182.071	-0.447	-0.259	0.183
-181.056	-73.660	0.284	-0.103
-180.042	-200.000	-0.030	0.181
-179.027	-50.140	0.151	-0.071
-178.012	-200.000	-0.017	0.218
-176.998	-200.000	0.027	0.266
-175.983	-200.000	0.034	-0.148
-174.969	-164.284	0.268	0.012
-173.954	-100.764	0.091	-0.022
-172.939	-200.000	-0.020	-0.333
-171.925	125.003	0.144	0.181
-170.910	-36.950	0.021	0.011
-169.896	-85.089	0.275	0.086
-168.881	50.655	-0.211	-0.199
-167.866	43.058	-0.052	0.047
-166.852	166.016	-0.072	-0.102
-165.837	-91.709	0.258	-0.073
-164.823	-122.587	0.269	0.043
-163.808	-45.589	0.290	0.143
-162.793	-111.808	-0.068	0.014
-161.779	-9.256	-0.085	-0.056
-160.764	-124.338	0.231	0.036
-159.750	-119.120	0.117	0.020
-158.735	-45.642	0.195	-0.096
-157.720	-91.124	0.180	0.051
-156.706	800.000	-0.102	0.428
-155.691	215.481	0.252	0.398
-154.677	-200.000	0.011	0.168
-153.662	483.319	0.038	-0.087
-152.647	-200.000	-0.017	-0.130
-151.633	-149.574	0.135	-0.011
-150.618	-110.678	-0.261	-0.054
-149.604	-8.682	0.141	0.094
-148.589	-80.434	-0.250	0.083
-147.574	295.397	0.046	-0.083
-146.560	471.975	0.080	0.180
-145.545	800.000	0.006	0.019
-144.531	687.357	0.160	0.418
-143.516	13.367	0.296	0.229
-142.502	203.221	0.131	0.202
-141.487	-115.718	0.309	-0.058
-140.472	-115.453	0.204	0.038
-139.458	396.998	0.081	-0.168
-138.443	-155.472	-0.339	-0.022
-137.429	-138.913	0.203	0.022
-136.414	-171.021	0.448	-0.015
-135.399	-66.323	-0.186	0.073
-134.385	-112.326	-0.109	0.022
-133.370	-200.000	0.015	-0.182
-132.356	-126.144	0.413	0.062
-131.341	-142.726	-0.333	0.032
-130.326	334.157	0.149	0.286
-129.312	-160.843	-0.051	0.003
-128.297	800.000	0.049	-0.145
-127.283	-51.047	-0.206	-0.096
-126.268	216.079	-0.055	-0.086
-125.253	800.000	-0.066	0.257
-124.239	800.000	0.057	0.158
-123.224	800.000	-0.043	-0.160
-122.210	-37.782	0.209	0.111
