DTS Sentinel unit serial number:	SN413079Multiplexer serial number:	ORYXHardware model number:	OX4-SRSoftware version number:	ORYX F/W v4.00 Oryx Data Collector v3.7.2.0data status	okinstallation	princeton_trtdifferential loss correction	single-endedforward channel	channel 3reverse channel	N/Adate	2019/09/11time	01:50:11forward acquisition time	60.00reverse acquisition time	0.00gamma	496.2192k internal	0.2331k external	0.2331temperature offset calibration	0.9912default loss term (dB/km)	0.3790temperature slope calibration	1.0000multiplexer offset coefficient	1.0000multiplexer slope coefficient	1.0000fibre end	0.00T internal ref (°C)	29.17T ext. ref 1 (°C)	-0.32T ext. ref 2 (°C)	23.14length (m)	temperature (°C)	Stokes	anti-Stokes-747.200	57.049	0.194	-0.191
-746.185	428.383	-0.028	-0.061
-745.171	-136.216	0.065	0.008
-744.156	-20.846	-0.287	-0.177
-743.142	-46.940	0.449	0.221
-742.127	-115.736	-0.124	0.023
-741.112	800.000	0.048	0.151
-740.098	428.310	0.045	0.099
-739.083	-51.336	-0.126	0.059
-738.069	498.990	0.080	0.186
-737.054	108.920	0.080	0.097
-736.039	-41.612	-0.240	0.124
-735.025	-4.237	0.302	0.211
-734.010	110.958	-0.186	-0.226
-732.996	800.000	0.079	-0.314
-731.981	-67.519	-0.170	-0.067
-730.966	232.138	0.085	-0.140
-729.952	53.116	-0.085	0.082
-728.937	-163.796	-0.229	0.011
-727.923	8.738	0.256	-0.194
-726.908	342.452	-0.054	0.105
-725.894	-200.000	-0.013	-0.118
-724.879	-35.426	0.258	0.141
-723.864	-85.637	-0.107	-0.033
-722.850	-88.229	-0.428	-0.129
-721.835	465.881	-0.208	0.467
-720.821	-105.998	0.355	0.080
-719.806	172.027	-0.182	-0.263
-718.791	-107.095	0.122	-0.027
-717.777	-188.504	-0.364	-0.005
-716.762	-41.307	-0.133	0.069
-715.748	-200.000	-0.001	0.164
-714.733	-27.780	-0.117	-0.068
-713.718	-200.000	-0.059	0.471
-712.704	800.000	-0.006	-0.022
-711.689	493.750	0.032	-0.073
-710.675	-200.000	0.030	-0.302
-709.660	77.995	-0.235	0.252
-708.645	-69.042	-0.057	0.022
-707.631	-0.759	0.147	-0.105
-706.616	-12.109	0.167	0.110
-705.602	-106.771	0.284	-0.063
-704.587	149.808	0.099	-0.135
-703.572	-121.634	-0.137	0.023
-702.558	-59.908	-0.130	-0.056
-701.543	13.484	0.212	-0.165
-700.529	538.670	-0.036	-0.086
-699.514	-109.164	-0.216	-0.046
-698.499	800.000	0.011	-0.035
-697.485	622.196	0.090	-0.227
-696.470	15.554	0.147	-0.116
-695.456	-17.841	-0.186	0.117
-694.441	-200.000	0.013	-0.064
-693.426	-86.489	0.235	0.072
-692.412	-52.450	-0.135	0.063
-691.397	800.000	0.075	-0.324
-690.383	404.612	-0.028	-0.059
-689.368	128.127	-0.338	-0.432
-688.354	800.000	-0.036	0.125
-687.339	800.000	-0.042	0.170
-686.324	800.000	0.050	-0.153
-685.310	84.597	-0.071	-0.078
-684.295	-100.051	0.315	0.079
-683.281	99.688	-0.316	-0.367
-682.266	-114.727	-0.476	0.091
-681.251	-119.146	0.156	-0.027
-680.237	23.252	-0.237	-0.196
-679.222	-65.361	-0.369	-0.149
-678.208	23.430	0.166	0.137
-677.193	-88.243	0.153	0.046
-676.178	-41.391	-0.098	0.051
-675.164	101.972	-0.159	-0.187
-674.149	800.000	-0.043	-0.175
-673.135	349.148	0.170	0.337
-672.120	-117.780	0.417	0.075
-671.105	244.217	-0.039	0.066
-670.091	-200.000	0.001	0.030
-669.076	148.858	-0.148	-0.201
-668.062	-95.498	0.356	0.096
-667.047	-127.998	0.443	0.064
-666.032	-21.345	-0.225	-0.138
-665.018	-130.320	0.125	-0.017
-664.003	-126.882	0.358	0.053
-662.989	-157.018	-0.077	-0.005
-661.974	-17.676	0.433	-0.273
-660.959	-53.485	0.310	0.142
-659.945	124.482	-0.095	-0.120
-658.930	800.000	0.059	-0.211
-657.916	-74.204	-0.112	-0.041
-656.901	79.600	-0.294	-0.316
-655.886	-68.653	0.276	0.107
-654.872	1.982	0.138	-0.100
-653.857	800.000	0.014	-0.060
-652.843	-86.268	-0.252	-0.078
-651.828	126.361	-0.202	0.256
-650.814	99.147	-0.069	-0.079
-649.799	36.415	0.346	-0.306
-648.784	-77.059	0.214	0.075
-647.770	-46.663	-0.047	-0.023
-646.755	-200.000	-0.011	-0.323
-645.741	-26.497	-0.095	-0.056
-644.726	413.118	0.061	0.130
-643.711	-20.797	0.235	-0.144
-642.697	800.000	-0.028	-0.105
-641.682	-11.632	-0.292	0.193
-640.668	-81.744	-0.186	0.061
-639.653	713.859	-0.076	0.201
-638.638	-156.212	-0.065	-0.004
-637.624	-123.738	0.050	-0.008
-636.609	800.000	-0.036	-0.134
-635.595	-200.000	0.074	0.379
-634.580	18.806	-0.165	-0.132
-633.565	-13.311	-0.095	-0.062
-632.551	-104.509	0.431	0.100
-631.536	559.674	-0.079	0.192
-630.522	181.824	-0.071	0.104
-629.507	-41.339	-0.084	-0.043
-628.492	-200.000	-0.027	-0.287
-627.478	240.414	-0.118	0.197
-626.463	-151.628	-0.359	0.027
-625.449	458.258	0.059	0.131
-624.434	-69.597	-0.194	-0.075
-623.419	-64.427	0.177	0.072
-622.405	36.478	0.331	-0.293
-621.390	-80.650	0.055	-0.018
-620.376	-126.843	0.198	0.029
-619.361	-150.361	-0.122	-0.009
-618.346	497.171	0.093	0.215
-617.332	424.507	0.027	0.058
-616.317	-200.000	0.029	-0.164
-615.303	-124.515	0.170	-0.026
-614.288	-97.081	-0.284	0.074
-613.273	-162.914	-0.278	-0.014
-612.259	-200.000	0.013	-0.202
-611.244	-106.463	-0.058	0.013
-610.230	-200.000	0.004	0.080
-609.215	118.071	0.053	-0.065
-608.201	17.980	-0.228	-0.182
-607.186	-200.000	-0.024	0.160
-606.171	-200.000	-0.056	-0.282
-605.157	222.834	-0.192	0.310
-604.142	108.106	0.227	0.271
-603.128	-74.802	-0.471	-0.169
-602.113	-91.457	0.260	0.074
-601.098	-0.748	-0.256	0.182
-600.084	155.991	0.155	0.214
-599.069	-148.627	-0.090	-0.007
-598.055	216.066	-0.126	-0.200
-597.040	-90.584	0.331	-0.096
-596.025	-10.179	0.134	0.089
-595.011	800.000	-0.089	-0.298
-593.996	-200.000	0.022	0.363
-592.982	-128.881	-0.392	-0.055
-591.967	-10.468	-0.092	0.061
-590.952	-137.749	-0.176	-0.020
-589.938	-117.406	-0.210	-0.038
-588.923	-200.000	-0.004	-0.138
-587.909	-34.923	0.250	-0.137
-586.894	-138.401	-0.113	-0.012
-585.879	-140.368	0.348	-0.036
-584.865	-68.392	0.235	-0.091
-583.850	-62.709	-0.278	0.115
-582.836	371.643	-0.027	0.055
-581.821	65.164	-0.150	0.151
-580.806	-200.000	-0.021	0.281
-579.792	199.564	-0.277	0.424
-578.777	265.651	0.012	-0.021
-577.763	-60.701	0.107	0.045
-576.748	162.964	-0.045	-0.063
-575.733	-75.892	0.250	-0.089
-574.719	9.890	-0.142	-0.108
-573.704	130.371	-0.051	0.065
-572.690	641.269	0.129	-0.328
-571.675	50.594	0.078	0.073
-570.661	204.369	-0.081	-0.126
-569.646	-18.200	-0.091	0.057
-568.631	-103.937	-0.392	0.091
-567.617	52.973	0.123	0.118
-566.602	45.395	0.234	-0.216
-565.588	37.854	-0.354	0.314
-564.573	-200.000	0.023	-0.373
-563.558	-142.517	0.146	-0.014
-562.544	-200.000	-0.003	0.060
-561.529	47.577	0.124	-0.115
-560.515	-27.408	-0.211	-0.123
-559.500	413.634	-0.069	0.147
-558.485	60.655	0.090	0.089
-557.471	-174.744	-0.211	0.006
-556.456	-173.813	0.289	0.009
-555.442	11.308	-0.164	-0.126
-554.427	-125.164	0.235	0.036
-553.412	-151.906	-0.190	-0.014
-552.398	62.612	-0.171	-0.170
-551.383	-18.524	-0.022	-0.014
-550.369	-168.671	-0.212	-0.008
-549.354	-138.612	-0.243	0.027
-548.339	162.983	0.149	0.209
-547.325	-81.469	-0.371	-0.122
-546.310	-79.381	-0.162	0.055
-545.296	-83.219	-0.090	0.029
-544.281	37.371	0.122	-0.108
-543.266	235.649	-0.317	-0.523
-542.252	-200.000	0.011	0.068
-541.237	-200.000	-0.032	0.387
-540.223	120.792	-0.050	0.062
-539.208	800.000	0.191	-0.682
-538.193	209.629	-0.057	0.089
-537.179	442.548	0.091	-0.199
-536.164	244.013	0.127	-0.212
-535.150	165.513	-0.139	-0.196
-534.135	-200.000	0.057	0.314
-533.121	-80.697	-0.280	-0.093
-532.106	-200.000	-0.042	0.281
-531.091	0.598	-0.353	-0.252
-530.077	673.281	0.085	0.220
-529.062	-1.974	0.117	-0.082
-528.048	536.415	0.199	0.472
-527.033	-119.480	0.222	0.038
-526.018	-200.000	-0.033	0.158
-525.004	800.000	-0.083	-0.302
-523.989	-200.000	0.003	0.128
-522.975	-123.792	-0.057	-0.009
-521.960	19.170	0.303	0.243
-520.945	-16.297	-0.342	0.216
-519.931	165.187	-0.066	-0.093
-518.916	544.743	0.034	-0.082
-517.902	800.000	-0.047	0.180
-516.887	-59.499	-0.216	-0.093
-515.872	-200.000	-0.015	0.119
-514.858	72.581	-0.112	-0.116
-513.843	52.151	0.041	-0.039
-512.829	-97.788	0.194	-0.050
-511.814	-119.532	0.248	-0.043
-510.799	800.000	0.046	0.158
-509.785	773.583	0.069	0.187
-508.770	-10.890	-0.100	0.066
-507.756	-200.000	-0.028	-0.194
-506.741	-72.255	-0.199	-0.074
-505.726	-29.441	0.099	-0.056
-504.712	-1.346	0.091	0.064
-503.697	316.977	0.107	-0.201
-502.683	-25.546	-0.033	-0.019
-501.668	-126.714	-0.172	0.025
-500.653	-62.505	0.146	-0.060
-499.639	-11.745	-0.065	0.042
-498.624	354.972	0.094	-0.186
-497.610	-200.000	0.033	-0.153
-496.595	-200.000	-0.019	-0.119
-495.581	35.409	-0.136	0.119
-494.566	190.058	0.165	-0.246
-493.551	-116.124	-0.320	0.059
-492.537	216.834	0.040	-0.063
-491.522	-200.000	0.030	-0.224
-490.508	108.916	-0.178	0.212
-489.493	-106.003	-0.235	-0.053
-488.478	-61.608	-0.040	0.017
-487.464	-133.846	0.229	-0.028
-486.449	116.492	-0.166	-0.202
-485.435	161.457	-0.256	-0.357
-484.420	-145.036	-0.072	0.007
-483.405	-146.890	0.125	-0.011
-482.391	-165.532	0.297	-0.013
-481.376	-200.000	-0.023	0.385
-480.362	-117.374	0.170	-0.031
-479.347	-200.000	-0.017	0.126
-478.332	31.519	-0.038	0.033
-477.318	-200.000	0.002	0.269
-476.303	-176.647	0.187	0.005
-475.289	119.361	-0.158	0.195
-474.274	30.942	-0.209	0.179
-473.259	109.861	-0.058	0.070
-472.245	53.622	-0.199	-0.190
-471.230	-200.000	0.006	-0.139
-470.216	97.676	0.097	0.111
-469.201	800.000	0.038	0.114
-468.186	-200.000	0.039	0.364
-467.172	217.548	-0.107	-0.170
-466.157	-36.952	0.119	0.063
-465.143	-116.767	0.201	-0.037
-464.128	132.393	-0.156	0.200
-463.113	800.000	0.107	-0.304
-462.099	-200.000	0.051	-0.386
-461.084	-101.773	0.301	-0.073
-460.070	160.036	-0.012	-0.016
-459.055	12.602	0.145	0.111
-458.040	-73.445	0.111	-0.040
-457.026	48.523	0.028	-0.026
-456.011	800.000	0.050	0.153
-454.997	-63.507	0.134	-0.055
-453.982	-200.000	0.016	0.159
-452.968	-87.724	-0.244	0.073
-451.953	-200.000	0.005	0.245
-450.938	-200.000	-0.018	-0.120
-449.924	-200.000	-0.050	-0.226
-448.909	-99.362	0.101	0.025
-447.895	-8.971	0.185	-0.123
-446.880	-91.386	0.021	0.006
-445.865	-200.000	-0.008	0.156
-444.851	80.071	0.082	-0.088
-443.836	-131.340	-0.251	-0.033
-442.822	-200.000	0.003	0.040
-441.807	12.541	-0.085	0.066
-440.792	800.000	0.022	0.065
-439.778	30.819	-0.359	-0.306
-438.763	-200.000	0.054	0.437
-437.749	605.066	-0.033	0.082
-436.734	227.535	-0.026	-0.042
-435.719	71.368	-0.332	-0.343
-434.705	173.463	-0.054	-0.077
-433.690	-147.972	0.348	0.029
-432.676	800.000	-0.041	0.180
-431.661	-150.775	0.208	-0.016
-430.646	338.069	0.174	-0.337
-429.632	111.852	-0.249	-0.299
-428.617	-200.000	0.029	0.262
-427.603	-193.529	-0.195	0.002
-426.588	223.774	0.136	0.219
-425.573	-96.447	0.142	-0.037
-424.559	-110.734	-0.142	0.029
-423.544	132.617	0.183	-0.235
-422.530	-42.759	0.277	-0.140
-421.515	-107.427	-0.278	0.061
-420.500	-200.000	-0.007	-0.438
-419.486	125.534	0.047	-0.059
-418.471	-200.000	0.001	-0.032
-417.457	-23.022	0.085	0.051
-416.442	-71.129	0.104	-0.039
-415.428	-67.305	0.257	-0.100
-414.413	-63.843	-0.256	-0.104
-413.398	-126.055	0.325	-0.048
-412.384	-4.358	0.106	0.073
-411.369	-37.413	0.132	-0.070
-410.355	256.391	-0.099	-0.169
-409.340	13.693	-0.202	0.156
-408.325	-18.013	-0.343	-0.213
-407.311	-71.969	0.161	0.059
-406.296	-200.000	0.006	-0.107
-405.282	247.838	-0.165	-0.277
-404.267	-110.763	0.270	-0.055
-403.252	-6.452	-0.161	-0.109
-402.238	-200.000	0.008	-0.155
-401.223	106.347	0.079	0.093
-400.209	308.965	0.082	0.152
-399.194	83.712	0.276	0.299
-398.179	-65.073	0.134	0.054
-397.165	-31.213	0.497	0.278
-396.150	800.000	0.094	0.288
-395.136	-69.739	0.049	-0.019
-394.121	800.000	-0.048	0.135
-393.106	714.304	0.091	0.239
-392.092	393.168	0.042	-0.087
-391.077	25.525	-0.421	-0.348
-390.063	-171.778	0.083	-0.003
-389.048	800.000	0.050	0.157
-388.033	-200.000	-0.002	0.034
-387.019	12.661	-0.158	-0.121
-386.004	-31.181	0.243	0.136
-384.990	-200.000	0.084	0.509
-383.975	-129.040	-0.246	-0.034
-382.960	-101.223	-0.176	0.043
-381.946	-95.348	-0.174	-0.046
-380.931	-48.261	-0.259	0.124
-379.917	800.000	-0.073	0.230
-378.902	443.581	-0.058	0.126
-377.888	800.000	0.066	0.226
-376.873	-124.780	0.115	0.018
-375.858	-11.707	-0.162	0.105
-374.844	252.173	-0.116	0.196
-373.829	680.975	-0.175	-0.451
-372.815	-153.695	-0.102	-0.007
-371.800	-200.000	0.017	-0.078
-370.785	333.368	-0.299	0.574
-369.771	-5.510	-0.209	-0.142
-368.756	-129.289	0.194	-0.027
-367.742	451.677	0.090	-0.197
-366.727	-61.952	0.129	0.053
-365.712	-200.000	0.001	0.014
-364.698	800.000	-0.057	0.225
-363.683	-162.275	-0.166	-0.008
-362.669	90.924	0.128	-0.142
-361.654	270.809	0.116	-0.202
-360.639	-145.358	-0.091	-0.008
-359.625	-200.000	-0.008	-0.057
-358.610	110.246	0.148	0.176
-357.596	287.677	-0.063	-0.113
-356.581	63.023	0.036	-0.036
-355.566	-67.849	0.175	0.068
-354.552	56.854	0.102	-0.099
-353.537	43.280	0.231	-0.209
-352.523	-100.055	0.219	0.054
-351.508	52.691	0.186	-0.176
-350.493	-141.199	0.011	0.001
-349.479	348.532	-0.031	0.061
-348.464	-93.487	0.271	-0.074
-347.450	546.909	-0.211	-0.500
-346.435	251.936	-0.090	0.152
-345.420	27.580	-0.200	-0.166
-344.406	-200.000	-0.010	-0.275
-343.391	32.720	0.054	-0.046
-342.377	16.850	0.074	-0.058
-341.362	-33.296	0.099	0.054
-340.348	212.298	0.121	-0.189
-339.333	87.460	-0.059	0.065
-338.318	71.511	0.225	-0.231
-337.304	-116.949	-0.080	-0.014
-336.289	-18.793	-0.067	0.041
-335.275	438.508	0.035	0.076
-334.260	23.959	0.044	-0.036
-333.245	-7.553	0.194	0.130
-332.231	-33.998	-0.194	-0.106
-331.216	67.363	0.185	0.187
-330.202	90.089	-0.202	-0.223
-329.187	-200.000	-0.041	-0.241
-328.172	-83.271	0.200	-0.064
-327.158	40.690	0.173	0.154
-326.143	-168.940	0.169	0.006
-325.129	-143.766	-0.398	-0.037
-324.114	-5.022	0.115	0.078
-323.099	800.000	0.121	0.355
-322.085	-112.508	-0.100	0.020
-321.070	0.638	0.239	-0.169
-320.056	-61.287	0.129	0.054
-319.041	-23.537	-0.266	0.158
-318.026	-200.000	0.009	0.110
-317.012	-56.348	0.213	-0.094
-315.997	60.861	-0.102	-0.100
-314.983	-200.000	-0.017	0.110
-313.968	-200.000	0.017	-0.163
-312.953	76.883	0.203	0.213
-311.939	-57.801	0.244	0.106
-310.924	-111.525	-0.272	-0.055
-309.910	36.212	0.102	-0.089
-308.895	74.922	0.189	-0.197
-307.880	800.000	-0.090	-0.347
-306.866	467.508	-0.082	0.182
-305.851	-88.731	-0.176	0.052
-304.837	-103.460	0.228	-0.053
-303.822	-15.814	-0.283	0.178
-302.807	56.736	0.212	0.205
-301.793	83.251	-0.179	0.193
-300.778	618.898	-0.083	0.207
-299.764	-123.639	0.309	0.049
-298.749	-85.003	0.046	0.014
-297.735	-19.625	0.198	-0.121
-296.720	800.000	0.048	0.208
-295.705	43.548	0.281	0.254
-294.691	516.123	0.032	0.073
-293.676	-102.238	0.109	0.026
-292.662	-163.586	-0.080	-0.004
-291.647	-200.000	-0.006	-0.084
-290.632	-57.535	-0.355	0.154
-289.618	-108.119	-0.119	0.025
-288.603	-115.535	0.044	0.008
-287.589	-128.147	-0.245	-0.035
-286.574	66.509	-0.108	0.109
-285.559	-76.152	-0.204	-0.071
-284.545	22.719	-0.291	-0.236
-283.530	-33.068	-0.183	-0.101
-282.516	-148.594	0.158	0.013
-281.501	-200.000	-0.026	0.261
-280.486	-20.798	0.185	-0.112
-279.472	-170.469	-0.229	0.008
-278.457	6.536	-0.332	-0.244
-277.443	-200.000	0.033	0.337
-276.428	-94.989	0.445	-0.119
-275.413	-41.056	-0.179	0.091
-274.399	89.325	0.231	0.255
-273.384	-171.836	0.127	-0.004
-272.370	-116.334	-0.051	0.009
-271.355	-108.582	-0.145	0.031
-270.340	700.886	-0.057	-0.147
-269.326	227.597	-0.118	0.190
-268.311	-190.275	0.386	-0.004
-267.297	395.251	-0.041	0.084
-266.282	-200.000	-0.022	-0.137
-265.267	-109.408	-0.127	-0.027
-264.253	800.000	-0.092	-0.292
-263.238	642.219	-0.038	-0.096
-262.224	-73.833	0.184	-0.066
-261.209	-156.683	0.235	-0.014
-260.195	-39.850	-0.397	-0.205
-259.180	800.000	0.024	-0.079
-258.165	-24.833	0.319	-0.187
-257.151	-200.000	0.029	-0.273
-256.136	249.056	-0.165	-0.277
-255.122	-49.186	0.346	0.163
-254.107	-45.991	-0.212	-0.103
-253.092	-200.000	-0.061	0.280
-252.078	76.777	-0.078	-0.082
-251.063	-200.000	0.043	-0.267
-250.049	800.000	-0.046	0.143
-249.034	353.563	0.074	-0.145
-248.019	-36.382	-0.255	-0.136
-247.005	-38.043	0.083	-0.044
-245.990	-56.479	-0.234	-0.103
-244.976	-160.317	-0.289	-0.015
-243.961	-11.415	0.216	0.140
-242.946	-65.739	0.198	0.078
-241.932	675.016	0.020	0.050
-240.917	-155.154	0.200	-0.013
-239.903	800.000	0.094	0.323
-238.888	800.000	-0.027	-0.092
-237.873	-53.124	-0.185	-0.084
-236.859	-200.000	-0.011	0.347
-235.844	-24.413	-0.058	0.034
-234.830	-108.081	-0.183	0.039
-233.815	-148.273	-0.223	-0.018
-232.800	95.963	-0.282	0.317
-231.786	800.000	0.164	-0.455
-230.771	-200.000	0.046	-0.308
-229.757	-87.220	0.196	0.059
-228.742	-12.706	0.233	-0.150
-227.727	-124.357	0.212	0.033
-226.713	269.338	-0.257	0.446
-225.698	-200.000	-0.003	0.248
-224.684	23.658	-0.186	-0.151
-223.669	-200.000	-0.044	0.262
-222.655	514.805	-0.182	0.419
-221.640	800.000	0.056	0.200
-220.625	-74.640	0.111	0.039
-219.611	429.210	0.106	0.227
-218.596	800.000	0.057	-0.221
-217.582	-190.112	0.152	-0.002
-216.567	800.000	0.055	-0.188
-215.552	29.607	0.215	0.180
-214.538	-107.824	0.310	0.066
-213.523	-200.000	0.028	-0.197
-212.509	363.137	0.214	0.423
-211.494	139.875	0.105	-0.137
-210.479	-16.583	-0.096	-0.060
-209.465	-159.426	-0.273	-0.015
-208.450	800.000	0.097	0.302
-207.436	-135.675	-0.294	0.034
-206.421	-42.748	-0.282	0.141
-205.406	67.111	0.255	-0.256
-204.392	58.939	-0.260	-0.252
-203.377	56.394	-0.187	0.179
-202.363	-149.386	0.125	0.010
-201.348	-108.617	-0.237	-0.050
-200.333	-32.456	-0.071	0.039
-199.319	-200.000	0.032	0.346
-198.304	-20.670	0.305	0.185
-197.290	800.000	-0.099	-0.350
-196.275	-155.801	0.485	-0.031
-195.260	-39.814	-0.073	0.037
-194.246	174.894	0.113	0.161
-193.231	145.695	-0.132	0.175
-192.217	74.935	0.273	0.284
-191.202	59.731	-0.150	0.145
-190.187	-200.000	-0.033	0.318
-189.173	715.257	0.066	0.172
-188.158	562.205	-0.044	0.106
-187.144	-4.626	0.219	-0.149
-186.129	-200.000	0.066	-0.304
-185.114	-62.032	0.185	0.076
-184.100	-200.000	0.013	-0.106
-183.085	-22.768	0.173	-0.103
-182.071	45.207	0.175	-0.159
-181.056	-58.929	-0.226	-0.096
-180.042	-200.000	-0.010	-0.110
-179.027	285.573	-0.056	-0.099
-178.012	-135.833	0.255	0.030
-176.998	-137.813	-0.142	0.016
-175.983	480.277	-0.055	-0.123
-174.969	-120.830	0.109	-0.018
-173.954	-37.018	0.013	0.007
-172.939	408.877	-0.114	-0.238
-171.925	800.000	-0.030	-0.118
-170.910	418.961	-0.044	0.093
-169.896	13.188	0.084	-0.064
-168.881	650.001	-0.087	-0.218
-167.866	-64.925	0.202	-0.080
-166.852	-62.535	0.105	-0.043
-165.837	-38.958	0.074	0.038
-164.823	-49.500	-0.327	0.153
-163.808	-200.000	0.193	0.000
-162.793	-167.582	0.432	-0.017
-161.779	-188.696	-0.083	-0.001
-160.764	-59.798	0.139	0.059
-159.750	-200.000	0.002	0.076
-158.735	38.082	-0.143	-0.126
-157.720	-200.000	-0.034	-0.412
-156.706	-128.829	0.291	-0.040
-155.691	-54.686	0.099	-0.044
-154.677	8.288	0.203	0.150
-153.662	-200.000	-0.049	-0.259
-152.647	-68.729	-0.090	0.034
-151.633	251.573	-0.224	0.375
-150.618	430.813	0.155	0.331
-149.604	-200.000	0.051	0.340
-148.589	800.000	-0.096	-0.267
-147.574	-78.621	0.038	0.013
-146.560	44.668	0.105	0.095
-145.545	19.632	-0.283	0.224
-144.531	-200.000	-0.014	-0.112
-143.516	-200.000	0.010	0.102
-142.502	340.515	-0.107	0.205
-141.487	198.208	-0.107	0.161
-140.472	-136.677	0.234	0.027
-139.458	-80.474	-0.355	0.116
-138.443	59.411	0.029	0.028
-137.429	-106.901	0.105	0.023
-136.414	-200.000	0.303	0.001
-135.399	119.812	0.162	0.197
-134.385	-200.000	0.001	0.012
-133.370	316.190	0.143	-0.266
-132.356	-156.175	0.135	-0.008
-131.341	-61.017	-0.070	0.029
-130.326	71.105	0.285	-0.290
-129.312	-200.000	0.010	-0.158
-128.297	-200.000	-0.010	0.241
-127.283	529.575	-0.135	0.313
-126.268	94.751	0.197	-0.220
-125.253	63.074	-0.093	0.092
-124.239	269.774	0.083	-0.143
-123.224	800.000	-0.119	0.379
-122.210	-200.000	-0.050	0.338
