DTS Sentinel unit serial number:	SN413079Multiplexer serial number:	ORYXHardware model number:	OX4-SRSoftware version number:	ORYX F/W v4.00 Oryx Data Collector v3.7.2.0data status	okinstallation	princeton_trtdifferential loss correction	single-endedforward channel	channel 3reverse channel	N/Adate	2019/09/10time	17:54:11forward acquisition time	60.00reverse acquisition time	0.00gamma	496.2192k internal	0.2300k external	0.2300temperature offset calibration	0.9914default loss term (dB/km)	0.3790temperature slope calibration	1.0000multiplexer offset coefficient	1.0000multiplexer slope coefficient	1.0000fibre end	0.00T internal ref (°C)	37.31T ext. ref 1 (°C)	-0.34T ext. ref 2 (°C)	29.89length (m)	temperature (°C)	Stokes	anti-Stokes-747.200	-200.000	-0.014	0.215
-746.185	300.960	-0.056	-0.106
-745.171	800.000	0.049	0.140
-744.156	28.921	-0.354	0.306
-743.142	-31.843	0.162	-0.093
-742.127	22.648	0.328	0.274
-741.112	-200.000	0.025	-0.387
-740.098	-72.964	-0.221	0.083
-739.083	-0.088	-0.181	-0.131
-738.069	123.651	-0.205	0.263
-737.054	-149.647	-0.323	0.026
-736.039	-15.030	-0.308	-0.201
-735.025	63.781	0.294	0.301
-734.010	-200.000	-0.013	0.182
-732.996	-200.000	0.040	-0.275
-731.981	-25.040	-0.116	0.070
-730.966	800.000	0.098	-0.336
-729.952	193.741	-0.043	-0.066
-728.937	197.716	0.195	-0.303
-727.923	123.645	0.297	-0.379
-726.908	-188.838	0.141	-0.002
-725.894	-106.587	-0.043	-0.010
-724.879	182.431	-0.263	-0.395
-723.864	-21.314	-0.259	0.161
-722.850	218.581	0.185	-0.301
-721.835	-123.350	0.189	-0.031
-720.821	-63.317	-0.052	-0.022
-719.806	-200.000	0.017	0.274
-718.791	114.969	0.097	-0.121
-717.777	-42.718	0.314	-0.163
-716.762	-44.478	0.019	-0.010
-715.748	-70.961	0.147	0.056
-714.733	-46.342	0.298	-0.149
-713.718	-200.000	0.010	0.294
-712.704	66.419	-0.202	-0.209
-711.689	-72.574	-0.132	-0.049
-710.675	-139.007	-0.169	0.019
-709.660	-77.180	0.287	0.102
-708.645	85.315	-0.188	0.210
-707.631	800.000	0.094	0.361
-706.616	800.000	0.092	0.278
-705.602	-11.105	-0.336	0.225
-704.587	415.992	0.030	0.066
-703.572	213.856	-0.106	0.170
-702.558	-14.004	0.202	0.133
-701.543	-45.001	0.218	0.111
-700.529	-143.451	-0.284	0.028
-699.514	-130.735	-0.087	0.012
-698.499	-54.302	-0.342	-0.158
-697.485	-200.000	-0.032	-0.152
-696.470	4.422	0.406	0.303
-695.456	-158.217	0.042	-0.002
-694.441	-4.846	0.246	-0.173
-693.426	-200.000	0.000	0.383
-692.412	-89.753	0.218	-0.065
-691.397	-200.000	-0.016	-0.094
-690.383	-67.308	-0.272	-0.109
-689.368	-200.000	-0.016	-0.121
-688.354	180.894	0.070	0.104
-687.339	105.366	-0.254	-0.305
-686.324	40.830	-0.091	-0.083
-685.310	-200.000	-0.022	0.116
-684.295	72.644	0.176	0.187
-683.281	-200.000	-0.046	-0.231
-682.266	-200.000	0.013	-0.294
-681.251	148.703	-0.063	-0.087
-680.237	800.000	-0.047	-0.149
-679.222	-108.741	-0.197	-0.043
-678.208	-144.936	-0.290	-0.027
-677.193	166.379	0.101	-0.145
-676.178	-200.000	0.004	0.022
-675.164	-200.000	0.019	0.269
-674.149	-102.337	0.436	-0.106
-673.135	65.707	0.163	-0.168
-672.120	-143.675	0.355	0.034
-671.105	-43.073	-0.272	0.140
-670.091	-200.000	-0.058	-0.413
-669.076	-117.457	-0.143	0.026
-668.062	-200.000	0.020	-0.164
-667.047	-50.039	-0.139	0.067
-666.032	265.599	-0.195	-0.346
-665.018	-200.000	0.035	-0.278
-664.003	23.055	0.288	0.240
-662.989	78.184	0.068	0.074
-661.974	585.296	-0.009	0.022
-660.959	-24.975	0.163	0.098
-659.945	800.000	-0.090	-0.386
-658.930	-4.061	-0.058	0.041
-657.916	-139.813	0.162	-0.017
-656.901	347.801	-0.005	0.010
-655.886	-11.621	0.354	-0.236
-654.872	-65.058	-0.112	-0.046
-653.857	-200.000	-0.068	-0.410
-652.843	100.747	0.269	0.317
-651.828	800.000	-0.042	-0.134
-650.814	325.872	-0.047	-0.091
-649.799	5.910	-0.178	-0.134
-648.784	-200.000	-0.043	-0.269
-647.770	-129.949	0.015	-0.002
-646.755	641.269	-0.130	-0.337
-645.741	93.953	-0.176	-0.203
-644.726	-200.000	0.005	0.086
-643.711	-5.134	0.085	0.059
-642.697	800.000	-0.071	0.225
-641.682	125.168	0.120	-0.153
-640.668	-200.000	-0.034	0.454
-639.653	-17.926	0.251	0.160
-638.638	-143.110	0.030	-0.003
-637.624	251.739	0.040	-0.068
-636.609	-170.389	0.351	0.012
-635.595	-14.365	-0.114	0.074
-634.580	288.942	0.140	0.257
-633.565	136.548	0.187	0.248
-632.551	-50.144	-0.301	0.144
-631.536	-200.000	0.024	-0.181
-630.522	60.459	0.109	0.110
-629.507	800.000	0.044	-0.169
-628.492	-1.158	0.037	0.026
-627.478	800.000	-0.056	0.231
-626.463	289.030	-0.205	-0.378
-625.449	-200.000	-0.065	0.304
-624.434	431.144	-0.089	0.195
-623.419	261.802	-0.109	0.191
-622.405	-87.343	0.081	0.025
-621.390	-200.000	-0.020	-0.101
-620.376	-51.681	0.127	0.060
-619.361	-43.916	-0.104	-0.053
-618.346	-12.047	0.381	-0.253
-617.332	-62.408	-0.079	0.034
-616.317	7.928	0.067	-0.051
-615.303	230.347	-0.132	-0.218
-614.288	180.585	-0.191	-0.284
-613.273	26.555	-0.192	-0.163
-612.259	492.455	0.055	0.128
-611.244	-38.286	0.207	-0.111
-610.230	2.466	-0.394	-0.290
-609.215	-135.286	0.131	0.016
-608.201	-56.974	0.463	-0.207
-607.186	-200.000	0.057	-0.409
-606.171	-110.338	-0.251	0.053
-605.157	-71.936	-0.194	0.073
-604.142	-115.595	-0.232	-0.044
-603.128	35.018	0.350	-0.311
-602.113	-35.149	0.403	-0.223
-601.098	-9.768	0.054	0.036
-600.084	-200.000	0.010	0.236
-599.069	-2.720	-0.156	-0.111
-598.055	229.650	-0.171	-0.284
-597.040	-10.970	-0.230	0.154
-596.025	234.956	-0.041	-0.068
-595.011	-200.000	0.004	0.226
-593.996	-92.056	-0.109	0.031
-592.982	-200.000	0.011	-0.165
-591.967	89.425	-0.099	-0.112
-590.952	6.452	0.117	0.088
-589.938	-50.110	-0.373	0.179
-588.923	800.000	-0.051	-0.192
-587.909	154.725	-0.164	-0.228
-586.894	66.698	0.326	-0.336
-585.879	-11.456	-0.274	0.183
-584.865	72.164	-0.188	0.199
-583.850	-37.513	-0.087	-0.047
-582.836	185.512	-0.085	-0.127
-581.821	-139.301	-0.535	0.058
-580.806	-167.286	0.315	-0.013
-579.792	-56.174	-0.079	-0.036
-578.777	-200.000	0.001	0.161
-577.763	800.000	0.068	-0.267
-576.748	-34.396	-0.220	-0.122
-575.733	397.693	0.039	-0.082
-574.719	-129.948	0.186	0.026
-573.704	800.000	-0.072	0.319
-572.690	800.000	0.070	0.307
-571.675	314.548	-0.068	-0.130
-570.661	-200.000	0.013	-0.573
-569.646	699.555	0.080	-0.213
-568.631	-105.711	-0.014	0.003
-567.617	174.320	-0.087	-0.128
-566.602	501.595	-0.129	0.301
-565.588	-200.000	-0.021	0.097
-564.573	-31.435	0.112	-0.064
-563.558	-89.005	-0.141	0.042
-562.544	-43.507	-0.437	0.224
-561.529	-54.245	0.221	0.102
-560.515	-200.000	0.016	-0.101
-559.500	359.105	0.204	-0.414
-558.485	444.334	0.047	0.104
-557.471	-126.265	-0.303	-0.046
-556.456	29.219	0.133	-0.115
-555.442	800.000	0.066	-0.212
-554.427	-104.652	-0.160	0.037
-553.412	140.553	0.173	-0.231
-552.398	293.398	-0.117	-0.215
-551.383	800.000	-0.053	0.229
-550.369	212.062	-0.170	0.271
-549.354	-45.155	-0.191	0.096
-548.339	-200.000	-0.025	0.216
-547.325	-200.000	0.374	-0.000
-546.310	-19.418	-0.265	-0.167
-545.296	697.166	-0.145	0.385
-544.281	-148.008	-0.060	-0.005
-543.266	800.000	0.047	0.159
-542.252	-91.682	-0.383	-0.110
-541.237	-56.709	-0.219	0.098
-540.223	204.408	-0.086	0.136
-539.208	588.001	-0.055	0.137
-538.193	-33.689	0.106	0.059
-537.179	184.097	-0.208	0.312
-536.164	-42.364	0.185	-0.095
-535.150	421.209	0.096	-0.209
-534.135	-113.373	0.061	0.012
-533.121	85.363	0.081	-0.090
-532.106	38.857	0.106	-0.096
-531.091	-70.548	-0.080	-0.031
-530.077	-89.314	0.296	-0.088
-529.062	724.881	-0.032	-0.087
-528.048	430.340	0.070	0.153
-527.033	-130.139	0.178	0.025
-526.018	67.910	0.198	-0.205
-525.004	-200.000	-0.084	-0.586
-523.989	66.946	-0.193	-0.199
-522.975	193.833	-0.160	-0.246
-521.960	-141.689	-0.235	-0.024
-520.945	-200.000	-0.021	-0.323
-519.931	-200.000	-0.004	0.113
-518.916	38.376	-0.110	-0.099
-517.902	-93.227	0.047	-0.013
-516.887	800.000	0.188	0.664
-515.872	800.000	-0.028	0.093
-514.858	-200.000	-0.024	0.256
-513.843	-141.817	-0.120	-0.012
-512.829	-200.000	-0.040	0.248
-511.814	-52.704	-0.331	0.154
-510.799	55.981	0.028	-0.027
-509.785	800.000	0.024	0.084
-508.770	297.411	0.134	-0.248
-507.756	800.000	0.096	0.350
-506.741	114.114	-0.100	0.123
-505.726	70.336	-0.074	-0.077
-504.712	-38.153	0.190	0.102
-503.697	-132.941	0.108	0.014
-502.683	-76.418	0.149	0.053
-501.668	-200.000	-0.005	0.141
-500.653	-52.807	-0.065	0.030
-499.639	303.476	-0.167	0.313
-498.624	127.739	-0.125	0.160
-497.610	-167.425	0.231	0.009
-496.595	118.169	0.195	0.242
-495.581	-158.746	-0.465	0.027
-494.566	800.000	-0.023	-0.099
-493.551	-84.903	0.072	-0.023
-492.537	-82.090	0.384	-0.126
-491.522	223.594	0.044	0.071
-490.508	542.630	-0.084	0.203
-489.493	-65.946	0.076	-0.031
-488.478	-200.000	0.026	-0.288
-487.464	-123.917	0.170	0.027
-486.449	-131.547	-0.190	-0.025
-485.435	-46.162	-0.182	-0.090
-484.420	-144.468	0.390	0.037
-483.405	-7.979	0.019	0.013
-482.391	-200.000	-0.014	0.103
-481.376	800.000	-0.070	0.196
-480.362	15.641	0.280	-0.222
-479.347	220.986	0.101	0.163
-478.332	-63.127	-0.150	0.062
-477.318	-200.000	0.052	-0.312
-476.303	164.469	0.250	-0.355
-475.289	32.926	-0.038	-0.033
-474.274	-50.662	-0.211	-0.100
-473.259	122.940	0.163	0.206
-472.245	-55.075	0.105	-0.048
-471.230	-200.000	0.023	-0.191
-470.216	-200.000	0.049	-0.268
-469.201	306.443	0.070	-0.131
-468.186	-37.871	0.234	-0.126
-467.172	800.000	-0.068	0.194
-466.157	12.560	0.286	-0.223
-465.143	-9.524	0.138	0.093
-464.128	126.595	-0.023	-0.029
-463.113	-160.211	-0.127	-0.007
-462.099	204.081	-0.244	0.382
-461.084	-53.743	-0.452	0.208
-460.070	117.891	-0.217	0.270
-459.055	-173.740	-0.243	0.007
-458.040	-52.784	0.196	0.091
-457.026	75.494	-0.044	0.047
-456.011	-71.616	-0.135	-0.051
-454.997	115.297	0.181	0.222
-453.982	-101.877	0.193	-0.047
-452.968	88.360	-0.052	-0.058
-451.953	800.000	-0.064	0.222
-450.938	-87.950	0.192	0.058
-449.924	800.000	0.042	0.135
-448.909	-200.000	-0.018	-0.176
-447.895	-200.000	0.035	0.169
-446.880	220.692	-0.111	0.179
-445.865	800.000	-0.055	-0.237
-444.851	-200.000	0.022	-0.136
-443.836	-71.310	0.313	0.118
-442.822	-200.000	0.061	0.317
-441.807	64.437	-0.131	0.133
-440.792	-200.000	0.003	-0.136
-439.778	-122.270	-0.100	0.017
-438.763	238.065	0.113	-0.190
-437.749	504.134	-0.065	-0.153
-436.734	-200.000	-0.029	0.190
-435.719	-12.504	0.233	-0.153
-434.705	8.588	-0.117	0.089
-433.690	45.441	0.076	-0.070
-432.676	134.800	-0.111	0.146
-431.661	95.101	-0.162	-0.186
-430.646	-200.000	-0.019	-0.379
-429.632	800.000	0.045	-0.173
-428.617	-200.000	-0.044	0.200
-427.603	800.000	-0.056	0.183
-426.588	800.000	0.042	0.160
-425.573	124.911	0.216	0.274
-424.559	-29.423	0.301	0.174
-423.544	-68.190	-0.176	-0.069
-422.530	24.549	0.168	0.140
-421.515	371.201	-0.047	-0.096
-420.500	-200.000	-0.028	0.224
-419.486	-40.561	0.149	0.078
-418.471	53.935	0.153	-0.148
-417.457	800.000	-0.052	0.205
-416.442	260.921	-0.173	0.301
-415.428	-200.000	0.000	-0.146
-414.413	155.687	-0.159	0.220
-413.398	-166.718	-0.293	0.012
-412.384	-84.656	-0.108	0.034
-411.369	-200.000	0.015	-0.337
-410.355	-128.558	-0.105	-0.015
-409.340	-142.256	-0.242	-0.024
-408.325	-62.059	-0.167	-0.070
-407.311	800.000	-0.022	-0.072
-406.296	125.607	0.215	0.274
-405.282	241.312	0.104	0.175
-404.267	-44.784	-0.099	-0.050
-403.252	-170.725	-0.236	0.008
-402.238	-74.098	0.254	-0.093
-401.223	-17.047	-0.121	-0.077
-400.209	451.025	0.045	-0.099
-399.194	-47.218	0.060	0.030
-398.179	88.176	0.071	-0.079
-397.165	-121.668	-0.292	0.049
-396.150	-200.000	-0.015	-0.215
-395.136	800.000	-0.107	0.440
-394.121	800.000	0.045	0.137
-393.106	-28.053	0.214	0.125
-392.092	-47.519	-0.213	-0.104
-391.077	-66.088	0.180	0.072
-390.063	-7.719	-0.252	0.171
-389.048	8.601	0.126	-0.095
-388.033	800.000	-0.114	-0.394
-387.019	11.889	0.192	-0.148
-386.004	676.411	-0.213	0.557
-384.990	8.689	-0.085	0.064
-383.975	800.000	0.114	0.472
-382.960	-158.611	0.092	-0.005
-381.946	-115.786	0.376	0.071
-380.931	-29.279	0.039	0.023
-379.917	-53.053	0.239	0.110
-378.902	386.452	-0.058	-0.120
-377.888	-200.000	0.029	-0.135
-376.873	-200.000	-0.001	-0.053
-375.858	-62.427	0.180	-0.075
-374.844	212.491	0.073	0.116
-373.829	-10.736	-0.183	0.121
-372.815	81.380	0.054	-0.058
-371.800	-157.939	-0.112	-0.007
-370.785	199.359	-0.049	-0.075
-369.771	-200.000	-0.030	-0.308
-368.756	65.703	0.240	-0.244
-367.742	-112.862	0.224	0.045
-366.727	-44.849	0.236	-0.118
-365.712	-19.926	-0.207	0.128
-364.698	-8.933	-0.069	-0.047
-363.683	74.898	0.252	-0.267
-362.669	199.718	-0.082	-0.126
-361.654	-110.545	-0.328	-0.068
-360.639	-108.795	0.022	0.005
-359.625	-200.000	0.021	0.109
-358.610	-160.146	0.300	0.016
-357.596	268.446	0.216	-0.380
-356.581	-58.885	0.246	0.107
-355.566	-200.000	0.029	-0.306
-354.552	278.618	-0.105	-0.188
-353.537	-29.710	0.173	-0.099
-352.523	120.595	-0.108	-0.134
-351.508	-130.149	-0.384	0.053
-350.493	-34.092	-0.245	0.135
-349.479	473.850	0.019	-0.043
-348.464	-154.443	-0.100	0.007
-347.450	-3.638	-0.154	-0.108
-346.435	-200.000	0.005	-0.031
-345.420	-82.593	-0.066	-0.021
-344.406	-57.583	0.360	0.158
-343.391	-40.185	-0.416	-0.217
-342.377	23.834	0.061	-0.050
-341.362	-127.035	-0.350	-0.052
-340.348	584.066	0.072	0.178
-339.333	-12.213	0.172	0.113
-338.318	-49.188	0.088	0.042
-337.304	-200.000	0.024	0.000
-336.289	-51.439	-0.218	0.102
-335.275	77.933	-0.202	0.216
-334.260	-41.406	0.244	0.126
-333.245	-44.549	0.406	-0.204
-332.231	800.000	0.132	-0.371
-331.216	-190.675	-0.418	0.004
-330.202	27.163	-0.205	0.173
-329.187	-88.892	-0.551	0.164
-328.172	-37.777	-0.209	-0.112
-327.158	800.000	-0.032	-0.131
-326.143	290.657	-0.017	-0.031
-325.129	88.738	-0.237	-0.264
-324.114	-200.000	-0.025	0.163
-323.099	68.432	0.198	-0.203
-322.085	458.740	0.104	0.232
-321.070	55.892	0.201	0.196
-320.056	-37.176	0.073	0.039
-319.041	-152.754	0.143	-0.010
-318.026	800.000	-0.051	-0.209
-317.012	-93.438	0.080	0.022
-315.997	-200.000	0.013	0.231
-314.983	-51.730	0.099	-0.046
-313.968	116.826	0.210	0.259
-312.953	193.365	-0.075	-0.114
-311.939	800.000	0.071	-0.288
-310.924	-200.000	-0.027	-0.125
-309.910	82.978	-0.161	-0.175
-308.895	-81.959	0.174	0.057
-307.880	-200.000	0.043	0.229
-306.866	-134.872	-0.380	-0.046
-305.851	89.324	-0.156	-0.174
-304.837	216.232	0.180	0.287
-303.822	165.511	-0.220	0.312
-302.807	-71.969	-0.261	0.097
-301.793	48.079	-0.330	-0.309
-300.778	-87.445	0.160	0.049
-299.764	-200.000	-0.032	0.393
-298.749	46.364	0.160	-0.149
-297.735	1.580	-0.207	-0.149
-296.720	800.000	0.089	-0.311
-295.705	-168.033	0.255	0.010
-294.691	140.976	0.097	0.128
-293.676	-54.858	-0.433	-0.196
-292.662	-200.000	0.006	-0.094
-291.647	-200.000	0.009	0.368
-290.632	-88.883	0.270	-0.080
-289.618	-35.809	-0.063	-0.034
-288.603	-159.250	0.263	-0.015
-287.589	-70.083	0.142	-0.054
-286.574	-141.225	0.295	0.030
-285.559	-159.465	0.153	-0.009
-284.545	-200.000	0.012	0.276
-283.530	50.952	0.166	-0.157
-282.516	-13.890	0.096	-0.062
-281.501	45.611	0.255	-0.236
-280.486	-125.625	-0.215	0.033
-279.472	-150.065	0.048	0.004
-278.457	-200.000	0.017	-0.119
-277.443	-200.000	-0.010	0.112
-276.428	53.818	0.120	0.116
-275.413	-200.000	0.075	0.371
-274.399	105.530	0.120	0.142
-273.384	-117.135	0.533	-0.097
-272.370	35.340	0.141	0.124
-271.355	-42.218	0.295	0.151
-270.340	-30.548	-0.201	0.114
-269.326	-139.517	0.309	-0.033
-268.311	-200.000	0.013	-0.107
-267.297	74.925	-0.046	0.048
-266.282	-37.895	-0.179	0.095
-265.267	9.945	-0.195	0.148
-264.253	-82.567	-0.075	0.024
-263.238	-81.261	0.232	-0.077
-262.224	2.976	-0.209	-0.152
-261.209	-55.964	-0.181	-0.081
-260.195	-200.000	0.041	0.363
-259.180	278.765	-0.058	0.104
-258.165	-92.498	-0.053	-0.015
-257.151	108.563	-0.080	-0.096
-256.136	-200.000	0.067	-0.440
-255.122	-200.000	-0.078	-0.445
-254.107	-93.806	0.281	0.077
-253.092	39.201	-0.227	0.203
-252.078	-143.124	-0.163	0.016
-251.063	179.062	-0.051	0.074
-250.049	121.109	0.143	-0.178
-249.034	-160.863	-0.120	-0.006
-248.019	274.325	0.037	-0.066
-247.005	68.423	0.152	0.156
-245.990	278.498	-0.118	0.210
-244.976	366.860	-0.135	-0.272
-243.961	260.125	-0.035	0.060
-242.946	400.915	-0.096	0.202
-241.932	117.961	0.162	0.200
-240.917	-62.668	-0.208	0.086
-239.903	-131.849	-0.183	0.024
-238.888	800.000	-0.090	-0.273
-237.873	114.406	-0.206	-0.251
-236.859	-140.577	-0.027	-0.003
-235.844	-86.901	0.307	0.094
-234.830	311.775	0.087	-0.163
-233.815	452.704	0.091	0.202
-232.800	-7.714	0.253	0.171
-231.786	103.383	-0.276	-0.323
-230.771	-104.218	0.302	-0.070
-229.757	-200.000	-0.031	-0.276
-228.742	-200.000	-0.032	0.172
-227.727	5.635	0.191	-0.141
-226.713	-136.840	-0.117	-0.013
-225.698	-175.111	-0.175	-0.005
-224.684	-200.000	-0.032	-0.142
-223.669	292.518	0.216	-0.393
-222.655	202.345	-0.164	-0.252
-221.640	253.759	-0.052	0.090
-220.625	250.500	-0.081	0.137
-219.611	-74.797	-0.487	-0.175
-218.596	-69.717	-0.084	-0.032
-217.582	-26.605	0.198	0.116
-216.567	-36.516	-0.065	0.035
-215.552	89.372	0.041	-0.046
-214.538	78.291	0.103	-0.110
-213.523	-163.746	0.186	-0.009
-212.509	-200.000	-0.001	0.182
-211.494	-78.207	0.450	0.155
-210.479	800.000	0.040	-0.151
-209.465	-23.567	0.253	0.152
-208.450	-200.000	-0.047	0.218
-207.436	172.750	-0.069	0.099
-206.421	-150.471	-0.121	0.009
-205.406	442.038	-0.054	0.117
-204.392	66.605	0.189	0.192
-203.377	-52.154	0.098	-0.045
-202.363	-84.904	0.165	-0.052
-201.348	4.005	-0.333	0.243
-200.333	-72.794	0.422	-0.155
-199.319	-82.418	-0.084	0.027
-198.304	66.528	-0.209	-0.213
-197.290	-108.660	-0.237	0.051
-196.275	-28.164	0.197	0.114
-195.260	-125.144	0.273	0.042
-194.246	4.628	0.270	0.198
-193.231	6.887	-0.192	0.143
-192.217	195.764	-0.258	0.391
-191.202	-134.177	0.185	0.023
-190.187	459.313	-0.171	0.380
-189.173	-136.140	0.231	-0.027
-188.158	-117.275	-0.270	0.049
-187.144	25.923	0.097	0.081
-186.129	79.922	0.213	0.228
-185.114	-200.000	-0.024	-0.397
-184.100	44.176	0.123	0.112
-183.085	150.171	0.310	0.419
-182.071	-199.128	0.173	0.001
-181.056	-64.049	0.269	-0.110
-180.042	-123.134	0.195	0.031
-179.027	-33.709	0.306	-0.169
-178.012	-107.789	0.341	-0.074
-176.998	800.000	0.051	-0.155
-175.983	-200.000	-0.032	0.156
-174.969	-111.925	0.181	-0.036
-173.954	-35.120	-0.200	0.109
-172.939	135.811	0.150	-0.195
-171.925	-200.000	0.000	0.085
-170.910	679.446	0.078	0.202
-169.896	-200.000	0.127	-0.000
-168.881	-55.316	0.248	0.111
-167.866	-200.000	-0.065	-0.386
-166.852	43.841	0.050	-0.046
-165.837	124.849	-0.066	-0.082
-164.823	172.837	-0.155	-0.223
-163.808	174.420	0.171	-0.246
-162.793	-121.487	-0.120	0.020
-161.779	436.588	-0.153	0.332
-160.764	-139.519	-0.394	0.042
-159.750	800.000	-0.143	-0.430
-158.735	294.467	-0.074	0.135
-157.720	-11.361	-0.174	-0.114
-156.706	-16.387	0.303	-0.191
-155.691	143.039	-0.185	0.246
-154.677	800.000	-0.153	-0.440
-153.662	-81.491	-0.324	0.106
-152.647	219.242	0.003	0.005
-151.633	-94.837	-0.322	-0.087
-150.618	800.000	-0.094	-0.349
-149.604	800.000	0.017	-0.052
-148.589	179.713	0.091	0.133
-147.574	165.013	0.075	-0.105
-146.560	-200.000	-0.014	-0.127
-145.545	-105.009	0.203	0.046
-144.531	734.630	-0.063	0.168
-143.516	-124.376	0.315	0.049
-142.502	-24.190	-0.246	0.146
-141.487	129.212	-0.126	-0.160
-140.472	246.166	0.080	0.134
-139.458	780.144	-0.018	0.049
-138.443	-134.789	0.318	-0.038
-137.429	152.019	-0.123	-0.167
-136.414	317.155	0.138	-0.260
-135.399	-74.506	0.291	0.104
-134.385	-200.000	0.019	0.541
-133.370	-153.722	0.316	-0.022
-132.356	78.463	0.120	-0.128
-131.341	72.908	0.022	0.023
-130.326	34.608	0.033	0.029
-129.312	47.445	0.135	-0.125
-128.297	3.752	-0.108	-0.079
-127.283	87.044	0.132	-0.146
-126.268	-80.051	-0.145	0.049
-125.253	-200.000	-0.026	0.194
-124.239	-57.736	0.184	0.080
-123.224	552.739	0.054	-0.129
-122.210	-19.482	0.445	-0.274
-121.195	-200.000	0.016	0.081
