DTS Sentinel unit serial number:	SN413079Multiplexer serial number:	ORYXHardware model number:	OX4-SRSoftware version number:	ORYX F/W v4.00 Oryx Data Collector v3.7.2.0data status	okinstallation	princeton_trtdifferential loss correction	single-endedforward channel	channel 3reverse channel	N/Adate	2019/09/12time	04:30:11forward acquisition time	60.00reverse acquisition time	0.00gamma	496.2192k internal	0.2324k external	0.2324temperature offset calibration	1.0062default loss term (dB/km)	0.3790temperature slope calibration	1.0000multiplexer offset coefficient	1.0000multiplexer slope coefficient	1.0000fibre end	0.00T internal ref (°C)	31.62T ext. ref 1 (°C)	2.22T ext. ref 2 (°C)	26.42length (m)	temperature (°C)	Stokes	anti-Stokes-747.200	-40.904	0.114	-0.059
-746.185	-76.156	-0.597	0.213
-745.171	-55.866	0.250	0.113
-744.156	-111.086	-0.190	-0.039
-743.142	153.117	0.153	0.212
-742.127	-200.000	-0.011	0.238
-741.112	-48.960	-0.322	0.156
-740.098	-200.000	-0.030	0.135
-739.083	292.636	0.072	-0.133
-738.069	-200.000	-0.047	0.234
-737.054	-17.720	-0.122	-0.077
-736.039	-75.819	0.150	-0.054
-735.025	120.622	0.193	0.242
-734.010	206.719	0.071	0.112
-732.996	25.140	0.226	-0.189
-731.981	-20.306	-0.250	-0.155
-730.966	-67.418	-0.099	-0.039
-729.952	-37.433	-0.220	-0.118
-728.937	-118.962	-0.084	0.015
-727.923	-200.000	-0.011	0.059
-726.908	-29.831	0.215	0.124
-725.894	800.000	-0.037	0.149
-724.879	-200.000	-0.001	-0.070
-723.864	-74.428	-0.409	0.149
-722.850	-66.136	-0.179	-0.072
-721.835	-200.000	-0.017	0.199
-720.821	160.307	-0.081	-0.114
-719.806	150.817	0.169	0.232
-718.791	-200.000	-0.041	-0.342
-717.777	800.000	-0.012	0.041
-716.762	27.269	-0.203	0.172
-715.748	223.816	-0.100	0.162
-714.733	776.310	0.062	0.171
-713.718	-167.033	-0.103	0.004
-712.704	800.000	-0.073	-0.210
-711.689	-200.000	0.027	-0.390
-710.675	138.405	0.261	0.345
-709.660	-200.000	0.033	0.480
-708.645	23.963	-0.259	-0.215
-707.631	403.706	0.087	-0.186
-706.616	800.000	-0.099	0.347
-705.602	-200.000	0.005	-0.254
-704.587	-200.000	0.016	-0.226
-703.572	800.000	0.068	-0.215
-702.558	-84.173	-0.080	-0.025
-701.543	39.806	0.120	-0.108
-700.529	376.151	-0.038	0.077
-699.514	206.988	0.169	0.266
-698.499	-50.932	-0.093	-0.044
-697.485	-12.545	0.121	0.080
-696.470	-48.560	-0.115	0.056
-695.456	753.435	0.119	0.323
-694.441	407.267	-0.031	-0.066
-693.426	-200.000	0.001	0.221
-692.412	574.334	-0.113	0.278
-691.397	-200.000	-0.005	0.116
-690.383	800.000	0.061	0.195
-689.368	30.854	-0.062	-0.054
-688.354	-96.841	0.220	0.058
-687.339	-133.786	0.236	-0.030
-686.324	416.261	0.134	-0.288
-685.310	98.935	0.177	-0.206
-684.295	-62.066	-0.212	0.089
-683.281	-200.000	0.052	-0.323
-682.266	9.496	-0.171	0.130
-681.251	-169.774	-0.174	0.006
-680.237	108.455	0.140	0.168
-679.222	-90.892	-0.058	0.017
-678.208	-100.843	-0.263	0.065
-677.193	214.228	0.090	-0.143
-676.178	-200.000	0.003	0.080
-675.164	-151.077	-0.236	-0.018
-674.149	-200.000	-0.054	-0.302
-673.135	-200.000	-0.034	-0.215
-672.120	105.231	0.070	-0.083
-671.105	116.163	0.252	-0.311
-670.091	-200.000	-0.017	-0.139
-669.076	-12.620	-0.173	0.114
-668.062	-79.597	-0.258	0.088
-667.047	-200.000	0.050	0.232
-666.032	-43.346	-0.110	0.056
-665.018	-98.985	0.015	-0.004
-664.003	171.059	0.066	0.095
-662.989	690.094	-0.069	0.182
-661.974	199.689	-0.040	0.062
-660.959	-166.964	-0.276	-0.011
-659.945	22.550	-0.138	0.114
-658.930	35.421	0.079	-0.070
-657.916	-105.059	-0.303	-0.070
-656.901	27.750	-0.189	-0.160
-655.886	107.746	-0.256	0.307
-654.872	4.464	-0.223	-0.165
-653.857	-29.196	-0.181	-0.104
-652.843	-106.351	0.466	0.105
-651.828	-200.000	0.021	-0.120
-650.814	-8.688	-0.238	0.161
-649.799	-174.310	-0.185	-0.005
-648.784	259.433	-0.095	-0.165
-647.770	-110.585	-0.557	0.116
-646.755	132.539	-0.168	-0.218
-645.741	150.306	-0.041	0.056
-644.726	10.764	0.091	0.070
-643.711	54.416	-0.064	0.062
-642.697	502.949	0.198	0.461
-641.682	631.658	0.044	-0.112
-640.668	-90.783	-0.335	-0.097
-639.653	-200.000	-0.019	-0.118
-638.638	71.925	-0.164	0.172
-637.624	-160.125	0.267	-0.015
-636.609	124.149	0.107	-0.135
-635.595	608.561	0.216	0.541
-634.580	180.610	-0.199	0.293
-633.565	-200.000	-0.010	0.116
-632.551	33.595	-0.193	0.168
-631.536	552.055	0.078	-0.188
-630.522	9.949	0.261	0.199
-629.507	-200.000	-0.002	0.278
-628.492	564.101	-0.068	0.165
-627.478	-200.000	0.004	-0.203
-626.463	19.935	-0.195	-0.158
-625.449	148.564	-0.146	-0.198
-624.434	372.696	-0.119	0.243
-623.419	800.000	-0.050	0.141
-622.405	-200.000	-0.035	-0.229
-621.390	-200.000	-0.004	-0.082
-620.376	185.352	0.099	-0.147
-619.361	781.190	-0.092	0.252
-618.346	-118.528	0.195	-0.035
-617.332	25.787	0.383	0.320
-616.317	434.927	-0.067	-0.145
-615.303	20.714	-0.047	-0.039
-614.288	-89.538	-0.214	-0.063
-613.273	-190.410	-0.076	0.001
-612.259	102.449	-0.253	-0.297
-611.244	-93.099	-0.079	0.022
-610.230	-46.603	-0.152	-0.075
-609.215	-124.493	-0.081	0.013
-608.201	262.311	0.074	-0.129
-607.186	-153.753	0.152	0.010
-606.171	-200.000	0.017	0.100
-605.157	208.459	-0.163	-0.255
-604.142	-5.253	0.262	0.181
-603.128	-134.911	-0.105	-0.013
-602.113	-200.000	-0.001	0.038
-601.098	23.861	0.082	0.068
-600.084	351.926	-0.021	0.042
-599.069	58.428	0.033	-0.032
-598.055	778.650	-0.140	0.383
-597.040	94.390	0.168	-0.192
-596.025	36.457	0.361	0.320
-595.011	321.407	-0.126	-0.241
-593.996	124.939	-0.108	-0.136
-592.982	-17.199	-0.081	0.051
-591.967	69.960	-0.179	0.185
-590.952	258.981	-0.118	-0.204
-589.938	-75.686	0.335	-0.119
-588.923	-53.103	-0.071	-0.033
-587.909	-94.869	0.078	0.021
-586.894	-200.000	0.047	-0.260
-585.879	-28.567	-0.111	0.064
-584.865	382.846	0.071	-0.146
-583.850	-84.496	-0.209	-0.066
-582.836	477.727	0.037	0.085
-581.821	-200.000	-0.003	-0.103
-580.806	126.815	-0.106	-0.134
-579.792	-54.785	-0.249	0.113
-578.777	-116.063	0.321	-0.060
-577.763	291.603	0.149	-0.273
-576.748	-200.000	-0.027	-0.176
-575.733	448.219	0.026	0.058
-574.719	111.198	-0.138	-0.167
-573.704	-102.637	-0.267	0.064
-572.690	-16.585	-0.196	0.125
-571.675	-0.399	-0.113	0.081
-570.661	-95.251	0.178	0.048
-569.646	-63.391	-0.149	0.061
-568.631	16.843	0.241	0.191
-567.617	800.000	0.029	-0.101
-566.602	800.000	0.060	-0.192
-565.588	-145.664	-0.236	-0.021
-564.573	741.695	-0.109	-0.293
-563.558	800.000	-0.062	-0.243
-562.544	35.471	0.328	-0.289
-561.529	58.166	-0.096	0.094
-560.515	-59.959	0.236	-0.101
-559.500	62.142	0.116	-0.116
-558.485	-138.467	-0.115	-0.013
-557.471	-63.408	0.119	0.049
-556.456	172.683	-0.165	0.239
-555.442	-64.491	0.345	-0.140
-554.427	-39.093	-0.095	-0.050
-553.412	-3.505	0.161	-0.112
-552.398	465.970	-0.062	-0.138
-551.383	-162.404	0.189	0.009
-550.369	-96.107	0.427	0.114
-549.354	-140.494	0.042	0.004
-548.339	-87.631	0.162	0.049
-547.325	209.817	-0.078	0.123
-546.310	-130.297	-0.058	-0.008
-545.296	195.577	-0.065	0.100
-544.281	626.644	0.050	-0.127
-543.266	86.748	0.060	-0.066
-542.252	-74.780	0.232	-0.083
-541.237	800.000	-0.081	-0.304
-540.223	-10.799	0.273	0.181
-539.208	-104.172	0.219	0.051
-538.193	214.197	0.132	0.209
-537.179	-72.712	0.170	-0.063
-536.164	800.000	0.083	-0.302
-535.150	-71.236	-0.308	-0.116
-534.135	165.193	-0.090	0.127
-533.121	-100.209	0.098	0.024
-532.106	800.000	0.067	0.192
-531.091	637.592	0.120	0.306
-530.077	322.711	0.046	0.088
-529.062	-153.648	-0.395	-0.027
-528.048	-115.362	0.037	-0.007
-527.033	-75.790	-0.205	0.073
-526.018	-69.474	-0.290	0.111
-525.004	172.300	-0.128	-0.185
-523.989	210.674	-0.146	-0.229
-522.975	800.000	-0.106	-0.297
-521.960	-113.104	0.236	0.047
-520.945	244.900	-0.121	0.204
-519.931	16.791	-0.193	0.153
-518.916	-57.957	-0.077	0.033
-517.902	-200.000	0.017	0.139
-516.887	58.447	-0.101	-0.099
-515.872	-200.000	0.001	0.101
-514.858	346.459	0.125	-0.247
-513.843	-177.521	-0.251	-0.006
-512.829	-49.798	-0.132	-0.063
-511.814	243.141	-0.172	0.288
-510.799	-153.394	0.291	0.020
-509.785	3.408	-0.111	-0.081
-508.770	23.089	-0.136	0.112
-507.756	-200.000	0.008	-0.062
-506.741	355.103	0.058	0.115
-505.726	184.544	-0.184	0.273
-504.712	-129.387	0.081	-0.011
-503.697	8.482	-0.128	0.097
-502.683	-68.851	-0.083	0.032
-501.668	-77.900	-0.134	0.046
-500.653	295.961	0.074	-0.136
-499.639	-24.745	-0.316	0.188
-498.624	-41.432	-0.162	0.083
-497.610	-147.964	-0.298	-0.025
-496.595	-14.611	-0.247	-0.159
-495.581	189.846	-0.079	0.119
-494.566	83.193	-0.166	-0.180
-493.551	-45.082	-0.195	-0.097
-492.537	237.606	-0.151	0.250
-491.522	-75.676	-0.213	-0.076
-490.508	-87.243	-0.334	0.101
-489.493	431.318	-0.096	0.207
-488.478	2.177	-0.221	-0.159
-487.464	562.544	-0.040	-0.097
-486.449	800.000	-0.045	-0.171
-485.435	-47.029	-0.233	-0.114
-484.420	-96.041	-0.398	-0.106
-483.405	190.183	-0.049	-0.074
-482.391	91.113	0.218	0.244
-481.376	-113.748	-0.307	-0.060
-480.362	82.691	0.265	-0.288
-479.347	701.553	-0.030	-0.079
-478.332	-72.148	0.165	-0.061
-477.318	-177.548	-0.270	-0.007
-476.303	-200.000	-0.072	0.349
-475.289	-89.652	-0.252	0.074
-474.274	149.938	-0.130	-0.177
-473.259	15.052	0.165	-0.129
-472.245	63.522	-0.168	-0.169
-471.230	-148.047	-0.076	-0.006
-470.216	-165.135	0.320	0.014
-469.201	15.362	-0.083	-0.065
-468.186	109.428	-0.156	-0.186
-467.172	-200.000	-0.010	-0.191
-466.157	-35.220	-0.298	-0.162
-465.143	-89.179	-0.105	-0.031
-464.128	-94.808	-0.319	-0.086
-463.113	5.930	0.369	-0.273
-462.099	68.182	-0.124	-0.126
-461.084	800.000	-0.102	0.307
-460.070	263.058	0.015	0.025
-459.055	395.169	0.056	-0.117
-458.040	-78.595	-0.251	0.086
-457.026	-200.000	-0.007	0.192
-456.011	-200.000	-0.001	-0.016
-454.997	-25.511	0.122	0.072
-453.982	-10.510	-0.085	0.056
-452.968	-134.815	0.353	-0.043
-451.953	175.588	-0.171	-0.247
-450.938	-200.000	-0.034	-0.435
-449.924	-64.866	-0.189	0.076
-448.909	-73.257	0.025	-0.009
-447.895	-151.572	0.194	-0.014
-446.880	83.730	-0.215	-0.234
-445.865	-200.000	-0.027	0.430
-444.851	-200.000	0.010	0.219
-443.836	69.388	0.404	-0.415
-442.822	8.640	-0.087	0.065
-441.807	-200.000	0.029	-0.310
-440.792	180.725	-0.176	0.258
-439.778	-200.000	0.042	0.195
-438.763	-200.000	-0.020	0.248
-437.749	336.037	-0.056	0.109
-436.734	-102.457	0.106	0.025
-435.719	-17.278	-0.206	-0.129
-434.705	-26.217	-0.246	0.144
-433.690	-43.168	0.148	0.075
-432.676	-200.000	-0.003	0.375
-431.661	293.910	-0.022	0.040
-430.646	-200.000	-0.053	-0.452
-429.632	-1.344	0.101	-0.071
-428.617	84.767	-0.246	0.269
-427.603	170.915	-0.160	-0.228
-426.588	346.337	0.087	-0.171
-425.573	59.991	-0.123	0.121
-424.559	-18.653	-0.027	0.017
-423.544	-200.000	-0.004	-0.096
-422.530	67.809	0.140	0.143
-421.515	594.645	0.122	-0.302
-420.500	274.055	-0.192	-0.338
-419.486	-41.972	0.172	-0.088
-418.471	-200.000	0.008	-0.114
-417.457	800.000	-0.030	-0.118
-416.442	-200.000	-0.015	-0.102
-415.428	112.215	-0.186	0.224
-414.413	735.443	0.154	-0.410
-413.398	-92.801	0.136	-0.038
-412.384	43.256	0.070	-0.063
-411.369	125.627	-0.042	-0.052
-410.355	6.465	-0.060	0.045
-409.340	177.767	0.187	-0.272
-408.325	-109.472	-0.275	-0.058
-407.311	800.000	0.011	-0.035
-406.296	347.503	-0.141	-0.276
-405.282	124.425	0.059	0.074
-404.267	800.000	0.021	0.074
-403.252	96.464	0.073	-0.083
-402.238	800.000	-0.074	0.209
-401.223	800.000	0.071	0.215
-400.209	168.420	0.133	0.188
-399.194	33.648	-0.184	-0.159
-398.179	-200.000	0.006	-0.039
-397.165	94.459	-0.220	0.249
-396.150	286.203	0.223	-0.401
-395.136	-54.446	0.258	0.116
-394.121	-92.170	-0.065	-0.018
-393.106	-88.433	-0.108	0.032
-392.092	-54.380	0.195	0.088
-391.077	800.000	-0.091	-0.270
-390.063	163.375	0.011	0.016
-389.048	-200.000	-0.056	0.299
-388.033	-64.664	0.308	-0.124
-387.019	425.006	-0.046	0.099
-386.004	375.707	-0.140	0.285
-384.990	3.176	-0.093	0.067
-383.975	-101.243	0.333	0.081
-382.960	-200.000	-0.014	0.214
-381.946	44.716	0.163	-0.150
-380.931	-147.046	-0.057	0.005
-379.917	-104.703	-0.119	-0.027
-378.902	-41.221	0.248	-0.127
-377.888	-200.000	0.024	-0.129
-376.873	-87.736	-0.047	-0.014
-375.858	-62.761	0.252	-0.104
-374.844	-31.413	0.122	-0.068
-373.829	-200.000	0.043	-0.436
-372.815	-200.000	-0.084	-0.495
-371.800	-200.000	-0.008	-0.105
-370.785	536.037	-0.089	-0.211
-369.771	-200.000	0.005	0.136
-368.756	-147.049	-0.051	0.004
-367.742	216.433	0.172	0.272
-366.727	-122.800	-0.178	0.029
-365.712	62.895	0.222	0.221
-364.698	786.452	-0.084	0.229
-363.683	260.283	0.126	0.217
-362.669	34.801	-0.248	0.215
-361.654	-69.055	0.288	0.110
-360.639	-120.452	0.181	0.031
-359.625	-41.804	0.122	0.062
-358.610	800.000	0.109	-0.446
-357.596	7.143	-0.220	0.163
-356.581	473.014	-0.118	-0.263
-355.566	102.228	-0.178	-0.206
-354.552	-101.481	0.276	0.067
-353.537	-149.681	-0.119	0.009
-352.523	37.803	-0.342	0.302
-351.508	-200.000	-0.060	-0.403
-350.493	288.277	0.120	-0.216
-349.479	-108.947	0.200	0.042
-348.464	-193.865	0.294	-0.002
-347.450	-89.689	0.096	-0.028
-346.435	20.815	-0.077	0.062
-345.420	-119.476	-0.414	-0.071
-344.406	-200.000	-0.020	0.126
-343.391	800.000	0.044	0.151
-342.377	-115.933	0.360	0.067
-341.362	-86.275	-0.377	0.115
-340.348	800.000	0.071	-0.273
-339.333	129.191	0.319	-0.404
-338.318	-200.000	0.005	0.044
-337.304	-200.000	-0.007	0.203
-336.289	800.000	-0.090	0.383
-335.275	800.000	0.101	-0.293
-334.260	-10.007	-0.292	0.193
-333.245	426.633	0.030	-0.065
-332.231	800.000	-0.058	0.237
-331.216	245.193	0.138	0.230
-330.202	-53.547	0.254	-0.115
-329.187	-200.000	0.060	0.265
-328.172	800.000	0.093	0.276
-327.158	-200.000	0.051	0.292
-326.143	65.756	-0.203	-0.204
-325.129	800.000	0.084	-0.267
-324.114	34.220	0.109	-0.094
-323.099	-180.078	-0.080	-0.002
-322.085	-200.000	-0.013	-0.078
-321.070	-32.273	-0.220	-0.122
-320.056	528.464	-0.140	0.327
-319.041	53.692	0.064	-0.061
-318.026	-200.000	-0.005	-0.478
-317.012	-7.855	-0.128	-0.086
-315.997	-82.154	0.236	-0.076
-314.983	116.457	-0.033	0.040
-313.968	149.914	-0.069	-0.093
-312.953	280.475	0.055	-0.097
-311.939	-59.767	0.449	-0.191
-310.924	-37.440	0.370	-0.196
-309.910	-200.000	0.009	0.118
-308.895	-83.237	0.207	0.066
-307.880	800.000	0.068	0.191
-306.866	538.456	-0.053	-0.126
-305.851	762.883	-0.058	0.157
-304.837	18.653	0.185	-0.147
-303.822	144.309	0.168	-0.222
-302.807	-140.761	0.215	-0.022
-301.793	79.158	0.164	0.175
-300.778	-200.000	-0.053	0.452
-299.764	-86.780	-0.443	0.134
-298.749	-123.149	-0.214	0.034
-297.735	184.490	-0.142	0.208
-296.720	18.925	0.086	-0.068
-295.705	86.535	-0.409	-0.448
-294.691	-140.426	-0.422	-0.044
-293.676	800.000	-0.046	-0.135
-292.662	56.812	-0.138	-0.133
-291.647	-144.063	0.240	0.022
-290.632	270.145	-0.216	0.377
-289.618	800.000	0.061	0.171
-288.603	150.856	-0.132	0.178
-287.589	194.542	-0.120	0.180
-286.574	-75.493	0.216	-0.076
-285.559	19.930	-0.261	-0.208
-284.545	-86.628	0.221	-0.067
-283.530	410.534	-0.097	-0.203
-282.516	-170.485	0.225	-0.008
-281.501	-143.506	0.311	0.029
-280.486	-200.000	0.003	-0.180
-279.472	-154.597	0.280	-0.018
-278.457	74.524	-0.124	-0.129
-277.443	-67.102	-0.248	0.097
-276.428	-126.559	0.194	-0.029
-275.413	-35.861	-0.169	0.091
-274.399	800.000	-0.043	0.154
-273.384	89.226	0.195	-0.215
-272.370	98.742	0.365	-0.417
-271.355	-61.534	0.163	0.068
-270.340	186.981	0.187	0.276
-269.326	-144.525	0.088	-0.008
-268.311	167.902	-0.117	-0.166
-267.297	184.969	0.043	0.063
-266.282	-80.131	0.409	-0.136
-265.267	-50.679	0.135	-0.063
-264.253	508.532	0.035	-0.080
-263.238	-105.227	0.241	0.055
-262.224	-24.693	-0.184	0.109
-261.209	-73.175	0.191	0.069
-260.195	-6.196	-0.121	-0.082
-259.180	800.000	-0.061	0.179
-258.165	800.000	0.111	-0.375
-257.151	88.219	0.275	0.302
-256.136	-28.990	-0.255	-0.145
-255.122	781.036	0.132	-0.359
-254.107	-155.704	-0.143	-0.009
-253.092	691.077	0.126	0.327
-252.078	556.879	0.030	0.071
-251.063	-200.000	-0.032	0.373
-250.049	290.257	-0.082	0.148
-249.034	342.314	0.029	-0.056
-248.019	-8.795	-0.142	-0.095
-247.005	-54.255	0.217	-0.098
-245.990	-94.319	-0.308	-0.083
-244.976	336.364	-0.150	0.289
-243.961	800.000	0.050	0.217
-242.946	-87.954	-0.255	-0.076
-241.932	-200.000	-0.013	0.300
-240.917	248.613	-0.145	0.242
-239.903	-88.594	0.014	0.004
-238.888	-78.145	0.202	-0.069
-237.873	-118.997	-0.158	-0.027
-236.859	-28.495	-0.393	0.224
-235.844	10.480	0.171	-0.129
-234.830	-109.892	0.455	-0.094
-233.815	-200.000	-0.005	0.130
-232.800	-200.000	-0.007	-0.182
-231.786	56.681	0.066	-0.063
-230.771	141.130	-0.136	-0.178
-229.757	-200.000	-0.032	0.354
-228.742	440.124	0.159	0.345
-227.727	-200.000	0.021	0.264
-226.713	-119.041	0.110	0.019
-225.698	28.543	-0.088	0.073
-224.684	3.784	0.286	0.207
-223.669	-111.947	-0.204	-0.041
-222.655	-157.508	0.644	-0.038
-221.640	89.009	0.428	0.471
-220.625	96.960	0.221	0.251
-219.611	160.103	0.054	-0.074
-218.596	-62.475	-0.461	0.189
-217.582	-200.000	0.024	0.430
-216.567	72.287	-0.062	-0.063
-215.552	11.516	-0.004	-0.003
-214.538	-123.421	-0.281	-0.044
-213.523	-55.774	-0.230	-0.102
-212.509	-124.834	0.353	-0.054
-211.494	-25.438	-0.102	-0.059
-210.479	172.470	0.066	-0.093
-209.465	-55.062	0.207	0.092
-208.450	-200.000	-0.009	0.124
-207.436	-107.348	-0.308	0.067
-206.421	800.000	0.073	-0.289
-205.406	247.582	-0.111	-0.186
-204.392	753.248	-0.043	-0.114
-203.377	-200.000	-0.000	0.033
-202.363	-195.503	0.418	0.003
-201.348	38.124	-0.076	-0.067
-200.333	63.669	0.064	-0.064
-199.319	15.777	0.045	0.035
-198.304	-114.423	0.203	0.038
-197.290	77.887	-0.079	-0.083
-196.275	-178.297	-0.401	-0.009
-195.260	-86.925	0.134	-0.040
-194.246	355.526	0.092	0.182
-193.231	-115.983	0.190	0.035
-192.217	-31.397	0.073	0.041
-191.202	6.095	-0.120	-0.088
-190.187	800.000	-0.124	0.378
-189.173	-154.013	0.332	-0.022
-188.158	237.552	-0.054	-0.089
-187.144	-159.950	0.331	0.018
-186.129	64.473	0.135	0.134
-185.114	800.000	0.059	0.223
-184.100	-200.000	0.019	-0.094
-183.085	178.645	-0.101	-0.145
-182.071	800.000	-0.054	-0.159
-181.056	-200.000	0.005	0.090
-180.042	-192.170	0.260	-0.002
-179.027	-77.794	-0.195	0.066
-178.012	-22.878	0.595	0.354
-176.998	-43.244	-0.197	0.099
-175.983	244.174	0.267	0.443
-174.969	9.613	0.296	0.221
-173.954	-15.736	-0.185	-0.117
-172.939	-200.000	0.017	-0.236
-171.925	250.891	-0.154	0.258
-170.910	-200.000	-0.042	0.214
-169.896	-97.922	-0.132	0.034
-168.881	-200.000	0.012	-0.146
-167.866	107.026	0.113	0.133
-166.852	-19.896	0.273	-0.166
-165.837	413.654	0.180	-0.379
-164.823	394.200	0.156	0.320
-163.808	-54.013	0.261	-0.117
-162.793	-117.467	-0.062	0.011
-161.779	-200.000	-0.027	-0.291
-160.764	-200.000	0.002	-0.010
-159.750	47.730	0.212	-0.195
-158.735	-97.101	0.212	-0.055
-157.720	800.000	0.011	0.045
-156.706	-200.000	-0.003	0.309
-155.691	-196.577	-0.190	0.001
-154.677	800.000	0.126	-0.355
-153.662	-200.000	0.011	-0.296
-152.647	-200.000	0.010	0.223
-151.633	800.000	0.089	0.283
-150.618	372.685	-0.260	-0.520
-149.604	3.471	0.342	0.246
-148.589	-84.591	-0.076	0.024
-147.574	123.317	-0.087	-0.108
-146.560	-193.606	-0.187	0.002
-145.545	-143.592	-0.276	-0.026
-144.531	734.432	-0.097	-0.257
-143.516	-200.000	-0.040	-0.377
-142.502	-43.354	-0.024	-0.012
-141.487	-200.000	0.040	0.185
-140.472	405.682	0.086	0.179
-139.458	-190.314	-0.076	-0.001
-138.443	103.816	0.015	-0.017
-137.429	-96.987	0.082	-0.021
-136.414	-36.477	0.198	0.105
-135.399	594.698	-0.090	0.219
-134.385	-200.000	-0.050	0.334
-133.370	-81.181	-0.125	0.041
-132.356	13.149	0.032	0.024
-131.341	800.000	-0.038	0.138
-130.326	-53.732	-0.264	-0.119
-129.312	26.732	-0.086	-0.071
-128.297	206.360	-0.115	0.177
-127.283	316.711	0.179	0.333
-126.268	-19.633	-0.074	-0.045
-125.253	-135.473	-0.222	0.026
-124.239	-128.190	-0.079	0.011
-123.224	-176.991	0.242	0.006
-122.210	427.441	-0.061	-0.130
