DTS Sentinel unit serial number:	SN413079Multiplexer serial number:	ORYXHardware model number:	OX4-SRSoftware version number:	ORYX F/W v4.00 Oryx Data Collector v3.7.2.0data status	okinstallation	princeton_trtdifferential loss correction	single-endedforward channel	channel 3reverse channel	N/Adate	2019/09/11time	11:10:11forward acquisition time	60.00reverse acquisition time	0.00gamma	496.2192k internal	0.2295k external	0.2295temperature offset calibration	0.9940default loss term (dB/km)	0.3790temperature slope calibration	1.0000multiplexer offset coefficient	1.0000multiplexer slope coefficient	1.0000fibre end	0.00T internal ref (°C)	37.50T ext. ref 1 (°C)	0.17T ext. ref 2 (°C)	33.67length (m)	temperature (°C)	Stokes	anti-Stokes-747.200	-200.000	-0.002	-0.290
-746.185	5.313	0.266	0.200
-745.171	10.743	0.305	-0.238
-744.156	800.000	-0.152	0.461
-743.142	-200.000	-0.015	0.081
-742.127	-32.067	0.174	-0.099
-741.112	493.654	0.137	0.321
-740.098	34.049	0.146	0.130
-739.083	-68.565	0.285	-0.113
-738.069	-200.000	-0.003	-0.013
-737.054	112.453	-0.144	-0.178
-736.039	-200.000	-0.062	0.285
-735.025	-11.392	0.058	-0.039
-734.010	531.826	-0.135	-0.327
-732.996	800.000	-0.142	-0.414
-731.981	-200.000	-0.000	-0.011
-730.966	-4.600	-0.129	0.091
-729.952	-200.000	0.011	-0.553
-728.937	800.000	-0.042	0.145
-727.923	301.613	-0.025	0.048
-726.908	-126.069	-0.034	-0.005
-725.894	-50.545	-0.313	-0.151
-724.879	-134.902	-0.432	-0.053
-723.864	-200.000	-0.001	-0.420
-722.850	-49.283	-0.098	0.048
-721.835	149.575	0.036	-0.050
-720.821	-48.528	-0.260	-0.128
-719.806	800.000	0.107	-0.308
-718.791	99.212	-0.381	-0.449
-717.777	344.015	-0.073	-0.146
-716.762	-54.857	0.170	-0.078
-715.748	252.539	0.081	-0.141
-714.733	-200.000	-0.036	0.189
-713.718	-170.546	-0.160	-0.006
-712.704	-200.000	0.017	0.262
-711.689	384.229	0.072	0.151
-710.675	483.642	-0.071	0.164
-709.660	-19.174	-0.204	0.129
-708.645	-60.086	-0.324	0.141
-707.631	-200.000	0.000	0.023
-706.616	241.322	-0.119	0.202
-705.602	-81.705	0.230	0.077
-704.587	-80.305	-0.146	-0.050
-703.572	-133.041	-0.206	0.027
-702.558	63.055	0.147	0.150
-701.543	295.405	-0.053	0.099
-700.529	-146.277	-0.177	0.016
-699.514	-6.932	-0.099	-0.069
-698.499	-168.779	0.368	-0.014
-697.485	81.905	0.144	-0.159
-696.470	-92.657	0.125	-0.036
-695.456	95.642	0.122	0.142
-694.441	-28.659	0.140	0.082
-693.426	-2.231	-0.072	0.052
-692.412	130.405	-0.060	-0.078
-691.397	-125.838	0.106	-0.016
-690.383	-200.000	0.025	-0.168
-689.368	25.586	0.229	-0.195
-688.354	-200.000	0.040	-0.196
-687.339	-200.000	-0.023	-0.175
-686.324	336.608	-0.084	0.166
-685.310	800.000	-0.081	-0.244
-684.295	-127.649	0.092	-0.014
-683.281	-76.269	-0.264	-0.095
-682.266	-32.981	0.161	0.091
-681.251	800.000	-0.032	-0.142
-680.237	653.856	0.066	0.172
-679.222	-200.000	0.020	-0.272
-678.208	800.000	-0.036	0.120
-677.193	-17.007	0.176	0.113
-676.178	488.592	-0.099	0.230
-675.164	-200.000	0.015	-0.187
-674.149	45.404	0.246	0.232
-673.135	17.390	0.122	0.099
-672.120	800.000	-0.061	-0.219
-671.105	800.000	-0.051	0.196
-670.091	527.899	0.161	-0.387
-669.076	-143.075	0.095	0.009
-668.062	-200.000	0.085	-0.448
-667.047	-88.153	-0.169	0.052
-666.032	130.721	0.159	-0.207
-665.018	800.000	-0.057	-0.218
-664.003	102.332	0.081	0.096
-662.989	-78.899	0.047	-0.016
-661.974	-11.968	-0.173	0.115
-660.959	275.616	0.063	0.113
-659.945	53.683	0.171	0.167
-658.930	2.001	-0.165	-0.121
-657.916	164.841	-0.158	-0.228
-656.901	-161.115	-0.240	-0.013
-655.886	31.611	-0.092	0.081
-654.872	-149.720	-0.174	0.014
-653.857	293.514	0.092	0.171
-652.843	-2.774	0.134	-0.096
-651.828	279.394	-0.091	0.166
-650.814	-93.960	-0.188	-0.053
-649.799	-34.239	-0.109	-0.061
-648.784	60.244	0.251	0.252
-647.770	-109.182	0.451	0.098
-646.755	-92.794	0.301	0.086
-645.741	-137.533	-0.123	0.014
-644.726	170.167	-0.216	0.314
-643.711	87.228	0.134	-0.151
-642.697	495.171	0.054	-0.127
-641.682	-166.432	-0.221	0.009
-640.668	107.173	-0.065	-0.078
-639.653	-72.751	-0.262	-0.098
-638.638	166.861	0.135	-0.194
-637.624	-200.000	-0.034	0.165
-636.609	200.603	-0.066	0.103
-635.595	509.822	-0.082	0.194
-634.580	90.001	-0.126	-0.143
-633.565	800.000	0.064	0.201
-632.551	-200.000	-0.016	0.182
-631.536	309.882	-0.154	0.294
-630.522	800.000	-0.031	0.132
-629.507	-89.746	0.391	0.117
-628.492	-86.939	-0.132	-0.041
-627.478	-200.000	0.002	-0.265
-626.463	663.752	-0.089	-0.233
-625.449	-200.000	0.005	-0.375
-624.434	777.369	0.114	-0.316
-623.419	-135.199	-0.523	0.064
-622.405	94.299	0.040	0.046
-621.390	490.414	0.097	-0.226
-620.376	485.698	-0.025	0.058
-619.361	294.581	0.085	-0.158
-618.346	-83.547	0.238	-0.077
-617.332	-111.298	0.019	0.004
-616.317	800.000	-0.006	-0.018
-615.303	-67.557	0.121	0.048
-614.288	-80.905	0.213	-0.072
-613.273	212.941	0.153	-0.246
-612.259	384.043	-0.120	-0.251
-611.244	-200.000	0.022	0.200
-610.230	516.420	-0.022	-0.052
-609.215	199.141	-0.166	-0.259
-608.201	20.399	-0.095	0.078
-607.186	-172.331	0.094	0.003
-606.171	715.756	0.065	-0.176
-605.157	207.324	-0.078	-0.123
-604.142	800.000	-0.132	-0.395
-603.128	-200.000	-0.041	-0.212
-602.113	-200.000	0.057	0.296
-601.098	526.935	0.069	-0.166
-600.084	-200.000	0.059	0.357
-599.069	-2.017	0.100	0.071
-598.055	-200.000	0.014	-0.109
-597.040	-108.497	-0.377	0.082
-596.025	68.054	0.079	0.082
-595.011	159.666	-0.085	-0.120
-593.996	34.015	-0.179	0.159
-592.982	506.970	-0.020	0.048
-591.967	103.568	-0.141	0.169
-590.952	27.781	-0.192	0.165
-589.938	221.442	0.109	-0.177
-588.923	115.830	-0.143	-0.178
-587.909	-134.777	0.249	-0.031
-586.894	377.995	-0.094	-0.195
-585.879	-200.000	0.000	-0.244
-584.865	-52.081	0.306	-0.144
-583.850	-16.646	0.424	-0.273
-582.836	138.215	0.152	-0.202
-581.821	-53.640	0.122	0.057
-580.806	681.696	0.058	-0.154
-579.792	-29.354	0.383	-0.223
-578.777	-200.000	-0.072	0.398
-577.763	-200.000	0.012	-0.130
-576.748	-91.455	-0.123	0.036
-575.733	-32.528	0.111	0.063
-574.719	-139.009	0.252	-0.028
-573.704	800.000	0.069	-0.248
-572.690	595.951	0.106	0.265
-571.675	-33.436	0.219	0.123
-570.661	-54.396	-0.255	0.117
-569.646	-123.152	0.205	-0.033
-568.631	73.355	-0.048	0.051
-567.617	800.000	0.050	0.153
-566.602	-25.165	-0.207	-0.125
-565.588	-141.509	0.213	0.022
-564.573	-164.865	0.077	-0.003
-563.558	657.599	-0.096	0.250
-562.544	9.033	0.052	-0.040
-561.529	2.387	-0.071	-0.052
-560.515	-200.000	-0.001	0.262
-559.500	395.162	0.078	-0.165
-558.485	-200.000	0.038	0.188
-557.471	-200.000	0.145	0.000
-556.456	-0.199	-0.063	0.045
-555.442	-25.058	0.159	0.096
-554.427	597.117	-0.160	0.403
-553.412	-9.714	0.067	-0.045
-552.398	-88.513	-0.141	-0.043
-551.383	-106.655	-0.177	-0.040
-550.369	-29.171	0.116	-0.067
-549.354	-28.563	0.583	-0.341
-548.339	-1.559	-0.117	0.083
-547.325	14.947	-0.250	0.198
-546.310	-101.734	0.378	0.093
-545.296	-104.969	0.295	0.069
-544.281	-200.000	-0.027	0.141
-543.266	37.675	0.220	-0.198
-542.252	800.000	0.066	-0.205
-541.237	7.973	-0.158	-0.120
-540.223	-147.586	0.276	-0.024
-539.208	-5.591	-0.149	0.104
-538.193	480.187	-0.109	-0.250
-537.179	-6.585	-0.187	-0.129
-536.164	-166.784	-0.382	0.016
-535.150	102.624	0.138	-0.163
-534.135	-181.843	-0.111	-0.002
-533.121	75.925	-0.203	-0.218
-532.106	4.554	0.181	-0.134
-531.091	-200.000	0.017	-0.210
-530.077	-105.660	0.413	0.095
-529.062	-74.985	-0.115	0.042
-528.048	560.353	0.176	0.432
-527.033	-51.477	-0.188	-0.089
-526.018	800.000	-0.039	-0.140
-525.004	-85.191	0.364	0.115
-523.989	90.673	0.145	-0.164
-522.975	-150.809	0.244	-0.019
-521.960	-200.000	0.039	0.320
-520.945	-90.957	-0.245	0.071
-519.931	207.684	0.048	0.076
-518.916	-200.000	-0.006	-0.235
-517.902	723.987	0.066	-0.179
-516.887	-31.487	0.115	-0.066
-515.872	214.855	0.181	-0.290
-514.858	125.857	0.042	-0.054
-513.843	-111.581	-0.257	-0.053
-512.829	540.263	-0.098	0.237
-511.814	800.000	0.156	-0.450
-510.799	505.082	0.039	0.092
-509.785	-200.000	0.024	-0.121
-508.770	192.858	0.050	0.076
-507.756	-21.591	-0.270	0.166
-506.741	59.253	-0.145	0.144
-505.726	-200.000	-0.060	-0.266
-504.712	800.000	-0.099	-0.277
-503.697	39.927	-0.067	-0.061
-502.683	-200.000	-0.018	-0.179
-501.668	-55.948	0.104	0.047
-500.653	800.000	0.001	0.003
-499.639	134.382	-0.103	0.135
-498.624	-80.106	-0.050	0.017
-497.610	-121.268	0.323	0.055
-496.595	-124.172	-0.193	-0.031
-495.581	-124.993	0.457	-0.071
-494.566	-48.615	-0.245	-0.119
-493.551	800.000	-0.020	0.059
-492.537	-39.615	0.181	-0.096
-491.522	-42.608	0.306	0.158
-490.508	270.204	-0.085	0.151
-489.493	192.409	0.241	0.368
-488.478	-200.000	0.011	-0.081
-487.464	75.028	-0.229	0.244
-486.449	-200.000	-0.279	0.001
-485.435	-24.619	-0.338	0.204
-484.420	-28.896	-0.300	0.175
-483.405	31.740	-0.169	-0.147
-482.391	800.000	0.103	0.400
-481.376	74.582	-0.332	0.353
-480.362	287.538	-0.255	0.467
-479.347	-8.987	-0.368	0.249
-478.332	-200.000	-0.010	0.249
-477.318	-200.000	-0.001	-0.047
-476.303	-200.000	-0.011	0.118
-475.289	-200.000	0.000	0.262
-474.274	443.636	0.057	-0.126
-473.259	-149.596	0.090	0.007
-472.245	-128.886	0.371	-0.053
-471.230	800.000	0.050	0.158
-470.216	-177.354	-0.215	-0.005
-469.201	-200.000	0.035	-0.160
-468.186	-200.000	-0.066	0.470
-467.172	270.581	-0.106	0.189
-466.157	-93.273	0.319	0.090
-465.143	22.003	0.142	0.117
-464.128	-23.636	0.230	-0.140
-463.113	-52.606	0.224	0.104
-462.099	32.751	0.223	0.195
-461.084	12.249	-0.119	-0.092
-460.070	249.598	-0.071	-0.121
-459.055	-105.507	-0.320	-0.073
-458.040	-85.175	-0.328	0.104
-457.026	-48.755	-0.136	0.066
-456.011	-200.000	-0.006	-0.121
-454.997	230.757	-0.154	0.255
-453.982	-100.786	0.226	-0.056
-452.968	-149.403	-0.330	0.027
-451.953	-200.000	-0.003	0.096
-450.938	-135.694	-0.306	0.037
-449.924	-200.000	0.001	0.087
-448.909	-98.505	0.149	0.038
-447.895	-86.736	-0.498	-0.154
-446.880	-12.225	0.147	0.097
-445.865	17.408	0.136	0.109
-444.851	-151.900	-0.069	-0.005
-443.836	161.683	0.122	0.172
-442.822	-200.000	0.009	0.408
-441.807	800.000	0.010	0.032
-440.792	-22.604	0.166	-0.101
-439.778	150.114	0.010	-0.014
-438.763	-122.279	-0.305	0.050
-437.749	297.921	-0.111	0.205
-436.734	213.282	-0.086	-0.138
-435.719	-200.000	0.016	-0.078
-434.705	252.684	0.096	0.166
-433.690	800.000	0.083	-0.251
-432.676	-113.216	0.076	0.015
-431.661	800.000	-0.094	-0.387
-430.646	-11.343	-0.025	0.016
-429.632	-1.609	0.205	-0.146
-428.617	-69.074	-0.120	0.047
-427.603	321.164	0.166	-0.318
-426.588	-200.000	-0.003	-0.329
-425.573	30.808	0.213	-0.184
-424.559	800.000	0.062	-0.226
-423.544	55.576	0.091	0.088
-422.530	446.327	-0.097	-0.215
-421.515	-0.746	-0.268	-0.192
-420.500	67.458	0.077	-0.079
-419.486	-200.000	-0.001	0.047
-418.471	-6.635	0.291	0.200
-417.457	1.788	0.185	0.134
-416.442	800.000	0.123	-0.542
-415.428	111.657	0.111	0.135
-414.413	-108.608	0.301	0.065
-413.398	27.238	-0.116	0.099
-412.384	64.975	0.131	0.134
-411.369	207.059	0.107	0.168
-410.355	188.938	0.195	-0.295
-409.340	-42.794	0.059	0.030
-408.325	-200.000	0.006	-0.140
-407.311	84.870	-0.091	-0.101
-406.296	130.465	-0.130	-0.168
-405.282	800.000	0.090	0.358
-404.267	-48.990	-0.387	-0.187
-403.252	-90.343	-0.232	-0.068
-402.238	800.000	-0.081	0.344
-401.223	290.432	0.037	-0.068
-400.209	555.060	-0.056	-0.135
-399.194	-161.976	-0.312	0.016
-398.179	176.813	-0.328	0.481
-397.165	-200.000	0.023	0.211
-396.150	800.000	0.083	0.356
-395.136	-128.733	0.118	-0.017
-394.121	-114.874	-0.165	0.032
-393.106	-200.000	-0.006	-0.059
-392.092	800.000	0.116	-0.456
-391.077	145.147	0.087	0.118
-390.063	88.775	0.182	0.204
-389.048	800.000	0.089	-0.271
-388.033	-200.000	0.286	0.001
-387.019	-102.648	-0.341	0.082
-386.004	77.695	0.129	-0.138
-384.990	-39.428	-0.258	-0.136
-383.975	23.789	-0.137	0.114
-382.960	35.062	0.017	0.015
-381.946	97.886	-0.204	0.237
-380.931	-200.000	0.000	0.183
-379.917	-154.879	-0.267	-0.018
-378.902	-157.844	0.060	-0.004
-377.888	-51.214	0.050	-0.024
-376.873	53.231	0.275	-0.266
-375.858	329.041	0.145	0.281
-374.844	88.438	-0.244	-0.273
-373.829	-137.676	-0.167	-0.019
-372.815	-85.738	-0.215	-0.067
-371.800	-200.000	-0.039	-0.243
-370.785	371.999	-0.095	-0.195
-369.771	212.056	-0.039	0.061
-368.756	-113.657	-0.362	0.071
-367.742	-93.428	-0.201	-0.056
-366.727	210.092	-0.113	-0.179
-365.712	19.987	0.081	0.066
-364.698	-54.502	-0.260	0.119
-363.683	320.022	-0.129	0.247
-362.669	563.181	-0.054	-0.132
-361.654	800.000	0.069	-0.270
-360.639	-200.000	0.005	-0.213
-359.625	-200.000	0.002	-0.227
-358.610	281.056	0.045	-0.081
-357.596	-200.000	0.005	-0.101
-356.581	197.916	-0.029	-0.044
-355.566	-200.000	0.009	0.123
-354.552	-141.854	-0.383	0.039
-353.537	200.182	0.008	0.012
-352.523	-12.203	0.065	-0.043
-351.508	800.000	0.097	0.384
-350.493	597.290	-0.109	0.273
-349.479	20.248	0.148	0.121
-348.464	254.235	-0.062	0.106
-347.450	153.668	-0.085	-0.117
-346.435	800.000	-0.026	-0.077
-345.420	59.329	-0.047	0.046
-344.406	-31.553	-0.333	0.188
-343.391	164.707	0.243	-0.345
-342.377	-98.865	-0.200	-0.051
-341.362	291.551	-0.078	-0.143
-340.348	779.176	0.053	0.146
-339.333	198.168	-0.155	-0.239
-338.318	37.371	-0.121	-0.108
-337.304	-113.110	-0.167	0.033
-336.289	-145.740	-0.133	-0.012
-335.275	388.037	0.077	-0.160
-334.260	-80.183	-0.282	-0.095
-333.245	745.977	0.090	0.242
-332.231	800.000	-0.036	-0.118
-331.216	-93.083	0.151	0.042
-330.202	11.613	-0.392	-0.302
-329.187	362.577	-0.046	-0.094
-328.172	60.148	-0.043	0.043
-327.158	-200.000	-0.001	0.007
-326.143	213.373	-0.094	0.149
-325.129	-164.579	0.210	0.010
-324.114	-200.000	0.013	0.152
-323.099	-139.106	0.420	0.046
-322.085	-200.000	-0.010	-0.122
-321.070	-200.000	-0.066	-0.294
-320.056	-43.006	-0.150	0.076
-319.041	360.245	-0.095	-0.191
-318.026	-128.617	-0.114	0.016
-317.012	12.660	0.071	0.055
-315.997	45.226	-0.152	0.140
-314.983	800.000	0.099	-0.307
-313.968	-73.741	-0.177	0.065
-312.953	-200.000	-0.002	0.179
-311.939	429.787	-0.107	0.234
-310.924	-200.000	-0.052	-0.417
-309.910	800.000	-0.062	0.207
-308.895	91.752	-0.188	0.213
-307.880	-51.493	0.235	0.110
-306.866	602.744	-0.133	-0.333
-305.851	-127.342	0.356	0.052
-304.837	94.818	0.050	-0.057
-303.822	-69.358	0.124	0.048
-302.807	-177.732	-0.040	-0.001
-301.793	-109.856	-0.206	-0.044
-300.778	800.000	0.072	-0.223
-299.764	745.139	0.040	0.109
-298.749	-82.693	-0.071	0.023
-297.735	-60.050	-0.112	0.048
-296.720	218.083	0.062	0.099
-295.705	399.052	0.152	0.319
-294.691	-101.742	0.016	-0.004
-293.676	302.185	0.061	0.113
-292.662	-25.209	0.191	-0.114
-291.647	-200.000	0.013	-0.110
-290.632	722.704	-0.082	-0.220
-289.618	94.929	0.053	0.061
-288.603	469.045	-0.086	0.195
-287.589	-82.947	-0.095	-0.031
-286.574	19.296	-0.191	0.154
-285.559	-26.567	-0.163	-0.096
-284.545	364.938	0.230	0.466
-283.530	-172.341	-0.441	-0.014
-282.516	119.465	0.161	-0.200
-281.501	-65.759	0.260	0.104
-280.486	-200.000	-0.010	-0.079
-279.472	-200.000	-0.014	-0.226
-278.457	-159.852	-0.047	0.003
-277.443	800.000	0.088	-0.341
-276.428	31.521	0.126	0.108
-275.413	241.962	0.072	-0.121
-274.399	-200.000	-0.031	-0.162
-273.384	77.295	-0.098	0.105
-272.370	-16.677	0.276	0.176
-271.355	-79.798	-0.112	-0.038
-270.340	-66.072	-0.068	-0.027
-269.326	-200.000	-0.004	0.060
-268.311	-52.979	-0.198	0.091
-267.297	-200.000	-0.001	0.130
-266.282	800.000	0.070	0.212
-265.267	543.137	-0.140	0.335
-264.253	-49.391	0.179	-0.086
-263.238	-169.214	0.099	0.004
-262.224	800.000	-0.022	0.071
-261.209	310.228	-0.126	0.237
-260.195	800.000	-0.022	-0.068
-259.180	-122.612	-0.209	-0.034
-258.165	-184.215	0.335	-0.006
-257.151	-200.000	0.105	-0.000
-256.136	-39.538	0.251	0.132
-255.122	227.402	-0.010	-0.016
-254.107	-26.012	-0.304	-0.179
-253.092	-23.832	-0.127	0.076
-252.078	-47.021	-0.045	-0.022
-251.063	800.000	0.090	0.252
-250.049	800.000	-0.045	-0.181
-249.034	800.000	-0.052	-0.201
-248.019	228.271	0.172	-0.281
-247.005	-92.952	0.046	-0.013
-245.990	-118.771	-0.080	0.014
-244.976	135.040	-0.057	-0.074
-243.961	116.416	-0.042	0.052
-242.946	-100.447	-0.189	0.047
-241.932	-51.423	0.221	-0.104
-240.917	-27.082	-0.034	-0.020
-239.903	-145.417	-0.106	-0.010
-238.888	-200.000	-0.020	0.090
-237.873	-72.367	0.242	-0.090
-236.859	55.874	-0.112	-0.109
-235.844	-56.492	0.080	-0.036
-234.830	76.699	0.112	0.119
-233.815	-200.000	0.021	-0.096
-232.800	227.948	-0.082	-0.133
-231.786	-200.000	0.018	0.121
-230.771	-127.614	0.419	0.061
-229.757	38.516	-0.204	-0.182
-228.742	-55.557	0.243	0.109
-227.727	543.244	0.120	-0.286
-226.713	-27.534	-0.149	0.087
-225.698	650.432	-0.011	-0.028
-224.684	-75.735	0.009	-0.003
-223.669	-200.000	0.051	-0.286
-222.655	187.964	0.168	0.251
-221.640	-157.195	0.072	-0.004
-220.625	151.391	0.040	0.055
-219.611	-60.996	0.103	0.044
-218.596	-170.736	0.189	0.007
-217.582	140.000	0.196	0.259
-216.567	-108.973	0.373	0.080
-215.552	630.193	-0.170	-0.431
-214.538	-147.516	0.269	-0.023
-213.523	722.470	0.101	0.270
-212.509	517.397	-0.041	-0.097
-211.494	-75.516	-0.315	0.112
-210.479	195.264	-0.064	-0.097
-209.465	-81.139	-0.199	0.066
-208.450	-200.000	0.080	-0.415
-207.436	47.013	0.171	-0.159
-206.421	35.338	0.264	-0.232
-205.406	-22.349	0.378	0.230
-204.392	407.871	0.067	0.143
-203.377	-74.129	-0.195	0.071
-202.363	-142.469	0.384	-0.038
-201.348	-46.527	-0.068	-0.033
-200.333	72.034	0.074	-0.077
-199.319	-200.000	-0.078	0.346
-198.304	-200.000	-0.001	-0.237
-197.290	-25.076	-0.109	0.065
-196.275	607.256	0.074	0.184
-195.260	-172.654	-0.560	-0.018
-194.246	-22.807	0.198	-0.119
-193.231	-200.000	-0.017	0.143
-192.217	74.646	-0.294	-0.309
-191.202	-49.429	-0.143	-0.068
-190.187	82.197	0.060	0.065
-189.173	-87.262	0.276	-0.084
-188.158	800.000	0.056	-0.183
-187.144	-200.000	-0.001	-0.155
-186.129	-200.000	-0.037	-0.318
-185.114	-89.070	-0.208	-0.062
-184.100	-200.000	0.023	0.212
-183.085	-58.818	-0.139	0.060
-182.071	-200.000	-0.054	0.375
-181.056	-53.203	0.302	-0.139
-180.042	81.132	0.012	0.013
-179.027	800.000	-0.080	0.268
-178.012	-113.178	-0.199	0.039
-176.998	-200.000	-0.023	0.211
-175.983	-200.000	-0.012	0.283
-174.969	759.969	-0.051	0.139
-173.954	-10.955	0.294	0.194
-172.939	-200.000	-0.016	0.148
-171.925	-99.031	-0.307	0.078
-170.910	44.015	-0.106	0.097
-169.896	800.000	-0.078	-0.218
-168.881	-85.822	0.387	-0.120
-167.866	800.000	0.024	0.080
-166.852	-138.201	-0.151	-0.017
-165.837	109.286	0.039	0.046
-164.823	-15.173	-0.130	0.083
-163.808	-108.960	0.228	-0.049
-162.793	76.399	-0.137	-0.145
-161.779	327.530	0.082	-0.156
-160.764	-87.663	-0.340	0.102
-159.750	-200.000	-0.107	0.483
-158.735	18.170	0.383	0.305
-157.720	-200.000	-0.029	0.223
-156.706	6.396	0.323	-0.239
-155.691	-37.765	0.046	-0.025
-154.677	385.014	-0.045	-0.092
-153.662	263.142	0.077	-0.133
-152.647	14.659	0.062	-0.048
-151.633	-200.000	-0.004	-0.192
-150.618	526.651	0.134	0.315
-149.604	-150.620	-0.232	-0.018
-148.589	800.000	-0.018	-0.060
-147.574	47.438	-0.190	0.177
-146.560	-30.413	-0.044	0.025
-145.545	-14.183	-0.147	-0.095
-144.531	-57.316	-0.215	0.094
-143.516	-53.916	-0.358	-0.163
-142.502	63.404	0.075	-0.075
-141.487	20.208	0.143	-0.115
-140.472	37.148	-0.163	0.144
-139.458	-122.467	0.132	0.021
-138.443	91.124	0.136	0.152
-137.429	-49.426	0.254	-0.121
-136.414	-6.221	-0.206	0.141
-135.399	102.976	-0.283	-0.331
-134.385	-102.643	-0.161	0.038
-133.370	38.151	-0.082	0.073
-132.356	-137.164	-0.179	-0.020
-131.341	-188.034	0.348	-0.004
-130.326	-21.050	0.177	0.108
-129.312	-56.233	0.187	-0.083
-128.297	-150.497	0.129	0.010
-127.283	-55.814	0.156	0.069
-126.268	63.753	0.046	-0.046
-125.253	-200.000	-0.017	-0.378
-124.239	-11.481	0.175	0.115
-123.224	-150.470	0.142	-0.011
-122.210	155.682	-0.116	0.159
