DTS Sentinel unit serial number:	SN413079Multiplexer serial number:	ORYXHardware model number:	OX4-SRSoftware version number:	ORYX F/W v4.00 Oryx Data Collector v3.7.2.0data status	okinstallation	princeton_trtdifferential loss correction	single-endedforward channel	channel 3reverse channel	N/Adate	2019/09/11time	11:38:11forward acquisition time	60.00reverse acquisition time	0.00gamma	496.2192k internal	0.2293k external	0.2293temperature offset calibration	0.9939default loss term (dB/km)	0.3790temperature slope calibration	1.0000multiplexer offset coefficient	1.0000multiplexer slope coefficient	1.0000fibre end	0.00T internal ref (°C)	38.36T ext. ref 1 (°C)	0.19T ext. ref 2 (°C)	35.88length (m)	temperature (°C)	Stokes	anti-Stokes-747.200	424.573	-0.127	0.279
-746.185	250.979	0.174	0.302
-745.171	-154.746	0.415	0.028
-744.156	-58.974	-0.165	0.073
-743.142	-200.000	-0.013	0.067
-742.127	-145.128	0.088	0.008
-741.112	-200.000	0.004	-0.267
-740.098	800.000	-0.072	0.243
-739.083	260.612	0.074	0.131
-738.069	-13.939	0.166	0.110
-737.054	-7.656	0.146	0.101
-736.039	-33.748	0.299	-0.169
-735.025	25.482	0.140	-0.119
-734.010	-60.762	-0.131	0.057
-732.996	-43.156	-0.113	-0.059
-731.981	-48.345	-0.092	0.045
-730.966	221.211	-0.140	0.229
-729.952	-123.209	-0.246	0.040
-728.937	-200.000	-0.051	-0.321
-727.923	-14.177	-0.183	-0.121
-726.908	68.574	0.146	-0.154
-725.894	-1.267	-0.151	-0.109
-724.879	-200.000	-0.013	0.074
-723.864	-80.363	0.338	-0.115
-722.850	800.000	-0.126	-0.373
-721.835	-99.849	-0.235	0.060
-720.821	94.327	0.051	0.060
-719.806	-200.000	0.032	-0.309
-718.791	-105.111	0.081	-0.019
-717.777	-200.000	-0.041	-0.242
-716.762	-50.261	-0.342	0.165
-715.748	353.447	-0.108	-0.218
-714.733	-48.702	-0.234	0.115
-713.718	-100.743	0.185	0.046
-712.704	268.656	0.059	0.107
-711.689	171.738	0.136	0.200
-710.675	138.855	0.020	-0.027
-709.660	800.000	-0.027	-0.100
-708.645	659.876	0.051	-0.135
-707.631	72.174	0.105	-0.112
-706.616	-144.219	-0.266	-0.025
-705.602	-144.224	0.433	-0.041
-704.587	800.000	0.067	0.298
-703.572	-138.485	0.235	0.026
-702.558	-200.000	-0.013	-0.239
-701.543	-71.568	-0.225	-0.086
-700.529	-121.514	0.237	0.040
-699.514	55.126	0.149	0.147
-698.499	-159.272	-0.406	0.023
-697.485	250.181	-0.073	-0.127
-696.470	-123.426	-0.261	0.042
-695.456	4.482	0.208	-0.156
-694.441	100.059	0.157	0.186
-693.426	-75.969	-0.263	0.095
-692.412	-39.221	0.388	-0.208
-691.397	56.260	0.237	0.235
-690.383	-200.000	-0.221	0.000
-689.368	-26.573	-0.399	-0.239
-688.354	94.663	-0.088	0.102
-687.339	-54.419	0.075	0.035
-686.324	-56.645	0.166	0.075
-685.310	331.290	-0.178	-0.350
-684.295	-77.091	-0.457	0.163
-683.281	800.000	0.065	-0.199
-682.266	-116.777	-0.276	-0.052
-681.251	-200.000	-0.006	-0.101
-680.237	-200.000	0.015	-0.083
-679.222	128.465	-0.133	-0.172
-678.208	-200.000	0.023	-0.191
-677.193	-200.000	-0.010	-0.184
-676.178	-105.644	0.069	0.016
-675.164	-26.448	0.107	0.064
-674.149	-70.066	-0.268	0.104
-673.135	55.407	-0.185	-0.182
-672.120	-102.398	-0.202	-0.049
-671.105	-200.000	-0.014	0.244
-670.091	68.836	0.141	-0.147
-669.076	-200.000	-0.010	-0.049
-668.062	-200.000	0.021	-0.368
-667.047	-200.000	0.010	-0.220
-666.032	69.920	-0.283	-0.298
-665.018	-200.000	0.205	-0.001
-664.003	-105.445	-0.189	0.044
-662.989	142.392	0.059	-0.080
-661.974	-114.279	0.197	-0.039
-660.959	201.575	0.136	-0.213
-659.945	222.580	-0.202	0.331
-658.930	396.276	0.170	-0.362
-657.916	-139.203	0.363	-0.040
-656.901	-59.519	0.262	-0.115
-655.886	-200.000	-0.023	0.155
-654.872	-200.000	0.070	-0.314
-653.857	-56.438	0.168	-0.076
-652.843	19.980	-0.176	-0.145
-651.828	-177.938	0.098	-0.002
-650.814	19.227	0.170	-0.139
-649.799	-200.000	-0.062	-0.278
-648.784	800.000	-0.054	-0.238
-647.770	180.697	-0.208	-0.312
-646.755	54.433	0.139	0.137
-645.741	216.538	0.070	0.113
-644.726	-36.495	0.247	-0.136
-643.711	-78.721	0.263	0.091
-642.697	800.000	-0.038	0.157
-641.682	199.337	0.068	-0.106
-640.668	-97.501	-0.101	-0.027
-639.653	-200.000	0.002	0.111
-638.638	-168.415	0.525	0.021
-637.624	-52.245	-0.319	-0.151
-636.609	229.116	0.173	-0.287
-635.595	-200.000	0.020	-0.092
-634.580	-129.305	0.375	-0.053
-633.565	-56.009	-0.201	-0.091
-632.551	63.089	0.360	-0.368
-631.536	-125.242	0.124	0.019
-630.522	13.517	0.223	-0.177
-629.507	127.928	0.150	0.194
-628.492	-99.442	0.265	0.068
-627.478	-200.000	-0.002	0.432
-626.463	271.392	-0.152	0.272
-625.449	-200.000	-0.021	0.160
-624.434	14.159	-0.185	-0.147
-623.419	-123.797	-0.227	0.036
-622.405	379.703	-0.141	0.295
-621.390	-10.170	-0.137	-0.092
-620.376	-200.000	-0.005	-0.093
-619.361	142.468	-0.178	-0.241
-618.346	-200.000	-0.033	-0.161
-617.332	-200.000	0.023	0.139
-616.317	31.530	-0.290	-0.253
-615.303	-200.000	0.028	0.418
-614.288	-62.837	-0.494	0.208
-613.273	-156.296	-0.134	0.009
-612.259	336.578	0.139	-0.274
-611.244	61.344	0.166	-0.168
-610.230	-14.477	0.154	-0.101
-609.215	-4.291	0.065	-0.046
-608.201	-123.218	-0.023	-0.004
-607.186	145.281	-0.056	0.076
-606.171	-7.304	-0.462	-0.319
-605.157	-87.266	-0.241	0.075
-604.142	-157.164	-0.262	0.016
-603.128	-103.407	0.063	-0.015
-602.113	-9.021	0.114	0.077
-601.098	141.682	0.115	0.156
-600.084	304.425	-0.092	0.174
-599.069	-200.000	0.016	-0.177
-598.055	216.759	-0.033	-0.053
-597.040	-200.000	0.035	0.214
-596.025	-200.000	-0.013	0.065
-595.011	-200.000	0.002	0.216
-593.996	800.000	-0.053	-0.161
-592.982	-133.493	0.236	-0.030
-591.967	-200.000	0.015	0.128
-590.952	-62.046	0.281	-0.120
-589.938	-171.198	-0.163	-0.006
-588.923	-125.790	-0.146	0.022
-587.909	57.788	0.133	-0.132
-586.894	84.071	-0.164	0.182
-585.879	102.183	-0.107	0.127
-584.865	800.000	0.053	-0.232
-583.850	207.512	-0.107	-0.169
-582.836	-73.573	-0.308	-0.114
-581.821	110.747	-0.146	0.179
-580.806	125.819	0.148	0.190
-579.792	-77.901	-0.342	0.120
-578.777	-167.681	-0.360	0.015
-577.763	-35.252	-0.211	0.117
-576.748	-200.000	0.008	-0.083
-575.733	-65.620	0.119	-0.048
-574.719	412.463	0.156	0.336
-573.704	-42.331	-0.206	0.107
-572.690	800.000	0.021	0.090
-571.675	8.288	0.207	0.158
-570.661	243.593	0.094	-0.160
-569.646	242.024	-0.179	-0.305
-568.631	84.739	-0.036	0.040
-567.617	641.635	-0.054	0.139
-566.602	-41.671	0.034	-0.018
-565.588	-82.638	0.203	0.067
-564.573	800.000	-0.026	0.097
-563.558	-110.750	-0.157	0.033
-562.544	-137.744	-0.078	0.009
-561.529	401.683	0.103	-0.220
-560.515	784.746	0.141	-0.393
-559.500	-86.711	0.460	0.143
-558.485	-200.000	-0.008	0.061
-557.471	-19.603	0.184	-0.116
-556.456	-19.033	0.153	0.096
-555.442	-170.919	0.093	-0.003
-554.427	82.533	-0.356	0.392
-553.412	-62.171	-0.209	-0.088
-552.398	333.771	0.142	-0.279
-551.383	-40.952	-0.477	-0.250
-550.369	800.000	-0.011	-0.034
-549.354	208.344	0.019	-0.030
-548.339	-2.746	-0.018	-0.013
-547.325	-33.388	-0.150	0.084
-546.310	-200.000	0.011	0.142
-545.296	-87.146	-0.150	-0.046
-544.281	246.975	0.064	-0.110
-543.266	800.000	0.013	-0.053
-542.252	504.416	0.053	-0.123
-541.237	-151.454	-0.117	-0.009
-540.223	-90.840	0.128	0.037
-539.208	-200.000	0.013	0.058
-538.193	-200.000	0.073	0.402
-537.179	-98.576	0.251	0.065
-536.164	-200.000	0.041	0.199
-535.150	-200.000	0.004	-0.138
-534.135	678.646	-0.082	-0.216
-533.121	-200.000	0.001	-0.404
-532.106	303.250	-0.122	0.228
-531.091	-200.000	-0.016	0.144
-530.077	177.067	-0.054	-0.079
-529.062	684.622	0.030	-0.079
-528.048	52.998	-0.054	-0.052
-527.033	-149.453	0.136	-0.011
-526.018	-42.478	0.383	0.198
-525.004	-154.950	0.055	-0.004
-523.989	306.766	-0.123	-0.233
-522.975	-149.440	-0.098	0.008
-521.960	24.819	0.107	0.090
-520.945	-138.416	-0.191	-0.021
-519.931	170.324	0.061	-0.089
-518.916	77.530	-0.151	-0.164
-517.902	-157.882	0.126	0.008
-516.887	-200.000	0.026	0.211
-515.872	180.770	-0.106	0.158
-514.858	-200.000	0.015	-0.122
-513.843	-200.000	-0.012	0.078
-512.829	50.950	-0.346	0.332
-511.814	79.850	0.181	0.197
-510.799	-74.211	0.290	-0.106
-509.785	-200.000	0.000	-0.141
-508.770	-200.000	0.026	-0.129
-507.756	-121.702	-0.075	0.013
-506.741	-200.000	-0.047	-0.587
-505.726	11.900	0.398	-0.310
-504.712	-80.657	0.147	0.050
-503.697	691.222	0.094	0.250
-502.683	80.712	0.123	0.135
-501.668	-165.373	-0.187	-0.008
-500.653	58.890	0.148	-0.148
-499.639	-37.454	0.033	-0.018
-498.624	50.856	0.273	-0.262
-497.610	800.000	0.072	0.243
-496.595	800.000	0.018	0.077
-495.581	-46.415	-0.035	0.017
-494.566	-6.870	-0.410	-0.282
-493.551	-92.626	0.128	0.036
-492.537	0.209	-0.268	0.194
-491.522	384.676	-0.086	-0.179
-490.508	-136.688	-0.123	-0.014
-489.493	-35.445	-0.557	0.306
-488.478	11.030	0.276	0.214
-487.464	-200.000	0.007	-0.117
-486.449	655.240	-0.073	-0.191
-485.435	19.363	-0.047	-0.039
-484.420	17.957	-0.292	-0.235
-483.405	223.160	-0.134	0.219
-482.391	-55.903	-0.372	0.168
-481.376	297.348	-0.114	-0.212
-480.362	122.569	-0.202	-0.256
-479.347	348.799	0.104	0.208
-478.332	-200.000	-0.020	0.220
-477.318	-64.620	-0.231	0.095
-476.303	-137.951	0.182	0.021
-475.289	47.603	0.205	-0.194
-474.274	56.124	0.156	0.153
-473.259	72.164	0.408	0.430
-472.245	800.000	-0.075	0.270
-471.230	800.000	0.022	-0.085
-470.216	-200.000	0.027	0.265
-469.201	64.020	-0.017	0.017
-468.186	-200.000	-0.015	0.231
-467.172	11.694	-0.184	-0.143
-466.157	-126.545	0.258	-0.039
-465.143	-200.000	0.006	-0.262
-464.128	216.330	0.158	-0.254
-463.113	-39.428	-0.133	0.071
-462.099	800.000	-0.070	0.204
-461.084	-122.521	-0.042	-0.007
-460.070	-200.000	0.025	0.255
-459.055	-106.904	-0.044	-0.010
-458.040	612.918	-0.166	0.422
-457.026	119.679	0.092	0.116
-456.011	800.000	-0.090	0.283
-454.997	-101.915	0.347	-0.085
-453.982	143.104	-0.048	0.064
-452.968	800.000	-0.061	-0.227
-451.953	-85.643	-0.286	0.090
-450.938	13.270	-0.100	0.078
-449.924	800.000	0.013	0.038
-448.909	-90.905	-0.293	0.085
-447.895	800.000	0.069	0.269
-446.880	191.510	-0.174	-0.265
-445.865	176.648	-0.070	0.102
-444.851	-107.901	0.123	0.027
-443.836	167.780	-0.053	-0.076
-442.822	-122.755	0.064	0.011
-441.807	-58.458	-0.144	-0.063
-440.792	-21.395	-0.095	0.059
-439.778	-25.908	0.104	0.062
-438.763	-56.911	-0.229	-0.102
-437.749	236.364	-0.153	0.257
-436.734	800.000	0.033	0.109
-435.719	273.557	0.208	-0.371
-434.705	67.807	-0.291	-0.301
-433.690	382.713	0.092	0.191
-432.676	93.525	0.217	0.248
-431.661	-36.274	0.110	-0.060
-430.646	-200.000	0.051	0.303
-429.632	68.472	0.222	0.230
-428.617	-90.077	0.179	-0.053
-427.603	-0.279	0.212	-0.152
-426.588	800.000	0.046	-0.165
-425.573	64.270	-0.204	0.208
-424.559	800.000	-0.123	-0.370
-423.544	-96.438	0.063	0.017
-422.530	350.175	-0.111	-0.223
-421.515	45.124	0.097	0.090
-420.500	-72.570	-0.277	-0.103
-419.486	107.146	-0.125	-0.150
-418.471	-45.059	0.245	0.123
-417.457	-200.000	-0.022	-0.159
-416.442	-70.763	0.135	0.051
-415.428	-200.000	-0.063	-0.371
-414.413	-21.472	0.189	0.116
-413.398	201.667	0.060	0.093
-412.384	-132.339	-0.278	-0.036
-411.369	-70.566	0.246	0.094
-410.355	346.352	-0.072	0.143
-409.340	162.728	-0.075	-0.106
-408.325	67.674	0.094	-0.097
-407.311	89.746	-0.160	-0.180
-406.296	683.733	0.068	0.179
-405.282	-86.741	0.027	0.008
-404.267	214.036	-0.207	0.331
-403.252	-66.603	0.085	0.034
-402.238	317.658	-0.076	-0.146
-401.223	-45.770	0.068	-0.034
-400.209	92.110	0.059	0.067
-399.194	155.828	0.151	0.210
-398.179	88.164	0.124	-0.138
-397.165	408.987	0.029	-0.062
-396.150	800.000	-0.156	-0.445
-395.136	-163.453	-0.184	-0.009
-394.121	373.040	0.132	-0.270
-393.106	-200.000	-0.007	-0.172
-392.092	-80.135	-0.278	-0.094
-391.077	800.000	0.009	-0.031
-390.063	-68.712	0.240	-0.094
-389.048	-98.361	0.164	0.042
-388.033	235.153	-0.016	-0.027
-387.019	800.000	0.017	-0.072
-386.004	-200.000	-0.008	-0.233
-384.990	-149.068	0.120	-0.010
-383.975	800.000	0.064	0.200
-382.960	800.000	0.071	0.203
-381.946	-200.000	-0.032	0.324
-380.931	51.213	-0.114	-0.109
-379.917	-200.000	-0.050	-0.566
-378.902	-39.278	-0.262	0.139
-377.888	158.777	0.053	-0.074
-376.873	194.068	0.151	0.230
-375.858	-68.669	0.434	-0.170
-374.844	-16.907	-0.062	0.040
-373.829	-143.049	-0.099	-0.010
-372.815	-167.244	-0.121	0.005
-371.800	-200.000	0.036	0.245
-370.785	-176.549	0.293	0.008
-369.771	17.804	0.023	-0.019
-368.756	-9.399	-0.229	-0.154
-367.742	140.216	-0.178	-0.237
-366.727	-114.695	0.181	-0.035
-365.712	57.975	-0.177	-0.175
-364.698	-200.000	-0.043	-0.401
-363.683	670.944	0.111	-0.290
-362.669	334.896	-0.128	0.250
-361.654	-172.149	-0.229	-0.007
-360.639	-139.609	0.385	0.041
-359.625	140.757	0.198	0.264
-358.610	-27.549	-0.080	0.047
-357.596	419.750	-0.114	-0.245
-356.581	156.981	-0.095	-0.133
-355.566	137.394	0.073	0.097
-354.552	141.469	-0.053	-0.071
-353.537	437.076	0.081	0.177
-352.523	233.632	-0.169	0.280
-351.508	72.659	-0.235	0.247
-350.493	-200.000	-0.005	-0.162
-349.479	154.752	0.190	0.263
-348.464	-200.000	0.005	0.118
-347.450	-192.218	0.204	-0.002
-346.435	-200.000	-0.010	-0.093
-345.420	238.458	0.042	-0.070
-344.406	-35.548	0.143	0.078
-343.391	-78.975	0.055	-0.019
-342.377	-57.540	-0.273	-0.121
-341.362	452.669	-0.068	-0.151
-340.348	800.000	0.061	-0.233
-339.333	-76.965	0.213	-0.075
-338.318	-43.857	-0.075	-0.038
-337.304	-56.377	0.174	-0.078
-336.289	-51.550	0.092	-0.043
-335.275	-83.037	0.114	-0.037
-334.260	-89.804	0.143	-0.042
-333.245	340.849	-0.115	-0.226
-332.231	70.945	0.274	-0.286
-331.216	-102.143	0.163	0.039
-330.202	-200.000	0.019	-0.112
-329.187	77.905	-0.065	0.070
-328.172	101.746	0.267	-0.314
-327.158	56.649	0.253	-0.248
-326.143	395.402	0.081	0.171
-325.129	-70.440	0.114	-0.043
-324.114	414.646	-0.093	0.200
-323.099	800.000	0.058	-0.187
-322.085	-200.000	0.053	-0.257
-321.070	-37.387	-0.231	-0.124
-320.056	23.474	-0.119	-0.099
-319.041	-10.991	0.117	0.078
-318.026	199.059	0.063	-0.097
-317.012	-0.976	-0.206	0.147
-315.997	26.536	-0.107	-0.090
-314.983	156.960	-0.118	0.164
-313.968	434.846	0.041	0.089
-312.953	236.774	-0.072	0.119
-311.939	81.905	0.093	-0.102
-310.924	-200.000	0.016	-0.119
-309.910	-200.000	0.033	-0.460
-308.895	267.603	-0.190	-0.334
-307.880	-25.272	-0.290	0.172
-306.866	-200.000	-0.041	0.315
-305.851	-51.746	-0.101	0.047
-304.837	0.447	-0.335	0.241
-303.822	-200.000	0.003	0.212
-302.807	584.690	-0.080	-0.197
-301.793	-35.574	-0.284	0.155
-300.778	655.352	-0.025	-0.064
-299.764	-200.000	0.013	0.376
-298.749	-6.297	-0.303	-0.208
-297.735	96.949	-0.079	-0.091
-296.720	-63.604	0.115	0.047
-295.705	800.000	0.045	0.161
-294.691	109.745	0.077	-0.093
-293.676	-61.367	-0.151	-0.064
-292.662	-82.704	0.103	0.033
-291.647	-200.000	0.024	0.186
-290.632	-16.747	0.455	0.289
-289.618	13.449	0.253	-0.198
-288.603	-200.000	-0.035	-0.317
-287.589	800.000	0.103	-0.303
-286.574	800.000	-0.122	0.374
-285.559	800.000	0.139	0.464
-284.545	-62.447	0.248	-0.104
-283.530	800.000	0.068	0.202
-282.516	411.963	0.049	-0.104
-281.501	356.064	-0.115	-0.230
-280.486	-2.893	0.170	-0.119
-279.472	-11.539	0.119	-0.079
-278.457	681.671	0.022	0.059
-277.443	56.173	0.150	-0.146
-276.428	-153.065	-0.177	-0.012
-275.413	36.663	-0.309	0.274
-274.399	-200.000	-0.013	-0.144
-273.384	-24.783	-0.206	0.123
-272.370	-200.000	-0.025	-0.119
-271.355	240.849	0.145	-0.243
-270.340	469.704	-0.097	0.218
-269.326	-111.070	0.069	-0.014
-268.311	10.972	0.198	-0.152
-267.297	-40.738	0.062	-0.032
-266.282	-70.125	-0.240	0.092
-265.267	269.749	0.126	-0.222
-264.253	-78.778	0.110	-0.038
-263.238	559.186	-0.038	-0.093
-262.224	-1.693	0.136	0.096
-261.209	800.000	-0.058	-0.210
-260.195	351.824	-0.111	0.221
-259.180	-60.171	-0.233	0.100
-258.165	44.522	0.403	-0.372
-257.151	-190.639	-0.340	-0.004
-256.136	1.552	-0.197	0.142
-255.122	-10.861	-0.128	-0.085
-254.107	19.264	-0.096	-0.077
-253.092	-200.000	0.031	0.233
-252.078	131.435	-0.035	0.045
-251.063	-67.435	0.381	0.150
-250.049	635.486	0.060	0.152
-249.034	-77.713	0.146	0.051
-248.019	219.088	-0.176	0.283
-247.005	35.326	-0.118	0.104
-245.990	-133.292	-0.228	0.029
-244.976	-98.372	-0.172	0.044
-243.961	-200.000	0.011	0.480
-242.946	-200.000	0.026	0.292
-241.932	9.043	0.061	-0.046
-240.917	603.508	-0.086	0.214
-239.903	199.091	-0.132	0.202
-238.888	-200.000	0.031	-0.179
-237.873	-200.000	0.024	0.240
-236.859	-200.000	-0.036	0.176
-235.844	-200.000	-0.002	-0.007
-234.830	27.863	0.244	-0.206
-233.815	800.000	0.040	0.166
-232.800	-200.000	0.022	0.447
-231.786	-35.462	0.110	0.060
-230.771	-200.000	-0.022	-0.305
-229.757	800.000	-0.078	-0.243
-228.742	800.000	-0.058	-0.170
-227.727	-40.983	0.225	0.117
-226.713	156.604	-0.123	-0.171
-225.698	-141.963	-0.246	-0.025
-224.684	-31.592	-0.369	-0.208
-223.669	-107.069	0.169	-0.037
-222.655	-96.438	0.141	0.037
-221.640	-200.000	0.028	0.137
-220.625	-200.000	0.032	0.151
-219.611	-57.991	-0.331	-0.145
-218.596	-44.975	0.288	0.144
-217.582	-76.063	-0.054	-0.019
-216.567	479.361	-0.020	0.045
-215.552	768.398	0.136	-0.372
-214.538	22.782	0.058	0.048
-213.523	-76.751	-0.243	-0.085
-212.509	-200.000	-0.034	0.186
-211.494	294.101	0.099	0.182
-210.479	56.008	0.086	0.083
-209.465	-142.311	0.048	-0.005
-208.450	-7.674	0.072	0.049
-207.436	-200.000	0.062	0.336
-206.421	85.263	-0.215	0.236
-205.406	-200.000	-0.026	-0.138
-204.392	220.640	-0.182	0.292
-203.377	-55.945	-0.077	0.034
-202.363	-200.000	0.057	-0.286
-201.348	-12.458	-0.386	-0.252
-200.333	-200.000	0.116	-0.586
-199.319	800.000	-0.104	-0.326
-198.304	-65.092	0.217	0.088
-197.290	-165.223	-0.188	-0.008
-196.275	-159.850	-0.319	0.018
-195.260	233.668	0.114	0.187
-194.246	602.343	0.012	-0.030
-193.231	-28.032	0.325	-0.188
-192.217	55.111	-0.187	-0.181
-191.202	144.988	-0.137	-0.183
-190.187	663.445	0.015	0.038
-189.173	-200.000	-0.020	0.388
-188.158	-70.317	0.111	-0.042
-187.144	418.710	0.077	0.165
-186.129	17.217	0.311	0.247
-185.114	-50.829	-0.107	-0.050
-184.100	-116.460	0.272	0.050
-183.085	-200.000	0.005	-0.043
-182.071	-29.458	0.281	-0.161
-181.056	92.467	0.292	-0.329
-180.042	-34.720	-0.090	0.049
-179.027	133.785	-0.176	-0.228
-178.012	176.236	0.187	0.271
-176.998	112.002	-0.200	0.241
-175.983	262.422	0.137	0.238
-174.969	-175.005	0.219	-0.006
-173.954	-200.000	0.003	0.165
-172.939	-200.000	-0.031	-0.227
-171.925	233.061	0.072	-0.119
-170.910	21.857	0.092	-0.075
-169.896	-200.000	0.024	-0.110
-168.881	-145.225	0.100	-0.009
-167.866	-200.000	0.016	-0.145
-166.852	64.383	-0.126	-0.127
-165.837	50.576	0.173	-0.164
-164.823	800.000	0.057	0.190
-163.808	317.614	0.016	0.030
-162.793	16.054	-0.023	-0.018
-161.779	67.900	0.052	0.053
-160.764	-3.429	0.234	-0.163
-159.750	-135.036	-0.285	0.034
-158.735	19.350	0.149	-0.120
-157.720	-200.000	0.004	0.121
-156.706	45.972	0.342	0.316
-155.691	41.696	-0.383	0.347
-154.677	-182.000	0.088	-0.002
-153.662	232.053	0.242	0.397
-152.647	800.000	-0.078	0.250
-151.633	-38.830	0.181	-0.096
-150.618	-200.000	-0.047	-0.237
-149.604	794.775	0.033	0.090
-148.589	-184.443	0.184	-0.003
-147.574	-133.117	0.254	-0.032
-146.560	-200.000	0.024	-0.172
-145.545	109.911	0.137	-0.165
-144.531	-38.366	0.147	0.078
-143.516	42.818	0.234	0.213
-142.502	-63.781	-0.159	0.065
-141.487	122.472	-0.121	-0.151
-140.472	-122.669	0.120	0.019
-139.458	-200.000	-0.018	0.312
-138.443	-51.229	-0.137	-0.064
-137.429	-57.840	-0.131	-0.057
-136.414	-200.000	-0.047	0.280
-135.399	-200.000	0.027	0.246
-134.385	463.869	-0.129	-0.289
-133.370	48.065	0.264	-0.246
-132.356	-77.187	0.195	0.068
-131.341	161.349	-0.081	-0.113
-130.326	800.000	-0.093	0.278
-129.312	-200.000	0.049	0.239
-128.297	800.000	0.101	-0.376
-127.283	-110.577	0.188	-0.039
-126.268	-200.000	-0.046	0.282
-125.253	200.016	0.180	0.276
-124.239	507.561	-0.098	-0.227
-123.224	-126.858	-0.356	0.052
-122.210	-108.428	0.215	-0.046
-121.195	81.100	0.158	0.170
