DTS Sentinel unit serial number:	SN413079Multiplexer serial number:	ORYXHardware model number:	OX4-SRSoftware version number:	ORYX F/W v4.00 Oryx Data Collector v3.7.2.0data status	okinstallation	princeton_trtdifferential loss correction	single-endedforward channel	channel 3reverse channel	N/Adate	2019/09/11time	12:26:11forward acquisition time	60.00reverse acquisition time	0.00gamma	496.2192k internal	0.2294k external	0.2294temperature offset calibration	0.9934default loss term (dB/km)	0.3790temperature slope calibration	1.0000multiplexer offset coefficient	1.0000multiplexer slope coefficient	1.0000fibre end	0.00T internal ref (°C)	40.33T ext. ref 1 (°C)	0.22T ext. ref 2 (°C)	38.46length (m)	temperature (°C)	Stokes	anti-Stokes-747.200	676.486	-0.044	0.118
-746.185	-175.311	0.191	0.005
-745.171	-200.000	-0.002	-0.195
-744.156	800.000	-0.072	0.250
-743.142	382.300	-0.154	0.324
-742.127	-114.513	-0.068	-0.013
-741.112	44.007	-0.127	0.119
-740.098	158.552	0.087	0.123
-739.083	48.670	-0.159	-0.153
-738.069	138.210	-0.144	0.193
-737.054	-12.296	-0.238	-0.159
-736.039	99.935	-0.302	-0.357
-735.025	12.627	-0.160	0.126
-734.010	86.304	-0.278	-0.313
-732.996	-200.000	0.014	-0.131
-731.981	149.065	-0.179	0.248
-730.966	221.818	-0.074	-0.122
-729.952	-64.434	0.145	0.060
-728.937	-198.963	-0.224	0.001
-727.923	-16.914	-0.051	-0.033
-726.908	453.313	0.020	-0.045
-725.894	-88.851	-0.387	0.117
-724.879	-106.140	-0.031	0.007
-723.864	800.000	0.025	-0.083
-722.850	-101.874	0.110	-0.027
-721.835	294.049	0.054	-0.100
-720.821	-131.363	0.275	-0.037
-719.806	800.000	-0.017	-0.073
-718.791	800.000	0.082	-0.255
-717.777	800.000	0.076	-0.260
-716.762	-200.000	0.045	0.235
-715.748	-41.552	-0.134	0.071
-714.733	727.490	0.071	0.194
-713.718	174.550	0.187	-0.276
-712.704	-200.000	-0.009	0.136
-711.689	-104.270	-0.406	0.096
-710.675	-139.299	0.323	-0.035
-709.660	235.757	-0.094	-0.159
-708.645	-99.684	0.269	0.069
-707.631	399.174	0.195	-0.418
-706.616	15.969	-0.053	-0.042
-705.602	6.289	0.072	-0.054
-704.587	-200.000	0.056	0.269
-703.572	-40.076	-0.380	-0.202
-702.558	2.152	-0.261	-0.193
-701.543	190.405	-0.137	0.211
-700.529	196.008	0.116	0.180
-699.514	-138.745	-0.164	-0.018
-698.499	-38.094	0.375	0.203
-697.485	-200.000	-0.035	-0.501
-696.470	-104.418	-0.217	0.051
-695.456	470.022	0.047	0.108
-694.441	-118.145	-0.101	-0.018
-693.426	-154.649	-0.148	-0.010
-692.412	455.239	0.070	-0.159
-691.397	150.005	-0.028	-0.039
-690.383	-200.000	-0.047	0.000
-689.368	800.000	-0.077	0.245
-688.354	-132.766	0.143	-0.019
-687.339	800.000	0.051	0.193
-686.324	281.457	-0.068	-0.125
-685.310	82.157	-0.115	-0.127
-684.295	-24.399	-0.121	-0.074
-683.281	-71.579	-0.177	0.067
-682.266	-184.485	0.301	-0.005
-681.251	-200.000	0.008	-0.089
-680.237	-200.000	-0.008	0.333
-679.222	115.137	-0.193	0.240
-678.208	-13.495	-0.081	-0.053
-677.193	-19.218	-0.241	-0.153
-676.178	-28.412	-0.408	-0.240
-675.164	-200.000	0.006	-0.425
-674.149	-14.707	0.108	0.071
-673.135	314.817	-0.128	-0.245
-672.120	213.787	-0.175	-0.282
-671.105	-32.090	0.247	-0.141
-670.091	-140.210	-0.305	-0.033
-669.076	548.985	0.066	-0.162
-668.062	91.314	0.217	-0.248
-667.047	800.000	0.043	0.186
-666.032	-200.000	0.003	0.301
-665.018	88.206	-0.114	0.128
-664.003	242.772	-0.072	-0.123
-662.989	-124.242	-0.144	-0.023
-661.974	-64.727	-0.203	0.084
-660.959	-110.122	0.230	-0.049
-659.945	-19.030	-0.107	-0.068
-658.930	800.000	0.053	0.222
-657.916	-111.084	-0.073	-0.015
-656.901	96.072	-0.162	-0.188
-655.886	-200.000	0.023	-0.357
-654.872	800.000	-0.036	-0.129
-653.857	14.989	-0.206	-0.164
-652.843	15.177	0.136	-0.109
-651.828	159.433	-0.119	-0.169
-650.814	-128.277	0.098	-0.014
-649.799	-200.000	-0.033	0.192
-648.784	590.724	0.030	-0.075
-647.770	157.147	0.027	0.037
-646.755	800.000	0.076	-0.273
-645.741	1.657	0.150	-0.110
-644.726	-87.098	0.317	-0.098
-643.711	800.000	-0.041	0.123
-642.697	428.486	-0.129	0.284
-641.682	22.659	0.031	0.026
-640.668	-104.384	-0.173	0.041
-639.653	272.533	-0.202	-0.363
-638.638	-133.439	-0.081	-0.010
-637.624	-34.342	-0.341	0.191
-636.609	26.756	-0.051	-0.044
-635.595	233.985	-0.161	0.271
-634.580	800.000	-0.041	-0.138
-633.565	800.000	0.045	0.189
-632.551	-116.465	-0.100	0.019
-631.536	-200.000	0.013	0.196
-630.522	-200.000	-0.018	-0.227
-629.507	-114.362	-0.200	-0.039
-628.492	26.622	0.216	0.184
-627.478	24.185	0.273	-0.229
-626.463	113.612	-0.153	-0.190
-625.449	195.435	-0.112	-0.173
-624.434	43.987	0.169	0.157
-623.419	52.047	0.165	-0.160
-622.405	99.614	-0.054	0.063
-621.390	800.000	-0.074	-0.311
-620.376	1.629	0.301	-0.221
-619.361	-62.372	-0.173	-0.073
-618.346	-51.431	-0.053	0.025
-617.332	539.178	0.087	-0.210
-616.317	227.095	-0.028	0.046
-615.303	-200.000	0.035	-0.246
-614.288	82.603	-0.226	-0.250
-613.273	-112.498	-0.164	-0.033
-612.259	58.456	-0.249	-0.249
-611.244	91.498	0.116	-0.132
-610.230	8.074	0.137	-0.105
-609.215	-200.000	-0.022	-0.151
-608.201	28.583	-0.096	-0.082
-607.186	15.904	-0.162	0.130
-606.171	-39.600	-0.197	-0.105
-605.157	-200.000	0.057	0.447
-604.142	-200.000	0.086	0.526
-603.128	439.337	-0.149	-0.331
-602.113	1.710	0.195	0.143
-601.098	-200.000	0.036	0.504
-600.084	-35.146	-0.159	0.088
-599.069	-86.800	-0.160	0.050
-598.055	-200.000	-0.004	-0.338
-597.040	-200.000	-0.017	-0.136
-596.025	-200.000	0.001	0.065
-595.011	-25.933	-0.121	-0.072
-593.996	-200.000	-0.008	0.059
-592.982	-200.000	-0.010	0.149
-591.967	-131.381	0.131	-0.018
-590.952	-200.000	0.030	-0.208
-589.938	800.000	-0.077	0.340
-588.923	14.548	-0.022	0.017
-587.909	-64.741	-0.180	0.074
-586.894	235.971	-0.149	0.250
-585.879	343.156	-0.179	0.356
-584.865	45.007	-0.131	0.123
-583.850	502.658	0.102	0.240
-582.836	-96.717	0.161	0.043
-581.821	675.986	0.067	-0.176
-580.806	-85.652	-0.135	-0.043
-579.792	55.226	-0.088	0.087
-578.777	52.771	-0.048	-0.047
-577.763	159.585	0.145	-0.204
-576.748	447.904	0.077	-0.171
-575.733	5.767	-0.245	-0.184
-574.719	-154.385	0.171	-0.012
-573.704	-75.343	0.255	-0.092
-572.690	-85.751	0.172	-0.054
-571.675	105.635	-0.163	0.196
-570.661	-89.617	-0.202	0.060
-569.646	314.526	0.075	0.143
-568.631	-113.224	-0.461	0.092
-567.617	-14.228	-0.215	0.141
-566.602	800.000	0.111	-0.457
-565.588	707.610	-0.123	0.330
-564.573	-199.093	-0.288	-0.002
-563.558	-141.651	-0.478	0.049
-562.544	-13.364	0.110	-0.072
-561.529	-4.149	-0.297	-0.209
-560.515	-34.997	-0.134	-0.074
-559.500	-76.897	0.531	0.189
-558.485	-59.614	-0.299	0.130
-557.471	52.177	-0.187	0.181
-556.456	-31.481	0.342	-0.195
-555.442	344.888	0.120	0.240
-554.427	-21.798	0.249	0.154
-553.412	9.762	-0.188	-0.144
-552.398	-200.000	-0.027	0.220
-551.383	-200.000	-0.009	-0.213
-550.369	-166.458	0.274	0.012
-549.354	-61.453	0.214	0.091
-548.339	282.837	0.067	-0.122
-547.325	99.936	0.234	-0.275
-546.310	-77.686	-0.176	0.062
-545.296	28.923	0.132	-0.114
-544.281	381.285	-0.083	0.174
-543.266	94.775	0.196	-0.226
-542.252	-200.000	-0.023	-0.153
-541.237	528.921	-0.058	0.138
-540.223	-145.319	-0.218	-0.020
-539.208	-167.178	-0.331	-0.014
-538.193	536.061	-0.110	0.265
-537.179	516.619	0.093	0.220
-536.164	-37.468	0.138	-0.075
-535.150	-200.000	0.041	-0.325
-534.135	800.000	0.056	-0.193
-533.121	14.192	-0.130	-0.103
-532.106	224.871	0.169	-0.277
-531.091	-83.786	0.299	-0.097
-530.077	89.072	0.151	0.170
-529.062	-200.000	-0.014	-0.209
-528.048	-96.808	-0.085	0.023
-527.033	302.767	-0.106	-0.198
-526.018	116.323	-0.214	0.266
-525.004	168.634	0.255	0.369
-523.989	-95.713	-0.086	0.023
-522.975	800.000	-0.141	-0.422
-521.960	-10.803	0.093	-0.063
-520.945	-74.364	0.262	0.096
-519.931	43.289	0.076	0.070
-518.916	-21.360	0.092	0.057
-517.902	192.976	-0.050	-0.077
-516.887	620.322	-0.110	0.281
-515.872	24.659	-0.263	0.221
-514.858	29.062	-0.069	0.060
-513.843	202.689	-0.009	-0.013
-512.829	-200.000	0.061	-0.535
-511.814	-133.164	-0.122	0.016
-510.799	122.508	0.249	0.315
-509.785	-200.000	0.007	-0.451
-508.770	129.800	0.141	-0.182
-507.756	-200.000	-0.129	0.000
-506.741	-200.000	-0.015	0.300
-505.726	8.467	0.321	-0.245
-504.712	-200.000	0.018	-0.492
-503.697	121.243	0.103	0.130
-502.683	-200.000	-0.081	-0.461
-501.668	28.241	0.363	0.310
-500.653	67.895	-0.056	0.058
-499.639	-71.478	-0.432	0.164
-498.624	10.125	0.250	0.193
-497.610	89.481	0.081	0.091
-496.595	-44.480	-0.111	-0.056
-495.581	-23.400	-0.067	0.041
-494.566	-57.573	-0.287	0.128
-493.551	62.497	0.183	-0.185
-492.537	269.205	-0.067	0.120
-491.522	-26.335	-0.256	-0.152
-490.508	-28.538	-0.222	0.130
-489.493	191.161	0.098	0.149
-488.478	240.054	-0.229	0.387
-487.464	29.726	-0.261	-0.225
-486.449	-200.000	0.057	-0.256
-485.435	149.589	-0.163	-0.224
-484.420	-77.736	0.269	-0.094
-483.405	-119.018	0.263	-0.047
-482.391	-200.000	-0.018	-0.258
-481.376	-170.758	-0.117	0.004
-480.362	-193.936	-0.190	-0.002
-479.347	30.490	-0.156	-0.135
-478.332	56.615	0.140	0.138
-477.318	80.148	0.072	0.079
-476.303	-200.000	0.043	0.268
-475.289	800.000	-0.041	-0.133
-474.274	641.536	-0.034	0.088
-473.259	-5.226	-0.259	-0.180
-472.245	156.612	-0.188	0.262
-471.230	384.415	0.072	0.151
-470.216	230.196	-0.145	0.240
-469.201	115.358	0.037	0.046
-468.186	-200.000	0.033	-0.360
-467.172	550.006	-0.070	0.170
-466.157	-6.501	0.262	-0.181
-465.143	-23.737	0.113	0.069
-464.128	346.247	-0.084	0.167
-463.113	39.518	-0.220	0.200
-462.099	-200.000	0.003	-0.248
-461.084	-75.713	-0.293	-0.105
-460.070	800.000	-0.080	-0.319
-459.055	-51.047	-0.124	-0.059
-458.040	51.564	-0.272	-0.261
-457.026	-10.386	-0.196	-0.131
-456.011	54.903	-0.278	0.272
-454.997	49.448	0.104	0.099
-453.982	-79.904	-0.121	-0.041
-452.968	800.000	-0.060	0.192
-451.953	68.556	-0.097	-0.101
-450.938	116.799	0.289	0.359
-449.924	-200.000	0.054	0.474
-448.909	277.320	0.097	0.175
-447.895	-200.000	-0.020	0.174
-446.880	-34.661	-0.297	0.164
-445.865	-103.700	-0.145	-0.034
-444.851	64.063	0.278	-0.283
-443.836	547.813	0.042	0.100
-442.822	-192.811	0.329	0.003
-441.807	-79.841	-0.111	-0.038
-440.792	-200.000	-0.017	0.288
-439.778	112.741	0.187	0.229
-438.763	-82.597	-0.134	0.044
-437.749	-200.000	0.015	-0.395
-436.734	-34.484	-0.293	-0.162
-435.719	756.787	0.148	-0.404
-434.705	-200.000	-0.027	-0.339
-433.690	-200.000	-0.002	0.081
-432.676	-27.533	0.537	-0.315
-431.661	-200.000	0.003	-0.088
-430.646	-200.000	-0.020	-0.218
-429.632	-200.000	-0.012	0.343
-428.617	40.815	-0.046	0.042
-427.603	-136.018	-0.210	-0.025
-426.588	244.667	0.099	0.167
-425.573	130.182	0.103	0.133
-424.559	800.000	0.101	0.365
-423.544	800.000	0.091	0.264
-422.530	17.744	0.259	0.208
-421.515	186.364	-0.225	-0.338
-420.500	-44.110	-0.067	-0.034
-419.486	-68.447	-0.165	0.065
-418.471	132.880	0.095	0.124
-417.457	800.000	-0.096	0.375
-416.442	-63.637	-0.036	-0.015
-415.428	142.194	0.062	0.084
-414.413	800.000	0.021	-0.063
-413.398	4.269	-0.154	-0.114
-412.384	-57.306	0.303	0.134
-411.369	-165.624	-0.268	0.012
-410.355	83.531	-0.125	0.138
-409.340	105.160	0.161	-0.192
-408.325	-81.850	0.471	0.156
-407.311	93.490	-0.078	-0.090
-406.296	800.000	0.050	-0.174
-405.282	-113.933	0.165	0.032
-404.267	388.964	0.066	0.138
-403.252	798.979	0.031	-0.085
-402.238	183.949	0.171	0.256
-401.223	-52.576	-0.160	-0.075
-400.209	-49.399	-0.062	-0.030
-399.194	-74.673	0.188	0.068
-398.179	-108.413	-0.409	0.089
-397.165	8.268	-0.142	0.108
-396.150	-130.109	0.108	0.015
-395.136	-77.115	-0.086	0.030
-394.121	-200.000	-0.021	0.113
-393.106	8.875	0.222	-0.169
-392.092	528.714	-0.105	-0.249
-391.077	83.389	0.244	-0.268
-390.063	-200.000	0.010	-0.132
-389.048	-200.000	-0.033	0.151
-388.033	174.976	0.116	-0.170
-387.019	36.667	-0.116	0.103
-386.004	-171.525	0.180	-0.006
-384.990	134.444	0.125	-0.164
-383.975	-200.000	-0.056	0.275
-382.960	454.134	0.094	0.209
-381.946	138.741	-0.265	0.351
-380.931	99.232	0.193	-0.225
-379.917	-200.000	-0.031	-0.172
-378.902	-200.000	0.014	-0.212
-377.888	-109.285	-0.164	0.035
-376.873	62.865	-0.055	-0.055
-375.858	-130.993	0.211	-0.028
-374.844	-138.937	-0.198	-0.022
-373.829	-16.476	0.048	0.031
-372.815	-47.011	0.133	0.066
-371.800	-95.463	0.106	0.029
-370.785	121.187	-0.271	0.341
-369.771	129.345	-0.154	-0.198
-368.756	800.000	-0.070	-0.226
-367.742	-168.998	-0.076	0.003
-366.727	-157.528	-0.256	0.015
-365.712	-86.531	-0.088	-0.027
-364.698	2.940	0.100	-0.073
-363.683	155.136	0.108	0.149
-362.669	800.000	0.058	-0.237
-361.654	800.000	0.055	-0.218
-360.639	-72.712	0.129	0.048
-359.625	214.626	0.045	-0.071
-358.610	-103.538	0.224	-0.053
-357.596	-123.177	-0.118	-0.019
-356.581	316.486	0.130	-0.247
-355.566	-200.000	-0.060	-0.444
-354.552	25.544	-0.218	-0.183
-353.537	111.431	-0.106	0.128
-352.523	459.502	-0.029	0.066
-351.508	-105.116	-0.194	0.045
-350.493	77.827	0.210	0.226
-349.479	-127.368	-0.087	0.013
-348.464	-127.201	0.098	-0.014
-347.450	-124.239	-0.124	0.020
-346.435	800.000	0.070	-0.262
-345.420	634.916	0.145	-0.371
-344.406	-121.962	-0.330	0.055
-343.391	-91.602	-0.296	0.085
-342.377	782.015	-0.063	-0.175
-341.362	4.902	-0.250	-0.185
-340.348	-200.000	-0.095	0.572
-339.333	227.932	0.083	0.137
-338.318	42.267	-0.126	0.115
-337.304	-109.686	-0.272	0.058
-336.289	-187.429	0.196	-0.003
-335.275	-80.430	-0.063	0.021
-334.260	-98.048	-0.256	-0.066
-333.245	77.544	0.103	-0.110
-332.231	318.111	0.102	-0.194
-331.216	53.238	0.110	-0.106
-330.202	334.657	-0.125	0.244
-329.187	29.767	0.079	0.067
-328.172	424.312	-0.107	0.231
-327.158	-31.262	-0.128	-0.073
-326.143	-27.541	-0.152	-0.089
-325.129	566.765	-0.012	0.030
-324.114	-150.983	-0.159	0.012
-323.099	73.336	0.167	0.176
-322.085	800.000	0.015	0.043
-321.070	-200.000	0.010	0.097
-320.056	800.000	-0.033	-0.106
-319.041	81.262	0.165	0.179
-318.026	-20.139	0.114	-0.071
-317.012	-200.000	0.033	0.267
-315.997	-87.500	0.206	-0.063
-314.983	-39.209	0.252	-0.133
-313.968	-74.043	-0.355	-0.129
-312.953	-200.000	-0.049	0.252
-311.939	-200.000	-0.048	0.400
-310.924	-200.000	0.024	-0.294
-309.910	800.000	0.042	-0.170
-308.895	-147.132	-0.119	-0.010
-307.880	800.000	-0.028	0.090
-306.866	272.302	0.159	0.283
-305.851	-200.000	0.093	0.000
-304.837	-142.938	0.153	-0.015
-303.822	-200.000	0.050	-0.289
-302.807	516.549	0.137	0.323
-301.793	80.061	0.221	-0.239
-300.778	-131.030	-0.251	0.034
-299.764	4.722	0.117	0.086
-298.749	572.502	-0.029	0.070
-297.735	-50.485	0.025	-0.012
-296.720	-80.065	0.268	0.090
-295.705	647.715	-0.041	-0.104
-294.691	-134.049	0.248	-0.031
-293.676	-34.108	0.111	0.061
-292.662	-194.064	0.168	0.001
-291.647	-200.000	0.018	0.140
-290.632	148.449	-0.172	0.233
-289.618	196.210	-0.216	0.330
-288.603	-116.035	-0.308	-0.058
-287.589	150.947	0.132	-0.181
-286.574	-15.895	0.126	0.081
-285.559	-200.000	-0.023	-0.106
-284.545	800.000	-0.053	-0.197
-283.530	271.748	0.090	0.160
-282.516	147.078	-0.107	0.144
-281.501	488.438	0.026	-0.059
-280.486	-137.488	-0.399	-0.045
-279.472	-200.000	-0.013	-0.070
-278.457	310.844	0.065	-0.122
-277.443	67.011	-0.072	-0.074
-276.428	392.606	-0.030	0.062
-275.413	-36.572	0.208	-0.112
-274.399	-75.887	-0.225	0.080
-273.384	-158.064	0.372	-0.022
-272.370	227.252	0.139	0.227
-271.355	-200.000	0.014	-0.167
-270.340	-73.122	0.106	-0.039
-269.326	-200.000	0.027	0.182
-268.311	122.160	-0.154	-0.193
-267.297	-200.000	0.068	-0.326
-266.282	-34.919	-0.028	0.015
-265.267	54.293	0.272	-0.263
-264.253	-12.076	0.199	-0.131
-263.238	-107.402	-0.151	0.033
-262.224	133.928	-0.067	0.087
-261.209	-100.881	0.252	-0.062
-260.195	354.960	0.029	0.057
-259.180	-145.035	0.333	-0.030
-258.165	-129.920	0.184	-0.025
-257.151	321.195	-0.108	0.206
-256.136	-56.775	-0.331	-0.147
-255.122	-45.023	-0.025	0.013
-254.107	135.472	0.167	-0.218
-253.092	-45.346	0.161	-0.080
-252.078	311.806	-0.088	-0.166
-251.063	-110.229	0.156	0.033
-250.049	125.895	-0.195	0.247
-249.034	800.000	-0.084	0.253
-248.019	-200.000	-0.024	-0.195
-247.005	800.000	-0.078	0.307
-245.990	-162.337	-0.087	0.004
-244.976	-118.697	-0.180	-0.032
-243.961	149.394	0.120	0.163
-242.946	109.523	0.124	0.149
-241.932	699.134	0.055	-0.145
-240.917	1.202	-0.271	0.195
-239.903	48.105	0.244	0.229
-238.888	75.639	-0.157	0.167
-237.873	78.437	0.128	0.137
-236.859	13.281	0.299	-0.232
-235.844	446.308	0.100	-0.220
-234.830	-150.111	-0.084	0.007
-233.815	125.293	-0.047	0.059
-232.800	-113.504	-0.131	-0.026
-231.786	-200.000	-0.001	-0.235
-230.771	528.300	0.119	-0.281
-229.757	-68.934	-0.069	0.027
-228.742	-200.000	-0.004	-0.391
-227.727	223.615	0.152	0.246
-226.713	-73.446	0.264	0.097
-225.698	601.880	-0.053	0.132
-224.684	800.000	-0.036	0.123
-223.669	-199.891	0.195	-0.001
-222.655	92.246	0.359	-0.406
-221.640	-103.531	0.296	0.070
-220.625	-200.000	0.039	-0.248
-219.611	-130.014	-0.192	-0.026
-218.596	-0.599	-0.125	-0.089
-217.582	-200.000	-0.037	-0.181
-216.567	1.624	0.176	-0.127
-215.552	-200.000	0.031	-0.399
-214.538	-111.116	0.222	-0.046
-213.523	390.788	-0.045	0.093
-212.509	-164.524	0.193	0.009
-211.494	-57.423	-0.380	-0.167
-210.479	41.871	0.004	-0.004
-209.465	-57.794	0.367	-0.161
-208.450	-116.643	-0.365	0.067
-207.436	-200.000	0.081	0.365
-206.421	82.542	0.089	-0.097
-205.406	800.000	0.048	-0.177
-204.392	103.807	-0.105	0.123
-203.377	278.568	-0.149	0.267
-202.363	90.596	0.387	-0.434
-201.348	-83.738	0.146	0.047
-200.333	616.635	0.116	0.291
-199.319	-200.000	-0.013	0.097
-198.304	800.000	-0.056	-0.166
-197.290	240.247	-0.139	-0.231
-196.275	800.000	-0.107	0.345
-195.260	-71.120	-0.083	-0.031
-194.246	-190.420	0.120	-0.001
-193.231	75.216	-0.056	-0.059
-192.217	-182.815	-0.191	0.003
-191.202	75.317	-0.044	0.046
-190.187	35.599	0.035	0.030
-189.173	-200.000	0.031	-0.176
-188.158	800.000	0.082	0.307
-187.144	-200.000	0.015	-0.203
-186.129	-129.979	0.051	0.007
-185.114	632.494	0.078	-0.198
-184.100	242.583	-0.193	0.323
-183.085	53.204	0.377	0.361
-182.071	-200.000	-0.038	0.268
-181.056	-176.384	-0.191	0.005
-180.042	-87.517	0.102	-0.031
-179.027	158.640	0.075	-0.104
-178.012	-134.723	0.241	0.029
-176.998	-200.000	0.053	0.358
-175.983	526.016	-0.063	-0.149
-174.969	-49.629	0.185	-0.088
-173.954	50.479	0.235	-0.222
-172.939	-20.263	-0.169	-0.104
-171.925	-67.725	0.172	0.067
-170.910	-155.719	0.352	-0.023
-169.896	55.866	-0.404	0.392
-168.881	44.884	0.151	0.139
-167.866	0.572	-0.085	-0.061
-166.852	-0.659	-0.215	-0.152
-165.837	-200.000	-0.036	0.166
-164.823	-129.243	0.324	-0.045
-163.808	25.526	-0.044	0.037
-162.793	17.811	0.076	0.061
-161.779	289.161	-0.243	0.441
-160.764	-82.622	0.395	-0.128
-159.750	-101.845	-0.380	0.092
-158.735	-99.020	0.318	-0.081
-157.720	-156.987	0.423	0.026
-156.706	800.000	-0.055	-0.184
-155.691	-122.528	-0.178	0.029
-154.677	184.500	0.064	0.095
-153.662	800.000	0.082	0.237
-152.647	493.627	-0.054	-0.123
-151.633	-86.013	0.125	0.039
-150.618	-87.060	-0.169	-0.051
-149.604	475.747	0.034	-0.077
-148.589	360.109	-0.095	-0.191
-147.574	-57.370	-0.271	-0.119
-146.560	60.981	0.100	0.099
-145.545	-42.957	-0.357	0.181
-144.531	392.114	-0.132	0.273
-143.516	-200.000	0.020	-0.115
-142.502	-140.738	-0.549	0.057
-141.487	-178.270	0.204	0.005
-140.472	-200.000	0.001	-0.164
-139.458	800.000	0.036	-0.121
-138.443	-200.000	0.032	0.391
-137.429	-78.407	-0.285	0.098
-136.414	-9.531	0.108	0.072
-135.399	-173.980	0.196	-0.006
-134.385	-151.727	-0.050	-0.004
-133.370	-135.224	0.201	-0.024
-132.356	-158.851	-0.324	0.018
-131.341	-26.065	-0.144	0.084
-130.326	-1.795	-0.150	0.106
-129.312	-200.000	-0.020	0.089
-128.297	13.818	-0.350	0.272
-127.283	405.794	-0.089	0.189
-126.268	78.289	0.118	-0.126
-125.253	80.503	0.149	0.161
-124.239	-97.008	-0.074	0.019
-123.224	800.000	0.039	0.143
-122.210	529.847	-0.085	-0.201
-121.195	745.147	0.048	-0.128
