DTS Sentinel unit serial number:	SN413079Multiplexer serial number:	ORYXHardware model number:	OX4-SRSoftware version number:	ORYX F/W v4.00 Oryx Data Collector v3.7.2.0data status	okinstallation	princeton_trtdifferential loss correction	single-endedforward channel	channel 3reverse channel	N/Adate	2019/09/11time	22:06:11forward acquisition time	60.00reverse acquisition time	0.00gamma	496.2192k internal	0.2312k external	0.2312temperature offset calibration	1.0046default loss term (dB/km)	0.3790temperature slope calibration	1.0000multiplexer offset coefficient	1.0000multiplexer slope coefficient	1.0000fibre end	0.00T internal ref (°C)	35.44T ext. ref 1 (°C)	1.75T ext. ref 2 (°C)	29.45length (m)	temperature (°C)	Stokes	anti-Stokes-747.200	1.720	-0.318	-0.232
-746.185	236.905	0.202	0.339
-745.171	243.106	0.078	0.132
-744.156	-200.000	-0.125	-0.001
-743.142	800.000	-0.147	0.450
-742.127	740.430	-0.135	0.366
-741.112	231.106	0.080	-0.132
-740.098	205.739	0.199	0.315
-739.083	505.298	0.021	-0.048
-738.069	261.608	0.308	0.542
-737.054	-199.666	0.220	0.001
-736.039	-76.302	-0.275	-0.098
-735.025	-78.525	0.275	0.095
-734.010	111.054	0.198	-0.242
-732.996	186.720	-0.163	-0.246
-731.981	-117.945	-0.172	0.031
-730.966	-80.997	0.068	-0.023
-729.952	800.000	-0.066	0.273
-728.937	289.626	0.082	-0.151
-727.923	295.521	-0.097	-0.179
-726.908	800.000	-0.029	0.105
-725.894	56.834	-0.244	0.241
-724.879	800.000	-0.108	-0.337
-723.864	347.421	-0.055	0.109
-722.850	-180.405	0.417	-0.009
-721.835	-136.165	-0.206	-0.024
-720.821	-69.887	-0.301	0.116
-719.806	103.597	-0.039	0.047
-718.791	800.000	-0.057	-0.216
-717.777	-200.000	0.056	0.318
-716.762	-160.502	-0.046	0.002
-715.748	85.389	0.049	-0.055
-714.733	800.000	0.056	-0.237
-713.718	790.124	0.033	0.092
-712.704	32.217	0.179	0.157
-711.689	175.274	0.206	-0.302
-710.675	-1.221	-0.139	-0.099
-709.660	151.495	-0.091	-0.126
-708.645	-31.620	-0.196	-0.111
-707.631	16.421	-0.092	-0.073
-706.616	54.622	-0.059	-0.058
-705.602	570.957	0.123	0.303
-704.587	800.000	0.083	0.359
-703.572	198.266	0.184	-0.285
-702.558	-107.053	0.140	-0.031
-701.543	4.561	0.136	-0.101
-700.529	-200.000	-0.010	-0.135
-699.514	-25.632	-0.253	-0.151
-698.499	-118.979	0.219	-0.039
-697.485	664.172	-0.042	0.109
-696.470	-164.615	-0.187	0.009
-695.456	800.000	-0.038	0.139
-694.441	-137.447	0.128	0.015
-693.426	800.000	0.089	-0.252
-692.412	-131.831	-0.112	0.015
-691.397	167.703	-0.142	-0.205
-690.383	-200.000	-0.016	0.222
-689.368	98.383	0.283	-0.330
-688.354	-200.000	-0.020	-0.119
-687.339	210.579	-0.102	-0.162
-686.324	111.783	0.083	0.101
-685.310	145.606	-0.128	-0.174
-684.295	-200.000	-0.010	-0.263
-683.281	-24.879	-0.198	-0.119
-682.266	-200.000	0.025	-0.511
-681.251	-200.000	-0.259	-0.001
-680.237	-30.861	-0.078	-0.045
-679.222	325.105	-0.164	0.317
-678.208	800.000	0.071	-0.263
-677.193	-147.557	0.138	0.012
-676.178	-110.129	-0.253	-0.053
-675.164	-152.487	-0.178	-0.013
-674.149	-197.787	0.177	-0.001
-673.135	-82.622	0.211	-0.069
-672.120	29.097	-0.168	-0.144
-671.105	83.948	-0.240	-0.265
-670.091	-47.460	-0.035	-0.017
-669.076	110.681	-0.306	0.373
-668.062	271.031	-0.099	-0.177
-667.047	377.239	-0.204	-0.422
-666.032	281.608	0.063	0.115
-665.018	-112.116	-0.429	-0.087
-664.003	-98.943	0.139	0.036
-662.989	7.177	-0.121	0.092
-661.974	-42.653	-0.070	0.036
-660.959	-124.841	-0.593	-0.093
-659.945	115.028	0.056	-0.069
-658.930	-92.731	0.149	0.042
-657.916	53.507	0.129	-0.125
-656.901	-31.641	-0.147	0.084
-655.886	-95.398	0.176	-0.048
-654.872	590.197	-0.072	-0.180
-653.857	-200.000	-0.028	0.364
-652.843	-50.015	0.301	0.144
-651.828	190.227	-0.086	-0.131
-650.814	-200.000	0.012	0.090
-649.799	800.000	-0.052	-0.188
-648.784	479.730	-0.170	-0.389
-647.770	-200.000	0.027	-0.238
-646.755	-27.512	-0.232	-0.136
-645.741	800.000	0.022	0.087
-644.726	-103.111	0.113	-0.027
-643.711	-53.269	-0.245	0.113
-642.697	-41.054	-0.265	0.138
-641.682	800.000	-0.007	-0.028
-640.668	800.000	0.026	0.110
-639.653	-131.847	-0.333	-0.044
-638.638	-200.000	-0.003	0.023
-637.624	-100.028	0.417	-0.105
-636.609	-200.000	0.039	-0.214
-635.595	800.000	-0.046	-0.184
-634.580	615.179	-0.068	-0.173
-633.565	-200.000	0.000	-0.476
-632.551	255.338	-0.132	0.228
-631.536	-80.873	0.348	0.117
-630.522	-86.584	0.470	0.146
-629.507	45.503	0.204	0.190
-628.492	96.505	0.339	-0.392
-627.478	681.603	0.067	-0.177
-626.463	288.428	-0.102	0.187
-625.449	436.067	-0.117	0.256
-624.434	-39.136	-0.462	-0.245
-623.419	-48.666	0.079	-0.038
-622.405	-137.252	0.184	0.021
-621.390	-43.035	0.184	0.094
-620.376	-91.267	-0.206	0.060
-619.361	800.000	-0.021	-0.079
-618.346	18.483	0.310	-0.250
-617.332	-200.000	0.063	-0.345
-616.317	800.000	0.060	0.194
-615.303	232.510	0.064	-0.105
-614.288	-37.212	0.153	-0.083
-613.273	-0.978	0.242	0.173
-612.259	-157.637	-0.290	-0.017
-611.244	-101.310	0.160	0.039
-610.230	50.810	-0.070	-0.067
-609.215	21.491	0.128	0.105
-608.201	148.598	0.137	-0.187
-607.186	157.235	-0.185	-0.258
-606.171	92.425	0.111	-0.127
-605.157	-200.000	0.001	0.095
-604.142	-200.000	-0.020	0.335
-603.128	800.000	-0.034	0.126
-602.113	-200.000	0.017	-0.184
-601.098	364.540	0.058	0.117
-600.084	546.479	0.040	-0.096
-599.069	-1.436	-0.088	-0.062
-598.055	-181.438	-0.219	0.004
-597.040	609.278	0.139	-0.350
-596.025	42.708	-0.114	-0.105
-595.011	-200.000	0.033	-0.235
-593.996	800.000	-0.105	0.450
-592.982	469.482	0.229	0.519
-591.967	47.954	-0.084	-0.079
-590.952	17.523	-0.297	0.238
-589.938	-12.322	-0.185	-0.122
-588.923	-101.136	-0.222	0.055
-587.909	-153.180	-0.078	-0.005
-586.894	800.000	0.073	0.300
-585.879	384.828	-0.102	-0.211
-584.865	800.000	-0.024	0.097
-583.850	29.440	0.084	0.072
-582.836	-107.719	-0.431	-0.095
-581.821	238.936	-0.070	-0.117
-580.806	-200.000	0.018	-0.085
-579.792	-200.000	0.011	-0.438
-578.777	-200.000	0.063	0.307
-577.763	-38.872	-0.312	-0.166
-576.748	-164.862	-0.186	0.008
-575.733	-151.318	0.122	-0.009
-574.719	413.703	-0.156	0.334
-573.704	188.260	-0.105	0.159
-572.690	-200.000	-0.009	-0.132
-571.675	64.076	0.028	-0.028
-570.661	26.256	-0.066	0.055
-569.646	-200.000	-0.011	0.222
-568.631	-29.880	-0.442	-0.254
-567.617	-54.964	-0.079	-0.036
-566.602	7.237	-0.114	-0.086
-565.588	51.341	-0.180	0.172
-564.573	338.087	0.087	0.170
-563.558	800.000	0.086	-0.272
-562.544	800.000	0.095	-0.346
-561.529	618.770	0.122	-0.309
-560.515	161.799	-0.065	0.091
-559.500	216.997	-0.042	0.068
-558.485	69.257	-0.110	-0.114
-557.471	-97.808	0.384	0.100
-556.456	147.409	-0.084	-0.114
-555.442	158.383	-0.173	0.241
-554.427	32.132	-0.172	0.150
-553.412	685.146	0.094	0.247
-552.398	800.000	-0.108	-0.320
-551.383	-120.474	-0.179	-0.031
-550.369	62.963	0.097	0.098
-549.354	-47.809	0.101	-0.049
-548.339	157.610	-0.128	0.179
-547.325	-96.254	0.106	-0.028
-546.310	54.703	0.201	-0.195
-545.296	-200.000	0.038	0.168
-544.281	-123.240	0.249	-0.040
-543.266	800.000	0.086	-0.265
-542.252	-200.000	-0.022	-0.117
-541.237	800.000	-0.028	-0.079
-540.223	-200.000	-0.019	-0.203
-539.208	800.000	-0.050	-0.190
-538.193	-148.897	0.195	0.016
-537.179	264.437	-0.170	-0.297
-536.164	-200.000	-0.032	-0.159
-535.150	-51.418	-0.160	-0.075
-534.135	120.903	0.117	-0.147
-533.121	122.326	-0.238	-0.300
-532.106	800.000	-0.093	0.269
-531.091	363.148	0.064	-0.130
-530.077	-40.698	-0.187	-0.098
-529.062	140.377	0.072	0.096
-528.048	-58.133	-0.167	0.073
-527.033	-20.626	0.169	0.105
-526.018	-142.730	0.140	0.014
-525.004	-114.681	0.270	-0.052
-523.989	43.357	0.212	0.195
-522.975	-200.000	0.025	-0.497
-521.960	6.797	-0.070	-0.053
-520.945	440.741	-0.092	-0.203
-519.931	800.000	0.031	-0.106
-518.916	800.000	0.042	-0.167
-517.902	83.246	-0.156	0.171
-516.887	-46.144	0.201	0.099
-515.872	-70.252	-0.132	0.050
-514.858	-15.265	0.105	-0.068
-513.843	-78.114	0.249	0.086
-512.829	-72.557	0.280	-0.104
-511.814	445.255	0.080	-0.177
-510.799	-200.000	-0.059	0.316
-509.785	224.498	0.080	-0.130
-508.770	-157.846	-0.202	0.012
-507.756	410.725	-0.019	-0.041
-506.741	-97.671	-0.187	-0.049
-505.726	800.000	-0.021	0.084
-504.712	-83.871	-0.110	0.035
-503.697	137.917	0.169	-0.222
-502.683	278.218	-0.088	-0.158
-501.668	495.597	-0.043	-0.099
-500.653	-48.994	-0.125	0.060
-499.639	800.000	0.101	-0.353
-498.624	-147.099	0.271	0.023
-497.610	-113.429	-0.477	0.094
-496.595	-117.335	0.108	-0.020
-495.581	-200.000	0.080	0.376
-494.566	79.653	0.126	-0.136
-493.551	-116.272	0.116	0.022
-492.537	-20.571	0.101	-0.062
-491.522	24.766	-0.037	0.031
-490.508	22.503	-0.294	-0.242
-489.493	800.000	-0.012	-0.036
-488.478	-200.000	0.023	0.144
-487.464	-200.000	-0.008	-0.071
-486.449	-200.000	-0.043	0.241
-485.435	477.764	0.175	0.397
-484.420	-200.000	-0.026	-0.314
-483.405	145.079	-0.063	0.085
-482.391	44.393	0.241	-0.222
-481.376	287.198	-0.031	0.056
-480.362	-200.000	0.021	0.132
-479.347	800.000	0.055	-0.230
-478.332	81.195	-0.210	0.227
-477.318	-104.727	-0.276	-0.064
-476.303	104.691	-0.221	-0.262
-475.289	536.741	0.053	-0.126
-474.274	-196.520	0.243	0.002
-473.259	-200.000	-0.039	-0.283
-472.245	-87.947	0.184	-0.056
-471.230	263.391	0.081	0.142
-470.216	800.000	-0.050	0.152
-469.201	-129.121	-0.216	-0.030
-468.186	800.000	0.047	-0.171
-467.172	-200.000	0.060	-0.326
-466.157	800.000	0.073	-0.302
-465.143	-59.633	0.277	-0.119
-464.128	-16.254	-0.214	-0.136
-463.113	336.153	0.052	-0.102
-462.099	-141.068	0.124	0.013
-461.084	800.000	0.013	0.044
-460.070	-200.000	-0.013	0.133
-459.055	800.000	-0.020	-0.079
-458.040	104.806	0.054	-0.064
-457.026	-178.256	0.011	0.000
-456.011	-200.000	-0.115	0.534
-454.997	800.000	0.029	-0.097
-453.982	54.173	0.133	0.129
-452.968	-200.000	0.006	-0.154
-451.953	-5.281	0.204	0.141
-450.938	800.000	0.087	-0.246
-449.924	513.270	0.044	-0.102
-448.909	-200.000	-0.033	-0.182
-447.895	337.255	-0.118	-0.230
-446.880	800.000	0.030	-0.083
-445.865	660.612	0.114	0.296
-444.851	-7.791	-0.136	-0.092
-443.836	-118.079	0.088	0.016
-442.822	-115.521	-0.295	0.056
-441.807	-49.496	0.167	0.080
-440.792	-200.000	0.010	-0.440
-439.778	-56.025	-0.223	0.100
-438.763	-43.109	0.027	0.014
-437.749	-51.624	-0.361	0.169
-436.734	-4.133	-0.126	-0.088
-435.719	106.006	-0.132	0.156
-434.705	-138.031	-0.173	-0.019
-433.690	355.975	-0.077	0.153
-432.676	800.000	0.040	0.152
-431.661	-200.000	-0.058	0.334
-430.646	-148.119	0.163	-0.014
-429.632	800.000	-0.043	-0.167
-428.617	-185.312	-0.320	-0.005
-427.603	394.844	0.096	0.200
-426.588	-200.000	-0.030	-0.156
-425.573	-13.687	-0.162	-0.105
-424.559	501.344	-0.121	0.279
-423.544	107.172	0.034	-0.040
-422.530	329.558	0.194	-0.375
-421.515	800.000	-0.039	0.124
-420.500	98.715	-0.011	-0.013
-419.486	585.836	0.122	0.302
-418.471	-16.143	-0.153	0.097
-417.457	604.979	0.025	-0.062
-416.442	17.471	-0.189	-0.150
-415.428	-8.511	-0.152	-0.103
-414.413	-93.370	-0.186	0.052
-413.398	800.000	-0.056	0.232
-412.384	-51.029	0.267	0.125
-411.369	-104.871	-0.191	0.044
-410.355	-200.000	-0.058	0.273
-409.340	-116.538	-0.370	-0.068
-408.325	56.707	0.157	0.153
-407.311	187.058	-0.150	-0.224
-406.296	20.356	0.168	-0.136
-405.282	183.428	-0.146	-0.217
-404.267	800.000	0.029	-0.106
-403.252	-93.908	0.105	-0.029
-402.238	-200.000	-0.038	0.213
-401.223	-200.000	0.008	0.050
-400.209	484.156	-0.018	0.042
-399.194	-29.373	0.090	-0.052
-398.179	763.169	0.044	-0.118
-397.165	-7.598	-0.211	-0.143
-396.150	-144.961	-0.113	0.010
-395.136	88.886	-0.104	-0.115
-394.121	69.405	0.036	0.037
-393.106	800.000	-0.071	0.267
-392.092	243.521	-0.022	-0.038
-391.077	-78.133	-0.132	-0.045
-390.063	426.614	-0.072	0.156
-389.048	-148.486	-0.168	-0.014
-388.033	254.758	-0.107	0.183
-387.019	458.812	0.026	-0.059
-386.004	78.485	0.032	-0.034
-384.990	-14.469	-0.063	0.040
-383.975	125.597	0.139	-0.175
-382.960	17.850	0.334	-0.266
-381.946	-200.000	-0.032	-0.210
-380.931	65.522	-0.263	-0.266
-379.917	-95.798	-0.053	0.014
-378.902	-71.903	0.107	-0.040
-377.888	517.336	-0.052	0.122
-376.873	-53.632	-0.236	0.108
-375.858	33.275	0.165	0.143
-374.844	20.859	0.222	0.180
-373.829	-23.355	-0.109	0.065
-372.815	800.000	-0.075	0.226
-371.800	-2.633	-0.061	0.043
-370.785	175.805	-0.060	-0.088
-369.771	169.526	0.107	0.153
-368.756	53.465	-0.064	-0.061
-367.742	-16.958	-0.091	-0.058
-366.727	-200.000	0.044	0.279
-365.712	-13.962	-0.309	0.200
-364.698	311.295	-0.148	0.278
-363.683	-200.000	0.020	0.107
-362.669	258.755	0.203	-0.350
-361.654	-45.287	-0.218	0.108
-360.639	800.000	-0.020	-0.082
-359.625	-60.028	0.291	0.124
-358.610	17.957	0.023	0.019
-357.596	-200.000	0.062	0.285
-356.581	2.619	0.374	0.271
-355.566	64.426	0.049	0.049
-354.552	-200.000	0.088	-0.415
-353.537	-19.260	-0.115	0.071
-352.523	-87.583	0.130	-0.039
-351.508	-200.000	0.001	-0.093
-350.493	-87.203	0.078	0.024
-349.479	29.203	0.222	-0.188
-348.464	-195.523	0.144	0.001
-347.450	24.439	0.256	-0.211
-346.435	-155.191	0.276	0.018
-345.420	590.713	-0.050	-0.123
-344.406	103.883	0.141	-0.166
-343.391	41.497	0.172	-0.155
-342.377	359.920	-0.205	0.409
-341.362	75.407	-0.149	0.157
-340.348	64.051	-0.146	0.146
-339.333	243.998	-0.137	0.229
-338.318	-200.000	-0.020	0.107
-337.304	72.505	0.040	0.042
-336.289	-101.326	-0.171	0.042
-335.275	-200.000	0.049	0.245
-334.260	-200.000	0.011	-0.244
-333.245	328.226	0.054	0.103
-332.231	800.000	-0.007	0.019
-331.216	-117.112	0.120	0.022
-330.202	18.995	0.145	-0.116
-329.187	13.853	-0.106	-0.082
-328.172	-88.902	0.191	0.056
-327.158	800.000	-0.063	0.239
-326.143	-105.054	0.163	-0.037
-325.129	608.462	-0.033	-0.083
-324.114	-99.450	0.060	0.015
-323.099	686.984	-0.091	-0.236
-322.085	62.022	-0.138	-0.137
-321.070	-200.000	-0.010	-0.177
-320.056	800.000	0.108	0.421
-319.041	-44.432	-0.150	0.075
-318.026	-200.000	0.009	-0.195
-317.012	4.941	0.060	0.044
-315.997	-4.762	0.052	0.036
-314.983	186.649	-0.214	0.318
-313.968	-200.000	-0.026	0.199
-312.953	7.946	0.173	-0.130
-311.939	-28.464	0.296	-0.170
-310.924	72.335	-0.317	0.329
-309.910	67.731	-0.286	0.292
-308.895	-24.248	0.255	-0.152
-307.880	239.491	0.086	0.142
-306.866	50.243	-0.074	0.070
-305.851	-37.710	0.214	-0.113
-304.837	81.590	-0.175	0.189
-303.822	800.000	0.097	0.279
-302.807	-200.000	-0.032	0.225
-301.793	195.537	0.108	-0.164
-300.778	309.960	0.075	0.140
-299.764	0.133	0.218	0.155
-298.749	85.181	-0.397	-0.434
-297.735	42.908	-0.180	-0.164
-296.720	37.503	-0.077	-0.068
-295.705	-156.982	-0.165	-0.010
-294.691	205.555	-0.055	0.086
-293.676	360.146	0.085	-0.169
-292.662	255.583	0.179	-0.305
-291.647	-200.000	0.019	-0.207
-290.632	551.690	0.128	0.305
-289.618	800.000	-0.085	-0.252
-288.603	-0.705	0.218	-0.154
-287.589	-37.811	-0.240	0.127
-286.574	145.206	0.223	-0.297
-285.559	-177.191	-0.324	0.008
-284.545	-200.000	0.041	0.327
-283.530	-200.000	0.050	-0.270
-282.516	-200.000	0.031	-0.299
-281.501	-25.666	0.092	0.054
-280.486	800.000	0.038	-0.130
-279.472	-200.000	0.003	-0.067
-278.457	800.000	0.032	-0.090
-277.443	23.082	-0.142	0.116
-276.428	-200.000	0.025	-0.182
-275.413	-108.015	-0.219	0.047
-274.399	-118.705	-0.021	0.004
-273.384	701.572	-0.031	0.080
-272.370	800.000	-0.119	0.396
-271.355	-23.701	0.182	-0.108
-270.340	84.862	-0.164	-0.179
-269.326	479.172	-0.110	-0.249
-268.311	12.863	0.267	0.206
-267.297	-148.248	-0.170	-0.014
-266.282	2.513	0.236	0.170
-265.267	-200.000	0.031	-0.238
-264.253	67.003	-0.197	0.200
-263.238	800.000	-0.026	0.083
-262.224	90.939	0.185	0.207
-261.209	-200.000	0.041	0.356
-260.195	-87.668	-0.319	-0.096
-259.180	53.437	0.190	0.182
-258.165	-66.463	-0.433	0.171
-257.151	800.000	0.139	0.414
-256.136	-152.885	-0.263	0.018
-255.122	-39.183	-0.056	0.030
-254.107	164.168	0.030	0.043
-253.092	-91.012	0.428	0.122
-252.078	-200.000	-0.040	-0.246
-251.063	-190.640	-0.140	0.001
-250.049	-13.159	-0.229	0.148
-249.034	-77.005	-0.161	0.056
-248.019	209.456	0.237	-0.369
-247.005	-114.440	-0.177	-0.034
-245.990	16.327	0.159	0.125
-244.976	26.291	-0.285	0.237
-243.961	26.582	0.039	0.032
-242.946	634.970	0.085	0.214
-241.932	2.337	0.186	-0.134
-240.917	30.228	0.138	-0.117
-239.903	800.000	-0.100	-0.300
-238.888	180.428	-0.126	0.184
-237.873	800.000	-0.099	0.412
-236.859	209.629	0.194	-0.302
-235.844	-200.000	0.040	0.249
-234.830	-121.450	0.282	-0.047
-233.815	726.285	0.030	-0.079
-232.800	-116.077	0.178	0.033
-231.786	-161.872	-0.157	-0.008
-230.771	-17.765	0.269	0.168
-229.757	800.000	-0.066	-0.229
-228.742	60.397	0.247	-0.243
-227.727	71.884	-0.191	-0.197
-226.713	800.000	-0.114	0.314
-225.698	653.713	0.074	0.188
-224.684	614.239	0.144	-0.357
-223.669	66.387	-0.119	0.121
-222.655	-107.058	0.117	0.026
-221.640	-12.236	0.295	0.192
-220.625	-21.630	-0.256	-0.155
-219.611	800.000	0.069	0.217
-218.596	22.414	-0.139	0.113
-217.582	17.992	0.073	0.058
-216.567	161.790	0.198	-0.275
-215.552	41.045	0.324	0.291
-214.538	-90.958	-0.298	0.085
-213.523	184.877	-0.068	0.101
-212.509	-117.272	-0.339	0.061
-211.494	-174.206	0.166	-0.005
-210.479	800.000	0.094	0.388
-209.465	345.289	0.193	0.377
-208.450	146.288	0.173	0.231
-207.436	-47.337	-0.036	-0.017
-206.421	-101.147	0.157	0.038
-205.406	67.106	0.074	0.075
-204.392	-135.141	-0.150	0.018
-203.377	-161.542	-0.251	-0.013
-202.363	187.014	-0.041	0.061
-201.348	55.237	0.160	0.154
-200.333	800.000	-0.059	-0.179
-199.319	169.855	-0.189	-0.269
-198.304	59.954	-0.177	0.173
-197.290	76.326	0.140	-0.147
-196.275	16.093	0.309	0.242
-195.260	-134.654	-0.124	0.015
-194.246	94.189	-0.093	0.105
-193.231	-117.365	0.361	-0.065
-192.217	-119.404	-0.253	0.044
-191.202	-27.178	0.162	0.094
-190.187	187.910	-0.083	-0.123
-189.173	-200.000	0.026	0.214
-188.158	-61.171	0.278	0.116
-187.144	138.023	0.306	0.398
-186.129	-184.001	-0.188	0.003
-185.114	42.362	-0.064	-0.058
-184.100	-74.718	-0.201	-0.072
-183.085	-70.031	0.274	0.103
-182.071	185.692	-0.114	0.168
-181.056	-39.893	0.087	-0.045
-180.042	25.347	0.326	-0.269
-179.027	700.721	-0.025	0.065
-178.012	-124.199	0.461	-0.072
-176.998	-200.000	-0.038	-0.340
-175.983	-81.214	0.312	-0.102
-174.969	-69.361	0.301	0.115
-173.954	-200.000	0.010	-0.097
-172.939	249.616	-0.116	-0.195
-171.925	-200.000	-0.021	0.188
-170.910	295.537	0.044	0.080
-169.896	-128.444	0.321	0.045
-168.881	147.596	-0.188	-0.252
-167.866	-77.112	-0.131	-0.045
-166.852	-63.922	-0.230	-0.093
-165.837	81.616	-0.220	0.236
-164.823	95.715	-0.135	-0.152
-163.808	68.309	0.061	-0.062
-162.793	-69.815	0.474	0.179
-161.779	-200.000	0.014	0.516
-160.764	266.511	0.206	0.358
-159.750	-96.841	-0.402	-0.105
-158.735	10.766	-0.330	-0.250
-157.720	800.000	0.018	-0.063
-156.706	-200.000	0.023	-0.209
-155.691	-26.390	0.361	0.210
-154.677	107.377	0.093	0.110
-153.662	391.686	0.178	0.367
-152.647	-200.000	0.002	-0.084
-151.633	36.548	0.090	-0.078
-150.618	-74.482	0.277	-0.099
-149.604	-200.000	-0.033	-0.285
-148.589	357.705	-0.070	0.138
-147.574	-200.000	-0.050	0.249
-146.560	-200.000	0.000	0.352
-145.545	-53.078	0.074	0.034
-144.531	34.541	0.126	-0.109
-143.516	478.547	-0.102	0.229
-142.502	-31.367	0.358	0.199
-141.487	-97.835	-0.412	-0.106
-140.472	-46.753	-0.070	0.034
-139.458	252.480	-0.075	0.127
-138.443	-79.922	0.060	-0.020
-137.429	-200.000	-0.022	0.248
-136.414	-127.541	-0.234	-0.034
-135.399	23.824	-0.128	0.105
-134.385	-200.000	-0.048	-0.381
-133.370	-200.000	0.026	0.126
-132.356	234.054	0.074	-0.121
-131.341	-34.670	-0.192	-0.104
-130.326	278.023	0.097	0.171
-129.312	-89.877	0.168	-0.049
-128.297	-115.474	-0.220	-0.041
-127.283	-113.756	-0.177	-0.034
-126.268	127.151	0.185	-0.233
-125.253	-146.748	0.194	-0.017
-124.239	-27.173	0.115	0.067
-123.224	800.000	-0.040	-0.121
-122.210	-84.138	0.130	0.041
-121.195	-200.000	0.000	-0.183
