DTS Sentinel unit serial number:	SN413079Multiplexer serial number:	ORYXHardware model number:	OX4-SRSoftware version number:	ORYX F/W v4.00 Oryx Data Collector v3.7.2.0data status	okinstallation	princeton_trtdifferential loss correction	single-endedforward channel	channel 3reverse channel	N/Adate	2019/09/10time	18:18:11forward acquisition time	60.00reverse acquisition time	0.00gamma	496.2192k internal	0.2304k external	0.2304temperature offset calibration	0.9910default loss term (dB/km)	0.3790temperature slope calibration	1.0000multiplexer offset coefficient	1.0000multiplexer slope coefficient	1.0000fibre end	0.00T internal ref (°C)	36.41T ext. ref 1 (°C)	-0.37T ext. ref 2 (°C)	28.36length (m)	temperature (°C)	Stokes	anti-Stokes-747.200	44.084	-0.173	-0.162
-746.185	-78.391	-0.136	0.048
-745.171	-107.756	0.144	-0.032
-744.156	-134.764	-0.166	0.021
-743.142	165.813	-0.074	-0.106
-742.127	-200.000	-0.053	0.312
-741.112	95.149	0.077	0.089
-740.098	-184.235	0.216	0.004
-739.083	800.000	-0.102	0.399
-738.069	-118.294	0.335	-0.061
-737.054	-169.363	0.189	0.007
-736.039	-156.307	-0.278	-0.018
-735.025	78.639	0.168	0.182
-734.010	-200.000	0.024	-0.256
-732.996	6.405	-0.055	-0.042
-731.981	76.996	-0.245	0.265
-730.966	-184.843	0.324	-0.005
-729.952	-200.000	0.055	-0.289
-728.937	305.857	0.124	-0.234
-727.923	800.000	-0.077	-0.239
-726.908	-79.613	-0.234	-0.080
-725.894	382.347	-0.027	-0.056
-724.879	-12.668	0.216	-0.143
-723.864	800.000	0.088	-0.267
-722.850	246.629	0.109	0.188
-721.835	69.414	0.191	-0.200
-720.821	-62.733	-0.117	-0.049
-719.806	-66.068	-0.298	-0.121
-718.791	506.338	-0.079	-0.187
-717.777	52.185	0.090	0.087
-716.762	-200.000	-0.019	-0.277
-715.748	88.412	-0.109	-0.123
-714.733	-200.000	-0.006	0.240
-713.718	-164.227	0.388	-0.018
-712.704	29.911	-0.255	-0.221
-711.689	65.218	-0.114	-0.117
-710.675	-134.530	-0.275	-0.034
-709.660	-23.222	0.301	0.184
-708.645	800.000	0.028	0.123
-707.631	-53.168	-0.342	0.160
-706.616	-39.724	-0.185	-0.098
-705.602	-81.712	-0.529	-0.177
-704.587	4.000	-0.237	-0.176
-703.572	35.566	-0.128	0.114
-702.558	393.506	0.139	-0.293
-701.543	-106.666	0.370	-0.084
-700.529	-148.699	0.357	0.029
-699.514	-200.000	0.350	-0.001
-698.499	-136.367	-0.377	0.045
-697.485	-167.610	-0.138	-0.006
-696.470	17.017	-0.129	-0.104
-695.456	84.830	0.201	0.224
-694.441	-34.118	0.212	0.118
-693.426	800.000	-0.060	0.187
-692.412	-42.106	0.204	0.106
-691.397	143.156	0.026	-0.035
-690.383	-114.184	-0.162	-0.032
-689.368	-114.763	-0.226	-0.044
-688.354	28.017	-0.353	-0.302
-687.339	-3.188	-0.072	-0.051
-686.324	-96.964	0.118	0.031
-685.310	51.583	-0.201	-0.194
-684.295	-170.500	-0.363	0.013
-683.281	14.855	0.193	-0.153
-682.266	-65.550	0.071	-0.029
-681.251	498.516	0.219	-0.513
-680.237	-200.000	-0.058	-0.457
-679.222	-156.111	-0.390	-0.025
-678.208	-137.255	-0.322	0.037
-677.193	-53.584	-0.172	-0.080
-676.178	-146.682	-0.358	-0.031
-675.164	477.509	-0.047	-0.108
-674.149	-200.000	-0.033	-0.325
-673.135	-112.921	-0.098	0.020
-672.120	-95.438	-0.405	-0.111
-671.105	-57.097	0.357	-0.160
-670.091	211.220	0.104	-0.167
-669.076	106.156	0.074	-0.090
-668.062	-84.348	0.098	-0.031
-667.047	-74.169	0.335	0.123
-666.032	800.000	0.066	-0.226
-665.018	265.144	0.125	-0.221
-664.003	800.000	-0.032	-0.103
-662.989	-60.716	-0.185	-0.079
-661.974	4.605	-0.189	-0.141
-660.959	753.410	-0.110	-0.301
-659.945	-148.227	-0.442	0.037
-658.930	216.718	0.128	-0.206
-657.916	-200.000	-0.041	-0.224
-656.901	463.957	0.155	-0.352
-655.886	-123.368	-0.175	-0.028
-654.872	800.000	0.059	-0.207
-653.857	-78.422	-0.416	-0.145
-652.843	800.000	-0.020	-0.081
-651.828	-98.700	-0.184	-0.048
-650.814	-3.321	0.194	-0.137
-649.799	-165.666	-0.214	-0.009
-648.784	259.186	-0.041	0.071
-647.770	-119.651	0.080	0.014
-646.755	-200.000	-0.031	0.144
-645.741	75.635	0.057	-0.061
-644.726	-200.000	0.003	0.037
-643.711	-117.496	0.101	-0.018
-642.697	-3.429	-0.165	-0.116
-641.682	-32.961	-0.099	-0.056
-640.668	158.524	-0.132	0.185
-639.653	-200.000	0.015	-0.100
-638.638	-6.720	0.076	-0.052
-637.624	-100.547	0.352	-0.088
-636.609	75.996	-0.177	-0.190
-635.595	325.989	0.114	-0.222
-634.580	-92.039	-0.141	-0.040
-633.565	-132.529	0.082	0.011
-632.551	61.640	-0.375	0.379
-631.536	627.955	-0.140	0.359
-630.522	-90.888	0.148	-0.043
-629.507	-62.318	0.150	0.063
-628.492	-36.935	0.241	-0.131
-627.478	800.000	-0.032	0.113
-626.463	-41.993	-0.140	0.073
-625.449	-32.214	0.274	0.155
-624.434	456.055	-0.052	0.116
-623.419	-26.917	-0.236	0.140
-622.405	-74.220	-0.093	-0.034
-621.390	-69.773	-0.341	-0.132
-620.376	29.730	0.119	-0.103
-619.361	94.460	0.195	0.224
-618.346	-48.664	0.207	-0.101
-617.332	-129.692	0.304	-0.042
-616.317	-79.486	0.128	0.044
-615.303	-200.000	-0.030	0.339
-614.288	16.725	0.108	-0.086
-613.273	74.881	0.245	-0.262
-612.259	74.921	-0.137	0.146
-611.244	-96.337	-0.277	-0.074
-610.230	38.700	-0.012	-0.010
-609.215	-200.000	0.051	0.323
-608.201	10.277	-0.099	0.076
-607.186	-132.306	0.170	-0.022
-606.171	170.117	-0.163	0.236
-605.157	-109.046	0.055	0.012
-604.142	800.000	-0.200	0.587
-603.128	33.042	-0.229	0.201
-602.113	-200.000	0.070	-0.352
-601.098	47.447	-0.031	-0.029
-600.084	-200.000	0.008	-0.241
-599.069	97.599	0.196	0.228
-598.055	800.000	-0.009	0.026
-597.040	221.794	-0.064	0.104
-596.025	52.150	0.061	0.059
-595.011	30.485	0.175	0.152
-593.996	-200.000	-0.006	0.052
-592.982	-130.298	-0.182	0.025
-591.967	-167.715	0.079	0.003
-590.952	800.000	0.103	0.436
-589.938	25.973	-0.051	-0.043
-588.923	97.390	0.051	-0.060
-587.909	52.813	0.312	-0.302
-586.894	-200.000	-0.042	0.234
-585.879	-191.605	0.081	0.001
-584.865	-63.035	-0.097	0.041
-583.850	-200.000	0.002	-0.270
-582.836	182.995	0.194	-0.290
-581.821	-81.225	-0.166	0.056
-580.806	-200.000	-0.008	0.330
-579.792	18.523	0.261	0.211
-578.777	-200.000	0.067	0.000
-577.763	-67.164	-0.304	0.121
-576.748	19.437	-0.227	-0.185
-575.733	49.861	0.254	0.243
-574.719	-75.546	-0.307	-0.111
-573.704	-137.248	-0.153	0.018
-572.690	139.783	0.180	-0.240
-571.675	-132.128	-0.240	0.032
-570.661	-20.716	-0.167	-0.104
-569.646	311.443	-0.028	0.053
-568.631	369.817	0.131	-0.268
-567.617	800.000	-0.045	-0.136
-566.602	-76.488	-0.117	-0.042
-565.588	64.786	-0.136	-0.138
-564.573	-200.000	0.003	-0.206
-563.558	82.405	-0.073	-0.080
-562.544	160.304	-0.148	-0.209
-561.529	-27.712	-0.292	0.171
-560.515	-128.986	-0.189	0.027
-559.500	148.390	0.147	0.201
-558.485	-66.957	-0.081	0.032
-557.471	347.841	0.241	-0.480
-556.456	-80.530	0.168	0.057
-555.442	169.845	-0.125	-0.180
-554.427	-80.016	-0.349	-0.118
-553.412	800.000	0.094	-0.314
-552.398	102.661	0.171	0.203
-551.383	407.918	0.097	0.208
-550.369	-13.270	0.135	0.088
-549.354	-137.728	0.031	0.003
-548.339	-95.717	-0.167	-0.045
-547.325	612.694	0.098	-0.247
-546.310	280.843	0.102	-0.185
-545.296	-32.898	0.075	0.042
-544.281	-10.046	0.220	0.148
-543.266	-70.961	-0.239	0.091
-542.252	800.000	-0.049	-0.154
-541.237	32.583	0.120	-0.105
-540.223	-119.519	0.147	0.026
-539.208	89.698	0.068	-0.077
-538.193	-98.129	-0.092	-0.024
-537.179	-200.000	-0.019	0.098
-536.164	-200.000	0.066	-0.336
-535.150	81.955	0.165	0.180
-534.135	-200.000	0.014	0.367
-533.121	-117.006	0.321	-0.059
-532.106	-200.000	-0.041	0.495
-531.091	-106.489	-0.270	0.061
-530.077	-133.255	0.163	0.021
-529.062	-55.716	-0.300	0.135
-528.048	695.222	-0.063	-0.167
-527.033	78.562	0.114	0.123
-526.018	-18.179	0.302	-0.190
-525.004	92.312	0.219	-0.249
-523.989	356.095	-0.042	0.085
-522.975	73.311	0.038	0.041
-521.960	-140.742	0.272	-0.028
-520.945	-145.422	0.239	0.022
-519.931	-146.437	-0.292	0.026
-518.916	-54.202	0.180	-0.083
-517.902	-98.859	-0.133	-0.034
-516.887	145.461	-0.083	0.113
-515.872	103.035	0.047	-0.055
-514.858	-200.000	0.005	-0.051
-513.843	-112.882	-0.148	-0.030
-512.829	2.128	-0.316	0.230
-511.814	800.000	0.018	0.063
-510.799	46.127	-0.281	0.263
-509.785	-43.780	-0.136	-0.069
-508.770	-200.000	0.048	0.212
-507.756	-93.235	-0.131	-0.037
-506.741	214.663	-0.074	-0.118
-505.726	800.000	0.074	-0.249
-504.712	49.030	0.131	-0.124
-503.697	595.395	-0.035	-0.088
-502.683	341.807	-0.098	-0.193
-501.668	-200.000	0.041	0.214
-500.653	432.567	0.057	0.126
-499.639	264.396	0.039	-0.068
-498.624	-154.977	0.135	0.009
-497.610	-128.084	0.081	-0.012
-496.595	399.047	0.199	-0.419
-495.581	685.168	-0.133	-0.350
-494.566	116.972	0.097	-0.120
-493.551	220.617	0.158	-0.255
-492.537	59.473	-0.130	-0.129
-491.522	800.000	0.022	0.080
-490.508	25.989	-0.289	0.243
-489.493	11.039	-0.156	-0.120
-488.478	-135.316	0.108	0.013
-487.464	46.967	0.177	-0.166
-486.449	-200.000	-0.035	-0.215
-485.435	-200.000	-0.016	0.107
-484.420	369.434	-0.061	-0.124
-483.405	-105.420	0.245	-0.056
-482.391	164.314	-0.210	-0.298
-481.376	800.000	0.022	-0.086
-480.362	111.144	-0.093	0.112
-479.347	-200.000	0.026	-0.149
-478.332	129.238	-0.177	0.228
-477.318	800.000	-0.019	0.076
-476.303	-200.000	-0.001	0.130
-475.289	-200.000	-0.034	-0.348
-474.274	800.000	0.089	-0.254
-473.259	-119.417	0.094	-0.017
-472.245	-200.000	-0.012	-0.105
-471.230	-200.000	0.019	0.123
-470.216	-149.136	-0.374	-0.030
-469.201	470.365	-0.115	-0.260
-468.186	-6.860	0.150	-0.103
-467.172	-152.163	-0.164	0.012
-466.157	15.712	0.330	-0.262
-465.143	-200.000	0.051	-0.382
-464.128	55.740	-0.176	-0.172
-463.113	-0.268	-0.297	0.212
-462.099	-186.872	0.470	0.007
-461.084	-200.000	0.014	0.152
-460.070	-98.654	-0.103	0.026
-459.055	-162.104	-0.535	-0.027
-458.040	-24.486	0.144	0.087
-457.026	162.327	0.116	0.163
-456.011	800.000	0.010	0.039
-454.997	800.000	-0.060	0.173
-453.982	-13.458	0.093	0.061
-452.968	-64.959	-0.213	0.087
-451.953	-109.436	-0.130	0.028
-450.938	-200.000	0.040	-0.233
-449.924	-144.313	-0.134	-0.013
-448.909	-40.684	0.211	-0.110
-447.895	-200.000	-0.012	-0.126
-446.880	118.657	0.178	-0.221
-445.865	-200.000	0.063	-0.303
-444.851	-200.000	0.031	-0.201
-443.836	800.000	0.113	0.344
-442.822	-149.311	-0.077	0.006
-441.807	-17.530	-0.285	-0.180
-440.792	-65.183	-0.084	0.034
-439.778	-107.073	0.141	0.031
-438.763	-109.303	-0.160	0.034
-437.749	-35.630	0.164	0.089
-436.734	-71.237	0.293	-0.111
-435.719	-200.000	-0.013	-0.076
-434.705	71.478	0.276	0.288
-433.690	-103.830	-0.215	0.051
-432.676	-200.000	0.096	0.000
-431.661	21.847	0.086	-0.070
-430.646	-14.114	-0.066	0.043
-429.632	58.567	0.087	0.086
-428.617	11.670	-0.153	-0.118
-427.603	400.451	0.017	-0.036
-426.588	800.000	0.032	0.100
-425.573	-125.747	-0.312	0.047
-424.559	-200.000	0.054	-0.508
-423.544	-20.340	-0.344	0.213
-422.530	-9.839	0.254	-0.170
-421.515	91.220	-0.193	0.218
-420.500	-24.628	-0.288	0.172
-419.486	800.000	0.030	0.114
-418.471	135.803	-0.145	0.190
-417.457	106.320	-0.066	-0.078
-416.442	-35.542	0.252	0.138
-415.428	345.034	-0.121	0.238
-414.413	26.022	-0.025	-0.021
-413.398	44.819	0.192	0.178
-412.384	-200.000	-0.017	-0.193
-411.369	-200.000	-0.020	-0.355
-410.355	-77.488	-0.078	0.027
-409.340	-83.570	-0.291	-0.094
-408.325	87.281	-0.112	0.124
-407.311	800.000	-0.062	0.182
-406.296	-20.018	-0.110	0.068
-405.282	800.000	0.073	-0.296
-404.267	-3.811	0.256	-0.179
-403.252	-30.862	-0.200	-0.114
-402.238	-131.768	0.177	-0.023
-401.223	404.736	-0.171	0.361
-400.209	-200.000	-0.029	-0.394
-399.194	-92.544	-0.334	0.094
-398.179	8.739	-0.070	0.053
-397.165	-141.220	0.435	0.045
-396.150	-8.496	0.090	0.060
-395.136	-85.230	-0.202	-0.063
-394.121	196.640	0.168	-0.256
-393.106	70.050	-0.096	-0.099
-392.092	-6.457	-0.324	-0.222
-391.077	4.256	0.130	0.096
-390.063	256.273	-0.145	0.250
-389.048	-81.587	0.153	0.050
-388.033	10.998	-0.177	-0.136
-387.019	-15.717	0.023	0.015
-386.004	120.775	-0.200	0.250
-384.990	-200.000	0.019	0.175
-383.975	800.000	-0.065	0.268
-382.960	209.451	0.140	-0.220
-381.946	149.894	-0.088	0.120
-380.931	188.381	0.093	0.139
-379.917	800.000	-0.062	0.195
-378.902	713.011	-0.074	-0.196
-377.888	800.000	-0.090	0.339
-376.873	-200.000	0.029	0.228
-375.858	103.978	-0.057	0.067
-374.844	-166.295	0.170	-0.007
-373.829	-83.176	0.042	-0.014
-372.815	219.679	-0.091	-0.146
-371.800	-81.209	0.229	0.076
-370.785	121.165	0.067	-0.084
-369.771	-129.059	0.366	-0.051
-368.756	127.932	-0.202	-0.258
-367.742	-200.000	0.016	0.535
-366.727	-9.495	0.342	0.229
-365.712	-10.935	0.316	0.209
-364.698	-200.000	-0.023	-0.182
-363.683	-101.269	-0.209	0.051
-362.669	800.000	-0.064	-0.183
-361.654	-200.000	0.030	0.216
-360.639	800.000	0.060	0.242
-359.625	481.535	-0.057	0.130
-358.610	95.294	0.113	-0.129
-357.596	17.403	-0.035	0.028
-356.581	-148.970	-0.177	0.014
-355.566	-107.700	-0.208	0.045
-354.552	800.000	-0.065	0.266
-353.537	-109.277	0.155	0.033
-352.523	-44.322	-0.317	-0.159
-351.508	-82.403	0.257	-0.084
-350.493	-71.871	0.030	-0.011
-349.479	-200.000	0.014	0.177
-348.464	7.269	-0.224	-0.168
-347.450	-200.000	0.001	0.071
-346.435	-200.000	-0.015	-0.232
-345.420	-200.000	0.027	0.252
-344.406	-43.834	-0.231	-0.116
-343.391	-200.000	-0.017	0.388
-342.377	39.585	0.215	0.194
-341.362	-200.000	-0.034	0.344
-340.348	-200.000	0.047	-0.286
-339.333	92.307	-0.097	-0.109
-338.318	-73.308	-0.148	0.054
-337.304	29.493	0.224	-0.191
-336.289	-105.185	0.402	-0.092
-335.275	-200.000	-0.057	0.277
-334.260	-123.315	-0.224	0.036
-333.245	-200.000	0.025	-0.169
-332.231	800.000	0.056	-0.208
-331.216	21.450	-0.235	-0.191
-330.202	800.000	0.156	0.583
-329.187	336.412	0.173	0.336
-328.172	428.412	0.138	0.299
-327.158	-65.170	0.112	-0.045
-326.143	-183.490	-0.201	0.003
-325.129	233.948	0.239	0.395
-324.114	-200.000	0.004	0.049
-323.099	-90.196	0.456	0.133
-322.085	233.663	0.039	0.064
-321.070	-9.338	-0.136	-0.091
-320.056	-200.000	0.006	0.082
-319.041	352.013	0.068	0.136
-318.026	800.000	0.093	-0.347
-317.012	-131.871	-0.125	0.016
-315.997	-117.942	0.268	-0.048
-314.983	-150.481	-0.171	-0.013
-313.968	-200.000	-0.009	-0.071
-312.953	110.073	-0.167	0.200
-311.939	27.151	0.313	0.263
-310.924	-36.372	0.199	-0.107
-309.910	-107.033	0.136	0.030
-308.895	800.000	-0.127	-0.367
-307.880	-200.000	0.016	0.132
-306.866	50.418	0.260	0.246
-305.851	-200.000	0.020	-0.367
-304.837	-197.727	-0.212	0.001
-303.822	-108.999	0.219	0.047
-302.807	800.000	0.046	0.131
-301.793	15.025	-0.220	-0.172
-300.778	-102.207	-0.195	-0.047
-299.764	800.000	-0.034	0.099
-298.749	101.979	-0.199	-0.233
-297.735	800.000	-0.098	-0.324
-296.720	-177.348	0.202	0.005
-295.705	-73.331	-0.016	-0.006
-294.691	30.955	-0.042	0.036
-293.676	-79.571	0.221	0.075
-292.662	-21.675	0.126	-0.077
-291.647	-200.000	-0.005	-0.152
-290.632	800.000	-0.040	-0.118
-289.618	-200.000	0.066	0.538
-288.603	-200.000	-0.029	0.189
-287.589	-200.000	0.023	0.330
-286.574	800.000	-0.056	-0.223
-285.559	63.054	-0.249	-0.249
-284.545	184.531	-0.118	-0.175
-283.530	800.000	0.071	-0.244
-282.516	179.538	0.105	0.153
-281.501	-67.975	-0.095	0.037
-280.486	-44.655	0.421	0.210
-279.472	86.999	0.259	-0.286
-278.457	38.942	-0.249	0.223
-277.443	-200.000	-0.026	-0.263
-276.428	-41.680	0.145	0.075
-275.413	-121.922	0.336	0.055
-274.399	153.716	0.222	0.304
-273.384	-37.302	-0.176	0.094
-272.370	-200.000	-0.009	-0.093
-271.355	617.424	-0.086	0.215
-270.340	-61.392	0.019	0.008
-269.326	-92.308	0.178	-0.050
-268.311	-200.000	-0.065	-0.345
-267.297	800.000	-0.094	-0.394
-266.282	363.168	-0.097	0.195
-265.267	233.066	0.113	0.185
-264.253	2.568	-0.122	0.088
-263.238	-66.525	0.142	0.056
-262.224	-104.364	-0.240	0.056
-261.209	166.910	0.048	0.069
-260.195	-43.839	0.486	-0.244
-259.180	-200.000	-0.058	-0.347
-258.165	-60.267	0.416	-0.177
-257.151	50.601	-0.183	-0.173
-256.136	104.461	0.274	-0.322
-255.122	800.000	0.065	0.260
-254.107	-3.101	-0.465	0.324
-253.092	335.762	-0.098	-0.190
-252.078	15.466	-0.299	-0.235
-251.063	-200.000	-0.055	0.350
-250.049	-200.000	0.016	0.471
-249.034	16.478	-0.144	0.114
-248.019	-110.503	-0.311	0.064
-247.005	-13.504	-0.206	-0.133
-245.990	153.391	-0.111	-0.152
-244.976	-200.000	0.017	-0.095
-243.961	-200.000	0.060	0.275
-242.946	252.240	0.094	0.160
-241.932	134.238	-0.061	0.079
-240.917	-90.291	0.067	0.019
-239.903	-39.898	0.244	-0.127
-238.888	266.090	0.160	0.280
-237.873	-62.756	-0.286	-0.118
-236.859	-67.945	-0.364	0.142
-235.844	-191.188	-0.293	-0.003
-234.830	198.259	0.042	0.065
-233.815	290.539	0.136	0.247
-232.800	-87.754	-0.171	0.052
-231.786	-59.978	-0.284	-0.121
-230.771	-200.000	0.028	-0.211
-229.757	-200.000	-0.017	-0.156
-228.742	166.054	0.070	-0.099
-227.727	800.000	0.095	-0.295
-226.713	-46.422	-0.148	0.072
-225.698	-200.000	-0.008	-0.335
-224.684	-5.238	-0.220	0.151
-223.669	54.033	0.148	-0.142
-222.655	-121.495	0.255	0.042
-221.640	641.186	-0.006	-0.014
-220.625	659.774	0.148	0.380
-219.611	87.830	-0.222	0.245
-218.596	-65.159	0.203	-0.082
-217.582	430.754	-0.260	0.562
-216.567	97.145	-0.052	0.059
-215.552	800.000	0.073	0.219
-214.538	-35.797	-0.067	-0.036
-213.523	-101.071	-0.331	0.081
-212.509	195.402	-0.034	-0.052
-211.494	-111.759	-0.040	0.008
-210.479	-85.713	0.320	-0.099
-209.465	-200.000	0.004	-0.308
-208.450	201.990	0.080	-0.122
-207.436	-200.000	0.039	-0.197
-206.421	114.767	-0.161	0.196
-205.406	-200.000	0.001	-0.021
-204.392	219.729	0.114	0.181
-203.377	800.000	0.065	-0.267
-202.363	-200.000	0.064	-0.298
-201.348	-200.000	-0.020	-0.122
-200.333	107.662	0.116	0.137
-199.319	273.408	-0.040	0.070
-198.304	-10.170	0.116	0.076
-197.290	565.621	0.083	0.200
-196.275	79.880	-0.242	-0.259
-195.260	418.416	-0.151	-0.321
-194.246	123.621	0.074	-0.092
-193.231	453.347	-0.112	-0.248
-192.217	-51.292	-0.125	-0.059
-191.202	800.000	-0.095	-0.380
-190.187	627.273	-0.112	0.281
-189.173	800.000	0.004	0.015
-188.158	216.374	0.210	0.333
-187.144	-200.000	0.036	-0.170
-186.129	800.000	0.120	-0.379
-185.114	-58.572	0.196	-0.085
-184.100	-200.000	0.062	0.342
-183.085	-200.000	-0.033	-0.237
-182.071	52.767	-0.240	-0.228
-181.056	87.556	-0.149	-0.165
-180.042	-11.477	0.389	-0.255
-179.027	25.321	-0.226	-0.187
-178.012	-143.811	-0.056	0.005
-176.998	-200.000	0.031	-0.151
-175.983	58.435	0.067	-0.066
-174.969	-55.401	-0.258	-0.115
-173.954	-200.000	0.037	-0.176
-172.939	-134.291	0.359	0.044
-171.925	800.000	0.091	-0.263
-170.910	-25.015	0.307	-0.181
-169.896	-15.995	-0.127	-0.080
-168.881	800.000	0.023	-0.090
-167.866	-53.853	0.153	0.069
-166.852	350.142	-0.057	-0.112
-165.837	-32.128	0.265	0.147
-164.823	122.616	0.120	-0.150
-163.808	50.539	0.244	0.230
-162.793	-27.567	0.267	0.154
-161.779	-102.456	-0.388	-0.092
-160.764	-97.086	-0.276	0.072
-159.750	-200.000	-0.019	0.224
-158.735	40.074	-0.109	-0.097
-157.720	113.516	0.072	-0.087
-156.706	-129.349	0.401	0.055
-155.691	-132.764	0.128	0.016
-154.677	800.000	-0.047	0.160
-153.662	625.462	0.134	0.336
-152.647	324.609	0.072	0.137
-151.633	-13.624	-0.276	0.178
-150.618	-200.000	-0.026	-0.524
-149.604	-153.301	0.238	0.017
-148.589	204.897	-0.076	0.117
-147.574	-112.863	0.235	0.046
-146.560	217.541	-0.315	-0.499
-145.545	668.121	0.045	0.116
-144.531	800.000	-0.079	-0.280
-143.516	800.000	-0.124	-0.409
-142.502	48.635	0.089	-0.083
-141.487	-200.000	0.013	0.171
-140.472	303.218	0.084	0.155
-139.458	800.000	0.029	-0.103
-138.443	76.342	-0.302	-0.318
-137.429	-200.000	0.069	-0.335
-136.414	-200.000	0.012	-0.280
-135.399	347.271	-0.114	-0.223
-134.385	397.874	0.134	0.278
-133.370	-5.190	0.442	-0.302
-132.356	-75.029	-0.182	0.065
-131.341	800.000	0.058	-0.236
-130.326	-8.141	-0.358	-0.240
-129.312	-200.000	0.016	0.217
-128.297	-200.000	0.037	0.202
-127.283	-109.728	0.178	0.037
-126.268	173.004	0.130	-0.186
-125.253	123.111	0.104	-0.129
-124.239	12.052	0.225	-0.172
-123.224	101.569	0.095	-0.110
-122.210	-47.676	0.122	-0.059
