DTS Sentinel unit serial number:	SN413079Multiplexer serial number:	ORYXHardware model number:	OX4-SRSoftware version number:	ORYX F/W v4.00 Oryx Data Collector v3.7.2.0data status	okinstallation	princeton_trtdifferential loss correction	single-endedforward channel	channel 3reverse channel	N/Adate	2019/09/10time	16:26:10forward acquisition time	60.00reverse acquisition time	0.00gamma	496.2192k internal	0.2298k external	0.2298temperature offset calibration	0.9912default loss term (dB/km)	0.3790temperature slope calibration	1.0000multiplexer offset coefficient	1.0000multiplexer slope coefficient	1.0000fibre end	0.00T internal ref (°C)	38.12T ext. ref 1 (°C)	-0.28T ext. ref 2 (°C)	30.80length (m)	temperature (°C)	Stokes	anti-Stokes-747.200	-200.000	0.010	-0.054
-746.185	38.045	-0.206	-0.187
-745.171	32.024	-0.211	-0.185
-744.156	26.091	-0.062	0.053
-743.142	-124.000	0.460	0.074
-742.127	-200.000	-0.006	0.224
-741.112	-200.000	-0.012	-0.362
-740.098	-200.000	0.007	0.037
-739.083	-200.000	-0.057	-0.264
-738.069	229.571	0.137	-0.229
-737.054	291.634	-0.011	0.020
-736.039	176.239	0.026	0.039
-735.025	-31.251	0.401	-0.231
-734.010	-55.895	0.121	-0.055
-732.996	84.008	-0.220	0.245
-731.981	-200.000	0.073	0.512
-730.966	-148.640	-0.450	-0.037
-729.952	522.286	-0.100	-0.239
-728.937	5.700	-0.228	0.172
-727.923	-192.688	-0.272	-0.003
-726.908	-40.030	-0.090	0.048
-725.894	-60.260	-0.214	-0.093
-724.879	235.114	0.108	-0.181
-723.864	77.604	-0.219	-0.238
-722.850	-69.189	-0.288	-0.113
-721.835	-76.372	-0.136	-0.049
-720.821	-18.854	-0.282	0.179
-719.806	-116.845	0.200	-0.037
-718.791	28.071	0.280	0.241
-717.777	800.000	0.031	-0.120
-716.762	-151.347	-0.058	-0.004
-715.748	-200.000	-0.022	-0.138
-714.733	-90.101	-0.412	-0.122
-713.718	-141.255	0.300	0.031
-712.704	354.568	0.154	0.313
-711.689	-138.857	-0.167	-0.019
-710.675	-114.630	0.201	0.039
-709.660	-87.987	-0.237	-0.073
-708.645	-113.841	-0.153	0.030
-707.631	41.508	-0.098	-0.090
-706.616	-200.000	0.031	-0.193
-705.602	-200.000	-0.016	-0.383
-704.587	-34.431	0.139	-0.078
-703.572	-83.801	-0.193	0.063
-702.558	431.939	-0.171	-0.379
-701.543	-96.310	0.253	-0.068
-700.529	502.982	-0.099	0.233
-699.514	89.923	-0.174	-0.198
-698.499	436.580	-0.010	-0.023
-697.485	-135.681	-0.224	-0.027
-696.470	-79.123	-0.471	0.163
-695.456	225.953	-0.105	0.173
-694.441	100.279	0.197	0.233
-693.426	784.162	-0.103	-0.287
-692.412	18.281	0.106	-0.086
-691.397	178.641	-0.146	-0.218
-690.383	-71.973	-0.211	-0.080
-689.368	800.000	-0.020	-0.063
-688.354	59.341	-0.199	0.200
-687.339	-200.000	0.063	0.000
-686.324	-49.023	-0.097	0.047
-685.310	-200.000	-0.011	-0.148
-684.295	800.000	0.008	0.024
-683.281	-16.858	0.075	0.048
-682.266	-104.927	0.197	0.046
-681.251	-103.071	-0.128	-0.031
-680.237	-172.062	0.257	0.008
-679.222	-43.301	-0.242	-0.124
-678.208	-76.052	0.216	0.078
-677.193	-74.164	0.225	0.083
-676.178	-111.002	-0.069	-0.014
-675.164	105.360	0.133	-0.160
-674.149	40.337	0.260	-0.238
-673.135	-200.000	-0.049	-0.288
-672.120	794.709	-0.059	-0.165
-671.105	-85.936	0.041	-0.013
-670.091	660.623	0.090	0.236
-669.076	199.777	0.116	-0.181
-668.062	-200.000	-0.053	0.291
-667.047	354.192	0.140	0.284
-666.032	800.000	0.108	0.453
-665.018	-85.991	0.356	0.112
-664.003	-34.681	0.315	0.175
-662.989	800.000	-0.080	-0.230
-661.974	150.706	-0.071	-0.098
-660.959	-96.854	0.171	0.046
-659.945	17.604	-0.134	0.108
-658.930	-200.000	-0.002	0.203
-657.916	-96.733	-0.168	-0.045
-656.901	687.305	0.106	-0.282
-655.886	-171.438	-0.056	-0.002
-654.872	43.536	-0.339	0.315
-653.857	-191.177	0.069	-0.001
-652.843	-115.029	-0.216	-0.042
-651.828	276.900	-0.123	0.222
-650.814	-104.917	-0.493	-0.115
-649.799	80.278	-0.094	0.102
-648.784	-200.000	0.027	-0.250
-647.770	-83.119	0.199	0.065
-646.755	440.546	0.076	0.168
-645.741	-147.026	0.304	-0.027
-644.726	102.734	-0.080	-0.095
-643.711	354.090	0.065	0.132
-642.697	2.842	0.062	-0.045
-641.682	740.485	-0.045	0.123
-640.668	-159.886	0.178	0.010
-639.653	-200.000	-0.050	-0.282
-638.638	-122.165	-0.272	0.045
-637.624	167.106	0.295	-0.426
-636.609	-21.047	0.094	-0.058
-635.595	-76.894	-0.244	0.087
-634.580	137.386	0.166	0.221
-633.565	-200.000	0.019	-0.328
-632.551	-200.000	0.032	-0.336
-631.536	-24.238	-0.292	-0.177
-630.522	-200.000	0.341	0.001
-629.507	25.338	0.238	-0.201
-628.492	94.908	-0.107	0.123
-627.478	-174.554	-0.459	-0.013
-626.463	-139.237	-0.436	0.048
-625.449	55.141	0.247	-0.243
-624.434	-53.050	0.272	-0.127
-623.419	-138.002	-0.113	0.013
-622.405	-8.155	0.047	-0.032
-621.390	571.113	0.068	-0.169
-620.376	161.629	-0.048	-0.069
-619.361	156.188	-0.170	0.238
-618.346	-31.418	-0.067	0.038
-617.332	132.509	-0.101	0.133
-616.317	800.000	-0.189	0.666
-615.303	302.765	0.072	0.136
-614.288	-200.000	0.023	0.122
-613.273	-61.431	0.053	-0.023
-612.259	233.219	0.104	0.174
-611.244	-53.997	0.098	0.045
-610.230	-158.908	-0.282	0.016
-609.215	178.411	0.169	-0.251
-608.201	-42.703	-0.158	0.082
-607.186	-38.433	-0.136	-0.073
-606.171	-200.000	0.010	-0.348
-605.157	-105.684	-0.187	-0.043
-604.142	178.323	-0.116	-0.172
-603.128	26.858	0.186	0.158
-602.113	751.125	-0.034	0.093
-601.098	-96.966	0.343	-0.091
-600.084	223.597	-0.159	-0.260
-599.069	-108.066	0.306	-0.067
-598.055	800.000	0.119	-0.489
-597.040	16.218	0.261	-0.209
-596.025	-141.078	-0.107	0.011
-595.011	317.150	0.177	0.341
-593.996	-200.000	-0.013	-0.152
-592.982	-131.835	0.203	0.027
-591.967	-122.631	-0.125	-0.021
-590.952	-153.387	-0.145	-0.010
-589.938	-32.707	0.019	-0.011
-588.923	-3.153	0.096	-0.068
-587.909	-200.000	-0.010	0.058
-586.894	542.161	-0.054	0.130
-585.879	800.000	-0.095	0.415
-584.865	-64.797	0.306	0.126
-583.850	52.557	-0.020	0.020
-582.836	-200.000	-0.026	-0.354
-581.821	80.587	0.145	-0.159
-580.806	-193.187	0.150	0.001
-579.792	1.299	-0.078	-0.057
-578.777	-66.973	-0.174	0.070
-577.763	173.899	-0.100	0.147
-576.748	-200.000	-0.018	0.225
-575.733	-200.000	0.006	-0.066
-574.719	-98.600	0.171	-0.044
-573.704	-119.475	-0.293	-0.052
-572.690	287.776	-0.079	0.144
-571.675	4.188	0.357	-0.265
-570.661	209.064	0.173	0.275
-569.646	41.202	0.269	-0.247
-568.631	-104.281	-0.083	0.019
-567.617	49.641	-0.168	-0.160
-566.602	711.932	0.061	0.165
-565.588	165.607	-0.231	-0.331
-564.573	158.673	0.153	-0.215
-563.558	-200.000	0.024	-0.248
-562.544	-18.609	-0.279	-0.176
-561.529	-200.000	0.019	0.262
-560.515	-187.072	0.159	-0.002
-559.500	-151.240	-0.453	0.034
-558.485	151.783	0.195	0.269
-557.471	371.027	0.027	0.055
-556.456	-200.000	-0.001	0.222
-555.442	496.550	0.054	0.125
-554.427	-200.000	-0.049	-0.241
-553.412	-200.000	0.034	0.155
-552.398	-200.000	0.003	-0.054
-551.383	800.000	-0.147	-0.418
-550.369	-150.515	-0.166	-0.013
-549.354	800.000	0.075	0.221
-548.339	-144.611	-0.256	0.024
-547.325	-3.715	-0.034	-0.024
-546.310	-90.325	-0.139	0.041
-545.296	-56.113	0.079	0.036
-544.281	178.083	0.011	-0.016
-543.266	69.384	0.130	-0.136
-542.252	62.732	0.188	0.191
-541.237	-75.573	0.116	-0.042
-540.223	19.755	-0.115	0.094
-539.208	800.000	0.105	0.305
-538.193	800.000	0.104	0.321
-537.179	800.000	0.045	0.173
-536.164	-149.751	-0.218	-0.017
-535.150	-200.000	0.013	-0.134
-534.135	-135.925	0.222	-0.027
-533.121	800.000	0.017	0.052
-532.106	126.837	-0.007	-0.008
-531.091	-39.347	0.080	-0.042
-530.077	-84.264	0.090	-0.029
-529.062	-69.821	-0.258	-0.100
-528.048	425.280	0.095	0.206
-527.033	-80.937	0.209	0.070
-526.018	187.181	-0.301	-0.455
-525.004	685.709	0.082	-0.217
-523.989	145.223	-0.147	0.199
-522.975	-50.001	-0.120	0.058
-521.960	800.000	0.111	0.323
-520.945	260.902	-0.187	0.327
-519.931	-73.833	-0.229	0.084
-518.916	-128.064	0.249	0.036
-517.902	-103.036	0.146	-0.035
-516.887	800.000	0.037	0.120
-515.872	-200.000	-0.045	-0.342
-514.858	-62.666	-0.279	-0.117
-513.843	67.417	0.084	0.087
-512.829	-52.866	0.213	-0.099
-511.814	-60.036	0.210	0.091
-510.799	-37.121	-0.017	0.009
-509.785	283.778	-0.224	0.408
-508.770	298.496	-0.053	-0.099
-507.756	-23.127	-0.325	0.198
-506.741	-200.000	-0.015	0.078
-505.726	-77.969	0.163	0.057
-504.712	15.211	-0.289	-0.229
-503.697	-52.541	0.108	0.050
-502.683	461.111	0.032	0.072
-501.668	-47.064	-0.087	-0.043
-500.653	-169.630	-0.415	0.015
-499.639	-72.586	0.040	-0.015
-498.624	324.385	0.067	0.129
-497.610	120.233	-0.202	-0.254
-496.595	-79.583	0.373	-0.127
-495.581	654.336	0.222	-0.575
-494.566	197.574	-0.070	-0.108
-493.551	-200.000	0.029	0.255
-492.537	-95.546	0.297	0.080
-491.522	121.544	-0.194	-0.245
-490.508	-200.000	0.007	-0.172
-489.493	80.098	-0.101	-0.110
-488.478	-113.890	-0.164	-0.032
-487.464	-64.425	-0.222	0.091
-486.449	-9.670	-0.156	-0.105
-485.435	-138.848	0.324	0.036
-484.420	-79.601	0.211	-0.072
-483.405	-200.000	0.009	-0.265
-482.391	-106.432	0.322	0.073
-481.376	240.460	-0.164	0.276
-480.362	-122.698	-0.472	-0.077
-479.347	-13.483	-0.440	0.288
-478.332	459.868	0.047	-0.105
-477.318	-200.000	0.034	0.234
-476.303	800.000	0.079	0.226
-475.289	349.519	0.037	0.073
-474.274	-56.046	0.364	-0.164
-473.259	160.213	-0.134	0.188
-472.245	800.000	0.054	0.168
-471.230	-40.532	0.029	0.015
-470.216	-182.626	0.256	0.005
-469.201	-138.286	-0.106	-0.012
-468.186	131.862	0.040	-0.052
-467.172	114.004	-0.072	-0.088
-466.157	60.580	0.120	-0.120
-465.143	200.034	-0.106	0.164
-464.128	-21.243	-0.147	0.090
-463.113	-4.402	-0.101	0.071
-462.099	226.242	-0.043	-0.070
-461.084	252.349	0.138	-0.238
-460.070	281.665	0.040	-0.072
-459.055	246.916	0.063	0.107
-458.040	232.930	-0.079	-0.131
-457.026	-200.000	-0.025	0.219
-456.011	58.635	0.097	-0.096
-454.997	373.470	-0.084	-0.173
-453.982	226.631	-0.133	0.218
-452.968	567.429	-0.120	-0.295
-451.953	29.626	0.253	-0.217
-450.938	-200.000	0.025	0.262
-449.924	247.775	0.099	0.169
-448.909	3.490	0.288	-0.212
-447.895	-94.467	-0.097	0.027
-446.880	-200.000	0.081	-0.406
-445.865	800.000	0.093	0.353
-444.851	-125.637	-0.197	-0.030
-443.836	-105.163	0.371	-0.085
-442.822	-58.433	-0.311	0.136
-441.807	800.000	-0.055	-0.207
-440.792	-76.660	-0.135	0.048
-439.778	337.872	-0.067	-0.131
-438.763	-90.682	-0.198	-0.058
-437.749	800.000	0.111	-0.374
-436.734	-76.419	-0.177	0.063
-435.719	67.191	-0.061	0.063
-434.705	111.542	0.095	-0.116
-433.690	-43.895	-0.154	-0.078
-432.676	-200.000	-0.062	-0.359
-431.661	-200.000	-0.060	-0.276
-430.646	-200.000	0.040	-0.367
-429.632	-199.359	0.425	-0.002
-428.617	-19.098	-0.093	0.058
-427.603	800.000	0.083	0.272
-426.588	-66.038	-0.167	0.067
-425.573	-200.000	-0.019	-0.100
-424.559	-126.430	0.373	-0.056
-423.544	800.000	-0.105	0.370
-422.530	-200.000	0.000	-0.040
-421.515	49.269	-0.230	-0.218
-420.500	671.380	0.153	-0.400
-419.486	-129.861	0.240	0.033
-418.471	-200.000	0.031	0.176
-417.457	42.073	0.081	0.074
-416.442	276.253	0.106	-0.190
-415.428	-200.000	-0.013	0.087
-414.413	-98.130	-0.069	-0.018
-413.398	800.000	0.053	-0.199
-412.384	-123.341	-0.276	0.044
-411.369	179.826	0.206	-0.304
-410.355	52.887	-0.211	-0.203
-409.340	-200.000	-0.044	0.307
-408.325	-101.865	-0.116	0.028
-407.311	103.507	0.181	0.214
-406.296	-200.000	0.004	-0.156
-405.282	-178.454	-0.157	0.004
-404.267	-200.000	-0.016	0.233
-403.252	-126.202	-0.264	-0.040
-402.238	-162.116	0.082	0.004
-401.223	792.592	-0.016	-0.045
-400.209	59.827	-0.172	-0.171
-399.194	800.000	-0.067	0.251
-398.179	-200.000	0.003	-0.076
-397.165	48.108	-0.203	-0.191
-396.150	-54.261	0.191	-0.087
-395.136	-200.000	0.010	-0.234
-394.121	-127.210	0.053	0.008
-393.106	12.521	0.298	0.232
-392.092	800.000	-0.082	0.248
-391.077	-138.824	-0.202	0.022
-390.063	-91.389	-0.366	-0.105
-389.048	-57.384	-0.123	0.054
-388.033	-95.949	-0.453	0.121
-387.019	127.130	0.053	-0.067
-386.004	346.860	0.081	0.161
-384.990	-200.000	0.041	0.218
-383.975	-122.058	-0.194	-0.032
-382.960	27.411	0.124	-0.105
-381.946	120.647	0.175	-0.219
-380.931	15.336	-0.067	0.053
-379.917	800.000	-0.038	0.113
-378.902	100.393	-0.134	0.156
-377.888	560.719	0.215	-0.524
-376.873	-98.662	0.102	0.026
-375.858	-18.614	0.459	0.288
-374.844	-200.000	-0.014	-0.067
-373.829	737.042	0.106	-0.285
-372.815	-20.794	0.172	0.106
-371.800	-4.524	-0.217	0.151
-370.785	32.378	-0.143	-0.125
-369.771	130.446	0.079	0.101
-368.756	-55.991	-0.145	-0.065
-367.742	74.540	0.339	-0.359
-366.727	-74.352	-0.325	-0.118
-365.712	-141.104	0.461	-0.047
-364.698	258.637	-0.208	0.361
-363.683	-200.000	0.009	-0.054
-362.669	42.386	0.382	0.349
-361.654	-103.516	0.146	0.034
-360.639	800.000	-0.077	0.335
-359.625	-134.447	-0.260	-0.032
-358.610	800.000	-0.032	0.103
-357.596	-23.147	0.326	0.197
-356.581	-200.000	-0.011	0.102
-355.566	800.000	0.092	-0.386
-354.552	13.692	-0.161	0.126
-353.537	-5.064	-0.243	0.168
-352.523	-26.378	0.266	-0.157
-351.508	800.000	-0.064	-0.232
-350.493	-53.266	-0.196	0.090
-349.479	190.051	-0.076	0.115
-348.464	96.864	0.044	0.050
-347.450	630.499	-0.115	-0.292
-346.435	26.297	0.029	-0.025
-345.420	800.000	-0.079	0.267
-344.406	-114.354	-0.202	0.039
-343.391	800.000	0.019	0.057
-342.377	228.968	-0.093	0.153
-341.362	42.090	0.142	-0.129
-340.348	-160.741	0.290	-0.015
-339.333	-191.117	-0.287	0.003
-338.318	122.368	0.212	-0.266
-337.304	44.964	0.344	0.319
-336.289	7.617	-0.196	0.147
-335.275	791.521	0.076	0.210
-334.260	160.967	-0.095	-0.134
-333.245	-112.814	0.492	-0.098
-332.231	371.308	0.056	-0.114
-331.216	800.000	0.083	-0.308
-330.202	-200.000	0.012	0.202
-329.187	-96.419	0.200	-0.053
-328.172	-200.000	0.007	-0.173
-327.158	138.568	0.129	0.170
-326.143	120.281	-0.116	0.145
-325.129	26.763	-0.170	-0.143
-324.114	115.602	-0.059	0.072
-323.099	-45.687	-0.180	0.089
-322.085	-70.219	0.248	-0.095
-321.070	-144.459	-0.016	-0.001
-320.056	-178.782	0.118	-0.003
-319.041	-186.790	-0.096	0.001
-318.026	222.867	0.093	-0.150
-317.012	512.740	0.172	-0.403
-315.997	185.171	0.207	-0.309
-314.983	119.006	0.062	0.077
-313.968	-82.467	-0.172	0.056
-312.953	211.641	-0.146	0.230
-311.939	-142.834	0.282	0.028
-310.924	324.753	0.118	0.226
-309.910	-74.557	-0.099	-0.036
-308.895	-122.158	0.179	-0.029
-307.880	-200.000	0.033	-0.181
-306.866	-200.000	0.018	0.194
-305.851	-53.920	-0.298	0.136
-304.837	112.977	0.112	-0.136
-303.822	98.422	0.257	-0.297
-302.807	-149.672	-0.205	0.016
-301.793	-89.681	0.251	0.074
-300.778	187.299	0.163	0.243
-299.764	-113.799	-0.201	-0.039
-298.749	-200.000	0.026	0.133
-297.735	-200.000	0.054	0.252
-296.720	543.218	-0.151	0.361
-295.705	-132.655	-0.207	-0.027
-294.691	517.541	0.059	0.137
-293.676	12.292	-0.127	0.098
-292.662	-101.486	-0.176	0.043
-291.647	-88.993	-0.125	0.037
-290.632	28.966	-0.184	-0.156
-289.618	101.937	-0.161	-0.189
-288.603	-5.887	0.137	-0.094
-287.589	21.208	-0.162	0.132
-286.574	258.186	0.082	0.142
-285.559	-31.091	0.458	0.259
-284.545	-139.823	-0.216	0.023
-283.530	-200.000	0.028	0.313
-282.516	554.455	-0.016	0.038
-281.501	683.417	0.112	0.293
-280.486	7.824	-0.165	0.124
-279.472	-200.000	-0.023	-0.340
-278.457	-114.250	-0.391	0.076
-277.443	166.236	-0.059	0.084
-276.428	675.648	0.095	0.246
-275.413	800.000	-0.032	0.111
-274.399	478.766	-0.080	-0.182
-273.384	81.635	0.074	-0.081
-272.370	800.000	-0.009	-0.033
-271.355	-127.814	-0.162	0.023
-270.340	-200.000	-0.052	0.239
-269.326	-171.349	0.079	0.003
-268.311	8.815	0.070	0.053
-267.297	27.313	-0.170	0.143
-266.282	-123.580	-0.283	0.045
-265.267	-200.000	0.069	0.331
-264.253	763.140	0.056	0.152
-263.238	397.440	0.030	-0.064
-262.224	278.316	-0.101	-0.180
-261.209	-120.371	0.094	0.016
-260.195	84.176	0.276	-0.302
-259.180	42.544	-0.139	-0.127
-258.165	-200.000	-0.017	0.435
-257.151	-122.393	-0.184	0.030
-256.136	-0.382	-0.141	-0.100
-255.122	151.398	-0.108	-0.147
-254.107	-200.000	0.025	0.208
-253.092	277.923	0.078	-0.140
-252.078	-200.000	-0.024	0.183
-251.063	-37.927	0.147	0.078
-250.049	445.923	0.066	-0.146
-249.034	-119.777	-0.121	-0.021
-248.019	-17.793	-0.065	0.041
-247.005	-200.000	0.028	-0.185
-245.990	-87.930	-0.139	0.042
-244.976	-175.722	-0.175	0.005
-243.961	-200.000	-0.036	-0.224
-242.946	31.050	0.239	-0.206
-241.932	-142.850	-0.184	-0.018
-240.917	-25.897	0.214	0.126
-239.903	89.299	-0.024	0.027
-238.888	-200.000	-0.029	-0.355
-237.873	-56.698	0.179	0.079
-236.859	121.206	0.099	0.123
-235.844	35.255	0.209	-0.183
-234.830	-99.093	-0.160	-0.041
-233.815	800.000	-0.024	0.067
-232.800	-40.211	0.289	-0.150
-231.786	264.959	0.099	0.173
-230.771	-200.000	-0.017	-0.119
-229.757	-200.000	0.075	-0.483
-228.742	5.468	-0.141	-0.104
-227.727	-97.230	0.200	-0.052
-226.713	84.540	-0.280	-0.307
-225.698	800.000	-0.091	-0.290
-224.684	-99.532	0.394	-0.099
-223.669	158.968	0.076	-0.105
-222.655	73.449	0.023	-0.024
-221.640	5.439	0.190	-0.140
-220.625	-195.334	0.223	-0.002
-219.611	128.621	-0.209	-0.266
-218.596	-49.782	0.121	-0.058
-217.582	-79.170	-0.252	0.086
-216.567	16.983	0.314	-0.249
-215.552	-9.717	-0.138	0.092
-214.538	-166.407	-0.291	-0.012
-213.523	163.672	0.090	0.126
-212.509	377.061	0.094	0.192
-211.494	556.804	-0.151	-0.365
-210.479	78.756	0.141	0.150
-209.465	31.196	-0.152	0.130
-208.450	-31.403	-0.212	0.119
-207.436	-200.000	0.002	-0.226
-206.421	-78.598	0.101	0.035
-205.406	-47.890	-0.084	0.041
-204.392	-200.000	0.003	-0.139
-203.377	-200.000	0.003	0.074
-202.363	-143.096	0.091	-0.009
-201.348	-200.000	0.030	0.231
-200.333	-11.697	-0.262	0.172
-199.319	309.154	0.044	-0.082
-198.304	-65.498	-0.321	0.129
-197.290	-200.000	0.038	-0.214
-196.275	23.474	0.250	-0.206
-195.260	-23.141	0.213	0.128
-194.246	-47.869	-0.273	0.132
-193.231	-6.715	-0.148	0.101
-192.217	800.000	-0.106	0.351
-191.202	504.944	-0.137	0.318
-190.187	800.000	0.075	-0.218
-189.173	7.415	-0.059	-0.044
-188.158	-139.835	0.253	0.027
-187.144	230.378	0.142	-0.232
-186.129	-200.000	-0.033	0.320
-185.114	-200.000	-0.011	0.437
-184.100	-83.557	0.352	0.112
-183.085	-200.000	-0.007	-0.096
-182.071	183.339	-0.148	0.219
-181.056	800.000	0.081	-0.261
-180.042	98.683	0.055	0.064
-179.027	-145.521	0.210	-0.019
-178.012	-200.000	-0.031	0.180
-176.998	119.831	0.104	-0.129
-175.983	52.389	0.242	0.231
-174.969	800.000	0.058	0.176
-173.954	-44.002	-0.144	-0.072
-172.939	-145.275	0.164	0.015
-171.925	62.455	-0.173	0.172
-170.910	-200.000	0.016	-0.105
-169.896	96.626	0.018	-0.020
-168.881	335.781	-0.199	0.385
-167.866	37.766	0.222	-0.197
-166.852	-73.173	0.284	-0.104
-165.837	800.000	0.055	0.192
-164.823	800.000	0.036	0.112
-163.808	800.000	-0.050	-0.165
-162.793	-200.000	-0.013	0.268
-161.779	18.955	-0.292	-0.234
-160.764	227.198	0.121	0.197
-159.750	631.406	-0.171	0.431
-158.735	77.125	-0.137	0.145
-157.720	-20.917	-0.305	0.187
-156.706	8.100	-0.146	-0.109
-155.691	800.000	-0.067	0.191
-154.677	-113.207	0.134	0.026
-153.662	800.000	-0.085	-0.346
-152.647	-70.980	-0.211	0.079
-151.633	-200.000	-0.016	-0.274
-150.618	-200.000	-0.393	0.000
-149.604	52.383	0.013	0.012
-148.589	-200.000	-0.033	0.369
-147.574	-115.893	-0.086	-0.016
-146.560	-136.408	-0.241	-0.028
-145.545	201.562	0.089	-0.137
-144.531	-106.948	0.165	-0.036
-143.516	263.985	0.175	-0.304
-142.502	86.051	0.281	-0.309
-141.487	800.000	-0.146	-0.524
-140.472	-26.511	-0.171	0.100
-139.458	-108.239	-0.166	-0.036
-138.443	-200.000	-0.020	-0.371
-137.429	-107.801	0.126	-0.027
-136.414	-200.000	-0.030	0.201
-135.399	-54.080	0.241	0.109
-134.385	-101.674	-0.398	-0.096
-133.370	192.111	0.059	-0.089
-132.356	23.724	-0.170	0.140
-131.341	168.439	0.133	0.189
-130.326	115.935	-0.261	0.319
-129.312	132.044	-0.090	0.115
-128.297	-53.612	0.253	0.115
-127.283	-200.000	0.015	0.069
-126.268	-50.781	0.147	-0.069
-125.253	-200.000	-0.018	-0.083
-124.239	34.568	-0.235	-0.205
-123.224	-154.724	0.155	-0.010
-122.210	-200.000	0.001	0.223
