DTS Sentinel unit serial number:	SN413079Multiplexer serial number:	ORYXHardware model number:	OX4-SRSoftware version number:	ORYX F/W v4.00 Oryx Data Collector v3.7.2.0data status	okinstallation	princeton_trtdifferential loss correction	single-endedforward channel	channel 3reverse channel	N/Adate	2019/09/10time	16:30:10forward acquisition time	60.00reverse acquisition time	0.00gamma	496.2192k internal	0.2299k external	0.2299temperature offset calibration	0.9915default loss term (dB/km)	0.3790temperature slope calibration	1.0000multiplexer offset coefficient	1.0000multiplexer slope coefficient	1.0000fibre end	0.00T internal ref (°C)	38.06T ext. ref 1 (°C)	-0.28T ext. ref 2 (°C)	30.36length (m)	temperature (°C)	Stokes	anti-Stokes-747.200	479.501	-0.089	-0.207
-746.185	120.457	-0.130	-0.165
-745.171	-170.084	0.329	-0.012
-744.156	413.448	-0.029	0.064
-743.142	-99.361	-0.089	-0.023
-742.127	14.425	-0.070	-0.056
-741.112	-144.558	0.139	-0.013
-740.098	-29.352	-0.295	0.172
-739.083	-133.775	-0.345	-0.044
-738.069	-25.756	-0.314	0.189
-737.054	37.034	0.211	-0.191
-736.039	9.202	0.267	-0.206
-735.025	600.161	0.085	0.214
-734.010	-144.012	-0.109	-0.010
-732.996	69.642	-0.157	-0.165
-731.981	90.292	0.073	-0.083
-730.966	136.361	-0.099	-0.132
-729.952	25.512	0.094	0.080
-728.937	776.874	-0.063	0.176
-727.923	57.241	0.152	-0.151
-726.908	300.089	0.078	-0.147
-725.894	-200.000	-0.003	0.158
-724.879	800.000	-0.060	0.201
-723.864	-190.370	0.076	0.001
-722.850	-5.973	-0.114	-0.079
-721.835	-55.749	-0.187	-0.085
-720.821	102.376	-0.179	-0.214
-719.806	35.043	0.149	0.133
-718.791	-120.161	-0.261	0.045
-717.777	800.000	0.038	-0.140
-716.762	-200.000	-0.037	0.242
-715.748	-139.530	0.198	0.022
-714.733	22.863	0.009	-0.008
-713.718	-113.928	0.126	0.025
-712.704	-200.000	-0.047	-0.263
-711.689	213.378	0.118	-0.190
-710.675	-23.631	-0.288	-0.176
-709.660	103.923	0.117	0.140
-708.645	-94.106	0.197	0.055
-707.631	209.517	-0.124	-0.197
-706.616	-90.683	0.215	0.063
-705.602	-200.000	0.027	-0.272
-704.587	-116.066	-0.258	-0.049
-703.572	305.977	0.042	0.080
-702.558	-76.947	0.340	-0.121
-701.543	-200.000	0.055	-0.400
-700.529	148.987	-0.092	-0.127
-699.514	-96.535	0.055	-0.015
-698.499	95.627	-0.208	-0.241
-697.485	385.160	-0.035	-0.073
-696.470	-97.664	-0.083	-0.022
-695.456	47.402	0.189	-0.180
-694.441	-200.000	-0.004	-0.102
-693.426	-40.092	0.088	-0.047
-692.412	8.049	-0.187	-0.143
-691.397	-53.051	0.200	-0.093
-690.383	-101.799	-0.155	-0.038
-689.368	-200.000	-0.012	-0.166
-688.354	-142.451	0.063	-0.006
-687.339	-145.457	-0.030	0.003
-686.324	10.808	0.115	-0.089
-685.310	-34.994	0.078	0.043
-684.295	-7.635	-0.107	0.074
-683.281	-192.178	0.295	-0.003
-682.266	800.000	-0.075	0.316
-681.251	-141.562	-0.243	0.025
-680.237	-200.000	-0.025	-0.208
-679.222	110.747	0.042	-0.051
-678.208	800.000	0.054	0.210
-677.193	-200.000	-0.044	0.339
-676.178	54.239	-0.202	0.198
-675.164	49.741	0.039	-0.038
-674.149	-113.719	-0.367	0.073
-673.135	-0.997	0.302	0.217
-672.120	82.938	-0.124	0.137
-671.105	-56.769	0.153	0.069
-670.091	111.102	0.096	-0.118
-669.076	176.734	-0.121	-0.179
-668.062	800.000	-0.041	0.151
-667.047	-120.964	-0.311	-0.053
-666.032	-14.899	-0.230	-0.150
-665.018	800.000	0.036	-0.157
-664.003	134.790	0.093	0.123
-662.989	633.702	-0.072	0.186
-661.974	-29.475	0.272	0.158
-660.959	387.759	0.109	-0.228
-659.945	245.025	0.073	0.125
-658.930	41.328	-0.152	0.140
-657.916	67.080	0.141	0.146
-656.901	800.000	0.071	0.262
-655.886	38.375	-0.259	-0.235
-654.872	176.309	-0.157	-0.232
-653.857	-75.172	0.150	-0.055
-652.843	11.623	-0.221	-0.172
-651.828	-200.000	0.103	-0.486
-650.814	-149.627	-0.289	-0.023
-649.799	299.428	-0.205	-0.385
-648.784	-69.811	0.085	-0.033
-647.770	138.927	0.163	0.217
-646.755	800.000	-0.076	-0.222
-645.741	-57.405	0.318	0.142
-644.726	-56.065	0.313	-0.142
-643.711	714.568	0.080	-0.215
-642.697	-88.312	-0.025	-0.008
-641.682	145.793	0.171	-0.233
-640.668	101.947	-0.180	0.213
-639.653	726.297	-0.021	-0.056
-638.638	-200.000	0.001	-0.067
-637.624	-111.062	-0.347	0.072
-636.609	-152.335	-0.333	-0.024
-635.595	185.162	0.097	-0.146
-634.580	-63.982	0.078	-0.033
-633.565	272.122	0.134	0.240
-632.551	-200.000	-0.004	0.510
-631.536	71.508	0.031	-0.033
-630.522	800.000	0.009	0.035
-629.507	-131.647	0.241	0.032
-628.492	207.873	0.083	0.131
-627.478	293.428	-0.080	0.149
-626.463	-200.000	-0.015	0.083
-625.449	-4.393	-0.192	0.135
-624.434	800.000	-0.104	-0.412
-623.419	-200.000	-0.023	-0.149
-622.405	106.297	-0.183	0.220
-621.390	177.058	-0.148	0.219
-620.376	-116.791	-0.212	-0.039
-619.361	-61.383	-0.212	0.091
-618.346	-91.197	-0.249	-0.072
-617.332	-141.893	-0.536	0.054
-616.317	-56.328	0.054	0.025
-615.303	-84.846	0.194	0.062
-614.288	-98.183	0.208	0.054
-613.273	-171.738	-0.198	-0.007
-612.259	263.361	0.138	-0.243
-611.244	800.000	0.033	-0.097
-610.230	-0.319	-0.032	-0.023
-609.215	-100.428	0.175	-0.044
-608.201	-95.871	0.062	0.017
-607.186	222.193	0.157	0.256
-606.171	-200.000	-0.058	0.322
-605.157	167.559	-0.187	-0.270
-604.142	-68.558	-0.246	-0.097
-603.128	-71.697	-0.370	-0.140
-602.113	99.679	-0.115	0.135
-601.098	800.000	0.077	-0.273
-600.084	13.670	-0.160	0.126
-599.069	-92.651	-0.045	0.013
-598.055	-21.173	-0.119	-0.074
-597.040	800.000	0.094	0.327
-596.025	168.355	-0.234	-0.339
-595.011	13.079	-0.149	-0.117
-593.996	-200.000	-0.018	0.213
-592.982	94.486	-0.103	-0.119
-591.967	163.603	0.097	-0.138
-590.952	17.464	0.176	0.142
-589.938	-200.000	0.028	-0.278
-588.923	-145.110	0.375	-0.035
-587.909	-157.366	-0.025	-0.002
-586.894	-43.810	-0.103	0.053
-585.879	-108.066	-0.277	0.061
-584.865	-118.696	-0.116	0.021
-583.850	-151.030	0.118	0.009
-582.836	140.518	0.322	-0.431
-581.821	49.819	-0.029	-0.027
-580.806	71.977	-0.047	0.049
-579.792	63.151	0.233	-0.237
-578.777	164.290	0.068	-0.098
-577.763	-200.000	-0.091	-0.465
-576.748	-30.621	-0.182	0.104
-575.733	19.685	0.075	0.061
-574.719	800.000	0.024	-0.102
-573.704	689.402	-0.035	-0.093
-572.690	-100.353	0.244	0.061
-571.675	-200.000	0.042	-0.215
-570.661	85.028	-0.189	-0.210
-569.646	800.000	0.042	-0.164
-568.631	-200.000	-0.032	-0.146
-567.617	-50.413	0.169	0.081
-566.602	-102.212	-0.370	-0.090
-565.588	-50.551	0.337	-0.161
-564.573	-52.797	-0.145	-0.068
-563.558	-130.358	0.124	0.017
-562.544	23.473	-0.225	0.188
-561.529	602.947	-0.019	0.047
-560.515	564.678	-0.186	0.456
-559.500	156.486	-0.065	0.091
-558.485	-13.439	0.190	-0.125
-557.471	75.986	-0.177	0.190
-556.456	-200.000	-0.007	0.048
-555.442	-77.358	0.356	-0.125
-554.427	-13.264	0.311	-0.204
-553.412	-200.000	-0.001	0.049
-552.398	-11.185	-0.057	0.038
-551.383	580.997	0.023	0.057
-550.369	-88.281	-0.043	0.013
-549.354	152.453	0.080	0.111
-548.339	568.388	0.071	0.176
-547.325	383.986	0.087	0.182
-546.310	7.777	-0.138	-0.105
-545.296	-200.000	0.029	-0.406
-544.281	-200.000	0.071	-0.390
-543.266	-162.578	-0.032	0.002
-542.252	37.537	0.302	0.271
-541.237	639.607	-0.203	-0.524
-540.223	-200.000	-0.010	-0.201
-539.208	-109.427	0.090	0.019
-538.193	-200.000	-0.009	-0.285
-537.179	-200.000	0.009	0.055
-536.164	800.000	-0.076	0.306
-535.150	11.836	-0.172	0.134
-534.135	207.956	0.060	-0.095
-533.121	-30.709	0.331	-0.190
-532.106	-200.000	0.036	0.219
-531.091	203.147	-0.232	-0.363
-530.077	51.859	0.155	0.149
-529.062	800.000	0.030	0.112
-528.048	-27.668	-0.273	0.160
-527.033	-200.000	0.019	0.264
-526.018	405.046	-0.137	-0.292
-525.004	-153.664	0.058	-0.004
-523.989	-200.000	-0.013	0.094
-522.975	-150.545	0.336	0.026
-521.960	76.709	-0.369	0.396
-520.945	298.541	0.108	0.202
-519.931	226.141	0.173	0.283
-518.916	405.229	0.028	-0.060
-517.902	16.769	0.216	-0.173
-516.887	132.957	-0.195	-0.255
-515.872	681.197	0.070	-0.185
-514.858	44.799	0.277	0.258
-513.843	-43.423	-0.319	-0.163
-512.829	800.000	-0.039	0.143
-511.814	42.788	0.100	0.092
-510.799	-200.000	0.011	0.318
-509.785	94.872	-0.120	-0.138
-508.770	342.876	0.123	0.244
-507.756	7.977	0.066	0.050
-506.741	-11.893	0.074	-0.049
-505.726	-200.000	-0.061	-0.338
-504.712	138.638	0.259	-0.343
-503.697	-75.576	0.178	0.064
-502.683	-64.762	0.125	0.051
-501.668	-107.803	0.065	-0.014
-500.653	44.019	-0.063	0.058
-499.639	443.761	0.078	0.173
-498.624	169.820	-0.078	0.113
-497.610	564.173	0.070	0.172
-496.595	-90.731	0.255	-0.074
-495.581	249.766	-0.157	0.270
-494.566	-141.839	0.128	-0.013
-493.551	9.060	-0.244	0.186
-492.537	7.272	-0.191	-0.144
-491.522	-147.293	-0.122	-0.010
-490.508	-87.398	0.210	-0.064
-489.493	-20.697	-0.261	-0.162
-488.478	27.125	0.203	0.172
-487.464	-154.022	0.269	-0.018
-486.449	-200.000	0.064	0.443
-485.435	-200.000	0.035	0.299
-484.420	800.000	-0.022	-0.074
-483.405	800.000	0.070	0.224
-482.391	-160.831	0.451	-0.024
-481.376	800.000	0.023	0.088
-480.362	-109.880	0.189	-0.040
-479.347	56.614	-0.110	0.108
-478.332	217.013	0.059	0.095
-477.318	610.529	-0.074	0.186
-476.303	-8.065	-0.222	-0.151
-475.289	534.386	0.147	0.352
-474.274	-167.935	0.197	0.008
-473.259	40.507	-0.172	0.156
-472.245	-149.101	-0.411	0.033
-471.230	800.000	0.046	-0.139
-470.216	-87.616	0.161	0.049
-469.201	8.696	-0.064	0.049
-468.186	800.000	-0.084	0.260
-467.172	-44.866	0.186	-0.094
-466.157	-120.690	-0.221	0.038
-465.143	21.276	0.158	0.130
-464.128	800.000	-0.029	-0.108
-463.113	223.304	-0.092	-0.149
-462.099	-200.000	-0.034	0.197
-461.084	-43.426	-0.212	-0.108
-460.070	42.494	-0.095	-0.087
-459.055	2.143	0.233	0.170
-458.040	169.601	0.123	-0.178
-457.026	209.667	-0.148	-0.234
-456.011	96.522	0.161	0.186
-454.997	162.546	0.165	0.234
-453.982	-200.000	0.010	0.344
-452.968	-200.000	-0.023	0.120
-451.953	118.162	-0.122	-0.152
-450.938	11.807	-0.021	-0.016
-449.924	-200.000	0.031	0.211
-448.909	-71.040	-0.173	-0.065
-447.895	-82.198	-0.128	-0.042
-446.880	-45.106	-0.117	-0.058
-445.865	15.999	0.081	-0.065
-444.851	-62.084	-0.124	0.052
-443.836	39.483	-0.170	-0.154
-442.822	-54.387	0.354	0.162
-441.807	238.614	0.097	0.163
-440.792	77.428	0.221	0.237
-439.778	-31.325	-0.062	0.035
-438.763	-200.000	0.008	-0.107
-437.749	-63.093	-0.394	-0.164
-436.734	346.584	0.055	0.110
-435.719	-200.000	0.005	0.260
-434.705	-71.441	-0.135	0.051
-433.690	-23.710	-0.104	-0.063
-432.676	31.444	-0.105	-0.091
-431.661	-140.019	0.246	-0.026
-430.646	567.895	-0.096	-0.235
-429.632	298.848	0.058	0.108
-428.617	-200.000	-0.065	0.434
-427.603	31.304	-0.156	0.135
-426.588	-147.959	0.378	0.032
-425.573	-185.962	0.255	0.004
-424.559	16.161	0.173	0.138
-423.544	252.789	-0.080	-0.137
-422.530	326.364	0.227	-0.438
-421.515	77.964	0.092	-0.099
-420.500	51.630	-0.084	-0.081
-419.486	122.668	-0.295	-0.371
-418.471	270.798	-0.061	0.109
-417.457	-200.000	0.007	0.098
-416.442	14.582	-0.056	-0.044
-415.428	105.271	0.104	-0.124
-414.413	277.479	-0.250	0.449
-413.398	33.090	-0.320	-0.280
-412.384	115.208	0.114	-0.140
-411.369	-32.601	-0.533	0.299
-410.355	-119.321	0.292	0.051
-409.340	-200.000	0.026	-0.156
-408.325	61.338	-0.041	0.041
-407.311	-141.229	0.219	0.022
-406.296	-200.000	0.023	-0.135
-405.282	-200.000	0.020	0.109
-404.267	124.670	0.256	-0.324
-403.252	-73.426	0.363	-0.134
-402.238	-179.706	0.317	0.007
-401.223	105.417	0.096	0.114
-400.209	-200.000	-0.033	-0.173
-399.194	-45.661	0.214	-0.107
-398.179	-52.689	-0.166	0.077
-397.165	109.997	0.063	0.076
-396.150	29.393	0.200	-0.171
-395.136	-77.996	0.282	0.098
-394.121	6.027	-0.273	-0.204
-393.106	800.000	-0.046	0.201
-392.092	433.508	-0.104	0.227
-391.077	33.140	0.112	-0.097
-390.063	67.397	0.119	0.122
-389.048	-200.000	-0.020	0.120
-388.033	-155.370	0.128	-0.008
-387.019	-200.000	-0.024	-0.315
-386.004	-64.524	-0.147	0.060
-384.990	800.000	0.072	-0.248
-383.975	131.896	-0.118	0.153
-382.960	-32.960	0.279	-0.156
-381.946	-104.100	0.231	0.054
-380.931	-200.000	0.049	-0.401
-379.917	800.000	-0.023	0.066
-378.902	168.012	-0.102	0.146
-377.888	-129.207	0.147	-0.021
-376.873	-184.331	0.213	0.004
-375.858	98.356	-0.050	-0.057
-374.844	-78.838	0.341	-0.117
-373.829	138.050	-0.132	0.174
-372.815	71.975	0.081	0.085
-371.800	-200.000	-0.006	0.028
-370.785	-102.934	0.165	-0.039
-369.771	88.636	0.020	0.022
-368.756	-89.985	0.326	0.096
-367.742	800.000	-0.108	-0.323
-366.727	199.488	0.215	-0.332
-365.712	-200.000	0.032	0.177
-364.698	-74.014	-0.166	-0.061
-363.683	1.426	-0.069	0.050
-362.669	-57.757	-0.061	0.027
-361.654	-59.683	0.420	0.181
-360.639	-84.830	-0.031	0.010
-359.625	-43.027	0.250	0.127
-358.610	-95.022	0.238	-0.065
-357.596	-122.272	-0.445	0.073
-356.581	-86.047	-0.366	0.114
-355.566	-59.203	0.111	-0.048
-354.552	-101.468	-0.192	-0.047
-353.537	632.970	0.059	0.150
-352.523	-200.000	-0.019	-0.235
-351.508	212.714	-0.067	-0.106
-350.493	800.000	-0.008	-0.034
-349.479	-200.000	0.013	-0.206
-348.464	111.950	-0.148	0.180
-347.450	89.455	-0.228	0.255
-346.435	-200.000	0.024	0.119
-345.420	-127.099	-0.127	0.019
-344.406	51.119	-0.188	-0.179
-343.391	-200.000	0.026	-0.273
-342.377	23.553	-0.198	0.164
-341.362	26.089	-0.237	0.199
-340.348	-21.717	0.018	-0.011
-339.333	-59.780	0.224	0.096
-338.318	-138.700	0.157	-0.017
-337.304	271.889	-0.181	-0.321
-336.289	107.936	-0.110	-0.132
-335.275	352.537	-0.085	-0.169
-334.260	-46.881	0.070	-0.034
-333.245	800.000	0.016	-0.069
-332.231	-186.004	-0.073	-0.001
-331.216	-200.000	0.029	-0.176
-330.202	191.422	-0.195	0.294
-329.187	800.000	0.110	-0.410
-328.172	-200.000	0.040	0.244
-327.158	-176.318	0.325	-0.009
-326.143	-160.071	-0.034	0.002
-325.129	-26.757	-0.054	-0.032
-324.114	800.000	-0.033	0.095
-323.099	-200.000	0.002	0.088
-322.085	-103.797	-0.256	-0.060
-321.070	-2.749	0.180	-0.127
-320.056	101.661	0.067	0.078
-319.041	166.659	-0.275	-0.392
-318.026	-180.026	-0.366	0.008
-317.012	-188.088	0.028	-0.000
-315.997	800.000	-0.021	0.091
-314.983	118.442	0.079	0.098
-313.968	-200.000	0.011	-0.147
-312.953	71.825	0.132	0.138
-311.939	287.234	-0.148	-0.269
-310.924	115.321	-0.144	-0.177
-309.910	-101.277	0.066	-0.016
-308.895	-64.460	0.288	-0.117
-307.880	459.160	-0.185	0.413
-306.866	-117.416	-0.287	0.052
-305.851	569.398	0.062	-0.152
-304.837	-79.269	0.196	-0.067
-303.822	616.524	-0.060	-0.152
-302.807	-2.177	0.149	-0.105
-301.793	-32.256	0.222	-0.124
-300.778	-60.404	0.184	0.079
-299.764	-200.000	0.019	0.241
-298.749	-200.000	0.028	-0.126
-297.735	442.538	-0.072	-0.158
-296.720	-200.000	0.049	-0.311
-295.705	-153.866	0.277	-0.019
-294.691	9.604	0.070	-0.053
-293.676	-27.192	0.136	0.080
-292.662	-24.984	-0.194	-0.116
-291.647	-49.776	-0.237	-0.113
-290.632	-25.519	0.142	-0.084
-289.618	-200.000	0.004	-0.146
-288.603	-126.569	0.104	0.016
-287.589	-12.298	0.086	-0.056
-286.574	9.765	-0.160	0.122
-285.559	-92.193	-0.315	-0.089
-284.545	8.794	-0.027	-0.020
-283.530	80.667	-0.093	-0.101
-282.516	-107.772	-0.226	0.049
-281.501	-116.835	0.313	-0.057
-280.486	57.762	0.137	0.135
-279.472	-200.000	-0.021	0.274
-278.457	-200.000	-0.040	0.261
-277.443	-109.312	-0.131	-0.028
-276.428	-200.000	0.017	0.164
-275.413	-56.440	-0.150	-0.067
-274.399	400.704	-0.029	0.061
-273.384	-79.166	0.094	-0.032
-272.370	800.000	-0.078	-0.272
-271.355	100.529	-0.146	0.170
-270.340	-34.319	0.246	-0.135
-269.326	104.920	-0.089	-0.105
-268.311	-179.430	-0.292	-0.006
-267.297	800.000	0.073	0.246
-266.282	-73.563	0.253	-0.092
-265.267	144.226	-0.112	-0.150
-264.253	-49.823	-0.104	0.050
-263.238	60.471	0.246	-0.244
-262.224	207.847	-0.074	0.116
-261.209	-200.000	0.062	0.434
-260.195	-200.000	-0.045	0.276
-259.180	41.562	0.132	-0.119
-258.165	220.306	0.156	-0.251
-257.151	-200.000	-0.022	0.258
-256.136	81.395	-0.135	-0.147
-255.122	-94.981	-0.335	0.091
-254.107	57.322	0.060	0.059
-253.092	274.573	0.087	0.154
-252.078	-200.000	0.012	0.125
-251.063	171.888	0.060	-0.086
-250.049	316.068	-0.102	-0.193
-249.034	206.118	-0.026	-0.040
-248.019	800.000	-0.035	0.124
-247.005	-144.524	0.161	0.015
-245.990	-101.799	0.231	-0.056
-244.976	314.807	-0.180	0.340
-243.961	141.277	-0.058	-0.077
-242.946	430.228	-0.126	0.273
-241.932	-146.956	-0.087	0.007
-240.917	-91.197	-0.132	-0.038
-239.903	215.175	0.105	0.166
-238.888	-28.905	0.117	0.067
-237.873	-200.000	-0.003	-0.149
-236.859	3.278	-0.121	0.088
-235.844	-200.000	0.020	-0.196
-234.830	148.804	-0.149	-0.202
-233.815	-53.479	-0.168	0.077
-232.800	800.000	0.065	0.199
-231.786	56.658	0.068	0.067
-230.771	-150.942	-0.030	-0.002
-229.757	81.568	-0.143	-0.155
-228.742	229.504	0.173	0.283
-227.727	108.639	-0.108	-0.128
-226.713	-44.132	0.167	-0.084
-225.698	-141.997	-0.205	0.020
-224.684	28.809	0.029	-0.025
-223.669	645.337	0.058	0.148
-222.655	-200.000	0.046	-0.246
-221.640	-200.000	0.011	0.179
-220.625	3.555	-0.019	0.014
-219.611	-129.870	0.320	0.044
-218.596	-118.106	-0.191	-0.034
-217.582	-20.245	-0.194	-0.120
-216.567	-34.448	-0.199	0.109
-215.552	-78.906	0.289	-0.098
-214.538	252.867	0.275	-0.469
-213.523	-51.392	0.192	0.090
-212.509	-158.863	0.245	-0.014
-211.494	-147.090	-0.060	0.005
-210.479	-32.396	-0.259	0.145
-209.465	-49.143	0.295	-0.141
-208.450	44.572	0.152	0.140
-207.436	-29.861	0.081	-0.046
-206.421	65.710	-0.022	0.022
-205.406	-7.588	-0.226	-0.153
-204.392	34.173	-0.165	-0.144
-203.377	-68.226	0.324	0.126
-202.363	-158.696	0.050	-0.003
-201.348	310.503	0.206	0.384
-200.333	171.575	0.025	-0.035
-199.319	800.000	-0.100	0.282
-198.304	-90.899	0.095	0.027
-197.290	800.000	-0.037	0.110
-196.275	-107.556	-0.244	-0.053
-195.260	46.472	0.082	-0.076
-194.246	422.760	-0.141	0.302
-193.231	142.099	-0.193	0.256
-192.217	-105.875	-0.172	-0.039
-191.202	-126.292	-0.049	0.007
-190.187	-84.059	0.326	0.103
-189.173	30.482	-0.070	-0.060
-188.158	-30.628	0.158	0.089
-187.144	9.947	0.108	0.082
-186.129	78.170	-0.119	-0.126
-185.114	214.049	-0.033	0.052
-184.100	235.454	0.126	-0.208
-183.085	800.000	0.040	0.144
-182.071	-1.461	-0.221	0.156
-181.056	-200.000	0.021	0.141
-180.042	-200.000	-0.019	0.205
-179.027	-19.271	0.021	-0.013
-178.012	-200.000	-0.044	0.230
-176.998	-138.294	0.061	-0.007
-175.983	-0.825	0.232	-0.164
-174.969	42.217	-0.213	0.193
-173.954	40.567	-0.064	-0.058
-172.939	81.071	-0.117	-0.126
-171.925	122.354	-0.020	0.025
-170.910	-200.000	-0.050	0.232
-169.896	-40.881	-0.145	-0.075
-168.881	-200.000	-0.032	-0.578
-167.866	-95.302	-0.249	-0.067
-166.852	-57.839	-0.182	-0.079
-165.837	113.587	-0.136	0.165
-164.823	-200.000	-0.054	-0.251
-163.808	-79.184	0.151	-0.051
-162.793	-68.136	-0.381	-0.148
-161.779	-137.781	-0.362	-0.041
-160.764	800.000	0.041	-0.166
-159.750	-118.481	0.189	0.033
-158.735	-200.000	-0.020	0.169
-157.720	-200.000	0.025	-0.124
-156.706	-200.000	0.003	-0.070
-155.691	-78.220	-0.180	-0.062
-154.677	-194.939	0.088	0.001
-153.662	-200.000	0.018	0.198
-152.647	-200.000	-0.043	-0.256
-151.633	-26.290	-0.187	0.110
-150.618	24.448	-0.056	0.046
-149.604	-106.442	-0.046	-0.010
-148.589	6.807	-0.336	0.249
-147.574	622.070	0.083	-0.208
-146.560	-110.062	0.132	-0.028
-145.545	-78.237	0.177	0.061
-144.531	-138.022	0.180	0.020
-143.516	-47.002	-0.121	0.059
-142.502	800.000	0.040	0.133
-141.487	800.000	-0.116	0.325
-140.472	-68.087	-0.409	0.159
-139.458	-200.000	-0.042	-0.220
-138.443	33.844	0.239	-0.207
-137.429	496.454	0.049	-0.112
-136.414	245.079	-0.141	-0.236
-135.399	-156.978	-0.267	0.016
-134.385	-89.798	0.164	0.048
-133.370	166.592	0.132	-0.187
-132.356	-52.488	0.166	0.076
-131.341	103.452	0.275	0.321
-130.326	-186.325	0.171	0.002
-129.312	-200.000	-0.043	0.374
-128.297	-200.000	-0.061	0.469
-127.283	-154.485	-0.216	-0.014
-126.268	237.930	0.177	0.293
-125.253	189.798	-0.216	0.322
-124.239	-183.347	0.133	0.002
-123.224	-158.968	-0.237	-0.013
-122.210	-109.699	-0.302	-0.063
-121.195	271.175	-0.118	-0.208
