DTS Sentinel unit serial number:	SN413079Multiplexer serial number:	ORYXHardware model number:	OX4-SRSoftware version number:	ORYX F/W v4.00 Oryx Data Collector v3.7.2.0data status	okinstallation	princeton_trtdifferential loss correction	single-endedforward channel	channel 3reverse channel	N/Adate	2019/09/10time	16:06:10forward acquisition time	60.00reverse acquisition time	0.00gamma	496.2192k internal	0.2298k external	0.2298temperature offset calibration	0.9909default loss term (dB/km)	0.3790temperature slope calibration	1.0000multiplexer offset coefficient	1.0000multiplexer slope coefficient	1.0000fibre end	0.00T internal ref (°C)	38.27T ext. ref 1 (°C)	-0.26T ext. ref 2 (°C)	32.20length (m)	temperature (°C)	Stokes	anti-Stokes-747.200	12.714	-0.075	0.059
-746.185	97.956	0.111	0.131
-745.171	-71.307	-0.310	-0.119
-744.156	57.782	-0.128	-0.128
-743.142	-200.000	0.010	-0.119
-742.127	249.301	0.103	0.178
-741.112	-200.000	-0.004	0.063
-740.098	-14.421	0.231	0.152
-739.083	27.110	0.186	0.159
-738.069	63.938	-0.125	0.129
-737.054	-104.036	0.503	-0.120
-736.039	-114.661	-0.243	0.047
-735.025	-107.974	0.397	0.088
-734.010	800.000	0.125	-0.496
-732.996	-200.000	0.009	-0.335
-731.981	39.247	0.049	0.045
-730.966	-2.031	-0.296	-0.213
-729.952	800.000	0.030	-0.117
-728.937	-19.523	-0.175	-0.111
-727.923	291.426	-0.097	-0.180
-726.908	-200.000	-0.023	-0.380
-725.894	-200.000	-0.019	-0.163
-724.879	-200.000	-0.003	-0.074
-723.864	-122.092	-0.079	-0.013
-722.850	800.000	0.045	0.160
-721.835	68.300	-0.082	-0.086
-720.821	628.484	-0.145	-0.373
-719.806	-200.000	-0.028	-0.217
-718.791	-200.000	-0.001	-0.129
-717.777	-55.605	-0.294	0.134
-716.762	-38.540	0.175	0.095
-715.748	408.684	0.066	0.142
-714.733	-31.644	-0.107	0.061
-713.718	-200.000	0.053	-0.291
-712.704	-43.534	-0.280	-0.144
-711.689	800.000	0.058	0.208
-710.675	23.327	0.254	-0.213
-709.660	-12.072	-0.212	-0.141
-708.645	724.614	-0.063	0.170
-707.631	-200.000	-0.005	0.031
-706.616	-79.454	0.280	0.096
-705.602	292.628	0.138	-0.257
-704.587	-90.860	-0.059	-0.017
-703.572	-130.980	0.191	0.026
-702.558	235.964	0.177	-0.299
-701.543	-74.651	-0.173	0.063
-700.529	-43.895	0.171	0.088
-699.514	-16.695	0.079	-0.051
-698.499	-133.015	0.181	-0.023
-697.485	-159.679	-0.234	-0.013
-696.470	-55.067	0.160	-0.073
-695.456	-85.075	-0.235	0.075
-694.441	202.460	0.084	-0.132
-693.426	-65.607	-0.192	-0.078
-692.412	-34.156	0.174	0.097
-691.397	191.858	-0.090	0.138
-690.383	-170.934	0.244	-0.008
-689.368	101.093	-0.078	0.092
-688.354	-200.000	0.032	-0.169
-687.339	177.448	0.096	0.142
-686.324	-55.413	-0.138	0.063
-685.310	800.000	-0.031	0.128
-684.295	-68.487	0.111	0.044
-683.281	63.579	-0.039	-0.040
-682.266	18.085	0.230	0.187
-681.251	-21.816	-0.128	-0.079
-680.237	19.810	-0.035	-0.029
-679.222	-85.105	-0.308	0.098
-678.208	-33.264	-0.076	0.043
-677.193	181.272	0.073	0.109
-676.178	800.000	-0.023	-0.071
-675.164	-124.575	-0.398	-0.063
-674.149	327.598	0.096	-0.187
-673.135	-200.000	-0.007	-0.276
-672.120	74.106	-0.085	-0.091
-671.105	420.774	0.113	-0.247
-670.091	-150.392	-0.178	-0.014
-669.076	800.000	0.089	-0.299
-668.062	-91.788	-0.247	-0.072
-667.047	50.667	-0.239	0.230
-666.032	-164.231	-0.173	0.008
-665.018	353.425	0.117	-0.237
-664.003	444.556	0.041	0.091
-662.989	-44.306	0.202	0.103
-661.974	-109.866	-0.200	-0.043
-660.959	-15.907	0.186	0.120
-659.945	522.097	0.049	-0.116
-658.930	800.000	-0.104	-0.297
-657.916	645.051	-0.027	0.071
-656.901	-20.939	-0.194	0.121
-655.886	-200.000	0.001	-0.093
-654.872	97.462	0.180	0.211
-653.857	438.814	-0.147	0.326
-652.843	-12.359	0.100	0.067
-651.828	-200.000	-0.035	-0.216
-650.814	-1.415	0.114	0.082
-649.799	-40.978	-0.281	0.148
-648.784	-200.000	0.019	0.309
-647.770	-200.000	0.145	0.000
-646.755	794.084	0.045	-0.127
-645.741	-61.872	-0.112	-0.048
-644.726	-5.985	-0.138	0.096
-643.711	107.295	0.264	0.319
-642.697	-48.096	0.075	0.037
-641.682	332.544	0.048	0.094
-640.668	-89.691	0.234	0.070
-639.653	-200.000	0.216	0.000
-638.638	-200.000	-0.217	-0.001
-637.624	-128.825	0.185	-0.026
-636.609	278.732	0.105	-0.191
-635.595	-200.000	-0.026	-0.124
-634.580	-105.741	-0.174	-0.040
-633.565	100.408	-0.041	-0.048
-632.551	-151.751	0.151	-0.011
-631.536	157.131	-0.229	-0.321
-630.522	34.023	-0.102	0.090
-629.507	800.000	0.013	0.048
-628.492	16.113	0.175	-0.140
-627.478	212.245	0.086	0.138
-626.463	-13.435	0.165	0.109
-625.449	800.000	0.074	-0.253
-624.434	-174.269	-0.353	0.010
-623.419	62.944	0.212	0.216
-622.405	-120.368	0.184	-0.032
-621.390	-200.000	0.031	-0.171
-620.376	-62.922	0.159	-0.067
-619.361	800.000	0.072	-0.252
-618.346	-200.000	-0.010	-0.085
-617.332	736.667	0.121	0.330
-616.317	736.889	0.046	0.124
-615.303	800.000	0.035	-0.152
-614.288	-135.724	-0.474	0.057
-613.273	-89.252	0.180	-0.054
-612.259	-37.923	0.267	0.144
-611.244	-112.086	0.135	0.028
-610.230	-43.489	-0.203	0.104
-609.215	203.643	0.142	-0.224
-608.201	-200.000	-0.013	-0.096
-607.186	-200.000	-0.010	0.045
-606.171	-70.907	-0.071	-0.027
-605.157	429.129	0.074	0.163
-604.142	626.347	-0.090	0.232
-603.128	142.774	-0.110	0.148
-602.113	-200.000	0.002	0.133
-601.098	564.746	0.142	0.349
-600.084	-137.087	-0.221	0.026
-599.069	105.755	0.293	0.352
-598.055	6.539	-0.311	-0.235
-597.040	297.631	-0.110	-0.205
-596.025	97.454	-0.031	0.036
-595.011	-200.000	0.257	-0.001
-593.996	-145.456	0.195	-0.018
-592.982	-200.000	-0.122	-0.591
-591.967	-43.256	0.126	0.065
-590.952	363.690	-0.075	0.153
-589.938	800.000	0.064	-0.282
-588.923	157.840	0.249	-0.350
-587.909	-158.817	-0.174	-0.010
-586.894	-5.250	0.141	0.098
-585.879	-176.903	0.225	-0.006
-584.865	-100.460	0.279	0.070
-583.850	323.297	-0.116	-0.224
-582.836	800.000	-0.068	-0.205
-581.821	800.000	0.051	-0.183
-580.806	188.274	0.175	0.266
-579.792	800.000	0.055	-0.198
-578.777	1.368	0.169	-0.123
-577.763	-200.000	-0.016	0.311
-576.748	268.162	-0.037	0.066
-575.733	-59.363	-0.075	-0.033
-574.719	-35.396	-0.302	-0.166
-573.704	-182.783	0.282	-0.005
-572.690	800.000	-0.076	0.337
-571.675	-113.826	-0.102	0.020
-570.661	-92.758	-0.181	-0.051
-569.646	79.518	0.035	-0.038
-568.631	361.301	0.141	-0.286
-567.617	-200.000	0.025	0.147
-566.602	16.690	-0.208	-0.167
-565.588	-110.858	0.089	-0.019
-564.573	15.946	-0.307	0.245
-563.558	28.477	0.222	-0.191
-562.544	-105.963	-0.311	-0.071
-561.529	-110.393	0.267	-0.056
-560.515	-144.157	-0.059	0.006
-559.500	800.000	0.036	-0.121
-558.485	-97.991	-0.089	-0.023
-557.471	-104.489	-0.147	-0.035
-556.456	-153.156	0.162	0.012
-555.442	121.006	0.069	0.088
-554.427	-65.596	0.047	-0.019
-553.412	21.107	-0.114	-0.093
-552.398	-43.779	-0.163	-0.083
-551.383	235.669	0.067	0.112
-550.369	38.928	0.144	-0.131
-549.354	-174.313	-0.303	-0.009
-548.339	-58.268	-0.101	-0.045
-547.325	81.410	0.243	0.266
-546.310	457.549	-0.019	0.043
-545.296	-66.230	-0.426	-0.172
-544.281	-200.000	0.012	0.181
-543.266	-13.637	-0.175	-0.115
-542.252	-200.000	-0.041	0.220
-541.237	269.440	0.013	-0.024
-540.223	800.000	-0.096	0.402
-539.208	401.523	-0.074	0.157
-538.193	76.393	-0.102	-0.110
-537.179	-200.000	0.040	0.196
-536.164	-101.738	0.125	-0.031
-535.150	301.931	0.049	-0.092
-534.135	-144.858	-0.179	-0.017
-533.121	-85.935	-0.164	-0.051
-532.106	21.364	-0.451	-0.371
-531.091	301.038	-0.085	-0.159
-530.077	62.642	0.350	0.354
-529.062	88.212	-0.225	0.252
-528.048	-200.000	-0.021	-0.149
-527.033	-130.232	0.112	0.015
-526.018	151.784	-0.072	-0.099
-525.004	-181.681	0.297	0.006
-523.989	584.821	-0.072	-0.179
-522.975	78.635	-0.186	0.202
-521.960	-48.207	0.100	0.049
-520.945	326.862	-0.164	0.318
-519.931	538.992	0.224	-0.539
-518.916	-155.991	-0.242	-0.016
-517.902	800.000	-0.086	-0.245
-516.887	-47.300	0.166	-0.082
-515.872	-163.250	-0.262	0.013
-514.858	-106.915	0.187	-0.042
-513.843	7.761	0.171	-0.129
-512.829	-115.634	-0.249	-0.047
-511.814	11.025	-0.191	0.148
-510.799	222.881	-0.085	0.138
-509.785	144.816	0.156	-0.211
-508.770	-130.050	-0.175	0.024
-507.756	58.203	-0.154	0.153
-506.741	-200.000	0.068	-0.409
-505.726	381.175	-0.218	-0.452
-504.712	298.837	0.127	-0.237
-503.697	-200.000	0.004	0.049
-502.683	-115.870	-0.179	-0.034
-501.668	800.000	0.050	0.204
-500.653	309.897	0.138	0.262
-499.639	162.787	-0.147	0.209
-498.624	-69.623	0.241	0.093
-497.610	-200.000	0.014	-0.120
-496.595	271.304	0.079	-0.140
-495.581	-200.000	0.027	-0.169
-494.566	-182.473	0.230	-0.004
-493.551	-94.661	-0.246	0.068
-492.537	-117.752	-0.256	0.047
-491.522	-11.491	-0.163	-0.108
-490.508	-157.946	-0.159	0.010
-489.493	800.000	-0.108	-0.404
-488.478	-41.417	-0.194	0.101
-487.464	-200.000	-0.000	-0.298
-486.449	3.387	0.256	-0.188
-485.435	-41.032	-0.139	-0.073
-484.420	-82.424	0.034	-0.011
-483.405	-185.667	-0.446	0.007
-482.391	271.732	-0.244	-0.434
-481.376	-89.286	-0.052	-0.015
-480.362	-200.000	-0.032	-0.234
-479.347	-125.901	0.080	0.012
-478.332	-59.295	-0.153	0.067
-477.318	56.028	-0.136	0.134
-476.303	569.348	0.116	-0.286
-475.289	800.000	-0.070	0.221
-474.274	-155.676	0.222	0.014
-473.259	-26.283	-0.184	0.109
-472.245	21.994	0.302	-0.249
-471.230	161.181	-0.051	-0.072
-470.216	-101.101	0.194	-0.048
-469.201	120.409	0.013	-0.017
-468.186	-200.000	-0.014	0.071
-467.172	-77.467	0.038	0.013
-466.157	186.394	-0.191	-0.288
-465.143	800.000	-0.063	0.243
-464.128	795.889	0.113	-0.314
-463.113	-200.000	-0.021	-0.328
-462.099	-152.419	-0.182	0.013
-461.084	261.657	0.310	0.543
-460.070	-153.590	0.123	-0.009
-459.055	159.554	-0.077	-0.109
-458.040	98.444	0.082	-0.096
-457.026	-79.156	-0.073	-0.025
-456.011	196.711	-0.153	0.235
-454.997	-114.670	0.153	0.029
-453.982	800.000	-0.124	-0.381
-452.968	-200.000	0.056	-0.318
-451.953	800.000	-0.054	-0.217
-450.938	743.609	0.108	-0.293
-449.924	-31.843	-0.342	0.194
-448.909	800.000	-0.022	0.076
-447.895	-200.000	0.016	-0.299
-446.880	-200.000	-0.023	0.389
-445.865	-35.365	-0.314	-0.172
-444.851	56.714	-0.083	0.082
-443.836	-200.000	0.024	0.495
-442.822	16.302	0.416	-0.331
-441.807	-200.000	-0.023	-0.176
-440.792	2.913	-0.262	0.192
-439.778	558.534	0.085	0.208
-438.763	-110.276	0.265	-0.056
-437.749	235.356	-0.090	0.151
-436.734	-46.825	0.134	-0.066
-435.719	46.216	-0.210	0.197
-434.705	-200.000	0.003	0.031
-433.690	-101.348	-0.192	-0.047
-432.676	-99.029	-0.317	0.081
-431.661	-72.773	0.200	0.074
-430.646	57.456	-0.184	-0.182
-429.632	-39.109	0.168	-0.089
-428.617	-200.000	0.055	0.421
-427.603	-153.328	-0.344	-0.024
-426.588	157.490	0.174	0.242
-425.573	-200.000	-0.062	0.553
-424.559	254.015	0.057	0.098
-423.544	-200.000	0.018	0.091
-422.530	800.000	-0.097	0.327
-421.515	-99.124	-0.306	0.078
-420.500	274.199	0.101	-0.181
-419.486	-1.917	0.064	0.045
-418.471	-133.973	-0.054	-0.007
-417.457	-200.000	-0.032	0.266
-416.442	-200.000	-0.067	-0.400
-415.428	623.124	-0.020	0.050
-414.413	-4.874	0.164	0.114
-413.398	-89.835	0.052	-0.015
-412.384	800.000	0.070	-0.250
-411.369	47.774	-0.203	-0.191
-410.355	-140.096	-0.641	-0.068
-409.340	115.352	-0.092	-0.114
-408.325	434.742	0.183	0.400
-407.311	38.510	0.169	0.152
-406.296	-152.917	-0.212	0.015
-405.282	-115.206	0.217	-0.041
-404.267	-91.441	-0.227	-0.065
-403.252	-200.000	0.019	0.411
-402.238	-23.591	-0.094	-0.057
-401.223	225.105	0.154	0.250
-400.209	-200.000	-0.008	0.212
-399.194	194.667	-0.084	-0.129
-398.179	800.000	-0.021	-0.062
-397.165	-74.727	-0.212	-0.077
-396.150	183.903	0.128	0.191
-395.136	29.518	0.121	-0.104
-394.121	-69.945	0.027	0.010
-393.106	-153.125	-0.208	0.015
-392.092	-200.000	0.035	0.182
-391.077	490.540	-0.126	0.291
-390.063	232.949	0.088	-0.145
-389.048	-200.000	0.026	-0.208
-388.033	171.927	0.090	-0.130
-387.019	25.534	-0.048	-0.040
-386.004	-1.599	0.091	0.065
-384.990	-89.163	0.108	-0.032
-383.975	-198.248	0.071	0.000
-382.960	-100.826	0.025	-0.006
-381.946	20.254	0.088	-0.072
-380.931	-200.000	0.235	-0.001
-379.917	-200.000	-0.060	0.294
-378.902	239.049	0.107	0.179
-377.888	-200.000	-0.010	0.118
-376.873	-139.855	-0.123	0.013
-375.858	-18.220	-0.076	0.048
-374.844	-200.000	0.016	-0.112
-373.829	-200.000	-0.028	-0.183
-372.815	-147.261	-0.478	0.041
-371.800	-122.173	-0.065	0.011
-370.785	-200.000	0.035	0.160
-369.771	116.872	0.128	0.158
-368.756	50.861	-0.140	-0.133
-367.742	-109.514	-0.246	-0.052
-366.727	-200.000	-0.034	-0.154
-365.712	-200.000	0.036	0.442
-364.698	-145.410	0.065	-0.006
-363.683	-77.908	0.170	0.059
-362.669	-18.100	-0.116	-0.073
-361.654	474.157	0.193	0.437
-360.639	-145.979	0.383	0.034
-359.625	-48.962	0.145	0.070
-358.610	-142.783	-0.198	-0.019
-357.596	-98.285	-0.141	0.036
-356.581	-126.564	-0.375	0.056
-355.566	270.170	0.030	0.054
-354.552	-102.334	-0.154	0.037
-353.537	563.739	0.142	-0.347
-352.523	-31.122	0.149	0.084
-351.508	-103.354	-0.108	-0.026
-350.493	-85.276	-0.348	-0.109
-349.479	-200.000	0.018	0.347
-348.464	-74.575	-0.124	-0.045
-347.450	487.367	0.028	-0.063
-346.435	-26.906	-0.150	0.088
-345.420	-200.000	0.004	-0.116
-344.406	126.194	-0.364	-0.462
-343.391	-63.644	0.144	-0.059
-342.377	-80.448	0.231	0.078
-341.362	-111.883	0.196	0.040
-340.348	-200.000	0.036	-0.179
-339.333	-25.356	-0.276	-0.164
-338.318	-79.514	-0.180	0.061
-337.304	-74.155	-0.149	0.054
-336.289	-200.000	0.034	-0.252
-335.275	373.632	0.073	-0.149
-334.260	-115.547	0.137	0.026
-333.245	391.375	-0.067	-0.139
-332.231	465.506	0.113	0.255
-331.216	229.860	0.134	0.220
-330.202	-200.000	-0.040	0.202
-329.187	75.398	-0.142	-0.151
-328.172	-95.693	0.256	0.069
-327.158	-168.446	-0.250	0.010
-326.143	50.833	-0.222	0.211
-325.129	-93.727	0.392	0.109
-324.114	-165.571	0.194	0.008
-323.099	134.664	-0.100	0.130
-322.085	199.960	-0.063	0.097
-321.070	-22.037	0.184	0.112
-320.056	-200.000	0.000	-0.154
-319.041	16.788	0.279	0.222
-318.026	-61.158	0.204	-0.086
-317.012	-171.607	0.086	-0.003
-315.997	376.794	0.077	0.158
-314.983	-200.000	0.042	-0.428
-313.968	-30.662	0.138	0.078
-312.953	-134.730	-0.282	0.034
-311.939	20.971	0.148	0.121
-310.924	-15.562	-0.245	-0.157
-309.910	-31.729	0.112	-0.063
-308.895	-110.412	-0.243	0.051
-307.880	65.636	0.073	0.074
-306.866	-142.722	-0.313	0.031
-305.851	800.000	0.062	-0.270
-304.837	-15.105	-0.130	0.084
-303.822	-200.000	-0.001	0.380
-302.807	-38.064	0.355	0.189
-301.793	129.709	0.203	0.261
-300.778	-72.731	-0.058	-0.022
-299.764	239.319	0.188	-0.314
-298.749	288.403	-0.138	0.251
-297.735	22.743	0.217	-0.179
-296.720	193.669	-0.122	0.185
-295.705	535.185	-0.042	-0.099
-294.691	52.803	0.273	0.262
-293.676	35.606	-0.067	-0.059
-292.662	144.482	-0.115	0.154
-291.647	-90.437	0.262	0.076
-290.632	99.429	0.059	-0.069
-289.618	-55.311	0.208	-0.094
-288.603	231.886	-0.147	0.242
-287.589	-91.097	-0.111	-0.032
-286.574	-200.000	0.054	-0.261
-285.559	-94.387	0.087	0.024
-284.545	-14.028	-0.195	-0.126
-283.530	-66.252	0.319	0.127
-282.516	-200.000	0.430	0.001
-281.501	-148.269	0.237	-0.020
-280.486	9.238	-0.162	-0.123
-279.472	-132.948	-0.211	-0.027
-278.457	187.703	-0.084	-0.126
-277.443	-102.816	0.302	-0.072
-276.428	24.700	0.236	0.196
-275.413	69.443	0.177	0.183
-274.399	152.973	-0.140	0.191
-273.384	800.000	0.058	0.161
-272.370	-28.580	0.165	-0.095
-271.355	-145.612	0.119	-0.011
-270.340	-32.915	0.201	-0.112
-269.326	77.290	0.140	0.150
-268.311	-49.297	-0.166	-0.080
-267.297	800.000	0.046	-0.134
-266.282	-110.648	0.214	0.044
-265.267	-92.333	0.210	0.059
-264.253	800.000	0.086	0.256
-263.238	93.513	-0.180	-0.204
-262.224	777.066	-0.121	0.332
-261.209	-153.483	-0.043	0.003
-260.195	494.641	0.119	0.274
-259.180	-200.000	0.059	0.399
-258.165	448.401	0.038	0.083
-257.151	41.528	-0.245	-0.222
-256.136	762.787	-0.107	-0.292
-255.122	-60.334	0.177	0.075
-254.107	-200.000	0.002	0.158
-253.092	-18.990	-0.482	0.300
-252.078	43.932	0.401	-0.368
-251.063	-200.000	0.014	-0.312
-250.049	716.047	0.104	-0.276
-249.034	80.991	-0.123	-0.133
-248.019	-42.112	-0.119	-0.061
-247.005	-160.905	-0.486	-0.026
-245.990	320.805	-0.055	-0.105
-244.976	-148.644	-0.037	0.003
-243.961	-124.032	-0.332	0.052
-242.946	-200.000	0.046	-0.225
-241.932	-200.000	-0.049	-0.290
-240.917	800.000	0.040	-0.159
-239.903	384.540	-0.066	-0.135
-238.888	-200.000	0.073	-0.394
-237.873	-172.094	-0.164	0.005
-236.859	52.576	-0.258	0.247
-235.844	-200.000	-0.067	0.300
-234.830	-200.000	0.047	-0.344
-233.815	-73.196	-0.187	-0.069
-232.800	71.723	-0.126	0.131
-231.786	-119.707	0.150	-0.026
-230.771	-69.313	0.141	-0.054
-229.757	-92.945	0.302	0.084
-228.742	-174.593	-0.323	0.009
-227.727	279.999	0.082	-0.146
-226.713	800.000	0.035	0.130
-225.698	-119.317	-0.067	-0.012
-224.684	107.301	0.316	-0.376
-223.669	1.761	0.024	0.017
-222.655	159.001	0.047	0.066
-221.640	651.239	-0.033	-0.084
-220.625	-74.511	0.180	-0.065
-219.611	-157.401	0.271	-0.016
-218.596	14.812	-0.242	0.190
-217.582	-200.000	-0.062	0.319
-216.567	-92.846	-0.395	0.110
-215.552	-200.000	-0.041	-0.294
-214.538	612.642	0.225	0.562
-213.523	-200.000	-0.002	-0.039
-212.509	-23.515	0.199	0.120
-211.494	468.485	0.027	-0.061
-210.479	76.483	-0.216	0.229
-209.465	-95.083	-0.339	0.091
-208.450	-43.932	0.222	0.111
-207.436	-68.167	0.221	0.086
-206.421	-81.026	0.219	-0.072
-205.406	126.203	-0.093	-0.118
-204.392	162.315	-0.117	0.164
-203.377	-123.662	0.184	0.029
-202.363	-32.773	-0.137	-0.076
-201.348	-96.355	0.092	0.024
-200.333	800.000	-0.081	0.243
-199.319	800.000	0.058	0.198
-198.304	411.817	0.137	0.292
-197.290	14.844	0.188	-0.147
-196.275	-47.509	0.137	0.067
-195.260	-97.565	0.227	-0.059
-194.246	-52.761	-0.145	0.067
-193.231	658.418	0.137	0.352
-192.217	-172.794	0.305	0.010
-191.202	24.060	-0.154	-0.127
-190.187	-200.000	-0.004	-0.054
-189.173	157.679	0.097	-0.134
-188.158	346.067	0.157	0.308
-187.144	-130.407	0.303	0.041
-186.129	-103.611	0.080	0.019
-185.114	457.742	-0.125	-0.277
-184.100	-34.388	-0.360	-0.197
-183.085	210.116	0.106	-0.167
-182.071	-3.222	0.122	-0.085
-181.056	409.917	-0.041	0.087
-180.042	-56.606	-0.206	-0.091
-179.027	528.243	0.145	-0.342
-178.012	-200.000	-0.047	-0.249
-176.998	7.199	0.187	-0.139
-175.983	267.650	0.096	-0.168
-174.969	-200.000	-0.009	0.089
-173.954	-133.566	0.516	0.065
-172.939	-200.000	-0.001	0.087
-171.925	-6.507	0.179	0.122
-170.910	230.132	0.068	-0.111
-169.896	56.710	0.300	-0.292
-168.881	-168.963	0.068	-0.003
-167.866	800.000	-0.046	0.172
-166.852	0.051	-0.161	0.114
-165.837	0.433	0.151	-0.108
-164.823	-59.189	0.119	-0.051
-163.808	24.019	-0.098	-0.081
-162.793	-158.666	0.145	-0.008
-161.779	704.541	0.078	-0.206
-160.764	71.387	-0.185	-0.191
-159.750	-200.000	0.010	0.051
-158.735	63.789	-0.414	0.415
-157.720	800.000	-0.037	0.102
-156.706	135.581	-0.081	-0.105
-155.691	255.674	-0.121	-0.208
-154.677	-180.058	-0.314	0.007
-153.662	-76.224	0.197	-0.069
-152.647	86.773	0.095	-0.105
-151.633	-57.366	0.228	0.100
-150.618	800.000	0.121	0.336
-149.604	-120.128	0.228	-0.039
-148.589	-133.517	-0.218	-0.027
-147.574	-200.000	0.003	0.308
-146.560	-44.974	0.364	0.181
-145.545	28.012	-0.119	0.100
-144.531	800.000	0.062	0.257
-143.516	518.927	0.059	-0.138
-142.502	-118.583	-0.237	0.042
-141.487	125.883	0.219	0.276
-140.472	33.000	0.104	0.090
-139.458	-200.000	-0.041	-0.180
-138.443	800.000	-0.134	0.420
-137.429	87.328	-0.089	-0.098
-136.414	-104.943	0.065	-0.015
-135.399	-200.000	-0.078	0.473
-134.385	457.353	0.033	0.074
-133.370	275.658	-0.046	-0.081
-132.356	459.534	0.116	-0.257
-131.341	800.000	-0.108	-0.313
-130.326	-186.624	-0.345	0.005
-129.312	-200.000	0.012	0.234
-128.297	312.423	-0.227	0.424
-127.283	49.833	0.238	0.223
-126.268	-200.000	-0.002	0.057
-125.253	-64.778	-0.204	-0.082
-124.239	-38.893	0.223	-0.117
-123.224	-200.000	-0.060	0.330
-122.210	123.692	0.228	0.286
