DTS Sentinel unit serial number:	SN413079Multiplexer serial number:	ORYXHardware model number:	OX4-SRSoftware version number:	ORYX F/W v4.00 Oryx Data Collector v3.7.2.0data status	okinstallation	princeton_trtdifferential loss correction	single-endedforward channel	channel 3reverse channel	N/Adate	2019/09/11time	10:26:11forward acquisition time	60.00reverse acquisition time	0.00gamma	496.2192k internal	0.2298k external	0.2298temperature offset calibration	0.9941default loss term (dB/km)	0.3790temperature slope calibration	1.0000multiplexer offset coefficient	1.0000multiplexer slope coefficient	1.0000fibre end	0.00T internal ref (°C)	36.25T ext. ref 1 (°C)	0.14T ext. ref 2 (°C)	32.63length (m)	temperature (°C)	Stokes	anti-Stokes-747.200	101.820	0.072	0.086
-746.185	-200.000	0.079	0.542
-745.171	-36.728	0.077	-0.042
-744.156	-200.000	0.012	0.278
-743.142	-200.000	0.069	0.341
-742.127	365.170	-0.056	0.115
-741.112	-141.618	-0.394	-0.041
-740.098	-52.385	0.128	0.061
-739.083	-111.499	-0.256	0.053
-738.069	3.194	0.157	0.117
-737.054	45.624	0.159	-0.150
-736.039	-200.000	0.027	-0.123
-735.025	-200.000	0.008	-0.175
-734.010	45.240	-0.135	-0.127
-732.996	-53.402	-0.239	-0.112
-731.981	800.000	-0.115	-0.485
-730.966	-200.000	0.006	0.143
-729.952	-135.082	-0.412	-0.051
-728.937	135.815	-0.071	0.094
-727.923	800.000	0.025	-0.105
-726.908	158.351	-0.075	-0.107
-725.894	-63.230	-0.268	0.113
-724.879	-18.233	0.333	-0.212
-723.864	297.822	-0.142	-0.266
-722.850	-147.816	0.140	0.012
-721.835	-200.000	-0.004	-0.264
-720.821	527.022	0.046	-0.110
-719.806	-64.486	0.114	0.047
-718.791	474.658	-0.053	-0.123
-717.777	-92.499	0.209	0.060
-716.762	24.153	-0.198	0.167
-715.748	346.807	-0.042	-0.084
-714.733	-195.641	-0.114	0.001
-713.718	800.000	-0.051	-0.220
-712.704	-200.000	0.032	-0.291
-711.689	800.000	-0.024	-0.092
-710.675	-200.000	0.001	-0.270
-709.660	-200.000	-0.175	-0.001
-708.645	-143.055	-0.216	-0.021
-707.631	192.002	-0.262	-0.403
-706.616	115.135	-0.227	-0.282
-705.602	-178.758	0.373	0.009
-704.587	639.111	0.049	0.128
-703.572	22.686	-0.222	0.185
-702.558	195.332	0.301	-0.466
-701.543	-12.257	0.213	-0.142
-700.529	-160.345	0.267	0.015
-699.514	224.116	0.138	0.227
-698.499	122.664	-0.203	-0.259
-697.485	173.800	-0.169	-0.249
-696.470	-49.168	0.133	-0.065
-695.456	216.190	0.070	-0.113
-694.441	761.564	-0.059	0.163
-693.426	-200.000	-0.018	0.101
-692.412	-200.000	0.092	-0.416
-691.397	-42.141	-0.133	-0.069
-690.383	59.650	0.303	0.305
-689.368	354.590	0.059	-0.120
-688.354	298.006	0.070	0.131
-687.339	94.002	0.197	-0.228
-686.324	-154.282	0.243	-0.017
-685.310	-106.861	0.262	-0.059
-684.295	-57.202	-0.174	0.078
-683.281	-200.000	-0.002	-0.211
-682.266	55.225	-0.166	-0.164
-681.251	-159.277	0.271	0.016
-680.237	-148.776	0.455	-0.038
-679.222	174.261	0.258	0.380
-678.208	800.000	0.023	-0.073
-677.193	47.800	-0.078	-0.074
-676.178	-145.767	-0.040	0.004
-675.164	-200.000	-0.018	-0.234
-674.149	356.995	0.041	-0.083
-673.135	-200.000	0.060	-0.340
-672.120	-112.847	-0.130	0.026
-671.105	-153.385	-0.152	0.011
-670.091	800.000	0.061	0.176
-669.076	-200.000	-0.010	-0.067
-668.062	-169.868	-0.119	-0.004
-667.047	-8.099	0.245	0.168
-666.032	243.032	0.058	-0.099
-665.018	-114.489	-0.204	0.040
-664.003	-69.153	0.380	-0.149
-662.989	-82.696	0.182	-0.060
-661.974	-22.250	0.139	0.086
-660.959	196.723	-0.109	0.168
-659.945	-200.000	-0.044	-0.431
-658.930	23.328	-0.098	0.082
-657.916	-42.256	0.075	-0.039
-656.901	-200.000	0.019	0.251
-655.886	11.841	-0.164	0.128
-654.872	575.690	-0.110	0.272
-653.857	-142.206	-0.376	-0.038
-652.843	54.628	0.165	-0.162
-651.828	499.504	-0.147	-0.345
-650.814	746.964	0.027	0.073
-649.799	-109.412	0.131	0.028
-648.784	776.927	0.073	0.204
-647.770	-98.599	-0.340	0.088
-646.755	-200.000	-0.011	-0.061
-645.741	-10.974	0.137	0.092
-644.726	455.479	-0.179	-0.403
-643.711	-142.270	0.394	-0.040
-642.697	120.614	-0.171	-0.216
-641.682	231.112	-0.055	-0.091
-640.668	1.724	-0.065	0.047
-639.653	-3.086	-0.294	-0.209
-638.638	-167.545	0.112	0.005
-637.624	-200.000	0.024	0.234
-636.609	-26.665	0.232	0.138
-635.595	-85.885	-0.260	-0.082
-634.580	38.269	0.105	0.095
-633.565	-185.633	0.335	0.005
-632.551	800.000	-0.067	0.198
-631.536	118.643	0.172	-0.216
-630.522	-200.000	0.034	0.450
-629.507	-200.000	-0.036	-0.281
-628.492	-43.304	0.339	0.174
-627.478	-200.000	-0.003	0.037
-626.463	255.505	0.045	0.078
-625.449	-90.060	0.099	0.029
-624.434	141.328	0.146	0.196
-623.419	177.542	0.069	0.102
-622.405	-85.714	0.226	0.071
-621.390	-200.000	0.039	0.186
-620.376	-112.801	-0.231	0.047
-619.361	-130.327	-0.019	0.003
-618.346	-200.000	-0.034	0.596
-617.332	-114.026	-0.206	0.041
-616.317	114.913	-0.061	0.076
-615.303	800.000	-0.074	-0.241
-614.288	-200.000	0.197	-0.001
-613.273	201.978	0.128	-0.200
-612.259	319.861	-0.078	-0.150
-611.244	57.104	-0.282	-0.279
-610.230	-33.187	-0.150	0.085
-609.215	-53.943	-0.335	0.155
-608.201	106.269	0.256	0.308
-607.186	38.154	0.144	-0.130
-606.171	445.018	0.224	-0.500
-605.157	-200.000	-0.008	-0.234
-604.142	800.000	-0.080	-0.272
-603.128	-189.009	0.064	-0.001
-602.113	74.364	0.131	0.139
-601.098	800.000	0.073	0.304
-600.084	-31.223	0.114	0.065
-599.069	357.912	0.123	0.249
-598.055	443.816	-0.068	0.152
-597.040	84.249	-0.115	-0.127
-596.025	553.468	0.129	0.316
-595.011	-126.600	-0.262	0.039
-593.996	-58.590	-0.245	0.108
-592.982	-111.174	-0.088	0.018
-591.967	63.087	-0.200	-0.203
-590.952	-48.522	0.107	-0.052
-589.938	-80.934	-0.186	0.063
-588.923	133.834	0.208	0.274
-587.909	118.698	-0.018	-0.022
-586.894	-200.000	-0.021	-0.290
-585.879	-149.057	0.334	0.027
-584.865	102.301	0.158	0.187
-583.850	40.609	-0.180	-0.164
-582.836	-29.051	-0.224	-0.130
-581.821	-53.963	-0.215	0.099
-580.806	-153.339	0.103	-0.007
-579.792	-97.100	-0.062	-0.016
-578.777	149.062	0.133	-0.183
-577.763	183.324	-0.083	0.125
-576.748	18.845	0.198	0.161
-575.733	10.519	-0.222	0.172
-574.719	288.569	0.129	-0.237
-573.704	70.354	0.284	0.298
-572.690	-200.000	-0.094	-0.447
-571.675	-6.093	-0.139	0.097
-570.661	299.608	-0.023	-0.043
-569.646	-83.744	0.219	-0.071
-568.631	123.619	0.182	0.232
-567.617	18.907	0.063	-0.051
-566.602	1.512	-0.078	-0.057
-565.588	800.000	0.063	-0.187
-564.573	-54.216	0.116	-0.054
-563.558	-200.000	0.050	0.512
-562.544	-61.088	0.226	0.097
-561.529	74.490	0.162	-0.173
-560.515	-166.227	-0.196	0.008
-559.500	-200.000	0.014	-0.138
-558.485	98.637	-0.043	0.051
-557.471	-188.090	-0.233	-0.003
-556.456	-200.000	0.009	0.243
-555.442	11.624	-0.180	-0.140
-554.427	66.178	0.190	-0.195
-553.412	658.162	0.083	0.218
-552.398	400.508	-0.057	-0.122
-551.383	-110.667	-0.452	0.095
-550.369	500.561	0.079	-0.185
-549.354	39.826	0.082	0.075
-548.339	-46.405	-0.396	-0.197
-547.325	11.134	-0.252	-0.195
-546.310	-160.647	-0.214	0.012
-545.296	148.306	-0.233	0.319
-544.281	-6.493	0.366	0.253
-543.266	-80.039	-0.385	0.131
-542.252	-50.483	-0.104	-0.050
-541.237	414.987	0.123	0.266
-540.223	-136.720	-0.044	-0.005
-539.208	800.000	0.035	-0.119
-538.193	267.104	-0.088	0.155
-537.179	-200.000	0.036	-0.275
-536.164	-116.836	-0.070	-0.013
-535.150	19.725	0.315	0.257
-534.135	-92.605	0.219	0.062
-533.121	-104.490	0.113	0.026
-532.106	185.976	-0.140	0.210
-531.091	-108.123	0.182	-0.040
-530.077	162.352	0.123	0.174
-529.062	-200.000	0.043	-0.353
-528.048	80.666	-0.178	0.194
-527.033	-200.000	-0.023	0.108
-526.018	-115.135	0.256	0.049
-525.004	-51.918	0.175	-0.082
-523.989	152.626	-0.063	-0.087
-522.975	-156.388	-0.139	-0.009
-521.960	-79.483	-0.326	-0.111
-520.945	-200.000	-0.048	-0.302
-519.931	-200.000	0.002	0.207
-518.916	-200.000	-0.042	-0.377
-517.902	330.518	-0.060	-0.117
-516.887	-82.124	0.463	-0.153
-515.872	-18.696	-0.297	-0.187
-514.858	-79.037	0.107	0.037
-513.843	-200.000	0.090	0.405
-512.829	-83.029	-0.272	0.089
-511.814	-126.395	0.139	0.021
-510.799	-19.053	0.066	-0.041
-509.785	2.033	-0.210	0.153
-508.770	-128.238	0.283	-0.041
-507.756	443.957	0.098	-0.217
-506.741	-38.310	0.189	-0.101
-505.726	-105.206	-0.216	0.050
-504.712	-200.000	-0.004	-0.122
-503.697	-200.000	-0.014	-0.201
-502.683	-91.729	0.242	-0.070
-501.668	-200.000	-0.030	-0.212
-500.653	-55.910	0.135	0.061
-499.639	-81.455	-0.032	0.011
-498.624	-43.151	0.257	0.132
-497.610	273.842	0.139	-0.248
-496.595	36.973	-0.418	-0.374
-495.581	-8.348	-0.096	-0.065
-494.566	9.674	0.176	-0.135
-493.551	87.867	0.063	0.071
-492.537	-200.000	-0.027	-0.124
-491.522	-11.390	0.109	0.072
-490.508	57.594	-0.353	0.349
-489.493	800.000	0.120	0.362
-488.478	168.534	-0.122	0.175
-487.464	800.000	-0.042	-0.154
-486.449	-44.165	0.480	-0.244
-485.435	-200.000	-0.044	-0.516
-484.420	800.000	-0.018	0.051
-483.405	483.357	0.074	-0.170
-482.391	-67.766	-0.347	-0.137
-481.376	800.000	0.031	-0.102
-480.362	800.000	-0.050	-0.202
-479.347	-200.000	0.032	-0.238
-478.332	800.000	-0.045	-0.148
-477.318	59.483	-0.114	-0.114
-476.303	416.350	-0.036	0.078
-475.289	759.282	-0.032	-0.087
-474.274	-200.000	0.030	-0.157
-473.259	-15.479	-0.120	-0.077
-472.245	-144.385	0.335	0.031
-471.230	-177.650	0.123	-0.003
-470.216	148.951	-0.247	-0.337
-469.201	-23.629	-0.100	0.060
-468.186	14.012	-0.362	0.285
-467.172	-200.000	0.014	0.177
-466.157	-200.000	0.008	0.098
-465.143	-200.000	-0.027	-0.359
-464.128	351.849	0.075	0.150
-463.113	-90.821	-0.065	0.019
-462.099	50.106	-0.179	0.171
-461.084	576.828	0.083	0.205
-460.070	271.941	-0.182	0.324
-459.055	-200.000	-0.093	0.513
-458.040	-13.449	-0.244	0.160
-457.026	113.843	-0.138	-0.169
-456.011	800.000	-0.105	-0.415
-454.997	-47.320	-0.379	0.186
-453.982	-131.465	0.229	0.030
-452.968	-140.296	0.265	0.028
-451.953	-200.000	0.008	-0.069
-450.938	-171.306	-0.209	0.007
-449.924	125.198	0.041	-0.052
-448.909	800.000	0.066	0.235
-447.895	58.900	0.136	0.135
-446.880	800.000	0.063	0.223
-445.865	800.000	-0.108	0.374
-444.851	161.673	-0.170	-0.240
-443.836	-200.000	0.004	-0.245
-442.822	193.549	-0.053	-0.082
-441.807	800.000	-0.079	-0.243
-440.792	345.417	-0.144	-0.286
-439.778	-25.869	-0.215	0.128
-438.763	295.815	-0.080	-0.147
-437.749	-154.703	-0.351	0.024
-436.734	-200.000	-0.027	0.244
-435.719	-14.519	-0.268	0.174
-434.705	-51.549	-0.089	0.042
-433.690	-200.000	-0.003	-0.106
-432.676	-129.557	-0.103	-0.014
-431.661	-200.000	0.005	0.451
-430.646	-200.000	0.002	-0.063
-429.632	13.550	-0.182	0.143
-428.617	47.913	0.104	0.098
-427.603	-103.362	0.347	0.083
-426.588	800.000	-0.071	0.217
-425.573	-157.299	0.213	0.013
-424.559	460.029	0.163	0.366
-423.544	-131.261	0.095	0.013
-422.530	5.912	-0.135	0.101
-421.515	-143.361	0.171	0.017
-420.500	-0.012	-0.107	-0.077
-419.486	-93.795	0.102	-0.028
-418.471	-108.511	0.118	-0.026
-417.457	95.288	-0.242	0.278
-416.442	-53.887	-0.349	0.160
-415.428	-71.680	-0.171	-0.064
-414.413	84.207	-0.234	-0.257
-413.398	14.586	0.080	-0.063
-412.384	-92.435	0.347	-0.098
-411.369	800.000	0.062	-0.186
-410.355	23.573	0.186	-0.154
-409.340	245.717	-0.092	-0.157
-408.325	-171.874	-0.110	-0.004
-407.311	800.000	-0.041	0.120
-406.296	22.915	-0.160	-0.133
-405.282	-200.000	-0.022	0.136
-404.267	-62.104	0.169	-0.071
-403.252	93.395	0.213	0.243
-402.238	-69.831	0.430	-0.165
-401.223	-72.611	0.340	-0.126
-400.209	416.338	0.080	-0.172
-399.194	206.940	-0.064	0.101
-398.179	19.246	0.213	0.172
-397.165	-24.106	0.152	-0.092
-396.150	91.244	0.102	0.116
-395.136	-200.000	0.021	0.391
-394.121	214.134	-0.086	0.136
-393.106	-164.156	0.087	-0.004
-392.092	-162.155	0.372	0.019
-391.077	-11.865	-0.145	-0.095
-390.063	-27.702	0.306	-0.179
-389.048	-81.931	-0.422	0.139
-388.033	226.104	0.051	-0.083
-387.019	-200.000	0.047	0.296
-386.004	150.139	-0.096	0.131
-384.990	-171.541	-0.131	-0.004
-383.975	-200.000	0.010	0.221
-382.960	-16.431	-0.179	0.114
-381.946	-6.173	0.247	0.170
-380.931	13.943	0.070	-0.055
-379.917	-106.985	-0.075	-0.017
-378.902	-200.000	0.003	0.269
-377.888	74.368	-0.272	0.287
-376.873	-60.831	0.304	-0.129
-375.858	220.187	0.024	-0.038
-374.844	-200.000	-0.038	-0.346
-373.829	-121.509	0.105	-0.018
-372.815	-89.188	-0.277	0.082
-371.800	-105.589	0.088	0.020
-370.785	215.697	0.084	0.135
-369.771	384.072	-0.099	0.205
-368.756	121.228	0.201	-0.252
-367.742	-18.629	0.091	-0.057
-366.727	-117.188	0.519	-0.095
-365.712	16.192	-0.045	-0.036
-364.698	391.254	0.037	-0.077
-363.683	25.515	-0.116	0.097
-362.669	78.446	-0.150	-0.161
-361.654	6.325	-0.255	-0.190
-360.639	53.312	-0.028	-0.027
-359.625	-192.606	-0.180	-0.002
-358.610	-82.176	0.210	-0.069
-357.596	39.888	-0.248	-0.224
-356.581	-114.047	-0.275	0.053
-355.566	-8.094	-0.105	0.071
-354.552	741.916	0.103	0.278
-353.537	318.238	0.164	0.312
-352.523	347.091	0.094	-0.186
-351.508	169.136	-0.120	0.172
-350.493	-11.853	0.060	0.040
-349.479	-91.263	-0.296	-0.085
-348.464	56.898	-0.221	0.216
-347.450	-200.000	0.033	0.187
-346.435	135.923	-0.080	-0.104
-345.420	186.313	0.121	0.181
-344.406	107.428	-0.124	0.148
-343.391	-58.538	-0.088	0.039
-342.377	-44.491	-0.208	-0.105
-341.362	350.406	-0.064	-0.126
-340.348	20.713	0.190	0.154
-339.333	415.373	0.072	-0.155
-338.318	800.000	-0.058	-0.236
-337.304	338.442	-0.138	0.271
-336.289	-114.049	-0.151	0.029
-335.275	130.527	0.150	-0.193
-334.260	162.249	-0.083	0.117
-333.245	82.197	-0.073	-0.079
-332.231	-200.000	0.017	-0.115
-331.216	800.000	0.033	0.125
-330.202	1.434	-0.152	0.110
-329.187	69.383	-0.028	0.028
-328.172	-16.763	-0.225	-0.143
-327.158	220.499	0.132	-0.213
-326.143	512.978	-0.030	-0.070
-325.129	-200.000	-0.016	0.283
-324.114	-102.428	0.291	0.070
-323.099	26.231	0.295	0.248
-322.085	-104.337	0.181	0.042
-321.070	-200.000	-0.002	-0.025
-320.056	-87.861	-0.070	-0.021
-319.041	-200.000	-0.047	-0.242
-318.026	105.077	0.164	-0.194
-317.012	14.688	-0.145	0.114
-315.997	87.883	-0.208	0.232
-314.983	-35.407	0.164	0.090
-313.968	62.349	0.044	-0.044
-312.953	-200.000	-0.019	0.096
-311.939	155.580	0.167	-0.230
-310.924	31.025	-0.120	-0.104
-309.910	281.836	0.126	0.226
-308.895	488.702	-0.105	0.240
-307.880	-72.723	-0.272	0.101
-306.866	424.617	-0.131	-0.282
-305.851	92.472	-0.061	-0.069
-304.837	227.675	-0.130	0.213
-303.822	-200.000	0.403	-0.000
-302.807	-73.291	0.369	-0.135
-301.793	-82.712	0.046	0.015
-300.778	369.013	0.016	-0.032
-299.764	26.266	-0.104	0.087
-298.749	-26.359	0.089	0.052
-297.735	63.812	-0.114	-0.115
-296.720	-39.150	-0.286	-0.151
-295.705	-200.000	-0.012	0.492
-294.691	378.018	0.045	0.093
-293.676	73.919	-0.132	-0.138
-292.662	-200.000	0.016	-0.281
-291.647	-200.000	0.035	-0.348
-290.632	-200.000	0.003	0.047
-289.618	141.338	-0.043	0.057
-288.603	-200.000	0.006	0.070
-287.589	-56.676	-0.093	0.041
-286.574	-186.333	-0.198	-0.003
-285.559	484.124	-0.036	-0.082
-284.545	76.122	-0.081	0.086
-283.530	54.228	-0.080	-0.077
-282.516	800.000	0.057	-0.174
-281.501	321.072	0.082	0.156
-280.486	-85.562	-0.328	-0.102
-279.472	800.000	0.119	-0.371
-278.457	177.555	-0.039	-0.057
-277.443	-101.751	0.184	0.045
-276.428	-18.944	0.380	-0.237
-275.413	-154.827	-0.422	-0.028
-274.399	-200.000	0.018	0.161
-273.384	-36.329	-0.292	-0.158
-272.370	106.887	-0.134	-0.160
-271.355	225.929	0.102	-0.166
-270.340	-88.457	0.148	0.044
-269.326	-84.163	0.609	-0.194
-268.311	800.000	0.068	0.241
-267.297	-25.815	0.057	-0.033
-266.282	71.386	0.287	0.298
-265.267	800.000	-0.131	0.456
-264.253	28.416	-0.188	-0.159
-263.238	75.739	0.247	-0.261
-262.224	-47.045	-0.034	0.017
-261.209	-118.102	-0.031	-0.006
-260.195	-9.209	0.114	0.076
-259.180	22.626	-0.276	-0.226
-258.165	7.752	0.291	-0.218
-257.151	-200.000	0.000	-0.021
-256.136	106.780	0.145	0.172
-255.122	27.331	-0.264	0.222
-254.107	-88.074	-0.241	-0.072
-253.092	800.000	-0.025	0.088
-252.078	-20.489	-0.097	-0.060
-251.063	387.243	0.119	-0.246
-250.049	751.094	0.060	0.162
-249.034	800.000	-0.068	0.191
-248.019	-34.797	-0.151	0.083
-247.005	-200.000	0.023	-0.148
-245.990	800.000	-0.027	0.083
-244.976	-60.311	0.235	-0.100
-243.961	7.445	0.033	-0.025
-242.946	-135.335	0.392	-0.047
-241.932	-38.963	0.178	-0.094
-240.917	-200.000	0.014	-0.192
-239.903	-16.122	-0.005	-0.003
-238.888	-200.000	-0.003	0.040
-237.873	125.411	-0.060	0.076
-236.859	-42.403	0.094	0.048
-235.844	16.516	0.375	-0.297
-234.830	-151.633	0.331	0.024
-233.815	-200.000	-0.010	0.174
-232.800	204.050	0.050	-0.077
-231.786	800.000	0.075	-0.258
-230.771	-200.000	-0.005	0.509
-229.757	675.518	-0.121	0.314
-228.742	422.049	-0.060	-0.130
-227.727	80.324	0.083	0.090
-226.713	-166.870	-0.344	-0.014
-225.698	643.997	-0.017	0.044
-224.684	31.483	-0.364	-0.313
-223.669	-200.000	0.076	0.372
-222.655	120.285	0.185	0.229
-221.640	-200.000	0.025	-0.291
-220.625	-102.204	0.164	-0.039
-219.611	28.605	-0.158	0.134
-218.596	-56.907	0.210	-0.093
-217.582	-161.745	0.047	-0.002
-216.567	103.271	-0.171	0.200
-215.552	-200.000	-0.030	-0.147
-214.538	-82.055	0.336	-0.110
-213.523	-89.850	0.108	-0.032
-212.509	-84.357	-0.055	-0.017
-211.494	-41.921	-0.132	0.068
-210.479	120.211	0.129	-0.160
-209.465	800.000	0.084	0.341
-208.450	-200.000	-0.041	-0.406
-207.436	-118.269	-0.173	-0.031
-206.421	-27.172	-0.277	-0.161
-205.406	-200.000	-0.025	-0.549
-204.392	-33.649	-0.370	-0.204
-203.377	343.334	-0.061	0.120
-202.363	-37.026	-0.081	-0.043
-201.348	-200.000	-0.076	-0.372
-200.333	23.935	-0.176	0.145
-199.319	19.197	-0.167	-0.134
-198.304	-200.000	0.025	-0.251
-197.290	688.261	0.116	0.303
-196.275	-87.602	-0.176	-0.053
-195.260	-200.000	-0.008	0.354
-194.246	-64.749	-0.196	0.079
-193.231	43.920	0.087	0.080
-192.217	-19.253	0.118	0.073
-191.202	203.490	-0.015	0.023
-190.187	-80.635	0.178	0.059
-189.173	-166.294	0.184	-0.008
-188.158	46.618	0.235	0.218
-187.144	88.589	-0.076	0.084
-186.129	423.774	-0.039	0.085
-185.114	362.996	-0.092	0.186
-184.100	-141.244	-0.279	-0.028
-183.085	-200.000	0.012	0.071
-182.071	-131.738	-0.212	-0.028
-181.056	-44.113	-0.006	-0.003
-180.042	-200.000	-0.016	-0.376
-179.027	-12.095	0.183	-0.119
-178.012	-200.000	-0.050	-0.245
-176.998	-123.306	0.328	-0.052
-175.983	9.236	0.234	0.177
-174.969	65.552	-0.230	-0.233
-173.954	-48.926	0.213	-0.102
-172.939	-200.000	-0.001	0.045
-171.925	-200.000	-0.000	-0.131
-170.910	-105.400	0.110	0.025
-169.896	296.819	0.047	-0.086
-168.881	43.704	0.232	-0.212
-167.866	-51.093	0.090	-0.042
-166.852	77.608	0.151	-0.160
-165.837	-34.075	0.119	-0.065
-164.823	-200.000	0.012	-0.168
-163.808	-80.003	-0.348	0.117
-162.793	-155.550	0.154	0.010
-161.779	237.059	0.168	-0.277
-160.764	474.729	0.019	0.042
-159.750	-200.000	0.009	0.074
-158.735	-135.829	-0.128	-0.015
-157.720	800.000	-0.149	-0.424
-156.706	-186.031	0.229	0.003
-155.691	-58.054	-0.077	-0.034
-154.677	-69.610	-0.181	0.069
-153.662	-54.348	0.303	-0.137
-152.647	14.812	-0.071	0.055
-151.633	-200.000	0.073	0.339
-150.618	54.873	0.123	0.118
-149.604	-200.000	0.025	0.199
-148.589	144.390	0.142	0.190
-147.574	-200.000	0.154	0.000
-146.560	-95.542	0.253	0.068
-145.545	-38.433	-0.297	-0.157
-144.531	-84.032	-0.119	-0.038
-143.516	-114.650	0.279	-0.053
-142.502	-200.000	-0.031	0.249
-141.487	-13.101	-0.074	0.048
-140.472	-40.877	-0.061	0.031
-139.458	-96.058	0.145	-0.038
-138.443	-200.000	-0.011	-0.137
-137.429	170.932	0.122	-0.174
-136.414	-24.866	0.104	0.062
-135.399	-131.744	-0.138	0.018
-134.385	306.272	0.048	0.090
-133.370	-142.982	-0.128	-0.012
-132.356	-200.000	0.049	-0.312
-131.341	78.245	0.187	0.199
-130.326	-76.954	0.221	-0.077
-129.312	308.052	0.066	0.124
-128.297	-58.998	-0.114	0.049
-127.283	-200.000	-0.007	0.085
-126.268	-20.062	0.107	0.066
-125.253	-49.312	0.168	-0.080
-124.239	800.000	-0.129	0.419
-123.224	95.327	0.108	-0.123
-122.210	800.000	0.046	-0.166
