DTS Sentinel unit serial number:	SN413079Multiplexer serial number:	ORYXHardware model number:	OX4-SRSoftware version number:	ORYX F/W v4.00 Oryx Data Collector v3.7.2.0data status	okinstallation	princeton_trtdifferential loss correction	single-endedforward channel	channel 3reverse channel	N/Adate	2019/09/11time	12:58:11forward acquisition time	60.00reverse acquisition time	0.00gamma	496.2192k internal	0.2294k external	0.2294temperature offset calibration	0.9931default loss term (dB/km)	0.3790temperature slope calibration	1.0000multiplexer offset coefficient	1.0000multiplexer slope coefficient	1.0000fibre end	0.00T internal ref (°C)	41.50T ext. ref 1 (°C)	0.22T ext. ref 2 (°C)	38.65length (m)	temperature (°C)	Stokes	anti-Stokes-747.200	-93.885	0.290	0.081
-746.185	357.496	-0.135	0.275
-745.171	-200.000	0.005	0.070
-744.156	-200.000	-0.089	0.466
-743.142	-9.944	-0.336	-0.228
-742.127	-68.525	-0.190	-0.075
-741.112	601.058	0.050	0.128
-740.098	204.517	-0.076	0.120
-739.083	125.200	-0.134	-0.173
-738.069	-200.000	-0.028	-0.131
-737.054	-62.542	0.115	0.049
-736.039	800.000	0.050	0.193
-735.025	-76.305	0.263	-0.095
-734.010	-200.000	-0.036	-0.207
-732.996	-200.000	-0.023	-0.307
-731.981	589.080	0.094	0.237
-730.966	93.861	-0.085	0.098
-729.952	71.258	-0.433	-0.459
-728.937	8.862	0.086	-0.066
-727.923	-86.745	0.159	-0.050
-726.908	47.140	0.085	-0.081
-725.894	-68.740	-0.140	-0.055
-724.879	115.357	0.169	0.211
-723.864	-149.008	0.396	0.033
-722.850	381.178	0.044	0.091
-721.835	-132.629	-0.180	-0.024
-720.821	-200.000	-0.021	0.264
-719.806	-43.634	-0.112	-0.058
-718.791	-200.000	0.016	-0.200
-717.777	-33.412	-0.366	-0.207
-716.762	-61.791	-0.380	-0.162
-715.748	-200.000	-0.005	0.151
-714.733	-0.127	-0.243	0.176
-713.718	-89.496	-0.044	-0.013
-712.704	7.652	-0.076	0.058
-711.689	225.396	0.023	0.038
-710.675	-61.771	-0.175	0.075
-709.660	14.711	0.228	0.182
-708.645	108.508	-0.124	0.151
-707.631	-47.326	-0.265	0.132
-706.616	-158.703	0.155	-0.009
-705.602	39.588	-0.177	0.162
-704.587	-36.930	-0.086	-0.047
-703.572	-44.097	-0.310	-0.159
-702.558	-83.513	0.027	-0.009
-701.543	-63.911	-0.243	-0.102
-700.529	800.000	0.053	-0.162
-699.514	136.845	-0.088	0.118
-698.499	800.000	0.041	0.122
-697.485	682.413	0.090	-0.241
-696.470	568.625	-0.131	-0.325
-695.456	-19.814	-0.210	0.132
-694.441	-53.563	0.122	-0.057
-693.426	-85.813	-0.065	0.021
-692.412	-127.799	0.175	0.026
-691.397	61.401	0.101	0.102
-690.383	-200.000	0.010	0.081
-689.368	81.301	0.049	0.054
-688.354	800.000	0.033	-0.127
-687.339	43.550	-0.397	-0.370
-686.324	-4.195	0.099	-0.070
-685.310	144.731	-0.100	0.137
-684.295	29.898	0.231	0.201
-683.281	-37.551	-0.218	0.119
-682.266	-200.000	-0.030	-0.205
-681.251	23.373	0.160	-0.134
-680.237	-115.988	-0.213	0.040
-679.222	-105.344	-0.273	0.063
-678.208	-34.868	-0.306	-0.170
-677.193	-200.000	0.024	0.271
-676.178	-200.000	-0.003	-0.289
-675.164	431.308	-0.079	-0.175
-674.149	-160.009	-0.091	-0.005
-673.135	323.711	-0.195	-0.379
-672.120	-12.568	-0.183	0.122
-671.105	-145.884	-0.255	0.023
-670.091	-144.024	0.534	0.051
-669.076	-109.572	0.050	0.011
-668.062	-24.510	0.145	-0.088
-667.047	38.666	0.182	0.166
-666.032	-200.000	0.010	-0.252
-665.018	-200.000	-0.045	-0.595
-664.003	71.457	0.035	0.037
-662.989	-187.547	0.110	-0.001
-661.974	-200.000	-0.009	0.107
-660.959	-200.000	0.038	0.229
-659.945	-12.901	-0.133	-0.088
-658.930	-9.106	0.095	-0.065
-657.916	-101.841	-0.038	0.009
-656.901	-25.574	0.441	-0.265
-655.886	73.063	0.040	0.043
-654.872	58.512	0.111	-0.111
-653.857	-62.996	-0.243	-0.102
-652.843	248.062	-0.129	0.223
-651.828	3.399	0.214	-0.159
-650.814	59.728	-0.080	-0.081
-649.799	800.000	0.019	-0.080
-648.784	102.166	0.104	0.124
-647.770	431.277	-0.034	0.076
-646.755	-21.616	-0.201	0.125
-645.741	81.427	-0.165	0.182
-644.726	-22.799	0.130	-0.080
-643.711	-200.000	0.038	-0.364
-642.697	800.000	0.063	0.185
-641.682	-200.000	-0.011	0.265
-640.668	-200.000	0.001	-0.192
-639.653	88.617	0.198	0.224
-638.638	-200.000	-0.014	0.148
-637.624	11.252	-0.199	0.155
-636.609	0.056	0.150	0.109
-635.595	-63.620	0.285	0.119
-634.580	-200.000	0.007	0.055
-633.565	-55.569	-0.102	0.046
-632.551	249.901	-0.178	0.308
-631.536	6.569	-0.175	0.132
-630.522	-200.000	0.020	0.158
-629.507	606.135	0.109	-0.277
-628.492	81.575	-0.080	-0.089
-627.478	-41.653	0.246	-0.128
-626.463	800.000	-0.080	-0.247
-625.449	-10.341	0.177	-0.120
-624.434	113.752	-0.076	0.094
-623.419	-200.000	-0.032	-0.339
-622.405	6.874	0.172	-0.130
-621.390	31.984	0.204	0.179
-620.376	486.983	0.122	-0.284
-619.361	-3.478	0.319	-0.226
-618.346	257.033	-0.143	0.250
-617.332	-136.412	-0.201	0.024
-616.317	-200.000	-0.019	-0.092
-615.303	-200.000	-0.003	-0.311
-614.288	-129.592	0.184	0.026
-613.273	201.149	0.123	0.192
-612.259	-79.680	0.345	-0.118
-611.244	-89.921	0.170	-0.051
-610.230	450.657	0.086	0.192
-609.215	48.631	0.266	0.254
-608.201	-128.423	0.454	0.066
-607.186	-40.724	-0.559	-0.295
-606.171	145.811	0.102	-0.140
-605.157	-180.618	-0.143	-0.003
-604.142	-103.375	-0.171	0.041
-603.128	130.904	-0.093	-0.121
-602.113	706.364	0.047	0.125
-601.098	800.000	-0.046	0.182
-600.084	-140.376	-0.113	-0.012
-599.069	-42.590	-0.284	-0.147
-598.055	101.099	-0.234	0.276
-597.040	193.255	0.114	-0.176
-596.025	800.000	0.049	0.193
-595.011	47.507	0.243	0.230
-593.996	-155.517	-0.325	0.021
-592.982	7.826	0.133	-0.101
-591.967	565.782	0.061	-0.151
-590.952	227.266	0.042	-0.069
-589.938	-103.583	-0.238	-0.057
-588.923	800.000	-0.034	-0.141
-587.909	-48.384	-0.132	0.064
-586.894	-75.559	-0.064	0.023
-585.879	-13.067	-0.237	-0.156
-584.865	297.140	0.063	-0.117
-583.850	285.200	-0.038	0.069
-582.836	38.587	0.286	0.259
-581.821	-139.775	0.162	-0.017
-580.806	35.517	-0.239	-0.213
-579.792	-85.725	-0.473	0.149
-578.777	-26.571	0.191	-0.114
-577.763	407.678	-0.154	-0.331
-576.748	800.000	-0.046	-0.137
-575.733	323.049	-0.108	0.210
-574.719	-144.145	0.182	0.017
-573.704	-115.236	0.329	-0.063
-572.690	-20.991	-0.235	-0.146
-571.675	-49.705	-0.354	-0.171
-570.661	156.513	-0.182	0.256
-569.646	-102.546	0.068	0.017
-568.631	-200.000	0.029	0.233
-567.617	-93.407	-0.346	-0.098
-566.602	396.345	0.106	-0.224
-565.588	-134.109	0.312	0.039
-564.573	242.903	0.039	-0.066
-563.558	115.123	-0.110	0.136
-562.544	130.461	-0.093	-0.120
-561.529	-134.748	-0.264	-0.033
-560.515	-42.815	-0.289	-0.149
-559.500	-120.515	-0.425	0.073
-558.485	-76.342	-0.253	-0.090
-557.471	800.000	0.045	0.177
-556.456	246.394	-0.220	-0.376
-555.442	51.647	0.124	0.120
-554.427	800.000	-0.167	0.519
-553.412	-39.046	-0.402	0.215
-552.398	-126.671	-0.134	0.020
-551.383	-4.321	0.144	-0.101
-550.369	-131.810	0.241	-0.032
-549.354	-200.000	-0.043	0.203
-548.339	-200.000	-0.026	-0.129
-547.325	-61.199	0.060	-0.026
-546.310	-10.757	0.163	0.109
-545.296	75.724	-0.090	-0.097
-544.281	-55.984	-0.049	0.022
-543.266	-200.000	-0.057	0.256
-542.252	-64.867	-0.210	0.086
-541.237	180.376	0.204	-0.304
-540.223	-128.393	0.045	-0.007
-539.208	7.904	-0.081	-0.062
-538.193	-20.827	0.375	-0.233
-537.179	500.624	0.065	-0.153
-536.164	-84.441	-0.179	-0.057
-535.150	-57.668	0.281	0.125
-534.135	216.475	0.125	0.201
-533.121	-196.621	0.460	-0.003
-532.106	-148.301	0.072	0.006
-531.091	-107.036	0.082	0.018
-530.077	-139.227	-0.211	0.023
-529.062	-200.000	0.002	-0.023
-528.048	326.156	0.137	-0.266
-527.033	-44.442	0.359	-0.182
-526.018	23.468	0.137	-0.115
-525.004	282.966	0.048	-0.088
-523.989	163.008	-0.133	-0.190
-522.975	50.872	0.226	0.217
-521.960	-70.762	0.062	0.024
-520.945	118.991	0.282	-0.354
-519.931	-108.810	-0.242	-0.052
-518.916	37.876	-0.168	0.151
-517.902	4.345	0.282	0.209
-516.887	-89.513	0.157	-0.047
-515.872	139.247	0.252	0.336
-514.858	91.466	-0.157	-0.179
-513.843	-70.285	-0.122	0.047
-512.829	195.239	-0.191	-0.295
-511.814	-114.352	-0.272	0.053
-510.799	-200.000	0.001	-0.207
-509.785	327.803	0.102	-0.197
-508.770	111.583	-0.071	0.087
-507.756	77.110	-0.029	-0.032
-506.741	325.589	-0.133	0.257
-505.726	411.587	0.107	0.230
-504.712	-84.634	-0.163	0.052
-503.697	37.216	0.230	0.206
-502.683	-20.980	-0.061	0.038
-501.668	-57.247	0.199	-0.089
-500.653	-100.680	-0.144	0.036
-499.639	-200.000	0.042	-0.298
-498.624	48.032	-0.201	0.190
-497.610	264.794	-0.106	0.186
-496.595	-107.280	0.167	-0.037
-495.581	-49.666	-0.283	-0.136
-494.566	15.400	-0.161	-0.128
-493.551	-200.000	-0.001	0.050
-492.537	-112.809	0.519	-0.104
-491.522	60.305	0.215	0.215
-490.508	19.333	0.262	-0.213
-489.493	-2.456	-0.347	0.246
-488.478	147.635	-0.187	0.256
-487.464	-101.238	0.266	-0.066
-486.449	-40.041	0.259	-0.136
-485.435	-200.000	0.022	-0.209
-484.420	91.826	-0.131	-0.149
-483.405	-21.267	0.230	0.142
-482.391	-200.000	-0.021	0.207
-481.376	-156.562	-0.238	-0.015
-480.362	22.236	0.041	-0.034
-479.347	563.603	-0.115	0.281
-478.332	32.092	0.286	-0.250
-477.318	523.813	0.036	-0.086
-476.303	119.021	-0.029	-0.037
-475.289	-90.092	-0.070	0.021
-474.274	40.444	0.083	0.076
-473.259	-80.163	0.348	0.118
-472.245	-98.887	0.414	-0.107
-471.230	347.338	-0.060	0.120
-470.216	-200.000	0.023	-0.192
-469.201	800.000	0.111	-0.401
-468.186	-164.588	0.255	0.012
-467.172	800.000	0.088	-0.246
-466.157	572.652	0.017	0.041
-465.143	443.497	0.063	-0.139
-464.128	800.000	-0.042	-0.185
-463.113	-112.851	-0.123	0.025
-462.099	-74.724	0.190	0.069
-461.084	-112.846	-0.262	-0.053
-460.070	-14.323	-0.259	0.169
-459.055	40.413	0.066	-0.060
-458.040	-200.000	0.024	0.114
-457.026	-29.588	0.100	-0.058
-456.011	30.424	0.132	0.114
-454.997	10.561	0.156	-0.120
-453.982	-14.024	0.270	-0.176
-452.968	490.069	0.031	-0.072
-451.953	164.678	0.163	-0.233
-450.938	192.274	-0.043	-0.065
-449.924	321.478	-0.098	-0.189
-448.909	-69.593	-0.220	0.085
-447.895	-200.000	0.027	-0.134
-446.880	800.000	0.040	-0.160
-445.865	77.878	-0.130	-0.140
-444.851	65.119	-0.105	-0.108
-443.836	-26.314	-0.296	0.176
-442.822	-13.736	-0.381	-0.249
-441.807	3.454	-0.147	-0.108
-440.792	14.930	0.206	-0.163
-439.778	-71.093	0.303	-0.115
-438.763	113.838	-0.050	0.061
-437.749	-200.000	0.037	0.212
-436.734	126.847	0.082	0.105
-435.719	-26.819	-0.110	-0.065
-434.705	-85.864	0.319	-0.100
-433.690	-200.000	-0.050	-0.268
-432.676	-54.763	0.346	-0.158
-431.661	-92.745	-0.150	-0.043
-430.646	177.470	-0.183	0.270
-429.632	-34.643	0.194	-0.107
-428.617	-137.522	0.333	-0.038
-427.603	-86.097	0.164	-0.051
-426.588	-76.411	0.241	0.086
-425.573	87.423	0.146	0.163
-424.559	432.396	-0.125	0.275
-423.544	-200.000	-0.035	-0.176
-422.530	-44.567	0.393	0.198
-421.515	-175.231	-0.356	0.010
-420.500	18.371	-0.237	0.191
-419.486	-200.000	-0.008	-0.176
-418.471	-200.000	-0.024	0.112
-417.457	126.325	0.110	-0.141
-416.442	-16.121	-0.149	0.096
-415.428	800.000	0.016	-0.072
-414.413	-200.000	0.007	-0.118
-413.398	100.055	0.187	-0.219
-412.384	-0.178	-0.228	-0.163
-411.369	-79.952	-0.157	-0.053
-410.355	-200.000	0.009	0.066
-409.340	-71.434	0.184	0.069
-408.325	103.993	0.135	0.160
-407.311	-200.000	-0.009	0.076
-406.296	-39.580	-0.155	-0.082
-405.282	67.134	-0.231	0.237
-404.267	-182.739	-0.463	-0.008
-403.252	29.643	0.168	0.144
-402.238	161.027	0.096	0.135
-401.223	121.778	-0.272	-0.342
-400.209	102.932	-0.086	0.102
-399.194	-147.264	-0.242	0.021
-398.179	277.290	-0.075	-0.134
-397.165	-102.951	0.516	0.124
-396.150	800.000	0.107	0.345
-395.136	418.965	-0.098	0.212
-394.121	-108.965	0.039	0.008
-393.106	10.472	-0.182	0.140
-392.092	-79.949	-0.177	0.060
-391.077	90.866	0.119	0.135
-390.063	-33.900	0.239	0.133
-389.048	9.628	0.152	-0.116
-388.033	800.000	-0.114	0.332
-387.019	48.027	-0.272	0.256
-386.004	-77.406	-0.464	0.162
-384.990	-7.562	-0.061	-0.042
-383.975	800.000	-0.080	0.234
-382.960	-172.073	0.172	0.006
-381.946	258.691	-0.159	0.277
-380.931	608.499	0.102	-0.257
-379.917	-200.000	-0.007	0.385
-378.902	-87.986	-0.151	-0.046
-377.888	-27.900	0.005	-0.003
-376.873	-87.517	0.112	0.034
-375.858	58.963	-0.339	-0.337
-374.844	-11.788	-0.250	-0.166
-373.829	236.362	-0.089	-0.148
-372.815	800.000	0.040	0.160
-371.800	-176.510	-0.274	-0.007
-370.785	91.805	-0.117	-0.133
-369.771	-11.238	-0.120	-0.080
-368.756	-42.879	0.143	0.073
-367.742	179.402	-0.075	-0.111
-366.727	-108.471	-0.232	-0.050
-365.712	-200.000	0.067	-0.361
-364.698	-135.449	0.230	0.028
-363.683	-200.000	0.053	0.368
-362.669	-86.984	0.178	0.055
-361.654	-200.000	-0.010	0.105
-360.639	-158.034	-0.440	0.026
-359.625	-200.000	-0.068	-0.318
-358.610	107.704	-0.171	0.205
-357.596	-200.000	0.054	0.246
-356.581	174.771	-0.167	-0.243
-355.566	800.000	0.095	0.324
-354.552	207.002	0.107	-0.168
-353.537	-114.180	0.319	-0.062
-352.523	140.103	-0.216	0.287
-351.508	692.487	0.075	0.199
-350.493	-94.709	0.378	0.103
-349.479	-144.768	0.168	-0.016
-348.464	-82.676	-0.138	0.045
-347.450	-200.000	-0.070	-0.387
-346.435	-200.000	-0.021	0.196
-345.420	-5.186	0.102	-0.071
-344.406	-95.903	0.253	0.068
-343.391	-200.000	0.031	-0.215
-342.377	-200.000	-0.002	0.064
-341.362	-200.000	-0.054	0.493
-340.348	-123.026	-0.288	0.047
-339.333	-10.307	-0.077	-0.051
-338.318	-29.130	-0.117	0.067
-337.304	-121.012	-0.189	0.032
-336.289	-75.069	-0.145	0.052
-335.275	-200.000	-0.019	-0.085
-334.260	-17.454	-0.064	0.041
-333.245	800.000	-0.046	-0.200
-332.231	-25.614	0.263	0.156
-331.216	120.935	-0.143	0.179
-330.202	-200.000	0.024	-0.117
-329.187	-200.000	0.040	0.403
-328.172	36.279	-0.102	0.091
-327.158	152.965	0.127	0.175
-326.143	-31.667	-0.028	-0.016
-325.129	-43.616	-0.187	0.095
-324.114	-82.781	0.081	0.026
-323.099	-89.934	0.215	-0.063
-322.085	392.222	0.090	0.188
-321.070	800.000	0.147	-0.421
-320.056	116.924	-0.231	0.286
-319.041	800.000	-0.032	-0.136
-318.026	40.794	0.065	-0.059
-317.012	-37.122	-0.157	-0.085
-315.997	202.778	0.127	-0.197
-314.983	-59.567	0.402	-0.173
-313.968	153.907	-0.063	0.086
-312.953	-200.000	0.002	-0.079
-311.939	-141.623	-0.345	0.035
-310.924	14.548	0.151	-0.119
-309.910	85.015	-0.202	0.223
-308.895	0.078	-0.052	-0.037
-307.880	200.770	0.204	0.315
-306.866	-137.420	0.251	-0.029
-305.851	-200.000	-0.028	0.140
-304.837	66.622	-0.026	0.026
-303.822	261.617	-0.136	-0.237
-302.807	400.214	0.012	0.025
-301.793	476.096	-0.061	0.139
-300.778	-200.000	-0.033	-0.198
-299.764	-117.750	-0.178	0.032
-298.749	-24.693	0.330	0.197
-297.735	-128.785	-0.263	0.037
-296.720	-200.000	0.038	0.236
-295.705	-200.000	-0.034	0.217
-294.691	-79.241	0.304	-0.104
-293.676	229.843	0.115	-0.189
-292.662	-104.970	-0.418	-0.096
-291.647	800.000	0.049	-0.208
-290.632	-143.115	-0.246	-0.024
-289.618	171.553	0.091	0.131
-288.603	-200.000	0.030	0.184
-287.589	-200.000	-0.038	0.204
-286.574	800.000	-0.114	0.417
-285.559	-99.360	0.065	0.016
-284.545	-43.342	0.282	-0.143
-283.530	-94.018	-0.150	0.041
-282.516	-200.000	0.029	0.305
-281.501	-85.538	-0.314	0.098
-280.486	-51.552	-0.478	0.224
-279.472	89.001	0.062	-0.069
-278.457	149.959	-0.152	-0.207
-277.443	46.640	-0.105	-0.098
-276.428	372.037	0.061	-0.124
-275.413	12.468	0.105	0.081
-274.399	800.000	-0.048	0.169
-273.384	454.225	-0.182	0.404
-272.370	-5.716	-0.095	0.065
-271.355	88.371	-0.100	0.112
-270.340	-118.995	-0.277	-0.049
-269.326	-200.000	-0.004	0.091
-268.311	-30.674	0.241	-0.137
-267.297	-178.798	-0.312	-0.007
-266.282	800.000	0.064	0.202
-265.267	65.949	-0.180	0.183
-264.253	-0.578	0.034	-0.024
-263.238	-92.872	-0.094	-0.026
-262.224	160.340	0.259	-0.363
-261.209	-111.541	0.247	-0.050
-260.195	-64.074	-0.099	0.041
-259.180	47.430	0.212	-0.199
-258.165	87.409	0.151	-0.167
-257.151	51.477	-0.159	-0.151
-256.136	-18.739	0.291	0.182
-255.122	17.667	-0.214	-0.171
-254.107	-200.000	0.018	-0.089
-253.092	183.620	-0.100	0.148
-252.078	382.321	-0.070	-0.145
-251.063	12.761	0.292	-0.226
-250.049	-42.346	0.396	-0.203
-249.034	-200.000	-0.030	0.159
-248.019	-158.035	0.153	0.009
-247.005	68.038	0.152	0.156
-245.990	-137.691	-0.109	0.012
-244.976	-156.678	-0.330	-0.020
-243.961	-156.770	0.089	-0.006
-242.946	-122.928	0.253	0.041
-241.932	-128.988	-0.291	0.041
-240.917	-51.138	-0.230	-0.108
-239.903	800.000	0.045	-0.180
-238.888	708.909	0.087	-0.230
-237.873	800.000	0.089	-0.380
-236.859	643.631	-0.118	0.301
-235.844	800.000	0.057	0.247
-234.830	35.352	0.151	0.133
-233.815	7.068	-0.159	0.119
-232.800	476.137	-0.090	0.205
-231.786	85.614	-0.188	0.207
-230.771	800.000	0.080	0.232
-229.757	-200.000	-0.012	0.435
-228.742	-200.000	0.028	-0.381
-227.727	21.341	-0.044	-0.036
-226.713	-97.673	-0.254	0.066
-225.698	-200.000	-0.005	-0.287
-224.684	-104.570	0.197	-0.046
-223.669	-31.698	-0.094	-0.053
-222.655	800.000	-0.046	-0.162
-221.640	-140.277	-0.193	0.020
-220.625	7.680	-0.053	-0.040
-219.611	85.216	0.404	0.444
-218.596	800.000	0.034	0.095
-217.582	771.597	0.133	0.363
-216.567	93.701	0.066	-0.075
-215.552	291.368	0.018	-0.034
-214.538	-40.656	-0.127	-0.066
-213.523	394.381	-0.121	0.252
-212.509	59.855	0.054	0.053
-211.494	-41.154	0.257	0.133
-210.479	30.753	0.161	-0.138
-209.465	-70.055	0.261	-0.100
-208.450	-73.730	-0.011	0.004
-207.436	800.000	-0.057	0.185
-206.421	172.368	-0.158	-0.228
-205.406	-200.000	0.010	0.228
-204.392	8.281	-0.279	0.210
-203.377	-200.000	-0.030	-0.294
-202.363	13.195	0.059	0.046
-201.348	-200.000	0.023	-0.122
-200.333	-70.126	0.423	-0.161
-199.319	-200.000	0.016	0.126
-198.304	-17.156	0.079	-0.050
-197.290	-52.542	0.142	-0.066
-196.275	-105.656	0.333	0.075
-195.260	-23.797	-0.117	-0.070
-194.246	423.128	-0.083	0.179
-193.231	109.045	0.131	0.157
-192.217	-85.887	0.297	0.092
-191.202	-92.582	-0.256	-0.072
-190.187	-117.461	-0.124	0.023
-189.173	-12.207	0.219	-0.143
-188.158	-106.597	0.518	-0.115
-187.144	30.875	-0.252	-0.216
-186.129	-125.535	0.271	-0.041
-185.114	-46.432	-0.107	-0.053
-184.100	-94.038	-0.092	-0.025
-183.085	212.486	-0.097	0.153
-182.071	-200.000	0.045	-0.229
-181.056	-200.000	0.016	-0.124
-180.042	-188.322	-0.283	-0.004
-179.027	53.270	0.172	0.165
-178.012	-200.000	0.010	0.259
-176.998	-101.931	-0.342	0.083
-175.983	443.909	-0.021	-0.047
-174.969	22.330	-0.278	-0.227
-173.954	-200.000	-0.018	-0.290
-172.939	369.483	-0.050	-0.102
-171.925	41.586	0.176	-0.159
-170.910	-141.966	0.256	-0.026
-169.896	132.315	-0.195	-0.251
-168.881	-3.101	0.068	-0.047
-167.866	800.000	0.054	0.185
-166.852	800.000	-0.043	0.139
-165.837	-4.370	0.055	-0.038
-164.823	800.000	0.071	-0.275
-163.808	-66.263	0.152	0.060
-162.793	800.000	-0.099	-0.274
-161.779	120.583	0.226	-0.281
-160.764	145.236	-0.065	-0.087
-159.750	-124.900	0.225	0.035
-158.735	164.225	0.117	-0.165
-157.720	-200.000	0.023	-0.156
-156.706	75.480	-0.199	0.210
-155.691	656.142	-0.135	-0.347
-154.677	-52.464	-0.095	-0.044
-153.662	489.523	0.121	-0.278
-152.647	800.000	-0.094	-0.286
-151.633	286.058	-0.051	0.091
-150.618	-155.328	-0.204	-0.013
-149.604	-3.565	0.157	-0.109
-148.589	-73.325	0.184	-0.067
-147.574	-200.000	-0.012	-0.060
-146.560	248.241	-0.065	-0.110
-145.545	-93.707	0.275	0.076
-144.531	69.208	0.038	-0.039
-143.516	-168.284	0.089	-0.003
-142.502	-186.011	-0.351	0.005
-141.487	-200.000	-0.023	0.156
-140.472	-9.110	-0.114	-0.076
-139.458	-103.897	-0.192	-0.045
-138.443	800.000	-0.057	0.185
-137.429	271.053	0.135	-0.237
-136.414	800.000	-0.104	0.302
-135.399	58.802	0.191	0.188
-134.385	-96.089	0.179	-0.048
-133.370	-85.980	0.251	-0.077
-132.356	-172.903	-0.487	0.015
-131.341	-200.000	0.053	-0.265
-130.326	159.248	-0.240	-0.333
-129.312	272.037	0.042	-0.074
-128.297	-40.979	0.127	0.066
-127.283	108.632	-0.172	0.206
-126.268	208.272	-0.077	0.120
-125.253	-142.300	0.032	-0.003
-124.239	-109.938	0.224	0.047
-123.224	-100.692	0.276	-0.068
-122.210	-200.000	-0.039	-0.260
-121.195	-182.038	0.307	-0.006
