DTS Sentinel unit serial number:	SN413079Multiplexer serial number:	ORYXHardware model number:	OX4-SRSoftware version number:	ORYX F/W v4.00 Oryx Data Collector v3.7.2.0data status	okinstallation	princeton_trtdifferential loss correction	single-endedforward channel	channel 3reverse channel	N/Adate	2019/09/10time	21:02:11forward acquisition time	60.00reverse acquisition time	0.00gamma	496.2192k internal	0.2328k external	0.2328temperature offset calibration	0.9919default loss term (dB/km)	0.3790temperature slope calibration	1.0000multiplexer offset coefficient	1.0000multiplexer slope coefficient	1.0000fibre end	0.00T internal ref (°C)	31.58T ext. ref 1 (°C)	-0.32T ext. ref 2 (°C)	24.74length (m)	temperature (°C)	Stokes	anti-Stokes-747.200	-15.321	0.143	-0.092
-746.185	-153.999	-0.408	-0.028
-745.171	782.876	-0.095	-0.261
-744.156	21.471	-0.067	-0.055
-743.142	38.400	-0.249	-0.224
-742.127	-74.655	0.109	-0.039
-741.112	84.934	0.171	0.188
-740.098	-83.469	-0.185	-0.060
-739.083	58.379	0.257	-0.254
-738.069	-200.000	0.037	0.178
-737.054	-15.395	0.180	0.116
-736.039	208.260	-0.113	-0.179
-735.025	-91.525	0.236	0.068
-734.010	130.953	-0.099	0.128
-732.996	-200.000	0.018	0.160
-731.981	355.222	0.059	-0.118
-730.966	294.527	0.127	0.233
-729.952	-21.135	-0.325	-0.200
-728.937	-200.000	0.046	-0.436
-727.923	760.709	-0.150	-0.410
-726.908	-181.903	0.229	0.004
-725.894	800.000	-0.037	-0.123
-724.879	-38.880	0.116	0.061
-723.864	-2.779	-0.301	-0.212
-722.850	511.098	-0.069	0.161
-721.835	-18.237	0.149	0.094
-720.821	-39.178	-0.241	0.127
-719.806	800.000	-0.112	-0.382
-718.791	486.109	0.069	0.159
-717.777	800.000	-0.055	-0.240
-716.762	21.518	0.110	-0.090
-715.748	-200.000	-0.033	-0.204
-714.733	613.087	0.025	-0.064
-713.718	303.352	-0.160	-0.298
-712.704	-83.796	-0.142	0.046
-711.689	-200.000	-0.022	-0.170
-710.675	-25.833	0.214	0.127
-709.660	800.000	0.016	-0.068
-708.645	800.000	-0.002	-0.007
-707.631	608.623	0.171	0.428
-706.616	131.407	-0.120	-0.155
-705.602	-200.000	0.028	-0.143
-704.587	-200.000	-0.040	-0.218
-703.572	-135.109	0.316	0.038
-702.558	-73.988	0.215	0.078
-701.543	800.000	-0.067	0.238
-700.529	289.315	-0.112	-0.204
-699.514	5.851	0.315	-0.234
-698.499	368.531	-0.078	-0.158
-697.485	-163.900	0.140	0.007
-696.470	-4.177	-0.253	-0.176
-695.456	609.167	0.132	0.330
-694.441	-98.726	0.106	-0.027
-693.426	91.372	0.048	-0.054
-692.412	-148.065	-0.168	-0.014
-691.397	-200.000	-0.008	0.162
-690.383	127.338	0.206	0.263
-689.368	0.917	-0.259	-0.187
-688.354	800.000	-0.100	0.369
-687.339	-101.318	0.293	-0.072
-686.324	19.431	0.228	-0.184
-685.310	-92.849	0.246	-0.069
-684.295	50.912	-0.101	0.096
-683.281	113.241	0.130	0.158
-682.266	33.501	-0.291	-0.254
-681.251	-200.000	0.011	0.090
-680.237	-109.763	-0.120	-0.025
-679.222	72.837	0.047	-0.049
-678.208	23.877	-0.108	-0.090
-677.193	487.484	0.076	-0.174
-676.178	-35.976	0.144	0.079
-675.164	-171.424	-0.278	-0.009
-674.149	-200.000	0.026	-0.237
-673.135	320.424	0.032	-0.060
-672.120	11.789	-0.054	0.042
-671.105	72.230	0.156	0.163
-670.091	-200.000	-0.035	0.251
-669.076	-200.000	0.024	0.127
-668.062	111.001	0.049	-0.059
-667.047	-141.458	-0.198	-0.020
-666.032	108.954	-0.091	-0.109
-665.018	11.469	0.361	0.278
-664.003	25.797	-0.152	0.127
-662.989	709.264	-0.048	0.127
-661.974	59.559	-0.095	0.094
-660.959	-200.000	-0.068	-0.362
-659.945	-200.000	0.030	-0.224
-658.930	158.742	-0.195	0.272
-657.916	-137.455	-0.337	-0.038
-656.901	-143.929	0.177	-0.017
-655.886	-35.980	0.093	0.050
-654.872	-95.751	0.381	-0.102
-653.857	108.524	-0.164	-0.197
-652.843	-200.000	-0.040	-0.184
-651.828	-126.578	-0.362	0.054
-650.814	800.000	-0.064	0.227
-649.799	49.283	0.156	0.148
-648.784	-121.026	-0.122	0.021
-647.770	-167.122	-0.304	0.012
-646.755	87.145	0.077	0.086
-645.741	-37.510	-0.143	0.077
-644.726	705.000	-0.120	-0.318
-643.711	-25.507	-0.122	-0.072
-642.697	-88.129	0.308	0.093
-641.682	-178.267	-0.399	-0.009
-640.668	-170.723	-0.157	-0.005
-639.653	99.071	-0.192	-0.223
-638.638	-200.000	-0.014	0.349
-637.624	-200.000	-0.018	0.126
-636.609	-55.243	-0.192	0.086
-635.595	-70.371	-0.327	-0.124
-634.580	-200.000	0.051	-0.380
-633.565	-97.303	-0.076	-0.020
-632.551	-95.905	0.216	-0.058
-631.536	54.314	-0.168	-0.162
-630.522	16.958	0.395	0.314
-629.507	-26.737	-0.214	0.126
-628.492	-148.512	-0.145	0.012
-627.478	527.119	0.222	0.525
-626.463	14.878	-0.086	0.068
-625.449	30.399	-0.099	-0.085
-624.434	800.000	0.117	-0.340
-623.419	55.437	0.212	0.206
-622.405	-14.641	0.103	-0.067
-621.390	800.000	-0.087	0.242
-620.376	-200.000	-0.057	0.331
-619.361	116.470	0.204	0.251
-618.346	-126.799	0.152	-0.023
-617.332	383.311	-0.055	0.113
-616.317	106.339	-0.247	0.294
-615.303	7.719	-0.149	0.112
-614.288	800.000	-0.017	0.058
-613.273	-181.880	-0.181	-0.003
-612.259	88.751	-0.020	0.022
-611.244	-67.554	0.171	-0.067
-610.230	360.152	-0.074	0.148
-609.215	-200.000	0.016	0.133
-608.201	800.000	0.046	0.171
-607.186	-75.900	-0.204	0.072
-606.171	432.087	0.136	0.296
-605.157	-35.797	-0.153	0.083
-604.142	456.388	-0.034	-0.076
-603.128	800.000	0.100	0.315
-602.113	-90.221	0.097	-0.028
-601.098	135.142	-0.107	-0.140
-600.084	800.000	0.118	-0.386
-599.069	555.520	-0.151	-0.365
-598.055	160.667	-0.081	-0.113
-597.040	-131.703	0.091	0.012
-596.025	627.582	-0.055	0.138
-595.011	-124.228	0.014	-0.002
-593.996	174.881	0.139	0.202
-592.982	174.057	0.142	-0.205
-591.967	800.000	-0.067	0.248
-590.952	74.728	0.144	-0.152
-589.938	800.000	0.016	0.063
-588.923	29.366	-0.099	-0.084
-587.909	35.521	-0.268	0.236
-586.894	82.848	-0.248	0.270
-585.879	-176.190	-0.269	-0.007
-584.865	800.000	-0.031	0.119
-583.850	36.468	-0.167	0.147
-582.836	-44.726	0.573	-0.286
-581.821	-94.148	0.220	0.060
-580.806	16.676	0.286	0.227
-579.792	-184.239	0.226	0.004
-578.777	438.623	-0.160	0.349
-577.763	-200.000	-0.036	-0.266
-576.748	-200.000	-0.002	-0.156
-575.733	98.423	-0.157	-0.181
-574.719	-200.000	-0.032	0.167
-573.704	19.829	-0.265	-0.213
-572.690	132.945	-0.183	0.236
-571.675	115.077	0.204	0.249
-570.661	110.002	-0.164	0.197
-569.646	-46.106	0.038	-0.019
-568.631	-120.999	-0.139	-0.023
-567.617	-114.979	0.149	-0.028
-566.602	-109.190	-0.197	-0.042
-565.588	70.007	0.256	-0.264
-564.573	-166.349	0.679	0.029
-563.558	800.000	-0.057	0.196
-562.544	-137.194	-0.117	0.013
-561.529	262.683	-0.081	0.141
-560.515	-103.673	0.205	-0.048
-559.500	36.168	0.084	-0.074
-558.485	446.713	-0.246	0.541
-557.471	244.840	0.083	-0.139
-556.456	57.329	-0.064	0.062
-555.442	368.546	0.151	-0.306
-554.427	54.034	-0.126	-0.121
-553.412	246.020	-0.088	-0.149
-552.398	-47.312	-0.091	-0.045
-551.383	164.191	0.059	0.083
-550.369	266.879	-0.138	0.241
-549.354	50.972	0.071	0.067
-548.339	110.762	0.187	-0.225
-547.325	-200.000	0.032	-0.303
-546.310	800.000	-0.058	0.215
-545.296	-0.963	-0.235	-0.166
-544.281	309.060	-0.125	-0.234
-543.266	-200.000	-0.043	-0.293
-542.252	-57.635	0.157	0.069
-541.237	98.772	-0.220	0.254
-540.223	-200.000	-0.003	-0.034
-539.208	-200.000	0.025	-0.177
-538.193	86.553	-0.161	-0.178
-537.179	80.586	-0.063	-0.068
-536.164	-200.000	-0.050	-0.260
-535.150	-98.444	-0.507	0.130
-534.135	71.842	-0.284	-0.295
-533.121	585.757	-0.002	-0.005
-532.106	-78.047	-0.273	-0.094
-531.091	139.291	0.227	-0.299
-530.077	534.675	0.130	-0.309
-529.062	800.000	0.119	0.416
-528.048	-200.000	-0.065	-0.330
-527.033	382.498	0.075	-0.154
-526.018	-133.939	0.338	-0.042
-525.004	-107.778	-0.173	0.038
-523.989	77.185	0.211	0.224
-522.975	-54.647	-0.280	0.126
-521.960	4.467	0.197	-0.144
-520.945	-200.000	-0.003	-0.239
-519.931	68.335	0.162	-0.166
-518.916	534.045	0.149	-0.353
-517.902	-200.000	-0.079	0.446
-516.887	0.619	-0.137	-0.098
-515.872	-17.263	-0.132	0.083
-514.858	-154.452	0.131	0.009
-513.843	-138.914	0.275	0.030
-512.829	34.023	-0.097	0.084
-511.814	-5.876	-0.040	-0.027
-510.799	-200.000	0.030	-0.238
-509.785	800.000	0.042	-0.143
-508.770	-200.000	0.029	0.229
-507.756	-168.325	-0.325	-0.013
-506.741	165.769	-0.101	-0.143
-505.726	689.485	-0.180	-0.470
-504.712	318.946	-0.037	-0.071
-503.697	352.490	-0.026	0.051
-502.683	381.061	-0.098	0.201
-501.668	-46.848	-0.354	-0.173
-500.653	800.000	0.061	-0.215
-499.639	39.037	0.059	-0.053
-498.624	-39.578	-0.218	-0.114
-497.610	-200.000	-0.005	-0.071
-496.595	-46.133	0.313	0.154
-495.581	-40.380	-0.290	0.151
-494.566	-28.730	-0.392	0.225
-493.551	260.699	-0.160	0.276
-492.537	117.927	-0.313	0.385
-491.522	-62.615	0.276	0.114
-490.508	-164.054	-0.252	-0.012
-489.493	-40.647	-0.262	0.136
-488.478	188.832	-0.155	0.232
-487.464	12.061	0.225	0.173
-486.449	800.000	-0.050	-0.186
-485.435	-2.536	-0.144	-0.101
-484.420	29.961	-0.052	-0.044
-483.405	-190.257	0.185	0.002
-482.391	-101.939	-0.160	0.038
-481.376	-102.816	0.480	0.114
-480.362	6.025	0.112	0.083
-479.347	49.134	-0.178	-0.167
-478.332	-61.724	-0.089	0.037
-477.318	296.570	-0.024	-0.044
-476.303	-130.071	0.368	-0.050
-475.289	14.043	0.044	0.034
-474.274	800.000	0.019	-0.067
-473.259	800.000	-0.092	-0.337
-472.245	-104.761	-0.142	0.033
-471.230	-83.318	-0.118	0.038
-470.216	-88.458	0.176	0.052
-469.201	-200.000	-0.241	0.000
-468.186	-135.421	0.087	-0.010
-467.172	800.000	0.052	-0.220
-466.157	-114.468	0.343	0.066
-465.143	336.330	-0.069	-0.133
-464.128	-29.246	0.204	0.116
-463.113	-94.653	-0.277	0.075
-462.099	-200.000	-0.023	-0.312
-461.084	520.079	0.082	-0.192
-460.070	-20.959	-0.121	-0.074
-459.055	-200.000	-0.038	-0.371
-458.040	206.413	0.026	0.041
-457.026	339.265	0.118	0.230
-456.011	135.265	0.072	0.093
-454.997	8.953	0.278	-0.209
-453.982	-2.990	0.299	-0.208
-452.968	-78.156	0.330	-0.113
-451.953	-200.000	-0.024	-0.207
-450.938	53.322	-0.159	-0.152
-449.924	197.442	-0.207	-0.316
-448.909	67.155	-0.185	-0.188
-447.895	52.111	0.149	0.142
-446.880	207.612	-0.147	0.229
-445.865	-136.710	-0.258	0.030
-444.851	-200.000	-0.017	0.238
-443.836	800.000	0.054	0.223
-442.822	800.000	-0.067	0.229
-441.807	800.000	-0.066	0.194
-440.792	-200.000	-0.018	-0.154
-439.778	-42.138	0.146	-0.074
-438.763	23.244	-0.174	0.142
-437.749	-9.989	-0.126	-0.084
-436.734	-200.000	-0.055	0.445
-435.719	-157.758	0.285	-0.017
-434.705	399.710	-0.140	-0.292
-433.690	158.372	0.070	0.097
-432.676	800.000	-0.010	0.031
-431.661	800.000	0.019	0.084
-430.646	198.112	0.108	0.164
-429.632	-136.299	-0.433	0.050
-428.617	-68.204	0.128	-0.049
-427.603	-110.821	0.285	-0.059
-426.588	-123.153	0.147	0.024
-425.573	-11.950	-0.121	-0.079
-424.559	-66.897	0.130	-0.051
-423.544	-102.254	0.463	0.111
-422.530	41.383	0.221	0.199
-421.515	-200.000	0.033	0.218
-420.500	83.141	0.188	0.203
-419.486	73.409	-0.247	0.257
-418.471	22.057	0.017	0.014
-417.457	236.487	0.158	-0.260
-416.442	-20.019	-0.369	-0.226
-415.428	251.345	-0.155	0.263
-414.413	-28.144	0.236	-0.136
-413.398	-188.767	-0.131	-0.002
-412.384	126.901	-0.312	-0.393
-411.369	-1.941	0.029	-0.020
-410.355	800.000	0.062	-0.217
-409.340	800.000	-0.028	0.097
-408.325	136.444	0.107	-0.138
-407.311	-200.000	-0.033	-0.428
-406.296	12.666	-0.117	-0.089
-405.282	212.256	0.127	-0.199
-404.267	-33.837	0.080	0.044
-403.252	40.809	-0.302	0.271
-402.238	-63.907	-0.286	0.116
-401.223	387.068	0.055	-0.114
-400.209	-43.121	-0.164	0.083
-399.194	-85.937	0.153	0.047
-398.179	105.852	0.200	0.236
-397.165	10.916	-0.274	0.208
-396.150	-41.896	0.187	-0.095
-395.136	-200.000	0.002	-0.078
-394.121	400.215	0.109	-0.228
-393.106	-69.646	-0.060	0.023
-392.092	-4.950	0.164	-0.112
-391.077	22.169	0.053	0.043
-390.063	-188.152	0.031	0.000
-389.048	-200.000	-0.009	-0.050
-388.033	-200.000	-0.030	0.579
-387.019	690.412	0.063	-0.164
-386.004	800.000	-0.053	-0.170
-384.990	800.000	0.086	0.270
-383.975	-175.733	-0.379	-0.010
-382.960	-71.006	-0.124	0.046
-381.946	299.839	0.164	0.300
-380.931	-125.679	0.168	0.025
-379.917	-31.681	0.215	-0.120
-378.902	-18.908	0.271	-0.168
-377.888	-12.569	-0.168	-0.109
-376.873	800.000	0.081	0.259
-375.858	-99.681	0.401	-0.100
-374.844	-115.317	-0.269	0.050
-373.829	156.663	-0.194	-0.267
-372.815	32.679	0.080	-0.069
-371.800	52.172	0.083	0.079
-370.785	424.236	-0.108	0.231
-369.771	685.350	-0.107	-0.277
-368.756	-180.131	0.380	-0.008
-367.742	-200.000	0.045	-0.398
-366.727	-85.033	-0.133	-0.041
-365.712	145.132	0.144	0.191
-364.698	231.109	0.100	-0.162
-363.683	179.487	0.039	-0.057
-362.669	96.063	-0.096	0.109
-361.654	368.474	0.031	-0.062
-360.639	40.210	0.285	0.255
-359.625	800.000	0.051	0.214
-358.610	-200.000	-0.029	0.132
-357.596	-200.000	-0.005	0.294
-356.581	94.487	-0.104	0.117
-355.566	-77.850	0.202	-0.069
-354.552	-153.485	0.327	-0.023
-353.537	299.769	0.153	0.280
-352.523	800.000	-0.015	0.058
-351.508	29.622	0.119	-0.101
-350.493	-191.357	0.151	0.002
-349.479	148.046	-0.077	0.103
-348.464	85.030	0.211	-0.230
-347.450	800.000	0.057	-0.199
-346.435	279.206	0.174	0.308
-345.420	-200.000	0.024	0.181
-344.406	763.500	0.036	-0.096
-343.391	-200.000	-0.004	0.038
-342.377	-4.854	0.125	0.085
-341.362	800.000	0.015	-0.045
-340.348	-17.489	-0.251	0.157
-339.333	800.000	0.107	-0.452
-338.318	-200.000	-0.049	-0.419
-337.304	-29.068	0.395	-0.225
-336.289	800.000	0.030	-0.096
-335.275	3.670	0.110	-0.080
-334.260	-109.473	0.033	-0.007
-333.245	-0.838	-0.093	0.065
-332.231	-200.000	0.002	0.042
-331.216	-48.039	-0.256	-0.123
-330.202	-200.000	0.032	-0.261
-329.187	-64.564	0.364	0.146
-328.172	-200.000	0.037	-0.211
-327.158	-83.652	0.362	0.115
-326.143	121.821	-0.025	0.030
-325.129	-71.325	0.317	0.118
-324.114	-92.735	-0.637	-0.177
-323.099	-121.803	0.376	0.061
-322.085	37.221	0.252	0.221
-321.070	800.000	0.060	0.212
-320.056	800.000	0.085	-0.270
-319.041	-200.000	0.006	0.028
-318.026	37.808	-0.213	-0.187
-317.012	69.265	0.017	0.018
-315.997	266.238	-0.102	0.176
-314.983	317.129	-0.126	0.237
-313.968	-11.335	-0.194	0.126
-312.953	-110.754	0.258	-0.053
-311.939	636.114	0.135	-0.339
-310.924	-200.000	-0.025	0.153
-309.910	800.000	0.038	0.114
-308.895	-200.000	-0.011	0.157
-307.880	-110.344	-0.093	-0.019
-306.866	11.272	0.138	0.105
-305.851	-200.000	-0.008	0.396
-304.837	54.152	-0.257	0.244
-303.822	-32.316	0.154	-0.085
-302.807	800.000	-0.041	-0.164
-301.793	800.000	-0.040	0.123
-300.778	66.218	-0.103	0.103
-299.764	-0.582	-0.078	-0.055
-298.749	316.285	-0.140	0.262
-297.735	415.333	-0.126	0.266
-296.720	100.402	-0.144	-0.166
-295.705	421.807	0.176	-0.375
-294.691	-69.779	0.270	0.102
-293.676	-106.426	-0.148	-0.033
-292.662	183.785	0.151	0.221
-291.647	-108.403	-0.430	-0.092
-290.632	-48.423	0.170	0.081
-289.618	-200.000	-0.015	-0.067
-288.603	54.551	-0.069	-0.066
-287.589	-163.237	-0.218	-0.010
-286.574	-131.624	-0.170	0.022
-285.559	-200.000	0.004	0.024
-284.545	9.675	-0.227	-0.170
-283.530	-200.000	0.011	-0.255
-282.516	158.028	-0.076	-0.104
-281.501	-100.606	0.215	-0.052
-280.486	37.840	0.292	0.257
-279.472	-200.000	0.018	0.497
-278.457	-101.182	-0.164	0.040
-277.443	800.000	0.062	0.211
-276.428	293.991	0.032	-0.058
-275.413	83.655	0.127	-0.137
-274.399	-56.059	-0.513	0.226
-273.384	87.380	0.259	-0.284
-272.370	-189.272	-0.385	-0.004
-271.355	263.784	-0.075	-0.129
-270.340	207.731	0.138	-0.214
-269.326	-164.464	-0.173	-0.008
-268.311	-172.202	-0.339	0.011
-267.297	188.820	-0.120	-0.178
-266.282	-38.449	0.380	-0.199
-265.267	208.818	-0.161	-0.250
-264.253	-200.000	-0.019	0.123
-263.238	-200.000	-0.005	0.311
-262.224	-47.721	-0.158	0.076
-261.209	7.117	0.280	0.207
-260.195	-11.644	0.131	-0.085
-259.180	-200.000	-0.008	0.234
-258.165	-54.576	-0.034	0.015
-257.151	610.136	0.070	-0.174
-256.136	-87.259	-0.147	-0.044
-255.122	3.705	-0.370	-0.267
-254.107	74.168	0.136	-0.141
-253.092	127.683	-0.127	-0.159
-252.078	-29.322	0.218	-0.123
-251.063	-200.000	0.021	-0.163
-250.049	-63.566	0.219	0.089
-249.034	-117.258	0.232	0.042
-248.019	142.703	0.140	-0.185
-247.005	-200.000	0.057	-0.441
-245.990	366.075	-0.123	-0.245
-244.976	87.775	-0.083	0.091
-243.961	319.310	0.120	-0.224
-242.946	128.523	0.241	-0.303
-241.932	-119.242	-0.391	-0.067
-240.917	-146.411	-0.410	-0.035
-239.903	-136.126	-0.331	-0.038
-238.888	-45.959	0.269	0.131
-237.873	254.055	0.182	0.307
-236.859	-98.330	0.330	0.084
-235.844	-127.561	0.194	-0.028
-234.830	-81.948	-0.157	-0.051
-233.815	-149.042	-0.135	-0.011
-232.800	-113.305	-0.117	-0.023
-231.786	48.895	-0.244	0.227
-230.771	42.050	-0.228	0.204
-229.757	-57.623	0.253	-0.109
-228.742	-100.398	0.294	0.072
-227.727	-200.000	-0.103	-0.566
-226.713	595.652	0.067	-0.164
-225.698	127.643	0.244	-0.307
-224.684	-43.957	-0.138	-0.068
-223.669	-182.580	-0.153	0.003
-222.655	141.941	0.262	0.343
-221.640	-35.312	-0.197	0.106
-220.625	14.873	0.167	0.129
-219.611	221.888	-0.070	-0.111
-218.596	49.064	0.047	0.043
-217.582	-200.000	-0.013	-0.114
-216.567	270.042	0.150	0.260
-215.552	-110.882	0.146	0.030
-214.538	-137.625	-0.078	0.009
-213.523	-99.326	-0.268	0.067
-212.509	-2.287	-0.293	0.203
-211.494	-22.481	-0.099	0.059
-210.479	174.886	-0.320	-0.458
-209.465	-200.000	-0.053	-0.386
-208.450	800.000	-0.100	0.284
-207.436	-192.761	0.011	0.000
-206.421	-50.893	-0.130	0.060
-205.406	-200.000	-0.012	0.596
-204.392	100.407	0.192	0.220
-203.377	130.258	0.257	-0.325
-202.363	68.213	0.206	-0.209
-201.348	215.291	-0.048	-0.076
-200.333	167.778	0.122	0.171
-199.319	186.746	-0.201	-0.295
-198.304	-1.297	0.168	-0.117
-197.290	-28.697	0.059	-0.034
-196.275	555.480	-0.078	-0.185
-195.260	-200.000	0.002	0.285
-194.246	-200.000	0.028	0.131
-193.231	-29.614	0.202	0.114
-192.217	-53.394	-0.260	0.117
-191.202	665.007	-0.042	0.106
-190.187	94.257	0.261	-0.292
-189.173	-25.153	0.326	-0.191
-188.158	-118.760	-0.065	0.011
-187.144	314.390	0.075	-0.139
-186.129	-137.752	-0.108	-0.012
-185.114	637.754	0.117	0.292
-184.100	-36.193	-0.432	0.230
-183.085	-15.442	0.153	-0.096
-182.071	-200.000	0.006	0.054
-181.056	-72.494	0.119	-0.043
-180.042	-175.596	-0.062	0.002
-179.027	-10.531	-0.127	0.083
-178.012	-141.787	-0.173	0.017
-176.998	329.785	-0.043	0.081
-175.983	31.571	0.151	0.128
-174.969	-154.211	0.211	0.014
-173.954	-48.875	0.202	-0.095
-172.939	-68.686	0.016	-0.006
-171.925	-87.195	-0.264	0.079
-170.910	-111.230	-0.243	0.049
-169.896	89.046	0.208	-0.229
-168.881	26.606	0.212	-0.175
-167.866	800.000	-0.069	-0.296
-166.852	332.543	0.135	-0.257
-165.837	112.084	-0.114	0.135
-164.823	-200.000	-0.043	0.311
-163.808	-34.807	-0.247	0.133
-162.793	100.094	0.116	-0.132
-161.779	83.663	0.268	-0.288
-160.764	-65.634	0.230	0.091
-159.750	-146.046	0.328	-0.029
-158.735	-141.894	-0.250	0.025
-157.720	55.667	0.123	0.117
-156.706	-6.125	0.158	0.106
-155.691	554.771	0.090	0.214
-154.677	675.330	0.106	0.271
-153.662	-124.188	0.177	-0.027
-152.647	-38.680	-0.174	0.091
-151.633	-111.011	0.063	-0.013
-150.618	-66.652	-0.408	0.159
-149.604	83.265	0.161	-0.173
-148.589	-28.101	-0.092	-0.052
-147.574	-75.362	-0.094	0.033
-146.560	510.664	0.092	0.211
-145.545	366.409	-0.080	0.158
-144.531	-11.052	0.101	0.065
-143.516	549.716	0.104	-0.245
-142.502	-58.927	-0.431	0.183
-141.487	389.585	-0.051	-0.105
-140.472	98.548	-0.193	-0.219
-139.458	-200.000	0.114	0.000
-138.443	-52.239	-0.240	0.109
-137.429	-174.853	-0.505	0.014
-136.414	492.399	0.124	0.280
-135.399	-200.000	-0.018	0.185
-134.385	154.859	-0.075	-0.102
-133.370	-71.031	-0.134	-0.050
-132.356	800.000	0.050	-0.181
-131.341	-104.450	0.189	0.043
-130.326	172.838	-0.095	-0.135
-129.312	-62.943	-0.171	0.069
-128.297	-200.000	0.017	-0.078
-127.283	-28.739	-0.134	0.076
-126.268	488.661	-0.087	0.196
-125.253	171.684	0.220	-0.311
-124.239	-12.899	0.143	-0.091
-123.224	98.830	0.204	-0.232
-122.210	-54.743	-0.270	0.120
-121.195	-87.720	-0.399	-0.118
