DTS Sentinel unit serial number:	SN413079Multiplexer serial number:	ORYXHardware model number:	OX4-SRSoftware version number:	ORYX F/W v4.00 Oryx Data Collector v3.7.2.0data status	okinstallation	princeton_trtdifferential loss correction	single-endedforward channel	channel 3reverse channel	N/Adate	2019/09/11time	15:06:10forward acquisition time	60.00reverse acquisition time	0.00gamma	496.2192k internal	0.2289k external	0.2289temperature offset calibration	0.9984default loss term (dB/km)	0.3790temperature slope calibration	1.0000multiplexer offset coefficient	1.0000multiplexer slope coefficient	1.0000fibre end	0.00T internal ref (°C)	42.94T ext. ref 1 (°C)	0.97T ext. ref 2 (°C)	38.07length (m)	temperature (°C)	Stokes	anti-Stokes-747.200	126.195	0.034	0.044
-746.185	268.753	0.147	0.264
-745.171	-122.575	0.399	0.066
-744.156	-28.090	-0.156	-0.093
-743.142	-112.098	0.101	-0.021
-742.127	311.346	-0.142	0.273
-741.112	-131.791	-0.134	-0.018
-740.098	-13.218	0.145	0.097
-739.083	-17.173	-0.247	0.159
-738.069	110.299	-0.259	0.318
-737.054	-200.000	-0.001	-0.090
-736.039	800.000	-0.086	-0.266
-735.025	-105.094	0.363	-0.085
-734.010	-200.000	0.028	-0.140
-732.996	-200.000	0.002	-0.156
-731.981	109.068	-0.187	-0.230
-730.966	622.884	0.150	0.387
-729.952	730.578	-0.063	0.171
-728.937	11.720	0.259	-0.204
-727.923	-200.000	-0.005	-0.043
-726.908	-43.061	0.238	-0.124
-725.894	-200.000	-0.006	0.278
-724.879	-200.000	0.022	0.259
-723.864	-17.222	-0.264	0.170
-722.850	-120.259	0.130	-0.023
-721.835	-133.980	-0.273	-0.035
-720.821	758.202	0.028	0.077
-719.806	-73.292	-0.095	-0.036
-718.791	-200.000	0.022	-0.130
-717.777	-124.801	-0.118	-0.019
-716.762	-17.631	0.311	0.200
-715.748	127.530	0.038	-0.049
-714.733	569.938	-0.074	-0.185
-713.718	256.997	-0.180	0.317
-712.704	-180.892	0.153	0.003
-711.689	-68.212	-0.299	0.119
-710.675	104.575	0.288	-0.348
-709.660	-59.986	-0.358	0.156
-708.645	97.833	0.072	-0.085
-707.631	-200.000	-0.056	-0.261
-706.616	-2.014	-0.280	-0.201
-705.602	100.114	0.040	0.048
-704.587	800.000	-0.065	-0.204
-703.572	1.289	0.323	-0.237
-702.558	10.310	0.211	-0.165
-701.543	-127.541	-0.390	0.058
-700.529	-10.802	-0.331	0.224
-699.514	800.000	-0.028	0.120
-698.499	32.463	0.250	-0.221
-697.485	-57.007	0.238	-0.107
-696.470	800.000	-0.020	0.087
-695.456	162.227	-0.043	-0.062
-694.441	126.521	0.074	-0.096
-693.426	-60.016	-0.414	0.181
-692.412	-41.420	0.240	-0.126
-691.397	-200.000	-0.022	0.172
-690.383	348.285	-0.125	0.251
-689.368	474.717	-0.071	0.165
-688.354	130.811	0.160	0.210
-687.339	-115.871	0.140	-0.027
-686.324	-30.334	0.227	0.132
-685.310	234.793	-0.192	-0.323
-684.295	-19.857	0.144	0.091
-683.281	-200.000	-0.015	0.103
-682.266	-117.846	0.310	0.057
-681.251	120.612	0.039	-0.049
-680.237	-92.471	0.233	0.067
-679.222	122.084	-0.165	0.211
-678.208	495.985	0.023	0.053
-677.193	7.639	0.196	-0.150
-676.178	800.000	0.071	0.219
-675.164	-72.030	0.417	0.159
-674.149	-200.000	0.007	0.087
-673.135	139.996	-0.030	0.040
-672.120	156.734	0.153	0.215
-671.105	476.871	-0.153	-0.352
-670.091	-129.172	-0.143	0.020
-669.076	-101.633	-0.226	-0.056
-668.062	-200.000	0.027	-0.503
-667.047	-27.631	0.078	-0.046
-666.032	-112.772	-0.376	-0.076
-665.018	-200.000	0.000	-0.032
-664.003	-167.141	0.081	-0.003
-662.989	-57.868	0.286	-0.128
-661.974	147.063	-0.022	-0.030
-660.959	-86.877	-0.187	0.058
-659.945	209.426	-0.081	-0.130
-658.930	110.132	0.048	-0.059
-657.916	-163.106	0.199	0.010
-656.901	78.120	-0.075	-0.081
-655.886	-200.000	0.037	-0.212
-654.872	1.849	-0.210	0.155
-653.857	-200.000	-0.037	-0.197
-652.843	-102.429	0.064	0.016
-651.828	-200.000	-0.007	-0.115
-650.814	169.695	0.094	-0.137
-649.799	-200.000	0.011	0.099
-648.784	-17.441	-0.311	0.200
-647.770	-12.121	-0.127	-0.085
-646.755	-200.000	0.006	-0.129
-645.741	-77.060	-0.431	-0.154
-644.726	143.861	-0.242	-0.329
-643.711	800.000	-0.080	0.296
-642.697	-65.939	-0.411	0.168
-641.682	-149.784	-0.145	0.012
-640.668	190.434	-0.096	0.147
-639.653	281.632	-0.104	-0.191
-638.638	-46.409	0.154	-0.077
-637.624	271.278	-0.101	0.182
-636.609	-200.000	0.002	-0.020
-635.595	-200.000	0.098	-0.441
-634.580	-5.715	-0.184	-0.128
-633.565	-200.000	-0.042	-0.210
-632.551	-200.000	0.039	0.273
-631.536	157.895	-0.057	-0.080
-630.522	173.803	-0.098	0.144
-629.507	800.000	0.043	0.152
-628.492	-200.000	0.023	-0.353
-627.478	248.664	-0.045	-0.078
-626.463	-111.658	-0.196	-0.041
-625.449	-136.615	-0.099	-0.012
-624.434	80.494	-0.251	-0.276
-623.419	94.836	0.174	0.202
-622.405	759.206	-0.042	-0.115
-621.390	-171.298	0.300	0.010
-620.376	7.931	-0.072	-0.055
-619.361	-149.927	-0.094	0.007
-618.346	-151.564	0.086	-0.006
-617.332	278.383	0.038	0.070
-616.317	-15.844	-0.170	0.110
-615.303	-55.014	-0.108	-0.050
-614.288	-85.089	0.217	0.069
-613.273	-49.490	0.074	-0.036
-612.259	32.773	-0.058	0.051
-611.244	-200.000	-0.003	-0.060
-610.230	-200.000	-0.010	0.212
-609.215	-200.000	0.020	0.159
-608.201	74.580	-0.313	-0.335
-607.186	800.000	-0.031	0.094
-606.171	83.622	0.125	-0.139
-605.157	38.252	-0.198	0.180
-604.142	-200.000	-0.050	0.225
-603.128	-200.000	-0.035	-0.181
-602.113	400.119	0.173	-0.370
-601.098	57.744	0.188	0.187
-600.084	-200.000	-0.013	0.086
-599.069	88.137	-0.066	-0.074
-598.055	-74.317	0.270	0.099
-597.040	-40.682	-0.003	0.001
-596.025	800.000	0.024	-0.105
-595.011	-200.000	-0.013	-0.113
-593.996	-112.625	0.160	-0.033
-592.982	-35.537	-0.196	-0.109
-591.967	145.120	-0.149	-0.203
-590.952	-158.728	-0.242	0.014
-589.938	-155.249	-0.233	0.015
-588.923	-200.000	-0.009	0.419
-587.909	-200.000	-0.031	0.205
-586.894	33.585	0.301	-0.266
-585.879	792.194	-0.026	-0.074
-584.865	-32.522	-0.255	0.145
-583.850	159.727	-0.111	-0.158
-582.836	-179.866	-0.161	-0.004
-581.821	51.866	-0.183	-0.177
-580.806	45.131	0.057	-0.054
-579.792	-130.551	-0.129	-0.018
-578.777	1.042	0.154	-0.112
-577.763	333.674	-0.143	0.282
-576.748	-200.000	0.029	0.199
-575.733	355.169	0.030	0.060
-574.719	572.855	-0.108	-0.268
-573.704	-106.076	0.138	-0.032
-572.690	133.072	0.079	0.104
-571.675	-33.440	-0.374	-0.210
-570.661	72.558	-0.459	-0.487
-569.646	-47.578	-0.248	-0.122
-568.631	45.908	-0.269	-0.254
-567.617	0.303	0.132	0.096
-566.602	-28.682	-0.228	-0.133
-565.588	190.323	0.037	-0.057
-564.573	-7.652	-0.189	0.130
-563.558	93.806	0.057	0.065
-562.544	-0.141	0.126	-0.091
-561.529	499.141	-0.147	0.345
-560.515	-51.859	0.052	0.025
-559.500	-174.020	-0.180	0.005
-558.485	276.076	-0.111	0.200
-557.471	-162.350	0.488	-0.025
-556.456	43.976	-0.267	-0.249
-555.442	221.033	-0.049	-0.079
-554.427	-200.000	0.027	0.299
-553.412	-19.987	0.206	0.130
-552.398	-200.000	-0.005	-0.193
-551.383	-200.000	0.033	0.221
-550.369	-115.258	-0.179	0.034
-549.354	-200.000	-0.012	-0.377
-548.339	-45.883	-0.204	-0.102
-547.325	76.911	0.271	-0.293
-546.310	-200.000	0.025	-0.143
-545.296	316.653	0.121	-0.233
-544.281	-200.000	-0.019	-0.192
-543.266	-91.995	-0.034	0.010
-542.252	5.409	-0.143	0.107
-541.237	218.971	-0.075	0.122
-540.223	-108.787	-0.224	0.049
-539.208	560.678	0.109	0.269
-538.193	22.311	0.516	0.428
-537.179	-21.046	-0.131	0.082
-536.164	-200.000	-0.032	-0.277
-535.150	23.150	0.077	-0.064
-534.135	409.275	0.080	0.173
-533.121	137.834	-0.101	-0.135
-532.106	14.057	0.271	0.214
-531.091	-88.902	0.335	0.101
-530.077	-9.032	0.221	0.150
-529.062	-200.000	-0.015	0.104
-528.048	-180.357	-0.075	-0.002
-527.033	541.761	-0.064	-0.156
-526.018	-178.127	0.146	-0.004
-525.004	-15.480	-0.150	0.098
-523.989	61.054	0.102	0.103
-522.975	124.538	-0.081	-0.103
-521.960	69.534	-0.374	-0.391
-520.945	-200.000	0.009	0.241
-519.931	-36.169	0.078	0.043
-518.916	-44.650	-0.093	0.047
-517.902	-200.000	0.022	0.177
-516.887	179.419	0.054	-0.081
-515.872	-15.003	-0.340	0.222
-514.858	-91.611	0.056	-0.016
-513.843	800.000	-0.047	-0.169
-512.829	-14.289	0.118	0.078
-511.814	-56.931	0.247	-0.111
-510.799	330.322	-0.115	0.224
-509.785	-200.000	0.018	-0.546
-508.770	-73.430	-0.168	-0.062
-507.756	-166.390	0.204	-0.009
-506.741	-111.195	0.129	0.027
-505.726	413.683	-0.072	0.156
-504.712	-91.275	-0.154	-0.045
-503.697	-74.136	0.184	0.068
-502.683	-119.896	-0.030	0.005
-501.668	-89.959	0.213	-0.063
-500.653	-131.356	0.186	0.025
-499.639	-200.000	-0.006	-0.365
-498.624	291.852	0.115	0.213
-497.610	-200.000	0.012	0.263
-496.595	-8.040	-0.090	-0.062
-495.581	96.300	0.130	-0.151
-494.566	-0.981	0.184	-0.132
-493.551	-103.763	-0.293	0.070
-492.537	198.813	-0.023	0.035
-491.522	-108.357	0.133	-0.029
-490.508	-200.000	0.003	-0.144
-489.493	-200.000	-0.035	0.533
-488.478	22.184	0.108	-0.089
-487.464	124.227	-0.147	0.188
-486.449	-200.000	-0.005	0.066
-485.435	172.700	-0.113	-0.164
-484.420	-200.000	0.012	-0.215
-483.405	84.126	0.201	0.223
-482.391	-134.636	-0.196	0.024
-481.376	-200.000	0.030	-0.269
-480.362	-90.006	0.254	-0.075
-479.347	-200.000	0.038	0.308
-478.332	-200.000	-0.039	-0.187
-477.318	-33.991	-0.336	-0.188
-476.303	-18.655	-0.309	-0.196
-475.289	-169.526	0.131	-0.005
-474.274	-88.376	0.143	-0.043
-473.259	-200.000	-0.277	0.000
-472.245	57.441	0.232	-0.230
-471.230	-70.908	0.306	-0.117
-470.216	800.000	-0.071	0.251
-469.201	190.016	0.076	-0.115
-468.186	6.089	0.072	-0.054
-467.172	138.532	0.336	0.448
-466.157	-81.801	0.240	-0.080
-465.143	78.889	0.099	0.108
-464.128	27.198	-0.269	0.229
-463.113	800.000	0.050	-0.148
-462.099	6.728	0.093	-0.070
-461.084	25.554	-0.441	0.372
-460.070	73.040	0.087	0.092
-459.055	125.840	-0.002	0.003
-458.040	-102.248	0.097	-0.024
-457.026	8.226	0.274	-0.209
-456.011	-69.405	-0.135	0.053
-454.997	315.958	0.166	-0.317
-453.982	800.000	-0.061	-0.243
-452.968	82.524	0.332	-0.365
-451.953	-200.000	-0.011	-0.203
-450.938	-113.501	0.050	0.010
-449.924	55.120	0.215	0.211
-448.909	357.621	-0.099	-0.201
-447.895	-18.408	0.255	0.161
-446.880	791.470	-0.044	-0.122
-445.865	177.014	-0.039	-0.058
-444.851	102.838	0.136	0.162
-443.836	-2.949	0.213	-0.151
-442.822	-128.293	0.180	0.026
-441.807	-200.000	0.005	0.195
-440.792	499.269	0.116	0.272
-439.778	-116.945	0.026	0.005
-438.763	-32.421	-0.069	0.039
-437.749	128.640	-0.094	-0.121
-436.734	104.037	-0.155	0.185
-435.719	47.622	0.059	-0.056
-434.705	-35.371	-0.459	-0.253
-433.690	-108.187	0.139	-0.030
-432.676	800.000	0.055	0.202
-431.661	141.271	0.205	0.275
-430.646	800.000	-0.032	0.109
-429.632	451.113	0.170	-0.380
-428.617	-139.757	-0.017	0.002
-427.603	787.763	0.026	-0.071
-426.588	-13.205	-0.099	0.065
-425.573	-25.836	-0.127	0.076
-424.559	800.000	0.050	-0.173
-423.544	-24.051	-0.257	-0.155
-422.530	13.517	-0.061	0.048
-421.515	800.000	-0.124	-0.350
-420.500	7.751	-0.106	-0.080
-419.486	800.000	-0.021	-0.068
-418.471	393.125	-0.142	0.299
-417.457	6.791	-0.160	0.121
-416.442	-200.000	-0.002	0.155
-415.428	757.966	0.104	-0.286
-414.413	322.717	0.068	-0.131
-413.398	800.000	0.062	0.268
-412.384	-200.000	0.038	0.430
-411.369	-56.384	-0.159	-0.072
-410.355	-200.000	-0.106	-0.509
-409.340	124.719	0.185	-0.236
-408.325	188.898	-0.133	0.201
-407.311	-200.000	-0.005	0.081
-406.296	-200.000	-0.022	-0.207
-405.282	-93.822	0.439	-0.122
-404.267	27.777	0.165	-0.140
-403.252	217.071	0.210	0.338
-402.238	53.507	-0.086	0.083
-401.223	16.770	0.147	-0.117
-400.209	-150.426	0.209	-0.016
-399.194	-200.000	0.032	-0.312
-398.179	-45.534	-0.092	0.046
-397.165	-139.852	0.199	-0.021
-396.150	221.434	-0.088	0.143
-395.136	328.910	0.049	0.095
-394.121	-168.101	0.220	0.009
-393.106	-146.054	-0.315	-0.028
-392.092	800.000	-0.009	-0.037
-391.077	800.000	0.027	-0.100
-390.063	67.499	0.080	-0.083
-389.048	-200.000	0.063	-0.281
-388.033	97.588	-0.012	-0.014
-387.019	274.273	0.111	-0.198
-386.004	-153.225	-0.339	-0.024
-384.990	229.670	-0.129	-0.212
-383.975	-51.912	-0.090	-0.042
-382.960	-121.414	-0.230	-0.039
-381.946	-114.384	-0.107	0.021
-380.931	-200.000	0.007	0.119
-379.917	177.168	-0.088	-0.130
-378.902	62.163	-0.093	0.094
-377.888	-67.123	0.150	0.060
-376.873	-200.000	-0.025	-0.177
-375.858	-52.443	0.208	0.097
-374.844	50.631	0.098	-0.093
-373.829	-100.382	-0.179	-0.045
-372.815	-168.167	-0.286	-0.011
-371.800	800.000	-0.035	0.139
-370.785	452.567	0.105	-0.234
-369.771	120.249	0.061	-0.076
-368.756	800.000	0.064	0.224
-367.742	-45.499	-0.340	-0.170
-366.727	-200.000	-0.000	0.231
-365.712	-200.000	-0.048	0.454
-364.698	800.000	-0.039	0.151
-363.683	50.259	-0.017	0.016
-362.669	-81.115	0.117	0.039
-361.654	-56.540	-0.275	-0.123
-360.639	31.201	0.092	0.080
-359.625	102.100	0.236	0.278
-358.610	-131.623	-0.356	0.047
-357.596	-88.628	-0.272	0.082
-356.581	-200.000	0.048	0.418
-355.566	-63.136	0.536	-0.223
-354.552	-104.716	0.135	0.031
-353.537	-166.731	0.111	0.005
-352.523	799.467	0.066	0.183
-351.508	800.000	0.142	-0.504
-350.493	-111.953	-0.405	-0.082
-349.479	-45.887	-0.293	-0.146
-348.464	-112.404	-0.097	-0.020
-347.450	800.000	-0.036	0.107
-346.435	-200.000	-0.035	0.250
-345.420	304.797	0.063	-0.119
-344.406	25.887	-0.199	-0.168
-343.391	98.914	0.208	0.243
-342.377	761.644	0.046	-0.125
-341.362	-200.000	-0.022	0.192
-340.348	-28.730	-0.265	0.154
-339.333	-98.650	-0.117	-0.030
-338.318	-51.877	-0.082	-0.039
-337.304	-131.194	0.193	0.026
-336.289	182.457	0.120	-0.178
-335.275	-65.715	0.376	0.152
-334.260	156.167	-0.013	0.018
-333.245	308.476	0.211	-0.398
-332.231	-100.086	-0.247	-0.062
-331.216	-64.524	-0.108	-0.044
-330.202	-89.268	-0.282	0.084
-329.187	127.252	-0.226	0.289
-328.172	-49.753	0.340	0.163
-327.158	-146.276	0.354	0.031
-326.143	155.160	0.091	0.126
-325.129	238.478	0.127	-0.213
-324.114	-69.694	-0.320	0.123
-323.099	352.008	-0.112	0.223
-322.085	800.000	-0.053	-0.190
-321.070	-29.972	-0.135	0.078
-320.056	-90.223	0.203	0.060
-319.041	-200.000	0.022	0.137
-318.026	-200.000	0.066	-0.328
-317.012	661.023	-0.049	0.128
-315.997	623.465	-0.075	0.191
-314.983	-105.922	-0.268	0.061
-313.968	-107.534	0.110	0.024
-312.953	-78.209	0.272	0.094
-311.939	-200.000	0.119	-0.000
-310.924	-200.000	-0.019	-0.240
-309.910	-200.000	0.023	-0.140
-308.895	-22.865	0.150	-0.091
-307.880	200.977	-0.139	-0.216
-306.866	178.259	-0.084	0.123
-305.851	-77.069	0.151	-0.053
-304.837	-48.586	-0.073	-0.035
-303.822	-63.163	0.267	0.111
-302.807	-184.215	-0.380	-0.006
-301.793	-178.380	-0.059	0.001
-300.778	-200.000	-0.005	0.223
-299.764	-200.000	-0.036	0.238
-298.749	358.955	0.114	-0.230
-297.735	-200.000	0.018	0.227
-296.720	800.000	0.067	-0.240
-295.705	107.222	-0.072	-0.086
-294.691	33.326	-0.076	0.066
-293.676	800.000	-0.093	0.270
-292.662	22.179	-0.080	-0.066
-291.647	155.228	0.093	-0.129
-290.632	57.188	-0.020	0.019
-289.618	306.714	0.193	0.362
-288.603	-175.610	0.466	-0.013
-287.589	-200.000	0.051	-0.359
-286.574	3.201	-0.228	-0.167
-285.559	-19.757	0.046	0.029
-284.545	64.882	0.191	0.195
-283.530	-45.750	-0.350	0.174
-282.516	-27.306	0.272	-0.160
-281.501	800.000	0.073	-0.233
-280.486	81.077	0.131	-0.142
-279.472	88.681	0.099	0.111
-278.457	74.893	0.250	0.265
-277.443	-157.452	-0.239	-0.014
-276.428	46.914	-0.164	0.153
-275.413	58.029	0.197	0.194
-274.399	544.995	0.150	0.360
-273.384	-200.000	0.013	0.176
-272.370	49.523	0.297	-0.281
-271.355	800.000	-0.028	0.098
-270.340	-61.379	-0.137	-0.058
-269.326	297.559	-0.128	0.236
-268.311	2.076	-0.136	-0.099
-267.297	158.631	-0.094	-0.131
-266.282	66.927	0.123	-0.126
-265.267	25.618	-0.051	-0.042
-264.253	33.104	0.152	-0.133
-263.238	41.713	-0.254	0.232
-262.224	109.658	-0.207	0.249
-261.209	180.001	-0.030	0.044
-260.195	-38.770	0.037	0.020
-259.180	299.755	0.145	0.269
-258.165	31.504	0.049	-0.042
-257.151	-7.715	-0.105	-0.072
-256.136	-51.890	-0.155	-0.072
-255.122	709.926	-0.180	0.479
-254.107	3.657	-0.245	-0.180
-253.092	365.886	0.142	-0.288
-252.078	-38.272	0.189	0.101
-251.063	-114.144	-0.137	-0.027
-250.049	66.096	0.066	0.067
-249.034	219.886	-0.144	-0.231
-248.019	-191.738	-0.124	0.001
-247.005	500.639	0.083	0.193
-245.990	560.025	-0.066	-0.159
-244.976	-0.819	-0.119	0.085
-243.961	8.014	0.258	-0.194
-242.946	-146.780	0.176	0.015
-241.932	111.013	0.077	-0.093
-240.917	-99.509	0.117	0.030
-239.903	137.781	-0.155	0.204
-238.888	-13.104	0.195	0.127
-237.873	800.000	-0.048	0.174
-236.859	634.700	-0.086	0.220
-235.844	286.426	0.092	0.166
-234.830	349.486	0.043	-0.085
-233.815	-37.693	-0.040	-0.021
-232.800	781.313	0.116	-0.319
-231.786	-200.000	0.095	-0.483
-230.771	30.924	0.467	-0.402
-229.757	800.000	-0.027	-0.080
-228.742	204.954	-0.180	-0.281
-227.727	-200.000	-0.003	-0.029
-226.713	-48.262	-0.162	-0.079
-225.698	42.508	0.090	-0.083
-224.684	131.992	0.128	0.165
-223.669	-200.000	-0.004	0.025
-222.655	-19.785	0.315	-0.196
-221.640	706.423	0.176	-0.466
-220.625	666.598	-0.012	0.032
-219.611	-129.816	-0.120	0.016
-218.596	-90.827	0.269	0.078
-217.582	164.868	0.164	0.232
-216.567	-27.898	0.149	-0.087
-215.552	-39.263	0.022	-0.012
-214.538	-200.000	-0.005	0.191
-213.523	-38.324	-0.058	-0.031
-212.509	477.538	-0.060	0.136
-211.494	63.608	-0.186	0.187
-210.479	541.637	-0.089	0.212
-209.465	-145.328	0.140	-0.013
-208.450	710.488	-0.075	0.198
-207.436	-100.231	-0.407	0.101
-206.421	-200.000	0.035	0.220
-205.406	750.734	-0.127	-0.343
-204.392	-70.418	0.169	-0.064
-203.377	-127.943	-0.266	-0.038
-202.363	407.751	-0.046	-0.098
-201.348	-26.720	-0.231	-0.135
-200.333	-200.000	0.008	0.184
-199.319	98.544	-0.168	0.194
-198.304	-72.685	-0.124	0.046
-197.290	-106.367	0.259	-0.058
-196.275	800.000	0.075	0.322
-195.260	116.287	0.134	0.165
-194.246	-83.943	-0.144	0.046
-193.231	135.047	0.198	-0.257
-192.217	-200.000	0.005	0.040
-191.202	-31.666	-0.187	0.105
-190.187	-179.914	0.260	-0.006
-189.173	800.000	0.039	0.153
-188.158	289.431	-0.129	0.234
-187.144	800.000	-0.061	-0.204
-186.129	209.012	0.092	-0.144
-185.114	800.000	-0.122	0.361
-184.100	800.000	-0.057	-0.233
-183.085	800.000	0.049	0.188
-182.071	800.000	-0.054	-0.154
-181.056	-12.964	0.248	0.162
-180.042	334.418	0.240	-0.467
-179.027	32.814	0.218	0.190
-178.012	-169.721	-0.132	0.005
-176.998	-111.897	0.065	0.013
-175.983	-200.000	0.003	0.096
-174.969	700.645	0.105	0.277
-173.954	-31.039	0.147	0.083
-172.939	107.527	0.143	0.171
-171.925	-51.678	0.383	-0.179
-170.910	-200.000	-0.008	-0.105
-169.896	29.416	-0.263	0.224
-168.881	-200.000	-0.020	-0.222
-167.866	259.388	-0.126	0.217
-166.852	-28.834	0.183	0.106
-165.837	167.177	0.032	0.045
-164.823	514.310	0.029	-0.067
-163.808	172.121	0.127	0.183
-162.793	-59.560	0.215	-0.092
-161.779	-200.000	-0.061	0.282
-160.764	800.000	-0.051	0.165
-159.750	628.170	0.065	-0.164
-158.735	301.437	-0.118	0.218
-157.720	-115.998	-0.064	0.012
-156.706	-110.772	0.324	0.067
-155.691	636.897	0.077	0.195
-154.677	-200.000	-0.022	0.158
-153.662	800.000	0.065	-0.248
-152.647	485.636	0.180	-0.412
-151.633	800.000	-0.017	0.071
-150.618	663.976	-0.098	-0.253
-149.604	-200.000	0.008	-0.085
-148.589	-200.000	0.015	-0.293
-147.574	-127.693	-0.178	0.026
-146.560	-200.000	0.036	-0.287
-145.545	-35.125	-0.099	-0.054
-144.531	-114.582	0.156	0.030
-143.516	506.740	0.133	-0.308
-142.502	97.121	-0.035	0.040
-141.487	-21.414	-0.172	0.105
-140.472	-92.857	0.197	0.055
-139.458	-113.468	-0.051	0.010
-138.443	-90.091	0.257	0.075
-137.429	65.369	0.091	0.092
-136.414	800.000	-0.058	-0.190
-135.399	66.150	-0.161	-0.164
-134.385	800.000	0.047	0.191
-133.370	-45.127	0.181	0.090
-132.356	285.030	0.130	0.234
-131.341	-200.000	0.095	-0.458
-130.326	-167.597	-0.369	0.015
-129.312	-166.243	-0.383	0.016
-128.297	657.668	0.064	0.166
-127.283	42.181	0.127	0.115
-126.268	-126.355	0.190	0.028
-125.253	-30.999	-0.153	0.086
-124.239	-172.313	-0.219	0.007
-123.224	325.850	-0.106	0.203
-122.210	-56.812	0.077	0.034
-121.195	-200.000	-0.004	-0.152
