DTS Sentinel unit serial number:	SN413079Multiplexer serial number:	ORYXHardware model number:	OX4-SRSoftware version number:	ORYX F/W v4.00 Oryx Data Collector v3.7.2.0data status	okinstallation	princeton_trtdifferential loss correction	single-endedforward channel	channel 3reverse channel	N/Adate	2019/09/10time	18:58:11forward acquisition time	60.00reverse acquisition time	0.00gamma	496.2192k internal	0.2313k external	0.2313temperature offset calibration	0.9915default loss term (dB/km)	0.3790temperature slope calibration	1.0000multiplexer offset coefficient	1.0000multiplexer slope coefficient	1.0000fibre end	0.00T internal ref (°C)	34.64T ext. ref 1 (°C)	-0.36T ext. ref 2 (°C)	26.89length (m)	temperature (°C)	Stokes	anti-Stokes-747.200	696.510	0.080	-0.214
-746.185	-68.436	-0.149	-0.059
-745.171	106.130	-0.081	0.097
-744.156	410.613	-0.149	0.320
-743.142	-90.933	-0.218	0.064
-742.127	-112.999	-0.076	0.015
-741.112	-75.605	-0.274	-0.099
-740.098	800.000	-0.045	-0.127
-739.083	-200.000	-0.018	0.436
-738.069	-47.743	-0.084	-0.041
-737.054	14.734	0.178	-0.141
-736.039	-131.295	-0.370	-0.050
-735.025	-97.518	-0.233	-0.061
-734.010	-20.962	-0.155	-0.097
-732.996	636.741	-0.022	-0.056
-731.981	149.335	-0.146	0.200
-730.966	150.684	-0.088	0.121
-729.952	621.286	0.042	-0.107
-728.937	-98.437	-0.252	0.065
-727.923	34.428	-0.060	0.053
-726.908	-200.000	-0.021	0.128
-725.894	-104.857	0.190	-0.044
-724.879	411.052	0.056	-0.121
-723.864	-200.000	-0.021	-0.298
-722.850	-35.172	-0.300	0.166
-721.835	30.037	-0.242	0.209
-720.821	-69.006	-0.191	0.075
-719.806	386.364	0.196	-0.410
-718.791	53.139	0.118	-0.115
-717.777	-81.656	-0.316	-0.105
-716.762	-8.496	0.097	0.066
-715.748	284.451	0.030	-0.055
-714.733	2.128	-0.168	0.123
-713.718	25.932	-0.325	0.274
-712.704	-150.017	-0.166	0.013
-711.689	-24.193	-0.419	-0.254
-710.675	475.620	-0.081	0.185
-709.660	684.649	-0.060	-0.159
-708.645	-200.000	-0.035	-0.162
-707.631	95.376	0.183	-0.211
-706.616	-25.833	0.138	-0.082
-705.602	76.923	0.079	-0.085
-704.587	-200.000	0.003	0.055
-703.572	-200.000	-0.054	0.357
-702.558	179.553	0.072	-0.106
-701.543	-16.290	0.114	0.074
-700.529	-146.672	0.218	0.019
-699.514	-135.905	0.150	0.018
-698.499	-200.000	-0.021	0.147
-697.485	477.198	0.049	-0.113
-696.470	-67.257	-0.237	-0.094
-695.456	119.109	0.178	-0.223
-694.441	-137.079	0.225	-0.026
-693.426	-142.624	-0.389	0.039
-692.412	16.490	-0.038	-0.031
-691.397	126.601	-0.194	-0.249
-690.383	92.215	-0.104	0.119
-689.368	-200.000	0.018	-0.156
-688.354	17.940	0.207	0.167
-687.339	-61.528	-0.242	-0.103
-686.324	-200.000	-0.025	-0.149
-685.310	-200.000	-0.007	-0.174
-684.295	30.079	-0.234	0.202
-683.281	-128.067	0.168	-0.024
-682.266	-200.000	-0.021	-0.102
-681.251	563.903	0.128	0.314
-680.237	-60.828	-0.137	0.059
-679.222	7.798	0.107	-0.081
-678.208	-200.000	-0.002	0.570
-677.193	328.453	-0.151	-0.293
-676.178	-200.000	-0.044	-0.214
-675.164	-35.899	-0.182	-0.100
-674.149	-3.507	0.099	-0.069
-673.135	-75.359	0.431	-0.155
-672.120	800.000	-0.047	0.191
-671.105	54.995	0.069	-0.067
-670.091	-106.277	0.239	-0.054
-669.076	658.428	-0.052	0.135
-668.062	800.000	-0.055	-0.206
-667.047	-63.722	-0.185	0.077
-666.032	82.433	0.062	-0.068
-665.018	800.000	-0.072	-0.231
-664.003	-113.491	-0.267	-0.053
-662.989	-200.000	-0.061	-0.366
-661.974	52.560	-0.171	0.165
-660.959	35.765	0.098	-0.088
-659.945	-133.450	-0.400	-0.051
-658.930	308.313	-0.145	0.274
-657.916	-36.516	-0.118	-0.064
-656.901	-147.077	-0.090	0.008
-655.886	122.806	0.058	-0.073
-654.872	-43.012	0.194	0.099
-653.857	-88.776	0.222	0.067
-652.843	-12.700	-0.124	-0.081
-651.828	240.248	-0.200	0.337
-650.814	-135.989	0.259	0.031
-649.799	64.341	0.021	-0.021
-648.784	-17.489	0.131	0.084
-647.770	388.800	0.096	-0.201
-646.755	-200.000	-0.027	-0.141
-645.741	425.884	-0.121	0.264
-644.726	-71.273	-0.121	0.046
-643.711	800.000	0.033	-0.114
-642.697	800.000	0.010	-0.035
-641.682	93.833	0.071	-0.081
-640.668	90.941	-0.247	-0.280
-639.653	113.374	-0.202	-0.248
-638.638	611.032	0.153	-0.387
-637.624	81.838	-0.339	-0.371
-636.609	58.851	0.162	-0.161
-635.595	240.709	0.093	0.157
-634.580	-148.621	0.038	-0.003
-633.565	244.416	-0.245	-0.416
-632.551	-56.293	0.342	-0.154
-631.536	-200.000	0.095	-0.457
-630.522	-157.914	-0.085	-0.005
-629.507	-200.000	-0.003	0.346
-628.492	-177.349	0.306	-0.008
-627.478	-95.746	-0.160	-0.043
-626.463	15.836	-0.091	-0.072
-625.449	-97.566	-0.219	0.057
-624.434	-200.000	0.029	-0.449
-623.419	-81.499	0.186	0.062
-622.405	-93.761	0.342	-0.095
-621.390	-77.516	0.066	-0.023
-620.376	174.434	0.051	0.074
-619.361	-10.715	-0.134	-0.090
-618.346	-110.443	-0.244	0.051
-617.332	-32.942	-0.186	0.104
-616.317	-196.558	0.059	0.000
-615.303	-137.263	-0.159	-0.018
-614.288	-70.701	0.064	0.024
-613.273	65.758	0.134	-0.137
-612.259	-200.000	0.003	0.112
-611.244	-61.245	0.237	0.101
-610.230	243.813	0.108	-0.183
-609.215	800.000	0.053	-0.208
-608.201	-81.562	-0.334	-0.111
-607.186	800.000	-0.041	-0.165
-606.171	47.408	0.051	-0.048
-605.157	-24.568	0.138	0.083
-604.142	-200.000	-0.020	-0.473
-603.128	800.000	0.077	-0.292
-602.113	796.895	0.053	0.147
-601.098	-119.443	-0.225	-0.039
-600.084	37.694	-0.056	0.050
-599.069	-108.223	0.140	0.031
-598.055	800.000	-0.091	-0.342
-597.040	74.688	-0.239	0.253
-596.025	413.834	-0.114	-0.245
-595.011	-99.940	-0.166	-0.042
-593.996	-93.684	0.304	0.085
-592.982	-109.896	0.237	0.050
-591.967	-15.207	0.258	-0.167
-590.952	51.485	0.069	0.066
-589.938	9.037	-0.084	0.064
-588.923	-97.288	0.096	-0.025
-587.909	-200.000	-0.066	0.294
-586.894	152.743	-0.146	0.201
-585.879	-56.106	0.148	0.066
-584.865	-200.000	0.011	-0.234
-583.850	178.193	0.052	-0.077
-582.836	800.000	-0.003	-0.011
-581.821	-200.000	0.008	-0.037
-580.806	257.994	-0.155	0.270
-579.792	30.574	0.197	0.170
-578.777	-23.110	0.415	0.252
-577.763	452.976	0.125	0.279
-576.748	800.000	-0.045	0.140
-575.733	100.231	-0.161	-0.188
-574.719	-2.797	-0.138	-0.098
-573.704	-200.000	-0.018	0.085
-572.690	-19.393	-0.107	0.067
-571.675	140.571	0.199	0.265
-570.661	661.194	0.088	-0.228
-569.646	-175.078	0.177	-0.005
-568.631	-120.237	0.147	0.025
-567.617	-104.077	0.269	-0.063
-566.602	87.906	-0.072	0.080
-565.588	37.107	0.238	0.212
-564.573	-160.707	0.239	0.013
-563.558	-43.198	0.172	0.088
-562.544	-71.695	0.028	-0.011
-561.529	61.548	0.122	0.122
-560.515	-56.503	-0.059	0.026
-559.500	24.203	0.031	-0.026
-558.485	14.983	-0.202	-0.159
-557.471	8.090	0.097	-0.073
-556.456	-9.200	0.127	0.086
-555.442	-155.999	-0.180	-0.011
-554.427	-170.978	0.134	0.005
-553.412	219.794	-0.160	-0.257
-552.398	800.000	0.060	0.264
-551.383	48.397	-0.102	0.096
-550.369	166.876	-0.107	0.153
-549.354	22.928	0.031	0.025
-548.339	-97.699	0.170	-0.044
-547.325	132.462	-0.059	0.076
-546.310	201.881	-0.209	-0.325
-545.296	56.124	-0.070	-0.068
-544.281	-146.658	0.170	0.015
-543.266	43.377	0.149	-0.137
-542.252	-68.165	0.287	0.113
-541.237	103.866	0.157	-0.186
-540.223	-85.297	-0.542	-0.170
-539.208	3.854	-0.179	0.132
-538.193	-74.275	0.307	-0.112
-537.179	-115.986	-0.259	0.049
-536.164	-75.663	0.199	0.071
-535.150	-86.255	-0.404	0.125
-534.135	-80.748	-0.065	-0.022
-533.121	6.935	-0.089	-0.067
-532.106	167.213	-0.201	0.287
-531.091	-10.556	-0.296	0.197
-530.077	-7.004	0.138	-0.094
-529.062	155.086	-0.068	0.094
-528.048	800.000	0.030	0.101
-527.033	462.097	-0.052	-0.116
-526.018	161.218	0.052	0.074
-525.004	-73.714	-0.449	-0.164
-523.989	-57.026	0.300	-0.133
-522.975	-66.593	-0.217	-0.086
-521.960	-200.000	-0.041	-0.183
-520.945	-74.732	-0.244	0.088
-519.931	-35.901	0.119	0.065
-518.916	-86.374	-0.158	0.049
-517.902	5.112	-0.191	0.141
-516.887	800.000	0.063	0.189
-515.872	-53.329	-0.201	-0.092
-514.858	-135.006	0.093	-0.011
-513.843	21.605	-0.098	-0.080
-512.829	-97.226	0.215	0.056
-511.814	4.897	-0.197	0.146
-510.799	79.820	0.102	0.110
-509.785	-200.000	0.027	-0.300
-508.770	-100.934	-0.231	0.057
-507.756	640.458	-0.045	0.115
-506.741	166.004	-0.096	0.136
-505.726	-59.282	0.231	0.100
-504.712	-200.000	0.002	-0.091
-503.697	-156.092	-0.222	0.014
-502.683	-200.000	-0.058	0.335
-501.668	148.545	-0.162	-0.220
-500.653	81.082	-0.138	0.149
-499.639	-128.524	-0.193	-0.027
-498.624	-25.654	0.148	0.088
-497.610	-113.138	0.036	0.007
-496.595	-16.157	-0.258	-0.165
-495.581	223.713	-0.066	-0.106
-494.566	171.371	0.090	0.129
-493.551	204.021	0.078	0.121
-492.537	0.290	0.203	-0.145
-491.522	-80.841	0.305	-0.102
-490.508	-154.653	-0.112	-0.007
-489.493	800.000	-0.092	-0.291
-488.478	246.794	0.027	0.046
-487.464	1.058	-0.100	-0.072
-486.449	-151.715	-0.180	0.013
-485.435	-45.557	0.505	-0.251
-484.420	800.000	0.070	-0.289
-483.405	-43.927	0.111	-0.056
-482.391	45.645	0.186	-0.173
-481.376	151.673	-0.103	-0.141
-480.362	-19.050	-0.079	0.049
-479.347	291.802	0.062	0.113
-478.332	800.000	0.101	-0.346
-477.318	10.042	0.323	-0.246
-476.303	-76.443	-0.211	-0.075
-475.289	-200.000	0.013	-0.278
-474.274	190.366	0.061	0.092
-473.259	-54.092	-0.380	0.174
-472.245	5.459	-0.177	0.131
-471.230	-200.000	0.030	0.267
-470.216	169.077	0.064	0.091
-469.201	634.531	0.076	-0.193
-468.186	34.687	-0.109	0.096
-467.172	-200.000	0.050	-0.457
-466.157	-200.000	0.081	-0.379
-465.143	3.648	0.158	0.116
-464.128	800.000	-0.054	-0.230
-463.113	-68.047	0.284	-0.111
-462.099	42.884	0.074	-0.068
-461.084	33.765	0.276	0.241
-460.070	187.408	0.119	-0.178
-459.055	9.028	0.229	-0.173
-458.040	103.008	-0.130	-0.153
-457.026	58.492	0.176	0.173
-456.011	-101.699	0.191	-0.046
-454.997	-105.172	-0.111	0.025
-453.982	-27.256	0.035	0.020
-452.968	170.002	0.121	0.174
-451.953	69.108	-0.147	0.151
-450.938	-112.996	-0.150	-0.030
-449.924	800.000	0.205	-0.639
-448.909	297.079	0.018	0.032
-447.895	301.056	-0.085	0.158
-446.880	-200.000	-0.001	0.349
-445.865	-148.402	0.495	-0.041
-444.851	79.557	0.069	-0.075
-443.836	-200.000	0.034	0.390
-442.822	52.225	-0.190	0.182
-441.807	-200.000	-0.042	-0.389
-440.792	-83.069	0.143	0.046
-439.778	-20.161	0.154	0.095
-438.763	409.389	0.062	0.131
-437.749	68.355	-0.124	0.127
-436.734	-124.565	0.078	-0.012
-435.719	552.513	-0.110	0.265
-434.705	-32.127	0.184	0.103
-433.690	-200.000	0.056	-0.308
-432.676	-75.067	0.217	0.078
-431.661	142.771	-0.224	0.298
-430.646	29.869	-0.168	-0.144
-429.632	-200.000	0.005	-0.095
-428.617	-191.949	0.229	0.002
-427.603	-27.550	-0.272	0.159
-426.588	-68.284	-0.401	-0.156
-425.573	-200.000	0.051	-0.332
-424.559	-135.691	0.192	-0.023
-423.544	199.605	0.049	0.076
-422.530	-51.251	0.150	-0.070
-421.515	-36.285	-0.291	-0.157
-420.500	726.098	0.035	-0.092
-419.486	229.674	0.210	-0.343
-418.471	-64.484	0.038	-0.015
-417.457	-2.116	-0.260	0.183
-416.442	-77.664	0.202	-0.070
-415.428	-127.064	-0.210	-0.031
-414.413	425.142	0.122	-0.263
-413.398	-136.840	0.285	-0.033
-412.384	125.755	-0.106	-0.134
-411.369	301.628	0.271	0.502
-410.355	320.566	-0.079	0.150
-409.340	764.665	0.081	0.221
-408.325	-131.993	-0.040	0.005
-407.311	800.000	0.046	0.130
-406.296	-200.000	0.004	0.041
-405.282	-200.000	0.067	-0.512
-404.267	-16.358	-0.229	0.146
-403.252	41.791	0.166	0.150
-402.238	647.541	0.101	0.259
-401.223	800.000	-0.054	-0.233
-400.209	-70.336	0.226	-0.086
-399.194	-200.000	-0.025	0.134
-398.179	-200.000	-0.373	0.000
-397.165	9.350	-0.035	0.027
-396.150	-200.000	0.033	-0.259
-395.136	-116.231	0.191	-0.035
-394.121	495.943	-0.031	0.071
-393.106	-65.555	-0.301	0.121
-392.092	40.085	0.228	0.205
-391.077	-116.979	0.035	0.006
-390.063	-77.706	-0.285	0.099
-389.048	-150.796	0.295	0.022
-388.033	-123.260	-0.116	0.019
-387.019	800.000	-0.065	-0.195
-386.004	68.531	-0.221	0.227
-384.990	61.728	0.269	0.268
-383.975	65.667	0.230	-0.233
-382.960	40.165	-0.231	0.207
-381.946	145.377	0.182	0.244
-380.931	-20.051	0.390	0.241
-379.917	-200.000	0.002	0.061
-378.902	-6.429	0.046	-0.031
-377.888	-7.653	-0.201	0.136
-376.873	-200.000	0.040	-0.177
-375.858	391.438	-0.033	-0.068
-374.844	-200.000	-0.000	-0.014
-373.829	-200.000	-0.038	0.173
-372.815	-72.031	-0.116	-0.043
-371.800	72.986	0.122	-0.127
-370.785	190.882	-0.179	-0.270
-369.771	800.000	0.092	-0.339
-368.756	307.359	-0.198	-0.370
-367.742	-121.640	-0.370	-0.061
-366.727	165.565	0.182	-0.257
-365.712	-32.964	0.213	-0.118
-364.698	44.631	0.068	0.063
-363.683	93.166	0.135	0.153
-362.669	-61.356	-0.159	-0.067
-361.654	-200.000	0.006	-0.284
-360.639	-105.540	-0.195	-0.044
-359.625	314.364	0.177	0.333
-358.610	-115.829	0.353	-0.066
-357.596	221.816	-0.160	0.258
-356.581	-106.996	0.203	0.045
-355.566	-9.276	-0.231	-0.154
-354.552	-200.000	0.012	-0.107
-353.537	-129.945	-0.207	0.028
-352.523	-200.000	0.046	-0.216
-351.508	800.000	0.047	0.202
-350.493	-51.942	0.143	0.067
-349.479	-23.955	-0.384	-0.229
-348.464	110.093	-0.178	0.213
-347.450	-200.000	-0.031	0.466
-346.435	170.532	-0.110	0.158
-345.420	178.080	0.037	-0.054
-344.406	92.575	0.092	-0.103
-343.391	-68.910	0.222	-0.086
-342.377	30.725	0.404	-0.345
-341.362	-166.578	-0.303	-0.013
-340.348	-160.135	0.310	-0.017
-339.333	-200.000	0.009	0.068
-338.318	-89.329	-0.064	0.019
-337.304	302.043	-0.125	0.230
-336.289	800.000	-0.093	0.274
-335.275	-70.010	-0.390	-0.148
-334.260	-200.000	-0.051	-0.381
-333.245	4.723	0.184	0.135
-332.231	94.857	-0.168	0.191
-331.216	-94.787	0.355	0.096
-330.202	141.883	-0.092	0.122
-329.187	18.461	0.063	-0.051
-328.172	800.000	0.064	0.231
-327.158	0.163	-0.382	0.272
-326.143	-54.867	-0.352	-0.158
-325.129	297.128	0.108	0.197
-324.114	27.850	0.163	0.137
-323.099	285.395	-0.132	-0.237
-322.085	-170.022	-0.425	0.015
-321.070	196.346	0.117	-0.177
-320.056	-75.462	-0.156	-0.055
-319.041	-109.398	-0.499	0.105
-318.026	73.285	0.006	0.006
-317.012	-200.000	0.054	-0.389
-315.997	-101.537	-0.101	0.025
-314.983	39.195	-0.126	0.113
-313.968	114.776	-0.043	-0.052
-312.953	-200.000	-0.039	-0.227
-311.939	116.585	0.154	0.188
-310.924	-139.448	-0.332	0.035
-309.910	752.812	0.124	-0.333
-308.895	146.444	0.126	0.169
-307.880	8.612	-0.257	0.193
-306.866	1.793	-0.250	0.179
-305.851	800.000	-0.079	0.283
-304.837	-41.783	0.232	-0.119
-303.822	793.845	0.039	0.107
-302.807	238.004	-0.113	-0.187
-301.793	-108.851	0.116	0.025
-300.778	227.938	0.113	-0.184
-299.764	50.295	-0.142	0.133
-298.749	79.469	-0.264	0.282
-297.735	78.506	0.068	0.072
-296.720	637.162	-0.088	-0.222
-295.705	84.289	0.379	-0.413
-294.691	218.628	-0.094	-0.150
-293.676	418.148	-0.054	0.115
-292.662	-200.000	0.011	-0.132
-291.647	-125.918	-0.308	0.046
-290.632	-200.000	-0.006	-0.354
-289.618	239.825	0.186	-0.309
-288.603	-2.810	0.137	-0.096
-287.589	800.000	0.041	0.156
-286.574	-47.135	-0.135	0.065
-285.559	252.701	-0.073	0.124
-284.545	-45.038	0.063	-0.031
-283.530	-200.000	-0.044	0.198
-282.516	-85.403	0.310	0.096
-281.501	500.369	0.096	0.220
-280.486	78.660	-0.199	0.212
-279.472	-99.892	-0.207	-0.051
-278.457	49.225	-0.134	0.126
-277.443	273.606	-0.114	-0.200
-276.428	-200.000	-0.018	-0.479
-275.413	359.103	-0.072	0.142
-274.399	15.540	-0.125	0.097
-273.384	294.039	0.065	-0.119
-272.370	-200.000	0.030	0.151
-271.355	-109.630	-0.354	-0.074
-270.340	-40.618	-0.129	0.066
-269.326	72.487	-0.098	-0.102
-268.311	800.000	0.037	0.115
-267.297	326.718	-0.040	-0.076
-266.282	-200.000	0.014	0.114
-265.267	-120.213	-0.291	0.050
-264.253	-94.863	0.191	0.052
-263.238	12.689	0.313	0.240
-262.224	465.568	-0.086	0.193
-261.209	-43.251	-0.206	-0.104
-260.195	-200.000	-0.003	0.094
-259.180	639.677	0.079	-0.201
-258.165	-89.484	0.280	-0.082
-257.151	401.355	0.061	0.127
-256.136	-200.000	-0.032	-0.151
-255.122	45.751	0.208	0.192
-254.107	800.000	0.065	0.214
-253.092	-82.968	0.028	0.009
-252.078	-158.271	0.294	-0.017
-251.063	464.240	0.060	0.133
-250.049	353.108	-0.081	-0.160
-249.034	635.519	0.151	0.382
-248.019	-200.000	0.030	-0.354
-247.005	13.196	-0.156	0.120
-245.990	-200.000	-0.037	0.190
-244.976	218.996	-0.077	0.122
-243.961	-29.762	0.156	-0.088
-242.946	14.923	0.177	-0.138
-241.932	155.600	-0.078	-0.107
-240.917	-73.312	-0.147	-0.054
-239.903	-89.213	0.074	0.022
-238.888	-83.741	-0.368	-0.117
-237.873	177.623	0.145	-0.210
-236.859	-156.631	-0.202	0.012
-235.844	73.621	-0.140	-0.146
-234.830	90.415	0.154	-0.172
-233.815	57.193	0.131	0.128
-232.800	800.000	0.123	0.353
-231.786	-200.000	-0.022	0.101
-230.771	48.079	0.201	0.187
-229.757	-111.782	-0.253	-0.051
-228.742	-71.066	0.234	-0.088
-227.727	-84.582	0.204	-0.064
-226.713	-55.175	-0.328	0.147
-225.698	-135.831	-0.091	0.011
-224.684	-200.000	-0.018	-0.185
-223.669	800.000	-0.044	0.138
-222.655	-115.558	-0.119	0.022
-221.640	134.896	-0.251	0.325
-220.625	-101.253	0.164	-0.040
-219.611	-139.076	0.179	-0.019
-218.596	800.000	0.004	-0.015
-217.582	24.860	-0.481	0.396
-216.567	209.347	-0.139	-0.216
-215.552	169.692	-0.154	0.219
-214.538	-95.131	-0.180	0.048
-213.523	-200.000	0.038	0.345
-212.509	-12.451	-0.123	0.080
-211.494	-49.403	0.050	-0.024
-210.479	-200.000	0.065	0.369
-209.465	139.045	-0.068	-0.088
-208.450	-87.922	0.140	-0.042
-207.436	306.661	0.120	0.223
-206.421	311.683	-0.213	0.397
-205.406	396.218	0.111	0.230
-204.392	-55.159	0.128	0.057
-203.377	-121.173	0.345	0.057
-202.363	-19.413	-0.079	-0.048
-201.348	61.631	0.172	0.170
-200.333	-2.453	0.122	0.085
-199.319	18.851	0.207	-0.165
-198.304	25.732	0.211	-0.175
-197.290	-77.591	0.048	-0.017
-196.275	-200.000	0.015	-0.204
-195.260	-200.000	0.020	-0.121
-194.246	-200.000	0.120	0.563
-193.231	-200.000	-0.036	-0.321
-192.217	87.932	-0.182	0.201
-191.202	-71.956	0.250	0.092
-190.187	800.000	-0.070	0.197
-189.173	-45.457	0.152	0.075
-188.158	-185.335	0.197	-0.003
-187.144	-17.501	-0.101	0.063
-186.129	-186.227	0.378	0.005
-185.114	-20.527	0.222	-0.135
-184.100	-163.715	-0.028	0.001
-183.085	198.128	-0.169	-0.256
-182.071	-41.729	0.129	0.066
-181.056	270.497	0.044	-0.076
-180.042	477.454	0.162	-0.364
-179.027	-200.000	-0.010	-0.071
-178.012	-102.939	0.230	0.054
-176.998	-105.514	-0.077	0.017
-175.983	-200.000	-0.000	-0.045
-174.969	-104.477	-0.568	-0.130
-173.954	-200.000	-0.012	-0.330
-172.939	35.354	-0.180	0.157
-171.925	26.639	0.228	0.189
-170.910	214.101	0.130	0.205
-169.896	181.365	-0.116	0.170
-168.881	-200.000	-0.024	0.298
-167.866	17.586	-0.064	-0.050
-166.852	-200.000	0.041	0.427
-165.837	800.000	-0.063	0.196
-164.823	4.448	-0.183	-0.133
-163.808	252.944	-0.112	0.189
-162.793	-41.793	0.114	-0.058
-161.779	-42.913	-0.243	0.122
-160.764	177.704	-0.061	0.087
-159.750	-82.393	-0.309	-0.100
-158.735	699.108	0.033	-0.087
-157.720	27.298	-0.212	0.176
-156.706	314.847	0.039	0.073
-155.691	-14.825	0.327	-0.208
-154.677	165.174	0.071	-0.099
-153.662	29.193	-0.057	0.048
-152.647	-44.748	0.186	0.092
-151.633	800.000	-0.038	0.120
-150.618	-142.010	0.209	-0.021
-149.604	-149.795	0.358	-0.028
-148.589	800.000	-0.059	0.194
-147.574	-83.062	-0.325	-0.104
-146.560	19.099	0.111	-0.088
-145.545	33.075	0.395	-0.340
-144.531	52.531	-0.242	0.229
-143.516	800.000	-0.071	0.280
-142.502	390.761	-0.076	-0.157
-141.487	66.200	-0.181	-0.183
-140.472	-48.910	0.043	0.020
-139.458	-166.031	-0.135	-0.006
-138.443	800.000	-0.113	0.352
-137.429	-40.582	0.076	0.039
-136.414	800.000	0.039	0.152
-135.399	-48.213	-0.161	0.077
-134.385	-200.000	-0.009	0.279
-133.370	28.314	-0.241	0.201
-132.356	-2.699	-0.077	-0.053
-131.341	-147.704	-0.265	-0.022
-130.326	-80.966	0.264	-0.087
-129.312	-68.496	-0.083	-0.032
-128.297	294.642	-0.130	-0.235
-127.283	-97.478	0.439	0.113
-126.268	-44.441	-0.193	0.095
-125.253	37.010	-0.161	-0.141
-124.239	70.353	-0.201	-0.206
-123.224	35.213	-0.106	0.092
-122.210	-52.249	-0.126	0.058
-121.195	404.772	0.057	-0.120
-120.180	-24.683	0.197	-0.116
-119.166	-8.286	0.111	-0.074
