DTS Sentinel unit serial number:	SN413079Multiplexer serial number:	ORYXHardware model number:	OX4-SRSoftware version number:	ORYX F/W v4.00 Oryx Data Collector v3.7.2.0data status	okinstallation	princeton_trtdifferential loss correction	single-endedforward channel	channel 3reverse channel	N/Adate	2019/09/11time	23:42:10forward acquisition time	60.00reverse acquisition time	0.00gamma	496.2192k internal	0.2318k external	0.2318temperature offset calibration	1.0056default loss term (dB/km)	0.3790temperature slope calibration	1.0000multiplexer offset coefficient	1.0000multiplexer slope coefficient	1.0000fibre end	0.00T internal ref (°C)	34.06T ext. ref 1 (°C)	1.91T ext. ref 2 (°C)	28.00length (m)	temperature (°C)	Stokes	anti-Stokes-747.200	-55.092	-0.406	-0.185
-746.185	272.909	-0.205	0.367
-745.171	-200.000	-0.008	-0.231
-744.156	-121.833	-0.166	0.028
-743.142	-74.172	0.114	0.042
-742.127	-200.000	-0.017	0.105
-741.112	619.243	-0.124	0.315
-740.098	-60.265	0.321	0.138
-739.083	271.805	-0.043	0.077
-738.069	-62.754	-0.261	0.109
-737.054	800.000	-0.062	0.175
-736.039	-78.289	-0.379	0.132
-735.025	3.759	0.249	-0.184
-734.010	-97.653	-0.265	0.069
-732.996	-200.000	-0.024	0.280
-731.981	195.488	0.118	-0.182
-730.966	244.019	0.231	0.392
-729.952	-98.628	0.416	0.107
-728.937	606.094	-0.166	-0.418
-727.923	800.000	-0.109	-0.338
-726.908	-3.265	0.199	-0.140
-725.894	36.664	-0.322	-0.287
-724.879	-82.154	-0.345	-0.114
-723.864	-91.809	-0.046	0.013
-722.850	800.000	-0.019	0.054
-721.835	800.000	-0.119	0.357
-720.821	-149.245	0.140	-0.011
-719.806	-107.342	-0.115	0.026
-718.791	236.918	-0.174	-0.292
-717.777	96.718	0.158	-0.183
-716.762	-102.820	0.072	0.017
-715.748	363.304	0.108	-0.218
-714.733	96.897	0.345	-0.400
-713.718	221.471	-0.104	-0.170
-712.704	562.318	-0.159	-0.390
-711.689	-128.024	0.085	0.012
-710.675	-117.118	-0.157	0.029
-709.660	254.995	-0.178	0.309
-708.645	8.811	-0.290	-0.221
-707.631	86.551	0.273	-0.304
-706.616	11.318	-0.093	-0.072
-705.602	479.937	0.045	0.102
-704.587	-70.894	0.212	0.081
-703.572	138.021	-0.139	0.184
-702.558	282.706	-0.098	-0.178
-701.543	26.951	0.108	-0.091
-700.529	-58.530	0.316	-0.138
-699.514	-65.810	0.402	0.163
-698.499	124.492	-0.291	-0.369
-697.485	800.000	0.120	0.404
-696.470	753.800	-0.016	-0.044
-695.456	-75.098	0.240	0.087
-694.441	375.635	0.150	-0.308
-693.426	-200.000	-0.014	0.103
-692.412	-62.668	-0.111	0.047
-691.397	103.845	0.172	0.204
-690.383	-75.064	0.188	-0.068
-689.368	-89.438	-0.455	0.135
-688.354	-200.000	-0.010	-0.087
-687.339	200.354	0.060	0.094
-686.324	43.983	-0.117	-0.109
-685.310	35.629	0.128	0.113
-684.295	130.126	-0.123	-0.159
-683.281	-30.086	-0.192	-0.110
-682.266	-98.886	0.230	0.059
-681.251	-200.000	0.060	-0.330
-680.237	-200.000	0.004	-0.042
-679.222	508.477	0.137	0.320
-678.208	-16.596	-0.353	0.226
-677.193	475.006	0.076	-0.173
-676.178	-130.984	-0.270	0.036
-675.164	-14.063	0.107	-0.070
-674.149	-200.000	0.036	0.175
-673.135	191.389	0.089	-0.136
-672.120	7.571	-0.418	0.316
-671.105	48.382	-0.231	0.219
-670.091	652.229	-0.029	-0.074
-669.076	89.315	0.223	0.251
-668.062	-146.403	-0.279	0.025
-667.047	-200.000	-0.009	-0.411
-666.032	-128.118	0.395	0.057
-665.018	-200.000	0.000	0.245
-664.003	274.930	0.117	0.208
-662.989	-200.000	-0.025	-0.221
-661.974	-62.957	0.100	0.042
-660.959	38.048	-0.232	-0.208
-659.945	339.195	0.090	0.176
-658.930	-97.014	-0.119	0.031
-657.916	498.179	-0.192	0.447
-656.901	-200.000	0.054	-0.260
-655.886	800.000	0.083	-0.245
-654.872	-44.830	0.216	0.108
-653.857	-98.170	0.175	-0.045
-652.843	177.759	0.107	0.157
-651.828	800.000	0.043	-0.121
-650.814	-66.212	-0.075	-0.030
-649.799	161.955	0.050	-0.071
-648.784	-57.828	0.276	-0.122
-647.770	-200.000	-0.002	-0.076
-646.755	102.370	0.076	0.090
-645.741	101.900	0.069	0.081
-644.726	73.553	-0.210	0.222
-643.711	154.376	0.098	0.136
-642.697	295.004	0.033	0.061
-641.682	-200.000	0.058	-0.353
-640.668	533.060	0.055	0.130
-639.653	-19.994	-0.158	0.098
-638.638	800.000	0.082	0.285
-637.624	18.102	0.082	-0.066
-636.609	-3.883	0.231	-0.162
-635.595	-200.000	-0.010	-0.122
-634.580	212.970	-0.174	0.277
-633.565	26.894	0.118	-0.100
-632.551	-200.000	-0.024	-0.389
-631.536	99.988	0.166	0.194
-630.522	-24.880	-0.149	-0.089
-629.507	-200.000	0.070	-0.408
-628.492	138.473	0.155	0.205
-627.478	-158.587	0.409	-0.024
-626.463	125.677	-0.183	0.233
-625.449	-144.754	0.226	0.021
-624.434	-61.428	0.055	0.023
-623.419	187.534	0.043	-0.064
-622.405	-9.547	-0.142	0.095
-621.390	-111.834	0.325	-0.066
-620.376	-200.000	0.062	0.351
-619.361	75.398	0.196	0.208
-618.346	-115.270	0.199	-0.038
-617.332	370.191	-0.028	-0.058
-616.317	-200.000	0.012	0.179
-615.303	198.972	0.092	-0.142
-614.288	-60.619	0.182	-0.078
-613.273	106.924	-0.020	0.024
-612.259	-104.297	-0.041	-0.010
-611.244	95.425	-0.135	0.155
-610.230	62.158	-0.171	0.171
-609.215	-119.355	-0.350	-0.061
-608.201	-148.903	-0.278	-0.023
-607.186	119.577	-0.206	0.257
-606.171	-75.669	0.256	-0.092
-605.157	626.527	-0.011	-0.029
-604.142	-25.564	-0.262	-0.156
-603.128	38.120	-0.182	-0.163
-602.113	31.904	-0.339	-0.294
-601.098	-200.000	-0.000	0.073
-600.084	408.318	-0.154	0.328
-599.069	244.203	-0.158	-0.268
-598.055	-69.340	-0.180	0.069
-597.040	-200.000	-0.006	-0.079
-596.025	-200.000	0.031	-0.233
-595.011	-57.016	-0.059	0.026
-593.996	800.000	-0.108	0.382
-592.982	-104.894	0.232	-0.054
-591.967	218.183	-0.111	-0.178
-590.952	800.000	0.045	-0.157
-589.938	-200.000	-0.079	0.390
-588.923	188.437	-0.197	-0.297
-587.909	-200.000	0.009	-0.390
-586.894	189.372	-0.095	-0.144
-585.879	531.672	-0.132	0.313
-584.865	-200.000	0.028	0.194
-583.850	-200.000	0.001	0.019
-582.836	800.000	0.053	-0.187
-581.821	800.000	0.067	-0.257
-580.806	-108.617	-0.190	0.041
-579.792	-200.000	0.003	0.047
-578.777	92.460	0.128	0.146
-577.763	56.516	-0.114	0.112
-576.748	-200.000	-0.004	-0.072
-575.733	607.619	0.089	0.222
-574.719	-77.660	0.153	-0.053
-573.704	456.930	-0.055	0.123
-572.690	-48.686	0.144	0.069
-571.675	800.000	0.109	0.326
-570.661	76.193	0.143	0.152
-569.646	4.424	-0.189	-0.139
-568.631	60.339	0.333	0.331
-567.617	-200.000	-0.036	0.167
-566.602	178.974	-0.095	0.140
-565.588	2.291	0.118	-0.086
-564.573	-113.087	0.045	0.009
-563.558	218.602	-0.076	0.122
-562.544	375.833	0.126	-0.259
-561.529	800.000	-0.114	0.448
-560.515	783.550	-0.102	-0.280
-559.500	-1.830	0.152	-0.107
-558.485	52.529	-0.241	-0.232
-557.471	-200.000	0.010	0.290
-556.456	-200.000	-0.007	0.183
-555.442	178.609	-0.075	0.110
-554.427	-163.086	-0.152	0.007
-553.412	800.000	0.020	-0.065
-552.398	-8.084	0.167	0.113
-551.383	33.747	0.166	-0.145
-550.369	243.663	0.149	-0.252
-549.354	74.155	0.129	0.137
-548.339	51.319	0.274	-0.261
-547.325	65.232	-0.115	0.117
-546.310	558.486	0.038	0.092
-545.296	330.104	-0.174	-0.336
-544.281	-200.000	0.001	0.089
-543.266	-200.000	-0.010	-0.060
-542.252	-115.233	0.155	-0.029
-541.237	423.901	0.096	0.208
-540.223	-200.000	0.000	-0.178
-539.208	-106.531	0.180	0.040
-538.193	-119.470	-0.085	0.015
-537.179	-200.000	0.020	-0.162
-536.164	-161.790	-0.334	0.017
-535.150	800.000	0.053	-0.154
-534.135	46.710	-0.267	-0.249
-533.121	-122.966	0.423	0.068
-532.106	800.000	0.021	0.067
-531.091	-90.198	0.364	0.106
-530.077	-200.000	0.017	-0.184
-529.062	93.593	0.140	-0.159
-528.048	800.000	0.108	-0.412
-527.033	108.265	0.174	-0.209
-526.018	-198.933	-0.537	0.003
-525.004	102.902	-0.110	-0.129
-523.989	-46.496	0.206	0.101
-522.975	-73.851	0.129	-0.047
-521.960	-118.410	-0.073	-0.013
-520.945	641.793	0.178	-0.455
-519.931	607.891	-0.067	0.168
-518.916	42.426	-0.199	-0.182
-517.902	240.683	0.163	0.273
-516.887	-103.145	-0.157	0.037
-515.872	800.000	0.033	-0.114
-514.858	-200.000	-0.024	0.299
-513.843	375.247	-0.102	-0.209
-512.829	294.283	-0.058	0.105
-511.814	279.491	0.124	-0.221
-510.799	-129.097	0.195	-0.027
-509.785	484.727	-0.110	0.252
-508.770	-200.000	0.012	-0.115
-507.756	-4.475	0.181	-0.126
-506.741	47.897	0.059	-0.055
-505.726	-15.132	0.045	-0.029
-504.712	-103.616	-0.321	-0.076
-503.697	47.316	-0.137	-0.128
-502.683	28.879	-0.091	0.077
-501.668	-200.000	0.032	0.150
-500.653	130.057	-0.130	-0.166
-499.639	436.267	-0.082	-0.179
-498.624	-154.318	-0.068	0.005
-497.610	-93.409	0.435	-0.121
-496.595	-15.794	0.062	0.039
-495.581	-1.666	0.088	0.062
-494.566	13.609	0.106	0.082
-493.551	533.756	0.061	-0.145
-492.537	-54.208	0.141	-0.064
-491.522	-200.000	-0.032	-0.228
-490.508	-40.912	-0.371	0.192
-489.493	-200.000	0.045	0.531
-488.478	-153.264	-0.199	0.014
-487.464	8.068	-0.266	-0.200
-486.449	156.242	-0.144	0.198
-485.435	800.000	-0.037	0.102
-484.420	800.000	-0.035	-0.141
-483.405	-98.473	-0.185	-0.047
-482.391	800.000	-0.052	-0.214
-481.376	800.000	0.031	0.112
-480.362	110.783	0.067	0.081
-479.347	9.078	0.173	-0.131
-478.332	-142.595	0.043	-0.004
-477.318	6.089	0.231	0.172
-476.303	40.417	0.166	-0.150
-475.289	692.344	-0.027	0.071
-474.274	410.768	-0.177	0.376
-473.259	-200.000	-0.054	0.436
-472.245	46.326	-0.210	-0.195
-471.230	800.000	-0.030	0.092
-470.216	-121.759	-0.243	-0.040
-469.201	167.140	-0.072	0.102
-468.186	-119.347	0.380	0.066
-467.172	63.406	-0.127	0.128
-466.157	-200.000	-0.013	-0.394
-465.143	-108.693	0.190	-0.041
-464.128	51.444	0.055	-0.052
-463.113	569.928	-0.106	-0.257
-462.099	165.899	-0.087	0.123
-461.084	205.892	0.036	0.056
-460.070	-80.356	0.156	-0.052
-459.055	-50.196	-0.329	-0.156
-458.040	609.985	-0.088	-0.219
-457.026	69.545	0.214	-0.221
-456.011	800.000	-0.053	0.189
-454.997	-55.950	-0.337	0.151
-453.982	-55.565	-0.184	0.082
-452.968	96.944	-0.115	-0.132
-451.953	-200.000	0.083	0.366
-450.938	-76.013	-0.289	0.102
-449.924	-131.502	0.259	-0.034
-448.909	-22.349	-0.301	0.183
-447.895	410.397	-0.033	0.071
-446.880	25.567	0.156	-0.129
-445.865	-200.000	-0.020	0.120
-444.851	169.424	-0.135	-0.193
-443.836	800.000	-0.063	0.275
-442.822	-152.138	-0.162	-0.012
-441.807	-121.346	-0.284	0.047
-440.792	415.310	-0.058	0.124
-439.778	-200.000	-0.113	-0.000
-438.763	-127.028	-0.350	-0.051
-437.749	20.407	-0.097	0.078
-436.734	0.648	0.168	0.120
-435.719	-10.881	0.154	0.102
-434.705	-94.772	-0.211	-0.057
-433.690	-36.117	0.219	0.118
-432.676	-169.235	0.256	0.009
-431.661	-92.063	-0.211	0.060
-430.646	-143.309	-0.255	0.024
-429.632	-73.033	-0.097	0.035
-428.617	-200.000	0.007	0.254
-427.603	-123.138	0.016	0.003
-426.588	-68.225	-0.343	0.133
-425.573	800.000	-0.084	-0.322
-424.559	160.307	0.071	0.099
-423.544	610.823	-0.228	0.570
-422.530	800.000	0.042	0.178
-421.515	-93.442	-0.308	-0.085
-420.500	800.000	-0.128	-0.375
-419.486	-200.000	0.002	-0.089
-418.471	481.425	0.089	-0.201
-417.457	-105.965	-0.109	0.025
-416.442	800.000	0.030	-0.124
-415.428	47.435	-0.154	-0.144
-414.413	-41.067	0.113	-0.058
-413.398	-126.991	0.281	0.041
-412.384	-95.113	-0.227	-0.061
-411.369	206.979	0.212	0.331
-410.355	109.096	-0.052	-0.062
-409.340	-62.011	-0.249	0.104
-408.325	42.952	0.083	0.076
-407.311	45.906	0.448	0.414
-406.296	68.391	-0.131	-0.134
-405.282	-61.164	-0.355	-0.150
-404.267	17.678	0.181	-0.144
-403.252	-144.491	-0.216	0.020
-402.238	201.509	0.076	0.117
-401.223	142.128	0.156	-0.206
-400.209	-12.266	0.026	0.017
-399.194	-123.507	-0.173	0.027
-398.179	-145.679	0.161	0.014
-397.165	800.000	0.059	0.198
-396.150	-1.090	-0.062	0.044
-395.136	188.148	0.123	-0.184
-394.121	-77.567	-0.228	0.079
-393.106	348.615	0.049	-0.097
-392.092	-59.473	-0.300	0.129
-391.077	-115.039	-0.647	0.123
-390.063	-88.573	0.213	0.063
-389.048	-200.000	0.019	-0.109
-388.033	-15.703	-0.287	0.183
-387.019	-200.000	0.018	0.085
-386.004	-55.972	0.154	0.069
-384.990	-200.000	0.022	-0.230
-383.975	389.778	0.076	0.158
-382.960	66.682	0.271	-0.276
-381.946	10.541	-0.113	0.086
-380.931	196.588	0.139	0.211
-379.917	-171.062	-0.272	-0.009
-378.902	-142.611	-0.160	-0.016
-377.888	-53.283	0.240	0.110
-376.873	91.673	0.148	-0.167
-375.858	99.355	0.240	-0.276
-374.844	-125.228	0.097	-0.015
-373.829	182.882	0.172	-0.253
-372.815	-200.000	-0.047	0.233
-371.800	44.888	-0.073	0.067
-370.785	64.960	0.244	-0.246
-369.771	238.850	-0.169	0.281
-368.756	-61.460	-0.044	-0.018
-367.742	-118.471	0.232	0.041
-366.727	-100.396	0.373	-0.092
-365.712	-117.485	0.243	-0.044
-364.698	800.000	-0.066	-0.188
-363.683	-95.467	0.241	0.064
-362.669	-56.878	-0.224	-0.098
-361.654	165.469	0.146	0.206
-360.639	226.753	0.110	0.177
-359.625	-200.000	-0.049	0.266
-358.610	13.927	0.158	-0.123
-357.596	-126.013	-0.278	-0.042
-356.581	-15.023	-0.190	-0.122
-355.566	-42.280	0.166	-0.085
-354.552	421.649	-0.039	0.083
-353.537	-9.330	0.244	0.162
-352.523	-92.013	-0.365	-0.103
-351.508	22.300	0.086	-0.070
-350.493	647.230	0.086	-0.218
-349.479	-200.000	0.047	0.226
-348.464	-81.771	0.131	-0.043
-347.450	-105.709	-0.436	-0.098
-346.435	-164.644	-0.126	-0.006
-345.420	800.000	-0.061	-0.213
-344.406	-99.721	0.070	-0.017
-343.391	-0.486	0.199	-0.140
-342.377	-13.117	-0.327	0.211
-341.362	-155.691	0.297	0.019
-340.348	-200.000	0.017	-0.347
-339.333	-200.000	0.022	-0.140
-338.318	28.318	-0.238	0.200
-337.304	16.761	0.118	0.093
-336.289	-31.982	0.232	0.129
-335.275	800.000	0.086	-0.316
-334.260	-28.849	0.419	-0.240
-333.245	-117.765	-0.175	0.031
-332.231	800.000	-0.021	-0.081
-331.216	281.488	0.042	0.074
-330.202	-200.000	-0.006	0.267
-329.187	-119.417	-0.296	-0.051
-328.172	-200.000	-0.029	-0.259
-327.158	-153.312	0.231	-0.016
-326.143	-200.000	0.018	-0.280
-325.129	59.669	0.134	0.131
-324.114	225.892	-0.152	-0.245
-323.099	535.822	0.123	0.290
-322.085	-200.000	0.019	-0.145
-321.070	-90.533	0.100	0.029
-320.056	800.000	-0.037	-0.139
-319.041	128.280	-0.125	-0.158
-318.026	-89.782	0.113	-0.033
-317.012	-74.290	0.200	0.072
-315.997	800.000	-0.020	0.073
-314.983	-79.367	-0.103	0.035
-313.968	641.172	0.103	0.261
-312.953	800.000	0.084	0.257
-311.939	9.194	-0.213	0.160
-310.924	800.000	0.132	-0.389
-309.910	-125.276	0.207	0.032
-308.895	-100.000	-0.265	-0.066
-307.880	75.820	0.115	-0.120
-306.866	-164.769	-0.249	-0.011
-305.851	549.297	0.066	0.157
-304.837	252.211	0.053	-0.089
-303.822	-85.711	-0.037	0.011
-302.807	85.669	0.280	0.306
-301.793	-200.000	-0.003	-0.453
-300.778	-200.000	0.066	0.450
-299.764	-13.591	0.302	-0.194
-298.749	28.854	-0.287	-0.242
-297.735	102.402	-0.121	-0.140
-296.720	-17.127	-0.172	-0.108
-295.705	-83.085	-0.095	-0.030
-294.691	-200.000	0.019	0.237
-293.676	98.058	-0.129	-0.147
-292.662	-20.173	-0.123	-0.075
-291.647	691.823	0.092	0.240
-290.632	-38.742	0.294	-0.154
-289.618	586.772	0.041	-0.101
-288.603	-200.000	0.014	-0.176
-287.589	800.000	0.120	0.418
-286.574	-200.000	0.031	0.184
-285.559	22.944	0.256	-0.209
-284.545	484.020	0.089	-0.202
-283.530	800.000	-0.086	0.252
-282.516	210.567	-0.131	-0.205
-281.501	-47.744	0.139	-0.067
-280.486	3.116	-0.319	0.230
-279.472	800.000	0.065	-0.233
-278.457	-113.894	0.151	-0.029
-277.443	-165.373	0.275	0.012
-276.428	800.000	0.044	0.149
-275.413	-74.613	-0.286	-0.102
-274.399	88.889	0.340	0.375
-273.384	800.000	-0.051	0.166
-272.370	237.176	0.085	-0.140
-271.355	-200.000	-0.034	0.250
-270.340	-30.324	-0.123	0.070
-269.326	-120.325	0.204	0.035
-268.311	88.731	-0.029	0.032
-267.297	611.035	0.088	-0.218
-266.282	800.000	0.069	0.241
-265.267	-66.660	0.020	0.008
-264.253	137.103	0.094	0.123
-263.238	77.305	-0.250	0.265
-262.224	746.804	0.157	-0.421
-261.209	4.631	0.292	-0.213
-260.195	-0.980	-0.116	0.082
-259.180	77.858	0.088	0.093
-258.165	800.000	-0.031	0.110
-257.151	-71.761	-0.034	0.013
-256.136	-200.000	0.022	-0.151
-255.122	352.306	-0.071	-0.140
-254.107	77.209	0.211	0.223
-253.092	283.933	0.031	0.056
-252.078	-200.000	0.012	-0.058
-251.063	-185.478	-0.335	-0.005
-250.049	55.130	-0.022	-0.021
-249.034	246.634	-0.125	-0.209
-248.019	583.564	0.094	0.228
-247.005	66.736	0.146	-0.147
-245.990	87.966	0.110	-0.121
-244.976	268.133	-0.039	-0.069
-243.961	788.487	0.154	0.420
-242.946	-200.000	0.065	-0.305
-241.932	-200.000	-0.038	-0.288
-240.917	175.666	0.178	-0.256
-239.903	5.933	0.288	-0.212
-238.888	-79.984	-0.074	-0.025
-237.873	-48.552	-0.290	-0.138
-236.859	25.947	0.248	0.205
-235.844	-200.000	0.007	0.125
-234.830	142.616	-0.076	0.100
-233.815	-8.551	0.036	-0.024
-232.800	-192.278	-0.318	-0.003
-231.786	-17.559	-0.160	-0.100
-230.771	521.454	0.071	0.165
-229.757	-200.000	-0.047	-0.209
-228.742	-19.413	0.168	-0.103
-227.727	-200.000	-0.006	-0.336
-226.713	155.119	0.113	-0.154
-225.698	-67.047	0.308	-0.120
-224.684	518.416	-0.072	-0.168
-223.669	-160.398	-0.189	0.010
-222.655	294.009	-0.018	0.032
-221.640	-200.000	0.035	-0.159
-220.625	-200.000	0.035	0.170
-219.611	-24.861	0.093	0.055
-218.596	497.464	0.063	0.145
-217.582	-200.000	0.020	0.142
-216.567	-200.000	0.027	0.269
-215.552	800.000	-0.074	0.292
-214.538	-73.302	0.081	0.029
-213.523	-200.000	-0.007	0.236
-212.509	800.000	0.029	-0.121
-211.494	-200.000	0.001	-0.277
-210.479	-1.987	-0.151	0.105
-209.465	-200.000	-0.027	-0.199
-208.450	-46.163	0.366	0.179
-207.436	-91.030	-0.312	-0.089
-206.421	-81.696	-0.250	-0.081
-205.406	-89.625	0.196	-0.057
-204.392	41.065	-0.115	-0.103
-203.377	92.071	-0.110	0.122
-202.363	-200.000	0.006	-0.152
-201.348	-100.392	0.381	-0.093
-200.333	-19.975	0.184	0.112
-199.319	152.085	-0.260	0.352
-198.304	-200.000	-0.007	-0.096
-197.290	800.000	0.023	0.073
-196.275	-200.000	-0.055	-0.301
-195.260	800.000	0.032	0.113
-194.246	-4.111	-0.131	-0.090
-193.231	-200.000	0.080	-0.408
-192.217	25.518	0.090	0.075
-191.202	-114.508	-0.218	-0.041
-190.187	430.528	0.204	-0.437
-189.173	-63.401	0.167	0.068
-188.158	-200.000	0.006	0.029
-187.144	-3.354	-0.082	-0.056
-186.129	-117.797	0.063	0.011
-185.114	-13.312	-0.395	0.254
-184.100	-28.504	-0.145	0.083
-183.085	-8.781	0.224	0.149
-182.071	800.000	0.067	-0.213
-181.056	-200.000	0.056	-0.243
-180.042	130.040	-0.252	-0.319
-179.027	51.374	0.255	0.240
-178.012	-200.000	-0.008	0.397
-176.998	33.729	-0.159	0.137
-175.983	669.194	0.077	-0.198
-174.969	-86.085	-0.354	0.108
-173.954	-175.981	0.214	0.006
-172.939	-200.000	0.030	0.219
-171.925	80.690	-0.149	-0.159
-170.910	-59.615	-0.181	0.077
-169.896	679.680	0.086	-0.222
-168.881	79.548	-0.184	-0.196
-167.866	103.986	-0.162	0.188
-166.852	544.254	0.039	0.091
-165.837	800.000	0.072	-0.288
-164.823	86.364	-0.222	0.243
-163.808	327.639	-0.183	0.347
-162.793	-184.150	-0.173	-0.003
-161.779	-0.713	-0.228	-0.160
-160.764	-99.788	-0.201	-0.050
-159.750	-0.580	0.307	-0.216
-158.735	-30.519	0.095	0.053
-157.720	108.890	0.174	0.205
-156.706	104.458	-0.123	0.143
-155.691	416.688	0.043	0.091
-154.677	-200.000	0.054	0.300
-153.662	105.962	0.149	0.175
-152.647	-13.995	0.089	-0.057
-151.633	239.384	0.159	0.261
-150.618	46.722	0.051	0.047
-149.604	-76.154	-0.170	-0.059
-148.589	179.831	-0.196	-0.284
-147.574	64.690	0.225	-0.225
-146.560	-195.505	-0.365	0.003
-145.545	-134.518	0.399	0.048
-144.531	-83.134	0.248	-0.079
-143.516	611.388	-0.043	0.107
-142.502	-65.443	-0.067	0.027
-141.487	76.284	-0.101	0.106
-140.472	-200.000	-0.001	0.028
-139.458	-156.691	-0.371	0.023
-138.443	-200.000	0.006	0.104
-137.429	-150.387	0.104	-0.008
-136.414	-200.000	0.013	0.094
-135.399	-72.498	0.193	-0.070
-134.385	-143.202	-0.066	-0.006
-133.370	-147.048	0.361	-0.031
-132.356	164.138	0.281	0.392
-131.341	51.259	-0.320	0.300
-130.326	-78.215	0.149	0.051
-129.312	800.000	-0.108	0.426
-128.297	-96.567	-0.036	0.009
-127.283	-105.707	-0.100	-0.022
-126.268	473.263	-0.172	-0.383
-125.253	-89.675	-0.121	0.035
-124.239	277.272	-0.063	-0.111
-123.224	-103.962	0.241	0.055
-122.210	614.207	0.087	0.216
-121.195	155.294	0.175	-0.238
-120.180	-200.000	0.026	-0.346
