DTS Sentinel unit serial number:	SN413079Multiplexer serial number:	ORYXHardware model number:	OX4-SRSoftware version number:	ORYX F/W v4.00 Oryx Data Collector v3.7.2.0data status	okinstallation	princeton_trtdifferential loss correction	single-endedforward channel	channel 3reverse channel	N/Adate	2019/09/12time	07:18:10forward acquisition time	60.00reverse acquisition time	0.00gamma	496.2192k internal	0.2318k external	0.2318temperature offset calibration	1.0035default loss term (dB/km)	0.3790temperature slope calibration	1.0000multiplexer offset coefficient	1.0000multiplexer slope coefficient	1.0000fibre end	0.00T internal ref (°C)	32.27T ext. ref 1 (°C)	1.61T ext. ref 2 (°C)	28.43length (m)	temperature (°C)	Stokes	anti-Stokes-747.200	-3.566	0.264	0.186
-746.185	-155.753	-0.141	0.009
-745.171	800.000	0.019	-0.061
-744.156	-200.000	0.000	0.166
-743.142	347.759	0.092	-0.184
-742.127	-200.000	-0.020	-0.237
-741.112	-200.000	-0.011	0.361
-740.098	-100.317	0.053	0.013
-739.083	184.728	0.114	-0.171
-738.069	46.251	-0.245	0.230
-737.054	-200.000	0.047	-0.269
-736.039	-45.719	-0.163	-0.081
-735.025	-183.526	0.255	0.004
-734.010	-155.369	-0.261	-0.017
-732.996	225.080	0.182	0.297
-731.981	-200.000	0.027	0.220
-730.966	-200.000	0.005	-0.114
-729.952	800.000	0.076	-0.254
-728.937	-113.533	-0.261	-0.052
-727.923	8.801	-0.209	-0.159
-726.908	-22.470	-0.305	0.187
-725.894	-158.462	-0.093	-0.005
-724.879	-200.000	-0.085	-0.464
-723.864	507.650	-0.107	-0.251
-722.850	-96.572	0.130	-0.035
-721.835	21.735	0.310	0.256
-720.821	-50.086	0.385	0.184
-719.806	-168.802	-0.511	0.019
-718.791	-170.710	-0.340	-0.012
-717.777	274.022	-0.161	0.289
-716.762	-150.389	-0.109	-0.008
-715.748	56.388	0.106	-0.105
-714.733	-200.000	-0.019	-0.159
-713.718	-41.282	0.278	0.145
-712.704	-200.000	0.037	0.287
-711.689	-125.983	-0.287	-0.044
-710.675	800.000	0.060	-0.203
-709.660	-38.209	0.072	0.039
-708.645	95.149	0.170	-0.195
-707.631	-114.491	-0.337	0.065
-706.616	686.409	-0.073	0.192
-705.602	24.910	-0.282	-0.236
-704.587	800.000	0.049	-0.192
-703.572	63.518	0.261	-0.265
-702.558	-92.884	-0.057	-0.016
-701.543	110.766	0.193	0.235
-700.529	-11.237	0.090	-0.060
-699.514	6.494	-0.138	0.104
-698.499	-97.069	-0.167	-0.044
-697.485	-200.000	-0.042	-0.408
-696.470	80.926	0.179	-0.195
-695.456	-143.306	0.171	0.017
-694.441	653.531	0.182	0.471
-693.426	-200.000	-0.007	0.214
-692.412	58.050	0.182	0.180
-691.397	-1.888	-0.188	0.133
-690.383	323.589	0.070	0.135
-689.368	165.121	-0.099	0.141
-688.354	-106.645	0.087	-0.020
-687.339	15.984	0.171	-0.136
-686.324	80.858	0.081	-0.088
-685.310	-200.000	0.027	-0.190
-684.295	800.000	0.044	0.181
-683.281	-200.000	-0.021	0.232
-682.266	103.109	0.121	-0.143
-681.251	32.554	-0.154	0.134
-680.237	-161.946	0.232	-0.012
-679.222	351.459	-0.101	-0.201
-678.208	800.000	0.096	-0.379
-677.193	-73.785	-0.446	-0.164
-676.178	-57.286	0.209	-0.093
-675.164	800.000	0.053	0.163
-674.149	347.742	-0.104	0.207
-673.135	-57.168	0.373	0.166
-672.120	-118.335	-0.433	-0.078
-671.105	800.000	-0.042	0.151
-670.091	688.265	0.096	-0.253
-669.076	800.000	-0.053	0.154
-668.062	-151.582	-0.177	-0.013
-667.047	-37.495	0.127	0.069
-666.032	-63.730	0.051	-0.021
-665.018	-200.000	0.071	-0.403
-664.003	-3.502	0.332	0.233
-662.989	-35.482	0.248	0.136
-661.974	400.257	-0.157	-0.331
-660.959	-200.000	0.378	-0.000
-659.945	576.740	0.053	0.130
-658.930	-130.295	0.178	-0.024
-657.916	-169.448	-0.265	0.010
-656.901	800.000	-0.056	-0.167
-655.886	601.874	-0.050	0.125
-654.872	-200.000	0.001	-0.060
-653.857	-116.746	0.321	-0.059
-652.843	85.568	0.236	-0.261
-651.828	7.893	0.209	-0.158
-650.814	-45.020	0.234	0.118
-649.799	107.886	-0.161	-0.193
-648.784	-54.532	0.061	-0.028
-647.770	189.444	-0.095	-0.144
-646.755	-26.048	-0.107	0.063
-645.741	141.912	-0.294	-0.393
-644.726	-96.840	-0.263	-0.070
-643.711	-41.715	-0.116	0.060
-642.697	101.592	-0.077	0.090
-641.682	351.860	-0.129	0.257
-640.668	-59.002	-0.247	0.108
-639.653	140.421	-0.100	0.133
-638.638	174.668	-0.142	-0.207
-637.624	-200.000	0.021	-0.375
-636.609	-59.076	0.091	-0.040
-635.595	-200.000	-0.051	0.236
-634.580	41.695	-0.035	0.032
-633.565	-172.566	-0.401	0.013
-632.551	-33.651	0.095	-0.053
-631.536	-101.868	0.304	-0.074
-630.522	-112.287	-0.062	-0.013
-629.507	-181.709	-0.168	0.003
-628.492	-200.000	0.019	-0.239
-627.478	-47.735	-0.169	0.083
-626.463	10.450	0.221	0.169
-625.449	-200.000	0.008	0.307
-624.434	405.879	0.081	-0.172
-623.419	800.000	-0.031	0.129
-622.405	-184.487	-0.348	0.006
-621.390	-65.612	-0.128	0.052
-620.376	60.600	0.035	-0.035
-619.361	241.630	0.135	-0.226
-618.346	-164.097	-0.244	-0.011
-617.332	41.357	-0.219	0.199
-616.317	-158.426	-0.146	0.009
-615.303	-200.000	0.015	0.384
-614.288	195.241	0.032	-0.049
-613.273	139.754	-0.205	0.272
-612.259	-63.250	0.097	-0.040
-611.244	51.370	-0.127	-0.121
-610.230	-90.626	-0.131	-0.038
-609.215	-12.522	-0.197	0.129
-608.201	-109.119	0.151	-0.032
-607.186	-180.107	-0.216	-0.005
-606.171	-39.306	0.400	0.212
-605.157	501.161	-0.069	0.161
-604.142	800.000	0.119	0.347
-603.128	-38.235	0.197	-0.105
-602.113	-6.651	0.284	-0.194
-601.098	-47.232	-0.088	0.043
-600.084	800.000	0.039	-0.121
-599.069	38.336	-0.181	0.162
-598.055	80.380	0.195	0.211
-597.040	-200.000	0.031	0.158
-596.025	44.248	-0.302	0.279
-595.011	-200.000	-0.006	0.096
-593.996	789.265	-0.151	0.417
-592.982	-82.386	0.331	-0.108
-591.967	287.064	0.156	0.284
-590.952	225.745	-0.062	-0.101
-589.938	-200.000	-0.005	-0.272
-588.923	380.107	-0.081	-0.167
-587.909	52.363	-0.163	-0.156
-586.894	15.044	-0.010	0.008
-585.879	45.920	0.110	0.103
-584.865	-200.000	-0.040	-0.298
-583.850	5.316	0.203	-0.150
-582.836	-200.000	0.048	0.295
-581.821	56.832	-0.246	-0.241
-580.806	-167.063	0.108	-0.004
-579.792	724.738	0.075	0.201
-578.777	1.160	0.271	-0.196
-577.763	42.280	-0.210	0.192
-576.748	251.037	-0.118	0.202
-575.733	320.624	-0.041	-0.079
-574.719	771.333	0.042	-0.116
-573.704	-67.003	0.137	0.054
-572.690	138.551	-0.267	-0.352
-571.675	67.207	0.289	-0.296
-570.661	800.000	0.081	-0.229
-569.646	334.139	-0.057	-0.111
-568.631	46.411	-0.132	-0.123
-567.617	-166.380	0.286	0.012
-566.602	-33.509	-0.486	-0.270
-565.588	32.061	-0.122	-0.106
-564.573	-92.000	0.122	-0.035
-563.558	258.681	-0.217	0.376
-562.544	-158.379	0.124	-0.007
-561.529	-54.538	0.122	0.056
-560.515	-58.264	0.536	0.234
-559.500	800.000	-0.077	0.266
-558.485	-16.137	0.261	0.166
-557.471	396.828	0.155	0.325
-556.456	-200.000	0.067	0.344
-555.442	-200.000	0.012	0.172
-554.427	17.801	-0.180	-0.144
-553.412	-127.293	-0.361	-0.053
-552.398	-200.000	-0.005	-0.122
-551.383	-62.066	0.464	-0.195
-550.369	30.890	0.155	0.134
-549.354	-160.609	-0.193	-0.010
-548.339	-80.504	0.252	-0.084
-547.325	213.370	-0.102	0.162
-546.310	800.000	0.084	-0.237
-545.296	165.721	-0.043	0.060
-544.281	-28.923	0.128	-0.074
-543.266	71.845	0.335	-0.350
-542.252	-39.063	0.205	0.108
-541.237	-200.000	-0.013	-0.158
-540.223	-166.216	-0.325	-0.014
-539.208	-71.908	0.373	-0.139
-538.193	136.511	-0.182	-0.238
-537.179	117.675	0.123	0.152
-536.164	256.398	-0.126	0.218
-535.150	390.721	-0.050	-0.104
-534.135	800.000	-0.045	0.171
-533.121	800.000	-0.103	-0.336
-532.106	49.709	-0.100	-0.094
-531.091	265.537	-0.162	-0.284
-530.077	-200.000	-0.005	0.192
-529.062	-110.626	-0.283	-0.059
-528.048	-200.000	0.179	0.000
-527.033	38.017	0.114	0.102
-526.018	-200.000	-0.014	-0.103
-525.004	-125.142	-0.116	-0.018
-523.989	7.116	0.053	-0.039
-522.975	303.310	-0.055	-0.102
-521.960	800.000	0.040	-0.165
-520.945	-71.692	-0.252	-0.094
-519.931	-72.539	-0.186	0.069
-518.916	60.418	-0.218	0.216
-517.902	418.190	0.076	0.164
-516.887	82.388	-0.149	0.162
-515.872	-200.000	0.000	0.303
-514.858	800.000	0.059	0.256
-513.843	77.771	0.242	0.258
-512.829	18.357	-0.247	-0.198
-511.814	-84.945	0.159	0.050
-510.799	-130.762	0.259	-0.035
-509.785	-15.425	0.193	0.124
-508.770	-200.000	-0.087	-0.386
-507.756	-71.369	0.285	-0.107
-506.741	-109.083	0.101	-0.022
-505.726	-200.000	0.018	0.183
-504.712	278.019	-0.078	0.140
-503.697	-117.164	0.192	-0.035
-502.683	20.355	0.091	-0.074
-501.668	-103.293	-0.112	0.026
-500.653	-129.436	-0.281	-0.039
-499.639	547.839	-0.066	0.159
-498.624	800.000	-0.051	0.201
-497.610	-200.000	-0.009	0.096
-496.595	-160.118	-0.233	0.013
-495.581	-45.862	-0.165	-0.082
-494.566	-65.874	-0.098	0.039
-493.551	-200.000	0.017	-0.095
-492.537	-129.047	0.199	0.028
-491.522	-21.415	0.401	0.245
-490.508	171.678	0.041	0.058
-489.493	87.507	0.084	0.093
-488.478	167.060	0.168	0.239
-487.464	330.005	-0.207	0.398
-486.449	-39.380	0.156	0.082
-485.435	25.878	-0.090	0.075
-484.420	-5.191	0.085	0.058
-483.405	-38.082	-0.346	-0.184
-482.391	800.000	0.054	-0.211
-481.376	112.957	-0.192	0.233
-480.362	-24.849	0.100	-0.060
-479.347	-148.294	-0.047	0.004
-478.332	319.212	-0.090	-0.170
-477.318	-21.317	0.231	-0.141
-476.303	-200.000	0.007	0.066
-475.289	29.656	-0.050	-0.042
-474.274	49.730	0.185	-0.175
-473.259	-200.000	-0.009	0.054
-472.245	-91.160	-0.516	-0.148
-471.230	-200.000	-0.309	-0.001
-470.216	-200.000	0.012	0.115
-469.201	-73.360	0.228	0.083
-468.186	-200.000	0.091	0.459
-467.172	-88.816	0.174	-0.052
-466.157	-11.525	0.163	0.107
-465.143	-45.722	0.021	-0.010
-464.128	-38.397	0.064	0.034
-463.113	-148.760	-0.195	-0.016
-462.099	620.429	0.094	0.238
-461.084	-146.763	0.427	-0.037
-460.070	16.462	0.094	-0.075
-459.055	127.909	-0.201	0.256
-458.040	77.628	0.200	-0.213
-457.026	-40.058	0.187	-0.098
-456.011	-200.000	-0.091	0.400
-454.997	88.452	-0.227	-0.252
-453.982	-53.960	0.174	-0.079
-452.968	-65.065	-0.293	-0.118
-451.953	-121.152	0.042	0.007
-450.938	380.991	0.177	-0.364
-449.924	214.794	-0.162	-0.257
-448.909	-200.000	0.095	-0.443
-447.895	-128.077	0.329	-0.047
-446.880	-24.898	-0.090	-0.054
-445.865	800.000	-0.050	0.147
-444.851	-132.714	-0.032	-0.004
-443.836	-93.568	-0.270	-0.075
-442.822	14.453	-0.306	-0.239
-441.807	273.775	0.108	0.190
-440.792	-113.985	0.208	-0.040
-439.778	77.157	-0.018	-0.019
-438.763	800.000	0.077	-0.269
-437.749	-5.346	0.332	-0.228
-436.734	-200.000	-0.005	0.339
-435.719	-139.067	0.068	-0.007
-434.705	800.000	0.076	-0.265
-433.690	178.877	-0.183	-0.268
-432.676	-35.999	0.065	0.035
-431.661	132.719	-0.064	-0.083
-430.646	262.796	-0.053	0.092
-429.632	-200.000	-0.004	0.193
-428.617	-200.000	0.006	-0.053
-427.603	275.003	-0.027	-0.047
-426.588	-78.300	0.084	-0.029
-425.573	45.793	-0.157	-0.145
-424.559	800.000	0.012	0.041
-423.544	-118.771	0.161	-0.028
-422.530	800.000	0.046	0.202
-421.515	-137.827	-0.412	-0.046
-420.500	44.038	-0.179	-0.164
-419.486	475.191	0.113	0.255
-418.471	-153.797	0.227	0.016
-417.457	-195.406	0.008	0.000
-416.442	800.000	-0.108	-0.394
-415.428	-40.474	0.192	0.100
-414.413	-93.023	-0.292	0.081
-413.398	56.378	0.217	-0.211
-412.384	-200.000	0.002	-0.188
-411.369	-13.011	0.074	-0.048
-410.355	-145.224	-0.149	-0.013
-409.340	70.805	-0.046	0.048
-408.325	309.818	0.041	-0.077
-407.311	-90.060	-0.076	-0.022
-406.296	64.103	-0.171	0.172
-405.282	800.000	0.125	-0.358
-404.267	719.745	-0.055	0.145
-403.252	111.833	-0.089	0.107
-402.238	-200.000	-0.032	-0.428
-401.223	609.910	-0.157	0.391
-400.209	23.958	0.286	-0.235
-399.194	-70.789	0.135	-0.051
-398.179	-125.695	0.060	-0.009
-397.165	-30.671	-0.283	-0.160
-396.150	643.990	0.085	0.217
-395.136	42.696	-0.102	0.092
-394.121	-1.127	-0.268	-0.189
-393.106	-200.000	-0.021	0.199
-392.092	-10.635	0.247	0.163
-391.077	-200.000	0.008	0.048
-390.063	380.297	-0.127	-0.261
-389.048	-102.131	-0.035	0.008
-388.033	-200.000	0.000	0.124
-387.019	7.910	-0.096	0.072
-386.004	-200.000	-0.025	0.116
-384.990	800.000	0.121	-0.342
-383.975	-47.600	-0.022	-0.011
-382.960	59.388	-0.081	-0.080
-381.946	409.759	0.046	0.097
-380.931	39.498	0.103	0.092
-379.917	117.342	0.048	0.058
-378.902	-133.499	-0.459	0.057
-377.888	-98.137	0.371	0.095
-376.873	-54.304	0.138	0.063
-375.858	-200.000	-0.002	0.117
-374.844	-35.979	0.021	-0.011
-373.829	-53.230	-0.171	-0.078
-372.815	113.565	-0.074	-0.089
-371.800	327.315	0.076	-0.145
-370.785	275.013	-0.158	0.280
-369.771	15.658	-0.186	-0.146
-368.756	-200.000	0.024	-0.193
-367.742	789.569	-0.056	-0.154
-366.727	-117.437	0.217	-0.039
-365.712	159.162	-0.208	0.288
-364.698	-44.190	-0.140	-0.070
-363.683	800.000	0.008	0.029
-362.669	-200.000	0.010	-0.047
-361.654	192.022	0.137	0.206
-360.639	22.547	-0.285	0.232
-359.625	800.000	-0.072	0.306
-358.610	800.000	0.066	-0.267
-357.596	-83.906	0.183	-0.058
-356.581	800.000	0.066	0.220
-355.566	-200.000	0.096	-0.000
-354.552	273.105	0.040	-0.071
-353.537	601.574	-0.025	-0.062
-352.523	224.681	-0.062	-0.099
-351.508	22.185	-0.176	-0.143
-350.493	146.137	-0.099	-0.133
-349.479	-31.740	0.260	-0.145
-348.464	35.384	-0.117	-0.102
-347.450	211.432	0.112	-0.176
-346.435	-65.675	0.277	-0.111
-345.420	-200.000	-0.010	-0.262
-344.406	-4.778	0.343	-0.236
-343.391	25.099	-0.065	-0.054
-342.377	423.729	0.061	0.131
-341.362	396.735	0.162	0.337
-340.348	51.912	0.251	-0.238
-339.333	298.515	-0.067	-0.123
-338.318	-40.437	0.199	0.103
-337.304	-57.507	0.240	-0.105
-336.289	800.000	0.064	-0.178
-335.275	-11.353	-0.091	-0.059
-334.260	-154.296	-0.129	0.009
-333.245	95.314	0.265	-0.300
-332.231	30.730	-0.018	-0.016
-331.216	-40.065	-0.153	-0.080
-330.202	49.364	-0.139	-0.130
-329.187	-171.040	0.110	-0.004
-328.172	175.960	-0.057	-0.083
-327.158	800.000	0.093	0.361
-326.143	-200.000	-0.040	0.249
-325.129	41.123	-0.188	0.169
-324.114	8.897	-0.299	0.225
-323.099	800.000	0.034	-0.097
-322.085	-84.274	-0.100	0.032
-321.070	576.604	0.125	-0.303
-320.056	-85.646	-0.326	-0.101
-319.041	800.000	0.097	0.295
-318.026	800.000	-0.067	-0.193
-317.012	-200.000	-0.038	-0.312
-315.997	-200.000	0.081	-0.380
-314.983	-154.666	-0.276	-0.018
-313.968	331.381	-0.083	0.158
-312.953	-102.157	0.369	0.088
-311.939	800.000	0.129	0.448
-310.924	-200.000	0.002	0.037
-309.910	3.042	0.269	0.194
-308.895	-119.037	0.274	-0.048
-307.880	-64.320	0.112	-0.045
-306.866	-50.298	-0.104	-0.049
-305.851	-18.090	0.232	0.144
-304.837	322.542	0.128	0.242
-303.822	-200.000	-0.022	-0.164
-302.807	-23.443	0.239	0.143
-301.793	-15.822	0.194	0.123
-300.778	-13.146	-0.170	-0.110
-299.764	-200.000	0.026	0.135
-298.749	-200.000	-0.002	-0.139
-297.735	-200.000	-0.064	0.355
-296.720	-156.787	0.172	0.011
-295.705	-128.654	0.354	-0.050
-294.691	599.246	0.040	0.099
-293.676	800.000	0.059	0.254
-292.662	55.407	-0.100	0.096
-291.647	188.392	-0.074	-0.110
-290.632	81.468	-0.151	0.163
-289.618	362.168	0.046	-0.092
-288.603	-111.779	0.295	0.059
-287.589	534.403	0.108	0.254
-286.574	97.850	0.032	-0.036
-285.559	102.715	0.017	0.019
-284.545	-116.372	0.138	0.025
-283.530	-200.000	-0.017	0.287
-282.516	40.177	-0.305	-0.272
-281.501	-20.880	-0.172	0.105
-280.486	378.352	0.028	0.057
-279.472	404.465	-0.036	0.075
-278.457	800.000	0.026	-0.083
-277.443	800.000	0.111	-0.343
-276.428	-56.118	-0.121	-0.053
-275.413	-26.428	-0.163	-0.095
-274.399	-12.007	-0.044	0.029
-273.384	2.656	0.262	0.188
-272.370	260.597	-0.109	-0.187
-271.355	-79.161	-0.160	0.054
-270.340	-200.000	0.198	0.001
-269.326	131.631	0.363	0.464
-268.311	-121.097	-0.202	0.034
-267.297	-138.963	0.424	-0.046
-266.282	-141.393	0.642	-0.065
-265.267	5.957	-0.039	-0.029
-264.253	-175.638	0.111	0.003
-263.238	455.689	-0.076	0.167
-262.224	-200.000	0.131	0.663
-261.209	-189.866	0.085	0.001
-260.195	-113.574	0.073	-0.014
-259.180	-99.137	-0.233	0.058
-258.165	524.161	0.145	-0.338
-257.151	800.000	0.092	-0.319
-256.136	170.483	0.077	0.109
-255.122	167.586	-0.105	-0.149
-254.107	-200.000	-0.007	-0.105
-253.092	220.358	-0.185	-0.294
-252.078	800.000	0.065	0.220
-251.063	-200.000	-0.012	-0.145
-250.049	166.222	-0.016	0.022
-249.034	216.535	0.290	-0.458
-248.019	76.259	0.054	-0.057
-247.005	65.202	0.249	-0.250
-245.990	-46.142	-0.330	0.161
-244.976	-108.256	-0.254	-0.055
-243.961	-52.000	0.129	-0.059
-242.946	37.932	-0.350	-0.309
-241.932	800.000	0.042	-0.178
-240.917	83.045	0.034	-0.037
-239.903	145.730	0.197	-0.262
-238.888	800.000	0.027	-0.104
-237.873	-200.000	0.014	-0.081
-236.859	-154.620	-0.192	0.013
-235.844	800.000	-0.078	0.319
-234.830	800.000	0.103	0.311
-233.815	154.656	0.089	0.121
-232.800	160.200	0.066	0.091
-231.786	49.105	0.040	-0.037
-230.771	-100.613	0.324	0.079
-229.757	514.631	0.098	-0.226
-228.742	-200.000	0.050	0.417
-227.727	-200.000	-0.020	-0.308
-226.713	-54.136	0.065	0.029
-225.698	156.947	-0.237	0.325
-224.684	-18.993	-0.150	-0.093
-223.669	4.687	-0.206	-0.150
-222.655	-166.442	-0.301	0.013
-221.640	-200.000	0.029	0.132
-220.625	314.742	-0.121	0.227
-219.611	800.000	0.064	0.187
-218.596	-100.778	-0.172	0.042
-217.582	-89.818	0.171	0.050
-216.567	-200.000	0.018	-0.099
-215.552	-138.158	-0.256	0.028
-214.538	119.786	-0.126	0.155
-213.523	-200.000	0.022	0.297
-212.509	-200.000	-0.021	0.102
-211.494	-134.152	-0.240	0.029
-210.479	199.796	0.021	-0.031
-209.465	-146.912	-0.129	0.011
-208.450	-32.759	-0.265	-0.146
-207.436	247.119	0.145	0.243
-206.421	230.406	-0.070	-0.114
-205.406	-134.913	0.026	0.003
-204.392	-51.855	0.353	0.163
-203.377	-34.407	0.075	-0.041
-202.363	-80.357	-0.190	-0.063
-201.348	2.362	0.102	-0.073
-200.333	58.212	0.059	-0.057
-199.319	23.656	0.285	-0.232
-198.304	209.332	0.176	-0.273
-197.290	396.057	0.165	-0.341
-196.275	205.708	-0.225	0.346
-195.260	-65.541	-0.200	-0.079
-194.246	-123.855	0.280	0.044
-193.231	-80.622	-0.182	0.060
-192.217	-58.101	0.155	0.067
-191.202	262.709	-0.086	0.147
-190.187	-80.326	0.183	0.060
-189.173	39.000	-0.038	-0.034
-188.158	-80.709	-0.254	-0.084
-187.144	-200.000	0.004	-0.207
-186.129	-200.000	0.016	-0.178
-185.114	-200.000	0.082	0.000
-184.100	-143.947	-0.106	0.010
-183.085	-93.688	0.160	0.044
-182.071	177.490	-0.324	-0.467
-181.056	-61.055	0.254	-0.106
-180.042	373.116	-0.044	0.088
-179.027	-66.295	-0.108	-0.043
-178.012	275.493	-0.126	-0.221
-176.998	-200.000	0.026	-0.300
-175.983	-141.354	0.262	0.026
-174.969	18.945	-0.207	0.164
-173.954	133.019	-0.168	-0.215
-172.939	130.941	-0.259	-0.329
-171.925	-33.881	0.152	-0.083
-170.910	-33.834	0.251	0.137
-169.896	-200.000	0.060	0.432
-168.881	184.456	-0.147	-0.215
-167.866	-88.409	0.054	-0.016
-166.852	-67.637	-0.366	-0.142
-165.837	-200.000	-0.007	0.161
-164.823	-200.000	-0.016	0.121
-163.808	-104.487	0.102	-0.023
-162.793	53.873	0.336	0.319
-161.779	800.000	0.011	0.031
-160.764	115.982	0.070	-0.085
-159.750	-156.725	-0.361	-0.022
-158.735	800.000	-0.104	0.382
-157.720	800.000	0.029	0.116
-156.706	-105.167	-0.368	0.083
-155.691	-168.662	-0.017	0.001
-154.677	30.093	-0.287	0.242
-153.662	108.763	0.201	-0.238
-152.647	139.661	-0.177	0.230
-151.633	207.450	-0.043	-0.066
-150.618	800.000	0.109	-0.311
-149.604	-118.636	-0.177	-0.031
-148.589	226.203	-0.125	-0.201
-147.574	36.287	0.151	0.131
-146.560	-150.038	-0.067	-0.005
-145.545	-200.000	-0.020	-0.207
-144.531	-33.758	0.326	-0.178
-143.516	-90.023	0.307	0.088
-142.502	336.480	0.106	-0.203
-141.487	800.000	-0.167	-0.519
-140.472	373.321	-0.088	0.177
-139.458	-58.738	-0.229	-0.098
-138.443	189.340	0.016	0.024
-137.429	31.926	0.071	-0.061
-136.414	-106.551	-0.128	-0.028
-135.399	389.426	-0.075	-0.153
-134.385	20.250	0.174	-0.139
-133.370	-200.000	-0.004	-0.348
-132.356	-200.000	-0.004	-0.052
-131.341	-4.826	0.120	0.082
-130.326	594.317	0.144	0.353
-129.312	707.112	-0.107	0.279
-128.297	240.047	0.166	0.273
-127.283	-7.691	-0.200	0.133
-126.268	355.751	-0.106	-0.208
-125.253	30.685	0.112	-0.094
-124.239	541.913	-0.047	0.111
-123.224	-134.280	0.242	-0.029
-122.210	129.030	0.144	-0.182
-121.195	28.532	-0.102	0.085
