DTS Sentinel unit serial number:	SN413079Multiplexer serial number:	ORYXHardware model number:	OX4-SRSoftware version number:	ORYX F/W v4.00 Oryx Data Collector v3.7.2.0data status	okinstallation	princeton_trtdifferential loss correction	single-endedforward channel	channel 3reverse channel	N/Adate	2019/09/11time	03:54:11forward acquisition time	60.00reverse acquisition time	0.00gamma	496.2192k internal	0.2330k external	0.2330temperature offset calibration	0.9911default loss term (dB/km)	0.3790temperature slope calibration	1.0000multiplexer offset coefficient	1.0000multiplexer slope coefficient	1.0000fibre end	0.00T internal ref (°C)	29.56T ext. ref 1 (°C)	-0.29T ext. ref 2 (°C)	23.63length (m)	temperature (°C)	Stokes	anti-Stokes-747.200	-156.478	0.242	-0.015
-746.185	81.875	0.195	0.213
-745.171	39.301	-0.063	0.057
-744.156	10.167	-0.145	0.111
-743.142	-35.858	0.309	-0.168
-742.127	121.634	-0.222	0.279
-741.112	137.365	0.195	0.257
-740.098	-200.000	0.004	0.031
-739.083	-175.173	0.170	0.005
-738.069	-200.000	-0.004	0.176
-737.054	54.041	0.053	0.051
-736.039	-68.042	-0.471	-0.185
-735.025	-200.000	0.003	-0.122
-734.010	-19.784	-0.095	-0.059
-732.996	243.305	-0.125	-0.211
-731.981	477.602	-0.131	-0.298
-730.966	357.876	-0.137	0.275
-729.952	-200.000	-0.012	-0.101
-728.937	-43.870	0.175	-0.089
-727.923	-200.000	-0.002	-0.223
-726.908	-200.000	0.056	-0.397
-725.894	5.309	0.222	-0.165
-724.879	99.569	0.072	-0.084
-723.864	-144.959	-0.260	0.024
-722.850	-200.000	0.017	0.125
-721.835	-200.000	0.070	0.504
-720.821	-200.000	0.036	-0.248
-719.806	-200.000	0.061	-0.334
-718.791	-139.140	0.075	0.008
-717.777	-101.992	-0.355	0.086
-716.762	-130.143	0.069	-0.010
-715.748	-200.000	0.040	-0.371
-714.733	800.000	0.011	-0.044
-713.718	-105.383	0.156	0.036
-712.704	24.052	0.152	-0.126
-711.689	-74.748	-0.087	0.031
-710.675	-22.429	-0.087	0.053
-709.660	130.384	0.121	-0.156
-708.645	16.703	0.160	-0.128
-707.631	-53.562	0.226	0.104
-706.616	-181.398	-0.121	-0.002
-705.602	100.529	0.101	-0.118
-704.587	800.000	0.014	-0.053
-703.572	-200.000	-0.055	-0.290
-702.558	217.237	0.071	-0.113
-701.543	800.000	-0.014	-0.050
-700.529	568.744	-0.077	0.187
-699.514	307.516	-0.146	-0.273
-698.499	-130.116	-0.231	0.032
-697.485	-121.288	0.127	-0.021
-696.470	-121.471	0.244	-0.041
-695.456	-200.000	0.016	0.097
-694.441	602.999	-0.092	0.230
-693.426	210.666	-0.057	0.089
-692.412	86.648	-0.139	0.154
-691.397	389.291	-0.115	-0.239
-690.383	-104.532	-0.159	0.037
-689.368	800.000	0.058	0.190
-688.354	-11.929	0.083	-0.055
-687.339	-163.264	0.197	0.009
-686.324	-5.805	-0.151	0.104
-685.310	-142.460	0.185	-0.018
-684.295	-200.000	0.014	-0.097
-683.281	-67.686	-0.099	0.039
-682.266	48.152	0.130	-0.122
-681.251	-91.869	-0.309	-0.088
-680.237	175.058	0.200	-0.291
-679.222	800.000	0.074	-0.226
-678.208	-110.975	-0.145	0.030
-677.193	800.000	0.053	0.202
-676.178	-48.352	-0.094	-0.046
-675.164	47.458	0.114	0.106
-674.149	692.416	0.089	-0.235
-673.135	338.711	-0.035	0.069
-672.120	-84.620	-0.174	-0.055
-671.105	257.901	0.028	-0.048
-670.091	-200.000	0.007	-0.041
-669.076	212.714	0.130	-0.206
-668.062	182.669	0.175	0.259
-667.047	9.918	-0.088	-0.067
-666.032	-29.712	-0.092	0.053
-665.018	553.290	0.062	0.150
-664.003	-200.000	-0.012	0.097
-662.989	24.184	0.030	-0.025
-661.974	57.606	-0.153	0.150
-660.959	59.006	0.127	0.125
-659.945	-62.343	-0.106	0.044
-658.930	-9.485	0.467	-0.313
-657.916	-57.622	0.164	-0.072
-656.901	-166.043	0.192	-0.008
-655.886	-1.446	-0.142	-0.101
-654.872	-111.885	0.298	-0.060
-653.857	304.182	0.042	-0.079
-652.843	-200.000	-0.017	-0.321
-651.828	-200.000	-0.005	0.270
-650.814	-183.298	-0.218	0.004
-649.799	113.431	-0.150	-0.182
-648.784	11.575	0.040	-0.030
-647.770	152.714	-0.150	-0.206
-646.755	334.102	0.185	-0.359
-645.741	89.565	0.163	-0.183
-644.726	800.000	0.092	0.324
-643.711	-28.970	-0.136	-0.078
-642.697	371.741	-0.137	-0.280
-641.682	-121.966	-0.132	-0.022
-640.668	-43.118	-0.241	0.122
-639.653	-48.310	-0.250	0.121
-638.638	-190.561	-0.368	0.004
-637.624	800.000	-0.015	0.046
-636.609	-200.000	-0.016	0.094
-635.595	581.005	-0.048	-0.119
-634.580	7.846	0.110	0.083
-633.565	-97.653	-0.170	0.044
-632.551	-57.296	0.147	-0.065
-631.536	-0.145	-0.097	-0.069
-630.522	-55.603	-0.097	-0.043
-629.507	181.231	0.126	-0.185
-628.492	-200.000	-0.046	-0.288
-627.478	-75.799	-0.250	0.089
-626.463	71.631	0.178	-0.186
-625.449	38.496	0.237	-0.212
-624.434	318.783	0.081	-0.154
-623.419	-200.000	0.004	0.100
-622.405	480.342	0.033	0.075
-621.390	45.700	-0.092	0.085
-620.376	-200.000	0.014	0.099
-619.361	0.814	-0.181	-0.130
-618.346	147.948	-0.161	0.218
-617.332	-132.928	0.177	0.023
-616.317	-200.000	-0.048	-0.344
-615.303	-93.630	0.172	0.048
-614.288	28.056	-0.326	0.276
-613.273	-65.842	-0.229	0.092
-612.259	22.672	0.170	-0.140
-611.244	800.000	0.069	-0.194
-610.230	83.495	0.064	-0.070
-609.215	-84.868	-0.174	0.055
-608.201	269.238	0.006	-0.011
-607.186	52.908	-0.267	0.256
-606.171	800.000	0.033	-0.126
-605.157	92.020	0.102	0.115
-604.142	-68.691	0.172	0.066
-603.128	-20.549	0.387	-0.238
-602.113	-19.836	-0.183	-0.113
-601.098	-88.852	-0.510	0.151
-600.084	212.051	-0.135	-0.213
-599.069	54.892	-0.131	0.127
-598.055	240.525	-0.098	0.163
-597.040	-144.073	-0.175	0.016
-596.025	75.184	-0.371	-0.391
-595.011	34.110	0.091	0.080
-593.996	-200.000	0.005	-0.152
-592.982	-200.000	0.004	0.085
-591.967	-200.000	0.013	0.144
-590.952	-200.000	0.017	0.147
-589.938	-46.224	0.188	-0.092
-588.923	105.273	-0.198	-0.234
-587.909	-200.000	0.008	0.324
-586.894	-200.000	0.005	0.142
-585.879	-93.017	0.307	-0.086
-584.865	800.000	-0.013	-0.053
-583.850	-16.157	0.092	0.058
-582.836	-81.011	-0.178	-0.059
-581.821	800.000	-0.058	-0.198
-580.806	91.297	0.312	-0.350
-579.792	-177.766	-0.134	0.003
-578.777	-141.181	-0.485	0.049
-577.763	-200.000	0.004	0.024
-576.748	121.708	0.217	0.271
-575.733	-200.000	-0.045	-0.270
-574.719	800.000	-0.115	-0.346
-573.704	-200.000	-0.047	-0.209
-572.690	0.729	-0.241	0.173
-571.675	-200.000	-0.019	0.306
-570.661	140.409	0.135	0.178
-569.646	-200.000	0.046	-0.225
-568.631	-91.079	-0.241	0.069
-567.617	-20.593	0.096	-0.059
-566.602	425.262	-0.074	-0.159
-565.588	-113.784	0.076	-0.015
-564.573	-50.539	0.128	-0.060
-563.558	-146.772	-0.138	-0.012
-562.544	-87.396	0.524	-0.159
-561.529	175.463	-0.152	0.220
-560.515	176.798	-0.172	0.250
-559.500	139.065	0.031	0.040
-558.485	-74.540	-0.302	-0.109
-557.471	152.417	-0.081	-0.110
-556.456	-52.024	-0.217	-0.101
-555.442	-73.802	0.074	-0.027
-554.427	-73.842	-0.096	0.035
-553.412	-41.755	0.189	0.097
-552.398	0.594	0.310	0.221
-551.383	194.583	0.169	0.255
-550.369	800.000	-0.064	-0.240
-549.354	-27.853	0.218	0.126
-548.339	27.671	-0.030	0.025
-547.325	-129.298	0.273	-0.038
-546.310	77.413	-0.107	0.114
-545.296	-74.090	0.308	0.111
-544.281	154.211	0.100	0.137
-543.266	59.725	-0.259	-0.256
-542.252	-200.000	-0.042	0.283
-541.237	20.534	0.165	0.134
-540.223	-115.724	0.198	0.037
-539.208	26.744	-0.313	-0.262
-538.193	-117.400	0.171	0.031
-537.179	-56.072	-0.238	0.106
-536.164	717.276	-0.108	-0.286
-535.150	-200.000	0.018	0.156
-534.135	54.976	0.173	0.166
-533.121	-200.000	0.008	-0.109
-532.106	793.487	0.021	0.058
-531.091	-81.118	0.195	0.064
-530.077	800.000	-0.098	-0.391
-529.062	-146.118	-0.318	-0.028
-528.048	-19.280	0.409	-0.254
-527.033	-88.332	0.158	0.047
-526.018	-101.127	0.210	0.051
-525.004	36.127	-0.129	-0.113
-523.989	-7.064	-0.153	0.103
-522.975	-172.876	0.210	0.006
-521.960	560.287	0.118	-0.283
-520.945	693.510	0.055	-0.143
-519.931	169.880	0.057	-0.081
-518.916	-133.425	0.309	-0.039
-517.902	87.160	0.062	-0.068
-516.887	-95.200	0.310	-0.083
-515.872	-82.208	-0.066	0.021
-514.858	-75.111	-0.130	-0.046
-513.843	-129.583	-0.224	0.031
-512.829	139.854	-0.150	0.198
-511.814	-70.214	0.196	-0.074
-510.799	465.667	0.091	-0.203
-509.785	-10.777	0.083	0.055
-508.770	-39.317	0.384	-0.201
-507.756	-8.788	0.177	0.118
-506.741	87.754	0.124	0.137
-505.726	-72.986	0.088	0.032
-504.712	3.285	0.113	0.082
-503.697	268.782	-0.043	-0.075
-502.683	-45.227	-0.108	-0.054
-501.668	-110.216	0.129	-0.027
-500.653	-200.000	0.029	0.286
-499.639	-37.963	-0.442	0.234
-498.624	-1.309	-0.065	-0.046
-497.610	-200.000	-0.049	-0.443
-496.595	-41.606	-0.271	0.139
-495.581	393.964	-0.095	-0.197
-494.566	205.751	0.104	-0.161
-493.551	196.393	0.175	-0.266
-492.537	44.341	0.026	-0.023
-491.522	800.000	0.084	0.349
-490.508	48.560	0.135	0.126
-489.493	-130.728	0.174	-0.023
-488.478	-200.000	-0.000	-0.082
-487.464	745.916	-0.047	-0.127
-486.449	-108.514	-0.072	-0.015
-485.435	289.649	-0.075	0.136
-484.420	-90.708	-0.485	-0.140
-483.405	36.767	-0.147	-0.130
-482.391	588.288	-0.077	-0.190
-481.376	30.668	-0.196	0.167
-480.362	223.684	0.074	0.119
-479.347	-92.910	0.213	-0.059
-478.332	71.937	0.163	0.169
-477.318	52.682	0.261	0.249
-476.303	53.135	-0.022	-0.021
-475.289	-102.131	0.350	-0.084
-474.274	-200.000	0.028	-0.327
-473.259	-161.478	-0.191	0.010
-472.245	137.675	-0.194	0.252
-471.230	-64.137	0.145	0.059
-470.216	-95.003	0.259	0.070
-469.201	-200.000	-0.015	0.090
-468.186	764.810	-0.025	0.068
-467.172	-11.833	-0.153	-0.100
-466.157	8.871	0.288	-0.216
-465.143	60.788	0.133	-0.131
-464.128	256.963	-0.139	-0.238
-463.113	800.000	-0.052	-0.209
-462.099	-7.481	-0.225	0.152
-461.084	-133.635	-0.208	-0.026
-460.070	-64.275	-0.188	-0.076
-459.055	800.000	0.139	-0.557
-458.040	-74.208	0.421	-0.152
-457.026	-200.000	-0.085	-0.478
-456.011	336.967	0.094	0.182
-454.997	-200.000	-0.023	0.183
-453.982	-101.241	-0.067	-0.016
-452.968	-53.774	0.117	-0.053
-451.953	233.479	0.134	-0.219
-450.938	-200.000	-0.148	0.001
-449.924	-106.580	0.467	-0.104
-448.909	-27.961	-0.247	-0.142
-447.895	335.853	0.058	-0.113
-446.880	192.845	0.216	0.325
-445.865	-60.656	-0.178	-0.075
-444.851	-61.631	0.186	-0.078
-443.836	-167.401	-0.144	0.006
-442.822	-117.782	-0.140	0.025
-441.807	-191.270	0.143	0.001
-440.792	-200.000	0.010	0.223
-439.778	117.035	-0.085	-0.104
-438.763	-29.827	-0.229	0.130
-437.749	28.700	0.054	-0.046
-436.734	-78.095	-0.340	0.116
-435.719	-110.497	0.281	0.058
-434.705	38.408	-0.092	-0.082
-433.690	800.000	-0.075	0.292
-432.676	612.207	0.094	0.233
-431.661	-185.106	-0.179	0.003
-430.646	-200.000	-0.008	-0.052
-429.632	17.507	-0.268	-0.212
-428.617	800.000	0.065	-0.232
-427.603	-96.346	0.079	0.021
-426.588	-200.000	0.005	0.038
-425.573	6.306	-0.088	0.065
-424.559	245.861	0.055	0.092
-423.544	209.320	-0.109	-0.171
-422.530	-127.129	-0.013	0.002
-421.515	-58.176	0.084	0.036
-420.500	37.339	-0.052	0.046
-419.486	800.000	-0.006	-0.019
-418.471	121.595	0.096	0.119
-417.457	-200.000	-0.071	0.406
-416.442	-200.000	-0.003	0.104
-415.428	800.000	-0.039	0.158
-414.413	-200.000	0.023	0.323
-413.398	-171.841	0.122	0.004
-412.384	-20.329	-0.180	0.110
-411.369	-24.500	-0.232	0.137
-410.355	-200.000	0.010	-0.095
-409.340	28.410	0.392	0.330
-408.325	-200.000	0.001	-0.016
-407.311	-60.965	-0.241	-0.101
-406.296	-71.441	0.530	-0.197
-405.282	-151.602	-0.176	-0.013
-404.267	-15.438	-0.197	0.125
-403.252	-115.341	0.305	-0.057
-402.238	-169.306	0.150	0.005
-401.223	104.716	0.299	-0.350
-400.209	171.831	0.216	-0.308
-399.194	-89.399	0.128	-0.037
-398.179	357.304	0.052	-0.102
-397.165	37.591	-0.096	0.084
-396.150	217.381	-0.106	-0.167
-395.136	800.000	0.068	0.207
-394.121	246.065	-0.080	0.133
-393.106	-200.000	-0.077	-0.393
-392.092	800.000	-0.057	0.174
-391.077	5.779	-0.156	0.115
-390.063	-75.622	-0.078	-0.027
-389.048	172.372	-0.047	0.067
-388.033	-164.203	0.282	0.013
-387.019	-200.000	-0.071	0.371
-386.004	-130.419	0.207	-0.028
-384.990	-124.990	-0.136	-0.021
-383.975	-10.789	0.275	0.180
-382.960	-200.000	-0.064	0.317
-381.946	-200.000	0.046	0.237
-380.931	-200.000	0.002	-0.152
-379.917	-49.298	-0.065	0.031
-378.902	0.332	-0.131	0.093
-377.888	-200.000	-0.027	-0.163
-376.873	147.126	-0.118	0.158
-375.858	-71.770	0.059	0.022
-374.844	800.000	-0.067	-0.218
-373.829	24.511	0.108	0.089
-372.815	-144.651	0.191	0.017
-371.800	-142.030	0.052	0.005
-370.785	123.880	-0.034	0.043
-369.771	-81.285	0.187	0.061
-368.756	-136.888	-0.292	-0.033
-367.742	-177.397	0.487	-0.012
-366.727	-200.000	0.005	-0.121
-365.712	440.617	-0.124	-0.269
-364.698	57.832	-0.269	0.261
-363.683	5.782	-0.114	0.084
-362.669	-57.539	-0.310	-0.135
-361.654	-200.000	-0.052	-0.269
-360.639	-173.329	-0.329	0.010
-359.625	-51.898	0.078	0.036
-358.610	-115.714	-0.425	0.079
-357.596	606.616	0.164	0.406
-356.581	76.100	-0.241	-0.253
-355.566	-200.000	0.006	0.216
-354.552	-154.817	-0.216	-0.014
-353.537	-164.906	0.318	0.014
-352.523	-95.088	-0.191	0.051
-351.508	76.115	-0.067	0.071
-350.493	-8.925	0.293	-0.195
-349.479	207.927	0.174	0.270
-348.464	-200.000	-0.019	0.293
-347.450	-169.476	-0.214	-0.008
-346.435	37.340	-0.169	-0.148
-345.420	-200.000	-0.019	-0.127
-344.406	26.861	-0.070	0.058
-343.391	449.659	-0.024	-0.052
-342.377	800.000	0.074	0.231
-341.362	-13.886	0.179	-0.114
-340.348	-200.000	0.028	-0.231
-339.333	296.313	0.104	-0.189
-338.318	-58.061	0.213	0.092
-337.304	49.973	-0.177	0.165
-336.289	-81.418	0.177	-0.058
-335.275	0.308	0.118	0.084
-334.260	149.272	0.177	-0.237
-333.245	-200.000	-0.008	-0.224
-332.231	22.172	0.162	-0.131
-331.216	-122.506	-0.173	-0.028
-330.202	-61.198	-0.438	0.183
-329.187	159.143	0.170	0.233
-328.172	188.166	0.150	-0.223
-327.158	-122.111	0.379	0.062
-326.143	127.503	0.154	0.194
-325.129	157.295	0.190	0.260
-324.114	-3.154	-0.271	-0.187
-323.099	-122.808	0.246	-0.039
-322.085	-106.951	0.212	-0.046
-321.070	746.875	0.044	0.117
-320.056	-33.792	-0.398	-0.217
-319.041	75.319	-0.144	0.151
-318.026	800.000	-0.011	-0.037
-317.012	-154.552	-0.105	0.007
-315.997	246.419	0.160	0.267
-314.983	-200.000	0.011	-0.170
-313.968	-200.000	-0.021	-0.195
-312.953	219.187	-0.196	0.311
-311.939	800.000	0.054	-0.191
-310.924	-89.284	0.276	0.081
-309.910	-105.598	-0.357	-0.080
-308.895	-119.710	0.218	0.037
-307.880	150.021	-0.147	-0.197
-306.866	-64.527	-0.375	0.151
-305.851	-71.035	-0.093	-0.035
-304.837	-200.000	-0.029	0.127
-303.822	11.872	0.132	-0.100
-302.807	-136.551	-0.201	-0.023
-301.793	-21.398	0.286	0.173
-300.778	254.705	-0.096	-0.163
-299.764	-117.401	0.139	-0.025
-298.749	-200.000	0.008	0.080
-297.735	114.472	-0.092	0.110
-296.720	174.866	0.140	0.201
-295.705	-200.000	-0.011	-0.087
-294.691	199.186	-0.163	0.247
-293.676	-84.765	-0.266	-0.083
-292.662	-72.860	-0.345	-0.126
-291.647	36.699	-0.060	0.053
-290.632	800.000	0.050	-0.153
-289.618	800.000	0.041	0.154
-288.603	-83.489	0.204	0.064
-287.589	58.425	0.075	0.073
-286.574	-78.164	0.272	-0.092
-285.559	3.941	-0.319	0.231
-284.545	56.171	0.068	-0.066
-283.530	800.000	-0.093	0.271
-282.516	59.580	0.205	0.200
-281.501	471.171	0.042	-0.094
-280.486	-58.596	0.328	-0.141
-279.472	-106.712	0.240	-0.053
-278.457	-182.137	-0.241	-0.004
-277.443	24.923	-0.242	0.198
-276.428	-122.650	-0.403	0.065
-275.413	-35.455	-0.041	-0.022
-274.399	-107.530	-0.236	-0.051
-273.384	-200.000	-0.033	0.193
-272.370	-88.522	-0.269	-0.079
-271.355	44.761	0.220	-0.200
-270.340	-200.000	0.015	-0.122
-269.326	-60.603	0.266	-0.112
-268.311	800.000	-0.061	-0.216
-267.297	800.000	0.043	0.154
-266.282	31.044	-0.287	0.244
-265.267	-200.000	0.012	0.105
-264.253	386.799	-0.075	0.152
-263.238	-104.960	0.156	-0.035
-262.224	-200.000	-0.015	0.067
-261.209	32.428	0.085	-0.072
-260.195	42.127	-0.167	0.150
-259.180	-95.025	0.298	0.080
-258.165	245.072	-0.221	-0.367
-257.151	-56.772	0.218	0.095
-256.136	767.912	0.048	0.129
-255.122	248.346	-0.125	0.210
-254.107	15.572	-0.343	0.266
-253.092	109.890	0.056	0.067
-252.078	-114.862	0.166	0.031
-251.063	-101.593	0.268	-0.064
-250.049	241.838	0.058	-0.096
-249.034	-200.000	-0.029	0.188
-248.019	-104.342	0.105	-0.024
-247.005	800.000	0.097	-0.280
-245.990	165.187	-0.094	-0.130
-244.976	-122.350	-0.091	0.015
-243.961	65.848	0.097	0.097
-242.946	-99.324	0.227	-0.057
-241.932	-200.000	0.002	0.062
-240.917	-165.657	-0.207	0.009
-239.903	199.393	-0.094	0.142
-238.888	291.067	-0.285	-0.512
-237.873	-200.000	0.002	-0.130
-236.859	800.000	0.012	-0.039
-235.844	524.792	0.021	0.049
-234.830	164.973	0.109	0.152
-233.815	-200.000	-0.029	-0.370
-232.800	599.546	0.106	-0.261
-231.786	-72.364	-0.064	0.023
-230.771	293.392	0.101	0.182
-229.757	-77.020	-0.229	0.079
-228.742	157.049	-0.142	0.194
-227.727	-200.000	0.038	0.170
-226.713	-90.439	0.095	-0.027
-225.698	-6.106	-0.027	-0.018
-224.684	-2.824	-0.154	0.106
-223.669	530.061	-0.077	0.179
-222.655	-45.981	0.435	-0.212
-221.640	60.846	0.133	0.130
-220.625	800.000	0.156	0.542
-219.611	269.788	-0.127	-0.220
-218.596	-85.871	0.386	0.118
-217.582	800.000	-0.116	-0.320
-216.567	-83.145	-0.109	-0.035
-215.552	800.000	0.031	-0.093
-214.538	199.446	0.013	0.020
-213.523	144.100	-0.171	0.224
-212.509	404.067	0.082	0.170
-211.494	35.399	-0.263	0.227
-210.479	-158.642	-0.336	-0.019
-209.465	-200.000	0.018	-0.086
-208.450	-72.981	-0.144	-0.052
-207.436	36.985	-0.136	0.118
-206.421	800.000	-0.047	-0.151
-205.406	27.202	0.299	-0.247
-204.392	-77.219	-0.169	-0.058
-203.377	104.218	-0.111	-0.129
-202.363	-200.000	0.067	-0.370
-201.348	-34.981	-0.107	0.057
-200.333	268.163	0.109	0.188
-199.319	-51.900	-0.250	0.114
-198.304	-13.046	-0.370	0.237
-197.290	494.481	-0.100	-0.225
-196.275	-148.909	0.087	0.007
-195.260	-37.145	0.170	0.089
-194.246	-50.515	0.399	-0.186
-193.231	-200.000	0.031	-0.171
-192.217	-91.959	-0.331	-0.092
-191.202	-119.142	0.281	0.048
-190.187	-200.000	0.001	-0.151
-189.173	12.563	-0.121	0.092
-188.158	169.687	0.134	0.189
-187.144	-112.313	0.333	0.066
-186.129	-7.730	0.207	-0.138
-185.114	-28.898	0.347	0.197
-184.100	-200.000	-0.005	0.128
-183.085	476.079	-0.062	0.137
-182.071	46.418	0.187	0.171
-181.056	-52.716	-0.183	0.083
-180.042	-162.307	-0.102	0.005
-179.027	-200.000	0.006	0.320
-178.012	800.000	0.088	0.256
-176.998	-3.355	0.349	-0.240
-175.983	280.620	-0.046	0.082
-174.969	373.320	-0.181	-0.362
-173.954	-200.000	-0.026	0.366
-172.939	11.073	0.116	0.087
-171.925	-200.000	0.021	-0.227
-170.910	224.057	0.102	-0.163
-169.896	-18.818	-0.224	0.137
-168.881	-200.000	0.004	-0.089
-167.866	-55.082	0.092	0.041
-166.852	-93.530	0.287	0.078
-165.837	-38.318	-0.165	0.086
-164.823	-200.000	0.048	-0.209
-163.808	263.374	-0.132	-0.225
-162.793	-7.273	0.074	-0.049
-161.779	428.883	-0.051	-0.109
-160.764	329.398	0.143	0.271
-159.750	73.005	0.237	0.244
-158.735	278.252	-0.114	0.200
-157.720	294.888	0.177	0.319
-156.706	48.465	-0.217	-0.200
-155.691	-200.000	0.002	0.313
-154.677	-34.122	0.248	-0.134
-153.662	-110.258	0.109	0.022
-152.647	-200.000	-0.021	-0.284
-151.633	-132.389	-0.182	-0.023
-150.618	48.838	-0.227	-0.209
-149.604	-200.000	-0.012	-0.320
-148.589	-200.000	0.030	-0.160
-147.574	548.993	-0.040	0.095
-146.560	-200.000	-0.039	0.218
-145.545	-76.782	0.047	0.016
-144.531	217.263	0.102	-0.159
-143.516	-59.625	0.065	-0.027
-142.502	800.000	-0.029	-0.080
-141.487	702.900	-0.087	-0.226
-140.472	-34.865	0.040	-0.021
-139.458	568.066	-0.111	0.266
-138.443	-98.918	-0.146	-0.036
-137.429	69.459	-0.093	0.094
-136.414	-200.000	-0.004	0.350
-135.399	51.020	0.105	0.098
-134.385	-19.842	0.260	-0.158
-133.370	-110.861	-0.032	0.006
-132.356	211.092	0.180	0.278
-131.341	-144.878	-0.339	-0.030
-130.326	555.764	-0.055	0.131
-129.312	-108.770	0.211	0.044
-128.297	-73.101	0.218	0.079
-127.283	96.388	-0.165	0.186
-126.268	604.827	0.102	0.250
-125.253	-200.000	-0.040	0.266
-124.239	-61.548	0.286	-0.118
-123.224	-200.000	0.021	-0.113
-122.210	800.000	-0.066	-0.222
-121.195	-151.370	-0.214	-0.016
