DTS Sentinel unit serial number:	SN413079Multiplexer serial number:	ORYXHardware model number:	OX4-SRSoftware version number:	ORYX F/W v4.00 Oryx Data Collector v3.7.2.0data status	okinstallation	princeton_trtdifferential loss correction	single-endedforward channel	channel 3reverse channel	N/Adate	2019/09/11time	14:26:11forward acquisition time	60.00reverse acquisition time	0.00gamma	496.2192k internal	0.2292k external	0.2292temperature offset calibration	0.9978default loss term (dB/km)	0.3790temperature slope calibration	1.0000multiplexer offset coefficient	1.0000multiplexer slope coefficient	1.0000fibre end	0.00T internal ref (°C)	42.12T ext. ref 1 (°C)	0.90T ext. ref 2 (°C)	37.32length (m)	temperature (°C)	Stokes	anti-Stokes-747.200	14.568	-0.188	-0.150
-746.185	427.108	0.123	0.271
-745.171	-167.050	0.239	0.010
-744.156	51.780	0.036	-0.035
-743.142	475.739	0.164	0.379
-742.127	-62.599	0.231	0.098
-741.112	800.000	0.079	0.254
-740.098	-19.134	0.123	0.078
-739.083	62.584	-0.057	-0.059
-738.069	422.724	-0.098	0.216
-737.054	-64.851	0.166	-0.069
-736.039	-67.422	0.091	-0.037
-735.025	-38.193	0.184	-0.100
-734.010	525.043	0.040	0.096
-732.996	-126.241	-0.166	-0.025
-731.981	86.819	-0.116	-0.132
-730.966	-26.503	-0.129	-0.078
-729.952	-200.000	-0.071	-0.383
-728.937	800.000	-0.038	-0.123
-727.923	-35.319	0.205	0.114
-726.908	800.000	0.024	-0.091
-725.894	-59.695	-0.265	-0.116
-724.879	13.827	-0.190	0.151
-723.864	-200.000	0.027	0.260
-722.850	45.787	0.063	-0.060
-721.835	800.000	0.084	0.302
-720.821	210.795	-0.058	0.093
-719.806	800.000	0.143	0.493
-718.791	73.052	-0.039	0.042
-717.777	-35.402	0.321	0.179
-716.762	222.834	-0.084	-0.138
-715.748	-31.819	0.116	0.067
-714.733	-151.390	-0.300	0.023
-713.718	-200.000	0.089	0.419
-712.704	744.995	-0.127	0.350
-711.689	-107.745	0.199	0.044
-710.675	299.125	-0.118	-0.223
-709.660	168.104	-0.309	-0.449
-708.645	0.800	0.220	0.161
-707.631	-138.320	0.103	-0.012
-706.616	164.386	-0.168	-0.243
-705.602	-85.024	0.247	-0.079
-704.587	-81.172	0.139	-0.047
-703.572	22.093	0.122	0.102
-702.558	-61.634	0.235	-0.101
-701.543	65.634	-0.109	-0.113
-700.529	-200.000	0.085	0.434
-699.514	80.552	0.328	-0.362
-698.499	-55.867	-0.173	-0.079
-697.485	48.112	0.191	-0.183
-696.470	61.067	-0.208	0.211
-695.456	-200.000	-0.141	0.000
-694.441	346.074	-0.138	0.278
-693.426	-30.134	-0.108	0.063
-692.412	495.096	0.120	-0.282
-691.397	-79.550	-0.089	0.031
-690.383	2.379	-0.227	0.168
-689.368	122.522	-0.119	-0.152
-688.354	-200.000	-0.018	0.193
-687.339	800.000	0.048	-0.201
-686.324	132.771	0.028	0.037
-685.310	-169.582	-0.356	-0.013
-684.295	-142.044	-0.388	0.039
-683.281	-17.658	-0.295	0.189
-682.266	121.278	0.105	0.133
-681.251	-41.158	-0.154	0.081
-680.237	-200.000	0.043	0.213
-679.222	33.548	-0.217	0.192
-678.208	-200.000	-0.000	-0.166
-677.193	-200.000	-0.039	-0.238
-676.178	800.000	0.087	-0.272
-675.164	-84.407	0.323	0.104
-674.149	-200.000	-0.016	-0.142
-673.135	-113.017	-0.350	-0.071
-672.120	800.000	0.057	-0.241
-671.105	183.650	-0.066	0.099
-670.091	-145.976	-0.072	0.007
-669.076	-200.000	-0.008	-0.112
-668.062	397.653	-0.185	-0.396
-667.047	307.247	0.150	-0.285
-666.032	-34.619	-0.324	0.181
-665.018	123.569	0.109	-0.140
-664.003	-200.000	0.027	-0.242
-662.989	800.000	0.056	0.241
-661.974	-42.050	0.281	0.147
-660.959	-182.971	0.425	-0.008
-659.945	-200.000	-0.004	-0.407
-658.930	-123.829	0.356	0.057
-657.916	-22.141	-0.226	0.140
-656.901	674.771	-0.034	-0.090
-655.886	-23.020	-0.308	0.190
-654.872	-57.376	-0.238	-0.107
-653.857	310.788	0.067	-0.128
-652.843	-47.689	-0.156	-0.077
-651.828	-48.287	-0.161	0.079
-650.814	-8.141	0.126	0.087
-649.799	-15.527	0.111	-0.072
-648.784	-18.586	0.225	-0.143
-647.770	-82.815	-0.149	0.049
-646.755	-69.809	0.087	-0.034
-645.741	512.363	-0.113	-0.268
-644.726	-200.000	0.026	0.157
-643.711	56.934	-0.283	-0.282
-642.697	-105.933	0.300	-0.069
-641.682	800.000	-0.065	0.193
-640.668	-11.201	-0.259	-0.174
-639.653	548.989	0.051	0.124
-638.638	-6.399	0.170	0.118
-637.624	-189.294	0.244	-0.003
-636.609	148.141	-0.124	-0.171
-635.595	-21.097	0.096	-0.060
-634.580	-130.478	-0.250	0.035
-633.565	-200.000	-0.016	-0.375
-632.551	393.722	0.060	-0.126
-631.536	6.616	0.172	0.130
-630.522	86.781	0.312	0.351
-629.507	-75.736	-0.284	-0.103
-628.492	68.195	-0.033	-0.035
-627.478	-98.037	-0.301	0.079
-626.463	-111.431	-0.349	0.072
-625.449	333.864	0.134	0.265
-624.434	-200.000	-0.011	0.120
-623.419	-200.000	-0.093	0.511
-622.405	-71.804	0.040	-0.015
-621.390	-200.000	-0.027	-0.300
-620.376	-43.282	0.335	0.173
-619.361	363.699	-0.062	-0.126
-618.346	35.702	-0.224	-0.200
-617.332	269.996	-0.071	-0.127
-616.317	-200.000	0.022	-0.274
-615.303	-4.934	0.085	-0.060
-614.288	692.439	-0.060	-0.159
-613.273	-10.714	-0.217	-0.146
-612.259	36.883	0.259	0.233
-611.244	-107.696	-0.177	-0.039
-610.230	-13.566	0.269	0.177
-609.215	-149.695	0.256	0.020
-608.201	-82.978	-0.283	-0.093
-607.186	800.000	-0.083	-0.274
-606.171	-140.289	0.307	0.033
-605.157	67.730	-0.252	-0.262
-604.142	-85.537	-0.053	-0.017
-603.128	-127.715	-0.236	0.035
-602.113	-113.752	-0.130	-0.026
-601.098	289.263	-0.052	-0.096
-600.084	75.733	0.274	-0.294
-599.069	-200.000	-0.045	-0.274
-598.055	800.000	0.057	-0.171
-597.040	-91.542	-0.130	0.038
-596.025	16.075	-0.194	0.155
-595.011	-106.195	0.117	-0.027
-593.996	9.546	0.180	-0.139
-592.982	124.893	-0.109	-0.139
-591.967	-45.018	-0.195	0.099
-590.952	63.174	0.107	0.109
-589.938	-112.990	0.185	-0.037
-588.923	-200.000	0.039	-0.208
-587.909	94.020	-0.206	0.238
-586.894	233.618	0.002	0.003
-585.879	-200.000	0.007	0.285
-584.865	800.000	0.005	-0.022
-583.850	-17.801	-0.261	-0.167
-582.836	181.653	-0.131	-0.196
-581.821	309.840	-0.080	-0.153
-580.806	-99.824	-0.266	-0.068
-579.792	-17.829	-0.070	-0.045
-578.777	-174.046	0.195	0.006
-577.763	-18.554	-0.019	-0.012
-576.748	-35.277	-0.033	-0.018
-575.733	68.306	0.069	-0.072
-574.719	-136.571	-0.081	0.010
-573.704	75.684	-0.069	-0.075
-572.690	-200.000	0.018	0.104
-571.675	800.000	0.029	0.095
-570.661	-17.199	-0.059	0.038
-569.646	778.174	-0.042	0.116
-568.631	-200.000	-0.048	0.221
-567.617	-70.017	-0.173	-0.067
-566.602	800.000	0.054	0.226
-565.588	-200.000	0.054	0.384
-564.573	5.383	-0.330	0.247
-563.558	-200.000	-0.009	0.074
-562.544	-128.660	0.198	0.028
-561.529	32.883	0.097	-0.085
-560.515	-102.103	0.446	-0.109
-559.500	-88.010	-0.148	0.045
-558.485	-33.108	-0.116	0.065
-557.471	62.018	0.289	-0.293
-556.456	47.419	0.208	-0.197
-555.442	552.138	0.178	-0.434
-554.427	-200.000	-0.034	0.182
-553.412	-200.000	0.028	0.202
-552.398	-200.000	-0.005	-0.148
-551.383	-22.624	-0.073	-0.045
-550.369	56.991	-0.164	0.163
-549.354	800.000	0.134	0.389
-548.339	221.665	-0.035	0.058
-547.325	46.586	-0.074	0.070
-546.310	-131.309	0.063	-0.008
-545.296	358.192	-0.108	-0.218
-544.281	-35.934	-0.082	0.045
-543.266	703.779	-0.050	-0.133
-542.252	-200.000	-0.054	-0.383
-541.237	457.014	-0.078	0.177
-540.223	683.048	0.057	-0.150
-539.208	181.984	0.124	0.186
-538.193	39.638	-0.075	-0.068
-537.179	170.933	-0.258	-0.376
-536.164	-111.896	0.453	-0.093
-535.150	-200.000	0.000	0.029
-534.135	-108.822	-0.200	0.043
-533.121	-21.423	-0.091	-0.056
-532.106	-200.000	0.025	-0.206
-531.091	-200.000	-0.003	-0.079
-530.077	124.906	0.231	-0.295
-529.062	626.949	0.085	-0.219
-528.048	251.774	-0.028	-0.048
-527.033	-200.000	0.002	-0.073
-526.018	60.088	0.399	-0.400
-525.004	0.677	0.291	0.212
-523.989	-200.000	-0.008	-0.080
-522.975	-6.888	-0.350	0.241
-521.960	195.089	0.160	0.246
-520.945	344.967	-0.051	-0.101
-519.931	-142.576	-0.021	-0.002
-518.916	800.000	-0.135	0.595
-517.902	-6.340	-0.245	0.169
-516.887	4.088	0.334	0.248
-515.872	-200.000	-0.011	0.092
-514.858	-200.000	-0.019	-0.256
-513.843	-149.760	0.201	-0.016
-512.829	-67.172	0.233	-0.093
-511.814	-70.369	-0.252	-0.097
-510.799	207.803	0.007	-0.011
-509.785	-28.744	-0.173	-0.101
-508.770	800.000	-0.044	0.168
-507.756	-19.417	-0.282	-0.177
-506.741	8.124	-0.100	0.076
-505.726	800.000	0.038	0.167
-504.712	-20.911	0.125	-0.078
-503.697	800.000	0.046	-0.166
-502.683	648.272	0.050	-0.131
-501.668	150.696	-0.248	0.341
-500.653	-200.000	0.003	-0.342
-499.639	-92.483	0.246	-0.070
-498.624	-34.857	0.142	0.079
-497.610	146.372	-0.120	0.163
-496.595	-200.000	0.046	-0.248
-495.581	-200.000	-0.063	0.366
-494.566	-200.000	0.023	-0.289
-493.551	85.386	-0.054	0.060
-492.537	800.000	-0.067	0.236
-491.522	148.872	0.301	0.413
-490.508	61.519	-0.212	-0.214
-489.493	-174.665	-0.184	-0.005
-488.478	-82.500	0.100	-0.033
-487.464	193.129	-0.195	0.299
-486.449	800.000	0.028	0.110
-485.435	-200.000	-0.031	0.179
-484.420	-102.596	-0.365	-0.088
-483.405	-25.945	-0.270	-0.161
-482.391	-200.000	0.021	0.130
-481.376	-16.534	0.154	0.099
-480.362	-5.346	-0.028	-0.020
-479.347	-200.000	-0.024	0.183
-478.332	-74.755	-0.320	-0.116
-477.318	-50.673	0.241	-0.115
-476.303	-200.000	-0.012	-0.114
-475.289	171.443	0.117	0.170
-474.274	39.975	0.110	0.100
-473.259	-156.049	-0.111	-0.007
-472.245	12.575	0.274	0.214
-471.230	-60.869	-0.087	-0.037
-470.216	153.428	0.192	0.266
-469.201	800.000	-0.062	0.221
-468.186	209.200	-0.165	-0.262
-467.172	1.694	-0.125	0.091
-466.157	-31.020	-0.135	0.077
-465.143	-200.000	-0.025	-0.128
-464.128	-200.000	-0.012	-0.126
-463.113	117.528	0.161	0.201
-462.099	-200.000	0.030	0.154
-461.084	-200.000	0.082	0.526
-460.070	195.339	-0.139	0.213
-459.055	106.498	-0.172	-0.206
-458.040	-200.000	0.049	-0.263
-457.026	150.595	-0.099	-0.136
-456.011	198.757	0.024	0.036
-454.997	800.000	-0.071	0.307
-453.982	85.385	0.114	-0.127
-452.968	-4.867	0.065	0.045
-451.953	-98.298	0.337	0.087
-450.938	27.809	0.208	0.178
-449.924	-21.470	0.265	0.163
-448.909	-173.169	-0.388	0.012
-447.895	-200.000	-0.029	0.143
-446.880	196.463	0.195	0.300
-445.865	175.932	0.219	0.322
-444.851	596.513	0.079	0.198
-443.836	-200.000	0.005	0.215
-442.822	-102.548	-0.139	-0.034
-441.807	-43.438	0.253	0.129
-440.792	-85.738	-0.263	0.082
-439.778	-200.000	0.019	-0.136
-438.763	-64.984	0.137	-0.056
-437.749	-27.477	0.190	-0.112
-436.734	388.681	0.117	0.245
-435.719	-164.940	0.017	-0.001
-434.705	800.000	-0.063	-0.214
-433.690	-162.409	0.289	0.014
-432.676	222.261	-0.178	0.290
-431.661	-45.564	-0.211	-0.105
-430.646	-200.000	0.042	-0.240
-429.632	-157.344	-0.523	-0.032
-428.617	-57.254	0.220	-0.098
-427.603	538.504	-0.069	-0.166
-426.588	261.562	0.204	-0.358
-425.573	-136.892	-0.273	0.032
-424.559	-200.000	-0.034	-0.186
-423.544	-82.905	0.252	-0.082
-422.530	-169.490	0.266	0.010
-421.515	-200.000	0.021	-0.323
-420.500	110.701	0.031	0.038
-419.486	95.392	0.186	0.215
-418.471	-95.373	0.105	0.029
-417.457	-10.776	-0.243	0.163
-416.442	29.065	0.039	-0.033
-415.428	-84.850	0.203	-0.064
-414.413	-144.192	0.080	0.008
-413.398	-80.698	0.177	0.059
-412.384	144.791	0.055	-0.074
-411.369	265.623	0.107	-0.189
-410.355	28.499	0.162	0.138
-409.340	239.432	-0.088	0.147
-408.325	164.257	0.126	-0.179
-407.311	42.534	-0.047	0.043
-406.296	-156.625	0.325	0.020
-405.282	151.985	0.032	0.044
-404.267	125.555	-0.143	-0.182
-403.252	800.000	-0.099	-0.330
-402.238	418.465	-0.134	0.289
-401.223	800.000	0.044	0.184
-400.209	19.720	-0.089	0.072
-399.194	5.734	-0.050	-0.038
-398.179	-79.473	-0.292	0.100
-397.165	-200.000	-0.016	-0.303
-396.150	800.000	-0.094	-0.341
-395.136	-45.042	0.117	0.059
-394.121	225.422	-0.043	0.070
-393.106	-164.749	-0.182	0.008
-392.092	-89.068	-0.271	0.081
-391.077	-200.000	0.056	0.424
-390.063	161.652	-0.142	-0.200
-389.048	-91.769	-0.049	0.014
-388.033	-14.590	0.063	0.041
-387.019	-92.899	-0.261	0.074
-386.004	-66.867	-0.186	0.074
-384.990	-200.000	-0.046	0.210
-383.975	-77.132	0.087	-0.031
-382.960	800.000	-0.089	0.272
-381.946	28.641	0.161	0.137
-380.931	-106.324	-0.245	-0.055
-379.917	510.802	0.103	-0.243
-378.902	-115.712	0.253	-0.048
-377.888	150.808	-0.091	-0.125
-376.873	46.205	-0.170	0.159
-375.858	413.545	0.107	0.230
-374.844	38.368	-0.050	-0.045
-373.829	-2.660	-0.198	0.140
-372.815	-200.000	-0.017	0.284
-371.800	-102.655	-0.282	-0.068
-370.785	476.442	-0.089	-0.202
-369.771	-6.753	0.170	-0.117
-368.756	130.745	-0.080	0.104
-367.742	20.309	-0.142	0.116
-366.727	-30.535	0.181	0.103
-365.712	192.676	-0.181	0.275
-364.698	-75.069	0.203	-0.073
-363.683	-200.000	0.050	-0.239
-362.669	72.688	0.128	0.134
-361.654	537.481	-0.032	0.077
-360.639	-200.000	0.033	-0.400
-359.625	606.162	0.093	-0.234
-358.610	-78.413	-0.205	0.071
-357.596	-106.524	-0.178	-0.040
-356.581	34.620	0.194	-0.171
-355.566	-196.295	-0.317	-0.002
-354.552	387.343	-0.168	-0.351
-353.537	-49.391	0.162	0.078
-352.523	655.750	0.015	-0.040
-351.508	-143.715	-0.256	0.024
-350.493	800.000	0.036	0.121
-349.479	130.890	0.152	-0.197
-348.464	-183.275	0.186	-0.003
-347.450	127.296	-0.115	-0.147
-346.435	501.608	0.016	0.036
-345.420	253.226	-0.171	-0.294
-344.406	1.167	-0.183	-0.133
-343.391	-83.493	0.063	-0.020
-342.377	800.000	0.065	-0.190
-341.362	-14.023	0.220	0.143
-340.348	800.000	-0.053	-0.186
-339.333	-15.606	0.260	-0.167
-338.318	-200.000	0.030	0.331
-337.304	496.079	0.122	0.284
-336.289	52.934	0.124	-0.120
-335.275	525.076	0.143	-0.338
-334.260	100.985	-0.099	-0.116
-333.245	-200.000	-0.039	0.247
-332.231	-131.896	0.205	0.027
-331.216	-108.930	0.444	-0.095
-330.202	-124.235	-0.284	-0.045
-329.187	-200.000	-0.010	-0.388
-328.172	-54.398	-0.328	0.150
-327.158	192.313	0.057	0.087
-326.143	-156.253	0.276	0.017
-325.129	-200.000	-0.014	-0.172
-324.114	205.817	0.068	0.107
-323.099	-200.000	-0.036	0.254
-322.085	47.744	-0.169	0.159
-321.070	32.170	-0.196	0.170
-320.056	619.959	0.037	-0.093
-319.041	10.516	0.290	-0.222
-318.026	-200.000	0.061	-0.376
-317.012	258.551	0.104	0.180
-315.997	-200.000	0.096	0.000
-314.983	132.859	0.253	-0.329
-313.968	800.000	-0.085	-0.262
-312.953	-31.567	-0.177	0.100
-311.939	-4.598	0.141	0.098
-310.924	536.634	0.034	0.080
-309.910	-51.584	0.247	-0.116
-308.895	800.000	-0.042	0.152
-307.880	-151.673	-0.235	0.017
-306.866	-55.944	-0.297	-0.133
-305.851	274.719	0.051	-0.091
-304.837	12.723	0.079	-0.062
-303.822	19.350	-0.241	-0.195
-302.807	-39.076	-0.120	0.064
-301.793	-174.543	0.169	0.005
-300.778	5.303	0.137	-0.102
-299.764	-52.888	0.067	-0.031
-298.749	17.657	0.269	0.215
-297.735	503.386	0.047	-0.110
-296.720	-200.000	0.022	-0.269
-295.705	-114.676	0.073	-0.014
-294.691	800.000	-0.046	-0.193
-293.676	28.856	0.131	-0.112
-292.662	110.441	-0.102	0.124
-291.647	-13.857	-0.342	0.223
-290.632	-31.411	0.013	-0.007
-289.618	30.183	0.181	0.155
-288.603	357.252	-0.089	0.178
-287.589	-136.470	0.324	-0.038
-286.574	-148.112	0.488	-0.041
-285.559	-200.000	-0.027	0.180
-284.545	602.578	-0.074	-0.185
-283.530	800.000	-0.013	0.040
-282.516	-123.996	-0.390	-0.062
-281.501	-133.917	-0.187	0.023
-280.486	800.000	-0.061	0.203
-279.472	7.918	-0.281	0.212
-278.457	-129.954	-0.122	0.017
-277.443	-97.701	0.098	0.026
-276.428	41.358	0.059	-0.054
-275.413	12.179	-0.084	-0.065
-274.399	332.320	0.045	0.087
-273.384	76.280	-0.073	-0.078
-272.370	442.612	0.086	0.190
-271.355	288.788	0.068	-0.124
-270.340	95.946	0.316	0.363
-269.326	228.729	0.112	0.184
-268.311	800.000	0.010	0.033
-267.297	800.000	-0.181	-0.527
-266.282	119.627	-0.199	0.248
-265.267	-33.016	-0.339	-0.189
-264.253	640.963	-0.089	-0.228
-263.238	6.053	0.164	-0.122
-262.224	65.867	0.054	-0.055
-261.209	800.000	-0.050	0.150
-260.195	-75.157	0.168	-0.060
-259.180	-58.277	0.123	-0.054
-258.165	24.989	0.161	0.134
-257.151	-7.706	-0.335	0.227
-256.136	-28.785	0.134	0.077
-255.122	-76.522	-0.178	0.063
-254.107	-30.361	-0.060	-0.034
-253.092	-159.346	-0.209	-0.012
-252.078	71.017	0.010	-0.010
-251.063	-200.000	0.004	-0.186
-250.049	-122.793	-0.273	-0.044
-249.034	63.128	-0.146	-0.147
-248.019	-52.566	0.288	-0.134
-247.005	471.979	0.101	0.227
-245.990	-1.735	0.423	0.299
-244.976	-200.000	0.001	0.214
-243.961	56.584	0.090	-0.088
-242.946	-200.000	0.017	-0.085
-241.932	-200.000	0.032	-0.234
-240.917	-200.000	-0.128	-0.784
-239.903	170.938	0.159	-0.229
-238.888	-38.901	0.415	-0.219
-237.873	-41.600	-0.256	-0.132
-236.859	17.852	-0.231	-0.185
-235.844	-125.089	-0.321	-0.049
-234.830	65.273	-0.375	0.380
-233.815	-36.848	0.085	0.046
-232.800	-82.000	-0.653	0.214
-231.786	-200.000	0.008	0.282
-230.771	516.947	0.164	0.385
-229.757	11.368	-0.170	0.131
-228.742	-147.938	0.156	0.013
-227.727	91.541	-0.074	0.083
-226.713	800.000	-0.121	0.497
-225.698	34.602	0.087	0.077
-224.684	-37.347	-0.283	-0.152
-223.669	476.362	0.094	0.214
-222.655	-101.789	-0.138	-0.033
-221.640	-200.000	-0.067	-0.314
-220.625	356.378	-0.191	-0.382
-219.611	606.094	-0.128	0.321
-218.596	-200.000	-0.003	0.036
-217.582	-1.099	-0.176	-0.125
-216.567	358.623	-0.089	0.178
-215.552	28.693	0.288	-0.244
-214.538	800.000	-0.096	0.310
-213.523	99.508	0.175	0.203
-212.509	-103.542	0.336	0.079
-211.494	-200.000	0.002	-0.050
-210.479	455.340	0.073	-0.163
-209.465	54.147	-0.117	-0.113
-208.450	-54.642	0.316	0.143
-207.436	-132.470	0.066	0.008
-206.421	97.366	-0.331	0.381
-205.406	111.392	-0.308	0.372
-204.392	-143.639	0.310	-0.030
-203.377	-23.964	-0.106	-0.063
-202.363	-156.484	0.138	-0.009
-201.348	524.539	0.029	-0.068
-200.333	-48.979	0.579	-0.278
-199.319	800.000	-0.080	0.223
-198.304	-170.660	0.256	0.009
-197.290	113.525	0.145	-0.176
-196.275	-98.441	-0.164	-0.042
-195.260	310.235	0.084	0.158
-194.246	20.703	-0.128	0.104
-193.231	-200.000	-0.025	-0.141
-192.217	564.237	0.109	0.265
-191.202	-102.389	-0.160	-0.038
-190.187	800.000	0.062	-0.186
-189.173	196.176	0.066	0.101
-188.158	-77.887	0.091	0.031
-187.144	-200.000	0.019	-0.156
-186.129	-175.870	-0.273	-0.007
-185.114	-79.906	-0.083	-0.028
-184.100	-117.087	0.061	0.011
-183.085	-162.261	0.220	0.011
-182.071	-55.760	-0.202	0.091
-181.056	29.815	0.152	0.130
-180.042	-142.493	-0.110	-0.011
-179.027	800.000	0.057	-0.198
-178.012	800.000	-0.040	-0.144
-176.998	634.688	-0.020	-0.052
-175.983	-87.978	0.321	-0.097
-174.969	14.962	0.042	0.033
-173.954	-182.806	0.297	-0.005
-172.939	-76.218	0.087	0.031
-171.925	34.595	0.018	-0.016
-170.910	-117.631	0.218	-0.039
-169.896	193.653	0.068	0.103
-168.881	-39.413	0.300	-0.157
-167.866	-5.954	0.144	-0.099
-166.852	-17.874	-0.045	0.028
-165.837	-200.000	0.038	-0.233
-164.823	171.485	-0.142	0.204
-163.808	19.008	-0.120	0.097
-162.793	154.212	0.094	0.129
-161.779	1.220	-0.269	0.193
-160.764	-200.000	-0.040	0.505
-159.750	-200.000	-0.007	-0.044
-158.735	232.951	0.185	-0.305
-157.720	-54.259	0.071	0.032
-156.706	2.832	-0.117	-0.085
-155.691	-40.092	-0.119	0.062
-154.677	800.000	0.027	-0.112
-153.662	800.000	0.165	0.577
-152.647	800.000	0.051	-0.209
-151.633	-200.000	-0.077	-0.341
-150.618	-47.726	-0.248	-0.121
-149.604	5.066	-0.080	-0.059
-148.589	-200.000	-0.064	-0.315
-147.574	94.828	-0.164	0.187
-146.560	-83.916	0.035	-0.011
-145.545	252.545	0.067	-0.114
-144.531	-200.000	0.012	-0.165
-143.516	276.467	-0.148	-0.263
-142.502	56.447	0.031	0.030
-141.487	-200.000	0.020	0.214
-140.472	618.673	-0.050	0.125
-139.458	372.880	-0.027	0.056
-138.443	-26.865	-0.166	0.097
-137.429	-200.000	0.003	0.047
-136.414	380.604	0.091	0.187
-135.399	800.000	0.024	0.066
-134.385	290.239	0.065	0.118
-133.370	150.051	-0.146	0.198
-132.356	-200.000	0.028	0.186
-131.341	-116.456	-0.271	-0.050
-130.326	-19.562	0.056	0.035
-129.312	-119.965	-0.175	-0.030
-128.297	696.831	-0.036	0.094
-127.283	337.908	0.133	0.259
-126.268	294.159	0.041	0.074
-125.253	-15.494	0.188	0.120
-124.239	800.000	-0.008	0.022
-123.224	-200.000	-0.029	-0.268
-122.210	16.548	0.176	0.139
-121.195	128.620	-0.166	0.211
-120.180	-67.861	-0.187	-0.073
