DTS Sentinel unit serial number:	SN413079Multiplexer serial number:	ORYXHardware model number:	OX4-SRSoftware version number:	ORYX F/W v4.00 Oryx Data Collector v3.7.2.0data status	okinstallation	princeton_trtdifferential loss correction	single-endedforward channel	channel 3reverse channel	N/Adate	2019/09/11time	16:10:11forward acquisition time	60.00reverse acquisition time	0.00gamma	496.2192k internal	0.2288k external	0.2288temperature offset calibration	0.9982default loss term (dB/km)	0.3790temperature slope calibration	1.0000multiplexer offset coefficient	1.0000multiplexer slope coefficient	1.0000fibre end	0.00T internal ref (°C)	43.25T ext. ref 1 (°C)	1.02T ext. ref 2 (°C)	39.09length (m)	temperature (°C)	Stokes	anti-Stokes-747.200	800.000	0.167	0.500
-746.185	11.533	0.184	0.145
-745.171	753.079	0.019	-0.054
-744.156	800.000	-0.096	0.326
-743.142	800.000	-0.062	0.191
-742.127	342.758	-0.167	0.335
-741.112	800.000	0.138	0.417
-740.098	-39.010	0.248	-0.134
-739.083	602.372	-0.064	0.162
-738.069	105.033	0.063	0.076
-737.054	-26.746	-0.095	0.057
-736.039	-109.754	-0.146	0.032
-735.025	-101.999	0.314	0.078
-734.010	-115.941	-0.179	-0.034
-732.996	-200.000	-0.007	-0.241
-731.981	-87.772	0.047	-0.015
-730.966	-130.306	-0.244	0.034
-729.952	174.285	-0.099	0.146
-728.937	-85.737	-0.137	0.044
-727.923	-118.718	-0.184	0.033
-726.908	-200.000	0.004	-0.141
-725.894	109.156	0.184	-0.226
-724.879	-47.372	-0.291	-0.145
-723.864	800.000	0.025	0.106
-722.850	-7.274	0.278	-0.193
-721.835	-57.911	-0.129	0.058
-720.821	105.105	-0.152	0.184
-719.806	241.206	0.145	-0.248
-718.791	-71.556	-0.251	-0.096
-717.777	-54.561	0.220	-0.102
-716.762	-92.907	0.232	-0.066
-715.748	0.412	0.086	-0.063
-714.733	2.577	0.137	0.102
-713.718	266.834	-0.039	0.071
-712.704	70.475	-0.173	0.183
-711.689	292.500	-0.052	0.097
-710.675	-33.343	-0.173	-0.098
-709.660	-55.904	-0.422	-0.193
-708.645	484.859	-0.073	-0.170
-707.631	-18.644	0.194	-0.124
-706.616	116.492	-0.025	0.031
-705.602	-154.667	-0.212	-0.014
-704.587	800.000	-0.078	-0.329
-703.572	-200.000	0.015	0.181
-702.558	203.046	0.023	0.037
-701.543	-124.706	-0.145	0.023
-700.529	-23.524	-0.192	0.118
-699.514	200.289	0.104	-0.163
-698.499	14.910	-0.220	0.176
-697.485	-61.836	-0.169	-0.072
-696.470	-200.000	-0.054	0.357
-695.456	800.000	-0.055	-0.203
-694.441	53.942	-0.277	0.272
-693.426	-73.855	-0.116	0.043
-692.412	800.000	-0.074	-0.308
-691.397	73.453	0.205	0.219
-690.383	-117.107	0.139	0.026
-689.368	-135.924	0.134	0.016
-688.354	-200.000	0.022	-0.119
-687.339	-200.000	-0.013	-0.452
-686.324	372.100	-0.153	-0.317
-685.310	800.000	0.028	0.099
-684.295	57.328	0.073	-0.073
-683.281	131.879	0.116	0.153
-682.266	-200.000	-0.051	-0.247
-681.251	447.677	-0.151	-0.340
-680.237	-129.116	-0.269	-0.039
-679.222	122.303	-0.146	-0.187
-678.208	-133.535	-0.350	0.045
-677.193	-86.144	-0.160	0.051
-676.178	-200.000	-0.054	0.305
-675.164	-110.421	-0.230	0.049
-674.149	206.986	-0.291	-0.463
-673.135	58.327	0.053	-0.053
-672.120	168.888	0.070	-0.102
-671.105	-141.160	0.272	0.028
-670.091	-38.835	-0.227	-0.122
-669.076	75.320	-0.370	0.399
-668.062	800.000	0.106	0.405
-667.047	361.472	-0.046	0.094
-666.032	-105.394	-0.260	0.061
-665.018	541.500	-0.131	0.319
-664.003	320.273	0.166	-0.322
-662.989	391.386	0.035	0.074
-661.974	-137.860	-0.273	-0.031
-660.959	-12.459	0.076	-0.051
-659.945	-147.953	-0.098	0.008
-658.930	-44.839	-0.137	0.070
-657.916	-45.829	0.171	-0.087
-656.901	800.000	0.079	-0.270
-655.886	800.000	0.047	-0.167
-654.872	253.071	-0.099	-0.173
-653.857	321.707	0.226	0.440
-652.843	214.085	-0.044	-0.071
-651.828	-200.000	-0.014	-0.193
-650.814	231.067	-0.027	-0.046
-649.799	44.811	0.120	-0.113
-648.784	18.022	0.271	0.220
-647.770	-16.902	-0.322	0.208
-646.755	-104.675	-0.338	-0.080
-645.741	187.289	-0.066	-0.101
-644.726	800.000	0.097	0.297
-643.711	-79.838	0.340	-0.117
-642.697	37.088	-0.279	-0.252
-641.682	-32.651	-0.341	-0.194
-640.668	-134.290	-0.021	0.003
-639.653	52.622	-0.122	-0.119
-638.638	-118.541	-0.355	0.064
-637.624	48.254	0.113	0.108
-636.609	236.878	-0.068	-0.115
-635.595	677.506	-0.050	0.132
-634.580	16.012	0.096	0.077
-633.565	244.157	0.180	-0.309
-632.551	-4.187	0.246	-0.174
-631.536	493.957	0.027	-0.064
-630.522	119.361	-0.088	0.112
-629.507	800.000	0.050	-0.150
-628.492	-139.425	-0.345	-0.038
-627.478	299.284	-0.130	0.244
-626.463	-200.000	0.087	0.418
-625.449	-175.307	0.326	-0.009
-624.434	-39.772	-0.243	0.130
-623.419	28.421	0.080	0.069
-622.405	-145.160	-0.149	-0.014
-621.390	-65.908	0.110	-0.045
-620.376	67.843	-0.177	0.185
-619.361	800.000	-0.108	-0.327
-618.346	-100.841	-0.310	-0.078
-617.332	444.000	-0.087	-0.194
-616.317	-74.603	0.412	0.151
-615.303	800.000	0.014	0.049
-614.288	-200.000	-0.001	-0.147
-613.273	36.655	-0.044	0.040
-612.259	-200.000	0.025	-0.132
-611.244	73.936	-0.154	-0.165
-610.230	3.880	0.075	0.056
-609.215	-74.051	0.100	0.037
-608.201	-200.000	-0.054	0.292
-607.186	-110.070	-0.113	-0.024
-606.171	-181.498	0.549	0.011
-605.157	411.649	0.082	0.179
-604.142	31.158	0.051	0.044
-603.128	-85.651	0.045	0.014
-602.113	21.506	0.118	0.098
-601.098	-4.737	-0.147	0.104
-600.084	368.778	-0.096	0.197
-599.069	265.023	0.173	-0.308
-598.055	-130.524	-0.245	0.034
-597.040	-81.660	0.275	-0.092
-596.025	587.803	0.136	-0.341
-595.011	26.812	0.321	0.275
-593.996	-83.918	-0.177	0.057
-592.982	545.856	0.087	0.211
-591.967	42.578	0.309	0.287
-590.952	800.000	0.018	0.065
-589.938	86.449	0.090	-0.101
-588.923	-146.063	-0.280	-0.025
-587.909	369.171	0.137	-0.282
-586.894	-143.308	0.221	0.022
-585.879	-78.149	-0.441	0.154
-584.865	10.472	-0.220	-0.171
-583.850	431.130	0.115	-0.254
-582.836	-68.999	0.291	-0.114
-581.821	-180.308	-0.227	0.005
-580.806	159.710	0.084	0.119
-579.792	726.601	-0.022	-0.060
-578.777	-19.958	0.145	-0.091
-577.763	-112.939	-0.514	0.104
-576.748	-19.393	-0.311	0.196
-575.733	98.484	-0.113	-0.132
-574.719	-200.000	-0.028	-0.418
-573.704	-41.442	-0.134	-0.070
-572.690	599.500	0.111	-0.279
-571.675	131.825	0.299	0.393
-570.661	-0.822	-0.124	-0.089
-569.646	53.675	-0.115	-0.113
-568.631	128.316	0.073	-0.094
-567.617	146.567	0.190	-0.260
-566.602	-186.176	-0.144	0.002
-565.588	-54.894	0.211	-0.097
-564.573	800.000	-0.049	0.177
-563.558	-77.346	0.367	0.130
-562.544	-138.058	0.152	0.017
-561.529	45.257	-0.188	-0.176
-560.515	318.027	0.116	-0.223
-559.500	-200.000	0.020	0.128
-558.485	-96.074	-0.149	0.040
-557.471	-18.232	0.215	0.137
-556.456	800.000	-0.020	0.069
-555.442	-76.634	0.043	0.015
-554.427	330.313	0.137	0.269
-553.412	520.632	0.046	-0.110
-552.398	-200.000	0.027	0.214
-551.383	595.046	0.053	-0.135
-550.369	121.835	-0.147	-0.186
-549.354	-162.205	0.244	0.012
-548.339	257.284	0.137	-0.240
-547.325	-200.000	0.019	-0.165
-546.310	695.986	0.129	-0.346
-545.296	-200.000	-0.033	-0.242
-544.281	-114.357	-0.229	-0.045
-543.266	770.194	-0.070	0.194
-542.252	800.000	0.070	0.205
-541.237	196.643	0.200	0.310
-540.223	-200.000	-0.004	-0.059
-539.208	-200.000	0.005	0.172
-538.193	-200.000	-0.032	-0.241
-537.179	800.000	-0.084	-0.239
-536.164	483.684	-0.076	0.175
-535.150	100.876	0.145	-0.172
-534.135	184.523	0.127	0.191
-533.121	-200.000	0.015	0.133
-532.106	800.000	-0.063	-0.176
-531.091	800.000	0.050	0.187
-530.077	262.072	-0.162	0.285
-529.062	-35.026	-0.084	0.047
-528.048	-200.000	-0.020	-0.359
-527.033	-62.868	0.167	-0.070
-526.018	-200.000	-0.068	0.327
-525.004	-200.000	-0.058	0.265
-523.989	-40.706	0.200	0.106
-522.975	-82.563	-0.103	0.034
-521.960	-200.000	-0.003	-0.191
-520.945	113.905	-0.044	0.054
-519.931	-81.165	0.170	0.057
-518.916	800.000	-0.113	-0.466
-517.902	258.283	0.155	-0.272
-516.887	-120.277	0.249	-0.043
-515.872	-113.575	-0.452	0.090
-514.858	161.605	-0.101	0.143
-513.843	35.945	-0.246	0.220
-512.829	0.060	0.289	0.209
-511.814	-200.000	-0.074	0.431
-510.799	-163.394	0.284	0.014
-509.785	-200.000	-0.078	0.438
-508.770	800.000	-0.031	-0.132
-507.756	96.082	0.090	-0.104
-506.741	40.323	0.328	0.300
-505.726	-49.700	0.363	0.175
-504.712	-121.027	0.061	0.010
-503.697	-124.061	0.321	0.051
-502.683	-56.011	0.011	0.005
-501.668	-86.189	0.238	0.075
-500.653	581.284	-0.020	-0.050
-499.639	434.305	-0.101	-0.223
-498.624	166.160	0.022	-0.032
-497.610	210.887	-0.027	0.042
-496.595	593.690	-0.052	-0.131
-495.581	-103.001	-0.334	-0.080
-494.566	161.143	-0.102	-0.145
-493.551	800.000	0.030	-0.130
-492.537	586.871	0.074	0.184
-491.522	-106.523	0.349	-0.079
-490.508	15.722	0.275	-0.220
-489.493	-18.354	-0.176	0.112
-488.478	-86.260	-0.052	-0.016
-487.464	2.921	-0.150	-0.111
-486.449	800.000	0.069	-0.195
-485.435	124.844	0.279	0.357
-484.420	-200.000	0.019	0.177
-483.405	-122.510	-0.112	0.018
-482.391	-200.000	0.001	-0.135
-481.376	560.087	-0.058	0.143
-480.362	90.871	-0.273	-0.311
-479.347	-1.151	0.116	-0.083
-478.332	83.529	0.116	-0.128
-477.318	166.172	0.174	0.251
-476.303	358.572	0.097	-0.196
-475.289	-72.165	0.277	-0.104
-474.274	-31.417	0.198	-0.113
-473.259	-200.000	-0.001	0.004
-472.245	226.872	0.155	-0.256
-471.230	-159.479	-0.238	-0.013
-470.216	241.713	0.234	-0.397
-469.201	-9.319	0.195	0.132
-468.186	-48.265	-0.259	0.127
-467.172	800.000	-0.117	0.477
-466.157	-200.000	-0.006	-0.093
-465.143	-77.782	-0.383	0.134
-464.128	-98.091	0.087	-0.023
-463.113	79.284	-0.197	0.214
-462.099	-26.835	-0.284	0.169
-461.084	734.108	-0.050	0.136
-460.070	-98.761	0.262	-0.068
-459.055	-127.189	-0.215	-0.032
-458.040	-42.668	-0.169	0.087
-457.026	-36.740	-0.164	-0.089
-456.011	-76.527	0.170	-0.061
-454.997	-200.000	-0.017	0.111
-453.982	-114.904	-0.428	0.083
-452.968	-115.680	0.497	0.095
-451.953	-200.000	-0.001	0.072
-450.938	39.882	-0.256	-0.233
-449.924	-86.720	0.097	-0.030
-448.909	-200.000	-0.019	-0.147
-447.895	-200.000	-0.021	-0.104
-446.880	-178.222	-0.228	-0.005
-445.865	-25.744	0.147	0.088
-444.851	-191.552	0.111	-0.001
-443.836	-97.914	0.457	-0.119
-442.822	201.566	-0.161	-0.251
-441.807	-9.119	-0.217	-0.147
-440.792	154.607	-0.243	0.339
-439.778	-58.834	-0.222	0.097
-438.763	72.232	0.073	-0.077
-437.749	-200.000	0.028	-0.303
-436.734	-36.086	-0.335	0.183
-435.719	-124.491	-0.352	-0.056
-434.705	-11.034	-0.227	0.151
-433.690	-2.211	0.301	-0.214
-432.676	-200.000	0.042	-0.390
-431.661	800.000	0.055	-0.177
-430.646	185.039	0.067	-0.101
-429.632	198.168	0.205	-0.317
-428.617	-200.000	-0.030	0.298
-427.603	-200.000	-0.013	-0.128
-426.588	-81.990	-0.083	-0.027
-425.573	-200.000	0.028	0.185
-424.559	132.137	-0.065	-0.085
-423.544	-200.000	0.024	-0.126
-422.530	19.898	-0.202	-0.165
-421.515	800.000	-0.005	0.018
-420.500	510.865	0.095	0.223
-419.486	91.361	-0.202	-0.229
-418.471	-200.000	0.028	-0.184
-417.457	800.000	0.078	-0.327
-416.442	-0.569	0.340	0.244
-415.428	15.389	0.052	-0.041
-414.413	-200.000	0.022	-0.465
-413.398	-200.000	0.003	0.059
-412.384	35.323	-0.294	0.261
-411.369	-22.592	0.155	0.095
-410.355	240.897	-0.064	-0.108
-409.340	4.709	0.076	0.057
-408.325	669.942	0.079	-0.207
-407.311	-95.468	0.119	0.032
-406.296	35.004	0.079	0.070
-405.282	800.000	0.055	0.220
-404.267	143.300	-0.063	0.084
-403.252	126.717	0.091	-0.116
-402.238	289.754	-0.025	0.047
-401.223	-200.000	0.046	-0.227
-400.209	-101.919	-0.268	0.065
-399.194	-174.696	0.188	-0.005
-398.179	800.000	-0.034	0.100
-397.165	-178.668	0.232	-0.005
-396.150	377.123	0.089	-0.185
-395.136	116.617	0.057	0.071
-394.121	-200.000	0.007	0.131
-393.106	-36.991	-0.113	-0.061
-392.092	-81.352	-0.051	-0.017
-391.077	69.095	0.050	0.052
-390.063	318.048	0.037	0.070
-389.048	-103.159	0.312	0.075
-388.033	173.010	0.060	0.088
-387.019	-129.787	-0.135	0.019
-386.004	-163.873	-0.131	-0.006
-384.990	-115.022	0.249	0.048
-383.975	125.282	0.083	0.106
-382.960	39.389	-0.179	0.162
-381.946	800.000	0.033	0.124
-380.931	253.472	0.053	0.092
-379.917	-200.000	-0.036	-0.162
-378.902	-200.000	0.043	0.215
-377.888	-86.285	0.155	-0.048
-376.873	800.000	0.057	-0.178
-375.858	-40.897	0.525	-0.274
-374.844	130.307	-0.130	0.168
-373.829	91.100	-0.080	0.091
-372.815	-86.073	-0.158	0.049
-371.800	373.215	-0.089	-0.183
-370.785	580.817	-0.097	-0.241
-369.771	545.769	-0.098	0.236
-368.756	-200.000	0.004	0.050
-367.742	-16.740	-0.016	-0.010
-366.727	800.000	-0.062	-0.173
-365.712	286.716	0.029	-0.052
-364.698	-51.682	-0.180	0.085
-363.683	146.899	0.118	0.161
-362.669	800.000	0.017	0.054
-361.654	194.332	-0.138	0.212
-360.639	-200.000	-0.022	-0.143
-359.625	-34.677	0.172	0.095
-358.610	-200.000	0.015	-0.218
-357.596	-200.000	0.031	-0.501
-356.581	-200.000	-0.050	0.261
-355.566	800.000	0.014	0.046
-354.552	213.380	-0.130	0.208
-353.537	-101.857	-0.130	0.032
-352.523	-39.866	-0.051	0.027
-351.508	-19.326	-0.106	-0.067
-350.493	-96.876	-0.175	0.046
-349.479	-105.623	0.173	0.040
-348.464	-82.228	-0.343	0.113
-347.450	-173.533	0.193	-0.006
-346.435	235.127	-0.140	0.233
-345.420	37.371	-0.215	-0.192
-344.406	-44.980	0.278	0.140
-343.391	-200.000	-0.061	0.321
-342.377	-178.885	-0.244	0.006
-341.362	-200.000	-0.036	0.181
-340.348	72.308	-0.194	-0.204
-339.333	75.194	0.285	-0.303
-338.318	161.222	-0.034	0.048
-337.304	24.220	-0.248	0.207
-336.289	-200.000	0.032	-0.169
-335.275	-200.000	0.038	0.236
-334.260	59.187	0.158	-0.157
-333.245	-200.000	-0.029	0.209
-332.231	-56.978	0.111	-0.049
-331.216	27.371	0.255	-0.217
-330.202	134.028	0.177	-0.231
-329.187	-200.000	-0.043	0.195
-328.172	-140.670	0.038	0.004
-327.158	800.000	-0.052	0.149
-326.143	-119.444	-0.301	0.053
-325.129	132.663	0.096	0.124
-324.114	500.892	0.041	-0.095
-323.099	-92.912	0.305	-0.086
-322.085	-200.000	-0.011	-0.313
-321.070	-93.350	-0.304	-0.085
-320.056	691.483	-0.079	0.210
-319.041	-89.656	0.062	0.018
-318.026	-46.804	-0.241	0.119
-317.012	-200.000	0.053	0.243
-315.997	-68.634	0.162	0.063
-314.983	-200.000	0.077	-0.454
-313.968	800.000	0.062	0.204
-312.953	-116.316	-0.213	-0.040
-311.939	-94.660	-0.078	-0.021
-310.924	522.891	-0.079	-0.188
-309.910	13.953	-0.391	-0.307
-308.895	-63.557	-0.290	-0.120
-307.880	-157.151	-0.236	0.014
-306.866	27.731	-0.202	0.171
-305.851	800.000	-0.112	-0.349
-304.837	-200.000	0.040	-0.223
-303.822	-200.000	0.036	0.199
-302.807	-32.972	-0.342	-0.191
-301.793	-200.000	0.321	-0.001
-300.778	17.789	-0.198	-0.159
-299.764	26.550	0.086	0.072
-298.749	800.000	-0.077	0.266
-297.735	-74.962	0.053	0.019
-296.720	514.719	0.117	-0.276
-295.705	-73.413	-0.110	0.040
-294.691	-69.834	0.299	0.115
-293.676	-21.812	-0.149	0.091
-292.662	243.285	-0.176	-0.297
-291.647	-58.585	0.131	-0.057
-290.632	167.232	-0.098	0.140
-289.618	-200.000	0.011	0.093
-288.603	26.187	0.308	-0.259
-287.589	162.975	0.073	-0.104
-286.574	-112.178	-0.349	0.071
-285.559	-200.000	0.025	0.277
-284.545	-20.992	-0.132	-0.082
-283.530	-50.224	0.311	-0.148
-282.516	-69.471	0.156	-0.060
-281.501	-73.648	-0.149	0.055
-280.486	-22.747	-0.262	0.160
-279.472	-98.426	0.140	0.036
-278.457	456.881	-0.093	-0.208
-277.443	800.000	0.060	0.260
-276.428	-200.000	-0.014	0.215
-275.413	800.000	-0.126	0.416
-274.399	-105.182	0.103	0.024
-273.384	-80.909	0.159	0.053
-272.370	800.000	-0.009	-0.028
-271.355	21.984	-0.167	-0.137
-270.340	388.045	-0.083	-0.173
-269.326	1.077	0.299	0.216
-268.311	-71.157	0.081	0.030
-267.297	-146.366	-0.145	-0.013
-266.282	-124.820	0.232	-0.036
-265.267	-200.000	-0.057	0.312
-264.253	351.218	-0.111	0.222
-263.238	-86.684	0.239	-0.074
-262.224	800.000	-0.079	-0.224
-261.209	800.000	0.067	-0.212
-260.195	800.000	0.097	0.286
-259.180	416.567	-0.125	0.269
-258.165	319.362	-0.213	-0.406
-257.151	171.450	0.125	-0.180
-256.136	800.000	0.070	0.254
-255.122	17.332	0.192	-0.154
-254.107	106.498	0.139	0.166
-253.092	-8.149	0.259	-0.175
-252.078	-72.106	-0.321	0.120
-251.063	468.974	0.224	0.507
-250.049	-200.000	0.065	-0.328
-249.034	-46.901	-0.357	0.176
-248.019	-33.358	-0.237	-0.132
-247.005	800.000	-0.111	-0.352
-245.990	800.000	0.116	-0.325
-244.976	321.271	-0.106	-0.204
-243.961	-14.158	0.102	0.066
-242.946	264.364	-0.225	0.394
-241.932	800.000	0.055	0.180
-240.917	-107.672	-0.187	0.041
-239.903	-83.435	0.182	0.058
-238.888	-200.000	-0.001	0.151
-237.873	-52.489	0.239	-0.111
-236.859	-79.858	0.080	-0.027
-235.844	800.000	-0.068	0.238
-234.830	-169.992	-0.061	0.002
-233.815	-200.000	-0.052	0.305
-232.800	-104.620	-0.288	-0.067
-231.786	165.598	0.084	-0.120
-230.771	-200.000	-0.020	-0.239
-229.757	-200.000	0.102	-0.461
-228.742	0.605	-0.431	-0.309
-227.727	-93.179	-0.147	-0.041
-226.713	213.137	0.242	-0.383
-225.698	62.208	-0.217	-0.218
-224.684	-200.000	-0.017	0.201
-223.669	362.645	-0.067	0.136
-222.655	-117.248	-0.237	0.043
-221.640	-58.824	0.183	0.080
-220.625	800.000	-0.082	0.241
-219.611	-88.880	0.513	0.153
-218.596	-76.413	-0.294	-0.104
-217.582	-52.093	-0.086	0.040
-216.567	249.747	-0.083	0.141
-215.552	259.879	-0.081	0.140
-214.538	-200.000	-0.001	0.374
-213.523	326.765	-0.095	0.182
-212.509	-47.129	0.299	0.147
-211.494	354.153	0.087	-0.173
-210.479	-23.546	0.172	-0.104
-209.465	-145.545	-0.082	-0.007
-208.450	142.614	-0.201	-0.268
-207.436	-200.000	0.053	-0.260
-206.421	576.329	-0.029	0.070
-205.406	-23.719	0.426	0.256
-204.392	76.935	0.153	-0.163
-203.377	-78.466	-0.071	-0.024
-202.363	93.320	-0.099	-0.112
-201.348	-35.694	-0.207	-0.113
-200.333	17.255	-0.230	0.183
-199.319	-115.109	-0.135	-0.026
-198.304	-43.016	0.049	0.025
-197.290	800.000	-0.104	-0.352
-196.275	-1.172	-0.211	0.150
-195.260	-63.697	0.216	-0.089
-194.246	-200.000	-0.023	0.224
-193.231	343.382	0.111	0.217
-192.217	800.000	-0.058	-0.189
-191.202	113.273	-0.140	-0.170
-190.187	260.353	0.118	-0.205
-189.173	-95.620	-0.055	-0.015
-188.158	800.000	0.093	-0.267
-187.144	354.049	0.170	0.340
-186.129	-92.012	0.279	-0.079
-185.114	126.483	0.104	0.133
-184.100	-23.304	-0.024	-0.015
-183.085	800.000	0.045	-0.153
-182.071	-200.000	0.017	0.113
-181.056	-64.460	0.206	-0.084
-180.042	50.740	-0.152	-0.144
-179.027	-148.447	-0.206	0.017
-178.012	236.765	0.090	0.149
-176.998	31.095	0.092	0.079
-175.983	-200.000	0.008	0.090
-174.969	181.097	-0.070	0.103
-173.954	565.473	-0.050	0.121
-172.939	-200.000	-0.028	0.173
-171.925	-65.400	0.167	-0.068
-170.910	-200.000	-0.011	0.102
-169.896	332.759	-0.176	0.341
-168.881	-0.191	0.212	-0.152
-167.866	55.562	0.173	-0.168
-166.852	-60.126	0.127	-0.054
-165.837	800.000	0.163	0.476
-164.823	-145.268	0.089	-0.008
-163.808	-200.000	0.004	0.094
-162.793	207.824	-0.057	-0.089
-161.779	-97.486	-0.380	0.099
-160.764	-200.000	-0.024	0.328
-159.750	-63.022	0.211	0.087
-158.735	800.000	-0.054	-0.177
-157.720	0.019	0.071	0.051
-156.706	-47.339	0.118	0.058
-155.691	-141.938	-0.444	0.044
-154.677	-200.000	-0.027	-0.120
-153.662	-164.216	0.176	0.008
-152.647	3.040	0.216	0.157
-151.633	-49.675	-0.244	-0.116
-150.618	-145.738	0.155	0.014
-149.604	574.254	-0.073	0.179
-148.589	-179.899	0.362	0.008
-147.574	-200.000	-0.009	0.117
-146.560	-95.276	-0.301	0.081
-145.545	-120.973	-0.122	-0.021
-144.531	-85.329	0.301	0.094
-143.516	-200.000	0.014	-0.164
-142.502	-200.000	-0.009	-0.102
-141.487	-109.961	0.123	-0.026
-140.472	783.969	0.080	-0.220
-139.458	147.873	0.174	-0.235
-138.443	800.000	-0.030	-0.096
-137.429	31.626	0.075	0.064
-136.414	-39.472	-0.505	0.265
-135.399	502.812	-0.057	-0.133
-134.385	800.000	0.084	0.262
-133.370	120.084	-0.195	0.243
-132.356	-200.000	0.005	0.114
-131.341	157.466	-0.229	-0.318
-130.326	150.130	-0.170	0.231
-129.312	418.554	0.112	0.239
-128.297	-187.718	0.196	0.003
-127.283	-111.798	0.224	0.045
-126.268	-195.896	0.196	0.001
-125.253	-70.037	0.448	0.171
-124.239	-102.034	0.213	-0.051
-123.224	149.572	-0.150	0.203
-122.210	-17.575	0.203	-0.127
-121.195	-84.823	-0.083	0.026
