DTS Sentinel unit serial number:	SN413079Multiplexer serial number:	ORYXHardware model number:	OX4-SRSoftware version number:	ORYX F/W v4.00 Oryx Data Collector v3.7.2.0data status	okinstallation	princeton_trtdifferential loss correction	single-endedforward channel	channel 3reverse channel	N/Adate	2019/09/11time	06:42:11forward acquisition time	60.00reverse acquisition time	0.00gamma	496.2192k internal	0.2329k external	0.2329temperature offset calibration	0.9907default loss term (dB/km)	0.3790temperature slope calibration	1.0000multiplexer offset coefficient	1.0000multiplexer slope coefficient	1.0000fibre end	0.00T internal ref (°C)	29.78T ext. ref 1 (°C)	-0.15T ext. ref 2 (°C)	24.70length (m)	temperature (°C)	Stokes	anti-Stokes-747.200	246.226	-0.061	0.104
-746.185	800.000	-0.101	0.427
-745.171	-101.731	0.258	-0.063
-744.156	-43.285	-0.321	0.164
-743.142	84.640	0.123	0.136
-742.127	-58.034	0.173	-0.076
-741.112	-139.027	-0.245	-0.027
-740.098	145.935	-0.087	0.118
-739.083	330.428	-0.127	0.247
-738.069	-122.948	0.054	-0.009
-737.054	-200.000	0.047	0.375
-736.039	800.000	-0.111	-0.314
-735.025	-200.000	0.021	0.200
-734.010	-88.932	-0.414	0.123
-732.996	93.275	-0.183	-0.208
-731.981	-200.000	0.020	0.148
-730.966	620.478	0.118	-0.298
-729.952	-200.000	-0.047	0.226
-728.937	179.779	-0.183	-0.269
-727.923	224.023	-0.154	0.250
-726.908	-94.811	-0.129	0.035
-725.894	137.972	0.127	-0.168
-724.879	84.626	0.169	-0.187
-723.864	-190.936	-0.385	-0.004
-722.850	-129.104	0.212	0.030
-721.835	-113.198	-0.189	0.037
-720.821	800.000	-0.138	-0.401
-719.806	-200.000	-0.018	-0.113
-718.791	390.234	-0.169	-0.352
-717.777	168.364	0.340	-0.487
-716.762	144.154	-0.096	0.129
-715.748	-93.311	-0.169	-0.047
-714.733	589.071	-0.070	0.174
-713.718	172.038	0.165	-0.238
-712.704	-53.108	0.078	0.036
-711.689	18.549	0.131	-0.105
-710.675	-200.000	-0.015	0.075
-709.660	105.794	-0.232	0.276
-708.645	-124.369	0.304	-0.048
-707.631	-180.494	0.232	0.005
-706.616	-200.000	0.031	0.388
-705.602	800.000	-0.063	-0.272
-704.587	-121.673	0.142	-0.024
-703.572	-58.908	-0.290	-0.126
-702.558	-200.000	0.005	-0.251
-701.543	-160.650	0.259	-0.014
-700.529	-19.328	0.264	0.165
-699.514	-35.895	0.189	-0.103
-698.499	175.992	-0.127	0.185
-697.485	174.113	-0.097	0.140
-696.470	333.899	-0.055	0.106
-695.456	-7.128	-0.330	-0.225
-694.441	195.521	-0.049	-0.075
-693.426	-39.639	-0.342	-0.180
-692.412	800.000	0.068	-0.280
-691.397	-200.000	-0.034	-0.275
-690.383	-19.913	-0.216	-0.134
-689.368	-44.996	0.114	-0.057
-688.354	-82.097	0.144	0.047
-687.339	-153.056	-0.186	0.013
-686.324	-78.201	0.258	-0.089
-685.310	20.605	0.395	-0.321
-684.295	172.788	-0.008	0.011
-683.281	-53.126	0.391	-0.180
-682.266	-200.000	0.041	-0.323
-681.251	289.005	-0.190	-0.346
-680.237	-43.270	-0.203	0.103
-679.222	-127.311	0.138	0.020
-678.208	204.527	0.119	-0.185
-677.193	-200.000	0.047	0.282
-676.178	-117.518	-0.031	-0.006
-675.164	-200.000	0.021	0.213
-674.149	-200.000	-0.019	0.099
-673.135	-136.089	0.104	-0.012
-672.120	763.138	-0.144	0.393
-671.105	-125.471	-0.275	0.042
-670.091	-72.644	0.118	0.044
-669.076	-12.644	0.141	-0.092
-668.062	800.000	-0.025	0.105
-667.047	310.213	0.174	-0.326
-666.032	-128.604	-0.119	-0.017
-665.018	355.975	0.168	0.335
-664.003	148.817	0.063	-0.086
-662.989	-72.996	0.279	0.103
-661.974	-200.000	-0.021	0.267
-660.959	-13.634	-0.224	0.146
-659.945	130.770	-0.139	-0.179
-658.930	-4.989	0.238	0.164
-657.916	800.000	-0.062	-0.185
-656.901	-28.921	-0.233	-0.135
-655.886	-200.000	-0.008	0.100
-654.872	-200.000	0.006	-0.057
-653.857	107.341	-0.096	-0.115
-652.843	17.730	-0.079	0.063
-651.828	-58.086	0.234	-0.102
-650.814	465.332	-0.067	0.151
-649.799	-173.268	-0.373	-0.011
-648.784	-200.000	-0.078	0.353
-647.770	-200.000	-0.004	-0.190
-646.755	-135.276	-0.337	0.041
-645.741	800.000	0.076	-0.230
-644.726	-200.000	0.014	-0.368
-643.711	-117.106	0.397	-0.073
-642.697	-139.599	0.203	0.022
-641.682	-65.236	-0.098	-0.039
-640.668	-104.229	0.351	-0.082
-639.653	1.705	-0.359	-0.260
-638.638	204.588	-0.066	0.102
-637.624	-129.195	0.402	0.056
-636.609	-104.993	0.115	-0.026
-635.595	23.275	-0.252	-0.208
-634.580	73.530	0.164	0.172
-633.565	800.000	0.073	-0.242
-632.551	310.554	0.026	-0.048
-631.536	-63.106	-0.119	-0.049
-630.522	518.869	0.020	0.046
-629.507	99.449	0.135	-0.156
-628.492	5.116	0.177	-0.131
-627.478	-45.664	0.089	-0.044
-626.463	-130.452	-0.549	-0.075
-625.449	108.763	-0.114	0.136
-624.434	329.309	0.031	0.059
-623.419	255.493	-0.013	0.022
-622.405	-122.118	-0.129	0.021
-621.390	800.000	0.090	-0.308
-620.376	-167.402	0.178	-0.007
-619.361	143.841	0.237	0.316
-618.346	-155.441	-0.116	0.008
-617.332	-200.000	0.004	0.049
-616.317	-45.119	-0.173	-0.086
-615.303	-200.000	0.006	0.059
-614.288	-107.207	0.343	-0.076
-613.273	-114.094	0.106	0.020
-612.259	-153.942	0.236	0.016
-611.244	171.101	0.133	-0.191
-610.230	248.458	-0.266	0.451
-609.215	800.000	0.053	0.205
-608.201	-88.402	0.128	-0.038
-607.186	-200.000	-0.041	0.436
-606.171	-200.000	-0.012	-0.061
-605.157	-116.376	0.703	0.130
-604.142	-113.025	0.246	0.049
-603.128	414.002	0.126	-0.270
-602.113	-52.727	0.183	0.085
-601.098	45.125	-0.239	0.221
-600.084	-64.661	-0.124	-0.050
-599.069	221.627	0.051	0.082
-598.055	-143.742	-0.367	-0.035
-597.040	800.000	0.038	-0.126
-596.025	334.453	-0.104	-0.202
-595.011	-200.000	-0.011	0.174
-593.996	-49.641	-0.296	-0.141
-592.982	235.416	0.057	0.094
-591.967	-8.119	0.102	0.069
-590.952	173.803	-0.249	-0.360
-589.938	-160.293	0.287	-0.015
-588.923	-74.028	-0.195	0.071
-587.909	-34.476	-0.207	0.114
-586.894	52.276	-0.190	-0.182
-585.879	800.000	0.141	0.433
-584.865	-115.226	-0.343	-0.065
-583.850	-200.000	0.008	-0.222
-582.836	70.299	0.206	-0.213
-581.821	-75.039	0.182	-0.065
-580.806	43.749	0.175	0.160
-579.792	-14.758	-0.143	0.092
-578.777	-2.284	-0.306	-0.215
-577.763	-25.672	-0.117	0.069
-576.748	-29.002	-0.033	0.019
-575.733	800.000	0.097	-0.365
-574.719	800.000	0.028	0.087
-573.704	-200.000	-0.011	-0.372
-572.690	-200.000	0.022	-0.371
-571.675	273.923	0.184	-0.326
-570.661	-200.000	0.035	-0.595
-569.646	-107.458	-0.160	0.035
-568.631	-84.026	-0.292	-0.093
-567.617	45.503	-0.305	0.281
-566.602	800.000	-0.039	0.127
-565.588	290.301	0.095	0.172
-564.573	-200.000	-0.070	0.382
-563.558	-75.865	0.205	0.072
-562.544	121.511	-0.059	-0.073
-561.529	179.072	0.142	0.207
-560.515	-18.142	0.122	0.076
-559.500	8.526	-0.181	0.136
-558.485	800.000	-0.065	-0.198
-557.471	66.175	-0.007	-0.007
-556.456	-200.000	-0.000	0.277
-555.442	134.640	0.132	0.172
-554.427	-200.000	-0.004	0.334
-553.412	286.791	0.097	-0.175
-552.398	-100.436	0.241	0.060
-551.383	-102.911	0.147	0.035
-550.369	121.875	-0.289	0.360
-549.354	760.324	-0.055	0.150
-548.339	-200.000	0.005	-0.189
-547.325	-53.156	-0.497	-0.228
-546.310	-200.000	-0.078	0.384
-545.296	-200.000	0.018	-0.092
-544.281	800.000	-0.094	0.377
-543.266	-104.816	-0.115	-0.026
-542.252	-95.964	0.189	-0.050
-541.237	271.964	-0.128	-0.225
-540.223	120.458	0.149	-0.185
-539.208	43.803	0.388	-0.355
-538.193	321.831	0.055	0.105
-537.179	556.411	-0.124	0.299
-536.164	300.019	0.126	-0.232
-535.150	36.391	-0.195	-0.172
-534.135	-2.849	0.230	-0.161
-533.121	-53.374	0.317	0.145
-532.106	800.000	-0.052	0.181
-531.091	-200.000	-0.027	0.150
-530.077	-200.000	0.048	0.385
-529.062	-200.000	-0.009	0.238
-528.048	-200.000	-0.036	0.174
-527.033	101.314	0.129	-0.150
-526.018	-200.000	0.007	-0.262
-525.004	175.578	-0.207	-0.300
-523.989	-64.969	-0.212	0.086
-522.975	34.022	-0.156	0.136
-521.960	-85.973	0.356	-0.110
-520.945	-102.075	-0.244	-0.059
-519.931	-92.047	-0.134	-0.038
-518.916	-153.051	-0.204	0.014
-517.902	-200.000	0.019	-0.159
-516.887	-106.521	0.082	0.018
-515.872	70.483	0.084	-0.086
-514.858	-200.000	-0.015	-0.108
-513.843	-5.530	-0.244	-0.167
-512.829	800.000	0.044	0.150
-511.814	23.010	-0.075	0.062
-510.799	-200.000	0.076	-0.370
-509.785	-200.000	0.044	0.260
-508.770	-200.000	0.016	-0.144
-507.756	-58.029	0.290	-0.126
-506.741	-53.382	0.322	0.147
-505.726	176.990	-0.062	0.090
-504.712	3.218	-0.240	0.174
-503.697	-23.979	0.232	-0.138
-502.683	-179.323	-0.137	-0.003
-501.668	-36.042	0.269	-0.145
-500.653	-76.174	0.304	-0.107
-499.639	388.829	-0.024	-0.050
-498.624	-139.440	-0.424	-0.045
-497.610	94.926	0.056	0.064
-496.595	161.520	0.213	-0.297
-495.581	-93.759	-0.283	0.078
-494.566	136.051	0.147	-0.191
-493.551	-60.403	-0.119	-0.050
-492.537	66.379	-0.144	0.146
-491.522	-66.079	0.122	-0.048
-490.508	344.565	-0.041	0.079
-489.493	66.151	-0.143	-0.145
-488.478	41.609	-0.259	0.234
-487.464	516.146	0.202	-0.471
-486.449	800.000	-0.031	0.124
-485.435	-68.398	0.139	0.054
-484.420	-58.339	0.109	-0.047
-483.405	-200.000	-0.005	0.414
-482.391	115.768	-0.231	-0.282
-481.376	-12.261	-0.182	0.119
-480.362	-107.291	0.144	-0.032
-479.347	800.000	-0.062	-0.238
-478.332	-23.710	-0.263	0.157
-477.318	36.441	-0.154	0.135
-476.303	-12.724	0.112	0.073
-475.289	-71.724	0.282	0.105
-474.274	-200.000	0.015	0.211
-473.259	-52.132	-0.166	0.077
-472.245	-31.293	0.142	0.080
-471.230	59.520	-0.221	-0.217
-470.216	-67.647	-0.197	0.077
-469.201	679.958	0.044	-0.114
-468.186	36.157	0.099	-0.087
-467.172	-68.258	-0.223	0.086
-466.157	-200.000	0.019	0.168
-465.143	-200.000	0.021	-0.208
-464.128	619.458	-0.056	0.141
-463.113	-132.386	-0.471	-0.060
-462.099	-104.111	0.150	-0.035
-461.084	778.417	0.016	0.044
-460.070	274.077	-0.082	0.145
-459.055	-94.214	-0.095	-0.026
-458.040	-200.000	-0.022	0.154
-457.026	93.619	0.084	-0.094
-456.011	-108.436	0.201	-0.043
-454.997	-200.000	0.003	0.283
-453.982	-48.671	0.136	-0.065
-452.968	800.000	0.139	-0.425
-451.953	-200.000	-0.015	-0.153
-450.938	-48.263	0.259	-0.124
-449.924	-156.214	-0.242	-0.015
-448.909	-2.555	-0.277	0.193
-447.895	162.335	0.065	-0.091
-446.880	-200.000	0.065	0.327
-445.865	150.117	0.097	0.130
-444.851	800.000	-0.048	-0.191
-443.836	120.072	-0.239	-0.295
-442.822	-200.000	-0.048	-0.375
-441.807	-200.000	0.442	0.000
-440.792	-28.820	-0.043	0.025
-439.778	-200.000	-0.044	0.300
-438.763	158.779	0.072	-0.100
-437.749	-44.914	-0.168	0.083
-436.734	537.049	-0.168	0.397
-435.719	800.000	-0.059	-0.210
-434.705	34.433	0.144	0.125
-433.690	-34.727	0.109	0.060
-432.676	-33.723	0.253	0.139
-431.661	-129.176	0.239	0.033
-430.646	-15.764	0.083	-0.053
-429.632	42.508	0.162	-0.147
-428.617	-4.004	-0.128	0.088
-427.603	254.150	-0.106	0.180
-426.588	-200.000	0.023	0.162
-425.573	405.480	-0.040	0.083
-424.559	-5.901	0.217	0.148
-423.544	-2.416	-0.111	0.078
-422.530	475.492	-0.105	0.237
-421.515	-13.257	0.232	-0.150
-420.500	800.000	0.094	0.282
-419.486	-26.851	-0.268	0.156
-418.471	-83.950	-0.233	0.074
-417.457	-200.000	0.007	-0.129
-416.442	-200.000	0.015	-0.112
-415.428	-99.312	0.049	0.012
-414.413	57.892	0.236	-0.230
-413.398	793.122	-0.135	0.369
-412.384	-200.000	-0.006	-0.076
-411.369	482.850	0.039	-0.088
-410.355	-200.000	0.082	-0.559
-409.340	-99.268	-0.324	0.081
-408.325	-168.380	0.481	0.018
-407.311	-200.000	-0.068	0.391
-406.296	-99.051	-0.238	0.060
-405.282	36.976	-0.045	-0.039
-404.267	-117.167	0.103	0.019
-403.252	169.720	-0.057	0.082
-402.238	-87.260	0.059	0.018
-401.223	-92.829	0.215	-0.060
-400.209	43.761	0.218	0.198
-399.194	-122.624	0.137	0.022
-398.179	800.000	0.037	-0.116
-397.165	69.503	-0.056	-0.057
-396.150	-31.491	-0.292	-0.163
-395.136	309.831	0.043	0.080
-394.121	47.927	0.119	0.111
-393.106	9.330	-0.168	0.126
-392.092	31.615	-0.093	-0.079
-391.077	36.631	0.105	-0.092
-390.063	-200.000	-0.016	0.176
-389.048	-156.887	-0.239	-0.015
-388.033	-83.261	-0.025	-0.008
-387.019	-51.982	0.207	0.095
-386.004	90.403	-0.090	0.100
-384.990	278.361	0.073	-0.129
-383.975	43.089	-0.209	-0.189
-382.960	-147.940	0.306	0.025
-381.946	800.000	0.088	0.280
-380.931	-36.800	-0.231	-0.123
-379.917	-200.000	0.016	0.138
-378.902	-136.522	0.181	-0.021
-377.888	-2.384	0.201	0.140
-376.873	-51.512	0.396	0.183
-375.858	-57.347	-0.236	0.103
-374.844	44.046	-0.146	-0.132
-373.829	126.475	-0.127	0.159
-372.815	-200.000	-0.077	-0.355
-371.800	-200.000	0.002	-0.226
-370.785	-95.185	0.207	0.055
-369.771	-48.588	0.094	0.045
-368.756	89.335	-0.254	0.281
-367.742	501.397	0.103	0.237
-366.727	-39.521	0.209	0.108
-365.712	-200.000	-0.014	0.107
-364.698	726.420	-0.172	0.456
-363.683	-200.000	0.015	-0.075
-362.669	130.839	-0.197	-0.251
-361.654	150.876	-0.156	0.211
-360.639	-114.055	-0.135	0.026
-359.625	-200.000	0.012	-0.076
-358.610	-200.000	0.008	0.163
-357.596	-6.026	0.376	-0.255
-356.581	-146.819	-0.238	-0.020
-355.566	125.378	-0.118	0.148
-354.552	208.732	-0.110	0.170
-353.537	-64.545	-0.124	-0.050
-352.523	292.085	0.099	-0.179
-351.508	-200.000	-0.022	-0.261
-350.493	50.088	0.035	-0.032
-349.479	-163.692	-0.321	0.015
-348.464	-8.798	0.185	-0.123
-347.450	30.381	0.184	-0.156
-346.435	30.800	-0.244	-0.207
-345.420	-51.599	0.129	-0.060
-344.406	-164.447	0.264	0.012
-343.391	67.580	-0.291	-0.295
-342.377	148.188	-0.111	-0.148
-341.362	-133.912	-0.177	-0.022
-340.348	-200.000	0.026	0.159
-339.333	-164.279	0.153	0.007
-338.318	-15.771	-0.244	-0.154
-337.304	-109.929	0.136	0.028
-336.289	-170.566	0.171	0.006
-335.275	-133.510	0.068	0.008
-334.260	800.000	0.032	-0.123
-333.245	144.717	-0.137	-0.182
-332.231	-126.555	0.196	-0.029
-331.216	-101.906	-0.156	-0.037
-330.202	-82.854	0.146	-0.047
-329.187	800.000	0.060	0.248
-328.172	-105.660	0.228	0.051
-327.158	28.260	0.056	0.047
-326.143	393.051	0.140	0.289
-325.129	-23.499	-0.099	0.059
-324.114	465.316	0.099	-0.219
-323.099	-200.000	0.006	-0.213
-322.085	-2.775	-0.088	0.061
-321.070	-140.257	-0.390	0.040
-320.056	-69.805	-0.364	-0.138
-319.041	-126.355	-0.458	0.068
-318.026	-196.217	0.229	0.002
-317.012	468.368	0.051	-0.113
-315.997	-200.000	-0.014	-0.157
-314.983	-45.218	-0.103	0.051
-313.968	32.294	0.233	0.199
-312.953	245.303	-0.085	0.142
-311.939	-43.320	-0.387	0.194
-310.924	-200.000	0.004	0.212
-309.910	-2.164	0.141	0.098
-308.895	-132.757	0.195	0.025
-307.880	-4.326	-0.178	-0.122
-306.866	-200.000	-0.053	-0.264
-305.851	258.107	-0.101	-0.172
-304.837	52.894	-0.104	0.098
-303.822	-200.000	-0.026	-0.161
-302.807	140.910	-0.053	-0.070
-301.793	25.966	-0.235	0.194
-300.778	114.034	-0.164	-0.198
-299.764	-200.000	-0.028	0.355
-298.749	342.583	-0.046	0.088
-297.735	-102.440	-0.080	-0.019
-296.720	-200.000	-0.029	0.382
-295.705	-155.163	-0.191	-0.012
-294.691	-200.000	0.005	-0.292
-293.676	-200.000	-0.022	-0.285
-292.662	-70.646	-0.308	-0.115
-291.647	-171.214	0.216	0.007
-290.632	276.992	-0.073	0.128
-289.618	283.219	0.079	-0.141
-288.603	-114.423	0.149	-0.028
-287.589	-25.988	-0.262	-0.152
-286.574	-114.637	0.571	0.108
-285.559	-20.301	0.158	0.096
-284.545	-143.083	-0.323	0.031
-283.530	11.330	-0.314	-0.238
-282.516	14.554	-0.054	-0.041
-281.501	48.722	-0.134	-0.124
-280.486	240.121	-0.104	-0.171
-279.472	561.799	0.038	-0.091
-278.457	-163.388	-0.230	0.011
-277.443	126.872	0.178	0.223
-276.428	-200.000	-0.000	0.166
-275.413	-200.000	-0.040	-0.245
-274.399	296.665	0.205	-0.372
-273.384	-200.000	0.024	0.372
-272.370	-200.000	0.034	-0.258
-271.355	-70.954	0.108	-0.040
-270.340	33.343	0.027	0.023
-269.326	253.422	-0.100	-0.169
-268.311	-96.487	-0.234	0.061
-267.297	185.298	0.046	-0.067
-266.282	-109.158	0.357	-0.075
-265.267	124.247	-0.040	0.050
-264.253	-200.000	-0.006	0.306
-263.238	-200.000	0.017	-0.104
-262.224	-78.289	-0.237	-0.081
-261.209	-19.370	-0.120	0.073
-260.195	9.214	0.203	-0.151
-259.180	72.579	0.084	0.086
-258.165	569.968	-0.072	-0.172
-257.151	85.747	-0.080	0.087
-256.136	199.027	0.235	-0.356
-255.122	-65.041	-0.257	0.103
-254.107	800.000	-0.008	-0.023
-253.092	-92.423	-0.467	0.130
-252.078	97.335	0.084	0.096
-251.063	-200.000	-0.040	-0.221
-250.049	-1.852	0.253	-0.176
-249.034	344.127	-0.099	-0.193
-248.019	800.000	-0.044	-0.151
-247.005	9.074	0.085	-0.063
-245.990	46.501	0.298	-0.273
-244.976	7.514	0.180	0.133
-243.961	666.845	0.021	0.054
-242.946	98.275	0.118	0.134
-241.932	800.000	0.029	0.110
-240.917	-31.129	0.318	-0.177
-239.903	162.990	-0.102	0.141
-238.888	35.244	-0.149	0.129
-237.873	-62.862	0.126	0.051
-236.859	-30.835	-0.044	0.025
-235.844	720.193	0.126	0.330
-234.830	-37.913	-0.208	0.109
-233.815	-200.000	-0.049	-0.213
-232.800	800.000	-0.030	0.089
-231.786	-94.185	0.038	-0.010
-230.771	492.560	0.060	-0.135
-229.757	800.000	-0.069	0.228
-228.742	-172.818	0.248	-0.008
-227.727	-136.109	-0.334	-0.039
-226.713	-126.064	0.275	0.041
-225.698	157.113	0.107	0.145
-224.684	113.875	0.181	0.217
-223.669	800.000	0.048	0.203
-222.655	234.691	-0.072	0.117
-221.640	357.550	0.211	0.415
-220.625	800.000	0.066	0.256
-219.611	-200.000	-0.017	-0.103
-218.596	301.544	-0.100	0.182
-217.582	800.000	0.070	0.276
-216.567	-41.185	0.259	-0.132
-215.552	752.260	0.075	0.201
-214.538	800.000	0.074	-0.275
-213.523	610.577	0.058	-0.143
-212.509	-200.000	-0.011	0.306
-211.494	-86.493	0.118	-0.036
-210.479	-20.502	-0.174	0.106
-209.465	51.141	0.253	0.237
-208.450	-52.980	0.063	0.028
-207.436	600.794	-0.055	-0.136
-206.421	-14.183	-0.041	0.026
-205.406	-35.243	0.172	-0.092
-204.392	-64.731	-0.349	0.140
-203.377	138.166	0.228	0.295
-202.363	18.602	-0.031	-0.025
-201.348	-200.000	-0.038	0.227
-200.333	120.972	0.050	-0.062
-199.319	-9.405	-0.095	0.063
-198.304	444.400	-0.082	-0.177
-197.290	678.214	0.125	0.320
-196.275	-200.000	-0.020	-0.453
-195.260	-200.000	0.037	-0.216
-194.246	451.857	0.182	-0.396
-193.231	800.000	0.013	-0.048
-192.217	250.670	-0.130	0.218
-191.202	-200.000	0.029	0.173
-190.187	-200.000	-0.012	-0.204
-189.173	-79.247	0.130	-0.043
-188.158	-78.151	0.387	-0.131
-187.144	-200.000	-0.031	0.332
-186.129	-73.607	-0.117	0.042
-185.114	-88.928	-0.102	-0.030
-184.100	-200.000	-0.005	-0.073
-183.085	-4.537	-0.087	-0.059
-182.071	458.256	0.091	-0.199
-181.056	-180.654	-0.221	0.004
-180.042	-200.000	-0.036	0.172
-179.027	-112.637	0.227	0.044
-178.012	-40.078	0.088	0.045
-176.998	142.015	-0.172	0.225
-175.983	571.325	0.025	-0.059
-174.969	366.344	0.051	0.100
-173.954	199.948	0.083	0.126
-172.939	0.617	0.173	-0.122
-171.925	-200.000	-0.009	-0.250
-170.910	-11.290	0.161	0.104
-169.896	-200.000	0.011	-0.205
-168.881	-127.454	-0.182	-0.026
-167.866	36.441	-0.236	-0.205
-166.852	-200.000	-0.053	-0.540
-165.837	-114.222	0.174	-0.033
-164.823	-142.399	-0.032	-0.003
-163.808	308.086	-0.159	-0.292
-162.793	79.674	-0.198	0.209
-161.779	33.968	-0.257	0.220
-160.764	-81.976	-0.253	-0.082
-159.750	-115.442	0.289	-0.054
-158.735	44.695	-0.162	-0.146
-157.720	253.208	0.339	0.570
-156.706	70.684	0.105	-0.107
-155.691	-67.529	0.319	-0.123
-154.677	325.865	-0.098	0.185
-153.662	22.128	0.206	-0.166
-152.647	-200.000	-0.053	-0.288
-151.633	800.000	0.045	0.190
-150.618	30.180	0.347	0.291
-149.604	800.000	0.056	0.213
-148.589	-18.240	0.431	0.265
-147.574	458.471	0.146	-0.319
-146.560	551.690	-0.082	0.194
-145.545	21.639	0.187	0.150
-144.531	180.429	-0.116	-0.168
-143.516	-71.585	-0.195	-0.072
-142.502	95.107	0.296	0.332
-141.487	-174.398	-0.160	0.005
-140.472	-66.545	0.338	0.132
-139.458	26.331	-0.127	-0.104
-138.443	135.591	0.128	-0.164
-137.429	-122.846	-0.090	0.014
-136.414	800.000	0.073	0.303
-135.399	-166.945	-0.234	0.009
-134.385	800.000	-0.055	-0.209
-133.370	-200.000	0.058	-0.357
-132.356	-200.000	-0.010	0.179
-131.341	800.000	0.072	0.249
-130.326	-36.706	-0.207	0.109
-129.312	-9.547	-0.216	0.142
-128.297	42.021	0.044	-0.039
-127.283	18.825	0.178	-0.140
-126.268	-200.000	-0.011	-0.088
-125.253	-110.968	-0.353	-0.071
-124.239	800.000	0.098	0.337
-123.224	-143.228	-0.351	-0.033
-122.210	56.173	0.205	-0.196
