DTS Sentinel unit serial number:	SN413079Multiplexer serial number:	ORYXHardware model number:	OX4-SRSoftware version number:	ORYX F/W v4.00 Oryx Data Collector v3.7.2.0data status	okinstallation	princeton_trtdifferential loss correction	single-endedforward channel	channel 3reverse channel	N/Adate	2019/09/11time	22:22:11forward acquisition time	60.00reverse acquisition time	0.00gamma	496.2192k internal	0.2313k external	0.2313temperature offset calibration	1.0050default loss term (dB/km)	0.3790temperature slope calibration	1.0000multiplexer offset coefficient	1.0000multiplexer slope coefficient	1.0000fibre end	0.00T internal ref (°C)	35.19T ext. ref 1 (°C)	1.77T ext. ref 2 (°C)	29.09length (m)	temperature (°C)	Stokes	anti-Stokes-747.200	-58.494	-0.325	0.143
-746.185	17.702	0.107	0.086
-745.171	401.707	0.073	-0.156
-744.156	-116.478	-0.270	-0.050
-743.142	-200.000	0.012	-0.119
-742.127	-20.856	0.127	-0.079
-741.112	800.000	-0.026	-0.113
-740.098	-200.000	-0.050	0.320
-739.083	84.760	-0.082	-0.091
-738.069	-200.000	0.014	0.362
-737.054	226.488	-0.130	0.214
-736.039	108.330	-0.097	0.118
-735.025	-194.405	0.210	0.002
-734.010	174.649	-0.149	0.218
-732.996	-200.000	0.022	0.267
-731.981	-32.291	0.185	-0.105
-730.966	-154.476	0.102	-0.007
-729.952	-200.000	-0.056	-0.330
-728.937	-164.972	-0.221	-0.010
-727.923	-46.696	0.051	0.025
-726.908	800.000	-0.096	-0.276
-725.894	41.084	-0.106	0.097
-724.879	46.304	-0.183	-0.172
-723.864	35.145	-0.227	-0.202
-722.850	-176.489	-0.320	-0.008
-721.835	800.000	0.025	-0.089
-720.821	800.000	0.025	0.088
-719.806	55.785	-0.189	-0.186
-718.791	-4.149	0.177	-0.124
-717.777	-85.678	-0.119	-0.038
-716.762	-200.000	-0.044	0.333
-715.748	24.080	-0.149	-0.125
-714.733	800.000	0.084	-0.244
-713.718	89.050	-0.196	0.221
-712.704	-200.000	-0.014	0.145
-711.689	-200.000	0.031	-0.216
-710.675	-171.439	0.222	0.007
-709.660	-200.000	0.007	-0.058
-708.645	800.000	0.059	0.226
-707.631	8.105	0.391	0.298
-706.616	-200.000	0.020	0.247
-705.602	674.550	0.030	-0.079
-704.587	42.350	0.151	-0.139
-703.572	-200.000	0.017	0.090
-702.558	-200.000	0.018	0.099
-701.543	-73.593	-0.106	-0.039
-700.529	648.030	0.123	-0.319
-699.514	-200.000	-0.012	-0.181
-698.499	-200.000	0.019	0.085
-697.485	-127.877	0.216	-0.031
-696.470	-110.437	-0.380	-0.080
-695.456	-154.565	0.177	0.012
-694.441	-200.000	-0.050	0.261
-693.426	174.278	0.014	-0.021
-692.412	-137.943	0.243	-0.028
-691.397	-125.251	-0.128	-0.020
-690.383	-122.986	-0.121	-0.020
-689.368	229.245	-0.012	-0.020
-688.354	-89.874	-0.196	0.058
-687.339	-12.103	-0.267	0.177
-686.324	297.051	-0.018	-0.034
-685.310	101.680	0.045	0.053
-684.295	714.780	0.123	-0.330
-683.281	207.813	-0.199	-0.314
-682.266	-3.912	-0.378	-0.265
-681.251	-66.365	0.350	-0.141
-680.237	312.979	0.185	-0.352
-679.222	-200.000	0.020	-0.138
-678.208	-22.378	0.125	-0.077
-677.193	-67.601	-0.015	-0.006
-676.178	33.328	-0.358	-0.314
-675.164	149.552	0.100	-0.137
-674.149	800.000	0.009	0.030
-673.135	-48.857	0.372	-0.180
-672.120	776.451	-0.028	0.077
-671.105	231.320	0.093	0.155
-670.091	23.439	0.072	0.060
-669.076	489.069	0.007	-0.017
-668.062	148.127	-0.147	0.200
-667.047	-63.152	-0.152	-0.063
-666.032	-7.345	0.147	-0.101
-665.018	-70.343	-0.091	-0.035
-664.003	142.660	0.236	0.317
-662.989	-200.000	-0.032	-0.211
-661.974	-71.032	0.168	-0.064
-660.959	-200.000	0.005	0.133
-659.945	371.540	0.125	-0.257
-658.930	-61.808	0.154	-0.065
-657.916	-70.068	0.034	-0.013
-656.901	800.000	-0.020	0.060
-655.886	-160.423	-0.067	0.004
-654.872	800.000	-0.130	0.398
-653.857	-126.837	-0.258	0.038
-652.843	-64.137	-0.178	0.073
-651.828	800.000	0.084	-0.253
-650.814	-27.733	-0.180	-0.106
-649.799	63.711	0.110	0.112
-648.784	143.172	-0.088	-0.118
-647.770	-200.000	-0.042	0.229
-646.755	85.377	0.208	-0.231
-645.741	441.621	-0.151	0.334
-644.726	13.199	-0.264	-0.206
-643.711	249.921	-0.075	-0.128
-642.697	-105.105	0.131	0.030
-641.682	-96.852	0.174	-0.046
-640.668	-62.536	-0.207	-0.087
-639.653	-54.993	-0.270	-0.123
-638.638	146.049	-0.160	-0.217
-637.624	45.092	-0.152	-0.141
-636.609	53.797	0.043	-0.041
-635.595	528.063	-0.151	0.359
-634.580	-17.540	0.011	-0.007
-633.565	-129.265	0.491	-0.069
-632.551	-200.000	-0.033	0.236
-631.536	85.812	-0.314	0.349
-630.522	184.597	-0.195	-0.292
-629.507	167.427	-0.082	-0.118
-628.492	-100.880	0.537	0.133
-627.478	-72.490	0.087	0.033
-626.463	-191.446	0.441	-0.004
-625.449	-37.719	-0.211	0.113
-624.434	226.242	0.086	-0.140
-623.419	175.705	-0.352	0.515
-622.405	-34.906	-0.369	-0.203
-621.390	-153.974	-0.204	-0.014
-620.376	-2.286	0.180	-0.127
-619.361	800.000	-0.032	0.112
-618.346	800.000	0.152	-0.422
-617.332	34.582	0.112	-0.098
-616.317	59.771	-0.200	0.199
-615.303	100.439	-0.188	0.220
-614.288	299.267	0.033	-0.061
-613.273	800.000	0.065	0.190
-612.259	-147.051	-0.373	-0.032
-611.244	800.000	-0.057	-0.225
-610.230	-180.993	0.156	-0.003
-609.215	-93.906	-0.269	0.075
-608.201	-41.426	0.106	-0.055
-607.186	580.677	0.046	0.114
-606.171	193.746	-0.292	-0.446
-605.157	115.572	-0.139	-0.172
-604.142	-9.708	0.153	0.103
-603.128	379.961	-0.045	0.094
-602.113	800.000	0.051	0.190
-601.098	133.756	0.143	0.187
-600.084	241.493	-0.159	-0.268
-599.069	82.416	0.198	-0.216
-598.055	-17.760	-0.199	0.126
-597.040	-82.098	-0.125	0.041
-596.025	-95.968	0.238	0.064
-595.011	405.503	0.097	-0.205
-593.996	-93.921	-0.247	-0.068
-592.982	-106.004	-0.085	-0.019
-591.967	135.822	-0.215	0.283
-590.952	-158.969	0.398	-0.023
-589.938	617.982	0.184	-0.467
-588.923	583.512	-0.069	0.170
-587.909	-57.598	-0.391	-0.173
-586.894	73.759	-0.108	-0.114
-585.879	-200.000	0.034	0.249
-584.865	-200.000	0.082	0.000
-583.850	239.194	-0.254	-0.426
-582.836	102.173	0.286	0.336
-581.821	126.290	-0.055	-0.070
-580.806	114.282	-0.136	-0.167
-579.792	-172.256	0.364	-0.012
-578.777	3.143	-0.109	-0.080
-577.763	-200.000	-0.006	0.377
-576.748	800.000	-0.043	-0.161
-575.733	800.000	0.043	0.146
-574.719	122.041	0.089	-0.111
-573.704	-27.005	-0.494	-0.290
-572.690	-109.863	-0.108	0.023
-571.675	-163.981	0.018	0.001
-570.661	-32.069	0.248	-0.140
-569.646	-45.542	-0.170	0.085
-568.631	-200.000	-0.002	0.412
-567.617	215.729	0.152	0.243
-566.602	-200.000	-0.002	-0.259
-565.588	100.744	-0.209	0.245
-564.573	-102.603	0.642	-0.154
-563.558	800.000	-0.021	-0.087
-562.544	265.339	0.056	0.098
-561.529	-200.000	-0.060	-0.521
-560.515	-14.502	0.193	-0.125
-559.500	-104.979	0.239	0.055
-558.485	-23.387	-0.287	0.174
-557.471	-200.000	0.053	0.265
-556.456	-96.666	-0.338	0.090
-555.442	-200.000	0.000	-0.233
-554.427	167.813	0.064	-0.091
-553.412	74.167	0.289	0.305
-552.398	800.000	0.056	0.226
-551.383	188.748	-0.013	0.020
-550.369	-145.707	0.131	0.012
-549.354	-78.030	0.056	0.020
-548.339	-46.893	0.105	0.052
-547.325	-27.595	0.109	-0.064
-546.310	525.729	-0.165	-0.391
-545.296	-32.552	-0.052	0.029
-544.281	-156.717	-0.123	0.008
-543.266	-141.951	-0.110	0.011
-542.252	407.422	-0.093	-0.198
-541.237	152.875	-0.089	-0.122
-540.223	316.834	-0.086	0.164
-539.208	-110.134	-0.155	0.033
-538.193	800.000	0.043	-0.157
-537.179	653.335	-0.156	-0.402
-536.164	-200.000	-0.040	0.205
-535.150	-90.416	0.090	-0.026
-534.135	800.000	-0.028	-0.088
-533.121	-146.779	-0.058	0.005
-532.106	16.767	0.091	-0.072
-531.091	-48.513	-0.229	0.111
-530.077	-144.571	-0.293	-0.027
-529.062	-167.900	-0.151	-0.006
-528.048	618.987	-0.027	0.069
-527.033	800.000	-0.049	0.186
-526.018	-72.805	-0.160	-0.059
-525.004	-73.015	-0.250	0.092
-523.989	-19.342	-0.238	-0.149
-522.975	78.813	-0.281	0.303
-521.960	-200.000	-0.009	0.083
-520.945	153.094	-0.054	0.074
-519.931	46.241	0.113	-0.105
-518.916	716.770	0.032	0.085
-517.902	-89.793	-0.056	-0.016
-516.887	-116.242	0.260	-0.049
-515.872	6.426	0.046	0.034
-514.858	-74.900	0.283	-0.102
-513.843	800.000	-0.033	0.113
-512.829	-120.015	0.276	-0.047
-511.814	-200.000	-0.046	-0.216
-510.799	-200.000	-0.012	-0.055
-509.785	-67.611	0.348	-0.137
-508.770	15.722	-0.290	-0.229
-507.756	-32.015	0.035	-0.020
-506.741	148.752	0.165	-0.224
-505.726	-122.389	-0.240	0.039
-504.712	124.162	0.014	-0.017
-503.697	800.000	0.083	-0.255
-502.683	219.199	0.179	-0.287
-501.668	-108.333	-0.390	-0.084
-500.653	492.079	-0.160	0.369
-499.639	52.327	-0.277	0.265
-498.624	8.018	-0.093	-0.070
-497.610	-167.953	0.360	-0.014
-496.595	424.184	-0.071	-0.154
-495.581	71.482	0.267	-0.278
-494.566	-133.382	-0.307	0.039
-493.551	-118.447	-0.294	-0.052
-492.537	-60.862	0.178	-0.076
-491.522	-36.302	0.246	0.133
-490.508	74.377	-0.026	0.027
-489.493	-32.744	-0.145	-0.081
-488.478	-80.763	0.177	-0.059
-487.464	-42.880	-0.235	-0.120
-486.449	50.647	-0.129	0.123
-485.435	-158.621	-0.296	-0.017
-484.420	-200.000	-0.025	0.413
-483.405	118.352	-0.241	-0.299
-482.391	-78.235	-0.171	0.059
-481.376	-76.232	-0.079	-0.028
-480.362	152.721	0.099	0.136
-479.347	-12.833	0.266	-0.174
-478.332	-9.862	0.404	-0.270
-477.318	589.729	0.097	0.239
-476.303	-200.000	-0.021	-0.132
-475.289	-60.347	-0.313	0.134
-474.274	-105.616	0.558	-0.127
-473.259	800.000	-0.018	-0.052
-472.245	-161.647	0.339	-0.017
-471.230	-24.706	0.365	0.218
-470.216	-66.150	0.183	-0.073
-469.201	28.560	0.175	-0.148
-468.186	-43.367	0.161	-0.082
-467.172	108.296	0.032	0.039
-466.157	-13.690	-0.027	-0.017
-465.143	12.677	-0.245	0.189
-464.128	4.402	-0.121	0.089
-463.113	-65.963	-0.351	-0.141
-462.099	562.669	-0.076	-0.185
-461.084	-200.000	0.018	-0.158
-460.070	489.293	0.090	-0.205
-459.055	-41.544	-0.233	-0.120
-458.040	-98.932	-0.407	0.104
-457.026	156.387	0.330	-0.456
-456.011	-200.000	-0.023	0.387
-454.997	-152.288	0.355	-0.026
-453.982	-200.000	0.055	0.254
-452.968	800.000	0.032	-0.101
-451.953	84.628	-0.277	-0.304
-450.938	-74.329	-0.167	0.060
-449.924	415.489	-0.182	0.390
-448.909	354.003	-0.074	0.147
-447.895	-119.063	0.241	0.042
-446.880	-59.631	-0.211	0.091
-445.865	443.656	-0.115	-0.252
-444.851	291.682	-0.209	-0.381
-443.836	-66.538	0.055	0.022
-442.822	70.940	0.252	0.262
-441.807	-200.000	0.017	0.487
-440.792	-66.122	0.251	0.100
-439.778	109.127	-0.189	-0.227
-438.763	84.330	0.356	-0.390
-437.749	68.541	0.206	-0.212
-436.734	-52.059	-0.389	-0.181
-435.719	-109.989	0.230	0.048
-434.705	-46.539	-0.142	0.070
-433.690	-110.431	-0.198	-0.041
-432.676	666.125	-0.047	0.121
-431.661	498.451	-0.154	0.356
-430.646	-20.065	-0.312	0.193
-429.632	800.000	-0.071	0.225
-428.617	8.420	0.227	0.171
-427.603	800.000	-0.059	0.188
-426.588	252.741	0.159	-0.271
-425.573	217.273	0.078	-0.124
-424.559	-13.432	-0.329	-0.214
-423.544	-157.467	0.220	-0.013
-422.530	-85.587	-0.096	0.030
-421.515	800.000	0.006	-0.017
-420.500	-35.180	-0.263	0.143
-419.486	69.725	-0.010	-0.010
-418.471	800.000	-0.043	-0.189
-417.457	800.000	-0.057	0.238
-416.442	-24.522	0.194	0.116
-415.428	-200.000	0.028	0.232
-414.413	-9.146	0.105	-0.070
-413.398	-43.391	0.438	0.222
-412.384	-200.000	0.012	-0.147
-411.369	-131.917	-0.141	-0.018
-410.355	-200.000	-0.037	-0.307
-409.340	71.124	-0.050	0.051
-408.325	177.308	0.075	-0.109
-407.311	0.343	-0.257	0.184
-406.296	-100.713	-0.235	-0.058
-405.282	27.626	-0.261	-0.220
-404.267	800.000	0.077	-0.237
-403.252	-146.960	0.255	0.022
-402.238	800.000	0.047	0.196
-401.223	-200.000	-0.042	0.267
-400.209	800.000	0.013	0.057
-399.194	-200.000	0.246	0.000
-398.179	6.185	0.121	0.090
-397.165	167.042	0.069	0.098
-396.150	-200.000	-0.025	-0.215
-395.136	-24.432	-0.236	0.141
-394.121	-200.000	-0.018	0.140
-393.106	-200.000	0.066	0.406
-392.092	-3.601	0.199	0.138
-391.077	-200.000	0.023	0.170
-390.063	274.638	-0.059	0.104
-389.048	228.137	0.063	0.102
-388.033	-129.131	-0.249	0.035
-387.019	-200.000	0.294	-0.001
-386.004	-95.686	0.408	-0.109
-384.990	-51.559	-0.334	-0.156
-383.975	-48.423	0.134	0.065
-382.960	-185.643	-0.213	0.003
-381.946	-118.253	-0.188	0.033
-380.931	-200.000	-0.039	0.210
-379.917	-25.733	-0.141	0.083
-378.902	-49.082	0.186	-0.089
-377.888	42.490	-0.336	-0.305
-376.873	15.440	-0.162	0.127
-375.858	419.161	0.119	0.255
-374.844	347.616	0.060	-0.119
-373.829	24.792	0.178	-0.147
-372.815	-26.684	0.155	-0.091
-371.800	-123.508	-0.140	-0.022
-370.785	15.118	0.230	0.180
-369.771	-200.000	-0.020	-0.276
-368.756	-120.768	-0.226	-0.038
-367.742	-200.000	0.016	-0.180
-366.727	446.350	-0.187	0.411
-365.712	-41.035	0.198	-0.102
-364.698	-200.000	0.012	0.060
-363.683	-200.000	-0.005	-0.079
-362.669	-102.656	0.066	-0.016
-361.654	236.407	-0.120	0.198
-360.639	-79.323	-0.292	-0.099
-359.625	-41.829	0.200	-0.103
-358.610	260.140	0.097	-0.167
-357.596	88.144	0.074	-0.082
-356.581	246.430	0.035	-0.059
-355.566	255.250	-0.059	-0.101
-354.552	800.000	0.060	-0.209
-353.537	153.758	0.153	-0.209
-352.523	800.000	-0.123	0.420
-351.508	-102.046	0.226	0.054
-350.493	-200.000	0.033	-0.410
-349.479	-21.647	-0.127	-0.077
-348.464	-72.565	0.228	0.084
-347.450	-130.693	0.036	-0.005
-346.435	-200.000	-0.002	-0.256
-345.420	67.052	0.084	-0.086
-344.406	-47.860	0.302	-0.146
-343.391	-200.000	0.009	0.059
-342.377	491.570	-0.111	-0.254
-341.362	-200.000	-0.010	-0.147
-340.348	-0.462	0.120	0.085
-339.333	800.000	0.068	0.218
-338.318	554.726	-0.038	0.091
-337.304	-200.000	0.028	0.260
-336.289	90.247	0.066	-0.073
-335.275	-200.000	0.048	-0.368
-334.260	125.264	0.237	-0.298
-333.245	-75.147	-0.194	-0.069
-332.231	-131.743	0.250	0.033
-331.216	-104.242	0.361	-0.084
-330.202	-200.000	-0.001	0.096
-329.187	-168.798	-0.163	-0.006
-328.172	-200.000	-0.066	-0.323
-327.158	-192.865	-0.107	0.001
-326.143	-200.000	-0.032	-0.204
-325.129	-80.813	0.314	-0.104
-324.114	800.000	0.173	0.636
-323.099	-141.480	-0.332	0.033
-322.085	720.992	-0.137	-0.364
-321.070	-57.122	-0.103	0.045
-320.056	-31.563	-0.394	0.221
-319.041	-200.000	0.024	0.314
-318.026	-90.563	-0.118	-0.034
-317.012	316.203	0.117	-0.221
-315.997	88.523	-0.300	-0.333
-314.983	800.000	-0.034	0.111
-313.968	287.352	-0.102	0.184
-312.953	-133.700	-0.378	0.047
-311.939	800.000	0.062	-0.258
-310.924	800.000	0.042	-0.148
-309.910	123.705	0.195	0.244
-308.895	474.788	0.119	0.269
-307.880	339.844	0.073	-0.142
-306.866	115.972	0.139	0.170
-305.851	800.000	0.010	0.035
-304.837	26.411	0.019	-0.016
-303.822	800.000	-0.140	-0.408
-302.807	76.759	0.183	0.193
-301.793	-110.358	0.549	0.114
-300.778	214.290	0.196	0.309
-299.764	-10.457	-0.161	-0.106
-298.749	-181.790	-0.197	-0.004
-297.735	-127.577	0.252	-0.036
-296.720	-86.456	-0.232	-0.071
-295.705	-200.000	0.106	0.464
-294.691	561.554	0.056	-0.136
-293.676	-17.909	-0.137	-0.086
-292.662	-39.789	-0.149	0.078
-291.647	-47.269	0.370	0.180
-290.632	-158.689	0.175	-0.010
-289.618	326.288	0.044	-0.084
-288.603	-59.133	0.159	-0.068
-287.589	-116.712	0.179	-0.033
-286.574	-200.000	0.020	-0.184
-285.559	-200.000	0.036	0.279
-284.545	-200.000	0.028	0.250
-283.530	-55.880	-0.217	0.096
-282.516	-22.134	-0.112	-0.068
-281.501	-9.862	-0.268	0.177
-280.486	-200.000	-0.030	0.184
-279.472	776.588	-0.166	-0.452
-278.457	800.000	0.041	0.165
-277.443	108.575	-0.187	0.222
-276.428	-200.000	0.002	0.041
-275.413	800.000	0.051	-0.160
-274.399	169.032	-0.136	0.193
-273.384	704.939	-0.056	-0.146
-272.370	-94.358	0.234	-0.064
-271.355	-96.240	-0.145	0.038
-270.340	800.000	-0.069	0.287
-269.326	203.707	-0.176	0.272
-268.311	-200.000	0.034	-0.220
-267.297	697.029	0.048	-0.126
-266.282	248.304	0.045	-0.076
-265.267	176.342	-0.075	0.109
-264.253	-98.470	-0.163	-0.042
-263.238	-200.000	0.058	-0.503
-262.224	496.823	-0.157	0.360
-261.209	-74.824	-0.257	0.092
-260.195	7.520	0.248	-0.185
-259.180	-32.053	-0.155	-0.086
-258.165	-18.450	-0.241	-0.150
-257.151	-200.000	0.004	-0.062
-256.136	800.000	0.092	0.355
-255.122	-136.035	0.451	-0.053
-254.107	-143.708	-0.141	-0.013
-253.092	4.276	0.248	0.181
-252.078	800.000	0.107	0.306
-251.063	24.110	0.291	0.239
-250.049	251.538	0.123	0.208
-249.034	-55.361	0.201	-0.090
-248.019	-160.100	0.237	-0.013
-247.005	-200.000	-0.012	0.277
-245.990	800.000	0.056	-0.183
-244.976	684.089	-0.041	-0.105
-243.961	34.164	0.216	-0.188
-242.946	-120.175	0.410	0.070
-241.932	-200.000	-0.054	-0.293
-240.917	26.350	0.221	0.184
-239.903	-102.284	0.141	-0.034
-238.888	-200.000	0.029	-0.181
-237.873	-157.184	0.203	0.012
-236.859	319.395	-0.143	0.270
-235.844	-100.050	-0.097	-0.024
-234.830	-45.103	-0.073	-0.036
-233.815	-110.046	0.266	-0.055
-232.800	800.000	-0.072	0.259
-231.786	-200.000	-0.073	-0.395
-230.771	-81.463	0.200	-0.066
-229.757	-200.000	0.003	-0.164
-228.742	201.480	0.149	-0.228
-227.727	-89.586	0.077	0.022
-226.713	82.835	-0.166	-0.180
-225.698	-200.000	-0.003	-0.069
-224.684	617.340	-0.124	-0.310
-223.669	800.000	-0.083	0.249
-222.655	-175.340	-0.308	0.008
-221.640	-200.000	-0.010	-0.085
-220.625	-25.957	0.182	-0.107
-219.611	-200.000	-0.058	0.369
-218.596	800.000	-0.003	0.011
-217.582	32.976	0.217	0.187
-216.567	473.593	0.094	0.211
-215.552	-110.944	0.172	-0.035
-214.538	-166.928	-0.496	-0.020
-213.523	-140.209	0.214	0.022
-212.509	-200.000	-0.055	0.292
-211.494	-110.272	0.195	-0.040
-210.479	-40.710	-0.068	-0.035
-209.465	-42.730	-0.096	0.049
-208.450	-200.000	0.025	0.232
-207.436	-131.154	0.084	-0.011
-206.421	-17.077	0.092	0.058
-205.406	-116.488	-0.203	0.037
-204.392	-59.204	-0.154	-0.066
-203.377	-200.000	-0.005	0.218
-202.363	289.350	-0.081	0.145
-201.348	-200.000	0.004	0.064
-200.333	-47.363	0.208	-0.100
-199.319	-71.174	0.127	-0.048
-198.304	306.454	-0.057	-0.106
-197.290	42.933	0.162	-0.147
-196.275	0.740	-0.014	-0.010
-195.260	-104.859	-0.141	-0.032
-194.246	422.892	-0.102	-0.218
-193.231	800.000	0.064	0.277
-192.217	344.762	0.109	0.212
-191.202	329.188	0.024	-0.045
-190.187	365.321	0.069	-0.137
-189.173	-200.000	0.000	0.154
-188.158	-200.000	-0.024	-0.214
-187.144	12.466	0.383	0.293
-186.129	-31.183	0.214	-0.119
-185.114	-111.238	-0.291	0.059
-184.100	-57.705	0.131	0.057
-183.085	465.871	-0.010	-0.022
-182.071	-163.383	0.220	-0.010
-181.056	-200.000	0.014	0.379
-180.042	-196.827	-0.198	0.001
-179.027	123.037	0.070	-0.087
-178.012	-96.351	0.152	-0.040
-176.998	-200.000	-0.030	0.137
-175.983	377.304	0.183	0.372
-174.969	-117.387	-0.228	-0.041
-173.954	-69.737	0.082	-0.031
-172.939	-200.000	-0.023	-0.197
-171.925	97.734	-0.194	0.222
-170.910	65.800	0.030	0.030
-169.896	163.964	-0.081	0.113
-168.881	284.865	-0.128	0.229
-167.866	-54.164	-0.282	-0.127
-166.852	-58.312	-0.089	-0.038
-165.837	-116.059	-0.455	0.084
-164.823	-4.684	0.311	-0.213
-163.808	504.365	-0.089	0.204
-162.793	293.698	-0.064	0.115
-161.779	-15.309	0.122	-0.077
-160.764	-164.432	0.238	0.011
-159.750	-52.525	-0.043	-0.020
-158.735	-200.000	0.026	-0.117
-157.720	197.976	0.015	-0.022
-156.706	78.476	0.083	-0.088
-155.691	208.333	0.112	0.174
-154.677	-53.722	-0.193	-0.087
-153.662	93.595	0.032	-0.036
-152.647	-200.000	0.033	0.171
-151.633	88.435	0.191	-0.210
-150.618	-118.363	0.349	-0.061
-149.604	-200.000	0.007	0.052
-148.589	-200.000	-0.010	0.053
-147.574	-41.351	-0.210	-0.107
-146.560	800.000	0.027	0.087
-145.545	-200.000	-0.000	-0.035
-144.531	427.797	0.140	0.299
-143.516	281.073	-0.147	0.261
-142.502	75.491	-0.172	0.180
-141.487	-200.000	0.017	0.174
-140.472	-11.350	-0.084	-0.054
-139.458	-168.428	-0.376	-0.014
-138.443	-99.539	-0.081	0.020
-137.429	-200.000	0.045	0.295
-136.414	50.840	-0.151	-0.142
-135.399	386.676	-0.073	0.150
-134.385	-11.933	0.118	-0.077
-133.370	201.537	-0.246	0.375
-132.356	-74.655	-0.202	0.072
-131.341	493.507	0.018	-0.040
-130.326	470.492	0.069	-0.154
-129.312	-200.000	0.007	0.198
-128.297	-108.194	0.041	-0.009
-127.283	-200.000	-0.010	0.197
-126.268	-179.139	0.184	-0.004
-125.253	-179.279	-0.184	-0.004
-124.239	148.773	0.081	0.109
-123.224	800.000	-0.010	0.038
