DTS Sentinel unit serial number:	SN413079Multiplexer serial number:	ORYXHardware model number:	OX4-SRSoftware version number:	ORYX F/W v4.00 Oryx Data Collector v3.7.2.0data status	okinstallation	princeton_trtdifferential loss correction	single-endedforward channel	channel 3reverse channel	N/Adate	2019/09/12time	07:30:11forward acquisition time	60.00reverse acquisition time	0.00gamma	496.2192k internal	0.2317k external	0.2317temperature offset calibration	1.0032default loss term (dB/km)	0.3790temperature slope calibration	1.0000multiplexer offset coefficient	1.0000multiplexer slope coefficient	1.0000fibre end	0.00T internal ref (°C)	32.50T ext. ref 1 (°C)	1.62T ext. ref 2 (°C)	29.08length (m)	temperature (°C)	Stokes	anti-Stokes-747.200	-6.097	-0.416	-0.288
-746.185	-29.713	0.181	-0.105
-745.171	-200.000	-0.034	0.156
-744.156	56.771	-0.191	0.188
-743.142	231.330	0.129	0.214
-742.127	-6.193	-0.075	0.052
-741.112	334.456	-0.090	0.176
-740.098	-53.058	-0.142	0.066
-739.083	-56.110	-0.040	-0.018
-738.069	-200.000	0.004	0.227
-737.054	-200.000	0.000	-0.120
-736.039	60.180	-0.219	-0.219
-735.025	40.798	0.294	0.269
-734.010	-86.052	-0.123	-0.038
-732.996	451.090	0.110	0.245
-731.981	-183.879	-0.201	-0.003
-730.966	-200.000	-0.090	0.495
-729.952	40.569	-0.118	0.108
-728.937	-43.579	-0.300	-0.153
-727.923	-125.358	-0.189	0.029
-726.908	-85.848	-0.021	0.007
-725.894	-24.316	-0.223	-0.135
-724.879	257.955	0.134	-0.232
-723.864	-154.748	0.341	-0.023
-722.850	-172.653	-0.540	0.017
-721.835	348.740	0.160	0.319
-720.821	800.000	0.043	0.178
-719.806	800.000	-0.140	-0.409
-718.791	-125.826	-0.301	-0.046
-717.777	33.481	-0.231	-0.203
-716.762	-200.000	-0.145	-0.670
-715.748	14.597	-0.107	-0.085
-714.733	60.346	0.200	-0.200
-713.718	-200.000	0.008	-0.131
-712.704	-8.444	-0.133	0.091
-711.689	-40.714	-0.048	0.025
-710.675	-76.496	0.279	0.099
-709.660	-122.198	0.162	-0.027
-708.645	-90.147	-0.093	0.027
-707.631	-130.725	0.346	-0.047
-706.616	-28.140	0.227	-0.133
-705.602	-29.548	-0.288	0.167
-704.587	-113.711	-0.302	-0.059
-703.572	63.884	-0.084	-0.086
-702.558	301.094	0.043	0.080
-701.543	800.000	-0.063	0.256
-700.529	-0.312	0.227	0.163
-699.514	-78.884	0.153	-0.053
-698.499	800.000	-0.101	0.290
-697.485	152.270	-0.104	0.143
-696.470	800.000	0.063	0.210
-695.456	-44.016	0.152	0.077
-694.441	81.667	0.052	-0.057
-693.426	-165.368	0.382	-0.017
-692.412	-24.540	-0.423	-0.254
-691.397	132.676	-0.189	-0.247
-690.383	135.115	0.193	0.254
-689.368	-69.478	-0.321	-0.124
-688.354	-200.000	0.064	-0.388
-687.339	-134.280	0.315	-0.039
-686.324	-28.946	-0.269	0.156
-685.310	98.932	-0.060	0.069
-684.295	-200.000	0.019	0.245
-683.281	-115.155	0.254	0.049
-682.266	-88.189	-0.060	-0.018
-681.251	-87.607	-0.248	0.076
-680.237	-139.853	-0.220	0.024
-679.222	128.073	-0.160	-0.206
-678.208	-12.795	0.252	-0.166
-677.193	-36.419	0.101	0.055
-676.178	552.221	-0.053	0.129
-675.164	118.416	0.103	0.129
-674.149	363.264	0.076	0.154
-673.135	-8.244	-0.338	-0.230
-672.120	188.996	0.148	-0.224
-671.105	73.526	0.006	-0.006
-670.091	-190.532	0.209	-0.002
-669.076	506.103	0.036	0.085
-668.062	-119.104	0.347	-0.061
-667.047	338.577	0.194	0.382
-666.032	-177.970	0.238	0.006
-665.018	-136.177	-0.050	-0.006
-664.003	-119.258	-0.363	0.064
-662.989	268.427	-0.018	0.032
-661.974	27.431	0.067	0.057
-660.959	-200.000	-0.002	-0.132
-659.945	154.731	-0.103	-0.143
-658.930	-106.923	0.110	0.024
-657.916	613.258	-0.096	0.242
-656.901	7.000	-0.107	0.081
-655.886	202.616	-0.261	0.406
-654.872	69.146	0.100	0.103
-653.857	-167.221	0.075	0.003
-652.843	-107.071	-0.130	0.029
-651.828	-110.079	0.317	-0.067
-650.814	-106.285	-0.100	0.023
-649.799	-1.499	0.185	0.132
-648.784	-110.275	0.059	-0.012
-647.770	385.733	-0.163	0.339
-646.755	-7.819	0.287	0.196
-645.741	168.553	-0.103	0.149
-644.726	-125.459	-0.166	-0.025
-643.711	426.147	0.164	0.357
-642.697	267.724	0.116	0.204
-641.682	800.000	-0.132	-0.453
-640.668	-12.308	-0.197	0.130
-639.653	800.000	0.019	-0.068
-638.638	-128.836	-0.157	0.022
-637.624	-200.000	0.040	0.262
-636.609	118.204	-0.228	-0.283
-635.595	800.000	-0.056	0.161
-634.580	48.528	0.226	-0.213
-633.565	734.537	0.088	-0.237
-632.551	-97.621	0.047	0.012
-631.536	-141.319	0.203	-0.021
-630.522	-200.000	-0.011	0.053
-629.507	-21.976	-0.206	0.126
-628.492	-122.135	-0.118	-0.019
-627.478	-200.000	0.019	-0.129
-626.463	95.116	0.100	0.114
-625.449	121.883	-0.131	0.164
-624.434	-24.355	0.096	0.058
-623.419	-31.340	-0.184	0.105
-622.405	184.915	-0.049	0.073
-621.390	-200.000	-0.045	-0.199
-620.376	182.885	-0.143	-0.212
-619.361	-43.842	-0.087	-0.044
-618.346	-125.936	0.163	0.025
-617.332	800.000	-0.009	0.035
-616.317	42.897	-0.112	-0.103
-615.303	52.270	-0.249	-0.239
-614.288	-135.108	0.130	-0.016
-613.273	-20.371	-0.103	-0.064
-612.259	657.990	-0.076	-0.198
-611.244	370.298	-0.078	-0.160
-610.230	-24.174	0.169	0.102
-609.215	64.846	0.080	-0.081
-608.201	157.864	-0.100	0.139
-607.186	24.207	-0.127	-0.106
-606.171	-44.637	-0.380	-0.191
-605.157	-86.079	-0.164	-0.051
-604.142	-200.000	0.044	-0.216
-603.128	454.454	-0.096	-0.213
-602.113	-200.000	0.003	0.026
-601.098	-200.000	0.017	0.263
-600.084	-18.828	-0.170	-0.106
-599.069	800.000	0.018	-0.076
-598.055	-99.001	-0.109	-0.028
-597.040	-200.000	-0.007	0.130
-596.025	485.096	0.068	0.155
-595.011	45.160	0.085	-0.078
-593.996	-49.152	0.186	0.090
-592.982	403.120	-0.071	0.150
-591.967	-22.233	0.184	0.112
-590.952	-200.000	-0.005	0.107
-589.938	-7.230	0.120	-0.082
-588.923	393.858	-0.046	-0.096
-587.909	147.867	-0.132	0.179
-586.894	-118.376	-0.113	0.020
-585.879	-16.879	-0.106	-0.067
-584.865	-200.000	-0.010	0.066
-583.850	-200.000	0.024	0.194
-582.836	-200.000	0.072	0.512
-581.821	11.175	0.043	0.033
-580.806	-91.478	-0.153	-0.044
-579.792	282.961	-0.222	-0.400
-578.777	-117.246	0.217	0.040
-577.763	66.483	0.365	0.373
-576.748	144.320	-0.098	0.132
-575.733	-200.000	0.080	-0.367
-574.719	-155.622	-0.213	0.014
-573.704	-200.000	0.080	-0.395
-572.690	462.798	0.100	0.224
-571.675	-200.000	0.038	-0.262
-570.661	65.827	0.060	-0.062
-569.646	440.162	-0.134	0.295
-568.631	687.164	-0.062	0.162
-567.617	149.276	0.180	-0.245
-566.602	-200.000	0.033	-0.351
-565.588	-55.584	0.112	0.050
-564.573	800.000	-0.082	-0.322
-563.558	800.000	0.068	0.189
-562.544	-49.263	-0.278	-0.134
-561.529	171.115	0.110	0.159
-560.515	800.000	0.088	0.290
-559.500	164.282	0.045	-0.064
-558.485	90.086	0.191	-0.215
-557.471	-161.336	-0.262	0.014
-556.456	800.000	0.050	-0.163
-555.442	-13.757	-0.235	-0.152
-554.427	57.486	0.098	-0.097
-553.412	-47.807	-0.055	-0.027
-552.398	-19.108	-0.090	-0.056
-551.383	-125.835	0.227	0.034
-550.369	63.511	-0.035	-0.035
-549.354	629.187	-0.044	0.113
-548.339	98.677	0.222	-0.257
-547.325	3.516	0.354	-0.259
-546.310	-169.836	0.112	-0.004
-545.296	84.012	-0.171	-0.188
-544.281	120.758	0.155	-0.194
-543.266	-96.432	0.229	0.061
-542.252	91.610	0.147	0.166
-541.237	-24.211	-0.214	0.129
-540.223	-22.263	0.313	0.191
-539.208	-126.768	-0.317	-0.047
-538.193	-80.001	-0.126	0.042
-537.179	-200.000	0.072	0.373
-536.164	-76.165	0.180	0.064
-535.150	-130.363	0.277	0.038
-534.135	-200.000	-0.003	-0.162
-533.121	-8.607	-0.187	-0.126
-532.106	-200.000	-0.039	0.178
-531.091	-200.000	0.021	0.121
-530.077	-94.992	0.260	0.070
-529.062	145.634	0.167	0.224
-528.048	-54.225	-0.105	0.048
-527.033	85.708	0.141	-0.156
-526.018	-107.222	0.060	0.013
-525.004	94.665	-0.309	0.353
-523.989	537.306	0.073	0.175
-522.975	44.673	0.227	0.210
-521.960	-200.000	-0.002	-0.089
-520.945	-200.000	-0.028	-0.295
-519.931	-88.607	-0.257	0.077
-518.916	-26.376	-0.276	-0.162
-517.902	-84.993	-0.302	-0.095
-516.887	30.575	0.272	0.233
-515.872	336.277	-0.038	-0.074
-514.858	-200.000	-0.001	0.177
-513.843	-72.894	-0.111	-0.041
-512.829	-26.231	-0.023	0.013
-511.814	84.288	-0.183	0.201
-510.799	324.846	0.186	0.356
-509.785	-125.550	-0.214	0.033
-508.770	-64.581	0.118	-0.048
-507.756	-200.000	-0.003	-0.100
-506.741	-46.319	0.164	-0.081
-505.726	225.032	0.115	-0.187
-504.712	25.661	-0.317	0.265
-503.697	-70.882	0.230	0.087
-502.683	689.482	-0.060	-0.158
-501.668	711.562	0.047	0.124
-500.653	676.865	-0.138	-0.359
-499.639	-83.306	0.170	0.055
-498.624	-8.955	0.110	-0.074
-497.610	-6.875	-0.235	-0.160
-496.595	800.000	-0.130	-0.564
-495.581	-114.099	-0.293	0.057
-494.566	-59.541	-0.535	0.230
-493.551	130.446	-0.150	-0.192
-492.537	-46.450	-0.259	0.127
-491.522	274.953	0.133	0.236
-490.508	800.000	-0.070	0.233
-489.493	800.000	0.056	-0.180
-488.478	-69.692	0.047	-0.018
-487.464	45.813	0.013	-0.012
-486.449	117.452	0.046	-0.057
-485.435	-108.595	0.147	0.032
-484.420	-27.775	-0.309	-0.180
-483.405	-60.435	-0.147	-0.063
-482.391	-92.536	-0.307	0.087
-481.376	206.318	0.127	-0.198
-480.362	-159.321	-0.085	-0.005
-479.347	-125.288	0.207	-0.032
-478.332	-114.381	0.155	0.030
-477.318	303.408	0.067	0.124
-476.303	-137.831	0.232	-0.026
-475.289	-200.000	-0.014	0.086
-474.274	800.000	0.088	-0.291
-473.259	0.672	-0.294	-0.211
-472.245	-75.936	0.289	-0.103
-471.230	-50.062	0.229	0.108
-470.216	-60.205	-0.139	-0.059
-469.201	800.000	0.101	0.320
-468.186	571.750	0.034	0.082
-467.172	80.676	0.146	0.158
-466.157	301.155	0.084	0.154
-465.143	-200.000	-0.068	0.346
-464.128	-42.217	0.164	0.084
-463.113	242.439	-0.080	0.134
-462.099	800.000	0.048	-0.184
-461.084	-111.700	0.155	-0.031
-460.070	-20.892	-0.223	0.137
-459.055	434.670	-0.075	-0.164
-458.040	-73.635	-0.267	-0.097
-457.026	161.612	0.240	-0.337
-456.011	-149.701	0.290	0.023
-454.997	-16.849	0.315	-0.199
-453.982	182.405	-0.131	-0.193
-452.968	-23.652	0.117	0.070
-451.953	283.292	-0.129	0.231
-450.938	-110.321	-0.216	0.045
-449.924	-65.374	0.181	-0.073
-448.909	-55.140	-0.260	0.117
-447.895	-139.308	-0.218	-0.023
-446.880	63.847	-0.131	-0.131
-445.865	183.351	-0.059	-0.087
-444.851	-200.000	-0.027	0.150
-443.836	-177.200	0.458	0.011
-442.822	-75.313	0.154	-0.055
-441.807	123.889	-0.263	0.330
-440.792	-200.000	0.028	-0.217
-439.778	800.000	0.109	-0.411
-438.763	54.875	-0.147	-0.142
-437.749	51.940	-0.059	-0.056
-436.734	11.899	-0.144	-0.110
-435.719	112.137	-0.204	-0.247
-434.705	285.593	0.175	-0.315
-433.690	-200.000	-0.004	0.043
-432.676	800.000	0.092	0.329
-431.661	-8.536	0.192	-0.129
-430.646	-200.000	0.042	0.303
-429.632	-106.321	0.281	0.063
-428.617	16.826	0.337	-0.267
-427.603	492.787	-0.149	0.342
-426.588	238.172	-0.067	-0.112
-425.573	-71.781	-0.233	-0.087
-424.559	-5.259	-0.244	-0.168
-423.544	131.206	-0.225	0.288
-422.530	60.905	0.218	-0.216
-421.515	-200.000	-0.024	-0.289
-420.500	-7.188	0.268	0.181
-419.486	-8.591	0.282	-0.189
-418.471	405.512	-0.240	0.506
-417.457	150.775	-0.149	0.203
-416.442	-75.693	0.022	0.008
-415.428	800.000	0.036	0.133
-414.413	-16.517	-0.208	0.131
-413.398	204.925	-0.180	0.279
-412.384	-149.271	0.092	0.007
-411.369	-146.407	0.141	0.012
-410.355	-37.141	0.202	0.108
-409.340	-36.699	0.100	0.054
-408.325	-170.387	0.206	0.007
-407.311	-40.779	0.122	-0.063
-406.296	640.075	0.137	-0.347
-405.282	-200.000	0.001	-0.073
-404.267	782.359	-0.070	-0.190
-403.252	-200.000	-0.007	0.313
-402.238	-200.000	0.033	-0.172
-401.223	-200.000	0.023	0.138
-400.209	-114.530	0.184	-0.035
-399.194	444.762	0.133	0.291
-398.179	0.986	-0.134	0.096
-397.165	227.162	-0.050	0.081
-396.150	9.325	0.159	-0.120
-395.136	0.606	-0.204	0.146
-394.121	778.622	-0.076	-0.207
-393.106	-200.000	-0.095	-0.459
-392.092	-61.796	-0.134	-0.056
-391.077	-133.389	0.269	0.034
-390.063	800.000	-0.052	-0.201
-389.048	71.533	-0.153	-0.159
-388.033	-134.984	0.461	-0.056
-387.019	-72.352	-0.129	-0.048
-386.004	1.637	-0.217	0.156
-384.990	-200.000	-0.041	0.194
-383.975	788.271	-0.006	-0.016
-382.960	377.089	-0.109	0.222
-381.946	800.000	0.115	0.328
-380.931	-181.926	-0.538	0.010
-379.917	-132.476	-0.221	-0.028
-378.902	-200.000	-0.010	0.150
-377.888	-110.607	-0.164	0.034
-376.873	98.674	0.046	0.053
-375.858	-51.419	0.208	0.097
-374.844	-4.864	0.202	0.139
-373.829	800.000	-0.022	-0.087
-372.815	604.733	0.055	-0.137
-371.800	-200.000	-0.015	0.214
-370.785	-154.656	0.176	0.012
-369.771	124.895	-0.075	0.095
-368.756	-49.403	-0.161	0.077
-367.742	800.000	-0.049	0.200
-366.727	-136.750	-0.125	0.014
-365.712	800.000	0.034	0.127
-364.698	-32.960	0.078	0.043
-363.683	25.001	-0.212	0.176
-362.669	2.448	0.070	0.051
-361.654	-200.000	0.070	0.461
-360.639	-200.000	-0.020	-0.188
-359.625	56.700	-0.319	-0.310
-358.610	178.088	-0.020	-0.029
-357.596	-97.518	-0.111	-0.029
-356.581	-200.000	0.001	-0.077
-355.566	46.669	-0.068	-0.063
-354.552	69.902	-0.210	-0.216
-353.537	147.549	0.225	-0.303
-352.523	70.851	0.102	-0.106
-351.508	314.376	0.061	0.114
-350.493	86.909	-0.161	0.178
-349.479	60.453	0.135	0.133
-348.464	140.600	0.099	-0.130
-347.450	-32.485	-0.241	0.134
-346.435	800.000	-0.019	0.080
-345.420	360.941	-0.024	-0.048
-344.406	-3.122	0.071	-0.049
-343.391	194.892	-0.154	0.232
-342.377	294.946	-0.109	-0.199
-341.362	-79.260	0.271	0.092
-340.348	-200.000	-0.143	-0.001
-339.333	-47.421	-0.264	-0.128
-338.318	-200.000	-0.008	-0.081
-337.304	-159.600	-0.326	-0.018
-336.289	-100.598	-0.185	-0.045
-335.275	168.833	-0.125	0.178
-334.260	350.179	-0.073	-0.143
-333.245	800.000	0.044	0.151
-332.231	-27.967	0.045	0.026
-331.216	160.021	0.234	0.325
-330.202	800.000	-0.099	0.333
-329.187	152.597	0.085	0.115
-328.172	-11.372	0.104	-0.068
-327.158	-200.000	0.000	0.149
-326.143	-79.222	-0.217	0.073
-325.129	433.158	-0.111	0.240
-324.114	-200.000	0.012	0.150
-323.099	-87.391	0.065	0.020
-322.085	-200.000	-0.044	-0.233
-321.070	210.862	0.055	-0.086
-320.056	149.616	-0.098	0.132
-319.041	-200.000	0.058	0.284
-318.026	-162.954	0.182	-0.009
-317.012	158.243	-0.090	0.124
-315.997	8.706	-0.183	-0.138
-314.983	347.591	0.112	0.220
-313.968	87.422	0.374	0.412
-312.953	-200.000	-0.040	0.223
-311.939	-86.274	-0.060	-0.018
-310.924	38.829	-0.132	-0.118
-309.910	-200.000	-0.001	0.191
-308.895	800.000	-0.038	0.155
-307.880	-200.000	-0.027	0.342
-306.866	1.391	-0.136	-0.097
-305.851	-145.675	0.411	-0.037
-304.837	-125.775	-0.113	-0.017
-303.822	125.477	0.036	-0.045
-302.807	-130.926	0.242	0.032
-301.793	-34.847	0.105	-0.057
-300.778	-42.629	-0.365	0.185
-299.764	-200.000	0.042	0.329
-298.749	608.264	-0.074	-0.184
-297.735	-30.736	0.346	-0.194
-296.720	107.730	-0.240	-0.284
-295.705	-200.000	-0.060	-0.305
-294.691	-129.138	0.435	-0.060
-293.676	800.000	-0.077	0.224
-292.662	299.129	0.220	-0.403
-291.647	148.647	-0.155	0.208
-290.632	112.254	-0.185	0.222
-289.618	-39.557	-0.312	0.163
-288.603	-49.343	0.386	0.183
-287.589	-200.000	0.053	0.336
-286.574	142.982	-0.043	-0.057
-285.559	115.011	0.160	-0.194
-284.545	800.000	-0.121	0.352
-283.530	-8.169	-0.170	-0.114
-282.516	-42.643	0.083	0.042
-281.501	187.572	0.181	0.269
-280.486	403.172	0.123	0.257
-279.472	146.106	0.178	-0.238
-278.457	110.774	0.133	0.160
-277.443	-200.000	-0.065	0.538
-276.428	268.702	-0.088	-0.154
-275.413	-129.067	0.189	-0.026
-274.399	-41.695	-0.357	0.182
-273.384	-152.742	-0.147	-0.010
-272.370	-69.933	-0.287	-0.109
-271.355	-100.428	0.237	0.058
-270.340	55.906	0.292	-0.281
-269.326	34.537	0.327	-0.284
-268.311	-76.879	-0.153	-0.053
-267.297	16.336	-0.104	0.082
-266.282	98.993	0.184	-0.211
-265.267	-0.887	0.108	-0.076
-264.253	47.590	-0.081	0.075
-263.238	-200.000	0.019	-0.169
-262.224	-16.852	-0.112	0.071
-261.209	-48.561	-0.172	0.082
-260.195	407.987	0.099	-0.208
-259.180	-68.505	-0.082	0.032
-258.165	-200.000	-0.016	-0.177
-257.151	-66.333	-0.111	-0.044
-256.136	-118.369	0.360	-0.063
-255.122	-68.030	-0.234	-0.091
-254.107	-96.255	0.361	-0.095
-253.092	-155.997	-0.360	0.023
-252.078	-129.371	-0.134	-0.018
-251.063	-126.193	0.060	-0.009
-250.049	-200.000	-0.020	-0.199
-249.034	-123.525	-0.348	-0.055
-248.019	-200.000	-0.063	-0.321
-247.005	183.320	-0.101	-0.148
-245.990	17.876	-0.142	0.112
-244.976	79.468	-0.220	-0.234
-243.961	800.000	0.088	-0.326
-242.946	278.858	0.164	-0.291
-241.932	688.406	-0.140	-0.364
-240.917	62.585	-0.130	-0.129
-239.903	800.000	-0.048	-0.134
-238.888	-59.141	-0.475	-0.203
-237.873	136.259	0.160	-0.208
-236.859	-40.367	-0.119	0.061
-235.844	174.908	0.095	-0.136
-234.830	106.172	-0.102	0.120
-233.815	28.131	0.251	-0.211
-232.800	1.381	0.118	0.084
-231.786	15.657	0.068	0.053
-230.771	-200.000	-0.047	0.236
-229.757	-54.185	-0.117	-0.053
-228.742	-41.009	-0.208	0.106
-227.727	-18.528	-0.224	-0.139
-226.713	-200.000	0.020	0.123
-225.698	94.187	-0.157	0.177
-224.684	117.570	0.150	0.183
-223.669	-200.000	0.038	0.335
-222.655	-200.000	-0.034	-0.156
-221.640	622.731	0.157	-0.393
-220.625	-200.000	0.007	0.059
-219.611	285.585	0.079	-0.141
-218.596	-17.700	-0.151	-0.094
-217.582	274.258	0.098	0.172
-216.567	49.215	0.201	0.188
-215.552	-104.878	0.407	-0.093
-214.538	800.000	-0.152	-0.431
-213.523	42.138	-0.056	0.051
-212.509	67.900	0.099	-0.100
-211.494	-11.409	0.056	0.037
-210.479	-42.061	0.340	0.173
-209.465	-200.000	0.019	0.138
-208.450	282.814	-0.160	0.285
-207.436	-96.529	-0.313	-0.082
-206.421	571.143	-0.139	-0.335
-205.406	-173.336	0.135	-0.004
-204.392	-194.941	0.405	0.003
-203.377	-200.000	0.017	0.126
-202.363	70.881	0.137	-0.140
-201.348	287.680	-0.073	-0.130
-200.333	800.000	-0.050	-0.207
-199.319	-200.000	0.006	0.140
-198.304	103.296	0.223	0.259
-197.290	95.180	0.091	0.103
-196.275	-88.295	0.112	0.033
-195.260	-34.252	-0.283	-0.154
-194.246	440.354	0.067	-0.145
-193.231	800.000	-0.142	0.477
-192.217	800.000	-0.052	-0.151
-191.202	-112.203	-0.176	-0.035
-190.187	-61.713	-0.110	-0.046
-189.173	-194.858	-0.341	0.003
-188.158	-76.920	-0.082	-0.029
-187.144	-200.000	0.004	-0.181
-186.129	-116.456	0.080	-0.015
-185.114	600.499	0.153	-0.375
-184.100	86.874	0.403	0.441
-183.085	-165.090	0.201	0.009
-182.071	800.000	0.025	-0.078
-181.056	17.706	0.078	0.062
-180.042	63.881	-0.251	-0.250
-179.027	800.000	0.092	-0.263
-178.012	-48.266	0.256	-0.122
-176.998	-200.000	-0.005	0.145
-175.983	-151.953	-0.185	-0.013
-174.969	169.243	0.068	-0.096
-173.954	131.094	0.343	-0.436
-172.939	-200.000	-0.033	0.147
-171.925	800.000	-0.035	0.138
-170.910	-200.000	0.026	-0.168
-169.896	-51.453	-0.173	0.080
-168.881	-82.943	0.128	-0.041
-167.866	50.628	0.272	0.255
-166.852	96.746	-0.038	-0.043
-165.837	88.908	0.217	0.239
-164.823	-27.544	-0.105	-0.060
-163.808	-10.466	0.339	-0.222
-162.793	-40.137	-0.030	-0.015
-161.779	556.152	-0.057	0.135
-160.764	6.018	0.184	-0.135
-159.750	196.939	0.196	-0.295
-158.735	-200.000	-0.030	0.132
-157.720	-200.000	-0.027	-0.120
-156.706	101.071	0.106	0.122
-155.691	110.527	-0.047	-0.056
-154.677	-1.781	0.073	-0.051
-153.662	61.132	0.182	-0.178
-152.647	-100.435	-0.200	-0.049
-151.633	-134.561	0.465	-0.056
-150.618	715.714	-0.100	0.263
-149.604	800.000	-0.102	0.303
-148.589	420.659	0.069	-0.146
-147.574	44.165	0.182	-0.165
-146.560	-75.278	0.259	0.091
-145.545	130.666	0.116	0.147
-144.531	-65.171	-0.111	-0.044
-143.516	564.427	0.092	0.221
-142.502	2.164	-0.169	-0.121
-141.487	-72.855	-0.217	0.079
-140.472	-93.601	0.194	0.053
-139.458	-115.231	-0.345	-0.065
-138.443	-200.000	0.049	-0.224
-137.429	126.889	-0.107	0.134
-136.414	155.989	0.209	0.285
-135.399	-200.000	0.014	-0.289
-134.385	-112.589	-0.492	0.097
-133.370	-82.986	-0.184	-0.059
-132.356	-200.000	0.049	-0.302
-131.341	-6.583	-0.163	-0.109
-130.326	-37.827	0.188	-0.099
-129.312	20.561	-0.345	-0.276
-128.297	137.866	0.072	0.093
-127.283	164.738	-0.174	0.242
-126.268	651.124	-0.129	0.327
-125.253	-155.280	0.150	-0.010
-124.239	-60.248	-0.102	-0.043
-123.224	729.534	0.055	0.144
-122.210	-24.729	0.074	0.043
-121.195	-130.336	-0.452	-0.061
