DTS Sentinel unit serial number:	SN413079Multiplexer serial number:	ORYXHardware model number:	OX4-SRSoftware version number:	ORYX F/W v4.00 Oryx Data Collector v3.7.2.0data status	okinstallation	princeton_trtdifferential loss correction	single-endedforward channel	channel 3reverse channel	N/Adate	2019/09/10time	21:42:10forward acquisition time	60.00reverse acquisition time	0.00gamma	496.2192k internal	0.2329k external	0.2329temperature offset calibration	0.9918default loss term (dB/km)	0.3790temperature slope calibration	1.0000multiplexer offset coefficient	1.0000multiplexer slope coefficient	1.0000fibre end	0.00T internal ref (°C)	30.94T ext. ref 1 (°C)	-0.31T ext. ref 2 (°C)	24.36length (m)	temperature (°C)	Stokes	anti-Stokes-747.200	-200.000	-0.015	0.123
-746.185	213.430	-0.032	0.052
-745.171	30.332	0.111	0.096
-744.156	-6.269	-0.329	0.226
-743.142	40.599	0.087	-0.079
-742.127	-148.999	-0.285	-0.023
-741.112	-200.000	0.001	-0.426
-740.098	180.933	-0.292	0.432
-739.083	-23.905	0.110	-0.066
-738.069	-3.614	0.099	0.069
-737.054	-53.149	0.390	-0.180
-736.039	-26.365	-0.328	0.194
-735.025	-154.239	0.070	0.005
-734.010	-200.000	-0.003	-0.280
-732.996	40.898	0.073	-0.066
-731.981	-129.737	-0.300	-0.042
-730.966	800.000	-0.091	-0.326
-729.952	255.393	0.090	-0.155
-728.937	-20.834	-0.246	-0.152
-727.923	-19.267	-0.333	-0.208
-726.908	-200.000	-0.026	-0.300
-725.894	800.000	-0.008	-0.023
-724.879	33.186	-0.064	-0.055
-723.864	163.163	0.095	0.134
-722.850	800.000	0.141	0.486
-721.835	-24.904	0.097	-0.058
-720.821	-54.641	-0.298	-0.136
-719.806	-158.986	-0.274	-0.016
-718.791	-72.544	-0.562	-0.209
-717.777	-200.000	-0.081	-0.468
-716.762	-91.508	-0.349	-0.100
-715.748	-88.595	-0.233	-0.070
-714.733	423.341	0.069	-0.149
-713.718	-152.955	0.124	-0.009
-712.704	112.665	0.219	0.267
-711.689	106.065	0.284	0.338
-710.675	10.687	-0.185	0.142
-709.660	-200.000	-0.015	0.069
-708.645	-1.346	0.252	-0.179
-707.631	51.827	-0.022	0.021
-706.616	1.598	0.199	0.144
-705.602	0.329	-0.062	-0.044
-704.587	151.697	-0.093	0.127
-703.572	800.000	-0.060	-0.225
-702.558	128.007	-0.169	0.216
-701.543	473.567	-0.104	-0.235
-700.529	-109.406	0.028	-0.006
-699.514	22.262	0.179	0.147
-698.499	800.000	-0.077	-0.284
-697.485	-200.000	0.015	-0.072
-696.470	800.000	0.028	-0.108
-695.456	800.000	-0.032	-0.110
-694.441	-123.950	-0.102	-0.016
-693.426	191.724	0.148	0.225
-692.412	-45.467	0.177	0.088
-691.397	-162.428	-0.100	-0.005
-690.383	534.754	-0.156	-0.372
-689.368	-200.000	0.047	0.279
-688.354	-54.883	-0.222	0.101
-687.339	102.775	0.104	0.122
-686.324	102.923	-0.053	-0.063
-685.310	193.584	0.023	0.035
-684.295	-40.496	0.381	0.199
-683.281	-125.363	0.323	-0.049
-682.266	-200.000	0.023	0.119
-681.251	-30.005	0.210	0.120
-680.237	-200.000	0.007	-0.456
-679.222	-8.208	0.214	-0.145
-678.208	-88.962	-0.121	-0.036
-677.193	-200.000	0.037	-0.193
-676.178	406.419	-0.046	0.098
-675.164	-200.000	-0.001	-0.144
-674.149	17.585	-0.150	0.119
-673.135	-171.169	0.413	0.014
-672.120	565.699	0.058	-0.141
-671.105	-200.000	-0.017	0.154
-670.091	-153.196	-0.413	-0.029
-669.076	-60.400	0.166	0.071
-668.062	-11.861	0.169	-0.111
-667.047	-49.243	0.231	0.111
-666.032	-117.088	-0.317	0.058
-665.018	-8.879	0.127	0.085
-664.003	-151.090	-0.187	0.014
-662.989	-200.000	0.043	-0.265
-661.974	-38.272	-0.267	0.142
-660.959	-200.000	0.032	-0.292
-659.945	-168.177	0.133	-0.005
-658.930	85.835	0.150	-0.166
-657.916	148.561	0.162	0.220
-656.901	213.614	0.102	0.162
-655.886	-200.000	0.008	-0.301
-654.872	-200.000	-0.018	0.125
-653.857	7.231	0.120	0.090
-652.843	53.472	0.085	-0.082
-651.828	98.548	0.051	-0.059
-650.814	-157.443	0.159	-0.010
-649.799	-70.211	-0.091	0.035
-648.784	201.270	-0.083	-0.129
-647.770	63.623	0.069	0.069
-646.755	-200.000	-0.044	0.227
-645.741	-155.765	-0.233	-0.015
-644.726	800.000	0.067	-0.227
-643.711	-31.695	-0.150	-0.084
-642.697	1.792	-0.037	0.027
-641.682	-200.000	0.011	0.093
-640.668	-13.989	-0.297	-0.192
-639.653	69.665	-0.130	-0.135
-638.638	-11.562	0.425	-0.280
-637.624	-66.839	0.031	-0.012
-636.609	-117.727	-0.261	-0.047
-635.595	-12.107	0.382	0.251
-634.580	-99.600	-0.109	-0.027
-633.565	363.101	-0.130	0.261
-632.551	366.368	-0.136	0.275
-631.536	222.539	-0.115	-0.186
-630.522	800.000	0.073	0.208
-629.507	43.579	0.125	-0.115
-628.492	88.941	-0.175	0.195
-627.478	27.473	-0.316	0.266
-626.463	-107.595	0.088	0.019
-625.449	278.690	0.033	-0.058
-624.434	184.234	0.068	-0.101
-623.419	92.481	-0.084	0.095
-622.405	-36.166	0.318	0.172
-621.390	66.992	-0.210	0.214
-620.376	300.935	0.094	0.174
-619.361	-71.269	0.230	-0.087
-618.346	-200.000	-0.022	-0.105
-617.332	-53.227	-0.271	-0.125
-616.317	136.840	0.012	-0.015
-615.303	-200.000	-0.008	0.191
-614.288	-119.820	0.276	0.048
-613.273	71.734	-0.163	-0.169
-612.259	-19.237	0.185	-0.115
-611.244	-109.937	-0.449	0.094
-610.230	-37.832	-0.059	-0.032
-609.215	116.157	0.072	-0.089
-608.201	473.797	0.098	-0.221
-607.186	372.104	0.203	-0.414
-606.171	-113.219	0.064	0.013
-605.157	-25.374	-0.058	0.034
-604.142	-200.000	-0.009	-0.345
-603.128	-82.706	-0.149	0.048
-602.113	58.047	0.059	-0.058
-601.098	-99.392	-0.195	0.049
-600.084	800.000	-0.057	0.235
-599.069	622.965	0.055	0.139
-598.055	783.233	0.071	0.195
-597.040	146.416	-0.249	-0.335
-596.025	-147.027	0.388	0.033
-595.011	12.440	-0.268	-0.207
-593.996	-26.814	-0.270	-0.158
-592.982	318.942	-0.017	-0.032
-591.967	-41.001	0.234	-0.121
-590.952	136.784	0.036	-0.047
-589.938	-200.000	0.031	-0.196
-588.923	-200.000	-0.031	0.203
-587.909	800.000	0.074	-0.273
-586.894	-116.733	0.084	-0.015
-585.879	800.000	-0.060	0.194
-584.865	251.888	0.164	-0.280
-583.850	454.246	0.077	-0.172
-582.836	-200.000	0.027	-0.200
-581.821	144.698	-0.234	-0.313
-580.806	-200.000	0.012	-0.343
-579.792	337.265	0.056	-0.108
-578.777	-177.924	-0.125	0.003
-577.763	-21.171	0.176	0.108
-576.748	-106.403	0.086	0.019
-575.733	58.646	0.099	-0.097
-574.719	800.000	-0.042	-0.176
-573.704	-44.024	-0.245	0.123
-572.690	33.001	-0.221	0.191
-571.675	-85.712	0.511	0.159
-570.661	205.779	0.170	-0.265
-569.646	472.090	-0.023	-0.053
-568.631	102.353	0.088	0.103
-567.617	-107.575	-0.264	-0.058
-566.602	800.000	0.083	-0.293
-565.588	33.285	-0.043	-0.037
-564.573	12.105	0.174	-0.134
-563.558	-200.000	0.005	-0.139
-562.544	-169.851	-0.201	-0.007
-561.529	71.084	0.151	0.157
-560.515	-72.671	-0.107	0.039
-559.500	-132.547	-0.158	-0.020
-558.485	-32.770	-0.020	0.011
-557.471	-200.000	0.007	-0.224
-556.456	-200.000	-0.030	-0.144
-555.442	-200.000	-0.025	0.323
-554.427	-88.274	-0.219	0.066
-553.412	-37.790	-0.147	-0.078
-552.398	-52.583	0.293	-0.136
-551.383	-114.574	0.220	0.042
-550.369	41.589	0.329	-0.297
-549.354	-23.194	0.146	0.088
-548.339	471.101	-0.057	0.128
-547.325	-110.864	0.361	-0.074
-546.310	55.866	-0.171	-0.165
-545.296	-26.017	-0.268	0.158
-544.281	-60.681	-0.119	0.051
-543.266	-23.400	0.103	-0.062
-542.252	-71.669	-0.218	-0.081
-541.237	-79.529	-0.105	-0.035
-540.223	154.977	-0.148	-0.204
-539.208	337.850	-0.145	-0.281
-538.193	114.026	0.277	0.337
-537.179	-99.426	-0.339	0.085
-536.164	-66.955	0.133	-0.052
-535.150	-17.251	0.196	0.123
-534.135	226.717	-0.222	-0.359
-533.121	-65.562	-0.300	-0.120
-532.106	-72.173	0.288	0.107
-531.091	53.569	-0.190	-0.182
-530.077	-9.201	0.080	-0.054
-529.062	-200.000	-0.075	-0.374
-528.048	-200.000	0.039	0.177
-527.033	-133.718	0.248	-0.031
-526.018	293.181	0.094	0.170
-525.004	229.616	-0.073	0.119
-523.989	171.550	-0.073	-0.104
-522.975	24.740	-0.079	-0.065
-521.960	234.252	0.135	0.222
-520.945	800.000	0.186	0.564
-519.931	89.377	-0.029	0.032
-518.916	301.591	-0.089	0.165
-517.902	-200.000	0.039	0.204
-516.887	-62.787	0.213	-0.088
-515.872	-200.000	0.004	0.067
-514.858	335.427	-0.085	-0.165
-513.843	24.818	-0.233	0.193
-512.829	800.000	0.151	0.422
-511.814	460.087	0.210	-0.466
-510.799	-200.000	0.005	-0.048
-509.785	800.000	-0.053	-0.221
-508.770	756.254	-0.068	0.183
-507.756	-139.074	0.275	0.030
-506.741	-200.000	0.011	-0.077
-505.726	37.478	-0.111	0.098
-504.712	87.497	-0.081	-0.089
-503.697	73.624	-0.147	0.154
-502.683	-200.000	0.014	0.062
-501.668	-34.659	0.170	-0.093
-500.653	-133.852	-0.164	0.020
-499.639	800.000	-0.104	0.424
-498.624	-149.839	0.050	-0.004
-497.610	-200.000	-0.085	-0.557
-496.595	285.910	0.085	-0.152
-495.581	254.450	-0.241	0.411
-494.566	-200.000	-0.030	-0.147
-493.551	-76.944	-0.109	0.038
-492.537	-78.688	-0.389	0.132
-491.522	800.000	0.134	0.394
-490.508	-200.000	-0.019	0.106
-489.493	-38.658	0.262	-0.138
-488.478	73.684	-0.144	0.150
-487.464	-20.993	0.145	-0.088
-486.449	-80.658	-0.272	0.090
-485.435	240.461	0.077	-0.128
-484.420	29.504	0.117	-0.100
-483.405	17.205	-0.134	-0.106
-482.391	-200.000	-0.028	0.175
-481.376	-200.000	0.022	-0.159
-480.362	293.760	-0.070	0.128
-479.347	-200.000	0.007	-0.240
-478.332	151.871	-0.143	-0.195
-477.318	781.431	-0.132	-0.360
-476.303	174.633	0.239	-0.345
-475.289	-29.747	-0.177	0.101
-474.274	44.860	-0.200	-0.183
-473.259	-113.585	-0.321	0.062
-472.245	11.447	-0.200	0.153
-471.230	-9.983	-0.156	0.103
-470.216	197.640	0.084	-0.128
-469.201	236.996	0.146	-0.242
-468.186	10.443	0.184	-0.139
-467.172	68.442	-0.104	0.106
-466.157	-91.413	-0.149	0.042
-465.143	192.999	-0.117	-0.176
-464.128	-72.962	0.045	-0.016
-463.113	800.000	0.057	-0.240
-462.099	-76.111	-0.174	-0.061
-461.084	-54.395	-0.070	0.032
-460.070	185.474	-0.128	0.189
-459.055	78.393	-0.178	-0.189
-458.040	26.545	-0.230	-0.192
-457.026	-99.300	0.149	-0.037
-456.011	-72.406	-0.197	-0.073
-454.997	-87.499	0.331	0.100
-453.982	800.000	0.027	0.097
-452.968	-143.444	0.222	0.021
-451.953	51.762	-0.097	-0.092
-450.938	33.795	-0.219	0.189
-449.924	14.542	0.222	0.172
-448.909	-162.544	0.399	0.020
-447.895	-101.607	0.160	0.039
-446.880	-77.358	0.183	-0.063
-445.865	-93.799	0.189	-0.052
-444.851	-23.150	-0.469	-0.281
-443.836	-200.000	0.001	0.136
-442.822	-200.000	-0.012	-0.071
-441.807	114.484	-0.099	-0.120
-440.792	72.185	0.099	0.103
-439.778	-141.016	0.193	0.020
-438.763	37.302	0.111	0.098
-437.749	-200.000	-0.128	0.000
-436.734	-200.000	0.024	0.121
-435.719	-130.398	-0.201	-0.027
-434.705	415.069	0.059	0.125
-433.690	-74.951	-0.415	0.148
-432.676	44.418	-0.118	-0.108
-431.661	800.000	0.067	0.240
-430.646	61.524	-0.087	0.086
-429.632	800.000	0.089	-0.257
-428.617	800.000	0.039	0.134
-427.603	-41.476	-0.257	-0.132
-426.588	26.058	0.228	-0.189
-425.573	-73.297	-0.127	-0.046
-424.559	-58.583	-0.065	-0.028
-423.544	-77.320	-0.188	0.065
-422.530	85.773	-0.207	0.227
-421.515	-41.974	0.276	-0.141
-420.500	66.662	-0.214	0.216
-419.486	-100.896	-0.144	-0.035
-418.471	616.141	0.114	-0.284
-417.457	800.000	-0.048	0.167
-416.442	188.626	0.059	0.088
-415.428	-12.372	0.321	-0.209
-414.413	-100.052	-0.276	-0.068
-413.398	-33.908	0.226	0.124
-412.384	160.250	-0.097	0.135
-411.369	-200.000	0.013	-0.088
-410.355	-34.960	-0.247	-0.134
-409.340	26.286	0.225	-0.186
-408.325	493.792	0.117	0.267
-407.311	289.672	0.244	-0.441
-406.296	-38.947	0.078	0.041
-405.282	26.601	0.224	0.186
-404.267	-200.000	0.042	-0.238
-403.252	483.449	-0.093	-0.210
-402.238	33.128	-0.109	-0.094
-401.223	269.760	0.099	0.173
-400.209	-200.000	0.000	-0.048
-399.194	-110.200	0.280	0.058
-398.179	-62.085	0.109	0.045
-397.165	800.000	-0.122	-0.335
-396.150	196.923	-0.044	-0.067
-395.136	-200.000	-0.013	-0.162
-394.121	617.009	0.015	0.037
-393.106	-200.000	-0.007	-0.031
-392.092	-75.158	0.147	-0.052
-391.077	215.634	0.102	0.161
-390.063	-149.919	0.096	0.007
-389.048	99.143	0.128	0.147
-388.033	-82.856	0.253	0.081
-387.019	-26.659	-0.269	0.156
-386.004	-200.000	-0.030	0.301
-384.990	323.825	-0.170	0.323
-383.975	16.805	-0.021	-0.017
-382.960	-29.639	-0.250	-0.142
-381.946	-150.232	-0.173	-0.013
-380.931	-96.281	0.129	0.034
-379.917	9.764	0.168	-0.126
-378.902	-200.000	-0.047	0.255
-377.888	187.608	-0.136	-0.201
-376.873	-200.000	-0.038	0.393
-375.858	-104.478	-0.066	0.015
-374.844	-147.951	0.216	-0.018
-373.829	-87.468	-0.211	-0.063
-372.815	255.835	-0.131	0.223
-371.800	-145.494	0.192	0.017
-370.785	-166.567	-0.270	0.011
-369.771	800.000	0.024	0.101
-368.756	-115.176	0.070	-0.013
-367.742	-25.734	-0.056	0.033
-366.727	28.166	0.160	-0.134
-365.712	20.249	-0.220	-0.176
-364.698	522.792	0.160	-0.372
-363.683	245.689	-0.096	-0.161
-362.669	74.897	-0.197	-0.206
-361.654	800.000	0.072	0.246
-360.639	212.014	0.038	0.059
-359.625	-34.053	-0.100	-0.054
-358.610	-24.882	0.251	-0.148
-357.596	800.000	0.053	0.178
-356.581	-24.651	0.091	0.054
-355.566	-130.666	-0.196	0.026
-354.552	143.676	-0.156	-0.206
-353.537	-107.903	-0.146	-0.032
-352.523	-137.435	-0.100	0.011
-351.508	-50.808	0.129	0.060
-350.493	209.787	0.100	0.155
-349.479	216.303	0.160	0.252
-348.464	-200.000	-0.029	-0.264
-347.450	348.715	-0.117	0.229
-346.435	-123.280	-0.207	-0.033
-345.420	24.147	-0.110	0.090
-344.406	21.615	0.160	0.129
-343.391	-200.000	0.017	-0.149
-342.377	62.384	0.115	0.114
-341.362	-200.000	-0.017	0.508
-340.348	145.242	-0.025	0.033
-339.333	-200.000	0.004	0.196
-338.318	-200.000	-0.004	0.064
-337.304	200.450	-0.053	-0.081
-336.289	17.862	0.225	0.178
-335.275	40.831	-0.116	0.104
-334.260	-188.582	-0.222	0.003
-333.245	-79.226	-0.219	0.074
-332.231	-200.000	-0.032	0.165
-331.216	213.883	-0.121	0.190
-330.202	49.818	0.128	-0.119
-329.187	766.221	-0.132	-0.355
-328.172	-200.000	-0.040	-0.226
-327.158	-200.000	0.015	-0.086
-326.143	142.306	0.118	-0.156
-325.129	330.855	-0.121	0.232
-324.114	-91.656	0.109	-0.031
-323.099	-117.214	-0.147	0.026
-322.085	153.980	-0.208	0.282
-321.070	-200.000	-0.017	0.240
-320.056	11.196	-0.351	-0.266
-319.041	-152.345	0.151	-0.011
-318.026	265.930	0.086	0.149
-317.012	-200.000	-0.036	-0.197
-315.997	-75.691	0.301	-0.106
-314.983	616.255	-0.027	0.068
-313.968	174.419	0.206	-0.296
-312.953	-94.155	0.204	-0.055
-311.939	-85.750	0.291	0.089
-310.924	86.726	-0.241	0.263
-309.910	-85.448	0.167	0.052
-308.895	-200.000	0.007	0.036
-307.880	-89.450	0.192	-0.056
-306.866	-28.749	0.155	-0.089
-305.851	102.375	0.307	-0.355
-304.837	-75.655	-0.154	-0.054
-303.822	800.000	0.059	0.204
-302.807	-32.641	-0.319	0.176
-301.793	-86.324	0.141	0.043
-300.778	-78.507	0.212	0.072
-299.764	800.000	0.011	0.040
-298.749	52.671	-0.223	-0.211
-297.735	-74.356	-0.082	-0.029
-296.720	-200.000	0.359	0.001
-295.705	346.670	0.059	0.114
-294.691	128.084	0.043	-0.054
-293.676	139.103	-0.135	-0.176
-292.662	-200.000	0.008	-0.219
-291.647	-68.278	0.428	-0.165
-290.632	30.618	0.249	0.211
-289.618	335.059	0.052	0.099
-288.603	74.804	-0.210	0.219
-287.589	439.076	-0.032	-0.070
-286.574	-64.597	0.111	-0.044
-285.559	-69.579	0.267	0.101
-284.545	-200.000	-0.005	-0.164
-283.530	395.272	0.116	-0.239
-282.516	-23.247	0.296	-0.176
-281.501	800.000	0.066	0.243
-280.486	-120.865	-0.260	-0.043
-279.472	157.146	0.225	-0.308
-278.457	800.000	0.056	-0.173
-277.443	-108.860	-0.310	-0.065
-276.428	-18.093	0.238	-0.147
-275.413	-200.000	-0.012	-0.061
-274.399	800.000	0.041	0.146
-273.384	-67.630	0.125	0.049
-272.370	6.917	-0.235	-0.173
-271.355	-200.000	0.012	0.058
-270.340	-69.320	0.091	-0.035
-269.326	-116.533	-0.202	-0.037
-268.311	6.579	0.221	0.162
-267.297	-113.409	0.264	-0.051
-266.282	-61.465	0.371	-0.154
-265.267	-81.711	0.357	-0.116
-264.253	-4.268	-0.182	0.124
-263.238	208.940	-0.026	-0.040
-262.224	106.288	0.113	-0.132
-261.209	-200.000	-0.010	-0.062
-260.195	345.563	-0.156	0.304
-259.180	433.258	-0.102	-0.219
-258.165	63.259	0.167	0.165
-257.151	-69.155	-0.253	0.096
-256.136	557.102	0.142	0.338
-255.122	-14.180	-0.238	-0.152
-254.107	800.000	-0.070	-0.195
-253.092	12.812	0.372	0.284
-252.078	-157.516	0.240	-0.014
-251.063	-69.841	-0.522	0.197
-250.049	400.985	-0.027	-0.056
-249.034	155.148	0.117	0.160
-248.019	42.820	0.172	0.154
-247.005	0.937	0.145	0.102
-245.990	-118.714	0.137	0.024
-244.976	-17.039	0.102	0.064
-243.961	-180.041	0.274	-0.006
-242.946	-161.096	-0.237	0.012
-241.932	5.277	0.171	0.124
-240.917	56.072	-0.177	0.170
-239.903	-200.000	0.020	0.142
-238.888	192.258	-0.173	0.258
-237.873	-200.000	0.019	-0.152
-236.859	-175.717	-0.281	0.007
-235.844	0.660	-0.231	0.163
-234.830	144.090	-0.128	0.169
-233.815	159.807	0.041	0.056
-232.800	38.001	-0.098	-0.086
-231.786	61.838	-0.045	0.044
-230.771	800.000	-0.077	0.303
-229.757	231.860	-0.091	-0.148
-228.742	-108.633	-0.188	0.040
-227.727	38.139	-0.249	-0.219
-226.713	-122.776	-0.403	-0.064
-225.698	-18.166	0.273	0.168
-224.684	161.902	-0.112	0.155
-223.669	53.467	-0.155	0.147
-222.655	-52.049	-0.276	0.127
-221.640	167.762	0.155	0.218
-220.625	-200.000	-0.009	-0.215
-219.611	522.387	0.076	0.175
-218.596	-200.000	0.033	-0.214
-217.582	-132.567	-0.004	0.000
-216.567	-163.419	-0.121	0.006
-215.552	-94.276	0.216	-0.058
-214.538	718.518	-0.136	0.356
-213.523	800.000	-0.084	-0.262
-212.509	800.000	0.105	0.387
-211.494	-176.030	-0.200	0.005
-210.479	-178.962	0.150	-0.003
-209.465	-200.000	0.052	0.433
-208.450	-200.000	-0.081	0.410
-207.436	88.022	0.168	-0.183
-206.421	30.974	0.095	0.080
-205.406	-200.000	-0.047	-0.350
-204.392	34.715	-0.243	-0.210
-203.377	163.238	0.201	0.278
-202.363	-3.776	-0.109	-0.075
-201.348	253.960	0.047	-0.078
-200.333	48.152	0.234	0.216
-199.319	800.000	0.058	0.179
-198.304	-23.672	0.175	-0.103
-197.290	-92.374	0.130	-0.036
-196.275	119.338	0.207	-0.253
-195.260	325.306	-0.198	0.373
-194.246	38.604	-0.356	0.313
-193.231	76.858	-0.115	0.120
-192.217	508.422	0.165	0.377
-191.202	-128.074	0.225	0.032
-190.187	128.586	0.147	0.185
-189.173	200.280	0.018	-0.027
-188.158	-200.000	0.004	0.084
-187.144	531.249	0.169	0.393
-186.129	-200.000	-0.007	0.093
-185.114	22.362	0.126	-0.102
-184.100	-200.000	-0.002	0.195
-183.085	800.000	0.072	-0.259
-182.071	436.328	0.174	0.373
-181.056	-42.834	-0.283	-0.142
-180.042	281.804	-0.143	0.253
-179.027	-85.646	0.292	0.089
-178.012	102.058	0.121	-0.139
-176.998	412.166	0.057	0.120
-175.983	-91.115	-0.115	-0.033
-174.969	-114.343	0.189	0.036
-173.954	183.930	-0.137	0.200
-172.939	-200.000	-0.044	-0.199
-171.925	-140.933	-0.275	-0.028
-170.910	76.176	-0.052	0.054
-169.896	67.151	0.240	-0.241
-168.881	-40.647	0.097	-0.049
-167.866	800.000	-0.077	-0.329
-166.852	139.095	0.105	-0.136
-165.837	-200.000	-0.038	-0.194
-164.823	208.551	0.088	-0.135
-163.808	-11.752	0.130	-0.084
-162.793	711.981	0.069	-0.180
-161.779	-119.444	0.240	-0.041
-160.764	-200.000	-0.032	0.289
-159.750	-66.144	-0.242	0.095
-158.735	-200.000	0.043	0.277
-157.720	137.280	0.085	-0.109
-156.706	249.537	-0.187	-0.312
-155.691	35.250	-0.047	-0.040
-154.677	13.497	0.224	-0.171
-153.662	221.751	-0.101	-0.159
-152.647	-97.637	0.225	-0.057
-151.633	291.106	-0.100	-0.179
-150.618	-200.000	0.052	0.290
-149.604	41.497	-0.140	0.125
-148.589	-6.214	-0.140	-0.094
-147.574	-160.623	0.406	-0.021
-146.560	455.149	0.058	-0.125
-145.545	-114.839	-0.143	0.027
-144.531	-200.000	-0.003	0.049
-143.516	-100.791	0.324	-0.078
-142.502	-28.530	-0.030	-0.017
-141.487	184.975	-0.157	-0.229
-140.472	800.000	0.096	0.318
-139.458	-32.865	-0.366	0.200
-138.443	-104.166	-0.163	-0.037
-137.429	88.796	-0.209	0.229
-136.414	208.966	-0.060	-0.092
-135.399	84.486	-0.155	-0.167
-134.385	-200.000	-0.038	-0.355
-133.370	201.123	0.168	-0.255
-132.356	214.846	0.119	-0.186
-131.341	-28.377	0.433	-0.246
-130.326	117.760	-0.184	-0.223
-129.312	-46.168	0.460	-0.223
-128.297	92.493	-0.155	-0.171
-127.283	14.695	0.137	-0.105
-126.268	-87.692	-0.225	-0.067
-125.253	47.057	-0.225	0.206
-124.239	-87.133	0.492	0.147
-123.224	-43.529	-0.231	-0.115
-122.210	236.274	-0.052	-0.085
-121.195	332.328	-0.060	-0.113
