DTS Sentinel unit serial number:	SN413079Multiplexer serial number:	ORYXHardware model number:	OX4-SRSoftware version number:	ORYX F/W v4.00 Oryx Data Collector v3.7.2.0data status	okinstallation	princeton_trtdifferential loss correction	single-endedforward channel	channel 3reverse channel	N/Adate	2019/09/11time	06:46:10forward acquisition time	60.00reverse acquisition time	0.00gamma	496.2192k internal	0.2329k external	0.2329temperature offset calibration	0.9904default loss term (dB/km)	0.3790temperature slope calibration	1.0000multiplexer offset coefficient	1.0000multiplexer slope coefficient	1.0000fibre end	0.00T internal ref (°C)	29.84T ext. ref 1 (°C)	-0.17T ext. ref 2 (°C)	25.01length (m)	temperature (°C)	Stokes	anti-Stokes-747.200	23.636	0.128	-0.106
-746.185	-200.000	-0.014	0.193
-745.171	-200.000	0.038	-0.550
-744.156	-122.558	0.228	-0.037
-743.142	-200.000	0.060	-0.359
-742.127	36.355	0.239	0.212
-741.112	-44.909	0.091	0.045
-740.098	-200.000	-0.031	0.350
-739.083	156.599	0.209	0.290
-738.069	155.462	0.082	-0.114
-737.054	-131.195	0.394	-0.053
-736.039	-142.549	-0.263	0.026
-735.025	18.116	0.187	-0.150
-734.010	-68.661	-0.281	-0.109
-732.996	-94.416	0.215	-0.059
-731.981	800.000	0.080	0.269
-730.966	137.325	-0.198	0.261
-729.952	800.000	0.083	-0.311
-728.937	288.033	0.065	-0.119
-727.923	126.461	-0.122	-0.155
-726.908	-180.263	-0.052	0.001
-725.894	-117.109	0.276	-0.051
-724.879	-167.186	-0.224	-0.009
-723.864	51.695	0.153	0.147
-722.850	-200.000	0.026	-0.125
-721.835	142.187	-0.110	-0.147
-720.821	-200.000	0.046	0.264
-719.806	-200.000	-0.004	-0.214
-718.791	-11.147	-0.258	-0.171
-717.777	-82.128	-0.448	0.147
-716.762	111.922	0.182	0.222
-715.748	-85.816	-0.254	0.079
-714.733	156.722	-0.147	0.204
-713.718	58.345	0.300	0.296
-712.704	-42.641	0.090	-0.046
-711.689	-200.000	0.005	0.096
-710.675	84.119	0.174	-0.191
-709.660	100.299	0.246	-0.287
-708.645	-70.247	-0.241	-0.092
-707.631	-200.000	-0.060	-0.565
-706.616	167.259	-0.075	0.107
-705.602	166.395	0.106	0.152
-704.587	92.555	0.180	0.204
-703.572	-70.209	0.170	-0.065
-702.558	261.470	0.091	-0.158
-701.543	228.932	-0.136	0.222
-700.529	-127.076	-0.157	0.023
-699.514	-47.259	0.075	-0.037
-698.499	-129.490	-0.284	-0.040
-697.485	100.626	-0.186	0.217
-696.470	-145.387	0.112	0.010
-695.456	-81.935	-0.321	0.105
-694.441	800.000	0.064	0.181
-693.426	36.979	-0.136	-0.121
-692.412	104.805	-0.034	0.041
-691.397	-126.238	-0.219	-0.033
-690.383	147.453	-0.138	0.187
-689.368	209.447	0.106	0.167
-688.354	-200.000	-0.139	0.639
-687.339	85.507	-0.139	0.153
-686.324	-91.370	0.271	0.078
-685.310	-29.042	-0.343	-0.198
-684.295	247.198	-0.115	-0.196
-683.281	-99.701	0.135	0.034
-682.266	-200.000	0.049	-0.332
-681.251	-144.752	-0.219	0.020
-680.237	79.189	-0.014	-0.015
-679.222	39.499	-0.107	0.096
-678.208	-200.000	0.021	0.116
-677.193	-200.000	-0.041	0.221
-676.178	-200.000	0.025	-0.186
-675.164	-100.487	0.183	0.046
-674.149	-44.975	-0.195	0.098
-673.135	-200.000	0.067	0.460
-672.120	-70.600	0.109	-0.041
-671.105	-88.375	0.216	-0.065
-670.091	65.559	0.150	-0.153
-669.076	-139.790	0.205	0.022
-668.062	-175.593	-0.140	-0.004
-667.047	-71.818	-0.340	-0.127
-666.032	-200.000	-0.012	-0.335
-665.018	-124.256	0.293	0.046
-664.003	-58.194	0.202	-0.088
-662.989	-82.416	0.119	0.039
-661.974	164.746	-0.236	0.334
-660.959	-35.840	0.209	0.114
-659.945	133.622	0.112	-0.146
-658.930	26.959	0.207	0.175
-657.916	301.701	-0.086	-0.160
-656.901	-200.000	0.033	-0.228
-655.886	-200.000	0.003	0.062
-654.872	226.559	-0.145	0.236
-653.857	23.821	-0.277	-0.229
-652.843	83.146	-0.196	0.215
-651.828	58.819	0.162	-0.160
-650.814	92.840	-0.083	-0.094
-649.799	18.299	0.249	-0.200
-648.784	-135.691	-0.448	-0.053
-647.770	800.000	0.076	0.248
-646.755	800.000	0.056	0.218
-645.741	-131.957	-0.414	0.054
-644.726	-135.325	0.085	-0.010
-643.711	800.000	-0.046	0.146
-642.697	-200.000	0.000	0.008
-641.682	34.196	-0.041	-0.036
-640.668	-200.000	-0.020	-0.164
-639.653	-200.000	-0.018	-0.368
-638.638	-0.118	0.227	0.162
-637.624	-39.570	0.180	0.095
-636.609	132.581	0.132	-0.170
-635.595	800.000	0.067	0.232
-634.580	-35.320	-0.114	-0.062
-633.565	-65.578	-0.249	0.100
-632.551	51.538	-0.103	0.098
-631.536	-118.109	-0.204	0.037
-630.522	-32.566	0.111	0.062
-629.507	8.790	-0.103	0.078
-628.492	-190.531	0.165	0.002
-627.478	320.326	0.082	0.155
-626.463	-92.385	-0.168	-0.047
-625.449	433.664	-0.144	-0.314
-624.434	65.474	-0.013	0.013
-623.419	-31.822	0.074	-0.041
-622.405	109.378	0.023	-0.027
-621.390	-114.943	-0.113	-0.022
-620.376	-27.152	-0.257	-0.150
-619.361	-200.000	-0.005	0.075
-618.346	-110.547	-0.169	0.035
-617.332	154.272	-0.163	-0.224
-616.317	66.356	-0.083	-0.085
-615.303	264.366	-0.179	0.312
-614.288	-115.513	-0.368	-0.069
-613.273	-32.350	0.102	-0.057
-612.259	800.000	-0.096	0.292
-611.244	138.490	-0.194	0.255
-610.230	27.107	0.134	0.113
-609.215	-30.320	-0.220	0.125
-608.201	30.339	-0.195	-0.167
-607.186	660.831	-0.067	-0.172
-606.171	68.784	-0.351	-0.361
-605.157	-75.656	-0.329	-0.117
-604.142	28.894	0.241	0.204
-603.128	97.548	-0.131	-0.151
-602.113	-75.303	-0.262	0.094
-601.098	-91.300	-0.118	0.034
-600.084	-200.000	-0.036	-0.454
-599.069	800.000	0.083	0.327
-598.055	-13.544	0.079	0.051
-597.040	63.979	-0.133	-0.134
-596.025	137.833	-0.152	-0.199
-595.011	-129.860	-0.212	0.029
-593.996	329.599	-0.224	-0.431
-592.982	229.297	-0.055	-0.090
-591.967	-111.370	-0.120	-0.024
-590.952	644.010	0.076	0.193
-589.938	161.452	-0.139	0.194
-588.923	443.752	0.087	0.192
-587.909	366.489	-0.151	0.305
-586.894	212.730	0.062	-0.098
-585.879	372.732	0.102	0.208
-584.865	-92.104	0.313	-0.088
-583.850	187.757	0.061	0.091
-582.836	-47.208	-0.331	0.161
-581.821	345.286	-0.119	-0.234
-580.806	800.000	0.059	-0.182
-579.792	790.753	-0.183	0.504
-578.777	-19.512	0.172	-0.107
-577.763	-200.000	-0.010	0.082
-576.748	11.799	-0.186	-0.143
-575.733	55.626	-0.066	0.064
-574.719	-120.693	-0.211	-0.036
-573.704	800.000	0.091	-0.361
-572.690	26.173	-0.256	-0.214
-571.675	-200.000	0.019	0.087
-570.661	-73.056	0.065	0.024
-569.646	-66.173	0.387	-0.154
-568.631	-87.885	0.286	0.086
-567.617	-93.133	0.069	-0.019
-566.602	-72.329	0.214	0.079
-565.588	-26.644	-0.113	-0.066
-564.573	800.000	-0.036	-0.132
-563.558	-63.382	0.102	-0.042
-562.544	-28.047	0.364	-0.210
-561.529	-74.113	0.371	-0.135
-560.515	134.738	-0.060	-0.078
-559.500	-200.000	-0.023	-0.166
-558.485	800.000	-0.106	-0.318
-557.471	352.411	-0.062	-0.122
-556.456	-80.817	0.196	0.065
-555.442	800.000	0.109	0.335
-554.427	-200.000	0.008	-0.146
-553.412	74.379	0.158	-0.166
-552.398	36.001	0.271	-0.239
-551.383	800.000	0.068	0.267
-550.369	518.692	0.130	-0.304
-549.354	-60.542	0.074	0.031
-548.339	321.239	0.214	0.407
-547.325	-57.054	0.226	0.100
-546.310	253.469	-0.094	-0.160
-545.296	373.342	0.043	-0.088
-544.281	-76.854	-0.197	0.069
-543.266	-124.831	-0.029	0.004
-542.252	-16.485	-0.296	-0.187
-541.237	-200.000	-0.005	-0.107
-540.223	23.245	-0.251	-0.206
-539.208	-200.000	0.015	0.394
-538.193	99.583	-0.185	0.214
-537.179	143.027	-0.157	0.208
-536.164	510.911	-0.045	-0.105
-535.150	5.228	0.207	0.152
-534.135	-9.561	-0.279	0.186
-533.121	-200.000	-0.031	-0.285
-532.106	71.422	0.113	-0.117
-531.091	400.518	-0.038	-0.080
-530.077	-117.102	-0.304	0.055
-529.062	9.593	0.145	-0.110
-528.048	-49.797	0.334	0.158
-527.033	294.883	0.108	-0.198
-526.018	23.631	-0.155	0.127
-525.004	-58.902	0.437	-0.188
-523.989	-188.557	0.103	-0.001
-522.975	800.000	-0.046	0.187
-521.960	112.923	0.124	-0.150
-520.945	-5.646	-0.338	0.232
-519.931	577.311	-0.126	0.307
-518.916	800.000	0.047	0.151
-517.902	-200.000	-0.014	0.151
-516.887	657.444	0.062	0.160
-515.872	222.700	-0.119	0.192
-514.858	800.000	-0.069	-0.227
-513.843	-138.249	-0.400	0.044
-512.829	-200.000	0.025	-0.215
-511.814	-4.238	-0.254	0.175
-510.799	-60.805	0.376	0.159
-509.785	283.344	0.103	-0.184
-508.770	-103.229	-0.187	-0.044
-507.756	183.289	-0.036	0.053
-506.741	-200.000	0.002	0.219
-505.726	-144.179	0.517	0.048
-504.712	29.519	-0.069	0.059
-503.697	-59.663	-0.279	0.119
-502.683	-200.000	0.022	-0.106
-501.668	-46.202	-0.137	0.067
-500.653	-180.357	0.285	-0.006
-499.639	-45.468	0.190	-0.094
-498.624	-200.000	0.015	-0.104
-497.610	52.032	-0.355	0.337
-496.595	-44.141	0.079	-0.039
-495.581	800.000	0.018	-0.049
-494.566	247.146	0.138	0.232
-493.551	265.142	0.104	-0.181
-492.537	68.390	0.005	0.005
-491.522	59.755	-0.066	0.065
-490.508	208.481	0.205	-0.319
-489.493	174.654	0.226	-0.326
-488.478	-55.129	0.029	-0.013
-487.464	-200.000	0.010	-0.072
-486.449	-30.431	0.288	0.163
-485.435	41.826	0.100	-0.091
-484.420	144.697	-0.084	0.112
-483.405	37.864	0.101	-0.090
-482.391	-166.867	0.246	0.010
-481.376	677.708	-0.213	0.553
-480.362	44.921	0.294	0.270
-479.347	66.847	0.048	0.048
-478.332	294.440	-0.133	0.242
-477.318	-200.000	-0.031	-0.150
-476.303	-70.862	0.049	-0.018
-475.289	-126.765	0.285	-0.042
-474.274	-44.277	0.217	-0.108
-473.259	23.274	0.065	-0.053
-472.245	291.846	-0.071	-0.128
-471.230	800.000	-0.052	0.161
-470.216	60.506	0.171	-0.169
-469.201	76.976	-0.403	0.426
-468.186	0.601	-0.112	-0.080
-467.172	-143.737	-0.104	0.010
-466.157	-152.922	-0.257	0.018
-465.143	800.000	-0.054	-0.176
-464.128	76.347	-0.234	0.247
-463.113	-200.000	0.023	0.313
-462.099	196.504	0.019	0.028
-461.084	800.000	0.043	0.127
-460.070	97.202	0.153	-0.175
-459.055	-111.887	-0.121	-0.024
-458.040	-200.000	-0.037	-0.164
-457.026	85.963	-0.193	0.212
-456.011	42.372	0.058	-0.053
-454.997	116.595	0.136	-0.166
-453.982	-200.000	0.033	-0.295
-452.968	129.354	-0.196	-0.249
-451.953	79.377	-0.057	-0.061
-450.938	-64.027	0.243	0.099
-449.924	201.105	-0.241	0.369
-448.909	-97.822	0.311	-0.080
-447.895	155.521	0.054	-0.074
-446.880	-47.952	-0.178	-0.086
-445.865	-200.000	-0.058	0.285
-444.851	800.000	-0.025	-0.095
-443.836	61.519	-0.372	0.369
-442.822	800.000	0.057	-0.214
-441.807	36.223	0.144	-0.126
-440.792	698.454	0.171	-0.447
-439.778	-44.973	-0.262	0.130
-438.763	716.192	0.017	-0.045
-437.749	480.482	0.035	0.080
-436.734	109.612	0.034	-0.040
-435.719	97.144	-0.126	-0.144
-434.705	-40.066	0.318	0.165
-433.690	-88.071	0.245	0.073
-432.676	-141.500	-0.176	-0.018
-431.661	-61.306	0.251	-0.105
-430.646	800.000	0.037	-0.113
-429.632	-25.876	0.125	-0.073
-428.617	-89.109	0.347	0.102
-427.603	10.396	-0.115	0.087
-426.588	-200.000	-0.026	0.158
-425.573	3.191	-0.184	0.133
-424.559	111.311	-0.254	0.304
-423.544	-62.159	-0.146	-0.061
-422.530	-200.000	-0.010	-0.366
-421.515	322.740	0.057	0.108
-420.500	237.501	-0.082	-0.135
-419.486	-200.000	-0.015	-0.448
-418.471	375.942	-0.103	-0.208
-417.457	-200.000	-0.010	0.055
-416.442	16.397	0.053	0.041
-415.428	290.539	0.084	-0.152
-414.413	106.992	0.077	-0.091
-413.398	-200.000	-0.024	0.129
-412.384	-200.000	-0.001	-0.203
-411.369	99.627	0.072	-0.082
-410.355	166.523	-0.270	-0.380
-409.340	-200.000	-0.003	-0.404
-408.325	-143.292	0.139	-0.013
-407.311	86.195	0.217	-0.238
-406.296	-83.638	-0.195	0.062
-405.282	-101.388	0.170	-0.041
-404.267	65.710	-0.090	-0.091
-403.252	-29.317	-0.373	-0.212
-402.238	-170.406	0.126	-0.004
-401.223	-107.743	-0.127	-0.028
-400.209	-33.299	-0.154	-0.085
-399.194	-123.837	-0.225	-0.035
-398.179	-81.465	-0.067	-0.022
-397.165	-200.000	-0.045	-0.320
-396.150	-200.000	-0.006	-0.291
-395.136	-123.334	0.339	-0.054
-394.121	-78.612	-0.256	0.087
-393.106	274.275	-0.102	0.179
-392.092	43.871	0.118	-0.108
-391.077	390.032	-0.156	0.320
-390.063	-200.000	-0.025	0.167
-389.048	354.621	0.090	-0.178
-388.033	-97.340	0.160	-0.041
-387.019	-16.775	-0.371	-0.233
-386.004	-200.000	0.033	-0.194
-384.990	125.268	-0.084	0.105
-383.975	35.009	0.246	-0.213
-382.960	-76.631	-0.304	-0.106
-381.946	-119.785	-0.197	0.034
-380.931	526.997	0.112	0.262
-379.917	-200.000	0.008	-0.096
-378.902	19.929	0.331	-0.265
-377.888	75.285	0.233	-0.244
-376.873	164.223	0.039	0.055
-375.858	46.044	-0.277	0.254
-374.844	7.448	0.093	-0.069
-373.829	-5.746	-0.197	0.134
-372.815	-169.077	0.180	-0.007
-371.800	-1.241	-0.115	-0.080
-370.785	-47.407	-0.162	0.078
-369.771	-19.678	0.206	0.126
-368.756	122.773	0.102	-0.126
-367.742	-64.657	-0.209	-0.084
-366.727	-10.311	0.144	0.095
-365.712	-27.890	-0.186	0.107
-364.698	-200.000	-0.003	-0.197
-363.683	-200.000	-0.110	0.000
-362.669	-99.998	0.158	-0.039
-361.654	-123.869	0.080	-0.013
-360.639	111.850	0.194	-0.232
-359.625	-127.513	0.324	0.047
-358.610	17.056	-0.286	0.225
-357.596	-2.418	0.129	-0.090
-356.581	298.733	0.026	0.047
-355.566	192.360	0.133	-0.200
-354.552	456.136	-0.057	0.126
-353.537	-162.204	-0.115	-0.006
-352.523	-132.912	0.120	-0.015
-351.508	107.807	-0.235	0.277
-350.493	-37.296	-0.186	0.098
-349.479	-29.953	0.179	0.101
-348.464	97.432	-0.170	0.194
-347.450	-112.479	0.191	0.038
-346.435	104.996	0.302	0.353
-345.420	442.482	0.136	0.295
-344.406	78.443	0.107	-0.113
-343.391	-200.000	0.009	-0.055
-342.377	-36.849	0.080	-0.043
-341.362	2.314	0.490	0.352
-340.348	115.205	-0.080	-0.097
-339.333	80.980	0.068	-0.073
-338.318	-44.079	-0.131	-0.065
-337.304	-123.542	0.127	-0.020
-336.289	-130.224	0.220	-0.030
-335.275	-99.289	0.176	-0.044
-334.260	149.771	-0.117	-0.157
-333.245	-23.426	-0.201	0.120
-332.231	43.456	0.096	0.087
-331.216	-9.413	0.187	0.124
-330.202	-156.315	-0.263	0.016
-329.187	279.906	-0.131	0.232
-328.172	-8.079	0.227	-0.152
-327.158	-200.000	0.049	-0.259
-326.143	-72.597	-0.335	0.123
-325.129	-200.000	-0.005	-0.080
-324.114	770.252	-0.063	0.170
-323.099	-69.970	0.090	0.034
-322.085	800.000	-0.052	-0.161
-321.070	-200.000	-0.013	-0.125
-320.056	-200.000	0.005	-0.151
-319.041	-95.929	0.072	0.019
-318.026	800.000	-0.096	-0.345
-317.012	34.077	0.351	-0.303
-315.997	-200.000	-0.001	-0.241
-314.983	-182.236	-0.131	0.002
-313.968	-200.000	-0.008	0.161
-312.953	9.523	0.235	-0.176
-311.939	-200.000	0.026	0.289
-310.924	298.461	-0.154	0.280
-309.910	-152.824	0.074	0.005
-308.895	439.076	-0.041	-0.089
-307.880	-111.611	-0.346	-0.070
-306.866	79.696	0.151	-0.160
-305.851	-53.532	0.073	-0.033
-304.837	-200.000	-0.017	0.152
-303.822	74.647	-0.126	0.132
-302.807	-200.000	0.007	-0.114
-301.793	530.171	0.029	-0.068
-300.778	47.363	-0.062	-0.058
-299.764	-171.608	-0.254	-0.008
-298.749	133.609	0.080	0.102
-297.735	-125.119	0.411	0.062
-296.720	189.504	-0.175	0.259
-295.705	-81.512	-0.149	0.049
-294.691	40.231	0.081	-0.072
-293.676	-90.836	0.174	-0.050
-292.662	620.588	-0.115	-0.286
-291.647	-200.000	0.006	0.078
-290.632	188.273	-0.060	-0.089
-289.618	-200.000	-0.004	0.150
-288.603	138.029	0.160	0.208
-287.589	82.728	0.096	0.104
-286.574	800.000	-0.037	-0.119
-285.559	-70.246	-0.298	-0.112
-284.545	800.000	0.106	-0.319
-283.530	231.375	-0.208	-0.336
-282.516	105.952	-0.280	0.328
-281.501	85.891	-0.255	0.277
-280.486	315.771	-0.133	0.249
-279.472	-181.376	0.336	0.007
-278.457	-200.000	0.046	-0.324
-277.443	-150.780	0.075	-0.006
-276.428	76.888	0.116	-0.122
-275.413	214.954	-0.005	0.008
-274.399	800.000	-0.051	-0.184
-273.384	162.980	-0.192	0.267
-272.370	-200.000	0.073	0.392
-271.355	-106.320	-0.227	-0.050
-270.340	-35.246	0.120	-0.065
-269.326	9.593	0.095	0.071
-268.311	10.623	-0.062	0.047
-267.297	71.627	-0.106	0.109
-266.282	800.000	0.088	0.287
-265.267	-200.000	-0.042	0.413
-264.253	189.884	0.081	-0.121
-263.238	800.000	0.027	0.078
-262.224	19.143	-0.189	0.150
-261.209	-37.708	0.295	-0.155
-260.195	-170.264	-0.125	0.004
-259.180	-200.000	0.012	-0.064
-258.165	705.670	0.136	0.356
-257.151	219.269	0.214	0.338
-256.136	-93.751	0.314	-0.086
-255.122	-61.099	0.150	-0.063
-254.107	-0.701	-0.096	-0.068
-253.092	-59.302	-0.176	-0.075
-252.078	62.680	0.219	-0.216
-251.063	244.992	0.151	-0.251
-250.049	500.960	-0.068	0.154
-249.034	227.278	0.196	0.314
-248.019	23.376	0.230	-0.186
-247.005	-65.959	-0.219	-0.086
-245.990	-200.000	-0.029	-0.484
-244.976	800.000	-0.018	-0.068
-243.961	-168.258	0.045	-0.002
-242.946	48.850	-0.141	-0.131
-241.932	-90.167	0.207	0.060
-240.917	-79.239	-0.309	0.104
-239.903	32.939	0.206	0.176
-238.888	-45.971	0.184	0.089
-237.873	-200.000	0.045	0.239
-236.859	-200.000	-0.008	-0.046
-235.844	30.129	-0.037	-0.032
-234.830	800.000	-0.033	0.107
-233.815	-200.000	-0.022	0.185
-232.800	58.287	0.080	-0.077
-231.786	-200.000	0.022	-0.111
-230.771	167.929	-0.088	-0.123
-229.757	-83.984	0.288	0.091
-228.742	58.226	-0.300	0.290
-227.727	469.601	0.139	0.309
-226.713	-87.340	-0.060	0.018
-225.698	-116.568	0.350	0.064
-224.684	800.000	-0.095	0.325
-223.669	210.557	-0.153	0.237
-222.655	-25.844	0.422	0.245
-221.640	-200.000	-0.060	0.331
-220.625	-102.835	0.115	-0.027
-219.611	-200.000	-0.003	0.226
-218.596	-133.452	0.080	-0.010
-217.582	153.393	0.235	0.318
-216.567	-38.870	0.178	0.093
-215.552	-156.878	0.374	-0.023
-214.538	-104.315	0.235	0.054
-213.523	27.101	0.317	0.263
-212.509	-200.000	0.010	0.140
-211.494	93.210	-0.100	-0.112
-210.479	-33.860	0.224	-0.121
-209.465	64.480	-0.099	0.098
-208.450	-30.551	0.115	-0.065
-207.436	-93.596	0.125	-0.034
-206.421	-53.013	-0.503	0.228
-205.406	22.963	0.012	0.010
-204.392	-200.000	-0.012	0.155
-203.377	191.783	-0.258	0.383
-202.363	202.321	-0.095	-0.145
-201.348	201.611	0.120	0.182
-200.333	122.925	-0.063	-0.078
-199.319	-38.667	0.259	-0.135
-198.304	-200.000	0.001	-0.012
-197.290	-200.000	-0.020	-0.224
-196.275	183.430	-0.167	0.244
-195.260	-72.004	-0.126	0.046
-194.246	470.357	-0.127	0.281
-193.231	-11.894	-0.063	-0.041
-192.217	493.366	0.144	0.325
-191.202	157.841	0.027	-0.037
-190.187	-45.080	-0.311	-0.152
-189.173	-16.221	-0.273	-0.171
-188.158	-200.000	0.047	-0.231
-187.144	647.015	-0.032	0.080
-186.129	-45.278	0.305	0.149
-185.114	40.547	-0.053	0.047
-184.100	160.779	0.079	-0.108
-183.085	61.204	-0.175	0.171
-182.071	-58.564	0.291	-0.124
-181.056	42.783	-0.168	0.151
-180.042	112.106	0.170	-0.203
-179.027	-200.000	0.016	0.133
-178.012	110.923	-0.161	-0.190
-176.998	-200.000	-0.006	-0.152
-175.983	-200.000	0.023	0.187
-174.969	800.000	-0.036	0.132
-173.954	-64.240	-0.220	0.088
-172.939	-200.000	0.001	-0.142
-171.925	-185.352	0.402	0.006
-170.910	-20.345	-0.334	0.202
-169.896	-32.335	-0.112	-0.062
-168.881	-109.462	0.147	-0.031
-167.866	181.205	-0.051	-0.074
-166.852	-200.000	-0.084	-0.417
-165.837	-200.000	0.000	0.098
-164.823	-200.000	0.013	-0.172
-163.808	143.296	-0.304	-0.398
-162.793	-200.000	0.054	-0.397
-161.779	-191.646	0.425	0.004
-160.764	-6.719	0.108	0.072
-159.750	800.000	-0.060	-0.243
-158.735	-20.311	-0.074	-0.045
-157.720	311.233	-0.068	-0.126
-156.706	-200.000	0.068	-0.328
-155.691	-172.785	0.202	-0.006
-154.677	12.836	0.125	-0.095
-153.662	-76.578	-0.316	0.109
-152.647	-10.384	-0.149	0.097
-151.633	446.397	0.133	-0.287
-150.618	790.650	-0.050	0.134
-149.604	-200.000	0.050	0.241
-148.589	700.113	0.033	-0.084
-147.574	800.000	-0.106	0.339
-146.560	800.000	0.095	0.362
-145.545	-126.744	0.310	-0.045
-144.531	39.899	-0.208	-0.184
-143.516	-67.929	0.185	0.071
-142.502	-36.043	0.125	0.066
-141.487	-29.179	-0.372	0.210
-140.472	-144.530	0.271	0.025
-139.458	92.333	0.180	0.199
-138.443	800.000	0.036	0.106
-137.429	256.743	0.190	-0.322
-136.414	800.000	0.132	-0.380
-135.399	-116.805	0.392	0.071
-134.385	222.793	0.064	-0.101
-133.370	717.827	-0.047	0.124
-132.356	-81.075	-0.183	-0.060
-131.341	-114.374	-0.306	-0.058
-130.326	800.000	-0.112	0.387
-129.312	-98.048	0.227	0.058
-128.297	149.600	-0.018	0.024
-127.283	43.814	0.079	-0.071
-126.268	165.508	0.243	0.338
-125.253	-94.155	-0.248	-0.067
-124.239	-151.674	-0.283	0.021
-123.224	-200.000	0.027	-0.169
-122.210	356.810	0.028	-0.054
-121.195	-7.300	0.225	-0.150
