DTS Sentinel unit serial number:	SN413079Multiplexer serial number:	ORYXHardware model number:	OX4-SRSoftware version number:	ORYX F/W v4.00 Oryx Data Collector v3.7.2.0data status	okinstallation	princeton_trtdifferential loss correction	single-endedforward channel	channel 3reverse channel	N/Adate	2019/09/11time	16:38:10forward acquisition time	60.00reverse acquisition time	0.00gamma	496.2192k internal	0.2287k external	0.2287temperature offset calibration	0.9993default loss term (dB/km)	0.3790temperature slope calibration	1.0000multiplexer offset coefficient	1.0000multiplexer slope coefficient	1.0000fibre end	0.00T internal ref (°C)	43.81T ext. ref 1 (°C)	1.09T ext. ref 2 (°C)	39.37length (m)	temperature (°C)	Stokes	anti-Stokes-747.200	-146.714	0.402	0.036
-746.185	-104.351	-0.200	0.048
-745.171	-100.822	-0.445	0.112
-744.156	800.000	-0.090	0.263
-743.142	-200.000	0.089	0.542
-742.127	-143.912	-0.035	0.003
-741.112	529.366	0.136	-0.330
-740.098	800.000	0.043	0.125
-739.083	-155.751	-0.189	-0.012
-738.069	-200.000	0.031	0.167
-737.054	-20.880	-0.134	0.084
-736.039	240.307	0.065	-0.111
-735.025	-93.743	0.093	0.026
-734.010	-24.126	-0.161	-0.099
-732.996	17.877	-0.222	-0.182
-731.981	81.430	-0.330	0.366
-730.966	-141.339	0.116	0.012
-729.952	800.000	-0.122	-0.518
-728.937	576.478	-0.041	-0.104
-727.923	-103.220	-0.234	-0.057
-726.908	19.112	-0.153	-0.126
-725.894	231.629	0.085	-0.143
-724.879	-13.596	0.207	-0.138
-723.864	-166.021	-0.314	0.014
-722.850	-36.741	-0.019	-0.010
-721.835	800.000	-0.032	-0.094
-720.821	-160.630	0.243	0.013
-719.806	-150.381	-0.118	0.009
-718.791	119.947	0.035	0.045
-717.777	-185.115	0.145	0.002
-716.762	485.126	-0.150	0.349
-715.748	-79.418	-0.159	-0.055
-714.733	1.390	0.099	-0.073
-713.718	789.499	0.011	0.031
-712.704	149.164	-0.157	0.217
-711.689	-200.000	0.038	-0.235
-710.675	-167.847	0.127	-0.005
-709.660	-199.852	-0.066	-0.000
-708.645	106.533	-0.050	-0.061
-707.631	28.368	-0.031	-0.026
-706.616	464.586	-0.065	-0.150
-705.602	67.968	0.096	-0.101
-704.587	283.024	-0.058	-0.107
-703.572	-200.000	0.037	-0.289
-702.558	-200.000	-0.055	-0.319
-701.543	340.166	-0.106	0.212
-700.529	800.000	0.048	-0.158
-699.514	145.981	-0.063	-0.086
-698.499	26.571	0.207	0.177
-697.485	-200.000	-0.002	0.047
-696.470	-154.008	-0.265	-0.018
-695.456	143.207	0.055	0.076
-694.441	204.439	-0.059	0.094
-693.426	-200.000	-0.008	0.183
-692.412	800.000	-0.061	0.182
-691.397	-200.000	-0.020	0.124
-690.383	-154.666	0.315	0.021
-689.368	-200.000	-0.048	-0.337
-688.354	222.474	0.136	-0.224
-687.339	214.393	0.069	-0.112
-686.324	-200.000	0.020	-0.235
-685.310	-8.349	0.216	-0.149
-684.295	514.056	-0.019	-0.046
-683.281	513.747	-0.043	0.102
-682.266	142.610	-0.186	-0.253
-681.251	-62.617	-0.241	0.102
-680.237	37.182	-0.123	-0.111
-679.222	317.068	0.021	0.041
-678.208	148.124	-0.110	0.152
-677.193	-200.000	-0.055	-0.332
-676.178	-200.000	-0.002	-0.089
-675.164	20.830	-0.216	-0.179
-674.149	69.503	-0.195	-0.205
-673.135	800.000	0.021	0.071
-672.120	737.176	0.076	0.207
-671.105	-200.000	-0.067	0.460
-670.091	20.034	0.230	-0.190
-669.076	-39.512	0.038	0.020
-668.062	167.025	-0.104	0.151
-667.047	268.133	0.127	-0.227
-666.032	147.823	0.082	0.113
-665.018	-200.000	-0.022	-0.319
-664.003	225.798	-0.343	0.569
-662.989	29.700	0.256	0.223
-661.974	-200.000	-0.012	0.170
-660.959	-57.690	0.341	0.153
-659.945	800.000	0.064	0.212
-658.930	-200.000	-0.023	-0.160
-657.916	-23.712	0.150	-0.092
-656.901	-46.824	0.151	0.076
-655.886	116.809	-0.171	0.215
-654.872	9.576	0.182	0.141
-653.857	473.833	-0.037	-0.085
-652.843	800.000	-0.023	-0.086
-651.828	800.000	-0.074	-0.217
-650.814	-74.495	-0.306	0.113
-649.799	-200.000	0.026	0.348
-648.784	88.926	-0.173	0.197
-647.770	-70.149	0.102	-0.040
-646.755	142.962	-0.126	0.171
-645.741	-78.540	-0.191	-0.067
-644.726	-134.033	0.032	0.004
-643.711	374.868	-0.047	0.098
-642.697	60.206	-0.109	0.110
-641.682	-200.000	-0.005	0.155
-640.668	178.606	0.262	-0.391
-639.653	199.468	0.169	-0.265
-638.638	97.731	0.067	0.078
-637.624	-109.809	0.441	0.095
-636.609	-112.047	-0.252	-0.052
-635.595	-19.764	0.216	-0.136
-634.580	-142.266	-0.190	-0.019
-633.565	-21.081	0.016	0.010
-632.551	-67.903	0.047	-0.019
-631.536	-200.000	-0.024	-0.347
-630.522	-87.017	0.385	-0.120
-629.507	19.579	0.149	0.122
-628.492	-30.314	-0.116	-0.067
-627.478	-200.000	-0.017	-0.154
-626.463	73.021	0.026	0.027
-625.449	721.901	0.141	0.382
-624.434	60.619	0.305	-0.309
-623.419	119.625	0.144	0.182
-622.405	-77.336	-0.382	-0.136
-621.390	-200.000	0.060	-0.279
-620.376	90.352	0.269	0.308
-619.361	-67.972	-0.164	0.065
-618.346	-134.267	0.177	0.022
-617.332	-103.867	0.139	-0.033
-616.317	-65.573	0.081	-0.033
-615.303	-126.082	0.121	0.018
-614.288	-66.701	-0.163	0.066
-613.273	-85.028	-0.186	0.060
-612.259	-54.855	-0.385	-0.177
-611.244	-64.798	-0.229	0.095
-610.230	-200.000	-0.001	0.132
-609.215	-66.094	-0.290	0.118
-608.201	-104.640	0.207	0.049
-607.186	-117.685	-0.197	0.036
-606.171	-82.373	0.187	0.062
-605.157	13.221	0.180	-0.142
-604.142	-112.369	-0.040	0.008
-603.128	89.436	0.086	0.098
-602.113	199.511	-0.111	0.173
-601.098	-200.000	-0.049	-0.279
-600.084	-39.153	-0.109	0.059
-599.069	420.763	-0.049	0.108
-598.055	-185.337	-0.092	0.001
-597.040	-200.000	0.017	0.249
-596.025	-200.000	-0.047	0.459
-595.011	362.245	0.044	-0.090
-593.996	9.354	0.016	0.013
-592.982	800.000	-0.088	-0.326
-591.967	-69.127	-0.313	-0.123
-590.952	-19.270	-0.070	-0.044
-589.938	800.000	0.112	-0.486
-588.923	66.751	0.128	0.133
-587.909	-151.602	0.094	0.007
-586.894	-170.354	0.126	-0.005
-585.879	123.261	0.050	0.064
-584.865	-109.656	0.086	0.018
-583.850	-200.000	-0.012	-0.148
-582.836	26.991	-0.124	-0.106
-581.821	15.069	0.099	0.079
-580.806	128.525	0.162	-0.211
-579.792	800.000	-0.034	0.145
-578.777	-145.637	0.121	-0.011
-577.763	-110.437	0.096	0.020
-576.748	800.000	-0.028	0.102
-575.733	-13.610	-0.142	-0.094
-574.719	-4.217	0.030	0.021
-573.704	800.000	-0.041	-0.170
-572.690	63.788	0.264	-0.271
-571.675	800.000	-0.079	-0.288
-570.661	-200.000	0.004	-0.135
-569.646	800.000	0.019	0.065
-568.631	153.412	0.181	-0.253
-567.617	-200.000	0.053	-0.332
-566.602	-107.606	-0.145	0.032
-565.588	-200.000	0.010	-0.097
-564.573	176.788	-0.104	-0.154
-563.558	-1.393	0.098	-0.070
-562.544	71.215	-0.182	-0.192
-561.529	-200.000	0.003	0.045
-560.515	229.510	-0.077	-0.129
-559.500	-200.000	0.040	-0.228
-558.485	28.885	-0.301	-0.260
-557.471	-1.837	0.105	-0.075
-556.456	796.304	0.060	-0.167
-555.442	10.133	0.146	-0.113
-554.427	17.442	-0.206	-0.167
-553.412	-6.443	0.120	0.083
-552.398	-96.948	0.243	0.065
-551.383	-131.868	0.154	-0.021
-550.369	-200.000	0.035	-0.342
-549.354	16.678	-0.124	0.100
-548.339	-107.236	-0.190	0.042
-547.325	-200.000	0.026	-0.162
-546.310	-93.379	0.227	0.064
-545.296	-156.746	-0.396	0.025
-544.281	-200.000	-0.031	0.355
-543.266	480.817	0.111	0.257
-542.252	33.171	0.046	-0.041
-541.237	-46.378	0.465	0.233
-540.223	-65.363	0.104	0.042
-539.208	-30.850	0.114	-0.065
-538.193	370.311	0.012	-0.024
-537.179	151.389	-0.070	-0.097
-536.164	-141.273	-0.241	-0.025
-535.150	-79.757	0.175	0.060
-534.135	284.364	-0.094	-0.172
-533.121	-127.277	-0.090	0.013
-532.106	-200.000	-0.013	0.120
-531.091	80.609	-0.017	-0.019
-530.077	-71.188	0.168	0.064
-529.062	78.222	0.112	0.121
-528.048	800.000	0.054	-0.175
-527.033	-200.000	0.052	-0.412
-526.018	578.726	0.063	0.158
-525.004	-3.297	-0.074	0.053
-523.989	-200.000	0.019	0.112
-522.975	-200.000	0.008	0.097
-521.960	-111.482	-0.035	-0.007
-520.945	-97.881	-0.486	-0.128
-519.931	-30.901	-0.237	-0.136
-518.916	-22.940	-0.120	0.074
-517.902	-69.528	-0.110	0.043
-516.887	800.000	-0.064	-0.242
-515.872	-129.449	-0.135	-0.019
-514.858	497.840	-0.049	-0.115
-513.843	-69.078	-0.180	-0.071
-512.829	-0.451	0.100	-0.072
-511.814	639.573	0.071	-0.184
-510.799	-54.483	-0.228	-0.105
-509.785	58.276	-0.075	0.075
-508.770	25.081	0.042	-0.035
-507.756	-200.000	-0.001	-0.112
-506.741	-200.000	-0.002	-0.409
-505.726	219.549	-0.121	0.196
-504.712	-130.070	0.180	0.025
-503.697	800.000	-0.047	0.172
-502.683	5.336	0.038	0.029
-501.668	-60.876	0.290	0.125
-500.653	-111.267	-0.129	-0.027
-499.639	122.020	0.130	-0.165
-498.624	-22.401	-0.182	-0.112
-497.610	800.000	-0.071	-0.208
-496.595	-95.485	-0.086	-0.023
-495.581	417.984	-0.107	0.233
-494.566	111.993	-0.159	0.195
-493.551	270.464	-0.310	-0.554
-492.537	154.164	0.118	0.165
-491.522	-200.000	0.007	-0.050
-490.508	800.000	-0.029	-0.099
-489.493	210.413	-0.104	-0.166
-488.478	-200.000	-0.002	0.032
-487.464	17.503	-0.082	0.066
-486.449	800.000	0.132	-0.416
-485.435	-200.000	-0.032	0.161
-484.420	-58.632	-0.152	-0.067
-483.405	-200.000	-0.049	-0.247
-482.391	-83.571	-0.109	0.035
-481.376	157.444	0.075	0.105
-480.362	230.938	-0.079	0.131
-479.347	-87.165	-0.317	-0.098
-478.332	276.516	-0.156	0.281
-477.318	103.023	0.066	-0.079
-476.303	285.001	0.095	-0.174
-475.289	-162.961	-0.254	-0.013
-474.274	-107.063	0.319	-0.072
-473.259	-92.167	-0.279	-0.080
-472.245	-200.000	0.004	-0.196
-471.230	-162.228	0.747	-0.038
-470.216	511.556	-0.052	-0.123
-469.201	-16.008	-0.257	-0.166
-468.186	-188.561	-0.267	0.003
-467.172	-200.000	0.009	0.050
-466.157	187.950	-0.148	-0.224
-465.143	-87.326	0.406	-0.125
-464.128	228.573	-0.165	-0.272
-463.113	-144.105	-0.138	0.013
-462.099	-49.592	-0.191	0.092
-461.084	17.905	-0.211	-0.170
-460.070	445.232	0.139	-0.310
-459.055	43.685	0.073	-0.068
-458.040	38.888	0.088	0.079
-457.026	674.739	0.129	-0.339
-456.011	24.811	0.037	0.031
-454.997	-200.000	0.013	0.196
-453.982	-20.579	0.169	0.106
-452.968	48.561	0.256	0.243
-451.953	336.870	-0.123	-0.242
-450.938	152.197	-0.319	0.441
-449.924	-200.000	-0.035	-0.208
-448.909	295.336	0.126	-0.234
-447.895	70.184	-0.067	-0.070
-446.880	72.889	-0.186	-0.197
-445.865	-22.660	0.337	-0.206
-444.851	135.587	-0.066	-0.087
-443.836	-122.770	-0.221	0.036
-442.822	-96.834	0.425	-0.113
-441.807	-89.391	-0.093	0.028
-440.792	-200.000	0.027	-0.275
-439.778	193.567	0.131	-0.201
-438.763	-96.940	0.146	0.039
-437.749	32.800	-0.123	-0.108
-436.734	-139.194	-0.390	-0.043
-435.719	381.453	0.086	-0.179
-434.705	-158.681	-0.361	-0.021
-433.690	17.909	0.117	-0.094
-432.676	318.693	0.063	0.122
-431.661	-58.722	0.126	-0.055
-430.646	-200.000	0.025	0.285
-429.632	75.624	0.319	-0.341
-428.617	290.030	0.138	-0.254
-427.603	-200.000	-0.022	-0.246
-426.588	212.835	0.144	-0.230
-425.573	176.833	0.014	0.020
-424.559	-66.488	0.102	0.041
-423.544	48.695	0.334	0.317
-422.530	116.038	0.160	-0.199
-421.515	-162.301	-0.198	-0.010
-420.500	-200.000	0.019	0.100
-419.486	-114.695	-0.310	-0.060
-418.471	-138.027	-0.218	0.025
-417.457	234.972	-0.087	0.145
-416.442	-158.500	-0.075	0.004
-415.428	-200.000	0.011	0.135
-414.413	40.767	-0.135	-0.123
-413.398	10.349	0.228	0.176
-412.384	220.012	-0.180	0.292
-411.369	153.956	-0.204	-0.284
-410.355	-75.538	0.435	0.157
-409.340	800.000	0.049	0.177
-408.325	89.462	0.186	0.210
-407.311	-55.175	0.061	-0.028
-406.296	-32.367	0.297	0.168
-405.282	110.738	0.153	-0.187
-404.267	-63.342	-0.161	-0.067
-403.252	-200.000	-0.009	0.308
-402.238	-191.416	0.008	0.000
-401.223	-26.356	-0.182	0.108
-400.209	114.588	-0.198	-0.244
-399.194	2.494	-0.365	-0.268
-398.179	-14.473	-0.067	0.044
-397.165	-104.564	-0.190	-0.044
-396.150	-57.852	-0.043	0.019
-395.136	-95.133	-0.120	0.033
-394.121	36.536	-0.150	0.134
-393.106	-14.340	-0.126	0.082
-392.092	-145.239	0.312	-0.029
-391.077	-99.328	0.262	-0.067
-390.063	715.497	0.137	-0.366
-389.048	-119.186	-0.072	-0.013
-388.033	-44.350	-0.117	-0.060
-387.019	-130.407	0.286	0.039
-386.004	-200.000	-0.005	-0.097
-384.990	-176.039	-0.273	-0.007
-383.975	800.000	0.167	0.533
-382.960	-53.317	0.108	-0.050
-381.946	79.891	-0.175	0.190
-380.931	245.856	-0.180	0.306
-379.917	401.368	0.126	0.267
-378.902	-134.035	0.421	0.053
-377.888	31.064	0.156	-0.135
-376.873	-86.988	-0.203	-0.063
-375.858	800.000	-0.105	0.330
-374.844	108.401	-0.017	0.021
-373.829	296.986	-0.130	-0.242
-372.815	5.925	-0.043	-0.032
-371.800	-200.000	0.007	-0.123
-370.785	-99.020	0.193	-0.050
-369.771	-145.714	0.070	-0.006
-368.756	454.422	0.082	-0.183
-367.742	418.182	-0.068	-0.147
-366.727	-36.250	0.172	-0.094
-365.712	-188.360	-0.134	0.002
-364.698	114.111	-0.081	0.099
-363.683	540.021	0.019	0.046
-362.669	-67.908	-0.210	-0.083
-361.654	270.132	-0.050	0.088
-360.639	-101.188	-0.235	-0.058
-359.625	-142.323	-0.218	-0.022
-358.610	-200.000	-0.015	-0.354
-357.596	73.393	-0.158	-0.167
-356.581	800.000	-0.013	-0.048
-355.566	-93.527	-0.178	-0.050
-354.552	93.645	-0.033	0.037
-353.537	-55.985	0.153	-0.069
-352.523	-40.806	0.079	-0.041
-351.508	10.422	-0.328	-0.252
-350.493	-200.000	-0.017	-0.337
-349.479	800.000	-0.036	0.108
-348.464	271.290	0.093	0.165
-347.450	-200.000	-0.053	0.418
-346.435	800.000	-0.120	0.344
-345.420	59.666	-0.582	0.580
-344.406	330.672	0.132	0.258
-343.391	456.250	0.049	-0.110
-342.377	-200.000	-0.014	0.142
-341.362	119.914	0.119	0.149
-340.348	204.427	0.180	-0.282
-339.333	326.009	-0.124	0.239
-338.318	-200.000	0.021	-0.210
-337.304	141.392	-0.178	0.238
-336.289	59.745	-0.027	-0.027
-335.275	800.000	0.054	0.186
-334.260	482.583	-0.042	0.097
-333.245	-200.000	0.032	-0.372
-332.231	-200.000	0.223	-0.001
-331.216	595.562	-0.098	0.245
-330.202	-52.350	-0.167	0.078
-329.187	130.908	0.161	-0.209
-328.172	-135.991	-0.238	-0.028
-327.158	-92.952	0.064	-0.018
-326.143	443.798	0.183	0.405
-325.129	-29.365	0.434	0.251
-324.114	8.025	0.196	-0.148
-323.099	-13.194	0.366	0.240
-322.085	-13.927	0.078	0.051
-321.070	69.069	0.174	0.181
-320.056	46.233	0.260	-0.243
-319.041	58.143	0.175	-0.173
-318.026	-116.462	0.611	-0.114
-317.012	-114.211	-0.176	-0.034
-315.997	347.998	-0.146	0.290
-314.983	800.000	0.047	0.182
-313.968	502.869	-0.069	-0.161
-312.953	61.457	0.262	0.263
-311.939	-153.999	-0.161	0.011
-310.924	-175.819	-0.420	-0.011
-309.910	313.352	-0.088	0.166
-308.895	-104.371	0.142	-0.033
-307.880	800.000	-0.045	-0.156
-306.866	800.000	0.004	-0.016
-305.851	-200.000	-0.027	0.205
-304.837	-21.924	0.082	0.050
-303.822	510.253	0.088	-0.206
-302.807	375.094	-0.086	0.178
-301.793	800.000	-0.029	-0.127
-300.778	270.788	0.099	0.176
-299.764	218.031	0.095	0.153
-298.749	-33.815	-0.189	0.105
-297.735	-200.000	-0.003	0.291
-296.720	90.540	0.145	0.163
-295.705	55.449	0.027	0.026
-294.691	-99.971	-0.109	-0.027
-293.676	800.000	-0.053	-0.200
-292.662	800.000	0.089	-0.381
-291.647	-14.253	0.434	-0.282
-290.632	-127.378	0.374	-0.055
-289.618	414.462	-0.171	0.368
-288.603	-200.000	0.050	-0.320
-287.589	-200.000	0.000	0.118
-286.574	-91.345	-0.346	-0.100
-285.559	-200.000	0.000	0.021
-284.545	-200.000	0.038	0.200
-283.530	-200.000	0.007	0.112
-282.516	76.815	-0.058	-0.062
-281.501	-7.239	-0.115	0.079
-280.486	14.806	0.088	-0.070
-279.472	142.055	-0.096	0.128
-278.457	24.524	-0.180	0.150
-277.443	-97.525	-0.292	0.076
-276.428	178.773	-0.092	0.136
-275.413	747.337	0.098	0.267
-274.399	-0.952	-0.253	-0.180
-273.384	-108.963	0.278	-0.060
-272.370	-66.914	-0.230	-0.092
-271.355	93.094	-0.074	-0.085
-270.340	-200.000	-0.008	-0.262
-269.326	-89.096	-0.189	-0.056
-268.311	247.988	0.089	-0.152
-267.297	-200.000	0.016	0.363
-266.282	-62.945	0.161	-0.067
-265.267	-200.000	-0.001	0.378
-264.253	297.616	0.100	0.184
-263.238	-200.000	-0.016	0.163
-262.224	289.141	-0.086	-0.158
-261.209	38.438	0.119	0.107
-260.195	-86.389	0.044	-0.014
-259.180	-22.798	0.016	-0.010
-258.165	41.659	0.467	0.426
-257.151	-111.024	0.109	-0.022
-256.136	395.556	-0.151	-0.318
-255.122	18.684	-0.267	-0.215
-254.107	78.670	0.262	0.282
-253.092	-37.964	-0.174	0.093
-252.078	47.233	-0.240	-0.225
-251.063	-107.080	0.258	-0.057
-250.049	268.817	0.131	-0.232
-249.034	-98.603	-0.383	0.098
-248.019	800.000	-0.007	0.026
-247.005	488.984	-0.090	0.207
-245.990	-65.900	-0.133	-0.053
-244.976	101.270	-0.112	0.131
-243.961	-200.000	0.012	0.119
-242.946	-5.700	0.091	-0.062
-241.932	-0.611	-0.191	0.137
-240.917	-102.724	-0.180	-0.043
-239.903	141.402	-0.065	-0.086
-238.888	66.963	-0.213	-0.218
-237.873	-1.525	-0.244	0.173
-236.859	-13.143	-0.150	0.098
-235.844	-29.603	0.236	-0.136
-234.830	-200.000	0.044	0.297
-233.815	-111.173	0.265	-0.054
-232.800	-8.880	0.020	0.014
-231.786	11.487	-0.165	0.127
-230.771	800.000	0.098	0.285
-229.757	800.000	0.119	0.356
-228.742	-200.000	-0.006	-0.087
-227.727	-191.729	-0.142	0.001
-226.713	-46.582	0.311	-0.153
-225.698	-57.642	0.122	-0.054
-224.684	426.128	-0.057	-0.124
-223.669	254.939	-0.074	0.127
-222.655	8.164	-0.133	-0.101
-221.640	-200.000	-0.021	0.229
-220.625	800.000	-0.073	0.232
-219.611	-145.289	-0.144	0.013
-218.596	542.744	0.026	0.062
-217.582	-1.101	0.020	0.014
-216.567	-41.426	0.496	0.257
-215.552	-77.230	-0.106	-0.037
-214.538	343.144	-0.171	-0.337
-213.523	264.429	0.105	-0.184
-212.509	-71.200	0.050	-0.019
-211.494	-16.814	-0.080	-0.051
-210.479	47.098	0.088	-0.083
-209.465	615.454	0.123	0.310
-208.450	206.729	-0.004	0.006
-207.436	-200.000	0.045	-0.355
-206.421	-200.000	-0.028	0.279
-205.406	-200.000	0.107	0.530
-204.392	19.289	-0.218	-0.175
-203.377	17.477	0.251	-0.201
-202.363	-200.000	-0.008	0.079
-201.348	-200.000	0.001	0.033
-200.333	259.781	-0.039	-0.067
-199.319	-200.000	0.020	-0.246
-198.304	-5.551	-0.247	0.170
-197.290	-2.427	-0.249	0.175
-196.275	-200.000	0.095	0.557
-195.260	351.353	0.135	0.268
-194.246	800.000	0.113	0.333
-193.231	-200.000	0.006	0.091
-192.217	-26.914	-0.169	0.099
-191.202	22.795	0.193	0.159
-190.187	51.781	0.125	-0.120
-189.173	454.365	-0.175	-0.389
-188.158	46.444	0.221	0.205
-187.144	800.000	-0.065	-0.240
-186.129	-24.205	0.072	-0.043
-185.114	52.388	-0.094	0.090
-184.100	127.643	0.172	-0.219
-183.085	-38.587	0.067	0.035
-182.071	711.949	-0.125	0.331
-181.056	184.388	0.130	0.193
-180.042	-92.168	0.270	0.077
-179.027	-200.000	0.002	0.150
-178.012	-200.000	0.129	0.606
-176.998	-30.606	0.184	0.104
-175.983	-200.000	-0.029	0.259
-174.969	-200.000	-0.033	0.241
-173.954	238.481	-0.112	-0.187
-172.939	-200.000	-0.050	-0.305
-171.925	-21.162	-0.315	0.193
-170.910	800.000	0.054	0.188
-169.896	-200.000	0.030	-0.212
-168.881	-47.746	-0.098	0.048
-167.866	35.360	0.236	-0.207
-166.852	9.048	-0.224	0.170
-165.837	800.000	-0.035	0.111
-164.823	39.332	-0.200	-0.180
-163.808	-40.175	-0.062	0.032
-162.793	27.788	0.206	0.174
-161.779	-61.738	0.090	-0.038
-160.764	-118.577	0.047	0.008
-159.750	220.317	-0.048	-0.077
-158.735	800.000	-0.030	-0.088
-157.720	94.983	0.261	0.298
-156.706	-66.729	-0.237	-0.094
-155.691	-200.000	0.014	-0.224
-154.677	-200.000	0.020	-0.153
-153.662	800.000	0.135	0.513
-152.647	-82.031	0.556	0.182
-151.633	-200.000	-0.022	-0.250
-150.618	52.753	-0.102	0.097
-149.604	-200.000	0.001	0.239
-148.589	-3.318	0.012	0.009
-147.574	-2.093	-0.282	-0.198
-146.560	158.154	0.123	-0.172
-145.545	201.437	0.152	0.234
-144.531	142.191	-0.109	0.145
-143.516	-64.540	0.207	-0.084
-142.502	-200.000	-0.004	0.212
-141.487	121.827	-0.193	0.242
-140.472	-130.242	0.243	0.033
-139.458	-200.000	0.031	0.160
-138.443	47.201	0.160	-0.149
-137.429	800.000	0.018	-0.056
-136.414	59.538	0.052	0.052
-135.399	-200.000	0.062	0.380
-134.385	-89.172	-0.138	-0.041
-133.370	296.373	0.099	-0.181
-132.356	225.762	0.080	-0.129
-131.341	135.378	-0.164	0.214
-130.326	-200.000	0.016	0.313
-129.312	800.000	0.068	0.235
-128.297	289.944	-0.085	0.155
-127.283	-200.000	0.004	0.031
-126.268	-192.002	-0.084	-0.001
-125.253	-174.189	-0.098	-0.003
-124.239	-152.561	-0.156	0.011
-123.224	171.303	-0.104	-0.150
-122.210	50.382	-0.334	-0.317
-121.195	-133.549	-0.264	-0.033
