DTS Sentinel unit serial number:	SN413079Multiplexer serial number:	ORYXHardware model number:	OX4-SRSoftware version number:	ORYX F/W v4.00 Oryx Data Collector v3.7.2.0data status	okinstallation	princeton_trtdifferential loss correction	single-endedforward channel	channel 3reverse channel	N/Adate	2019/09/11time	02:38:11forward acquisition time	60.00reverse acquisition time	0.00gamma	496.2192k internal	0.2331k external	0.2331temperature offset calibration	0.9910default loss term (dB/km)	0.3790temperature slope calibration	1.0000multiplexer offset coefficient	1.0000multiplexer slope coefficient	1.0000fibre end	0.00T internal ref (°C)	29.25T ext. ref 1 (°C)	-0.28T ext. ref 2 (°C)	23.17length (m)	temperature (°C)	Stokes	anti-Stokes-747.200	800.000	-0.050	0.145
-746.185	287.171	-0.138	0.252
-745.171	-56.073	0.342	-0.153
-744.156	22.108	0.116	0.095
-743.142	6.178	0.232	-0.173
-742.127	-60.766	-0.068	0.029
-741.112	43.093	-0.161	0.148
-740.098	-38.788	0.142	-0.076
-739.083	-51.722	0.226	0.106
-738.069	68.377	-0.243	0.251
-737.054	800.000	-0.051	-0.156
-736.039	800.000	0.037	-0.108
-735.025	-200.000	-0.012	0.222
-734.010	-179.420	-0.366	0.008
-732.996	376.036	0.119	-0.245
-731.981	-100.404	-0.145	-0.036
-730.966	-200.000	-0.004	-0.118
-729.952	-200.000	0.067	0.295
-728.937	-200.000	-0.055	-0.417
-727.923	127.967	0.122	-0.156
-726.908	145.416	0.210	-0.283
-725.894	52.699	0.268	-0.258
-724.879	-200.000	-0.042	-0.320
-723.864	800.000	0.028	-0.104
-722.850	-47.842	0.063	0.031
-721.835	29.671	0.189	-0.162
-720.821	-133.885	0.312	-0.039
-719.806	-82.925	-0.216	0.070
-718.791	40.857	0.211	-0.191
-717.777	29.957	0.267	0.229
-716.762	-57.013	-0.075	-0.033
-715.748	6.903	0.104	0.078
-714.733	154.868	0.033	-0.045
-713.718	145.016	-0.170	0.228
-712.704	63.132	-0.088	-0.089
-711.689	-200.000	0.036	-0.313
-710.675	139.299	-0.171	-0.226
-709.660	5.167	0.219	-0.162
-708.645	-165.832	-0.202	0.009
-707.631	-200.000	0.056	-0.281
-706.616	-79.902	-0.148	-0.050
-705.602	-86.744	0.144	0.044
-704.587	705.427	-0.111	-0.294
-703.572	35.454	-0.061	-0.053
-702.558	-200.000	-0.516	0.001
-701.543	-200.000	0.004	0.227
-700.529	9.294	0.188	0.143
-699.514	-200.000	-0.007	-0.531
-698.499	-200.000	0.045	-0.216
-697.485	-151.408	0.094	-0.007
-696.470	-136.770	0.162	-0.019
-695.456	15.220	-0.334	-0.263
-694.441	-158.599	0.246	-0.014
-693.426	103.808	-0.068	-0.080
-692.412	65.399	-0.194	0.198
-691.397	-200.000	-0.002	-0.233
-690.383	800.000	-0.191	-0.624
-689.368	-155.436	0.211	-0.014
-688.354	155.614	-0.209	-0.289
-687.339	136.062	0.116	-0.152
-686.324	-200.000	0.011	-0.101
-685.310	-200.000	0.059	-0.344
-684.295	11.203	0.079	-0.061
-683.281	-52.269	0.049	0.023
-682.266	1.723	0.283	0.205
-681.251	782.494	-0.049	0.134
-680.237	330.975	-0.183	0.354
-679.222	736.396	-0.076	-0.203
-678.208	130.042	-0.077	-0.098
-677.193	62.996	0.132	0.133
-676.178	206.915	0.224	-0.350
-675.164	-200.000	-0.040	-0.482
-674.149	35.735	-0.202	-0.178
-673.135	-115.666	-0.486	-0.091
-672.120	91.666	0.254	-0.287
-671.105	95.176	-0.129	0.148
-670.091	-23.687	0.498	0.300
-669.076	16.562	-0.054	-0.043
-668.062	238.162	0.207	-0.344
-667.047	502.053	-0.168	-0.388
-666.032	-67.091	-0.424	0.168
-665.018	-73.842	0.318	0.116
-664.003	24.105	-0.274	-0.227
-662.989	14.793	-0.172	0.135
-661.974	-39.428	0.229	-0.120
-660.959	-87.283	-0.423	0.129
-659.945	-3.625	0.086	-0.060
-658.930	575.781	0.066	0.161
-657.916	36.787	-0.154	-0.136
-656.901	-14.217	-0.238	0.154
-655.886	228.783	0.113	-0.184
-654.872	-138.416	-0.233	-0.026
-653.857	800.000	-0.063	-0.187
-652.843	-200.000	-0.039	-0.247
-651.828	123.432	0.332	0.417
-650.814	609.336	0.105	0.263
-649.799	565.261	0.021	0.050
-648.784	669.288	0.108	0.281
-647.770	800.000	-0.052	-0.144
-646.755	15.843	0.065	-0.051
-645.741	-2.441	-0.087	0.061
-644.726	302.237	-0.086	0.160
-643.711	120.632	0.246	-0.306
-642.697	800.000	-0.023	0.080
-641.682	-200.000	0.013	-0.230
-640.668	-111.849	-0.087	-0.018
-639.653	-200.000	0.018	0.108
-638.638	-73.413	-0.037	-0.014
-637.624	-95.046	0.197	-0.053
-636.609	-200.000	-0.012	-0.283
-635.595	-138.758	-0.332	-0.036
-634.580	358.041	0.055	-0.110
-633.565	189.542	0.099	-0.149
-632.551	800.000	0.071	0.215
-631.536	-4.469	0.176	0.122
-630.522	-7.220	-0.314	0.213
-629.507	-11.798	0.171	-0.112
-628.492	-61.408	0.378	-0.159
-627.478	-5.322	0.199	-0.137
-626.463	154.739	0.138	-0.189
-625.449	-87.287	0.108	-0.033
-624.434	-85.766	-0.232	-0.072
-623.419	-108.371	-0.130	0.028
-622.405	-200.000	0.004	-0.330
-621.390	8.199	-0.143	-0.108
-620.376	-166.891	-0.399	0.016
-619.361	-106.750	-0.307	-0.068
-618.346	-200.000	-0.040	0.347
-617.332	162.588	0.065	0.091
-616.317	800.000	-0.089	-0.249
-615.303	230.784	-0.101	0.165
-614.288	-50.008	0.281	0.133
-613.273	-166.857	-0.400	-0.016
-612.259	-57.076	-0.148	-0.065
-611.244	-43.504	0.395	-0.200
-610.230	-200.000	-0.005	0.112
-609.215	480.589	-0.062	0.141
-608.201	-200.000	0.012	0.064
-607.186	-27.134	-0.165	0.096
-606.171	760.378	-0.146	-0.397
-605.157	26.356	0.195	-0.163
-604.142	-45.147	0.156	-0.078
-603.128	-0.448	-0.188	-0.133
-602.113	-19.626	-0.428	0.265
-601.098	-131.022	-0.334	-0.045
-600.084	-75.132	0.144	-0.052
-599.069	-200.000	-0.020	-0.234
-598.055	-196.641	-0.101	0.001
-597.040	82.229	0.103	0.112
-596.025	-11.612	0.144	-0.095
-595.011	800.000	0.049	-0.136
-593.996	65.608	-0.213	0.216
-592.982	-132.457	0.193	-0.025
-591.967	140.187	0.104	0.137
-590.952	12.504	0.191	-0.148
-589.938	368.231	-0.081	-0.163
-588.923	-43.988	-0.222	-0.112
-587.909	800.000	0.067	-0.225
-586.894	46.000	-0.034	0.031
-585.879	61.896	-0.223	-0.222
-584.865	-75.985	-0.036	0.013
-583.850	90.710	-0.123	0.138
-582.836	521.471	0.040	-0.094
-581.821	800.000	0.046	0.163
-580.806	48.605	-0.193	-0.181
-579.792	-200.000	0.038	-0.230
-578.777	186.205	0.153	0.227
-577.763	204.271	0.175	-0.271
-576.748	-55.301	-0.289	-0.130
-575.733	37.160	0.073	0.065
-574.719	-77.333	0.262	-0.091
-573.704	800.000	-0.038	-0.132
-572.690	20.487	-0.066	0.053
-571.675	543.830	-0.124	-0.296
-570.661	-135.377	-0.381	0.046
-569.646	800.000	-0.040	0.166
-568.631	800.000	0.073	-0.318
-567.617	800.000	0.045	-0.172
-566.602	61.604	0.240	0.239
-565.588	-18.618	-0.348	-0.217
-564.573	-200.000	0.022	0.340
-563.558	-30.816	-0.176	-0.099
-562.544	-138.502	0.119	0.013
-561.529	60.386	0.248	0.245
-560.515	28.153	0.168	0.141
-559.500	800.000	0.108	0.301
-558.485	31.637	0.215	0.185
-557.471	-34.031	0.138	-0.076
-556.456	348.489	0.065	0.128
-555.442	672.371	-0.067	0.174
-554.427	-128.654	-0.110	-0.016
-553.412	-155.028	0.372	-0.024
-552.398	-132.224	-0.390	-0.050
-551.383	371.051	-0.046	0.093
-550.369	11.932	0.071	-0.055
-549.354	-200.000	-0.007	0.202
-548.339	342.322	-0.118	-0.231
-547.325	-200.000	0.094	-0.467
-546.310	197.918	-0.067	-0.102
-545.296	141.630	0.028	0.037
-544.281	-200.000	-0.082	0.413
-543.266	-200.000	-0.019	0.173
-542.252	246.013	-0.036	0.061
-541.237	-63.097	-0.004	-0.002
-540.223	-53.954	0.138	0.063
-539.208	12.479	-0.160	-0.123
-538.193	800.000	0.058	-0.232
-537.179	800.000	0.054	-0.161
-536.164	395.878	0.025	0.052
-535.150	738.494	0.058	0.155
-534.135	120.631	0.093	0.115
-533.121	-33.838	0.211	0.116
-532.106	-180.930	0.147	-0.003
-531.091	-142.642	-0.194	0.019
-530.077	-156.847	0.162	0.010
-529.062	53.672	-0.121	0.115
-528.048	-147.546	-0.377	-0.032
-527.033	-200.000	0.003	-0.075
-526.018	-143.183	0.341	-0.033
-525.004	324.095	-0.056	0.107
-523.989	-38.776	-0.060	-0.031
-522.975	202.374	-0.104	0.161
-521.960	73.026	-0.287	0.299
-520.945	-200.000	-0.003	-0.297
-519.931	-200.000	-0.012	-0.145
-518.916	132.515	-0.101	-0.130
-517.902	507.107	0.177	-0.410
-516.887	96.979	-0.203	0.232
-515.872	507.118	-0.091	-0.211
-514.858	112.145	-0.137	0.165
-513.843	-59.162	-0.082	0.035
-512.829	-32.845	0.080	-0.045
-511.814	-120.931	0.161	-0.027
-510.799	-128.517	0.257	-0.036
-509.785	155.212	-0.237	0.325
-508.770	238.756	-0.102	-0.169
-507.756	171.106	-0.088	-0.126
-506.741	144.826	-0.118	0.157
-505.726	93.472	-0.120	0.136
-504.712	-190.786	-0.189	-0.002
-503.697	-99.115	-0.192	-0.048
-502.683	-200.000	0.017	0.080
-501.668	75.789	-0.191	0.202
-500.653	-196.974	-0.242	0.002
-499.639	87.580	0.107	-0.118
-498.624	218.296	-0.173	0.276
-497.610	-200.000	-0.032	0.188
-496.595	-200.000	0.069	-0.383
-495.581	-29.472	-0.088	-0.050
-494.566	-75.940	0.072	-0.025
-493.551	800.000	0.046	0.163
-492.537	-200.000	0.003	0.090
-491.522	340.379	0.062	-0.120
-490.508	95.697	0.010	0.011
-489.493	-94.555	-0.124	-0.034
-488.478	-7.775	0.249	0.168
-487.464	-200.000	0.015	0.196
-486.449	125.082	0.224	0.281
-485.435	-89.477	-0.348	-0.102
-484.420	-41.143	-0.494	-0.254
-483.405	-200.000	-0.024	0.162
-482.391	20.292	0.083	-0.067
-481.376	-200.000	-0.019	0.263
-480.362	-85.966	0.361	-0.111
-479.347	-19.923	-0.090	0.055
-478.332	-144.247	0.033	-0.003
-477.318	226.721	-0.132	0.213
-476.303	485.709	-0.151	0.343
-475.289	349.686	-0.067	-0.131
-474.274	83.564	-0.081	0.088
-473.259	-111.060	-0.293	-0.060
-472.245	-200.000	-0.020	-0.180
-471.230	30.310	0.265	-0.226
-470.216	146.784	0.088	-0.118
-469.201	25.419	-0.114	0.094
-468.186	-200.000	-0.009	-0.151
-467.172	-200.000	0.004	0.100
-466.157	322.264	-0.060	0.113
-465.143	-200.000	0.001	-0.288
-464.128	-107.764	0.195	-0.042
-463.113	52.611	0.090	-0.086
-462.099	11.914	0.275	-0.211
-461.084	55.073	-0.258	0.248
-460.070	253.163	-0.021	0.036
-459.055	130.233	-0.008	-0.010
-458.040	-33.631	-0.216	-0.118
-457.026	584.983	0.123	0.300
-456.011	-113.907	0.251	-0.048
-454.997	180.458	0.065	-0.095
-453.982	-200.000	0.073	0.482
-452.968	-200.000	0.086	0.408
-451.953	-142.068	0.453	-0.045
-450.938	50.376	-0.134	-0.126
-449.924	-39.963	0.061	-0.032
-448.909	419.625	-0.172	0.366
-447.895	800.000	0.017	0.070
-446.880	-26.413	0.062	-0.036
-445.865	321.431	-0.129	0.243
-444.851	33.973	0.070	0.061
-443.836	-99.864	-0.249	-0.062
-442.822	-101.909	0.141	-0.034
-441.807	-144.397	-0.218	-0.020
-440.792	-200.000	-0.092	0.000
-439.778	92.031	-0.107	-0.120
-438.763	-200.000	0.009	-0.098
-437.749	197.886	-0.048	-0.073
-436.734	-150.014	-0.268	-0.021
-435.719	-200.000	0.017	-0.123
-434.705	-100.641	0.153	0.038
-433.690	-200.000	-0.016	0.136
-432.676	21.220	-0.171	-0.138
-431.661	800.000	0.076	-0.217
-430.646	-145.941	0.172	-0.015
-429.632	-200.000	0.007	-0.115
-428.617	71.023	-0.065	0.066
-427.603	-85.724	-0.137	0.042
-426.588	800.000	0.075	0.270
-425.573	59.516	0.019	0.019
-424.559	-70.619	-0.132	0.050
-423.544	0.719	0.172	-0.122
-422.530	-97.287	-0.396	-0.102
-421.515	-200.000	-0.002	0.195
-420.500	108.618	0.249	0.296
-419.486	243.079	-0.044	-0.074
-418.471	6.876	-0.077	-0.057
-417.457	120.218	0.159	-0.196
-416.442	-200.000	-0.006	-0.129
-415.428	179.474	0.101	0.147
-414.413	800.000	0.129	0.421
-413.398	106.722	-0.177	0.209
-412.384	44.753	-0.165	-0.151
-411.369	363.740	-0.098	-0.196
-410.355	-46.474	0.296	-0.144
-409.340	-200.000	-0.058	0.331
-408.325	-146.576	-0.270	0.023
-407.311	-137.483	0.145	-0.016
-406.296	312.914	0.063	0.118
-405.282	0.927	0.023	-0.016
-404.267	-98.008	0.087	0.022
-403.252	-148.807	0.156	0.013
-402.238	249.171	0.156	-0.262
-401.223	-200.000	0.030	0.470
-400.209	-200.000	-0.037	-0.235
-399.194	-200.000	0.029	-0.160
-398.179	-133.475	-0.098	0.012
-397.165	13.483	-0.082	-0.063
-396.150	-122.813	0.105	0.017
-395.136	53.683	-0.212	0.202
-394.121	-183.172	0.059	0.001
-393.106	-103.676	-0.462	0.107
-392.092	-46.010	0.264	-0.129
-391.077	-50.056	0.592	0.278
-390.063	60.577	-0.166	0.163
-389.048	596.290	0.078	0.191
-388.033	253.747	-0.124	-0.210
-387.019	800.000	0.130	0.361
-386.004	576.343	-0.108	0.263
-384.990	-126.631	-0.081	0.012
-383.975	-21.551	-0.230	0.139
-382.960	17.242	-0.209	-0.164
-381.946	800.000	-0.051	-0.218
-380.931	592.388	0.016	-0.040
-379.917	64.652	0.304	0.304
-378.902	-3.595	-0.333	0.229
-377.888	-119.972	0.169	0.029
-376.873	384.364	0.065	-0.133
-375.858	-200.000	0.041	-0.327
-374.844	-64.478	0.131	0.053
-373.829	49.604	0.299	-0.279
-372.815	-65.053	0.112	0.045
-371.800	-124.966	-0.106	0.016
-370.785	495.112	0.095	-0.217
-369.771	-47.614	0.390	0.188
-368.756	32.009	0.028	0.024
-367.742	-154.449	0.167	-0.011
-366.727	-82.930	-0.171	-0.055
-365.712	-42.329	0.144	0.073
-364.698	-97.557	0.291	0.075
-363.683	559.153	-0.057	0.137
-362.669	696.722	-0.113	-0.295
-361.654	-200.000	-0.013	0.086
-360.639	-109.145	0.281	-0.059
-359.625	800.000	-0.057	0.195
-358.610	11.531	-0.096	0.073
-357.596	-60.258	0.053	-0.023
-356.581	172.421	0.147	0.209
-355.566	-135.530	-0.156	0.018
-354.552	-200.000	-0.003	0.123
-353.537	-70.792	-0.332	0.124
-352.523	-36.313	-0.152	-0.081
-351.508	350.376	-0.069	0.134
-350.493	-40.610	0.328	-0.169
-349.479	467.054	0.048	0.106
-348.464	-2.614	-0.066	0.046
-347.450	800.000	0.066	0.214
-346.435	-16.940	0.118	0.074
-345.420	-92.941	0.120	0.033
-344.406	624.702	-0.066	-0.166
-343.391	-72.802	-0.150	-0.055
-342.377	-9.085	-0.184	-0.122
-341.362	-200.000	0.014	-0.336
-340.348	-195.566	0.195	0.001
-339.333	25.114	0.122	-0.100
-338.318	-200.000	0.042	-0.217
-337.304	5.477	-0.174	-0.127
-336.289	-73.938	-0.094	-0.034
-335.275	13.461	0.234	-0.179
-334.260	-133.444	0.079	-0.010
-333.245	-74.432	-0.377	-0.135
-332.231	800.000	0.023	-0.068
-331.216	-31.683	-0.232	0.129
-330.202	105.599	0.173	0.202
-329.187	23.782	0.089	-0.072
-328.172	-85.595	0.262	0.081
-327.158	-93.502	0.166	-0.045
-326.143	-20.245	0.138	0.084
-325.129	-115.848	0.232	-0.043
-324.114	-200.000	0.003	-0.183
-323.099	800.000	0.092	0.252
-322.085	43.436	0.150	-0.136
-321.070	-174.439	-0.407	0.012
-320.056	286.412	-0.224	-0.401
-319.041	800.000	-0.037	0.148
-318.026	-19.735	-0.104	-0.064
-317.012	58.746	-0.096	0.093
-315.997	-78.773	-0.041	-0.014
-314.983	-90.053	0.317	0.091
-313.968	-168.657	0.097	-0.004
-312.953	78.561	-0.075	0.079
-311.939	5.060	0.051	-0.037
-310.924	518.133	0.018	0.041
-309.910	62.373	-0.126	-0.124
-308.895	-200.000	0.011	0.091
-307.880	-31.995	-0.342	-0.190
-306.866	-40.710	0.129	0.066
-305.851	-73.569	0.199	-0.072
-304.837	-39.641	-0.076	-0.039
-303.822	-54.405	-0.053	0.024
-302.807	-80.332	0.140	-0.046
-301.793	164.747	0.127	0.177
-300.778	213.400	-0.082	0.128
-299.764	249.388	-0.130	0.218
-298.749	800.000	0.066	0.219
-297.735	-128.160	-0.144	0.020
-296.720	-200.000	-0.038	-0.250
-295.705	36.206	-0.195	0.170
-294.691	-40.166	-0.537	0.277
-293.676	246.815	-0.055	0.091
-292.662	-43.646	-0.296	0.148
-291.647	129.155	-0.066	-0.083
-290.632	370.700	-0.075	0.151
-289.618	-83.931	0.410	-0.129
-288.603	426.535	0.067	0.142
-287.589	87.107	-0.093	-0.101
-286.574	361.751	-0.049	0.097
-285.559	-200.000	0.011	0.126
-284.545	800.000	0.056	-0.224
-283.530	-200.000	-0.067	-0.303
-282.516	505.977	0.124	-0.283
-281.501	-163.640	-0.215	0.010
-280.486	-100.262	-0.383	0.094
-279.472	-178.192	0.182	0.004
-278.457	-99.568	-0.318	-0.079
-277.443	-142.919	0.070	-0.007
-276.428	-104.697	-0.229	-0.052
-275.413	-107.557	0.156	0.034
-274.399	546.318	0.033	0.078
-273.384	179.872	-0.139	0.201
-272.370	55.723	-0.215	0.206
-271.355	800.000	0.082	-0.229
-270.340	363.496	0.111	0.221
-269.326	31.621	-0.089	0.076
-268.311	-31.339	0.224	0.124
-267.297	-82.249	-0.429	-0.138
-266.282	-200.000	0.050	-0.268
-265.267	-200.000	0.024	0.159
-264.253	-200.000	0.035	0.191
-263.238	55.801	0.315	-0.302
-262.224	-200.000	0.002	-0.137
-261.209	292.499	-0.090	0.162
-260.195	-24.516	0.378	0.222
-259.180	-177.161	-0.365	0.009
-258.165	46.610	-0.110	0.101
-257.151	160.871	-0.177	0.244
-256.136	-27.222	-0.174	-0.100
-255.122	-158.506	0.334	0.019
-254.107	-93.378	-0.155	0.042
-253.092	-200.000	0.012	-0.198
-252.078	-149.513	0.258	0.020
-251.063	307.420	0.025	-0.046
-250.049	-35.952	0.272	-0.145
-249.034	528.641	-0.123	0.287
-248.019	800.000	-0.080	-0.245
-247.005	-33.853	0.054	-0.029
-245.990	800.000	0.074	0.276
-244.976	-200.000	0.004	0.053
-243.961	-200.000	-0.105	-0.460
-242.946	30.918	0.234	-0.198
-241.932	220.289	-0.068	0.108
-240.917	800.000	-0.041	0.159
-239.903	215.900	0.028	0.045
-238.888	227.708	-0.087	-0.140
-237.873	355.929	0.104	-0.204
-236.859	800.000	0.083	0.244
-235.844	-80.150	-0.171	0.056
-234.830	607.831	-0.161	0.395
-233.815	-69.883	0.175	0.066
-232.800	7.738	0.143	-0.106
-231.786	800.000	0.004	0.015
-230.771	800.000	-0.032	-0.120
-229.757	80.412	0.256	-0.272
-228.742	302.266	-0.065	-0.119
-227.727	-48.976	0.298	0.141
-226.713	-200.000	-0.019	0.235
-225.698	72.270	-0.098	0.101
-224.684	-140.801	0.278	-0.028
-223.669	-143.896	0.284	0.026
-222.655	6.771	0.146	-0.107
-221.640	800.000	0.137	0.491
-220.625	263.621	-0.113	-0.193
-219.611	-200.000	0.025	0.148
-218.596	-200.000	0.037	-0.412
-217.582	-77.375	0.254	-0.087
-216.567	341.401	0.040	0.077
-215.552	763.489	0.174	-0.464
-214.538	20.650	0.182	0.145
-213.523	439.194	-0.007	-0.015
-212.509	-164.477	-0.302	-0.014
-211.494	665.087	-0.047	-0.120
-210.479	-132.267	0.209	-0.027
-209.465	-87.759	0.177	0.053
-208.450	-129.589	-0.376	-0.051
-207.436	800.000	-0.018	-0.069
-206.421	51.884	-0.094	0.088
-205.406	-200.000	-0.013	-0.131
-204.392	-140.842	0.093	0.009
-203.377	-200.000	-0.055	-0.405
-202.363	42.894	-0.107	-0.096
-201.348	-41.402	-0.195	0.099
-200.333	-200.000	0.019	-0.149
-199.319	-200.000	0.019	0.116
-198.304	-200.000	-0.007	0.156
-197.290	180.036	-0.094	0.135
-196.275	-89.658	0.130	-0.037
-195.260	-44.751	0.252	0.124
-194.246	800.000	0.030	0.120
-193.231	800.000	-0.094	-0.261
-192.217	377.027	0.156	-0.314
-191.202	31.138	0.149	-0.126
-190.187	11.878	-0.188	-0.143
-189.173	-57.999	0.291	-0.125
-188.158	-72.981	0.338	0.122
-187.144	344.506	-0.209	-0.403
-186.129	59.554	-0.129	-0.125
-185.114	-200.000	-0.002	0.055
-184.100	-9.282	-0.212	0.140
-183.085	76.490	0.263	-0.274
-182.071	144.068	-0.125	0.165
-181.056	-45.886	0.342	0.166
-180.042	-19.792	0.163	0.099
-179.027	-70.753	-0.063	0.024
-178.012	143.209	0.124	-0.162
-176.998	-172.749	-0.183	-0.006
-175.983	-121.851	-0.235	0.038
-174.969	118.761	-0.111	0.135
-173.954	-38.973	0.155	-0.080
-172.939	-55.559	0.262	-0.115
-171.925	-200.000	0.021	-0.102
-170.910	-27.835	0.025	0.014
-169.896	127.857	-0.104	0.130
-168.881	-200.000	-0.040	-0.193
-167.866	800.000	-0.022	0.063
-166.852	49.819	0.192	0.178
-165.837	75.192	0.073	0.076
-164.823	800.000	0.065	-0.198
-163.808	20.293	0.146	0.116
-162.793	-8.007	0.189	-0.126
-161.779	-200.000	-0.009	0.053
-160.764	-200.000	-0.009	0.083
-159.750	-200.000	-0.020	-0.171
-158.735	27.592	-0.236	-0.195
-157.720	-184.263	0.270	0.004
-156.706	68.508	0.248	-0.250
-155.691	800.000	-0.034	-0.107
-154.677	-60.998	0.147	0.061
-153.662	800.000	-0.116	0.320
-152.647	-120.316	-0.188	0.031
-151.633	133.773	0.158	0.201
-150.618	-39.402	0.238	-0.122
-149.604	-25.270	-0.140	-0.081
-148.589	-200.000	-0.013	0.265
-147.574	-117.346	-0.293	0.052
-146.560	-8.376	-0.070	0.047
-145.545	800.000	0.074	0.204
-144.531	800.000	-0.044	-0.129
-143.516	159.705	-0.120	0.164
-142.502	56.391	-0.103	-0.098
-141.487	-200.000	0.009	-0.084
-140.472	8.117	-0.199	0.147
-139.458	-200.000	0.031	0.237
-138.443	338.781	0.048	0.093
-137.429	-200.000	-0.025	-0.111
-136.414	680.880	-0.084	-0.215
-135.399	84.160	-0.054	-0.058
-134.385	-59.188	0.215	0.091
-133.370	10.289	-0.292	0.218
-132.356	-121.519	0.078	-0.013
-131.341	-45.860	0.269	-0.131
-130.326	26.786	-0.121	-0.100
-129.312	42.797	-0.070	-0.062
-128.297	800.000	-0.153	-0.522
-127.283	800.000	0.038	0.104
-126.268	-200.000	0.041	0.228
-125.253	310.504	0.132	-0.242
-124.239	-69.729	0.166	-0.062
-123.224	-44.200	-0.099	-0.049
-122.210	-200.000	-0.056	-0.368
-121.195	168.580	-0.132	-0.185
