DTS Sentinel unit serial number:	SN413079Multiplexer serial number:	ORYXHardware model number:	OX4-SRSoftware version number:	ORYX F/W v4.00 Oryx Data Collector v3.7.2.0data status	okinstallation	princeton_trtdifferential loss correction	single-endedforward channel	channel 3reverse channel	N/Adate	2019/09/12time	03:22:11forward acquisition time	60.00reverse acquisition time	0.00gamma	496.2192k internal	0.2322k external	0.2322temperature offset calibration	1.0065default loss term (dB/km)	0.3790temperature slope calibration	1.0000multiplexer offset coefficient	1.0000multiplexer slope coefficient	1.0000fibre end	0.00T internal ref (°C)	32.25T ext. ref 1 (°C)	2.14T ext. ref 2 (°C)	26.62length (m)	temperature (°C)	Stokes	anti-Stokes-747.200	63.821	0.436	0.443
-746.185	146.062	-0.113	0.153
-745.171	68.313	0.198	-0.204
-744.156	183.279	-0.119	0.177
-743.142	-118.691	0.231	0.041
-742.127	-200.000	0.018	0.391
-741.112	141.505	-0.148	-0.198
-740.098	-200.000	-0.029	-0.354
-739.083	-9.174	0.043	-0.029
-738.069	-200.000	0.040	0.180
-737.054	-182.636	-0.319	0.006
-736.039	-49.282	-0.328	-0.158
-735.025	132.227	0.250	0.325
-734.010	-200.000	0.014	0.159
-732.996	-9.822	-0.138	-0.093
-731.981	800.000	0.092	-0.317
-730.966	116.605	0.204	-0.253
-729.952	-45.317	-0.160	-0.080
-728.937	88.154	-0.155	-0.173
-727.923	-10.091	-0.166	0.111
-726.908	-89.241	-0.073	0.022
-725.894	-125.834	-0.286	0.044
-724.879	-0.095	0.172	-0.124
-723.864	-200.000	0.003	-0.139
-722.850	-200.000	0.006	0.043
-721.835	-164.504	0.107	0.005
-720.821	-200.000	-0.003	0.136
-719.806	225.788	0.255	-0.417
-718.791	244.458	-0.197	-0.334
-717.777	-58.886	0.099	0.043
-716.762	-82.444	0.181	-0.059
-715.748	-71.804	-0.323	-0.122
-714.733	800.000	0.094	-0.394
-713.718	-79.624	0.160	0.054
-712.704	49.021	-0.092	-0.087
-711.689	-47.433	0.215	0.105
-710.675	-51.501	-0.232	-0.109
-709.660	-62.199	0.151	0.063
-708.645	169.749	0.091	-0.131
-707.631	282.704	0.150	-0.271
-706.616	103.046	0.239	0.282
-705.602	42.993	0.191	-0.176
-704.587	175.348	-0.051	-0.074
-703.572	-135.735	-0.191	-0.023
-702.558	-36.704	0.200	0.109
-701.543	-200.000	0.016	-0.191
-700.529	58.538	-0.168	0.166
-699.514	52.952	0.148	-0.143
-698.499	-121.932	-0.421	-0.070
-697.485	147.570	0.038	0.051
-696.470	-150.500	-0.028	-0.002
-695.456	-200.000	0.026	-0.263
-694.441	555.917	-0.018	0.043
-693.426	-200.000	-0.016	-0.159
-692.412	-127.546	-0.474	0.069
-691.397	-29.874	0.174	-0.100
-690.383	-157.053	-0.281	0.017
-689.368	415.278	0.131	0.281
-688.354	-119.901	-0.136	-0.024
-687.339	-200.000	0.018	0.345
-686.324	-10.758	-0.271	0.181
-685.310	-17.818	0.115	-0.073
-684.295	-75.066	0.106	0.038
-683.281	-34.585	0.123	0.068
-682.266	226.565	0.119	-0.194
-681.251	7.387	0.091	0.068
-680.237	-200.000	-0.057	-0.334
-679.222	-200.000	-0.008	-0.078
-678.208	-53.043	0.204	-0.094
-677.193	59.524	-0.128	0.127
-676.178	-69.726	-0.275	-0.106
-675.164	-99.949	-0.080	-0.020
-674.149	800.000	-0.034	0.112
-673.135	-41.308	0.205	-0.106
-672.120	-124.408	0.152	-0.024
-671.105	-200.000	-0.035	0.190
-670.091	95.887	0.057	-0.065
-669.076	74.757	0.101	-0.107
-668.062	-55.228	-0.230	0.104
-667.047	24.018	0.220	0.183
-666.032	-162.273	0.244	0.012
-665.018	-81.801	-0.288	0.095
-664.003	-65.160	-0.283	-0.115
-662.989	95.237	0.108	-0.123
-661.974	-30.281	-0.219	0.125
-660.959	-200.000	0.007	0.203
-659.945	139.310	-0.175	0.231
-658.930	-103.915	0.100	-0.023
-657.916	800.000	0.064	0.197
-656.901	-200.000	0.054	-0.355
-655.886	5.567	-0.133	0.099
-654.872	800.000	-0.087	-0.351
-653.857	800.000	-0.061	-0.202
-652.843	-46.987	0.143	0.070
-651.828	-200.000	-0.040	-0.278
-650.814	25.039	-0.033	-0.028
-649.799	800.000	0.060	0.232
-648.784	-3.678	-0.351	0.245
-647.770	-35.978	-0.079	0.043
-646.755	-41.103	0.204	0.106
-645.741	5.464	0.214	0.159
-644.726	272.292	-0.124	-0.219
-643.711	-200.000	0.010	0.065
-642.697	192.138	-0.024	-0.037
-641.682	224.590	-0.090	0.146
-640.668	171.142	-0.200	0.289
-639.653	140.399	0.092	-0.122
-638.638	196.039	0.123	0.189
-637.624	-135.826	-0.079	-0.009
-636.609	-200.000	0.014	-0.079
-635.595	-200.000	0.027	0.448
-634.580	800.000	0.053	0.222
-633.565	6.012	-0.316	-0.235
-632.551	-147.059	0.164	0.014
-631.536	-89.620	0.096	-0.028
-630.522	800.000	0.065	0.253
-629.507	-30.955	0.251	0.143
-628.492	7.766	0.143	-0.108
-627.478	-37.162	0.296	0.160
-626.463	800.000	-0.086	-0.275
-625.449	252.629	-0.037	-0.064
-624.434	-70.316	-0.372	0.142
-623.419	-90.493	0.274	-0.080
-622.405	-152.029	-0.259	0.019
-621.390	50.202	0.048	0.046
-620.376	800.000	-0.115	0.323
-619.361	-200.000	-0.260	0.000
-618.346	-63.802	-0.331	0.136
-617.332	-78.540	0.120	0.041
-616.317	-66.485	-0.308	-0.123
-615.303	800.000	0.092	0.294
-614.288	-200.000	0.065	0.289
-613.273	63.977	0.234	0.236
-612.259	-200.000	-0.008	-0.439
-611.244	163.862	-0.183	-0.258
-610.230	-19.683	-0.457	-0.284
-609.215	117.778	0.039	0.048
-608.201	-85.752	0.092	-0.029
-607.186	-200.000	0.032	-0.408
-606.171	94.779	0.170	-0.194
-605.157	-146.362	0.080	0.007
-604.142	800.000	-0.048	-0.171
-603.128	-10.610	-0.214	0.143
-602.113	800.000	0.036	-0.113
-601.098	-200.000	0.010	0.120
-600.084	-89.310	-0.270	0.080
-599.069	800.000	-0.108	0.392
-598.055	-79.525	-0.219	0.074
-597.040	150.393	0.086	0.118
-596.025	91.181	0.261	0.294
-595.011	338.371	-0.028	0.055
-593.996	800.000	-0.071	-0.203
-592.982	-86.629	-0.078	0.024
-591.967	120.024	-0.200	-0.249
-590.952	-13.399	-0.307	-0.200
-589.938	708.667	0.055	0.145
-588.923	6.631	-0.270	-0.202
-587.909	94.012	-0.179	-0.204
-586.894	-16.889	0.164	0.104
-585.879	165.031	-0.068	-0.096
-584.865	-176.106	0.311	0.008
-583.850	133.264	0.132	-0.171
-582.836	-85.995	-0.055	-0.017
-581.821	-46.738	0.269	0.132
-580.806	105.783	0.060	0.071
-579.792	27.360	0.203	0.171
-578.777	-42.795	-0.352	0.179
-577.763	-78.970	-0.195	0.067
-576.748	4.660	-0.172	-0.127
-575.733	800.000	0.099	0.349
-574.719	-114.663	0.157	0.030
-573.704	-81.489	0.144	0.048
-572.690	38.218	0.217	-0.194
-571.675	-41.691	0.150	-0.077
-570.661	-146.736	-0.214	-0.019
-569.646	84.971	0.089	-0.098
-568.631	197.778	-0.127	-0.194
-567.617	800.000	-0.032	-0.110
-566.602	745.197	-0.049	0.132
-565.588	-118.329	0.285	0.051
-564.573	88.082	-0.073	0.081
-563.558	70.682	0.159	-0.165
-562.544	-123.120	-0.055	0.009
-561.529	800.000	-0.023	0.075
-560.515	800.000	-0.041	0.179
-559.500	15.436	-0.300	-0.236
-558.485	60.212	0.043	0.042
-557.471	800.000	-0.063	-0.200
-556.456	800.000	0.061	-0.265
-555.442	119.475	0.123	0.152
-554.427	566.191	0.041	-0.101
-553.412	184.690	-0.098	-0.146
-552.398	-92.378	-0.124	0.035
-551.383	-145.706	-0.091	-0.008
-550.369	800.000	-0.053	0.233
-549.354	-200.000	-0.024	-0.314
-548.339	153.003	-0.131	-0.179
-547.325	173.710	0.179	0.260
-546.310	203.605	-0.093	0.144
-545.296	-200.000	0.076	-0.438
-544.281	21.815	-0.159	-0.130
-543.266	313.804	-0.073	-0.138
-542.252	-42.889	0.208	0.106
-541.237	-30.147	-0.250	0.142
-540.223	-200.000	0.004	-0.154
-539.208	271.114	-0.087	0.154
-538.193	800.000	-0.087	0.279
-537.179	-200.000	-0.017	-0.083
-536.164	36.072	-0.353	0.312
-535.150	339.127	0.110	-0.214
-534.135	-29.115	-0.013	-0.007
-533.121	-200.000	-0.011	0.071
-532.106	-200.000	0.012	0.075
-531.091	100.284	0.066	-0.076
-530.077	-92.311	0.257	-0.073
-529.062	-200.000	0.059	0.538
-528.048	-132.451	-0.328	0.042
-527.033	546.361	0.089	0.213
-526.018	482.218	-0.161	-0.366
-525.004	-85.325	0.103	0.032
-523.989	-200.000	0.022	-0.174
-522.975	-99.561	0.151	0.038
-521.960	536.082	-0.048	0.115
-520.945	288.538	0.097	-0.177
-519.931	-31.691	-0.190	-0.107
-518.916	-200.000	0.014	0.070
-517.902	-31.059	-0.057	0.032
-516.887	-62.280	-0.103	0.043
-515.872	-17.405	-0.317	0.200
-514.858	-173.569	0.345	0.010
-513.843	-61.767	0.050	-0.021
-512.829	-25.368	-0.027	-0.016
-511.814	76.567	-0.122	0.130
-510.799	-179.133	-0.603	-0.013
-509.785	-130.141	-0.259	-0.035
-508.770	107.956	-0.079	-0.095
-507.756	70.568	0.019	-0.020
-506.741	-200.000	0.023	0.238
-505.726	-159.909	0.080	0.004
-504.712	-46.706	0.308	-0.151
-503.697	-128.146	0.376	0.054
-502.683	-46.772	0.060	0.029
-501.668	-200.000	0.049	-0.250
-500.653	-181.457	-0.258	0.005
-499.639	41.883	-0.204	0.185
-498.624	55.568	-0.103	-0.100
-497.610	-64.414	0.239	0.097
-496.595	-84.287	0.213	-0.067
-495.581	-160.419	-0.228	-0.012
-494.566	323.132	-0.130	-0.248
-493.551	724.123	0.027	-0.071
-492.537	-23.588	-0.253	0.152
-491.522	76.225	0.029	0.031
-490.508	112.805	-0.091	-0.111
-489.493	-182.873	0.244	0.004
-488.478	-150.909	-0.318	0.024
-487.464	-96.962	-0.366	-0.096
-486.449	259.741	0.127	0.220
-485.435	23.949	0.217	0.179
-484.420	24.973	0.157	0.130
-483.405	-16.267	0.172	-0.109
-482.391	-200.000	0.018	0.112
-481.376	-46.824	-0.183	0.090
-480.362	-200.000	-0.054	-0.253
-479.347	800.000	0.060	-0.212
-478.332	-133.608	0.194	0.024
-477.318	236.448	0.099	0.164
-476.303	-98.889	0.212	0.054
-475.289	-45.311	0.264	0.131
-474.274	32.526	0.021	-0.018
-473.259	717.747	0.158	-0.420
-472.245	-83.097	-0.127	0.041
-471.230	20.253	-0.222	0.179
-470.216	73.613	0.214	-0.225
-469.201	800.000	-0.085	0.293
-468.186	-25.245	0.256	-0.152
-467.172	-200.000	0.018	0.104
-466.157	-135.531	-0.244	0.029
-465.143	-36.558	-0.081	-0.043
-464.128	498.521	-0.073	-0.168
-463.113	-200.000	0.014	-0.071
-462.099	120.620	0.127	-0.158
-461.084	756.703	0.075	0.203
-460.070	-128.006	0.162	-0.023
-459.055	-68.670	-0.349	-0.135
-458.040	-81.578	0.325	0.107
-457.026	318.337	-0.076	-0.144
-456.011	-8.014	0.222	0.149
-454.997	234.526	0.048	-0.078
-453.982	-165.034	0.083	0.004
-452.968	383.172	0.160	0.328
-451.953	800.000	-0.089	0.257
-450.938	-200.000	0.044	-0.250
-449.924	22.038	0.266	-0.217
-448.909	249.402	-0.035	0.059
-447.895	633.174	0.029	-0.073
-446.880	281.831	0.166	0.297
-445.865	-85.127	0.086	0.027
-444.851	-200.000	-0.021	0.216
-443.836	800.000	-0.073	-0.206
-442.822	21.738	-0.080	-0.065
-441.807	121.590	-0.143	0.178
-440.792	16.854	0.092	-0.073
-439.778	-48.028	-0.165	0.080
-438.763	-200.000	-0.007	0.148
-437.749	800.000	0.030	-0.128
-436.734	67.778	0.092	-0.094
-435.719	69.580	0.248	0.255
-434.705	37.961	0.085	-0.075
-433.690	-29.484	0.320	-0.183
-432.676	178.127	0.126	0.184
-431.661	49.966	0.200	0.189
-430.646	-88.919	-0.031	0.009
-429.632	42.244	-0.107	-0.097
-428.617	73.258	0.155	-0.162
-427.603	-165.524	0.259	-0.011
-426.588	213.085	-0.091	-0.143
-425.573	10.396	0.264	0.201
-424.559	-13.563	0.313	0.202
-423.544	-42.290	0.132	0.067
-422.530	-165.994	-0.430	-0.018
-421.515	-154.275	0.221	-0.015
-420.500	-50.570	-0.115	-0.054
-419.486	-108.330	0.134	-0.029
-418.471	-200.000	-0.001	-0.023
-417.457	800.000	0.074	0.224
-416.442	-85.668	0.058	-0.018
-415.428	-101.720	0.140	-0.034
-414.413	800.000	-0.082	-0.236
-413.398	-123.523	-0.209	-0.033
-412.384	-200.000	-0.029	-0.281
-411.369	-98.675	-0.116	0.030
-410.355	-60.352	0.125	-0.053
-409.340	-95.503	-0.092	-0.025
-408.325	-126.238	-0.333	0.050
-407.311	284.736	-0.038	-0.068
-406.296	-85.475	0.051	-0.016
-405.282	-108.539	-0.371	0.079
-404.267	-185.911	-0.096	0.001
-403.252	-32.405	-0.203	-0.113
-402.238	7.153	0.058	-0.043
-401.223	146.320	0.053	0.071
-400.209	800.000	0.035	-0.132
-399.194	-192.588	-0.064	-0.001
-398.179	34.043	0.209	-0.181
-397.165	-110.962	0.207	0.042
-396.150	-30.798	0.210	0.119
-395.136	-174.092	0.127	-0.004
-394.121	-200.000	-0.041	0.278
-393.106	604.216	-0.091	-0.226
-392.092	-56.864	-0.265	0.117
-391.077	72.640	-0.219	-0.228
-390.063	331.850	0.039	0.074
-389.048	-81.901	-0.206	-0.067
-388.033	-200.000	0.038	-0.233
-387.019	113.617	0.259	-0.314
-386.004	287.476	-0.100	-0.180
-384.990	380.699	-0.084	-0.172
-383.975	-200.000	-0.000	-0.003
-382.960	-200.000	0.016	-0.107
-381.946	-112.835	-0.315	0.062
-380.931	-51.747	-0.285	-0.132
-379.917	496.397	0.118	-0.270
-378.902	36.571	-0.211	-0.185
-377.888	-109.075	0.344	-0.073
-376.873	-200.000	0.004	0.059
-375.858	-46.042	0.415	0.204
-374.844	-74.838	0.294	0.105
-373.829	-200.000	0.013	-0.144
-372.815	-93.291	-0.217	-0.060
-371.800	-90.219	0.225	0.065
-370.785	287.014	-0.084	-0.150
-369.771	-200.000	-0.056	-0.305
-368.756	800.000	-0.053	-0.213
-367.742	13.418	0.078	0.060
-366.727	-54.697	-0.155	-0.070
-365.712	800.000	0.023	-0.081
-364.698	22.713	0.207	0.169
-363.683	-87.292	0.225	0.068
-362.669	-67.290	0.238	0.093
-361.654	255.989	-0.068	0.115
-360.639	-83.484	0.155	0.050
-359.625	-120.449	0.124	0.021
-358.610	800.000	-0.050	0.191
-357.596	-131.535	0.036	-0.005
-356.581	-127.870	-0.065	0.009
-355.566	-81.597	0.377	0.123
-354.552	328.878	-0.112	0.214
-353.537	241.963	-0.062	-0.103
-352.523	538.852	0.095	-0.225
-351.508	-200.000	0.025	-0.111
-350.493	41.083	-0.206	0.185
-349.479	-200.000	0.023	-0.298
-348.464	800.000	-0.021	-0.062
-347.450	-84.937	0.206	-0.064
-346.435	-40.634	0.221	-0.114
-345.420	-3.985	-0.176	0.121
-344.406	24.102	-0.264	0.217
-343.391	-200.000	0.013	-0.192
-342.377	-190.699	0.154	0.002
-341.362	-165.775	-0.282	0.012
-340.348	592.241	-0.088	-0.215
-339.333	38.497	0.168	-0.149
-338.318	-30.638	-0.148	-0.083
-337.304	-163.028	0.393	-0.019
-336.289	153.222	-0.205	-0.279
-335.275	-200.000	-0.074	-0.354
-334.260	-61.851	0.162	-0.067
-333.245	-17.730	-0.091	0.057
-332.231	89.705	0.212	0.236
-331.216	-187.779	-0.200	0.003
-330.202	135.916	0.106	-0.137
-329.187	-16.496	0.196	-0.123
-328.172	131.417	0.163	0.208
-327.158	800.000	0.010	0.030
-326.143	-40.891	0.204	0.105
-325.129	153.356	-0.191	-0.260
-324.114	-0.644	-0.133	-0.094
-323.099	-165.488	-0.098	0.004
-322.085	196.535	-0.135	0.204
-321.070	-152.605	-0.199	-0.014
-320.056	800.000	0.076	-0.211
-319.041	-90.455	0.170	-0.049
-318.026	45.063	-0.169	0.155
-317.012	-200.000	0.009	-0.046
-315.997	-40.906	-0.323	0.166
-314.983	-2.861	0.223	0.155
-313.968	-163.540	0.343	0.016
-312.953	-200.000	0.010	0.282
-311.939	-131.294	-0.159	0.021
-310.924	-28.378	-0.159	0.091
-309.910	-58.652	0.361	-0.155
-308.895	110.319	-0.030	-0.036
-307.880	107.205	0.149	-0.175
-306.866	97.107	-0.032	0.037
-305.851	80.510	-0.111	0.119
-304.837	442.483	0.094	-0.204
-303.822	-51.871	0.188	0.087
-302.807	74.935	-0.180	0.188
-301.793	92.351	0.108	-0.121
-300.778	-109.115	0.207	-0.044
-299.764	16.804	0.085	-0.066
-298.749	-70.590	-0.299	0.112
-297.735	-51.351	-0.118	-0.055
-296.720	90.498	0.163	-0.182
-295.705	-153.763	0.303	0.021
-294.691	503.562	-0.158	0.362
-293.676	-200.000	-0.017	0.185
-292.662	-82.498	-0.059	0.019
-291.647	-123.827	-0.444	-0.070
-290.632	375.910	0.059	-0.119
-289.618	800.000	-0.103	-0.318
-288.603	-41.541	-0.318	0.162
-287.589	56.824	0.165	0.159
-286.574	-88.449	0.055	0.016
-285.559	500.261	0.058	-0.133
-284.545	268.944	0.177	-0.309
-283.530	-200.000	-0.051	-0.310
-282.516	-81.109	0.062	-0.020
-281.501	800.000	-0.046	0.185
-280.486	-200.000	-0.038	0.460
-279.472	-166.653	-0.112	0.005
-278.457	-100.929	-0.188	-0.046
-277.443	-200.000	-0.022	-0.203
-276.428	110.402	0.151	0.180
-275.413	-17.662	-0.094	-0.058
-274.399	94.738	0.140	-0.158
-273.384	-114.911	0.216	-0.041
-272.370	800.000	-0.106	-0.400
-271.355	-200.000	0.050	-0.288
-270.340	193.641	0.123	-0.185
-269.326	-200.000	-0.037	-0.287
-268.311	-90.028	-0.459	-0.133
-267.297	800.000	0.070	-0.288
-266.282	-200.000	0.002	-0.370
-265.267	334.089	0.116	0.222
-264.253	129.525	0.125	0.159
-263.238	481.199	0.093	0.210
-262.224	-36.082	-0.088	0.047
-261.209	31.196	0.234	0.199
-260.195	410.673	0.065	0.137
-259.180	-120.954	0.470	0.078
-258.165	50.834	0.122	-0.115
-257.151	-145.254	0.159	0.014
-256.136	61.177	-0.109	0.107
-255.122	-118.615	-0.455	-0.080
-254.107	112.874	-0.235	0.282
-253.092	-57.541	0.224	-0.097
-252.078	800.000	0.009	-0.034
-251.063	-12.417	0.114	0.074
-250.049	25.998	0.152	0.126
-249.034	-5.020	0.407	0.278
-248.019	-200.000	-0.003	-0.156
-247.005	-118.466	0.398	-0.070
-245.990	-123.665	-0.101	-0.016
-244.976	121.371	0.321	0.396
-243.961	-89.621	-0.176	0.051
-242.946	-11.031	-0.093	-0.061
-241.932	-53.465	0.188	-0.085
-240.917	800.000	-0.037	0.158
-239.903	-194.418	-0.215	0.002
-238.888	800.000	-0.095	0.315
-237.873	-37.070	0.230	0.122
-236.859	41.763	0.178	0.160
-235.844	-68.140	-0.117	-0.045
-234.830	66.483	-0.277	-0.279
-233.815	84.710	-0.112	-0.121
-232.800	800.000	-0.028	-0.101
-231.786	-141.671	0.048	-0.005
-230.771	-33.390	-0.097	0.053
-229.757	413.110	-0.077	0.162
-228.742	82.383	-0.100	-0.108
-227.727	-83.271	0.222	0.071
-226.713	-80.761	0.103	-0.034
-225.698	48.094	0.210	0.194
-224.684	-200.000	0.006	-0.074
-223.669	25.009	0.157	-0.129
-222.655	346.240	0.093	-0.180
-221.640	-17.263	0.110	-0.068
-220.625	112.363	0.034	-0.041
-219.611	800.000	-0.042	0.129
-218.596	48.546	-0.138	-0.128
-217.582	12.823	-0.341	0.260
-216.567	12.582	-0.358	0.273
-215.552	235.956	-0.106	-0.173
-214.538	-74.560	-0.269	0.096
-213.523	-52.833	0.126	0.057
-212.509	-200.000	0.028	-0.153
-211.494	-68.040	0.137	0.053
-210.479	41.729	-0.306	-0.275
-209.465	-179.370	-0.180	0.004
-208.450	-83.382	0.353	0.112
-207.436	46.059	-0.179	0.164
-206.421	161.377	-0.068	0.094
-205.406	-83.200	0.246	-0.078
-204.392	800.000	0.037	0.160
-203.377	4.482	-0.085	-0.062
-202.363	-61.505	-0.116	0.048
-201.348	638.962	0.107	0.269
-200.333	398.000	-0.025	-0.051
-199.319	800.000	-0.057	0.231
-198.304	37.973	0.108	-0.095
-197.290	-105.711	0.540	-0.121
-196.275	215.167	-0.027	-0.042
-195.260	10.965	-0.192	0.145
-194.246	29.462	-0.125	0.105
-193.231	94.637	-0.160	-0.180
-192.217	-103.799	-0.223	0.052
-191.202	-82.692	0.186	0.060
-190.187	-200.000	-0.008	0.098
-189.173	-26.186	-0.147	0.085
-188.158	-31.769	-0.398	-0.220
-187.144	35.966	-0.232	-0.202
-186.129	166.319	0.103	-0.144
-185.114	-166.869	0.166	0.007
-184.100	-200.000	-0.012	-0.306
-183.085	14.273	-0.263	-0.203
-182.071	800.000	-0.102	0.333
-181.056	-84.677	0.063	0.020
-180.042	-125.570	0.392	-0.059
-179.027	70.163	-0.099	0.101
-178.012	-35.068	-0.077	0.042
-176.998	591.597	0.136	-0.333
-175.983	-104.848	-0.069	-0.016
-174.969	800.000	-0.137	-0.485
-173.954	60.680	-0.231	0.226
-172.939	-15.417	0.300	-0.189
-171.925	-20.478	0.095	0.057
-170.910	372.081	0.067	-0.135
-169.896	-18.997	-0.266	0.164
-168.881	154.786	0.149	0.202
-167.866	35.550	-0.336	0.291
-166.852	168.159	0.085	0.120
-165.837	800.000	-0.085	0.356
-164.823	341.137	-0.114	0.220
-163.808	315.316	-0.105	0.195
-162.793	-187.732	0.108	-0.001
-161.779	19.744	-0.147	0.117
-160.764	-200.000	0.042	0.197
-159.750	-18.065	-0.011	0.007
-158.735	800.000	0.026	0.086
-157.720	-200.000	0.039	0.245
-156.706	-200.000	0.009	-0.419
-155.691	-39.500	0.081	-0.042
-154.677	-32.641	-0.272	-0.150
-153.662	581.660	-0.105	0.254
-152.647	-183.678	0.206	-0.003
-151.633	179.816	-0.032	0.046
-150.618	27.483	-0.349	-0.289
-149.604	-78.108	0.147	0.050
-148.589	800.000	0.108	-0.309
-147.574	-9.172	0.172	-0.114
-146.560	134.923	0.261	0.334
-145.545	-96.069	0.270	0.071
-144.531	274.025	-0.206	-0.359
-143.516	188.085	0.261	-0.385
-142.502	61.145	-0.173	-0.170
-141.487	-200.000	0.027	0.195
-140.472	533.427	0.110	0.258
-139.458	271.150	0.159	-0.277
-138.443	-107.620	-0.124	0.027
-137.429	-81.179	-0.192	-0.062
-136.414	193.758	-0.069	-0.103
-135.399	-55.152	-0.251	0.112
-134.385	290.638	-0.065	0.117
-133.370	144.589	0.034	0.045
-132.356	-146.295	-0.136	-0.012
-131.341	-16.860	0.297	0.185
-130.326	-63.031	0.131	-0.053
-129.312	-200.000	-0.025	0.225
-128.297	208.756	0.047	-0.072
-127.283	10.227	-0.244	-0.183
-126.268	-59.644	0.486	0.205
-125.253	800.000	0.068	-0.200
-124.239	-107.998	0.287	-0.061
-123.224	-31.796	0.269	-0.149
-122.210	-200.000	-0.037	-0.174
-121.195	-200.000	0.013	-0.241
-120.180	800.000	0.077	-0.278
