DTS Sentinel unit serial number:	SN413079Multiplexer serial number:	ORYXHardware model number:	OX4-SRSoftware version number:	ORYX F/W v4.00 Oryx Data Collector v3.7.2.0data status	okinstallation	princeton_trtdifferential loss correction	single-endedforward channel	channel 3reverse channel	N/Adate	2019/09/11time	20:50:10forward acquisition time	60.00reverse acquisition time	0.00gamma	496.2192k internal	0.2306k external	0.2306temperature offset calibration	1.0035default loss term (dB/km)	0.3790temperature slope calibration	1.0000multiplexer offset coefficient	1.0000multiplexer slope coefficient	1.0000fibre end	0.00T internal ref (°C)	36.95T ext. ref 1 (°C)	1.57T ext. ref 2 (°C)	30.78length (m)	temperature (°C)	Stokes	anti-Stokes-747.200	584.954	-0.080	0.201
-746.185	229.398	-0.115	0.191
-745.171	-18.006	-0.042	0.027
-744.156	-107.296	0.038	-0.008
-743.142	800.000	-0.054	0.176
-742.127	711.221	0.064	0.171
-741.112	81.927	0.214	0.236
-740.098	-59.436	-0.223	0.097
-739.083	125.626	0.083	-0.107
-738.069	128.815	0.130	0.168
-737.054	603.442	-0.097	0.246
-736.039	-28.614	-0.351	-0.206
-735.025	-107.719	0.289	0.064
-734.010	-200.000	0.003	0.237
-732.996	663.777	-0.094	-0.247
-731.981	616.941	0.138	-0.351
-730.966	-83.109	0.199	0.065
-729.952	355.261	0.070	-0.142
-728.937	24.831	-0.231	-0.194
-727.923	-8.994	-0.182	-0.124
-726.908	-116.991	0.047	-0.009
-725.894	-63.760	-0.106	0.044
-724.879	44.757	0.233	0.218
-723.864	-200.000	-0.008	-0.060
-722.850	800.000	0.091	-0.264
-721.835	-73.848	-0.343	-0.127
-720.821	55.302	-0.158	-0.155
-719.806	26.402	-0.092	-0.078
-718.791	800.000	-0.046	0.176
-717.777	639.665	0.089	-0.229
-716.762	800.000	0.062	-0.246
-715.748	172.505	-0.033	-0.049
-714.733	-57.281	0.091	-0.041
-713.718	-200.000	0.076	-0.389
-712.704	339.846	-0.116	-0.229
-711.689	-109.356	-0.156	-0.034
-710.675	-200.000	0.043	0.194
-709.660	227.522	-0.053	-0.087
-708.645	222.248	0.082	0.134
-707.631	-113.502	-0.137	-0.027
-706.616	800.000	-0.047	0.177
-705.602	286.179	-0.180	0.329
-704.587	-5.977	-0.212	0.147
-703.572	41.470	-0.137	-0.126
-702.558	-39.523	-0.123	0.065
-701.543	800.000	-0.048	0.172
-700.529	-30.142	-0.151	-0.087
-699.514	-200.000	-0.029	0.244
-698.499	-112.229	0.175	-0.036
-697.485	-144.662	-0.227	-0.021
-696.470	91.552	-0.121	0.138
-695.456	123.252	-0.133	-0.169
-694.441	-36.132	-0.091	0.050
-693.426	-200.000	0.035	0.176
-692.412	800.000	-0.061	-0.173
-691.397	2.250	-0.173	-0.127
-690.383	41.944	0.222	-0.204
-689.368	800.000	-0.042	0.171
-688.354	152.179	-0.102	0.141
-687.339	-154.494	-0.262	-0.018
-686.324	696.207	0.023	0.060
-685.310	59.447	-0.195	-0.195
-684.295	-67.713	0.169	0.067
-683.281	76.344	-0.236	0.253
-682.266	-9.949	-0.055	0.037
-681.251	112.150	-0.122	0.149
-680.237	-200.000	0.052	0.246
-679.222	-200.000	0.018	-0.114
-678.208	-200.000	0.080	-0.448
-677.193	-200.000	-0.035	-0.245
-676.178	-200.000	-0.027	0.429
-675.164	525.816	0.106	-0.253
-674.149	-161.251	-0.341	-0.018
-673.135	376.186	0.107	0.221
-672.120	191.595	-0.059	-0.091
-671.105	800.000	0.082	-0.233
-670.091	-128.084	0.285	-0.041
-669.076	-25.160	-0.042	0.025
-668.062	-155.909	0.415	0.027
-667.047	-200.000	0.036	-0.178
-666.032	-108.118	0.332	0.073
-665.018	-1.973	-0.187	0.134
-664.003	78.488	-0.162	0.176
-662.989	87.246	-0.113	0.126
-661.974	-66.209	-0.318	-0.128
-660.959	-62.482	-0.229	-0.096
-659.945	-54.392	0.114	-0.052
-658.930	-76.186	-0.199	0.071
-657.916	-196.391	0.186	0.001
-656.901	-125.863	-0.275	0.042
-655.886	497.663	-0.054	0.125
-654.872	-51.811	0.069	-0.032
-653.857	17.979	0.096	0.077
-652.843	-107.523	-0.196	-0.044
-651.828	43.501	-0.139	0.129
-650.814	14.595	0.257	0.204
-649.799	-71.837	0.065	-0.025
-648.784	359.934	0.115	-0.233
-647.770	-69.807	-0.175	-0.068
-646.755	-89.601	-0.177	-0.053
-645.741	15.770	-0.205	0.164
-644.726	-45.829	0.162	-0.081
-643.711	-200.000	-0.026	-0.383
-642.697	-40.910	-0.288	-0.151
-641.682	-90.828	-0.108	0.032
-640.668	-200.000	-0.051	-0.276
-639.653	-40.770	-0.067	-0.035
-638.638	72.563	0.034	-0.036
-637.624	123.249	0.200	0.254
-636.609	-20.440	-0.159	0.099
-635.595	66.167	0.273	0.281
-634.580	129.037	-0.069	0.089
-633.565	200.092	0.217	-0.338
-632.551	800.000	0.120	-0.353
-631.536	460.672	-0.088	0.198
-630.522	-77.741	-0.157	-0.055
-629.507	71.081	-0.277	-0.291
-628.492	-200.000	-0.024	0.353
-627.478	-200.000	0.027	-0.151
-626.463	737.645	-0.100	0.271
-625.449	-200.000	-0.050	0.284
-624.434	-197.351	0.096	-0.001
-623.419	-93.511	-0.400	-0.112
-622.405	33.827	-0.083	0.073
-621.390	-17.009	-0.205	-0.131
-620.376	-23.804	0.235	-0.143
-619.361	608.069	0.024	0.062
-618.346	49.035	0.385	-0.366
-617.332	-135.316	0.350	0.042
-616.317	800.000	-0.049	0.186
-615.303	-200.000	-0.075	-0.526
-614.288	433.979	0.216	0.476
-613.273	-47.250	-0.107	0.053
-612.259	58.387	0.209	0.207
-611.244	175.591	0.122	0.178
-610.230	-200.000	-0.025	0.141
-609.215	63.748	-0.134	-0.136
-608.201	-92.783	0.241	-0.068
-607.186	800.000	-0.068	0.200
-606.171	-33.285	0.166	0.093
-605.157	-78.847	-0.257	0.088
-604.142	133.323	-0.082	0.107
-603.128	303.872	-0.208	0.390
-602.113	-53.809	0.021	-0.010
-601.098	-200.000	0.003	-0.146
-600.084	79.741	-0.110	0.120
-599.069	-26.478	0.168	0.099
-598.055	-142.504	-0.257	0.025
-597.040	-46.793	-0.190	0.094
-596.025	-27.654	0.143	-0.084
-595.011	-146.631	-0.394	-0.035
-593.996	-83.273	0.270	-0.088
-592.982	56.002	0.207	-0.203
-591.967	-157.036	0.528	0.033
-590.952	800.000	0.060	0.168
-589.938	-200.000	-0.036	0.162
-588.923	-200.000	-0.077	-0.366
-587.909	-5.395	-0.263	0.183
-586.894	458.031	0.101	0.227
-585.879	800.000	-0.030	-0.105
-584.865	3.385	0.136	-0.100
-583.850	-200.000	0.004	-0.089
-582.836	-200.000	0.016	-0.440
-581.821	-200.000	-0.023	-0.103
-580.806	114.751	-0.267	0.329
-579.792	-64.878	-0.077	0.032
-578.777	48.369	-0.145	0.138
-577.763	192.326	0.120	-0.183
-576.748	800.000	0.105	-0.297
-575.733	-116.572	-0.491	-0.091
-574.719	-115.153	0.148	0.028
-573.704	800.000	0.073	0.215
-572.690	138.916	-0.197	0.261
-571.675	800.000	0.096	-0.344
-570.661	-49.011	0.211	0.102
-569.646	376.348	0.032	0.066
-568.631	103.675	-0.145	0.172
-567.617	-138.430	0.367	-0.041
-566.602	233.599	-0.205	0.341
-565.588	60.678	-0.048	-0.048
-564.573	-96.522	0.071	-0.019
-563.558	149.693	-0.096	0.131
-562.544	-81.100	-0.038	-0.013
-561.529	-63.929	-0.137	0.057
-560.515	-99.020	-0.024	-0.006
-559.500	164.473	0.193	-0.275
-558.485	181.876	-0.140	-0.208
-557.471	-179.370	0.134	-0.003
-556.456	75.695	0.211	0.225
-555.442	-43.037	0.239	-0.123
-554.427	-200.000	-0.049	-0.560
-553.412	464.708	0.074	-0.167
-552.398	72.787	0.148	-0.156
-551.383	-200.000	0.019	-0.303
-550.369	800.000	-0.043	0.175
-549.354	49.979	0.116	-0.110
-548.339	-8.902	0.121	0.082
-547.325	-52.185	0.245	-0.115
-546.310	-32.807	0.149	0.084
-545.296	516.767	-0.109	0.258
-544.281	65.038	0.213	0.217
-543.266	419.987	-0.118	-0.255
-542.252	61.005	0.192	0.192
-541.237	-124.739	0.155	0.024
-540.223	-106.812	0.168	-0.038
-539.208	302.985	-0.158	0.295
-538.193	-139.624	0.456	0.049
-537.179	6.784	-0.145	0.109
-536.164	85.699	0.197	-0.218
-535.150	800.000	-0.147	0.455
-534.135	494.885	-0.198	0.458
-533.121	-200.000	0.162	0.000
-532.106	368.146	-0.155	0.317
-531.091	-68.029	0.247	0.097
-530.077	58.779	-0.069	-0.069
-529.062	138.733	-0.080	-0.107
-528.048	-200.000	-0.027	-0.506
-527.033	-57.062	-0.186	-0.083
-526.018	211.883	-0.053	0.084
-525.004	27.458	0.329	-0.279
-523.989	60.252	-0.369	-0.368
-522.975	800.000	-0.155	-0.444
-521.960	-92.841	0.176	-0.050
-520.945	-24.349	-0.119	0.072
-519.931	-65.025	-0.259	-0.106
-518.916	41.791	0.220	0.201
-517.902	800.000	-0.041	-0.116
-516.887	-200.000	0.035	-0.328
-515.872	-33.603	-0.156	0.087
-514.858	65.367	0.154	0.157
-513.843	327.843	-0.135	-0.261
-512.829	-193.844	-0.457	-0.004
-511.814	-113.979	-0.204	-0.040
-510.799	800.000	-0.011	-0.037
-509.785	334.675	0.020	0.039
-508.770	333.567	-0.223	-0.435
-507.756	322.678	0.031	0.059
-506.741	246.905	0.078	-0.133
-505.726	-200.000	0.044	0.227
-504.712	-0.488	-0.095	0.068
-503.697	60.366	0.122	-0.121
-502.683	-192.186	-0.449	-0.004
-501.668	24.654	0.194	0.162
-500.653	-159.385	0.245	-0.014
-499.639	-200.000	-0.008	-0.179
-498.624	521.790	0.124	0.294
-497.610	800.000	0.010	0.033
-496.595	-200.000	-0.010	-0.159
-495.581	-84.621	-0.142	0.045
-494.566	-85.102	0.334	0.105
-493.551	-200.000	0.056	0.325
-492.537	229.382	-0.147	0.242
-491.522	-200.000	-0.013	0.136
-490.508	127.241	-0.218	-0.279
-489.493	-134.761	-0.005	-0.001
-488.478	-7.199	0.413	0.282
-487.464	29.265	0.123	-0.105
-486.449	97.334	0.267	-0.308
-485.435	-79.800	0.164	0.055
-484.420	-2.873	-0.166	-0.117
-483.405	-56.105	0.089	-0.040
-482.391	-52.976	0.345	-0.160
-481.376	-157.794	-0.074	0.004
-480.362	729.387	0.073	-0.197
-479.347	-20.752	0.166	-0.103
-478.332	-112.168	-0.328	0.066
-477.318	298.660	-0.131	0.243
-476.303	95.698	-0.045	-0.052
-475.289	32.050	-0.192	-0.166
-474.274	-200.000	0.007	-0.052
-473.259	99.694	-0.037	0.043
-472.245	-200.000	0.030	-0.268
-471.230	55.703	-0.142	0.139
-470.216	-28.263	0.051	-0.030
-469.201	79.176	0.125	0.135
-468.186	-41.220	0.210	-0.109
-467.172	8.045	-0.288	-0.218
-466.157	133.026	0.087	-0.113
-465.143	437.593	0.038	-0.084
-464.128	272.176	-0.095	0.169
-463.113	7.261	0.123	0.092
-462.099	-89.634	-0.076	0.023
-461.084	348.024	-0.150	0.297
-460.070	-200.000	0.104	-0.468
-459.055	-134.160	-0.345	0.043
-458.040	-36.828	-0.326	-0.176
-457.026	70.001	-0.082	-0.085
-456.011	139.556	-0.128	0.169
-454.997	-200.000	0.040	-0.188
-453.982	28.445	0.115	0.098
-452.968	-200.000	-0.024	0.139
-451.953	-200.000	-0.079	0.371
-450.938	-97.812	0.395	-0.103
-449.924	-2.202	-0.201	0.142
-448.909	-200.000	-0.110	0.488
-447.895	-124.761	0.420	-0.065
-446.880	88.140	-0.054	-0.060
-445.865	-66.396	-0.164	0.066
-444.851	61.139	0.084	0.084
-443.836	-200.000	0.022	0.115
-442.822	768.187	-0.088	0.240
-441.807	-200.000	0.040	-0.219
-440.792	-106.016	-0.419	-0.095
-439.778	128.554	0.037	0.047
-438.763	-73.567	0.109	-0.040
-437.749	-117.409	0.163	0.030
-436.734	493.673	0.116	0.268
-435.719	100.750	-0.112	0.131
-434.705	1.202	0.190	-0.137
-433.690	-200.000	0.031	0.325
-432.676	800.000	-0.059	0.208
-431.661	-65.856	0.294	0.118
-430.646	157.209	0.408	-0.567
-429.632	239.174	0.058	0.096
-428.617	189.993	0.093	-0.140
-427.603	-84.732	-0.236	0.075
-426.588	73.407	0.187	0.197
-425.573	160.841	0.085	0.119
-424.559	-112.230	0.134	-0.027
-423.544	154.951	-0.145	-0.201
-422.530	-83.354	-0.180	-0.058
-421.515	293.213	0.070	-0.129
-420.500	-200.000	-0.008	0.035
-419.486	-121.274	-0.062	0.010
-418.471	-200.000	-0.008	0.246
-417.457	-48.062	0.147	-0.071
-416.442	237.295	-0.167	-0.279
-415.428	151.509	0.147	-0.201
-414.413	-146.140	0.489	0.043
-413.398	-33.279	-0.237	0.132
-412.384	-4.182	0.157	0.109
-411.369	115.563	0.137	0.169
-410.355	-200.000	-0.033	-0.275
-409.340	5.264	0.020	-0.015
-408.325	-134.180	0.195	-0.024
-407.311	-200.000	0.034	0.201
-406.296	246.490	-0.147	-0.250
-405.282	-137.742	-0.195	0.022
-404.267	-4.520	-0.181	0.125
-403.252	-200.000	0.075	-0.421
-402.238	-132.717	0.119	-0.015
-401.223	-108.063	-0.306	0.067
-400.209	317.628	-0.156	-0.296
-399.194	-115.167	-0.133	0.025
-398.179	-156.983	-0.313	0.019
-397.165	-83.137	-0.165	0.053
-396.150	-19.637	-0.160	0.099
-395.136	-80.483	-0.223	0.075
-394.121	-111.809	0.038	0.008
-393.106	12.511	0.372	0.288
-392.092	66.284	0.053	-0.054
-391.077	-163.059	-0.091	0.004
-390.063	26.394	0.209	0.175
-389.048	23.339	0.253	0.208
-388.033	800.000	0.040	0.174
-387.019	-200.000	-0.002	0.355
-386.004	-77.077	0.244	-0.085
-384.990	181.041	0.070	-0.103
-383.975	-23.780	0.205	0.123
-382.960	-115.146	0.131	-0.025
-381.946	-14.803	-0.110	0.071
-380.931	117.313	0.104	-0.129
-379.917	675.203	-0.104	0.272
-378.902	188.838	0.154	0.232
-377.888	-200.000	0.025	-0.361
-376.873	254.997	0.273	0.469
-375.858	800.000	0.044	0.179
-374.844	-42.486	-0.351	-0.179
-373.829	-200.000	0.049	-0.237
-372.815	245.307	0.209	0.353
-371.800	-200.000	0.035	0.322
-370.785	181.158	0.081	0.119
-369.771	-133.469	-0.281	0.035
-368.756	37.544	0.239	0.212
-367.742	800.000	-0.011	0.050
-366.727	-76.389	0.073	0.026
-365.712	488.417	0.046	-0.105
-364.698	90.940	-0.107	0.120
-363.683	-200.000	-0.041	0.303
-362.669	-200.000	-0.002	0.103
-361.654	-200.000	0.028	-0.170
-360.639	30.360	-0.160	0.137
-359.625	-169.384	0.231	-0.009
-358.610	127.579	0.126	-0.160
-357.596	31.988	-0.201	-0.174
-356.581	29.963	-0.358	-0.306
-355.566	-119.157	-0.100	0.017
-354.552	-32.196	0.208	0.116
-353.537	-104.818	0.246	-0.057
-352.523	-71.586	-0.219	0.082
-351.508	335.731	-0.181	-0.351
-350.493	-199.593	0.170	0.001
-349.479	-200.000	0.015	0.090
-348.464	-200.000	0.000	-0.202
-347.450	-17.744	-0.387	0.243
-346.435	800.000	0.059	-0.183
-345.420	-157.864	0.246	-0.015
-344.406	321.512	-0.121	-0.230
-343.391	-164.879	0.262	-0.012
-342.377	34.746	-0.279	0.244
-341.362	-176.685	-0.124	-0.003
-340.348	143.831	-0.210	0.280
-339.333	172.155	-0.346	0.498
-338.318	800.000	-0.042	0.126
-337.304	220.442	0.040	-0.064
-336.289	-86.564	0.143	-0.044
-335.275	101.534	0.075	0.087
-334.260	-49.875	-0.148	-0.070
-333.245	-111.061	0.454	-0.093
-332.231	547.755	-0.076	-0.183
-331.216	108.282	-0.148	0.176
-330.202	-200.000	0.029	0.152
-329.187	-51.969	0.392	-0.182
-328.172	-141.066	-0.197	-0.020
-327.158	-107.602	0.168	-0.037
-326.143	-40.078	-0.271	0.142
-325.129	-146.229	-0.012	-0.001
-324.114	-118.780	-0.082	0.015
-323.099	-4.180	-0.204	0.141
-322.085	-200.000	0.009	0.379
-321.070	-153.206	0.114	0.008
-320.056	-25.048	0.343	-0.204
-319.041	-56.867	-0.269	0.119
-318.026	800.000	0.035	0.122
-317.012	529.486	-0.084	-0.199
-315.997	800.000	0.084	-0.271
-314.983	-200.000	-0.049	-0.223
-313.968	318.248	0.258	-0.488
-312.953	-40.349	-0.167	-0.087
-311.939	-126.590	-0.235	-0.035
-310.924	259.801	0.070	0.122
-309.910	-44.249	0.207	-0.104
-308.895	-65.498	0.316	-0.127
-307.880	753.601	0.082	-0.222
-306.866	18.028	0.245	0.195
-305.851	331.850	-0.043	-0.083
-304.837	780.227	0.067	0.184
-303.822	556.288	0.033	-0.080
-302.807	-55.318	0.013	0.006
-301.793	362.549	-0.077	-0.154
-300.778	-58.385	0.002	-0.001
-299.764	93.732	0.040	-0.045
-298.749	-158.370	0.126	-0.007
-297.735	155.801	0.065	0.089
-296.720	554.097	0.040	0.096
-295.705	-200.000	0.011	-0.107
-294.691	28.177	0.024	-0.020
-293.676	59.364	-0.297	-0.292
-292.662	-200.000	-0.040	0.230
-291.647	452.245	0.138	0.304
-290.632	-16.830	-0.188	0.119
-289.618	37.011	-0.235	0.208
-288.603	711.247	-0.037	-0.098
-287.589	-46.498	-0.046	0.022
-286.574	-57.076	-0.214	0.094
-285.559	-29.398	-0.404	-0.231
-284.545	-200.000	-0.023	-0.265
-283.530	131.118	-0.083	0.107
-282.516	442.979	0.100	-0.220
-281.501	208.991	-0.075	-0.118
-280.486	-200.000	0.014	0.123
-279.472	-200.000	-0.031	-0.211
-278.457	36.135	0.259	0.228
-277.443	-200.000	-0.020	0.215
-276.428	-143.475	-0.167	0.016
-275.413	-200.000	-0.024	-0.230
-274.399	11.206	0.252	-0.193
-273.384	-131.336	0.120	0.016
-272.370	-145.508	-0.260	-0.023
-271.355	-200.000	-0.045	0.204
-270.340	364.740	-0.067	-0.135
-269.326	-85.591	-0.254	-0.079
-268.311	-117.095	-0.209	0.038
-267.297	687.970	-0.083	-0.218
-266.282	49.584	-0.243	-0.228
-265.267	-120.419	-0.054	-0.009
-264.253	-163.657	0.109	0.005
-263.238	-200.000	0.023	-0.187
-262.224	343.797	-0.118	0.230
-261.209	-87.011	0.044	-0.013
-260.195	-87.737	0.166	0.050
-259.180	85.999	-0.145	0.159
-258.165	-157.856	0.365	0.022
-257.151	-110.881	0.094	-0.019
-256.136	46.175	-0.145	0.134
-255.122	-74.785	-0.290	0.104
-254.107	-107.137	0.125	0.028
-253.092	-152.838	0.069	0.005
-252.078	9.911	-0.025	-0.019
-251.063	110.055	-0.196	-0.235
-250.049	93.598	0.028	-0.032
-249.034	150.568	0.151	-0.205
-248.019	385.307	-0.116	0.238
-247.005	14.669	-0.162	-0.126
-245.990	280.840	0.042	-0.075
-244.976	800.000	0.124	0.436
-243.961	-6.942	-0.239	0.162
-242.946	-143.550	0.472	-0.045
-241.932	540.749	0.120	-0.284
-240.917	20.785	0.089	-0.072
-239.903	-200.000	-0.035	-0.234
-238.888	125.672	-0.043	-0.054
-237.873	174.972	0.047	0.068
-236.859	-69.281	-0.290	-0.111
-235.844	-200.000	-0.003	0.108
-234.830	405.488	-0.088	0.186
-233.815	200.242	0.059	-0.090
-232.800	-200.000	-0.010	-0.061
-231.786	162.123	-0.108	-0.151
-230.771	-23.391	-0.249	0.149
-229.757	-76.273	0.438	-0.154
-228.742	212.794	-0.189	0.297
-227.727	92.034	0.171	0.192
-226.713	-200.000	0.037	-0.226
-225.698	487.008	0.069	-0.157
-224.684	3.621	-0.160	0.116
-223.669	104.317	-0.020	-0.023
-222.655	60.841	0.107	0.106
-221.640	-126.152	0.279	0.042
-220.625	495.528	-0.037	0.085
-219.611	9.480	0.154	-0.116
-218.596	-150.786	-0.411	0.031
-217.582	-17.943	-0.218	-0.136
-216.567	-200.000	0.002	0.097
-215.552	800.000	0.026	-0.078
-214.538	800.000	-0.078	-0.225
-213.523	-87.675	0.289	-0.087
-212.509	-72.712	0.448	0.164
-211.494	-94.169	0.063	0.017
-210.479	-83.309	-0.151	-0.048
-209.465	-31.567	-0.140	0.079
-208.450	603.900	-0.065	-0.161
-207.436	104.210	0.154	-0.181
-206.421	-200.000	-0.003	0.021
-205.406	-166.331	0.254	0.011
-204.392	800.000	0.088	0.249
-203.377	270.318	-0.084	0.147
-202.363	-99.881	-0.110	0.027
-201.348	-63.601	-0.217	-0.089
-200.333	-1.159	0.373	-0.263
-199.319	-73.648	-0.312	-0.113
-198.304	-73.033	0.151	0.055
-197.290	31.679	-0.161	0.138
-196.275	-190.321	-0.097	-0.001
-195.260	59.832	-0.079	-0.078
-194.246	-22.788	-0.469	0.282
-193.231	-58.604	-0.107	-0.046
-192.217	-88.538	-0.227	0.067
-191.202	-200.000	0.030	-0.322
-190.187	800.000	0.058	-0.225
-189.173	-33.508	0.245	-0.135
-188.158	-200.000	0.025	-0.147
-187.144	800.000	-0.023	-0.075
-186.129	-200.000	0.006	-0.187
-185.114	800.000	-0.085	0.236
-184.100	-114.706	-0.080	0.015
-183.085	438.079	-0.105	0.228
-182.071	-17.858	0.295	0.184
-181.056	-200.000	-0.015	-0.281
-180.042	127.696	0.084	-0.106
-179.027	-116.849	0.161	0.029
-178.012	-200.000	-0.049	-0.312
-176.998	23.137	0.178	-0.146
-175.983	-88.813	-0.214	-0.063
-174.969	-141.709	-0.035	-0.003
-173.954	-18.619	0.127	-0.079
-172.939	210.095	0.073	-0.114
-171.925	249.925	-0.282	0.476
-170.910	800.000	0.155	-0.495
-169.896	647.708	0.135	0.344
-168.881	385.019	-0.019	-0.039
-167.866	-119.583	0.266	0.046
-166.852	346.981	-0.124	-0.243
-165.837	175.873	0.133	0.192
-164.823	-150.847	-0.137	0.010
-163.808	197.992	-0.066	0.100
-162.793	-200.000	-0.046	0.262
-161.779	35.152	-0.027	-0.024
-160.764	311.001	-0.112	0.208
-159.750	-93.511	0.230	0.063
-158.735	-106.204	-0.203	0.045
-157.720	77.393	-0.052	0.055
-156.706	377.589	-0.063	-0.127
-155.691	-137.959	-0.153	-0.017
-154.677	-200.000	0.021	0.187
-153.662	800.000	0.018	-0.076
-152.647	800.000	-0.058	0.178
-151.633	-75.518	0.213	0.075
-150.618	67.397	-0.148	0.150
-149.604	-200.000	-0.025	-0.189
-148.589	-98.706	0.332	0.084
-147.574	-156.618	0.130	-0.008
-146.560	-200.000	-0.055	0.000
-145.545	56.603	0.247	-0.238
-144.531	234.325	0.066	0.108
-143.516	-200.000	-0.030	0.342
-142.502	800.000	0.049	0.180
-141.487	143.151	0.035	0.047
-140.472	800.000	0.035	-0.138
-139.458	352.530	-0.144	0.283
-138.443	-200.000	0.027	0.128
-137.429	-200.000	0.012	-0.119
-136.414	-20.881	0.252	0.153
-135.399	-84.902	0.326	-0.102
-134.385	-200.000	-0.032	0.406
-133.370	-149.150	0.177	-0.014
-132.356	-130.187	0.212	0.029
-131.341	191.952	-0.136	-0.204
-130.326	-139.894	-0.202	-0.021
-129.312	-133.283	0.278	0.035
-128.297	768.900	-0.056	-0.151
-127.283	-200.000	-0.101	-0.637
-126.268	146.044	0.078	-0.103
-125.253	98.337	0.051	-0.059
-124.239	31.619	-0.091	0.078
-123.224	56.343	0.089	-0.086
-122.210	-200.000	-0.041	0.293
-121.195	800.000	0.023	-0.091
