DTS Sentinel unit serial number:	SN413079Multiplexer serial number:	ORYXHardware model number:	OX4-SRSoftware version number:	ORYX F/W v4.00 Oryx Data Collector v3.7.2.0data status	okinstallation	princeton_trtdifferential loss correction	single-endedforward channel	channel 3reverse channel	N/Adate	2019/09/12time	03:18:10forward acquisition time	60.00reverse acquisition time	0.00gamma	496.2192k internal	0.2322k external	0.2322temperature offset calibration	1.0064default loss term (dB/km)	0.3790temperature slope calibration	1.0000multiplexer offset coefficient	1.0000multiplexer slope coefficient	1.0000fibre end	0.00T internal ref (°C)	32.25T ext. ref 1 (°C)	2.12T ext. ref 2 (°C)	26.67length (m)	temperature (°C)	Stokes	anti-Stokes-747.200	26.385	-0.021	0.018
-746.185	165.378	0.205	0.292
-745.171	-200.000	-0.031	0.238
-744.156	-200.000	-0.006	0.272
-743.142	315.210	0.101	-0.192
-742.127	-123.411	0.172	-0.028
-741.112	-158.898	-0.095	-0.005
-740.098	-136.087	-0.353	0.042
-739.083	800.000	-0.037	0.120
-738.069	54.193	0.141	0.137
-737.054	-77.653	0.143	0.050
-736.039	-200.000	0.016	0.422
-735.025	-200.000	-0.057	0.251
-734.010	-62.588	-0.136	-0.057
-732.996	272.360	-0.053	0.095
-731.981	800.000	-0.089	0.265
-730.966	-49.992	-0.254	0.122
-729.952	25.376	-0.196	-0.165
-728.937	-140.988	0.180	-0.019
-727.923	-34.612	-0.528	-0.292
-726.908	-32.158	0.057	0.032
-725.894	84.485	-0.182	-0.201
-724.879	-33.057	0.169	-0.095
-723.864	-154.683	-0.119	0.008
-722.850	193.750	-0.134	-0.204
-721.835	-49.346	-0.164	-0.079
-720.821	-32.869	0.356	-0.199
-719.806	31.337	-0.071	0.061
-718.791	-190.514	0.276	0.003
-717.777	4.464	0.220	0.163
-716.762	-200.000	0.010	0.131
-715.748	264.310	0.177	-0.310
-714.733	-1.192	0.242	-0.173
-713.718	110.451	-0.262	0.318
-712.704	128.541	0.104	-0.134
-711.689	-200.000	0.001	-0.112
-710.675	-112.597	-0.441	-0.089
-709.660	-71.135	0.122	0.046
-708.645	-170.535	0.136	0.005
-707.631	-200.000	-0.007	-0.089
-706.616	-112.331	-0.383	0.077
-705.602	267.553	0.112	-0.198
-704.587	50.707	-0.045	-0.043
-703.572	-54.754	0.101	-0.046
-702.558	-106.982	0.133	0.030
-701.543	85.428	-0.187	-0.207
-700.529	800.000	0.136	-0.414
-699.514	-200.000	0.242	-0.000
-698.499	284.075	0.130	-0.237
-697.485	39.509	-0.095	0.086
-696.470	-73.272	0.084	0.031
-695.456	43.373	0.090	-0.083
-694.441	-189.387	0.398	-0.005
-693.426	4.929	-0.100	-0.074
-692.412	-68.370	0.163	0.064
-691.397	423.637	-0.066	-0.143
-690.383	-177.829	0.179	0.004
-689.368	327.815	0.080	0.154
-688.354	-68.336	-0.107	0.042
-687.339	-200.000	0.225	-0.001
-686.324	-86.007	-0.196	0.061
-685.310	-154.393	-0.245	-0.017
-684.295	-90.860	0.108	0.031
-683.281	339.014	-0.300	-0.589
-682.266	-200.000	-0.010	-0.164
-681.251	66.114	-0.062	0.063
-680.237	-28.341	-0.216	0.126
-679.222	-11.468	-0.247	-0.164
-678.208	-47.821	-0.275	-0.134
-677.193	302.553	-0.070	0.131
-676.178	-28.850	0.199	-0.115
-675.164	-10.576	-0.144	-0.096
-674.149	329.719	-0.125	-0.242
-673.135	-200.000	-0.016	0.160
-672.120	-179.428	0.380	-0.008
-671.105	367.741	0.063	-0.128
-670.091	156.081	-0.039	0.054
-669.076	-200.000	0.054	0.327
-668.062	-59.375	-0.415	-0.180
-667.047	-200.000	0.012	0.308
-666.032	-200.000	0.010	-0.079
-665.018	-29.848	0.113	0.065
-664.003	-41.685	0.222	-0.115
-662.989	-148.144	0.224	-0.019
-661.974	60.600	-0.254	0.253
-660.959	102.977	0.201	-0.237
-659.945	-1.227	-0.084	-0.059
-658.930	800.000	0.076	-0.211
-657.916	-200.000	0.014	-0.211
-656.901	24.890	-0.154	0.128
-655.886	380.839	0.074	0.152
-654.872	389.610	0.108	-0.225
-653.857	67.367	0.119	-0.122
-652.843	800.000	0.027	0.082
-651.828	54.253	0.280	0.271
-650.814	-200.000	-0.002	0.243
-649.799	47.877	0.132	-0.124
-648.784	-200.000	-0.048	-0.237
-647.770	-86.676	0.257	0.079
-646.755	800.000	0.013	-0.056
-645.741	-199.828	-0.021	-0.000
-644.726	-68.046	-0.150	-0.059
-643.711	-38.301	0.087	-0.046
-642.697	-70.249	-0.110	0.042
-641.682	26.352	-0.177	-0.149
-640.668	-5.098	0.201	-0.139
-639.653	98.676	-0.198	-0.230
-638.638	-158.790	0.451	0.026
-637.624	-22.023	-0.202	0.123
-636.609	-102.082	-0.279	-0.068
-635.595	-200.000	-0.044	0.234
-634.580	183.494	0.062	0.092
-633.565	-26.495	0.068	0.040
-632.551	-28.681	-0.533	-0.308
-631.536	-130.992	-0.496	0.067
-630.522	-13.611	0.081	-0.053
-629.507	206.870	0.186	0.291
-628.492	-69.815	0.113	-0.043
-627.478	800.000	0.040	-0.121
-626.463	490.401	-0.097	-0.223
-625.449	-26.021	-0.079	0.047
-624.434	-66.224	-0.117	0.047
-623.419	544.002	-0.082	0.198
-622.405	-76.976	-0.243	-0.085
-621.390	800.000	-0.065	0.201
-620.376	-200.000	-0.014	-0.077
-619.361	-72.828	-0.159	-0.059
-618.346	18.241	0.229	0.183
-617.332	-200.000	0.023	0.198
-616.317	-114.512	-0.077	-0.015
-615.303	-64.717	-0.093	0.038
-614.288	494.108	-0.125	-0.288
-613.273	192.007	-0.203	-0.308
-612.259	-200.000	-0.018	-0.292
-611.244	361.209	-0.158	-0.319
-610.230	-89.887	-0.277	-0.081
-609.215	-63.428	0.078	0.032
-608.201	0.250	-0.319	0.229
-607.186	100.493	-0.253	-0.295
-606.171	-54.862	-0.238	-0.108
-605.157	-113.233	0.122	-0.024
-604.142	-143.476	-0.303	0.029
-603.128	-131.809	-0.266	-0.035
-602.113	-130.524	-0.405	-0.055
-601.098	-117.023	0.040	0.007
-600.084	-51.869	0.238	-0.111
-599.069	-125.109	-0.416	-0.064
-598.055	536.067	0.065	0.155
-597.040	190.403	-0.057	0.085
-596.025	217.849	0.119	0.190
-595.011	475.664	-0.049	-0.112
-593.996	-112.308	0.175	0.035
-592.982	-23.913	-0.052	0.031
-591.967	-72.192	0.104	0.039
-590.952	-120.864	0.230	-0.039
-589.938	-58.899	-0.175	-0.076
-588.923	-8.915	-0.183	-0.123
-587.909	-109.621	0.434	0.092
-586.894	-75.939	-0.161	-0.057
-585.879	-89.356	0.128	0.038
-584.865	-43.385	0.548	-0.278
-583.850	-200.000	0.038	-0.193
-582.836	16.344	-0.185	-0.146
-581.821	-121.324	-0.210	-0.035
-580.806	346.021	-0.179	-0.353
-579.792	6.715	-0.038	-0.028
-578.777	42.151	0.217	0.198
-577.763	-6.861	0.252	0.172
-576.748	-200.000	-0.023	0.232
-575.733	-200.000	0.012	-0.281
-574.719	279.648	0.055	0.099
-573.704	139.577	-0.173	-0.229
-572.690	534.291	-0.070	0.168
-571.675	-137.563	0.105	0.012
-570.661	-68.620	-0.544	0.211
-569.646	-138.480	0.313	0.035
-568.631	-143.396	-0.145	-0.014
-567.617	31.375	0.055	0.048
-566.602	225.139	-0.050	0.081
-565.588	315.836	0.046	0.087
-564.573	46.626	0.453	0.422
-563.558	-91.951	0.188	-0.053
-562.544	190.989	0.107	-0.162
-561.529	78.715	0.156	-0.167
-560.515	228.832	-0.161	-0.263
-559.500	-30.702	-0.177	-0.101
-558.485	-57.029	0.196	0.087
-557.471	52.431	0.241	-0.231
-556.456	49.211	-0.131	-0.123
-555.442	-29.961	0.357	-0.204
-554.427	169.203	0.074	-0.106
-553.412	-200.000	0.003	0.327
-552.398	53.141	0.336	-0.323
-551.383	52.336	0.190	-0.182
-550.369	-200.000	-0.016	-0.350
-549.354	-77.697	-0.115	-0.040
-548.339	667.291	-0.057	0.147
-547.325	-65.141	0.128	0.052
-546.310	30.224	0.218	-0.187
-545.296	-5.513	-0.170	0.117
-544.281	-65.462	-0.160	0.064
-543.266	-200.000	-0.017	-0.302
-542.252	-179.109	-0.207	0.005
-541.237	113.505	-0.052	-0.063
-540.223	-9.610	-0.240	0.160
-539.208	8.174	0.100	0.076
-538.193	-200.000	-0.039	0.346
-537.179	-43.163	-0.403	0.205
-536.164	-39.621	-0.197	-0.103
-535.150	478.277	-0.134	-0.305
-534.135	-58.592	-0.162	-0.070
-533.121	800.000	-0.116	-0.367
-532.106	-200.000	-0.014	0.078
-531.091	-126.100	0.170	-0.026
-530.077	227.214	0.185	0.301
-529.062	787.140	-0.075	0.207
-528.048	800.000	-0.039	-0.111
-527.033	-200.000	-0.008	-0.040
-526.018	-34.144	-0.167	0.092
-525.004	142.093	0.096	-0.128
-523.989	88.523	-0.106	0.118
-522.975	-132.796	-0.250	0.032
-521.960	-70.457	0.052	-0.020
-520.945	-164.978	0.262	0.012
-519.931	-69.581	-0.121	-0.047
-518.916	436.563	0.088	0.191
-517.902	-200.000	-0.033	-0.245
-516.887	-151.858	-0.137	0.010
-515.872	-48.742	-0.168	0.081
-514.858	8.576	-0.154	-0.116
-513.843	-158.067	0.308	0.018
-512.829	800.000	-0.036	0.134
-511.814	-55.996	0.337	0.150
-510.799	800.000	-0.035	-0.126
-509.785	392.979	0.113	-0.236
-508.770	25.178	0.221	-0.184
-507.756	35.501	-0.156	0.138
-506.741	198.861	0.204	0.312
-505.726	-61.741	0.207	-0.087
-504.712	39.274	-0.290	-0.260
-503.697	91.128	-0.062	-0.070
-502.683	173.020	-0.026	0.038
-501.668	165.513	0.214	0.303
-500.653	-119.910	-0.183	-0.031
-499.639	-200.000	-0.038	0.229
-498.624	-59.362	0.103	0.044
-497.610	800.000	-0.059	0.168
-496.595	-147.288	-0.117	0.010
-495.581	-200.000	-0.014	-0.118
-494.566	367.485	-0.175	-0.353
-493.551	42.469	-0.245	-0.223
-492.537	-31.767	0.294	0.165
-491.522	800.000	-0.079	-0.262
-490.508	286.177	0.174	-0.315
-489.493	-200.000	-0.017	-0.207
-488.478	645.021	-0.041	-0.104
-487.464	-200.000	-0.011	-0.210
-486.449	-200.000	-0.037	-0.188
-485.435	657.070	-0.053	-0.136
-484.420	-200.000	0.004	0.120
-483.405	-200.000	0.020	0.191
-482.391	-88.819	0.082	-0.024
-481.376	319.432	-0.049	0.093
-480.362	-200.000	0.009	0.123
-479.347	-163.696	0.404	0.019
-478.332	695.293	-0.133	0.350
-477.318	539.194	-0.039	0.092
-476.303	10.386	0.176	0.134
-475.289	227.966	-0.108	-0.176
-474.274	-107.061	-0.168	-0.037
-473.259	242.396	0.065	-0.108
-472.245	21.581	-0.192	-0.156
-471.230	56.681	-0.085	-0.083
-470.216	-96.936	0.106	-0.028
-469.201	-200.000	-0.011	0.099
-468.186	567.553	-0.018	0.045
-467.172	800.000	0.134	0.384
-466.157	-200.000	0.009	0.142
-465.143	-69.312	-0.069	-0.027
-464.128	-63.610	-0.179	0.074
-463.113	-3.094	-0.210	-0.147
-462.099	202.660	0.111	-0.171
-461.084	-82.855	0.301	-0.097
-460.070	800.000	-0.092	0.260
-459.055	224.718	-0.207	-0.335
-458.040	-13.358	-0.053	-0.034
-457.026	-149.639	-0.493	-0.039
-456.011	-200.000	0.025	-0.133
-454.997	-79.948	0.248	0.083
-453.982	200.717	0.112	0.171
-452.968	29.907	-0.281	0.239
-451.953	800.000	0.051	0.202
-450.938	-200.000	0.011	-0.162
-449.924	9.627	-0.281	-0.213
-448.909	345.186	0.039	0.077
-447.895	104.081	0.142	-0.167
-446.880	-36.547	0.175	0.094
-445.865	800.000	-0.027	0.095
-444.851	-200.000	-0.192	0.000
-443.836	800.000	-0.038	-0.124
-442.822	-108.342	-0.300	-0.065
-441.807	537.837	0.176	0.417
-440.792	94.332	-0.120	-0.136
-439.778	182.582	0.091	0.134
-438.763	315.936	0.147	0.278
-437.749	448.476	0.044	-0.096
-436.734	-49.703	-0.295	-0.140
-435.719	-109.563	0.353	0.074
-434.705	516.442	-0.100	0.234
-433.690	-136.917	0.167	-0.019
-432.676	-200.000	0.038	-0.175
-431.661	668.302	-0.110	-0.284
-430.646	26.028	0.146	0.121
-429.632	-200.000	0.022	-0.167
-428.617	-200.000	-0.018	0.098
-427.603	-3.278	-0.037	-0.026
-426.588	-11.177	-0.092	0.061
-425.573	800.000	-0.027	0.099
-424.559	373.842	0.142	-0.289
-423.544	383.683	0.093	-0.192
-422.530	-147.538	0.334	-0.028
-421.515	236.996	-0.138	0.229
-420.500	-200.000	0.044	0.236
-419.486	-200.000	-0.029	0.289
-418.471	-66.815	0.110	0.043
-417.457	325.992	-0.162	0.308
-416.442	-81.692	-0.287	-0.094
-415.428	391.820	-0.087	0.179
-414.413	-140.541	-0.419	-0.043
-413.398	800.000	0.109	0.355
-412.384	-62.850	-0.132	0.055
-411.369	-200.000	-0.028	-0.212
-410.355	228.180	0.150	0.244
-409.340	25.811	-0.199	0.165
-408.325	-200.000	0.043	-0.447
-407.311	763.402	-0.104	0.281
-406.296	4.291	0.118	0.086
-405.282	800.000	0.060	-0.199
-404.267	-33.218	-0.118	-0.065
-403.252	-5.191	-0.107	0.074
-402.238	750.781	-0.046	-0.125
-401.223	311.960	-0.118	0.220
-400.209	-86.322	0.224	-0.069
-399.194	153.427	-0.066	0.091
-398.179	-200.000	0.001	-0.053
-397.165	-142.214	-0.138	-0.014
-396.150	-16.890	-0.373	0.235
-395.136	356.665	-0.062	-0.123
-394.121	-113.687	-0.110	-0.021
-393.106	-101.062	0.050	0.012
-392.092	-82.454	0.071	0.023
-391.077	-200.000	-0.012	-0.266
-390.063	-102.729	0.436	-0.104
-389.048	-6.764	0.311	0.211
-388.033	-160.539	0.399	0.021
-387.019	800.000	0.106	-0.328
-386.004	-200.000	0.025	-0.151
-384.990	127.004	0.110	0.139
-383.975	-43.200	0.078	-0.039
-382.960	313.363	0.127	0.239
-381.946	-63.271	-0.077	0.032
-380.931	-200.000	0.026	0.205
-379.917	364.887	-0.065	-0.130
-378.902	774.522	-0.036	0.099
-377.888	733.929	0.035	0.092
-376.873	-59.486	0.219	0.094
-375.858	-32.458	-0.294	0.163
-374.844	800.000	-0.039	-0.114
-373.829	155.330	0.098	0.135
-372.815	-9.858	-0.145	-0.096
-371.800	-141.616	-0.312	0.031
-370.785	-200.000	-0.028	0.284
-369.771	-82.617	-0.306	0.099
-368.756	-81.819	-0.119	-0.039
-367.742	-200.000	-0.003	0.103
-366.727	319.216	-0.128	-0.241
-365.712	36.445	-0.141	-0.123
-364.698	-98.181	-0.303	-0.077
-363.683	-153.911	0.189	-0.013
-362.669	165.840	0.174	-0.246
-361.654	40.115	0.106	0.095
-360.639	-179.005	0.430	-0.010
-359.625	-25.189	-0.189	0.112
-358.610	101.045	0.199	0.230
-357.596	49.521	0.217	0.203
-356.581	-65.332	0.115	0.046
-355.566	800.000	0.033	0.129
-354.552	170.530	0.091	0.129
-353.537	472.992	-0.111	0.248
-352.523	-192.120	0.171	-0.002
-351.508	14.738	-0.201	0.156
-350.493	-38.139	-0.151	-0.080
-349.479	291.915	-0.077	-0.139
-348.464	-76.949	0.106	-0.037
-347.450	-125.492	-0.167	-0.025
-346.435	-84.957	-0.094	0.029
-345.420	-163.891	0.047	-0.002
-344.406	754.653	0.018	-0.050
-343.391	-108.260	-0.005	-0.001
-342.377	800.000	-0.091	-0.299
-341.362	800.000	-0.092	-0.280
-340.348	134.221	0.079	-0.102
-339.333	146.843	0.220	-0.295
-338.318	-152.752	0.086	-0.006
-337.304	-98.373	-0.326	0.083
-336.289	407.845	-0.071	-0.150
-335.275	172.825	-0.167	-0.239
-334.260	-116.705	-0.045	0.008
-333.245	272.925	-0.138	0.242
-332.231	305.623	-0.113	0.209
-331.216	-76.772	0.262	0.091
-330.202	-57.772	0.172	0.075
-329.187	301.450	-0.118	0.217
-328.172	-100.785	0.032	-0.008
-327.158	-146.199	0.462	0.040
-326.143	38.811	0.053	-0.047
-325.129	318.726	-0.180	0.340
-324.114	800.000	0.063	-0.188
-323.099	350.587	0.145	-0.285
-322.085	-63.665	0.267	-0.109
-321.070	226.660	0.240	-0.387
-320.056	-31.958	-0.216	-0.120
-319.041	-146.349	-0.260	0.023
-318.026	-48.325	0.196	0.094
-317.012	800.000	-0.066	-0.230
-315.997	-200.000	0.009	-0.056
-314.983	-200.000	-0.051	-0.259
-313.968	-17.673	-0.459	0.286
-312.953	120.756	-0.053	-0.065
-311.939	-85.680	-0.337	0.104
-310.924	174.223	-0.099	0.142
-309.910	1.197	0.090	-0.064
-308.895	-200.000	0.057	0.291
-307.880	800.000	0.071	-0.204
-306.866	-96.420	0.196	0.051
-305.851	187.859	-0.138	0.205
-304.837	-59.548	-0.259	-0.111
-303.822	42.464	0.367	0.332
-302.807	705.440	0.144	0.377
-301.793	800.000	0.084	0.318
-300.778	243.896	0.161	0.268
-299.764	-200.000	-0.018	0.164
-298.749	112.941	0.163	-0.196
-297.735	279.759	0.107	-0.190
-296.720	-200.000	0.002	0.080
-295.705	-200.000	0.018	0.121
-294.691	-10.073	0.178	-0.118
-293.676	-1.216	0.156	0.110
-292.662	29.205	0.145	0.122
-291.647	-65.394	0.136	-0.054
-290.632	800.000	0.093	-0.295
-289.618	-157.206	0.389	0.023
-288.603	169.173	-0.011	0.015
-287.589	354.175	0.079	0.156
-286.574	214.073	-0.156	-0.244
-285.559	104.006	0.247	-0.288
-284.545	361.064	0.049	-0.097
-283.530	48.426	0.177	0.165
-282.516	800.000	-0.080	-0.250
-281.501	-65.064	-0.142	-0.057
-280.486	35.305	-0.147	-0.128
-279.472	-101.164	0.086	0.021
-278.457	108.060	-0.123	-0.145
-277.443	706.964	0.049	0.130
-276.428	50.055	0.145	0.136
-275.413	-200.000	-0.005	0.022
-274.399	43.470	0.148	-0.134
-273.384	87.847	0.172	0.189
-272.370	-200.000	0.047	-0.452
-271.355	-28.832	0.136	-0.077
-270.340	-136.619	-0.129	-0.015
-269.326	784.139	-0.069	-0.189
-268.311	312.323	0.045	0.084
-267.297	-200.000	0.080	0.354
-266.282	-128.035	0.253	-0.036
-265.267	-28.013	0.029	0.017
-264.253	-116.153	0.111	0.021
-263.238	-71.009	0.287	-0.107
-262.224	49.813	0.287	0.268
-261.209	-74.636	0.176	0.063
-260.195	800.000	-0.037	0.123
-259.180	123.269	-0.049	0.061
-258.165	-121.781	-0.223	0.037
-257.151	31.216	-0.268	-0.228
-256.136	-76.761	0.098	-0.034
-255.122	260.064	-0.222	-0.381
-254.107	-140.474	0.289	-0.030
-253.092	-176.481	0.243	0.006
-252.078	-143.444	0.259	0.025
-251.063	-3.068	0.395	0.273
-250.049	-45.901	-0.121	-0.059
-249.034	-200.000	-0.047	0.340
-248.019	-50.405	0.089	-0.041
-247.005	44.173	-0.204	-0.186
-245.990	-23.669	0.233	-0.138
-244.976	-31.420	-0.434	0.242
-243.961	-146.843	-0.242	0.021
-242.946	154.385	0.259	0.353
-241.932	50.429	0.095	0.089
-240.917	-200.000	-0.028	-0.247
-239.903	346.666	0.141	0.274
-238.888	-111.459	-0.083	-0.017
-237.873	-200.000	0.015	0.325
-236.859	265.919	0.035	0.061
-235.844	-73.412	0.428	0.155
-234.830	-200.000	-0.036	0.414
-233.815	800.000	0.047	-0.135
-232.800	-164.761	-0.256	0.011
-231.786	-59.947	0.097	0.041
-230.771	-9.461	-0.245	-0.162
-229.757	-200.000	-0.034	0.239
-228.742	88.393	-0.111	-0.122
-227.727	-44.367	-0.068	-0.034
-226.713	394.521	0.140	0.290
-225.698	-127.346	0.240	0.035
-224.684	81.924	0.234	0.251
-223.669	-43.392	0.130	-0.065
-222.655	-200.000	0.012	-0.241
-221.640	20.008	0.371	0.296
-220.625	83.725	-0.126	-0.136
-219.611	231.345	-0.051	0.083
-218.596	34.930	-0.128	0.111
-217.582	-14.782	0.262	-0.166
-216.567	95.731	0.133	-0.151
-215.552	-108.744	0.130	0.028
-214.538	286.830	0.057	-0.102
-213.523	27.292	0.259	-0.215
-212.509	-200.000	0.024	0.124
-211.494	-56.320	-0.324	0.143
-210.479	-200.000	-0.008	-0.056
-209.465	-200.000	-0.003	-0.033
-208.450	386.407	-0.035	-0.072
-207.436	-151.352	0.526	-0.039
-206.421	-11.908	0.171	0.111
-205.406	-50.604	0.126	-0.059
-204.392	78.751	-0.145	-0.153
-203.377	-131.563	0.116	-0.015
-202.363	-116.499	0.319	0.058
-201.348	-200.000	-0.026	0.268
-200.333	-20.848	-0.078	0.047
-199.319	68.217	-0.063	-0.064
-198.304	358.942	0.284	-0.562
-197.290	800.000	0.093	-0.403
-196.275	-41.003	-0.313	-0.160
-195.260	800.000	-0.030	-0.120
-194.246	800.000	0.070	0.245
-193.231	-72.440	0.028	0.010
-192.217	370.995	-0.032	0.064
-191.202	10.802	-0.073	-0.055
-190.187	-62.870	-0.189	0.077
-189.173	800.000	-0.065	0.203
-188.158	-82.469	-0.390	0.125
-187.144	569.583	0.063	-0.151
-186.129	800.000	0.103	-0.392
-185.114	-125.416	0.241	-0.036
-184.100	-8.176	-0.406	0.270
-183.085	-200.000	-0.271	0.000
-182.071	-36.354	0.062	0.033
-181.056	-129.982	-0.183	-0.025
-180.042	800.000	0.092	-0.281
-179.027	-48.287	0.102	0.049
-178.012	-200.000	-0.022	0.187
-176.998	194.079	-0.175	0.263
-175.983	-11.357	0.126	0.082
-174.969	-200.000	0.005	0.028
-173.954	66.571	0.075	0.075
-172.939	527.379	-0.064	-0.148
-171.925	270.345	-0.070	0.121
-170.910	66.794	0.200	0.201
-169.896	-52.209	-0.482	0.221
-168.881	800.000	0.009	0.027
-167.866	-125.525	-0.112	0.017
-166.852	-200.000	0.014	0.415
-165.837	-200.000	-0.011	0.335
-164.823	-200.000	0.006	0.138
-163.808	-5.795	-0.404	-0.273
-162.793	268.070	-0.118	-0.204
-161.779	559.757	-0.062	-0.149
-160.764	374.691	-0.016	-0.033
-159.750	-18.767	0.170	0.105
-158.735	800.000	0.084	0.327
-157.720	-200.000	-0.078	0.399
-156.706	-107.021	0.346	0.076
-155.691	-200.000	-0.073	-0.322
-154.677	800.000	0.018	-0.063
-153.662	800.000	0.059	-0.224
-152.647	402.828	-0.119	-0.248
-151.633	35.349	-0.169	-0.146
-150.618	-95.218	0.126	0.034
-149.604	94.887	0.208	0.233
-148.589	-200.000	0.093	0.426
-147.574	125.304	-0.188	0.234
-146.560	-155.308	-0.357	0.023
-145.545	97.622	0.142	0.161
-144.531	-200.000	0.068	0.316
-143.516	-36.359	0.048	-0.025
-142.502	-168.190	0.282	-0.011
-141.487	-68.623	0.184	-0.070
-140.472	-92.551	0.285	-0.079
-139.458	492.906	-0.133	-0.301
-138.443	92.377	-0.110	-0.123
-137.429	-200.000	0.037	-0.191
-136.414	-59.516	0.088	-0.037
-135.399	201.916	0.103	0.157
-134.385	-200.000	0.002	-0.231
-133.370	78.248	-0.155	0.164
-132.356	689.411	0.044	0.112
-131.341	-3.004	0.381	0.262
-130.326	476.925	0.145	-0.323
-129.312	121.022	0.344	0.422
-128.297	-22.475	0.222	0.133
-127.283	-200.000	-0.029	-0.271
-126.268	-83.958	-0.228	0.071
-125.253	50.899	-0.277	-0.259
-124.239	-200.000	-0.086	-0.516
-123.224	44.783	-0.180	-0.163
-122.210	-48.853	-0.335	0.158
-121.195	122.327	-0.232	0.286
