DTS Sentinel unit serial number:	SN413079Multiplexer serial number:	ORYXHardware model number:	OX4-SRSoftware version number:	ORYX F/W v4.00 Oryx Data Collector v3.7.2.0data status	okinstallation	princeton_trtdifferential loss correction	single-endedforward channel	channel 3reverse channel	N/Adate	2019/09/11time	05:10:10forward acquisition time	60.00reverse acquisition time	0.00gamma	496.2192k internal	0.2330k external	0.2330temperature offset calibration	0.9911default loss term (dB/km)	0.3790temperature slope calibration	1.0000multiplexer offset coefficient	1.0000multiplexer slope coefficient	1.0000fibre end	0.00T internal ref (°C)	29.44T ext. ref 1 (°C)	-0.27T ext. ref 2 (°C)	23.35length (m)	temperature (°C)	Stokes	anti-Stokes-747.200	-188.613	-0.279	0.003
-746.185	-8.558	0.269	0.182
-745.171	800.000	0.039	0.133
-744.156	-22.983	0.264	0.160
-743.142	-26.105	-0.105	-0.062
-742.127	199.505	-0.065	0.101
-741.112	-105.385	0.164	0.038
-740.098	238.426	-0.114	0.190
-739.083	-164.856	0.199	0.009
-738.069	-107.952	0.204	-0.045
-737.054	138.431	0.027	0.036
-736.039	800.000	-0.095	0.366
-735.025	-98.002	0.167	0.043
-734.010	-62.154	0.137	0.058
-732.996	-200.000	0.030	0.137
-731.981	119.331	-0.077	-0.096
-730.966	-50.214	0.403	0.192
-729.952	-169.950	-0.297	-0.011
-728.937	313.632	-0.090	0.170
-727.923	800.000	-0.059	-0.203
-726.908	-200.000	0.021	-0.244
-725.894	-196.522	0.239	-0.002
-724.879	12.788	-0.219	0.170
-723.864	-200.000	-0.026	-0.368
-722.850	-200.000	-0.000	-0.036
-721.835	-76.818	-0.131	-0.046
-720.821	66.013	0.023	-0.024
-719.806	-33.139	-0.267	-0.149
-718.791	54.459	0.144	0.139
-717.777	-200.000	-0.006	-0.179
-716.762	339.457	0.068	-0.133
-715.748	-200.000	-0.054	0.348
-714.733	-53.513	-0.010	-0.005
-713.718	621.731	0.048	0.121
-712.704	800.000	-0.071	-0.205
-711.689	44.479	-0.260	0.240
-710.675	-200.000	0.017	-0.111
-709.660	-200.000	0.014	0.088
-708.645	-200.000	0.025	0.254
-707.631	-200.000	-0.031	0.247
-706.616	-200.000	-0.020	-0.319
-705.602	87.388	-0.133	-0.148
-704.587	800.000	0.078	-0.263
-703.572	-200.000	-0.003	-0.090
-702.558	-165.764	-0.234	-0.010
-701.543	11.468	-0.105	0.081
-700.529	32.906	-0.280	-0.243
-699.514	-66.661	-0.230	-0.092
-698.499	-200.000	-0.009	0.226
-697.485	-55.187	0.124	0.056
-696.470	50.022	-0.219	-0.208
-695.456	800.000	-0.078	-0.243
-694.441	800.000	-0.084	0.255
-693.426	-43.249	-0.186	0.095
-692.412	-147.932	0.176	-0.015
-691.397	406.466	-0.091	0.192
-690.383	-28.197	0.209	-0.122
-689.368	152.020	-0.060	-0.083
-688.354	-150.249	0.043	-0.003
-687.339	355.906	-0.057	-0.115
-686.324	-83.314	-0.347	0.112
-685.310	356.668	-0.151	-0.303
-684.295	-200.000	0.021	-0.376
-683.281	175.549	-0.100	-0.145
-682.266	-47.377	0.398	0.194
-681.251	37.289	-0.108	-0.097
-680.237	-85.340	-0.326	0.102
-679.222	136.785	-0.205	0.269
-678.208	-52.042	0.419	0.196
-677.193	-135.941	-0.375	0.044
-676.178	-123.599	0.066	0.011
-675.164	126.871	0.106	0.135
-674.149	183.168	-0.097	-0.144
-673.135	-118.653	-0.322	0.057
-672.120	377.685	-0.135	0.278
-671.105	44.530	0.149	0.137
-670.091	25.364	0.156	-0.130
-669.076	-54.464	-0.385	0.175
-668.062	-77.950	0.238	0.083
-667.047	800.000	-0.085	0.370
-666.032	98.964	0.203	-0.236
-665.018	-200.000	0.057	0.333
-664.003	23.454	-0.154	0.127
-662.989	-146.532	-0.132	0.012
-661.974	349.519	0.101	0.201
-660.959	-200.000	-0.019	-0.097
-659.945	-84.098	-0.162	-0.052
-658.930	-10.111	-0.305	-0.204
-657.916	24.715	0.139	-0.115
-656.901	-200.000	-0.006	-0.056
-655.886	-119.587	0.077	-0.013
-654.872	-154.711	0.196	0.013
-653.857	-24.874	0.206	-0.123
-652.843	-200.000	0.009	-0.121
-651.828	800.000	0.076	-0.328
-650.814	-24.712	0.255	-0.152
-649.799	108.233	-0.158	-0.189
-648.784	-200.000	-0.008	-0.125
-647.770	47.472	0.123	-0.115
-646.755	-200.000	-0.009	-0.346
-645.741	-78.246	-0.100	0.034
-644.726	-34.690	0.008	0.005
-643.711	-65.038	0.138	-0.056
-642.697	-12.721	0.238	0.156
-641.682	55.331	-0.155	0.151
-640.668	104.239	-0.163	0.192
-639.653	10.582	-0.226	-0.173
-638.638	-87.502	0.290	0.088
-637.624	289.162	-0.247	0.449
-636.609	-200.000	-0.001	-0.401
-635.595	-102.243	-0.228	0.055
-634.580	51.693	0.069	0.066
-633.565	-63.195	0.165	-0.068
-632.551	244.924	0.146	0.246
-631.536	-119.098	-0.026	0.005
-630.522	-8.599	-0.360	0.243
-629.507	-175.258	-0.266	-0.007
-628.492	-87.945	0.129	-0.039
-627.478	-200.000	-0.026	0.234
-626.463	-21.091	-0.256	0.157
-625.449	343.336	0.163	-0.321
-624.434	-147.282	-0.205	-0.017
-623.419	240.539	-0.126	-0.211
-622.405	209.986	-0.079	-0.124
-621.390	800.000	0.065	0.197
-620.376	-48.312	-0.089	0.043
-619.361	121.404	-0.285	0.355
-618.346	-103.697	0.168	-0.039
-617.332	800.000	-0.139	-0.425
-616.317	-171.136	-0.223	0.008
-615.303	111.449	-0.281	-0.340
-614.288	-93.693	-0.060	-0.016
-613.273	49.444	-0.195	-0.184
-612.259	403.041	-0.141	0.298
-611.244	-32.263	0.416	-0.233
-610.230	-29.892	0.131	0.075
-609.215	-162.062	0.328	-0.017
-608.201	164.245	0.185	0.262
-607.186	-200.000	0.021	0.174
-606.171	51.722	-0.214	0.204
-605.157	102.666	0.093	-0.108
-604.142	50.202	-0.028	0.027
-603.128	-98.748	-0.363	0.092
-602.113	-90.193	-0.218	0.063
-601.098	574.858	0.077	-0.189
-600.084	225.744	-0.103	-0.166
-599.069	215.051	-0.140	-0.221
-598.055	-200.000	0.010	0.141
-597.040	183.764	0.030	-0.044
-596.025	-68.408	-0.077	0.030
-595.011	346.697	-0.079	0.155
-593.996	-88.863	0.392	0.116
-592.982	711.108	-0.043	-0.114
-591.967	-9.620	-0.412	-0.275
-590.952	480.904	-0.105	-0.237
-589.938	800.000	0.060	-0.184
-588.923	48.447	-0.221	0.207
-587.909	-200.000	0.036	-0.283
-586.894	-86.384	0.206	0.063
-585.879	72.197	0.300	-0.313
-584.865	-40.553	0.233	-0.121
-583.850	32.172	0.204	-0.176
-582.836	800.000	0.044	-0.159
-581.821	516.441	0.131	0.306
-580.806	428.140	-0.115	-0.248
-579.792	318.741	-0.074	0.140
-578.777	-24.236	-0.019	0.011
-577.763	-57.766	-0.122	0.053
-576.748	-22.925	0.318	-0.192
-575.733	-56.948	0.073	-0.032
-574.719	-79.055	0.298	0.101
-573.704	-130.059	-0.209	0.029
-572.690	24.975	-0.260	-0.216
-571.675	143.394	-0.236	0.315
-570.661	19.330	-0.169	-0.136
-569.646	361.095	-0.008	0.016
-568.631	219.377	-0.026	-0.041
-567.617	-131.396	-0.384	0.051
-566.602	-164.583	-0.456	0.021
-565.588	33.556	0.340	0.295
-564.573	-48.684	-0.232	-0.111
-563.558	-96.271	0.280	-0.074
-562.544	47.656	-0.175	-0.163
-561.529	-93.879	-0.122	0.034
-560.515	-51.840	0.028	-0.013
-559.500	-139.359	0.218	-0.023
-558.485	476.216	0.022	0.049
-557.471	21.214	-0.222	-0.180
-556.456	107.222	-0.168	-0.199
-555.442	794.144	0.082	0.224
-554.427	-200.000	-0.005	0.044
-553.412	-77.675	0.139	-0.048
-552.398	-200.000	0.022	-0.421
-551.383	12.647	-0.179	0.138
-550.369	272.128	0.122	-0.215
-549.354	-121.518	-0.321	-0.053
-548.339	24.252	-0.229	0.189
-547.325	-41.450	0.184	0.095
-546.310	55.511	0.176	0.171
-545.296	-10.634	0.130	-0.086
-544.281	239.736	0.151	0.251
-543.266	312.936	-0.116	-0.218
-542.252	47.925	0.248	-0.232
-541.237	462.474	-0.157	-0.350
-540.223	-165.086	-0.035	0.002
-539.208	124.787	0.076	-0.095
-538.193	9.858	-0.054	0.041
-537.179	-137.413	0.125	-0.014
-536.164	351.818	-0.163	-0.323
-535.150	-117.926	-0.270	-0.048
-534.135	800.000	-0.059	-0.166
-533.121	133.210	-0.135	-0.174
-532.106	30.142	-0.133	-0.113
-531.091	35.259	-0.098	-0.086
-530.077	-200.000	0.013	-0.130
-529.062	800.000	0.079	0.309
-528.048	-68.029	-0.159	0.062
-527.033	-54.962	-0.223	-0.101
-526.018	-2.295	0.206	-0.144
-525.004	-200.000	0.053	-0.368
-523.989	648.482	-0.059	-0.151
-522.975	413.996	-0.058	-0.124
-521.960	-165.797	-0.177	0.008
-520.945	800.000	0.062	-0.210
-519.931	8.187	0.293	0.220
-518.916	-64.379	-0.525	-0.213
-517.902	-90.132	0.128	0.037
-516.887	17.190	0.151	-0.120
-515.872	-138.565	-0.173	0.019
-514.858	-7.959	-0.473	-0.318
-513.843	-200.000	-0.002	0.034
-512.829	-47.367	0.372	0.181
-511.814	-200.000	-0.009	0.063
-510.799	25.316	0.194	0.161
-509.785	800.000	-0.026	-0.093
-508.770	-200.000	-0.040	0.201
-507.756	-70.626	0.448	-0.169
-506.741	16.492	0.272	0.214
-505.726	158.339	-0.204	0.283
-504.712	359.700	-0.029	-0.057
-503.697	-200.000	0.076	-0.382
-502.683	-200.000	0.028	0.248
-501.668	65.525	-0.057	0.057
-500.653	-200.000	0.027	-0.250
-499.639	-3.925	-0.063	-0.044
-498.624	-53.117	0.208	0.096
-497.610	451.649	0.137	-0.302
-496.595	-120.805	0.123	0.021
-495.581	-200.000	-0.006	0.155
-494.566	-150.810	-0.080	0.006
-493.551	-80.931	0.230	0.076
-492.537	-84.669	0.158	-0.050
-491.522	-170.886	0.128	0.004
-490.508	36.546	-0.248	-0.218
-489.493	-27.028	0.313	0.182
-488.478	-130.740	-0.303	0.041
-487.464	120.279	-0.363	0.449
-486.449	-200.000	-0.022	0.112
-485.435	800.000	-0.066	-0.260
-484.420	9.863	0.319	0.242
-483.405	16.471	0.376	-0.296
-482.391	176.032	0.053	0.076
-481.376	-82.055	0.337	0.110
-480.362	575.448	0.069	-0.168
-479.347	-76.482	0.118	-0.041
-478.332	-200.000	-0.011	0.075
-477.318	392.073	-0.107	0.221
-476.303	46.626	0.209	0.193
-475.289	-79.109	0.175	0.059
-474.274	-50.937	0.284	0.133
-473.259	-102.453	0.049	-0.012
-472.245	-59.353	-0.043	0.018
-471.230	-26.392	-0.189	0.111
-470.216	800.000	0.032	0.093
-469.201	-65.654	0.183	-0.073
-468.186	-200.000	-0.007	-0.169
-467.172	108.167	0.029	-0.035
-466.157	-51.362	-0.211	0.098
-465.143	-57.286	-0.135	-0.059
-464.128	456.236	0.178	-0.394
-463.113	424.808	0.093	-0.199
-462.099	-53.433	0.156	-0.071
-461.084	0.257	0.176	-0.125
-460.070	-35.152	-0.342	0.186
-459.055	42.237	0.199	0.180
-458.040	28.729	0.247	0.209
-457.026	68.527	-0.231	0.236
-456.011	-15.040	0.482	-0.307
-454.997	-52.363	-0.201	-0.092
-453.982	-123.697	-0.178	-0.028
-452.968	40.065	0.242	0.216
-451.953	-49.934	-0.208	-0.098
-450.938	375.488	-0.086	-0.174
-449.924	800.000	-0.072	-0.213
-448.909	-143.870	-0.137	0.013
-447.895	93.629	-0.021	0.023
-446.880	-200.000	-0.035	-0.393
-445.865	-106.424	-0.224	0.050
-444.851	51.220	0.149	0.141
-443.836	28.553	-0.225	-0.189
-442.822	158.896	0.150	0.208
-441.807	35.776	0.145	-0.127
-440.792	-82.479	0.368	-0.119
-439.778	-200.000	-0.010	-0.277
-438.763	-136.226	0.228	-0.026
-437.749	-72.868	-0.184	0.067
-436.734	37.477	0.190	0.168
-435.719	-200.000	0.052	-0.323
-434.705	135.325	-0.132	-0.171
-433.690	-59.688	-0.257	-0.110
-432.676	-155.657	-0.069	-0.004
-431.661	1.486	-0.186	0.133
-430.646	-16.661	0.119	-0.075
-429.632	-200.000	0.023	0.117
-428.617	-47.449	-0.143	-0.069
-427.603	-200.000	-0.015	0.495
-426.588	145.301	-0.175	0.233
-425.573	-200.000	0.060	0.360
-424.559	-200.000	-0.053	0.000
-423.544	218.896	0.081	-0.128
-422.530	-95.305	0.107	0.029
-421.515	-200.000	0.028	-0.239
-420.500	219.105	-0.091	-0.144
-419.486	-110.910	0.115	0.023
-418.471	62.415	0.161	-0.160
-417.457	22.130	-0.372	0.301
-416.442	17.510	-0.040	0.032
-415.428	127.318	-0.162	-0.204
-414.413	-110.983	-0.578	0.118
-413.398	-200.000	-0.031	-0.315
-412.384	77.313	-0.168	0.178
-411.369	-75.107	-0.086	0.031
-410.355	513.634	0.093	-0.216
-409.340	127.995	0.247	0.313
-408.325	21.726	-0.336	0.272
-407.311	43.873	0.234	-0.213
-406.296	-200.000	0.043	0.234
-405.282	-200.000	0.038	0.283
-404.267	-200.000	0.015	0.277
-403.252	-151.241	0.311	0.023
-402.238	162.784	-0.212	0.296
-401.223	-5.797	0.327	-0.222
-400.209	-200.000	-0.030	-0.152
-399.194	-200.000	-0.037	-0.160
-398.179	-120.035	0.552	-0.094
-397.165	-200.000	-0.038	-0.178
-396.150	-118.637	0.146	0.026
-395.136	21.315	-0.070	0.057
-394.121	40.282	-0.278	-0.248
-393.106	-200.000	-0.075	-0.624
-392.092	-149.495	-0.306	0.024
-391.077	-166.052	0.052	-0.002
-390.063	-200.000	-0.020	-0.122
-389.048	233.587	-0.185	0.302
-388.033	-200.000	-0.033	0.397
-387.019	643.643	0.065	0.164
-386.004	102.855	0.249	0.290
-384.990	800.000	0.050	-0.180
-383.975	-135.494	0.102	-0.012
-382.960	800.000	-0.073	0.261
-381.946	391.395	-0.087	0.179
-380.931	-74.060	-0.381	0.137
-379.917	-77.359	0.456	-0.157
-378.902	-200.000	0.002	-0.038
-377.888	217.385	-0.109	0.172
-376.873	187.833	-0.184	0.273
-375.858	706.763	0.049	-0.130
-374.844	-45.227	0.283	-0.140
-373.829	11.655	0.313	-0.239
-372.815	32.559	0.146	0.125
-371.800	-12.347	-0.057	-0.037
-370.785	-45.230	0.267	0.132
-369.771	800.000	0.107	0.391
-368.756	-160.142	0.182	-0.010
-367.742	-50.411	0.017	-0.008
-366.727	-75.706	-0.204	0.072
-365.712	-95.891	-0.207	0.055
-364.698	-71.341	0.148	0.055
-363.683	800.000	0.003	-0.013
-362.669	-5.087	0.336	0.229
-361.654	-72.059	0.193	0.071
-360.639	41.301	-0.229	0.206
-359.625	164.826	0.042	-0.059
-358.610	254.662	0.032	0.055
-357.596	-137.473	-0.120	0.013
-356.581	-85.161	-0.187	-0.058
-355.566	793.962	-0.038	0.104
-354.552	-37.174	-0.123	0.065
-353.537	267.169	0.085	-0.148
-352.523	155.413	0.124	-0.169
-351.508	93.794	0.197	0.221
-350.493	28.519	-0.096	-0.081
-349.479	800.000	0.152	-0.427
-348.464	26.671	0.384	0.319
-347.450	-12.340	-0.242	0.157
-346.435	-0.704	0.191	0.134
-345.420	186.664	0.140	-0.207
-344.406	-200.000	0.009	-0.105
-343.391	-50.001	-0.081	-0.038
-342.377	100.307	0.054	0.062
-341.362	-91.182	-0.189	0.054
-340.348	-67.048	-0.198	-0.077
-339.333	-43.710	-0.112	0.056
-338.318	103.121	-0.056	0.065
-337.304	183.381	-0.136	0.200
-336.289	202.143	-0.080	0.122
-335.275	-200.000	-0.058	0.473
-334.260	-64.920	-0.158	0.063
-333.245	335.793	-0.112	0.216
-332.231	800.000	0.050	-0.168
-331.216	-125.395	-0.339	-0.051
-330.202	-200.000	0.000	0.179
-329.187	-200.000	-0.014	-0.114
-328.172	-200.000	-0.032	-0.388
-327.158	211.136	0.115	0.179
-326.143	-200.000	-0.034	0.238
-325.129	-5.281	-0.221	-0.151
-324.114	-200.000	-0.031	-0.470
-323.099	800.000	0.023	-0.097
-322.085	-200.000	-0.023	0.248
-321.070	16.548	0.067	-0.053
-320.056	177.841	-0.130	-0.188
-319.041	105.866	-0.128	-0.150
-318.026	470.821	0.064	-0.142
-317.012	-200.000	-0.017	-0.221
-315.997	800.000	-0.101	-0.319
-314.983	569.353	-0.106	0.254
-313.968	-71.293	-0.329	-0.122
-312.953	101.066	-0.168	-0.193
-311.939	-144.451	0.258	-0.024
-310.924	-133.296	0.109	-0.014
-309.910	124.017	-0.145	-0.181
-308.895	58.059	0.052	-0.051
-307.880	100.904	0.067	-0.077
-306.866	318.110	-0.018	0.033
-305.851	-34.547	0.098	-0.053
-304.837	285.774	-0.107	-0.192
-303.822	800.000	-0.047	-0.188
-302.807	-90.484	0.385	-0.110
-301.793	-50.028	0.090	-0.042
-300.778	800.000	-0.040	-0.130
-299.764	-63.149	-0.289	-0.118
-298.749	438.842	0.041	-0.088
-297.735	-200.000	0.019	-0.160
-296.720	198.573	-0.160	0.242
-295.705	-200.000	0.011	0.196
-294.691	-169.327	0.120	-0.004
-293.676	575.623	0.045	0.108
-292.662	-185.166	-0.235	0.004
-291.647	-3.788	0.129	-0.088
-290.632	36.610	0.217	0.189
-289.618	-13.568	0.189	0.121
-288.603	122.903	-0.089	-0.110
-287.589	-127.301	0.337	-0.049
-286.574	341.456	-0.122	0.235
-285.559	82.830	0.218	-0.234
-284.545	526.818	-0.041	-0.096
-283.530	-98.516	-0.327	0.083
-282.516	-94.774	0.452	0.121
-281.501	164.747	0.187	0.260
-280.486	800.000	-0.029	0.101
-279.472	182.152	0.075	-0.110
-278.457	84.453	0.077	0.083
-277.443	271.509	-0.023	-0.041
-276.428	800.000	0.033	0.115
-275.413	-111.528	0.187	0.038
-274.399	-182.211	-0.100	0.002
-273.384	-113.840	0.149	-0.029
-272.370	406.664	-0.037	-0.078
-271.355	103.590	0.068	-0.079
-270.340	-68.023	-0.230	-0.089
-269.326	-200.000	-0.014	-0.295
-268.311	-200.000	0.020	0.263
-267.297	-200.000	0.003	0.148
-266.282	74.238	0.216	0.224
-265.267	70.817	-0.029	-0.030
-264.253	-96.534	0.288	-0.075
-263.238	-26.477	0.331	-0.192
-262.224	-30.199	0.179	0.100
-261.209	-200.000	0.008	-0.150
-260.195	-200.000	0.083	-0.389
-259.180	271.178	0.102	0.177
-258.165	-66.319	0.339	0.133
-257.151	267.041	-0.127	-0.220
-256.136	520.150	0.115	0.265
-255.122	-200.000	0.010	0.054
-254.107	-138.250	0.151	0.017
-253.092	132.341	0.100	0.128
-252.078	-200.000	-0.010	0.076
-251.063	140.953	0.043	0.057
-250.049	-200.000	-0.014	0.088
-249.034	-200.000	0.008	0.166
-248.019	-82.213	0.329	0.106
-247.005	-200.000	-0.070	0.366
-245.990	107.419	-0.215	0.253
-244.976	114.037	-0.144	-0.173
-243.961	-38.353	-0.105	-0.055
-242.946	-64.971	-0.346	-0.138
-241.932	800.000	0.089	-0.250
-240.917	-100.314	0.229	-0.056
-239.903	-92.974	-0.324	-0.089
-238.888	800.000	0.123	-0.363
-237.873	-110.525	0.271	0.056
-236.859	800.000	0.062	0.170
-235.844	-169.434	0.216	-0.008
-234.830	-40.871	0.190	0.097
-233.815	104.713	0.311	-0.362
-232.800	-31.591	0.065	0.036
-231.786	800.000	0.048	0.194
-230.771	124.503	-0.234	0.290
-229.757	800.000	0.153	0.440
-228.742	800.000	-0.012	-0.047
-227.727	-200.000	0.078	-0.349
-226.713	58.494	0.125	0.121
-225.698	330.864	0.035	-0.066
-224.684	243.910	0.083	-0.137
-223.669	418.373	-0.046	-0.098
-222.655	612.335	-0.115	-0.285
-221.640	412.877	-0.040	-0.084
-220.625	-92.677	-0.203	0.056
-219.611	800.000	0.086	0.243
-218.596	-121.443	-0.333	0.055
-217.582	239.119	-0.130	0.213
-216.567	23.085	-0.129	-0.104
-215.552	-74.640	-0.070	0.025
-214.538	-200.000	0.022	0.264
-213.523	-200.000	0.014	0.263
-212.509	800.000	0.060	0.256
-211.494	265.682	-0.134	-0.231
-210.479	-68.003	-0.081	-0.031
-209.465	518.614	-0.132	0.305
-208.450	800.000	0.041	0.116
-207.436	-146.851	-0.135	-0.011
-206.421	214.545	0.004	-0.006
-205.406	-200.000	-0.022	-0.197
-204.392	609.732	-0.059	0.146
-203.377	-127.171	-0.337	0.049
-202.363	147.424	0.199	-0.264
-201.348	12.437	0.097	-0.074
-200.333	-31.863	0.242	-0.134
-199.319	83.345	-0.050	0.053
-198.304	-21.292	-0.268	-0.161
-197.290	-200.000	0.062	0.397
-196.275	-200.000	-0.014	-0.130
-195.260	-200.000	0.072	-0.411
-194.246	107.984	-0.057	0.067
-193.231	-18.163	0.178	0.110
-192.217	149.543	-0.072	-0.097
-191.202	103.853	-0.097	-0.112
-190.187	-114.832	0.287	-0.054
-189.173	120.158	-0.178	0.218
-188.158	-200.000	0.029	-0.136
-187.144	-94.929	0.038	-0.010
-186.129	-88.646	-0.204	-0.060
-185.114	-200.000	0.008	0.363
-184.100	246.447	0.147	0.245
-183.085	-200.000	0.012	0.069
-182.071	-59.025	-0.176	-0.075
-181.056	-70.545	-0.070	0.026
-180.042	800.000	-0.121	0.436
-179.027	143.572	-0.121	0.159
-178.012	800.000	-0.024	-0.088
-176.998	8.155	-0.236	-0.174
-175.983	136.378	0.095	0.121
-174.969	-170.766	0.304	0.010
-173.954	150.338	0.064	-0.086
-172.939	800.000	-0.039	0.143
-171.925	-200.000	-0.002	0.249
-170.910	4.103	0.139	0.100
-169.896	-200.000	-0.021	0.326
-168.881	800.000	-0.093	0.378
-167.866	-40.833	0.196	-0.100
-166.852	-74.932	-0.149	-0.053
-165.837	332.942	0.097	-0.185
-164.823	197.644	0.139	-0.208
-163.808	-49.355	-0.334	0.157
-162.793	-59.268	0.277	-0.117
-161.779	-200.000	-0.032	0.282
-160.764	128.036	-0.142	0.178
-159.750	-74.557	0.108	-0.038
-158.735	150.341	-0.014	-0.019
-157.720	-117.635	0.176	-0.031
-156.706	-200.000	0.014	-0.060
-155.691	194.787	-0.143	0.213
-154.677	64.564	-0.096	-0.095
-153.662	107.879	0.168	0.197
-152.647	-129.543	-0.314	-0.043
-151.633	85.806	-0.144	0.156
-150.618	-42.088	0.172	-0.086
-149.604	492.390	0.021	-0.048
-148.589	-200.000	-0.064	0.404
-147.574	83.481	-0.164	-0.175
-146.560	-200.000	0.000	0.111
-145.545	151.908	0.067	-0.089
-144.531	361.008	-0.152	-0.299
-143.516	800.000	-0.050	-0.140
-142.502	-123.919	0.263	-0.041
-141.487	-200.000	-0.003	0.146
-140.472	778.894	0.204	0.549
-139.458	54.334	0.306	0.290
-138.443	1.701	0.326	-0.231
-137.429	199.943	0.009	-0.014
-136.414	154.839	-0.113	0.153
-135.399	206.445	0.029	-0.045
-134.385	101.707	0.189	0.217
-133.370	-156.805	0.169	0.010
-132.356	-150.397	0.073	0.006
-131.341	-200.000	0.027	-0.308
-130.326	124.519	0.217	-0.268
-129.312	211.481	-0.093	0.143
-128.297	760.877	-0.126	-0.335
-127.283	-86.348	-0.184	0.056
-126.268	-200.000	-0.033	0.305
-125.253	-51.438	0.295	-0.135
-124.239	50.489	0.315	0.293
-123.224	-63.652	0.349	-0.141
-122.210	-200.000	-0.012	-0.163
-121.195	-87.919	0.231	0.068
