DTS Sentinel unit serial number:	SN413079Multiplexer serial number:	ORYXHardware model number:	OX4-SRSoftware version number:	ORYX F/W v4.00 Oryx Data Collector v3.7.2.0data status	okinstallation	princeton_trtdifferential loss correction	single-endedforward channel	channel 3reverse channel	N/Adate	2019/09/10time	21:26:11forward acquisition time	60.00reverse acquisition time	0.00gamma	496.2192k internal	0.2329k external	0.2329temperature offset calibration	0.9919default loss term (dB/km)	0.3790temperature slope calibration	1.0000multiplexer offset coefficient	1.0000multiplexer slope coefficient	1.0000fibre end	0.00T internal ref (°C)	31.19T ext. ref 1 (°C)	-0.32T ext. ref 2 (°C)	24.30length (m)	temperature (°C)	Stokes	anti-Stokes-747.200	71.181	0.191	-0.200
-746.185	-90.071	-0.111	-0.033
-745.171	149.181	-0.166	0.226
-744.156	-198.939	-0.244	0.001
-743.142	272.450	-0.036	-0.064
-742.127	-95.404	0.066	0.018
-741.112	39.305	0.225	-0.203
-740.098	-199.208	0.220	-0.001
-739.083	-200.000	-0.032	0.292
-738.069	661.816	-0.121	0.313
-737.054	142.114	0.063	0.084
-736.039	266.012	-0.203	-0.357
-735.025	137.483	0.172	0.227
-734.010	-200.000	-0.040	-0.315
-732.996	731.294	-0.050	0.134
-731.981	65.200	-0.134	-0.137
-730.966	-175.087	-0.268	0.008
-729.952	800.000	0.153	-0.544
-728.937	-102.219	-0.208	-0.050
-727.923	800.000	0.059	-0.169
-726.908	18.994	-0.365	0.295
-725.894	102.002	0.262	-0.308
-724.879	800.000	-0.041	-0.172
-723.864	25.529	-0.304	-0.255
-722.850	587.123	-0.107	0.265
-721.835	153.749	-0.279	-0.384
-720.821	49.625	0.246	-0.233
-719.806	-93.043	0.189	-0.053
-718.791	-200.000	0.015	-0.107
-717.777	800.000	-0.042	0.144
-716.762	-74.558	-0.145	0.053
-715.748	-149.932	-0.108	0.008
-714.733	-200.000	0.064	-0.355
-713.718	-23.894	0.311	-0.187
-712.704	384.742	-0.028	-0.057
-711.689	112.691	0.200	-0.243
-710.675	-200.000	0.006	-0.388
-709.660	521.420	-0.041	-0.097
-708.645	211.775	0.066	0.105
-707.631	-200.000	-0.029	0.281
-706.616	151.385	0.153	-0.209
-705.602	-200.000	0.007	-0.065
-704.587	193.621	-0.273	-0.415
-703.572	-200.000	-0.021	-0.121
-702.558	800.000	0.060	-0.237
-701.543	556.795	0.032	-0.079
-700.529	-200.000	0.061	0.596
-699.514	-70.919	0.183	-0.069
-698.499	-200.000	0.072	-0.376
-697.485	119.183	0.093	-0.116
-696.470	17.740	0.088	-0.070
-695.456	-200.000	0.005	0.251
-694.441	-200.000	-0.020	0.356
-693.426	161.305	0.061	-0.085
-692.412	-54.692	-0.192	-0.087
-691.397	-200.000	-0.009	0.243
-690.383	-200.000	0.006	-0.294
-689.368	44.675	-0.308	-0.285
-688.354	-65.529	-0.184	0.074
-687.339	314.301	-0.086	-0.163
-686.324	-7.227	-0.282	-0.192
-685.310	-135.198	-0.127	0.015
-684.295	-33.104	0.242	0.135
-683.281	522.875	-0.086	0.202
-682.266	-149.288	-0.254	-0.020
-681.251	-200.000	-0.033	0.169
-680.237	-200.000	-0.003	0.171
-679.222	85.822	-0.181	-0.200
-678.208	-200.000	0.053	-0.343
-677.193	-83.210	-0.071	-0.023
-676.178	-57.481	0.172	-0.076
-675.164	493.337	0.052	-0.121
-674.149	-81.070	0.157	0.052
-673.135	14.763	-0.210	0.165
-672.120	20.938	0.061	-0.050
-671.105	566.307	-0.084	-0.204
-670.091	144.643	-0.237	-0.317
-669.076	-145.205	0.241	-0.022
-668.062	800.000	0.042	-0.131
-667.047	309.129	-0.194	-0.363
-666.032	800.000	0.095	0.268
-665.018	-200.000	0.007	-0.143
-664.003	435.817	0.113	0.247
-662.989	25.034	-0.260	0.217
-661.974	-144.005	-0.098	0.009
-660.959	67.954	-0.285	-0.293
-659.945	-57.129	0.211	0.093
-658.930	800.000	0.047	0.135
-657.916	25.466	-0.199	0.166
-656.901	-114.940	-0.223	-0.043
-655.886	34.195	0.111	-0.097
-654.872	-151.830	0.238	-0.018
-653.857	-200.000	0.005	0.110
-652.843	-200.000	-0.030	-0.238
-651.828	-64.483	-0.243	-0.099
-650.814	-200.000	-0.057	-0.446
-649.799	-200.000	-0.042	0.399
-648.784	-200.000	-0.010	0.107
-647.770	-58.044	0.371	-0.163
-646.755	89.046	-0.190	-0.212
-645.741	-200.000	-0.015	0.257
-644.726	-200.000	0.004	-0.126
-643.711	-135.804	-0.131	-0.015
-642.697	149.813	0.140	-0.190
-641.682	-94.571	-0.156	0.043
-640.668	-200.000	-0.009	-0.094
-639.653	-87.125	-0.208	-0.063
-638.638	-2.567	0.016	0.011
-637.624	-89.152	0.215	-0.064
-636.609	-193.799	0.140	-0.001
-635.595	-200.000	-0.006	-0.076
-634.580	94.903	-0.117	0.133
-633.565	-29.054	0.131	0.075
-632.551	-122.135	0.115	-0.019
-631.536	-67.430	0.298	0.117
-630.522	126.091	-0.334	-0.423
-629.507	-75.338	-0.187	-0.067
-628.492	177.310	0.063	-0.093
-627.478	111.381	-0.131	0.158
-626.463	-96.938	0.126	0.033
-625.449	325.761	0.114	0.219
-624.434	-143.281	-0.179	-0.017
-623.419	270.975	0.040	0.070
-622.405	385.631	0.064	0.132
-621.390	295.274	-0.109	-0.200
-620.376	-200.000	-0.041	0.214
-619.361	33.803	-0.091	-0.079
-618.346	291.368	0.064	-0.118
-617.332	-30.562	0.145	-0.083
-616.317	125.913	-0.157	0.199
-615.303	187.960	0.236	0.353
-614.288	280.847	0.172	0.308
-613.273	-116.740	0.231	-0.043
-612.259	249.926	0.026	0.044
-611.244	800.000	-0.026	0.098
-610.230	213.660	-0.188	-0.297
-609.215	247.674	0.106	0.180
-608.201	306.493	-0.191	0.357
-607.186	-105.058	0.210	-0.048
-606.171	-51.546	-0.211	0.099
-605.157	-200.000	0.014	0.227
-604.142	800.000	0.048	-0.146
-603.128	-200.000	0.023	-0.392
-602.113	-200.000	-0.024	-0.210
-601.098	-1.201	-0.232	0.164
-600.084	-200.000	0.006	-0.141
-599.069	-168.827	-0.269	-0.010
-598.055	167.631	-0.026	-0.037
-597.040	-200.000	0.016	0.100
-596.025	-163.393	0.292	-0.014
-595.011	42.996	-0.050	-0.045
-593.996	-200.000	0.021	0.355
-592.982	-40.575	0.172	0.090
-591.967	-47.960	-0.243	-0.118
-590.952	-25.836	-0.089	-0.053
-589.938	-200.000	-0.009	-0.137
-588.923	103.236	0.109	-0.128
-587.909	-138.545	-0.143	-0.016
-586.894	-17.118	-0.246	0.155
-585.879	82.884	-0.131	0.143
-584.865	447.669	0.173	0.381
-583.850	-105.782	-0.220	-0.050
-582.836	11.409	0.080	-0.062
-581.821	-57.512	0.085	0.037
-580.806	418.916	0.144	-0.309
-579.792	-92.656	-0.326	-0.092
-578.777	116.639	-0.269	-0.330
-577.763	5.193	-0.072	0.053
-576.748	74.047	-0.210	0.221
-575.733	304.044	-0.022	-0.041
-574.719	25.872	-0.188	-0.157
-573.704	615.754	-0.075	-0.188
-572.690	-200.000	0.015	-0.128
-571.675	163.140	-0.183	-0.257
-570.661	222.895	-0.092	-0.148
-569.646	-2.943	0.064	0.045
-568.631	169.241	-0.032	-0.046
-567.617	-200.000	0.051	0.420
-566.602	135.478	-0.208	0.271
-565.588	-200.000	0.006	0.235
-564.573	137.150	0.071	0.093
-563.558	-3.553	-0.144	0.100
-562.544	-122.670	-0.107	-0.017
-561.529	299.484	0.049	-0.090
-560.515	-41.172	0.273	-0.141
-559.500	800.000	-0.004	-0.016
-558.485	-70.532	-0.298	0.113
-557.471	63.579	0.333	-0.335
-556.456	-200.000	-0.080	0.443
-555.442	-141.045	-0.226	0.023
-554.427	116.548	0.103	-0.126
-553.412	-200.000	0.001	0.183
-552.398	69.349	0.215	0.222
-551.383	-200.000	0.029	0.355
-550.369	-200.000	0.020	0.129
-549.354	34.932	0.337	-0.295
-548.339	312.929	-0.111	0.209
-547.325	800.000	-0.077	-0.222
-546.310	-102.632	-0.448	-0.107
-545.296	-200.000	-0.010	0.048
-544.281	-103.923	0.257	0.060
-543.266	800.000	-0.016	-0.053
-542.252	-16.458	-0.272	-0.173
-541.237	-60.284	0.089	0.038
-540.223	-130.681	0.286	-0.039
-539.208	-175.848	0.084	0.002
-538.193	-200.000	0.004	-0.048
-537.179	800.000	0.047	0.196
-536.164	-113.372	0.112	0.022
-535.150	-52.562	0.167	0.077
-534.135	-5.582	-0.359	0.246
-533.121	800.000	-0.056	0.176
-532.106	-30.610	0.143	-0.081
-531.091	36.886	0.192	0.170
-530.077	345.220	-0.193	-0.378
-529.062	-29.766	0.162	-0.092
-528.048	-99.910	-0.153	-0.038
-527.033	480.007	-0.056	0.128
-526.018	3.815	-0.081	-0.059
-525.004	800.000	-0.119	0.390
-523.989	-34.858	-0.292	-0.159
-522.975	268.258	0.109	-0.191
-521.960	-59.050	-0.121	0.052
-520.945	-146.439	-0.051	-0.004
-519.931	-34.622	0.104	-0.057
-518.916	11.702	-0.102	0.078
-517.902	-37.734	-0.238	-0.127
-516.887	-139.733	-0.241	-0.026
-515.872	-95.258	-0.030	-0.008
-514.858	-200.000	-0.042	0.273
-513.843	-35.485	-0.116	0.063
-512.829	800.000	0.099	0.303
-511.814	-89.998	0.076	0.022
-510.799	424.448	-0.184	-0.396
-509.785	172.001	-0.154	-0.221
-508.770	-102.449	-0.273	-0.065
-507.756	-200.000	-0.005	-0.055
-506.741	-181.943	0.337	0.006
-505.726	-112.513	-0.227	-0.045
-504.712	-54.390	0.234	-0.106
-503.697	13.761	0.074	-0.057
-502.683	-200.000	0.024	-0.241
-501.668	-78.685	0.255	-0.087
-500.653	-110.848	-0.214	-0.044
-499.639	-87.910	-0.113	-0.034
-498.624	170.245	-0.267	-0.382
-497.610	58.207	-0.220	0.215
-496.595	81.470	-0.240	0.259
-495.581	236.961	-0.104	-0.172
-494.566	69.649	-0.108	0.111
-493.551	25.708	-0.091	0.076
-492.537	-48.144	0.355	-0.171
-491.522	279.608	-0.059	-0.104
-490.508	455.607	0.083	-0.183
-489.493	399.313	0.146	-0.305
-488.478	37.060	-0.346	0.306
-487.464	-165.218	-0.326	0.014
-486.449	-123.490	0.206	-0.033
-485.435	67.417	-0.018	0.019
-484.420	-86.574	-0.286	0.088
-483.405	-200.000	0.036	0.164
-482.391	-30.591	-0.173	0.098
-481.376	800.000	-0.038	0.128
-480.362	-39.879	-0.220	-0.115
-479.347	-30.063	-0.265	-0.150
-478.332	116.670	0.128	0.156
-477.318	56.717	0.227	0.220
-476.303	-87.330	-0.276	0.083
-475.289	-104.821	0.051	-0.012
-474.274	-117.180	0.326	-0.059
-473.259	145.533	-0.173	0.231
-472.245	-6.598	0.197	-0.134
-471.230	-102.138	-0.092	0.022
-470.216	-163.335	0.268	-0.013
-469.201	204.065	-0.080	0.123
-468.186	-97.160	0.292	0.076
-467.172	-151.914	0.111	-0.008
-466.157	32.739	-0.383	-0.330
-465.143	800.000	-0.067	-0.251
-464.128	800.000	0.077	-0.317
-463.113	432.032	-0.077	-0.166
-462.099	646.401	-0.183	0.467
-461.084	206.640	0.098	0.152
-460.070	-37.703	-0.224	0.119
-459.055	478.543	-0.095	0.214
-458.040	103.939	0.271	0.317
-457.026	-63.160	-0.260	-0.107
-456.011	12.482	-0.196	0.150
-454.997	-180.707	-0.134	-0.003
-453.982	-82.758	0.106	0.034
-452.968	54.641	0.136	-0.130
-451.953	56.315	0.089	0.086
-450.938	-38.480	0.269	0.142
-449.924	16.141	-0.306	0.240
-448.909	-25.314	0.253	0.149
-447.895	-200.000	0.013	0.190
-446.880	529.142	-0.038	0.088
-445.865	68.431	-0.124	-0.126
-444.851	-30.500	0.175	-0.099
-443.836	340.868	0.183	-0.355
-442.822	-93.425	-0.358	-0.099
-441.807	800.000	-0.020	0.069
-440.792	-88.908	0.276	-0.082
-439.778	-200.000	-0.022	-0.119
-438.763	21.032	0.158	-0.128
-437.749	34.731	-0.129	-0.112
-436.734	70.372	0.030	-0.031
-435.719	800.000	0.073	-0.204
-434.705	-48.693	-0.140	-0.067
-433.690	-200.000	-0.004	-0.184
-432.676	102.276	0.155	0.180
-431.661	41.658	-0.077	-0.069
-430.646	-68.454	-0.217	-0.084
-429.632	287.670	-0.181	-0.326
-428.617	-62.528	-0.197	-0.081
-427.603	-98.723	-0.387	0.098
-426.588	-75.065	0.420	-0.149
-425.573	101.266	0.338	-0.392
-424.559	214.121	-0.131	0.206
-423.544	-200.000	0.012	0.446
-422.530	321.615	-0.090	0.170
-421.515	-29.175	-0.201	-0.115
-420.500	800.000	0.045	0.164
-419.486	221.792	-0.087	-0.138
-418.471	-200.000	-0.005	-0.051
-417.457	-87.264	-0.228	0.069
-416.442	-70.405	0.115	-0.043
-415.428	139.020	-0.279	-0.364
-414.413	53.027	-0.135	0.128
-413.398	-149.294	0.097	-0.008
-412.384	145.465	0.173	0.231
-411.369	-32.535	0.185	0.103
-410.355	-128.824	0.130	-0.018
-409.340	-130.228	0.362	0.049
-408.325	-200.000	-0.058	0.456
-407.311	-200.000	-0.034	0.154
-406.296	200.506	-0.178	0.272
-405.282	-64.140	0.303	-0.123
-404.267	-129.622	-0.051	-0.007
-403.252	-200.000	-0.005	-0.026
-402.238	-23.420	-0.074	-0.044
-401.223	-87.120	-0.262	-0.079
-400.209	315.034	0.123	-0.230
-399.194	-37.595	0.024	-0.013
-398.179	41.767	-0.329	0.296
-397.165	-200.000	-0.035	-0.174
-396.150	-200.000	0.050	0.289
-395.136	-111.858	0.253	0.051
-394.121	325.233	-0.044	-0.083
-393.106	427.893	0.088	-0.190
-392.092	156.142	-0.220	-0.301
-391.077	-6.426	0.240	-0.163
-390.063	-200.000	-0.001	0.152
-389.048	55.498	0.129	0.124
-388.033	-102.126	0.233	-0.056
-387.019	-200.000	-0.024	0.115
-386.004	-107.055	0.192	-0.042
-384.990	328.927	0.141	0.269
-383.975	56.511	-0.209	0.202
-382.960	98.366	-0.103	0.118
-381.946	47.699	-0.201	-0.186
-380.931	-46.048	0.234	0.115
-379.917	645.047	-0.056	0.142
-378.902	-200.000	-0.009	-0.092
-377.888	111.178	0.015	0.018
-376.873	330.024	0.138	-0.264
-375.858	0.482	0.069	-0.049
-374.844	-200.000	0.018	-0.221
-373.829	-149.269	-0.261	-0.021
-372.815	-30.207	0.076	0.043
-371.800	12.803	0.142	-0.109
-370.785	328.790	0.088	-0.167
-369.771	164.877	-0.209	0.293
-368.756	-138.409	-0.334	0.037
-367.742	-64.774	0.307	-0.124
-366.727	149.803	-0.219	0.294
-365.712	-200.000	0.005	0.129
-364.698	-85.238	0.077	0.024
-363.683	800.000	-0.098	0.409
-362.669	490.542	-0.098	-0.223
-361.654	-7.126	0.221	-0.149
-360.639	-35.597	0.225	-0.121
-359.625	53.991	-0.206	0.196
-358.610	70.351	-0.240	-0.246
-357.596	527.462	0.195	-0.456
-356.581	-13.851	0.186	-0.119
-355.566	-86.413	0.395	0.120
-354.552	-66.874	0.117	-0.046
-353.537	-44.269	0.245	-0.122
-352.523	800.000	0.008	-0.028
-351.508	800.000	-0.042	0.178
-350.493	558.398	-0.045	-0.108
-349.479	57.607	-0.190	-0.184
-348.464	102.743	-0.097	-0.113
-347.450	368.508	0.062	0.124
-346.435	-175.795	-0.296	-0.008
-345.420	400.142	0.114	-0.237
-344.406	7.433	-0.177	-0.131
-343.391	-76.638	-0.163	-0.057
-342.377	71.189	0.202	-0.208
-341.362	-113.483	-0.079	0.015
-340.348	-87.181	0.154	0.046
-339.333	-21.404	-0.141	-0.086
-338.318	12.574	0.218	0.166
-337.304	126.807	-0.022	-0.028
-336.289	-200.000	-0.021	0.237
-335.275	-200.000	-0.025	-0.156
-334.260	218.200	0.191	-0.303
-333.245	192.745	0.019	0.029
-332.231	302.050	0.056	0.103
-331.216	249.549	0.087	-0.147
-330.202	-142.109	-0.176	0.017
-329.187	434.405	0.075	0.161
-328.172	800.000	-0.023	-0.085
-327.158	-77.373	0.259	-0.089
-326.143	-55.821	0.016	0.007
-325.129	-161.791	-0.426	0.021
-324.114	-200.000	0.013	0.056
-323.099	-146.913	0.252	0.021
-322.085	282.347	-0.042	0.075
-321.070	-62.130	0.176	0.073
-320.056	62.534	0.078	0.077
-319.041	800.000	0.064	0.231
-318.026	208.825	0.043	0.067
-317.012	-74.591	-0.218	-0.078
-315.997	321.827	0.072	0.135
-314.983	234.039	0.222	0.362
-313.968	-200.000	-0.020	0.167
-312.953	-200.000	0.051	0.237
-311.939	326.551	-0.218	0.413
-310.924	-200.000	0.001	-0.339
-309.910	-73.311	-0.148	0.053
-308.895	-133.138	0.243	0.031
-307.880	800.000	0.050	-0.151
-306.866	-200.000	-0.004	0.330
-305.851	243.968	0.221	-0.367
-304.837	-200.000	0.011	0.146
-303.822	800.000	-0.191	-0.576
-302.807	-200.000	0.024	0.282
-301.793	-88.518	0.041	-0.012
-300.778	46.472	-0.226	-0.207
-299.764	11.025	-0.424	0.321
-298.749	-120.143	0.183	0.031
-297.735	-200.000	-0.009	-0.237
-296.720	-96.010	-0.497	0.131
-295.705	800.000	0.054	0.171
-294.691	301.788	0.036	0.066
-293.676	165.383	-0.037	-0.052
-292.662	-43.262	-0.121	-0.061
-291.647	-80.470	-0.013	-0.004
-290.632	370.863	0.029	0.058
-289.618	-82.137	-0.092	0.030
-288.603	102.450	0.036	-0.041
-287.589	-142.178	0.092	0.009
-286.574	163.216	0.194	-0.270
-285.559	-166.576	-0.184	-0.008
-284.545	139.830	-0.021	-0.027
-283.530	-200.000	-0.035	-0.331
-282.516	1.280	0.116	-0.082
-281.501	120.997	0.127	-0.156
-280.486	800.000	0.082	-0.252
-279.472	-200.000	0.038	-0.203
-278.457	557.672	0.102	0.244
-277.443	-178.004	0.214	-0.005
-276.428	-59.969	-0.108	0.046
-275.413	-114.376	0.112	-0.021
-274.399	800.000	-0.028	0.105
-273.384	-98.858	0.050	0.013
-272.370	-151.718	0.040	-0.003
-271.355	-200.000	-0.034	-0.193
-270.340	-118.197	-0.135	-0.024
-269.326	-200.000	0.046	-0.399
-268.311	-200.000	0.017	0.085
-267.297	-200.000	-0.051	-0.299
-266.282	127.092	0.107	-0.135
-265.267	-138.964	0.365	0.039
-264.253	-200.000	-0.016	-0.511
-263.238	89.520	0.108	0.119
-262.224	800.000	0.033	-0.094
-261.209	-46.296	0.230	-0.112
-260.195	-200.000	-0.015	-0.180
-259.180	94.275	0.260	0.291
-258.165	70.225	0.212	-0.216
-257.151	458.505	0.059	-0.129
-256.136	218.717	0.088	-0.139
-255.122	160.234	-0.145	0.200
-254.107	193.187	0.064	-0.096
-253.092	220.483	-0.022	-0.034
-252.078	800.000	0.105	-0.301
-251.063	-104.335	0.291	-0.067
-250.049	-200.000	-0.008	-0.424
-249.034	-200.000	0.023	0.133
-248.019	83.753	-0.284	0.306
-247.005	-80.070	-0.145	-0.048
-245.990	-190.083	0.289	-0.003
-244.976	-79.243	-0.065	-0.022
-243.961	279.746	-0.197	-0.348
-242.946	800.000	0.136	0.399
-241.932	88.713	0.273	0.300
-240.917	-75.225	-0.242	-0.086
-239.903	800.000	0.059	0.170
-238.888	-112.862	0.113	0.022
-237.873	-120.474	0.041	-0.007
-236.859	800.000	-0.088	0.276
-235.844	566.917	0.155	-0.372
-234.830	95.097	0.077	0.087
-233.815	144.291	0.046	-0.061
-232.800	-21.885	0.397	-0.239
-231.786	-27.783	0.062	-0.035
-230.771	313.881	0.149	0.276
-229.757	471.367	-0.112	-0.248
-228.742	181.294	0.172	-0.249
-227.727	-116.815	-0.099	0.018
-226.713	264.930	-0.159	0.273
-225.698	-139.323	0.043	-0.005
-224.684	-49.585	-0.207	-0.097
-223.669	412.802	-0.125	-0.262
-222.655	800.000	-0.143	0.581
-221.640	-121.757	-0.277	0.045
-220.625	-152.436	0.262	-0.019
-219.611	228.179	-0.087	0.139
-218.596	163.957	-0.151	0.210
-217.582	-12.414	0.325	-0.209
-216.567	-79.915	0.148	0.049
-215.552	800.000	-0.028	0.077
-214.538	189.070	-0.284	0.420
-213.523	-111.612	0.307	-0.062
-212.509	177.240	0.024	-0.035
-211.494	-42.833	0.011	-0.006
-210.479	-200.000	-0.017	0.148
-209.465	109.510	0.055	-0.065
-208.450	297.137	0.072	0.130
-207.436	-93.191	0.127	-0.035
-206.421	-200.000	-0.003	-0.290
-205.406	76.621	0.084	0.088
-204.392	-94.765	-0.226	0.060
-203.377	-183.595	0.389	-0.007
-202.363	-88.333	0.072	-0.021
-201.348	800.000	-0.084	-0.277
-200.333	-30.862	0.094	-0.052
-199.319	-139.645	-0.502	-0.053
-198.304	800.000	-0.045	-0.184
-197.290	-169.304	0.427	-0.015
-196.275	-169.816	0.351	-0.012
-195.260	151.336	0.013	0.017
-194.246	-163.048	0.143	-0.007
-193.231	208.576	0.143	0.221
-192.217	-41.808	-0.250	0.126
-191.202	-200.000	0.000	0.054
-190.187	307.116	-0.234	0.430
-189.173	-200.000	-0.187	0.001
-188.158	-51.796	-0.135	0.062
-187.144	-26.518	0.112	-0.065
-186.129	315.454	-0.084	0.155
-185.114	-12.505	0.105	-0.067
-184.100	44.797	-0.215	-0.195
-183.085	23.699	0.252	0.205
-182.071	123.368	0.041	0.050
-181.056	228.492	0.098	0.157
-180.042	-144.291	0.184	0.017
-179.027	724.092	0.136	0.357
-178.012	-41.765	0.311	-0.157
-176.998	159.832	-0.114	-0.156
-175.983	-200.000	0.031	0.155
-174.969	310.210	-0.080	0.148
-173.954	-200.000	0.019	-0.184
-172.939	-42.816	0.065	0.032
-171.925	-89.614	0.117	-0.034
-170.910	-47.352	0.226	-0.108
-169.896	800.000	0.055	0.165
-168.881	102.212	0.096	0.110
-167.866	800.000	-0.096	-0.286
-166.852	-169.159	-0.344	0.013
-165.837	-55.295	0.150	0.066
-164.823	800.000	0.118	-0.325
-163.808	-200.000	-0.017	0.081
-162.793	-83.260	-0.534	-0.169
-161.779	31.663	-0.110	0.094
-160.764	-145.813	0.450	-0.039
-159.750	10.340	0.167	0.125
-158.735	-121.137	-0.152	0.025
-157.720	78.120	-0.024	-0.025
-156.706	609.524	-0.072	-0.177
-155.691	-88.248	-0.094	0.028
-154.677	-179.971	0.335	-0.007
-153.662	-1.413	0.194	0.135
-152.647	-149.541	-0.230	-0.018
-151.633	-200.000	0.058	0.310
-150.618	49.858	-0.169	-0.157
-149.604	96.866	0.055	0.063
-148.589	130.688	0.131	-0.165
-147.574	687.879	-0.109	0.280
-146.560	-71.271	0.135	-0.050
-145.545	-14.105	0.225	0.143
-144.531	-128.296	-0.312	0.044
-143.516	-200.000	0.059	0.315
-142.502	800.000	0.120	-0.404
-141.487	229.486	-0.092	-0.148
-140.472	-120.192	0.266	-0.045
-139.458	-200.000	0.007	-0.393
-138.443	298.256	0.068	0.123
-137.429	800.000	0.048	-0.132
-136.414	-104.001	0.203	-0.047
-135.399	371.795	0.166	0.331
-134.385	213.806	-0.220	0.342
-133.370	453.401	-0.115	-0.251
-132.356	351.849	0.114	-0.223
-131.341	373.786	0.164	-0.328
-130.326	-200.000	-0.011	-0.298
-129.312	-106.455	-0.143	-0.031
-128.297	-4.222	-0.315	0.214
-127.283	-200.000	0.003	0.054
-126.268	188.546	0.160	0.235
-125.253	-200.000	0.008	-0.096
-124.239	436.392	0.207	-0.443
-123.224	224.631	0.109	-0.174
