DTS Sentinel unit serial number:	SN413079Multiplexer serial number:	ORYXHardware model number:	OX4-SRSoftware version number:	ORYX F/W v4.00 Oryx Data Collector v3.7.2.0data status	okinstallation	princeton_trtdifferential loss correction	single-endedforward channel	channel 3reverse channel	N/Adate	2019/09/11time	14:10:11forward acquisition time	60.00reverse acquisition time	0.00gamma	496.2192k internal	0.2292k external	0.2292temperature offset calibration	0.9978default loss term (dB/km)	0.3790temperature slope calibration	1.0000multiplexer offset coefficient	1.0000multiplexer slope coefficient	1.0000fibre end	0.00T internal ref (°C)	41.87T ext. ref 1 (°C)	0.86T ext. ref 2 (°C)	36.83length (m)	temperature (°C)	Stokes	anti-Stokes-747.200	256.413	0.034	0.060
-746.185	-200.000	-0.062	0.315
-745.171	-59.029	0.459	0.203
-744.156	351.954	0.023	-0.046
-743.142	150.195	-0.140	-0.194
-742.127	56.976	-0.200	0.199
-741.112	-174.829	-0.156	-0.004
-740.098	-39.796	-0.140	0.075
-739.083	-94.423	-0.076	0.021
-738.069	-139.425	-0.168	-0.018
-737.054	113.418	0.051	-0.063
-736.039	-200.000	-0.015	-0.158
-735.025	-200.000	-0.002	0.297
-734.010	-174.269	0.311	-0.009
-732.996	306.643	0.069	-0.132
-731.981	800.000	-0.029	-0.104
-730.966	278.525	0.029	0.052
-729.952	-123.345	-0.169	-0.028
-728.937	-102.562	-0.243	-0.059
-727.923	470.151	0.102	0.233
-726.908	11.709	0.036	0.029
-725.894	-146.206	-0.568	0.051
-724.879	444.916	-0.049	0.109
-723.864	116.842	0.026	-0.033
-722.850	-200.000	0.033	-0.219
-721.835	40.155	-0.191	-0.176
-720.821	-76.906	0.048	0.017
-719.806	-126.184	-0.388	-0.059
-718.791	229.892	0.128	-0.213
-717.777	-161.374	-0.096	-0.005
-716.762	-197.867	0.378	0.002
-715.748	-21.943	-0.240	0.149
-714.733	91.218	0.218	-0.250
-713.718	46.245	-0.174	-0.165
-712.704	-112.324	0.175	-0.036
-711.689	-200.000	-0.008	0.316
-710.675	27.886	0.238	-0.205
-709.660	66.516	0.171	-0.177
-708.645	-49.543	0.100	-0.049
-707.631	21.249	-0.211	-0.175
-706.616	-200.000	-0.061	-0.274
-705.602	8.903	0.081	-0.062
-704.587	-154.856	-0.168	-0.011
-703.572	83.837	-0.069	0.077
-702.558	492.248	-0.118	0.276
-701.543	-140.631	-0.383	0.041
-700.529	78.816	-0.084	0.092
-699.514	51.514	0.211	0.204
-698.499	-69.282	0.161	-0.063
-697.485	-200.000	0.005	-0.058
-696.470	-92.093	0.291	-0.084
-695.456	256.873	-0.071	-0.124
-694.441	-83.816	-0.221	0.072
-693.426	-135.785	0.156	0.019
-692.412	510.034	0.163	0.388
-691.397	-88.705	-0.407	-0.123
-690.383	-47.964	-0.066	0.033
-689.368	-101.851	-0.135	0.033
-688.354	800.000	-0.098	0.343
-687.339	-45.783	-0.153	0.077
-686.324	800.000	-0.067	0.202
-685.310	212.628	0.181	0.292
-684.295	-55.775	0.146	0.067
-683.281	-200.000	-0.037	-0.313
-682.266	72.818	-0.344	-0.367
-681.251	-200.000	0.013	0.174
-680.237	-200.000	0.005	-0.232
-679.222	-87.692	-0.406	-0.125
-678.208	160.884	-0.170	-0.242
-677.193	-137.877	-0.110	0.013
-676.178	800.000	0.099	0.287
-675.164	-200.000	0.039	-0.311
-674.149	563.924	0.048	0.118
-673.135	-200.000	0.044	0.299
-672.120	-126.531	0.075	-0.011
-671.105	800.000	-0.055	0.186
-670.091	800.000	0.084	-0.307
-669.076	-55.885	-0.379	-0.173
-668.062	130.235	-0.121	-0.158
-667.047	256.409	-0.111	0.195
-666.032	200.197	0.080	-0.125
-665.018	-31.402	0.458	0.263
-664.003	442.167	0.081	-0.182
-662.989	-200.000	-0.000	-0.246
-661.974	-104.985	0.090	-0.021
-660.959	-128.554	-0.354	-0.051
-659.945	26.491	-0.289	-0.247
-658.930	352.993	-0.106	-0.215
-657.916	-115.338	-0.218	0.042
-656.901	-90.163	-0.083	-0.025
-655.886	-158.654	0.173	-0.010
-654.872	50.736	0.048	0.047
-653.857	-71.319	-0.147	-0.056
-652.843	-51.911	-0.250	0.119
-651.828	18.629	0.341	0.278
-650.814	30.183	-0.072	0.063
-649.799	-37.043	0.064	0.035
-648.784	93.480	0.138	-0.160
-647.770	211.522	-0.184	-0.295
-646.755	11.220	-0.153	-0.119
-645.741	-7.848	-0.230	0.158
-644.726	-66.266	-0.194	-0.079
-643.711	-200.000	0.030	-0.151
-642.697	51.458	-0.179	-0.174
-641.682	-33.168	-0.091	0.051
-640.668	-84.704	0.145	0.047
-639.653	-69.710	0.480	-0.187
-638.638	393.663	0.208	0.442
-637.624	800.000	0.019	-0.057
-636.609	-150.429	0.145	0.011
-635.595	800.000	-0.083	0.252
-634.580	2.399	0.201	-0.148
-633.565	123.453	-0.125	0.160
-632.551	-118.323	-0.427	0.077
-631.536	77.839	0.181	0.197
-630.522	-41.419	0.076	-0.040
-629.507	301.018	-0.089	0.168
-628.492	-200.000	-0.044	0.476
-627.478	-32.471	0.062	0.035
-626.463	-200.000	-0.016	-0.381
-625.449	800.000	-0.075	-0.273
-624.434	-200.000	-0.049	0.346
-623.419	800.000	0.043	-0.169
-622.405	-167.507	0.123	0.005
-621.390	277.434	0.059	0.106
-620.376	-98.090	0.136	-0.036
-619.361	-200.000	0.040	-0.228
-618.346	294.173	0.073	-0.137
-617.332	800.000	-0.049	-0.155
-616.317	-200.000	0.007	0.143
-615.303	-69.042	-0.230	0.090
-614.288	-48.097	-0.050	0.025
-613.273	-200.000	-0.012	-0.227
-612.259	493.430	0.040	-0.093
-611.244	363.964	0.114	0.234
-610.230	-129.093	0.100	0.014
-609.215	174.864	0.101	-0.149
-608.201	81.676	-0.160	-0.177
-607.186	-102.570	0.455	0.111
-606.171	256.829	-0.127	0.221
-605.157	-11.766	-0.088	0.058
-604.142	-200.000	0.054	-0.468
-603.128	52.812	-0.279	-0.272
-602.113	-200.000	-0.037	-0.216
-601.098	621.580	-0.108	-0.277
-600.084	-99.926	-0.223	-0.057
-599.069	202.825	-0.237	-0.373
-598.055	4.568	-0.241	-0.180
-597.040	-200.000	-0.018	0.230
-596.025	669.306	0.023	0.060
-595.011	-60.887	0.252	-0.109
-593.996	292.426	0.049	0.091
-592.982	800.000	0.059	0.234
-591.967	79.012	0.144	-0.157
-590.952	176.576	-0.047	-0.069
-589.938	-200.000	-0.007	-0.155
-588.923	-176.292	-0.406	0.011
-587.909	-176.259	-0.235	-0.006
-586.894	-154.472	0.210	0.014
-585.879	99.610	0.076	-0.090
-584.865	-127.228	-0.230	0.034
-583.850	-200.000	0.044	-0.344
-582.836	-127.834	-0.212	0.031
-581.821	288.127	-0.046	-0.084
-580.806	-108.212	-0.342	0.075
-579.792	126.771	-0.099	-0.128
-578.777	-25.750	0.133	-0.080
-577.763	-52.148	-0.133	0.063
-576.748	-10.473	0.168	-0.113
-575.733	-72.558	0.059	-0.022
-574.719	273.226	-0.134	-0.241
-573.704	-132.544	-0.386	-0.050
-572.690	-45.537	-0.166	-0.084
-571.675	98.069	-0.057	0.067
-570.661	-35.819	0.029	0.016
-569.646	185.715	0.149	-0.225
-568.631	457.961	0.043	0.097
-567.617	669.719	0.035	-0.093
-566.602	-16.986	-0.252	-0.162
-565.588	-132.251	-0.266	0.035
-564.573	-58.819	0.464	-0.204
-563.558	-38.913	-0.057	-0.031
-562.544	800.000	-0.018	-0.072
-561.529	456.931	0.050	-0.112
-560.515	-179.697	0.294	0.006
-559.500	-114.450	-0.214	0.042
-558.485	-200.000	-0.042	0.295
-557.471	-17.211	-0.306	0.196
-556.456	-93.391	0.327	-0.092
-555.442	273.217	-0.075	-0.134
-554.427	550.918	0.057	-0.138
-553.412	-14.907	0.199	0.130
-552.398	25.810	0.011	0.010
-551.383	726.441	-0.055	-0.149
-550.369	44.634	0.114	0.106
-549.354	-78.244	-0.109	-0.038
-548.339	-67.629	0.420	0.167
-547.325	684.984	-0.059	0.157
-546.310	-51.879	-0.025	0.012
-545.296	800.000	-0.090	-0.292
-544.281	92.193	0.168	-0.193
-543.266	44.506	-0.125	0.116
-542.252	-200.000	-0.034	-0.212
-541.237	-200.000	-0.051	0.260
-540.223	321.247	0.103	0.199
-539.208	248.045	0.181	-0.310
-538.193	15.579	0.081	-0.064
-537.179	19.546	0.131	-0.107
-536.164	800.000	0.038	-0.135
-535.150	800.000	0.081	-0.252
-534.135	326.501	-0.034	-0.067
-533.121	-120.014	0.139	-0.024
-532.106	-54.056	0.134	0.062
-531.091	257.970	-0.202	-0.353
-530.077	168.565	-0.176	-0.254
-529.062	-200.000	-0.025	-0.179
-528.048	-7.153	-0.137	-0.094
-527.033	-31.706	0.333	-0.190
-526.018	7.079	0.126	0.095
-525.004	262.905	-0.065	-0.114
-523.989	122.877	0.134	-0.171
-522.975	101.465	-0.120	-0.142
-521.960	-187.134	0.270	-0.004
-520.945	-9.324	0.153	-0.103
-519.931	800.000	-0.074	0.302
-518.916	-75.999	-0.191	-0.068
-517.902	-0.572	0.077	0.056
-516.887	-200.000	0.009	0.173
-515.872	79.718	0.145	0.158
-514.858	-93.525	0.059	0.016
-513.843	203.700	0.142	0.223
-512.829	337.250	-0.189	0.372
-511.814	-118.607	0.240	0.043
-510.799	-61.526	-0.203	-0.087
-509.785	-34.269	-0.316	-0.176
-508.770	15.596	0.126	-0.101
-507.756	-200.000	0.033	-0.282
-506.741	800.000	0.104	0.337
-505.726	-103.174	0.239	0.057
-504.712	-7.798	-0.148	-0.101
-503.697	191.581	-0.260	0.397
-502.683	-123.120	-0.167	0.027
-501.668	-61.661	-0.328	0.140
-500.653	-45.728	-0.255	-0.128
-499.639	348.124	0.131	0.262
-498.624	-200.000	-0.002	0.039
-497.610	79.813	0.073	-0.080
-496.595	77.915	0.144	-0.155
-495.581	31.926	-0.227	0.198
-494.566	800.000	0.196	0.636
-493.551	-136.224	-0.128	-0.015
-492.537	-24.516	-0.098	0.059
-491.522	-178.143	0.345	0.008
-490.508	25.722	-0.095	0.080
-489.493	-141.659	-0.064	-0.007
-488.478	800.000	-0.031	0.134
-487.464	105.332	-0.084	-0.101
-486.449	-35.843	0.043	-0.024
-485.435	800.000	0.114	0.383
-484.420	-172.901	-0.263	0.008
-483.405	-153.423	-0.340	0.024
-482.391	160.697	-0.104	0.147
-481.376	-137.112	0.045	-0.005
-480.362	-48.331	-0.164	-0.080
-479.347	-200.000	-0.004	-0.047
-478.332	167.276	-0.058	-0.083
-477.318	-200.000	0.012	-0.431
-476.303	800.000	-0.025	-0.106
-475.289	-115.410	0.371	-0.071
-474.274	-11.557	0.023	0.015
-473.259	798.623	0.049	0.137
-472.245	-24.406	0.197	0.119
-471.230	-135.237	-0.069	-0.008
-470.216	144.062	-0.134	-0.180
-469.201	95.616	0.039	-0.045
-468.186	417.705	0.072	-0.155
-467.172	-22.133	-0.130	-0.080
-466.157	-200.000	-0.000	0.020
-465.143	-200.000	0.012	-0.138
-464.128	-118.082	0.242	0.044
-463.113	-200.000	0.004	0.191
-462.099	-44.391	-0.274	0.139
-461.084	-29.197	0.202	-0.117
-460.070	36.656	-0.100	0.089
-459.055	300.075	-0.151	-0.281
-458.040	89.277	-0.314	-0.354
-457.026	-125.794	0.279	0.043
-456.011	2.970	0.153	-0.113
-454.997	-187.598	0.059	-0.001
-453.982	-5.630	-0.351	-0.244
-452.968	88.185	0.158	-0.177
-451.953	-92.989	-0.240	0.068
-450.938	-12.663	-0.163	-0.107
-449.924	-200.000	-0.088	-0.593
-448.909	80.451	0.104	-0.113
-447.895	26.512	0.389	0.329
-446.880	124.513	0.189	0.240
-445.865	-103.136	-0.425	-0.102
-444.851	405.013	-0.199	-0.424
-443.836	800.000	0.095	0.318
-442.822	-50.975	0.216	0.103
-441.807	771.218	0.093	-0.256
-440.792	-200.000	-0.034	0.178
-439.778	-100.458	-0.192	0.048
-438.763	147.199	-0.304	0.414
-437.749	220.766	-0.118	0.191
-436.734	-33.841	0.129	0.072
-435.719	-44.439	0.237	0.120
-434.705	92.950	-0.074	0.084
-433.690	-89.134	0.267	0.080
-432.676	38.187	-0.217	-0.195
-431.661	-200.000	0.051	-0.428
-430.646	-200.000	-0.032	0.149
-429.632	-96.432	-0.069	0.018
-428.617	59.469	0.265	-0.264
-427.603	92.374	0.092	-0.105
-426.588	782.014	-0.093	0.258
-425.573	-200.000	-0.009	-0.115
-424.559	-24.478	0.165	0.100
-423.544	141.271	-0.119	-0.159
-422.530	-36.245	0.188	-0.103
-421.515	-109.310	0.121	0.026
-420.500	515.191	0.056	0.132
-419.486	-144.263	-0.068	-0.006
-418.471	800.000	-0.067	-0.257
-417.457	-57.613	0.093	0.041
-416.442	-200.000	-0.027	0.215
-415.428	125.865	0.278	0.355
-414.413	-10.500	-0.196	0.131
-413.398	-10.491	0.174	0.116
-412.384	754.955	0.041	0.113
-411.369	344.788	-0.132	-0.263
-410.355	-29.333	-0.271	0.157
-409.340	-48.626	-0.235	-0.114
-408.325	-82.680	-0.336	0.110
-407.311	-141.253	0.174	0.018
-406.296	393.833	-0.120	0.251
-405.282	-200.000	-0.019	-0.366
-404.267	25.679	0.079	-0.067
-403.252	-34.422	0.143	0.079
-402.238	144.529	0.175	0.236
-401.223	203.013	-0.126	-0.196
-400.209	-98.919	-0.204	-0.052
-399.194	-200.000	-0.070	0.447
-398.179	-200.000	-0.069	-0.568
-397.165	-103.673	-0.215	0.051
-396.150	-80.585	-0.123	0.041
-395.136	-19.660	-0.120	0.075
-394.121	242.117	-0.051	0.086
-393.106	-113.202	-0.284	-0.056
-392.092	60.254	-0.256	-0.255
-391.077	-73.691	0.289	0.106
-390.063	-127.645	-0.290	-0.042
-389.048	-200.000	-0.092	0.437
-388.033	-96.098	0.258	0.069
-387.019	482.420	0.093	-0.213
-386.004	-101.797	0.277	-0.068
-384.990	363.903	-0.104	0.211
-383.975	-200.000	0.051	-0.250
-382.960	-85.157	-0.060	0.019
-381.946	256.394	0.106	0.183
-380.931	-68.235	0.032	-0.013
-379.917	-200.000	-0.030	-0.343
-378.902	71.779	-0.193	0.202
-377.888	357.526	0.153	-0.309
-376.873	-50.474	-0.228	0.109
-375.858	-112.313	-0.289	0.058
-374.844	-176.982	-0.083	-0.002
-373.829	-96.593	-0.309	-0.082
-372.815	74.291	0.260	0.276
-371.800	-200.000	-0.010	0.101
-370.785	223.461	0.102	-0.166
-369.771	-136.389	-0.231	-0.027
-368.756	-200.000	0.002	-0.091
-367.742	-140.894	0.132	0.014
-366.727	800.000	0.087	0.278
-365.712	-161.805	-0.278	-0.014
-364.698	-200.000	-0.005	0.215
-363.683	-110.355	0.077	-0.016
-362.669	-40.150	-0.417	-0.219
-361.654	-200.000	0.132	0.000
-360.639	-9.581	0.135	-0.091
-359.625	53.721	-0.076	-0.073
-358.610	-46.543	0.076	-0.038
-357.596	496.161	0.117	0.272
-356.581	800.000	-0.076	-0.221
-355.566	56.718	0.121	-0.118
-354.552	800.000	-0.073	0.240
-353.537	413.468	-0.011	0.023
-352.523	-106.815	0.207	-0.046
-351.508	800.000	-0.029	0.115
-350.493	-200.000	-0.024	-0.195
-349.479	707.693	0.162	0.431
-348.464	111.941	-0.100	0.122
-347.450	594.080	-0.105	-0.262
-346.435	7.703	-0.012	-0.009
-345.420	59.725	-0.169	-0.168
-344.406	-200.000	-0.013	-0.127
-343.391	-200.000	0.002	-0.149
-342.377	13.714	0.048	0.037
-341.362	-92.428	0.248	-0.070
-340.348	78.374	0.105	0.113
-339.333	83.725	-0.073	-0.080
-338.318	-43.785	0.145	-0.074
-337.304	-85.195	0.343	-0.108
-336.289	715.017	0.130	0.348
-335.275	70.887	0.110	0.115
-334.260	-200.000	-0.053	-0.295
-333.245	-72.430	0.094	-0.035
-332.231	427.588	0.074	0.161
-331.216	-200.000	0.017	-0.077
-330.202	-125.649	-0.395	0.060
-329.187	42.429	-0.104	0.095
-328.172	-165.375	0.244	0.011
-327.158	-76.289	-0.256	-0.091
-326.143	278.192	0.148	0.266
-325.129	-62.729	-0.267	-0.111
-324.114	52.647	0.194	-0.187
-323.099	41.213	0.177	-0.161
-322.085	800.000	-0.081	0.310
-321.070	120.095	-0.144	-0.180
-320.056	72.358	-0.160	-0.168
-319.041	-200.000	0.008	-0.221
-318.026	13.235	0.061	0.048
-317.012	-61.116	-0.137	-0.058
-315.997	49.593	-0.243	0.230
-314.983	-200.000	-0.022	0.128
-313.968	-56.830	0.180	-0.080
-312.953	96.732	-0.118	-0.136
-311.939	-142.760	0.416	-0.041
-310.924	-44.456	0.328	0.165
-309.910	-200.000	-0.013	0.313
-308.895	-49.418	-0.344	0.165
-307.880	-200.000	-0.025	0.266
-306.866	-173.930	0.376	-0.011
-305.851	-93.466	0.133	-0.037
-304.837	114.972	0.115	0.141
-303.822	-146.050	0.203	0.018
-302.807	167.917	0.269	0.385
-301.793	138.900	0.085	0.112
-300.778	800.000	-0.103	-0.330
-299.764	-9.441	-0.179	0.120
-298.749	800.000	-0.025	-0.101
-297.735	800.000	-0.059	-0.245
-296.720	-28.938	0.157	-0.090
-295.705	601.841	-0.119	0.298
-294.691	147.610	0.237	0.321
-293.676	101.783	-0.147	-0.173
-292.662	-130.979	0.166	0.022
-291.647	-200.000	0.086	0.485
-290.632	-28.736	0.129	-0.075
-289.618	-200.000	-0.067	-0.327
-288.603	759.662	0.053	0.145
-287.589	-89.169	-0.437	0.130
-286.574	8.340	-0.038	0.028
-285.559	-200.000	0.029	0.456
-284.545	800.000	-0.047	0.193
-283.530	800.000	0.038	-0.156
-282.516	206.562	-0.309	0.483
-281.501	9.185	0.163	0.124
-280.486	-200.000	-0.024	0.253
-279.472	2.795	0.064	0.046
-278.457	-200.000	-0.037	-0.434
-277.443	17.616	-0.124	0.099
-276.428	196.416	0.250	-0.382
-275.413	381.262	0.040	0.082
-274.399	-26.515	-0.294	0.173
-273.384	342.595	0.112	0.221
-272.370	113.900	0.112	0.137
-271.355	-35.053	0.237	0.130
-270.340	626.942	0.099	0.251
-269.326	800.000	-0.059	-0.193
-268.311	88.268	0.150	-0.168
-267.297	-27.543	-0.044	-0.026
-266.282	-200.000	0.034	0.333
-265.267	169.874	-0.084	0.121
-264.253	217.712	0.075	-0.119
-263.238	160.549	-0.185	0.259
-262.224	800.000	0.033	-0.112
-261.209	161.201	-0.126	0.176
-260.195	-130.628	-0.326	-0.044
-259.180	540.838	-0.013	0.032
-258.165	800.000	-0.084	0.358
-257.151	800.000	-0.061	0.222
-256.136	337.074	-0.160	0.312
-255.122	-200.000	-0.029	0.252
-254.107	147.954	0.110	-0.148
-253.092	15.736	0.336	-0.265
-252.078	800.000	-0.036	0.152
-251.063	-131.648	0.146	0.019
-250.049	-60.991	-0.296	-0.126
-249.034	-94.544	0.164	-0.045
-248.019	-95.374	0.266	0.072
-247.005	-169.896	0.218	0.008
-245.990	123.268	-0.168	-0.211
-244.976	-108.858	-0.223	-0.048
-243.961	-200.000	0.019	-0.200
-242.946	-200.000	-0.017	0.135
-241.932	23.617	0.072	0.060
-240.917	-200.000	0.016	0.161
-239.903	-104.532	-0.080	-0.019
-238.888	-120.171	0.387	-0.066
-237.873	-25.127	-0.113	-0.067
-236.859	4.543	0.243	-0.179
-235.844	800.000	0.155	-0.453
-234.830	73.326	0.187	0.196
-233.815	-49.998	-0.388	-0.185
-232.800	316.527	-0.192	-0.364
-231.786	-75.340	0.288	0.103
-230.771	-200.000	-0.021	-0.200
-229.757	174.725	-0.067	0.097
-228.742	-67.227	-0.064	0.025
-227.727	16.587	-0.254	-0.201
-226.713	-152.749	0.023	0.002
-225.698	-88.316	0.100	0.030
-224.684	-200.000	-0.017	0.269
-223.669	-118.386	-0.336	-0.060
-222.655	152.402	0.160	-0.219
-221.640	-28.038	-0.079	0.046
-220.625	-136.754	0.216	-0.025
-219.611	-134.043	-0.080	-0.010
-218.596	800.000	0.086	-0.297
-217.582	-200.000	-0.028	0.556
-216.567	-200.000	-0.001	0.148
-215.552	-200.000	-0.046	-0.258
-214.538	-112.757	-0.182	-0.036
-213.523	-62.933	-0.214	-0.089
-212.509	800.000	0.081	0.282
-211.494	-87.213	-0.085	-0.026
-210.479	-63.536	0.172	-0.071
-209.465	-65.208	-0.234	0.095
-208.450	226.010	0.132	0.214
-207.436	770.933	0.124	0.337
-206.421	-42.624	0.186	0.095
-205.406	800.000	0.083	0.270
-204.392	-132.022	-0.173	-0.023
-203.377	10.916	0.080	0.061
-202.363	78.850	0.025	-0.027
-201.348	-200.000	0.017	-0.298
-200.333	-20.497	0.364	0.224
-199.319	-200.000	-0.006	-0.139
-198.304	-200.000	0.022	-0.202
-197.290	-200.000	-0.010	0.179
-196.275	14.139	0.240	0.188
-195.260	-114.526	0.134	0.026
-194.246	-25.796	0.131	-0.077
-193.231	800.000	-0.067	-0.237
-192.217	201.073	0.133	-0.205
-191.202	-200.000	-0.010	-0.480
-190.187	371.045	0.089	0.181
-189.173	-136.618	0.387	-0.045
-188.158	-65.665	0.362	0.145
-187.144	-6.291	-0.114	0.078
-186.129	148.776	-0.080	-0.109
-185.114	-91.647	0.263	0.075
-184.100	-23.676	0.181	0.108
-183.085	448.726	0.149	0.329
-182.071	-200.000	0.039	-0.323
-181.056	73.405	0.208	0.218
-180.042	154.221	-0.232	-0.319
-179.027	-125.956	0.401	0.060
-178.012	-28.222	0.210	0.122
-176.998	59.857	-0.090	0.089
-175.983	800.000	0.116	-0.408
-174.969	-163.187	0.118	-0.006
-173.954	54.323	-0.012	-0.011
-172.939	-73.312	0.079	0.029
-171.925	800.000	-0.042	-0.181
-170.910	-83.775	-0.369	0.118
-169.896	180.730	0.259	0.381
-168.881	-200.000	-0.037	0.260
-167.866	-119.690	0.176	-0.030
-166.852	264.593	-0.126	-0.220
-165.837	-83.091	-0.303	0.098
-164.823	-122.951	-0.056	-0.009
-163.808	800.000	-0.061	0.176
-162.793	26.331	0.199	0.166
-161.779	-200.000	-0.017	-0.121
-160.764	136.499	-0.072	0.094
-159.750	39.840	0.186	0.167
-158.735	-13.661	-0.221	0.143
-157.720	-30.877	-0.074	0.042
-156.706	61.069	-0.200	-0.198
-155.691	-200.000	-0.021	-0.507
-154.677	-54.951	-0.263	0.119
-153.662	-29.053	-0.192	-0.110
-152.647	-200.000	-0.030	0.259
-151.633	-122.160	0.113	-0.019
-150.618	770.160	-0.053	0.145
-149.604	325.220	-0.174	0.333
-148.589	386.219	0.045	-0.093
-147.574	-27.048	0.241	0.140
-146.560	88.714	-0.021	0.024
-145.545	75.296	-0.219	0.231
-144.531	-36.172	0.135	-0.073
-143.516	-50.198	0.032	-0.015
-142.502	27.209	0.123	0.103
-141.487	-140.219	-0.140	0.015
-140.472	800.000	0.109	-0.331
-139.458	-200.000	0.046	0.304
-138.443	-111.105	-0.241	-0.049
-137.429	-10.195	-0.172	0.114
-136.414	-150.806	0.156	0.012
-135.399	125.473	0.137	0.172
-134.385	800.000	-0.018	0.064
-133.370	72.626	-0.051	0.053
-132.356	118.569	0.097	0.119
-131.341	79.893	-0.084	-0.091
-130.326	-200.000	0.048	0.323
-129.312	-29.295	0.155	0.088
-128.297	-97.640	0.201	0.052
-127.283	193.474	0.043	0.066
-126.268	-200.000	-0.039	-0.236
-125.253	245.813	-0.133	-0.224
-124.239	-56.399	-0.183	0.081
-123.224	-200.000	0.002	0.067
-122.210	-114.546	0.170	0.033
