DTS Sentinel unit serial number:	SN413079Multiplexer serial number:	ORYXHardware model number:	OX4-SRSoftware version number:	ORYX F/W v4.00 Oryx Data Collector v3.7.2.0data status	okinstallation	princeton_trtdifferential loss correction	single-endedforward channel	channel 3reverse channel	N/Adate	2019/09/11time	19:22:10forward acquisition time	60.00reverse acquisition time	0.00gamma	496.2192k internal	0.2295k external	0.2295temperature offset calibration	1.0010default loss term (dB/km)	0.3790temperature slope calibration	1.0000multiplexer offset coefficient	1.0000multiplexer slope coefficient	1.0000fibre end	0.00T internal ref (°C)	40.94T ext. ref 1 (°C)	1.30T ext. ref 2 (°C)	33.00length (m)	temperature (°C)	Stokes	anti-Stokes-747.200	-200.000	-0.007	-0.194
-746.185	-96.108	-0.258	0.070
-745.171	-147.033	0.200	-0.017
-744.156	-107.075	-0.160	0.036
-743.142	325.187	-0.016	-0.031
-742.127	-154.840	0.430	-0.029
-741.112	-200.000	0.055	0.433
-740.098	-200.000	0.011	0.077
-739.083	134.993	0.103	0.137
-738.069	-199.458	-0.314	0.002
-737.054	43.972	0.086	-0.081
-736.039	625.329	0.019	-0.050
-735.025	-74.039	0.234	-0.087
-734.010	-5.078	-0.128	-0.090
-732.996	800.000	-0.059	-0.225
-731.981	800.000	-0.072	0.210
-730.966	25.139	0.115	-0.098
-729.952	800.000	0.082	0.304
-728.937	-23.968	0.211	-0.129
-727.923	355.191	0.149	-0.304
-726.908	-106.689	0.119	-0.027
-725.894	427.841	0.050	-0.111
-724.879	-200.000	-0.229	-0.000
-723.864	-200.000	-0.062	0.365
-722.850	-75.153	-0.126	-0.046
-721.835	-200.000	0.014	0.155
-720.821	66.315	-0.121	0.126
-719.806	800.000	0.078	-0.266
-718.791	-41.295	-0.089	0.047
-717.777	-44.599	-0.167	-0.085
-716.762	-59.592	-0.240	-0.105
-715.748	323.810	0.236	-0.460
-714.733	-60.124	0.243	-0.106
-713.718	-200.000	0.061	-0.328
-712.704	-105.997	0.411	-0.094
-711.689	-200.000	0.001	0.216
-710.675	-110.163	0.020	0.004
-709.660	149.193	-0.161	-0.223
-708.645	-14.696	0.187	-0.123
-707.631	465.389	0.104	0.238
-706.616	800.000	0.026	-0.093
-705.602	97.001	0.104	0.121
-704.587	425.213	-0.092	0.202
-703.572	-200.000	0.028	-0.246
-702.558	532.107	0.144	-0.347
-701.543	-109.145	-0.132	-0.029
-700.529	-163.404	0.140	-0.007
-699.514	-140.868	0.249	0.026
-698.499	21.541	0.224	-0.186
-697.485	-109.887	-0.251	-0.054
-696.470	-200.000	-0.017	0.098
-695.456	264.938	0.074	0.132
-694.441	-200.000	-0.004	-0.082
-693.426	-44.978	-0.234	-0.119
-692.412	66.669	-0.007	0.007
-691.397	11.812	0.122	-0.096
-690.383	-7.230	0.277	-0.191
-689.368	-200.000	-0.030	-0.186
-688.354	-16.526	0.110	0.071
-687.339	259.223	0.196	-0.345
-686.324	-102.640	0.318	0.077
-685.310	182.054	0.043	0.064
-684.295	800.000	-0.053	-0.174
-683.281	-24.478	0.256	-0.156
-682.266	42.926	0.190	-0.176
-681.251	-48.184	-0.256	0.126
-680.237	-1.177	-0.183	-0.132
-679.222	-43.082	-0.151	-0.078
-678.208	-159.101	0.229	-0.013
-677.193	-14.157	-0.176	-0.116
-676.178	-8.972	-0.137	-0.093
-675.164	78.063	0.130	-0.141
-674.149	255.292	-0.120	-0.210
-673.135	38.497	0.162	-0.147
-672.120	-74.158	-0.245	-0.091
-671.105	-200.000	0.008	0.099
-670.091	-200.000	-0.001	0.331
-669.076	-59.601	0.118	0.051
-668.062	39.661	-0.087	-0.080
-667.047	-96.963	-0.404	0.108
-666.032	94.646	0.114	-0.132
-665.018	-6.063	0.133	0.093
-664.003	-30.236	0.300	-0.174
-662.989	-126.962	-0.395	0.059
-661.974	-142.393	0.055	0.006
-660.959	-69.829	0.338	-0.131
-659.945	132.861	0.154	-0.203
-658.930	86.970	-0.033	0.038
-657.916	-200.000	-0.005	-0.055
-656.901	98.728	0.152	-0.178
-655.886	-4.264	-0.178	-0.126
-654.872	571.092	-0.156	0.386
-653.857	-112.672	0.086	-0.017
-652.843	46.730	0.317	0.300
-651.828	341.649	0.077	-0.153
-650.814	-200.000	0.025	-0.312
-649.799	131.725	0.116	-0.152
-648.784	-72.171	-0.135	0.051
-647.770	-122.097	0.154	-0.026
-646.755	800.000	0.063	-0.199
-645.741	-115.707	0.327	-0.062
-644.726	58.707	0.411	0.411
-643.711	-200.000	-0.009	0.102
-642.697	-111.988	0.206	-0.042
-641.682	37.482	0.191	-0.173
-640.668	-200.000	-0.003	-0.361
-639.653	-200.000	-0.027	-0.158
-638.638	-200.000	0.016	0.113
-637.624	-200.000	0.016	-0.234
-636.609	29.561	0.250	-0.217
-635.595	-44.500	-0.252	-0.128
-634.580	-138.148	-0.178	0.020
-633.565	-81.746	0.215	-0.072
-632.551	200.686	-0.061	-0.095
-631.536	-34.983	-0.230	-0.128
-630.522	-151.020	-0.127	-0.010
-629.507	249.610	-0.048	-0.083
-628.492	-67.284	0.049	-0.020
-627.478	520.262	0.098	0.234
-626.463	-200.000	0.034	0.247
-625.449	-105.326	0.115	0.027
-624.434	94.439	-0.225	-0.260
-623.419	20.922	-0.373	-0.308
-622.405	80.099	-0.087	0.095
-621.390	622.727	0.034	-0.087
-620.376	-200.000	0.002	-0.033
-619.361	-28.827	0.078	-0.046
-618.346	315.696	-0.079	0.151
-617.332	327.238	0.067	0.130
-616.317	388.219	-0.026	0.054
-615.303	-72.506	-0.088	-0.033
-614.288	-9.415	-0.044	-0.030
-613.273	68.105	-0.106	-0.111
-612.259	-110.308	0.187	0.039
-611.244	-83.979	-0.099	-0.032
-610.230	-200.000	-0.001	0.186
-609.215	230.774	0.073	0.121
-608.201	800.000	-0.119	-0.376
-607.186	-9.065	0.239	-0.162
-606.171	388.995	0.096	-0.202
-605.157	536.192	-0.104	0.251
-604.142	-93.020	-0.266	0.075
-603.128	110.861	0.118	0.145
-602.113	63.939	-0.185	-0.189
-601.098	55.375	-0.177	-0.174
-600.084	-141.266	-0.087	-0.009
-599.069	-200.000	0.043	-0.252
-598.055	-15.584	-0.180	0.117
-597.040	155.584	-0.044	-0.062
-596.025	-3.785	-0.113	0.080
-595.011	485.820	0.137	0.318
-593.996	257.592	0.080	-0.141
-592.982	52.509	-0.088	-0.085
-591.967	270.132	0.132	0.236
-590.952	555.187	-0.047	-0.115
-589.938	-81.486	0.176	0.059
-588.923	-96.166	0.431	0.116
-587.909	800.000	-0.083	0.239
-586.894	432.628	0.037	-0.081
-585.879	-63.059	-0.302	0.127
-584.865	58.669	-0.306	0.305
-583.850	-21.819	-0.138	0.085
-582.836	-89.247	0.243	0.073
-581.821	-200.000	-0.041	-0.435
-580.806	800.000	-0.048	0.169
-579.792	-137.468	0.349	0.040
-578.777	291.502	0.064	-0.118
-577.763	231.316	0.092	0.153
-576.748	-80.534	-0.304	0.103
-575.733	-200.000	0.024	-0.148
-574.719	-93.831	-0.076	0.021
-573.704	-56.732	0.219	0.098
-572.690	90.753	0.141	-0.160
-571.675	-4.932	-0.236	-0.165
-570.661	44.874	-0.185	-0.173
-569.646	239.133	-0.168	-0.285
-568.631	-157.457	-0.216	-0.013
-567.617	260.775	-0.188	0.330
-566.602	-200.000	-0.013	0.086
-565.588	-120.178	-0.070	0.012
-564.573	-200.000	0.007	0.066
-563.558	74.417	-0.086	-0.091
-562.544	-200.000	0.001	0.071
-561.529	19.093	-0.380	-0.310
-560.515	24.822	0.101	0.085
-559.500	-128.136	0.062	0.009
-558.485	-200.000	0.036	-0.255
-557.471	-190.088	-0.154	-0.002
-556.456	4.810	-0.146	-0.109
-555.442	88.254	0.071	0.080
-554.427	-200.000	0.021	0.176
-553.412	732.687	0.048	0.130
-552.398	17.150	0.223	-0.180
-551.383	800.000	-0.037	0.132
-550.369	59.786	-0.162	0.163
-549.354	-200.000	-0.025	0.265
-548.339	-121.243	0.283	0.048
-547.325	601.078	-0.064	-0.162
-546.310	800.000	0.003	-0.010
-545.296	-101.471	-0.121	0.030
-544.281	-165.167	-0.344	0.015
-543.266	-131.518	0.625	-0.084
-542.252	343.963	-0.051	-0.102
-541.237	-200.000	0.014	-0.231
-540.223	-124.742	0.208	0.033
-539.208	722.768	-0.097	0.261
-538.193	-58.456	0.125	0.055
-537.179	-172.863	-0.102	-0.003
-536.164	617.513	-0.117	-0.298
-535.150	-48.345	0.182	-0.089
-534.135	-49.815	-0.146	0.070
-533.121	-26.417	0.369	0.220
-532.106	-200.000	-0.090	0.413
-531.091	-200.000	0.020	0.386
-530.077	638.277	0.056	0.145
-529.062	-144.158	0.286	-0.027
-528.048	-200.000	0.023	-0.147
-527.033	-200.000	0.027	-0.125
-526.018	-97.364	-0.313	-0.083
-525.004	66.732	0.213	0.219
-523.989	89.483	-0.057	-0.065
-522.975	707.470	0.046	-0.122
-521.960	-200.000	-0.014	-0.078
-520.945	-4.438	-0.227	0.159
-519.931	-117.374	0.262	0.048
-518.916	-200.000	0.268	-0.000
-517.902	360.795	0.162	0.330
-516.887	800.000	0.004	-0.015
-515.872	1.298	0.121	0.088
-514.858	-67.635	-0.121	-0.048
-513.843	-117.195	-0.315	-0.058
-512.829	286.447	-0.085	-0.156
-511.814	-200.000	0.004	-0.126
-510.799	-107.167	0.110	0.025
-509.785	275.777	0.029	0.052
-508.770	-99.537	-0.071	-0.018
-507.756	-64.692	-0.312	0.128
-506.741	113.849	0.245	-0.301
-505.726	-21.329	0.193	0.120
-504.712	800.000	-0.058	0.204
-503.697	748.085	0.111	0.303
-502.683	-200.000	-0.066	0.382
-501.668	-30.130	0.306	0.176
-500.653	800.000	-0.059	0.246
-499.639	-25.585	0.303	-0.181
-498.624	-153.818	0.187	0.013
-497.610	-117.256	-0.177	-0.033
-496.595	87.124	-0.089	0.099
-495.581	-200.000	0.045	0.200
-494.566	-183.692	0.157	0.003
-493.551	-160.405	-0.373	-0.020
-492.537	-200.000	0.017	0.075
-491.522	-200.000	0.000	-0.216
-490.508	-63.409	0.077	0.032
-489.493	77.417	-0.080	0.087
-488.478	-200.000	0.046	0.229
-487.464	-135.368	-0.113	-0.014
-486.449	-107.750	-0.304	0.067
-485.435	36.570	0.061	0.054
-484.420	87.513	0.106	0.119
-483.405	-200.000	-0.001	-0.016
-482.391	74.648	0.059	-0.063
-481.376	349.906	-0.186	0.373
-480.362	-45.724	-0.125	-0.062
-479.347	-162.795	-0.189	-0.009
-478.332	-200.000	-0.017	0.180
-477.318	800.000	0.113	0.361
-476.303	-24.599	-0.178	-0.107
-475.289	800.000	-0.075	0.233
-474.274	266.314	-0.110	-0.194
-473.259	800.000	0.072	-0.240
-472.245	-83.116	-0.179	0.058
-471.230	93.047	0.188	0.215
-470.216	35.300	0.096	0.085
-469.201	44.913	0.105	0.097
-468.186	-75.006	-0.133	0.048
-467.172	168.494	-0.062	-0.089
-466.157	-32.855	0.184	-0.103
-465.143	-200.000	0.004	-0.271
-464.128	800.000	-0.045	0.187
-463.113	-76.497	0.303	-0.108
-462.099	87.923	0.047	0.053
-461.084	-177.925	0.234	0.006
-460.070	-133.210	0.112	-0.014
-459.055	-172.672	-0.286	0.009
-458.040	-200.000	0.013	-0.123
-457.026	143.002	0.134	-0.180
-456.011	-151.834	-0.223	0.017
-454.997	800.000	-0.058	-0.181
-453.982	-200.000	-0.008	0.035
-452.968	800.000	-0.088	0.357
-451.953	-139.537	-0.140	-0.015
-450.938	800.000	-0.061	-0.214
-449.924	-200.000	-0.008	-0.156
-448.909	800.000	0.111	0.417
-447.895	424.825	-0.139	0.303
-446.880	-200.000	0.010	0.090
-445.865	-200.000	0.052	-0.251
-444.851	103.557	0.154	0.183
-443.836	-200.000	-0.051	0.385
-442.822	112.729	-0.134	-0.164
-441.807	-49.033	-0.043	0.021
-440.792	800.000	0.138	0.440
-439.778	-18.816	-0.302	0.190
-438.763	41.813	0.060	-0.055
-437.749	-200.000	-0.056	0.252
-436.734	-200.000	-0.030	0.175
-435.719	-165.675	-0.243	-0.011
-434.705	800.000	0.025	0.084
-433.690	365.624	0.074	-0.152
-432.676	-103.715	-0.180	-0.043
-431.661	-200.000	0.005	-0.407
-430.646	502.433	0.091	-0.212
-429.632	-68.622	-0.165	0.065
-428.617	187.479	0.252	0.380
-427.603	37.147	-0.049	-0.044
-426.588	54.188	0.182	-0.177
-425.573	-200.000	-0.037	0.175
-424.559	160.561	-0.353	-0.497
-423.544	35.166	0.026	-0.023
-422.530	-6.814	-0.266	-0.183
-421.515	-19.514	-0.262	0.164
-420.500	436.475	0.045	0.100
-419.486	-17.358	-0.102	-0.065
-418.471	-200.000	-0.022	-0.108
-417.457	183.830	0.049	0.074
-416.442	-28.759	0.106	0.062
-415.428	44.407	0.234	-0.217
-414.413	-119.821	0.412	-0.072
-413.398	43.031	0.269	-0.248
-412.384	800.000	0.077	0.222
-411.369	-115.832	0.379	-0.071
-410.355	-164.745	-0.147	0.007
-409.340	-132.622	-0.231	0.030
-408.325	235.042	-0.091	0.152
-407.311	-200.000	-0.022	-0.306
-406.296	-173.454	-0.302	0.009
-405.282	-1.293	0.074	0.053
-404.267	-31.224	0.157	0.089
-403.252	188.893	0.133	0.201
-402.238	125.149	0.130	-0.165
-401.223	-91.801	0.085	-0.024
-400.209	57.450	0.088	-0.087
-399.194	19.039	-0.140	-0.113
-398.179	248.307	-0.126	-0.215
-397.165	-200.000	-0.013	0.090
-396.150	-10.800	0.091	0.061
-395.136	178.884	0.163	0.241
-394.121	-174.904	0.136	-0.004
-393.106	-163.770	-0.104	0.005
-392.092	-200.000	0.020	0.298
-391.077	-112.969	0.150	0.030
-390.063	-93.787	0.156	-0.043
-389.048	205.397	-0.183	0.286
-388.033	-104.594	-0.149	-0.035
-387.019	538.637	0.073	-0.174
-386.004	-116.739	0.235	0.043
-384.990	579.728	-0.227	0.561
-383.975	-200.000	-0.026	0.151
-382.960	213.963	0.054	-0.087
-381.946	517.187	-0.091	-0.213
-380.931	-58.814	0.078	-0.034
-379.917	486.680	0.116	0.266
-378.902	-200.000	0.062	0.287
-377.888	184.548	-0.026	-0.039
-376.873	132.661	-0.257	-0.335
-375.858	-200.000	-0.058	0.394
-374.844	-200.000	0.008	0.261
-373.829	-200.000	-0.045	0.342
-372.815	-88.190	-0.148	0.045
-371.800	-62.293	-0.167	0.070
-370.785	155.973	-0.167	-0.232
-369.771	-141.994	-0.521	-0.052
-368.756	-36.562	-0.172	-0.093
-367.742	-200.000	-0.024	-0.134
-366.727	119.059	-0.033	0.042
-365.712	-29.448	-0.039	-0.023
-364.698	-8.220	-0.072	0.049
-363.683	-2.273	0.325	0.230
-362.669	-136.058	-0.322	-0.038
-361.654	-24.829	0.308	-0.184
-360.639	-200.000	-0.025	-0.340
-359.625	66.145	0.169	0.173
-358.610	-57.249	0.185	-0.082
-357.596	-186.613	-0.415	-0.006
-356.581	323.723	-0.131	-0.251
-355.566	-62.842	0.102	-0.043
-354.552	682.564	-0.078	-0.206
-353.537	46.735	0.130	0.121
-352.523	143.264	-0.155	0.208
-351.508	800.000	-0.029	-0.087
-350.493	683.298	-0.049	0.128
-349.479	-91.030	0.192	-0.055
-348.464	-161.730	0.113	0.006
-347.450	-7.898	-0.248	0.169
-346.435	23.177	0.068	-0.056
-345.420	-105.359	-0.096	-0.022
-344.406	410.307	-0.094	0.202
-343.391	-67.099	-0.365	-0.145
-342.377	-9.935	-0.200	-0.134
-341.362	11.960	-0.151	-0.117
-340.348	-90.000	0.295	0.087
-339.333	153.208	-0.165	0.227
-338.318	-61.026	0.234	-0.099
-337.304	-109.636	0.421	-0.089
-336.289	-200.000	0.016	-0.333
-335.275	-68.083	-0.019	0.008
-334.260	412.014	0.128	-0.273
-333.245	-87.653	0.383	-0.116
-332.231	-45.238	-0.115	0.057
-331.216	115.214	0.098	-0.120
-330.202	-200.000	-0.044	0.269
-329.187	500.891	0.136	-0.315
-328.172	-64.119	0.120	0.049
-327.158	-95.300	-0.190	0.051
-326.143	-174.518	0.303	-0.009
-325.129	-17.995	0.243	0.153
-324.114	-124.235	0.385	0.061
-323.099	-9.869	0.141	-0.094
-322.085	-200.000	-0.047	-0.241
-321.070	800.000	0.033	-0.142
-320.056	-106.501	-0.301	-0.067
-319.041	211.776	0.140	0.222
-318.026	-200.000	-0.006	-0.114
-317.012	-47.865	-0.199	0.097
-315.997	164.522	0.118	-0.167
-314.983	80.932	-0.132	0.144
-313.968	-200.000	-0.083	0.378
-312.953	-60.074	-0.153	0.066
-311.939	-14.563	-0.166	-0.107
-310.924	-60.686	0.232	0.099
-309.910	800.000	0.031	-0.089
-308.895	640.938	0.057	0.147
-307.880	26.818	-0.229	-0.193
-306.866	60.831	-0.102	0.102
-305.851	402.335	-0.056	-0.119
-304.837	23.897	-0.285	0.236
-303.822	-37.254	-0.035	0.019
-302.807	171.455	0.137	-0.197
-301.793	181.855	0.161	0.239
-300.778	-200.000	0.009	-0.068
-299.764	148.502	0.227	-0.308
-298.749	201.649	-0.123	-0.190
-297.735	-74.241	0.120	0.044
-296.720	254.271	0.170	-0.292
-295.705	800.000	0.007	0.022
-294.691	57.647	-0.095	-0.093
-293.676	-13.214	-0.111	-0.072
-292.662	94.603	-0.279	-0.318
-291.647	800.000	0.046	-0.148
-290.632	-176.779	-0.197	-0.005
-289.618	60.696	-0.057	0.056
-288.603	-89.457	-0.128	-0.038
-287.589	121.325	-0.090	0.113
-286.574	800.000	0.052	0.184
-285.559	52.439	-0.135	0.129
-284.545	104.629	0.078	-0.092
-283.530	-77.385	0.207	0.072
-282.516	104.735	0.074	0.088
-281.501	242.199	0.101	0.170
-280.486	264.652	0.080	0.140
-279.472	-143.624	-0.234	0.022
-278.457	-77.236	0.181	-0.063
-277.443	225.520	0.220	-0.358
-276.428	80.869	0.060	0.065
-275.413	13.968	-0.100	0.078
-274.399	-177.935	-0.179	-0.004
-273.384	-20.908	-0.052	0.032
-272.370	-31.141	-0.203	0.115
-271.355	67.388	0.157	-0.161
-270.340	35.243	0.123	0.108
-269.326	43.339	0.220	-0.201
-268.311	-44.180	-0.221	-0.111
-267.297	228.423	0.089	-0.145
-266.282	-200.000	0.033	-0.272
-265.267	-106.660	-0.258	-0.057
-264.253	-42.086	-0.160	0.082
-263.238	-200.000	0.025	0.330
-262.224	110.299	-0.081	-0.098
-261.209	-110.230	0.053	0.011
-260.195	-38.402	0.047	0.025
-259.180	-75.597	0.157	0.056
-258.165	-24.168	-0.142	0.085
-257.151	43.050	-0.063	-0.058
-256.136	341.766	-0.048	0.094
-255.122	96.400	0.204	-0.234
-254.107	-200.000	-0.013	0.086
-253.092	74.799	-0.251	0.265
-252.078	172.379	-0.096	-0.139
-251.063	610.435	0.151	-0.379
-250.049	-200.000	0.007	0.415
-249.034	-24.439	0.198	-0.118
-248.019	33.125	-0.193	0.168
-247.005	-6.277	0.209	0.143
-245.990	-67.681	-0.109	-0.043
-244.976	-86.583	-0.391	0.120
-243.961	-200.000	0.060	-0.330
-242.946	417.708	0.105	0.224
-241.932	-80.407	0.364	-0.122
-240.917	-123.041	-0.064	0.010
-239.903	-100.192	0.273	0.068
-238.888	-200.000	-0.033	-0.276
-237.873	-145.164	-0.104	-0.009
-236.859	-174.502	-0.342	0.010
-235.844	190.652	-0.065	-0.097
-234.830	-21.316	-0.094	-0.058
-233.815	-200.000	-0.005	-0.062
-232.800	-200.000	0.003	-0.075
-231.786	-81.709	-0.173	0.057
-230.771	-124.685	0.176	-0.027
-229.757	-50.270	-0.359	-0.170
-228.742	-76.507	-0.384	-0.135
-227.727	5.623	-0.106	-0.078
-226.713	495.135	0.024	-0.056
-225.698	-23.381	0.293	-0.176
-224.684	750.545	-0.098	-0.265
-223.669	800.000	-0.050	-0.150
-222.655	-16.997	0.103	-0.065
-221.640	36.144	-0.135	0.119
-220.625	-117.136	0.338	0.062
-219.611	-200.000	0.002	-0.241
-218.596	2.149	-0.210	0.152
-217.582	-91.827	0.397	-0.113
-216.567	315.567	-0.054	-0.102
-215.552	369.855	0.114	0.232
-214.538	-112.203	0.151	0.030
-213.523	468.854	0.086	-0.193
-212.509	62.574	-0.144	-0.144
-211.494	23.808	-0.061	-0.051
-210.479	-129.288	-0.056	0.008
-209.465	78.423	-0.172	-0.184
-208.450	335.002	-0.172	0.335
-207.436	683.351	-0.142	0.372
-206.421	240.319	0.127	0.212
-205.406	-74.380	0.335	-0.121
-204.392	-94.718	0.292	-0.079
-203.377	178.392	0.045	-0.065
-202.363	-67.156	0.202	-0.080
-201.348	28.189	-0.067	0.057
-200.333	7.421	-0.270	-0.202
-199.319	-183.693	0.469	0.008
-198.304	13.306	0.155	0.120
-197.290	-200.000	0.039	-0.208
-196.275	-139.071	-0.256	0.028
-195.260	-78.423	-0.400	0.137
-194.246	110.148	0.118	-0.142
-193.231	-169.959	0.310	-0.011
-192.217	65.470	0.120	0.121
-191.202	-22.283	-0.148	0.090
-190.187	-88.539	0.022	-0.007
-189.173	-9.592	-0.079	0.053
-188.158	84.812	0.032	-0.035
-187.144	111.535	-0.117	-0.141
-186.129	-200.000	0.014	-0.289
-185.114	62.068	-0.072	0.072
-184.100	184.053	0.104	0.155
-183.085	800.000	-0.034	0.114
-182.071	281.725	-0.049	-0.088
-181.056	-16.971	0.247	0.156
-180.042	-96.570	0.175	0.046
-179.027	416.957	0.113	0.241
-178.012	-200.000	0.013	0.176
-176.998	-200.000	0.008	-0.039
-175.983	-31.250	0.148	-0.083
-174.969	-200.000	-0.009	-0.100
-173.954	-17.530	0.062	-0.039
-172.939	800.000	0.069	-0.269
-171.925	92.937	-0.195	0.220
-170.910	-134.408	-0.199	0.024
-169.896	27.664	0.192	-0.162
-168.881	9.879	-0.292	-0.221
-167.866	-46.004	0.286	-0.141
-166.852	-191.863	0.074	-0.001
-165.837	-200.000	0.016	0.187
-164.823	-119.333	-0.382	0.066
-163.808	130.477	-0.291	0.373
-162.793	800.000	-0.052	-0.223
-161.779	277.757	-0.069	0.123
-160.764	411.381	-0.069	-0.146
-159.750	118.521	0.112	0.138
-158.735	-128.390	0.126	-0.018
-157.720	-44.485	0.321	-0.160
-156.706	-102.884	0.465	-0.110
-155.691	-53.774	0.316	-0.144
-154.677	-200.000	0.057	-0.386
-153.662	0.860	0.220	-0.157
-152.647	-54.970	-0.109	0.049
-151.633	-75.116	-0.207	-0.074
-150.618	-98.931	-0.369	-0.094
-149.604	122.605	0.235	-0.294
-148.589	-103.928	0.117	0.027
-147.574	21.392	-0.166	0.135
-146.560	-144.643	-0.288	0.027
-145.545	-9.714	0.068	-0.045
-144.531	-31.065	0.097	-0.055
-143.516	478.443	-0.067	0.151
-142.502	-39.139	-0.210	0.110
-141.487	58.334	-0.152	-0.149
-140.472	607.213	0.102	-0.253
-139.458	-200.000	0.045	-0.285
-138.443	271.196	0.071	0.125
-137.429	-200.000	0.009	0.070
-136.414	61.358	0.226	0.225
-135.399	-2.404	-0.114	-0.080
-134.385	267.670	-0.167	-0.291
-133.370	247.369	0.083	0.141
-132.356	-99.989	-0.274	-0.068
-131.341	718.767	0.110	0.291
-130.326	68.904	-0.091	-0.094
-129.312	-94.416	0.169	-0.046
-128.297	-26.884	-0.144	0.084
-127.283	648.287	0.038	0.096
-126.268	-200.000	0.032	-0.322
-125.253	-73.359	-0.168	-0.061
-124.239	-200.000	-0.005	0.271
-123.224	-111.580	0.276	0.056
-122.210	-165.395	-0.027	-0.001
