DTS Sentinel unit serial number:	SN413079Multiplexer serial number:	ORYXHardware model number:	OX4-SRSoftware version number:	ORYX F/W v4.00 Oryx Data Collector v3.7.2.0data status	okinstallation	princeton_trtdifferential loss correction	single-endedforward channel	channel 3reverse channel	N/Adate	2019/09/12time	04:18:11forward acquisition time	60.00reverse acquisition time	0.00gamma	496.2192k internal	0.2323k external	0.2323temperature offset calibration	1.0071default loss term (dB/km)	0.3790temperature slope calibration	1.0000multiplexer offset coefficient	1.0000multiplexer slope coefficient	1.0000fibre end	0.00T internal ref (°C)	31.80T ext. ref 1 (°C)	2.23T ext. ref 2 (°C)	25.74length (m)	temperature (°C)	Stokes	anti-Stokes-747.200	-200.000	0.012	0.341
-746.185	6.940	0.194	-0.146
-745.171	-156.431	-0.271	0.017
-744.156	-17.616	-0.420	0.267
-743.142	-89.556	0.236	0.070
-742.127	-151.489	-0.415	0.031
-741.112	-130.946	-0.108	0.015
-740.098	-53.136	-0.394	0.183
-739.083	-147.686	-0.095	0.008
-738.069	-161.518	-0.242	-0.013
-737.054	223.631	-0.119	0.194
-736.039	800.000	-0.017	0.055
-735.025	454.796	-0.041	-0.092
-734.010	74.866	-0.400	-0.425
-732.996	146.471	-0.054	0.073
-731.981	-174.442	0.254	-0.007
-730.966	157.873	-0.141	-0.197
-729.952	-200.000	0.024	-0.155
-728.937	20.812	0.044	-0.036
-727.923	-117.112	-0.425	-0.078
-726.908	-29.363	-0.428	-0.247
-725.894	-46.790	-0.233	0.115
-724.879	-129.815	-0.239	0.033
-723.864	-53.898	-0.166	0.076
-722.850	-55.297	-0.071	-0.032
-721.835	273.144	-0.202	-0.361
-720.821	-94.898	-0.041	-0.011
-719.806	374.019	0.079	-0.163
-718.791	-71.050	-0.155	0.059
-717.777	800.000	0.079	-0.282
-716.762	-200.000	-0.016	0.160
-715.748	-200.000	0.019	0.174
-714.733	-9.193	-0.279	0.188
-713.718	67.371	-0.215	-0.221
-712.704	800.000	0.011	-0.049
-711.689	-200.000	-0.025	-0.170
-710.675	-6.342	0.213	0.146
-709.660	-121.763	-0.328	-0.055
-708.645	-126.428	0.185	0.028
-707.631	5.164	-0.160	-0.119
-706.616	-10.496	-0.641	-0.428
-705.602	-90.124	-0.287	-0.084
-704.587	800.000	-0.058	-0.164
-703.572	-200.000	0.008	-0.356
-702.558	95.664	-0.028	-0.033
-701.543	-200.000	0.037	-0.298
-700.529	800.000	0.061	-0.229
-699.514	85.854	-0.092	-0.102
-698.499	-200.000	-0.001	0.236
-697.485	-34.710	0.042	-0.023
-696.470	-79.826	0.206	0.070
-695.456	-175.753	-0.013	0.000
-694.441	-200.000	-0.006	0.172
-693.426	800.000	0.057	0.228
-692.412	-160.711	-0.567	-0.030
-691.397	-200.000	0.041	-0.244
-690.383	-134.651	-0.234	0.029
-689.368	-200.000	-0.014	-0.233
-688.354	79.886	-0.098	-0.107
-687.339	800.000	0.081	0.238
-686.324	-89.957	-0.184	-0.054
-685.310	-142.254	-0.507	-0.051
-684.295	-43.652	0.337	-0.171
-683.281	-85.689	-0.097	0.030
-682.266	-200.000	0.008	-0.050
-681.251	-48.993	-0.360	0.174
-680.237	-94.899	-0.219	-0.060
-679.222	-111.506	0.238	0.049
-678.208	238.960	0.206	0.344
-677.193	82.713	-0.092	-0.100
-676.178	-200.000	-0.016	0.291
-675.164	129.093	0.220	-0.282
-674.149	-25.289	-0.258	-0.154
-673.135	-200.000	-0.196	-0.001
-672.120	-72.754	-0.213	-0.079
-671.105	-19.182	0.227	-0.142
-670.091	22.022	-0.153	0.126
-669.076	395.510	0.054	-0.113
-668.062	800.000	0.028	0.089
-667.047	-200.000	0.405	-0.000
-666.032	-200.000	-0.060	-0.363
-665.018	800.000	-0.018	-0.061
-664.003	-200.000	0.007	0.154
-662.989	800.000	-0.144	-0.505
-661.974	-170.602	-0.184	0.006
-660.959	260.568	0.095	-0.166
-659.945	-61.240	-0.109	-0.046
-658.930	800.000	-0.081	0.285
-657.916	-63.555	-0.156	0.064
-656.901	14.725	-0.203	-0.160
-655.886	65.323	0.101	0.103
-654.872	-161.794	0.051	-0.003
-653.857	-151.333	-0.137	0.010
-652.843	79.374	0.058	-0.063
-651.828	-59.624	0.158	0.068
-650.814	-200.000	0.039	-0.227
-649.799	-200.000	0.021	0.130
-648.784	-85.307	0.242	0.076
-647.770	93.504	0.107	-0.122
-646.755	-108.780	0.248	0.053
-645.741	119.476	0.189	0.235
-644.726	-107.704	-0.175	-0.039
-643.711	-200.000	0.032	-0.220
-642.697	-162.936	-0.248	-0.012
-641.682	15.091	-0.323	0.255
-640.668	-162.526	0.115	0.006
-639.653	-148.086	-0.393	-0.033
-638.638	-90.261	-0.343	-0.100
-637.624	-101.686	0.253	-0.062
-636.609	24.968	0.091	0.076
-635.595	-200.000	0.033	0.455
-634.580	45.575	-0.114	0.106
-633.565	31.016	0.120	-0.103
-632.551	123.039	-0.225	0.283
-631.536	6.482	0.014	-0.011
-630.522	-200.000	-0.011	-0.191
-629.507	-48.875	-0.167	-0.080
-628.492	-106.680	0.070	-0.016
-627.478	-71.285	-0.384	0.145
-626.463	327.360	0.140	-0.270
-625.449	-40.599	-0.189	-0.099
-624.434	209.788	-0.286	-0.450
-623.419	-100.381	-0.316	-0.079
-622.405	-126.238	-0.120	-0.018
-621.390	-200.000	-0.021	0.404
-620.376	141.185	-0.142	0.189
-619.361	-12.547	-0.271	0.178
-618.346	-104.598	0.310	-0.072
-617.332	-170.711	0.152	-0.005
-616.317	800.000	0.045	-0.181
-615.303	18.798	0.308	-0.247
-614.288	-125.905	-0.232	0.035
-613.273	518.990	0.148	-0.349
-612.259	84.908	-0.051	0.057
-611.244	800.000	-0.082	-0.260
-610.230	314.024	0.063	-0.119
-609.215	-82.114	-0.289	-0.095
-608.201	800.000	-0.053	-0.169
-607.186	152.988	-0.032	-0.044
-606.171	234.030	0.179	-0.296
-605.157	-200.000	-0.030	0.175
-604.142	-200.000	0.008	0.202
-603.128	-78.262	0.407	0.140
-602.113	6.101	-0.082	0.061
-601.098	318.878	-0.069	-0.131
-600.084	-200.000	0.025	0.129
-599.069	257.495	-0.095	0.163
-598.055	270.335	-0.021	0.036
-597.040	-160.675	-0.143	0.008
-596.025	794.960	-0.088	-0.244
-595.011	-86.735	-0.136	-0.042
-593.996	-46.391	-0.083	0.041
-592.982	-27.178	-0.076	0.044
-591.967	-126.697	0.247	0.037
-590.952	-22.373	0.202	-0.123
-589.938	484.765	-0.071	-0.161
-588.923	198.977	-0.094	0.145
-587.909	-74.694	-0.051	-0.018
-586.894	431.158	-0.118	-0.256
-585.879	-73.291	0.083	0.030
-584.865	-12.022	0.228	-0.150
-583.850	-33.819	-0.175	0.097
-582.836	-12.365	-0.337	0.221
-581.821	800.000	0.116	0.357
-580.806	158.000	0.318	-0.442
-579.792	313.580	0.039	0.074
-578.777	-62.195	0.147	-0.061
-577.763	111.004	0.196	0.237
-576.748	-60.099	-0.122	-0.052
-575.733	-75.075	0.095	-0.034
-574.719	-107.533	0.128	-0.028
-573.704	-3.564	0.125	-0.087
-572.690	-97.629	-0.582	-0.152
-571.675	101.860	0.239	0.280
-570.661	-200.000	0.032	-0.243
-569.646	18.872	-0.081	0.065
-568.631	-56.342	0.267	-0.119
-567.617	131.840	0.110	0.142
-566.602	7.198	-0.228	-0.171
-565.588	800.000	0.013	-0.052
-564.573	63.436	0.156	0.157
-563.558	358.041	0.118	0.236
-562.544	-200.000	-0.030	0.147
-561.529	-83.071	-0.233	-0.075
-560.515	-35.274	0.243	-0.133
-559.500	-91.583	-0.095	-0.027
-558.485	-11.405	0.225	-0.148
-557.471	-87.676	-0.090	0.027
-556.456	35.171	0.307	0.270
-555.442	-98.966	0.187	0.048
-554.427	187.929	0.198	0.297
-553.412	-146.393	0.145	0.013
-552.398	-200.000	0.066	-0.455
-551.383	503.939	0.041	0.094
-550.369	-200.000	-0.062	0.305
-549.354	721.844	-0.131	0.349
-548.339	-174.168	0.389	-0.011
-547.325	12.521	-0.151	0.117
-546.310	-153.116	-0.254	0.018
-545.296	175.015	-0.129	0.187
-544.281	-118.493	-0.148	0.026
-543.266	-25.103	0.081	0.048
-542.252	177.145	0.081	-0.118
-541.237	292.012	-0.021	-0.039
-540.223	118.991	-0.122	-0.151
-539.208	259.368	-0.085	-0.148
-538.193	-153.069	-0.149	-0.010
-537.179	-200.000	-0.026	-0.191
-536.164	-117.030	0.340	-0.062
-535.150	517.068	0.056	-0.131
-534.135	315.428	-0.044	0.083
-533.121	-114.567	0.046	-0.009
-532.106	-49.065	0.193	-0.092
-531.091	800.000	0.027	0.103
-530.077	-54.538	0.268	0.121
-529.062	-142.419	-0.515	0.051
-528.048	-40.904	-0.279	-0.145
-527.033	297.019	0.052	-0.095
-526.018	64.654	0.174	-0.176
-525.004	-107.149	-0.283	-0.062
-523.989	-117.614	0.243	0.044
-522.975	183.374	0.057	0.085
-521.960	33.610	0.085	-0.074
-520.945	727.150	-0.180	-0.481
-519.931	-21.269	-0.367	0.225
-518.916	-58.889	-0.184	-0.080
-517.902	237.217	-0.165	0.273
-516.887	800.000	0.070	-0.274
-515.872	136.702	-0.091	-0.119
-514.858	228.217	-0.158	0.257
-513.843	-6.499	0.173	-0.118
-512.829	-93.045	0.113	0.031
-511.814	-97.662	0.207	-0.054
-510.799	-152.948	0.090	-0.006
-509.785	102.881	-0.173	-0.202
-508.770	324.414	0.180	-0.345
-507.756	-109.862	0.272	-0.057
-506.741	101.815	0.143	0.167
-505.726	-200.000	0.148	-0.000
-504.712	444.582	-0.057	0.126
-503.697	-27.291	0.332	0.193
-502.683	107.602	-0.073	-0.087
-501.668	-200.000	-0.019	0.202
-500.653	10.800	-0.042	0.032
-499.639	-173.252	-0.347	0.011
-498.624	-14.553	0.242	0.156
-497.610	-36.795	0.163	-0.087
-496.595	-200.000	0.018	-0.333
-495.581	35.540	0.076	-0.067
-494.566	-37.453	-0.119	-0.063
-493.551	78.954	-0.217	-0.232
-492.537	156.717	0.113	-0.156
-491.522	696.283	-0.087	0.229
-490.508	9.584	-0.312	-0.236
-489.493	-85.320	0.277	-0.086
-488.478	-68.126	0.124	0.048
-487.464	-177.551	-0.258	0.006
-486.449	-167.468	0.076	-0.003
-485.435	167.977	0.189	-0.269
-484.420	-141.083	0.205	0.021
-483.405	525.988	-0.109	0.255
-482.391	-200.000	0.053	0.273
-481.376	-190.763	-0.106	-0.001
-480.362	-200.000	-0.016	0.306
-479.347	289.106	0.128	0.231
-478.332	-200.000	-0.014	0.154
-477.318	-82.472	-0.172	-0.056
-476.303	510.290	-0.058	-0.135
-475.289	479.589	0.111	-0.250
-474.274	28.891	-0.186	0.157
-473.259	-37.954	0.326	0.173
-472.245	-200.000	-0.013	-0.231
-471.230	-68.945	-0.184	0.071
-470.216	643.896	-0.150	-0.383
-469.201	23.836	0.087	-0.072
-468.186	35.547	0.203	-0.178
-467.172	383.639	0.069	0.141
-466.157	224.409	0.067	-0.108
-465.143	30.318	-0.067	0.057
-464.128	-83.059	-0.124	0.040
-463.113	115.862	0.100	0.123
-462.099	-120.413	-0.137	0.023
-461.084	-200.000	-0.023	-0.199
-460.070	18.381	-0.174	0.139
-459.055	-81.721	-0.396	0.130
-458.040	-200.000	0.137	0.000
-457.026	-200.000	0.039	0.187
-456.011	-73.385	-0.057	0.021
-454.997	-138.663	0.096	-0.010
-453.982	-200.000	-0.022	0.114
-452.968	20.223	-0.302	-0.243
-451.953	16.362	-0.330	0.260
-450.938	-200.000	0.009	0.079
-449.924	643.003	-0.109	0.278
-448.909	354.653	0.019	0.038
-447.895	-58.741	-0.100	-0.043
-446.880	373.016	0.037	-0.074
-445.865	-200.000	0.006	-0.066
-444.851	800.000	0.083	-0.276
-443.836	-65.500	-0.313	-0.125
-442.822	110.138	-0.179	0.215
-441.807	37.790	0.089	0.079
-440.792	-200.000	-0.003	0.526
-439.778	-135.647	-0.147	-0.017
-438.763	-58.089	0.412	0.179
-437.749	-96.510	0.229	-0.060
-436.734	209.195	0.161	-0.251
-435.719	-56.429	0.127	-0.056
-434.705	27.041	0.127	-0.106
-433.690	36.105	0.176	0.155
-432.676	800.000	-0.043	-0.166
-431.661	-186.810	0.333	0.005
-430.646	399.592	-0.079	-0.165
-429.632	-94.087	-0.183	0.050
-428.617	-200.000	-0.077	0.367
-427.603	-200.000	0.075	0.390
-426.588	159.603	0.110	-0.152
-425.573	800.000	0.098	0.321
-424.559	-45.539	0.332	0.164
-423.544	128.455	-0.136	0.173
-422.530	-62.920	-0.286	0.118
-421.515	-87.878	-0.139	0.042
-420.500	-102.351	0.125	0.030
-419.486	-60.522	-0.135	0.057
-418.471	-98.954	-0.130	-0.033
-417.457	-200.000	0.007	0.057
-416.442	-21.511	-0.051	-0.031
-415.428	-4.008	0.341	0.236
-414.413	95.258	-0.122	-0.139
-413.398	-29.236	0.109	0.062
-412.384	-200.000	-0.029	0.201
-411.369	-28.423	0.219	-0.126
-410.355	-61.241	-0.054	-0.023
-409.340	-200.000	0.023	0.169
-408.325	-200.000	0.001	0.061
-407.311	-155.620	-0.309	-0.020
-406.296	-142.757	-0.076	-0.007
-405.282	200.237	-0.090	-0.137
-404.267	-40.201	0.107	-0.055
-403.252	-153.635	0.234	0.016
-402.238	264.207	-0.055	0.095
-401.223	-123.132	-0.099	-0.016
-400.209	-91.577	0.343	0.097
-399.194	252.458	-0.055	-0.093
-398.179	-134.094	0.117	0.014
-397.165	-186.133	0.106	0.002
-396.150	800.000	0.056	0.220
-395.136	500.362	0.086	0.198
-394.121	307.351	-0.051	-0.094
-393.106	-200.000	-0.012	0.089
-392.092	-200.000	-0.021	0.108
-391.077	-85.116	-0.388	-0.121
-390.063	23.235	-0.213	0.174
-389.048	53.598	0.044	0.042
-388.033	-200.000	-0.030	0.314
-387.019	185.460	0.075	-0.110
-386.004	-200.000	-0.008	0.095
-384.990	437.504	0.114	-0.247
-383.975	800.000	-0.090	-0.250
-382.960	-200.000	-0.019	-0.124
-381.946	-167.803	-0.122	0.005
-380.931	-162.465	0.209	0.010
-379.917	121.363	0.157	0.195
-378.902	800.000	0.041	0.178
-377.888	-118.495	-0.076	0.013
-376.873	25.437	-0.076	-0.063
-375.858	198.475	-0.122	0.185
-374.844	-200.000	0.009	-0.154
-373.829	800.000	0.077	-0.251
-372.815	269.956	-0.200	0.349
-371.800	800.000	0.087	-0.336
-370.785	-200.000	-0.035	0.535
-369.771	31.198	0.150	-0.128
-368.756	290.626	-0.085	0.153
-367.742	70.934	-0.062	-0.064
-366.727	-200.000	0.006	0.070
-365.712	-200.000	-0.053	0.248
-364.698	-100.603	0.217	0.053
-363.683	-37.141	0.094	-0.050
-362.669	111.574	-0.220	-0.264
-361.654	172.141	0.100	0.143
-360.639	-200.000	0.023	0.187
-359.625	169.411	0.198	-0.282
-358.610	111.301	-0.190	0.228
-357.596	800.000	0.068	0.265
-356.581	-49.733	0.038	0.018
-355.566	27.099	-0.256	0.214
-354.552	-165.685	-0.071	-0.003
-353.537	-161.529	0.100	-0.005
-352.523	-200.000	0.047	-0.205
-351.508	274.254	0.101	-0.177
-350.493	-50.412	-0.372	-0.175
-349.479	-200.000	0.055	0.253
-348.464	-200.000	-0.029	0.209
-347.450	-27.940	0.185	0.106
-346.435	27.208	-0.051	0.043
-345.420	-200.000	0.099	0.598
-344.406	800.000	0.046	0.151
-343.391	351.748	0.160	-0.315
-342.377	289.217	0.052	-0.094
-341.362	-54.474	-0.201	-0.090
-340.348	-200.000	0.065	-0.435
-339.333	-45.000	-0.269	0.133
-338.318	110.523	-0.094	0.112
-337.304	-200.000	-0.019	-0.254
-336.289	-85.765	-0.275	-0.085
-335.275	536.542	-0.216	-0.509
-334.260	-200.000	-0.006	0.107
-333.245	-111.925	0.102	-0.020
-332.231	-172.212	0.164	0.005
-331.216	19.573	-0.319	0.255
-330.202	7.557	-0.319	-0.237
-329.187	-141.859	-0.268	0.027
-328.172	-26.122	-0.130	-0.076
-327.158	-57.776	-0.161	0.070
-326.143	-130.401	0.375	-0.051
-325.129	180.465	-0.119	-0.174
-324.114	-121.241	-0.167	-0.028
-323.099	-73.584	0.234	0.085
-322.085	-66.452	-0.220	-0.087
-321.070	-7.171	0.244	-0.164
-320.056	-20.293	-0.116	-0.071
-319.041	800.000	0.089	0.339
-318.026	-106.987	0.173	-0.038
-317.012	-80.854	-0.285	-0.094
-315.997	-93.105	0.251	0.069
-314.983	-97.915	0.108	0.028
-313.968	142.300	0.039	0.051
-312.953	185.494	-0.195	-0.288
-311.939	-81.180	0.275	0.090
-310.924	800.000	0.089	-0.264
-309.910	-107.312	-0.196	-0.043
-308.895	800.000	-0.101	-0.362
-307.880	721.235	0.144	-0.380
-306.866	-75.030	0.069	0.025
-305.851	294.446	-0.160	-0.290
-304.837	259.097	0.066	-0.114
-303.822	-34.876	0.272	-0.147
-302.807	-83.080	-0.312	-0.100
-301.793	306.848	-0.206	0.380
-300.778	-69.775	0.112	0.043
-299.764	299.165	-0.074	-0.135
-298.749	-200.000	-0.008	-0.278
-297.735	87.964	0.123	-0.135
-296.720	-110.631	0.260	0.053
-295.705	-200.000	0.059	-0.345
-294.691	30.516	-0.245	-0.207
-293.676	-200.000	0.065	-0.309
-292.662	800.000	0.035	-0.127
-291.647	-86.154	-0.050	-0.015
-290.632	-7.169	0.070	0.047
-289.618	-81.669	0.247	-0.080
-288.603	-200.000	-0.055	0.357
-287.589	108.376	-0.090	-0.106
-286.574	-54.631	0.137	-0.061
-285.559	-82.858	0.378	-0.121
-284.545	-200.000	0.009	0.107
-283.530	800.000	-0.081	-0.270
-282.516	615.101	0.055	-0.137
-281.501	800.000	-0.090	0.257
-280.486	207.654	-0.100	-0.155
-279.472	-75.243	0.075	-0.026
-278.457	-200.000	-0.022	-0.288
-277.443	-3.136	0.077	0.054
-276.428	-47.932	-0.425	0.204
-275.413	46.888	-0.172	0.159
-274.399	800.000	-0.051	0.209
-273.384	110.597	0.062	0.073
-272.370	476.426	0.033	0.073
-271.355	230.851	0.053	0.085
-270.340	-63.037	0.147	-0.060
-269.326	-9.489	0.114	-0.075
-268.311	405.799	0.243	-0.508
-267.297	-200.000	0.012	-0.219
-266.282	294.444	0.131	-0.238
-265.267	-171.868	0.301	-0.010
-264.253	30.366	0.204	0.173
-263.238	52.447	0.192	0.182
-262.224	110.908	0.246	0.293
-261.209	800.000	0.036	0.152
-260.195	-194.534	-0.369	-0.003
-259.180	-183.871	-0.118	0.002
-258.165	-7.139	-0.228	-0.154
-257.151	-35.276	0.357	0.193
-256.136	45.419	-0.317	-0.290
-255.122	762.579	-0.048	0.128
-254.107	-129.830	-0.047	0.006
-253.092	-128.110	-0.157	0.022
-252.078	-200.000	-0.028	0.224
-251.063	578.658	-0.106	0.257
-250.049	-102.085	0.250	-0.060
-249.034	732.106	0.085	-0.226
-248.019	-200.000	-0.019	0.384
-247.005	416.721	0.055	0.116
-245.990	-97.022	-0.246	-0.064
-244.976	107.493	0.065	0.076
-243.961	-147.838	0.379	-0.031
-242.946	800.000	-0.053	-0.228
-241.932	-143.768	-0.121	-0.011
-240.917	800.000	0.068	0.234
-239.903	-79.495	0.202	0.068
-238.888	-21.366	0.337	-0.204
-237.873	-200.000	0.005	-0.090
-236.859	-109.076	0.301	0.064
-235.844	61.664	0.318	-0.314
-234.830	-25.538	-0.133	-0.078
-233.815	186.159	-0.083	-0.122
-232.800	-188.691	0.163	0.002
-231.786	-132.012	-0.210	-0.027
-230.771	-112.560	-0.080	-0.016
-229.757	-200.000	-0.007	0.116
-228.742	365.247	-0.047	-0.094
-227.727	-77.307	-0.360	0.124
-226.713	523.429	0.045	-0.105
-225.698	-185.121	0.303	-0.005
-224.684	-105.709	-0.176	0.039
-223.669	-118.929	-0.371	0.064
-222.655	65.192	0.078	-0.078
-221.640	-89.475	-0.314	0.091
-220.625	350.759	0.084	-0.165
-219.611	-52.526	0.186	0.085
-218.596	315.321	-0.072	0.134
-217.582	-140.598	0.189	-0.019
-216.567	-91.923	0.170	-0.048
-215.552	-30.220	0.372	0.209
-214.538	-44.634	-0.121	0.060
-213.523	-44.694	-0.060	0.029
-212.509	-77.439	0.409	0.140
-211.494	-13.141	-0.307	0.197
-210.479	-60.502	-0.157	-0.066
-209.465	-188.567	-0.234	0.003
-208.450	263.222	0.162	0.278
-207.436	12.750	0.186	0.142
-206.421	206.184	0.157	-0.241
-205.406	66.068	-0.074	0.074
-204.392	161.475	-0.093	0.128
-203.377	70.646	0.144	0.147
-202.363	800.000	0.035	-0.101
-201.348	103.254	0.235	-0.273
-200.333	-111.912	-0.081	-0.016
-199.319	20.021	-0.073	0.058
-198.304	139.007	0.046	-0.059
-197.290	800.000	-0.074	-0.282
-196.275	-200.000	0.011	-0.297
-195.260	-56.647	0.197	-0.086
-194.246	-113.803	-0.222	-0.043
-193.231	-18.631	-0.407	0.251
-192.217	56.598	0.131	-0.126
-191.202	130.590	0.107	0.136
-190.187	-140.023	-0.083	0.009
-189.173	-108.240	-0.121	-0.026
-188.158	41.531	-0.327	0.293
-187.144	-200.000	-0.078	0.432
-186.129	-200.000	-0.025	-0.232
-185.114	-107.831	-0.304	-0.065
-184.100	-200.000	0.037	-0.340
-183.085	-200.000	-0.022	-0.431
-182.071	92.350	0.076	-0.084
-181.056	-41.629	-0.217	0.110
-180.042	58.191	-0.212	-0.205
-179.027	-200.000	0.017	-0.228
-178.012	-26.046	-0.360	0.209
-176.998	-200.000	0.044	0.271
-175.983	508.863	0.078	-0.180
-174.969	800.000	-0.051	-0.142
-173.954	-144.617	0.032	0.003
-172.939	-97.587	-0.230	-0.059
-171.925	-3.005	0.118	0.081
-170.910	-115.461	0.267	-0.050
-169.896	-35.068	0.169	0.091
-168.881	590.444	-0.069	0.167
-167.866	-200.000	0.069	0.383
-166.852	608.681	-0.018	-0.044
-165.837	-146.820	-0.342	0.029
-164.823	-82.303	-0.158	0.051
-163.808	52.494	0.142	0.134
-162.793	-183.980	0.532	0.009
-161.779	800.000	-0.044	0.157
-160.764	-200.000	0.029	0.140
-159.750	-20.437	0.168	-0.102
-158.735	-178.295	0.317	0.007
-157.720	-200.000	0.000	-0.077
-156.706	57.131	-0.242	-0.232
-155.691	-57.780	0.178	-0.077
-154.677	-200.000	-0.055	0.348
-153.662	85.343	0.066	0.071
-152.647	-125.172	0.343	0.052
-151.633	-113.008	-0.180	-0.035
-150.618	149.773	-0.064	0.086
-149.604	70.532	-0.082	-0.084
-148.589	300.054	0.111	-0.202
-147.574	800.000	0.055	-0.163
-146.560	800.000	-0.095	-0.297
-145.545	-200.000	0.014	-0.388
-144.531	197.136	-0.104	0.156
-143.516	-40.203	0.340	-0.174
-142.502	17.211	-0.282	0.220
-141.487	-200.000	-0.013	0.276
-140.472	-58.212	0.346	0.149
-139.458	-105.343	-0.236	0.053
-138.443	4.037	0.203	0.146
-137.429	86.312	-0.134	0.145
-136.414	-87.698	-0.296	-0.088
-135.399	-118.541	0.186	0.033
-134.385	214.301	-0.226	0.352
-133.370	-5.110	0.088	-0.059
-132.356	-200.000	-0.025	-0.356
-131.341	-200.000	0.021	-0.097
-130.326	-113.532	-0.241	0.046
-129.312	-74.766	-0.232	-0.082
-128.297	-200.000	-0.029	-0.289
-127.283	368.788	0.089	0.178
-126.268	-74.816	-0.147	-0.052
-125.253	91.215	-0.312	0.346
-124.239	728.835	0.103	-0.271
-123.224	61.781	-0.238	-0.234
