DTS Sentinel unit serial number:	SN413079Multiplexer serial number:	ORYXHardware model number:	OX4-SRSoftware version number:	ORYX F/W v4.00 Oryx Data Collector v3.7.2.0data status	okinstallation	princeton_trtdifferential loss correction	single-endedforward channel	channel 3reverse channel	N/Adate	2019/09/11time	19:18:11forward acquisition time	60.00reverse acquisition time	0.00gamma	496.2192k internal	0.2293k external	0.2293temperature offset calibration	1.0015default loss term (dB/km)	0.3790temperature slope calibration	1.0000multiplexer offset coefficient	1.0000multiplexer slope coefficient	1.0000fibre end	0.00T internal ref (°C)	41.17T ext. ref 1 (°C)	1.30T ext. ref 2 (°C)	33.48length (m)	temperature (°C)	Stokes	anti-Stokes-747.200	-200.000	0.018	-0.133
-746.185	-109.741	-0.079	-0.017
-745.171	171.946	0.099	0.146
-744.156	504.051	-0.087	0.206
-743.142	210.730	-0.149	0.239
-742.127	43.573	0.102	0.096
-741.112	-146.340	-0.267	0.024
-740.098	-2.286	-0.151	0.108
-739.083	-63.456	-0.070	-0.030
-738.069	159.389	-0.167	0.238
-737.054	-200.000	0.054	0.281
-736.039	-38.339	-0.083	0.045
-735.025	531.545	0.062	-0.151
-734.010	800.000	0.036	-0.128
-732.996	77.912	-0.146	-0.160
-731.981	-200.000	0.016	-0.464
-730.966	-19.927	0.117	-0.074
-729.952	126.324	0.111	-0.143
-728.937	-92.689	-0.184	-0.053
-727.923	38.156	0.131	-0.119
-726.908	-200.000	-0.045	-0.381
-725.894	-72.311	-0.357	0.135
-724.879	32.614	0.135	-0.119
-723.864	-200.000	-0.021	-0.259
-722.850	565.477	-0.139	-0.344
-721.835	49.964	0.300	0.289
-720.821	286.985	0.160	-0.296
-719.806	125.581	0.363	-0.469
-718.791	-1.591	-0.162	-0.117
-717.777	132.632	-0.111	0.146
-716.762	-200.000	0.020	-0.390
-715.748	135.075	-0.215	-0.285
-714.733	168.659	0.198	-0.289
-713.718	-59.748	-0.140	0.061
-712.704	-108.785	-0.184	0.040
-711.689	42.315	-0.159	0.148
-710.675	-200.000	0.028	0.266
-709.660	9.170	0.212	0.164
-708.645	-88.626	-0.259	0.079
-707.631	800.000	0.098	-0.302
-706.616	99.882	0.093	0.111
-705.602	298.002	-0.066	-0.123
-704.587	76.757	-0.154	-0.167
-703.572	800.000	0.094	-0.385
-702.558	669.638	-0.108	-0.286
-701.543	55.724	-0.122	0.121
-700.529	338.267	0.181	0.359
-699.514	-200.000	0.047	-0.279
-698.499	-200.000	-0.062	-0.347
-697.485	-121.921	0.423	-0.071
-696.470	-151.111	-0.370	0.028
-695.456	800.000	0.032	0.133
-694.441	34.003	-0.161	-0.143
-693.426	-87.432	0.102	-0.031
-692.412	619.915	-0.104	0.266
-691.397	-200.000	-0.015	-0.159
-690.383	-200.000	-0.009	-0.042
-689.368	-200.000	-0.044	-0.237
-688.354	148.929	-0.045	0.062
-687.339	24.826	-0.237	0.200
-686.324	-102.166	0.247	0.061
-685.310	-100.333	0.045	0.011
-684.295	-119.590	-0.335	0.059
-683.281	334.952	0.018	0.036
-682.266	800.000	0.038	0.149
-681.251	104.919	-0.195	-0.235
-680.237	-65.357	0.390	0.160
-679.222	-131.967	-0.532	0.071
-678.208	-35.689	-0.166	0.092
-677.193	-181.472	0.142	0.003
-676.178	-151.645	0.110	-0.008
-675.164	-123.542	-0.409	-0.066
-674.149	-200.000	-0.052	0.235
-673.135	34.548	0.084	-0.075
-672.120	43.375	-0.077	-0.072
-671.105	-200.000	-0.006	-0.045
-670.091	-200.000	0.001	-0.124
-669.076	21.630	-0.118	-0.098
-668.062	364.681	-0.074	0.153
-667.047	-110.244	-0.197	0.042
-666.032	-200.000	-0.011	-0.092
-665.018	317.260	-0.219	-0.423
-664.003	-200.000	-0.009	-0.137
-662.989	-200.000	-0.010	-0.176
-661.974	-2.895	0.071	-0.051
-660.959	-87.148	-0.094	0.029
-659.945	21.281	-0.180	-0.149
-658.930	75.563	-0.098	0.105
-657.916	800.000	0.102	0.355
-656.901	-186.311	0.253	0.004
-655.886	-137.322	-0.135	-0.016
-654.872	800.000	-0.011	0.047
-653.857	-146.876	0.300	-0.026
-652.843	-200.000	0.015	-0.313
-651.828	658.503	-0.066	0.172
-650.814	-15.949	0.216	0.140
-649.799	-200.000	0.023	-0.239
-648.784	-11.583	-0.135	-0.091
-647.770	-80.631	-0.150	0.051
-646.755	41.655	-0.204	0.188
-645.741	-0.206	0.211	-0.153
-644.726	5.348	-0.116	-0.087
-643.711	800.000	0.190	0.556
-642.697	-96.165	-0.263	0.071
-641.682	-200.000	-0.044	0.214
-640.668	-126.825	-0.200	-0.030
-639.653	800.000	0.090	-0.281
-638.638	255.554	0.032	-0.055
-637.624	-49.314	0.085	0.041
-636.609	340.537	-0.118	-0.234
-635.595	160.989	-0.019	0.027
-634.580	-58.344	-0.297	0.132
-633.565	69.436	0.133	0.139
-632.551	600.245	-0.108	0.273
-631.536	711.583	-0.060	0.162
-630.522	429.801	0.163	0.360
-629.507	-200.000	0.032	0.324
-628.492	800.000	0.055	-0.195
-627.478	-28.285	0.229	-0.135
-626.463	-78.534	0.031	-0.011
-625.449	-55.091	-0.230	0.106
-624.434	-15.246	0.101	-0.066
-623.419	-200.000	0.018	-0.105
-622.405	27.114	0.271	0.231
-621.390	9.761	-0.056	-0.043
-620.376	800.000	-0.035	0.109
-619.361	800.000	0.009	0.027
-618.346	169.519	-0.085	0.123
-617.332	800.000	-0.005	0.017
-616.317	800.000	-0.029	-0.125
-615.303	224.333	-0.083	-0.136
-614.288	140.013	-0.140	0.188
-613.273	-200.000	-0.023	-0.124
-612.259	800.000	-0.018	-0.054
-611.244	800.000	-0.038	-0.149
-610.230	800.000	0.098	0.344
-609.215	157.482	0.050	0.070
-608.201	800.000	-0.047	-0.142
-607.186	-44.786	0.160	-0.081
-606.171	-200.000	0.028	-0.355
-605.157	-94.068	0.270	0.075
-604.142	-200.000	0.026	0.377
-603.128	-80.175	-0.086	0.029
-602.113	-200.000	0.042	-0.295
-601.098	-129.131	0.023	-0.003
-600.084	55.645	0.198	-0.195
-599.069	179.902	0.166	-0.247
-598.055	-200.000	0.000	-0.006
-597.040	-200.000	-0.047	0.345
-596.025	800.000	0.057	0.169
-595.011	-200.000	-0.002	0.176
-593.996	35.726	0.170	0.152
-592.982	287.822	0.098	-0.180
-591.967	152.821	0.163	-0.226
-590.952	-25.940	0.085	0.051
-589.938	10.856	0.181	-0.141
-588.923	-200.000	-0.015	0.273
-587.909	800.000	-0.110	-0.409
-586.894	266.624	-0.294	-0.523
-585.879	-200.000	0.006	0.196
-584.865	446.564	-0.101	0.225
-583.850	-49.502	0.140	-0.068
-582.836	-56.630	0.180	-0.081
-581.821	-121.281	-0.178	0.030
-580.806	-71.700	-0.183	-0.069
-579.792	147.281	-0.120	-0.165
-578.777	-127.532	0.194	0.029
-577.763	-131.697	-0.126	-0.017
-576.748	-96.172	0.050	0.013
-575.733	221.391	-0.139	0.226
-574.719	27.260	0.113	0.097
-573.704	-110.910	-0.235	0.049
-572.690	-200.000	0.014	0.447
-571.675	-102.802	-0.192	0.046
-570.661	-8.589	0.062	-0.042
-569.646	763.809	-0.026	0.071
-568.631	20.435	-0.064	0.053
-567.617	-71.838	0.202	0.076
-566.602	259.258	0.043	-0.075
-565.588	-69.222	-0.222	-0.087
-564.573	-200.000	-0.384	0.002
-563.558	22.322	0.092	-0.076
-562.544	-124.968	-0.106	-0.017
-561.529	-139.767	-0.135	0.015
-560.515	555.738	0.209	0.512
-559.500	62.582	0.294	0.299
-558.485	-200.000	-0.068	-0.314
-557.471	538.084	0.046	0.112
-556.456	298.248	-0.084	0.158
-555.442	-200.000	0.018	-0.101
-554.427	-200.000	0.016	0.278
-553.412	114.273	0.100	0.123
-552.398	-200.000	0.014	0.126
-551.383	800.000	0.080	0.265
-550.369	-145.156	0.147	0.014
-549.354	-58.727	-0.290	-0.128
-548.339	111.732	-0.091	0.111
-547.325	-151.921	0.292	-0.022
-546.310	-22.795	-0.104	-0.064
-545.296	22.919	-0.311	0.259
-544.281	-4.873	0.024	0.016
-543.266	800.000	-0.026	-0.095
-542.252	800.000	-0.089	-0.283
-541.237	582.633	-0.038	-0.093
-540.223	94.194	-0.239	-0.276
-539.208	800.000	-0.030	-0.097
-538.193	84.439	0.222	0.246
-537.179	-121.322	-0.419	-0.071
-536.164	-117.607	-0.063	0.012
-535.150	-87.883	0.051	-0.015
-534.135	273.097	0.028	-0.050
-533.121	104.102	0.227	0.270
-532.106	161.844	0.130	-0.185
-531.091	-40.241	0.208	-0.110
-530.077	224.586	-0.046	0.075
-529.062	-125.762	-0.210	0.032
-528.048	43.441	-0.190	-0.176
-527.033	38.941	0.112	-0.101
-526.018	-151.288	-0.447	0.034
-525.004	-200.000	-0.011	0.070
-523.989	297.749	-0.127	0.236
-522.975	-148.843	0.080	-0.007
-521.960	-130.939	0.175	-0.024
-520.945	-84.972	-0.438	0.139
-519.931	-1.146	0.141	0.101
-518.916	388.209	0.099	0.207
-517.902	457.425	-0.095	0.214
-516.887	254.498	-0.126	-0.219
-515.872	-144.402	0.222	-0.021
-514.858	800.000	-0.027	-0.082
-513.843	-78.471	0.229	-0.080
-512.829	631.160	0.066	0.171
-511.814	800.000	0.033	0.128
-510.799	147.366	-0.108	-0.147
-509.785	-10.509	0.079	-0.053
-508.770	-128.350	-0.134	-0.019
-507.756	-70.388	-0.075	0.029
-506.741	-147.883	-0.037	-0.003
-505.726	800.000	0.089	0.348
-504.712	-200.000	-0.024	0.159
-503.697	650.828	0.074	0.191
-502.683	-169.833	0.416	0.015
-501.668	155.950	-0.067	-0.093
-500.653	-177.416	0.334	0.008
-499.639	-200.000	-0.008	0.050
-498.624	316.702	-0.140	0.268
-497.610	-200.000	0.019	0.155
-496.595	-119.793	-0.193	0.034
-495.581	143.093	0.225	-0.303
-494.566	800.000	-0.039	-0.163
-493.551	-200.000	0.012	-0.157
-492.537	-200.000	0.009	-0.041
-491.522	137.288	-0.064	0.085
-490.508	-200.000	-0.007	-0.217
-489.493	-134.097	-0.088	-0.011
-488.478	-25.674	-0.143	-0.085
-487.464	-185.566	-0.184	0.003
-486.449	492.576	0.053	-0.123
-485.435	-200.000	-0.024	0.133
-484.420	-61.568	0.134	-0.057
-483.405	62.287	0.241	-0.244
-482.391	-21.887	-0.061	-0.037
-481.376	-56.290	-0.194	0.087
-480.362	347.762	0.144	-0.287
-479.347	-200.000	0.074	-0.364
-478.332	188.853	-0.073	-0.111
-477.318	-138.080	-0.131	-0.015
-476.303	549.975	-0.169	0.411
-475.289	-26.619	0.234	-0.138
-474.274	559.582	-0.049	-0.120
-473.259	-200.000	-0.018	-0.215
-472.245	374.356	0.128	0.263
-471.230	165.982	-0.151	-0.216
-470.216	800.000	0.038	-0.116
-469.201	57.942	0.186	-0.184
-468.186	-200.000	-0.020	-0.161
-467.172	-4.700	-0.280	-0.195
-466.157	13.274	0.134	-0.105
-465.143	-72.365	0.288	0.108
-464.128	-5.814	-0.413	0.286
-463.113	800.000	-0.089	0.356
-462.099	-152.956	0.196	0.014
-461.084	-138.441	-0.385	0.043
-460.070	401.196	0.051	0.108
-459.055	-200.000	-0.050	-0.255
-458.040	152.881	-0.055	0.076
-457.026	-200.000	-0.024	0.396
-456.011	-60.825	-0.274	0.117
-454.997	-63.310	-0.259	0.108
-453.982	-131.396	0.412	0.055
-452.968	-51.498	-0.423	-0.200
-451.953	139.711	0.078	-0.103
-450.938	22.481	0.246	0.204
-449.924	-41.551	0.229	-0.119
-448.909	-183.847	-0.287	0.005
-447.895	49.774	0.203	0.194
-446.880	-83.398	0.380	-0.123
-445.865	13.960	0.088	0.069
-444.851	-19.880	0.297	-0.186
-443.836	435.604	0.060	-0.131
-442.822	-146.396	-0.229	-0.020
-441.807	-11.664	0.265	-0.176
-440.792	800.000	0.120	-0.395
-439.778	-200.000	-0.013	-0.171
-438.763	-70.183	-0.239	0.092
-437.749	-8.239	0.381	-0.259
-436.734	-200.000	0.053	-0.277
-435.719	77.157	0.191	-0.206
-434.705	800.000	0.069	0.226
-433.690	-121.627	-0.026	0.004
-432.676	32.720	0.145	-0.127
-431.661	-200.000	-0.006	-0.163
-430.646	-200.000	0.046	0.344
-429.632	-9.460	-0.181	0.122
-428.617	-116.896	0.192	0.036
-427.603	-28.304	0.366	0.213
-426.588	-81.230	-0.149	0.050
-425.573	-31.891	-0.124	0.070
-424.559	478.521	0.082	-0.187
-423.544	21.280	0.206	0.169
-422.530	2.623	0.218	0.159
-421.515	84.647	0.119	-0.131
-420.500	-97.694	0.087	-0.023
-419.486	78.596	0.154	-0.166
-418.471	-130.231	-0.282	0.039
-417.457	-123.857	0.095	0.015
-416.442	125.069	0.043	-0.055
-415.428	74.421	-0.054	0.058
-414.413	-200.000	0.018	0.130
-413.398	-53.692	-0.011	-0.005
-412.384	-200.000	0.022	-0.180
-411.369	471.621	-0.038	-0.085
-410.355	127.697	0.025	-0.033
-409.340	800.000	-0.064	-0.281
-408.325	10.722	-0.287	-0.221
-407.311	13.150	-0.062	0.048
-406.296	-5.604	-0.088	0.061
-405.282	135.967	-0.091	-0.120
-404.267	-145.877	-0.287	0.026
-403.252	786.456	-0.056	-0.154
-402.238	119.124	0.160	-0.200
-401.223	-36.250	0.073	-0.039
-400.209	68.339	-0.155	-0.161
-399.194	-54.748	-0.176	0.080
-398.179	-200.000	-0.044	0.329
-397.165	260.205	0.115	0.200
-396.150	37.824	-0.256	0.229
-395.136	25.120	0.148	-0.124
-394.121	675.526	0.055	0.145
-393.106	-200.000	0.033	-0.228
-392.092	0.002	0.041	-0.029
-391.077	408.219	-0.080	0.170
-390.063	-168.682	-0.132	0.005
-389.048	-200.000	0.015	-0.372
-388.033	-106.841	0.199	-0.044
-387.019	-69.256	0.216	0.084
-386.004	-93.801	-0.158	-0.044
-384.990	30.261	0.057	-0.049
-383.975	-200.000	-0.078	-0.422
-382.960	259.574	0.136	0.236
-381.946	-73.494	0.489	-0.180
-380.931	800.000	0.066	-0.200
-379.917	800.000	0.033	0.122
-378.902	-200.000	-0.021	0.116
-377.888	800.000	-0.061	0.250
-376.873	800.000	0.093	-0.374
-375.858	505.191	0.051	-0.120
-374.844	-105.350	0.230	-0.053
-373.829	-160.873	-0.134	-0.007
-372.815	30.680	0.140	0.121
-371.800	-126.877	-0.118	-0.018
-370.785	-166.029	0.301	0.013
-369.771	-30.705	-0.230	-0.131
-368.756	-200.000	-0.023	-0.144
-367.742	142.464	-0.157	0.210
-366.727	63.081	-0.223	-0.225
-365.712	680.669	-0.087	-0.229
-364.698	-200.000	-0.055	-0.287
-363.683	55.179	0.298	0.290
-362.669	2.306	0.258	0.188
-361.654	-200.000	-0.009	-0.194
-360.639	-91.205	0.172	0.050
-359.625	-200.000	0.018	-0.097
-358.610	-79.416	-0.133	-0.045
-357.596	-59.145	0.225	0.098
-356.581	-35.039	-0.041	-0.023
-355.566	-31.020	-0.283	0.161
-354.552	-200.000	0.005	0.205
-353.537	-83.150	0.260	-0.084
-352.523	-120.739	-0.284	-0.048
-351.508	75.630	0.103	0.109
-350.493	-72.994	0.394	-0.146
-349.479	-190.595	0.192	0.002
-348.464	-15.290	0.175	0.113
-347.450	11.797	-0.138	0.107
-346.435	-96.835	0.118	-0.031
-345.420	-65.068	0.177	-0.072
-344.406	-200.000	-0.182	0.001
-343.391	-73.831	-0.268	-0.098
-342.377	800.000	-0.050	-0.199
-341.362	-12.177	0.241	-0.159
-340.348	55.503	-0.286	-0.279
-339.333	28.021	0.119	0.101
-338.318	800.000	-0.103	0.295
-337.304	23.412	-0.149	-0.123
-336.289	85.359	0.072	0.079
-335.275	-83.891	0.327	0.105
-334.260	-105.583	-0.154	0.035
-333.245	-200.000	0.084	-0.430
-332.231	48.654	-0.123	-0.116
-331.216	-107.165	-0.133	-0.029
-330.202	-43.271	-0.178	-0.091
-329.187	267.167	-0.187	0.330
-328.172	-53.756	0.065	-0.030
-327.158	-61.015	0.173	-0.074
-326.143	437.727	-0.132	0.291
-325.129	-24.770	0.151	0.090
-324.114	188.229	-0.095	-0.142
-323.099	-200.000	-0.001	-0.062
-322.085	-119.075	0.124	0.022
-321.070	-200.000	-0.001	-0.324
-320.056	-48.715	-0.439	-0.212
-319.041	156.618	0.100	0.139
-318.026	41.266	0.275	0.250
-317.012	236.581	-0.015	0.025
-315.997	-4.232	-0.270	0.188
-314.983	76.799	0.047	0.050
-313.968	-168.848	-0.220	0.008
-312.953	764.015	-0.040	0.110
-311.939	390.681	0.009	-0.018
-310.924	25.086	-0.157	0.131
-309.910	33.543	0.233	-0.203
-308.895	800.000	0.058	0.187
-307.880	-10.578	0.201	0.134
-306.866	-32.333	-0.123	0.069
-305.851	429.753	0.111	0.240
-304.837	187.445	-0.036	-0.054
-303.822	-66.083	-0.122	-0.049
-302.807	96.505	0.248	0.285
-301.793	-200.000	0.033	-0.235
-300.778	-199.516	0.228	-0.001
-299.764	-200.000	0.002	0.203
-298.749	-200.000	-0.017	0.079
-297.735	-37.766	-0.145	0.078
-296.720	-1.521	0.114	-0.081
-295.705	800.000	-0.024	0.090
-294.691	10.618	-0.078	0.060
-293.676	50.549	0.122	-0.116
-292.662	118.089	-0.048	0.059
-291.647	23.833	0.095	-0.078
-290.632	295.621	0.069	0.127
-289.618	413.608	0.166	-0.355
-288.603	-200.000	0.000	-0.101
-287.589	800.000	0.059	0.231
-286.574	800.000	0.101	-0.290
-285.559	368.442	-0.042	-0.084
-284.545	800.000	0.043	0.138
-283.530	376.508	-0.155	0.317
-282.516	-111.254	-0.254	0.052
-281.501	-200.000	0.025	0.156
-280.486	800.000	-0.086	-0.241
-279.472	40.880	-0.202	0.183
-278.457	-32.164	0.267	-0.150
-277.443	-189.360	-0.100	-0.001
-276.428	386.850	0.082	-0.171
-275.413	506.488	0.166	0.388
-274.399	-200.000	-0.000	-0.171
-273.384	168.545	-0.084	-0.120
-272.370	-124.871	0.233	0.036
-271.355	-127.042	-0.416	-0.061
-270.340	-146.502	-0.110	0.010
-269.326	370.963	-0.049	0.099
-268.311	305.618	0.087	-0.163
-267.297	800.000	-0.085	0.359
-266.282	677.393	0.127	0.332
-265.267	12.833	-0.124	0.096
-264.253	61.248	0.270	-0.269
-263.238	-23.031	0.187	0.113
-262.224	-31.837	-0.148	0.083
-261.209	-75.605	0.272	0.097
-260.195	-200.000	0.042	0.341
-259.180	-1.315	0.204	-0.144
-258.165	14.917	-0.260	-0.204
-257.151	371.260	0.075	0.153
-256.136	-146.604	0.365	-0.032
-255.122	428.249	0.184	0.399
-254.107	-119.704	-0.085	-0.015
-253.092	-131.987	-0.290	0.038
-252.078	354.614	0.119	-0.237
-251.063	-96.485	0.439	-0.116
-250.049	7.781	-0.306	-0.230
-249.034	179.290	-0.156	-0.228
-248.019	-200.000	0.015	0.281
-247.005	-200.000	0.005	0.339
-245.990	165.754	-0.177	-0.251
-244.976	-17.343	-0.166	-0.105
-243.961	-118.669	0.169	0.030
-242.946	-140.351	-0.182	0.019
-241.932	-200.000	-0.045	0.220
-240.917	-36.083	0.155	-0.084
-239.903	571.102	-0.037	-0.091
-238.888	-72.389	-0.223	-0.083
-237.873	800.000	-0.028	-0.118
-236.859	-24.795	0.071	0.042
-235.844	192.550	-0.172	0.260
-234.830	-79.607	-0.214	0.072
-233.815	82.235	-0.093	-0.101
-232.800	-200.000	0.046	-0.418
-231.786	-115.284	0.175	0.033
-230.771	-12.173	-0.350	-0.229
-229.757	81.066	0.141	0.153
-228.742	-83.248	0.150	0.048
-227.727	107.513	0.088	-0.105
-226.713	-200.000	0.026	-0.251
-225.698	98.905	-0.193	-0.224
-224.684	-124.082	0.056	-0.009
-223.669	623.946	-0.122	-0.308
-222.655	800.000	0.018	0.080
-221.640	-200.000	-0.039	0.330
-220.625	239.542	-0.141	0.235
-219.611	-131.743	-0.063	0.008
-218.596	-17.165	-0.100	-0.063
-217.582	-200.000	-0.108	0.000
-216.567	-133.564	0.076	-0.009
-215.552	-101.819	0.088	-0.021
-214.538	-200.000	-0.006	-0.188
-213.523	237.719	0.068	0.113
-212.509	-90.201	0.290	0.084
-211.494	-100.965	0.235	0.058
-210.479	20.737	-0.266	-0.216
-209.465	32.093	0.061	0.052
-208.450	-93.903	0.210	-0.058
-207.436	324.139	-0.192	0.368
-206.421	-200.000	0.010	-0.254
-205.406	33.645	0.213	-0.186
-204.392	386.839	-0.131	0.271
-203.377	-106.682	-0.321	-0.072
-202.363	-200.000	-0.012	-0.074
-201.348	-47.576	0.432	0.210
-200.333	266.277	0.099	-0.174
-199.319	81.072	-0.042	0.045
-198.304	-30.032	0.304	-0.173
-197.290	-12.338	-0.267	0.175
-196.275	216.246	0.088	0.141
-195.260	229.190	0.206	-0.337
-194.246	64.309	0.121	0.122
-193.231	713.524	-0.091	0.240
-192.217	239.933	-0.215	-0.359
-191.202	-14.185	0.170	-0.109
-190.187	68.794	-0.179	-0.184
-189.173	-73.218	-0.207	0.076
-188.158	116.721	-0.122	0.150
-187.144	-91.641	0.119	-0.034
-186.129	115.017	-0.104	-0.127
-185.114	-200.000	0.022	-0.174
-184.100	524.682	-0.055	0.129
-183.085	22.829	-0.075	0.062
-182.071	178.770	-0.215	-0.314
-181.056	158.660	-0.242	-0.337
-180.042	-95.065	-0.043	0.012
-179.027	130.681	0.190	0.243
-178.012	-97.831	-0.160	-0.041
-176.998	45.061	-0.092	-0.085
-175.983	53.156	0.165	-0.158
-174.969	-200.000	-0.010	-0.235
-173.954	189.916	-0.146	-0.220
-172.939	-200.000	-0.004	0.183
-171.925	275.902	-0.049	0.087
-170.910	88.070	-0.114	0.126
-169.896	-200.000	-0.010	0.284
-168.881	128.211	-0.209	-0.266
-167.866	327.715	0.179	0.343
-166.852	-200.000	0.023	-0.182
-165.837	-5.017	0.270	0.186
-164.823	-70.714	-0.276	0.104
-163.808	-131.379	0.160	-0.021
-162.793	-10.865	-0.144	0.095
-161.779	116.890	-0.212	0.260
-160.764	231.988	0.095	-0.156
-159.750	800.000	0.022	-0.095
-158.735	742.305	0.073	0.197
-157.720	-200.000	0.057	-0.298
-156.706	489.309	-0.046	-0.105
-155.691	-200.000	-0.025	0.182
-154.677	27.426	-0.264	-0.222
-153.662	-200.000	0.050	0.283
-152.647	692.497	-0.057	0.150
-151.633	-5.675	-0.245	0.168
-150.618	44.616	0.202	0.186
-149.604	-111.536	0.123	-0.025
-148.589	-200.000	-0.039	0.371
-147.574	617.255	-0.059	0.147
-146.560	-61.265	0.206	0.087
-145.545	-175.016	0.043	0.001
-144.531	235.395	-0.250	0.413
-143.516	-27.110	-0.090	0.052
-142.502	-17.224	0.180	0.114
-141.487	146.956	-0.215	-0.289
-140.472	-21.364	0.160	-0.098
-139.458	-105.516	0.291	0.066
-138.443	-69.487	-0.383	-0.146
-137.429	-9.058	-0.209	0.140
-136.414	-29.235	0.075	-0.043
-135.399	-13.177	0.246	-0.159
-134.385	-56.719	0.300	-0.133
-133.370	16.028	-0.152	-0.120
-132.356	-24.416	0.237	0.141
-131.341	75.371	0.137	-0.144
-130.326	154.967	0.061	0.084
-129.312	420.496	-0.074	-0.159
-128.297	282.851	0.113	0.203
-127.283	-63.549	0.324	0.133
-126.268	-200.000	0.030	0.150
-125.253	-200.000	0.014	0.105
-124.239	-200.000	-0.037	-0.186
-123.224	37.409	0.157	0.139
-122.210	-64.754	0.174	0.070
-121.195	259.338	0.220	0.380
