DTS Sentinel unit serial number:	SN413079Multiplexer serial number:	ORYXHardware model number:	OX4-SRSoftware version number:	ORYX F/W v4.00 Oryx Data Collector v3.7.2.0data status	okinstallation	princeton_trtdifferential loss correction	single-endedforward channel	channel 3reverse channel	N/Adate	2019/09/12time	05:06:11forward acquisition time	60.00reverse acquisition time	0.00gamma	496.2192k internal	0.2322k external	0.2322temperature offset calibration	1.0038default loss term (dB/km)	0.3790temperature slope calibration	1.0000multiplexer offset coefficient	1.0000multiplexer slope coefficient	1.0000fibre end	0.00T internal ref (°C)	31.75T ext. ref 1 (°C)	1.68T ext. ref 2 (°C)	27.02length (m)	temperature (°C)	Stokes	anti-Stokes-747.200	-35.596	-0.339	0.186
-746.185	147.534	0.118	0.161
-745.171	-131.518	0.446	-0.059
-744.156	247.154	0.126	0.215
-743.142	-162.809	0.157	0.008
-742.127	-200.000	-0.040	0.478
-741.112	-200.000	0.039	0.226
-740.098	-43.404	-0.163	0.083
-739.083	167.321	0.321	0.461
-738.069	-182.527	0.159	0.003
-737.054	62.213	-0.160	0.161
-736.039	-51.849	-0.510	-0.240
-735.025	-45.400	0.116	0.058
-734.010	619.398	-0.022	-0.057
-732.996	-103.454	-0.278	0.066
-731.981	-19.492	0.195	-0.122
-730.966	-41.615	-0.140	0.073
-729.952	463.870	-0.120	-0.271
-728.937	-69.492	0.143	0.056
-727.923	-200.000	0.056	-0.334
-726.908	-169.787	-0.296	-0.011
-725.894	57.012	-0.082	0.080
-724.879	409.926	0.100	-0.214
-723.864	159.748	0.270	-0.380
-722.850	-25.785	-0.079	-0.047
-721.835	800.000	0.025	-0.095
-720.821	-83.493	0.411	-0.133
-719.806	194.577	0.170	0.261
-718.791	-200.000	0.049	0.336
-717.777	-151.093	-0.133	-0.010
-716.762	800.000	-0.059	-0.169
-715.748	520.134	0.026	0.062
-714.733	-95.422	0.246	0.067
-713.718	-200.000	-0.037	0.187
-712.704	-158.238	-0.386	0.023
-711.689	800.000	0.070	-0.224
-710.675	-200.000	-0.048	0.000
-709.660	20.535	-0.213	-0.174
-708.645	-137.121	0.324	-0.037
-707.631	372.559	-0.109	-0.224
-706.616	1.573	-0.223	-0.162
-705.602	-200.000	0.019	-0.241
-704.587	-56.835	-0.181	0.081
-703.572	338.489	0.197	-0.387
-702.558	-200.000	0.042	-0.197
-701.543	-66.208	-0.247	0.099
-700.529	-200.000	0.020	-0.146
-699.514	-48.657	-0.156	-0.076
-698.499	6.347	0.221	0.165
-697.485	-35.060	-0.313	0.172
-696.470	-24.013	0.278	-0.168
-695.456	3.403	-0.116	-0.086
-694.441	679.565	0.116	0.305
-693.426	-200.000	-0.016	0.133
-692.412	289.284	0.061	-0.112
-691.397	374.883	-0.049	-0.101
-690.383	204.500	-0.074	0.116
-689.368	265.001	-0.124	-0.219
-688.354	542.142	-0.059	0.143
-687.339	224.440	0.177	-0.288
-686.324	-141.353	0.299	0.031
-685.310	-44.971	-0.194	0.097
-684.295	112.493	0.177	-0.216
-683.281	50.236	-0.104	-0.099
-682.266	-125.750	-0.185	-0.028
-681.251	727.918	0.017	0.044
-680.237	-200.000	-0.006	-0.153
-679.222	-47.019	-0.120	0.059
-678.208	-141.083	0.260	-0.027
-677.193	76.155	-0.163	0.174
-676.178	-200.000	-0.060	-0.327
-675.164	-38.839	-0.166	-0.088
-674.149	237.260	0.054	0.091
-673.135	-200.000	-0.004	-0.065
-672.120	46.796	-0.224	0.210
-671.105	-73.891	0.141	0.052
-670.091	184.146	0.194	0.290
-669.076	-200.000	0.018	0.223
-668.062	-200.000	-0.038	-0.176
-667.047	661.497	0.004	0.011
-666.032	661.790	-0.127	0.330
-665.018	-61.595	0.187	-0.079
-664.003	173.846	-0.149	0.217
-662.989	147.398	0.153	0.207
-661.974	-119.773	0.204	-0.035
-660.959	5.685	0.250	-0.186
-659.945	260.261	0.121	0.210
-658.930	44.393	0.171	0.158
-657.916	735.029	-0.046	-0.125
-656.901	358.986	-0.118	-0.237
-655.886	3.541	-0.191	-0.141
-654.872	800.000	0.086	-0.371
-653.857	-39.283	-0.155	0.082
-652.843	-2.666	-0.143	-0.101
-651.828	800.000	0.064	0.273
-650.814	35.360	-0.304	-0.268
-649.799	201.834	-0.089	-0.138
-648.784	-129.864	0.113	-0.016
-647.770	800.000	-0.101	-0.364
-646.755	-200.000	-0.009	0.175
-645.741	-25.042	0.148	-0.088
-644.726	512.938	0.078	-0.183
-643.711	-123.367	0.180	-0.029
-642.697	-156.120	0.394	0.025
-641.682	313.755	-0.052	0.098
-640.668	-132.319	-0.211	0.027
-639.653	-80.416	-0.214	-0.072
-638.638	-200.000	0.050	0.316
-637.624	57.125	0.135	0.132
-636.609	-200.000	-0.012	-0.082
-635.595	94.940	-0.077	0.088
-634.580	487.382	0.092	-0.212
-633.565	-125.906	-0.137	0.021
-632.551	-200.000	-0.003	0.082
-631.536	0.442	-0.189	-0.136
-630.522	236.022	0.061	-0.101
-629.507	327.073	-0.162	0.312
-628.492	-40.298	0.149	-0.078
-627.478	800.000	-0.129	0.423
-626.463	-80.972	-0.572	0.191
-625.449	398.380	-0.137	0.288
-624.434	149.748	0.080	-0.109
-623.419	181.224	-0.076	-0.112
-622.405	-200.000	0.008	0.070
-621.390	136.395	0.200	-0.262
-620.376	-200.000	0.022	0.155
-619.361	-200.000	-0.043	-0.198
-618.346	800.000	0.073	-0.280
-617.332	-62.184	0.137	0.058
-616.317	-8.713	0.186	0.125
-615.303	79.551	0.025	0.027
-614.288	-116.328	-0.254	0.047
-613.273	-31.399	0.133	0.075
-612.259	-90.409	0.472	-0.137
-611.244	-68.710	-0.136	-0.053
-610.230	-200.000	-0.020	0.133
-609.215	-83.406	0.165	0.053
-608.201	-41.633	0.459	-0.237
-607.186	3.261	-0.112	0.082
-606.171	-200.000	0.044	0.209
-605.157	7.245	0.338	0.254
-604.142	50.759	0.271	-0.258
-603.128	-148.470	-0.195	0.016
-602.113	78.302	0.174	0.186
-601.098	-14.017	0.164	-0.107
-600.084	317.271	-0.107	-0.202
-599.069	-134.804	-0.352	0.043
-598.055	-98.435	0.212	-0.054
-597.040	59.961	0.228	-0.227
-596.025	-129.590	-0.236	-0.033
-595.011	13.271	-0.088	-0.068
-593.996	149.388	-0.372	-0.507
-592.982	-118.785	0.386	-0.068
-591.967	338.328	-0.105	-0.206
-590.952	-104.298	0.208	-0.048
-589.938	94.733	-0.085	-0.097
-588.923	566.258	0.109	-0.265
-587.909	68.460	0.103	-0.106
-586.894	507.680	-0.124	-0.289
-585.879	429.749	0.060	0.131
-584.865	-69.722	-0.377	-0.145
-583.850	-200.000	-0.024	-0.120
-582.836	-71.499	-0.214	-0.080
-581.821	-1.362	-0.065	-0.046
-580.806	-94.630	0.154	-0.042
-579.792	1.876	0.093	0.067
-578.777	279.984	-0.147	0.263
-577.763	-133.492	0.398	0.050
-576.748	429.543	0.104	-0.226
-575.733	-0.557	-0.117	0.084
-574.719	345.325	-0.151	-0.298
-573.704	-103.216	0.223	0.053
-572.690	-158.409	-0.226	-0.013
-571.675	70.473	-0.238	-0.247
-570.661	-200.000	-0.045	-0.265
-569.646	180.388	-0.063	-0.093
-568.631	-27.611	-0.094	0.055
-567.617	98.262	0.205	0.237
-566.602	107.995	0.046	-0.055
-565.588	-92.560	-0.219	-0.062
-564.573	-72.015	0.041	-0.015
-563.558	9.022	-0.233	0.177
-562.544	122.488	0.177	0.222
-561.529	-21.999	0.200	-0.122
-560.515	87.419	-0.112	-0.124
-559.500	-200.000	0.006	0.068
-558.485	-115.713	0.251	0.047
-557.471	181.917	-0.097	0.143
-556.456	170.429	0.158	0.226
-555.442	-44.598	0.139	0.070
-554.427	-70.856	0.314	0.119
-553.412	-200.000	0.068	0.360
-552.398	800.000	0.080	0.277
-551.383	46.562	-0.042	0.039
-550.369	208.024	0.069	0.108
-549.354	-147.895	-0.395	0.033
-548.339	357.121	0.036	0.072
-547.325	-170.501	-0.480	-0.017
-546.310	-95.098	-0.172	-0.047
-545.296	-91.671	0.163	-0.046
-544.281	22.667	-0.057	-0.047
-543.266	-118.854	-0.135	-0.024
-542.252	-128.036	0.144	0.021
-541.237	-147.010	0.214	0.018
-540.223	-167.487	0.302	-0.012
-539.208	-200.000	0.018	0.202
-538.193	625.625	-0.032	-0.082
-537.179	206.642	-0.139	0.218
-536.164	469.545	0.157	0.353
-535.150	-106.919	0.382	-0.085
-534.135	-16.105	0.223	0.142
-533.121	-200.000	0.017	0.187
-532.106	-200.000	-0.041	-0.203
-531.091	-109.074	-0.182	0.039
-530.077	-112.720	0.143	-0.028
-529.062	199.133	-0.104	-0.160
-528.048	70.405	-0.174	-0.180
-527.033	442.717	-0.109	0.240
-526.018	-59.167	-0.490	0.212
-525.004	800.000	-0.080	0.267
-523.989	155.618	0.070	0.097
-522.975	-200.000	-0.002	0.197
-521.960	139.029	0.096	-0.127
-520.945	-130.677	-0.129	-0.017
-519.931	565.409	0.117	0.284
-518.916	-200.000	0.058	0.308
-517.902	-113.407	0.096	0.019
-516.887	800.000	-0.053	-0.190
-515.872	800.000	-0.112	-0.368
-514.858	-200.000	0.004	0.118
-513.843	-200.000	0.010	0.298
-512.829	-69.758	0.169	0.065
-511.814	-138.644	-0.146	-0.016
-510.799	800.000	0.068	0.189
-509.785	-112.405	-0.066	-0.013
-508.770	-93.054	0.068	0.019
-507.756	-65.891	-0.338	0.135
-506.741	688.042	-0.133	0.348
-505.726	-109.177	-0.104	-0.022
-504.712	-34.047	-0.206	0.113
-503.697	58.507	0.041	0.041
-502.683	353.977	-0.124	-0.246
-501.668	-200.000	0.020	0.336
-500.653	-51.653	0.151	0.070
-499.639	-110.097	-0.139	-0.029
-498.624	-109.922	0.295	-0.062
-497.610	-200.000	0.040	-0.183
-496.595	256.850	-0.086	-0.148
-495.581	224.240	-0.096	0.155
-494.566	-200.000	-0.057	0.448
-493.551	196.237	-0.074	0.113
-492.537	-200.000	-0.042	0.396
-491.522	-200.000	-0.012	0.228
-490.508	-45.698	0.131	-0.065
-489.493	-115.350	-0.131	0.025
-488.478	166.003	0.157	0.222
-487.464	12.236	-0.208	0.160
-486.449	-110.187	0.086	-0.018
-485.435	192.191	-0.117	-0.176
-484.420	-148.302	0.227	-0.019
-483.405	413.892	-0.162	-0.344
-482.391	-45.630	0.112	0.055
-481.376	27.639	-0.055	-0.047
-480.362	-103.921	0.424	0.099
-479.347	-113.794	-0.229	0.045
-478.332	-140.730	0.230	-0.024
-477.318	153.100	0.170	-0.233
-476.303	73.680	-0.126	-0.132
-475.289	-200.000	0.051	-0.326
-474.274	89.095	0.109	0.121
-473.259	-200.000	-0.002	0.193
-472.245	-22.073	0.219	0.133
-471.230	-111.390	-0.019	-0.004
-470.216	-200.000	-0.012	0.074
-469.201	314.837	-0.183	-0.345
-468.186	133.680	-0.075	0.097
-467.172	-200.000	0.034	-0.441
-466.157	-200.000	-0.040	-0.449
-465.143	-200.000	-0.002	-0.158
-464.128	-93.045	-0.061	0.017
-463.113	800.000	0.050	0.181
-462.099	800.000	0.054	0.151
-461.084	23.070	-0.435	-0.357
-460.070	69.925	-0.031	0.032
-459.055	-47.987	0.253	-0.122
-458.040	-46.891	-0.227	-0.111
-457.026	-42.552	0.152	0.077
-456.011	273.550	-0.118	0.208
-454.997	-123.973	0.164	-0.026
-453.982	-101.644	0.188	-0.046
-452.968	-72.196	-0.294	-0.109
-451.953	-77.565	-0.047	0.016
-450.938	-200.000	-0.013	0.106
-449.924	-18.016	0.094	-0.059
-448.909	239.966	-0.128	-0.213
-447.895	-200.000	0.011	-0.305
-446.880	73.606	0.305	0.319
-445.865	137.022	-0.186	-0.243
-444.851	-30.678	-0.248	-0.140
-443.836	-116.329	0.147	-0.027
-442.822	144.546	0.103	0.137
-441.807	-200.000	-0.063	0.301
-440.792	-63.750	0.277	0.113
-439.778	-129.022	-0.141	-0.020
-438.763	-134.507	0.183	-0.022
-437.749	123.548	-0.252	-0.315
-436.734	178.857	-0.058	-0.085
-435.719	235.000	0.070	-0.115
-434.705	463.254	0.144	-0.321
-433.690	-98.827	0.154	0.039
-432.676	187.084	0.106	0.157
-431.661	-114.328	0.258	-0.050
-430.646	505.480	-0.088	-0.204
-429.632	48.509	0.085	-0.080
-428.617	405.085	-0.133	-0.279
-427.603	800.000	-0.081	0.249
-426.588	226.400	-0.071	0.115
-425.573	93.356	0.105	-0.119
-424.559	185.424	-0.053	-0.078
-423.544	241.292	-0.116	-0.194
-422.530	343.246	-0.023	-0.044
-421.515	-22.424	0.200	-0.121
-420.500	-156.517	0.323	0.020
-419.486	139.721	-0.223	-0.292
-418.471	5.248	-0.178	0.131
-417.457	166.042	-0.158	-0.224
-416.442	-61.855	0.188	0.079
-415.428	-31.002	-0.101	-0.057
-414.413	-84.287	0.216	-0.068
-413.398	-200.000	0.008	-0.050
-412.384	330.702	0.032	0.062
-411.369	-101.053	-0.445	0.109
-410.355	-191.107	0.034	0.000
-409.340	10.595	0.285	-0.217
-408.325	110.378	0.064	0.076
-407.311	-200.000	0.002	-0.184
-406.296	-106.919	0.213	0.047
-405.282	127.342	-0.101	-0.128
-404.267	565.151	0.109	-0.264
-403.252	-5.456	-0.173	-0.119
-402.238	-200.000	-0.060	-0.302
-401.223	450.839	-0.084	-0.185
-400.209	101.794	0.143	0.166
-399.194	-142.371	0.219	-0.022
-398.179	-53.814	-0.071	0.032
-397.165	-124.627	-0.111	0.017
-396.150	61.818	-0.106	-0.106
-395.136	27.646	0.170	-0.143
-394.121	6.663	-0.094	0.070
-393.106	-37.977	-0.449	0.238
-392.092	247.798	-0.036	-0.061
-391.077	-200.000	-0.012	0.236
-390.063	-200.000	0.020	-0.135
-389.048	27.052	0.231	0.193
-388.033	265.488	0.101	-0.176
-387.019	-200.000	-0.021	0.108
-386.004	3.195	-0.182	-0.132
-384.990	-185.566	0.119	-0.002
-383.975	-61.030	0.211	-0.089
-382.960	102.790	-0.179	-0.209
-381.946	180.131	-0.191	-0.279
-380.931	-65.178	0.180	-0.072
-379.917	-34.273	-0.229	-0.125
-378.902	-92.021	0.159	-0.045
-377.888	558.999	-0.110	0.264
-376.873	83.763	-0.134	0.146
-375.858	72.504	0.131	0.136
-374.844	-112.844	0.355	0.070
-373.829	-15.339	0.158	-0.100
-372.815	116.070	-0.166	0.203
-371.800	-165.334	0.343	0.015
-370.785	160.853	0.070	0.098
-369.771	800.000	-0.043	-0.119
-368.756	-91.004	-0.373	0.107
-367.742	95.732	0.031	-0.035
-366.727	-57.087	0.407	0.179
-365.712	153.303	0.165	0.225
-364.698	93.379	0.201	0.226
-363.683	2.162	-0.082	0.059
-362.669	800.000	-0.085	-0.358
-361.654	-117.537	-0.076	-0.014
-360.639	-200.000	0.258	0.000
-359.625	-200.000	0.056	0.403
-358.610	1.337	0.152	-0.109
-357.596	-128.499	-0.242	-0.034
-356.581	-72.957	0.185	0.068
-355.566	1.786	-0.137	-0.098
-354.552	-73.856	0.249	0.090
-353.537	-129.759	0.153	-0.021
-352.523	145.827	0.183	-0.244
-351.508	-93.948	0.370	-0.101
-350.493	-51.285	-0.280	-0.130
-349.479	8.570	0.156	-0.117
-348.464	-85.159	0.190	0.059
-347.450	-200.000	-0.025	-0.228
-346.435	276.304	0.038	0.067
-345.420	132.334	-0.166	0.213
-344.406	-16.983	-0.272	-0.171
-343.391	-200.000	-0.034	0.473
-342.377	-200.000	0.028	0.143
-341.362	272.483	0.179	0.314
-340.348	103.299	0.141	-0.164
-339.333	-107.790	-0.148	-0.032
-338.318	32.797	0.167	0.144
-337.304	-85.830	0.061	0.019
-336.289	-55.439	-0.269	0.120
-335.275	98.636	0.100	-0.115
-334.260	363.615	-0.020	0.040
-333.245	172.136	0.149	-0.213
-332.231	101.133	-0.133	-0.154
-331.216	-200.000	-0.024	0.190
-330.202	-121.442	-0.278	-0.046
-329.187	-146.193	-0.444	-0.039
-328.172	208.788	-0.059	0.091
-327.158	-12.250	-0.372	0.242
-326.143	-200.000	-0.009	-0.169
-325.129	-35.507	-0.238	-0.128
-324.114	216.888	0.029	-0.045
-323.099	205.218	-0.134	0.206
-322.085	-180.790	-0.228	-0.005
-321.070	-200.000	-0.001	0.310
-320.056	653.642	-0.096	0.246
-319.041	108.377	0.164	-0.194
-318.026	84.306	-0.075	-0.081
-317.012	-136.373	0.355	-0.041
-315.997	193.404	-0.101	0.152
-314.983	-98.111	0.445	0.114
-313.968	-77.303	-0.246	-0.085
-312.953	-200.000	0.027	-0.178
-311.939	-38.030	-0.230	0.121
-310.924	-200.000	0.042	0.274
-309.910	-200.000	0.019	-0.154
-308.895	15.169	-0.070	-0.055
-307.880	-47.036	0.242	-0.117
-306.866	-132.347	-0.073	0.009
-305.851	-200.000	0.045	0.225
-304.837	77.658	0.152	0.161
-303.822	-200.000	-0.044	-0.208
-302.807	-67.691	-0.193	0.075
-301.793	-68.555	0.217	-0.083
-300.778	429.640	0.030	-0.065
-299.764	-200.000	0.001	0.166
-298.749	-200.000	-0.177	0.001
-297.735	-27.301	0.093	0.054
-296.720	139.981	-0.122	-0.160
-295.705	191.400	-0.071	0.107
-294.691	-71.894	0.185	0.068
-293.676	338.721	0.129	0.250
-292.662	800.000	0.031	-0.109
-291.647	14.420	0.106	-0.082
-290.632	-56.423	0.244	-0.107
-289.618	-84.497	-0.112	-0.035
-288.603	-200.000	-0.002	0.160
-287.589	-119.927	0.227	0.039
-286.574	173.573	-0.245	-0.350
-285.559	-158.855	-0.021	0.001
-284.545	-40.819	-0.392	0.202
-283.530	-200.000	0.049	0.400
-282.516	134.868	-0.176	-0.227
-281.501	-166.332	-0.571	0.024
-280.486	470.461	0.060	0.133
-279.472	-156.787	0.143	0.009
-278.457	-80.304	0.100	-0.033
-277.443	-200.000	-0.001	-0.155
-276.428	203.374	-0.052	-0.079
-275.413	261.767	-0.165	-0.284
-274.399	-153.153	-0.234	-0.016
-273.384	-139.369	0.198	-0.021
-272.370	69.073	0.175	0.178
-271.355	-58.918	-0.142	-0.061
-270.340	105.870	-0.152	0.178
-269.326	-200.000	0.035	0.223
-268.311	222.918	-0.066	-0.106
-267.297	369.408	0.023	-0.046
-266.282	-148.118	0.075	-0.006
-265.267	-200.000	0.007	-0.248
-264.253	-200.000	0.024	-0.135
-263.238	30.547	-0.291	0.247
-262.224	-57.710	-0.288	-0.125
-261.209	640.173	0.112	0.282
-260.195	352.118	0.026	0.050
-259.180	-4.198	0.336	0.230
-258.165	-200.000	-0.016	0.286
-257.151	30.684	0.210	0.178
-256.136	38.711	0.173	-0.153
-255.122	697.235	0.052	0.135
-254.107	-55.967	0.199	0.088
-253.092	-155.522	-0.156	-0.010
-252.078	10.527	0.020	-0.015
-251.063	800.000	-0.064	0.184
-250.049	-35.575	0.116	0.063
-249.034	552.814	-0.108	-0.258
-248.019	517.136	0.068	-0.158
-247.005	-200.000	0.004	-0.223
-245.990	104.004	0.182	-0.212
-244.976	351.425	0.043	0.084
-243.961	-105.529	0.170	0.038
-242.946	-87.161	-0.274	0.083
-241.932	800.000	0.018	0.060
-240.917	-35.447	0.116	-0.062
-239.903	28.514	-0.087	0.073
-238.888	114.112	-0.086	-0.103
-237.873	-200.000	-0.050	-0.366
-236.859	-200.000	-0.029	-0.435
-235.844	181.391	-0.168	0.244
-234.830	-121.570	0.234	-0.038
-233.815	301.209	-0.058	-0.106
-232.800	505.438	-0.114	-0.261
-231.786	-32.680	-0.228	-0.126
-230.771	-129.136	-0.246	0.034
-229.757	284.872	0.209	0.372
-228.742	3.722	0.262	0.189
-227.727	250.672	0.117	-0.197
-226.713	800.000	-0.037	0.103
-225.698	267.684	-0.118	0.205
-224.684	800.000	-0.047	-0.176
-223.669	-51.461	0.182	0.084
-222.655	101.679	-0.154	0.178
-221.640	-89.457	-0.160	-0.047
-220.625	-45.998	-0.067	0.033
-219.611	43.282	-0.013	0.012
-218.596	259.108	0.096	-0.163
-217.582	-66.760	0.436	0.171
-216.567	59.148	-0.257	0.250
-215.552	14.542	-0.289	0.223
-214.538	-200.000	-0.019	0.219
-213.523	800.000	0.066	0.259
-212.509	157.161	0.047	0.065
-211.494	139.123	0.105	-0.137
-210.479	14.400	-0.207	-0.159
-209.465	-72.876	0.279	-0.102
-208.450	764.900	-0.120	-0.322
-207.436	-69.047	0.113	0.043
-206.421	-54.800	-0.163	-0.073
-205.406	61.138	0.158	-0.155
-204.392	-136.529	-0.163	0.019
-203.377	6.889	-0.176	0.129
-202.363	56.902	0.031	0.030
-201.348	64.094	0.214	0.213
-200.333	295.197	-0.117	0.212
-199.319	800.000	0.022	0.078
-198.304	-38.870	-0.114	-0.059
-197.290	70.741	0.182	0.186
-196.275	14.601	0.045	0.035
-195.260	-200.000	0.029	0.182
-194.246	-85.433	-0.171	-0.053
-193.231	364.176	0.138	0.275
-192.217	-114.156	0.064	0.012
-191.202	114.854	0.157	-0.190
-190.187	-102.802	-0.185	-0.043
-189.173	-177.670	-0.237	0.006
-188.158	367.517	0.142	0.284
-187.144	-87.279	-0.321	0.096
-186.129	-189.525	0.180	0.002
-185.114	100.764	-0.108	0.124
-184.100	466.744	0.180	0.399
-183.085	20.364	0.052	0.042
-182.071	-200.000	-0.005	-0.120
-181.056	266.625	-0.081	-0.140
-180.042	345.118	-0.118	-0.229
-179.027	-148.787	-0.328	0.026
-178.012	87.806	-0.118	-0.129
-176.998	-131.582	-0.136	-0.018
-175.983	69.470	-0.377	0.383
-174.969	-13.398	-0.105	-0.067
-173.954	-162.496	0.139	0.007
-172.939	800.000	-0.105	0.293
-171.925	-188.572	0.120	0.001
-170.910	86.585	0.063	0.069
-169.896	-88.299	-0.210	0.062
-168.881	69.708	0.207	-0.211
-167.866	199.486	0.083	-0.126
-166.852	800.000	0.031	-0.094
-165.837	25.562	0.297	-0.244
-164.823	79.969	0.121	-0.129
-163.808	475.561	0.114	-0.254
-162.793	604.537	-0.026	-0.064
-161.779	800.000	-0.024	0.086
-160.764	-79.455	-0.189	0.063
-159.750	-44.635	0.293	-0.145
-158.735	29.175	-0.040	-0.034
-157.720	132.719	-0.323	-0.412
-156.706	97.774	-0.106	0.120
-155.691	-200.000	-0.036	-0.246
-154.677	-40.278	0.152	-0.078
-153.662	-200.000	0.020	-0.194
-152.647	-200.000	0.039	0.235
-151.633	800.000	-0.116	-0.468
-150.618	-156.980	-0.045	0.003
-149.604	-200.000	-0.022	-0.346
-148.589	-27.002	0.137	0.079
-147.574	-107.823	0.239	-0.051
-146.560	527.499	-0.077	-0.178
-145.545	-200.000	-0.012	0.102
-144.531	-143.805	0.220	-0.021
-143.516	-169.942	0.109	0.004
-142.502	-34.701	0.272	0.147
-141.487	69.049	0.214	-0.217
-140.472	201.404	0.127	0.193
-139.458	527.096	-0.076	-0.177
-138.443	800.000	-0.111	0.444
-137.429	62.423	0.157	-0.155
-136.414	800.000	0.050	-0.181
-135.399	259.438	0.098	-0.167
-134.385	314.071	-0.078	0.145
-133.370	-8.520	0.302	0.200
-132.356	62.240	-0.049	-0.048
-131.341	-69.165	0.519	-0.197
-130.326	178.885	-0.042	-0.061
-129.312	0.369	-0.139	-0.098
-128.297	-200.000	0.027	0.298
-127.283	-200.000	-0.001	-0.046
-126.268	-79.602	0.124	-0.041
-125.253	472.295	-0.038	-0.084
-124.239	84.642	0.123	0.133
-123.224	338.290	0.009	0.018
-122.210	-200.000	-0.009	-0.038
-121.195	-33.770	-0.045	-0.025
