DTS Sentinel unit serial number:	SN413079Multiplexer serial number:	ORYXHardware model number:	OX4-SRSoftware version number:	ORYX F/W v4.00 Oryx Data Collector v3.7.2.0data status	okinstallation	princeton_trtdifferential loss correction	single-endedforward channel	channel 3reverse channel	N/Adate	2019/09/11time	19:14:11forward acquisition time	60.00reverse acquisition time	0.00gamma	496.2192k internal	0.2293k external	0.2293temperature offset calibration	1.0010default loss term (dB/km)	0.3790temperature slope calibration	1.0000multiplexer offset coefficient	1.0000multiplexer slope coefficient	1.0000fibre end	0.00T internal ref (°C)	41.42T ext. ref 1 (°C)	1.30T ext. ref 2 (°C)	33.69length (m)	temperature (°C)	Stokes	anti-Stokes-747.200	800.000	0.082	-0.256
-746.185	-130.170	-0.101	-0.014
-745.171	-122.297	0.276	0.046
-744.156	800.000	-0.081	-0.246
-743.142	112.860	-0.143	0.177
-742.127	800.000	-0.119	0.491
-741.112	-96.263	-0.327	-0.089
-740.098	800.000	0.072	-0.214
-739.083	71.280	0.018	-0.019
-738.069	210.445	-0.222	0.357
-737.054	60.139	-0.306	0.309
-736.039	157.621	0.115	-0.163
-735.025	213.149	0.139	0.225
-734.010	-40.031	-0.110	0.059
-732.996	-101.791	-0.369	-0.091
-731.981	-200.000	0.002	0.360
-730.966	-200.000	-0.047	0.305
-729.952	-73.479	-0.345	-0.129
-728.937	-91.965	-0.160	-0.046
-727.923	-32.705	-0.296	-0.168
-726.908	23.783	-0.082	0.069
-725.894	-13.453	-0.089	0.059
-724.879	34.921	0.231	-0.207
-723.864	244.642	-0.202	0.346
-722.850	135.137	0.123	0.164
-721.835	-149.797	-0.291	0.023
-720.821	-200.000	0.006	0.190
-719.806	72.092	-0.198	-0.211
-718.791	-177.904	-0.249	-0.006
-717.777	-131.316	0.277	0.038
-716.762	-3.065	0.314	-0.224
-715.748	1.543	-0.108	0.079
-714.733	12.982	0.268	0.212
-713.718	781.599	0.079	-0.222
-712.704	197.736	-0.110	0.172
-711.689	21.557	0.073	-0.061
-710.675	-142.494	-0.413	-0.041
-709.660	17.932	-0.247	0.201
-708.645	290.133	-0.141	0.261
-707.631	-76.454	0.197	0.071
-706.616	-28.193	0.177	-0.105
-705.602	-34.547	-0.136	0.076
-704.587	-200.000	0.057	-0.316
-703.572	800.000	-0.031	0.123
-702.558	800.000	-0.080	-0.237
-701.543	225.465	-0.093	-0.153
-700.529	184.338	-0.192	-0.290
-699.514	137.846	-0.089	-0.119
-698.499	470.948	-0.059	-0.137
-697.485	-34.580	0.323	-0.181
-696.470	800.000	0.034	0.102
-695.456	-200.000	0.025	-0.113
-694.441	-200.000	-0.011	-0.188
-693.426	149.132	0.118	-0.162
-692.412	800.000	-0.046	-0.160
-691.397	-95.154	0.149	-0.041
-690.383	800.000	-0.104	-0.418
-689.368	-3.555	-0.151	-0.107
-688.354	-12.871	-0.159	-0.106
-687.339	332.887	0.122	-0.242
-686.324	387.080	0.073	-0.154
-685.310	-200.000	-0.021	0.139
-684.295	-19.111	-0.219	-0.139
-683.281	3.201	-0.090	-0.067
-682.266	165.299	-0.029	-0.041
-681.251	227.953	0.054	-0.089
-680.237	16.741	-0.143	-0.115
-679.222	128.603	0.125	-0.163
-678.208	800.000	-0.027	-0.102
-677.193	57.337	-0.176	-0.175
-676.178	-200.000	-0.009	0.125
-675.164	-200.000	0.001	0.128
-674.149	688.075	0.123	0.327
-673.135	54.235	-0.318	-0.313
-672.120	42.648	-0.024	0.022
-671.105	0.811	-0.226	0.165
-670.091	-200.000	-0.013	-0.468
-669.076	-129.786	0.259	0.036
-668.062	800.000	0.090	-0.287
-667.047	800.000	-0.096	-0.353
-666.032	-5.967	-0.118	0.082
-665.018	-51.862	0.134	-0.064
-664.003	41.682	0.134	-0.124
-662.989	667.283	0.025	0.065
-661.974	800.000	0.045	0.165
-660.959	45.180	-0.157	-0.148
-659.945	321.309	-0.096	0.185
-658.930	444.963	0.081	0.181
-657.916	129.205	0.219	-0.285
-656.901	-81.049	0.274	-0.092
-655.886	558.301	-0.053	0.129
-654.872	-142.952	0.161	-0.016
-653.857	283.150	0.026	0.047
-652.843	-73.510	-0.373	-0.139
-651.828	415.821	0.125	-0.272
-650.814	15.286	-0.112	0.090
-649.799	-96.753	0.271	-0.073
-648.784	-18.528	0.216	0.137
-647.770	656.753	0.078	0.203
-646.755	800.000	0.011	0.041
-645.741	800.000	0.019	-0.055
-644.726	203.929	-0.050	0.079
-643.711	15.154	0.028	-0.023
-642.697	-10.149	0.312	0.211
-641.682	-77.520	-0.100	-0.035
-640.668	-49.412	0.068	0.033
-639.653	-0.691	-0.327	0.236
-638.638	-14.101	0.427	0.281
-637.624	-101.033	0.226	0.056
-636.609	402.503	-0.109	-0.233
-635.595	-83.337	-0.259	0.085
-634.580	-33.563	-0.369	0.208
-633.565	-14.425	-0.160	0.105
-632.551	156.960	-0.231	-0.326
-631.536	-166.571	-0.049	0.002
-630.522	35.721	0.126	-0.113
-629.507	39.294	0.291	0.265
-628.492	27.095	0.250	0.214
-627.478	-69.889	0.169	0.066
-626.463	94.625	0.028	0.033
-625.449	109.050	-0.060	0.073
-624.434	-200.000	0.009	0.108
-623.419	410.159	0.073	-0.157
-622.405	768.186	0.133	0.368
-621.390	-75.798	0.199	-0.072
-620.376	-101.943	0.106	-0.026
-619.361	800.000	-0.099	-0.331
-618.346	-200.000	0.048	0.249
-617.332	800.000	-0.125	0.448
-616.317	221.330	-0.129	-0.212
-615.303	26.525	-0.323	-0.275
-614.288	224.029	0.090	0.148
-613.273	21.501	0.097	0.080
-612.259	-85.950	-0.334	0.105
-611.244	179.606	0.134	-0.199
-610.230	455.131	0.059	-0.134
-609.215	-200.000	0.013	0.229
-608.201	345.264	-0.112	0.224
-607.186	-200.000	-0.019	-0.166
-606.171	800.000	0.097	0.315
-605.157	-61.443	-0.428	0.183
-604.142	-79.736	-0.165	0.057
-603.128	20.891	0.155	-0.128
-602.113	0.687	0.223	-0.163
-601.098	-151.950	0.054	-0.004
-600.084	111.310	0.159	0.195
-599.069	728.942	0.040	-0.108
-598.055	-50.867	0.101	0.049
-597.040	253.326	0.071	-0.124
-596.025	50.892	-0.162	-0.156
-595.011	-151.322	0.246	-0.019
-593.996	-200.000	-0.001	-0.011
-592.982	330.336	-0.111	-0.218
-591.967	-200.000	-0.043	-0.267
-590.952	-200.000	-0.011	0.561
-589.938	129.919	-0.097	-0.127
-588.923	-41.666	-0.230	-0.120
-587.909	-23.892	-0.324	0.197
-586.894	-83.383	-0.078	-0.025
-585.879	304.243	-0.100	-0.189
-584.865	311.855	0.157	-0.299
-583.850	-200.000	0.025	-0.120
-582.836	44.863	0.214	-0.201
-581.821	-200.000	-0.015	0.075
-580.806	-23.282	0.089	-0.054
-579.792	-200.000	0.026	0.147
-578.777	24.241	-0.095	-0.080
-577.763	51.074	0.222	-0.214
-576.748	-3.169	-0.252	-0.179
-575.733	-200.000	-0.040	0.276
-574.719	-146.282	0.266	0.024
-573.704	-64.311	-0.203	-0.084
-572.690	88.855	-0.217	-0.246
-571.675	-200.000	-0.049	-0.246
-570.661	800.000	-0.040	0.147
-569.646	-200.000	0.032	0.234
-568.631	687.666	-0.135	0.358
-567.617	22.400	-0.227	0.189
-566.602	420.408	-0.111	-0.241
-565.588	-200.000	0.000	-0.207
-564.573	-40.106	0.150	-0.079
-563.558	171.838	-0.074	-0.107
-562.544	-113.483	-0.188	-0.037
-561.529	137.335	0.067	-0.090
-560.515	800.000	-0.029	-0.103
-559.500	177.416	-0.184	0.272
-558.485	159.445	0.114	-0.161
-557.471	442.502	0.091	-0.203
-556.456	800.000	-0.089	-0.289
-555.442	-83.106	-0.080	0.026
-554.427	64.913	-0.201	-0.206
-553.412	-200.000	-0.082	-0.000
-552.398	-137.590	-0.184	0.021
-551.383	-65.549	-0.153	-0.062
-550.369	130.231	-0.013	-0.017
-549.354	242.083	-0.018	-0.031
-548.339	15.202	0.198	-0.157
-547.325	-25.374	-0.227	-0.136
-546.310	-31.900	-0.115	0.065
-545.296	52.209	0.175	0.170
-544.281	-2.211	0.126	0.090
-543.266	-200.000	0.015	-0.266
-542.252	800.000	-0.045	0.154
-541.237	-77.759	-0.238	0.083
-540.223	288.081	0.145	0.267
-539.208	773.451	-0.040	-0.110
-538.193	800.000	0.044	-0.186
-537.179	-200.000	-0.021	0.164
-536.164	800.000	-0.131	-0.383
-535.150	-70.586	-0.401	-0.154
-534.135	32.430	-0.194	0.170
-533.121	711.231	0.082	-0.220
-532.106	800.000	0.098	0.434
-531.091	-200.000	0.008	-0.188
-530.077	-23.199	-0.182	0.111
-529.062	32.475	-0.055	-0.048
-528.048	800.000	-0.035	0.135
-527.033	-37.588	-0.230	0.124
-526.018	-34.839	-0.361	0.200
-525.004	-52.683	-0.194	-0.091
-523.989	-6.037	0.283	-0.196
-522.975	-172.538	-0.431	-0.014
-521.960	-200.000	0.033	0.290
-520.945	207.080	-0.178	0.282
-519.931	252.943	-0.110	0.190
-518.916	800.000	-0.082	0.292
-517.902	52.473	0.152	0.147
-516.887	-63.242	0.160	-0.067
-515.872	197.455	-0.153	-0.238
-514.858	800.000	0.038	0.113
-513.843	-70.082	-0.348	0.134
-512.829	-200.000	-0.048	0.213
-511.814	462.378	0.076	0.172
-510.799	-200.000	-0.003	-0.238
-509.785	-106.977	-0.218	-0.049
-508.770	-200.000	0.007	0.068
-507.756	-62.783	0.208	-0.087
-506.741	33.418	0.204	0.180
-505.726	112.938	-0.250	-0.308
-504.712	800.000	0.100	0.286
-503.697	-114.313	-0.093	0.018
-502.683	48.275	-0.157	0.149
-501.668	-52.496	0.162	0.076
-500.653	-21.697	-0.040	0.024
-499.639	713.133	-0.158	0.423
-498.624	-88.132	0.256	-0.078
-497.610	-200.000	-0.013	0.116
-496.595	-146.992	-0.130	-0.011
-495.581	140.591	0.146	0.196
-494.566	485.563	-0.115	0.265
-493.551	102.040	0.219	-0.259
-492.537	276.172	-0.087	-0.156
-491.522	-185.082	-0.140	0.002
-490.508	-200.000	0.008	-0.165
-489.493	-110.591	0.161	-0.034
-488.478	-65.076	-0.058	0.024
-487.464	-200.000	-0.040	0.548
-486.449	-92.507	0.382	0.109
-485.435	-160.542	0.129	-0.007
-484.420	-46.999	-0.185	0.092
-483.405	1.129	0.135	-0.098
-482.391	7.153	-0.137	-0.103
-481.376	239.905	-0.038	-0.065
-480.362	102.794	0.124	0.147
-479.347	-139.768	0.416	0.045
-478.332	23.735	-0.261	-0.217
-477.318	-30.472	-0.250	0.144
-476.303	391.997	0.045	0.095
-475.289	251.044	-0.101	0.174
-474.274	188.788	-0.308	-0.467
-473.259	-67.127	-0.093	0.037
-472.245	-67.644	0.240	-0.095
-471.230	-200.000	-0.023	-0.267
-470.216	7.037	0.030	-0.023
-469.201	-200.000	0.027	0.241
-468.186	-200.000	0.017	-0.128
-467.172	70.849	-0.042	0.044
-466.157	405.426	0.124	-0.265
-465.143	6.292	-0.157	-0.118
-464.128	-51.768	0.116	-0.055
-463.113	485.229	-0.099	0.228
-462.099	251.401	-0.052	-0.089
-461.084	-33.633	0.258	-0.144
-460.070	282.519	-0.108	-0.197
-459.055	-200.000	-0.001	-0.284
-458.040	131.566	-0.115	-0.150
-457.026	-200.000	0.056	-0.305
-456.011	800.000	-0.030	-0.121
-454.997	-10.589	0.282	-0.189
-453.982	-81.515	0.240	-0.080
-452.968	-50.500	-0.077	-0.037
-451.953	-52.883	0.441	-0.206
-450.938	156.150	0.081	-0.113
-449.924	-27.438	0.122	0.072
-448.909	-200.000	-0.080	0.376
-447.895	-196.745	-0.266	0.002
-446.880	81.399	0.176	0.192
-445.865	80.346	0.074	0.081
-444.851	9.422	-0.115	-0.088
-443.836	552.573	-0.059	-0.142
-442.822	108.254	0.170	-0.205
-441.807	-200.000	-0.013	0.112
-440.792	597.060	-0.110	0.275
-439.778	-200.000	0.017	-0.118
-438.763	35.858	-0.170	0.151
-437.749	140.755	-0.113	-0.150
-436.734	800.000	0.067	0.196
-435.719	36.723	0.308	-0.275
-434.705	72.566	0.113	0.119
-433.690	-0.438	0.207	-0.148
-432.676	800.000	-0.046	-0.176
-431.661	-38.177	0.151	0.081
-430.646	211.604	-0.166	0.265
-429.632	-200.000	-0.014	0.363
-428.617	408.938	0.214	0.457
-427.603	-200.000	0.016	-0.139
-426.588	-118.126	-0.212	0.038
-425.573	336.104	-0.063	0.124
-424.559	-172.816	-0.292	0.009
-423.544	-200.000	-0.011	-0.092
-422.530	16.742	0.071	0.057
-421.515	-200.000	0.063	-0.482
-420.500	-200.000	0.021	-0.335
-419.486	-200.000	0.065	-0.329
-418.471	72.350	-0.027	0.028
-417.457	-200.000	0.053	0.308
-416.442	133.513	0.271	0.354
-415.428	103.024	-0.082	-0.097
-414.413	-176.878	-0.337	0.009
-413.398	800.000	0.064	-0.208
-412.384	-145.114	-0.133	-0.012
-411.369	192.082	-0.058	0.088
-410.355	-26.377	-0.199	0.118
-409.340	-189.381	0.238	0.003
-408.325	-118.778	-0.355	-0.063
-407.311	103.460	0.081	-0.096
-406.296	248.208	0.030	-0.051
-405.282	702.090	-0.033	-0.087
-404.267	-119.519	-0.170	-0.030
-403.252	59.152	-0.080	0.080
-402.238	-93.547	0.147	-0.041
-401.223	-85.761	-0.074	0.023
-400.209	-80.572	-0.141	0.047
-399.194	69.692	-0.076	0.079
-398.179	1.960	0.081	0.059
-397.165	-117.327	0.263	0.048
-396.150	8.803	0.108	0.083
-395.136	2.966	-0.274	0.201
-394.121	-68.671	-0.101	0.040
-393.106	-76.051	0.270	-0.096
-392.092	-119.984	-0.051	0.009
-391.077	597.976	-0.143	-0.358
-390.063	-84.253	0.191	-0.061
-389.048	-67.784	0.203	0.080
-388.033	-15.712	0.364	0.234
-387.019	24.623	0.265	0.221
-386.004	-200.000	0.001	-0.424
-384.990	-25.969	-0.144	-0.086
-383.975	-74.905	-0.217	-0.078
-382.960	-200.000	0.005	0.171
-381.946	-200.000	0.003	0.051
-380.931	56.554	0.205	0.201
-379.917	310.967	0.089	0.169
-378.902	36.665	-0.101	0.090
-377.888	-34.540	0.406	-0.224
-376.873	-41.130	0.055	0.028
-375.858	-89.318	-0.247	-0.073
-374.844	-31.127	-0.280	-0.159
-373.829	94.273	-0.112	-0.128
-372.815	-153.074	-0.128	0.009
-371.800	-185.251	-0.199	0.003
-370.785	248.730	-0.042	-0.072
-369.771	-200.000	-0.012	0.111
-368.756	-200.000	-0.022	-0.098
-367.742	6.083	-0.071	-0.053
-366.727	800.000	-0.028	0.104
-365.712	471.424	0.073	-0.167
-364.698	800.000	-0.052	-0.229
-363.683	-78.359	-0.058	-0.020
-362.669	-200.000	0.013	-0.124
-361.654	264.557	-0.194	-0.341
-360.639	800.000	-0.090	-0.375
-359.625	101.039	-0.200	0.234
-358.610	632.281	0.094	0.240
-357.596	129.892	0.189	0.244
-356.581	-200.000	-0.031	-0.337
-355.566	-200.000	-0.042	0.283
-354.552	-103.248	-0.215	-0.051
-353.537	-86.642	0.403	0.124
-352.523	-122.007	-0.105	0.017
-351.508	-30.042	-0.073	0.042
-350.493	405.597	0.079	-0.167
-349.479	-109.837	0.205	-0.043
-348.464	81.942	-0.146	0.159
-347.450	-200.000	-0.028	0.281
-346.435	-107.726	0.219	-0.048
-345.420	-5.892	-0.206	0.142
-344.406	-55.022	-0.177	0.080
-343.391	149.264	-0.051	-0.070
-342.377	165.683	-0.155	0.220
-341.362	800.000	0.108	0.394
-340.348	57.966	-0.089	0.088
-339.333	195.520	-0.187	-0.286
-338.318	535.212	-0.064	0.154
-337.304	800.000	-0.084	-0.278
-336.289	-165.445	-0.334	-0.015
-335.275	800.000	-0.128	0.434
-334.260	184.551	0.069	0.102
-333.245	131.739	0.144	0.186
-332.231	-46.449	-0.096	0.047
-331.216	151.603	-0.021	-0.029
-330.202	70.712	-0.094	-0.098
-329.187	61.523	-0.148	0.148
-328.172	20.260	0.162	-0.132
-327.158	91.888	0.257	0.292
-326.143	357.196	0.169	-0.340
-325.129	-200.000	0.002	-0.068
-324.114	-21.853	0.157	0.096
-323.099	-27.634	-0.296	-0.173
-322.085	800.000	0.024	0.082
-321.070	-57.240	-0.192	-0.085
-320.056	800.000	-0.137	-0.419
-319.041	25.886	0.219	0.184
-318.026	-164.130	-0.325	0.015
-317.012	800.000	-0.021	0.085
-315.997	149.141	-0.213	-0.290
-314.983	800.000	-0.082	-0.295
-313.968	-200.000	-0.033	-0.281
-312.953	800.000	0.100	-0.384
-311.939	-122.828	0.063	0.010
-310.924	356.520	-0.036	-0.073
-309.910	12.131	0.110	-0.085
-308.895	800.000	0.087	-0.258
-307.880	-200.000	-0.020	-0.092
-306.866	-54.209	0.289	-0.132
-305.851	-143.432	-0.270	0.026
-304.837	-200.000	0.056	0.272
-303.822	185.055	0.202	-0.302
-302.807	643.078	0.014	-0.036
-301.793	-165.392	-0.172	-0.008
-300.778	-200.000	0.003	0.133
-299.764	-200.000	0.003	0.060
-298.749	19.669	-0.295	-0.238
-297.735	800.000	0.019	0.052
-296.720	-192.827	0.162	0.001
-295.705	-67.111	-0.095	0.038
-294.691	-36.427	-0.126	-0.068
-293.676	662.135	0.083	0.215
-292.662	800.000	0.131	-0.364
-291.647	518.746	-0.079	0.185
-290.632	116.221	-0.111	-0.137
-289.618	800.000	0.031	-0.116
-288.603	66.826	0.162	-0.166
-287.589	-169.065	-0.099	0.004
-286.574	-40.819	-0.199	0.103
-285.559	-127.537	-0.390	-0.057
-284.545	155.224	-0.124	-0.172
-283.530	156.320	-0.210	-0.291
-282.516	-67.683	-0.145	-0.057
-281.501	64.303	0.239	0.242
-280.486	-7.753	-0.066	-0.045
-279.472	31.889	0.238	-0.206
-278.457	-85.961	-0.238	-0.074
-277.443	34.832	0.061	-0.054
-276.428	150.622	-0.052	-0.071
-275.413	-122.092	0.348	0.057
-274.399	800.000	0.088	-0.287
-273.384	305.280	0.161	0.300
-272.370	-90.350	0.130	0.038
-271.355	-200.000	0.021	-0.265
-270.340	177.388	0.257	-0.375
-269.326	31.202	-0.177	-0.152
-268.311	-200.000	0.012	-0.113
-267.297	114.020	0.210	0.256
-266.282	-63.730	0.478	0.197
-265.267	-200.000	-0.018	-0.118
-264.253	-200.000	-0.009	-0.050
-263.238	-59.791	-0.247	0.106
-262.224	-122.961	-0.154	-0.025
-261.209	-200.000	0.007	0.153
-260.195	-106.590	0.170	0.038
-259.180	58.875	-0.083	-0.082
-258.165	4.308	-0.257	-0.189
-257.151	-75.611	0.165	-0.059
-256.136	800.000	-0.048	-0.193
-255.122	800.000	-0.057	-0.192
-254.107	104.825	-0.077	-0.091
-253.092	-34.622	0.121	0.066
-252.078	162.188	-0.086	-0.121
-251.063	-200.000	-0.015	-0.105
-250.049	-19.280	-0.106	0.066
-249.034	-152.365	0.279	-0.020
-248.019	-200.000	-0.037	0.193
-247.005	-82.193	0.267	0.087
-245.990	125.279	-0.016	0.020
-244.976	-6.020	-0.110	-0.076
-243.961	-80.342	0.363	0.122
-242.946	188.649	-0.066	-0.099
-241.932	54.317	0.116	-0.112
-240.917	721.485	-0.169	0.451
-239.903	-200.000	-0.004	0.110
-238.888	-63.384	0.185	-0.076
-237.873	-200.000	0.026	0.300
-236.859	-99.565	0.183	0.046
-235.844	240.531	0.089	-0.149
-234.830	-54.250	-0.149	-0.068
-233.815	76.426	0.239	-0.254
-232.800	-44.038	0.101	-0.051
-231.786	155.938	0.141	-0.195
-230.771	-7.370	0.182	0.123
-229.757	31.089	0.046	0.040
-228.742	264.852	0.128	-0.224
-227.727	41.049	0.097	-0.088
-226.713	800.000	-0.065	0.200
-225.698	-200.000	0.325	0.000
-224.684	329.221	0.073	0.140
-223.669	800.000	0.100	0.280
-222.655	204.632	-0.239	-0.372
-221.640	800.000	0.112	0.442
-220.625	-200.000	0.036	0.280
-219.611	157.555	0.227	0.315
-218.596	-47.622	0.236	0.115
-217.582	646.897	-0.036	0.092
-216.567	141.785	-0.101	0.134
-215.552	237.040	-0.181	-0.300
-214.538	110.143	0.139	-0.167
-213.523	55.719	0.096	0.093
-212.509	800.000	-0.042	-0.143
-211.494	-200.000	-0.039	-0.368
-210.479	462.937	-0.075	0.167
-209.465	-85.831	-0.252	-0.078
-208.450	-200.000	-0.027	0.202
-207.436	-160.573	0.366	0.020
-206.421	114.966	0.179	0.219
-205.406	-200.000	-0.054	0.525
-204.392	-4.323	-0.479	0.332
-203.377	663.495	0.058	0.150
-202.363	386.775	0.033	0.069
-201.348	-143.102	-0.407	-0.039
-200.333	-111.831	0.400	0.081
-199.319	-107.252	0.340	-0.075
-198.304	-200.000	0.105	0.483
-197.290	675.177	0.032	-0.083
-196.275	-200.000	-0.057	-0.334
-195.260	800.000	0.093	-0.267
-194.246	-102.309	0.164	-0.039
-193.231	175.681	-0.033	-0.048
-192.217	-84.744	-0.044	0.014
-191.202	112.826	-0.254	-0.308
-190.187	126.005	0.140	0.178
-189.173	-165.125	-0.114	-0.005
-188.158	-27.376	0.063	-0.037
-187.144	-118.149	-0.203	-0.036
-186.129	-38.832	0.089	0.047
-185.114	-131.433	-0.236	0.031
-184.100	-200.000	0.001	0.354
-183.085	-65.786	-0.285	0.114
-182.071	335.690	-0.062	0.121
-181.056	234.970	0.079	0.131
-180.042	77.601	-0.126	0.134
-179.027	17.913	0.112	-0.090
-178.012	-200.000	-0.049	-0.292
-176.998	17.518	0.338	-0.269
-175.983	-93.562	-0.328	-0.091
-174.969	223.195	0.041	-0.066
-173.954	-106.165	0.289	0.065
-172.939	-200.000	-0.021	-0.299
-171.925	-72.965	0.201	-0.074
-170.910	-93.635	0.212	-0.059
-169.896	267.587	-0.148	-0.260
-168.881	180.125	0.130	0.190
-167.866	-80.690	0.402	0.134
-166.852	94.623	-0.041	0.046
-165.837	800.000	-0.049	0.194
-164.823	-15.909	0.185	0.118
-163.808	-200.000	-0.010	-0.273
-162.793	-100.207	0.103	0.026
-161.779	101.701	0.169	-0.197
-160.764	-36.064	0.111	-0.060
-159.750	-133.305	0.479	0.060
-158.735	200.825	0.146	-0.225
-157.720	800.000	0.078	0.288
-156.706	-200.000	0.023	-0.109
-155.691	-200.000	-0.125	0.737
-154.677	-98.319	0.227	0.058
-153.662	-66.018	0.124	-0.050
-152.647	511.847	-0.113	0.263
-151.633	800.000	-0.068	0.277
-150.618	745.722	0.078	-0.210
-149.604	257.223	0.078	-0.135
-148.589	241.655	0.087	0.145
-147.574	-70.608	0.214	0.081
-146.560	-21.401	-0.144	0.088
-145.545	103.069	-0.118	-0.139
-144.531	-46.326	-0.312	0.153
-143.516	-62.836	0.254	-0.105
-142.502	56.013	0.170	-0.165
-141.487	-200.000	-0.039	0.206
-140.472	609.923	-0.091	-0.228
-139.458	-200.000	-0.033	0.274
-138.443	160.328	0.291	-0.406
-137.429	-160.706	-0.308	-0.016
-136.414	-71.523	0.081	0.030
-135.399	152.098	0.190	-0.259
-134.385	-169.917	0.282	0.010
-133.370	-43.580	-0.193	0.097
-132.356	323.579	0.092	-0.175
-131.341	-39.984	0.127	-0.066
-130.326	-1.468	0.247	0.174
-129.312	-117.763	0.362	0.065
-128.297	20.779	0.098	-0.079
-127.283	142.948	-0.135	-0.179
-126.268	-53.998	0.150	-0.068
-125.253	298.516	-0.044	-0.081
-124.239	25.612	0.174	0.145
-123.224	-74.878	-0.258	-0.092
-122.210	-200.000	0.000	-0.018
-121.195	-196.553	-0.243	0.002
