DTS Sentinel unit serial number:	SN413079Multiplexer serial number:	ORYXHardware model number:	OX4-SRSoftware version number:	ORYX F/W v4.00 Oryx Data Collector v3.7.2.0data status	okinstallation	princeton_trtdifferential loss correction	single-endedforward channel	channel 3reverse channel	N/Adate	2019/09/12time	03:02:11forward acquisition time	60.00reverse acquisition time	0.00gamma	496.2192k internal	0.2321k external	0.2321temperature offset calibration	1.0071default loss term (dB/km)	0.3790temperature slope calibration	1.0000multiplexer offset coefficient	1.0000multiplexer slope coefficient	1.0000fibre end	0.00T internal ref (°C)	32.28T ext. ref 1 (°C)	2.11T ext. ref 2 (°C)	27.20length (m)	temperature (°C)	Stokes	anti-Stokes-747.200	-11.909	0.428	0.283
-746.185	-200.000	0.021	0.428
-745.171	-1.532	0.287	0.204
-744.156	-40.657	0.172	0.090
-743.142	800.000	0.035	-0.128
-742.127	-200.000	-0.077	0.437
-741.112	-68.923	-0.119	0.047
-740.098	20.984	0.043	0.035
-739.083	-87.323	-0.270	0.083
-738.069	69.841	-0.179	0.186
-737.054	-22.638	0.268	0.163
-736.039	16.118	0.089	0.071
-735.025	-39.763	0.194	-0.102
-734.010	-200.000	0.006	0.190
-732.996	-42.918	-0.474	-0.243
-731.981	83.319	0.106	-0.116
-730.966	-200.000	0.044	-0.234
-729.952	9.231	-0.238	-0.182
-728.937	178.782	-0.281	-0.415
-727.923	-39.490	-0.127	0.067
-726.908	-200.000	-0.026	-0.314
-725.894	214.743	-0.108	-0.173
-724.879	-67.190	-0.314	-0.125
-723.864	111.005	-0.096	-0.117
-722.850	-32.534	-0.172	0.097
-721.835	800.000	-0.026	-0.113
-720.821	-93.479	0.220	-0.062
-719.806	-118.502	-0.179	-0.032
-718.791	144.811	0.149	-0.201
-717.777	167.570	-0.148	-0.212
-716.762	-158.997	0.187	0.011
-715.748	341.905	0.025	-0.049
-714.733	341.197	0.086	-0.169
-713.718	-17.410	0.290	-0.184
-712.704	50.156	-0.166	-0.158
-711.689	-200.000	-0.010	-0.106
-710.675	-129.943	-0.125	-0.017
-709.660	-104.661	-0.200	-0.046
-708.645	-62.246	-0.267	-0.112
-707.631	0.631	-0.149	-0.108
-706.616	-121.920	-0.208	0.035
-705.602	-19.033	-0.300	0.188
-704.587	383.298	0.070	-0.145
-703.572	-189.653	0.413	-0.005
-702.558	262.639	0.111	-0.194
-701.543	800.000	-0.104	-0.300
-700.529	-92.611	-0.436	-0.123
-699.514	800.000	-0.093	-0.362
-698.499	-73.497	0.038	0.014
-697.485	78.656	-0.201	0.217
-696.470	312.338	-0.073	-0.138
-695.456	303.814	-0.073	-0.137
-694.441	-70.582	0.190	0.073
-693.426	800.000	0.052	0.197
-692.412	-200.000	0.005	0.135
-691.397	-200.000	-0.017	-0.166
-690.383	-200.000	-0.040	-0.179
-689.368	265.557	-0.084	0.148
-688.354	-200.000	-0.041	-0.182
-687.339	-116.408	0.253	-0.047
-686.324	18.546	-0.126	0.101
-685.310	132.984	0.111	0.144
-684.295	-35.262	0.110	-0.060
-683.281	231.842	-0.087	-0.144
-682.266	279.141	0.094	-0.168
-681.251	196.511	0.133	0.204
-680.237	-175.471	-0.216	-0.006
-679.222	475.200	-0.234	-0.533
-678.208	-17.263	0.156	-0.099
-677.193	-59.631	-0.442	-0.191
-676.178	800.000	-0.069	-0.232
-675.164	33.551	-0.151	-0.133
-674.149	6.540	-0.233	-0.174
-673.135	154.680	0.220	0.304
-672.120	-95.520	-0.297	-0.080
-671.105	520.733	0.061	0.145
-670.091	-70.538	0.285	-0.109
-669.076	288.319	-0.128	0.234
-668.062	-47.072	0.093	0.046
-667.047	87.844	-0.144	0.161
-666.032	800.000	0.101	-0.334
-665.018	-42.553	-0.260	-0.134
-664.003	-80.752	0.282	-0.094
-662.989	46.335	0.039	0.036
-661.974	728.888	-0.023	-0.061
-660.959	40.716	-0.350	-0.318
-659.945	59.026	0.091	-0.090
-658.930	-143.952	-0.167	0.016
-657.916	-124.889	-0.224	0.035
-656.901	-56.773	0.332	-0.148
-655.886	-200.000	-0.010	-0.072
-654.872	55.271	-0.225	0.219
-653.857	-93.669	0.078	0.022
-652.843	581.923	0.024	0.059
-651.828	-51.602	-0.220	-0.104
-650.814	-158.536	-0.292	-0.017
-649.799	-164.214	0.189	0.009
-648.784	-104.084	0.338	0.079
-647.770	15.040	-0.203	0.160
-646.755	800.000	-0.088	-0.303
-645.741	-200.000	0.001	-0.096
-644.726	286.340	-0.074	0.135
-643.711	-171.842	0.320	-0.011
-642.697	-200.000	-0.038	0.173
-641.682	407.605	0.195	0.415
-640.668	192.238	0.045	-0.068
-639.653	-71.761	-0.326	0.122
-638.638	514.427	-0.129	0.302
-637.624	800.000	-0.089	0.367
-636.609	83.521	0.071	-0.078
-635.595	-57.584	0.244	-0.108
-634.580	-39.794	-0.360	-0.189
-633.565	800.000	-0.021	-0.074
-632.551	128.476	0.124	-0.158
-631.536	394.948	-0.100	-0.210
-630.522	42.713	0.155	-0.142
-629.507	-123.191	-0.072	0.012
-628.492	-200.000	0.013	0.071
-627.478	445.073	-0.029	0.064
-626.463	-177.579	0.367	0.009
-625.449	-51.648	-0.071	0.033
-624.434	-169.837	0.183	0.007
-623.419	-200.000	0.024	0.122
-622.405	-55.166	0.220	0.100
-621.390	800.000	0.069	-0.199
-620.376	-45.205	0.509	-0.254
-619.361	138.108	-0.054	-0.071
-618.346	193.430	0.126	-0.192
-617.332	112.998	-0.187	-0.228
-616.317	800.000	-0.044	-0.165
-615.303	335.464	0.120	0.235
-614.288	56.633	0.045	-0.044
-613.273	-163.761	-0.437	-0.021
-612.259	205.651	0.065	0.101
-611.244	-200.000	-0.021	-0.247
-610.230	236.042	0.094	0.156
-609.215	199.600	0.071	-0.110
-608.201	0.287	0.198	0.142
-607.186	-165.888	-0.182	0.008
-606.171	-7.667	-0.223	0.152
-605.157	-175.416	0.280	-0.008
-604.142	170.876	-0.073	0.104
-603.128	-151.820	-0.338	0.025
-602.113	800.000	0.048	0.198
-601.098	-46.944	0.104	-0.051
-600.084	-58.786	-0.285	0.124
-599.069	-35.415	-0.141	0.077
-598.055	5.634	-0.139	0.103
-597.040	800.000	0.025	-0.092
-596.025	431.827	0.063	0.136
-595.011	-200.000	0.010	-0.172
-593.996	232.416	0.205	-0.338
-592.982	-87.056	-0.343	0.105
-591.967	-113.738	-0.158	-0.031
-590.952	424.645	0.020	0.044
-589.938	49.213	-0.314	-0.296
-588.923	116.803	0.115	-0.142
-587.909	-130.952	-0.143	-0.019
-586.894	445.684	0.049	-0.108
-585.879	-56.772	-0.308	-0.137
-584.865	800.000	-0.080	0.229
-583.850	778.928	0.076	-0.210
-582.836	-200.000	0.011	0.203
-581.821	240.530	-0.081	-0.135
-580.806	424.117	-0.151	-0.327
-579.792	289.357	0.065	0.118
-578.777	800.000	0.058	0.209
-577.763	-153.137	-0.444	0.031
-576.748	22.110	0.309	0.253
-575.733	133.991	0.170	0.221
-574.719	25.599	0.220	-0.184
-573.704	-42.535	-0.177	-0.091
-572.690	-73.466	-0.430	0.158
-571.675	-135.765	-0.202	0.024
-570.661	-28.323	-0.175	-0.101
-569.646	-63.528	-0.031	0.013
-568.631	118.685	-0.194	-0.241
-567.617	-200.000	0.006	-0.050
-566.602	-108.930	-0.147	0.032
-565.588	-68.271	0.189	0.074
-564.573	27.078	-0.143	0.121
-563.558	212.452	-0.111	0.176
-562.544	10.637	0.216	-0.165
-561.529	-26.291	-0.287	0.169
-560.515	-57.562	-0.166	0.073
-559.500	-129.655	-0.123	0.017
-558.485	152.592	-0.182	0.250
-557.471	800.000	-0.034	-0.117
-556.456	-75.625	-0.225	-0.080
-555.442	-199.977	0.287	0.001
-554.427	60.156	-0.244	0.242
-553.412	-6.119	0.215	-0.147
-552.398	82.621	0.007	-0.008
-551.383	52.245	-0.108	-0.104
-550.369	-36.335	0.185	-0.100
-549.354	-52.964	0.161	0.074
-548.339	-83.896	0.091	-0.029
-547.325	6.745	-0.133	-0.099
-546.310	-200.000	-0.007	-0.325
-545.296	-10.132	-0.103	-0.069
-544.281	800.000	-0.052	0.208
-543.266	-3.064	0.152	0.106
-542.252	-200.000	-0.031	0.375
-541.237	-121.805	0.084	0.014
-540.223	-200.000	0.002	-0.327
-539.208	61.466	-0.192	-0.191
-538.193	-72.039	0.248	-0.092
-537.179	0.754	-0.061	0.044
-536.164	-20.390	-0.300	-0.185
-535.150	195.619	-0.134	-0.204
-534.135	-36.545	0.207	0.112
-533.121	-99.966	-0.277	0.069
-532.106	71.073	0.181	0.188
-531.091	-24.634	-0.137	0.082
-530.077	-22.653	-0.092	0.056
-529.062	-87.992	-0.095	-0.029
-528.048	-37.780	0.189	0.101
-527.033	92.013	-0.062	0.070
-526.018	-62.937	0.379	0.157
-525.004	800.000	-0.009	-0.039
-523.989	57.048	-0.196	-0.191
-522.975	-98.624	-0.185	-0.047
-521.960	352.655	0.054	0.108
-520.945	-200.000	-0.032	-0.146
-519.931	-150.990	-0.206	0.016
-518.916	230.131	-0.139	-0.228
-517.902	3.962	-0.153	-0.112
-516.887	800.000	0.005	0.016
-515.872	-133.894	0.151	0.019
-514.858	-200.000	-0.021	-0.164
-513.843	-200.000	-0.051	0.272
-512.829	800.000	0.038	0.125
-511.814	-83.576	0.201	0.065
-510.799	800.000	0.095	0.351
-509.785	741.745	-0.012	-0.032
-508.770	225.384	0.261	0.424
-507.756	-139.665	-0.084	0.009
-506.741	-5.331	0.080	-0.055
-505.726	-1.639	0.349	-0.246
-504.712	13.272	-0.278	-0.216
-503.697	127.419	0.092	-0.117
-502.683	-106.153	-0.181	0.041
-501.668	800.000	-0.073	0.302
-500.653	-65.680	-0.170	0.068
-499.639	-11.227	-0.048	0.031
-498.624	-200.000	-0.008	-0.308
-497.610	-200.000	-0.038	-0.261
-496.595	-155.242	-0.183	-0.012
-495.581	-116.840	-0.440	-0.081
-494.566	-12.079	0.108	-0.071
-493.551	-3.177	-0.059	0.041
-492.537	172.014	-0.130	0.187
-491.522	76.884	0.225	-0.239
-490.508	-86.469	-0.059	0.018
-489.493	-18.345	0.103	0.064
-488.478	-200.000	0.018	-0.091
-487.464	184.309	0.136	0.201
-486.449	43.986	0.102	0.094
-485.435	-81.109	0.226	0.075
-484.420	306.156	0.132	-0.245
-483.405	88.254	-0.166	-0.184
-482.391	-200.000	-0.027	0.247
-481.376	66.066	-0.124	0.126
-480.362	-96.156	0.099	-0.026
-479.347	438.844	0.135	0.294
-478.332	-200.000	0.016	-0.130
-477.318	-112.480	0.190	-0.038
-476.303	-108.640	-0.292	0.063
-475.289	106.396	-0.210	-0.249
-474.274	800.000	-0.032	-0.101
-473.259	-83.992	-0.110	0.035
-472.245	-161.938	0.360	0.018
-471.230	800.000	-0.122	0.387
-470.216	-41.246	-0.253	0.130
-469.201	-81.951	0.326	0.106
-468.186	79.786	0.313	0.336
-467.172	112.925	0.235	0.285
-466.157	-131.802	0.094	-0.012
-465.143	370.318	0.064	0.129
-464.128	800.000	0.058	0.219
-463.113	-79.370	0.250	-0.085
-462.099	-168.967	-0.233	0.009
-461.084	135.097	0.170	0.221
-460.070	800.000	0.059	-0.205
-459.055	778.485	-0.099	0.270
-458.040	-200.000	-0.033	-0.285
-457.026	-200.000	0.004	0.130
-456.011	629.025	-0.155	-0.392
-454.997	800.000	-0.040	-0.111
-453.982	-200.000	0.022	0.352
-452.968	-135.291	-0.167	0.020
-451.953	-169.715	0.175	0.006
-450.938	-80.590	-0.106	0.035
-449.924	-9.383	-0.067	0.044
-448.909	-200.000	-0.014	0.233
-447.895	-17.768	0.388	0.243
-446.880	412.209	0.103	0.219
-445.865	-72.758	-0.241	0.089
-444.851	-83.184	-0.216	0.069
-443.836	800.000	-0.019	0.071
-442.822	-152.750	0.134	0.010
-441.807	-150.628	0.439	0.033
-440.792	-200.000	-0.006	0.031
-439.778	-70.940	-0.121	-0.046
-438.763	648.656	0.099	-0.253
-437.749	800.000	0.107	-0.310
-436.734	203.995	0.138	-0.213
-435.719	-60.185	-0.117	-0.050
-434.705	-200.000	0.012	-0.065
-433.690	685.949	0.041	0.106
-432.676	-196.122	0.147	-0.001
-431.661	-200.000	-0.006	0.039
-430.646	-5.860	0.053	-0.036
-429.632	12.045	-0.185	-0.142
-428.617	-40.397	0.153	0.079
-427.603	40.759	-0.230	-0.207
-426.588	299.384	-0.168	-0.309
-425.573	49.200	0.217	-0.204
-424.559	75.238	0.077	-0.082
-423.544	159.409	-0.061	-0.085
-422.530	137.991	-0.182	-0.238
-421.515	42.280	-0.060	-0.055
-420.500	46.061	0.256	0.237
-419.486	800.000	-0.061	-0.203
-418.471	228.885	-0.103	0.168
-417.457	153.354	-0.130	-0.177
-416.442	-89.652	0.094	-0.028
-415.428	-47.415	-0.236	0.114
-414.413	-200.000	-0.030	-0.144
-413.398	-110.244	-0.070	-0.015
-412.384	-134.973	0.123	0.015
-411.369	800.000	-0.039	0.138
-410.355	-110.221	-0.127	0.026
-409.340	-105.603	-0.049	0.011
-408.325	158.843	-0.139	0.193
-407.311	-118.871	-0.281	0.049
-406.296	-8.385	-0.022	-0.015
-405.282	49.785	-0.249	-0.234
-404.267	-124.619	-0.172	-0.027
-403.252	-200.000	-0.003	0.209
-402.238	-200.000	0.050	0.318
-401.223	-200.000	-0.016	0.436
-400.209	169.390	-0.054	-0.077
-399.194	-128.539	-0.295	-0.042
-398.179	-200.000	-0.059	0.256
-397.165	0.578	0.101	0.072
-396.150	170.059	0.145	-0.206
-395.136	800.000	-0.170	-0.492
-394.121	-4.102	-0.102	-0.071
-393.106	504.961	0.098	-0.227
-392.092	139.441	-0.131	0.172
-391.077	300.130	0.120	-0.221
-390.063	292.437	-0.151	0.274
-389.048	-98.913	0.445	-0.113
-388.033	-27.233	-0.328	0.191
-387.019	800.000	-0.031	-0.118
-386.004	9.290	-0.095	-0.072
-384.990	-200.000	0.072	0.322
-383.975	-200.000	-0.075	-0.435
-382.960	12.055	0.334	-0.256
-381.946	414.692	0.051	0.108
-380.931	166.924	-0.072	0.101
-379.917	-43.542	-0.241	-0.121
-378.902	800.000	-0.000	-0.002
-377.888	81.771	-0.220	-0.237
-376.873	563.646	0.136	-0.328
-375.858	633.763	0.054	0.137
-374.844	308.183	0.209	0.389
-373.829	-200.000	0.035	0.192
-372.815	-103.110	0.166	-0.039
-371.800	800.000	-0.106	-0.321
-370.785	-97.704	-0.007	0.002
-369.771	109.157	0.131	0.156
-368.756	-200.000	0.002	0.185
-367.742	184.099	-0.044	0.065
-366.727	800.000	0.033	0.138
-365.712	-43.978	-0.227	0.113
-364.698	-42.877	0.084	0.043
-363.683	-175.256	0.048	-0.001
-362.669	-92.431	-0.304	-0.085
-361.654	-87.121	-0.358	-0.109
-360.639	-30.114	-0.241	0.136
-359.625	-27.543	-0.141	0.081
-358.610	-200.000	-0.009	0.477
-357.596	-1.618	-0.094	0.066
-356.581	800.000	-0.050	0.195
-355.566	106.185	-0.130	-0.154
-354.552	-95.601	0.167	0.045
-353.537	-88.221	0.276	0.082
-352.523	-65.012	-0.369	-0.148
-351.508	39.889	0.086	-0.077
-350.493	-125.742	0.223	-0.034
-349.479	11.738	-0.015	0.012
-348.464	-102.324	0.060	0.014
-347.450	225.993	0.048	-0.077
-346.435	54.876	-0.145	0.139
-345.420	800.000	-0.061	-0.217
-344.406	-43.341	0.035	0.018
-343.391	67.216	-0.118	0.120
-342.377	-33.688	0.302	-0.166
-341.362	-200.000	-0.021	-0.156
-340.348	66.130	-0.160	0.162
-339.333	-26.528	0.226	0.132
-338.318	780.315	-0.113	-0.307
-337.304	-89.347	-0.071	0.021
-336.289	156.286	0.205	-0.281
-335.275	-200.000	-0.012	-0.076
-334.260	4.183	0.163	-0.119
-333.245	-42.329	0.283	-0.144
-332.231	-100.271	-0.096	-0.024
-331.216	454.176	-0.081	0.179
-330.202	-200.000	-0.016	-0.099
-329.187	30.824	0.070	0.060
-328.172	111.557	0.195	0.234
-327.158	422.626	0.057	-0.122
-326.143	-134.895	0.233	0.028
-325.129	800.000	-0.061	0.167
-324.114	-136.759	-0.052	-0.006
-323.099	-200.000	0.017	-0.294
-322.085	800.000	0.013	-0.048
-321.070	800.000	-0.021	-0.079
-320.056	40.016	-0.192	0.172
-319.041	-200.000	0.015	0.083
-318.026	-177.406	-0.069	-0.002
-317.012	201.217	0.054	0.082
-315.997	-4.039	0.350	-0.241
-314.983	-200.000	-0.083	-0.436
-313.968	-51.491	0.340	-0.158
-312.953	167.499	-0.203	-0.286
-311.939	-134.619	0.142	0.017
-310.924	-200.000	-0.028	-0.131
-309.910	64.127	0.289	-0.289
-308.895	-2.471	0.297	-0.207
-307.880	89.468	-0.263	-0.291
-306.866	-96.547	0.290	0.076
-305.851	-141.017	-0.305	0.031
-304.837	72.235	0.151	-0.157
-303.822	800.000	0.034	-0.114
-302.807	81.108	-0.034	0.036
-301.793	470.957	0.002	-0.005
-300.778	73.885	-0.198	0.206
-299.764	-78.299	-0.317	0.108
-298.749	45.172	-0.187	0.171
-297.735	21.293	0.176	0.142
-296.720	-200.000	0.015	-0.256
-295.705	116.058	-0.199	-0.241
-294.691	-161.573	0.233	0.012
-293.676	-50.462	0.199	-0.093
-292.662	422.841	-0.160	-0.341
-291.647	-200.000	0.001	-0.055
-290.632	800.000	-0.069	0.301
-289.618	-39.903	0.194	-0.101
-288.603	-4.685	0.176	-0.121
-287.589	457.504	0.041	-0.090
-286.574	41.415	0.414	0.372
-285.559	-35.345	0.076	-0.041
-284.545	-179.822	0.514	-0.011
-283.530	-29.907	0.164	-0.093
-282.516	-103.980	-0.088	0.020
-281.501	618.526	0.121	0.302
-280.486	-76.943	0.309	0.107
-279.472	28.823	-0.283	0.238
-278.457	175.193	-0.193	0.277
-277.443	-131.611	0.172	0.022
-276.428	39.311	0.049	-0.043
-275.413	272.138	-0.096	-0.168
-274.399	453.781	0.137	-0.301
-273.384	-117.846	-0.090	0.016
-272.370	-177.942	-0.200	-0.005
-271.355	-48.522	0.110	0.052
-270.340	483.718	0.072	0.163
-269.326	455.597	-0.100	0.219
-268.311	332.041	-0.002	-0.004
-267.297	99.592	-0.180	0.206
-266.282	-200.000	-0.010	0.206
-265.267	-200.000	0.024	-0.340
-264.253	-51.883	-0.103	-0.048
-263.238	-10.407	0.458	0.301
-262.224	288.808	-0.088	-0.158
-261.209	90.826	-0.219	0.243
-260.195	-16.025	-0.138	-0.087
-259.180	64.927	-0.174	0.174
-258.165	-200.000	0.024	-0.171
-257.151	-200.000	-0.005	0.269
-256.136	-18.576	-0.107	-0.066
-255.122	-97.333	0.038	-0.010
-254.107	121.879	0.186	0.230
-253.092	111.520	0.124	0.148
-252.078	-200.000	-0.001	-0.045
-251.063	34.238	-0.087	-0.076
-250.049	-200.000	0.062	-0.296
-249.034	582.876	0.055	-0.135
-248.019	-200.000	0.069	0.343
-247.005	-108.550	0.185	0.039
-245.990	-70.363	0.086	0.032
-244.976	33.571	0.296	-0.255
-243.961	-22.426	0.070	-0.042
-242.946	24.557	-0.104	-0.085
-241.932	379.813	0.159	-0.323
-240.917	0.594	0.205	-0.146
-239.903	-87.699	0.167	0.050
-238.888	-112.326	-0.265	0.053
-237.873	-122.420	0.206	-0.033
-236.859	800.000	-0.071	0.236
-235.844	687.094	0.102	0.264
-234.830	431.438	0.042	-0.091
-233.815	97.182	0.156	-0.177
-232.800	692.550	0.125	-0.325
-231.786	-177.878	-0.231	-0.005
-230.771	69.917	-0.110	-0.113
-229.757	117.167	-0.111	0.135
-228.742	800.000	-0.076	-0.311
-227.727	-200.000	0.008	-0.179
-226.713	-200.000	0.004	-0.049
-225.698	-0.043	0.257	-0.182
-224.684	95.370	0.329	-0.371
-223.669	800.000	-0.041	0.147
-222.655	95.401	-0.112	-0.126
-221.640	183.739	0.226	0.331
-220.625	85.449	-0.208	0.226
-219.611	-165.341	0.065	0.003
-218.596	-66.472	-0.253	0.099
-217.582	-88.695	-0.628	0.185
-216.567	800.000	0.087	0.280
-215.552	63.434	0.244	0.242
-214.538	453.412	-0.129	0.283
-213.523	120.341	-0.032	0.039
-212.509	322.980	-0.074	0.140
-211.494	654.780	0.035	-0.090
-210.479	150.233	-0.151	0.203
-209.465	147.953	-0.117	0.156
-208.450	100.553	0.088	0.101
-207.436	372.733	0.092	-0.185
-206.421	-10.717	0.202	-0.132
-205.406	-200.000	-0.008	-0.328
-204.392	800.000	-0.050	-0.217
-203.377	411.945	0.152	-0.320
-202.363	-200.000	-0.013	0.294
-201.348	800.000	0.115	-0.406
-200.333	-140.921	-0.410	-0.042
-199.319	-150.016	0.208	0.016
-198.304	-122.137	0.370	-0.060
-197.290	248.865	0.138	-0.232
-196.275	-200.000	-0.059	0.307
-195.260	-82.768	-0.049	0.016
-194.246	-104.089	0.106	-0.024
-193.231	176.413	-0.063	0.090
-192.217	209.073	-0.134	-0.208
-191.202	-31.103	0.254	-0.142
-190.187	800.000	0.076	0.319
-189.173	-62.400	-0.163	0.067
-188.158	-78.469	0.333	0.113
-187.144	292.999	-0.103	-0.187
-186.129	-39.433	0.139	0.072
-185.114	138.840	-0.036	-0.047
-184.100	-47.835	-0.270	0.129
-183.085	178.134	0.035	0.051
-182.071	55.569	0.060	0.057
-181.056	-200.000	-0.072	-0.316
-180.042	258.480	0.112	-0.191
-179.027	-200.000	-0.040	0.318
-178.012	-21.946	0.257	0.154
-176.998	800.000	-0.047	-0.150
-175.983	-200.000	-0.055	0.279
-174.969	661.657	-0.163	-0.416
-173.954	-200.000	-0.069	0.333
-172.939	21.612	-0.254	-0.204
-171.925	-165.591	0.275	0.012
-170.910	147.142	-0.225	0.299
-169.896	-161.757	0.028	0.001
-168.881	78.938	0.145	-0.153
-167.866	-83.582	-0.117	0.037
-166.852	-78.772	0.057	-0.019
-165.837	96.385	-0.168	0.190
-164.823	-200.000	0.063	0.376
-163.808	-200.000	-0.000	-0.169
-162.793	-105.070	0.115	0.026
-161.779	78.535	-0.297	0.313
-160.764	-109.263	-0.080	0.017
-159.750	0.844	0.254	-0.180
-158.735	432.414	-0.029	0.063
-157.720	-113.291	-0.142	0.028
-156.706	-200.000	-0.017	-0.108
-155.691	-103.343	0.055	0.013
-154.677	-160.280	0.123	0.007
-153.662	-30.441	0.108	-0.061
-152.647	-200.000	-0.024	0.117
-151.633	79.126	0.137	-0.145
-150.618	-100.531	-0.228	-0.056
-149.604	-71.044	-0.225	-0.083
-148.589	-88.339	-0.185	0.055
-147.574	-200.000	0.012	0.063
-146.560	-200.000	-0.026	0.332
-145.545	57.942	-0.233	-0.225
-144.531	548.473	-0.122	-0.289
-143.516	-152.320	0.031	0.002
-142.502	421.187	0.294	0.622
-141.487	-23.174	-0.224	0.133
-140.472	-113.355	-0.214	-0.042
-139.458	112.783	-0.134	-0.161
-138.443	-118.676	0.239	0.042
-137.429	546.151	-0.083	0.197
-136.414	-103.906	0.049	-0.011
-135.399	171.880	0.061	0.086
-134.385	75.750	0.296	-0.309
-133.370	-26.692	0.129	-0.075
-132.356	-84.966	0.164	0.051
-131.341	100.956	-0.087	0.100
-130.326	628.877	0.106	-0.264
-129.312	800.000	0.015	-0.062
-128.297	165.767	-0.196	-0.273
-127.283	42.755	-0.169	0.152
-126.268	187.605	-0.143	0.211
-125.253	800.000	-0.105	0.326
-124.239	66.988	0.261	0.262
-123.224	-121.312	0.318	0.052
-122.210	-200.000	0.003	-0.184
-121.195	-200.000	0.078	-0.362
