DTS Sentinel unit serial number:	SN413079Multiplexer serial number:	ORYXHardware model number:	OX4-SRSoftware version number:	ORYX F/W v4.00 Oryx Data Collector v3.7.2.0data status	okinstallation	princeton_trtdifferential loss correction	single-endedforward channel	channel 3reverse channel	N/Adate	2019/09/11time	12:06:11forward acquisition time	60.00reverse acquisition time	0.00gamma	496.2192k internal	0.2291k external	0.2291temperature offset calibration	0.9934default loss term (dB/km)	0.3790temperature slope calibration	1.0000multiplexer offset coefficient	1.0000multiplexer slope coefficient	1.0000fibre end	0.00T internal ref (°C)	39.53T ext. ref 1 (°C)	0.19T ext. ref 2 (°C)	38.00length (m)	temperature (°C)	Stokes	anti-Stokes-747.200	-127.853	0.192	0.028
-746.185	-106.092	0.065	0.015
-745.171	-91.352	-0.282	-0.083
-744.156	-200.000	-0.004	0.034
-743.142	-70.315	-0.197	-0.076
-742.127	-200.000	-0.007	0.324
-741.112	155.521	0.061	0.087
-740.098	11.728	-0.037	0.029
-739.083	-10.348	0.268	0.182
-738.069	-30.426	-0.085	-0.049
-737.054	-200.000	0.004	-0.077
-736.039	-1.545	-0.094	-0.068
-735.025	-135.737	-0.105	0.013
-734.010	-75.300	0.131	-0.048
-732.996	-67.066	-0.267	0.108
-731.981	-70.854	0.206	0.079
-730.966	90.144	0.294	-0.336
-729.952	-69.442	0.153	0.060
-728.937	-200.000	0.079	-0.573
-727.923	203.288	0.125	0.198
-726.908	23.877	-0.126	-0.107
-725.894	-200.000	0.001	0.138
-724.879	-200.000	-0.327	0.000
-723.864	131.009	-0.117	0.153
-722.850	84.058	0.146	-0.163
-721.835	279.774	0.062	-0.113
-720.821	-108.149	-0.280	0.062
-719.806	-38.863	-0.109	-0.059
-718.791	-171.675	-0.410	0.014
-717.777	-43.363	-0.158	-0.082
-716.762	68.855	-0.105	-0.110
-715.748	153.532	0.227	-0.318
-714.733	-47.645	-0.130	-0.065
-713.718	-115.938	0.401	-0.077
-712.704	-92.084	0.075	0.022
-711.689	-200.000	0.002	-0.011
-710.675	-4.317	0.095	-0.067
-709.660	667.183	-0.028	0.075
-708.645	-155.646	0.165	-0.011
-707.631	-103.143	-0.226	0.055
-706.616	108.287	0.148	0.181
-705.602	-79.948	-0.289	-0.099
-704.587	-200.000	0.027	-0.435
-703.572	94.922	-0.136	-0.158
-702.558	-161.956	0.129	-0.007
-701.543	-200.000	-0.023	-0.372
-700.529	-200.000	0.048	0.258
-699.514	800.000	0.076	-0.298
-698.499	800.000	0.051	0.166
-697.485	166.498	0.140	0.202
-696.470	228.115	0.120	-0.199
-695.456	69.213	-0.205	-0.215
-694.441	134.289	-0.110	0.146
-693.426	-103.310	-0.384	0.093
-692.412	-49.364	0.166	-0.081
-691.397	36.020	0.189	0.170
-690.383	800.000	-0.089	0.311
-689.368	-200.000	-0.036	0.193
-688.354	86.367	-0.102	-0.115
-687.339	-65.417	-0.126	-0.052
-686.324	29.957	0.220	0.192
-685.310	126.852	-0.108	0.140
-684.295	-97.319	-0.181	0.048
-683.281	-52.278	0.089	-0.042
-682.266	-63.542	0.048	-0.020
-681.251	-35.795	-0.225	-0.125
-680.237	7.267	0.105	-0.080
-679.222	-43.203	0.373	-0.193
-678.208	-165.263	0.073	0.003
-677.193	-200.000	-0.017	0.116
-676.178	306.422	0.189	-0.359
-675.164	-200.000	0.051	-0.327
-674.149	163.354	0.188	0.270
-673.135	162.326	-0.061	-0.087
-672.120	800.000	-0.089	-0.260
-671.105	234.000	-0.092	0.155
-670.091	-200.000	0.482	0.001
-669.076	-120.743	0.196	-0.034
-668.062	89.104	0.216	0.246
-667.047	800.000	-0.034	0.129
-666.032	659.947	0.060	0.157
-665.018	182.945	-0.143	-0.216
-664.003	-171.909	-0.379	-0.013
-662.989	79.586	-0.076	0.084
-661.974	-171.124	0.176	0.006
-660.959	-200.000	-0.032	-0.303
-659.945	744.605	-0.135	-0.371
-658.930	800.000	0.055	-0.170
-657.916	4.287	-0.190	-0.142
-656.901	-6.590	0.091	-0.063
-655.886	-200.000	-0.010	-0.127
-654.872	13.555	0.132	0.105
-653.857	175.918	-0.093	-0.138
-652.843	49.005	-0.232	-0.222
-651.828	-48.929	0.063	0.031
-650.814	133.228	-0.064	-0.084
-649.799	26.515	-0.160	0.137
-648.784	800.000	-0.017	0.077
-647.770	-3.677	0.374	-0.265
-646.755	800.000	-0.055	0.225
-645.741	14.745	-0.100	-0.080
-644.726	192.271	-0.079	-0.121
-643.711	257.791	-0.280	-0.492
-642.697	-138.735	-0.096	-0.011
-641.682	655.637	-0.009	0.023
-640.668	-175.463	0.191	0.005
-639.653	-96.186	0.081	-0.022
-638.638	25.448	-0.176	-0.149
-637.624	435.123	-0.176	0.391
-636.609	800.000	0.048	0.157
-635.595	6.168	-0.296	-0.224
-634.580	800.000	-0.082	-0.320
-633.565	39.801	0.249	-0.228
-632.551	133.397	-0.172	-0.227
-631.536	13.145	-0.127	-0.100
-630.522	60.701	0.100	-0.101
-629.507	159.209	0.051	0.072
-628.492	715.474	-0.163	-0.440
-627.478	800.000	0.055	0.193
-626.463	62.312	-0.240	0.244
-625.449	153.426	-0.134	0.187
-624.434	-101.013	-0.308	-0.077
-623.419	-200.000	0.041	-0.278
-622.405	-143.528	0.060	-0.006
-621.390	193.604	-0.095	0.147
-620.376	-186.852	0.336	-0.005
-619.361	-200.000	-0.049	-0.296
-618.346	-200.000	0.030	-0.275
-617.332	-36.633	0.208	0.114
-616.317	-39.228	0.197	-0.105
-615.303	361.971	0.104	-0.213
-614.288	756.075	-0.038	-0.106
-613.273	-200.000	-0.061	-0.297
-612.259	-52.042	0.246	-0.116
-611.244	28.382	-0.099	-0.085
-610.230	50.665	-0.295	-0.285
-609.215	-200.000	0.015	-0.075
-608.201	144.150	0.260	0.353
-607.186	-200.000	0.006	-0.129
-606.171	-200.000	-0.016	-0.120
-605.157	-20.287	0.029	-0.018
-604.142	102.775	-0.061	-0.073
-603.128	68.819	-0.113	-0.118
-602.113	0.848	-0.302	0.220
-601.098	241.653	-0.064	0.110
-600.084	110.489	0.073	0.090
-599.069	-148.258	-0.244	-0.020
-598.055	418.104	0.093	0.202
-597.040	44.797	0.077	-0.072
-596.025	2.611	0.251	0.185
-595.011	-51.264	-0.229	-0.109
-593.996	-153.340	0.040	-0.003
-592.982	-93.625	-0.181	-0.051
-591.967	-126.090	-0.095	-0.015
-590.952	-105.688	0.219	-0.050
-589.938	21.885	0.391	-0.324
-588.923	800.000	0.064	0.224
-587.909	15.726	0.101	-0.081
-586.894	38.336	0.044	0.040
-585.879	55.159	0.265	0.260
-584.865	287.060	0.114	-0.210
-583.850	-151.516	-0.240	0.018
-582.836	15.230	-0.118	0.094
-581.821	43.334	0.165	0.153
-580.806	-200.000	0.014	0.352
-579.792	16.479	0.065	-0.052
-578.777	-81.122	-0.186	-0.062
-577.763	-6.685	-0.148	0.103
-576.748	-85.009	-0.322	0.103
-575.733	658.710	0.065	-0.170
-574.719	34.682	0.335	0.298
-573.704	24.230	0.175	-0.147
-572.690	59.975	-0.179	0.180
-571.675	-200.000	-0.074	0.369
-570.661	-22.568	-0.318	0.195
-569.646	800.000	-0.114	0.322
-568.631	227.446	0.096	-0.158
-567.617	27.734	-0.150	0.128
-566.602	-200.000	0.034	-0.195
-565.588	105.128	0.099	0.119
-564.573	-10.442	-0.181	-0.122
-563.558	222.911	-0.216	0.355
-562.544	-200.000	-0.012	-0.121
-561.529	-7.574	0.102	-0.070
-560.515	-5.703	0.216	0.151
-559.500	-125.941	0.305	0.047
-558.485	267.936	-0.067	-0.119
-557.471	44.404	-0.254	0.237
-556.456	-159.965	0.259	0.014
-555.442	-200.000	0.056	-0.279
-554.427	-26.566	-0.415	-0.247
-553.412	-80.552	0.049	0.017
-552.398	-21.064	0.366	0.228
-551.383	29.496	0.127	0.110
-550.369	74.968	0.249	-0.267
-549.354	776.438	-0.102	-0.282
-548.339	-200.000	-0.041	0.289
-547.325	-200.000	-0.011	0.173
-546.310	-162.609	-0.115	-0.006
-545.296	107.044	0.211	-0.255
-544.281	270.155	-0.091	-0.163
-543.266	19.622	-0.250	-0.204
-542.252	-17.800	-0.321	-0.204
-541.237	142.778	0.169	0.228
-540.223	-36.674	-0.061	-0.033
-539.208	-200.000	0.032	-0.171
-538.193	297.514	-0.111	-0.207
-537.179	-125.601	-0.153	0.024
-536.164	346.009	0.147	-0.293
-535.150	-0.689	-0.261	-0.188
-534.135	800.000	0.092	0.353
-533.121	-200.000	-0.002	-0.166
-532.106	-26.496	-0.118	0.070
-531.091	-200.000	-0.090	-0.582
-530.077	222.174	0.073	-0.119
-529.062	607.374	-0.110	-0.278
-528.048	-148.238	-0.108	0.009
-527.033	-98.728	-0.292	-0.076
-526.018	-200.000	-0.034	0.220
-525.004	-138.266	0.139	-0.016
-523.989	389.529	0.160	-0.337
-522.975	159.697	-0.190	-0.269
-521.960	-93.247	-0.092	0.026
-520.945	800.000	-0.040	-0.151
-519.931	-6.735	0.093	0.064
-518.916	-31.606	-0.116	-0.066
-517.902	-46.464	-0.330	0.164
-516.887	-200.000	0.029	0.277
-515.872	-104.976	-0.340	-0.079
-514.858	114.515	0.206	0.255
-513.843	198.870	0.124	-0.192
-512.829	800.000	0.053	-0.168
-511.814	564.929	-0.032	0.079
-510.799	-200.000	0.022	0.181
-509.785	-121.220	0.419	-0.071
-508.770	204.953	-0.124	-0.195
-507.756	484.810	0.092	0.213
-506.741	-43.003	-0.132	0.068
-505.726	-93.946	-0.227	-0.063
-504.712	-3.253	-0.145	-0.103
-503.697	-200.000	-0.009	-0.054
-502.683	800.000	-0.028	0.083
-501.668	58.714	-0.218	-0.217
-500.653	-14.369	0.077	-0.050
-499.639	146.247	0.040	-0.054
-498.624	213.591	0.212	0.340
-497.610	800.000	0.022	0.076
-496.595	601.759	-0.073	-0.185
-495.581	-82.127	0.170	-0.056
-494.566	80.911	-0.138	-0.151
-493.551	-137.994	-0.246	0.028
-492.537	34.592	0.211	-0.187
-491.522	-182.980	-0.311	-0.006
-490.508	5.576	0.133	-0.100
-489.493	59.429	0.238	0.238
-488.478	108.122	-0.125	0.151
-487.464	800.000	0.044	-0.174
-486.449	-169.045	-0.185	-0.007
-485.435	-15.876	0.162	-0.104
-484.420	421.786	0.046	-0.101
-483.405	800.000	-0.064	-0.225
-482.391	-112.111	0.234	0.048
-481.376	-128.807	-0.385	-0.055
-480.362	81.219	0.188	-0.206
-479.347	-58.683	-0.051	0.023
-478.332	-126.294	-0.283	0.043
-477.318	-115.225	-0.319	-0.061
-476.303	800.000	0.077	0.312
-475.289	-200.000	0.044	-0.232
-474.274	25.487	0.253	-0.213
-473.259	-115.455	-0.281	-0.054
-472.245	9.444	-0.212	0.163
-471.230	-200.000	0.055	0.287
-470.216	-148.070	-0.279	-0.023
-469.201	-12.421	0.165	-0.109
-468.186	-30.576	0.160	-0.092
-467.172	800.000	-0.043	0.131
-466.157	278.623	0.128	-0.230
-465.143	-58.215	0.242	0.107
-464.128	-200.000	0.041	-0.285
-463.113	567.572	0.058	0.143
-462.099	140.919	-0.213	0.285
-461.084	328.622	-0.032	0.061
-460.070	-143.197	0.073	-0.007
-459.055	-113.816	-0.137	-0.027
-458.040	-98.625	-0.261	-0.068
-457.026	-68.487	-0.207	-0.081
-456.011	32.715	0.091	0.080
-454.997	11.185	0.085	0.066
-453.982	-55.576	0.150	0.068
-452.968	-17.425	-0.028	-0.018
-451.953	800.000	0.066	0.216
-450.938	-130.491	0.297	0.041
-449.924	800.000	0.094	0.268
-448.909	-147.330	0.083	0.007
-447.895	-200.000	-0.027	0.275
-446.880	220.706	-0.178	0.290
-445.865	69.449	0.120	-0.125
-444.851	-200.000	0.014	-0.309
-443.836	-141.652	0.154	0.016
-442.822	-48.817	0.024	-0.012
-441.807	-120.813	-0.194	-0.033
-440.792	-84.481	0.148	0.047
-439.778	-94.073	-0.187	-0.052
-438.763	-66.248	0.214	-0.086
-437.749	383.041	-0.042	-0.086
-436.734	-142.890	-0.169	-0.017
-435.719	94.346	0.087	-0.100
-434.705	-12.294	0.227	0.150
-433.690	-200.000	0.028	0.426
-432.676	51.275	-0.113	-0.109
-431.661	-200.000	-0.065	0.329
-430.646	176.657	0.178	0.261
-429.632	-138.201	-0.144	-0.016
-428.617	-120.088	0.434	0.075
-427.603	-139.640	-0.128	0.014
-426.588	-22.588	-0.385	0.235
-425.573	128.392	-0.125	0.161
-424.559	800.000	0.032	-0.117
-423.544	-14.979	-0.139	0.090
-422.530	-111.107	-0.312	-0.065
-421.515	-106.009	0.242	0.055
-420.500	238.668	0.096	0.161
-419.486	208.496	-0.050	-0.080
-418.471	128.954	-0.194	0.250
-417.457	-149.832	0.018	0.001
-416.442	149.345	0.104	-0.143
-415.428	324.123	0.159	-0.307
-414.413	-121.532	-0.108	-0.018
-413.398	30.745	-0.137	0.119
-412.384	-180.539	-0.355	-0.007
-411.369	-200.000	-0.013	0.064
-410.355	84.430	-0.040	0.045
-409.340	113.541	0.100	0.123
-408.325	221.382	0.051	0.083
-407.311	212.863	-0.125	-0.199
-406.296	153.244	-0.063	-0.088
-405.282	19.543	-0.161	0.131
-404.267	147.588	0.090	0.123
-403.252	800.000	0.067	-0.276
-402.238	75.250	0.114	-0.121
-401.223	-41.470	-0.189	-0.098
-400.209	14.467	-0.292	-0.230
-399.194	-48.642	0.262	0.127
-398.179	729.928	0.148	0.400
-397.165	92.633	-0.166	-0.189
-396.150	800.000	0.087	-0.371
-395.136	33.248	0.209	-0.183
-394.121	-111.874	-0.207	0.042
-393.106	-200.000	-0.023	0.117
-392.092	84.347	0.210	0.232
-391.077	-0.231	0.084	0.061
-390.063	0.899	-0.143	0.103
-389.048	-94.563	-0.251	0.069
-388.033	-152.151	-0.219	-0.016
-387.019	102.586	0.102	0.121
-386.004	155.504	-0.057	-0.079
-384.990	-57.537	-0.288	0.128
-383.975	800.000	0.061	0.255
-382.960	-200.000	-0.016	0.349
-381.946	-200.000	0.038	-0.203
-380.931	-200.000	-0.032	0.146
-379.917	154.431	0.196	0.272
-378.902	-200.000	-0.008	-0.580
-377.888	-118.526	0.291	-0.052
-376.873	-153.094	0.485	0.034
-375.858	19.302	-0.139	0.112
-374.844	-156.250	0.239	-0.015
-373.829	337.079	-0.067	0.131
-372.815	237.567	0.024	-0.040
-371.800	-74.598	-0.307	-0.111
-370.785	143.824	0.070	0.095
-369.771	1.192	-0.056	-0.040
-368.756	800.000	0.041	-0.174
-367.742	127.614	0.146	-0.187
-366.727	8.418	-0.120	-0.091
-365.712	-129.057	0.181	0.026
-364.698	-200.000	0.058	-0.274
-363.683	-200.000	-0.025	0.137
-362.669	-28.702	-0.250	0.145
-361.654	-200.000	0.014	0.242
-360.639	-200.000	-0.041	0.281
-359.625	800.000	0.056	0.172
-358.610	160.166	0.148	-0.208
-357.596	211.590	0.090	-0.142
-356.581	-49.661	-0.173	0.083
-355.566	453.533	-0.103	-0.230
-354.552	-123.150	-0.083	-0.013
-353.537	10.368	0.178	0.137
-352.523	-200.000	-0.042	0.289
-351.508	29.770	-0.210	0.180
-350.493	800.000	0.063	-0.180
-349.479	-104.085	0.446	-0.105
-348.464	-129.431	0.376	0.053
-347.450	-69.274	0.016	0.006
-346.435	-70.415	0.287	-0.110
-345.420	330.145	0.203	-0.393
-344.406	-200.000	-0.022	0.373
-343.391	-94.607	-0.109	0.030
-342.377	-144.584	-0.647	-0.060
-341.362	-60.138	-0.220	0.095
-340.348	-109.486	-0.210	0.045
-339.333	-78.290	-0.242	0.084
-338.318	-200.000	0.033	0.236
-337.304	-37.475	-0.209	-0.113
-336.289	-98.407	-0.202	-0.052
-335.275	434.536	-0.034	0.074
-334.260	-64.347	-0.197	0.081
-333.245	-118.105	0.305	-0.055
-332.231	189.366	-0.123	0.186
-331.216	101.881	0.050	0.059
-330.202	-200.000	-0.011	-0.235
-329.187	683.091	-0.134	-0.351
-328.172	-4.922	-0.201	-0.139
-327.158	73.796	-0.153	-0.161
-326.143	-40.693	-0.076	-0.040
-325.129	5.982	0.121	-0.090
-324.114	-38.163	0.226	-0.121
-323.099	-23.834	0.358	-0.216
-322.085	-64.433	0.238	0.097
-321.070	-200.000	-0.023	-0.175
-320.056	-200.000	-0.003	-0.192
-319.041	-52.922	-0.168	-0.078
-318.026	-200.000	-0.007	-0.148
-317.012	800.000	-0.032	-0.096
-315.997	55.549	0.143	-0.139
-314.983	15.774	-0.148	0.117
-313.968	91.469	0.095	0.107
-312.953	-200.000	0.017	-0.410
-311.939	28.330	-0.144	-0.122
-310.924	-200.000	-0.008	0.037
-309.910	-200.000	0.019	0.300
-308.895	-109.628	0.181	0.038
-307.880	-23.502	-0.156	-0.094
-306.866	-87.534	0.402	0.122
-305.851	195.360	0.076	0.116
-304.837	-54.237	0.186	-0.085
-303.822	-39.129	0.199	-0.105
-302.807	800.000	0.033	0.092
-301.793	208.011	-0.180	-0.283
-300.778	274.413	-0.102	0.182
-299.764	28.412	0.102	0.086
-298.749	-36.446	0.400	0.217
-297.735	-129.145	-0.264	0.037
-296.720	-42.571	-0.332	0.170
-295.705	-120.189	-0.250	-0.043
-294.691	-70.072	-0.169	0.065
-293.676	-2.947	0.186	0.131
-292.662	800.000	0.020	-0.067
-291.647	147.692	-0.197	0.267
-290.632	-200.000	0.008	-0.051
-289.618	275.774	0.177	-0.316
-288.603	31.332	0.060	0.052
-287.589	-67.431	0.196	0.077
-286.574	-67.187	0.438	0.173
-285.559	-44.231	0.335	0.169
-284.545	-15.713	-0.416	0.266
-283.530	58.928	-0.193	-0.191
-282.516	-78.604	-0.129	-0.044
-281.501	87.635	-0.251	-0.280
-280.486	-32.092	-0.164	-0.092
-279.472	358.935	-0.053	0.107
-278.457	-8.874	-0.157	0.105
-277.443	75.134	-0.108	-0.114
-276.428	443.615	-0.037	0.082
-275.413	28.712	-0.217	-0.185
-274.399	-200.000	0.022	0.157
-273.384	202.592	0.093	0.144
-272.370	-200.000	-0.001	-0.032
-271.355	-16.677	0.075	-0.047
-270.340	-164.165	0.167	0.008
-269.326	121.146	-0.068	-0.085
-268.311	197.792	-0.095	0.145
-267.297	-67.803	-0.018	0.007
-266.282	114.444	-0.210	0.257
-265.267	-1.031	0.282	0.200
-264.253	-133.632	0.325	0.041
-263.238	-128.974	-0.237	-0.033
-262.224	338.674	-0.074	-0.145
-261.209	-7.366	0.143	-0.097
-260.195	800.000	-0.117	0.459
-259.180	-105.290	-0.148	-0.034
-258.165	-88.307	0.182	-0.055
-257.151	107.019	-0.266	0.318
-256.136	-4.645	0.286	-0.198
-255.122	144.983	0.206	-0.276
-254.107	143.323	0.044	-0.059
-253.092	55.010	-0.159	0.154
-252.078	-4.371	-0.334	0.232
-251.063	-187.200	0.219	-0.003
-250.049	223.258	-0.094	-0.153
-249.034	187.555	-0.162	-0.243
-248.019	-200.000	0.040	-0.178
-247.005	224.311	-0.096	0.155
-245.990	201.367	0.166	0.256
-244.976	32.684	0.149	-0.129
-243.961	-200.000	0.000	-0.325
-242.946	-200.000	0.010	-0.169
-241.932	91.751	0.190	0.215
-240.917	288.903	0.058	-0.105
-239.903	18.664	0.138	0.111
-238.888	36.987	-0.201	0.179
-237.873	399.686	-0.192	0.404
-236.859	-200.000	-0.005	0.090
-235.844	619.410	0.122	-0.307
-234.830	-115.498	0.143	-0.027
-233.815	-147.156	-0.333	0.028
-232.800	-102.981	0.234	0.056
-231.786	192.738	0.082	0.124
-230.771	-88.997	0.202	0.060
-229.757	-74.593	0.088	0.032
-228.742	-63.728	0.361	0.149
-227.727	85.031	-0.094	0.104
-226.713	349.341	-0.097	-0.192
-225.698	115.654	0.150	-0.184
-224.684	-200.000	0.027	-0.130
-223.669	323.696	0.144	0.275
-222.655	13.946	-0.134	0.104
-221.640	495.176	-0.130	-0.300
-220.625	30.258	-0.145	0.124
-219.611	164.152	0.027	0.038
-218.596	37.080	-0.137	0.122
-217.582	-42.169	0.067	0.034
-216.567	-200.000	0.017	0.109
-215.552	195.540	0.147	0.224
-214.538	150.544	0.278	-0.379
-213.523	160.833	-0.059	-0.083
-212.509	800.000	-0.024	-0.104
-211.494	-111.406	0.066	0.014
-210.479	263.509	0.192	0.335
-209.465	-200.000	-0.008	0.289
-208.450	-127.018	-0.151	-0.022
-207.436	-25.569	-0.195	-0.115
-206.421	17.767	-0.256	0.204
-205.406	-2.201	0.243	-0.171
-204.392	264.424	-0.150	-0.261
-203.377	-200.000	0.015	0.122
-202.363	357.133	-0.042	-0.084
-201.348	133.275	0.156	-0.202
-200.333	99.874	0.158	-0.184
-199.319	20.000	0.219	-0.177
-198.304	80.385	-0.299	-0.323
-197.290	-200.000	0.099	-0.459
-196.275	-161.809	0.245	-0.012
-195.260	800.000	0.087	0.276
-194.246	-43.701	0.361	0.182
-193.231	800.000	0.076	0.252
-192.217	800.000	0.071	0.234
-191.202	-35.639	0.259	0.141
-190.187	-200.000	0.009	0.172
-189.173	-149.338	0.270	0.022
-188.158	102.542	0.213	0.250
-187.144	800.000	-0.063	-0.174
-186.129	-200.000	0.028	0.233
-185.114	-200.000	-0.006	0.045
-184.100	41.706	-0.054	-0.049
-183.085	348.882	0.096	0.190
-182.071	39.395	0.185	0.166
-181.056	-104.030	-0.132	0.031
-180.042	-28.063	0.315	0.183
-179.027	-169.679	-0.233	-0.008
-178.012	334.618	0.085	0.165
-176.998	-22.199	0.214	0.130
-175.983	-46.488	-0.078	0.039
-174.969	800.000	-0.053	-0.175
-173.954	13.432	0.061	-0.047
-172.939	800.000	0.091	0.316
-171.925	-200.000	0.009	0.180
-170.910	-109.365	-0.410	0.087
-169.896	-86.200	-0.240	0.074
-168.881	174.678	0.125	-0.181
-167.866	262.587	0.079	0.137
-166.852	-200.000	0.030	-0.437
-165.837	800.000	0.042	0.169
-164.823	-200.000	0.066	0.292
-163.808	800.000	0.036	0.111
-162.793	112.119	-0.192	0.233
-161.779	-126.455	0.371	-0.055
-160.764	800.000	0.066	-0.251
-159.750	800.000	-0.020	-0.063
-158.735	800.000	0.073	-0.276
-157.720	-200.000	-0.004	-0.274
-156.706	-20.434	0.159	0.098
-155.691	-3.523	-0.059	0.041
-154.677	-111.584	0.355	0.072
-153.662	29.743	-0.118	-0.100
-152.647	-101.058	0.298	0.073
-151.633	125.316	0.117	0.148
-150.618	40.673	0.313	0.283
-149.604	286.964	-0.150	-0.272
-148.589	-54.875	-0.376	0.170
-147.574	800.000	-0.079	0.284
-146.560	-200.000	-0.030	0.134
-145.545	-200.000	-0.005	-0.087
-144.531	-91.645	0.284	0.081
-143.516	800.000	-0.016	0.049
-142.502	-132.868	-0.092	0.012
-141.487	21.157	0.206	0.167
-140.472	-39.712	-0.328	-0.172
-139.458	3.219	-0.188	0.137
-138.443	-111.811	0.119	-0.024
-137.429	-96.118	-0.137	-0.037
-136.414	800.000	0.049	0.168
-135.399	179.174	-0.100	0.146
-134.385	800.000	0.038	0.160
-133.370	-200.000	-0.030	0.291
-132.356	-32.312	-0.287	-0.160
-131.341	-41.317	0.211	-0.109
-130.326	292.360	0.058	-0.106
-129.312	186.281	-0.098	-0.146
-128.297	88.908	-0.068	-0.076
-127.283	-15.627	-0.267	0.170
-126.268	-200.000	0.073	0.379
-125.253	-200.000	-0.015	-0.420
-124.239	-77.621	0.074	-0.026
-123.224	-129.153	0.317	0.044
-122.210	112.768	0.249	0.302
-121.195	-200.000	0.022	0.308
-120.180	26.278	-0.116	0.097
