DTS Sentinel unit serial number:	SN413079Multiplexer serial number:	ORYXHardware model number:	OX4-SRSoftware version number:	ORYX F/W v4.00 Oryx Data Collector v3.7.2.0data status	okinstallation	princeton_trtdifferential loss correction	single-endedforward channel	channel 3reverse channel	N/Adate	2019/09/10time	20:58:10forward acquisition time	60.00reverse acquisition time	0.00gamma	496.2192k internal	0.2328k external	0.2328temperature offset calibration	0.9921default loss term (dB/km)	0.3790temperature slope calibration	1.0000multiplexer offset coefficient	1.0000multiplexer slope coefficient	1.0000fibre end	0.00T internal ref (°C)	31.64T ext. ref 1 (°C)	-0.31T ext. ref 2 (°C)	24.97length (m)	temperature (°C)	Stokes	anti-Stokes-747.200	800.000	-0.054	0.156
-746.185	-200.000	0.003	0.201
-745.171	207.207	0.198	-0.312
-744.156	-200.000	-0.008	-0.226
-743.142	-69.764	-0.134	0.051
-742.127	183.036	0.091	-0.135
-741.112	92.732	0.128	0.145
-740.098	-200.000	0.041	0.275
-739.083	-188.577	-0.262	0.003
-738.069	180.781	-0.137	0.203
-737.054	29.834	0.168	0.144
-736.039	543.206	-0.209	-0.502
-735.025	-96.076	0.382	0.102
-734.010	-148.069	-0.288	-0.024
-732.996	80.519	-0.138	-0.150
-731.981	116.352	0.236	-0.291
-730.966	-33.768	-0.370	-0.206
-729.952	-143.861	0.123	0.012
-728.937	144.468	-0.168	0.226
-727.923	800.000	-0.060	-0.227
-726.908	-200.000	0.003	0.045
-725.894	-22.077	-0.416	-0.254
-724.879	-130.122	-0.046	0.006
-723.864	-174.265	0.183	0.005
-722.850	40.019	-0.255	-0.231
-721.835	800.000	0.062	-0.225
-720.821	-34.378	0.040	-0.022
-719.806	-46.046	0.303	-0.150
-718.791	-112.760	-0.231	0.046
-717.777	-200.000	-0.026	0.296
-716.762	-47.178	-0.110	-0.054
-715.748	566.084	0.108	0.263
-714.733	-3.217	0.249	-0.175
-713.718	-200.000	-0.019	0.205
-712.704	0.459	-0.115	0.083
-711.689	-103.905	-0.198	-0.047
-710.675	-146.269	0.406	-0.036
-709.660	73.189	0.095	-0.100
-708.645	-41.986	0.232	-0.120
-707.631	76.184	0.140	0.149
-706.616	-97.526	-0.301	0.079
-705.602	58.805	-0.281	-0.278
-704.587	23.667	0.203	0.168
-703.572	624.978	0.059	0.150
-702.558	31.819	-0.095	-0.082
-701.543	142.025	0.060	0.080
-700.529	73.360	-0.293	0.309
-699.514	157.024	0.249	0.346
-698.499	-107.808	-0.252	-0.055
-697.485	224.669	-0.169	0.275
-696.470	800.000	-0.046	0.136
-695.456	-124.035	-0.150	-0.024
-694.441	404.568	-0.045	-0.094
-693.426	407.658	0.121	-0.258
-692.412	74.660	-0.151	-0.160
-691.397	-51.453	0.183	0.086
-690.383	81.305	-0.119	-0.129
-689.368	-133.568	-0.100	-0.013
-688.354	166.075	-0.200	-0.285
-687.339	800.000	0.084	-0.256
-686.324	-10.826	-0.209	0.139
-685.310	-129.026	-0.211	-0.030
-684.295	-173.103	-0.307	-0.009
-683.281	-60.596	-0.233	0.099
-682.266	30.332	0.083	0.072
-681.251	-119.987	-0.206	0.036
-680.237	-54.955	0.316	-0.143
-679.222	128.707	-0.074	0.095
-678.208	800.000	-0.141	-0.528
-677.193	336.168	0.041	-0.079
-676.178	71.599	-0.277	0.289
-675.164	194.816	-0.075	0.114
-674.149	-89.229	0.545	0.162
-673.135	-200.000	-0.007	0.139
-672.120	1.966	-0.131	0.095
-671.105	70.891	-0.204	0.212
-670.091	302.916	-0.126	-0.234
-669.076	-83.258	0.249	0.080
-668.062	-107.286	0.200	0.044
-667.047	-60.001	0.298	-0.128
-666.032	675.463	0.100	0.261
-665.018	-119.993	-0.159	-0.027
-664.003	-37.130	-0.112	-0.060
-662.989	-53.567	-0.060	-0.028
-661.974	152.072	-0.024	0.033
-660.959	21.219	-0.307	-0.250
-659.945	339.195	-0.209	0.409
-658.930	-200.000	-0.044	-0.192
-657.916	-68.955	-0.143	0.055
-656.901	-200.000	0.022	0.097
-655.886	-14.617	-0.279	0.180
-654.872	800.000	0.144	-0.446
-653.857	800.000	0.104	-0.376
-652.843	-55.264	0.218	0.098
-651.828	800.000	0.022	-0.093
-650.814	-66.241	-0.140	0.056
-649.799	169.934	-0.099	0.141
-648.784	-165.759	-0.205	-0.009
-647.770	800.000	0.059	-0.228
-646.755	-200.000	0.007	-0.250
-645.741	326.812	-0.136	0.262
-644.726	36.898	-0.168	0.149
-643.711	-96.813	0.267	-0.070
-642.697	-200.000	0.050	-0.231
-641.682	256.211	0.235	-0.405
-640.668	63.691	-0.113	-0.114
-639.653	-97.246	-0.401	0.105
-638.638	-79.729	-0.198	0.067
-637.624	-147.583	0.056	0.005
-636.609	214.521	-0.088	-0.140
-635.595	800.000	-0.098	0.288
-634.580	-147.583	-0.149	0.013
-633.565	31.173	-0.273	0.235
-632.551	-148.387	-0.299	-0.025
-631.536	735.285	0.025	-0.067
-630.522	100.537	0.133	-0.155
-629.507	-30.537	-0.302	-0.172
-628.492	32.227	-0.168	-0.145
-627.478	-200.000	0.024	0.162
-626.463	-60.968	0.236	-0.100
-625.449	800.000	-0.033	-0.143
-624.434	460.100	0.164	0.366
-623.419	-145.463	0.378	0.034
-622.405	-123.308	-0.161	-0.026
-621.390	777.831	-0.020	-0.056
-620.376	-200.000	-0.015	-0.105
-619.361	-76.038	-0.163	0.058
-618.346	-84.938	-0.238	-0.075
-617.332	29.148	-0.030	-0.026
-616.317	-42.075	0.078	0.040
-615.303	-200.000	-0.019	0.134
-614.288	-37.585	-0.181	0.097
-613.273	72.662	0.245	0.257
-612.259	-115.688	0.273	-0.051
-611.244	1.056	-0.269	0.194
-610.230	-18.358	-0.071	0.044
-609.215	-44.083	-0.435	-0.219
-608.201	104.717	-0.021	-0.024
-607.186	8.548	0.196	-0.148
-606.171	-38.820	0.202	-0.107
-605.157	-151.271	0.336	-0.025
-604.142	697.952	-0.047	0.125
-603.128	-182.225	-0.174	-0.003
-602.113	-140.682	0.152	0.016
-601.098	-200.000	-0.050	0.270
-600.084	-22.467	0.078	0.047
-599.069	372.354	-0.091	-0.185
-598.055	718.733	0.118	-0.313
-597.040	263.892	0.193	-0.336
-596.025	318.336	-0.221	0.419
-595.011	-30.110	-0.220	-0.125
-593.996	800.000	-0.089	0.320
-592.982	20.558	0.205	0.166
-591.967	-70.398	-0.126	0.048
-590.952	133.870	0.063	-0.082
-589.938	-83.856	-0.351	0.112
-588.923	-128.514	0.339	0.048
-587.909	-44.575	-0.127	0.064
-586.894	800.000	0.160	-0.467
-585.879	-200.000	0.000	-0.081
-584.865	-11.905	-0.240	0.157
-583.850	-53.288	-0.078	-0.036
-582.836	369.838	-0.094	0.191
-581.821	800.000	0.114	0.342
-580.806	124.651	0.107	-0.134
-579.792	191.784	0.068	-0.102
-578.777	-92.302	0.137	0.039
-577.763	-200.000	0.024	-0.127
-576.748	-8.553	-0.040	-0.027
-575.733	-34.294	-0.402	0.221
-574.719	39.011	0.191	0.171
-573.704	125.715	0.196	-0.248
-572.690	568.473	-0.081	-0.198
-571.675	-200.000	0.043	-0.230
-570.661	134.671	-0.168	0.218
-569.646	146.392	0.221	-0.298
-568.631	1.139	0.179	0.128
-567.617	-140.065	-0.083	-0.009
-566.602	800.000	0.130	-0.424
-565.588	251.253	0.076	-0.129
-564.573	122.378	-0.093	0.117
-563.558	134.505	0.171	-0.223
-562.544	-70.133	-0.387	-0.147
-561.529	102.269	-0.126	-0.148
-560.515	-33.809	-0.270	0.149
-559.500	421.179	-0.109	0.235
-558.485	-57.923	-0.146	-0.064
-557.471	44.924	-0.058	0.053
-556.456	-200.000	-0.012	0.171
-555.442	179.735	0.146	0.213
-554.427	-67.261	-0.364	0.143
-553.412	-64.167	0.081	0.033
-552.398	-52.213	-0.172	-0.080
-551.383	-0.415	-0.040	0.028
-550.369	-124.103	-0.243	-0.038
-549.354	523.330	0.096	0.226
-548.339	-200.000	-0.001	0.199
-547.325	-6.180	0.062	-0.042
-546.310	-85.397	-0.491	-0.153
-545.296	461.659	-0.088	0.196
-544.281	-54.999	0.295	-0.133
-543.266	-14.531	0.062	-0.040
-542.252	-130.739	-0.273	0.037
-541.237	155.871	-0.060	0.083
-540.223	-113.060	0.164	0.032
-539.208	269.438	-0.043	0.076
-538.193	-200.000	0.007	-0.243
-537.179	-15.095	-0.039	0.025
-536.164	316.818	-0.108	0.204
-535.150	228.712	0.073	0.120
-534.135	17.084	-0.218	-0.172
-533.121	-87.553	-0.278	0.084
-532.106	29.939	-0.281	0.239
-531.091	-167.932	-0.318	-0.012
-530.077	-139.214	-0.143	-0.015
-529.062	-115.052	-0.261	0.050
-528.048	-70.294	0.051	-0.019
-527.033	181.699	0.246	0.362
-526.018	800.000	-0.092	0.263
-525.004	-127.365	-0.306	0.044
-523.989	-200.000	0.020	0.215
-522.975	-200.000	-0.000	-0.087
-521.960	-113.439	0.581	0.114
-520.945	209.698	-0.064	0.101
-519.931	-95.345	0.157	-0.042
-518.916	-120.996	-0.302	0.051
-517.902	134.526	-0.049	-0.064
-516.887	800.000	0.097	0.361
-515.872	800.000	0.054	-0.192
-514.858	800.000	0.041	-0.171
-513.843	420.614	0.062	-0.133
-512.829	-200.000	-0.006	0.146
-511.814	-200.000	0.028	-0.170
-510.799	-200.000	0.052	-0.275
-509.785	-200.000	-0.002	0.085
-508.770	-85.135	0.333	-0.104
-507.756	800.000	0.024	-0.090
-506.741	-200.000	-0.061	-0.338
-505.726	800.000	0.063	-0.264
-504.712	85.485	-0.161	-0.177
-503.697	-200.000	-0.039	0.433
-502.683	0.116	-0.276	0.196
-501.668	-27.032	0.331	-0.193
-500.653	-150.052	-0.491	-0.038
-499.639	-27.986	0.076	-0.044
-498.624	-200.000	0.031	-0.186
-497.610	-63.179	-0.126	-0.052
-496.595	-69.026	-0.200	0.077
-495.581	-69.174	0.171	-0.066
-494.566	-40.820	0.110	0.057
-493.551	-200.000	-0.036	-0.169
-492.537	537.864	-0.102	0.243
-491.522	-200.000	-0.010	-0.074
-490.508	159.460	-0.221	0.307
-489.493	-77.215	-0.359	-0.125
-488.478	-83.181	0.032	0.010
-487.464	49.245	0.255	-0.239
-486.449	64.982	0.150	-0.151
-485.435	94.882	-0.158	-0.180
-484.420	-200.000	0.055	-0.392
-483.405	60.482	0.141	-0.140
-482.391	-126.592	0.323	0.048
-481.376	260.200	0.099	-0.171
-480.362	586.222	-0.083	-0.204
-479.347	800.000	0.128	0.363
-478.332	-200.000	0.000	-0.112
-477.318	51.722	-0.314	-0.298
-476.303	-152.451	-0.184	0.013
-475.289	83.246	-0.077	0.084
-474.274	-73.100	-0.176	0.064
-473.259	429.403	-0.036	-0.078
-472.245	-99.120	-0.142	0.036
-471.230	-11.354	-0.174	0.114
-470.216	244.119	-0.179	-0.300
-469.201	11.143	-0.056	-0.043
-468.186	-29.125	-0.106	0.060
-467.172	436.804	0.084	-0.182
-466.157	-26.813	0.116	0.068
-465.143	-25.723	0.283	0.166
-464.128	-93.014	-0.160	0.044
-463.113	-72.244	-0.159	-0.059
-462.099	329.626	0.049	0.094
-461.084	800.000	0.083	-0.239
-460.070	-61.359	0.362	-0.152
-459.055	283.938	-0.129	0.231
-458.040	-90.630	0.495	0.143
-457.026	-169.469	0.293	-0.011
-456.011	-37.701	0.142	0.075
-454.997	-48.230	-0.196	-0.094
-453.982	-12.099	0.148	0.097
-452.968	800.000	-0.050	-0.150
-451.953	-144.767	-0.319	0.029
-450.938	241.738	0.050	0.083
-449.924	-200.000	0.003	0.116
-448.909	-155.112	-0.038	-0.003
-447.895	77.153	0.171	-0.181
-446.880	-174.672	-0.094	-0.003
-445.865	-200.000	-0.003	0.196
-444.851	-129.460	-0.085	-0.012
-443.836	800.000	0.150	0.411
-442.822	-107.656	-0.323	-0.070
-441.807	158.237	0.349	0.482
-440.792	16.142	0.225	-0.176
-439.778	11.972	0.136	-0.104
-438.763	-150.246	0.258	0.020
-437.749	269.695	-0.138	-0.241
-436.734	-52.770	0.119	-0.055
-435.719	7.470	-0.076	0.057
-434.705	-128.639	0.346	-0.049
-433.690	139.606	-0.215	-0.282
-432.676	-143.052	0.103	-0.010
-431.661	800.000	0.023	-0.100
-430.646	-125.986	-0.031	-0.005
-429.632	-200.000	-0.047	0.219
-428.617	-27.158	0.437	-0.254
-427.603	550.393	-0.204	-0.486
-426.588	170.796	-0.303	0.433
-425.573	220.952	0.110	0.175
-424.559	-200.000	0.012	0.351
-423.544	65.029	0.185	-0.186
-422.530	185.951	0.050	-0.074
-421.515	-56.767	0.065	0.028
-420.500	800.000	0.069	-0.199
-419.486	-61.662	0.357	0.149
-418.471	-59.477	0.019	0.008
-417.457	25.869	0.281	0.233
-416.442	-26.023	-0.128	0.075
-415.428	800.000	-0.053	0.192
-414.413	-54.066	-0.191	-0.086
-413.398	56.901	-0.261	0.253
-412.384	-76.253	-0.358	0.126
-411.369	-200.000	0.009	0.233
-410.355	-63.939	-0.174	0.071
-409.340	-155.584	0.310	0.020
-408.325	-200.000	-0.024	0.206
-407.311	243.176	0.126	0.210
-406.296	-4.333	-0.147	-0.101
-405.282	36.208	0.185	-0.162
-404.267	-54.289	-0.330	0.149
-403.252	-200.000	0.006	-0.122
-402.238	182.465	0.328	-0.481
-401.223	439.434	0.080	-0.174
-400.209	179.757	-0.047	0.068
-399.194	-136.625	-0.187	-0.022
-398.179	-38.506	0.160	-0.084
-397.165	-52.844	0.335	0.153
-396.150	-130.058	-0.185	0.025
-395.136	250.327	-0.085	-0.143
-394.121	121.360	-0.036	0.044
-393.106	-40.886	-0.151	0.078
-392.092	-102.448	0.174	0.041
-391.077	-97.016	0.222	-0.058
-390.063	-2.213	0.146	-0.102
-389.048	-79.708	-0.282	-0.094
-388.033	-57.425	0.151	-0.066
-387.019	-200.000	0.079	-0.472
-386.004	20.628	-0.170	-0.137
-384.990	-200.000	0.012	-0.177
-383.975	-200.000	0.014	0.253
-382.960	-48.348	-0.242	0.116
-381.946	-200.000	0.031	-0.195
-380.931	-56.362	0.128	-0.057
-379.917	46.737	-0.009	0.008
-378.902	-200.000	0.013	-0.250
-377.888	-67.456	0.035	0.014
-376.873	284.975	-0.067	0.120
-375.858	36.812	0.102	-0.089
-374.844	-175.914	-0.213	0.006
-373.829	-65.867	0.389	0.154
-372.815	211.206	0.131	-0.205
-371.800	800.000	-0.098	-0.317
-370.785	77.771	-0.041	-0.044
-369.771	79.368	-0.263	-0.280
-368.756	-14.662	-0.126	-0.081
-367.742	-200.000	0.006	0.067
-366.727	800.000	0.065	0.187
-365.712	299.143	0.164	0.300
-364.698	288.652	0.132	0.238
-363.683	413.942	0.116	-0.246
-362.669	-62.799	0.245	0.101
-361.654	-113.013	0.244	-0.048
-360.639	581.802	-0.072	-0.175
-359.625	-200.000	-0.001	0.096
-358.610	-137.496	0.338	-0.038
-357.596	-200.000	0.030	0.132
-356.581	88.536	-0.174	-0.192
-355.566	-34.962	0.169	0.091
-354.552	753.661	0.150	-0.402
-353.537	-83.000	-0.335	-0.107
-352.523	-200.000	-0.028	0.227
-351.508	-20.641	-0.110	0.067
-350.493	66.699	-0.018	0.018
-349.479	31.037	-0.216	0.184
-348.464	-137.621	0.283	0.032
-347.450	-36.955	-0.024	-0.013
-346.435	-200.000	0.041	-0.287
-345.420	-200.000	0.025	-0.454
-344.406	-140.655	0.118	0.012
-343.391	406.810	-0.113	-0.237
-342.377	-44.155	-0.347	-0.173
-341.362	75.853	0.238	-0.250
-340.348	-200.000	-0.049	-0.295
-339.333	-43.114	0.342	0.172
-338.318	200.806	-0.068	-0.104
-337.304	-79.198	0.151	0.051
-336.289	359.235	0.091	-0.181
-335.275	800.000	-0.098	0.358
-334.260	-87.066	-0.079	-0.024
-333.245	-137.395	0.314	-0.035
-332.231	-200.000	-0.002	0.026
-331.216	-6.172	-0.188	-0.127
-330.202	-200.000	0.002	0.308
-329.187	-58.871	-0.323	-0.138
-328.172	-198.631	-0.479	-0.003
-327.158	-91.578	-0.157	-0.044
-326.143	-34.099	-0.025	0.014
-325.129	-111.594	-0.197	-0.040
-324.114	-74.047	0.376	-0.135
-323.099	205.857	0.081	0.125
-322.085	800.000	0.059	-0.171
-321.070	-130.116	-0.491	0.066
-320.056	800.000	-0.033	-0.099
-319.041	739.515	-0.041	0.110
-318.026	800.000	-0.046	-0.163
-317.012	433.899	0.151	0.326
-315.997	-177.729	-0.272	-0.007
-314.983	343.058	0.068	0.131
-313.968	752.381	-0.067	0.179
-312.953	-93.271	-0.386	0.106
-311.939	93.048	0.189	-0.211
-310.924	175.015	0.218	0.313
-309.910	-129.681	0.226	-0.031
-308.895	-52.863	0.326	0.149
-307.880	65.856	-0.039	-0.039
-306.866	540.939	0.033	0.078
-305.851	800.000	0.117	-0.345
-304.837	-79.201	0.328	-0.110
-303.822	309.551	-0.056	-0.104
-302.807	-93.822	-0.368	-0.100
-301.793	-200.000	0.005	-0.106
-300.778	-94.581	-0.173	-0.047
-299.764	-122.618	-0.069	-0.011
-298.749	323.187	-0.114	0.216
-297.735	60.092	0.333	-0.326
-296.720	-34.759	0.094	-0.051
-295.705	-97.700	-0.200	0.051
-294.691	71.590	-0.184	0.189
-293.676	381.059	0.104	-0.211
-292.662	189.167	-0.221	-0.328
-291.647	-95.442	0.499	-0.133
-290.632	164.624	0.141	0.197
-289.618	-128.492	0.064	-0.009
-288.603	336.495	-0.071	0.136
-287.589	-32.236	-0.290	0.160
-286.574	706.645	0.139	-0.362
-285.559	402.890	0.037	0.078
-284.545	17.709	-0.102	0.081
-283.530	-12.316	0.054	-0.035
-282.516	361.823	-0.050	0.099
-281.501	36.465	-0.146	0.128
-280.486	-200.000	-0.016	0.207
-279.472	800.000	-0.050	-0.164
-278.457	800.000	-0.079	-0.257
-277.443	-33.613	0.289	-0.158
-276.428	-200.000	-0.013	-0.246
-275.413	800.000	-0.066	-0.213
-274.399	-84.154	0.077	0.024
-273.384	2.532	0.297	-0.213
-272.370	719.317	0.139	-0.366
-271.355	-107.355	-0.050	-0.011
-270.340	-29.383	-0.397	-0.225
-269.326	9.666	0.177	0.133
-268.311	-143.326	0.361	0.034
-267.297	-51.633	-0.088	-0.041
-266.282	800.000	0.157	0.430
-265.267	-109.045	0.177	0.037
-264.253	800.000	0.108	-0.317
-263.238	336.007	-0.058	0.111
-262.224	-200.000	0.022	0.136
-261.209	88.247	-0.034	-0.037
-260.195	800.000	-0.027	-0.087
-259.180	-110.800	0.189	0.039
-258.165	-18.073	-0.279	0.173
-257.151	135.004	-0.082	0.106
-256.136	-113.990	0.212	-0.041
-255.122	-200.000	0.037	-0.372
-254.107	800.000	-0.027	0.080
-253.092	57.155	0.138	0.133
-252.078	-60.668	0.516	-0.216
-251.063	131.437	-0.241	0.306
-250.049	-200.000	0.030	0.180
-249.034	28.644	-0.220	-0.184
-248.019	800.000	-0.009	0.025
-247.005	-200.000	-0.041	0.336
-245.990	-54.555	-0.202	0.090
-244.976	116.608	-0.106	0.128
-243.961	104.608	0.263	-0.306
-242.946	141.050	0.155	-0.203
-241.932	-74.394	-0.299	-0.107
-240.917	55.664	-0.295	0.283
-239.903	201.433	-0.164	0.250
-238.888	364.251	0.078	-0.155
-237.873	38.658	-0.102	-0.090
-236.859	800.000	0.074	-0.272
-235.844	-200.000	0.054	0.334
-234.830	32.247	0.267	0.227
-233.815	-119.432	0.207	0.035
-232.800	-200.000	0.029	-0.222
-231.786	-200.000	0.006	0.094
-230.771	-119.736	-0.589	0.100
-229.757	-57.155	-0.230	-0.100
-228.742	-100.742	0.147	-0.036
-227.727	-120.834	0.306	0.051
-226.713	-153.520	0.180	0.012
-225.698	699.657	-0.024	0.062
-224.684	142.230	0.090	0.118
-223.669	-108.897	0.230	0.049
-222.655	-62.216	-0.261	0.107
-221.640	-74.625	0.221	-0.078
-220.625	-132.918	0.386	0.048
-219.611	-129.097	0.182	0.025
-218.596	-8.811	0.259	-0.172
-217.582	-79.163	0.243	0.082
-216.567	107.155	0.106	0.124
-215.552	90.027	0.031	-0.034
-214.538	104.360	-0.135	0.157
-213.523	22.237	-0.253	0.204
-212.509	-200.000	0.043	-0.272
-211.494	-200.000	0.059	-0.317
-210.479	-43.085	0.165	-0.083
-209.465	800.000	-0.066	0.184
-208.450	-102.276	-0.336	0.080
-207.436	800.000	0.107	0.362
-206.421	107.998	-0.052	-0.062
-205.406	29.998	0.232	0.195
-204.392	-200.000	-0.022	0.124
-203.377	11.656	0.166	-0.126
-202.363	554.105	0.050	0.119
-201.348	123.125	0.220	0.272
-200.333	548.036	-0.024	-0.057
-199.319	166.377	0.058	0.082
-198.304	774.749	0.068	0.184
-197.290	800.000	-0.076	-0.236
-196.275	-77.732	0.422	0.144
-195.260	-61.968	0.193	0.080
-194.246	800.000	-0.068	-0.276
-193.231	183.497	0.255	0.372
-192.217	800.000	0.128	0.522
-191.202	-56.568	0.407	0.178
-190.187	-132.312	0.259	0.033
-189.173	800.000	0.035	-0.141
-188.158	800.000	0.093	0.278
-187.144	-150.162	0.274	0.021
-186.129	640.396	-0.082	0.205
-185.114	73.215	0.135	-0.139
-184.100	80.470	-0.309	0.328
-183.085	295.863	-0.118	-0.213
-182.071	-61.947	-0.067	0.027
-181.056	59.508	-0.071	0.069
-180.042	4.815	-0.203	0.147
-179.027	-200.000	0.052	0.243
-178.012	-77.371	-0.297	-0.102
-176.998	599.356	-0.109	-0.267
-175.983	378.599	0.092	0.185
-174.969	-15.642	0.099	0.062
-173.954	-19.535	0.206	0.126
-172.939	-200.000	-0.042	-0.182
-171.925	-110.708	0.065	-0.013
-170.910	800.000	-0.090	-0.311
-169.896	-143.738	-0.424	0.040
-168.881	-53.844	0.166	0.075
-167.866	620.311	-0.113	0.281
-166.852	-200.000	-0.049	0.273
-165.837	-41.755	0.114	-0.058
-164.823	-139.028	0.065	-0.007
-163.808	-154.936	0.318	0.021
-162.793	-200.000	-0.011	0.223
-161.779	-153.653	-0.256	0.017
-160.764	-200.000	-0.041	0.225
-159.750	-154.159	0.385	-0.026
-158.735	-37.254	-0.435	0.229
-157.720	-200.000	0.029	-0.149
-156.706	213.447	-0.287	-0.447
-155.691	800.000	-0.025	0.104
-154.677	-59.152	-0.161	0.068
-153.662	-200.000	0.005	0.072
-152.647	800.000	-0.085	0.239
-151.633	25.067	-0.115	0.094
-150.618	191.014	0.110	-0.164
-149.604	-79.725	0.130	0.043
-148.589	-1.107	-0.325	-0.227
-147.574	446.851	-0.144	0.313
-146.560	243.180	0.059	-0.097
-145.545	800.000	-0.019	0.063
-144.531	-52.810	-0.247	0.112
-143.516	-7.116	-0.272	0.182
-142.502	245.890	0.080	-0.132
-141.487	-200.000	0.035	0.328
-140.472	-100.065	0.157	-0.038
-139.458	-58.412	0.070	-0.030
-138.443	-113.408	-0.247	-0.048
-137.429	-200.000	-0.004	-0.141
-136.414	-22.255	0.092	0.055
-135.399	715.660	0.062	-0.161
-134.385	186.983	0.094	0.138
-133.370	-5.275	0.095	0.064
-132.356	94.160	-0.242	0.270
-131.341	587.275	0.037	-0.090
-130.326	117.606	-0.075	-0.091
-129.312	128.571	0.082	-0.103
-128.297	8.222	-0.089	0.066
-127.283	206.998	-0.245	-0.376
-126.268	-200.000	-0.008	-0.318
-125.253	-53.212	0.161	0.073
-124.239	800.000	0.137	0.414
-123.224	-200.000	-0.003	0.302
-122.210	-200.000	-0.005	0.152
-121.195	-94.977	0.344	-0.091
