DTS Sentinel unit serial number:	SN413079Multiplexer serial number:	ORYXHardware model number:	OX4-SRSoftware version number:	ORYX F/W v4.00 Oryx Data Collector v3.7.2.0data status	okinstallation	princeton_trtdifferential loss correction	single-endedforward channel	channel 3reverse channel	N/Adate	2019/09/12time	07:38:10forward acquisition time	60.00reverse acquisition time	0.00gamma	496.2192k internal	0.2316k external	0.2316temperature offset calibration	1.0029default loss term (dB/km)	0.3790temperature slope calibration	1.0000multiplexer offset coefficient	1.0000multiplexer slope coefficient	1.0000fibre end	0.00T internal ref (°C)	32.67T ext. ref 1 (°C)	1.64T ext. ref 2 (°C)	29.20length (m)	temperature (°C)	Stokes	anti-Stokes-747.200	-200.000	0.052	-0.439
-746.185	-58.810	-0.341	0.150
-745.171	-20.029	-0.223	0.139
-744.156	-117.820	-0.301	0.055
-743.142	-53.833	0.283	0.131
-742.127	13.977	-0.058	0.046
-741.112	47.499	-0.049	-0.046
-740.098	800.000	-0.126	0.535
-739.083	-200.000	0.000	-0.215
-738.069	-200.000	0.012	0.290
-737.054	157.991	-0.063	-0.089
-736.039	-16.693	-0.152	-0.098
-735.025	-5.714	-0.184	0.128
-734.010	239.873	-0.190	-0.321
-732.996	-54.036	0.131	-0.061
-731.981	412.877	-0.099	-0.213
-730.966	550.813	-0.034	0.082
-729.952	-141.710	0.289	0.029
-728.937	266.273	0.049	-0.087
-727.923	-46.860	-0.175	-0.086
-726.908	-19.851	0.121	-0.076
-725.894	-59.728	0.224	0.097
-724.879	318.088	-0.177	-0.338
-723.864	610.683	0.082	-0.208
-722.850	800.000	-0.050	0.143
-721.835	-80.687	-0.154	-0.052
-720.821	519.848	-0.113	0.269
-719.806	540.497	-0.046	0.110
-718.791	-9.252	-0.135	0.091
-717.777	140.392	-0.080	-0.107
-716.762	-123.480	-0.222	0.036
-715.748	-200.000	0.011	-0.112
-714.733	-124.495	0.200	-0.031
-713.718	254.416	0.191	-0.330
-712.704	-147.411	0.187	0.016
-711.689	533.153	0.098	-0.235
-710.675	-64.635	-0.454	-0.186
-709.660	48.574	0.202	-0.191
-708.645	-25.740	0.257	0.153
-707.631	-70.766	-0.536	0.205
-706.616	-26.561	-0.264	-0.156
-705.602	61.529	0.057	-0.058
-704.587	-200.000	0.002	-0.234
-703.572	-200.000	0.024	-0.196
-702.558	367.329	-0.117	-0.239
-701.543	-110.173	0.493	0.104
-700.529	-200.000	0.053	0.240
-699.514	800.000	-0.126	-0.551
-698.499	205.472	0.160	-0.251
-697.485	93.862	0.197	-0.226
-696.470	-200.000	-0.003	-0.034
-695.456	-53.912	-0.188	-0.087
-694.441	-45.369	0.266	-0.133
-693.426	71.256	-0.239	0.250
-692.412	114.201	0.145	-0.179
-691.397	-200.000	-0.030	-0.396
-690.383	97.014	-0.015	0.018
-689.368	800.000	0.033	0.140
-688.354	-200.000	-0.019	0.125
-687.339	-163.191	-0.320	-0.016
-686.324	-70.828	-0.183	-0.070
-685.310	-200.000	0.027	0.197
-684.295	132.835	0.186	0.242
-683.281	-81.893	0.160	0.053
-682.266	-164.626	0.149	0.007
-681.251	79.812	0.162	-0.176
-680.237	-72.568	-0.387	-0.144
-679.222	800.000	-0.033	-0.108
-678.208	770.663	0.020	0.056
-677.193	102.962	-0.018	-0.021
-676.178	-54.448	-0.169	-0.077
-675.164	-17.639	0.276	-0.175
-674.149	300.738	-0.126	-0.234
-673.135	-86.169	-0.155	0.048
-672.120	-200.000	0.006	0.159
-671.105	23.471	-0.246	-0.204
-670.091	-135.687	-0.080	0.010
-669.076	-200.000	0.041	-0.298
-668.062	-131.244	0.123	0.016
-667.047	311.475	-0.151	-0.286
-666.032	74.030	-0.240	-0.254
-665.018	1.881	0.026	0.019
-664.003	722.120	0.106	-0.284
-662.989	-78.523	-0.178	-0.062
-661.974	-1.914	-0.166	0.118
-660.959	-153.917	-0.217	-0.015
-659.945	-200.000	-0.066	0.476
-658.930	200.966	0.160	0.249
-657.916	245.025	-0.162	-0.275
-656.901	29.343	0.244	-0.209
-655.886	-50.715	0.382	-0.182
-654.872	-92.998	0.144	-0.040
-653.857	-144.556	-0.363	-0.034
-652.843	-77.001	0.133	-0.047
-651.828	152.847	-0.088	-0.122
-650.814	-73.457	0.078	-0.029
-649.799	800.000	0.128	0.370
-648.784	-200.000	-0.019	0.221
-647.770	-200.000	0.017	-0.193
-646.755	-152.997	-0.321	-0.023
-645.741	-123.897	-0.011	0.002
-644.726	-142.562	-0.223	0.022
-643.711	-133.468	0.193	-0.024
-642.697	-200.000	0.421	-0.001
-641.682	-200.000	0.037	-0.257
-640.668	-156.373	0.169	0.011
-639.653	-72.509	-0.020	0.008
-638.638	800.000	-0.036	-0.112
-637.624	-95.680	0.228	-0.061
-636.609	-75.255	-0.180	-0.065
-635.595	-31.609	-0.058	-0.033
-634.580	800.000	-0.038	0.113
-633.565	43.410	0.141	-0.130
-632.551	800.000	-0.095	-0.338
-631.536	-119.454	0.057	-0.010
-630.522	-123.557	-0.103	-0.016
-629.507	800.000	-0.089	-0.291
-628.492	-44.204	0.247	0.125
-627.478	-2.532	-0.322	-0.227
-626.463	-200.000	-0.015	0.146
-625.449	-78.933	-0.209	0.072
-624.434	-151.978	-0.423	-0.031
-623.419	795.806	-0.033	0.091
-622.405	-200.000	0.029	0.503
-621.390	-200.000	-0.010	0.145
-620.376	86.678	0.160	0.178
-619.361	-18.987	0.185	-0.116
-618.346	254.659	-0.092	-0.159
-617.332	-200.000	0.049	-0.314
-616.317	446.251	0.021	-0.046
-615.303	800.000	0.098	0.296
-614.288	800.000	-0.070	0.299
-613.273	96.307	-0.200	-0.230
-612.259	-43.532	-0.376	-0.191
-611.244	-200.000	-0.033	0.186
-610.230	-200.000	-0.058	-0.367
-609.215	-122.363	0.146	-0.024
-608.201	-144.879	-0.082	-0.008
-607.186	-112.225	-0.234	-0.047
-606.171	441.002	-0.083	0.183
-605.157	-100.898	0.430	0.107
-604.142	-200.000	0.013	-0.075
-603.128	-51.590	-0.179	-0.084
-602.113	-200.000	-0.029	0.280
-601.098	21.585	0.252	0.206
-600.084	-95.415	0.039	0.011
-599.069	269.343	-0.131	-0.232
-598.055	-90.592	-0.090	-0.026
-597.040	-39.839	0.110	-0.058
-596.025	-200.000	0.042	0.332
-595.011	32.886	-0.122	0.107
-593.996	-115.948	-0.277	0.052
-592.982	6.069	-0.269	0.200
-591.967	-18.946	-0.171	-0.107
-590.952	-55.805	-0.641	0.288
-589.938	-200.000	0.012	-0.066
-588.923	-200.000	-0.020	0.424
-587.909	-159.488	-0.177	-0.010
-586.894	-195.403	-0.315	0.002
-585.879	583.161	0.147	0.362
-584.865	-200.000	0.044	-0.224
-583.850	78.601	0.081	0.087
-582.836	-200.000	-0.027	0.129
-581.821	-27.602	-0.105	0.061
-580.806	-200.000	-0.012	0.114
-579.792	-85.331	0.056	-0.017
-578.777	156.506	0.064	0.089
-577.763	-96.198	-0.402	0.107
-576.748	-200.000	0.038	-0.381
-575.733	-200.000	-0.043	0.200
-574.719	259.124	-0.127	-0.220
-573.704	84.571	0.181	0.199
-572.690	-200.000	-0.021	-0.216
-571.675	-1.682	0.136	0.097
-570.661	255.322	-0.077	-0.133
-569.646	-37.780	-0.175	0.094
-568.631	-34.700	-0.171	-0.094
-567.617	63.141	-0.029	0.029
-566.602	-200.000	0.006	-0.113
-565.588	-110.899	-0.254	-0.053
-564.573	108.715	0.239	-0.287
-563.558	-200.000	0.009	-0.091
-562.544	172.469	-0.135	-0.196
-561.529	664.130	0.191	-0.495
-560.515	-1.369	0.272	0.193
-559.500	-31.779	0.540	0.305
-558.485	35.728	-0.105	0.093
-557.471	-91.761	-0.371	0.106
-556.456	-86.811	-0.040	-0.012
-555.442	-130.000	-0.128	-0.018
-554.427	341.143	0.161	0.316
-553.412	-16.226	-0.242	-0.155
-552.398	72.974	-0.133	0.140
-551.383	-125.724	0.264	0.040
-550.369	-27.141	0.156	-0.092
-549.354	800.000	0.048	0.144
-548.339	800.000	-0.108	-0.316
-547.325	3.907	0.035	0.026
-546.310	-59.592	0.130	0.056
-545.296	-43.721	-0.279	0.141
-544.281	72.256	0.033	-0.035
-543.266	-37.097	0.131	0.071
-542.252	89.219	0.191	0.214
-541.237	-200.000	0.008	-0.168
-540.223	117.923	-0.117	0.145
-539.208	-200.000	0.032	-0.281
-538.193	147.731	-0.335	-0.453
-537.179	54.701	0.094	0.091
-536.164	39.867	0.184	-0.166
-535.150	11.767	-0.145	-0.112
-534.135	64.073	0.021	-0.021
-533.121	-200.000	0.008	0.232
-532.106	-137.067	0.137	0.016
-531.091	54.715	0.056	-0.054
-530.077	-143.234	-0.046	-0.004
-529.062	191.090	0.271	-0.409
-528.048	-53.834	-0.363	-0.166
-527.033	133.948	-0.105	-0.137
-526.018	96.214	0.040	0.046
-525.004	34.888	-0.290	0.255
-523.989	800.000	-0.074	-0.309
-522.975	325.026	-0.229	-0.441
-521.960	168.545	0.025	-0.036
-520.945	97.547	0.345	-0.399
-519.931	-200.000	-0.008	-0.087
-518.916	-85.196	-0.264	-0.083
-517.902	-96.940	0.329	-0.087
-516.887	-31.190	-0.140	-0.079
-515.872	143.741	-0.094	-0.125
-514.858	-200.000	-0.045	-0.215
-513.843	299.490	0.161	-0.297
-512.829	800.000	0.056	-0.199
-511.814	-103.039	0.136	0.032
-510.799	-92.933	-0.293	0.082
-509.785	-200.000	0.027	-0.127
-508.770	-200.000	0.069	-0.322
-507.756	-10.840	-0.239	0.159
-506.741	44.870	0.396	0.366
-505.726	-107.373	0.348	0.077
-504.712	-130.951	-0.296	0.040
-503.697	-33.007	-0.222	0.124
-502.683	-200.000	0.006	0.071
-501.668	-200.000	0.001	0.024
-500.653	-150.777	-0.115	-0.009
-499.639	-184.284	-0.109	-0.002
-498.624	-200.000	-0.091	-0.420
-497.610	-52.931	-0.208	-0.096
-496.595	-142.494	0.153	-0.015
-495.581	-200.000	0.003	0.220
-494.566	76.324	0.176	-0.187
-493.551	-161.308	-0.313	0.016
-492.537	-90.889	0.090	0.026
-491.522	800.000	0.014	0.062
-490.508	-200.000	0.003	-0.202
-489.493	98.392	0.142	0.164
-488.478	127.320	-0.094	-0.120
-487.464	74.319	0.130	0.137
-486.449	800.000	0.035	-0.107
-485.435	81.629	0.215	-0.234
-484.420	800.000	-0.025	-0.097
-483.405	-146.099	0.221	0.020
-482.391	250.810	-0.018	0.031
-481.376	-48.495	-0.396	-0.191
-480.362	269.700	-0.041	-0.072
-479.347	8.033	-0.085	0.064
-478.332	-41.202	0.196	-0.101
-477.318	311.130	-0.101	-0.190
-476.303	-104.276	-0.143	0.033
-475.289	800.000	-0.080	0.305
-474.274	-200.000	-0.028	-0.226
-473.259	719.737	-0.011	0.029
-472.245	153.820	-0.198	0.272
-471.230	718.093	0.164	0.437
-470.216	-90.399	-0.291	0.085
-469.201	-200.000	-0.064	0.308
-468.186	611.303	-0.060	0.149
-467.172	264.924	0.075	-0.131
-466.157	50.454	0.222	0.210
-465.143	800.000	-0.132	-0.442
-464.128	500.806	0.049	0.113
-463.113	-200.000	-0.013	0.086
-462.099	51.414	-0.106	-0.101
-461.084	302.467	-0.084	-0.155
-460.070	-33.550	0.289	-0.160
-459.055	78.357	-0.116	-0.124
-458.040	-200.000	-0.016	-0.150
-457.026	800.000	0.055	-0.227
-456.011	37.527	0.415	-0.369
-454.997	-137.105	0.267	-0.031
-453.982	210.340	0.253	-0.398
-452.968	188.916	-0.069	0.104
-451.953	40.210	0.153	-0.138
-450.938	-146.678	0.138	0.012
-449.924	8.426	0.196	-0.148
-448.909	-200.000	-0.017	0.230
-447.895	31.707	0.210	0.181
-446.880	1.201	0.191	0.137
-445.865	-200.000	-0.002	0.017
-444.851	-33.012	0.261	-0.145
-443.836	-106.173	0.131	-0.030
-442.822	147.643	-0.107	0.144
-441.807	800.000	0.060	-0.190
-440.792	-19.567	-0.194	-0.120
-439.778	-200.000	-0.050	-0.454
-438.763	54.663	-0.264	0.255
-437.749	-47.965	-0.130	-0.063
-436.734	345.529	-0.107	0.210
-435.719	135.426	-0.241	0.314
-434.705	-74.696	0.315	0.113
-433.690	-83.097	-0.242	-0.078
-432.676	-76.064	-0.202	0.072
-431.661	-33.319	-0.185	-0.102
-430.646	-103.733	-0.035	-0.008
-429.632	-156.489	-0.098	0.006
-428.617	530.420	-0.019	-0.045
-427.603	258.223	0.252	0.434
-426.588	-52.270	0.190	0.088
-425.573	-46.892	-0.242	-0.118
-424.559	498.548	-0.076	0.175
-423.544	-104.440	-0.117	0.027
-422.530	-63.962	0.249	0.102
-421.515	50.696	0.094	-0.089
-420.500	-200.000	-0.047	0.236
-419.486	49.073	-0.176	-0.165
-418.471	10.170	0.143	-0.109
-417.457	-200.000	-0.040	0.243
-416.442	182.730	-0.152	-0.224
-415.428	29.844	0.033	0.028
-414.413	404.422	-0.174	0.366
-413.398	-200.000	-0.004	0.285
-412.384	212.063	0.159	-0.250
-411.369	316.951	0.108	-0.204
-410.355	-24.925	-0.162	-0.096
-409.340	800.000	-0.063	0.216
-408.325	800.000	0.047	0.141
-407.311	65.761	-0.287	0.291
-406.296	58.118	-0.272	0.266
-405.282	-18.246	0.175	-0.109
-404.267	-200.000	0.054	0.303
-403.252	70.314	-0.151	-0.156
-402.238	-101.505	-0.126	0.031
-401.223	-125.965	-0.238	0.036
-400.209	431.766	-0.161	0.350
-399.194	703.745	-0.124	0.327
-398.179	-80.262	-0.207	0.069
-397.165	381.459	0.139	-0.286
-396.150	-200.000	-0.040	-0.230
-395.136	210.964	0.074	-0.117
-394.121	139.251	0.084	0.111
-393.106	-200.000	-0.006	0.061
-392.092	-121.868	-0.094	0.016
-391.077	158.195	0.061	0.085
-390.063	-54.934	0.081	-0.037
-389.048	-121.690	-0.221	-0.036
-388.033	192.305	0.223	-0.335
-387.019	-132.978	0.224	-0.028
-386.004	-135.350	-0.034	-0.004
-384.990	-69.277	0.466	-0.179
-383.975	-92.830	0.152	-0.042
-382.960	14.521	0.218	0.170
-381.946	30.727	-0.181	0.154
-380.931	800.000	-0.052	-0.211
-379.917	126.015	0.084	0.106
-378.902	-200.000	-0.143	0.000
-377.888	779.691	0.059	0.161
-376.873	800.000	0.094	0.283
-375.858	344.402	0.052	0.103
-374.844	-200.000	0.040	-0.209
-373.829	-67.199	0.175	0.069
-372.815	351.903	0.208	0.412
-371.800	214.915	0.046	0.073
-370.785	800.000	-0.106	-0.396
-369.771	-78.558	-0.187	0.064
-368.756	-190.971	0.127	-0.001
-367.742	-18.471	0.243	-0.151
-366.727	186.145	-0.051	0.075
-365.712	-200.000	0.199	0.000
-364.698	-2.753	0.238	-0.166
-363.683	559.612	0.062	-0.149
-362.669	384.716	0.094	0.193
-361.654	-161.012	-0.383	-0.020
-360.639	73.517	-0.068	0.071
-359.625	-200.000	0.068	0.319
-358.610	-200.000	-0.005	-0.073
-357.596	237.339	0.117	0.194
-356.581	800.000	0.098	-0.370
-355.566	-135.832	-0.108	0.013
-354.552	-200.000	-0.009	0.265
-353.537	-119.183	0.242	0.042
-352.523	-200.000	-0.069	0.357
-351.508	-148.358	-0.168	0.014
-350.493	-41.298	0.196	-0.101
-349.479	-104.262	-0.186	-0.043
-348.464	42.458	0.058	0.053
-347.450	-18.789	0.165	-0.103
-346.435	-200.000	-0.024	0.393
-345.420	23.217	0.103	0.085
-344.406	-98.904	-0.392	-0.099
-343.391	-200.000	0.005	-0.508
-342.377	-98.464	-0.031	-0.008
-341.362	31.332	-0.354	0.303
-340.348	-195.372	-0.279	-0.002
-339.333	-110.489	0.033	0.007
-338.318	380.882	-0.110	-0.224
-337.304	-153.281	0.111	-0.008
-336.289	114.548	0.172	-0.208
-335.275	116.656	-0.276	0.338
-334.260	-15.679	0.124	-0.079
-333.245	119.608	-0.195	0.241
-332.231	-5.326	0.319	-0.218
-331.216	72.555	0.203	0.211
-330.202	-200.000	-0.052	0.327
-329.187	-200.000	0.006	0.110
-328.172	108.229	0.287	0.341
-327.158	-200.000	0.026	-0.315
-326.143	-152.091	-0.031	-0.002
-325.129	800.000	0.108	-0.325
-324.114	-72.678	-0.159	-0.058
-323.099	446.723	-0.097	-0.213
-322.085	-141.020	0.237	0.024
-321.070	-200.000	0.007	0.127
-320.056	-113.104	0.337	-0.066
-319.041	-103.545	0.323	0.076
-318.026	-59.936	0.158	-0.067
-317.012	31.370	-0.159	0.136
-315.997	800.000	-0.042	-0.178
-314.983	-200.000	0.066	0.315
-313.968	91.878	-0.091	-0.102
-312.953	800.000	-0.034	-0.097
-311.939	-154.937	-0.215	-0.014
-310.924	525.669	-0.160	-0.374
-309.910	-34.315	0.068	0.037
-308.895	-33.259	-0.295	-0.163
-307.880	759.655	0.129	-0.348
-306.866	-149.107	-0.436	-0.035
-305.851	419.302	-0.003	0.007
-304.837	-200.000	0.070	-0.470
-303.822	570.652	-0.036	0.088
-302.807	-104.990	0.197	0.045
-301.793	-113.657	-0.130	-0.025
-300.778	800.000	-0.050	-0.154
-299.764	-87.965	-0.234	0.070
-298.749	21.789	-0.194	-0.157
-297.735	800.000	-0.079	-0.219
-296.720	-76.333	0.080	-0.028
-295.705	-113.929	0.184	-0.036
-294.691	91.763	0.223	0.250
-293.676	-60.330	0.146	-0.062
-292.662	65.477	-0.169	0.170
-291.647	-65.876	-0.295	0.117
-290.632	747.274	0.067	-0.181
-289.618	374.868	0.074	-0.151
-288.603	-168.545	0.130	-0.005
-287.589	-5.480	-0.084	-0.058
-286.574	64.382	0.094	-0.094
-285.559	-200.000	0.009	0.051
-284.545	64.698	-0.138	0.139
-283.530	253.387	-0.039	0.067
-282.516	-98.477	-0.175	-0.045
-281.501	-200.000	-0.002	0.243
-280.486	-59.007	0.289	0.124
-279.472	-78.874	-0.206	-0.070
-278.457	800.000	0.114	-0.480
-277.443	-119.092	-0.090	0.016
-276.428	529.697	0.072	-0.168
-275.413	-85.831	0.419	-0.129
-274.399	-36.345	0.211	-0.113
-273.384	315.178	0.212	-0.398
-272.370	-57.720	-0.293	-0.128
-271.355	800.000	0.080	0.281
-270.340	276.321	0.039	-0.070
-269.326	124.587	-0.142	-0.178
-268.311	518.344	0.088	0.205
-267.297	-91.004	0.181	-0.052
-266.282	426.460	-0.077	-0.165
-265.267	-132.060	0.439	0.057
-264.253	29.923	-0.101	0.085
-263.238	311.358	-0.094	0.175
-262.224	-200.000	-0.005	0.215
-261.209	-54.080	0.077	0.035
-260.195	-200.000	-0.008	0.495
-259.180	102.345	0.055	-0.064
-258.165	10.841	-0.065	-0.049
-257.151	286.711	0.046	0.082
-256.136	-200.000	0.016	0.167
-255.122	676.107	-0.013	0.034
-254.107	325.451	0.171	0.325
-253.092	800.000	-0.068	-0.188
-252.078	-103.186	0.148	-0.035
-251.063	43.393	-0.133	-0.121
-250.049	216.922	0.173	-0.274
-249.034	545.743	-0.074	0.176
-248.019	-134.107	-0.172	-0.021
-247.005	-175.651	0.138	0.004
-245.990	26.754	-0.087	0.072
-244.976	-200.000	-0.006	0.166
-243.961	-200.000	-0.024	0.265
-242.946	-61.764	-0.259	0.108
-241.932	-57.053	-0.072	-0.031
-240.917	-19.873	-0.130	-0.079
-239.903	-200.000	0.008	-0.057
-238.888	-200.000	0.059	0.371
-237.873	-88.352	-0.446	0.132
-236.859	104.757	0.147	0.172
-235.844	267.422	-0.188	-0.327
-234.830	-28.298	0.268	-0.154
-233.815	68.895	-0.108	0.110
-232.800	104.914	-0.173	0.203
-231.786	-50.890	0.354	-0.165
-230.771	-200.000	-0.030	-0.154
-229.757	-101.665	0.266	0.064
-228.742	254.060	0.025	0.042
-227.727	1.607	0.084	-0.060
-226.713	62.867	0.056	0.056
-225.698	-200.000	0.022	-0.341
-224.684	-61.321	-0.339	0.142
-223.669	13.221	0.253	0.194
-222.655	-200.000	-0.001	0.023
-221.640	-108.308	0.367	-0.079
-220.625	44.123	0.027	-0.025
-219.611	24.760	0.274	0.226
-218.596	247.410	0.077	-0.130
-217.582	-59.006	0.055	0.024
-216.567	34.667	-0.283	0.246
-215.552	493.393	-0.094	0.214
-214.538	31.521	0.234	-0.199
-213.523	13.996	0.264	0.204
-212.509	-200.000	0.028	0.243
-211.494	-200.000	0.037	-0.193
-210.479	219.876	-0.027	-0.043
-209.465	161.392	0.111	0.154
-208.450	-200.000	0.019	0.137
-207.436	439.755	-0.118	-0.255
-206.421	-120.867	-0.210	0.035
-205.406	-129.694	-0.341	0.047
-204.392	349.367	-0.036	-0.070
-203.377	-48.965	0.215	0.102
-202.363	-14.338	0.293	0.187
-201.348	-200.000	-0.013	-0.246
-200.333	-173.152	0.210	0.006
-199.319	-30.096	-0.165	0.093
-198.304	-200.000	-0.039	0.597
-197.290	208.034	-0.131	-0.203
-196.275	430.276	0.099	0.211
-195.260	357.062	0.098	-0.193
-194.246	-82.665	0.236	-0.076
-193.231	-58.868	-0.182	0.078
-192.217	-56.979	0.280	-0.122
-191.202	800.000	-0.084	0.233
-190.187	379.061	-0.154	0.314
-189.173	-113.655	0.112	0.022
-188.158	-70.365	-0.122	-0.046
-187.144	-131.120	-0.316	-0.042
-186.129	-108.011	0.280	-0.060
-185.114	-34.907	-0.248	0.134
-184.100	-87.071	0.185	0.056
-183.085	-123.114	0.276	-0.044
-182.071	-62.481	-0.189	-0.078
-181.056	-28.407	0.091	0.052
-180.042	-93.801	0.386	-0.105
-179.027	-15.896	0.126	-0.079
-178.012	264.422	-0.087	-0.150
-176.998	-57.133	0.069	0.030
-175.983	3.151	-0.303	0.218
-174.969	2.427	0.126	-0.090
-173.954	-56.788	0.261	-0.114
-172.939	-53.310	0.431	0.196
-171.925	-14.194	-0.073	-0.047
-170.910	-200.000	0.029	-0.350
-169.896	-154.996	0.209	-0.014
-168.881	-200.000	0.051	-0.383
-167.866	371.498	0.133	0.267
-166.852	82.246	-0.207	0.222
-165.837	-200.000	0.033	0.000
-164.823	-80.113	0.289	0.096
-163.808	54.675	-0.338	0.323
-162.793	338.837	-0.098	0.188
-161.779	-79.893	-0.172	-0.057
-160.764	713.511	0.088	0.230
-159.750	-112.469	-0.302	-0.060
-158.735	800.000	0.093	-0.254
-157.720	1.191	-0.017	-0.012
-156.706	-200.000	-0.033	-0.312
-155.691	-200.000	-0.019	0.186
-154.677	-200.000	0.011	0.143
-153.662	-27.421	0.074	0.043
-152.647	-111.774	-0.038	-0.008
-151.633	800.000	0.144	-0.457
-150.618	74.974	-0.064	0.067
-149.604	-97.732	-0.128	0.033
-148.589	800.000	0.046	-0.135
-147.574	139.032	0.037	-0.048
-146.560	-76.192	0.313	-0.109
-145.545	-5.860	-0.079	0.053
-144.531	800.000	0.023	0.093
-143.516	-81.975	-0.127	0.041
-142.502	59.571	-0.038	-0.037
-141.487	-200.000	0.038	0.211
-140.472	-6.164	0.125	0.084
-139.458	-38.903	0.117	-0.061
-138.443	33.906	-0.115	0.099
-137.429	446.094	-0.131	-0.285
-136.414	-59.476	-0.043	0.018
-135.399	-119.611	-0.308	0.053
-134.385	275.362	0.130	-0.228
-133.370	-137.057	0.302	-0.034
-132.356	-200.000	0.013	0.103
-131.341	-28.089	0.171	-0.098
-130.326	-149.523	0.337	0.026
-129.312	-134.838	0.372	-0.045
-128.297	-200.000	0.038	-0.271
-127.283	-180.918	0.386	-0.008
-126.268	-154.886	-0.243	0.016
-125.253	-200.000	0.002	-0.047
-124.239	75.265	-0.214	-0.223
-123.224	-200.000	-0.014	-0.386
-122.210	241.812	0.088	-0.146
