DTS Sentinel unit serial number:	SN413079Multiplexer serial number:	ORYXHardware model number:	OX4-SRSoftware version number:	ORYX F/W v4.00 Oryx Data Collector v3.7.2.0data status	okinstallation	princeton_trtdifferential loss correction	single-endedforward channel	channel 3reverse channel	N/Adate	2019/09/11time	07:22:11forward acquisition time	60.00reverse acquisition time	0.00gamma	496.2192k internal	0.2327k external	0.2327temperature offset calibration	0.9902default loss term (dB/km)	0.3790temperature slope calibration	1.0000multiplexer offset coefficient	1.0000multiplexer slope coefficient	1.0000fibre end	0.00T internal ref (°C)	30.80T ext. ref 1 (°C)	-0.06T ext. ref 2 (°C)	27.43length (m)	temperature (°C)	Stokes	anti-Stokes-747.200	-35.191	0.103	0.057
-746.185	800.000	0.095	0.282
-745.171	153.032	-0.187	-0.258
-744.156	65.222	-0.352	0.359
-743.142	98.870	-0.203	-0.236
-742.127	800.000	-0.116	0.401
-741.112	-187.574	-0.126	-0.002
-740.098	800.000	-0.067	-0.269
-739.083	203.608	0.040	0.063
-738.069	-136.005	0.154	0.018
-737.054	725.741	0.032	-0.086
-736.039	-172.273	-0.271	-0.009
-735.025	-200.000	0.061	0.286
-734.010	-23.951	0.235	-0.142
-732.996	-34.555	0.246	-0.136
-731.981	-89.523	-0.040	0.012
-730.966	2.997	0.033	0.024
-729.952	84.664	-0.252	-0.278
-728.937	648.571	0.098	-0.251
-727.923	-19.270	0.125	-0.078
-726.908	112.199	-0.184	-0.224
-725.894	58.919	-0.259	-0.256
-724.879	-200.000	0.008	0.145
-723.864	-58.474	-0.366	-0.160
-722.850	-79.789	0.106	-0.036
-721.835	116.386	-0.028	-0.034
-720.821	-200.000	-0.050	0.256
-719.806	800.000	0.083	-0.251
-718.791	-96.016	0.182	0.049
-717.777	16.227	-0.219	-0.174
-716.762	-65.210	-0.389	-0.158
-715.748	-105.139	0.301	-0.069
-714.733	-176.671	0.251	0.006
-713.718	-200.000	0.040	-0.351
-712.704	592.361	0.117	-0.291
-711.689	-200.000	-0.012	-0.055
-710.675	-200.000	-0.004	-0.016
-709.660	-66.307	-0.101	0.041
-708.645	137.225	-0.070	0.093
-707.631	40.047	-0.086	-0.078
-706.616	326.591	0.177	-0.342
-705.602	585.355	0.097	0.239
-704.587	-1.828	0.208	0.147
-703.572	-118.422	-0.132	0.024
-702.558	-33.605	0.214	-0.119
-701.543	-200.000	-0.032	-0.363
-700.529	-200.000	-0.017	-0.314
-699.514	-200.000	-0.010	-0.124
-698.499	-200.000	0.086	-0.420
-697.485	-200.000	0.011	-0.106
-696.470	-51.445	0.271	0.127
-695.456	-200.000	-0.022	-0.213
-694.441	579.937	0.033	0.083
-693.426	800.000	-0.042	-0.127
-692.412	98.928	-0.172	-0.200
-691.397	-200.000	-0.016	-0.152
-690.383	351.825	0.068	-0.136
-689.368	800.000	-0.108	0.466
-688.354	26.782	-0.127	0.107
-687.339	-200.000	-0.048	-0.261
-686.324	-143.793	-0.143	0.014
-685.310	-183.893	-0.106	0.002
-684.295	432.727	-0.086	-0.188
-683.281	800.000	-0.127	-0.507
-682.266	800.000	-0.057	-0.229
-681.251	270.975	0.156	-0.275
-680.237	99.751	0.195	-0.227
-679.222	481.707	0.079	-0.179
-678.208	428.473	-0.076	0.165
-677.193	-40.680	0.084	-0.044
-676.178	294.122	0.051	-0.094
-675.164	-20.685	0.181	-0.112
-674.149	-200.000	0.050	0.255
-673.135	8.400	0.159	-0.120
-672.120	271.049	-0.075	0.132
-671.105	-48.006	-0.125	-0.061
-670.091	248.766	0.088	0.150
-669.076	176.664	0.121	-0.177
-668.062	287.827	-0.095	0.172
-667.047	200.111	0.035	0.054
-666.032	-170.424	-0.209	0.007
-665.018	-200.000	-0.024	-0.117
-664.003	89.510	-0.174	-0.195
-662.989	-78.329	0.092	0.032
-661.974	62.189	0.250	-0.251
-660.959	249.285	0.183	-0.311
-659.945	-106.801	0.147	0.033
-658.930	-134.118	-0.250	0.031
-657.916	-200.000	0.003	-0.167
-656.901	-200.000	0.027	0.316
-655.886	47.337	0.105	0.098
-654.872	13.225	-0.289	-0.225
-653.857	-200.000	0.039	0.184
-652.843	644.519	0.086	-0.221
-651.828	-32.289	-0.281	-0.157
-650.814	714.970	0.035	-0.092
-649.799	-73.535	-0.073	0.027
-648.784	-0.028	-0.188	0.134
-647.770	-104.795	0.160	-0.037
-646.755	-200.000	-0.011	-0.424
-645.741	800.000	-0.054	-0.167
-644.726	235.846	-0.049	0.082
-643.711	-98.103	-0.194	0.050
-642.697	-200.000	-0.028	0.230
-641.682	-37.901	-0.160	0.086
-640.668	-200.000	-0.001	0.579
-639.653	55.563	-0.090	-0.088
-638.638	20.560	-0.215	-0.175
-637.624	800.000	-0.055	-0.210
-636.609	41.731	-0.257	-0.234
-635.595	-200.000	0.017	0.452
-634.580	258.096	-0.111	0.191
-633.565	267.685	-0.137	0.241
-632.551	-22.353	0.178	0.108
-631.536	424.820	-0.053	0.114
-630.522	19.152	0.243	0.196
-629.507	33.841	-0.065	0.057
-628.492	-12.077	0.291	-0.191
-627.478	-12.269	-0.108	0.071
-626.463	-200.000	0.040	0.334
-625.449	251.484	-0.187	0.319
-624.434	60.830	0.153	-0.152
-623.419	-200.000	0.021	-0.270
-622.405	800.000	0.078	-0.226
-621.390	2.788	-0.248	0.180
-620.376	-81.136	0.402	-0.133
-619.361	-79.082	0.274	0.094
-618.346	800.000	0.098	-0.276
-617.332	19.302	0.238	-0.192
-616.317	800.000	0.046	0.161
-615.303	6.161	0.335	-0.249
-614.288	-129.587	0.510	-0.071
-613.273	798.357	-0.089	-0.247
-612.259	-46.023	0.027	-0.013
-611.244	-200.000	-0.016	0.185
-610.230	-106.142	-0.548	-0.123
-609.215	-143.867	0.192	0.018
-608.201	800.000	0.056	-0.191
-607.186	-200.000	0.029	0.239
-606.171	281.159	-0.146	-0.262
-605.157	729.727	0.129	0.346
-604.142	-46.277	-0.172	0.085
-603.128	709.123	0.136	0.360
-602.113	-24.968	-0.135	-0.080
-601.098	800.000	-0.050	-0.159
-600.084	-200.000	0.015	0.335
-599.069	-38.174	0.102	0.054
-598.055	-53.895	-0.119	-0.055
-597.040	-19.422	-0.163	0.101
-596.025	226.711	0.184	-0.300
-595.011	-74.613	0.244	-0.088
-593.996	153.655	-0.338	-0.465
-592.982	2.348	0.137	0.099
-591.967	-78.798	-0.085	-0.029
-590.952	-200.000	-0.003	-0.131
-589.938	-200.000	-0.048	0.264
-588.923	-200.000	-0.180	0.000
-587.909	-48.998	-0.074	0.035
-586.894	5.779	0.311	0.231
-585.879	37.997	-0.270	0.240
-584.865	-187.415	-0.161	0.002
-583.850	107.640	-0.088	-0.105
-582.836	6.563	-0.212	-0.158
-581.821	78.485	-0.105	-0.112
-580.806	800.000	-0.115	0.414
-579.792	-200.000	-0.003	0.194
-578.777	-200.000	-0.008	-0.246
-577.763	533.253	0.042	-0.099
-576.748	800.000	-0.074	-0.221
-575.733	-148.779	0.245	-0.020
-574.719	50.394	-0.057	0.054
-573.704	234.745	-0.046	0.075
-572.690	49.315	-0.249	0.234
-571.675	-172.960	-0.307	0.010
-570.661	798.814	-0.120	-0.331
-569.646	-74.038	-0.232	-0.084
-568.631	800.000	-0.042	-0.147
-567.617	127.675	0.173	-0.220
-566.602	226.816	0.065	0.106
-565.588	-61.257	-0.026	-0.011
-564.573	-163.967	-0.285	0.013
-563.558	-200.000	0.015	-0.093
-562.544	-200.000	-0.045	-0.280
-561.529	-119.957	-0.336	0.058
-560.515	48.546	-0.068	0.064
-559.500	6.139	0.141	0.104
-558.485	123.077	-0.254	-0.318
-557.471	8.677	-0.372	-0.280
-556.456	-34.808	0.156	0.085
-555.442	51.480	-0.473	-0.449
-554.427	138.534	0.082	0.108
-553.412	-74.114	0.225	0.082
-552.398	-187.470	0.151	0.002
-551.383	-68.903	-0.185	-0.071
-550.369	243.492	-0.146	-0.244
-549.354	-200.000	-0.070	-0.314
-548.339	354.723	0.018	-0.035
-547.325	-6.509	0.179	0.122
-546.310	278.770	0.107	-0.190
-545.296	-89.439	0.217	-0.064
-544.281	-127.856	-0.201	-0.029
-543.266	-147.107	0.402	-0.034
-542.252	647.787	0.117	-0.300
-541.237	800.000	0.080	0.326
-540.223	352.306	-0.242	0.479
-539.208	-137.637	0.430	0.048
-538.193	800.000	0.047	-0.205
-537.179	47.426	-0.149	0.139
-536.164	-65.100	0.129	-0.052
-535.150	-44.491	-0.310	0.155
-534.135	-17.175	-0.091	-0.057
-533.121	-85.859	0.293	-0.091
-532.106	297.640	0.145	-0.266
-531.091	555.613	0.050	0.121
-530.077	792.612	0.034	0.095
-529.062	2.692	0.175	0.127
-528.048	46.680	-0.149	-0.138
-527.033	-38.081	-0.154	-0.082
-526.018	-40.814	-0.286	-0.148
-525.004	315.100	-0.039	-0.074
-523.989	-188.319	-0.228	-0.003
-522.975	-103.813	0.145	-0.034
-521.960	-90.977	0.279	-0.080
-520.945	-34.771	0.120	-0.066
-519.931	-190.519	0.143	-0.002
-518.916	-200.000	-0.019	0.138
-517.902	-200.000	0.005	0.099
-516.887	371.537	-0.205	0.416
-515.872	131.536	-0.215	0.277
-514.858	205.749	0.060	-0.093
-513.843	105.253	-0.057	-0.067
-512.829	305.853	-0.104	-0.193
-511.814	27.309	-0.247	-0.208
-510.799	-101.625	0.241	-0.058
-509.785	800.000	-0.074	-0.205
-508.770	-200.000	0.009	0.094
-507.756	392.147	-0.133	0.276
-506.741	51.742	0.274	-0.261
-505.726	-91.385	-0.164	0.047
-504.712	210.767	-0.159	0.250
-503.697	-46.806	-0.072	0.035
-502.683	298.778	0.200	-0.368
-501.668	-111.990	0.298	0.060
-500.653	46.659	0.218	0.202
-499.639	-54.316	-0.345	0.156
-498.624	-200.000	0.013	-0.284
-497.610	-121.711	-0.231	-0.038
-496.595	-81.017	-0.163	0.054
-495.581	-64.478	-0.237	0.096
-494.566	-92.996	-0.015	-0.004
-493.551	-200.000	-0.047	0.315
-492.537	320.829	-0.130	0.247
-491.522	-68.781	0.136	0.052
-490.508	800.000	0.109	-0.417
-489.493	-146.964	0.430	-0.037
-488.478	75.096	0.086	0.091
-487.464	6.771	0.211	-0.157
-486.449	124.412	0.051	0.064
-485.435	53.168	-0.183	0.175
-484.420	800.000	0.034	0.125
-483.405	109.589	0.258	-0.309
-482.391	800.000	-0.048	0.136
-481.376	513.107	0.054	-0.126
-480.362	-200.000	0.007	0.243
-479.347	800.000	-0.087	0.280
-478.332	14.113	-0.160	0.124
-477.318	-144.568	0.300	-0.028
-476.303	-200.000	-0.001	-0.268
-475.289	800.000	-0.093	-0.270
-474.274	800.000	-0.080	-0.342
-473.259	-70.013	-0.346	0.132
-472.245	-88.161	-0.036	0.011
-471.230	-75.612	0.243	0.086
-470.216	-42.552	-0.173	0.088
-469.201	-200.000	0.027	0.169
-468.186	-85.164	-0.172	-0.054
-467.172	56.143	0.194	0.187
-466.157	800.000	-0.074	0.238
-465.143	-144.255	-0.257	-0.024
-464.128	162.073	-0.086	-0.120
-463.113	-154.581	0.356	0.024
-462.099	-39.250	-0.144	0.075
-461.084	-70.271	0.184	-0.070
-460.070	-45.257	-0.144	-0.071
-459.055	123.883	-0.263	0.330
-458.040	-56.252	-0.272	-0.120
-457.026	-200.000	-0.011	0.178
-456.011	154.133	0.143	0.195
-454.997	-100.278	-0.466	0.115
-453.982	-200.000	0.079	0.409
-452.968	-48.945	0.207	0.099
-451.953	-96.190	-0.169	0.045
-450.938	-80.032	-0.135	-0.045
-449.924	-129.109	-0.277	-0.039
-448.909	-74.444	-0.108	-0.039
-447.895	-15.782	0.334	0.212
-446.880	-200.000	-0.021	0.182
-445.865	-29.487	0.212	0.121
-444.851	-94.157	-0.171	0.047
-443.836	800.000	0.009	-0.027
-442.822	-37.658	0.109	0.058
-441.807	-80.700	0.277	-0.092
-440.792	-77.128	-0.234	-0.081
-439.778	-37.206	0.270	-0.144
-438.763	-9.431	-0.136	0.090
-437.749	-200.000	-0.027	-0.299
-436.734	800.000	0.042	0.135
-435.719	-124.652	-0.103	-0.016
-434.705	24.321	-0.116	-0.095
-433.690	-200.000	-0.003	-0.166
-432.676	330.883	-0.145	0.278
-431.661	305.690	-0.096	-0.177
-430.646	451.445	-0.149	-0.328
-429.632	52.177	0.125	0.119
-428.617	-147.343	0.220	-0.019
-427.603	-200.000	0.012	-0.388
-426.588	-173.103	-0.113	-0.003
-425.573	-200.000	-0.002	-0.066
-424.559	800.000	0.054	0.182
-423.544	114.264	0.043	-0.053
-422.530	800.000	0.075	0.210
-421.515	-58.732	-0.294	0.127
-420.500	800.000	-0.115	0.406
-419.486	800.000	0.057	-0.246
-418.471	-20.073	-0.282	0.173
-417.457	-158.815	0.209	0.012
-416.442	132.987	-0.122	0.157
-415.428	25.584	-0.121	0.100
-414.413	-200.000	-0.012	-0.203
-413.398	-149.959	-0.099	-0.008
-412.384	-77.444	0.179	0.062
-411.369	-200.000	0.069	0.507
-410.355	86.541	-0.064	-0.070
-409.340	38.380	-0.084	-0.075
-408.325	-59.142	0.363	-0.156
-407.311	-20.898	0.049	-0.030
-406.296	99.981	-0.097	-0.112
-405.282	39.080	-0.175	0.156
-404.267	-77.576	-0.203	-0.070
-403.252	120.482	0.119	0.147
-402.238	-200.000	0.065	-0.313
-401.223	96.127	-0.128	0.145
-400.209	-24.323	-0.260	-0.154
-399.194	-42.436	-0.229	-0.116
-398.179	-32.957	-0.150	-0.083
-397.165	221.413	-0.145	-0.231
-396.150	335.615	-0.137	0.264
-395.136	109.365	0.201	-0.240
-394.121	95.013	0.128	0.145
-393.106	-200.000	-0.043	-0.335
-392.092	590.460	0.050	0.124
-391.077	213.533	0.116	-0.182
-390.063	-109.977	0.160	0.033
-389.048	151.436	0.104	-0.141
-388.033	364.010	0.097	-0.194
-387.019	-75.434	-0.100	0.035
-386.004	54.776	0.074	0.071
-384.990	-200.000	-0.007	-0.234
-383.975	800.000	-0.057	-0.178
-382.960	-133.861	-0.233	-0.029
-381.946	800.000	-0.087	0.258
-380.931	424.269	0.076	-0.164
-379.917	-56.975	0.096	0.042
-378.902	45.956	0.230	0.212
-377.888	800.000	-0.080	0.227
-376.873	-142.361	0.132	0.013
-375.858	-47.151	-0.324	-0.157
-374.844	-24.028	0.348	-0.207
-373.829	-101.773	0.200	-0.048
-372.815	34.990	0.015	0.013
-371.800	84.032	0.080	0.086
-370.785	-41.468	-0.148	-0.076
-369.771	727.522	0.051	-0.134
-368.756	-119.623	-0.125	-0.021
-367.742	76.253	0.178	-0.188
-366.727	-20.626	0.088	-0.054
-365.712	3.905	-0.048	0.035
-364.698	406.334	0.095	0.200
-363.683	187.337	-0.177	-0.262
-362.669	-200.000	-0.023	0.176
-361.654	2.984	-0.151	-0.109
-360.639	169.862	-0.172	0.245
-359.625	106.497	0.306	-0.360
-358.610	89.580	-0.163	0.181
-357.596	-200.000	-0.008	-0.070
-356.581	-200.000	0.002	0.115
-355.566	-152.021	0.157	0.011
-354.552	206.333	0.135	-0.209
-353.537	-200.000	-0.000	0.345
-352.523	-60.154	0.110	0.047
-351.508	57.121	0.190	-0.184
-350.493	-92.221	0.137	0.038
-349.479	-200.000	-0.001	-0.117
-348.464	800.000	-0.048	-0.169
-347.450	-114.073	0.315	-0.061
-346.435	-46.692	0.350	-0.170
-345.420	261.829	-0.107	0.184
-344.406	89.808	-0.189	0.209
-343.391	-104.425	-0.111	-0.025
-342.377	-127.013	0.217	0.032
-341.362	-6.705	0.133	-0.090
-340.348	-88.229	0.174	-0.052
-339.333	32.819	0.110	-0.094
-338.318	800.000	-0.077	0.277
-337.304	-38.359	-0.079	0.042
-336.289	15.770	-0.245	0.191
-335.275	113.232	-0.169	-0.204
-334.260	-200.000	0.010	-0.070
-333.245	375.446	0.168	0.340
-332.231	800.000	-0.070	-0.237
-331.216	-99.263	-0.092	0.023
-330.202	-149.725	-0.139	0.011
-329.187	-200.000	0.004	0.210
-328.172	65.296	0.142	-0.142
-327.158	194.629	-0.092	0.139
-326.143	800.000	-0.069	0.190
-325.129	724.161	0.093	-0.246
-324.114	-170.197	-0.229	0.008
-323.099	800.000	-0.046	-0.154
-322.085	-61.685	0.329	0.137
-321.070	800.000	0.077	-0.268
-320.056	800.000	0.053	0.225
-319.041	-200.000	-0.013	0.124
-318.026	-63.105	-0.264	0.108
-317.012	530.597	-0.063	0.148
-315.997	800.000	0.123	-0.356
-314.983	800.000	0.019	0.069
-313.968	458.202	-0.091	0.200
-312.953	194.809	-0.140	-0.211
-311.939	-73.502	0.170	-0.062
-310.924	-200.000	-0.038	0.184
-309.910	-125.526	-0.219	0.033
-308.895	-3.907	0.207	0.142
-307.880	-200.000	0.036	0.292
-306.866	419.209	0.119	0.252
-305.851	5.709	-0.073	0.054
-304.837	-165.245	0.260	0.011
-303.822	-79.350	0.110	-0.037
-302.807	-80.739	-0.112	-0.037
-301.793	-5.086	-0.123	0.084
-300.778	560.882	-0.022	0.053
-299.764	-98.028	0.187	-0.048
-298.749	-162.596	0.206	0.010
-297.735	232.771	0.095	-0.155
-296.720	191.445	0.053	-0.079
-295.705	241.168	-0.073	0.121
-294.691	-102.736	-0.187	-0.044
-293.676	-56.481	-0.353	-0.155
-292.662	-200.000	0.006	-0.290
-291.647	-33.326	0.237	-0.130
-290.632	-200.000	0.024	0.202
-289.618	19.569	-0.356	0.284
-288.603	164.192	0.175	-0.244
-287.589	800.000	-0.058	0.248
-286.574	-67.131	0.100	-0.039
-285.559	197.789	-0.065	-0.098
-284.545	-19.132	0.046	0.028
-283.530	-156.576	0.159	-0.010
-282.516	-15.842	0.129	0.081
-281.501	74.092	0.170	-0.177
-280.486	173.838	-0.194	-0.278
-279.472	-160.506	0.224	-0.012
-278.457	408.102	-0.139	0.292
-277.443	-81.938	-0.230	-0.074
-276.428	-106.434	0.360	-0.080
-275.413	-133.338	0.120	0.015
-274.399	592.495	-0.186	-0.455
-273.384	67.919	-0.107	0.108
-272.370	-115.189	0.366	0.069
-271.355	-200.000	0.004	0.061
-270.340	-137.702	0.117	-0.013
-269.326	800.000	0.055	0.215
-268.311	-10.375	-0.087	0.057
-267.297	44.155	-0.130	0.118
-266.282	219.776	-0.215	0.340
-265.267	-2.918	0.119	-0.082
-264.253	170.469	-0.172	-0.244
-263.238	218.049	-0.184	-0.290
-262.224	-95.524	-0.252	0.067
-261.209	-21.731	0.152	0.092
-260.195	-173.472	0.260	-0.008
-259.180	800.000	-0.027	-0.087
-258.165	125.167	-0.056	0.070
-257.151	-30.163	0.222	0.125
-256.136	-72.174	0.271	-0.099
-255.122	-85.792	-0.248	0.076
-254.107	477.396	-0.071	0.158
-253.092	-67.003	0.321	-0.125
-252.078	-175.333	0.266	0.007
-251.063	-200.000	0.014	0.099
-250.049	111.674	-0.236	-0.281
-249.034	-64.445	-0.122	0.049
-248.019	-5.417	-0.094	0.064
-247.005	-166.750	-0.244	0.010
-245.990	-98.690	0.249	-0.063
-244.976	84.195	0.150	0.162
-243.961	-25.259	0.388	-0.227
-242.946	-21.958	-0.068	-0.041
-241.932	32.439	0.161	0.137
-240.917	12.857	0.252	0.193
-239.903	-32.551	0.371	-0.204
-238.888	19.839	0.255	0.203
-237.873	800.000	-0.067	-0.245
-236.859	81.669	-0.204	-0.218
-235.844	170.632	-0.100	-0.142
-234.830	-88.321	-0.108	-0.032
-233.815	-27.345	-0.158	-0.091
-232.800	321.787	0.095	0.179
-231.786	-17.467	-0.183	-0.114
-230.771	42.570	0.051	-0.046
-229.757	130.158	0.074	0.094
-228.742	22.739	-0.165	0.133
-227.727	150.267	-0.090	0.121
-226.713	-161.856	0.180	-0.009
-225.698	228.708	0.023	-0.037
-224.684	69.868	0.097	0.098
-223.669	-200.000	-0.024	-0.260
-222.655	135.332	0.128	0.164
-221.640	143.228	-0.185	-0.243
-220.625	282.284	-0.085	0.151
-219.611	-172.332	0.190	-0.006
-218.596	-101.644	-0.038	-0.009
-217.582	247.998	-0.063	-0.105
-216.567	-12.968	-0.097	0.062
-215.552	-108.409	-0.200	-0.043
-214.538	-186.024	0.266	0.004
-213.523	215.794	0.164	0.256
-212.509	78.206	0.204	-0.215
-211.494	-3.275	0.235	-0.161
-210.479	210.655	0.103	-0.160
-209.465	5.476	0.091	0.067
-208.450	388.988	-0.026	0.053
-207.436	541.115	0.088	-0.208
-206.421	-145.730	-0.421	0.037
-205.406	-20.433	0.338	0.205
-204.392	260.099	-0.112	0.191
-203.377	-88.106	-0.141	0.042
-202.363	44.326	-0.109	-0.099
-201.348	-86.200	-0.165	-0.050
-200.333	218.938	0.206	-0.326
-199.319	110.535	-0.031	0.036
-198.304	-12.314	-0.182	-0.117
-197.290	95.414	-0.099	-0.111
-196.275	-200.000	0.005	0.174
-195.260	-200.000	0.262	-0.000
-194.246	-120.829	0.200	-0.033
-193.231	-107.216	-0.164	0.036
-192.217	306.086	0.072	0.132
-191.202	170.650	0.060	-0.085
-190.187	-78.312	-0.126	-0.043
-189.173	-17.790	-0.156	-0.097
-188.158	-132.602	0.301	0.038
-187.144	-125.797	-0.069	0.010
-186.129	123.478	-0.230	0.285
-185.114	114.897	0.081	-0.098
-184.100	62.696	0.032	-0.031
-183.085	-6.908	0.057	0.038
-182.071	-136.185	0.212	-0.024
-181.056	800.000	-0.062	-0.249
-180.042	-100.425	0.119	-0.029
-179.027	-108.610	0.021	0.004
-178.012	-51.179	-0.133	0.061
-176.998	-77.655	-0.109	0.037
-175.983	-119.308	0.211	0.036
-174.969	-14.263	-0.221	0.141
-173.954	-99.587	-0.393	0.097
-172.939	344.464	0.091	0.176
-171.925	-91.530	0.356	0.100
-170.910	-59.634	-0.279	-0.118
-169.896	-107.080	0.226	0.049
-168.881	352.644	0.115	-0.225
-167.866	800.000	0.115	-0.424
-166.852	-17.751	0.115	-0.071
-165.837	185.587	-0.292	-0.427
-164.823	-185.545	0.133	-0.002
-163.808	212.026	0.203	0.315
-162.793	160.805	-0.169	0.233
-161.779	452.715	0.145	0.315
-160.764	-88.821	-0.177	0.052
-159.750	-32.849	-0.145	0.079
-158.735	-106.317	0.605	0.133
-157.720	80.875	-0.155	0.165
-156.706	-41.833	0.325	0.164
-155.691	-6.827	-0.081	-0.054
-154.677	-200.000	-0.065	0.351
-153.662	800.000	-0.114	-0.469
-152.647	-108.119	0.450	-0.096
-151.633	-9.521	-0.172	0.113
-150.618	-34.502	0.060	-0.032
-149.604	6.156	-0.485	0.354
-148.589	-78.914	0.269	-0.090
-147.574	-58.921	-0.254	-0.108
-146.560	-200.000	0.154	-0.001
-145.545	69.016	0.065	0.066
-144.531	188.391	-0.075	-0.111
-143.516	800.000	-0.075	-0.290
-142.502	285.663	-0.015	0.027
-141.487	-200.000	-0.033	0.191
-140.472	-200.000	-0.030	0.328
-139.458	94.110	-0.324	0.362
-138.443	-85.807	0.075	-0.023
-137.429	-200.000	0.058	-0.261
-136.414	163.416	0.174	-0.241
-135.399	-111.826	-0.150	-0.030
-134.385	72.289	-0.084	0.086
-133.370	-113.410	-0.136	-0.026
-132.356	498.765	-0.077	0.174
-131.341	29.516	0.179	-0.150
-130.326	-120.296	0.325	-0.055
-129.312	127.196	-0.158	0.197
-128.297	-112.843	0.244	0.048
-127.283	-133.887	0.243	0.030
-126.268	800.000	0.012	0.044
-125.253	800.000	-0.054	0.195
-124.239	-108.636	0.162	0.034
-123.224	117.501	0.013	0.016
-122.210	271.248	-0.105	-0.183
-121.195	232.681	0.142	0.229
