DTS Sentinel unit serial number:	SN413079Multiplexer serial number:	ORYXHardware model number:	OX4-SRSoftware version number:	ORYX F/W v4.00 Oryx Data Collector v3.7.2.0data status	okinstallation	princeton_trtdifferential loss correction	single-endedforward channel	channel 3reverse channel	N/Adate	2019/09/12time	02:14:11forward acquisition time	60.00reverse acquisition time	0.00gamma	496.2192k internal	0.2320k external	0.2320temperature offset calibration	1.0061default loss term (dB/km)	0.3790temperature slope calibration	1.0000multiplexer offset coefficient	1.0000multiplexer slope coefficient	1.0000fibre end	0.00T internal ref (°C)	32.67T ext. ref 1 (°C)	2.05T ext. ref 2 (°C)	27.19length (m)	temperature (°C)	Stokes	anti-Stokes-747.200	-200.000	0.021	-0.268
-746.185	95.048	0.179	0.206
-745.171	800.000	0.076	-0.259
-744.156	4.949	0.118	0.088
-743.142	57.848	0.176	0.174
-742.127	-37.350	-0.151	0.082
-741.112	800.000	0.062	0.221
-740.098	611.552	0.179	0.453
-739.083	335.429	0.126	0.246
-738.069	-200.000	-0.045	0.381
-737.054	55.127	-0.327	0.319
-736.039	800.000	-0.006	0.027
-735.025	-114.161	0.417	0.081
-734.010	377.223	-0.228	-0.471
-732.996	431.331	-0.159	-0.348
-731.981	800.000	-0.038	0.122
-730.966	185.067	0.096	-0.144
-729.952	-200.000	0.057	-0.270
-728.937	-200.000	-0.005	-0.153
-727.923	37.391	0.105	-0.094
-726.908	248.586	0.102	-0.174
-725.894	-90.076	-0.092	0.027
-724.879	-200.000	-0.056	0.354
-723.864	468.262	0.090	-0.205
-722.850	800.000	-0.062	-0.225
-721.835	-63.964	0.196	-0.081
-720.821	-53.500	0.279	0.129
-719.806	-200.000	-0.017	0.099
-718.791	-71.752	-0.311	-0.117
-717.777	-88.896	-0.080	0.024
-716.762	-111.559	0.065	0.013
-715.748	-200.000	-0.016	0.160
-714.733	-46.666	0.087	0.043
-713.718	-200.000	-0.034	0.189
-712.704	-57.732	0.351	0.155
-711.689	23.820	0.233	0.194
-710.675	-151.178	0.179	-0.014
-709.660	-58.653	-0.181	0.079
-708.645	-200.000	-0.013	-0.088
-707.631	428.515	-0.062	0.135
-706.616	383.109	-0.110	-0.229
-705.602	-40.724	0.156	-0.081
-704.587	233.917	-0.147	0.245
-703.572	-111.027	-0.313	0.065
-702.558	68.650	0.155	-0.160
-701.543	-200.000	-0.009	-0.245
-700.529	82.075	0.261	-0.285
-699.514	-6.642	0.158	0.109
-698.499	800.000	0.031	-0.097
-697.485	-200.000	-0.019	0.115
-696.470	-88.690	0.078	0.024
-695.456	-66.038	-0.428	0.172
-694.441	-200.000	0.006	-0.179
-693.426	-106.682	0.189	0.042
-692.412	31.299	0.167	-0.145
-691.397	4.378	0.181	-0.134
-690.383	574.144	0.091	-0.224
-689.368	-120.615	0.196	-0.033
-688.354	800.000	0.065	0.261
-687.339	-200.000	0.089	0.434
-686.324	197.388	-0.076	-0.118
-685.310	320.234	0.197	-0.378
-684.295	-139.338	0.337	-0.037
-683.281	-118.177	-0.538	0.097
-682.266	-40.727	-0.136	0.071
-681.251	-31.689	0.151	0.086
-680.237	10.876	0.104	0.080
-679.222	-82.819	0.132	0.043
-678.208	94.824	-0.204	-0.234
-677.193	-24.795	0.073	0.044
-676.178	-200.000	-0.039	0.302
-675.164	64.355	-0.278	0.282
-674.149	281.209	-0.171	0.309
-673.135	800.000	-0.050	0.221
-672.120	317.279	-0.074	-0.142
-671.105	800.000	0.083	0.254
-670.091	-34.101	-0.134	-0.075
-669.076	-103.796	-0.085	-0.020
-668.062	-115.068	0.169	-0.032
-667.047	-51.549	0.117	0.055
-666.032	-200.000	0.000	-0.010
-665.018	280.773	0.121	0.218
-664.003	-169.493	0.252	-0.009
-662.989	-67.773	0.284	0.112
-661.974	-131.993	-0.225	0.030
-660.959	224.695	0.101	0.164
-659.945	12.300	-0.182	0.142
-658.930	-34.212	0.198	0.110
-657.916	266.331	0.148	0.260
-656.901	354.097	0.139	0.277
-655.886	800.000	-0.086	0.283
-654.872	-200.000	0.002	-0.023
-653.857	-200.000	0.065	-0.512
-652.843	-140.978	0.128	-0.013
-651.828	-135.409	0.216	0.026
-650.814	-116.673	0.252	0.047
-649.799	49.193	-0.115	0.109
-648.784	-200.000	0.006	0.176
-647.770	-200.000	-0.012	-0.317
-646.755	800.000	-0.115	-0.473
-645.741	-71.200	-0.062	0.023
-644.726	-123.708	0.400	-0.064
-643.711	610.205	-0.168	-0.422
-642.697	-66.749	0.234	-0.093
-641.682	-110.538	0.448	0.094
-640.668	-128.690	0.135	-0.019
-639.653	-161.462	0.230	-0.012
-638.638	483.630	0.088	-0.201
-637.624	-42.677	-0.333	-0.170
-636.609	-94.071	0.216	0.060
-635.595	-67.026	0.282	-0.112
-634.580	800.000	0.075	-0.215
-633.565	-23.940	0.257	-0.154
-632.551	800.000	0.036	-0.138
-631.536	-200.000	-0.002	0.024
-630.522	-4.331	-0.201	-0.140
-629.507	-200.000	-0.034	0.241
-628.492	557.068	0.087	0.211
-627.478	50.852	-0.176	0.167
-626.463	-33.630	-0.243	0.135
-625.449	285.093	0.142	0.257
-624.434	-170.693	0.416	-0.014
-623.419	30.238	-0.063	0.054
-622.405	42.366	0.124	0.113
-621.390	-79.542	0.079	0.027
-620.376	69.139	0.245	-0.254
-619.361	-2.605	-0.069	0.048
-618.346	-61.926	0.301	-0.127
-617.332	-200.000	-0.076	0.524
-616.317	9.471	-0.131	0.100
-615.303	122.967	0.058	0.073
-614.288	-97.376	0.357	0.093
-613.273	-27.192	0.072	-0.042
-612.259	-12.209	0.153	0.101
-611.244	-145.799	-0.387	-0.035
-610.230	-140.316	-0.170	0.018
-609.215	284.038	-0.168	0.304
-608.201	-148.195	-0.140	0.012
-607.186	-171.404	0.064	-0.002
-606.171	67.855	-0.184	-0.189
-605.157	-15.369	-0.047	0.030
-604.142	-10.991	-0.208	-0.138
-603.128	-182.782	-0.209	0.004
-602.113	-140.299	-0.067	-0.007
-601.098	800.000	-0.079	0.245
-600.084	195.153	-0.179	-0.274
-599.069	-200.000	-0.008	-0.127
-598.055	800.000	0.101	0.364
-597.040	-73.416	-0.252	-0.092
-596.025	-69.056	-0.056	0.022
-595.011	238.124	0.096	-0.161
-593.996	-128.039	0.186	0.027
-592.982	-105.321	0.263	0.060
-591.967	414.292	-0.016	0.033
-590.952	286.977	0.078	-0.142
-589.938	-143.572	0.246	0.024
-588.923	80.920	-0.274	-0.297
-587.909	-142.649	0.553	-0.054
-586.894	800.000	-0.168	-0.526
-585.879	-117.664	0.268	-0.048
-584.865	-171.803	0.634	0.021
-583.850	411.865	-0.098	0.208
-582.836	-119.371	-0.033	0.006
-581.821	-61.855	-0.093	0.039
-580.806	86.219	-0.178	-0.197
-579.792	173.839	-0.147	-0.213
-578.777	800.000	0.117	0.453
-577.763	795.995	-0.080	0.221
-576.748	156.094	-0.241	-0.334
-575.733	83.846	-0.128	0.141
-574.719	-172.937	0.288	-0.009
-573.704	94.099	-0.047	0.053
-572.690	-200.000	-0.032	-0.169
-571.675	-89.384	0.207	-0.061
-570.661	-104.411	-0.245	-0.057
-569.646	-55.513	0.152	0.068
-568.631	-108.256	-0.115	0.025
-567.617	-36.164	0.098	0.053
-566.602	160.541	0.163	-0.228
-565.588	27.136	-0.176	0.149
-564.573	-145.897	0.047	-0.004
-563.558	216.662	-0.136	-0.218
-562.544	135.105	0.048	-0.062
-561.529	-52.843	0.102	0.047
-560.515	179.160	0.229	0.336
-559.500	71.190	0.272	-0.283
-558.485	4.133	0.335	-0.246
-557.471	800.000	-0.137	-0.401
-556.456	-200.000	-0.091	0.000
-555.442	28.254	0.076	-0.064
-554.427	-54.515	0.089	-0.040
-553.412	9.082	0.109	-0.083
-552.398	-70.855	-0.395	0.149
-551.383	800.000	0.027	0.076
-550.369	800.000	0.043	0.166
-549.354	-101.955	0.131	0.032
-548.339	-98.036	-0.237	-0.061
-547.325	236.413	-0.073	-0.121
-546.310	-126.275	-0.143	-0.021
-545.296	-44.072	0.338	-0.170
-544.281	261.055	-0.120	0.208
-543.266	-130.314	-0.206	0.028
-542.252	-152.201	0.152	0.011
-541.237	800.000	0.087	-0.343
-540.223	155.313	-0.190	0.262
-539.208	-200.000	0.013	-0.110
-538.193	800.000	-0.035	0.136
-537.179	17.698	-0.254	-0.203
-536.164	101.876	-0.150	-0.175
-535.150	-95.967	-0.389	0.104
-534.135	-200.000	-0.005	-0.045
-533.121	800.000	0.052	0.180
-532.106	98.476	-0.220	-0.254
-531.091	-200.000	0.039	0.338
-530.077	670.673	0.066	0.170
-529.062	-200.000	0.010	-0.486
-528.048	103.901	-0.090	0.106
-527.033	-10.660	-0.109	-0.072
-526.018	237.234	0.039	-0.064
-525.004	213.908	0.186	0.296
-523.989	6.544	-0.158	-0.118
-522.975	-50.098	-0.263	-0.125
-521.960	-200.000	0.080	-0.415
-520.945	-116.106	-0.396	-0.074
-519.931	-85.503	0.191	0.060
-518.916	117.671	-0.182	0.225
-517.902	13.534	0.078	0.061
-516.887	-67.520	0.034	-0.013
-515.872	137.967	-0.143	-0.188
-514.858	-200.000	-0.070	-0.415
-513.843	234.114	0.107	0.177
-512.829	236.223	0.018	0.029
-511.814	771.536	-0.090	0.245
-510.799	-70.007	0.195	-0.074
-509.785	266.397	0.209	0.366
-508.770	-200.000	0.018	0.625
-507.756	59.087	-0.353	0.348
-506.741	17.003	-0.239	0.189
-505.726	-82.361	0.379	0.123
-504.712	-44.485	-0.178	-0.089
-503.697	-200.000	0.018	0.131
-502.683	61.041	-0.024	-0.024
-501.668	-34.476	0.158	0.087
-500.653	173.006	-0.102	0.146
-499.639	192.888	-0.166	0.252
-498.624	-139.934	-0.116	-0.012
-497.610	-146.440	-0.140	0.012
-496.595	-79.311	-0.288	-0.098
-495.581	22.041	-0.250	-0.204
-494.566	30.101	0.078	-0.067
-493.551	-114.743	-0.424	-0.081
-492.537	-200.000	-0.006	-0.192
-491.522	-120.347	-0.203	0.035
-490.508	115.058	0.052	0.064
-489.493	227.297	-0.263	-0.429
-488.478	-46.176	0.097	0.048
-487.464	398.946	-0.082	-0.172
-486.449	-43.189	-0.384	-0.195
-485.435	201.801	-0.071	-0.110
-484.420	68.758	0.255	0.262
-483.405	-109.775	-0.201	0.042
-482.391	-159.006	-0.208	-0.012
-481.376	-99.636	-0.178	0.045
-480.362	45.037	-0.026	0.024
-479.347	8.334	0.137	-0.103
-478.332	-200.000	-0.074	0.326
-477.318	800.000	0.024	-0.085
-476.303	222.052	-0.108	-0.173
-475.289	-200.000	-0.029	0.297
-474.274	-53.117	-0.204	0.094
-473.259	206.154	-0.132	-0.206
-472.245	-98.759	-0.266	0.068
-471.230	68.367	0.179	0.184
-470.216	-49.616	-0.156	0.074
-469.201	-84.600	-0.182	-0.057
-468.186	800.000	0.069	0.217
-467.172	753.493	-0.102	-0.274
-466.157	3.546	0.117	-0.086
-465.143	-83.172	0.097	-0.031
-464.128	112.444	-0.153	0.186
-463.113	-122.423	0.189	0.031
-462.099	-45.917	0.052	-0.026
-461.084	51.656	0.084	0.080
-460.070	-200.000	-0.049	0.588
-459.055	275.919	-0.075	0.133
-458.040	436.510	-0.075	-0.164
-457.026	800.000	0.073	-0.259
-456.011	233.863	0.167	-0.275
-454.997	-69.508	0.498	0.191
-453.982	-200.000	-0.063	0.393
-452.968	392.416	0.150	0.312
-451.953	-200.000	0.017	0.208
-450.938	-183.389	0.123	-0.002
-449.924	138.245	-0.057	0.075
-448.909	-127.609	0.184	0.027
-447.895	-200.000	-0.001	0.068
-446.880	-132.687	0.495	-0.063
-445.865	-200.000	-0.023	0.280
-444.851	731.078	0.099	0.266
-443.836	-175.553	0.145	0.004
-442.822	53.530	-0.062	-0.059
-441.807	181.514	-0.168	0.246
-440.792	138.334	-0.072	0.095
-439.778	-200.000	-0.019	0.218
-438.763	120.060	-0.085	-0.105
-437.749	80.696	0.177	-0.191
-436.734	-129.565	0.047	0.006
-435.719	-200.000	0.012	-0.114
-434.705	-152.633	0.357	-0.025
-433.690	800.000	-0.033	-0.104
-432.676	-166.495	0.261	0.011
-431.661	-97.928	0.108	0.028
-430.646	34.689	0.229	0.200
-429.632	42.386	0.194	0.176
-428.617	-200.000	0.032	0.144
-427.603	-120.815	0.194	0.033
-426.588	15.143	0.234	-0.183
-425.573	-134.110	-0.515	-0.064
-424.559	-55.372	0.071	-0.032
-423.544	563.113	0.152	0.368
-422.530	-47.323	0.299	-0.145
-421.515	-35.035	0.186	-0.101
-420.500	-104.317	-0.180	-0.042
-419.486	-128.643	-0.196	-0.028
-418.471	3.438	-0.273	-0.199
-417.457	800.000	0.039	0.118
-416.442	-84.677	0.169	-0.053
-415.428	173.929	0.100	-0.144
-414.413	570.171	-0.064	-0.157
-413.398	-60.430	-0.179	-0.076
-412.384	96.612	-0.221	-0.253
-411.369	28.948	-0.551	-0.466
-410.355	-21.273	-0.164	0.100
-409.340	263.744	0.055	-0.096
-408.325	-200.000	-0.051	-0.258
-407.311	-138.343	0.380	0.042
-406.296	-13.626	-0.166	-0.107
-405.282	-148.992	-0.186	0.015
-404.267	236.835	-0.048	-0.080
-403.252	-200.000	-0.032	-0.165
-402.238	-29.513	-0.101	-0.057
-401.223	60.737	-0.052	-0.052
-400.209	-200.000	0.049	-0.715
-399.194	-94.867	0.367	-0.099
-398.179	42.512	0.161	0.146
-397.165	195.116	-0.075	-0.114
-396.150	14.656	0.152	-0.118
-395.136	-133.524	0.381	0.048
-394.121	-200.000	0.039	0.515
-393.106	46.721	-0.022	0.020
-392.092	-113.057	-0.346	0.068
-391.077	-79.882	0.209	0.070
-390.063	-28.406	0.139	-0.080
-389.048	-26.591	-0.244	0.142
-388.033	320.724	0.249	0.471
-387.019	741.968	0.097	0.259
-386.004	641.519	0.135	0.344
-384.990	-99.731	-0.251	0.063
-383.975	142.650	-0.105	0.139
-382.960	15.889	0.156	-0.123
-381.946	-7.126	0.214	-0.145
-380.931	-200.000	0.005	-0.115
-379.917	800.000	-0.048	0.141
-378.902	-94.721	0.362	0.098
-377.888	-142.509	-0.160	0.016
-376.873	80.434	0.235	0.252
-375.858	190.045	-0.021	-0.032
-374.844	-108.341	-0.200	0.043
-373.829	-185.010	0.365	0.006
-372.815	327.516	-0.109	0.208
-371.800	91.544	0.147	-0.165
-370.785	-121.427	-0.136	-0.023
-369.771	-172.779	-0.283	-0.009
-368.756	7.799	0.122	-0.091
-367.742	-102.966	0.063	0.015
-366.727	-140.498	0.085	0.009
-365.712	741.707	0.097	-0.260
-364.698	197.722	0.070	0.106
-363.683	800.000	0.047	0.158
-362.669	503.037	-0.022	-0.050
-361.654	99.124	0.188	-0.216
-360.639	-71.718	-0.250	-0.093
-359.625	-3.943	-0.113	0.078
-358.610	-62.306	-0.250	0.104
-357.596	-146.967	0.200	-0.017
-356.581	-200.000	0.014	-0.115
-355.566	-162.561	0.406	0.020
-354.552	655.755	0.188	-0.480
-353.537	-200.000	0.001	0.137
-352.523	-1.228	0.114	0.080
-351.508	-71.029	0.343	-0.129
-350.493	338.730	-0.030	0.058
-349.479	105.497	0.228	-0.268
-348.464	-150.214	-0.259	0.020
-347.450	-57.392	0.381	0.167
-346.435	-20.070	-0.112	0.069
-345.420	-118.392	-0.181	-0.032
-344.406	-96.571	-0.097	0.025
-343.391	-86.073	0.199	0.061
-342.377	134.665	0.233	-0.301
-341.362	-18.583	-0.103	0.064
-340.348	-106.756	0.255	-0.056
-339.333	103.849	-0.214	-0.250
-338.318	800.000	0.046	-0.132
-337.304	302.581	-0.137	-0.251
-336.289	-38.490	-0.084	0.044
-335.275	-66.199	-0.379	-0.150
-334.260	11.782	0.133	-0.101
-333.245	218.148	-0.188	0.298
-332.231	-86.845	0.096	-0.029
-331.216	21.401	0.324	-0.262
-330.202	-200.000	-0.011	0.322
-329.187	800.000	-0.019	0.074
-328.172	800.000	0.043	-0.169
-327.158	-90.672	0.111	0.032
-326.143	-200.000	-0.048	0.284
-325.129	-34.750	-0.201	0.109
-324.114	15.080	0.328	0.256
-323.099	-49.775	-0.027	-0.013
-322.085	-94.895	-0.300	-0.081
-321.070	9.069	-0.028	-0.021
-320.056	-200.000	-0.016	-0.072
-319.041	-73.236	-0.133	0.049
-318.026	34.964	-0.184	0.160
-317.012	-11.491	-0.058	-0.038
-315.997	-72.309	-0.183	0.067
-314.983	-89.145	-0.107	0.032
-313.968	-16.709	-0.148	-0.093
-312.953	-160.799	0.362	-0.019
-311.939	800.000	0.020	0.064
-310.924	-126.430	0.044	0.006
-309.910	800.000	0.018	-0.058
-308.895	-140.362	-0.156	-0.016
-307.880	204.841	-0.172	0.265
-306.866	-31.451	0.174	-0.098
-305.851	-200.000	-0.058	-0.340
-304.837	-139.123	0.095	-0.010
-303.822	-200.000	0.040	0.190
-302.807	266.516	0.046	-0.080
-301.793	-71.704	0.096	-0.036
-300.778	-200.000	-0.002	-0.066
-299.764	800.000	-0.097	-0.274
-298.749	-200.000	0.029	-0.284
-297.735	18.346	-0.225	0.179
-296.720	224.046	-0.177	0.285
-295.705	241.406	0.221	0.367
-294.691	55.822	0.241	-0.232
-293.676	-67.105	-0.365	-0.143
-292.662	0.196	-0.209	-0.148
-291.647	-70.802	-0.092	-0.034
-290.632	800.000	0.082	-0.345
-289.618	222.858	-0.150	0.240
-288.603	-200.000	-0.010	-0.089
-287.589	800.000	-0.060	-0.222
-286.574	-147.694	0.124	-0.010
-285.559	-83.254	-0.107	-0.034
-284.545	67.089	0.150	-0.152
-283.530	-117.749	-0.170	0.030
-282.516	620.881	0.107	-0.268
-281.501	-87.121	-0.311	0.094
-280.486	800.000	-0.074	0.269
-279.472	421.495	-0.041	-0.087
-278.457	621.732	-0.111	0.277
-277.443	-34.597	-0.425	-0.231
-276.428	5.600	0.230	-0.169
-275.413	695.663	0.106	-0.275
-274.399	78.978	-0.099	0.105
-273.384	-75.555	0.297	0.105
-272.370	800.000	0.054	0.194
-271.355	800.000	-0.027	0.113
-270.340	-200.000	0.052	0.251
-269.326	800.000	-0.041	-0.127
-268.311	-118.391	-0.114	0.020
-267.297	-53.215	-0.192	0.087
-266.282	-79.942	-0.282	0.094
-265.267	-77.877	-0.120	0.041
-264.253	-200.000	-0.006	-0.315
-263.238	-173.726	-0.168	0.005
-262.224	163.413	0.144	0.201
-261.209	-200.000	0.001	-0.073
-260.195	-200.000	0.002	0.015
-259.180	-123.260	0.233	-0.037
-258.165	25.824	0.067	0.056
-257.151	-200.000	-0.011	0.067
-256.136	-122.333	-0.250	0.040
-255.122	-77.170	0.102	0.035
-254.107	800.000	-0.043	0.182
-253.092	-200.000	0.056	0.422
-252.078	527.153	-0.065	-0.151
-251.063	67.883	0.167	-0.169
-250.049	-114.357	-0.057	-0.011
-249.034	27.713	0.351	-0.293
-248.019	-98.070	0.220	-0.056
-247.005	-200.000	-0.042	-0.260
-245.990	-200.000	-0.063	0.377
-244.976	-10.756	0.123	0.080
-243.961	-200.000	-0.131	0.001
-242.946	34.569	-0.054	-0.047
-241.932	-200.000	-0.043	0.220
-240.917	221.349	0.017	-0.027
-239.903	252.450	-0.097	0.164
-238.888	342.203	0.106	-0.206
-237.873	33.847	0.458	0.395
-236.859	-48.003	0.457	-0.219
-235.844	800.000	-0.090	0.287
-234.830	-3.168	-0.190	-0.131
-233.815	-200.000	0.009	0.234
-232.800	-42.054	0.232	0.118
-231.786	157.919	-0.141	-0.193
-230.771	-126.883	-0.280	0.041
-229.757	800.000	-0.082	-0.300
-228.742	73.930	-0.057	-0.059
-227.727	-71.021	-0.247	0.092
-226.713	-200.000	0.017	0.385
-225.698	-200.000	0.004	0.301
-224.684	-200.000	-0.038	-0.241
-223.669	643.677	0.122	-0.308
-222.655	-19.560	0.253	0.155
-221.640	34.396	0.069	0.059
-220.625	-148.034	0.250	0.021
-219.611	-150.646	-0.290	0.022
-218.596	-14.775	-0.166	-0.106
-217.582	-200.000	-0.001	-0.021
-216.567	-177.013	0.188	0.005
-215.552	-200.000	-0.044	-0.404
-214.538	-200.000	0.000	-0.132
-213.523	-58.876	-0.232	0.099
-212.509	-200.000	-0.017	-0.227
-211.494	592.633	0.073	-0.180
-210.479	800.000	0.084	0.242
-209.465	800.000	-0.046	0.162
-208.450	-3.578	-0.340	-0.234
-207.436	-16.416	-0.208	-0.130
-206.421	-101.950	0.347	0.083
-205.406	-116.597	-0.175	0.032
-204.392	251.845	0.114	0.193
-203.377	-115.199	-0.281	0.053
-202.363	4.771	0.267	-0.194
-201.348	-200.000	-0.018	0.190
-200.333	-4.756	0.180	0.123
-199.319	290.371	-0.103	-0.184
-198.304	356.108	0.069	0.137
-197.290	-141.344	-0.609	-0.061
-196.275	-118.169	-0.233	0.041
-195.260	344.408	-0.126	-0.245
-194.246	-200.000	-0.002	-0.234
-193.231	800.000	0.021	0.074
-192.217	-62.990	0.109	0.044
-191.202	-127.022	0.356	-0.052
-190.187	403.185	0.057	-0.119
-189.173	358.163	-0.089	0.175
-188.158	149.331	-0.073	-0.098
-187.144	-200.000	0.008	0.230
-186.129	-100.322	-0.190	0.047
-185.114	-110.750	0.064	-0.013
-184.100	-78.006	0.198	0.067
-183.085	8.266	0.114	-0.085
-182.071	-155.399	-0.295	-0.019
-181.056	-174.055	0.177	0.005
-180.042	411.650	0.232	0.486
-179.027	288.187	0.051	0.091
-178.012	-200.000	0.017	-0.125
-176.998	-73.445	-0.293	-0.106
-175.983	250.988	-0.057	0.096
-174.969	-200.000	-0.000	0.104
-173.954	154.244	0.085	0.116
-172.939	147.610	-0.204	-0.272
-171.925	-32.394	0.093	-0.051
-170.910	156.950	-0.189	0.259
-169.896	151.722	0.076	0.102
-168.881	-21.375	0.117	0.071
-167.866	617.052	0.049	-0.122
-166.852	-200.000	0.006	0.128
-165.837	-70.704	-0.306	0.114
-164.823	-23.779	0.129	-0.077
-163.808	426.891	0.092	0.196
-162.793	-59.966	-0.106	0.045
-161.779	163.843	0.148	0.205
-160.764	-4.014	0.207	0.142
-159.750	800.000	-0.059	-0.202
-158.735	-64.966	-0.274	0.109
-157.720	-103.937	-0.153	0.035
-156.706	-40.058	0.239	-0.123
-155.691	106.403	-0.151	0.177
-154.677	-110.304	0.310	0.064
-153.662	99.768	-0.268	-0.306
-152.647	357.211	0.070	-0.138
-151.633	500.054	0.115	-0.261
-150.618	-153.096	-0.106	-0.007
-149.604	-200.000	-0.014	0.222
-148.589	-129.793	0.161	0.022
-147.574	701.192	0.079	-0.205
-146.560	-200.000	0.002	0.354
-145.545	470.579	0.049	0.110
-144.531	31.561	0.192	0.163
-143.516	126.617	-0.242	-0.303
-142.502	-55.511	0.124	-0.055
-141.487	633.207	-0.055	-0.136
-140.472	2.801	0.111	0.080
-139.458	431.356	-0.027	-0.059
-138.443	-200.000	0.021	-0.225
-137.429	49.939	-0.166	0.154
-136.414	26.952	-0.168	0.139
-135.399	81.503	-0.167	0.178
-134.385	-123.505	-0.164	-0.026
-133.370	-132.597	-0.168	-0.021
-132.356	-84.867	0.115	-0.036
-131.341	-190.244	-0.265	-0.003
-130.326	-136.941	0.220	0.025
-129.312	-9.555	-0.224	0.148
-128.297	-26.198	0.205	-0.119
-127.283	-200.000	0.020	-0.309
-126.268	30.239	-0.106	-0.089
-125.253	-200.000	-0.085	0.486
-124.239	-200.000	-0.012	0.239
-123.224	349.815	-0.098	0.190
-122.210	-39.772	-0.317	-0.164
-121.195	800.000	-0.042	-0.143
