DTS Sentinel unit serial number:	SN413079Multiplexer serial number:	ORYXHardware model number:	OX4-SRSoftware version number:	ORYX F/W v4.00 Oryx Data Collector v3.7.2.0data status	okinstallation	princeton_trtdifferential loss correction	single-endedforward channel	channel 3reverse channel	N/Adate	2019/09/11time	02:46:10forward acquisition time	60.00reverse acquisition time	0.00gamma	496.2192k internal	0.2331k external	0.2331temperature offset calibration	0.9910default loss term (dB/km)	0.3790temperature slope calibration	1.0000multiplexer offset coefficient	1.0000multiplexer slope coefficient	1.0000fibre end	0.00T internal ref (°C)	29.25T ext. ref 1 (°C)	-0.31T ext. ref 2 (°C)	23.26length (m)	temperature (°C)	Stokes	anti-Stokes-747.200	-18.845	-0.026	-0.017
-746.185	-66.618	-0.397	-0.159
-745.171	-178.007	0.376	0.009
-744.156	800.000	-0.102	0.401
-743.142	-106.576	-0.289	-0.065
-742.127	16.869	0.060	0.048
-741.112	-26.532	0.191	-0.112
-740.098	-21.205	0.144	0.088
-739.083	-2.493	0.177	0.125
-738.069	-200.000	-0.079	0.350
-737.054	116.055	-0.123	-0.151
-736.039	-200.000	-0.001	-0.017
-735.025	162.924	-0.009	0.013
-734.010	-167.591	-0.228	0.009
-732.996	229.251	0.084	-0.138
-731.981	186.349	0.224	-0.335
-730.966	-44.975	-0.153	0.076
-729.952	-148.770	-0.110	0.009
-728.937	19.417	-0.202	-0.163
-727.923	25.479	-0.063	-0.053
-726.908	-165.124	0.165	0.007
-725.894	-17.403	-0.013	-0.008
-724.879	609.282	0.080	-0.202
-723.864	19.800	-0.114	-0.092
-722.850	655.514	-0.111	-0.286
-721.835	-200.000	-0.070	-0.521
-720.821	43.452	0.170	-0.156
-719.806	-53.800	0.073	0.033
-718.791	-139.060	-0.056	-0.006
-717.777	190.794	0.091	0.138
-716.762	-34.867	0.231	-0.127
-715.748	78.614	0.227	-0.244
-714.733	800.000	0.060	-0.204
-713.718	800.000	0.032	-0.106
-712.704	58.546	0.074	0.073
-711.689	-51.566	0.134	0.063
-710.675	53.070	-0.133	0.128
-709.660	-183.016	0.196	0.004
-708.645	325.605	-0.021	-0.040
-707.631	115.923	-0.020	0.025
-706.616	-200.000	-0.009	0.324
-705.602	395.910	-0.162	-0.341
-704.587	-101.145	-0.209	0.051
-703.572	204.947	0.032	-0.050
-702.558	60.103	0.087	-0.087
-701.543	15.183	0.180	0.141
-700.529	55.956	-0.058	0.057
-699.514	153.827	-0.174	-0.239
-698.499	6.152	-0.076	-0.056
-697.485	282.045	-0.077	0.138
-696.470	-107.903	-0.276	-0.060
-695.456	-200.000	0.027	-0.180
-694.441	-17.049	-0.247	0.156
-693.426	-2.762	-0.133	-0.094
-692.412	-178.064	-0.344	-0.008
-691.397	266.226	0.121	-0.213
-690.383	-41.650	-0.199	0.103
-689.368	800.000	-0.070	-0.237
-688.354	703.775	0.067	0.176
-687.339	-200.000	-0.025	0.147
-686.324	-200.000	0.030	0.182
-685.310	-120.960	0.114	-0.019
-684.295	-143.460	-0.296	-0.028
-683.281	180.681	0.050	-0.073
-682.266	800.000	-0.074	-0.228
-681.251	-51.790	0.072	0.034
-680.237	-200.000	-0.003	0.188
-679.222	800.000	-0.102	-0.329
-678.208	-78.717	0.495	0.170
-677.193	-53.677	-0.344	0.158
-676.178	800.000	0.071	-0.308
-675.164	-200.000	0.020	-0.258
-674.149	-35.822	-0.177	0.096
-673.135	264.080	0.051	0.089
-672.120	800.000	0.106	0.296
-671.105	647.734	-0.141	-0.361
-670.091	534.320	-0.025	-0.059
-669.076	-84.949	-0.235	-0.074
-668.062	-200.000	0.013	0.191
-667.047	733.375	-0.097	0.261
-666.032	-200.000	-0.040	0.230
-665.018	-200.000	0.001	-0.130
-664.003	-200.000	0.020	-0.105
-662.989	117.500	-0.114	0.141
-661.974	-5.358	-0.072	-0.050
-660.959	-200.000	-0.032	0.381
-659.945	-51.811	0.171	0.080
-658.930	156.220	-0.173	0.239
-657.916	-101.309	0.097	0.024
-656.901	-161.628	-0.443	-0.023
-655.886	-48.240	0.197	0.095
-654.872	800.000	0.075	0.266
-653.857	88.947	0.045	0.050
-652.843	54.976	-0.134	-0.130
-651.828	-27.695	0.088	0.051
-650.814	684.692	-0.062	0.163
-649.799	800.000	-0.014	0.038
-648.784	800.000	-0.043	-0.157
-647.770	-200.000	-0.011	0.268
-646.755	800.000	0.098	-0.281
-645.741	-77.169	0.027	0.009
-644.726	403.665	0.104	-0.220
-643.711	342.662	0.158	-0.310
-642.697	-115.767	-0.121	0.023
-641.682	-166.047	-0.377	0.016
-640.668	-150.236	0.193	0.015
-639.653	6.486	0.113	0.084
-638.638	-8.457	-0.376	-0.253
-637.624	800.000	0.027	-0.105
-636.609	172.211	-0.042	-0.060
-635.595	231.916	0.114	0.188
-634.580	189.100	0.050	-0.075
-633.565	-187.504	-0.207	0.003
-632.551	-198.815	-0.099	0.001
-631.536	-173.353	0.208	0.006
-630.522	35.553	-0.073	0.064
-629.507	-24.354	0.163	-0.097
-628.492	-200.000	-0.021	0.126
-627.478	24.378	-0.125	-0.103
-626.463	42.992	-0.225	0.206
-625.449	237.422	-0.035	0.058
-624.434	-68.016	-0.084	-0.033
-623.419	-148.360	0.233	-0.019
-622.405	-54.849	0.093	-0.042
-621.390	145.626	-0.102	0.136
-620.376	800.000	0.058	0.189
-619.361	-146.413	0.109	-0.010
-618.346	-48.970	-0.195	-0.093
-617.332	-28.545	-0.290	-0.167
-616.317	-200.000	-0.008	-0.287
-615.303	-158.511	0.134	-0.008
-614.288	800.000	-0.104	-0.434
-613.273	-130.476	-0.107	-0.014
-612.259	676.473	-0.082	0.212
-611.244	-42.976	-0.139	-0.071
-610.230	95.393	0.155	-0.177
-609.215	76.695	-0.208	-0.220
-608.201	800.000	0.110	-0.352
-607.186	800.000	-0.024	0.103
-606.171	95.488	0.125	0.143
-605.157	195.317	0.282	0.429
-604.142	-66.010	0.272	0.109
-603.128	800.000	0.140	-0.401
-602.113	46.064	-0.156	0.145
-601.098	-42.923	0.055	0.028
-600.084	800.000	-0.075	0.224
-599.069	107.772	0.113	-0.135
-598.055	-54.262	-0.315	-0.143
-597.040	800.000	-0.185	-0.524
-596.025	56.438	-0.172	-0.168
-595.011	-56.592	-0.153	0.068
-593.996	-49.006	0.433	-0.208
-592.982	-70.282	-0.072	0.027
-591.967	-35.795	-0.112	0.061
-590.952	-131.958	-0.136	-0.018
-589.938	23.696	-0.182	0.150
-588.923	134.657	0.103	-0.134
-587.909	800.000	0.079	0.322
-586.894	167.284	0.116	0.165
-585.879	96.176	-0.103	-0.117
-584.865	246.055	0.127	0.214
-583.850	-36.942	-0.234	0.126
-582.836	202.630	0.130	-0.201
-581.821	147.843	0.097	0.130
-580.806	-78.113	0.123	0.042
-579.792	27.104	0.236	-0.198
-578.777	185.619	-0.270	-0.401
-577.763	132.145	-0.057	-0.074
-576.748	-55.730	0.333	-0.149
-575.733	139.613	-0.229	-0.301
-574.719	214.598	-0.027	0.043
-573.704	-4.815	0.317	-0.219
-572.690	-200.000	0.049	-0.397
-571.675	-200.000	0.021	-0.120
-570.661	-156.242	-0.389	0.024
-569.646	49.899	0.086	0.081
-568.631	-121.288	-0.174	-0.029
-567.617	-200.000	-0.009	-0.099
-566.602	-200.000	-0.013	-0.169
-565.588	-123.521	-0.480	-0.076
-564.573	179.893	0.038	-0.056
-563.558	-122.891	-0.066	0.011
-562.544	328.433	-0.042	-0.081
-561.529	-200.000	-0.024	-0.260
-560.515	-190.836	-0.061	-0.001
-559.500	669.334	0.086	0.222
-558.485	178.190	0.035	0.051
-557.471	-103.861	-0.374	-0.087
-556.456	-200.000	0.014	-0.197
-555.442	26.066	-0.502	-0.419
-554.427	-132.372	-0.075	-0.010
-553.412	-59.641	0.277	-0.119
-552.398	-200.000	0.010	0.156
-551.383	800.000	-0.089	0.256
-550.369	116.544	-0.149	-0.182
-549.354	519.156	0.164	-0.384
-548.339	91.660	-0.047	0.053
-547.325	-134.911	0.356	-0.043
-546.310	-200.000	0.019	0.088
-545.296	800.000	-0.107	-0.355
-544.281	67.577	0.077	0.079
-543.266	-23.779	-0.102	0.061
-542.252	-200.000	0.002	-0.123
-541.237	-2.271	0.089	0.063
-540.223	-63.870	-0.144	0.059
-539.208	-181.418	-0.222	-0.004
-538.193	-58.970	0.118	0.051
-537.179	-61.217	-0.042	-0.018
-536.164	-61.510	0.245	0.103
-535.150	-148.045	0.181	-0.015
-534.135	357.090	0.021	-0.041
-533.121	800.000	-0.072	-0.226
-532.106	469.255	-0.088	-0.197
-531.091	-200.000	-0.048	-0.302
-530.077	-200.000	-0.032	0.252
-529.062	-34.671	0.148	-0.081
-528.048	-102.053	0.223	-0.054
-527.033	293.561	0.228	0.415
-526.018	12.644	0.038	0.029
-525.004	272.111	0.117	0.206
-523.989	-89.308	0.150	0.044
-522.975	800.000	0.045	0.129
-521.960	-200.000	-0.013	0.072
-520.945	85.427	-0.311	-0.341
-519.931	-110.693	0.410	0.084
-518.916	-161.412	-0.396	0.020
-517.902	-177.459	-0.113	0.003
-516.887	27.432	0.167	-0.140
-515.872	231.318	-0.103	-0.168
-514.858	272.525	-0.049	-0.087
-513.843	86.337	0.244	-0.268
-512.829	37.161	0.153	-0.135
-511.814	-200.000	0.041	-0.231
-510.799	-200.000	0.072	0.000
-509.785	-174.148	0.099	-0.003
-508.770	-83.176	0.074	0.024
-507.756	-200.000	-0.024	0.109
-506.741	-67.106	-0.240	-0.094
-505.726	125.474	0.069	0.086
-504.712	-200.000	0.067	-0.331
-503.697	43.098	0.231	-0.210
-502.683	566.936	0.112	0.270
-501.668	-143.608	-0.453	0.043
-500.653	380.331	-0.055	-0.113
-499.639	-146.283	-0.232	0.020
-498.624	-105.324	0.301	0.068
-497.610	-149.694	-0.308	0.024
-496.595	-166.006	-0.243	0.010
-495.581	497.937	0.073	0.168
-494.566	-27.141	-0.060	0.035
-493.551	-51.632	0.076	0.035
-492.537	155.788	-0.136	-0.186
-491.522	-126.800	-0.118	-0.017
-490.508	-183.821	-0.111	0.002
-489.493	5.287	-0.271	0.199
-488.478	-61.247	-0.167	0.070
-487.464	-131.702	0.132	0.017
-486.449	-155.344	-0.060	-0.004
-485.435	-200.000	-0.053	0.263
-484.420	-126.850	-0.178	0.026
-483.405	-112.083	-0.201	-0.040
-482.391	318.852	-0.054	0.103
-481.376	7.344	-0.273	-0.203
-480.362	379.607	0.158	-0.322
-479.347	57.031	-0.160	-0.155
-478.332	127.255	0.168	-0.212
-477.318	-111.426	-0.356	-0.072
-476.303	800.000	-0.048	-0.182
-475.289	-156.413	-0.227	-0.014
-474.274	-45.025	0.259	-0.128
-473.259	-152.278	-0.383	0.028
-472.245	134.498	0.192	-0.248
-471.230	-200.000	0.037	-0.263
-470.216	70.470	-0.194	-0.199
-469.201	456.998	0.079	-0.174
-468.186	643.507	-0.023	-0.058
-467.172	-143.187	0.091	0.009
-466.157	2.341	0.216	0.156
-465.143	-167.922	-0.443	0.017
-464.128	-200.000	-0.011	-0.183
-463.113	-200.000	0.004	0.073
-462.099	-200.000	0.029	0.202
-461.084	66.039	0.263	0.266
-460.070	27.911	0.289	0.243
-459.055	-20.663	-0.104	0.064
-458.040	458.280	0.118	0.262
-457.026	534.494	0.114	-0.269
-456.011	-200.000	0.002	0.130
-454.997	-200.000	-0.016	0.176
-453.982	800.000	0.078	-0.214
-452.968	-200.000	0.015	0.125
-451.953	800.000	-0.009	-0.032
-450.938	-34.557	0.284	-0.155
-449.924	-111.555	-0.249	0.050
-448.909	-50.667	-0.083	0.039
-447.895	800.000	-0.085	-0.309
-446.880	-48.895	0.306	-0.146
-445.865	231.788	0.101	-0.165
-444.851	3.067	-0.055	0.040
-443.836	-200.000	0.019	0.190
-442.822	-101.685	-0.141	-0.034
-441.807	-200.000	-0.020	-0.385
-440.792	-200.000	-0.022	0.131
-439.778	325.062	0.098	0.186
-438.763	-130.100	0.162	0.022
-437.749	49.613	0.176	0.165
-436.734	-68.339	0.322	0.124
-435.719	-200.000	-0.009	-0.065
-434.705	-200.000	-0.005	0.149
-433.690	-89.347	0.448	0.131
-432.676	25.983	0.118	0.098
-431.661	-118.360	-0.198	-0.035
-430.646	-200.000	0.067	0.331
-429.632	-140.529	-0.122	-0.013
-428.617	-122.707	0.268	-0.043
-427.603	6.223	-0.104	-0.076
-426.588	284.105	0.255	0.456
-425.573	-27.331	0.158	0.091
-424.559	-200.000	-0.030	-0.221
-423.544	-141.878	0.115	-0.011
-422.530	-133.188	-0.022	0.003
-421.515	135.984	-0.063	-0.081
-420.500	-172.974	-0.093	-0.003
-419.486	-200.000	-0.203	0.000
-418.471	7.955	0.066	-0.049
-417.457	-101.129	-0.380	0.092
-416.442	321.519	-0.071	0.134
-415.428	-200.000	0.010	-0.051
-414.413	67.437	-0.198	-0.201
-413.398	-200.000	0.034	0.411
-412.384	313.182	0.109	0.204
-411.369	-85.956	0.136	0.042
-410.355	107.929	-0.297	-0.352
-409.340	-120.193	0.353	-0.060
-408.325	800.000	0.053	0.204
-407.311	36.241	0.188	0.165
-406.296	133.208	0.206	-0.264
-405.282	-165.900	0.103	0.004
-404.267	-200.000	-0.021	0.436
-403.252	37.885	0.101	0.090
-402.238	-171.006	-0.051	0.002
-401.223	44.762	0.127	0.116
-400.209	-151.891	0.208	0.015
-399.194	-82.593	-0.086	-0.028
-398.179	800.000	0.032	-0.092
-397.165	-34.390	0.305	-0.166
-396.150	-155.024	-0.309	0.020
-395.136	24.945	-0.058	-0.048
-394.121	559.212	-0.066	0.159
-393.106	-49.332	0.064	0.030
-392.092	27.083	0.051	-0.042
-391.077	-143.164	-0.168	-0.016
-390.063	-88.767	0.155	-0.046
-389.048	-200.000	0.026	0.128
-388.033	26.632	0.198	-0.165
-387.019	111.163	-0.102	0.122
-386.004	30.722	-0.152	-0.129
-384.990	-149.912	-0.126	0.010
-383.975	692.411	0.101	-0.262
-382.960	-74.764	0.171	-0.061
-381.946	66.323	-0.151	0.152
-380.931	-79.107	0.188	-0.064
-379.917	146.464	0.222	-0.296
-378.902	-128.928	-0.212	-0.030
-377.888	158.885	-0.192	0.264
-376.873	-54.384	0.268	-0.121
-375.858	-68.697	-0.100	0.039
-374.844	800.000	0.069	-0.219
-373.829	-43.490	-0.145	0.072
-372.815	-8.179	-0.080	0.053
-371.800	303.881	0.140	0.258
-370.785	-200.000	0.058	0.423
-369.771	-55.855	0.171	-0.076
-368.756	-102.842	0.259	-0.061
-367.742	-200.000	-0.021	0.281
-366.727	16.529	-0.029	-0.023
-365.712	219.546	0.119	0.189
-364.698	-20.650	0.106	0.064
-363.683	-24.942	0.408	0.240
-362.669	17.501	-0.282	0.222
-361.654	-96.284	-0.116	-0.030
-360.639	-50.184	0.215	-0.101
-359.625	254.679	-0.201	-0.342
-358.610	213.094	-0.158	0.247
-357.596	-200.000	0.188	0.001
-356.581	-69.894	0.021	-0.008
-355.566	-112.493	-0.321	-0.064
-354.552	-97.423	0.109	-0.028
-353.537	78.686	0.125	0.132
-352.523	-95.980	0.077	0.020
-351.508	800.000	0.051	-0.197
-350.493	436.598	-0.076	0.164
-349.479	126.423	0.063	0.079
-348.464	348.431	-0.025	-0.048
-347.450	-200.000	-0.015	-0.101
-346.435	-100.551	0.105	0.026
-345.420	-55.284	-0.238	-0.106
-344.406	86.784	-0.150	0.164
-343.391	-83.283	-0.180	0.057
-342.377	-151.880	0.247	0.018
-341.362	-38.571	-0.417	0.218
-340.348	-83.821	-0.148	0.047
-339.333	-80.094	-0.105	-0.035
-338.318	13.072	0.140	0.107
-337.304	-128.333	-0.092	0.013
-336.289	-200.000	0.044	-0.253
-335.275	-176.556	0.149	0.004
-334.260	800.000	-0.093	0.354
-333.245	98.483	0.221	0.253
-332.231	-200.000	-0.004	0.094
-331.216	-97.607	0.336	0.086
-330.202	-58.664	0.099	0.043
-329.187	71.167	0.200	-0.205
-328.172	-53.776	0.181	-0.082
-327.158	-149.219	-0.078	0.006
-326.143	30.166	0.047	-0.039
-325.129	-200.000	0.013	0.306
-324.114	-104.183	-0.440	-0.101
-323.099	-85.976	0.260	-0.080
-322.085	65.298	-0.186	-0.186
-321.070	-14.684	0.313	0.199
-320.056	35.148	-0.323	-0.280
-319.041	-120.495	0.188	-0.032
-318.026	-150.303	0.284	-0.022
-317.012	118.862	0.174	-0.213
-315.997	27.382	0.051	0.042
-314.983	-66.215	-0.359	-0.142
-313.968	-122.609	-0.116	0.019
-312.953	-77.296	0.182	0.063
-311.939	665.415	0.086	0.220
-310.924	69.983	0.170	-0.174
-309.910	800.000	-0.076	0.318
-308.895	-145.782	-0.361	0.032
-307.880	-200.000	-0.001	0.133
-306.866	89.664	-0.117	0.129
-305.851	638.379	0.041	0.103
-304.837	800.000	-0.106	0.298
-303.822	-91.671	-0.140	0.039
-302.807	-83.315	0.350	-0.111
-301.793	135.482	-0.158	-0.203
-300.778	189.915	-0.146	-0.217
-299.764	150.578	0.131	0.176
-298.749	-200.000	-0.041	0.215
-297.735	-103.027	-0.043	0.010
-296.720	534.435	0.087	-0.204
-295.705	185.515	-0.252	0.370
-294.691	-200.000	0.026	0.312
-293.676	800.000	0.032	-0.088
-292.662	322.587	-0.156	0.294
-291.647	-82.635	0.273	-0.087
-290.632	-59.660	0.189	-0.080
-289.618	-53.284	-0.099	-0.045
-288.603	-200.000	0.034	-0.534
-287.589	240.314	-0.147	-0.242
-286.574	94.357	-0.240	0.269
-285.559	-200.000	-0.017	-0.090
-284.545	-107.922	-0.292	0.063
-283.530	-8.071	0.099	0.066
-282.516	-87.755	-0.092	-0.027
-281.501	-69.481	0.285	0.108
-280.486	-200.000	0.084	0.423
-279.472	-131.142	0.167	0.022
-278.457	101.676	-0.137	0.158
-277.443	500.054	0.109	0.249
-276.428	93.112	0.332	-0.371
-275.413	800.000	0.093	0.269
-274.399	-69.000	0.093	-0.035
-273.384	306.279	0.194	-0.357
-272.370	-104.594	-0.037	0.008
-271.355	-157.625	0.170	0.010
-270.340	-200.000	0.002	0.100
-269.326	-42.925	0.280	-0.140
-268.311	-200.000	-0.019	-0.205
-267.297	-200.000	-0.028	0.169
-266.282	-95.515	0.347	0.092
-265.267	-39.744	0.225	-0.116
-264.253	-200.000	-0.177	0.001
-263.238	-84.698	-0.176	0.055
-262.224	361.691	-0.072	0.144
-261.209	-59.415	-0.228	-0.097
-260.195	-59.652	0.342	0.145
-259.180	581.968	0.049	0.119
-258.165	11.828	0.190	-0.144
-257.151	639.330	-0.197	0.494
-256.136	14.985	0.364	0.282
-255.122	-12.148	-0.329	0.212
-254.107	-50.379	-0.093	0.043
-253.092	26.882	-0.075	0.062
-252.078	-55.954	-0.229	-0.101
-251.063	-76.335	0.225	-0.078
-250.049	369.652	-0.067	0.134
-249.034	1.259	0.365	0.258
-248.019	-1.977	-0.213	0.148
-247.005	52.830	0.217	0.205
-245.990	47.993	-0.114	0.106
-244.976	-85.801	0.078	-0.024
-243.961	-200.000	-0.008	-0.151
-242.946	23.950	0.097	0.079
-241.932	159.763	0.076	-0.104
-240.917	49.590	0.124	0.115
-239.903	27.765	-0.190	0.158
-238.888	223.957	-0.290	-0.462
-237.873	-87.660	0.204	-0.061
-236.859	264.261	0.122	0.209
-235.844	49.185	-0.200	-0.186
-234.830	541.900	0.010	0.024
-233.815	0.247	-0.107	-0.076
-232.800	111.282	0.177	0.211
-231.786	-64.905	0.189	0.075
-230.771	-45.929	-0.335	-0.163
-229.757	47.750	0.220	0.202
-228.742	169.855	-0.286	0.403
-227.727	-139.403	-0.122	-0.013
-226.713	112.592	0.156	0.186
-225.698	-139.071	-0.291	0.031
-224.684	800.000	0.094	-0.326
-223.669	-81.399	0.031	0.010
-222.655	-200.000	0.014	0.278
-221.640	-200.000	0.001	-0.355
-220.625	-200.000	0.045	0.310
-219.611	800.000	-0.012	-0.037
-218.596	424.360	-0.078	0.166
-217.582	-55.555	0.118	0.052
-216.567	-113.238	0.170	-0.033
-215.552	119.689	-0.231	0.282
-214.538	-200.000	0.001	0.060
-213.523	-49.557	-0.100	0.047
-212.509	-200.000	0.058	-0.294
-211.494	-200.000	-0.020	0.148
-210.479	-87.469	-0.273	-0.081
-209.465	800.000	0.086	-0.305
-208.450	-146.145	-0.276	0.024
-207.436	-106.578	0.170	-0.037
-206.421	-53.891	0.260	0.117
-205.406	-67.978	0.314	0.121
-204.392	-55.724	-0.288	-0.127
-203.377	146.585	0.109	0.144
-202.363	800.000	-0.118	-0.387
-201.348	657.982	0.061	0.155
-200.333	-200.000	-0.038	0.200
-199.319	37.206	0.117	0.102
-198.304	571.245	0.101	0.243
-197.290	800.000	0.043	0.165
-196.275	-42.967	0.330	0.165
-195.260	-200.000	-0.018	0.116
-194.246	-117.008	-0.145	0.026
-193.231	-200.000	0.011	-0.407
-192.217	72.541	-0.265	-0.272
-191.202	9.673	0.045	0.034
-190.187	-172.670	-0.179	-0.006
-189.173	-200.000	0.069	-0.339
-188.158	-177.618	-0.120	-0.003
-187.144	38.880	-0.341	0.300
-186.129	-74.335	0.504	0.179
-185.114	-80.244	0.181	-0.060
-184.100	800.000	0.085	-0.294
-183.085	-39.314	-0.071	-0.037
-182.071	-25.151	0.221	-0.129
-181.056	90.643	0.340	-0.374
-180.042	-67.382	0.098	0.038
-179.027	-149.998	-0.026	-0.002
-178.012	56.420	-0.197	0.189
-176.998	73.459	-0.205	0.211
-175.983	66.498	0.177	0.177
-174.969	-73.603	-0.123	0.044
-173.954	-101.230	-0.246	-0.059
-172.939	-200.000	0.020	-0.428
-171.925	162.207	0.121	0.168
-170.910	-46.625	-0.335	-0.161
-169.896	-111.957	-0.281	0.056
-168.881	-67.392	-0.220	-0.085
-167.866	149.579	-0.206	0.274
-166.852	800.000	-0.008	0.026
-165.837	21.894	-0.146	0.117
-164.823	132.810	-0.095	0.121
-163.808	-0.831	0.059	0.041
-162.793	-49.034	0.438	-0.206
-161.779	326.286	0.128	0.241
-160.764	-133.164	-0.205	-0.026
-159.750	16.989	-0.244	-0.190
-158.735	-200.000	0.040	0.289
-157.720	-83.128	-0.202	0.064
-156.706	-200.000	-0.026	0.271
-155.691	-97.225	-0.024	-0.006
-154.677	168.463	-0.153	-0.214
-153.662	-60.370	-0.054	0.023
-152.647	16.686	-0.094	-0.073
-151.633	160.072	-0.107	-0.146
-150.618	-7.385	-0.082	0.055
-149.604	-55.835	0.190	0.083
-148.589	-200.000	0.014	0.151
-147.574	-43.691	0.210	0.104
-146.560	636.085	-0.051	0.128
-145.545	-54.125	0.195	0.087
-144.531	131.019	0.135	0.170
-143.516	-56.677	-0.062	-0.027
-142.502	-7.871	-0.491	0.326
-141.487	-8.103	0.159	0.105
-140.472	-39.305	-0.224	-0.116
-139.458	-159.030	-0.154	0.009
-138.443	-200.000	0.021	-0.264
-137.429	-10.156	-0.028	-0.018
-136.414	-95.155	0.138	-0.037
-135.399	-26.176	0.260	-0.150
-134.385	-108.884	-0.116	0.024
-133.370	-18.043	-0.098	0.061
-132.356	-129.493	0.329	-0.045
-131.341	-93.939	0.215	-0.058
-130.326	-103.339	-0.125	0.029
-129.312	-200.000	0.024	0.178
-128.297	-200.000	-0.008	-0.183
-127.283	-138.734	-0.393	0.042
-126.268	56.798	0.211	0.202
-125.253	-125.830	-0.224	-0.033
-124.239	-87.556	-0.186	0.055
-123.224	-37.790	-0.139	0.073
-122.210	-200.000	0.019	0.245
-121.195	142.955	0.219	0.287
