DTS Sentinel unit serial number:	SN413079Multiplexer serial number:	ORYXHardware model number:	OX4-SRSoftware version number:	ORYX F/W v4.00 Oryx Data Collector v3.7.2.0data status	okinstallation	princeton_trtdifferential loss correction	single-endedforward channel	channel 3reverse channel	N/Adate	2019/09/11time	18:42:11forward acquisition time	60.00reverse acquisition time	0.00gamma	496.2192k internal	0.2289k external	0.2289temperature offset calibration	0.9998default loss term (dB/km)	0.3790temperature slope calibration	1.0000multiplexer offset coefficient	1.0000multiplexer slope coefficient	1.0000fibre end	0.00T internal ref (°C)	43.39T ext. ref 1 (°C)	1.21T ext. ref 2 (°C)	35.54length (m)	temperature (°C)	Stokes	anti-Stokes-747.200	-127.361	0.114	-0.017
-746.185	-63.070	-0.514	0.218
-745.171	28.161	0.116	0.100
-744.156	-17.245	0.448	0.290
-743.142	800.000	0.041	0.139
-742.127	44.249	-0.254	0.238
-741.112	-160.643	-0.365	0.020
-740.098	-200.000	-0.075	0.397
-739.083	125.292	-0.122	0.158
-738.069	522.716	-0.055	0.133
-737.054	713.181	-0.097	-0.264
-736.039	649.110	-0.013	-0.033
-735.025	-17.942	-0.246	-0.158
-734.010	-190.317	-0.274	-0.003
-732.996	57.801	-0.071	-0.071
-731.981	-82.043	0.292	-0.098
-730.966	-31.692	-0.175	0.100
-729.952	54.850	-0.293	-0.290
-728.937	-145.177	0.243	0.023
-727.923	-173.741	-0.137	0.004
-726.908	-30.860	-0.277	0.160
-725.894	205.276	-0.057	0.091
-724.879	-48.957	0.063	0.031
-723.864	483.914	-0.049	0.115
-722.850	603.381	-0.067	-0.171
-721.835	-200.000	0.010	-0.076
-720.821	-200.000	0.001	-0.187
-719.806	90.356	0.175	0.201
-718.791	-54.016	-0.057	-0.027
-717.777	-159.164	0.445	0.026
-716.762	-57.973	0.305	0.136
-715.748	50.626	-0.214	0.207
-714.733	167.233	-0.208	-0.302
-713.718	68.060	0.204	-0.214
-712.704	-200.000	-0.001	0.332
-711.689	196.197	-0.038	-0.059
-710.675	800.000	0.032	-0.111
-709.660	-200.000	-0.016	0.230
-708.645	106.543	0.099	-0.121
-707.631	166.930	-0.126	-0.184
-706.616	-22.073	0.203	0.126
-705.602	-117.444	-0.156	0.029
-704.587	11.976	-0.215	-0.169
-703.572	-200.000	0.068	-0.598
-702.558	-1.753	0.112	-0.080
-701.543	-83.259	-0.165	-0.054
-700.529	768.234	0.050	0.139
-699.514	-30.517	-0.061	0.035
-698.499	-41.079	-0.052	-0.027
-697.485	408.758	0.222	0.481
-696.470	19.946	0.061	0.050
-695.456	-83.491	-0.099	-0.032
-694.441	-43.183	-0.139	-0.072
-693.426	-191.966	0.101	-0.001
-692.412	800.000	-0.067	-0.217
-691.397	177.399	0.150	-0.224
-690.383	31.075	0.123	0.108
-689.368	-171.122	-0.158	-0.005
-688.354	-155.887	-0.350	-0.023
-687.339	-118.892	-0.223	-0.040
-686.324	-29.126	-0.072	0.042
-685.310	800.000	-0.034	0.106
-684.295	-156.517	-0.358	-0.023
-683.281	105.411	-0.101	0.122
-682.266	54.083	0.310	-0.305
-681.251	800.000	0.136	-0.432
-680.237	18.145	-0.231	-0.188
-679.222	76.545	-0.055	0.060
-678.208	40.415	-0.267	0.246
-677.193	105.366	0.193	-0.233
-676.178	-200.000	0.015	0.218
-675.164	-111.919	-0.154	-0.032
-674.149	-106.245	0.211	-0.048
-673.135	71.364	0.085	-0.090
-672.120	800.000	0.152	-0.516
-671.105	-184.525	0.342	0.006
-670.091	-3.649	0.226	0.161
-669.076	385.149	0.084	0.178
-668.062	38.075	-0.037	0.033
-667.047	800.000	-0.013	-0.056
-666.032	-105.584	-0.313	-0.073
-665.018	800.000	0.066	0.230
-664.003	800.000	0.067	0.201
-662.989	28.155	-0.065	0.056
-661.974	118.811	0.275	-0.347
-660.959	9.587	-0.213	-0.165
-659.945	-64.109	0.132	-0.055
-658.930	-200.000	-0.004	-0.113
-657.916	-24.803	-0.193	0.117
-656.901	-40.367	-0.252	-0.134
-655.886	-173.155	0.297	-0.009
-654.872	-42.677	0.316	0.165
-653.857	-61.183	0.198	0.085
-652.843	527.030	-0.092	-0.221
-651.828	-96.196	0.142	0.039
-650.814	133.249	0.050	-0.066
-649.799	-196.814	-0.281	-0.002
-648.784	-131.711	-0.106	0.014
-647.770	-200.000	-0.013	0.465
-646.755	-68.060	-0.091	-0.036
-645.741	-200.000	0.012	-0.137
-644.726	-200.000	-0.013	0.192
-643.711	-46.925	-0.220	-0.110
-642.697	-87.740	-0.104	-0.032
-641.682	800.000	-0.098	-0.351
-640.668	72.757	0.144	-0.153
-639.653	-7.085	-0.073	0.050
-638.638	-200.000	-0.014	0.214
-637.624	2.860	0.160	0.118
-636.609	-15.137	0.103	0.068
-635.595	-60.239	0.275	0.120
-634.580	155.146	-0.091	-0.128
-633.565	-111.995	-0.261	-0.054
-632.551	325.188	-0.070	-0.137
-631.536	89.384	-0.047	0.053
-630.522	-2.939	-0.244	0.174
-629.507	-10.023	-0.072	-0.049
-628.492	334.572	-0.032	-0.063
-627.478	99.915	-0.082	-0.097
-626.463	-90.480	-0.236	0.070
-625.449	-40.475	0.258	0.137
-624.434	139.879	0.235	-0.316
-623.419	-5.406	-0.252	-0.177
-622.405	78.387	0.087	-0.095
-621.390	-62.906	-0.298	0.126
-620.376	-161.092	0.064	0.003
-619.361	-17.230	-0.316	0.203
-618.346	-200.000	-0.001	0.169
-617.332	-44.316	0.102	-0.052
-616.317	-200.000	0.073	-0.433
-615.303	204.043	0.145	0.230
-614.288	111.584	0.255	0.314
-613.273	-200.000	0.021	0.122
-612.259	-163.576	0.130	0.006
-611.244	-200.000	0.035	0.223
-610.230	82.597	-0.200	-0.221
-609.215	-21.223	-0.119	0.074
-608.201	-51.826	-0.133	0.063
-607.186	16.562	0.100	-0.081
-606.171	-35.907	0.131	0.072
-605.157	-129.283	0.061	0.009
-604.142	-147.682	-0.184	0.016
-603.128	12.885	0.310	0.245
-602.113	-124.440	-0.300	0.048
-601.098	-200.000	0.058	0.403
-600.084	224.221	0.061	0.100
-599.069	-84.916	-0.209	0.067
-598.055	53.928	-0.078	0.076
-597.040	-200.000	0.047	-0.366
-596.025	-38.409	0.265	0.143
-595.011	-200.000	0.015	-0.283
-593.996	-72.599	0.168	0.063
-592.982	135.406	0.211	-0.279
-591.967	-200.000	-0.006	-0.042
-590.952	-200.000	0.033	-0.196
-589.938	44.732	-0.243	-0.228
-588.923	-200.000	0.001	0.351
-587.909	800.000	0.021	0.082
-586.894	-87.627	0.304	-0.094
-585.879	800.000	-0.038	-0.155
-584.865	-57.134	0.097	-0.043
-583.850	-116.502	-0.250	-0.047
-582.836	-155.172	0.052	0.003
-581.821	-3.601	-0.383	-0.271
-580.806	381.738	0.121	-0.253
-579.792	-200.000	-0.025	-0.142
-578.777	-46.132	-0.092	-0.046
-577.763	145.346	-0.060	0.082
-576.748	800.000	0.057	0.224
-575.733	342.418	-0.184	-0.366
-574.719	239.100	0.182	0.308
-573.704	348.106	-0.149	0.299
-572.690	-200.000	0.017	-0.153
-571.675	-145.786	0.200	0.018
-570.661	-65.953	-0.030	0.012
-569.646	140.764	0.082	0.110
-568.631	29.011	0.264	-0.228
-567.617	515.183	-0.039	0.094
-566.602	800.000	-0.050	-0.181
-565.588	796.198	-0.072	0.203
-564.573	-131.549	0.087	-0.012
-563.558	-149.531	-0.201	0.016
-562.544	-115.606	-0.274	-0.052
-561.529	-56.363	0.257	0.116
-560.515	-200.000	0.003	0.054
-559.500	537.201	0.201	0.485
-558.485	-67.104	-0.244	-0.098
-557.471	-200.000	-0.015	-0.262
-556.456	470.116	-0.074	-0.168
-555.442	-200.000	0.042	-0.256
-554.427	216.781	-0.184	-0.298
-553.412	800.000	-0.059	-0.199
-552.398	-12.090	0.046	-0.031
-551.383	-200.000	-0.019	-0.214
-550.369	-200.000	0.024	0.595
-549.354	-46.040	0.238	0.119
-548.339	800.000	0.040	-0.163
-547.325	800.000	-0.069	0.239
-546.310	-200.000	-0.010	-0.232
-545.296	800.000	-0.079	0.230
-544.281	589.393	0.095	-0.237
-543.266	282.917	0.105	0.192
-542.252	-55.238	-0.230	-0.105
-541.237	-101.466	-0.103	-0.026
-540.223	-200.000	-0.031	0.219
-539.208	-32.383	0.090	-0.051
-538.193	-156.364	-0.010	0.001
-537.179	-96.311	0.257	0.069
-536.164	-134.966	0.266	-0.033
-535.150	800.000	0.041	-0.138
-534.135	566.752	0.021	-0.052
-533.121	-200.000	0.013	0.367
-532.106	-88.596	-0.036	-0.011
-531.091	-83.142	0.245	0.080
-530.077	-200.000	-0.003	-0.053
-529.062	312.664	0.066	-0.125
-528.048	20.569	0.238	0.196
-527.033	564.541	-0.054	-0.134
-526.018	-87.768	-0.255	-0.078
-525.004	-82.924	0.115	-0.038
-523.989	26.872	-0.121	-0.103
-522.975	576.768	-0.069	-0.170
-521.960	-86.476	0.195	-0.061
-520.945	-36.691	0.202	0.110
-519.931	-116.745	0.086	0.016
-518.916	443.804	-0.100	-0.223
-517.902	366.268	-0.080	-0.165
-516.887	70.117	-0.092	0.096
-515.872	-78.430	0.305	0.106
-514.858	-200.000	0.010	0.279
-513.843	189.830	-0.088	0.134
-512.829	-19.692	0.087	0.055
-511.814	-200.000	0.038	-0.227
-510.799	59.308	0.065	0.065
-509.785	98.816	-0.097	0.114
-508.770	-81.095	-0.182	0.061
-507.756	-106.509	0.403	0.091
-506.741	-111.683	-0.221	-0.045
-505.726	800.000	0.057	-0.166
-504.712	800.000	-0.020	-0.069
-503.697	-108.733	0.229	-0.050
-502.683	12.363	-0.211	-0.165
-501.668	125.293	-0.155	0.199
-500.653	143.788	0.215	-0.291
-499.639	-200.000	0.030	-0.236
-498.624	-124.679	0.193	-0.030
-497.610	246.636	0.102	0.174
-496.595	-34.332	0.083	0.046
-495.581	-4.862	0.178	0.125
-494.566	134.527	0.154	0.202
-493.551	-200.000	0.020	-0.121
-492.537	62.498	-0.040	-0.041
-491.522	-139.443	-0.364	-0.040
-490.508	-11.820	-0.023	0.015
-489.493	54.162	-0.229	0.223
-488.478	-97.437	-0.334	-0.088
-487.464	-200.000	-0.021	-0.203
-486.449	-200.000	-0.036	-0.239
-485.435	-93.691	-0.309	-0.087
-484.420	415.297	0.083	-0.179
-483.405	-16.599	0.111	0.071
-482.391	381.398	0.096	-0.200
-481.376	-200.000	0.005	0.210
-480.362	180.152	0.146	-0.217
-479.347	-2.101	0.348	0.248
-478.332	-33.626	-0.132	0.074
-477.318	-200.000	0.130	-0.000
-476.303	-18.725	0.439	0.278
-475.289	85.297	0.122	0.135
-474.274	386.822	-0.192	0.401
-473.259	-153.379	-0.359	-0.025
-472.245	162.594	-0.039	0.055
-471.230	-145.536	0.162	-0.015
-470.216	-41.292	-0.243	0.127
-469.201	-9.062	0.076	-0.052
-468.186	-116.760	0.232	0.043
-467.172	205.854	-0.057	-0.089
-466.157	-122.967	0.052	-0.008
-465.143	230.704	-0.157	0.261
-464.128	-68.040	0.259	-0.103
-463.113	-179.785	0.317	-0.007
-462.099	-175.775	-0.228	-0.006
-461.084	-41.477	-0.113	0.059
-460.070	22.257	0.122	-0.101
-459.055	114.698	0.126	0.155
-458.040	-161.955	0.414	0.021
-457.026	-200.000	-0.027	-0.141
-456.011	124.666	-0.259	0.331
-454.997	-200.000	-0.023	-0.283
-453.982	37.132	-0.228	-0.205
-452.968	459.477	-0.106	0.239
-451.953	800.000	0.013	0.041
-450.938	800.000	-0.031	0.102
-449.924	-120.639	-0.258	-0.044
-448.909	800.000	0.092	0.294
-447.895	184.542	-0.243	0.364
-446.880	-200.000	-0.020	0.157
-445.865	29.007	-0.142	-0.122
-444.851	-12.586	-0.162	0.107
-443.836	145.504	-0.224	-0.304
-442.822	-58.856	-0.247	-0.108
-441.807	-200.000	0.011	0.162
-440.792	-200.000	0.022	0.318
-439.778	-121.188	-0.162	0.027
-438.763	700.578	-0.068	-0.180
-437.749	461.891	0.058	0.132
-436.734	-158.960	-0.220	0.013
-435.719	222.828	0.067	-0.110
-434.705	-108.476	0.062	-0.013
-433.690	59.157	0.101	-0.101
-432.676	-113.345	-0.125	-0.025
-431.661	-117.429	0.213	0.039
-430.646	130.070	-0.109	0.142
-429.632	-73.425	-0.078	-0.029
-428.617	-52.754	0.044	-0.021
-427.603	800.000	0.024	-0.082
-426.588	114.689	-0.072	-0.089
-425.573	-130.126	0.029	-0.004
-424.559	133.395	-0.078	0.102
-423.544	800.000	-0.062	-0.225
-422.530	390.573	-0.118	0.249
-421.515	-171.794	0.287	0.010
-420.500	-58.417	0.063	-0.028
-419.486	97.720	0.199	-0.232
-418.471	348.148	-0.047	-0.093
-417.457	42.597	0.091	-0.083
-416.442	31.503	-0.309	0.269
-415.428	495.671	0.083	0.193
-414.413	-142.662	0.162	0.016
-413.398	-56.677	-0.334	0.150
-412.384	-200.000	-0.065	-0.382
-411.369	21.301	-0.245	-0.201
-410.355	-65.315	-0.039	-0.016
-409.340	120.214	-0.263	-0.330
-408.325	543.158	0.045	-0.108
-407.311	-200.000	0.000	-0.032
-406.296	-88.911	0.296	0.089
-405.282	-42.476	0.111	-0.057
-404.267	-200.000	-0.034	-0.280
-403.252	265.827	-0.099	0.174
-402.238	-71.722	-0.106	-0.040
-401.223	-200.000	-0.042	-0.408
-400.209	-200.000	-0.012	-0.231
-399.194	0.346	0.116	-0.084
-398.179	181.910	-0.132	0.197
-397.165	5.203	0.245	-0.183
-396.150	-200.000	-0.031	0.207
-395.136	742.843	0.036	-0.099
-394.121	37.696	-0.124	-0.112
-393.106	-1.892	0.117	-0.083
-392.092	-200.000	0.011	-0.167
-391.077	800.000	-0.064	0.195
-390.063	294.224	-0.111	0.204
-389.048	-200.000	0.003	-0.125
-388.033	-52.910	0.109	-0.051
-387.019	7.757	0.125	0.095
-386.004	78.334	-0.084	-0.091
-384.990	592.326	-0.105	0.263
-383.975	125.768	-0.165	-0.210
-382.960	117.293	-0.172	0.214
-381.946	29.228	0.098	-0.084
-380.931	-117.122	0.305	0.056
-379.917	-200.000	-0.018	0.111
-378.902	53.187	0.231	-0.224
-377.888	75.637	0.145	0.155
-376.873	-200.000	-0.010	0.378
-375.858	-12.367	0.034	-0.023
-374.844	60.453	0.120	0.120
-373.829	237.819	-0.371	0.622
-372.815	800.000	0.090	0.330
-371.800	-107.869	-0.260	0.057
-370.785	-200.000	-0.009	0.107
-369.771	-21.033	-0.184	-0.114
-368.756	341.042	-0.083	-0.164
-367.742	237.374	0.170	-0.285
-366.727	408.169	-0.039	0.084
-365.712	-129.076	0.281	0.040
-364.698	193.812	-0.142	0.216
-363.683	-78.095	-0.097	0.034
-362.669	-200.000	-0.002	-0.269
-361.654	-143.697	0.086	-0.008
-360.639	293.750	0.087	-0.160
-359.625	74.011	0.197	0.208
-358.610	-35.018	-0.136	-0.075
-357.596	-34.580	0.239	0.132
-356.581	259.940	-0.092	0.160
-355.566	-38.747	0.362	-0.193
-354.552	800.000	0.048	0.144
-353.537	44.382	-0.084	0.078
-352.523	537.937	-0.051	-0.122
-351.508	-91.066	0.250	-0.072
-350.493	209.340	-0.151	-0.239
-349.479	-200.000	-0.028	0.170
-348.464	75.656	-0.089	-0.095
-347.450	581.718	0.133	-0.329
-346.435	-105.947	0.249	0.057
-345.420	-200.000	-0.058	0.261
-344.406	256.032	-0.061	0.106
-343.391	-45.675	0.235	0.117
-342.377	-172.873	0.308	0.010
-341.362	9.985	-0.141	-0.108
-340.348	-43.301	-0.168	-0.086
-339.333	591.827	0.107	-0.267
-338.318	-9.352	0.032	0.021
-337.304	-200.000	0.032	0.246
-336.289	800.000	0.052	0.211
-335.275	10.410	0.108	-0.083
-334.260	317.018	-0.116	-0.221
-333.245	82.547	0.196	0.214
-332.231	-95.165	0.198	0.054
-331.216	-200.000	0.040	0.362
-330.202	88.897	0.134	-0.151
-329.187	-124.635	0.401	-0.063
-328.172	355.991	0.244	0.490
-327.158	-200.000	-0.008	0.095
-326.143	28.662	0.204	-0.174
-325.129	-17.298	-0.180	0.114
-324.114	543.619	-0.133	-0.321
-323.099	-38.025	-0.291	-0.156
-322.085	-200.000	0.082	0.383
-321.070	-200.000	-0.011	-0.223
-320.056	-31.284	0.187	0.106
-319.041	-200.000	0.024	0.111
-318.026	-200.000	-0.017	-0.229
-317.012	-12.652	0.253	-0.166
-315.997	59.729	0.191	0.190
-314.983	-69.969	-0.173	0.067
-313.968	-14.968	-0.153	-0.099
-312.953	351.364	0.120	-0.239
-311.939	-117.074	0.330	-0.061
-310.924	-102.957	-0.081	-0.019
-309.910	433.579	-0.081	0.178
-308.895	160.390	-0.154	0.217
-307.880	-82.395	0.124	-0.041
-306.866	-163.473	0.276	0.013
-305.851	-200.000	0.027	-0.288
-304.837	-23.764	-0.171	-0.103
-303.822	-39.153	0.257	-0.136
-302.807	-200.000	-0.006	0.267
-301.793	800.000	-0.056	0.165
-300.778	138.048	-0.235	0.310
-299.764	-153.730	0.202	0.014
-298.749	800.000	0.044	-0.136
-297.735	-89.325	-0.051	-0.015
-296.720	114.935	0.202	-0.248
-295.705	219.840	-0.182	-0.293
-294.691	170.787	0.275	-0.397
-293.676	-200.000	0.005	-0.363
-292.662	-136.307	-0.463	-0.054
-291.647	570.984	-0.054	0.132
-290.632	70.986	-0.069	-0.072
-289.618	635.671	0.039	0.100
-288.603	702.600	0.088	0.234
-287.589	-13.578	-0.288	0.188
-286.574	377.615	-0.107	0.221
-285.559	178.010	0.181	0.266
-284.545	51.512	-0.116	-0.111
-283.530	107.809	0.298	-0.357
-282.516	92.964	-0.092	-0.104
-281.501	-200.000	-0.025	0.332
-280.486	212.322	0.205	0.325
-279.472	-200.000	-0.006	-0.041
-278.457	120.241	-0.254	0.318
-277.443	-200.000	-0.009	0.074
-276.428	-62.716	-0.310	-0.129
-275.413	437.398	-0.218	-0.479
-274.399	-95.269	-0.201	-0.054
-273.384	800.000	0.021	0.075
-272.370	-113.743	-0.279	-0.055
-271.355	74.963	-0.319	-0.338
-270.340	38.281	0.074	-0.066
-269.326	-200.000	-0.001	-0.072
-268.311	800.000	-0.075	-0.260
-267.297	800.000	0.092	-0.275
-266.282	-200.000	-0.031	-0.334
-265.267	-200.000	0.014	0.273
-264.253	-200.000	0.043	0.312
-263.238	-155.652	0.108	0.007
-262.224	-200.000	0.007	-0.035
-261.209	476.665	0.149	0.339
-260.195	-200.000	-0.016	0.236
-259.180	44.333	-0.081	-0.075
-258.165	28.710	-0.149	-0.127
-257.151	-53.333	-0.250	-0.115
-256.136	-200.000	0.085	-0.377
-255.122	81.168	-0.012	0.014
-254.107	81.776	0.090	0.098
-253.092	94.964	0.258	0.295
-252.078	-118.248	-0.154	0.028
-251.063	180.037	0.146	0.216
-250.049	-124.339	-0.280	-0.044
-249.034	800.000	0.067	-0.258
-248.019	49.438	-0.120	-0.114
-247.005	252.236	-0.113	-0.193
-245.990	-173.670	0.090	0.003
-244.976	-111.443	0.100	-0.020
-243.961	37.529	-0.182	0.163
-242.946	-50.958	-0.268	-0.127
-241.932	-200.000	0.022	-0.144
-240.917	800.000	-0.034	0.103
-239.903	-89.764	0.111	-0.033
-238.888	297.657	0.102	-0.189
-237.873	373.154	0.034	-0.070
-236.859	800.000	0.023	-0.069
-235.844	126.172	-0.185	0.235
-234.830	142.130	0.166	-0.222
-233.815	132.068	-0.153	-0.198
-232.800	-200.000	-0.039	0.234
-231.786	-140.580	-0.275	0.029
-230.771	445.155	0.130	0.287
-229.757	12.061	0.220	0.170
-228.742	-80.555	-0.240	0.080
-227.727	-200.000	0.039	-0.221
-226.713	-150.570	0.083	-0.006
-225.698	52.075	0.288	-0.276
-224.684	-70.790	0.045	0.017
-223.669	9.171	0.299	0.227
-222.655	62.247	-0.280	0.280
-221.640	-67.323	0.202	-0.080
-220.625	238.432	-0.059	0.098
-219.611	-200.000	0.019	-0.169
-218.596	-200.000	-0.004	-0.072
-217.582	-175.096	-0.126	-0.004
-216.567	-12.506	-0.121	0.079
-215.552	-164.577	0.414	0.019
-214.538	50.106	0.134	-0.127
-213.523	-165.739	0.044	-0.002
-212.509	-116.882	0.133	0.024
-211.494	250.732	0.194	-0.332
-210.479	20.892	-0.129	-0.105
-209.465	800.000	0.031	-0.115
-208.450	174.238	0.103	-0.149
-207.436	26.948	0.174	0.147
-206.421	800.000	0.028	0.086
-205.406	800.000	0.069	0.252
-204.392	147.853	0.174	-0.235
-203.377	800.000	0.026	-0.078
-202.363	59.493	-0.127	-0.125
-201.348	390.499	0.096	-0.200
-200.333	-169.237	-0.155	-0.006
-199.319	-103.124	0.250	0.059
-198.304	-33.388	-0.196	0.109
-197.290	-200.000	0.035	0.528
-196.275	-200.000	-0.054	0.352
-195.260	-79.200	0.214	0.073
-194.246	-97.524	-0.209	0.055
-193.231	800.000	0.135	-0.394
-192.217	-60.972	-0.181	0.077
-191.202	-96.371	0.360	-0.096
-190.187	742.588	0.047	0.127
-189.173	344.502	0.069	-0.136
-188.158	76.291	0.207	-0.220
-187.144	-156.184	-0.246	-0.016
-186.129	-161.762	0.110	-0.006
-185.114	628.360	-0.064	-0.161
-184.100	206.510	-0.134	0.209
-183.085	-200.000	-0.016	-0.163
-182.071	22.393	-0.287	0.235
-181.056	328.149	0.192	0.370
-180.042	-48.058	-0.132	-0.064
-179.027	518.459	0.101	0.238
-178.012	-200.000	0.033	0.314
-176.998	603.773	0.084	-0.209
-175.983	-61.719	-0.090	0.038
-174.969	11.294	0.080	0.062
-173.954	-137.325	0.222	0.025
-172.939	-26.657	0.151	-0.089
-171.925	-29.977	0.105	-0.060
-170.910	243.750	-0.106	-0.179
-169.896	556.707	-0.038	-0.091
-168.881	-38.284	-0.330	-0.175
-167.866	-200.000	-0.053	0.271
-166.852	176.669	-0.223	-0.325
-165.837	-121.638	-0.105	0.018
-164.823	-41.962	-0.373	-0.191
-163.808	343.966	0.012	0.023
-162.793	-200.000	0.022	0.214
-161.779	415.612	0.143	-0.304
-160.764	0.642	-0.210	-0.151
-159.750	-25.078	-0.175	0.104
-158.735	-200.000	-0.058	-0.326
-157.720	-107.578	-0.162	-0.036
-156.706	11.776	0.112	0.086
-155.691	-105.096	-0.242	-0.056
-154.677	-200.000	-0.097	0.574
-153.662	800.000	0.023	-0.069
-152.647	-48.281	-0.197	0.095
-151.633	-58.157	0.125	-0.055
-150.618	114.795	0.127	-0.155
-149.604	800.000	0.102	0.415
-148.589	-200.000	0.052	-0.265
-147.574	240.830	0.229	0.383
-146.560	-107.797	-0.179	-0.039
-145.545	-70.210	0.199	-0.076
-144.531	-70.009	-0.196	0.075
-143.516	800.000	0.056	0.163
-142.502	132.212	-0.114	0.147
-141.487	-163.435	0.169	0.008
-140.472	93.764	-0.217	-0.247
-139.458	166.965	0.256	0.363
-138.443	79.362	0.139	0.149
-137.429	81.481	0.047	0.051
-136.414	208.404	0.007	0.011
-135.399	800.000	0.057	0.227
-134.385	-64.694	0.065	0.026
-133.370	74.138	0.075	-0.079
-132.356	81.657	0.154	-0.167
-131.341	-103.920	-0.023	0.005
-130.326	-200.000	0.086	-0.453
-129.312	-10.205	0.111	0.074
-128.297	-32.099	0.270	0.151
-127.283	-4.285	0.216	0.150
-126.268	174.264	-0.116	0.168
-125.253	6.294	-0.170	-0.127
-124.239	-61.835	-0.380	0.159
-123.224	-200.000	0.020	0.147
-122.210	325.541	0.025	0.047
