DTS Sentinel unit serial number:	SN413079Multiplexer serial number:	ORYXHardware model number:	OX4-SRSoftware version number:	ORYX F/W v4.00 Oryx Data Collector v3.7.2.0data status	okinstallation	princeton_trtdifferential loss correction	single-endedforward channel	channel 3reverse channel	N/Adate	2019/09/12time	02:42:11forward acquisition time	60.00reverse acquisition time	0.00gamma	496.2192k internal	0.2322k external	0.2322temperature offset calibration	1.0070default loss term (dB/km)	0.3790temperature slope calibration	1.0000multiplexer offset coefficient	1.0000multiplexer slope coefficient	1.0000fibre end	0.00T internal ref (°C)	32.41T ext. ref 1 (°C)	2.11T ext. ref 2 (°C)	27.23length (m)	temperature (°C)	Stokes	anti-Stokes-747.200	-7.598	-0.216	0.147
-746.185	800.000	0.110	0.322
-745.171	-124.762	-0.054	-0.008
-744.156	588.906	0.042	0.106
-743.142	216.212	0.086	-0.138
-742.127	2.067	0.025	-0.018
-741.112	-105.470	0.273	-0.063
-740.098	-138.794	-0.222	0.024
-739.083	-108.381	-0.121	0.026
-738.069	800.000	0.026	0.108
-737.054	139.061	-0.294	0.390
-736.039	-90.754	-0.272	0.079
-735.025	349.355	0.156	-0.311
-734.010	-200.000	-0.020	-0.201
-732.996	800.000	-0.059	-0.211
-731.981	800.000	-0.078	0.256
-730.966	2.964	0.110	0.080
-729.952	-42.177	0.033	-0.017
-728.937	654.691	-0.080	0.208
-727.923	643.043	0.081	-0.209
-726.908	-107.636	-0.187	0.041
-725.894	-200.000	-0.024	-0.246
-724.879	-30.280	-0.261	-0.150
-723.864	-200.000	0.051	0.242
-722.850	-125.626	0.336	0.052
-721.835	-8.466	-0.305	0.207
-720.821	-117.113	-0.280	-0.051
-719.806	-125.508	-0.112	0.017
-718.791	12.230	-0.128	-0.099
-717.777	-28.626	-0.111	-0.065
-716.762	-22.738	0.335	0.205
-715.748	110.622	-0.130	-0.158
-714.733	-200.000	-0.071	0.354
-713.718	37.523	-0.245	-0.219
-712.704	36.503	-0.186	-0.166
-711.689	-7.547	-0.437	-0.299
-710.675	-62.783	-0.069	0.029
-709.660	-167.168	-0.204	-0.008
-708.645	-19.130	0.141	-0.088
-707.631	800.000	-0.160	0.485
-706.616	-200.000	-0.011	0.221
-705.602	-59.142	-0.394	-0.171
-704.587	39.395	-0.056	-0.050
-703.572	-34.479	-0.200	0.111
-702.558	-132.507	-0.289	0.038
-701.543	800.000	0.083	0.231
-700.529	68.858	-0.094	-0.098
-699.514	67.529	0.207	-0.214
-698.499	126.953	0.253	0.323
-697.485	250.993	0.108	0.184
-696.470	203.022	0.043	-0.066
-695.456	151.171	-0.092	0.127
-694.441	711.979	0.133	0.355
-693.426	-153.705	-0.075	-0.005
-692.412	721.191	0.048	-0.128
-691.397	-69.592	-0.303	0.117
-690.383	186.012	0.139	0.209
-689.368	60.769	-0.271	-0.271
-688.354	-200.000	-0.019	-0.098
-687.339	21.488	0.203	-0.166
-686.324	-200.000	0.021	-0.163
-685.310	42.280	0.155	0.142
-684.295	-77.041	0.236	-0.083
-683.281	-200.000	-0.015	0.234
-682.266	-200.000	-0.037	0.168
-681.251	30.952	-0.170	0.147
-680.237	24.228	-0.073	0.061
-679.222	-16.510	0.089	0.057
-678.208	29.528	-0.101	0.087
-677.193	176.888	-0.173	-0.253
-676.178	311.249	-0.106	0.201
-675.164	-5.306	-0.257	-0.178
-674.149	67.798	0.253	-0.260
-673.135	-103.282	-0.268	-0.064
-672.120	-200.000	0.041	0.230
-671.105	-178.099	-0.210	0.005
-670.091	-85.255	0.240	0.076
-669.076	-200.000	-0.083	-0.455
-668.062	104.769	0.128	0.152
-667.047	104.764	0.266	-0.316
-666.032	800.000	-0.101	0.284
-665.018	518.670	0.178	0.419
-664.003	-81.227	-0.133	0.044
-662.989	-70.010	-0.247	0.095
-661.974	345.435	0.022	0.043
-660.959	-68.493	-0.016	0.006
-659.945	-168.278	-0.205	-0.008
-658.930	-160.724	-0.113	0.006
-657.916	-200.000	0.058	-0.391
-656.901	-109.336	0.067	0.014
-655.886	-2.165	-0.195	0.138
-654.872	38.036	-0.011	-0.010
-653.857	114.777	0.117	0.143
-652.843	-54.832	0.343	0.156
-651.828	-200.000	-0.004	0.034
-650.814	800.000	-0.043	0.131
-649.799	379.146	0.050	0.104
-648.784	230.772	-0.187	-0.308
-647.770	5.102	-0.258	-0.191
-646.755	100.447	0.215	0.251
-645.741	31.989	-0.294	-0.255
-644.726	161.891	0.049	0.069
-643.711	188.866	-0.177	0.267
-642.697	177.805	0.062	-0.091
-641.682	-200.000	-0.196	-0.000
-640.668	-13.235	0.137	0.090
-639.653	800.000	-0.091	-0.323
-638.638	139.843	0.145	-0.192
-637.624	-125.661	-0.148	0.023
-636.609	3.746	0.084	0.062
-635.595	-200.000	-0.008	-0.154
-634.580	759.419	0.061	0.167
-633.565	800.000	0.056	-0.156
-632.551	-200.000	-0.038	-0.334
-631.536	219.930	0.152	0.245
-630.522	-154.281	0.376	0.025
-629.507	-150.499	0.165	-0.013
-628.492	800.000	0.031	-0.092
-627.478	-23.908	-0.303	0.182
-626.463	-28.394	-0.208	0.121
-625.449	-111.040	-0.210	-0.043
-624.434	-92.027	0.029	-0.008
-623.419	15.355	-0.191	0.151
-622.405	-200.000	0.012	0.280
-621.390	-200.000	0.016	-0.146
-620.376	-73.305	0.077	-0.028
-619.361	12.280	-0.143	0.111
-618.346	43.283	-0.036	0.033
-617.332	-80.516	-0.192	-0.064
-616.317	-200.000	0.049	-0.384
-615.303	-200.000	0.007	0.101
-614.288	-181.207	0.251	0.005
-613.273	-84.740	-0.398	-0.126
-612.259	-59.030	0.169	-0.073
-611.244	-85.698	0.086	-0.027
-610.230	-174.658	0.346	0.010
-609.215	49.988	0.188	-0.179
-608.201	800.000	0.064	-0.191
-607.186	188.645	0.170	-0.256
-606.171	-66.086	-0.122	-0.049
-605.157	368.387	-0.209	-0.425
-604.142	6.049	0.033	0.025
-603.128	225.975	0.121	0.197
-602.113	-90.659	0.108	-0.031
-601.098	-200.000	0.033	-0.297
-600.084	-1.126	-0.076	0.054
-599.069	19.223	0.152	-0.123
-598.055	-22.263	0.264	-0.161
-597.040	-200.000	-0.000	-0.173
-596.025	800.000	0.020	-0.073
-595.011	-89.655	-0.053	-0.016
-593.996	-200.000	0.006	-0.127
-592.982	-19.467	0.091	-0.057
-591.967	-108.115	-0.275	-0.060
-590.952	-200.000	-0.015	0.067
-589.938	80.676	-0.165	0.179
-588.923	157.905	0.124	0.173
-587.909	-102.692	-0.337	-0.081
-586.894	-200.000	-0.045	-0.262
-585.879	186.478	-0.130	-0.194
-584.865	-104.264	-0.362	0.084
-583.850	-17.355	0.260	0.164
-582.836	-7.360	0.199	0.135
-581.821	582.748	-0.106	0.262
-580.806	-18.978	0.210	-0.131
-579.792	800.000	0.100	0.362
-578.777	309.023	0.030	0.056
-577.763	482.108	0.096	0.219
-576.748	-200.000	0.015	-0.179
-575.733	-200.000	0.030	-0.218
-574.719	208.838	0.065	0.102
-573.704	-78.734	-0.208	-0.071
-572.690	751.359	0.045	0.122
-571.675	800.000	0.018	-0.061
-570.661	-73.100	0.132	-0.049
-569.646	-91.117	-0.436	0.125
-568.631	-68.520	0.160	-0.062
-567.617	-92.731	-0.142	0.040
-566.602	-200.000	0.019	0.115
-565.588	-146.042	-0.315	-0.028
-564.573	-159.374	-0.324	-0.018
-563.558	-11.896	0.255	-0.168
-562.544	733.992	0.011	0.030
-561.529	112.737	-0.207	0.252
-560.515	-92.147	0.395	-0.112
-559.500	-21.438	0.140	-0.086
-558.485	-75.034	0.112	0.040
-557.471	103.307	0.145	-0.170
-556.456	800.000	-0.063	-0.207
-555.442	-82.856	0.206	0.067
-554.427	-200.000	-0.025	0.110
-553.412	-166.938	0.059	-0.002
-552.398	-23.262	0.224	0.135
-551.383	-139.700	-0.216	-0.023
-550.369	88.573	0.297	-0.331
-549.354	589.960	-0.097	-0.239
-548.339	12.274	-0.119	0.092
-547.325	-79.666	0.508	0.172
-546.310	33.140	-0.057	0.050
-545.296	174.706	-0.075	0.109
-544.281	141.683	-0.131	0.174
-543.266	-200.000	-0.022	-0.160
-542.252	800.000	0.054	-0.191
-541.237	-51.538	0.072	0.033
-540.223	800.000	0.056	0.233
-539.208	-102.727	-0.297	0.071
-538.193	800.000	-0.126	0.395
-537.179	54.386	0.227	-0.219
-536.164	110.691	0.186	-0.224
-535.150	-15.201	0.170	-0.109
-534.135	298.506	-0.207	-0.382
-533.121	800.000	0.057	0.236
-532.106	800.000	-0.051	-0.213
-531.091	2.359	-0.215	0.156
-530.077	-200.000	0.008	-0.184
-529.062	-54.824	0.256	-0.116
-528.048	-162.961	0.188	-0.009
-527.033	-20.145	0.283	0.175
-526.018	-200.000	0.013	0.117
-525.004	-106.158	0.241	0.054
-523.989	-29.988	0.203	0.116
-522.975	198.987	0.143	-0.220
-521.960	215.852	0.222	-0.353
-520.945	-200.000	0.004	-0.232
-519.931	727.675	0.025	0.066
-518.916	18.972	0.109	-0.088
-517.902	-200.000	-0.020	0.277
-516.887	-200.000	0.008	-0.112
-515.872	-80.579	0.359	-0.120
-514.858	199.331	-0.198	0.304
-513.843	10.753	0.181	-0.138
-512.829	132.993	0.162	0.210
-511.814	-133.403	-0.131	0.017
-510.799	-25.261	-0.085	-0.051
-509.785	250.138	0.078	-0.132
-508.770	-143.866	-0.106	0.010
-507.756	130.149	0.080	0.102
-506.741	121.768	0.066	0.082
-505.726	-38.656	0.242	0.128
-504.712	447.033	0.025	-0.055
-503.697	-145.176	0.255	0.023
-502.683	-59.666	-0.059	0.025
-501.668	800.000	0.047	0.175
-500.653	-71.527	-0.043	0.016
-499.639	649.599	0.063	-0.162
-498.624	189.667	-0.164	-0.245
-497.610	120.731	-0.281	-0.349
-496.595	75.721	-0.136	-0.143
-495.581	-72.313	0.191	-0.071
-494.566	800.000	-0.051	-0.205
-493.551	800.000	-0.044	0.172
-492.537	697.160	0.038	-0.100
-491.522	488.490	0.073	-0.168
-490.508	100.889	-0.247	-0.288
-489.493	57.486	-0.062	0.061
-488.478	-40.569	-0.158	0.082
-487.464	-14.129	0.229	-0.148
-486.449	-101.574	-0.175	-0.043
-485.435	433.095	-0.122	0.265
-484.420	-136.803	0.119	0.014
-483.405	-200.000	0.038	-0.314
-482.391	63.491	0.165	-0.166
-481.376	114.462	-0.199	-0.242
-480.362	615.357	0.057	-0.144
-479.347	135.849	0.220	0.286
-478.332	-154.110	0.165	-0.011
-477.318	426.213	-0.087	0.187
-476.303	-14.769	0.242	-0.156
-475.289	-200.000	-0.013	-0.077
-474.274	48.889	-0.323	0.303
-473.259	87.901	-0.085	-0.094
-472.245	104.944	0.255	0.301
-471.230	-200.000	0.044	0.214
-470.216	800.000	0.040	-0.173
-469.201	-100.160	-0.237	-0.059
-468.186	-102.759	0.185	0.044
-467.172	800.000	-0.020	-0.084
-466.157	97.158	-0.184	-0.211
-465.143	-149.294	-0.386	0.031
-464.128	-138.565	0.196	0.021
-463.113	-37.681	-0.363	-0.193
-462.099	-85.568	0.199	-0.062
-461.084	-142.026	-0.146	-0.014
-460.070	-200.000	0.052	0.334
-459.055	-153.571	-0.007	0.000
-458.040	265.269	-0.106	0.185
-457.026	36.874	0.265	-0.234
-456.011	-0.058	-0.045	0.032
-454.997	53.422	-0.036	-0.034
-453.982	-140.778	-0.130	-0.013
-452.968	548.743	0.050	-0.119
-451.953	324.321	-0.107	-0.203
-450.938	113.385	0.051	-0.061
-449.924	415.474	0.049	-0.105
-448.909	-147.402	-0.202	0.017
-447.895	11.864	-0.076	-0.058
-446.880	46.353	0.086	0.080
-445.865	366.070	0.079	0.159
-444.851	-67.508	-0.168	-0.066
-443.836	64.945	-0.235	-0.237
-442.822	620.331	0.117	0.294
-441.807	-139.579	-0.179	-0.019
-440.792	-200.000	-0.044	-0.525
-439.778	644.941	-0.080	-0.205
-438.763	800.000	-0.061	0.206
-437.749	198.931	-0.147	0.225
-436.734	-35.973	0.361	-0.195
-435.719	-43.315	0.151	0.076
-434.705	-200.000	0.027	-0.264
-433.690	-142.605	-0.195	0.019
-432.676	-115.627	0.089	0.017
-431.661	485.640	-0.192	0.438
-430.646	-153.348	-0.215	-0.015
-429.632	-148.683	0.170	-0.014
-428.617	-200.000	-0.005	0.206
-427.603	448.467	0.260	-0.572
-426.588	640.568	-0.008	-0.020
-425.573	-100.636	0.126	0.031
-424.559	-76.093	0.276	-0.097
-423.544	-47.520	0.282	-0.137
-422.530	800.000	0.027	-0.103
-421.515	33.916	0.259	-0.225
-420.500	-116.886	0.104	-0.019
-419.486	-23.940	0.070	-0.042
-418.471	107.894	0.158	-0.187
-417.457	-200.000	0.006	-0.078
-416.442	-50.476	0.241	-0.113
-415.428	-92.450	0.227	-0.064
-414.413	-153.153	0.198	0.014
-413.398	-23.094	-0.152	0.091
-412.384	800.000	-0.082	0.288
-411.369	-47.653	0.165	-0.080
-410.355	81.746	-0.058	-0.062
-409.340	198.427	-0.141	-0.215
-408.325	-55.728	-0.232	0.104
-407.311	90.262	-0.052	-0.058
-406.296	36.381	-0.240	-0.211
-405.282	800.000	-0.079	-0.308
-404.267	59.718	0.144	-0.141
-403.252	127.074	-0.049	-0.062
-402.238	-51.268	-0.300	-0.140
-401.223	206.951	0.218	-0.338
-400.209	800.000	-0.050	-0.158
-399.194	-20.901	-0.160	-0.098
-398.179	15.095	0.133	0.104
-397.165	66.305	-0.135	-0.137
-396.150	-13.726	0.113	-0.073
-395.136	675.090	-0.049	-0.128
-394.121	-53.931	0.176	-0.080
-393.106	231.822	-0.110	-0.180
-392.092	-95.738	-0.197	-0.052
-391.077	404.833	-0.210	0.440
-390.063	-121.036	-0.016	-0.003
-389.048	-199.158	0.147	-0.001
-388.033	294.842	-0.133	0.243
-387.019	73.620	-0.236	0.247
-386.004	66.259	-0.167	0.169
-384.990	-69.181	-0.226	-0.086
-383.975	11.169	-0.048	0.036
-382.960	0.213	-0.220	-0.156
-381.946	-22.502	-0.093	0.056
-380.931	-200.000	0.024	-0.179
-379.917	-184.502	-0.309	-0.005
-378.902	-200.000	-0.011	0.354
-377.888	-173.391	0.119	0.004
-376.873	149.146	-0.246	0.331
-375.858	-77.507	0.133	0.046
-374.844	800.000	-0.033	0.092
-373.829	56.984	0.165	-0.160
-372.815	25.385	-0.024	-0.020
-371.800	-4.656	0.230	-0.158
-370.785	-200.000	0.011	0.257
-369.771	541.212	-0.087	0.208
-368.756	-161.386	-0.171	-0.009
-367.742	-104.535	0.069	0.016
-366.727	-200.000	-0.030	0.150
-365.712	164.007	-0.219	0.307
-364.698	302.993	-0.207	-0.382
-363.683	-200.000	0.010	-0.058
-362.669	800.000	0.030	0.086
-361.654	38.891	-0.196	0.175
-360.639	85.160	-0.168	-0.184
-359.625	-50.388	0.069	0.032
-358.610	-140.553	-0.107	0.011
-357.596	362.857	0.144	0.287
-356.581	196.527	-0.243	-0.368
-355.566	-52.039	0.086	-0.040
-354.552	7.074	-0.159	0.118
-353.537	-200.000	0.025	-0.388
-352.523	779.395	0.133	0.362
-351.508	-5.157	-0.245	0.167
-350.493	285.643	0.128	-0.230
-349.479	-200.000	-0.023	-0.149
-348.464	-89.174	-0.176	0.052
-347.450	246.302	0.103	0.173
-346.435	-62.824	-0.261	0.108
-345.420	78.122	-0.305	0.324
-344.406	-36.241	0.104	-0.056
-343.391	-50.751	0.081	-0.038
-342.377	-174.051	-0.118	-0.003
-341.362	678.584	0.075	0.194
-340.348	101.885	0.191	0.221
-339.333	-116.283	-0.278	-0.051
-338.318	-33.864	-0.291	0.159
-337.304	800.000	0.078	0.321
-336.289	-200.000	-0.019	-0.185
-335.275	-95.513	0.117	0.031
-334.260	-200.000	-0.005	0.064
-333.245	143.555	0.132	-0.175
-332.231	-200.000	-0.047	-0.214
-331.216	-149.317	-0.193	0.015
-330.202	-44.964	-0.202	-0.100
-329.187	65.612	-0.161	0.162
-328.172	-85.085	-0.217	0.068
-327.158	109.431	0.229	0.273
-326.143	249.233	0.070	-0.118
-325.129	-146.344	0.192	-0.017
-324.114	364.088	-0.054	-0.107
-323.099	-200.000	0.015	0.277
-322.085	410.990	-0.127	0.268
-321.070	89.605	0.274	0.303
-320.056	-2.004	-0.230	-0.161
-319.041	-107.369	0.352	-0.077
-318.026	22.358	0.081	-0.066
-317.012	25.980	-0.121	-0.101
-315.997	6.259	0.223	-0.164
-314.983	-23.729	0.106	0.063
-313.968	781.282	0.103	-0.280
-312.953	-103.741	-0.325	-0.076
-311.939	314.860	0.132	-0.248
-310.924	-71.075	-0.350	0.131
-309.910	-31.561	-0.128	0.072
-308.895	800.000	-0.019	0.064
-307.880	-30.693	-0.409	-0.230
-306.866	-69.652	-0.325	-0.123
-305.851	130.129	-0.087	0.111
-304.837	-137.541	-0.302	0.034
-303.822	800.000	-0.011	-0.031
-302.807	28.921	-0.107	-0.090
-301.793	52.595	0.077	0.073
-300.778	6.040	-0.246	0.181
-299.764	37.171	-0.140	0.123
-298.749	-125.696	0.050	-0.008
-297.735	-104.874	0.057	-0.013
-296.720	-65.716	-0.137	-0.055
-295.705	-200.000	0.074	0.447
-294.691	-60.938	-0.100	-0.042
-293.676	245.323	-0.062	-0.103
-292.662	-83.532	0.354	-0.113
-291.647	50.566	0.143	0.134
-290.632	-200.000	0.022	0.115
-289.618	-111.031	-0.030	0.006
-288.603	-124.782	0.121	-0.019
-287.589	-200.000	-0.015	-0.099
-286.574	16.205	0.283	-0.222
-285.559	-140.854	0.229	0.023
-284.545	33.803	0.045	-0.039
-283.530	93.439	-0.173	-0.194
-282.516	88.905	-0.068	-0.075
-281.501	744.421	0.060	0.161
-280.486	800.000	0.086	-0.326
-279.472	54.784	0.023	0.022
-278.457	-43.461	-0.351	0.176
-277.443	-168.275	-0.168	-0.006
-276.428	800.000	0.158	0.475
-275.413	506.244	0.044	0.100
-274.399	-200.000	0.003	0.070
-273.384	-200.000	-0.088	-0.443
-272.370	-23.421	0.096	0.057
-271.355	-121.882	0.362	-0.059
-270.340	141.023	0.172	-0.226
-269.326	-200.000	0.019	0.182
-268.311	-53.616	0.119	-0.054
-267.297	271.433	-0.090	0.158
-266.282	56.749	0.177	0.171
-265.267	-46.439	0.282	-0.137
-264.253	-25.550	0.064	0.038
-263.238	-200.000	0.001	0.167
-262.224	233.959	0.020	-0.033
-261.209	-85.582	0.214	0.066
-260.195	-15.033	-0.156	-0.099
-259.180	-83.852	-0.084	0.027
-258.165	7.720	-0.346	-0.257
-257.151	-177.154	-0.134	-0.003
-256.136	786.487	0.082	-0.224
-255.122	80.844	0.081	-0.087
-254.107	-83.155	-0.218	0.070
-253.092	-106.572	-0.109	-0.024
-252.078	-16.282	-0.449	0.283
-251.063	-165.048	-0.297	-0.013
-250.049	70.741	0.212	0.217
-249.034	98.876	-0.028	-0.032
-248.019	90.968	-0.156	0.174
-247.005	721.196	0.071	0.188
-245.990	561.364	0.155	0.371
-244.976	2.208	-0.204	0.146
-243.961	-61.811	-0.169	-0.070
-242.946	800.000	-0.034	0.111
-241.932	-134.562	-0.277	0.034
-240.917	-127.119	-0.139	-0.020
-239.903	-200.000	0.003	-0.088
-238.888	800.000	0.029	0.095
-237.873	-109.486	0.252	-0.053
-236.859	748.747	-0.033	0.087
-235.844	83.113	-0.183	0.198
-234.830	-200.000	-0.025	-0.302
-233.815	204.938	-0.100	0.153
-232.800	-39.818	0.281	-0.146
-231.786	-48.706	-0.157	-0.075
-230.771	797.517	-0.072	0.197
-229.757	-72.912	0.194	0.071
-228.742	-89.678	0.345	0.100
-227.727	402.026	0.060	0.126
-226.713	-76.638	-0.152	-0.053
-225.698	800.000	-0.088	-0.335
-224.684	407.437	0.037	-0.076
-223.669	53.868	0.099	-0.094
-222.655	-200.000	-0.086	0.380
-221.640	800.000	0.068	0.213
-220.625	800.000	0.103	0.355
-219.611	-143.255	0.216	0.021
-218.596	268.181	-0.173	0.300
-217.582	-56.108	-0.239	0.105
-216.567	-152.143	0.524	0.038
-215.552	259.672	-0.160	0.273
-214.538	-71.477	-0.130	0.048
-213.523	117.965	0.177	0.216
-212.509	-200.000	-0.034	0.427
-211.494	-107.872	0.110	0.024
-210.479	65.719	0.137	0.137
-209.465	-112.997	0.155	0.030
-208.450	800.000	0.031	-0.114
-207.436	-129.242	0.154	0.021
-206.421	40.877	0.123	-0.110
-205.406	-140.785	-0.323	0.033
-204.392	-107.595	-0.137	0.030
-203.377	489.033	-0.054	-0.121
-202.363	-164.562	0.222	-0.010
-201.348	-74.381	-0.042	-0.015
-200.333	74.258	0.114	-0.119
-199.319	-38.864	0.049	-0.026
-198.304	-47.383	-0.069	0.033
-197.290	-200.000	0.053	0.395
-196.275	-1.853	0.081	0.056
-195.260	800.000	0.050	0.144
-194.246	800.000	0.182	0.519
-193.231	-155.355	-0.266	0.017
-192.217	77.137	-0.038	0.040
-191.202	55.118	-0.119	0.113
-190.187	-172.802	0.218	-0.007
-189.173	233.752	-0.143	-0.232
-188.158	-112.982	-0.389	-0.076
-187.144	-200.000	-0.005	0.090
-186.129	-63.138	0.405	-0.165
-185.114	-33.392	-0.166	-0.091
-184.100	800.000	0.042	0.134
-183.085	-114.521	-0.108	-0.020
-182.071	339.687	0.069	0.133
-181.056	107.249	0.126	0.148
-180.042	362.986	0.062	-0.124
-179.027	399.901	0.174	-0.360
-178.012	-200.000	0.064	0.397
-176.998	-80.602	-0.102	-0.033
-175.983	-178.621	-0.276	-0.006
-174.969	-74.500	0.112	-0.040
-173.954	-129.062	0.281	0.039
-172.939	30.674	-0.042	0.035
-171.925	7.168	-0.353	-0.260
-170.910	-86.672	0.259	-0.078
-169.896	-90.073	0.024	0.007
-168.881	-96.824	0.280	0.073
-167.866	-57.458	-0.308	-0.134
-166.852	-105.476	-0.271	-0.061
-165.837	288.661	-0.041	0.074
-164.823	-57.142	0.319	0.139
-163.808	8.101	-0.193	0.143
-162.793	92.138	0.234	0.261
-161.779	114.975	0.248	0.298
-160.764	316.935	0.037	0.069
-159.750	-50.005	0.312	-0.146
-158.735	126.219	0.221	0.277
-157.720	800.000	0.117	0.358
-156.706	-55.757	0.301	-0.133
-155.691	-200.000	-0.026	0.115
-154.677	-200.000	0.029	-0.163
-153.662	22.251	-0.142	-0.115
-152.647	19.461	0.011	0.008
-151.633	-67.485	0.237	0.092
-150.618	-44.110	-0.076	-0.037
-149.604	-200.000	0.038	-0.200
-148.589	506.883	-0.104	-0.238
-147.574	-23.324	-0.219	0.130
-146.560	86.958	-0.054	-0.059
-145.545	380.299	-0.097	-0.196
-144.531	-155.188	-0.408	0.026
-143.516	-43.914	-0.214	-0.106
-142.502	-49.223	0.114	-0.054
-141.487	800.000	0.045	-0.159
-140.472	-200.000	-0.015	-0.316
-139.458	379.220	0.119	-0.240
-138.443	171.909	0.082	-0.117
-137.429	-85.725	0.217	0.067
-136.414	215.416	-0.276	0.432
-135.399	15.979	0.225	-0.175
-134.385	15.958	0.203	0.158
-133.370	73.947	0.070	0.072
-132.356	800.000	-0.084	0.276
-131.341	-63.271	0.092	-0.038
-130.326	185.641	0.108	0.158
-129.312	531.599	-0.121	0.283
-128.297	-115.969	-0.185	-0.034
-127.283	-23.669	-0.231	0.137
-126.268	1.574	0.129	-0.091
-125.253	-101.281	-0.028	0.007
-124.239	-158.606	0.330	0.019
-123.224	620.447	0.081	0.201
-122.210	190.176	0.046	0.069
-121.195	-200.000	0.008	0.066
-120.180	683.743	-0.064	0.164
