DTS Sentinel unit serial number:	SN413079Multiplexer serial number:	ORYXHardware model number:	OX4-SRSoftware version number:	ORYX F/W v4.00 Oryx Data Collector v3.7.2.0data status	okinstallation	princeton_trtdifferential loss correction	single-endedforward channel	channel 3reverse channel	N/Adate	2019/09/11time	03:02:11forward acquisition time	60.00reverse acquisition time	0.00gamma	496.2192k internal	0.2332k external	0.2332temperature offset calibration	0.9914default loss term (dB/km)	0.3790temperature slope calibration	1.0000multiplexer offset coefficient	1.0000multiplexer slope coefficient	1.0000fibre end	0.00T internal ref (°C)	29.31T ext. ref 1 (°C)	-0.31T ext. ref 2 (°C)	23.74length (m)	temperature (°C)	Stokes	anti-Stokes-747.200	-148.221	0.128	0.011
-746.185	-39.804	0.085	-0.045
-745.171	-200.000	-0.016	0.177
-744.156	-56.101	0.075	0.034
-743.142	80.307	0.151	0.164
-742.127	-20.391	0.088	-0.054
-741.112	800.000	-0.081	-0.302
-740.098	-136.022	-0.096	0.011
-739.083	18.415	-0.056	-0.045
-738.069	-47.860	0.169	0.082
-737.054	-200.000	-0.052	-0.351
-736.039	-110.401	0.317	0.066
-735.025	87.183	0.157	0.175
-734.010	800.000	0.085	-0.297
-732.996	-13.794	-0.280	-0.182
-731.981	18.549	0.355	-0.286
-730.966	800.000	0.047	0.172
-729.952	-200.000	-0.018	-0.381
-728.937	-124.800	0.154	0.024
-727.923	-149.608	-0.034	0.003
-726.908	800.000	0.037	-0.124
-725.894	411.296	0.044	-0.095
-724.879	171.382	0.025	-0.036
-723.864	52.722	-0.268	0.258
-722.850	26.323	0.170	0.143
-721.835	-5.090	-0.356	-0.246
-720.821	-200.000	-0.014	-0.286
-719.806	209.521	0.091	-0.144
-718.791	-57.586	0.246	-0.108
-717.777	155.325	0.214	-0.295
-716.762	-62.581	0.330	-0.138
-715.748	226.045	-0.071	-0.117
-714.733	-149.579	-0.171	0.014
-713.718	-105.954	-0.396	0.090
-712.704	-200.000	-0.043	-0.550
-711.689	-143.502	0.068	0.007
-710.675	-99.294	-0.247	-0.063
-709.660	-200.000	-0.051	-0.227
-708.645	-200.000	-0.030	-0.225
-707.631	800.000	0.114	0.352
-706.616	76.476	-0.067	-0.072
-705.602	-200.000	0.021	-0.448
-704.587	104.472	-0.101	0.119
-703.572	29.021	0.281	0.240
-702.558	-147.840	-0.020	-0.002
-701.543	-143.702	0.303	0.029
-700.529	214.154	0.240	0.381
-699.514	286.270	0.080	0.146
-698.499	-64.423	0.055	0.022
-697.485	221.956	0.106	-0.171
-696.470	73.498	-0.101	0.106
-695.456	192.880	-0.117	-0.177
-694.441	-6.074	-0.133	-0.091
-693.426	230.084	-0.158	0.259
-692.412	132.475	-0.163	-0.211
-691.397	-125.472	0.330	0.050
-690.383	-200.000	0.012	0.269
-689.368	-1.059	-0.145	-0.103
-688.354	-68.984	-0.560	-0.217
-687.339	800.000	0.060	-0.239
-686.324	-76.503	0.161	0.057
-685.310	-118.851	0.100	0.018
-684.295	69.868	-0.073	-0.076
-683.281	-148.915	0.177	-0.014
-682.266	-200.000	-0.043	-0.193
-681.251	800.000	0.065	-0.215
-680.237	-200.000	-0.030	-0.243
-679.222	-27.659	0.022	-0.013
-678.208	604.673	-0.028	-0.071
-677.193	-94.174	0.206	0.057
-676.178	-102.423	-0.057	0.014
-675.164	35.605	0.122	0.108
-674.149	-132.274	-0.293	0.038
-673.135	58.733	-0.243	-0.240
-672.120	-54.257	0.177	-0.080
-671.105	85.178	-0.121	0.133
-670.091	-142.441	0.250	-0.025
-669.076	799.395	-0.069	-0.190
-668.062	-74.603	0.060	-0.022
-667.047	-115.657	0.475	0.089
-666.032	-108.375	-0.116	0.025
-665.018	14.175	0.045	0.035
-664.003	-63.328	-0.200	0.083
-662.989	72.419	-0.115	0.120
-661.974	75.067	0.162	-0.171
-660.959	-200.000	-0.015	-0.098
-659.945	141.116	-0.167	-0.222
-658.930	-200.000	0.005	-0.440
-657.916	-200.000	-0.032	-0.281
-656.901	-200.000	0.019	-0.118
-655.886	80.985	-0.123	0.133
-654.872	-59.103	-0.334	-0.144
-653.857	88.296	0.065	0.072
-652.843	-200.000	0.008	0.166
-651.828	-200.000	0.033	-0.289
-650.814	30.956	-0.446	-0.383
-649.799	800.000	-0.058	0.248
-648.784	-30.990	-0.040	-0.023
-647.770	268.450	-0.267	-0.469
-646.755	-147.608	-0.058	-0.005
-645.741	-17.022	0.232	0.147
-644.726	-86.413	0.068	0.021
-643.711	-63.877	0.421	0.173
-642.697	-21.671	0.133	0.081
-641.682	4.003	-0.219	0.160
-640.668	-73.398	0.209	0.077
-639.653	-200.000	0.060	-0.424
-638.638	-200.000	0.020	0.288
-637.624	-61.617	-0.159	-0.067
-636.609	209.671	-0.091	0.143
-635.595	-59.823	-0.092	0.039
-634.580	800.000	0.097	-0.345
-633.565	-15.035	0.178	0.114
-632.551	172.932	-0.049	-0.071
-631.536	-200.000	-0.005	-0.062
-630.522	-10.473	-0.183	-0.121
-629.507	136.873	0.080	-0.104
-628.492	174.768	0.118	-0.171
-627.478	308.932	-0.058	-0.108
-626.463	0.147	0.073	0.052
-625.449	-168.102	-0.267	-0.010
-624.434	-17.875	0.362	0.227
-623.419	101.745	0.273	-0.319
-622.405	-92.322	0.231	0.065
-621.390	-76.687	0.225	-0.079
-620.376	1.532	-0.086	0.062
-619.361	120.458	-0.087	-0.109
-618.346	-24.588	-0.491	0.292
-617.332	-110.115	-0.111	0.023
-616.317	147.918	0.136	-0.183
-615.303	-200.000	0.003	-0.221
-614.288	39.683	-0.215	-0.193
-613.273	396.829	0.088	0.185
-612.259	800.000	0.056	0.160
-611.244	800.000	-0.020	0.066
-610.230	-200.000	0.006	-0.094
-609.215	196.058	0.054	-0.082
-608.201	-23.136	0.282	0.170
-607.186	800.000	0.021	0.089
-606.171	-120.176	-0.242	-0.041
-605.157	173.233	0.117	-0.168
-604.142	-200.000	0.004	-0.257
-603.128	94.676	-0.066	0.075
-602.113	-134.765	-0.186	0.023
-601.098	172.780	-0.079	-0.114
-600.084	399.359	0.054	-0.113
-599.069	17.902	-0.106	-0.085
-598.055	-182.904	0.217	0.004
-597.040	75.037	-0.170	0.179
-596.025	-25.438	-0.276	0.163
-595.011	-200.000	-0.013	-0.211
-593.996	-188.654	-0.195	0.002
-592.982	800.000	-0.106	-0.369
-591.967	-18.629	0.288	0.180
-590.952	-28.812	0.085	0.049
-589.938	-200.000	-0.011	0.272
-588.923	-167.723	-0.280	0.011
-587.909	-200.000	0.001	-0.075
-586.894	800.000	-0.025	-0.083
-585.879	22.109	0.231	-0.188
-584.865	321.198	0.098	-0.186
-583.850	66.901	0.194	-0.198
-582.836	-200.000	0.050	-0.317
-581.821	233.647	-0.046	0.076
-580.806	17.050	0.041	-0.033
-579.792	241.812	-0.301	-0.502
-578.777	91.877	-0.081	-0.091
-577.763	60.183	0.246	-0.244
-576.748	-200.000	-0.288	-0.001
-575.733	-200.000	-0.021	0.375
-574.719	-16.612	-0.246	-0.156
-573.704	-79.159	-0.148	0.050
-572.690	712.889	-0.090	-0.237
-571.675	-200.000	-0.032	0.222
-570.661	800.000	0.043	-0.150
-569.646	509.020	-0.028	-0.066
-568.631	575.710	-0.099	-0.241
-567.617	455.991	-0.040	0.089
-566.602	-178.868	0.270	-0.006
-565.588	160.548	0.029	-0.040
-564.573	69.896	-0.075	-0.077
-563.558	16.535	0.044	-0.035
-562.544	106.500	0.230	-0.272
-561.529	-85.536	0.250	-0.078
-560.515	800.000	-0.059	-0.167
-559.500	587.492	0.138	-0.338
-558.485	-139.040	-0.185	-0.020
-557.471	-200.000	0.028	0.167
-556.456	-24.445	-0.216	0.129
-555.442	800.000	0.045	-0.188
-554.427	92.848	-0.089	0.101
-553.412	165.941	0.176	-0.248
-552.398	246.622	0.097	-0.163
-551.383	170.986	0.229	-0.328
-550.369	670.786	0.129	0.334
-549.354	95.970	0.067	-0.077
-548.339	110.397	-0.290	0.348
-547.325	-72.547	-0.445	0.164
-546.310	-121.209	-0.307	-0.051
-545.296	-45.751	0.094	0.047
-544.281	-200.000	-0.058	-0.265
-543.266	-200.000	-0.017	-0.324
-542.252	-39.405	-0.135	-0.070
-541.237	122.924	-0.215	0.269
-540.223	404.239	0.095	-0.201
-539.208	246.342	0.095	-0.160
-538.193	253.541	0.026	0.045
-537.179	-65.822	-0.224	0.090
-536.164	-141.084	0.238	0.024
-535.150	186.785	0.173	0.257
-534.135	-148.673	0.273	-0.022
-533.121	-200.000	-0.002	0.038
-532.106	81.831	-0.070	0.076
-531.091	-69.934	-0.189	0.072
-530.077	210.850	0.118	0.186
-529.062	800.000	0.103	-0.387
-528.048	-200.000	-0.057	-0.295
-527.033	800.000	-0.023	0.072
-526.018	183.508	0.202	-0.298
-525.004	167.794	-0.183	0.259
-523.989	-128.649	0.054	0.008
-522.975	121.460	-0.107	0.133
-521.960	105.676	0.251	-0.295
-520.945	-154.831	-0.354	0.023
-519.931	414.994	-0.060	0.127
-518.916	141.011	0.083	0.110
-517.902	159.068	0.084	0.116
-516.887	49.492	-0.171	0.161
-515.872	800.000	0.035	0.125
-514.858	-18.451	-0.134	0.084
-513.843	-86.416	-0.333	0.102
-512.829	101.911	-0.042	0.049
-511.814	-200.000	0.006	-0.220
-510.799	-103.128	0.092	-0.022
-509.785	-182.612	-0.267	0.005
-508.770	190.703	-0.047	0.070
-507.756	-75.405	-0.447	-0.159
-506.741	-61.809	0.144	0.060
-505.726	-161.179	0.309	-0.016
-504.712	-69.479	0.174	0.067
-503.697	-200.000	-0.048	-0.213
-502.683	-200.000	-0.012	-0.156
-501.668	-62.832	-0.150	-0.062
-500.653	122.822	-0.087	-0.109
-499.639	-128.686	-0.154	0.022
-498.624	-87.426	0.078	-0.024
-497.610	-50.761	-0.363	-0.170
-496.595	800.000	-0.083	0.270
-495.581	167.231	0.043	0.060
-494.566	-60.170	-0.031	0.013
-493.551	11.633	0.186	-0.142
-492.537	272.864	0.019	0.034
-491.522	-67.258	-0.137	0.054
-490.508	-200.000	-0.006	0.096
-489.493	-200.000	0.065	0.327
-488.478	-155.439	0.164	0.011
-487.464	331.235	-0.171	0.328
-486.449	-167.382	-0.090	0.004
-485.435	-75.159	-0.091	-0.033
-484.420	-200.000	-0.008	-0.265
-483.405	21.038	0.262	-0.211
-482.391	266.075	0.079	0.137
-481.376	-53.429	0.199	-0.091
-480.362	-200.000	-0.066	0.375
-479.347	-14.588	-0.153	-0.098
-478.332	-200.000	-0.044	-0.383
-477.318	800.000	-0.068	-0.247
-476.303	24.837	-0.188	0.155
-475.289	800.000	0.077	0.301
-474.274	-123.403	0.225	0.036
-473.259	-39.830	0.241	0.126
-472.245	256.500	0.090	-0.154
-471.230	-144.012	-0.169	0.016
-470.216	205.812	0.133	-0.206
-469.201	-200.000	-0.011	0.057
-468.186	-127.682	0.157	0.023
-467.172	-21.890	0.241	0.146
-466.157	-66.781	-0.142	-0.056
-465.143	-200.000	-0.021	-0.205
-464.128	-200.000	-0.008	-0.155
-463.113	-200.000	-0.106	0.508
-462.099	-200.000	-0.033	0.205
-461.084	501.662	0.071	-0.163
-460.070	-47.719	0.235	-0.113
-459.055	-3.019	0.099	0.069
-458.040	62.882	-0.029	0.029
-457.026	12.332	0.218	0.167
-456.011	-11.702	-0.317	0.207
-454.997	-33.874	-0.171	0.094
-453.982	40.858	0.192	0.172
-452.968	12.019	0.207	0.158
-451.953	183.780	-0.090	-0.133
-450.938	141.041	0.163	0.214
-449.924	30.453	-0.190	0.161
-448.909	-200.000	-0.022	0.423
-447.895	-200.000	0.073	0.504
-446.880	28.971	-0.230	-0.194
-445.865	759.861	0.095	-0.256
-444.851	-149.450	-0.082	0.006
-443.836	-24.759	0.146	0.086
-442.822	340.290	-0.089	0.173
-441.807	-84.605	0.158	-0.050
-440.792	236.846	-0.188	-0.310
-439.778	144.583	-0.117	-0.155
-438.763	374.820	-0.094	0.190
-437.749	-175.476	-0.212	-0.006
-436.734	65.216	0.148	-0.148
-435.719	780.532	0.122	0.333
-434.705	-119.647	-0.104	0.018
-433.690	-200.000	-0.031	-0.275
-432.676	261.586	-0.092	-0.158
-431.661	90.897	-0.244	0.272
-430.646	-7.445	0.167	0.113
-429.632	-19.378	-0.217	0.134
-428.617	-200.000	0.060	-0.327
-427.603	246.219	-0.109	0.183
-426.588	800.000	0.015	-0.053
-425.573	-110.055	0.181	0.038
-424.559	-200.000	0.001	0.251
-423.544	180.152	-0.067	0.097
-422.530	-200.000	0.008	0.070
-421.515	47.073	-0.250	-0.231
-420.500	800.000	0.073	0.301
-419.486	196.395	0.131	-0.198
-418.471	800.000	-0.047	-0.198
-417.457	-71.275	0.043	0.016
-416.442	-27.255	0.035	-0.020
-415.428	13.693	0.121	0.093
-414.413	136.124	-0.140	0.182
-413.398	-75.333	-0.135	-0.048
-412.384	-44.521	0.039	-0.019
-411.369	-103.874	-0.425	-0.099
-410.355	132.122	0.016	-0.021
-409.340	-20.227	0.073	-0.045
-408.325	-173.736	-0.412	-0.012
-407.311	-41.531	-0.113	-0.058
-406.296	17.377	0.224	0.177
-405.282	-200.000	0.001	-0.243
-404.267	-200.000	-0.035	-0.164
-403.252	76.396	0.097	-0.102
-402.238	-25.322	-0.112	0.066
-401.223	10.995	-0.221	-0.168
-400.209	64.396	0.107	-0.107
-399.194	581.699	-0.121	0.294
-398.179	545.851	0.093	-0.220
-397.165	61.664	-0.233	0.230
-396.150	14.972	-0.120	-0.093
-395.136	-61.537	0.050	0.021
-394.121	-87.013	0.433	0.131
-393.106	-26.876	0.057	-0.033
-392.092	-200.000	0.040	-0.182
-391.077	191.316	0.063	-0.094
-390.063	-63.800	-0.221	0.090
-389.048	-2.958	0.294	0.204
-388.033	247.796	0.124	0.208
-387.019	418.078	0.124	-0.263
-386.004	-126.597	-0.067	0.010
-384.990	-73.891	0.281	-0.101
-383.975	800.000	-0.036	0.148
-382.960	-96.627	0.468	0.122
-381.946	800.000	0.013	-0.038
-380.931	169.428	-0.174	0.246
-379.917	129.965	-0.033	0.042
-378.902	-7.427	-0.403	-0.271
-377.888	-105.668	-0.192	0.043
-376.873	-122.567	0.137	0.022
-375.858	717.006	-0.043	-0.114
-374.844	800.000	-0.131	-0.404
-373.829	149.061	-0.087	-0.117
-372.815	114.548	0.092	-0.111
-371.800	45.834	0.189	-0.174
-370.785	-73.470	0.152	-0.055
-369.771	236.058	-0.198	-0.324
-368.756	241.430	-0.042	0.069
-367.742	800.000	0.040	0.115
-366.727	277.289	0.118	0.207
-365.712	90.263	0.212	0.235
-364.698	-22.581	-0.245	0.147
-363.683	-200.000	0.025	0.198
-362.669	-87.327	0.198	0.060
-361.654	-98.315	0.360	0.092
-360.639	159.795	0.059	0.081
-359.625	800.000	0.043	0.118
-358.610	-174.190	0.161	0.005
-357.596	346.011	0.100	0.194
-356.581	-27.282	-0.092	0.053
-355.566	-103.630	-0.148	-0.034
-354.552	346.152	-0.158	0.309
-353.537	-200.000	-0.015	0.077
-352.523	-11.051	-0.146	-0.095
-351.508	109.985	-0.137	0.162
-350.493	136.675	0.275	-0.355
-349.479	-27.642	0.207	-0.119
-348.464	800.000	0.071	-0.304
-347.450	-98.461	0.363	0.092
-346.435	-103.166	0.417	0.098
-345.420	94.752	-0.186	0.210
-344.406	133.432	-0.043	-0.055
-343.391	206.182	0.158	0.243
-342.377	189.889	0.178	-0.264
-341.362	138.743	-0.036	0.047
-340.348	183.143	0.205	0.300
-339.333	139.567	0.081	-0.106
-338.318	7.375	0.153	0.113
-337.304	-200.000	0.006	0.162
-336.289	-100.520	0.094	-0.023
-335.275	25.546	0.072	-0.060
-334.260	675.923	-0.108	-0.278
-333.245	-0.471	0.296	0.208
-332.231	-121.921	0.172	0.028
-331.216	-130.050	0.131	0.018
-330.202	-200.000	-0.002	0.116
-329.187	800.000	-0.145	-0.426
-328.172	279.559	0.166	-0.293
-327.158	-71.179	-0.334	0.124
-326.143	477.107	-0.016	0.036
-325.129	-133.617	0.185	0.023
-324.114	-73.398	-0.134	0.048
-323.099	29.688	-0.116	0.098
-322.085	-19.563	0.121	-0.074
-321.070	72.535	-0.280	-0.288
-320.056	67.597	0.232	-0.235
-319.041	89.347	-0.157	0.173
-318.026	-200.000	-0.023	-0.106
-317.012	688.446	0.104	0.270
-315.997	403.576	0.047	-0.097
-314.983	-200.000	-0.015	0.125
-313.968	161.886	-0.138	-0.191
-312.953	330.179	0.177	0.336
-311.939	393.179	0.033	-0.068
-310.924	-107.224	0.246	-0.054
-309.910	-77.878	0.079	0.027
-308.895	-70.781	0.089	0.033
-307.880	800.000	-0.047	0.166
-306.866	33.577	-0.146	-0.126
-305.851	800.000	-0.033	-0.143
-304.837	6.124	0.186	-0.136
-303.822	800.000	-0.014	0.059
-302.807	680.359	0.045	0.116
-301.793	-200.000	-0.043	-0.395
-300.778	48.852	0.199	-0.185
-299.764	237.403	0.097	0.159
-298.749	-34.947	0.111	-0.060
-297.735	165.261	0.180	0.251
-296.720	-200.000	0.025	0.120
-295.705	-79.648	0.216	-0.072
-294.691	-200.000	-0.039	0.178
-293.676	133.897	-0.206	0.263
-292.662	-66.299	-0.141	-0.055
-291.647	-28.318	0.097	-0.055
-290.632	191.182	0.132	-0.197
-289.618	-107.589	-0.326	-0.071
-288.603	-83.626	0.151	-0.048
-287.589	-50.543	-0.213	-0.099
-286.574	-200.000	-0.042	-0.253
-285.559	800.000	-0.021	-0.075
-284.545	-200.000	-0.012	0.274
-283.530	-184.740	-0.213	-0.003
-282.516	-130.805	-0.095	-0.013
-281.501	-200.000	-0.011	-0.305
-280.486	800.000	0.075	0.207
-279.472	-95.109	-0.429	0.114
-278.457	630.441	0.160	-0.400
-277.443	-51.350	-0.402	0.186
-276.428	95.035	0.170	0.191
-275.413	6.698	-0.338	0.249
-274.399	20.139	0.225	-0.179
-273.384	800.000	-0.037	0.127
-272.370	-119.887	0.277	-0.047
-271.355	290.913	0.151	-0.271
-270.340	-10.147	0.221	0.145
-269.326	80.930	-0.161	0.171
-268.311	-122.349	0.172	0.028
-267.297	-30.614	-0.078	0.044
-266.282	-4.220	-0.073	-0.050
-265.267	53.673	-0.165	0.156
-264.253	-200.000	-0.022	0.191
-263.238	-7.057	-0.323	0.217
-262.224	-33.630	0.076	-0.042
-261.209	486.365	0.040	-0.090
-260.195	-47.149	0.158	0.076
-259.180	800.000	0.042	-0.146
-258.165	-200.000	0.013	0.125
-257.151	-39.279	-0.245	-0.127
-256.136	-69.134	0.126	0.048
-255.122	-4.071	0.243	-0.166
-254.107	800.000	0.106	-0.338
-253.092	-54.999	-0.228	0.101
-252.078	800.000	0.070	-0.264
-251.063	-200.000	-0.205	-0.000
-250.049	800.000	-0.136	-0.389
-249.034	-116.729	0.436	0.079
-248.019	4.143	0.203	0.146
-247.005	532.550	0.082	0.190
-245.990	35.522	0.172	-0.149
-244.976	-122.131	0.147	0.024
-243.961	45.529	-0.225	0.205
-242.946	264.098	0.113	0.194
-241.932	195.423	-0.078	0.118
-240.917	43.434	0.112	-0.101
-239.903	-200.000	-0.034	0.165
-238.888	162.899	-0.156	-0.216
-237.873	-45.926	-0.191	0.093
-236.859	252.746	0.302	0.508
-235.844	784.668	0.147	-0.398
-234.830	13.270	0.157	-0.120
-233.815	-175.242	0.192	-0.005
-232.800	800.000	0.065	-0.262
-231.786	-98.546	0.242	0.061
-230.771	39.148	-0.082	0.072
-229.757	-42.499	-0.047	-0.024
-228.742	87.798	-0.051	-0.055
-227.727	76.991	-0.085	0.089
-226.713	-0.178	-0.074	-0.052
-225.698	-6.418	0.290	0.195
-224.684	-200.000	-0.020	-0.288
-223.669	-37.869	-0.051	-0.027
-222.655	800.000	0.024	0.090
-221.640	-186.066	0.141	0.002
-220.625	800.000	-0.113	-0.382
-219.611	86.793	-0.049	0.053
-218.596	-79.396	-0.183	0.061
-217.582	-200.000	0.074	0.551
-216.567	-200.000	0.086	0.430
-215.552	-200.000	-0.006	-0.086
-214.538	-5.723	-0.230	-0.156
-213.523	-81.892	-0.207	0.067
-212.509	-19.348	-0.120	-0.074
-211.494	-200.000	-0.039	0.330
-210.479	496.065	0.103	-0.234
-209.465	-7.490	-0.214	0.142
-208.450	-40.182	-0.070	-0.036
-207.436	-77.833	-0.260	0.088
-206.421	-200.000	-0.012	0.221
-205.406	-9.566	-0.204	-0.134
-204.392	800.000	0.128	0.378
-203.377	-200.000	-0.007	0.045
-202.363	800.000	-0.075	-0.278
-201.348	66.334	-0.097	-0.097
-200.333	300.175	0.188	0.342
-199.319	22.648	-0.276	0.223
-198.304	100.319	0.161	-0.184
-197.290	44.021	-0.175	-0.158
-196.275	-200.000	-0.195	0.001
-195.260	729.364	-0.157	0.412
-194.246	-200.000	0.039	-0.182
-193.231	-124.563	0.095	0.014
-192.217	-200.000	-0.043	0.375
-191.202	-200.000	-0.048	0.314
-190.187	-200.000	0.012	0.080
-189.173	-119.887	-0.061	-0.010
-188.158	96.788	-0.214	-0.241
-187.144	-97.718	-0.129	-0.033
-186.129	284.222	-0.091	-0.161
-185.114	-99.498	-0.074	0.018
-184.100	-63.409	0.107	0.043
-183.085	192.462	-0.165	0.245
-182.071	205.048	-0.067	0.102
-181.056	-44.307	-0.331	-0.163
-180.042	718.813	0.075	0.196
-179.027	-51.655	0.158	-0.073
-178.012	-14.975	0.215	-0.136
-176.998	-200.000	0.006	0.124
-175.983	82.198	0.195	0.209
-174.969	-107.489	0.307	-0.066
-173.954	-200.000	-0.005	0.087
-172.939	538.670	-0.032	-0.075
-171.925	-62.036	0.124	-0.051
-170.910	-107.137	-0.377	0.082
-169.896	-53.011	0.330	0.149
-168.881	173.170	-0.083	-0.118
-167.866	-200.000	-0.003	-0.261
-166.852	320.017	0.230	-0.430
-165.837	-173.101	0.139	0.004
-164.823	208.577	0.188	-0.290
-163.808	-81.373	-0.136	0.044
-162.793	-32.683	-0.114	-0.062
-161.779	800.000	-0.047	-0.199
-160.764	-200.000	-0.029	0.298
-159.750	519.103	-0.092	0.213
-158.735	434.127	0.041	0.087
-157.720	-200.000	0.054	-0.303
-156.706	800.000	0.156	0.423
-155.691	46.581	-0.099	-0.090
-154.677	5.625	-0.320	-0.232
-153.662	-200.000	0.042	0.290
-152.647	-73.356	-0.041	0.015
-151.633	-200.000	-0.015	0.199
-150.618	-37.069	0.264	-0.139
-149.604	-129.745	-0.437	-0.059
-148.589	-73.577	-0.061	-0.022
-147.574	-114.413	0.275	0.052
-146.560	-124.294	-0.311	0.048
-145.545	800.000	0.016	-0.055
-144.531	-200.000	0.059	0.297
-143.516	-18.778	0.253	-0.155
-142.502	115.820	-0.129	-0.155
-141.487	-6.881	0.177	-0.118
-140.472	-144.805	0.436	-0.039
-139.458	-21.890	-0.174	-0.104
-138.443	-85.439	0.356	-0.109
-137.429	21.366	0.253	-0.202
-136.414	800.000	0.034	-0.108
-135.399	66.318	0.046	0.046
-134.385	-67.120	0.219	0.085
-133.370	-200.000	-0.009	-0.273
-132.356	-3.804	0.252	-0.172
-131.341	-159.436	0.332	-0.018
-130.326	-117.680	0.087	-0.015
-129.312	-80.381	0.327	0.107
-128.297	372.394	0.163	-0.325
-127.283	4.877	0.046	0.033
-126.268	480.964	-0.054	0.120
-125.253	-200.000	-0.028	0.401
-124.239	99.048	0.065	-0.074
-123.224	-88.679	-0.272	-0.079
-122.210	2.872	0.340	-0.242
-121.195	-182.052	-0.154	0.003
