DTS Sentinel unit serial number:	SN413079Multiplexer serial number:	ORYXHardware model number:	OX4-SRSoftware version number:	ORYX F/W v4.00 Oryx Data Collector v3.7.2.0data status	okinstallation	princeton_trtdifferential loss correction	single-endedforward channel	channel 3reverse channel	N/Adate	2019/09/12time	05:22:11forward acquisition time	60.00reverse acquisition time	0.00gamma	496.2192k internal	0.2321k external	0.2321temperature offset calibration	1.0033default loss term (dB/km)	0.3790temperature slope calibration	1.0000multiplexer offset coefficient	1.0000multiplexer slope coefficient	1.0000fibre end	0.00T internal ref (°C)	31.87T ext. ref 1 (°C)	1.62T ext. ref 2 (°C)	27.31length (m)	temperature (°C)	Stokes	anti-Stokes-747.200	145.250	0.163	-0.221
-746.185	-111.613	-0.154	0.032
-745.171	-85.528	0.298	-0.094
-744.156	-95.752	-0.322	0.087
-743.142	-110.845	-0.293	0.061
-742.127	10.988	-0.148	0.114
-741.112	219.211	0.055	-0.088
-740.098	800.000	0.036	0.123
-739.083	-181.912	0.275	0.005
-738.069	-8.968	-0.119	0.081
-737.054	-90.496	0.217	-0.063
-736.039	61.208	-0.164	-0.165
-735.025	-200.000	0.011	0.178
-734.010	-91.988	0.336	-0.096
-732.996	-200.000	-0.001	0.033
-731.981	-23.849	-0.720	-0.435
-730.966	-116.227	-0.083	-0.015
-729.952	263.602	-0.113	0.199
-728.937	15.991	-0.045	-0.036
-727.923	-113.868	0.386	-0.076
-726.908	698.554	-0.092	0.245
-725.894	17.854	-0.151	0.121
-724.879	120.535	-0.126	0.157
-723.864	696.247	0.191	0.506
-722.850	-107.453	-0.123	-0.027
-721.835	642.423	-0.115	-0.296
-720.821	343.384	-0.198	-0.391
-719.806	-200.000	-0.023	-0.229
-718.791	-56.861	-0.117	0.052
-717.777	297.304	-0.175	0.324
-716.762	-0.199	-0.092	-0.066
-715.748	-114.092	0.203	0.040
-714.733	-13.021	-0.237	0.156
-713.718	-109.555	-0.168	-0.036
-712.704	-0.113	0.345	-0.248
-711.689	-129.859	-0.230	0.032
-710.675	-200.000	-0.078	-0.371
-709.660	-17.993	-0.098	0.062
-708.645	-200.000	0.025	-0.202
-707.631	800.000	-0.034	-0.115
-706.616	-76.903	0.066	0.023
-705.602	-26.912	-0.100	-0.059
-704.587	-200.000	-0.001	0.073
-703.572	-200.000	0.058	-0.279
-702.558	-46.038	-0.066	-0.033
-701.543	98.677	-0.192	0.223
-700.529	800.000	0.058	0.237
-699.514	-200.000	-0.074	-0.485
-698.499	141.062	-0.098	-0.131
-697.485	116.284	-0.014	-0.018
-696.470	-200.000	0.007	0.363
-695.456	-25.650	-0.116	-0.069
-694.441	-6.338	0.068	-0.047
-693.426	-131.688	0.217	0.029
-692.412	-124.185	-0.207	0.033
-691.397	800.000	0.065	0.194
-690.383	33.848	0.088	-0.077
-689.368	38.184	0.154	0.138
-688.354	-200.000	-0.021	-0.206
-687.339	-151.264	0.158	-0.012
-686.324	-181.473	0.259	-0.005
-685.310	-94.447	-0.164	-0.045
-684.295	-116.947	0.244	0.045
-683.281	66.074	-0.216	0.221
-682.266	3.677	-0.143	0.105
-681.251	-73.478	-0.080	-0.030
-680.237	556.588	0.086	-0.208
-679.222	-105.181	0.103	-0.024
-678.208	196.198	0.089	-0.137
-677.193	800.000	-0.024	-0.099
-676.178	84.276	0.209	-0.230
-675.164	-200.000	0.064	-0.334
-674.149	429.354	0.100	-0.218
-673.135	-47.552	-0.308	0.151
-672.120	-100.347	0.204	-0.051
-671.105	-56.742	-0.226	-0.101
-670.091	175.451	-0.162	-0.237
-669.076	-129.720	0.058	0.008
-668.062	-90.288	-0.084	0.025
-667.047	-200.000	-0.011	-0.116
-666.032	-108.003	0.095	-0.021
-665.018	84.206	-0.210	-0.231
-664.003	82.521	0.129	-0.141
-662.989	-174.192	0.406	-0.012
-661.974	800.000	0.072	0.207
-660.959	407.211	0.166	0.352
-659.945	-200.000	-0.034	-0.209
-658.930	-98.432	0.298	-0.077
-657.916	-200.000	-0.016	0.225
-656.901	-66.572	-0.316	0.126
-655.886	-161.391	-0.129	-0.007
-654.872	303.851	0.058	0.108
-653.857	-23.522	-0.255	-0.154
-652.843	-200.000	-0.048	-0.304
-651.828	-200.000	-0.029	-0.150
-650.814	20.728	-0.154	0.125
-649.799	-200.000	0.028	0.496
-648.784	-200.000	-0.041	0.219
-647.770	71.120	-0.096	-0.100
-646.755	411.728	0.061	-0.131
-645.741	37.828	0.190	0.170
-644.726	290.835	-0.053	-0.096
-643.711	634.142	-0.174	-0.445
-642.697	-200.000	0.017	-0.399
-641.682	0.178	-0.076	-0.055
-640.668	2.041	0.164	0.119
-639.653	-52.728	-0.361	0.168
-638.638	-110.420	-0.170	-0.036
-637.624	-143.500	-0.097	0.009
-636.609	-200.000	0.062	-0.392
-635.595	282.904	0.078	0.141
-634.580	800.000	0.125	-0.523
-633.565	-97.401	-0.163	-0.043
-632.551	-74.048	0.212	-0.077
-631.536	-200.000	0.004	0.284
-630.522	-37.325	-0.357	-0.192
-629.507	-111.944	0.351	-0.071
-628.492	-5.902	-0.141	-0.097
-627.478	89.825	0.139	0.156
-626.463	357.915	-0.197	0.396
-625.449	-118.576	-0.267	0.047
-624.434	-163.266	-0.249	0.012
-623.419	-110.774	-0.091	0.019
-622.405	32.007	0.188	0.163
-621.390	-166.018	-0.216	-0.009
-620.376	-39.530	-0.158	-0.083
-619.361	-129.384	-0.279	0.039
-618.346	800.000	0.019	0.081
-617.332	728.273	-0.028	0.076
-616.317	553.357	-0.143	0.345
-615.303	186.346	-0.117	-0.175
-614.288	800.000	-0.041	0.165
-613.273	-154.328	-0.488	0.033
-612.259	-2.311	0.185	-0.130
-611.244	-187.700	-0.094	-0.001
-610.230	644.889	0.030	0.078
-609.215	203.038	-0.064	-0.099
-608.201	-123.171	-0.094	0.015
-607.186	800.000	-0.059	-0.219
-606.171	-164.227	-0.173	0.008
-605.157	-138.333	-0.126	0.014
-604.142	-200.000	-0.005	0.155
-603.128	353.771	-0.034	-0.068
-602.113	-200.000	-0.021	-0.193
-601.098	-93.546	0.141	-0.039
-600.084	-176.609	0.047	-0.001
-599.069	7.898	0.296	-0.223
-598.055	57.551	0.041	0.040
-597.040	800.000	-0.040	-0.127
-596.025	-59.978	0.230	-0.099
-595.011	-57.649	-0.102	-0.045
-593.996	40.581	-0.387	0.351
-592.982	138.417	0.327	-0.430
-591.967	111.450	0.107	-0.130
-590.952	-79.598	-0.128	0.043
-589.938	-200.000	0.003	0.280
-588.923	-30.025	0.043	-0.025
-587.909	800.000	-0.050	0.179
-586.894	-200.000	0.007	0.209
-585.879	15.658	0.090	0.071
-584.865	-200.000	-0.017	-0.207
-583.850	185.780	-0.069	0.103
-582.836	659.140	-0.052	-0.134
-581.821	5.413	0.362	-0.268
-580.806	94.048	0.113	0.129
-579.792	103.330	-0.127	0.150
-578.777	140.905	0.008	-0.011
-577.763	366.868	0.064	0.129
-576.748	210.717	0.008	0.013
-575.733	99.331	-0.285	0.330
-574.719	-200.000	-0.058	0.312
-573.704	-200.000	-0.020	0.412
-572.690	-3.399	0.087	-0.061
-571.675	-23.539	0.373	0.225
-570.661	53.214	0.186	0.179
-569.646	-200.000	0.013	-0.146
-568.631	-128.065	0.239	-0.034
-567.617	-200.000	0.036	0.256
-566.602	-29.274	0.197	-0.113
-565.588	-74.892	0.171	-0.061
-564.573	-128.346	-0.075	0.011
-563.558	-193.151	-0.220	-0.002
-562.544	800.000	0.041	0.146
-561.529	800.000	0.087	-0.254
-560.515	800.000	0.068	-0.220
-559.500	439.461	0.052	-0.115
-558.485	-58.107	-0.151	-0.066
-557.471	-33.474	-0.210	-0.116
-556.456	-200.000	0.009	0.041
-555.442	-200.000	-0.024	0.132
-554.427	-77.627	0.321	0.111
-553.412	-200.000	0.026	-0.374
-552.398	27.078	-0.073	0.061
-551.383	74.443	0.140	0.147
-550.369	341.524	-0.040	0.079
-549.354	134.758	-0.114	-0.148
-548.339	-136.617	0.039	0.005
-547.325	-128.672	-0.292	0.041
-546.310	-200.000	0.037	0.189
-545.296	8.991	0.169	-0.128
-544.281	-72.369	-0.161	0.060
-543.266	-90.820	-0.116	-0.033
-542.252	178.353	0.167	-0.245
-541.237	-183.419	-0.180	-0.003
-540.223	122.295	0.036	0.045
-539.208	94.266	0.081	-0.092
-538.193	-200.000	0.058	-0.367
-537.179	-140.578	0.449	-0.047
-536.164	-69.485	-0.113	0.044
-535.150	-120.833	-0.040	0.007
-534.135	563.223	0.127	0.308
-533.121	-200.000	-0.034	-0.477
-532.106	-140.831	0.297	-0.031
-531.091	-77.996	-0.350	-0.121
-530.077	800.000	-0.055	0.198
-529.062	-24.024	-0.323	0.193
-528.048	-112.141	0.236	-0.048
-527.033	-123.334	0.251	-0.040
-526.018	-166.232	-0.327	-0.014
-525.004	800.000	-0.096	0.419
-523.989	126.600	-0.048	0.061
-522.975	-200.000	-0.003	0.031
-521.960	-60.244	-0.118	-0.050
-520.945	-200.000	-0.048	0.231
-519.931	41.903	0.151	0.137
-518.916	-200.000	0.022	-0.221
-517.902	-200.000	-0.008	0.220
-516.887	-61.982	-0.127	-0.053
-515.872	-77.038	-0.037	-0.013
-514.858	369.847	0.118	-0.239
-513.843	800.000	0.094	0.289
-512.829	-200.000	-0.018	-0.146
-511.814	-200.000	-0.067	0.330
-510.799	112.066	-0.049	-0.059
-509.785	293.007	-0.119	0.218
-508.770	800.000	-0.075	0.273
-507.756	100.301	0.098	-0.114
-506.741	-14.434	-0.515	-0.332
-505.726	74.076	-0.231	-0.243
-504.712	-200.000	-0.041	0.274
-503.697	59.900	0.226	0.223
-502.683	800.000	0.039	0.135
-501.668	-200.000	-0.028	0.219
-500.653	283.452	-0.246	0.443
-499.639	111.623	0.123	-0.149
-498.624	89.419	-0.058	0.065
-497.610	-200.000	0.103	0.703
-496.595	-200.000	-0.039	0.215
-495.581	-131.149	0.255	0.034
-494.566	-200.000	-0.029	0.218
-493.551	138.935	0.194	-0.255
-492.537	-90.276	0.129	-0.038
-491.522	252.564	-0.231	-0.394
-490.508	-200.000	0.014	-0.423
-489.493	161.662	0.098	0.138
-488.478	130.284	-0.063	-0.081
-487.464	-158.576	-0.101	-0.006
-486.449	129.312	-0.070	0.090
-485.435	-32.488	0.021	-0.011
-484.420	256.110	0.094	0.161
-483.405	-200.000	-0.014	0.159
-482.391	-200.000	-0.036	0.208
-481.376	44.761	-0.143	-0.131
-480.362	-97.843	-0.063	-0.016
-479.347	397.548	-0.122	0.256
-478.332	-55.501	-0.209	0.094
-477.318	-200.000	0.082	0.477
-476.303	800.000	-0.067	0.208
-475.289	-24.477	0.224	0.133
-474.274	800.000	-0.046	0.147
-473.259	-100.001	-0.258	0.064
-472.245	73.875	0.307	-0.322
-471.230	800.000	0.052	0.191
-470.216	518.286	-0.043	-0.100
-469.201	800.000	-0.051	-0.181
-468.186	130.577	0.173	-0.221
-467.172	-34.934	-0.169	0.092
-466.157	800.000	-0.048	-0.171
-465.143	183.106	0.163	0.240
-464.128	800.000	-0.091	-0.322
-463.113	343.290	0.029	-0.057
-462.099	81.732	0.142	-0.154
-461.084	173.978	0.106	-0.153
-460.070	470.594	-0.030	-0.067
-459.055	46.290	-0.162	0.150
-458.040	111.538	-0.108	0.130
-457.026	92.741	-0.092	-0.103
-456.011	-165.449	0.193	0.008
-454.997	-101.981	-0.066	0.016
-453.982	-200.000	0.003	0.058
-452.968	709.990	-0.031	0.081
-451.953	46.585	0.151	0.140
-450.938	-96.688	0.185	-0.049
-449.924	-200.000	-0.004	-0.038
-448.909	-200.000	0.014	-0.100
-447.895	79.599	0.163	0.174
-446.880	-200.000	0.007	-0.513
-445.865	18.286	-0.311	-0.248
-444.851	-35.420	-0.150	-0.082
-443.836	273.351	-0.231	-0.407
-442.822	800.000	0.072	0.290
-441.807	-69.602	-0.268	-0.103
-440.792	42.046	-0.313	0.284
-439.778	-200.000	-0.002	-0.139
-438.763	469.474	-0.119	0.267
-437.749	-80.351	-0.052	-0.017
-436.734	-85.039	0.466	0.146
-435.719	-200.000	0.008	-0.060
-434.705	69.651	-0.187	-0.192
-433.690	-200.000	-0.030	-0.312
-432.676	-200.000	0.001	0.189
-431.661	72.057	0.126	0.131
-430.646	439.179	0.154	-0.337
-429.632	-82.017	0.077	0.025
-428.617	259.295	-0.058	0.099
-427.603	-154.544	0.292	-0.019
-426.588	-200.000	0.015	-0.238
-425.573	-36.700	0.290	0.156
-424.559	800.000	0.040	-0.135
-423.544	227.396	0.117	-0.190
-422.530	-144.264	-0.489	0.045
-421.515	-200.000	-0.028	0.148
-420.500	102.517	0.151	-0.176
-419.486	-141.096	0.208	0.021
-418.471	-200.000	0.007	0.031
-417.457	-17.114	-0.130	-0.082
-416.442	-159.388	-0.163	-0.009
-415.428	-53.874	0.255	-0.116
-414.413	800.000	0.068	-0.288
-413.398	219.351	-0.196	0.312
-412.384	561.737	-0.104	0.251
-411.369	800.000	0.075	-0.238
-410.355	8.573	-0.114	0.085
-409.340	-65.022	0.272	0.109
-408.325	10.788	-0.063	-0.048
-407.311	174.184	0.096	-0.138
-406.296	-200.000	0.012	-0.229
-405.282	-141.057	0.103	0.011
-404.267	45.094	0.132	-0.122
-403.252	41.118	0.069	0.062
-402.238	33.307	0.213	0.184
-401.223	-129.583	0.185	0.025
-400.209	71.514	-0.047	-0.049
-399.194	161.577	-0.096	-0.135
-398.179	-90.339	0.341	-0.099
-397.165	800.000	-0.108	-0.341
-396.150	-142.812	-0.285	-0.028
-395.136	107.059	-0.161	0.191
-394.121	253.597	0.111	-0.190
-393.106	-200.000	-0.008	-0.153
-392.092	695.084	-0.050	-0.132
-391.077	-129.129	0.213	0.030
-390.063	103.597	0.132	-0.155
-389.048	-111.294	-0.307	0.062
-388.033	800.000	0.115	0.320
-387.019	135.970	0.022	-0.029
-386.004	767.458	-0.061	-0.164
-384.990	800.000	0.060	-0.191
-383.975	-9.491	0.175	-0.117
-382.960	800.000	-0.045	0.123
-381.946	-1.627	0.313	0.220
-380.931	4.578	-0.082	0.060
-379.917	97.599	0.215	-0.246
-378.902	75.561	0.117	0.123
-377.888	332.547	0.154	0.297
-376.873	198.110	-0.165	0.251
-375.858	-200.000	-0.014	0.248
-374.844	-60.428	0.252	-0.107
-373.829	27.290	-0.138	-0.115
-372.815	-200.000	-0.028	0.409
-371.800	-23.746	-0.208	0.124
-370.785	-200.000	-0.008	0.120
-369.771	-109.726	0.194	0.041
-368.756	290.536	0.085	-0.154
-367.742	-89.916	0.266	0.077
-366.727	-68.602	0.073	0.028
-365.712	-110.493	-0.132	-0.027
-364.698	-63.769	0.153	0.062
-363.683	-39.632	-0.069	-0.036
-362.669	800.000	0.078	-0.271
-361.654	-18.668	0.176	-0.109
-360.639	-200.000	-0.032	-0.147
-359.625	-83.860	-0.277	-0.088
-358.610	-200.000	0.007	0.235
-357.596	-163.449	-0.095	-0.005
-356.581	-200.000	-0.034	-0.539
-355.566	800.000	0.063	-0.198
-354.552	273.888	0.168	0.296
-353.537	287.939	0.124	0.223
-352.523	69.210	0.114	0.117
-351.508	-200.000	0.014	0.148
-350.493	35.544	0.089	0.078
-349.479	800.000	0.110	-0.313
-348.464	348.533	-0.108	-0.213
-347.450	34.153	0.096	0.084
-346.435	58.443	0.129	-0.126
-345.420	-19.859	-0.222	-0.136
-344.406	-200.000	-0.022	-0.267
-343.391	-135.451	-0.083	0.010
-342.377	215.838	0.154	-0.243
-341.362	111.086	0.108	0.129
-340.348	437.427	0.104	-0.225
-339.333	-115.434	-0.356	-0.067
-338.318	447.824	-0.074	0.162
-337.304	168.220	-0.061	-0.086
-336.289	208.253	-0.134	0.209
-335.275	99.195	0.044	0.051
-334.260	18.448	-0.179	-0.142
-333.245	53.020	-0.162	-0.155
-332.231	-66.268	0.153	0.061
-331.216	-71.469	0.119	0.044
-330.202	11.308	0.024	-0.018
-329.187	-128.163	-0.091	0.013
-328.172	-200.000	0.075	0.345
-327.158	-134.625	-0.461	-0.056
-326.143	800.000	-0.076	0.311
-325.129	-200.000	-0.000	-0.181
-324.114	800.000	0.112	-0.402
-323.099	262.452	-0.064	-0.111
-322.085	-200.000	0.009	-0.060
-321.070	-133.499	-0.062	-0.008
-320.056	-69.828	0.211	-0.080
-319.041	-124.671	0.282	0.043
-318.026	23.010	-0.065	0.053
-317.012	246.757	-0.228	-0.382
-315.997	353.626	-0.025	0.050
-314.983	800.000	-0.169	0.477
-313.968	1.397	-0.108	0.077
-312.953	-108.251	0.175	-0.038
-311.939	168.961	0.090	-0.128
-310.924	9.465	-0.185	0.139
-309.910	-62.041	-0.233	0.097
-308.895	112.805	-0.083	-0.099
-307.880	156.823	0.176	-0.242
-306.866	-146.644	-0.467	-0.040
-305.851	800.000	-0.034	0.141
-304.837	89.333	0.205	0.226
-303.822	-23.977	-0.389	0.231
-302.807	800.000	0.043	0.135
-301.793	-155.278	0.006	0.000
-300.778	-123.614	-0.209	0.033
-299.764	-200.000	0.055	0.317
-298.749	-99.628	-0.406	0.101
-297.735	-200.000	-0.025	0.268
-296.720	-106.247	0.103	-0.023
-295.705	197.860	-0.171	-0.259
-294.691	644.014	-0.056	-0.142
-293.676	128.179	-0.141	0.178
-292.662	86.244	0.340	0.372
-291.647	800.000	0.075	0.220
-290.632	60.789	0.059	0.058
-289.618	183.094	-0.099	-0.145
-288.603	-188.386	0.126	0.002
-287.589	-86.723	-0.273	0.083
-286.574	-50.799	-0.149	-0.069
-285.559	800.000	-0.055	-0.175
-284.545	451.088	0.055	0.120
-283.530	9.428	-0.250	-0.188
-282.516	207.798	-0.154	-0.238
-281.501	-156.619	0.279	0.017
-280.486	-200.000	0.001	-0.258
-279.472	171.982	0.229	-0.327
-278.457	-81.249	-0.243	0.080
-277.443	-52.134	-0.365	0.168
-276.428	-108.185	-0.332	-0.071
-275.413	-81.260	0.163	-0.053
-274.399	800.000	0.123	-0.356
-273.384	-200.000	0.002	-0.119
-272.370	-29.504	-0.169	-0.096
-271.355	-159.370	-0.139	0.008
-270.340	-200.000	0.010	0.090
-269.326	388.543	0.048	0.099
-268.311	-158.284	0.022	0.001
-267.297	714.213	-0.064	0.168
-266.282	10.137	0.493	0.372
-265.267	-79.870	0.228	-0.076
-264.253	19.398	-0.065	0.052
-263.238	-127.705	-0.177	-0.025
-262.224	5.659	0.046	0.033
-261.209	800.000	-0.029	0.124
-260.195	119.502	-0.346	0.425
-259.180	-200.000	0.030	0.175
-258.165	-179.559	-0.018	0.000
-257.151	62.721	0.186	-0.184
-256.136	800.000	-0.092	-0.314
-255.122	-200.000	-0.019	0.094
-254.107	70.139	-0.077	-0.079
-253.092	800.000	0.021	0.057
-252.078	286.108	-0.101	-0.181
-251.063	-81.571	-0.182	-0.059
-250.049	-85.161	-0.096	0.030
-249.034	-133.521	-0.271	0.034
-248.019	-52.449	-0.211	0.097
-247.005	-200.000	-0.013	0.138
-245.990	-61.910	-0.222	-0.092
-244.976	286.890	0.113	0.202
-243.961	-26.700	0.327	0.189
-242.946	32.340	0.160	0.137
-241.932	-200.000	-0.032	0.217
-240.917	-200.000	0.022	-0.141
-239.903	-6.159	-0.106	-0.072
-238.888	-122.927	0.059	-0.009
-237.873	-43.880	0.078	0.039
-236.859	-164.598	-0.184	0.008
-235.844	120.858	-0.078	0.096
-234.830	394.202	0.097	-0.200
-233.815	148.327	0.273	-0.366
-232.800	-103.245	-0.240	0.056
-231.786	-36.384	0.174	-0.093
-230.771	-200.000	0.018	0.094
-229.757	-82.434	0.413	0.133
-228.742	-92.637	0.145	0.040
-227.727	316.139	0.033	-0.062
-226.713	-17.127	0.277	0.173
-225.698	-21.170	0.286	-0.173
-224.684	800.000	0.055	0.213
-223.669	-147.186	0.157	-0.013
-222.655	-138.025	-0.391	0.043
-221.640	-7.019	-0.367	-0.246
-220.625	-64.704	0.145	-0.058
-219.611	340.180	-0.041	0.079
-218.596	613.095	-0.023	-0.057
-217.582	-8.073	0.228	-0.152
-216.567	-200.000	-0.042	-0.254
-215.552	2.297	-0.095	0.068
-214.538	-155.043	-0.188	-0.012
-213.523	406.253	0.098	0.205
-212.509	-85.698	0.118	0.036
-211.494	-200.000	0.021	-0.117
-210.479	-106.866	-0.270	0.059
-209.465	-98.813	-0.068	0.017
-208.450	164.484	0.182	-0.254
-207.436	154.508	-0.214	-0.291
-206.421	674.669	-0.109	0.279
-205.406	13.146	0.112	0.086
-204.392	62.115	0.078	0.077
-203.377	276.303	-0.052	0.091
-202.363	155.612	0.136	-0.185
-201.348	-72.393	0.345	0.126
-200.333	-8.997	-0.314	-0.208
-199.319	-92.332	0.143	0.040
-198.304	-118.698	-0.149	0.026
-197.290	-200.000	0.025	-0.238
-196.275	-74.530	-0.172	-0.061
-195.260	757.005	-0.077	-0.207
-194.246	174.272	-0.062	-0.089
-193.231	800.000	-0.085	0.328
-192.217	-145.558	0.482	0.043
-191.202	-110.714	0.430	0.088
-190.187	259.536	0.080	0.137
-189.173	-187.036	-0.246	0.003
-188.158	-60.681	0.273	-0.115
-187.144	112.943	0.068	-0.081
-186.129	528.684	-0.048	0.112
-185.114	-200.000	-0.010	-0.160
-184.100	-22.877	0.030	-0.018
-183.085	428.882	-0.051	-0.109
-182.071	143.451	0.130	0.171
-181.056	-130.957	0.314	0.041
-180.042	-148.746	0.254	-0.020
-179.027	-95.550	0.366	0.097
-178.012	-10.078	0.210	0.138
-176.998	-200.000	0.020	-0.240
-175.983	-80.099	0.228	-0.075
-174.969	202.960	0.140	-0.214
-173.954	-58.996	0.204	-0.087
-172.939	-4.665	-0.235	0.161
-171.925	-200.000	0.032	0.282
-170.910	365.349	0.128	-0.254
-169.896	-159.271	-0.123	0.007
-168.881	48.808	0.188	-0.174
-167.866	-160.140	0.579	-0.031
-166.852	-200.000	-0.021	0.265
-165.837	291.126	-0.180	-0.324
-164.823	504.711	0.108	-0.247
-163.808	-166.561	-0.235	-0.010
-162.793	-78.846	0.133	0.045
-161.779	-34.695	0.149	-0.080
-160.764	-167.101	-0.268	0.011
-159.750	-200.000	-0.074	0.336
-158.735	800.000	0.077	-0.302
-157.720	352.904	0.045	-0.088
-156.706	800.000	-0.049	0.188
-155.691	-200.000	0.029	0.141
-154.677	800.000	0.044	-0.144
-153.662	-40.404	-0.113	-0.058
-152.647	800.000	0.078	-0.264
-151.633	593.414	-0.030	-0.072
-150.618	-99.945	0.271	-0.067
-149.604	69.071	-0.070	-0.071
-148.589	-168.942	-0.107	0.004
-147.574	188.889	0.111	-0.164
-146.560	158.638	0.039	0.054
-145.545	-113.576	-0.103	-0.020
-144.531	311.400	-0.126	-0.234
-143.516	-5.415	-0.089	-0.061
-142.502	-0.345	0.409	0.287
-141.487	-71.193	0.071	-0.026
-140.472	-200.000	0.028	-0.221
-139.458	208.297	0.207	0.319
-138.443	340.669	0.101	0.195
-137.429	800.000	0.062	0.208
-136.414	-55.422	-0.163	0.072
-135.399	599.668	-0.048	-0.116
-134.385	-200.000	-0.069	-0.355
-133.370	-200.000	0.066	0.324
-132.356	-37.579	-0.167	-0.088
-131.341	800.000	-0.066	0.282
-130.326	330.261	0.152	0.289
-129.312	117.407	-0.178	0.216
-128.297	-154.290	-0.213	0.014
-127.283	125.437	-0.115	-0.143
-126.268	-200.000	-0.055	-0.470
-125.253	800.000	0.147	-0.581
-124.239	83.927	0.351	0.378
-123.224	-115.528	0.182	-0.034
-122.210	-155.328	-0.168	-0.011
