DTS Sentinel unit serial number:	SN413079Multiplexer serial number:	ORYXHardware model number:	OX4-SRSoftware version number:	ORYX F/W v4.00 Oryx Data Collector v3.7.2.0data status	okinstallation	princeton_trtdifferential loss correction	single-endedforward channel	channel 3reverse channel	N/Adate	2019/09/11time	06:30:10forward acquisition time	60.00reverse acquisition time	0.00gamma	496.2192k internal	0.2330k external	0.2330temperature offset calibration	0.9909default loss term (dB/km)	0.3790temperature slope calibration	1.0000multiplexer offset coefficient	1.0000multiplexer slope coefficient	1.0000fibre end	0.00T internal ref (°C)	29.62T ext. ref 1 (°C)	-0.17T ext. ref 2 (°C)	24.31length (m)	temperature (°C)	Stokes	anti-Stokes-747.200	-34.282	0.204	-0.113
-746.185	-200.000	0.000	-0.052
-745.171	199.203	0.189	0.291
-744.156	-18.606	0.161	-0.101
-743.142	-120.297	0.297	0.051
-742.127	-64.401	-0.257	0.105
-741.112	-131.241	-0.156	-0.021
-740.098	634.304	0.071	0.182
-739.083	55.317	-0.209	0.203
-738.069	-86.222	-0.224	-0.069
-737.054	7.809	-0.234	-0.177
-736.039	34.355	-0.216	-0.190
-735.025	-69.840	-0.127	0.049
-734.010	175.113	0.195	-0.284
-732.996	773.682	-0.041	-0.112
-731.981	-200.000	0.069	-0.311
-730.966	12.639	-0.156	0.121
-729.952	35.678	-0.073	0.065
-728.937	-34.723	-0.104	-0.057
-727.923	161.525	-0.187	0.263
-726.908	-17.172	-0.072	-0.046
-725.894	-89.971	-0.223	-0.065
-724.879	141.242	-0.160	-0.213
-723.864	400.457	-0.047	0.099
-722.850	-200.000	0.023	-0.142
-721.835	-106.702	0.560	0.125
-720.821	-200.000	0.016	0.216
-719.806	-131.640	-0.242	-0.032
-718.791	122.746	-0.228	-0.287
-717.777	-29.823	0.297	0.170
-716.762	-82.086	-0.074	-0.024
-715.748	531.019	0.042	-0.099
-714.733	-58.875	0.176	-0.077
-713.718	-200.000	0.048	-0.429
-712.704	276.178	-0.057	-0.102
-711.689	-45.023	-0.583	-0.292
-710.675	-200.000	0.011	-0.194
-709.660	-110.990	0.350	-0.072
-708.645	138.421	0.044	0.058
-707.631	140.634	-0.095	-0.126
-706.616	51.954	0.061	0.058
-705.602	-151.123	0.226	-0.017
-704.587	-44.944	0.172	0.086
-703.572	-200.000	-0.049	-0.223
-702.558	-200.000	-0.026	-0.177
-701.543	28.825	0.037	0.032
-700.529	-106.663	0.218	0.049
-699.514	-200.000	-0.024	-0.130
-698.499	800.000	0.128	-0.405
-697.485	-198.347	0.159	0.001
-696.470	-32.270	0.128	0.072
-695.456	-100.280	0.301	0.075
-694.441	-111.482	0.091	0.019
-693.426	-77.633	-0.208	0.072
-692.412	408.265	-0.119	0.253
-691.397	723.204	-0.025	-0.066
-690.383	800.000	-0.044	0.136
-689.368	308.596	-0.089	0.166
-688.354	-96.153	0.195	0.052
-687.339	49.625	0.051	0.048
-686.324	197.031	0.031	0.047
-685.310	272.626	-0.123	-0.219
-684.295	-117.444	0.244	0.044
-683.281	-200.000	-0.013	0.173
-682.266	-121.292	0.268	-0.045
-681.251	800.000	0.047	-0.201
-680.237	156.584	-0.077	0.107
-679.222	-86.505	0.347	-0.107
-678.208	-129.617	-0.325	-0.045
-677.193	493.599	0.067	0.154
-676.178	-200.000	-0.003	-0.038
-675.164	151.155	-0.084	0.115
-674.149	76.715	-0.261	-0.278
-673.135	-84.843	0.142	-0.045
-672.120	-200.000	-0.003	-0.135
-671.105	-17.217	0.089	-0.056
-670.091	219.759	-0.119	0.191
-669.076	177.442	0.021	-0.031
-668.062	-78.848	0.201	0.069
-667.047	-200.000	-0.001	-0.221
-666.032	350.097	-0.034	-0.067
-665.018	-148.814	-0.053	-0.004
-664.003	-54.445	0.345	0.157
-662.989	-153.144	-0.122	-0.009
-661.974	-26.595	-0.226	-0.133
-660.959	-68.377	-0.413	0.161
-659.945	-90.561	0.234	-0.068
-658.930	800.000	0.098	-0.309
-657.916	-200.000	-0.007	-0.067
-656.901	800.000	-0.060	0.228
-655.886	-54.887	0.259	-0.117
-654.872	-194.727	-0.091	-0.001
-653.857	214.052	0.118	0.187
-652.843	-36.434	0.215	-0.116
-651.828	-83.485	-0.350	0.112
-650.814	-109.518	0.079	0.017
-649.799	800.000	-0.126	0.441
-648.784	-200.000	0.028	-0.186
-647.770	800.000	0.041	-0.162
-646.755	-74.157	-0.125	0.046
-645.741	59.900	-0.254	-0.252
-644.726	568.871	0.069	0.168
-643.711	800.000	-0.051	-0.214
-642.697	-151.619	-0.044	-0.003
-641.682	12.699	0.368	0.285
-640.668	800.000	0.050	0.208
-639.653	106.976	0.135	-0.161
-638.638	-200.000	-0.007	-0.122
-637.624	98.326	0.009	0.010
-636.609	158.659	0.176	-0.245
-635.595	-15.655	0.145	-0.093
-634.580	190.979	0.021	0.031
-633.565	194.784	-0.045	-0.069
-632.551	50.192	-0.099	-0.093
-631.536	-200.000	0.352	0.000
-630.522	-200.000	0.011	-0.115
-629.507	36.468	-0.168	0.149
-628.492	224.383	-0.066	0.107
-627.478	800.000	0.079	0.241
-626.463	84.031	-0.134	-0.147
-625.449	-29.974	-0.179	-0.102
-624.434	-200.000	-0.011	-0.267
-623.419	548.799	0.098	-0.234
-622.405	83.298	-0.104	0.113
-621.390	125.221	-0.089	-0.113
-620.376	800.000	-0.047	-0.134
-619.361	48.481	-0.155	0.145
-618.346	-108.039	-0.025	-0.005
-617.332	800.000	0.037	-0.151
-616.317	-27.151	-0.230	-0.134
-615.303	469.315	0.083	-0.186
-614.288	-53.068	0.302	0.139
-613.273	-65.052	-0.149	-0.060
-612.259	-200.000	0.036	0.326
-611.244	168.116	-0.196	-0.279
-610.230	264.772	0.167	-0.291
-609.215	116.722	0.149	-0.183
-608.201	156.674	-0.081	-0.112
-607.186	-200.000	-0.034	-0.406
-606.171	321.516	0.133	-0.254
-605.157	-200.000	0.025	-0.320
-604.142	68.981	0.171	-0.176
-603.128	131.496	-0.132	0.170
-602.113	203.426	-0.116	-0.179
-601.098	147.745	0.111	-0.150
-600.084	800.000	0.082	0.275
-599.069	-108.034	0.189	0.041
-598.055	800.000	0.026	-0.092
-597.040	184.280	0.098	-0.145
-596.025	-78.443	0.118	0.040
-595.011	-86.957	-0.177	0.054
-593.996	-67.115	0.294	-0.116
-592.982	800.000	0.049	-0.137
-591.967	-200.000	-0.015	-0.074
-590.952	-47.948	0.164	-0.079
-589.938	-63.896	-0.498	-0.204
-588.923	71.002	0.018	0.018
-587.909	-126.712	-0.244	-0.036
-586.894	76.483	0.106	-0.112
-585.879	-169.227	0.188	-0.007
-584.865	635.385	-0.113	-0.287
-583.850	800.000	0.059	0.217
-582.836	-200.000	-0.039	-0.172
-581.821	800.000	-0.048	0.153
-580.806	-109.222	-0.305	0.065
-579.792	134.708	-0.224	0.290
-578.777	119.825	-0.164	0.203
-577.763	208.288	0.138	-0.216
-576.748	-200.000	-0.023	0.270
-575.733	547.520	-0.088	-0.210
-574.719	287.572	-0.107	0.193
-573.704	-101.571	0.037	0.009
-572.690	-130.872	-0.453	-0.061
-571.675	-200.000	0.001	-0.125
-570.661	-135.317	0.355	-0.043
-569.646	-90.025	0.339	-0.099
-568.631	498.543	0.041	-0.095
-567.617	108.584	-0.127	0.151
-566.602	-27.099	-0.099	-0.058
-565.588	24.112	0.100	-0.083
-564.573	-139.034	-0.266	0.029
-563.558	222.961	0.197	-0.317
-562.544	-17.614	0.226	-0.142
-561.529	135.808	-0.176	-0.229
-560.515	-43.748	-0.284	-0.143
-559.500	564.568	0.077	-0.187
-558.485	548.912	0.056	-0.134
-557.471	141.529	0.121	0.160
-556.456	-200.000	-0.019	0.091
-555.442	548.426	-0.088	-0.211
-554.427	800.000	0.075	0.259
-553.412	-200.000	-0.046	0.232
-552.398	-134.322	0.162	0.020
-551.383	136.896	-0.049	-0.064
-550.369	195.043	0.101	0.153
-549.354	314.267	0.139	0.261
-548.339	800.000	-0.054	0.187
-547.325	34.631	0.183	0.160
-546.310	-103.821	0.098	-0.023
-545.296	-200.000	-0.027	-0.344
-544.281	293.211	0.031	-0.056
-543.266	-58.804	-0.108	-0.047
-542.252	384.320	-0.104	0.215
-541.237	-131.069	0.446	0.059
-540.223	-9.783	0.418	0.278
-539.208	109.762	-0.078	-0.093
-538.193	697.673	0.100	-0.263
-537.179	121.412	0.091	-0.113
-536.164	87.429	0.132	0.146
-535.150	12.283	-0.032	-0.024
-534.135	-106.874	0.232	-0.051
-533.121	800.000	-0.065	-0.213
-532.106	728.100	0.064	-0.170
-531.091	-200.000	0.025	-0.212
-530.077	800.000	0.041	-0.156
-529.062	227.579	0.104	0.168
-528.048	38.778	0.092	-0.082
-527.033	195.165	-0.059	-0.090
-526.018	69.848	-0.170	-0.175
-525.004	-200.000	0.015	-0.173
-523.989	84.632	-0.055	-0.060
-522.975	-134.854	-0.298	0.036
-521.960	-40.324	-0.167	0.087
-520.945	-28.699	-0.178	-0.102
-519.931	-200.000	0.095	-0.459
-518.916	370.668	-0.201	-0.407
-517.902	-124.428	-0.230	-0.036
-516.887	-105.083	0.326	0.074
-515.872	800.000	0.047	-0.191
-514.858	-8.164	0.100	-0.067
-513.843	-16.430	-0.245	0.155
-512.829	39.929	0.053	0.048
-511.814	342.700	-0.087	0.169
-510.799	800.000	0.020	0.057
-509.785	357.625	0.069	-0.138
-508.770	800.000	-0.089	-0.333
-507.756	-200.000	-0.010	-0.061
-506.741	-200.000	-0.051	0.382
-505.726	-7.451	-0.111	-0.075
-504.712	-115.354	-0.200	0.038
-503.697	112.418	-0.131	0.158
-502.683	800.000	0.017	-0.059
-501.668	332.103	-0.068	0.131
-500.653	-120.356	-0.180	0.031
-499.639	-200.000	0.032	-0.468
-498.624	115.200	-0.111	0.135
-497.610	-14.412	0.269	0.173
-496.595	2.745	-0.108	0.078
-495.581	-60.382	-0.166	0.070
-494.566	-200.000	-0.005	-0.128
-493.551	326.731	0.067	-0.128
-492.537	800.000	0.060	0.200
-491.522	795.411	-0.085	0.233
-490.508	-200.000	0.055	0.253
-489.493	519.638	-0.071	0.167
-488.478	-200.000	-0.086	0.000
-487.464	4.845	-0.074	-0.054
-486.449	-115.377	-0.117	-0.022
-485.435	106.383	-0.086	0.101
-484.420	3.403	-0.343	-0.249
-483.405	-26.446	0.105	-0.061
-482.391	-68.451	0.250	-0.097
-481.376	96.876	-0.191	-0.218
-480.362	-157.334	-0.125	-0.008
-479.347	0.936	-0.103	0.073
-478.332	134.534	0.096	0.124
-477.318	29.062	0.184	-0.155
-476.303	236.113	0.068	-0.112
-475.289	-2.012	0.111	-0.078
-474.274	57.365	0.182	0.177
-473.259	-59.962	-0.140	0.059
-472.245	-103.096	-0.144	-0.034
-471.230	-82.422	-0.166	-0.054
-470.216	388.090	-0.189	-0.390
-469.201	800.000	-0.126	-0.374
-468.186	-200.000	-0.004	0.126
-467.172	-200.000	-0.017	0.345
-466.157	-44.529	-0.396	0.197
-465.143	-148.204	-0.198	-0.016
-464.128	232.370	0.084	0.138
-463.113	21.886	-0.093	0.076
-462.099	-120.431	0.160	-0.027
-461.084	-67.373	-0.333	0.130
-460.070	-39.522	-0.155	0.081
-459.055	-200.000	0.042	-0.229
-458.040	-200.000	0.002	0.209
-457.026	800.000	-0.046	0.184
-456.011	800.000	-0.085	0.358
-454.997	149.516	-0.151	-0.203
-453.982	175.918	0.039	0.056
-452.968	-71.803	-0.136	-0.050
-451.953	-160.410	-0.307	-0.016
-450.938	-25.415	-0.160	-0.094
-449.924	-47.969	-0.190	-0.092
-448.909	-200.000	0.014	-0.060
-447.895	-200.000	0.031	0.156
-446.880	210.721	0.111	0.173
-445.865	-17.280	-0.198	-0.124
-444.851	238.611	-0.090	0.148
-443.836	-200.000	-0.038	0.410
-442.822	-200.000	0.018	0.277
-441.807	800.000	-0.057	-0.226
-440.792	-159.477	-0.289	0.016
-439.778	-200.000	-0.012	0.154
-438.763	430.879	-0.101	0.217
-437.749	181.053	0.106	-0.155
-436.734	654.984	-0.063	0.162
-435.719	8.813	0.022	-0.016
-434.705	-8.195	0.067	-0.045
-433.690	-200.000	-0.008	0.192
-432.676	-76.401	0.178	0.062
-431.661	-41.096	-0.128	-0.066
-430.646	-200.000	-0.017	0.452
-429.632	-200.000	-0.017	-0.300
-428.617	129.641	0.033	-0.043
-427.603	-200.000	-0.001	-0.229
-426.588	-85.403	-0.178	0.055
-425.573	-135.041	-0.344	-0.041
-424.559	-21.014	0.226	-0.137
-423.544	800.000	-0.017	0.070
-422.530	53.988	-0.018	-0.017
-421.515	202.227	-0.085	0.130
-420.500	-30.261	0.178	-0.100
-419.486	759.634	-0.063	0.169
-418.471	-82.604	-0.335	0.108
-417.457	800.000	-0.059	0.199
-416.442	-5.769	0.161	0.110
-415.428	-131.819	-0.667	-0.087
-414.413	-200.000	-0.093	0.531
-413.398	-99.424	-0.324	0.081
-412.384	132.668	-0.077	-0.098
-411.369	-55.330	-0.255	-0.114
-410.355	-132.523	0.269	0.034
-409.340	100.890	-0.067	0.077
-408.325	-149.567	-0.228	-0.018
-407.311	800.000	-0.082	0.251
-406.296	-98.179	-0.313	0.080
-405.282	128.505	0.068	-0.086
-404.267	351.408	-0.043	-0.085
-403.252	-200.000	-0.067	0.315
-402.238	-85.565	-0.012	0.004
-401.223	-200.000	-0.018	0.126
-400.209	-200.000	0.002	-0.285
-399.194	-200.000	0.027	-0.234
-398.179	-27.565	0.139	-0.080
-397.165	-28.265	0.149	0.085
-396.150	800.000	0.118	-0.356
-395.136	-150.065	0.172	-0.013
-394.121	-200.000	0.053	-0.244
-393.106	525.742	-0.059	-0.139
-392.092	-200.000	-0.018	-0.161
-391.077	-49.784	-0.162	-0.076
-390.063	291.017	0.118	-0.212
-389.048	532.629	0.084	0.198
-388.033	129.228	-0.117	0.148
-387.019	-120.870	0.045	-0.008
-386.004	-105.983	0.174	0.039
-384.990	800.000	0.052	-0.146
-383.975	-21.866	-0.181	-0.109
-382.960	340.009	0.112	0.217
-381.946	-121.823	-0.082	0.014
-380.931	-200.000	-0.007	-0.243
-379.917	656.432	0.116	-0.296
-378.902	-200.000	0.000	-0.089
-377.888	800.000	-0.149	0.516
-376.873	52.871	0.200	0.189
-375.858	457.594	-0.098	-0.216
-374.844	182.037	-0.043	-0.063
-373.829	-137.759	0.266	-0.030
-372.815	-25.051	0.100	-0.059
-371.800	155.215	0.185	-0.253
-370.785	332.538	0.175	0.336
-369.771	-134.893	0.149	-0.018
-368.756	-200.000	-0.011	0.393
-367.742	800.000	0.009	-0.033
-366.727	-170.300	-0.120	0.004
-365.712	-200.000	-0.072	0.334
-364.698	-110.007	0.150	0.031
-363.683	244.296	0.048	-0.079
-362.669	204.409	0.176	0.271
-361.654	-200.000	-0.019	0.124
-360.639	183.508	-0.040	-0.058
-359.625	22.284	-0.039	-0.031
-358.610	-13.095	-0.106	-0.068
-357.596	557.614	0.089	0.212
-356.581	-84.532	-0.202	0.063
-355.566	-60.729	0.084	0.035
-354.552	49.857	0.132	-0.123
-353.537	301.434	-0.176	0.322
-352.523	109.579	-0.083	-0.099
-351.508	-56.607	-0.259	0.114
-350.493	-200.000	0.009	0.199
-349.479	-139.019	-0.208	-0.022
-348.464	-0.396	0.205	-0.144
-347.450	-200.000	0.029	-0.219
-346.435	800.000	0.115	0.328
-345.420	37.495	0.198	0.174
-344.406	305.282	-0.047	-0.087
-343.391	450.237	0.139	-0.304
-342.377	-200.000	-0.006	-0.147
-341.362	710.289	-0.046	0.121
-340.348	260.811	0.205	0.352
-339.333	468.280	0.167	-0.371
-338.318	-127.661	0.073	0.010
-337.304	800.000	0.075	0.312
-336.289	84.266	-0.105	0.114
-335.275	-16.328	-0.008	-0.005
-334.260	800.000	-0.065	0.265
-333.245	-95.728	0.165	0.044
-332.231	800.000	-0.069	-0.290
-331.216	-1.463	-0.279	-0.195
-330.202	-200.000	0.018	-0.340
-329.187	-200.000	-0.018	-0.390
-328.172	146.405	-0.123	0.164
-327.158	30.957	0.055	0.046
-326.143	299.153	0.175	0.319
-325.129	56.434	0.083	-0.080
-324.114	-200.000	-0.041	0.194
-323.099	-200.000	0.025	-0.321
-322.085	-47.551	0.188	-0.090
-321.070	-95.508	0.268	0.071
-320.056	256.491	-0.159	-0.270
-319.041	541.946	-0.097	-0.229
-318.026	-81.175	0.241	0.079
-317.012	251.239	0.155	-0.260
-315.997	-151.892	0.440	-0.032
-314.983	88.507	-0.046	0.050
-313.968	-200.000	0.020	-0.170
-312.953	800.000	0.072	0.215
-311.939	-147.530	-0.240	0.020
-310.924	193.690	-0.068	0.102
-309.910	-136.196	0.224	-0.026
-308.895	149.297	-0.363	0.486
-307.880	-200.000	0.025	-0.153
-306.866	-200.000	0.054	0.260
-305.851	-200.000	-0.008	0.058
-304.837	209.350	-0.167	-0.260
-303.822	75.273	-0.144	-0.151
-302.807	3.214	0.093	-0.067
-301.793	-200.000	0.027	0.266
-300.778	10.825	0.211	0.160
-299.764	198.088	0.240	-0.363
-298.749	482.620	-0.171	-0.385
-297.735	-200.000	0.028	-0.179
-296.720	-167.108	0.302	-0.012
-295.705	73.311	-0.157	0.162
-294.691	28.562	0.231	-0.193
-293.676	48.554	0.146	-0.135
-292.662	328.383	-0.144	0.273
-291.647	-200.000	0.016	-0.105
-290.632	-200.000	-0.045	0.225
-289.618	-105.616	-0.349	0.078
-288.603	328.838	0.068	-0.129
-287.589	-64.720	0.023	0.009
-286.574	-118.017	-0.321	0.057
-285.559	108.772	-0.064	-0.076
-284.545	208.093	-0.234	-0.361
-283.530	-186.612	-0.521	0.007
-282.516	800.000	0.035	-0.133
-281.501	-142.384	0.384	0.037
-280.486	800.000	0.040	0.114
-279.472	-82.910	0.057	-0.018
-278.457	-125.355	0.288	-0.043
-277.443	-200.000	-0.020	-0.260
-276.428	43.940	-0.291	0.264
-275.413	106.190	-0.146	0.171
-274.399	-132.658	0.315	0.040
-273.384	183.905	-0.139	0.203
-272.370	-31.144	0.122	0.068
-271.355	800.000	-0.089	0.251
-270.340	-38.315	0.168	-0.088
-269.326	-127.830	0.199	0.028
-268.311	-22.402	0.299	-0.179
-267.297	-48.506	-0.190	-0.090
-266.282	-1.365	-0.257	-0.179
-265.267	64.242	-0.236	-0.234
-264.253	45.813	-0.116	-0.106
-263.238	-136.949	0.191	0.022
-262.224	105.816	0.058	0.068
-261.209	-45.133	-0.115	-0.056
-260.195	800.000	-0.096	0.334
-259.180	49.963	0.124	-0.115
-258.165	-126.020	0.203	-0.030
-257.151	42.492	0.088	-0.079
-256.136	88.389	0.076	0.083
-255.122	98.499	0.077	-0.088
-254.107	444.966	0.067	0.145
-253.092	-166.669	-0.115	-0.005
-252.078	523.638	0.015	0.034
-251.063	23.318	0.083	0.067
-250.049	5.220	-0.091	-0.066
-249.034	-9.893	-0.225	-0.148
-248.019	784.234	-0.067	-0.181
-247.005	80.465	-0.086	0.092
-245.990	-140.483	0.182	0.019
-244.976	-151.826	0.056	0.004
-243.961	383.191	-0.069	0.141
-242.946	-171.040	0.415	-0.014
-241.932	29.266	0.155	0.130
-240.917	-86.859	-0.074	-0.022
-239.903	752.961	-0.074	0.198
-238.888	654.337	0.135	0.341
-237.873	-200.000	-0.044	0.264
-236.859	6.539	-0.162	0.119
-235.844	-200.000	-0.008	0.119
-234.830	-175.073	0.307	-0.008
-233.815	-200.000	0.022	-0.112
-232.800	-200.000	-0.005	0.160
-231.786	60.614	-0.129	-0.126
-230.771	800.000	0.061	-0.220
-229.757	-143.068	-0.194	-0.019
-228.742	159.793	-0.176	0.242
-227.727	-52.073	0.046	-0.021
-226.713	383.544	0.070	-0.141
-225.698	311.434	-0.111	0.205
-224.684	8.600	-0.240	0.179
-223.669	800.000	-0.117	0.420
-222.655	-88.171	0.155	0.046
-221.640	800.000	0.066	-0.258
-220.625	-200.000	-0.001	0.056
-219.611	-197.070	0.254	-0.002
-218.596	-46.195	0.097	-0.047
-217.582	553.580	0.077	0.182
-216.567	25.746	0.181	-0.149
-215.552	-82.521	0.299	-0.096
-214.538	-73.792	0.197	-0.071
-213.523	-52.510	-0.513	-0.234
-212.509	63.460	0.330	-0.326
-211.494	-20.649	-0.164	0.099
-210.479	-140.649	0.263	0.027
-209.465	119.307	0.233	-0.285
-208.450	-156.041	-0.259	-0.016
-207.436	654.127	-0.036	-0.091
-206.421	-35.235	0.289	0.155
-205.406	-200.000	0.075	0.509
-204.392	2.446	-0.340	0.242
-203.377	-121.765	0.152	-0.025
-202.363	351.543	-0.106	-0.207
-201.348	-34.096	0.217	0.118
-200.333	81.234	0.083	-0.088
-199.319	-200.000	0.046	0.245
-198.304	800.000	-0.034	0.139
-197.290	-140.088	0.119	0.012
-196.275	-72.474	0.136	-0.049
-195.260	48.695	0.068	-0.063
-194.246	800.000	0.150	-0.469
-193.231	-139.897	0.135	0.014
-192.217	42.015	-0.056	0.050
-191.202	-200.000	0.027	0.175
-190.187	95.559	0.231	0.259
-189.173	-200.000	-0.036	-0.167
-188.158	800.000	-0.122	0.374
-187.144	-131.006	-0.195	0.026
-186.129	-135.155	0.276	0.033
-185.114	265.582	0.143	0.246
-184.100	-200.000	-0.014	0.209
-183.085	-200.000	-0.016	0.255
-182.071	-54.033	0.139	0.062
-181.056	-200.000	-0.040	-0.205
-180.042	-13.207	0.329	-0.211
-179.027	98.103	-0.239	-0.271
-178.012	-200.000	-0.068	-0.390
-176.998	-26.665	-0.196	0.113
-175.983	-200.000	0.058	0.000
-174.969	-106.823	0.177	0.039
-173.954	-113.572	0.184	0.035
-172.939	11.481	0.431	0.325
-171.925	800.000	0.032	-0.118
-170.910	-200.000	0.025	0.143
-169.896	86.493	0.084	0.091
-168.881	457.592	0.062	0.136
-167.866	-122.726	0.078	0.012
-166.852	-174.018	0.149	0.004
-165.837	-119.128	-0.255	0.044
-164.823	-200.000	-0.040	0.194
-163.808	-31.500	-0.113	-0.063
-162.793	-49.045	-0.150	-0.071
-161.779	354.682	-0.072	0.141
-160.764	-51.896	0.104	0.048
-159.750	611.454	0.111	0.273
-158.735	167.430	0.033	0.046
-157.720	-200.000	0.008	0.287
-156.706	800.000	-0.061	0.184
-155.691	-200.000	0.028	-0.167
-154.677	-117.898	0.287	-0.051
-153.662	-101.940	0.178	-0.042
-152.647	800.000	0.063	0.214
-151.633	-200.000	-0.018	0.409
-150.618	-91.290	0.028	0.008
-149.604	800.000	-0.062	-0.200
-148.589	800.000	-0.112	0.404
-147.574	800.000	-0.018	-0.059
-146.560	-59.382	-0.252	0.107
-145.545	-100.285	0.144	-0.035
-144.531	-4.125	0.237	0.162
-143.516	-200.000	0.006	0.282
-142.502	-200.000	0.010	0.181
-141.487	-200.000	-0.055	-0.342
-140.472	429.195	0.115	-0.245
-139.458	-116.822	-0.280	-0.051
-138.443	94.555	-0.045	-0.050
-137.429	-200.000	-0.031	0.299
-136.414	149.131	-0.116	-0.155
-135.399	-135.982	0.165	-0.019
-134.385	-200.000	0.006	0.231
-133.370	261.511	-0.090	0.153
-132.356	800.000	-0.061	0.187
-131.341	800.000	0.099	0.381
-130.326	-139.269	-0.351	0.037
-129.312	-55.132	0.067	0.030
-128.297	-139.112	-0.272	-0.029
-127.283	-200.000	0.000	-0.190
-126.268	800.000	-0.037	0.144
-125.253	37.079	0.108	-0.094
-124.239	108.696	-0.193	0.226
-123.224	-5.087	0.202	-0.137
