DTS Sentinel unit serial number:	SN413079Multiplexer serial number:	ORYXHardware model number:	OX4-SRSoftware version number:	ORYX F/W v4.00 Oryx Data Collector v3.7.2.0data status	okinstallation	princeton_trtdifferential loss correction	single-endedforward channel	channel 3reverse channel	N/Adate	2019/09/11time	20:18:11forward acquisition time	60.00reverse acquisition time	0.00gamma	496.2192k internal	0.2302k external	0.2302temperature offset calibration	1.0025default loss term (dB/km)	0.3790temperature slope calibration	1.0000multiplexer offset coefficient	1.0000multiplexer slope coefficient	1.0000fibre end	0.00T internal ref (°C)	38.00T ext. ref 1 (°C)	1.43T ext. ref 2 (°C)	31.47length (m)	temperature (°C)	Stokes	anti-Stokes-747.200	660.478	0.135	0.356
-746.185	-99.090	-0.177	0.046
-745.171	-200.000	-0.027	-0.348
-744.156	800.000	-0.058	0.232
-743.142	800.000	0.050	-0.181
-742.127	215.653	-0.153	0.248
-741.112	44.758	0.046	-0.043
-740.098	-200.000	-0.016	0.193
-739.083	-103.506	0.411	0.098
-738.069	30.545	-0.142	0.124
-737.054	-106.186	0.158	-0.036
-736.039	800.000	-0.018	0.066
-735.025	41.770	0.222	0.205
-734.010	800.000	0.044	-0.144
-732.996	800.000	-0.096	-0.377
-731.981	-200.000	0.010	-0.085
-730.966	-200.000	-0.021	0.186
-729.952	-72.779	0.271	0.102
-728.937	285.132	-0.162	-0.298
-727.923	-78.161	-0.291	0.102
-726.908	-200.000	-0.009	-0.187
-725.894	800.000	0.031	-0.088
-724.879	-125.864	-0.372	0.057
-723.864	-170.735	0.241	-0.008
-722.850	-200.000	0.052	-0.291
-721.835	239.910	-0.093	-0.157
-720.821	-19.951	-0.295	-0.186
-719.806	-35.619	-0.133	0.073
-718.791	-3.575	0.248	-0.176
-717.777	-200.000	-0.046	-0.347
-716.762	800.000	-0.027	0.110
-715.748	-200.000	0.052	-0.274
-714.733	76.130	0.189	-0.204
-713.718	69.437	-0.111	0.116
-712.704	-68.135	-0.049	-0.020
-711.689	800.000	-0.073	0.212
-710.675	-58.454	0.255	-0.113
-709.660	146.317	-0.286	-0.390
-708.645	800.000	0.116	-0.348
-707.631	-61.088	-0.093	0.040
-706.616	-147.240	-0.113	-0.010
-705.602	-66.873	-0.126	0.051
-704.587	800.000	-0.064	0.261
-703.572	6.853	-0.355	0.269
-702.558	43.070	0.209	-0.194
-701.543	-200.000	-0.027	-0.144
-700.529	454.128	-0.056	-0.125
-699.514	-37.706	-0.295	-0.160
-698.499	591.843	-0.113	0.283
-697.485	202.077	-0.145	0.227
-696.470	-55.626	-0.176	0.080
-695.456	-188.159	0.377	0.005
-694.441	458.401	-0.051	0.115
-693.426	-200.000	0.006	0.099
-692.412	-200.000	0.013	-0.258
-691.397	-72.231	0.033	-0.012
-690.383	-200.000	0.000	-0.155
-689.368	159.470	0.171	0.242
-688.354	-8.798	-0.140	0.096
-687.339	-119.248	0.043	-0.008
-686.324	-111.768	0.454	0.093
-685.310	7.589	-0.205	0.156
-684.295	800.000	-0.064	0.230
-683.281	-151.752	-0.303	0.023
-682.266	76.424	-0.116	-0.125
-681.251	-167.323	-0.043	0.002
-680.237	179.785	-0.147	0.219
-679.222	377.882	-0.069	0.144
-678.208	129.964	-0.269	-0.349
-677.193	-115.401	0.145	-0.028
-676.178	50.511	0.212	-0.204
-675.164	42.563	-0.212	-0.196
-674.149	-53.713	0.103	-0.048
-673.135	86.125	-0.218	-0.244
-672.120	400.445	0.063	-0.135
-671.105	-200.000	0.034	0.277
-670.091	348.203	-0.112	0.225
-669.076	0.830	-0.287	-0.209
-668.062	350.385	-0.118	-0.237
-667.047	414.434	0.144	0.312
-666.032	-128.604	-0.090	0.013
-665.018	319.777	-0.031	0.061
-664.003	-200.000	-0.001	-0.146
-662.989	-73.194	0.235	0.088
-661.974	-87.929	0.165	-0.050
-660.959	-200.000	0.006	0.100
-659.945	-53.460	-0.174	-0.081
-658.930	34.953	0.195	-0.174
-657.916	-121.040	-0.226	-0.039
-656.901	438.372	-0.018	0.039
-655.886	-200.000	0.004	0.117
-654.872	-130.407	-0.320	0.044
-653.857	54.178	-0.256	-0.250
-652.843	-200.000	0.034	-0.263
-651.828	-57.664	0.157	0.070
-650.814	-138.760	0.036	-0.004
-649.799	-44.614	0.081	0.041
-648.784	226.695	-0.082	0.135
-647.770	-200.000	0.055	-0.328
-646.755	204.894	-0.058	0.092
-645.741	-161.046	-0.068	-0.004
-644.726	146.774	-0.148	-0.202
-643.711	800.000	0.030	0.124
-642.697	93.016	-0.038	0.044
-641.682	-19.921	-0.033	-0.020
-640.668	321.715	-0.046	-0.089
-639.653	800.000	-0.006	0.020
-638.638	107.790	0.134	-0.162
-637.624	800.000	0.109	0.466
-636.609	69.916	0.231	0.242
-635.595	18.595	-0.139	0.113
-634.580	-200.000	0.007	-0.340
-633.565	741.147	-0.078	-0.212
-632.551	161.612	-0.223	0.317
-631.536	800.000	0.049	0.169
-630.522	800.000	0.049	-0.216
-629.507	255.960	0.036	-0.062
-628.492	-126.761	-0.193	-0.029
-627.478	-177.371	0.191	-0.005
-626.463	800.000	-0.064	-0.249
-625.449	-200.000	-0.003	-0.296
-624.434	-200.000	0.031	0.399
-623.419	-61.922	-0.250	0.106
-622.405	86.682	0.055	0.061
-621.390	800.000	-0.069	0.197
-620.376	-200.000	-0.018	-0.088
-619.361	137.356	0.124	0.165
-618.346	66.869	-0.286	-0.295
-617.332	-35.650	0.128	-0.070
-616.317	-174.415	0.331	-0.010
-615.303	-200.000	-0.004	0.284
-614.288	-82.340	0.432	-0.142
-613.273	52.912	0.097	0.094
-612.259	244.703	-0.228	-0.388
-611.244	89.692	0.008	-0.009
-610.230	-57.744	0.224	-0.099
-609.215	-66.544	0.312	0.125
-608.201	-200.000	-0.004	-0.057
-607.186	-72.505	0.102	-0.038
-606.171	94.611	0.119	0.137
-605.157	-92.021	-0.272	0.078
-604.142	336.216	-0.141	-0.278
-603.128	800.000	-0.034	0.117
-602.113	-200.000	-0.005	-0.086
-601.098	303.771	0.161	0.302
-600.084	-200.000	0.033	-0.345
-599.069	-72.703	0.106	-0.040
-598.055	124.171	-0.063	0.081
-597.040	33.896	0.361	-0.319
-596.025	-115.725	-0.448	0.085
-595.011	798.359	-0.073	0.205
-593.996	-200.000	0.053	0.239
-592.982	-200.000	0.116	0.547
-591.967	-126.593	0.198	-0.030
-590.952	-77.782	-0.229	0.080
-589.938	-102.183	-0.099	-0.024
-588.923	-130.708	-0.154	0.021
-587.909	800.000	-0.065	0.204
-586.894	-44.509	0.349	0.177
-585.879	220.196	-0.083	0.134
-584.865	-19.370	0.217	0.136
-583.850	-200.000	0.041	0.381
-582.836	184.403	0.054	0.081
-581.821	404.561	-0.032	-0.068
-580.806	-28.878	-0.204	-0.119
-579.792	19.803	0.265	0.216
-578.777	-55.773	-0.207	-0.093
-577.763	52.203	0.278	-0.268
-576.748	800.000	0.030	-0.125
-575.733	800.000	0.050	-0.209
-574.719	-152.369	0.052	0.004
-573.704	-200.000	-0.003	-0.096
-572.690	800.000	-0.044	0.170
-571.675	-147.984	-0.416	0.035
-570.661	-103.552	0.324	-0.077
-569.646	-87.375	-0.131	0.040
-568.631	-117.971	0.271	0.049
-567.617	30.918	0.086	-0.074
-566.602	83.512	-0.030	-0.033
-565.588	204.541	-0.144	-0.226
-564.573	18.931	-0.216	-0.175
-563.558	-110.615	0.128	-0.027
-562.544	46.353	0.205	-0.192
-561.529	-81.832	0.379	-0.126
-560.515	-200.000	-0.035	-0.288
-559.500	200.283	0.096	-0.149
-558.485	644.223	0.101	-0.260
-557.471	-200.000	-0.047	-0.246
-556.456	-14.529	0.066	-0.043
-555.442	31.145	0.041	-0.036
-554.427	164.744	0.051	-0.073
-553.412	-196.014	-0.166	0.001
-552.398	-35.573	-0.413	-0.227
-551.383	-107.800	-0.305	-0.067
-550.369	-200.000	-0.002	-0.059
-549.354	329.960	0.032	-0.063
-548.339	75.688	-0.058	-0.062
-547.325	738.978	-0.025	-0.068
-546.310	31.699	0.247	-0.215
-545.296	-28.451	0.044	0.026
-544.281	-68.456	-0.288	0.113
-543.266	-141.370	-0.254	0.026
-542.252	800.000	0.044	-0.148
-541.237	107.991	-0.257	0.309
-540.223	800.000	0.110	-0.357
-539.208	-150.215	-0.072	-0.006
-538.193	351.225	0.049	-0.097
-537.179	-200.000	0.025	-0.221
-536.164	-30.404	-0.181	0.104
-535.150	227.851	-0.107	0.176
-534.135	151.380	-0.140	0.192
-533.121	85.143	-0.080	0.089
-532.106	800.000	0.058	0.203
-531.091	800.000	0.087	0.258
-530.077	-169.542	-0.076	0.003
-529.062	187.728	-0.105	0.159
-528.048	-139.443	-0.338	0.037
-527.033	111.273	0.155	0.189
-526.018	765.522	-0.093	-0.256
-525.004	-200.000	-0.018	0.124
-523.989	35.305	-0.044	0.039
-522.975	-196.469	-0.108	0.001
-521.960	373.360	-0.125	-0.256
-520.945	-101.837	-0.133	-0.032
-519.931	-57.882	-0.103	-0.045
-518.916	341.358	0.038	-0.076
-517.902	18.729	0.327	-0.264
-516.887	-200.000	0.027	-0.136
-515.872	800.000	-0.092	-0.301
-514.858	-111.893	-0.206	0.042
-513.843	135.439	-0.055	0.073
-512.829	-59.944	0.585	0.253
-511.814	304.701	0.090	-0.168
-510.799	-3.338	0.203	0.143
-509.785	-200.000	-0.004	-0.199
-508.770	-200.000	-0.016	-0.164
-507.756	-200.000	0.038	-0.393
-506.741	-7.470	0.192	-0.132
-505.726	-106.591	-0.246	0.055
-504.712	-72.109	-0.157	-0.059
-503.697	7.090	-0.166	0.125
-502.683	177.449	0.065	-0.095
-501.668	-50.525	-0.333	-0.159
-500.653	-200.000	0.042	-0.333
-499.639	212.233	-0.225	-0.358
-498.624	145.440	-0.179	-0.242
-497.610	-7.476	-0.216	0.148
-496.595	-37.301	0.168	-0.090
-495.581	34.091	-0.320	-0.282
-494.566	-14.652	-0.058	-0.038
-493.551	-200.000	-0.059	0.266
-492.537	382.643	0.196	0.408
-491.522	800.000	-0.072	0.230
-490.508	-120.786	0.159	-0.027
-489.493	-200.000	0.012	0.070
-488.478	96.352	-0.352	0.406
-487.464	-200.000	-0.026	0.132
-486.449	-11.337	0.335	0.222
-485.435	95.971	-0.168	0.194
-484.420	41.433	0.141	0.129
-483.405	13.273	-0.280	0.219
-482.391	46.465	0.138	0.129
-481.376	792.508	-0.029	0.080
-480.362	-200.000	-0.040	-0.256
-479.347	155.595	-0.074	0.102
-478.332	-32.736	-0.054	0.031
-477.318	-73.020	-0.129	-0.048
-476.303	309.503	0.083	0.156
-475.289	-157.130	-0.088	-0.005
-474.274	-200.000	0.064	-0.288
-473.259	-91.501	-0.273	0.079
-472.245	48.385	0.031	-0.030
-471.230	-41.456	0.196	0.102
-470.216	-200.000	-0.022	0.237
-469.201	-30.198	-0.134	0.077
-468.186	-73.977	0.234	-0.085
-467.172	308.809	-0.171	-0.322
-466.157	-71.617	-0.248	-0.093
-465.143	-155.147	-0.232	-0.015
-464.128	6.737	0.331	-0.248
-463.113	-200.000	0.005	-0.213
-462.099	-52.146	-0.062	-0.029
-461.084	-200.000	0.002	0.349
-460.070	800.000	-0.058	-0.203
-459.055	-6.504	-0.178	-0.122
-458.040	800.000	0.068	0.248
-457.026	262.127	0.106	-0.185
-456.011	522.542	-0.044	0.105
-454.997	-144.370	0.039	0.004
-453.982	-9.599	0.126	0.085
-452.968	-3.785	-0.138	0.097
-451.953	-29.870	0.149	-0.086
-450.938	213.290	-0.040	-0.064
-449.924	-115.627	-0.113	0.021
-448.909	353.928	-0.125	0.250
-447.895	-200.000	-0.033	-0.223
-446.880	-151.834	-0.088	0.006
-445.865	134.118	0.178	0.233
-444.851	703.801	0.048	0.127
-443.836	-56.507	0.100	-0.045
-442.822	-150.367	0.118	0.009
-441.807	77.927	0.093	0.100
-440.792	-142.055	0.141	-0.014
-439.778	-89.402	0.161	0.048
-438.763	-150.172	0.138	0.011
-437.749	800.000	0.066	0.231
-436.734	80.300	-0.059	0.064
-435.719	188.718	-0.093	0.141
-434.705	23.829	0.054	0.045
-433.690	662.749	-0.046	0.121
-432.676	-87.668	-0.289	0.088
-431.661	396.989	0.063	-0.133
-430.646	21.731	0.267	0.219
-429.632	176.803	0.190	-0.277
-428.617	120.978	-0.159	-0.199
-427.603	-200.000	0.039	0.301
-426.588	800.000	0.057	0.228
-425.573	-51.733	-0.074	-0.035
-424.559	102.826	0.083	-0.098
-423.544	88.546	-0.193	-0.215
-422.530	17.672	0.154	0.124
-421.515	584.490	0.093	0.229
-420.500	-42.262	-0.258	0.133
-419.486	-200.000	0.056	0.320
-418.471	316.213	-0.095	0.181
-417.457	724.940	0.072	-0.194
-416.442	-65.136	-0.128	-0.052
-415.428	789.343	0.058	0.161
-414.413	2.071	-0.311	0.226
-413.398	88.246	0.234	0.261
-412.384	-90.453	0.209	0.061
-411.369	-125.716	-0.417	0.063
-410.355	49.525	0.163	-0.154
-409.340	-200.000	-0.037	-0.310
-408.325	-70.421	0.255	-0.097
-407.311	800.000	0.041	0.115
-406.296	271.205	-0.069	-0.121
-405.282	-151.015	0.217	-0.016
-404.267	-23.599	-0.100	0.061
-403.252	-31.976	-0.218	-0.122
-402.238	-8.972	0.187	-0.126
-401.223	-200.000	-0.058	0.304
-400.209	21.008	-0.122	-0.100
-399.194	593.326	-0.086	-0.215
-398.179	559.262	-0.192	0.466
-397.165	800.000	-0.082	0.328
-396.150	-200.000	-0.040	0.393
-395.136	305.199	-0.092	-0.172
-394.121	162.402	-0.137	0.192
-393.106	94.043	0.168	0.192
-392.092	38.133	-0.247	0.221
-391.077	58.522	0.242	0.239
-390.063	402.910	-0.164	-0.347
-389.048	-200.000	0.018	-0.160
-388.033	-110.619	-0.017	-0.004
-387.019	29.833	0.168	-0.144
-386.004	784.277	0.034	-0.093
-384.990	-79.004	0.070	0.024
-383.975	-113.603	-0.136	0.027
-382.960	47.715	0.136	-0.127
-381.946	-70.150	-0.298	0.114
-380.931	800.000	-0.045	-0.180
-379.917	58.793	0.272	-0.269
-378.902	29.612	-0.147	0.126
-377.888	800.000	0.016	0.066
-376.873	373.560	-0.050	-0.102
-375.858	14.436	-0.116	-0.091
-374.844	-45.888	0.266	0.132
-373.829	-37.805	-0.181	0.097
-372.815	92.191	-0.161	0.182
-371.800	138.018	0.190	0.250
-370.785	-19.490	-0.124	-0.077
-369.771	-105.628	0.179	0.041
-368.756	-130.982	0.210	0.028
-367.742	12.490	0.122	-0.094
-366.727	-60.892	0.055	0.023
-365.712	-67.953	-0.465	0.182
-364.698	248.360	-0.140	-0.237
-363.683	-6.520	-0.097	0.066
-362.669	-200.000	0.014	-0.228
-361.654	-14.415	0.261	-0.169
-360.639	-143.739	-0.221	0.021
-359.625	46.650	-0.158	-0.147
-358.610	235.540	-0.058	0.097
-357.596	7.775	-0.025	-0.019
-356.581	-200.000	-0.022	0.195
-355.566	67.836	0.078	-0.080
-354.552	318.688	-0.183	-0.348
-353.537	-90.417	-0.181	0.053
-352.523	800.000	0.047	0.193
-351.508	-200.000	0.032	0.154
-350.493	-75.844	-0.193	0.069
-349.479	-79.581	-0.217	0.074
-348.464	-65.079	0.144	0.058
-347.450	-86.773	-0.581	-0.178
-346.435	-200.000	0.004	-0.031
-345.420	-157.495	-0.196	0.012
-344.406	452.810	0.118	-0.263
-343.391	494.146	0.154	-0.354
-342.377	291.659	0.086	-0.157
-341.362	-120.893	0.077	-0.013
-340.348	800.000	-0.070	-0.276
-339.333	47.507	0.164	0.154
-338.318	-200.000	0.048	0.252
-337.304	800.000	0.099	0.410
-336.289	746.331	0.079	-0.213
-335.275	30.018	0.162	0.138
-334.260	139.859	0.138	0.183
-333.245	-132.220	0.400	0.052
-332.231	-200.000	-0.033	0.318
-331.216	4.743	0.359	-0.265
-330.202	621.095	0.080	0.203
-329.187	-159.110	-0.226	-0.013
-328.172	68.174	0.118	-0.121
-327.158	-68.630	-0.250	0.097
-326.143	326.180	0.066	0.127
-325.129	-200.000	-0.007	0.080
-324.114	359.172	-0.061	0.122
-323.099	-200.000	0.000	0.066
-322.085	174.526	0.209	-0.304
-321.070	28.727	0.261	0.221
-320.056	43.654	-0.315	-0.289
-319.041	143.696	-0.112	0.150
-318.026	-174.547	-0.098	0.003
-317.012	-200.000	0.016	-0.112
-315.997	144.090	0.091	-0.121
-314.983	-200.000	-0.026	-0.285
-313.968	72.654	0.105	-0.109
-312.953	35.627	-0.158	-0.139
-311.939	-200.000	-0.023	-0.227
-310.924	97.618	0.124	-0.143
-309.910	548.689	-0.114	-0.275
-308.895	-200.000	-0.018	-0.176
-307.880	315.906	0.144	0.271
-306.866	127.476	-0.188	0.239
-305.851	-24.440	0.223	0.133
-304.837	-169.548	-0.013	-0.000
-303.822	728.906	-0.180	0.483
-302.807	-15.909	-0.116	0.074
-301.793	456.376	0.077	0.172
-300.778	96.118	-0.056	-0.064
-299.764	-200.000	-0.070	-0.338
-298.749	75.486	0.258	-0.273
-297.735	650.220	-0.134	-0.343
-296.720	15.128	-0.214	-0.168
-295.705	227.103	-0.148	-0.240
-294.691	800.000	0.095	0.302
-293.676	102.160	0.185	0.216
-292.662	800.000	-0.045	0.194
-291.647	25.387	-0.232	0.193
-290.632	800.000	0.018	-0.077
-289.618	-200.000	0.049	-0.240
-288.603	-7.080	-0.183	-0.125
-287.589	462.825	0.050	0.112
-286.574	-39.810	-0.241	0.126
-285.559	477.204	0.061	-0.139
-284.545	800.000	0.079	-0.243
-283.530	-27.600	0.101	0.059
-282.516	100.399	-0.097	0.113
-281.501	487.091	-0.033	-0.076
-280.486	117.387	-0.092	0.113
-279.472	181.942	-0.242	0.357
-278.457	-101.013	-0.112	-0.027
-277.443	180.216	0.118	0.174
-276.428	202.339	0.245	-0.378
-275.413	-200.000	0.032	0.186
-274.399	91.165	-0.126	0.141
-273.384	-200.000	-0.016	0.468
-272.370	-200.000	0.017	-0.192
-271.355	-62.772	-0.180	0.074
-270.340	-50.212	0.172	0.082
-269.326	-200.000	-0.024	0.165
-268.311	-108.730	0.370	-0.079
-267.297	64.781	-0.125	-0.126
-266.282	16.603	0.270	-0.214
-265.267	348.632	-0.090	-0.177
-264.253	-18.144	0.202	0.126
-263.238	93.596	0.078	-0.089
-262.224	-10.924	-0.279	0.184
-261.209	-200.000	0.026	0.242
-260.195	800.000	0.071	0.204
-259.180	413.796	0.076	-0.161
-258.165	-91.644	0.126	-0.036
-257.151	-6.414	-0.152	0.104
-256.136	-200.000	0.014	-0.270
-255.122	545.696	-0.073	0.175
-254.107	-200.000	0.006	0.158
-253.092	-200.000	-0.020	0.186
-252.078	130.654	-0.156	0.200
-251.063	-141.856	-0.320	0.032
-250.049	151.515	-0.106	0.144
-249.034	-6.454	0.047	0.032
-248.019	-159.428	0.164	0.009
-247.005	-48.796	-0.110	0.053
-245.990	-200.000	-0.024	-0.125
-244.976	-78.197	-0.284	0.098
-243.961	-93.132	0.205	-0.057
-242.946	-200.000	-0.018	-0.229
-241.932	800.000	0.049	-0.174
-240.917	-200.000	0.005	0.207
-239.903	-195.144	0.329	0.002
-238.888	330.967	-0.050	0.097
-237.873	-83.250	0.176	0.057
-236.859	8.024	0.242	0.182
-235.844	412.038	0.070	0.149
-234.830	-142.593	-0.282	-0.028
-233.815	-200.000	-0.015	0.309
-232.800	675.301	0.131	-0.339
-231.786	189.856	0.175	-0.262
-230.771	6.176	-0.280	-0.208
-229.757	213.894	-0.051	-0.080
-228.742	-95.867	0.109	-0.029
-227.727	-36.594	0.098	-0.053
-226.713	73.420	0.144	0.151
-225.698	-91.439	0.243	-0.069
-224.684	-14.569	0.203	0.131
-223.669	-83.046	-0.267	-0.086
-222.655	77.310	-0.215	0.228
-221.640	167.879	-0.129	-0.184
-220.625	110.870	0.170	-0.204
-219.611	-75.770	0.336	-0.119
-218.596	-24.529	0.274	0.163
-217.582	129.137	0.237	0.302
-216.567	300.108	-0.138	0.254
-215.552	41.470	0.220	-0.199
-214.538	-169.352	-0.246	0.009
-213.523	-92.731	0.097	0.027
-212.509	-200.000	-0.032	-0.225
-211.494	-142.138	0.281	0.028
-210.479	800.000	0.060	-0.177
-209.465	-46.244	0.172	-0.085
-208.450	324.978	-0.028	0.053
-207.436	-200.000	0.019	0.139
-206.421	-107.290	0.297	0.065
-205.406	-42.528	-0.244	-0.124
-204.392	51.734	0.032	0.030
-203.377	143.393	-0.099	0.132
-202.363	150.052	-0.276	0.373
-201.348	-14.566	0.137	0.088
-200.333	-48.878	-0.106	-0.051
-199.319	-73.776	0.261	0.095
-198.304	6.976	-0.156	-0.116
-197.290	491.346	0.060	-0.136
-196.275	-85.358	0.272	-0.085
-195.260	12.114	0.173	0.133
-194.246	-24.297	-0.217	-0.129
-193.231	28.232	-0.115	0.097
-192.217	-200.000	-0.003	0.056
-191.202	-92.047	0.459	0.130
-190.187	-200.000	-0.026	-0.205
-189.173	-80.581	-0.179	0.059
-188.158	107.776	0.154	-0.183
-187.144	423.405	0.050	0.106
-186.129	25.432	0.330	0.273
-185.114	86.964	0.059	0.065
-184.100	2.555	0.129	-0.093
-183.085	-200.000	-0.010	-0.160
-182.071	425.144	-0.137	-0.295
-181.056	-118.202	0.451	-0.080
-180.042	-115.550	-0.333	-0.062
-179.027	-153.314	0.259	-0.018
-178.012	-125.919	-0.154	-0.023
-176.998	344.628	-0.155	-0.304
-175.983	800.000	0.046	-0.151
-174.969	-200.000	-0.021	-0.185
-173.954	-200.000	0.045	-0.549
-172.939	111.686	0.079	-0.095
-171.925	-67.649	-0.269	0.105
-170.910	130.147	0.188	0.240
-169.896	-149.883	0.183	-0.014
-168.881	-200.000	0.003	-0.075
-167.866	-91.282	-0.369	-0.105
-166.852	100.987	-0.120	-0.139
-165.837	-48.078	0.068	0.033
-164.823	165.290	0.050	-0.070
-163.808	205.067	-0.025	-0.039
-162.793	-200.000	0.029	-0.166
-161.779	105.464	-0.043	0.050
-160.764	157.830	0.124	-0.172
-159.750	800.000	-0.035	0.151
-158.735	800.000	-0.058	-0.253
-157.720	-126.858	0.173	-0.025
-156.706	81.958	-0.100	0.108
-155.691	-200.000	0.000	0.160
-154.677	16.157	0.193	-0.152
-153.662	-13.098	0.222	0.144
-152.647	800.000	0.041	0.176
-151.633	41.832	-0.211	-0.190
-150.618	-200.000	-0.008	-0.268
-149.604	-200.000	-0.008	-0.056
-148.589	800.000	0.119	0.353
-147.574	22.281	-0.178	0.145
-146.560	102.226	0.062	-0.072
-145.545	134.513	-0.240	-0.310
-144.531	-200.000	0.083	-0.434
-143.516	-82.213	0.423	0.137
-142.502	-96.131	0.267	0.071
-141.487	-125.587	0.265	0.040
-140.472	-34.183	-0.208	-0.113
-139.458	6.069	-0.115	0.085
-138.443	800.000	0.112	0.394
-137.429	154.839	0.115	-0.158
-136.414	221.540	-0.102	0.162
-135.399	-8.876	0.215	0.143
-134.385	-28.374	-0.338	0.194
-133.370	711.004	0.069	0.181
-132.356	-21.997	0.062	0.037
-131.341	87.392	-0.179	-0.197
-130.326	-200.000	-0.023	-0.119
-129.312	-126.057	-0.120	-0.018
-128.297	408.105	0.073	-0.154
-127.283	-158.194	0.367	-0.021
-126.268	-47.817	0.345	-0.166
-125.253	36.953	-0.199	-0.175
-124.239	-32.218	0.226	-0.126
-123.224	800.000	0.048	0.161
-122.210	57.473	0.216	-0.209
-121.195	564.398	-0.092	-0.221
