DTS Sentinel unit serial number:	SN413079Multiplexer serial number:	ORYXHardware model number:	OX4-SRSoftware version number:	ORYX F/W v4.00 Oryx Data Collector v3.7.2.0data status	okinstallation	princeton_trtdifferential loss correction	single-endedforward channel	channel 3reverse channel	N/Adate	2019/09/10time	22:06:11forward acquisition time	60.00reverse acquisition time	0.00gamma	496.2192k internal	0.2330k external	0.2330temperature offset calibration	0.9919default loss term (dB/km)	0.3790temperature slope calibration	1.0000multiplexer offset coefficient	1.0000multiplexer slope coefficient	1.0000fibre end	0.00T internal ref (°C)	30.62T ext. ref 1 (°C)	-0.31T ext. ref 2 (°C)	23.97length (m)	temperature (°C)	Stokes	anti-Stokes-747.200	800.000	-0.020	-0.083
-746.185	-197.579	-0.391	-0.002
-745.171	-170.257	-0.185	0.007
-744.156	-200.000	0.045	0.312
-743.142	206.331	-0.173	-0.271
-742.127	82.899	-0.023	0.025
-741.112	183.752	0.253	-0.377
-740.098	-200.000	0.007	0.122
-739.083	323.413	-0.073	-0.140
-738.069	30.708	-0.277	0.239
-737.054	-48.715	0.198	0.096
-736.039	105.553	-0.229	-0.272
-735.025	73.748	-0.195	-0.206
-734.010	321.724	0.093	-0.178
-732.996	800.000	-0.032	-0.136
-731.981	208.257	-0.101	-0.160
-730.966	185.165	0.277	-0.414
-729.952	33.994	-0.103	-0.090
-728.937	-49.657	-0.185	-0.089
-727.923	353.950	-0.124	0.248
-726.908	-93.901	0.304	-0.084
-725.894	-103.467	0.150	0.036
-724.879	-200.000	-0.003	0.163
-723.864	343.037	0.070	-0.139
-722.850	7.460	0.206	0.155
-721.835	329.192	-0.209	-0.404
-720.821	159.713	0.168	0.235
-719.806	323.094	0.058	-0.111
-718.791	59.773	-0.241	0.239
-717.777	146.237	0.222	-0.300
-716.762	-200.000	-0.038	0.194
-715.748	-54.585	0.091	0.041
-714.733	-14.773	0.089	0.057
-713.718	147.610	-0.049	-0.067
-712.704	-9.170	-0.344	-0.232
-711.689	-167.310	-0.273	0.011
-710.675	-200.000	0.044	0.268
-709.660	-25.683	0.261	0.155
-708.645	130.968	0.042	0.055
-707.631	-87.877	0.120	0.036
-706.616	6.311	0.108	0.081
-705.602	546.541	-0.124	0.299
-704.587	-38.324	-0.403	-0.215
-703.572	-140.721	-0.295	-0.031
-702.558	-126.037	0.333	0.050
-701.543	-122.100	0.113	-0.019
-700.529	170.968	-0.082	0.119
-699.514	-70.346	-0.068	-0.026
-698.499	-66.947	-0.246	-0.098
-697.485	625.478	0.088	-0.222
-696.470	-199.466	-0.194	-0.001
-695.456	-55.896	0.178	0.080
-694.441	-82.709	0.275	-0.090
-693.426	-200.000	0.021	0.265
-692.412	57.525	-0.063	-0.062
-691.397	65.777	0.122	-0.125
-690.383	-41.667	-0.123	0.063
-689.368	-200.000	0.003	0.169
-688.354	800.000	-0.038	-0.107
-687.339	141.833	-0.257	0.342
-686.324	194.706	0.178	-0.271
-685.310	354.366	-0.307	-0.613
-684.295	800.000	0.154	-0.630
-683.281	266.227	0.167	-0.294
-682.266	320.834	0.076	0.146
-681.251	266.792	-0.073	-0.127
-680.237	26.106	-0.103	0.087
-679.222	282.826	0.098	-0.176
-678.208	-200.000	0.025	-0.181
-677.193	800.000	0.149	-0.539
-676.178	312.180	0.061	0.114
-675.164	-200.000	0.053	-0.240
-674.149	-26.071	-0.369	0.218
-673.135	169.335	-0.121	0.174
-672.120	-200.000	-0.017	-0.193
-671.105	-129.846	-0.053	-0.007
-670.091	327.975	0.126	0.243
-669.076	800.000	-0.052	-0.176
-668.062	68.339	0.245	-0.252
-667.047	800.000	-0.062	-0.242
-666.032	131.342	-0.141	0.182
-665.018	496.070	-0.135	-0.311
-664.003	50.387	0.082	0.078
-662.989	50.186	0.065	-0.062
-661.974	800.000	-0.083	-0.282
-660.959	-200.000	-0.026	-0.250
-659.945	-200.000	0.028	-0.270
-658.930	-23.820	-0.077	0.046
-657.916	-116.734	-0.273	0.050
-656.901	800.000	-0.024	-0.082
-655.886	-25.166	-0.137	-0.081
-654.872	-200.000	0.008	-0.137
-653.857	-104.812	0.321	-0.074
-652.843	81.941	0.221	-0.240
-651.828	-200.000	0.009	0.171
-650.814	-168.452	0.076	0.003
-649.799	-200.000	-0.025	0.189
-648.784	-106.623	-0.395	-0.088
-647.770	-58.068	0.561	0.245
-646.755	367.377	0.064	-0.129
-645.741	-19.590	0.253	-0.157
-644.726	-175.203	-0.111	0.003
-643.711	-159.086	-0.058	0.003
-642.697	542.044	-0.067	0.160
-641.682	208.614	-0.249	0.391
-640.668	-7.784	0.160	0.109
-639.653	-200.000	0.003	0.039
-638.638	-200.000	0.126	-0.674
-637.624	-95.706	-0.221	0.059
-636.609	-138.615	-0.268	-0.029
-635.595	-151.836	0.327	-0.024
-634.580	-200.000	-0.012	-0.162
-633.565	242.555	-0.209	-0.351
-632.551	582.896	0.013	-0.033
-631.536	309.009	-0.029	0.055
-630.522	-58.121	0.133	-0.058
-629.507	-200.000	0.005	0.070
-628.492	-104.517	0.054	0.012
-627.478	145.520	0.099	0.132
-626.463	800.000	-0.074	0.248
-625.449	103.421	-0.148	-0.174
-624.434	207.990	-0.087	0.136
-623.419	67.336	-0.055	-0.056
-622.405	-74.659	0.397	0.143
-621.390	-129.598	0.080	0.011
-620.376	-37.939	0.225	-0.120
-619.361	800.000	-0.044	-0.125
-618.346	-131.666	-0.084	-0.011
-617.332	-200.000	0.022	-0.152
-616.317	-186.424	0.120	0.002
-615.303	209.390	0.088	0.138
-614.288	-86.502	-0.261	0.080
-613.273	800.000	-0.079	0.219
-612.259	43.395	-0.022	-0.020
-611.244	754.572	0.070	-0.188
-610.230	-104.541	-0.296	-0.068
-609.215	-71.300	-0.078	0.029
-608.201	159.252	0.163	0.227
-607.186	-200.000	-0.013	0.137
-606.171	-73.991	-0.170	0.062
-605.157	182.639	-0.164	-0.242
-604.142	800.000	0.027	-0.106
-603.128	-113.794	-0.393	0.077
-602.113	-117.851	-0.004	0.001
-601.098	800.000	0.101	-0.308
-600.084	58.875	0.195	0.192
-599.069	-73.983	0.215	-0.078
-598.055	-87.848	-0.340	-0.102
-597.040	-16.423	-0.049	0.031
-596.025	-163.708	-0.141	0.007
-595.011	-96.373	0.299	0.079
-593.996	559.277	0.128	0.309
-592.982	-188.211	-0.173	-0.002
-591.967	180.297	0.223	0.328
-590.952	800.000	0.092	0.366
-589.938	-83.755	-0.119	-0.038
-588.923	-135.133	-0.237	-0.028
-587.909	637.465	-0.057	0.145
-586.894	-80.437	-0.068	0.023
-585.879	-200.000	-0.036	-0.311
-584.865	-0.060	0.055	-0.039
-583.850	-200.000	-0.012	0.277
-582.836	-141.280	-0.108	-0.011
-581.821	800.000	-0.073	-0.255
-580.806	169.821	-0.060	0.086
-579.792	90.967	0.138	-0.155
-578.777	7.270	-0.216	0.161
-577.763	171.023	-0.160	0.229
-576.748	-114.396	-0.411	-0.079
-575.733	-67.927	-0.041	-0.016
-574.719	546.943	0.060	-0.144
-573.704	-93.770	-0.043	-0.012
-572.690	-87.527	-0.069	0.021
-571.675	-127.958	-0.215	-0.031
-570.661	125.337	-0.271	-0.342
-569.646	156.046	0.181	-0.250
-568.631	-101.074	-0.348	-0.085
-567.617	8.506	-0.200	-0.151
-566.602	231.557	-0.234	0.384
-565.588	-166.328	-0.386	-0.016
-564.573	-140.819	-0.111	0.011
-563.558	-141.101	-0.223	0.023
-562.544	665.138	-0.089	-0.230
-561.529	-123.745	0.214	0.034
-560.515	-200.000	-0.052	-0.247
-559.500	107.853	0.311	-0.371
-558.485	164.443	0.071	0.100
-557.471	800.000	0.028	0.081
-556.456	122.405	-0.114	0.143
-555.442	-128.373	-0.342	-0.049
-554.427	312.253	-0.201	0.376
-553.412	-69.083	0.201	0.077
-552.398	-200.000	0.042	0.240
-551.383	-77.196	0.451	-0.157
-550.369	36.133	0.085	0.075
-549.354	-67.915	-0.155	-0.060
-548.339	-98.686	0.126	0.032
-547.325	-200.000	0.054	-0.255
-546.310	-1.534	-0.265	0.186
-545.296	-200.000	0.079	-0.572
-544.281	-20.775	-0.156	-0.096
-543.266	301.763	0.108	-0.199
-542.252	800.000	0.093	-0.363
-541.237	27.268	0.131	0.110
-540.223	71.853	-0.185	-0.192
-539.208	-140.336	-0.056	0.006
-538.193	-159.767	-0.243	0.013
-537.179	800.000	0.089	-0.274
-536.164	-200.000	0.036	0.300
-535.150	-180.596	-0.299	-0.006
-534.135	-200.000	-0.004	-0.071
-533.121	-200.000	-0.017	-0.075
-532.106	800.000	0.012	0.035
-531.091	27.749	-0.260	-0.219
-530.077	-158.949	0.130	-0.007
-529.062	29.065	-0.048	0.040
-528.048	-200.000	-0.042	0.317
-527.033	800.000	-0.042	0.161
-526.018	695.440	0.119	-0.311
-525.004	248.606	0.077	-0.130
-523.989	20.470	0.344	-0.278
-522.975	631.925	-0.153	0.386
-521.960	-72.303	0.169	-0.062
-520.945	-200.000	-0.007	-0.127
-519.931	-43.353	0.114	-0.057
-518.916	800.000	-0.061	-0.252
-517.902	355.636	0.078	-0.156
-516.887	-68.677	-0.199	-0.077
-515.872	-13.682	0.171	-0.110
-514.858	301.290	0.138	-0.255
-513.843	-41.041	-0.275	0.142
-512.829	800.000	0.023	-0.094
-511.814	800.000	-0.064	-0.228
-510.799	-3.515	-0.108	0.075
-509.785	-200.000	-0.012	-0.089
-508.770	697.671	0.066	-0.173
-507.756	-129.951	-0.170	-0.023
-506.741	-118.016	0.233	-0.042
-505.726	82.718	-0.124	-0.135
-504.712	-105.561	0.115	0.026
-503.697	517.096	0.088	0.205
-502.683	-93.875	0.130	0.036
-501.668	-200.000	0.015	-0.131
-500.653	-100.299	-0.225	-0.056
-499.639	-36.288	-0.112	-0.060
-498.624	23.465	-0.188	-0.154
-497.610	-155.365	0.016	0.001
-496.595	-200.000	-0.014	-0.361
-495.581	800.000	-0.081	-0.330
-494.566	127.492	-0.210	0.266
-493.551	800.000	-0.055	-0.203
-492.537	-116.986	0.149	-0.027
-491.522	-95.216	0.213	0.057
-490.508	-169.134	-0.247	0.009
-489.493	176.610	0.074	0.107
-488.478	-200.000	0.027	0.455
-487.464	-84.591	0.065	0.021
-486.449	-200.000	-0.026	-0.297
-485.435	-200.000	-0.008	-0.039
-484.420	-119.671	-0.268	-0.046
-483.405	258.955	0.140	0.241
-482.391	86.294	-0.148	0.162
-481.376	-41.458	0.096	0.049
-480.362	58.009	0.325	0.317
-479.347	-22.973	-0.301	-0.181
-478.332	271.966	0.167	0.294
-477.318	-45.096	-0.270	-0.134
-476.303	153.062	0.067	0.092
-475.289	-200.000	0.007	-0.353
-474.274	800.000	-0.076	-0.221
-473.259	-56.771	-0.095	0.042
-472.245	205.063	-0.142	-0.219
-471.230	-16.684	0.260	-0.164
-470.216	-121.038	0.260	0.043
-469.201	-200.000	-0.052	0.389
-468.186	-200.000	0.051	0.470
-467.172	-99.932	0.187	-0.046
-466.157	-1.175	-0.316	0.222
-465.143	-200.000	0.002	-0.105
-464.128	-48.372	0.295	0.142
-463.113	800.000	-0.064	0.198
-462.099	-65.502	0.168	0.067
-461.084	487.297	0.040	0.092
-460.070	540.479	0.055	-0.130
-459.055	241.326	-0.075	0.125
-458.040	318.036	0.237	-0.447
-457.026	-143.841	0.092	0.009
-456.011	-200.000	0.002	-0.078
-454.997	43.288	0.240	-0.218
-453.982	800.000	0.180	0.512
-452.968	504.428	0.087	0.201
-451.953	30.171	0.190	-0.162
-450.938	69.112	0.150	0.154
-449.924	24.246	-0.180	-0.148
-448.909	-200.000	0.006	0.082
-447.895	73.753	-0.146	-0.152
-446.880	173.576	0.126	0.181
-445.865	504.161	0.106	-0.244
-444.851	704.337	-0.015	0.040
-443.836	800.000	-0.062	0.203
-442.822	800.000	-0.037	0.122
-441.807	-60.247	0.248	0.105
-440.792	-159.734	-0.368	-0.020
-439.778	596.619	-0.149	0.366
-438.763	-153.469	-0.282	-0.019
-437.749	404.799	-0.012	0.025
-436.734	-200.000	-0.020	-0.092
-435.719	-200.000	-0.014	0.196
-434.705	8.902	0.228	0.171
-433.690	226.283	-0.036	-0.058
-432.676	800.000	0.012	0.048
-431.661	111.479	-0.037	-0.044
-430.646	-55.020	0.182	0.082
-429.632	-113.446	-0.221	0.043
-428.617	-200.000	0.030	-0.257
-427.603	71.998	-0.101	0.105
-426.588	800.000	-0.014	0.049
-425.573	21.481	-0.131	0.106
-424.559	605.923	0.199	0.494
-423.544	-50.124	0.380	0.179
-422.530	584.509	-0.063	-0.153
-421.515	82.410	-0.170	-0.183
-420.500	800.000	0.040	0.158
-419.486	28.117	0.091	-0.077
-418.471	549.419	0.107	-0.254
-417.457	-200.000	0.021	-0.323
-416.442	-3.610	-0.258	-0.178
-415.428	40.023	-0.138	-0.124
-414.413	86.007	-0.124	-0.135
-413.398	-6.420	0.048	-0.032
-412.384	-11.369	-0.392	-0.257
-411.369	37.810	-0.051	0.045
-410.355	502.280	-0.096	0.221
-409.340	800.000	0.006	-0.019
-408.325	800.000	-0.072	-0.210
-407.311	-47.325	-0.335	-0.162
-406.296	-200.000	0.279	0.000
-405.282	-36.234	-0.157	0.084
-404.267	-123.536	0.140	-0.022
-403.252	-58.887	-0.140	0.060
-402.238	-59.368	-0.064	-0.027
-401.223	-1.608	0.265	0.186
-400.209	-9.562	0.065	-0.043
-399.194	-105.617	0.292	-0.066
-398.179	198.528	0.146	0.222
-397.165	800.000	-0.007	0.020
-396.150	-111.209	-0.029	0.006
-395.136	800.000	0.141	0.395
-394.121	-200.000	-0.080	-0.515
-393.106	-123.311	0.074	-0.012
-392.092	-200.000	0.014	-0.405
-391.077	494.119	0.103	-0.234
-390.063	80.584	-0.114	0.122
-389.048	-130.291	-0.325	-0.044
-388.033	-169.711	0.066	-0.002
-387.019	-200.000	-0.023	0.227
-386.004	83.010	-0.164	0.177
-384.990	-174.645	0.149	-0.004
-383.975	-38.491	-0.222	0.116
-382.960	236.415	0.081	0.133
-381.946	800.000	0.035	-0.145
-380.931	130.151	-0.189	0.241
-379.917	128.138	-0.352	0.445
-378.902	148.250	0.071	0.095
-377.888	143.134	-0.018	-0.023
-376.873	162.838	0.118	-0.164
-375.858	49.799	-0.165	0.154
-374.844	-200.000	0.040	0.318
-373.829	-35.662	-0.128	0.069
-372.815	287.664	-0.128	-0.230
-371.800	34.469	0.251	0.217
-370.785	-13.099	0.253	0.163
-369.771	-86.963	0.311	-0.094
-368.756	-137.229	-0.245	0.028
-367.742	61.170	0.188	0.186
-366.727	-24.875	0.169	-0.100
-365.712	-118.170	0.333	-0.059
-364.698	-200.000	-0.051	0.303
-363.683	259.108	-0.131	0.224
-362.669	-97.748	-0.212	0.054
-361.654	315.382	-0.081	0.152
-360.639	800.000	-0.071	-0.201
-359.625	800.000	-0.052	0.201
-358.610	291.728	-0.112	-0.202
-357.596	-200.000	-0.056	0.251
-356.581	26.995	-0.131	0.109
-355.566	500.414	-0.099	0.226
-354.552	175.850	-0.137	0.197
-353.537	88.135	-0.214	0.235
-352.523	-119.801	0.082	-0.014
-351.508	-117.084	-0.282	-0.051
-350.493	-200.000	-0.015	0.175
-349.479	-36.235	0.168	-0.090
-348.464	-30.655	-0.323	-0.181
-347.450	77.717	0.115	-0.121
-346.435	-73.831	-0.235	0.085
-345.420	-191.176	0.071	-0.001
-344.406	-80.909	-0.322	-0.106
-343.391	-200.000	0.046	0.285
-342.377	800.000	0.010	-0.035
-341.362	11.565	-0.080	0.061
-340.348	-200.000	0.004	-0.228
-339.333	441.121	-0.050	0.107
-338.318	-137.936	0.325	-0.036
-337.304	204.304	0.097	0.148
-336.289	-97.364	-0.131	-0.034
-335.275	-133.067	0.072	0.009
-334.260	-200.000	-0.026	-0.140
-333.245	-200.000	-0.062	-0.278
-332.231	66.970	0.103	0.104
-331.216	-23.140	-0.190	0.114
-330.202	800.000	0.048	0.149
-329.187	-170.578	0.047	-0.002
-328.172	-33.802	0.138	-0.075
-327.158	-169.428	-0.123	0.004
-326.143	800.000	-0.066	-0.252
-325.129	156.826	-0.115	-0.157
-324.114	-200.000	0.003	-0.033
-323.099	800.000	-0.059	0.194
-322.085	-51.580	-0.327	-0.151
-321.070	-30.309	0.287	-0.161
-320.056	-75.552	0.049	0.017
-319.041	-85.252	0.333	0.103
-318.026	3.737	0.268	-0.194
-317.012	-160.242	-0.091	-0.005
-315.997	-200.000	0.024	0.157
-314.983	-105.846	0.237	0.053
-313.968	-91.307	-0.424	0.120
-312.953	-200.000	-0.034	-0.171
-311.939	-200.000	-0.038	-0.284
-310.924	-29.104	-0.103	-0.058
-309.910	67.478	0.238	-0.241
-308.895	-152.955	-0.119	0.008
-307.880	-200.000	0.010	-0.045
-306.866	309.456	0.027	-0.050
-305.851	-200.000	-0.035	-0.332
-304.837	-31.276	0.427	0.238
-303.822	154.253	-0.132	-0.180
-302.807	-176.289	0.139	0.004
-301.793	4.978	-0.146	0.106
-300.778	800.000	0.080	-0.242
-299.764	253.212	0.049	0.082
-298.749	141.970	0.052	-0.068
-297.735	-129.590	0.023	-0.003
-296.720	-170.340	0.063	-0.002
-295.705	-5.272	0.231	0.157
-294.691	1.418	0.296	0.210
-293.676	-25.935	0.575	-0.335
-292.662	800.000	-0.072	-0.208
-291.647	274.242	-0.057	0.100
-290.632	-200.000	0.017	0.202
-289.618	-30.565	0.140	0.079
-288.603	5.730	-0.201	-0.147
-287.589	-64.371	0.072	0.029
-286.574	-84.056	-0.241	0.076
-285.559	151.485	-0.241	-0.324
-284.545	337.222	0.073	-0.140
-283.530	279.504	-0.058	0.103
-282.516	-200.000	0.010	0.180
-281.501	647.573	0.036	0.091
-280.486	240.528	-0.105	0.174
-279.472	-74.350	-0.182	0.065
-278.457	141.593	0.059	-0.078
-277.443	101.180	0.014	-0.016
-276.428	321.280	0.180	-0.338
-275.413	604.239	0.166	0.409
-274.399	800.000	-0.100	0.364
-273.384	182.447	0.025	0.036
-272.370	284.247	-0.030	-0.053
-271.355	126.448	-0.099	0.124
-270.340	-43.604	-0.234	0.116
-269.326	-200.000	0.008	-0.245
-268.311	-29.730	-0.117	-0.066
-267.297	79.602	0.175	0.185
-266.282	800.000	-0.037	-0.129
-265.267	5.957	-0.131	0.096
-264.253	251.043	-0.047	-0.078
-263.238	63.374	0.080	-0.079
-262.224	800.000	-0.024	0.101
-261.209	10.077	-0.283	-0.212
-260.195	180.773	0.078	-0.114
-259.180	310.795	0.165	0.305
-258.165	800.000	0.011	0.036
-257.151	-98.809	-0.261	-0.066
-256.136	197.711	-0.083	-0.125
-255.122	800.000	0.032	0.118
-254.107	2.422	0.104	-0.074
-253.092	43.351	0.103	0.093
-252.078	193.276	-0.070	-0.105
-251.063	-45.591	0.178	-0.087
-250.049	-57.186	0.186	-0.081
-249.034	32.603	0.129	0.110
-248.019	-162.668	0.062	0.003
-247.005	-50.029	-0.138	-0.065
-245.990	566.080	0.050	-0.120
-244.976	-137.096	0.367	-0.041
-243.961	-72.040	0.093	0.034
-242.946	-152.434	0.223	0.016
-241.932	64.340	0.143	0.142
-240.917	-95.213	0.264	0.070
-239.903	-179.928	-0.245	-0.005
-238.888	-200.000	-0.005	-0.091
-237.873	432.111	-0.053	0.113
-236.859	-200.000	-0.009	-0.313
-235.844	-200.000	0.004	-0.039
-234.830	800.000	0.036	0.127
-233.815	-82.337	0.214	-0.069
-232.800	-41.477	0.212	-0.108
-231.786	-177.412	-0.160	0.004
-230.771	126.929	-0.077	0.096
-229.757	-3.049	0.207	0.143
-228.742	-41.499	-0.197	0.100
-227.727	45.797	-0.323	0.295
-226.713	-200.000	0.005	0.192
-225.698	644.397	-0.046	-0.117
-224.684	692.504	0.080	0.206
-223.669	-113.436	0.367	-0.071
-222.655	800.000	-0.039	0.156
-221.640	480.306	0.014	-0.032
-220.625	-200.000	-0.031	0.169
-219.611	-200.000	-0.006	0.277
-218.596	-63.433	0.197	-0.080
-217.582	-200.000	-0.030	-0.133
-216.567	-14.558	0.080	0.051
-215.552	-85.178	0.368	-0.114
-214.538	-84.491	0.179	0.056
-213.523	800.000	0.136	-0.525
-212.509	-127.605	0.397	0.057
-211.494	511.057	0.091	-0.208
-210.479	-35.810	-0.354	0.189
-209.465	-15.171	0.247	0.156
-208.450	30.826	0.051	0.043
-207.436	-130.163	0.342	-0.046
-206.421	194.211	-0.081	0.122
-205.406	396.134	-0.066	-0.135
-204.392	-88.742	0.132	0.039
-203.377	800.000	0.085	0.258
-202.363	117.109	0.145	0.176
-201.348	-200.000	0.012	0.081
-200.333	-27.934	-0.131	-0.075
-199.319	-137.521	-0.363	-0.040
-198.304	-113.046	0.100	0.020
-197.290	283.080	-0.080	0.142
-196.275	-175.650	0.203	-0.005
-195.260	-55.725	-0.151	0.066
-194.246	800.000	-0.045	-0.151
-193.231	-32.841	0.559	-0.306
-192.217	-84.975	0.345	0.107
-191.202	-93.926	-0.105	0.028
-190.187	800.000	-0.117	0.405
-189.173	-97.742	0.309	0.079
-188.158	669.456	0.208	-0.530
-187.144	-127.314	-0.210	-0.030
-186.129	3.125	0.138	0.099
-185.114	-200.000	-0.002	-0.032
-184.100	-200.000	-0.019	0.082
-183.085	23.418	0.135	-0.109
-182.071	-200.000	0.029	0.191
-181.056	-58.010	-0.176	-0.076
-180.042	800.000	-0.089	0.252
-179.027	-195.065	0.339	0.003
-178.012	166.585	-0.130	-0.182
-176.998	273.176	-0.106	-0.185
-175.983	385.967	-0.027	0.055
-174.969	-54.931	0.182	-0.081
-173.954	210.477	0.153	-0.237
-172.939	800.000	-0.073	-0.306
-171.925	56.562	-0.161	-0.154
-170.910	-99.350	0.154	-0.038
-169.896	257.144	0.010	0.017
-168.881	-96.371	-0.198	0.052
-167.866	-90.772	-0.340	-0.096
-166.852	637.063	0.074	0.186
-165.837	-183.631	0.320	-0.005
-164.823	-200.000	-0.017	0.122
-163.808	-111.724	-0.139	0.028
-162.793	322.446	0.160	-0.301
-161.779	-90.607	-0.136	-0.039
-160.764	800.000	-0.046	0.179
-159.750	-200.000	-0.451	0.000
-158.735	-200.000	-0.013	-0.371
-157.720	-46.985	0.411	0.197
-156.706	61.118	0.211	0.206
-155.691	800.000	-0.146	0.407
-154.677	-200.000	-0.037	0.166
-153.662	-54.875	0.113	-0.050
-152.647	88.006	-0.167	-0.182
-151.633	616.945	0.076	-0.189
-150.618	-165.971	0.172	-0.007
-149.604	-200.000	-0.013	0.117
-148.589	-14.238	-0.021	-0.013
-147.574	332.010	-0.133	0.253
-146.560	-121.019	0.193	0.032
-145.545	-87.435	-0.379	0.113
-144.531	33.445	0.256	0.219
-143.516	300.871	-0.136	-0.248
-142.502	-161.605	0.159	-0.008
-141.487	580.735	-0.141	-0.340
-140.472	-20.030	0.214	-0.130
-139.458	-143.787	0.076	-0.007
-138.443	-59.357	0.485	0.205
-137.429	357.470	-0.125	-0.246
-136.414	159.454	-0.059	-0.080
-135.399	-70.823	0.115	-0.043
-134.385	62.546	-0.176	-0.173
-133.370	-3.665	0.112	-0.077
-132.356	425.414	0.167	-0.354
-131.341	-200.000	0.015	-0.174
-130.326	163.023	-0.273	-0.377
-129.312	-101.805	0.175	-0.042
-128.297	8.247	0.204	0.150
-127.283	1.456	-0.171	0.121
-126.268	-166.302	-0.179	-0.007
-125.253	800.000	-0.033	-0.131
-124.239	-200.000	0.056	-0.278
-123.224	800.000	0.044	-0.145
-122.210	-90.237	-0.213	0.061
