DTS Sentinel unit serial number:	SN413079Multiplexer serial number:	ORYXHardware model number:	OX4-SRSoftware version number:	ORYX F/W v4.00 Oryx Data Collector v3.7.2.0data status	okinstallation	princeton_trtdifferential loss correction	single-endedforward channel	channel 3reverse channel	N/Adate	2019/09/10time	19:18:11forward acquisition time	60.00reverse acquisition time	0.00gamma	496.2192k internal	0.2317k external	0.2317temperature offset calibration	0.9922default loss term (dB/km)	0.3790temperature slope calibration	1.0000multiplexer offset coefficient	1.0000multiplexer slope coefficient	1.0000fibre end	0.00T internal ref (°C)	33.87T ext. ref 1 (°C)	-0.25T ext. ref 2 (°C)	26.31length (m)	temperature (°C)	Stokes	anti-Stokes-747.200	-176.677	0.178	-0.005
-746.185	457.360	0.070	-0.156
-745.171	346.207	-0.030	0.061
-744.156	-40.308	0.302	0.159
-743.142	-200.000	0.015	0.183
-742.127	-200.000	0.001	0.071
-741.112	800.000	0.025	0.093
-740.098	-44.021	-0.391	0.199
-739.083	27.080	-0.255	0.217
-738.069	33.619	-0.378	0.333
-737.054	349.090	-0.046	-0.092
-736.039	1.289	-0.250	0.182
-735.025	-200.000	-0.023	-0.292
-734.010	-200.000	0.068	-0.311
-732.996	-53.816	-0.401	-0.185
-731.981	364.222	-0.055	0.112
-730.966	24.422	-0.162	0.135
-729.952	-168.643	-0.170	-0.007
-728.937	65.160	0.170	-0.173
-727.923	-94.834	-0.276	0.076
-726.908	-200.000	0.002	-0.018
-725.894	-34.448	0.120	-0.067
-724.879	-197.620	0.356	0.002
-723.864	-200.000	0.022	-0.127
-722.850	-179.536	-0.188	-0.004
-721.835	1.383	-0.059	0.043
-720.821	-40.932	0.148	-0.077
-719.806	218.608	0.153	-0.248
-718.791	608.910	-0.058	0.146
-717.777	-143.351	-0.055	0.005
-716.762	336.677	0.125	-0.245
-715.748	-122.615	-0.407	-0.067
-714.733	-51.484	0.040	-0.019
-713.718	-135.217	-0.226	-0.027
-712.704	-28.204	0.220	-0.128
-711.689	3.510	-0.161	-0.119
-710.675	130.785	-0.116	-0.150
-709.660	513.299	0.037	-0.087
-708.645	108.519	-0.254	0.306
-707.631	-160.115	-0.275	0.015
-706.616	800.000	0.015	0.043
-705.602	373.872	0.010	-0.020
-704.587	447.559	-0.133	-0.295
-703.572	800.000	0.054	0.209
-702.558	-200.000	-0.039	0.259
-701.543	-67.063	0.138	0.055
-700.529	520.953	-0.076	0.180
-699.514	363.633	-0.086	-0.174
-698.499	-101.111	-0.196	0.049
-697.485	-41.976	-0.218	-0.113
-696.470	-79.160	-0.255	0.088
-695.456	-103.449	0.319	-0.076
-694.441	-4.561	-0.114	0.080
-693.426	178.111	-0.180	0.265
-692.412	235.474	-0.173	-0.288
-691.397	800.000	0.072	-0.206
-690.383	20.480	0.178	0.145
-689.368	-200.000	0.006	-0.110
-688.354	191.120	0.097	0.148
-687.339	58.844	-0.071	-0.071
-686.324	70.303	0.384	-0.400
-685.310	8.560	0.144	-0.109
-684.295	-200.000	0.019	0.134
-683.281	17.300	0.236	0.189
-682.266	191.372	-0.202	0.307
-681.251	-164.150	-0.073	-0.003
-680.237	800.000	-0.121	-0.442
-679.222	284.943	-0.156	-0.284
-678.208	14.916	-0.052	0.041
-677.193	-53.404	0.124	0.057
-676.178	602.093	-0.049	0.123
-675.164	150.213	-0.084	-0.115
-674.149	-83.322	-0.200	-0.065
-673.135	-4.845	-0.117	-0.081
-672.120	183.582	0.213	-0.318
-671.105	239.096	-0.148	-0.248
-670.091	-62.637	0.185	-0.077
-669.076	-96.531	0.346	0.092
-668.062	-63.513	-0.135	-0.056
-667.047	800.000	0.087	-0.266
-666.032	98.788	0.005	-0.006
-665.018	-40.196	0.112	-0.059
-664.003	5.510	0.122	0.091
-662.989	800.000	0.054	-0.207
-661.974	800.000	-0.023	0.076
-660.959	298.485	0.060	0.111
-659.945	318.595	-0.147	-0.281
-658.930	-170.709	-0.243	0.008
-657.916	109.621	-0.151	0.183
-656.901	800.000	0.060	0.187
-655.886	47.876	0.065	0.061
-654.872	409.220	0.029	-0.062
-653.857	800.000	0.030	-0.098
-652.843	-28.996	-0.141	-0.082
-651.828	38.834	0.131	0.118
-650.814	-71.634	0.402	0.151
-649.799	84.338	0.177	0.195
-648.784	-119.220	-0.340	0.060
-647.770	-147.892	0.312	-0.026
-646.755	121.596	-0.138	0.173
-645.741	-68.541	-0.180	0.070
-644.726	-116.151	0.229	-0.043
-643.711	-55.217	-0.200	-0.091
-642.697	18.559	0.115	-0.093
-641.682	207.097	-0.070	-0.111
-640.668	86.134	-0.164	0.182
-639.653	-26.590	-0.296	-0.175
-638.638	214.034	-0.182	-0.290
-637.624	-51.405	0.280	-0.132
-636.609	-200.000	0.005	-0.093
-635.595	239.824	-0.135	-0.227
-634.580	800.000	0.112	0.358
-633.565	656.120	-0.122	-0.317
-632.551	247.178	-0.231	-0.394
-631.536	-12.837	-0.323	-0.212
-630.522	-200.000	0.005	-0.210
-629.507	78.375	-0.293	-0.316
-628.492	800.000	0.043	-0.186
-627.478	83.051	-0.045	0.049
-626.463	-66.156	0.222	0.089
-625.449	41.635	0.329	0.300
-624.434	-113.056	0.289	0.057
-623.419	527.397	-0.131	-0.312
-622.405	-161.239	-0.198	-0.010
-621.390	800.000	-0.051	-0.170
-620.376	-157.678	-0.217	-0.013
-619.361	-49.895	-0.238	0.114
-618.346	-29.763	0.193	-0.111
-617.332	-47.356	0.084	-0.041
-616.317	119.557	0.061	-0.076
-615.303	257.214	0.146	-0.252
-614.288	-114.096	0.338	0.066
-613.273	-4.986	0.216	-0.150
-612.259	-132.215	-0.255	-0.033
-611.244	-200.000	0.015	0.122
-610.230	361.767	0.028	0.057
-609.215	43.603	-0.145	-0.133
-608.201	-133.619	0.200	0.025
-607.186	28.320	-0.258	0.219
-606.171	-53.916	0.118	0.054
-605.157	800.000	-0.047	0.153
-604.142	-77.595	-0.136	-0.047
-603.128	361.020	0.033	-0.066
-602.113	57.863	0.086	-0.085
-601.098	210.944	0.131	0.208
-600.084	71.627	-0.276	-0.289
-599.069	-123.507	-0.292	-0.047
-598.055	-65.356	0.171	0.069
-597.040	-145.136	0.097	-0.009
-596.025	270.905	0.053	-0.093
-595.011	80.523	-0.125	0.136
-593.996	163.947	0.158	0.224
-592.982	-53.701	0.179	0.082
-591.967	-17.241	0.055	0.035
-590.952	-8.313	-0.248	-0.168
-589.938	-200.000	0.006	0.031
-588.923	800.000	0.045	0.142
-587.909	67.851	-0.224	-0.230
-586.894	-200.000	0.039	-0.327
-585.879	179.756	-0.177	-0.261
-584.865	-21.170	-0.284	0.175
-583.850	199.096	0.161	-0.249
-582.836	47.996	0.104	-0.098
-581.821	-200.000	-0.042	-0.237
-580.806	19.430	-0.300	-0.243
-579.792	-38.131	-0.288	-0.154
-578.777	36.706	0.317	0.282
-577.763	-77.747	0.354	0.123
-576.748	451.970	0.068	0.152
-575.733	-45.989	-0.303	0.150
-574.719	0.793	-0.061	-0.044
-573.704	-46.550	-0.070	-0.035
-572.690	-200.000	0.086	-0.405
-571.675	16.638	-0.160	-0.127
-570.661	800.000	0.081	-0.260
-569.646	-64.005	0.318	-0.131
-568.631	-104.981	-0.194	0.045
-567.617	-37.668	0.074	0.039
-566.602	-154.449	-0.224	0.015
-565.588	83.809	-0.054	0.060
-564.573	395.327	0.085	-0.179
-563.558	-200.000	0.025	-0.277
-562.544	-54.286	0.115	-0.053
-561.529	60.986	0.222	0.221
-560.515	-44.792	-0.212	0.106
-559.500	28.931	0.219	-0.187
-558.485	-42.725	-0.277	0.142
-557.471	213.569	-0.223	-0.354
-556.456	-126.216	-0.301	0.045
-555.442	-27.434	-0.224	-0.131
-554.427	-64.007	0.181	0.074
-553.412	524.382	-0.058	0.136
-552.398	-181.882	-0.124	-0.002
-551.383	40.719	0.372	0.337
-550.369	563.990	0.018	0.043
-549.354	800.000	-0.042	-0.153
-548.339	47.202	-0.073	-0.068
-547.325	697.868	0.066	-0.175
-546.310	563.173	0.052	-0.126
-545.296	194.871	0.100	-0.152
-544.281	-200.000	0.030	-0.179
-543.266	-158.367	0.203	0.012
-542.252	-102.101	0.220	-0.053
-541.237	-79.199	-0.278	-0.095
-540.223	31.757	-0.056	-0.048
-539.208	198.831	0.081	-0.124
-538.193	-58.576	-0.089	0.039
-537.179	130.298	-0.159	0.205
-536.164	-200.000	-0.035	0.241
-535.150	-157.358	0.120	0.007
-534.135	52.107	-0.299	-0.286
-533.121	177.082	-0.166	0.242
-532.106	344.588	0.037	0.072
-531.091	-200.000	-0.047	0.306
-530.077	74.902	0.072	0.076
-529.062	-88.791	-0.210	0.063
-528.048	800.000	0.068	0.221
-527.033	740.035	-0.060	-0.162
-526.018	-124.986	0.258	-0.040
-525.004	325.203	-0.044	-0.084
-523.989	205.649	0.132	-0.205
-522.975	166.691	-0.072	-0.102
-521.960	-111.315	0.038	-0.008
-520.945	137.015	0.194	-0.255
-519.931	17.983	0.260	0.208
-518.916	-9.415	-0.123	-0.083
-517.902	-74.650	-0.233	-0.084
-516.887	375.567	0.218	-0.446
-515.872	-200.000	-0.012	-0.361
-514.858	-70.609	0.195	-0.074
-513.843	147.421	0.150	-0.202
-512.829	21.350	-0.134	0.110
-511.814	-116.788	-0.225	0.041
-510.799	800.000	-0.043	0.142
-509.785	291.367	0.116	-0.212
-508.770	-149.713	-0.306	0.024
-507.756	98.468	0.262	0.303
-506.741	-88.182	0.263	-0.079
-505.726	31.826	-0.118	-0.102
-504.712	133.652	0.138	0.179
-503.697	-200.000	0.023	-0.141
-502.683	16.239	-0.255	-0.201
-501.668	-80.971	-0.384	0.128
-500.653	160.369	-0.099	0.139
-499.639	128.786	-0.291	0.372
-498.624	-17.432	0.241	-0.152
-497.610	800.000	-0.092	-0.279
-496.595	-79.342	0.043	0.015
-495.581	657.914	0.063	0.162
-494.566	-200.000	-0.001	-0.264
-493.551	-123.881	-0.128	0.020
-492.537	-200.000	-0.041	0.424
-491.522	-134.541	-0.265	0.032
-490.508	-137.257	-0.371	-0.042
-489.493	91.054	0.068	0.076
-488.478	-127.005	-0.210	0.031
-487.464	-67.893	0.142	0.055
-486.449	-61.524	-0.386	0.162
-485.435	-200.000	0.020	-0.188
-484.420	-153.269	-0.303	0.021
-483.405	-83.385	-0.252	0.081
-482.391	230.430	-0.187	0.307
-481.376	503.950	-0.102	0.237
-480.362	-143.039	-0.202	0.020
-479.347	-65.349	0.260	0.105
-478.332	-16.108	-0.104	-0.066
-477.318	62.539	-0.154	-0.154
-476.303	56.783	0.162	-0.158
-475.289	-82.993	0.066	-0.021
-474.274	-85.222	0.097	-0.030
-473.259	212.609	-0.082	0.130
-472.245	-83.268	0.198	-0.064
-471.230	-200.000	-0.001	-0.058
-470.216	-80.716	-0.227	0.076
-469.201	-200.000	0.040	0.209
-468.186	243.003	0.187	-0.314
-467.172	-74.251	-0.233	-0.084
-466.157	-142.749	0.097	-0.009
-465.143	-130.816	0.414	-0.056
-464.128	-74.941	0.590	0.212
-463.113	-147.504	0.184	0.016
-462.099	267.018	0.113	0.197
-461.084	536.581	0.078	0.185
-460.070	-0.411	-0.041	-0.029
-459.055	486.594	0.020	0.045
-458.040	-135.951	0.511	-0.060
-457.026	-200.000	-0.013	-0.212
-456.011	445.805	-0.051	0.111
-454.997	-152.830	-0.067	0.005
-453.982	-172.719	-0.274	0.009
-452.968	757.167	-0.064	-0.172
-451.953	-57.366	0.164	-0.072
-450.938	-161.618	0.049	0.003
-449.924	-175.256	0.167	-0.005
-448.909	143.161	-0.128	0.170
-447.895	-189.507	0.178	0.002
-446.880	-200.000	0.023	-0.227
-445.865	-200.000	0.013	0.078
-444.851	-159.862	0.214	-0.012
-443.836	-123.386	0.110	-0.018
-442.822	800.000	0.040	-0.142
-441.807	684.661	-0.119	-0.311
-440.792	-149.312	0.316	0.025
-439.778	-93.337	-0.340	0.094
-438.763	-53.369	0.234	0.107
-437.749	-200.000	0.013	-0.170
-436.734	40.462	0.051	-0.046
-435.719	-200.000	-0.024	-0.255
-434.705	-29.947	-0.171	-0.097
-433.690	-83.783	-0.266	0.085
-432.676	100.615	-0.366	-0.425
-431.661	109.306	0.197	-0.236
-430.646	707.283	0.085	-0.223
-429.632	-200.000	-0.028	0.258
-428.617	114.670	0.055	0.067
-427.603	77.317	0.368	0.391
-426.588	345.552	0.039	0.077
-425.573	-66.591	-0.514	0.204
-424.559	-147.559	-0.414	0.035
-423.544	-168.072	-0.400	0.016
-422.530	-158.281	0.244	0.014
-421.515	113.736	0.175	0.213
-420.500	-115.159	-0.184	-0.035
-419.486	259.915	-0.091	0.156
-418.471	98.693	-0.097	0.112
-417.457	-105.536	-0.260	0.059
-416.442	-130.666	-0.139	-0.019
-415.428	800.000	-0.097	0.275
-414.413	-74.422	-0.138	0.050
-413.398	-84.705	0.358	-0.113
-412.384	-200.000	-0.048	0.443
-411.369	132.824	-0.142	0.183
-410.355	188.596	0.169	0.252
-409.340	-70.526	-0.264	-0.100
-408.325	110.342	0.119	0.143
-407.311	399.622	-0.163	0.341
-406.296	197.056	0.151	0.230
-405.282	-3.936	0.168	-0.117
-404.267	-200.000	0.025	0.197
-403.252	2.178	-0.169	-0.122
-402.238	-200.000	-0.028	-0.289
-401.223	-170.914	-0.117	0.004
-400.209	-200.000	0.072	0.328
-399.194	108.727	0.236	0.281
-398.179	800.000	-0.018	0.073
-397.165	128.127	-0.109	0.138
-396.150	24.596	0.137	-0.113
-395.136	14.134	-0.155	-0.121
-394.121	-200.000	-0.021	-0.181
-393.106	203.642	-0.120	0.186
-392.092	-8.603	0.277	0.185
-391.077	-177.176	-0.382	0.009
-390.063	-145.054	0.152	0.014
-389.048	132.300	0.102	0.131
-388.033	-68.694	0.369	0.143
-387.019	-117.419	0.248	0.045
-386.004	-49.662	-0.190	0.090
-384.990	-200.000	-0.021	-0.219
-383.975	-29.698	0.138	-0.079
-382.960	26.095	0.109	-0.091
-381.946	168.103	-0.085	-0.121
-380.931	-78.969	-0.138	0.047
-379.917	72.396	0.257	0.267
-378.902	800.000	-0.047	-0.182
-377.888	242.091	-0.140	0.234
-376.873	-200.000	0.021	-0.156
-375.858	800.000	-0.026	-0.081
-374.844	-61.296	-0.169	0.071
-373.829	99.022	0.143	-0.165
-372.815	242.672	-0.084	0.141
-371.800	29.507	-0.095	0.081
-370.785	14.380	0.118	-0.092
-369.771	386.681	-0.130	0.267
-368.756	470.761	-0.160	0.358
-367.742	-111.667	0.105	-0.021
-366.727	800.000	0.020	0.058
-365.712	-139.138	0.101	-0.011
-364.698	176.119	-0.079	-0.115
-363.683	-55.459	-0.283	0.127
-362.669	-200.000	-0.004	-0.124
-361.654	-81.995	0.233	-0.076
-360.639	475.528	-0.069	-0.155
-359.625	-200.000	0.050	-0.301
-358.610	-149.461	0.287	-0.023
-357.596	15.401	-0.192	0.150
-356.581	-148.481	0.064	0.005
-355.566	342.145	0.127	-0.247
-354.552	-59.534	-0.149	0.064
-353.537	106.184	0.132	-0.156
-352.523	-110.209	0.224	0.047
-351.508	33.485	0.100	-0.086
-350.493	212.004	0.154	-0.242
-349.479	88.455	-0.187	-0.207
-348.464	-162.899	-0.334	-0.016
-347.450	-200.000	0.057	-0.267
-346.435	-200.000	-0.019	0.261
-345.420	78.192	-0.124	-0.132
-344.406	-115.063	0.194	-0.037
-343.391	800.000	0.103	0.300
-342.377	212.007	-0.143	0.225
-341.362	477.635	0.065	0.147
-340.348	800.000	-0.051	0.194
-339.333	-200.000	-0.010	-0.195
-338.318	407.921	0.052	0.110
-337.304	800.000	-0.067	0.188
-336.289	506.935	0.047	-0.109
-335.275	29.651	0.184	-0.156
-334.260	-16.003	-0.086	0.054
-333.245	61.463	0.275	-0.272
-332.231	475.256	0.079	-0.178
-331.216	-76.209	-0.156	0.055
-330.202	-124.221	0.213	-0.033
-329.187	-75.415	-0.195	0.069
-328.172	800.000	-0.037	-0.132
-327.158	-9.352	0.071	-0.047
-326.143	-200.000	-0.046	-0.294
-325.129	-28.157	0.034	0.020
-324.114	800.000	-0.071	0.276
-323.099	16.680	-0.256	0.201
-322.085	312.527	0.176	-0.330
-321.070	-200.000	-0.026	0.166
-320.056	71.410	-0.148	-0.153
-319.041	231.573	-0.043	-0.071
-318.026	72.136	0.208	-0.216
-317.012	39.492	0.334	-0.298
-315.997	-200.000	0.001	0.162
-314.983	145.384	-0.165	-0.220
-313.968	-200.000	-0.045	0.432
-312.953	-40.372	-0.090	-0.047
-311.939	119.025	0.154	0.189
-310.924	100.393	-0.221	0.255
-309.910	-200.000	0.025	0.142
-308.895	-200.000	-0.003	0.020
-307.880	13.597	-0.107	-0.083
-306.866	469.105	-0.075	-0.167
-305.851	-27.706	0.198	0.114
-304.837	738.862	0.087	0.231
-303.822	208.196	-0.114	0.177
-302.807	51.549	-0.147	-0.139
-301.793	-141.942	-0.070	-0.007
-300.778	-39.405	0.169	0.088
-299.764	-58.082	0.211	-0.091
-298.749	-34.739	0.156	-0.085
-297.735	-26.836	-0.026	0.015
-296.720	-200.000	-0.015	-0.253
-295.705	-200.000	0.016	0.106
-294.691	74.371	-0.079	-0.083
-293.676	-104.426	-0.048	0.011
-292.662	70.827	0.246	0.254
-291.647	160.499	-0.130	0.180
-290.632	80.081	0.136	0.146
-289.618	26.553	0.111	0.092
-288.603	-200.000	0.009	-0.095
-287.589	42.650	-0.242	0.219
-286.574	-71.475	0.466	0.174
-285.559	-117.564	0.199	-0.036
-284.545	514.877	0.027	-0.063
-283.530	-33.240	0.244	-0.134
-282.516	-130.907	0.095	0.013
-281.501	118.064	-0.172	0.211
-280.486	-35.460	-0.237	0.128
-279.472	-79.838	0.334	-0.112
-278.457	-90.249	-0.187	0.054
-277.443	282.123	0.309	0.550
-276.428	-118.344	0.096	0.017
-275.413	-81.639	-0.181	-0.059
-274.399	-80.146	-0.166	0.055
-273.384	609.781	-0.120	-0.299
-272.370	-200.000	-0.009	-0.228
-271.355	-170.977	-0.215	0.007
-270.340	46.301	0.075	-0.069
-269.326	-200.000	0.000	0.431
-268.311	-144.260	0.282	-0.026
-267.297	101.244	0.165	-0.191
-266.282	56.728	0.028	0.027
-265.267	18.593	0.125	0.100
-264.253	-132.546	-0.040	-0.005
-263.238	-79.044	0.228	0.077
-262.224	-24.072	-0.400	0.237
-261.209	-46.833	0.272	0.132
-260.195	77.796	0.099	-0.104
-259.180	-173.500	0.099	0.003
-258.165	-91.637	-0.220	0.062
-257.151	19.506	0.275	0.220
-256.136	205.614	-0.071	0.110
-255.122	2.468	0.268	-0.192
-254.107	-200.000	0.016	0.160
-253.092	-8.510	0.132	0.088
-252.078	528.988	0.198	-0.465
-251.063	375.961	-0.115	0.234
-250.049	-118.975	-0.042	-0.007
-249.034	129.015	-0.264	-0.334
-248.019	-200.000	0.022	0.231
-247.005	-55.534	0.063	-0.028
-245.990	800.000	0.069	-0.211
-244.976	165.013	-0.117	0.163
-243.961	-200.000	0.006	0.299
-242.946	-200.000	-0.010	0.201
-241.932	-200.000	-0.037	-0.438
-240.917	91.888	0.109	0.122
-239.903	-138.525	-0.374	0.041
-238.888	-23.353	0.237	0.141
-237.873	35.846	0.289	0.252
-236.859	800.000	-0.121	0.353
-235.844	1.584	-0.156	0.112
-234.830	195.216	0.162	0.243
-233.815	-200.000	-0.024	-0.147
-232.800	-200.000	0.010	-0.128
-231.786	-200.000	0.003	0.053
-230.771	800.000	-0.096	-0.360
-229.757	-43.958	0.064	-0.032
-228.742	21.947	0.143	-0.116
-227.727	-6.630	-0.218	0.147
-226.713	-200.000	-0.004	0.339
-225.698	-200.000	-0.017	-0.082
-224.684	-200.000	-0.025	-0.168
-223.669	-200.000	-0.012	-0.225
-222.655	225.005	0.030	-0.048
-221.640	-90.507	0.160	-0.046
-220.625	-103.498	0.176	-0.041
-219.611	120.983	0.103	-0.127
-218.596	357.395	-0.149	-0.295
-217.582	13.526	-0.149	0.115
-216.567	127.627	-0.188	0.236
-215.552	800.000	-0.073	0.239
-214.538	-200.000	0.023	-0.232
-213.523	249.902	0.137	0.231
-212.509	79.436	-0.074	-0.078
-211.494	-95.803	0.104	-0.027
-210.479	307.452	0.047	-0.087
-209.465	267.923	-0.053	0.092
-208.450	-200.000	-0.005	-0.342
-207.436	-200.000	-0.016	-0.201
-206.421	-105.930	-0.207	0.046
-205.406	-6.271	-0.293	0.198
-204.392	282.903	0.093	0.165
-203.377	-130.295	0.167	0.023
-202.363	-102.617	0.246	-0.058
-201.348	-124.623	-0.098	-0.015
-200.333	-200.000	-0.015	-0.400
-199.319	-200.000	-0.019	0.256
-198.304	210.138	0.091	-0.142
-197.290	137.581	-0.047	-0.061
-196.275	-32.564	-0.055	-0.030
-195.260	-119.115	-0.078	0.013
-194.246	57.138	-0.130	0.126
-193.231	140.471	0.091	-0.118
-192.217	153.523	0.278	-0.378
-191.202	-200.000	-0.011	-0.122
-190.187	-72.015	-0.168	-0.062
-189.173	-22.932	-0.222	0.133
-188.158	-73.418	0.175	0.063
-187.144	2.359	0.078	0.056
-186.129	10.215	0.156	0.117
-185.114	-86.446	0.081	-0.025
-184.100	-74.470	-0.086	0.031
-183.085	-92.398	0.160	-0.045
-182.071	-11.919	0.109	0.071
-181.056	688.791	-0.010	-0.025
-180.042	3.196	0.138	0.099
-179.027	363.043	0.073	0.145
-178.012	-109.214	-0.163	0.034
-176.998	-48.360	0.375	0.179
-175.983	-16.402	-0.407	0.256
-174.969	323.926	0.100	0.189
-173.954	-39.260	-0.245	-0.127
-172.939	-57.966	0.080	-0.035
-171.925	-4.797	0.197	-0.135
-170.910	384.732	-0.140	0.287
-169.896	11.116	0.132	0.100
-168.881	-200.000	-0.010	0.173
-167.866	800.000	-0.020	-0.074
-166.852	-45.299	0.182	0.090
-165.837	-22.402	0.149	0.089
-164.823	-63.019	0.118	0.048
-163.808	-130.706	-0.255	-0.034
-162.793	83.824	-0.062	-0.066
-161.779	388.233	0.086	-0.177
-160.764	800.000	0.014	0.045
-159.750	10.627	-0.385	0.290
-158.735	-169.428	0.331	0.012
-157.720	-87.295	0.275	0.082
-156.706	-189.862	0.200	-0.002
-155.691	457.893	-0.067	-0.146
-154.677	-200.000	0.024	0.146
-153.662	60.405	-0.124	-0.122
-152.647	-72.986	-0.062	0.023
-151.633	-200.000	-0.032	-0.189
-150.618	-200.000	-0.010	-0.273
-149.604	132.604	0.073	-0.094
-148.589	4.134	-0.262	-0.190
-147.574	-200.000	-0.001	-0.297
-146.560	-200.000	0.014	-0.078
-145.545	800.000	-0.045	-0.139
-144.531	189.296	-0.196	0.290
-143.516	800.000	0.031	0.096
-142.502	101.399	0.128	-0.147
-141.487	124.899	0.091	-0.114
-140.472	-38.660	-0.253	-0.132
-139.458	-8.281	0.050	0.034
-138.443	179.170	-0.085	0.124
-137.429	-8.902	0.072	-0.048
-136.414	386.098	0.206	0.421
-135.399	38.946	0.273	0.241
-134.385	-5.426	0.131	-0.089
-133.370	-5.063	0.150	0.102
-132.356	243.244	0.113	-0.187
-131.341	47.489	0.067	0.062
-130.326	-200.000	-0.031	0.326
-129.312	162.493	0.201	0.279
-128.297	270.381	-0.063	0.110
-127.283	-12.366	-0.090	-0.058
-126.268	-89.336	0.161	0.047
-125.253	6.287	0.260	0.190
-124.239	-22.158	-0.076	0.046
-123.224	33.267	0.030	0.026
-122.210	-122.700	0.264	0.042
-121.195	800.000	0.083	0.257
-120.180	164.618	0.048	-0.067
