DTS Sentinel unit serial number:	SN413079Multiplexer serial number:	ORYXHardware model number:	OX4-SRSoftware version number:	ORYX F/W v4.00 Oryx Data Collector v3.7.2.0data status	okinstallation	princeton_trtdifferential loss correction	single-endedforward channel	channel 3reverse channel	N/Adate	2019/09/11time	01:34:10forward acquisition time	60.00reverse acquisition time	0.00gamma	496.2192k internal	0.2331k external	0.2331temperature offset calibration	0.9914default loss term (dB/km)	0.3790temperature slope calibration	1.0000multiplexer offset coefficient	1.0000multiplexer slope coefficient	1.0000fibre end	0.00T internal ref (°C)	29.16T ext. ref 1 (°C)	-0.31T ext. ref 2 (°C)	23.41length (m)	temperature (°C)	Stokes	anti-Stokes-747.200	-200.000	-0.037	0.374
-746.185	71.625	-0.199	0.208
-745.171	-200.000	0.024	-0.270
-744.156	-200.000	-0.041	0.418
-743.142	239.408	-0.194	0.324
-742.127	-98.594	0.206	0.053
-741.112	370.697	0.117	0.239
-740.098	-78.940	0.153	0.052
-739.083	-116.950	0.314	0.058
-738.069	-200.000	0.016	0.446
-737.054	11.881	0.104	-0.080
-736.039	776.003	0.078	-0.215
-735.025	-200.000	0.016	0.124
-734.010	-12.538	-0.117	-0.077
-732.996	-78.609	-0.520	-0.179
-731.981	-103.217	-0.238	0.057
-730.966	-71.021	0.030	0.011
-729.952	-200.000	-0.029	0.367
-728.937	-114.388	0.216	-0.042
-727.923	7.015	0.124	-0.093
-726.908	-35.879	-0.368	0.201
-725.894	40.603	0.156	-0.142
-724.879	139.987	0.133	-0.177
-723.864	-0.696	-0.147	0.105
-722.850	-60.885	-0.229	-0.098
-721.835	-66.958	0.091	0.036
-720.821	-101.728	0.352	-0.086
-719.806	800.000	0.107	0.336
-718.791	415.169	0.081	0.173
-717.777	-133.243	-0.078	0.010
-716.762	-140.660	-0.516	0.054
-715.748	-14.565	-0.141	-0.091
-714.733	-200.000	0.031	0.136
-713.718	2.559	-0.241	-0.176
-712.704	-200.000	0.001	0.046
-711.689	-200.000	-0.033	-0.327
-710.675	155.498	0.050	-0.069
-709.660	28.882	-0.334	-0.285
-708.645	-200.000	-0.062	-0.502
-707.631	-182.996	-0.009	-0.000
-706.616	386.898	0.129	-0.268
-705.602	-22.079	0.077	-0.047
-704.587	126.045	0.002	-0.003
-703.572	305.965	-0.126	0.235
-702.558	-67.423	0.233	-0.092
-701.543	-200.000	-0.011	0.098
-700.529	148.503	-0.181	-0.246
-699.514	-200.000	0.019	-0.498
-698.499	-43.425	0.079	0.040
-697.485	-196.755	-0.271	-0.002
-696.470	141.293	-0.333	0.443
-695.456	287.361	0.082	-0.150
-694.441	-6.424	0.114	0.078
-693.426	23.245	-0.227	0.187
-692.412	-7.920	0.112	-0.076
-691.397	-58.645	0.099	-0.043
-690.383	-26.344	0.146	-0.086
-689.368	800.000	-0.055	-0.165
-688.354	-83.123	0.477	-0.154
-687.339	103.321	0.184	-0.216
-686.324	443.270	-0.101	-0.222
-685.310	31.692	-0.200	-0.173
-684.295	-46.403	-0.342	-0.169
-683.281	95.872	0.097	-0.111
-682.266	-51.074	0.287	0.135
-681.251	440.474	0.080	0.175
-680.237	-190.037	-0.214	0.002
-679.222	-200.000	0.021	-0.117
-678.208	-15.683	-0.222	-0.142
-677.193	-131.655	-0.294	0.039
-676.178	10.252	0.083	-0.063
-675.164	-73.417	-0.125	0.046
-674.149	-3.438	0.082	0.057
-673.135	123.992	0.288	-0.362
-672.120	-35.595	-0.111	0.061
-671.105	-200.000	0.044	-0.384
-670.091	-37.143	-0.052	0.028
-669.076	53.341	0.116	-0.112
-668.062	-58.437	-0.304	-0.133
-667.047	147.212	0.252	-0.340
-666.032	-41.750	-0.129	0.066
-665.018	311.393	-0.045	-0.085
-664.003	233.543	-0.117	-0.192
-662.989	327.616	-0.099	0.191
-661.974	-167.269	0.274	-0.011
-660.959	166.949	-0.002	-0.003
-659.945	800.000	0.065	0.274
-658.930	566.627	-0.067	0.163
-657.916	-149.175	-0.125	-0.010
-656.901	396.675	0.080	0.168
-655.886	-200.000	0.007	-0.222
-654.872	-5.173	0.129	0.089
-653.857	-136.086	-0.397	0.047
-652.843	435.875	0.061	-0.133
-651.828	41.855	-0.203	0.185
-650.814	-200.000	0.295	0.001
-649.799	22.656	-0.218	-0.179
-648.784	15.442	-0.214	0.168
-647.770	133.539	0.104	-0.134
-646.755	23.625	-0.190	-0.156
-645.741	-200.000	-0.009	-0.092
-644.726	221.079	0.111	0.178
-643.711	-11.489	-0.138	-0.091
-642.697	78.725	0.026	0.028
-641.682	521.517	-0.067	0.159
-640.668	-31.039	-0.108	-0.061
-639.653	53.958	0.144	-0.138
-638.638	66.225	0.064	0.066
-637.624	-200.000	0.051	-0.393
-636.609	-200.000	-0.001	0.120
-635.595	296.755	-0.128	0.236
-634.580	-64.156	0.131	-0.054
-633.565	-200.000	-0.044	-0.308
-632.551	-200.000	-0.044	0.195
-631.536	-50.586	-0.379	-0.179
-630.522	-200.000	0.016	-0.108
-629.507	-163.094	-0.203	0.010
-628.492	81.237	-0.074	0.080
-627.478	33.361	-0.339	0.295
-626.463	-44.287	0.075	-0.038
-625.449	236.348	-0.168	0.278
-624.434	-163.288	-0.225	0.011
-623.419	-87.003	0.197	-0.060
-622.405	32.374	0.159	0.138
-621.390	200.970	0.189	-0.290
-620.376	195.516	0.174	-0.265
-619.361	-58.763	0.058	-0.025
-618.346	-12.782	0.059	0.038
-617.332	248.324	0.133	-0.225
-616.317	-148.779	0.198	-0.016
-615.303	-200.000	-0.015	0.342
-614.288	-22.261	-0.051	0.031
-613.273	381.205	-0.151	0.311
-612.259	211.653	-0.040	-0.063
-611.244	-200.000	0.053	0.237
-610.230	-200.000	0.007	-0.319
-609.215	138.299	0.214	0.281
-608.201	-200.000	0.000	0.011
-607.186	800.000	0.138	0.573
-606.171	36.729	-0.225	0.199
-605.157	259.787	0.126	0.217
-604.142	504.045	0.045	0.105
-603.128	-137.210	0.078	0.009
-602.113	-122.156	-0.099	-0.016
-601.098	-27.330	-0.347	0.202
-600.084	-123.638	-0.252	0.040
-599.069	83.629	-0.034	-0.038
-598.055	222.577	0.122	-0.196
-597.040	-134.971	-0.331	-0.040
-596.025	-87.625	0.385	0.116
-595.011	-80.144	0.224	0.075
-593.996	-200.000	-0.003	-0.029
-592.982	-101.190	-0.474	-0.116
-591.967	114.529	-0.091	-0.111
-590.952	552.087	-0.064	-0.154
-589.938	-76.398	0.123	0.043
-588.923	-105.769	0.188	-0.042
-587.909	-154.833	0.220	0.015
-586.894	-86.100	-0.227	0.070
-585.879	13.778	-0.211	0.164
-584.865	-12.362	0.231	-0.151
-583.850	-178.904	-0.472	-0.011
-582.836	-159.823	0.272	-0.015
-581.821	299.876	0.045	0.083
-580.806	-147.376	-0.271	-0.023
-579.792	29.570	-0.024	0.020
-578.777	183.252	-0.040	0.059
-577.763	91.136	0.053	-0.060
-576.748	425.565	-0.106	-0.228
-575.733	-89.610	-0.216	0.063
-574.719	-88.148	-0.311	-0.093
-573.704	-200.000	-0.053	-0.299
-572.690	-200.000	0.009	-0.056
-571.675	-200.000	-0.004	0.250
-570.661	-200.000	-0.015	0.247
-569.646	-61.686	0.166	0.070
-568.631	-101.069	0.252	0.062
-567.617	44.937	0.104	-0.096
-566.602	800.000	-0.068	0.255
-565.588	6.737	-0.346	0.257
-564.573	-84.495	0.110	0.035
-563.558	-200.000	-0.025	0.301
-562.544	439.693	-0.076	0.165
-561.529	40.833	0.194	-0.175
-560.515	-75.234	-0.308	-0.110
-559.500	-107.457	0.173	-0.038
-558.485	800.000	-0.159	-0.524
-557.471	-70.334	-0.121	-0.046
-556.456	82.163	-0.054	-0.058
-555.442	-31.938	0.267	-0.150
-554.427	658.340	0.079	-0.204
-553.412	141.411	0.055	0.072
-552.398	-33.726	0.311	0.171
-551.383	-97.960	-0.218	0.056
-550.369	-85.298	0.213	0.066
-549.354	180.559	0.078	0.114
-548.339	148.107	-0.228	-0.307
-547.325	-145.345	-0.039	0.004
-546.310	800.000	0.012	0.048
-545.296	-200.000	0.012	-0.354
-544.281	68.673	-0.141	-0.144
-543.266	86.447	-0.229	-0.252
-542.252	-200.000	0.039	-0.216
-541.237	-200.000	0.008	-0.102
-540.223	-107.982	-0.200	0.043
-539.208	148.649	0.072	-0.097
-538.193	-200.000	-0.015	-0.671
-537.179	291.444	-0.046	-0.084
-536.164	114.272	-0.144	-0.175
-535.150	207.286	-0.071	0.111
-534.135	800.000	-0.050	0.146
-533.121	107.038	-0.188	-0.223
-532.106	164.306	0.085	0.120
-531.091	-200.000	0.014	0.219
-530.077	-200.000	0.034	-0.223
-529.062	433.443	-0.190	-0.411
-528.048	-85.902	0.155	-0.048
-527.033	-200.000	-0.002	0.247
-526.018	-200.000	0.007	-0.183
-525.004	737.527	0.104	-0.279
-523.989	-142.613	0.527	-0.051
-522.975	37.925	0.111	0.098
-521.960	800.000	0.112	-0.309
-520.945	-45.087	-0.086	-0.043
-519.931	47.521	-0.079	0.074
-518.916	-118.865	0.293	0.051
-517.902	-82.913	0.197	0.064
-516.887	-63.780	0.115	0.047
-515.872	800.000	0.061	-0.210
-514.858	-164.685	0.378	0.017
-513.843	673.427	-0.047	0.122
-512.829	-200.000	0.048	0.218
-511.814	800.000	-0.123	-0.359
-510.799	96.215	0.030	0.035
-509.785	-19.736	0.256	0.158
-508.770	-59.286	-0.294	-0.126
-507.756	-71.071	-0.065	-0.024
-506.741	-200.000	0.044	0.231
-505.726	800.000	-0.024	-0.073
-504.712	-200.000	0.012	-0.158
-503.697	-157.071	-0.139	-0.008
-502.683	-36.189	-0.083	-0.045
-501.668	-200.000	-0.018	0.343
-500.653	-106.836	0.216	0.048
-499.639	-98.679	-0.201	0.051
-498.624	-200.000	-0.015	0.151
-497.610	800.000	-0.082	-0.285
-496.595	571.308	-0.079	-0.191
-495.581	-200.000	-0.019	0.214
-494.566	-45.241	-0.283	-0.140
-493.551	333.481	-0.203	-0.392
-492.537	55.001	-0.039	0.037
-491.522	-84.806	0.209	-0.065
-490.508	-7.531	0.153	-0.103
-489.493	-97.643	-0.231	-0.060
-488.478	91.630	0.178	-0.199
-487.464	192.411	0.114	0.171
-486.449	158.760	0.059	0.081
-485.435	-200.000	0.022	0.347
-484.420	92.546	0.113	0.128
-483.405	566.685	0.094	-0.228
-482.391	537.306	0.042	0.100
-481.376	-200.000	-0.032	0.147
-480.362	800.000	0.127	0.419
-479.347	3.992	-0.167	0.121
-478.332	-24.544	0.267	-0.158
-477.318	293.766	0.134	-0.243
-476.303	-161.247	-0.610	0.032
-475.289	405.849	0.020	0.042
-474.274	119.184	-0.115	0.142
-473.259	-200.000	0.025	-0.142
-472.245	298.016	-0.031	-0.056
-471.230	123.140	-0.113	-0.141
-470.216	-200.000	-0.013	-0.278
-469.201	78.563	0.096	-0.102
-468.186	-15.230	-0.171	-0.109
-467.172	493.611	-0.139	0.318
-466.157	800.000	-0.060	0.190
-465.143	203.885	-0.043	-0.066
-464.128	369.084	0.068	0.137
-463.113	-49.042	-0.100	-0.048
-462.099	245.508	0.071	-0.120
-461.084	-136.539	0.050	-0.006
-460.070	-64.284	-0.394	0.160
-459.055	157.559	-0.103	0.142
-458.040	-1.135	-0.390	-0.274
-457.026	393.823	0.091	-0.188
-456.011	0.209	-0.175	0.124
-454.997	330.801	-0.059	0.113
-453.982	96.650	-0.120	-0.136
-452.968	41.334	0.204	-0.183
-451.953	183.250	0.067	-0.098
-450.938	-41.934	-0.084	-0.043
-449.924	800.000	-0.039	0.113
-448.909	637.353	0.061	0.155
-447.895	375.367	0.052	-0.105
-446.880	352.207	-0.166	-0.326
-445.865	635.591	-0.100	-0.252
-444.851	106.732	-0.227	-0.268
-443.836	347.179	0.083	-0.162
-442.822	-200.000	0.036	-0.235
-441.807	354.341	0.078	0.154
-440.792	-200.000	-0.064	0.287
-439.778	-38.991	-0.243	-0.127
-438.763	149.958	-0.190	-0.257
-437.749	-70.712	-0.063	0.024
-436.734	-10.932	0.109	-0.072
-435.719	154.965	0.210	-0.287
-434.705	166.066	-0.187	-0.263
-433.690	37.348	-0.199	-0.175
-432.676	20.158	0.218	0.175
-431.661	-133.076	0.277	0.035
-430.646	-20.949	0.093	0.057
-429.632	309.986	-0.163	-0.303
-428.617	29.694	0.118	0.100
-427.603	-96.621	0.048	-0.012
-426.588	-67.453	0.198	0.077
-425.573	779.791	-0.055	0.151
-424.559	-200.000	0.003	0.018
-423.544	800.000	-0.045	-0.193
-422.530	33.125	-0.122	-0.105
-421.515	80.516	-0.125	0.133
-420.500	-171.564	0.231	0.008
-419.486	17.860	-0.125	-0.099
-418.471	-49.158	0.199	0.094
-417.457	800.000	0.019	-0.075
-416.442	-200.000	-0.041	-0.209
-415.428	0.123	-0.166	0.117
-414.413	124.964	-0.154	-0.193
-413.398	166.132	0.209	0.293
-412.384	-186.658	-0.262	-0.004
-411.369	-141.920	0.292	-0.029
-410.355	552.497	-0.083	0.198
-409.340	-146.579	0.292	0.025
-408.325	800.000	-0.050	0.167
-407.311	-111.095	0.066	0.013
-406.296	-200.000	0.022	0.254
-405.282	-72.185	-0.195	-0.072
-404.267	-200.000	-0.021	0.105
-403.252	512.609	0.026	-0.060
-402.238	167.424	-0.213	-0.301
-401.223	58.463	-0.256	-0.250
-400.209	51.731	0.161	0.152
-399.194	-114.722	-0.236	0.045
-398.179	52.818	0.184	0.175
-397.165	-108.181	0.082	0.018
-396.150	-186.915	0.073	-0.001
-395.136	15.488	0.394	-0.307
-394.121	76.319	-0.240	-0.253
-393.106	-200.000	-0.094	-0.468
-392.092	-51.428	0.158	-0.073
-391.077	463.678	0.203	0.450
-390.063	-134.513	0.104	0.013
-389.048	-200.000	0.136	0.596
-388.033	-72.446	-0.291	-0.107
-387.019	-116.405	0.068	0.012
-386.004	-200.000	-0.013	0.303
-384.990	-200.000	-0.085	-0.520
-383.975	-75.783	0.116	0.041
-382.960	-42.284	-0.039	-0.020
-381.946	800.000	-0.059	-0.188
-380.931	-13.979	-0.194	0.124
-379.917	61.615	-0.310	-0.306
-378.902	715.898	0.063	-0.166
-377.888	312.665	0.077	-0.143
-376.873	800.000	0.033	0.135
-375.858	726.771	-0.122	0.322
-374.844	187.954	-0.044	-0.065
-373.829	-31.403	-0.152	-0.085
-372.815	-200.000	-0.007	-0.136
-371.800	82.500	0.064	0.068
-370.785	640.437	-0.062	0.155
-369.771	800.000	0.031	0.108
-368.756	-55.710	0.173	0.076
-367.742	688.073	0.112	0.292
-366.727	-2.207	0.076	0.053
-365.712	800.000	-0.058	-0.189
-364.698	-200.000	0.015	0.103
-363.683	246.535	0.026	0.043
-362.669	-200.000	0.052	0.226
-361.654	-200.000	-0.015	0.139
-360.639	-29.626	0.131	0.074
-359.625	-139.404	0.053	0.006
-358.610	-120.596	0.329	0.055
-357.596	321.800	-0.142	0.268
-356.581	-134.304	-0.183	-0.022
-355.566	-22.450	0.091	-0.054
-354.552	-75.045	-0.025	0.009
-353.537	-19.958	0.086	-0.052
-352.523	-200.000	0.298	-0.001
-351.508	53.371	-0.099	0.094
-350.493	800.000	-0.074	-0.289
-349.479	-20.069	-0.150	-0.092
-348.464	-103.566	-0.303	-0.070
-347.450	800.000	-0.047	-0.160
-346.435	-200.000	0.007	-0.072
-345.420	541.541	0.067	0.158
-344.406	-47.439	0.302	0.145
-343.391	800.000	0.144	0.488
-342.377	514.837	-0.098	-0.226
-341.362	-200.000	-0.031	-0.182
-340.348	164.420	-0.238	0.333
-339.333	-22.075	0.041	-0.025
-338.318	-97.843	0.113	0.029
-337.304	-200.000	-0.010	-0.156
-336.289	-32.879	0.069	0.038
-335.275	101.981	-0.102	-0.118
-334.260	222.771	0.088	-0.141
-333.245	162.213	-0.116	-0.161
-332.231	-115.200	0.210	-0.039
-331.216	294.934	0.084	0.152
-330.202	-24.231	-0.129	-0.076
-329.187	586.340	-0.085	-0.208
-328.172	67.685	0.204	-0.207
-327.158	800.000	-0.027	0.112
-326.143	800.000	0.070	-0.201
-325.129	-61.681	0.478	0.199
-324.114	155.464	0.179	0.244
-323.099	800.000	0.017	0.057
-322.085	149.239	-0.100	0.134
-321.070	12.575	0.156	0.119
-320.056	-200.000	-0.039	0.342
-319.041	-128.188	0.275	-0.039
-318.026	0.962	0.036	0.025
-317.012	-200.000	0.010	-0.043
-315.997	-122.610	-0.237	-0.038
-314.983	-200.000	0.023	0.455
-313.968	118.968	-0.208	-0.254
-312.953	-113.851	0.095	0.018
-311.939	-200.000	0.035	0.367
-310.924	-200.000	-0.041	0.388
-309.910	-129.152	0.267	0.037
-308.895	-200.000	0.022	-0.179
-307.880	-200.000	-0.018	0.136
-306.866	-50.189	0.174	-0.081
-305.851	-15.430	0.292	0.184
-304.837	-90.475	-0.347	0.100
-303.822	-42.141	-0.205	0.103
-302.807	-200.000	-0.039	-0.315
-301.793	212.175	-0.107	-0.167
-300.778	-200.000	-0.004	-0.126
-299.764	-27.453	-0.326	0.188
-298.749	-16.736	0.285	-0.178
-297.735	-37.347	0.072	0.038
-296.720	-200.000	0.006	0.356
-295.705	-125.292	-0.217	-0.033
-294.691	-200.000	0.063	0.318
-293.676	-200.000	-0.010	0.171
-292.662	-134.092	-0.072	0.009
-291.647	39.110	-0.226	-0.200
-290.632	-69.027	-0.260	-0.099
-289.618	13.744	-0.144	-0.110
-288.603	800.000	0.011	0.037
-287.589	-30.800	0.098	-0.055
-286.574	-200.000	-0.132	0.000
-285.559	800.000	0.065	-0.228
-284.545	206.793	-0.094	0.144
-283.530	14.055	-0.107	0.083
-282.516	207.046	-0.032	0.049
-281.501	-200.000	-0.013	0.151
-280.486	-162.513	-0.086	0.004
-279.472	-38.599	0.209	-0.109
-278.457	-70.703	0.242	-0.090
-277.443	-189.676	-0.181	0.002
-276.428	323.215	-0.117	-0.220
-275.413	-71.814	0.266	-0.098
-274.399	-12.771	0.104	0.067
-273.384	-200.000	0.010	0.267
-272.370	-4.203	0.082	-0.056
-271.355	108.957	0.220	-0.260
-270.340	286.832	-0.082	0.146
-269.326	-27.219	-0.207	-0.119
-268.311	158.557	0.210	0.288
-267.297	-139.574	0.118	-0.012
-266.282	-162.959	0.186	0.009
-265.267	738.657	-0.080	0.212
-264.253	437.998	0.101	-0.219
-263.238	-39.417	0.475	-0.246
-262.224	-67.466	0.169	-0.066
-261.209	800.000	0.147	0.406
-260.195	-200.000	0.029	-0.172
-259.180	-88.394	0.308	0.091
-258.165	-48.679	0.127	0.060
-257.151	-64.762	-0.376	-0.151
-256.136	-74.053	-0.141	0.051
-255.122	800.000	0.080	0.343
-254.107	-42.598	-0.133	0.067
-253.092	-174.469	-0.268	-0.008
-252.078	-93.946	0.151	-0.041
-251.063	800.000	-0.061	0.260
-250.049	-200.000	0.046	-0.247
-249.034	-200.000	0.030	0.133
-248.019	56.452	-0.053	0.051
-247.005	-103.775	-0.359	0.083
-245.990	-200.000	-0.050	0.313
-244.976	-38.807	-0.099	0.051
-243.961	104.101	0.124	-0.144
-242.946	-129.041	0.019	0.003
-241.932	255.557	-0.105	-0.178
-240.917	-200.000	0.086	-0.519
-239.903	268.286	-0.074	0.129
-238.888	362.166	-0.048	0.095
-237.873	-200.000	-0.021	0.151
-236.859	-122.076	-0.221	0.036
-235.844	-29.259	0.163	0.092
-234.830	-142.203	0.141	-0.014
-233.815	88.174	-0.157	-0.172
-232.800	163.231	-0.170	-0.236
-231.786	-117.321	0.221	0.040
-230.771	-85.098	-0.397	0.122
-229.757	-109.436	-0.136	-0.028
-228.742	-83.617	0.369	0.116
-227.727	-200.000	-0.055	0.279
-226.713	800.000	0.020	0.072
-225.698	-60.327	-0.113	-0.047
-224.684	161.160	0.218	-0.300
-223.669	227.832	-0.040	0.064
-222.655	-200.000	0.010	-0.099
-221.640	800.000	-0.083	-0.328
-220.625	362.490	0.086	-0.171
-219.611	-185.199	0.147	0.002
-218.596	194.877	0.038	0.058
-217.582	361.661	-0.117	-0.231
-216.567	-23.387	-0.177	0.105
-215.552	800.000	0.062	-0.176
-214.538	-200.000	0.016	-0.080
-213.523	-49.616	-0.048	-0.023
-212.509	-3.067	0.136	-0.094
-211.494	135.744	0.101	-0.130
-210.479	119.490	-0.146	0.178
-209.465	-200.000	-0.006	-0.193
-208.450	800.000	0.167	0.610
-207.436	415.432	-0.107	0.224
-206.421	127.945	0.030	-0.037
-205.406	-24.577	0.267	0.156
-204.392	-4.867	0.188	-0.127
-203.377	800.000	-0.018	0.052
-202.363	173.004	-0.077	-0.110
-201.348	-82.585	-0.159	0.051
-200.333	-200.000	0.010	-0.126
-199.319	252.731	0.043	-0.072
-198.304	23.729	0.101	0.082
-197.290	15.905	0.287	-0.222
-196.275	-200.000	0.223	0.000
-195.260	163.592	0.101	0.140
-194.246	-164.102	0.143	0.007
-193.231	145.707	-0.173	0.229
-192.217	34.429	0.226	0.195
-191.202	67.930	0.133	-0.134
-190.187	-200.000	-0.060	0.285
-189.173	-16.198	0.145	0.091
-188.158	493.624	0.187	-0.423
-187.144	167.836	0.063	-0.088
-186.129	13.884	-0.121	-0.093
-185.114	-20.549	0.211	0.127
-184.100	-82.053	-0.234	-0.075
-183.085	-200.000	-0.025	-0.120
-182.071	800.000	0.086	-0.329
-181.056	-116.197	-0.046	0.008
-180.042	-76.240	0.417	0.145
-179.027	131.409	0.028	-0.036
-178.012	2.646	0.076	0.054
-176.998	180.555	0.194	-0.281
-175.983	-93.464	0.127	0.035
-174.969	-26.598	0.101	0.058
-173.954	-168.736	-0.128	-0.005
-172.939	-200.000	0.164	0.001
-171.925	112.626	-0.082	0.097
-170.910	-56.461	0.154	0.067
-169.896	-146.926	-0.139	-0.012
-168.881	800.000	-0.195	0.565
-167.866	207.468	-0.123	0.189
-166.852	-200.000	0.036	0.387
-165.837	618.171	-0.142	0.350
-164.823	800.000	-0.065	-0.250
-163.808	-126.010	0.054	0.008
-162.793	800.000	-0.078	0.221
-161.779	38.360	0.060	0.053
-160.764	-200.000	-0.029	0.345
-159.750	-200.000	0.068	-0.298
-158.735	-142.997	-0.165	0.016
-157.720	99.235	0.035	-0.039
-156.706	-6.921	0.320	-0.214
-155.691	-26.841	0.264	0.152
-154.677	800.000	0.096	0.266
-153.662	-134.065	-0.599	-0.073
-152.647	-200.000	0.045	0.353
-151.633	-106.261	0.133	0.029
-150.618	190.974	0.061	-0.091
-149.604	-200.000	-0.039	0.182
-148.589	147.865	0.236	0.313
-147.574	233.036	-0.076	0.123
-146.560	-161.594	-0.064	-0.003
-145.545	800.000	-0.017	-0.061
-144.531	-109.447	0.173	0.036
-143.516	800.000	-0.057	-0.223
-142.502	-200.000	-0.072	0.532
-141.487	5.839	-0.083	0.060
-140.472	136.278	-0.166	-0.213
-139.458	-18.309	-0.064	0.039
-138.443	-16.442	-0.082	0.051
-137.429	-200.000	-0.006	0.147
-136.414	800.000	-0.023	0.073
-135.399	107.437	-0.053	-0.062
-134.385	-74.842	0.476	0.168
-133.370	-151.202	0.186	-0.014
-132.356	-200.000	0.043	0.201
-131.341	700.348	-0.121	-0.313
-130.326	-58.918	-0.183	0.078
-129.312	374.475	-0.122	0.245
-128.297	-106.828	0.077	-0.017
-127.283	155.686	-0.099	0.134
-126.268	78.346	0.033	0.034
-125.253	-200.000	0.013	0.174
-124.239	92.047	0.071	-0.078
-123.224	585.171	0.035	0.084
-122.210	-76.335	-0.380	-0.132
-121.195	90.703	-0.197	0.217
