DTS Sentinel unit serial number:	SN413079Multiplexer serial number:	ORYXHardware model number:	OX4-SRSoftware version number:	ORYX F/W v4.00 Oryx Data Collector v3.7.2.0data status	okinstallation	princeton_trtdifferential loss correction	single-endedforward channel	channel 3reverse channel	N/Adate	2019/09/10time	21:18:11forward acquisition time	60.00reverse acquisition time	0.00gamma	496.2192k internal	0.2328k external	0.2328temperature offset calibration	0.9918default loss term (dB/km)	0.3790temperature slope calibration	1.0000multiplexer offset coefficient	1.0000multiplexer slope coefficient	1.0000fibre end	0.00T internal ref (°C)	31.31T ext. ref 1 (°C)	-0.33T ext. ref 2 (°C)	24.44length (m)	temperature (°C)	Stokes	anti-Stokes-747.200	-79.218	0.095	0.032
-746.185	-200.000	0.041	0.370
-745.171	-138.661	0.128	-0.014
-744.156	95.356	-0.265	0.304
-743.142	-73.340	-0.092	0.034
-742.127	-73.772	-0.206	-0.075
-741.112	186.172	-0.108	-0.162
-740.098	2.878	-0.040	-0.029
-739.083	-65.134	0.335	0.136
-738.069	279.718	0.065	0.117
-737.054	-115.537	-0.333	0.063
-736.039	-98.851	-0.346	0.089
-735.025	-200.000	0.034	0.190
-734.010	-128.378	-0.242	0.035
-732.996	426.098	0.234	-0.509
-731.981	-155.432	0.259	0.017
-730.966	800.000	-0.027	0.084
-729.952	239.138	-0.082	0.137
-728.937	545.154	-0.020	0.048
-727.923	800.000	-0.081	-0.229
-726.908	-55.177	-0.386	-0.175
-725.894	-186.188	-0.121	-0.002
-724.879	287.681	0.151	-0.275
-723.864	-141.025	-0.408	-0.042
-722.850	-166.332	-0.221	0.009
-721.835	-200.000	0.013	-0.196
-720.821	592.764	-0.152	-0.378
-719.806	-163.296	-0.034	0.002
-718.791	-200.000	0.020	-0.171
-717.777	800.000	0.043	-0.169
-716.762	316.929	0.150	0.286
-715.748	-50.124	-0.130	-0.062
-714.733	337.800	-0.023	0.045
-713.718	-200.000	-0.030	-0.138
-712.704	254.550	-0.026	0.045
-711.689	107.590	-0.055	0.066
-710.675	14.138	-0.180	-0.141
-709.660	26.207	0.155	-0.130
-708.645	129.396	-0.044	0.057
-707.631	-32.679	-0.284	0.159
-706.616	-41.042	-0.155	0.081
-705.602	-59.458	0.163	0.071
-704.587	92.474	0.142	0.161
-703.572	-51.348	-0.179	-0.084
-702.558	-164.187	0.048	0.002
-701.543	-3.362	-0.160	0.112
-700.529	22.814	0.181	-0.149
-699.514	-67.241	-0.122	-0.048
-698.499	800.000	-0.119	-0.518
-697.485	-60.915	-0.342	-0.145
-696.470	202.954	-0.111	-0.173
-695.456	171.995	-0.151	-0.218
-694.441	-164.953	-0.095	-0.004
-693.426	98.794	-0.187	-0.218
-692.412	37.054	0.093	-0.083
-691.397	115.937	-0.125	-0.154
-690.383	-60.869	0.063	-0.027
-689.368	91.758	0.268	-0.304
-688.354	66.887	-0.124	-0.127
-687.339	85.121	0.116	-0.127
-686.324	96.715	0.177	-0.204
-685.310	-12.452	-0.083	-0.055
-684.295	221.664	0.160	-0.258
-683.281	-200.000	0.032	0.252
-682.266	-58.079	-0.214	0.094
-681.251	-9.426	-0.229	-0.154
-680.237	-47.401	-0.095	-0.046
-679.222	-77.082	-0.176	-0.062
-678.208	-120.828	-0.213	0.036
-677.193	800.000	0.052	-0.177
-676.178	-12.032	0.095	0.062
-675.164	-92.674	-0.198	0.056
-674.149	-200.000	-0.046	-0.250
-673.135	-164.129	-0.077	-0.004
-672.120	-200.000	-0.021	0.116
-671.105	800.000	-0.024	0.084
-670.091	-200.000	-0.007	-0.148
-669.076	194.489	-0.041	-0.063
-668.062	124.555	0.036	0.046
-667.047	26.716	0.177	-0.149
-666.032	-200.000	0.043	-0.356
-665.018	-155.377	0.153	-0.010
-664.003	-200.000	-0.027	-0.187
-662.989	-144.363	0.116	-0.011
-661.974	244.893	-0.149	-0.251
-660.959	342.132	0.075	-0.148
-659.945	296.048	0.031	-0.057
-658.930	2.880	0.129	-0.094
-657.916	-200.000	-0.028	0.164
-656.901	687.032	0.028	0.074
-655.886	4.647	-0.124	-0.091
-654.872	24.246	-0.382	-0.317
-653.857	-76.134	0.181	0.064
-652.843	60.720	-0.187	0.186
-651.828	-108.232	-0.307	0.067
-650.814	31.388	0.025	-0.021
-649.799	-34.807	0.239	0.131
-648.784	800.000	0.102	-0.441
-647.770	-200.000	0.038	0.394
-646.755	-26.995	0.147	-0.086
-645.741	-56.533	0.236	0.105
-644.726	-18.716	-0.071	-0.044
-643.711	-61.676	-0.076	-0.032
-642.697	318.375	-0.158	-0.301
-641.682	-114.750	0.052	0.010
-640.668	611.481	0.024	0.059
-639.653	14.034	-0.169	0.132
-638.638	-115.586	0.109	-0.020
-637.624	27.529	-0.210	-0.177
-636.609	-200.000	0.014	0.289
-635.595	-200.000	-0.002	-0.050
-634.580	800.000	0.071	0.281
-633.565	800.000	-0.102	-0.286
-632.551	-47.713	-0.297	0.145
-631.536	800.000	0.048	-0.150
-630.522	-138.354	0.308	0.034
-629.507	389.096	-0.117	0.243
-628.492	800.000	0.064	-0.179
-627.478	29.279	-0.058	0.049
-626.463	-200.000	0.052	-0.371
-625.449	65.209	-0.109	0.110
-624.434	187.459	-0.206	0.309
-623.419	121.733	-0.114	0.143
-622.405	-133.974	-0.056	0.007
-621.390	-82.302	-0.129	-0.042
-620.376	-19.052	-0.215	0.134
-619.361	215.424	-0.045	0.072
-618.346	-36.085	-0.258	-0.140
-617.332	-200.000	-0.036	0.211
-616.317	28.293	0.308	0.261
-615.303	150.797	-0.250	0.340
-614.288	-200.000	-0.041	-0.395
-613.273	-155.516	-0.158	-0.010
-612.259	-131.481	-0.173	0.023
-611.244	506.384	0.087	0.203
-610.230	50.883	-0.180	0.171
-609.215	-75.390	0.084	-0.030
-608.201	-61.430	-0.298	0.126
-607.186	120.307	-0.057	-0.071
-606.171	-147.095	0.132	-0.011
-605.157	139.501	0.221	-0.292
-604.142	112.817	-0.161	0.195
-603.128	-110.184	-0.108	0.023
-602.113	800.000	0.015	-0.062
-601.098	-53.602	-0.204	-0.093
-600.084	-200.000	-0.006	-0.109
-599.069	-96.620	-0.244	-0.064
-598.055	85.569	-0.341	-0.376
-597.040	-35.231	-0.281	-0.153
-596.025	800.000	0.153	-0.464
-595.011	-6.163	-0.016	-0.011
-593.996	-200.000	0.030	0.157
-592.982	106.068	-0.116	0.137
-591.967	-67.820	-0.228	-0.089
-590.952	800.000	-0.017	0.074
-589.938	73.798	-0.216	0.227
-588.923	58.959	-0.066	0.065
-587.909	38.622	-0.093	0.083
-586.894	-120.291	-0.366	0.062
-585.879	89.815	0.153	0.171
-584.865	800.000	-0.084	0.267
-583.850	170.969	0.056	-0.081
-582.836	-200.000	0.043	-0.357
-581.821	-98.260	-0.217	-0.056
-580.806	-98.759	-0.366	-0.093
-579.792	-56.833	0.128	0.056
-578.777	516.289	-0.111	0.261
-577.763	-113.342	0.167	0.033
-576.748	84.838	0.219	-0.240
-575.733	-200.000	0.048	-0.317
-574.719	-126.595	0.178	-0.026
-573.704	-71.832	0.051	-0.019
-572.690	-200.000	-0.066	0.309
-571.675	-134.340	-0.133	0.016
-570.661	56.300	0.147	-0.143
-569.646	346.692	-0.116	-0.228
-568.631	-125.142	0.016	0.002
-567.617	117.767	-0.050	-0.061
-566.602	-66.416	-0.456	0.181
-565.588	78.973	0.173	-0.185
-564.573	-200.000	-0.031	-0.175
-563.558	70.752	-0.204	-0.211
-562.544	-74.131	0.129	0.047
-561.529	28.267	0.159	-0.134
-560.515	619.895	-0.109	0.275
-559.500	-200.000	0.013	-0.089
-558.485	-200.000	0.008	-0.199
-557.471	115.664	0.144	0.176
-556.456	87.356	-0.049	0.054
-555.442	-4.314	0.283	0.196
-554.427	27.220	-0.231	-0.194
-553.412	213.643	-0.047	-0.075
-552.398	800.000	0.040	-0.147
-551.383	-200.000	0.015	0.067
-550.369	432.861	0.033	0.072
-549.354	800.000	-0.050	-0.144
-548.339	-183.289	0.340	0.006
-547.325	0.587	-0.136	0.097
-546.310	-121.235	-0.132	-0.022
-545.296	800.000	0.068	0.202
-544.281	300.704	-0.129	0.238
-543.266	571.083	-0.053	0.128
-542.252	-165.902	0.128	-0.005
-541.237	-84.974	-0.274	-0.086
-540.223	29.735	-0.155	0.132
-539.208	109.939	-0.211	0.253
-538.193	-158.853	-0.270	-0.015
-537.179	-200.000	0.013	-0.255
-536.164	-189.231	-0.390	0.005
-535.150	-9.913	0.273	0.181
-534.135	-92.550	0.217	0.061
-533.121	-200.000	0.039	-0.247
-532.106	-48.844	-0.034	0.016
-531.091	757.037	-0.054	0.147
-530.077	435.575	0.066	0.143
-529.062	-60.058	0.093	-0.040
-528.048	-44.588	-0.070	0.035
-527.033	-138.255	-0.378	0.042
-526.018	-42.251	-0.356	-0.181
-525.004	-143.500	-0.101	0.010
-523.989	-182.264	0.128	0.002
-522.975	535.938	0.224	-0.530
-521.960	-107.690	0.283	-0.062
-520.945	38.392	-0.096	0.085
-519.931	166.949	0.162	0.230
-518.916	-63.042	-0.277	0.114
-517.902	-52.191	-0.227	0.105
-516.887	-83.521	0.270	-0.086
-515.872	199.954	-0.106	-0.162
-514.858	55.577	0.153	0.148
-513.843	67.194	0.212	0.216
-512.829	-136.516	-0.085	-0.010
-511.814	-200.000	-0.009	-0.069
-510.799	186.802	-0.095	0.141
-509.785	-129.602	0.482	-0.067
-508.770	130.342	-0.243	-0.311
-507.756	-102.501	-0.217	0.052
-506.741	-95.478	-0.230	0.062
-505.726	800.000	-0.061	-0.218
-504.712	-187.048	-0.388	0.005
-503.697	800.000	-0.053	0.158
-502.683	176.638	-0.096	-0.139
-501.668	-34.766	0.200	-0.109
-500.653	-68.356	-0.096	-0.037
-499.639	51.532	0.251	0.238
-498.624	-182.702	-0.254	0.005
-497.610	86.902	0.215	-0.236
-496.595	800.000	-0.040	-0.137
-495.581	-28.294	-0.135	-0.078
-494.566	-99.684	0.164	-0.041
-493.551	800.000	-0.030	0.096
-492.537	-111.606	0.079	0.016
-491.522	-112.108	0.203	0.041
-490.508	-93.931	-0.437	0.120
-489.493	-41.966	-0.073	-0.037
-488.478	-200.000	-0.036	0.262
-487.464	-37.079	-0.068	0.036
-486.449	-2.348	-0.255	0.178
-485.435	140.489	0.066	-0.087
-484.420	47.697	0.028	0.026
-483.405	-200.000	-0.062	0.360
-482.391	-197.551	-0.168	0.001
-481.376	800.000	-0.135	-0.467
-480.362	-200.000	0.008	0.335
-479.347	-81.177	0.010	0.003
-478.332	800.000	-0.032	0.099
-477.318	-53.948	-0.120	-0.055
-476.303	-7.565	0.070	-0.047
-475.289	-49.271	0.085	-0.041
-474.274	132.033	0.219	0.282
-473.259	-200.000	-0.045	-0.401
-472.245	-74.687	0.238	0.085
-471.230	-8.823	0.156	-0.104
-470.216	800.000	0.063	-0.206
-469.201	124.247	-0.086	0.107
-468.186	-22.180	0.457	-0.277
-467.172	-185.024	0.425	-0.007
-466.157	-117.002	0.298	-0.054
-465.143	-150.387	0.139	-0.011
-464.128	-62.785	-0.055	0.023
-463.113	-82.031	0.244	-0.079
-462.099	78.814	0.280	-0.298
-461.084	193.534	-0.129	0.194
-460.070	-133.854	0.118	0.015
-459.055	-168.515	-0.190	-0.007
-458.040	-78.265	-0.106	-0.036
-457.026	57.878	-0.183	0.179
-456.011	56.507	0.177	-0.171
-454.997	-200.000	-0.048	-0.395
-453.982	800.000	0.058	-0.201
-452.968	-10.002	-0.239	-0.158
-451.953	-34.512	0.258	0.141
-450.938	258.552	0.136	0.233
-449.924	32.127	0.080	-0.069
-448.909	-200.000	0.010	0.198
-447.895	115.839	-0.084	-0.102
-446.880	69.052	0.143	-0.146
-445.865	-200.000	0.069	-0.330
-444.851	114.384	0.150	-0.182
-443.836	-133.355	-0.195	-0.024
-442.822	91.861	0.145	0.163
-441.807	288.155	0.038	-0.068
-440.792	-200.000	-0.027	-0.332
-439.778	-114.044	-0.567	-0.109
-438.763	-108.089	-0.248	-0.054
-437.749	-90.091	0.102	0.030
-436.734	-140.358	0.261	-0.027
-435.719	72.559	0.178	0.185
-434.705	19.969	-0.358	-0.287
-433.690	800.000	0.064	-0.245
-432.676	-112.737	-0.155	-0.031
-431.661	-200.000	0.067	0.537
-430.646	133.748	0.050	-0.065
-429.632	-133.267	-0.274	0.034
-428.617	-27.696	0.140	-0.081
-427.603	158.508	-0.086	0.119
-426.588	-106.986	0.127	-0.028
-425.573	495.018	0.094	-0.215
-424.559	-95.897	0.425	-0.113
-423.544	-53.473	-0.058	-0.027
-422.530	11.849	0.155	0.118
-421.515	-121.144	0.046	0.008
-420.500	-122.005	-0.116	-0.019
-419.486	116.593	0.071	0.087
-418.471	215.253	-0.104	-0.165
-417.457	566.355	-0.103	0.249
-416.442	800.000	-0.066	0.237
-415.428	-139.050	-0.150	-0.016
-414.413	-56.765	0.219	-0.096
-413.398	800.000	0.081	-0.275
-412.384	800.000	0.098	-0.364
-411.369	-68.003	-0.313	-0.121
-410.355	72.555	-0.068	-0.070
-409.340	-145.780	-0.174	0.015
-408.325	-20.735	0.285	-0.174
-407.311	-166.308	0.124	0.005
-406.296	-200.000	-0.008	0.195
-405.282	-200.000	-0.009	0.069
-404.267	407.454	-0.039	0.081
-403.252	-166.886	0.131	0.005
-402.238	436.717	-0.053	0.115
-401.223	226.571	-0.154	0.248
-400.209	-200.000	0.027	0.201
-399.194	800.000	0.102	-0.325
-398.179	367.853	0.068	0.136
-397.165	-147.985	0.215	-0.018
-396.150	-0.849	-0.075	-0.053
-395.136	115.427	0.037	0.044
-394.121	-5.822	0.111	0.075
-393.106	-94.083	0.284	0.077
-392.092	-144.353	-0.256	-0.024
-391.077	-9.233	-0.084	-0.056
-390.063	-105.070	0.242	0.055
-389.048	-9.091	-0.085	-0.057
-388.033	-100.073	-0.114	-0.028
-387.019	100.444	0.101	-0.117
-386.004	195.967	0.107	0.161
-384.990	800.000	-0.118	0.492
-383.975	-200.000	0.008	-0.103
-382.960	58.017	0.115	0.112
-381.946	243.715	0.072	-0.120
-380.931	-145.565	-0.161	0.014
-379.917	-200.000	0.012	0.204
-378.902	-200.000	-0.031	0.395
-377.888	-116.288	0.204	-0.037
-376.873	523.186	0.086	0.200
-375.858	800.000	-0.081	0.237
-374.844	800.000	-0.102	0.437
-373.829	-200.000	-0.054	-0.319
-372.815	80.408	-0.210	-0.224
-371.800	-131.487	-0.265	-0.035
-370.785	-38.436	-0.222	-0.117
-369.771	21.060	0.033	0.026
-368.756	-200.000	0.053	0.361
-367.742	-113.718	0.242	0.047
-366.727	-180.752	-0.300	0.006
-365.712	-24.548	-0.300	-0.177
-364.698	152.008	0.182	0.246
-363.683	344.322	0.147	0.286
-362.669	154.697	0.121	0.166
-361.654	-160.673	-0.085	0.004
-360.639	-111.665	0.199	0.040
-359.625	-200.000	-0.069	0.367
-358.610	102.501	-0.107	-0.124
-357.596	60.047	-0.186	-0.182
-356.581	55.586	-0.107	-0.103
-355.566	-103.083	-0.316	-0.074
-354.552	-200.000	-0.026	-0.133
-353.537	-46.106	-0.050	0.025
-352.523	-120.277	-0.323	-0.055
-351.508	-121.065	0.101	-0.017
-350.493	365.900	-0.033	-0.067
-349.479	-200.000	0.046	-0.392
-348.464	800.000	-0.024	-0.076
-347.450	-200.000	0.026	-0.416
-346.435	172.568	0.181	0.258
-345.420	-200.000	0.024	-0.194
-344.406	800.000	0.082	-0.273
-343.391	-86.832	-0.289	-0.088
-342.377	49.436	-0.194	-0.181
-341.362	599.377	0.136	0.334
-340.348	800.000	-0.076	-0.316
-339.333	800.000	0.071	-0.264
-338.318	-98.979	-0.320	0.081
-337.304	-185.617	0.229	0.003
-336.289	-46.434	0.363	-0.177
-335.275	-74.546	0.272	0.097
-334.260	15.470	-0.057	0.044
-333.245	800.000	0.046	-0.129
-332.231	-49.099	-0.150	0.071
-331.216	-200.000	-0.007	-0.109
-330.202	-200.000	0.058	0.280
-329.187	-106.313	0.217	0.048
-328.172	-129.671	0.301	0.041
-327.158	139.796	0.084	0.109
-326.143	-142.420	-0.400	0.039
-325.129	43.232	0.133	0.120
-324.114	42.395	0.098	-0.088
-323.099	-93.671	0.449	0.123
-322.085	-73.213	-0.280	0.102
-321.070	81.282	-0.187	0.200
-320.056	80.711	0.011	0.012
-319.041	210.590	0.164	-0.255
-318.026	45.262	0.174	0.159
-317.012	23.790	-0.151	-0.123
-315.997	17.066	0.061	-0.048
-314.983	474.081	-0.099	0.221
-313.968	-48.834	-0.147	-0.070
-312.953	94.505	0.231	-0.260
-311.939	188.949	-0.107	0.159
-310.924	-92.440	-0.223	-0.062
-309.910	-3.408	-0.271	-0.187
-308.895	-74.972	-0.297	0.105
-307.880	-16.642	0.224	-0.140
-306.866	-200.000	0.001	-0.056
-305.851	-200.000	-0.008	-0.044
-304.837	-111.535	0.353	0.071
-303.822	-117.433	-0.184	-0.033
-302.807	-152.956	0.321	0.022
-301.793	-103.422	0.413	0.096
-300.778	-36.193	0.128	-0.068
-299.764	445.705	0.088	-0.191
-298.749	-200.000	-0.030	0.219
-297.735	-90.721	-0.026	-0.007
-296.720	91.598	-0.223	-0.248
-295.705	-200.000	-0.003	0.021
-294.691	-200.000	0.006	-0.113
-293.676	-47.063	-0.255	-0.123
-292.662	456.511	-0.105	0.232
-291.647	307.011	0.189	0.349
-290.632	800.000	0.032	0.124
-289.618	346.353	0.112	0.218
-288.603	-200.000	0.009	0.355
-287.589	461.830	0.068	0.150
-286.574	-103.456	0.249	-0.058
-285.559	800.000	-0.043	-0.156
-284.545	327.032	-0.086	0.163
-283.530	-171.473	0.203	-0.007
-282.516	498.408	0.082	-0.186
-281.501	1.745	0.310	-0.221
-280.486	800.000	-0.020	-0.084
-279.472	-200.000	0.027	0.224
-278.457	-157.327	-0.149	-0.009
-277.443	-200.000	0.023	0.167
-276.428	-195.567	0.387	-0.003
-275.413	169.193	-0.103	-0.145
-274.399	-200.000	-0.002	0.272
-273.384	-159.907	-0.159	0.009
-272.370	227.376	-0.006	0.010
-271.355	800.000	-0.039	0.114
-270.340	98.877	0.063	-0.072
-269.326	-200.000	0.005	-0.066
-268.311	800.000	0.135	-0.401
-267.297	-200.000	0.012	0.068
-266.282	3.307	0.117	0.084
-265.267	334.363	0.042	0.080
-264.253	-200.000	-0.021	0.391
-263.238	38.810	-0.101	0.090
-262.224	-55.276	-0.198	0.088
-261.209	-200.000	0.002	-0.045
-260.195	-200.000	-0.059	0.325
-259.180	76.799	0.358	-0.376
-258.165	-153.763	-0.092	0.006
-257.151	-79.757	0.242	0.081
-256.136	18.073	0.128	0.101
-255.122	-200.000	-0.035	-0.157
-254.107	608.216	-0.117	-0.289
-253.092	-125.929	-0.304	-0.045
-252.078	-117.003	0.210	0.038
-251.063	512.594	-0.049	-0.113
-250.049	6.571	-0.296	-0.218
-249.034	60.325	0.074	0.072
-248.019	32.655	-0.252	0.215
-247.005	-200.000	-0.009	0.074
-245.990	800.000	0.025	-0.086
-244.976	-31.014	0.226	-0.126
-243.961	-200.000	-0.007	-0.163
-242.946	-68.207	-0.214	0.082
-241.932	-87.719	-0.156	-0.046
-240.917	478.584	0.204	0.456
-239.903	42.821	0.316	0.285
-238.888	1.080	0.196	0.139
-237.873	800.000	-0.037	-0.145
-236.859	-53.799	-0.195	0.088
-235.844	-75.565	-0.234	-0.082
-234.830	-108.917	-0.013	0.003
-233.815	152.104	-0.326	-0.440
-232.800	-163.692	0.300	-0.014
-231.786	-87.208	0.154	0.046
-230.771	74.721	0.162	0.169
-229.757	-111.894	0.180	0.036
-228.742	28.951	0.020	-0.017
-227.727	250.388	0.138	-0.232
-226.713	115.162	0.097	-0.117
-225.698	-24.646	0.169	-0.099
-224.684	-200.000	0.046	-0.345
-223.669	-74.062	0.196	0.070
-222.655	-100.968	0.267	-0.065
-221.640	-158.361	0.343	-0.020
-220.625	94.158	-0.063	-0.070
-219.611	-144.984	0.186	-0.017
-218.596	104.474	0.096	-0.112
-217.582	-25.541	-0.124	0.072
-216.567	-200.000	-0.045	0.239
-215.552	-164.739	-0.227	0.010
-214.538	86.208	0.104	-0.113
-213.523	553.681	0.131	-0.310
-212.509	800.000	-0.049	0.179
-211.494	-76.081	0.188	0.066
-210.479	-14.476	0.304	0.193
-209.465	196.999	-0.041	0.061
-208.450	580.563	-0.069	-0.166
-207.436	-119.364	0.254	0.044
-206.421	-200.000	-0.055	0.285
-205.406	-89.954	-0.158	0.045
-204.392	-169.096	0.351	0.013
-203.377	-98.948	0.482	-0.121
-202.363	-23.772	-0.134	-0.079
-201.348	615.617	0.075	0.187
-200.333	-37.481	-0.245	0.129
-199.319	213.228	0.141	-0.219
-198.304	224.502	-0.049	0.079
-197.290	-57.790	-0.286	-0.123
-196.275	100.966	0.250	0.287
-195.260	-89.763	-0.227	0.065
-194.246	-51.057	0.161	0.074
-193.231	-11.930	-0.089	0.058
-192.217	-200.000	0.091	-0.422
-191.202	800.000	-0.080	0.336
-190.187	429.329	-0.060	-0.127
-189.173	-200.000	-0.052	-0.287
-188.158	-119.634	-0.116	0.020
-187.144	124.482	-0.087	-0.108
-186.129	800.000	0.049	0.182
-185.114	42.415	-0.358	0.321
-184.100	59.585	-0.107	0.104
-183.085	493.809	0.103	0.233
-182.071	629.875	0.053	-0.133
-181.056	-6.731	-0.235	-0.158
-180.042	16.095	-0.102	0.079
-179.027	59.055	0.128	-0.125
-178.012	42.563	0.308	0.276
-176.998	-74.047	-0.119	-0.043
-175.983	177.828	-0.046	-0.066
-174.969	-102.505	-0.089	-0.021
-173.954	134.875	0.052	0.067
-172.939	60.594	0.174	0.170
-171.925	52.414	0.405	-0.381
-170.910	620.086	-0.054	-0.133
-169.896	281.864	-0.076	-0.134
-168.881	608.420	-0.128	0.314
-167.866	-78.712	-0.115	-0.039
-166.852	525.532	0.081	0.188
-165.837	-111.135	-0.213	-0.043
-164.823	-200.000	-0.019	-0.112
-163.808	-74.995	0.500	0.176
-162.793	-35.763	-0.264	-0.141
-161.779	393.059	0.097	-0.198
-160.764	251.518	0.183	0.307
-159.750	75.127	0.164	-0.170
-158.735	100.303	0.158	0.180
-157.720	-58.331	0.277	0.119
-156.706	313.772	0.045	-0.083
-155.691	-142.805	-0.444	0.043
-154.677	-113.546	0.264	-0.051
-153.662	44.846	0.084	0.076
-152.647	-165.632	-0.309	0.013
-151.633	276.863	0.056	-0.098
-150.618	-200.000	0.024	-0.131
-149.604	71.899	0.248	0.254
-148.589	-16.282	0.281	0.175
-147.574	-200.000	-0.007	-0.215
-146.560	544.675	-0.184	0.432
-145.545	-60.462	0.228	0.095
-144.531	248.014	-0.021	0.035
-143.516	-145.192	0.289	-0.026
-142.502	-41.105	-0.285	0.145
-141.487	-101.961	0.290	-0.069
-140.472	800.000	-0.048	0.187
-139.458	-200.000	-0.013	-0.360
-138.443	23.066	-0.222	-0.179
-137.429	-17.243	0.279	-0.173
-136.414	-200.000	-0.133	0.001
-135.399	-32.579	0.173	0.095
-134.385	531.403	-0.063	-0.146
-133.370	-47.075	-0.104	0.050
-132.356	-200.000	-0.068	0.353
-131.341	-8.202	-0.223	0.148
-130.326	145.118	0.169	0.223
-129.312	373.063	-0.048	0.096
-128.297	473.336	-0.059	0.131
-127.283	208.006	0.057	0.087
-126.268	800.000	0.108	-0.348
-125.253	-25.437	0.057	0.033
-124.239	76.040	0.011	0.011
-123.224	-80.698	0.117	-0.038
-122.210	-47.128	0.172	-0.083
