DTS Sentinel unit serial number:	SN413079Multiplexer serial number:	ORYXHardware model number:	OX4-SRSoftware version number:	ORYX F/W v4.00 Oryx Data Collector v3.7.2.0data status	okinstallation	princeton_trtdifferential loss correction	single-endedforward channel	channel 3reverse channel	N/Adate	2019/09/12time	00:18:11forward acquisition time	60.00reverse acquisition time	0.00gamma	496.2192k internal	0.2318k external	0.2318temperature offset calibration	1.0060default loss term (dB/km)	0.3790temperature slope calibration	1.0000multiplexer offset coefficient	1.0000multiplexer slope coefficient	1.0000fibre end	0.00T internal ref (°C)	33.55T ext. ref 1 (°C)	2.03T ext. ref 2 (°C)	27.85length (m)	temperature (°C)	Stokes	anti-Stokes-747.200	342.316	0.056	-0.112
-746.185	-29.515	-0.331	0.191
-745.171	-200.000	0.050	0.504
-744.156	71.381	0.144	0.152
-743.142	-105.026	0.079	-0.018
-742.127	800.000	-0.105	0.395
-741.112	-61.174	0.091	-0.039
-740.098	-145.838	-0.125	-0.011
-739.083	-48.698	0.072	0.035
-738.069	425.767	-0.042	0.091
-737.054	57.357	-0.050	-0.050
-736.039	-78.919	-0.396	0.136
-735.025	-200.000	-0.026	0.177
-734.010	-113.166	-0.082	0.016
-732.996	-111.920	-0.340	-0.069
-731.981	151.769	-0.203	0.281
-730.966	-122.370	0.194	-0.032
-729.952	-165.355	-0.217	0.010
-728.937	-64.286	0.176	0.073
-727.923	-125.507	-0.689	0.106
-726.908	-200.000	-0.049	0.230
-725.894	-197.740	-0.335	0.002
-724.879	97.403	0.109	0.126
-723.864	538.135	-0.163	0.393
-722.850	-200.000	0.033	-0.254
-721.835	-14.721	0.125	-0.081
-720.821	-122.091	0.090	0.015
-719.806	23.727	0.160	-0.133
-718.791	-118.819	0.253	-0.045
-717.777	-71.795	-0.208	-0.078
-716.762	-78.433	-0.486	0.168
-715.748	-124.884	-0.338	0.053
-714.733	612.572	-0.085	-0.216
-713.718	245.962	0.028	0.047
-712.704	-200.000	-0.017	-0.101
-711.689	569.327	-0.031	-0.076
-710.675	-8.374	0.213	0.144
-709.660	-64.456	-0.264	-0.109
-708.645	281.365	-0.042	-0.076
-707.631	800.000	-0.061	-0.243
-706.616	173.898	0.137	0.199
-705.602	800.000	-0.094	-0.339
-704.587	-200.000	0.050	0.274
-703.572	800.000	-0.075	0.226
-702.558	800.000	0.024	0.074
-701.543	-50.609	0.185	-0.088
-700.529	-59.163	0.067	-0.029
-699.514	-191.610	0.311	-0.003
-698.499	-175.672	0.442	0.012
-697.485	-64.578	0.339	0.139
-696.470	-2.132	0.117	-0.083
-695.456	26.732	0.095	0.081
-694.441	46.178	0.302	0.283
-693.426	-125.422	-0.347	-0.053
-692.412	-106.245	-0.256	0.058
-691.397	98.802	0.039	0.046
-690.383	-114.313	0.242	0.047
-689.368	-100.312	0.209	0.052
-688.354	-62.172	0.137	-0.058
-687.339	-1.078	-0.392	-0.280
-686.324	-32.470	0.293	-0.165
-685.310	346.034	-0.055	0.109
-684.295	-192.690	-0.252	-0.002
-683.281	16.397	0.133	-0.106
-682.266	-135.263	-0.218	-0.026
-681.251	-62.264	-0.334	0.140
-680.237	7.663	-0.112	0.085
-679.222	57.629	-0.263	0.259
-678.208	-200.000	-0.019	0.158
-677.193	9.033	-0.064	0.049
-676.178	-71.753	0.389	0.146
-675.164	70.249	0.189	-0.197
-674.149	-200.000	-0.031	0.231
-673.135	458.369	-0.152	-0.342
-672.120	375.996	-0.153	-0.316
-671.105	-105.107	0.344	-0.079
-670.091	374.096	0.147	-0.301
-669.076	67.916	-0.133	0.137
-668.062	800.000	0.063	-0.263
-667.047	64.994	-0.100	-0.102
-666.032	-37.103	-0.202	-0.109
-665.018	-107.593	0.104	-0.023
-664.003	105.226	0.066	-0.078
-662.989	162.199	0.084	-0.119
-661.974	57.511	-0.183	0.180
-660.959	800.000	-0.023	-0.098
-659.945	-85.101	0.216	0.068
-658.930	-87.214	-0.224	-0.069
-657.916	-49.259	0.413	-0.199
-656.901	-200.000	-0.008	-0.153
-655.886	303.449	0.006	0.011
-654.872	243.818	-0.049	-0.083
-653.857	-200.000	-0.027	-0.250
-652.843	-200.000	-0.003	0.103
-651.828	-105.100	-0.224	0.052
-650.814	-200.000	0.314	0.000
-649.799	420.092	0.119	-0.258
-648.784	111.463	-0.062	-0.076
-647.770	29.075	0.013	0.011
-646.755	-72.430	0.195	0.073
-645.741	-94.577	-0.234	-0.064
-644.726	-87.804	-0.295	-0.090
-643.711	-120.062	0.437	-0.075
-642.697	800.000	0.035	-0.136
-641.682	217.777	-0.095	0.153
-640.668	-200.000	0.023	0.349
-639.653	122.593	-0.233	-0.293
-638.638	-62.201	0.078	-0.033
-637.624	149.967	0.184	-0.252
-636.609	-129.363	-0.461	-0.065
-635.595	-122.208	-0.272	-0.045
-634.580	-18.155	-0.387	-0.244
-633.565	800.000	-0.116	-0.465
-632.551	-95.730	0.155	0.042
-631.536	-6.479	0.188	0.129
-630.522	69.373	0.142	-0.147
-629.507	-7.514	0.164	-0.112
-628.492	83.082	-0.194	0.212
-627.478	-67.853	0.254	0.100
-626.463	-102.418	0.143	-0.034
-625.449	333.634	0.098	0.190
-624.434	-200.000	-0.002	-0.144
-623.419	431.883	-0.059	-0.129
-622.405	-17.352	-0.036	0.023
-621.390	240.233	0.134	-0.224
-620.376	-200.000	-0.023	0.143
-619.361	800.000	-0.101	-0.352
-618.346	-200.000	0.039	-0.236
-617.332	450.182	0.018	-0.041
-616.317	-200.000	-0.003	-0.030
-615.303	-139.785	-0.243	0.026
-614.288	-139.178	-0.283	-0.031
-613.273	-101.869	-0.175	-0.043
-612.259	-200.000	0.008	0.071
-611.244	5.961	-0.214	-0.160
-610.230	568.451	0.032	-0.078
-609.215	446.635	-0.085	-0.189
-608.201	-170.565	0.420	-0.015
-607.186	-12.621	0.250	0.164
-606.171	-58.253	-0.218	-0.096
-605.157	15.172	0.277	0.219
-604.142	458.929	0.187	-0.418
-603.128	195.822	0.075	-0.115
-602.113	-50.086	-0.372	0.177
-601.098	800.000	0.012	-0.052
-600.084	52.145	-0.099	0.095
-599.069	338.630	0.150	0.294
-598.055	673.168	0.055	-0.144
-597.040	-130.690	0.129	0.018
-596.025	787.469	-0.102	-0.281
-595.011	-101.999	0.303	0.074
-593.996	128.871	0.158	-0.203
-592.982	513.059	-0.135	0.316
-591.967	170.475	0.135	0.195
-590.952	-74.750	0.142	0.051
-589.938	800.000	0.078	0.232
-588.923	193.279	-0.066	-0.100
-587.909	-1.677	0.049	-0.035
-586.894	-163.422	0.146	0.007
-585.879	-200.000	-0.011	0.438
-584.865	-75.682	-0.174	0.062
-583.850	39.464	-0.105	-0.095
-582.836	39.116	-0.174	-0.157
-581.821	119.018	0.242	0.301
-580.806	138.786	-0.098	-0.129
-579.792	-25.788	0.054	0.032
-578.777	-86.641	0.153	0.047
-577.763	-166.792	0.286	0.012
-576.748	407.103	-0.142	0.303
-575.733	236.067	0.059	-0.098
-574.719	-200.000	-0.042	-0.549
-573.704	181.265	-0.128	0.189
-572.690	37.003	-0.025	0.022
-571.675	5.975	0.282	-0.210
-570.661	-27.777	0.232	0.135
-569.646	-178.705	0.052	-0.001
-568.631	800.000	-0.059	-0.181
-567.617	-75.582	0.119	0.043
-566.602	-168.550	-0.336	-0.013
-565.588	258.865	0.018	-0.031
-564.573	-200.000	-0.003	0.220
-563.558	490.194	0.027	0.063
-562.544	215.282	-0.227	0.362
-561.529	-148.755	0.311	0.025
-560.515	-80.385	0.249	-0.084
-559.500	-92.723	-0.427	0.120
-558.485	-167.528	-0.528	-0.021
-557.471	314.939	0.051	-0.096
-556.456	800.000	-0.072	-0.224
-555.442	-200.000	-0.034	0.164
-554.427	-99.008	-0.218	0.056
-553.412	-200.000	-0.015	-0.288
-552.398	-140.780	-0.154	-0.016
-551.383	-34.994	-0.212	-0.116
-550.369	287.811	0.114	-0.207
-549.354	68.521	0.154	0.158
-548.339	-200.000	0.003	0.133
-547.325	800.000	-0.069	-0.247
-546.310	-138.312	0.016	0.002
-545.296	360.464	0.144	-0.289
-544.281	657.862	0.141	-0.363
-543.266	8.165	0.064	-0.049
-542.252	-128.810	-0.163	0.023
-541.237	-55.805	0.188	-0.085
-540.223	-16.603	-0.411	0.261
-539.208	259.096	0.092	-0.159
-538.193	42.432	0.276	0.252
-537.179	-114.929	-0.253	0.048
-536.164	-55.407	-0.300	0.135
-535.150	-54.130	0.596	0.272
-534.135	235.724	0.089	-0.148
-533.121	-26.230	0.207	0.122
-532.106	-96.135	-0.134	0.036
-531.091	39.531	0.172	-0.155
-530.077	315.998	0.106	-0.200
-529.062	6.411	-0.197	-0.147
-528.048	104.622	0.063	-0.075
-527.033	117.688	0.146	0.180
-526.018	-88.519	0.381	0.114
-525.004	-200.000	-0.026	-0.320
-523.989	-13.560	-0.320	-0.208
-522.975	800.000	-0.004	-0.012
-521.960	800.000	0.059	-0.168
-520.945	-5.678	0.127	0.087
-519.931	41.439	-0.157	0.143
-518.916	-39.976	0.028	0.015
-517.902	-117.036	-0.107	-0.020
-516.887	-158.738	0.153	-0.009
-515.872	-93.541	0.078	-0.022
-514.858	166.973	0.083	-0.119
-513.843	-82.905	-0.269	0.087
-512.829	66.697	0.089	-0.091
-511.814	-200.000	0.006	0.033
-510.799	-100.788	0.234	0.058
-509.785	89.469	0.091	-0.102
-508.770	-38.587	-0.150	-0.079
-507.756	177.800	0.076	-0.111
-506.741	10.842	0.224	0.171
-505.726	320.286	0.113	0.215
-504.712	228.778	-0.067	0.109
-503.697	-185.149	-0.144	0.002
-502.683	119.029	0.239	-0.296
-501.668	800.000	0.097	0.300
-500.653	490.891	0.185	0.426
-499.639	800.000	0.064	0.196
-498.624	800.000	-0.067	-0.270
-497.610	-50.649	0.103	0.049
-496.595	-94.176	-0.288	-0.079
-495.581	64.960	-0.089	0.090
-494.566	152.292	-0.118	-0.162
-493.551	-200.000	0.033	-0.166
-492.537	97.266	0.216	0.249
-491.522	326.033	0.039	-0.075
-490.508	41.095	-0.081	-0.074
-489.493	10.636	-0.130	-0.099
-488.478	12.360	0.137	-0.106
-487.464	-82.759	-0.274	-0.089
-486.449	186.294	-0.107	-0.159
-485.435	-38.076	0.141	0.075
-484.420	795.470	-0.088	-0.242
-483.405	-48.815	0.159	-0.076
-482.391	56.469	-0.093	0.091
-481.376	-166.623	-0.181	-0.008
-480.362	533.067	-0.138	0.328
-479.347	-200.000	-0.010	-0.052
-478.332	-74.104	-0.286	0.104
-477.318	301.220	-0.167	0.310
-476.303	668.125	-0.131	0.340
-475.289	800.000	0.055	0.155
-474.274	-107.687	0.330	-0.072
-473.259	-112.161	0.292	-0.059
-472.245	477.836	-0.097	-0.219
-471.230	-112.155	-0.177	0.036
-470.216	60.685	-0.098	-0.097
-469.201	800.000	0.018	0.080
-468.186	800.000	-0.041	-0.116
-467.172	-200.000	-0.017	-0.279
-466.157	800.000	-0.118	-0.382
-465.143	-69.120	0.187	0.072
-464.128	800.000	-0.108	-0.369
-463.113	149.000	-0.200	0.270
-462.099	195.648	-0.070	-0.107
-461.084	373.777	0.111	-0.227
-460.070	105.680	-0.150	0.178
-459.055	4.688	-0.398	0.293
-458.040	24.414	-0.252	0.209
-457.026	504.381	-0.200	0.464
-456.011	672.483	-0.047	-0.121
-454.997	163.133	-0.141	-0.199
-453.982	45.676	0.167	-0.154
-452.968	800.000	0.071	0.298
-451.953	-101.190	0.255	-0.062
-450.938	-68.315	-0.050	-0.020
-449.924	235.305	-0.085	0.140
-448.909	106.115	-0.170	0.201
-447.895	800.000	-0.098	-0.328
-446.880	14.838	0.137	-0.107
-445.865	288.161	0.107	0.194
-444.851	131.750	-0.250	0.322
-443.836	246.546	-0.195	0.329
-442.822	-53.797	0.159	-0.072
-441.807	128.811	-0.141	-0.179
-440.792	-200.000	0.036	0.177
-439.778	-80.807	0.248	0.082
-438.763	42.582	0.299	-0.272
-437.749	-200.000	0.052	-0.242
-436.734	-44.443	-0.275	-0.138
-435.719	142.218	0.133	0.176
-434.705	137.794	0.167	0.219
-433.690	-31.826	-0.164	-0.092
-432.676	-200.000	0.007	0.324
-431.661	-200.000	0.046	0.250
-430.646	-105.961	-0.173	0.039
-429.632	-47.818	-0.222	-0.107
-428.617	25.583	0.255	0.212
-427.603	87.835	-0.170	-0.189
-426.588	-128.950	0.275	0.039
-425.573	-98.919	-0.023	0.006
-424.559	281.329	-0.129	0.230
-423.544	562.692	0.062	0.151
-422.530	-93.721	0.056	0.015
-421.515	221.479	-0.058	-0.093
-420.500	-111.537	-0.169	0.034
-419.486	-65.868	-0.159	0.064
-418.471	31.222	-0.273	-0.234
-417.457	-200.000	0.058	0.344
-416.442	56.329	0.066	0.064
-415.428	165.762	-0.158	-0.223
-414.413	-200.000	-0.056	0.368
-413.398	-200.000	-0.002	-0.012
-412.384	-140.428	-0.214	0.022
-411.369	-200.000	-0.021	-0.171
-410.355	45.076	0.030	-0.028
-409.340	800.000	-0.085	-0.297
-408.325	215.865	0.132	0.209
-407.311	-159.298	-0.174	0.010
-406.296	156.899	-0.156	-0.216
-405.282	-93.128	0.283	0.079
-404.267	68.215	0.066	0.067
-403.252	256.511	-0.191	-0.327
-402.238	800.000	-0.046	0.173
-401.223	-200.000	0.001	-0.023
-400.209	800.000	-0.020	0.067
-399.194	31.779	0.357	0.307
-398.179	-135.684	-0.231	-0.027
-397.165	800.000	-0.062	-0.201
-396.150	-10.184	0.089	-0.059
-395.136	38.805	-0.235	-0.210
-394.121	571.880	0.090	-0.219
-393.106	33.225	0.188	0.163
-392.092	-95.945	0.352	-0.094
-391.077	294.632	-0.159	0.290
-390.063	-77.450	-0.198	-0.068
-389.048	-27.030	0.202	-0.118
-388.033	-19.921	0.140	0.086
-387.019	536.097	-0.101	-0.240
-386.004	-97.535	-0.182	-0.047
-384.990	-200.000	-0.003	-0.193
-383.975	800.000	-0.107	-0.409
-382.960	-161.798	0.257	0.013
-381.946	-57.446	0.054	0.023
-380.931	800.000	0.018	-0.051
-379.917	-80.294	0.043	-0.015
-378.902	716.112	-0.020	0.052
-377.888	-200.000	-0.031	0.166
-376.873	-7.097	-0.143	-0.097
-375.858	498.346	-0.059	-0.136
-374.844	630.951	-0.096	0.242
-373.829	360.235	-0.091	-0.183
-372.815	-173.682	-0.149	0.004
-371.800	179.973	0.144	-0.210
-370.785	-99.457	-0.116	0.029
-369.771	64.814	0.151	-0.152
-368.756	276.588	0.116	0.205
-367.742	-200.000	0.035	-0.190
-366.727	79.427	0.226	0.242
-365.712	-17.836	0.061	0.038
-364.698	0.537	-0.264	-0.189
-363.683	17.991	0.124	0.099
-362.669	800.000	-0.029	0.102
-361.654	-21.632	0.217	0.132
-360.639	98.650	0.183	-0.211
-359.625	-200.000	0.015	0.285
-358.610	800.000	-0.057	0.217
-357.596	-121.167	0.076	-0.013
-356.581	-68.396	-0.359	0.139
-355.566	134.665	0.282	-0.364
-354.552	56.305	0.168	-0.163
-353.537	-200.000	-0.002	-0.065
-352.523	-200.000	0.069	0.412
-351.508	-200.000	-0.042	0.246
-350.493	-56.325	0.118	0.052
-349.479	-110.011	0.056	0.012
-348.464	-16.336	-0.161	0.102
-347.450	-106.919	0.421	0.093
-346.435	119.461	-0.039	-0.049
-345.420	-4.445	-0.364	0.251
-344.406	800.000	0.074	-0.232
-343.391	-47.936	-0.242	0.117
-342.377	92.822	0.163	0.183
-341.362	-89.894	0.265	0.077
-340.348	-74.855	0.145	0.052
-339.333	-93.015	-0.073	-0.020
-338.318	-200.000	-0.087	-0.558
-337.304	-90.391	-0.323	0.093
-336.289	57.634	-0.052	0.051
-335.275	-142.793	0.154	-0.015
-334.260	-7.374	0.260	-0.175
-333.245	-31.669	0.191	-0.107
-332.231	800.000	-0.096	-0.300
-331.216	760.370	-0.123	0.333
-330.202	599.443	0.108	0.267
-329.187	42.647	0.093	-0.084
-328.172	-59.523	0.113	0.048
-327.158	800.000	0.019	-0.062
-326.143	526.180	-0.163	0.382
-325.129	-56.311	0.255	0.113
-324.114	-5.835	0.158	-0.108
-323.099	52.412	-0.044	0.041
-322.085	-104.073	-0.089	0.021
-321.070	311.288	-0.097	0.181
-320.056	-5.515	0.298	-0.204
-319.041	156.423	-0.079	-0.108
-318.026	363.910	-0.163	0.326
-317.012	-200.000	-0.072	-0.325
-315.997	277.871	-0.192	-0.340
-314.983	-200.000	0.010	-0.137
-313.968	50.949	0.130	0.123
-312.953	-160.025	-0.063	0.003
-311.939	-113.577	-0.188	-0.036
-310.924	-91.259	0.279	-0.080
-309.910	-200.000	0.017	0.099
-308.895	95.971	0.165	0.188
-307.880	-200.000	0.043	0.342
-306.866	-75.217	-0.038	0.013
-305.851	-152.862	-0.295	-0.021
-304.837	-13.941	0.249	-0.160
-303.822	220.292	-0.185	0.294
-302.807	276.369	-0.181	-0.319
-301.793	-200.000	-0.084	0.409
-300.778	104.083	0.284	-0.332
-299.764	-200.000	-0.128	-0.584
-298.749	-47.668	-0.027	0.013
-297.735	53.538	0.116	0.111
-296.720	-91.705	0.175	-0.049
-295.705	-200.000	0.044	-0.228
-294.691	-200.000	0.057	0.274
-293.676	779.524	0.087	0.237
-292.662	800.000	0.048	-0.146
-291.647	383.609	0.074	0.151
-290.632	-53.471	0.361	-0.164
-289.618	-155.950	0.059	-0.004
-288.603	332.413	0.126	0.241
-287.589	476.208	-0.096	-0.216
-286.574	-33.193	-0.337	-0.185
-285.559	-194.879	-0.060	-0.000
-284.545	287.359	0.122	-0.220
-283.530	55.574	0.193	-0.186
-282.516	-53.870	0.240	0.109
-281.501	761.000	-0.080	-0.214
-280.486	-110.316	-0.122	-0.025
-279.472	-200.000	-0.068	0.609
-278.457	27.528	-0.048	-0.040
-277.443	332.422	0.072	-0.139
-276.428	-200.000	0.058	-0.471
-275.413	214.816	0.061	0.095
-274.399	72.631	0.027	-0.028
-273.384	104.726	0.054	0.063
-272.370	-33.273	-0.056	-0.031
-271.355	-35.977	0.052	0.028
-270.340	46.852	-0.064	-0.059
-269.326	800.000	0.046	-0.194
-268.311	68.924	0.233	0.238
-267.297	-67.566	-0.118	0.046
-266.282	240.114	0.134	0.221
-265.267	112.881	0.137	0.165
-264.253	-125.157	0.272	0.041
-263.238	44.853	-0.089	0.081
-262.224	-78.686	-0.290	-0.098
-261.209	-200.000	-0.027	-0.125
-260.195	30.575	-0.185	0.157
-259.180	800.000	0.065	-0.209
-258.165	-56.041	-0.190	0.084
-257.151	-94.491	0.368	0.100
-256.136	-75.165	0.095	0.034
-255.122	18.261	0.071	0.057
-254.107	3.003	0.156	0.112
-253.092	212.704	-0.204	0.320
-252.078	398.573	-0.066	-0.138
-251.063	-200.000	0.047	0.327
-250.049	138.394	-0.117	0.153
-249.034	98.920	-0.193	0.221
-248.019	152.288	-0.131	0.178
-247.005	-48.931	-0.115	-0.055
-245.990	-200.000	0.021	0.276
-244.976	181.900	-0.255	-0.372
-243.961	70.503	0.125	0.128
-242.946	41.117	0.159	-0.142
-241.932	158.015	0.061	-0.083
-240.917	393.529	-0.076	0.157
-239.903	-200.000	-0.005	-0.208
-238.888	-200.000	0.009	-0.158
-237.873	60.865	0.158	0.155
-236.859	314.170	0.093	0.173
-235.844	92.051	-0.060	0.067
-234.830	45.407	-0.186	-0.171
-233.815	-200.000	-0.008	-0.185
-232.800	-22.893	0.325	-0.194
-231.786	-200.000	-0.008	-0.379
-230.771	16.027	-0.067	-0.053
-229.757	19.570	-0.172	-0.137
-228.742	-200.000	-0.056	-0.324
-227.727	299.796	0.031	0.057
-226.713	98.017	-0.066	-0.075
-225.698	-200.000	-0.055	-0.270
-224.684	154.368	0.110	-0.149
-223.669	64.068	-0.129	-0.129
-222.655	-0.251	-0.228	0.160
-221.640	-200.000	0.078	0.342
-220.625	-200.000	0.043	0.298
-219.611	123.771	0.097	-0.121
-218.596	72.381	0.187	0.193
-217.582	800.000	-0.031	0.104
-216.567	-106.017	-0.148	-0.033
-215.552	329.878	0.093	0.178
-214.538	187.009	0.200	0.296
-213.523	8.600	0.302	0.225
-212.509	-21.858	-0.094	-0.057
-211.494	-200.000	0.023	-0.324
-210.479	131.355	0.221	0.281
-209.465	-200.000	-0.014	-0.196
-208.450	800.000	0.059	0.198
-207.436	326.509	-0.084	0.159
-206.421	-200.000	0.011	0.116
-205.406	-6.976	0.351	0.236
-204.392	800.000	0.064	0.228
-203.377	800.000	-0.040	0.154
-202.363	800.000	0.056	-0.157
-201.348	-72.399	-0.142	0.052
-200.333	-200.000	-0.055	0.433
-199.319	-44.468	0.147	-0.073
-198.304	372.396	-0.195	0.393
-197.290	343.945	-0.155	-0.300
-196.275	245.454	-0.047	-0.079
-195.260	-200.000	-0.016	-0.093
-194.246	94.084	0.068	0.077
-193.231	166.478	0.207	0.291
-192.217	-0.431	-0.096	0.067
-191.202	-200.000	-0.042	-0.233
-190.187	-41.895	-0.253	-0.129
-189.173	-115.253	-0.215	-0.040
-188.158	-200.000	0.020	-0.193
-187.144	260.108	-0.054	0.092
-186.129	377.601	0.089	-0.181
-185.114	237.722	-0.058	-0.095
-184.100	-170.966	0.333	0.011
-183.085	-159.573	0.148	-0.008
-182.071	-200.000	0.014	0.106
-181.056	446.151	-0.047	-0.103
-180.042	-200.000	0.003	0.205
-179.027	-200.000	-0.025	0.129
-178.012	117.168	0.199	-0.242
-176.998	-38.577	0.243	0.127
-175.983	-106.053	-0.296	0.066
-174.969	-97.170	-0.122	-0.032
-173.954	190.814	0.062	0.092
-172.939	-153.988	0.205	0.014
-171.925	-81.363	-0.171	-0.056
-170.910	23.065	0.060	-0.049
-169.896	-89.976	0.420	-0.121
-168.881	-146.388	0.130	-0.011
-167.866	-200.000	0.001	0.170
-166.852	-46.416	-0.308	0.150
-165.837	473.572	0.059	-0.133
-164.823	-200.000	-0.015	-0.127
-163.808	-45.252	-0.115	0.056
-162.793	-197.651	-0.372	0.002
-161.779	-200.000	0.027	0.155
-160.764	476.590	-0.067	0.151
-159.750	-87.194	-0.374	-0.113
-158.735	-11.374	-0.058	0.038
-157.720	-103.477	-0.179	-0.042
-156.706	88.072	0.128	-0.140
-155.691	-122.930	-0.049	-0.008
-154.677	-86.281	-0.389	-0.118
-153.662	34.020	-0.099	0.085
-152.647	-98.521	-0.200	0.051
-151.633	-200.000	-0.016	-0.134
-150.618	-122.269	0.070	-0.011
-149.604	443.898	-0.132	0.287
-148.589	11.601	-0.028	-0.021
-147.574	-7.811	0.191	-0.127
-146.560	-166.196	0.215	-0.009
-145.545	16.576	0.293	0.229
-144.531	-200.000	-0.066	0.323
-143.516	-101.458	0.204	0.049
-142.502	133.590	0.102	0.131
-141.487	-122.494	0.318	-0.051
-140.472	18.895	-0.091	-0.072
-139.458	68.726	-0.090	0.091
-138.443	-76.702	0.433	-0.150
-137.429	-200.000	-0.014	0.115
-136.414	172.565	0.139	0.198
-135.399	-200.000	0.016	-0.235
-134.385	27.790	0.156	0.130
-133.370	-200.000	-0.003	0.019
-132.356	-38.708	-0.337	-0.176
-131.341	694.889	-0.055	0.142
-130.326	-183.849	-0.206	0.003
-129.312	48.215	0.172	-0.159
-128.297	66.376	0.065	-0.065
-127.283	-194.844	-0.157	-0.001
-126.268	610.659	-0.062	-0.153
-125.253	-200.000	0.013	-0.349
-124.239	-32.195	0.230	0.127
-123.224	-9.242	0.211	-0.139
-122.210	30.469	0.441	0.372
-121.195	62.099	0.057	-0.056
-120.180	-27.481	-0.124	0.071
