DTS Sentinel unit serial number:	SN413079Multiplexer serial number:	ORYXHardware model number:	OX4-SRSoftware version number:	ORYX F/W v4.00 Oryx Data Collector v3.7.2.0data status	okinstallation	princeton_trtdifferential loss correction	single-endedforward channel	channel 3reverse channel	N/Adate	2019/09/11time	15:02:11forward acquisition time	60.00reverse acquisition time	0.00gamma	496.2192k internal	0.2289k external	0.2289temperature offset calibration	0.9981default loss term (dB/km)	0.3790temperature slope calibration	1.0000multiplexer offset coefficient	1.0000multiplexer slope coefficient	1.0000fibre end	0.00T internal ref (°C)	42.83T ext. ref 1 (°C)	0.93T ext. ref 2 (°C)	38.17length (m)	temperature (°C)	Stokes	anti-Stokes-747.200	-117.367	0.309	-0.057
-746.185	344.940	0.057	0.115
-745.171	-200.000	-0.012	0.064
-744.156	-103.134	0.375	-0.091
-743.142	800.000	0.090	0.268
-742.127	-94.799	0.243	-0.068
-741.112	-146.625	-0.184	-0.016
-740.098	106.358	0.160	0.195
-739.083	-80.797	0.073	-0.025
-738.069	72.117	0.269	0.286
-737.054	617.873	0.036	0.092
-736.039	190.017	-0.230	-0.353
-735.025	-200.000	0.039	0.284
-734.010	-77.183	-0.287	0.102
-732.996	-72.956	0.185	-0.070
-731.981	42.660	-0.216	-0.201
-730.966	-49.143	-0.114	-0.056
-729.952	-200.000	-0.004	-0.169
-728.937	-9.809	-0.232	0.158
-727.923	32.279	-0.206	-0.182
-726.908	58.544	-0.266	-0.267
-725.894	-14.033	-0.301	0.199
-724.879	-102.363	-0.119	-0.029
-723.864	-62.620	-0.292	0.124
-722.850	-66.068	0.072	-0.029
-721.835	-82.754	0.135	0.045
-720.821	800.000	-0.086	0.262
-719.806	-104.700	-0.165	-0.039
-718.791	735.418	0.116	-0.319
-717.777	35.200	-0.185	-0.166
-716.762	800.000	-0.011	-0.043
-715.748	19.176	-0.081	-0.067
-714.733	-200.000	0.006	0.125
-713.718	92.186	-0.154	-0.177
-712.704	-200.000	-0.040	-0.343
-711.689	-200.000	0.024	-0.219
-710.675	215.624	-0.041	0.067
-709.660	-200.000	-0.068	0.335
-708.645	336.633	-0.070	0.140
-707.631	800.000	0.106	0.434
-706.616	-23.602	0.168	0.103
-705.602	-184.700	0.279	-0.005
-704.587	21.119	0.127	0.106
-703.572	-37.464	-0.292	-0.160
-702.558	-7.219	-0.074	0.051
-701.543	123.977	-0.097	0.125
-700.529	144.670	-0.142	-0.193
-699.514	139.733	0.233	-0.313
-698.499	-15.152	0.136	0.089
-697.485	-11.117	0.086	0.058
-696.470	-200.000	-0.030	-0.229
-695.456	362.350	-0.077	0.158
-694.441	-146.712	-0.323	-0.029
-693.426	-200.000	0.019	-0.152
-692.412	-181.025	-0.438	-0.009
-691.397	-200.000	-0.016	0.121
-690.383	-58.866	-0.275	0.122
-689.368	-76.504	-0.016	0.006
-688.354	120.654	0.129	-0.165
-687.339	-144.118	0.235	-0.023
-686.324	100.553	0.031	0.037
-685.310	233.854	-0.074	-0.124
-684.295	-200.000	-0.011	0.088
-683.281	407.611	-0.043	0.092
-682.266	-102.395	-0.195	-0.048
-681.251	-159.883	0.307	0.017
-680.237	-91.907	0.205	0.059
-679.222	0.141	0.070	-0.051
-678.208	-162.752	-0.112	-0.006
-677.193	-34.432	0.118	0.066
-676.178	85.380	0.199	-0.223
-675.164	-71.007	0.235	0.090
-674.149	207.663	-0.164	-0.261
-673.135	200.176	-0.104	0.163
-672.120	311.005	-0.051	-0.098
-671.105	-153.761	0.163	0.011
-670.091	-111.914	0.107	-0.022
-669.076	-92.748	-0.396	-0.113
-668.062	82.742	0.039	-0.043
-667.047	-79.382	0.038	-0.013
-666.032	-142.304	0.224	0.023
-665.018	-132.870	-0.067	0.009
-664.003	16.909	0.231	-0.187
-662.989	-32.152	-0.040	0.023
-661.974	-12.254	0.193	0.129
-660.959	-97.150	0.195	0.052
-659.945	-68.705	-0.078	-0.031
-658.930	62.777	0.074	0.076
-657.916	-185.624	-0.189	-0.003
-656.901	504.454	0.074	0.174
-655.886	-132.234	-0.126	-0.017
-654.872	-200.000	0.056	0.256
-653.857	-86.684	-0.375	-0.117
-652.843	78.069	0.159	0.173
-651.828	2.309	0.304	0.225
-650.814	-53.715	0.227	-0.106
-649.799	56.600	-0.110	0.110
-648.784	26.024	-0.206	0.175
-647.770	104.642	0.040	0.048
-646.755	140.730	-0.252	-0.340
-645.741	-117.332	0.213	-0.039
-644.726	-3.525	-0.059	0.042
-643.711	-185.061	0.099	-0.002
-642.697	-52.601	-0.282	0.133
-641.682	-164.815	0.322	-0.015
-640.668	235.144	-0.036	0.060
-639.653	29.815	0.352	0.306
-638.638	-116.192	-0.369	0.070
-637.624	800.000	-0.029	-0.114
-636.609	-136.191	0.218	-0.026
-635.595	40.013	0.274	0.251
-634.580	128.305	0.141	0.183
-633.565	800.000	0.039	0.167
-632.551	3.610	0.052	-0.039
-631.536	2.287	0.210	0.155
-630.522	484.887	-0.020	-0.047
-629.507	-44.791	0.212	-0.108
-628.492	118.837	0.225	0.284
-627.478	-21.501	-0.340	0.211
-626.463	81.160	-0.208	-0.230
-625.449	-1.759	0.226	-0.162
-624.434	800.000	-0.011	-0.051
-623.419	105.794	0.147	0.178
-622.405	-115.997	-0.046	-0.009
-621.390	-47.521	0.073	0.036
-620.376	401.392	0.099	0.212
-619.361	-200.000	-0.019	-0.150
-618.346	-200.000	-0.006	-0.270
-617.332	-80.024	0.096	-0.033
-616.317	73.970	-0.113	-0.120
-615.303	89.148	0.178	0.202
-614.288	181.665	-0.078	0.116
-613.273	409.379	-0.041	-0.089
-612.259	-200.000	0.015	-0.212
-611.244	47.304	-0.005	0.005
-610.230	252.336	-0.070	0.121
-609.215	-35.779	-0.315	0.174
-608.201	-155.761	0.172	-0.011
-607.186	800.000	-0.085	-0.305
-606.171	-100.984	0.052	0.013
-605.157	-126.716	-0.040	-0.006
-604.142	-100.438	0.323	-0.082
-603.128	164.228	-0.047	-0.068
-602.113	-200.000	-0.009	-0.353
-601.098	19.269	0.191	0.156
-600.084	-200.000	0.007	-0.060
-599.069	-5.713	0.197	0.137
-598.055	-112.651	0.202	-0.041
-597.040	-76.243	-0.230	0.083
-596.025	161.576	0.094	0.134
-595.011	-88.155	-0.214	-0.065
-593.996	263.022	-0.110	0.194
-592.982	-54.370	-0.228	0.105
-591.967	661.475	-0.068	-0.178
-590.952	-74.242	0.240	-0.088
-589.938	-120.151	-0.158	-0.028
-588.923	59.398	-0.180	-0.181
-587.909	800.000	-0.053	-0.181
-586.894	532.200	0.117	0.282
-585.879	-139.551	-0.063	0.007
-584.865	-179.858	-0.296	-0.006
-583.850	160.478	0.078	-0.110
-582.836	29.645	-0.315	0.273
-581.821	33.281	-0.163	-0.144
-580.806	133.969	-0.098	0.129
-579.792	156.024	0.255	-0.359
-578.777	141.968	-0.099	-0.134
-577.763	-187.321	-0.227	0.003
-576.748	109.267	-0.056	0.069
-575.733	209.371	-0.108	0.172
-574.719	-200.000	0.026	0.127
-573.704	172.637	-0.140	0.206
-572.690	52.653	-0.026	0.025
-571.675	800.000	0.042	-0.136
-570.661	122.472	0.269	-0.342
-569.646	43.655	-0.105	0.098
-568.631	163.598	0.139	0.200
-567.617	-14.063	0.182	-0.119
-566.602	-143.514	-0.294	-0.029
-565.588	192.581	-0.088	0.136
-564.573	-200.000	0.002	0.243
-563.558	-200.000	-0.024	-0.187
-562.544	-200.000	-0.047	-0.308
-561.529	156.243	-0.119	0.167
-560.515	-135.337	-0.372	-0.045
-559.500	-5.683	-0.129	-0.090
-558.485	-200.000	-0.005	0.220
-557.471	-44.153	0.133	0.068
-556.456	516.551	-0.157	-0.373
-555.442	-177.495	-0.132	0.003
-554.427	-200.000	-0.027	-0.334
-553.412	-200.000	0.057	0.317
-552.398	313.002	0.080	0.152
-551.383	-65.495	0.177	0.072
-550.369	-166.876	-0.233	-0.010
-549.354	-200.000	-0.052	-0.292
-548.339	-80.254	0.214	0.073
-547.325	-94.214	-0.095	0.026
-546.310	-200.000	-0.003	0.057
-545.296	-83.007	0.208	-0.068
-544.281	-147.136	0.139	0.012
-543.266	151.481	-0.083	-0.115
-542.252	-88.696	-0.178	0.054
-541.237	145.992	-0.258	-0.351
-540.223	-200.000	-0.001	-0.157
-539.208	-200.000	-0.001	0.031
-538.193	-200.000	-0.004	0.171
-537.179	800.000	0.052	-0.162
-536.164	37.532	0.263	-0.237
-535.150	-132.835	0.138	-0.018
-534.135	-122.131	0.148	0.025
-533.121	464.722	0.057	0.129
-532.106	-131.417	0.263	-0.035
-531.091	-200.000	-0.015	0.080
-530.077	-146.624	-0.199	-0.018
-529.062	44.742	0.052	0.049
-528.048	800.000	-0.093	-0.278
-527.033	-150.018	-0.146	0.012
-526.018	415.182	0.040	0.086
-525.004	-70.946	0.143	0.055
-523.989	190.153	-0.059	0.090
-522.975	-89.049	0.063	0.019
-521.960	-3.650	0.155	0.110
-520.945	-107.755	-0.045	0.010
-519.931	32.468	-0.159	0.139
-518.916	800.000	0.127	0.423
-517.902	-200.000	0.063	0.552
-516.887	-128.042	-0.102	-0.015
-515.872	-161.109	0.230	0.012
-514.858	-49.129	-0.422	-0.205
-513.843	-3.520	0.210	-0.148
-512.829	-200.000	-0.047	0.214
-511.814	-200.000	0.003	-0.049
-510.799	-29.450	0.029	0.017
-509.785	-200.000	-0.001	0.229
-508.770	19.419	0.265	0.216
-507.756	-93.624	-0.251	-0.070
-506.741	-101.830	-0.158	0.039
-505.726	283.693	-0.206	0.375
-504.712	-200.000	-0.016	-0.081
-503.697	401.705	0.067	-0.143
-502.683	-200.000	-0.000	0.178
-501.668	28.247	-0.272	0.233
-500.653	-200.000	-0.010	0.134
-499.639	-148.651	0.330	0.027
-498.624	-101.425	-0.168	-0.041
-497.610	-200.000	-0.019	-0.343
-496.595	-118.687	-0.089	0.016
-495.581	-124.388	-0.219	0.035
-494.566	-118.691	0.321	0.058
-493.551	-200.000	-0.031	-0.184
-492.537	51.554	-0.057	0.055
-491.522	496.009	0.085	-0.198
-490.508	340.412	-0.035	0.069
-489.493	44.437	-0.171	-0.159
-488.478	39.090	0.141	-0.128
-487.464	-131.454	0.217	0.029
-486.449	42.690	-0.200	0.185
-485.435	322.479	0.064	-0.123
-484.420	417.900	0.081	0.175
-483.405	562.427	-0.080	0.196
-482.391	-75.541	0.274	-0.099
-481.376	-131.170	0.252	-0.034
-480.362	-200.000	-0.026	0.239
-479.347	-200.000	0.079	-0.458
-478.332	-78.603	0.200	-0.069
-477.318	-126.483	0.136	0.020
-476.303	-200.000	0.027	-0.211
-475.289	800.000	0.037	-0.134
-474.274	-113.849	-0.078	-0.015
-473.259	279.631	0.139	-0.251
-472.245	9.258	-0.147	0.112
-471.230	-131.521	-0.102	-0.014
-470.216	-121.555	-0.159	-0.027
-469.201	-200.000	-0.001	-0.076
-468.186	-7.067	0.267	-0.184
-467.172	171.085	-0.099	0.144
-466.157	-72.638	-0.273	-0.102
-465.143	158.495	0.135	-0.190
-464.128	132.545	-0.179	-0.235
-463.113	208.851	0.087	-0.138
-462.099	109.380	-0.112	0.136
-461.084	3.264	0.294	0.217
-460.070	-62.042	-0.215	-0.091
-459.055	399.169	0.046	0.098
-458.040	-51.453	-0.187	0.088
-457.026	-200.000	-0.017	0.310
-456.011	-110.498	0.446	-0.094
-454.997	-151.010	0.387	0.030
-453.982	-36.953	0.087	-0.047
-452.968	-200.000	0.043	-0.459
-451.953	-60.033	0.107	-0.046
-450.938	800.000	0.072	-0.206
-449.924	-94.062	-0.450	0.125
-448.909	65.926	0.148	0.152
-447.895	-168.773	-0.042	-0.002
-446.880	205.946	-0.200	0.315
-445.865	-33.566	0.022	-0.012
-444.851	-43.774	0.259	-0.132
-443.836	-102.656	0.492	-0.119
-442.822	-157.025	-0.124	-0.008
-441.807	7.121	-0.307	-0.232
-440.792	-85.642	0.068	-0.021
-439.778	-200.000	-0.047	0.371
-438.763	40.712	0.215	-0.196
-437.749	-98.188	0.319	0.083
-436.734	-200.000	-0.003	0.052
-435.719	-29.132	0.199	0.116
-434.705	-111.089	0.367	0.076
-433.690	99.566	-0.245	0.287
-432.676	-64.912	-0.247	-0.101
-431.661	86.647	0.230	-0.257
-430.646	-200.000	-0.061	0.381
-429.632	30.372	-0.147	0.127
-428.617	13.348	0.242	-0.190
-427.603	-140.354	0.516	-0.055
-426.588	-3.991	0.132	-0.093
-425.573	-91.594	-0.209	0.060
-424.559	-67.885	0.078	-0.031
-423.544	-200.000	0.044	-0.349
-422.530	140.610	-0.220	-0.295
-421.515	32.639	0.210	-0.184
-420.500	-109.890	0.200	0.042
-419.486	-30.358	-0.251	-0.144
-418.471	176.773	0.126	-0.186
-417.457	-200.000	0.008	0.135
-416.442	-163.386	-0.205	-0.010
-415.428	-69.801	0.457	-0.177
-414.413	-200.000	0.022	0.110
-413.398	39.848	-0.109	0.099
-412.384	-4.295	-0.047	0.033
-411.369	-200.000	-0.009	-0.163
-410.355	379.876	-0.096	-0.199
-409.340	196.328	0.262	-0.403
-408.325	800.000	-0.046	0.179
-407.311	800.000	-0.081	-0.252
-406.296	32.599	-0.015	0.013
-405.282	-50.019	0.231	0.111
-404.267	-78.142	0.245	-0.085
-403.252	236.607	0.076	0.128
-402.238	178.257	-0.194	0.287
-401.223	82.464	0.200	0.220
-400.209	-200.000	-0.000	0.139
-399.194	428.571	-0.066	0.145
-398.179	-49.947	-0.108	0.052
-397.165	800.000	-0.042	-0.153
-396.150	-133.918	-0.215	-0.027
-395.136	-49.430	-0.132	-0.064
-394.121	-115.999	-0.316	0.059
-393.106	772.303	0.096	-0.265
-392.092	61.330	0.137	0.138
-391.077	-140.173	-0.256	0.027
-390.063	59.354	0.022	0.022
-389.048	800.000	0.035	0.112
-388.033	255.407	0.005	-0.009
-387.019	97.603	0.139	0.162
-386.004	-35.529	0.191	0.105
-384.990	68.234	0.186	0.192
-383.975	-200.000	-0.016	0.150
-382.960	-200.000	-0.031	0.150
-381.946	-200.000	0.046	0.249
-380.931	-102.349	0.095	-0.023
-379.917	-200.000	-0.031	0.460
-378.902	-71.669	0.135	-0.051
-377.888	-135.527	-0.415	0.050
-376.873	-20.549	0.317	0.196
-375.858	-63.958	0.070	0.029
-374.844	-32.988	0.254	0.142
-373.829	-122.704	0.364	0.059
-372.815	-200.000	0.026	0.140
-371.800	7.098	-0.162	0.122
-370.785	3.835	0.183	0.135
-369.771	165.852	0.037	0.052
-368.756	-17.522	-0.065	0.041
-367.742	-200.000	-0.010	0.090
-366.727	454.814	0.084	-0.187
-365.712	-31.637	-0.073	-0.042
-364.698	5.938	-0.125	-0.093
-363.683	-200.000	0.013	-0.207
-362.669	800.000	-0.078	-0.282
-361.654	22.126	-0.112	0.092
-360.639	62.843	0.115	0.116
-359.625	-4.166	0.266	-0.186
-358.610	-29.628	-0.010	0.006
-357.596	-41.943	0.076	0.039
-356.581	-39.112	0.159	0.084
-355.566	-2.239	-0.091	0.064
-354.552	294.787	0.133	0.246
-353.537	138.207	-0.130	-0.172
-352.523	57.742	-0.092	-0.090
-351.508	8.285	-0.385	-0.292
-350.493	162.263	-0.128	-0.180
-349.479	800.000	-0.036	0.145
-348.464	312.435	0.091	-0.172
-347.450	-116.729	-0.352	-0.065
-346.435	-140.106	-0.306	0.032
-345.420	-139.342	-0.397	0.043
-344.406	-200.000	0.019	0.236
-343.391	42.654	-0.101	-0.093
-342.377	800.000	-0.037	0.140
-341.362	15.981	0.257	0.204
-340.348	628.243	0.063	-0.161
-339.333	204.538	-0.318	-0.498
-338.318	-43.407	0.053	0.027
-337.304	-9.015	-0.307	-0.208
-336.289	-200.000	-0.017	0.100
-335.275	186.814	-0.258	-0.387
-334.260	34.718	0.122	0.107
-333.245	22.254	-0.029	-0.024
-332.231	-112.415	-0.103	0.021
-331.216	-200.000	0.012	0.261
-330.202	-38.408	-0.199	0.106
-329.187	-200.000	-0.096	-0.480
-328.172	126.236	-0.263	-0.335
-327.158	212.252	0.033	-0.052
-326.143	331.612	0.159	0.309
-325.129	-200.000	0.044	0.251
-324.114	515.909	0.094	0.222
-323.099	468.601	0.235	0.533
-322.085	-200.000	0.022	0.119
-321.070	141.163	-0.156	0.207
-320.056	-86.039	0.231	-0.072
-319.041	800.000	-0.043	0.127
-318.026	-125.464	0.105	0.016
-317.012	-43.112	-0.112	-0.057
-315.997	216.415	0.068	0.108
-314.983	72.258	0.102	0.107
-313.968	136.107	0.160	-0.210
-312.953	-6.565	0.162	0.111
-311.939	-7.651	-0.109	-0.074
-310.924	-200.000	-0.006	-0.239
-309.910	321.623	0.136	0.261
-308.895	128.763	0.140	-0.180
-307.880	-113.472	-0.218	0.043
-306.866	-200.000	-0.037	-0.243
-305.851	442.569	-0.161	-0.356
-304.837	-107.138	0.175	-0.039
-303.822	-147.862	0.342	0.029
-302.807	128.005	0.155	-0.198
-301.793	-157.864	0.323	-0.019
-300.778	-26.147	0.071	0.042
-299.764	352.958	0.032	-0.063
-298.749	-18.628	-0.415	-0.261
-297.735	800.000	0.105	-0.439
-296.720	800.000	-0.049	-0.206
-295.705	202.578	0.034	-0.053
-294.691	-3.441	0.254	0.178
-293.676	-200.000	-0.047	-0.471
-292.662	-200.000	-0.012	-0.227
-291.647	-6.858	0.114	0.078
-290.632	-12.167	-0.161	-0.106
-289.618	107.331	0.191	0.229
-288.603	144.443	0.046	0.062
-287.589	-148.849	-0.209	-0.017
-286.574	65.784	-0.107	-0.109
-285.559	193.067	0.162	-0.247
-284.545	-200.000	0.020	-0.112
-283.530	-53.246	-0.124	0.057
-282.516	408.001	0.102	0.217
-281.501	100.659	-0.291	0.340
-280.486	-200.000	0.028	0.137
-279.472	-200.000	-0.005	-0.085
-278.457	-200.000	0.007	0.146
-277.443	-121.055	-0.324	-0.055
-276.428	-25.460	-0.105	-0.062
-275.413	800.000	-0.031	-0.135
-274.399	-21.214	-0.167	0.103
-273.384	-200.000	-0.000	-0.205
-272.370	-127.810	0.309	-0.045
-271.355	-189.239	-0.459	-0.005
-270.340	-200.000	-0.003	-0.130
-269.326	800.000	0.046	0.175
-268.311	14.530	0.210	0.165
-267.297	263.200	-0.155	0.271
-266.282	352.974	-0.238	-0.474
-265.267	271.229	0.146	-0.259
-264.253	70.057	0.036	0.038
-263.238	72.988	0.198	0.208
-262.224	-200.000	-0.080	0.392
-261.209	-164.779	-0.131	-0.006
-260.195	242.418	0.119	-0.201
-259.180	-133.817	0.222	0.028
-258.165	-200.000	0.002	0.052
-257.151	110.944	0.131	-0.158
-256.136	340.207	-0.097	0.190
-255.122	-75.995	0.172	-0.061
-254.107	800.000	0.045	0.186
-253.092	-200.000	-0.054	0.242
-252.078	-200.000	0.027	0.141
-251.063	800.000	-0.051	0.168
-250.049	800.000	-0.070	0.277
-249.034	321.757	0.072	0.137
-248.019	19.548	0.201	-0.163
-247.005	-144.496	-0.399	-0.037
-245.990	-88.630	-0.256	-0.077
-244.976	195.138	0.080	-0.121
-243.961	-200.000	-0.000	-0.221
-242.946	281.947	-0.048	0.087
-241.932	37.758	0.162	0.145
-240.917	-101.174	-0.128	0.032
-239.903	330.068	-0.046	-0.089
-238.888	17.005	0.366	0.292
-237.873	-200.000	-0.016	-0.412
-236.859	177.482	-0.095	0.139
-235.844	54.263	-0.017	0.017
-234.830	2.773	0.243	-0.177
-233.815	28.542	0.212	-0.180
-232.800	-135.311	-0.153	0.018
-231.786	-42.932	0.057	0.029
-230.771	-200.000	0.012	-0.357
-229.757	58.252	0.418	-0.412
-228.742	56.065	-0.205	0.200
-227.727	-82.336	0.216	0.071
-226.713	-43.811	0.132	0.067
-225.698	57.879	0.170	0.167
-224.684	-111.845	0.241	0.049
-223.669	-6.259	-0.180	0.123
-222.655	5.663	-0.233	0.173
-221.640	-26.799	-0.214	-0.126
-220.625	147.113	0.027	0.036
-219.611	170.259	0.172	0.248
-218.596	330.497	-0.068	0.132
-217.582	-11.855	-0.051	0.034
-216.567	110.435	-0.143	0.172
-215.552	800.000	0.054	0.197
-214.538	-200.000	-0.039	-0.190
-213.523	-200.000	-0.001	0.011
-212.509	-200.000	-0.007	0.159
-211.494	-158.641	0.218	-0.013
-210.479	299.402	-0.089	-0.164
-209.465	-15.766	-0.132	-0.084
-208.450	66.295	0.090	-0.091
-207.436	-200.000	-0.070	-0.385
-206.421	108.979	0.100	-0.121
-205.406	148.994	-0.255	-0.347
-204.392	138.918	0.245	0.324
-203.377	347.795	-0.228	0.451
-202.363	500.069	-0.118	0.272
-201.348	73.215	-0.082	0.086
-200.333	-71.458	-0.215	-0.081
-199.319	-32.565	0.208	0.117
-198.304	286.031	0.099	-0.178
-197.290	-23.354	0.237	-0.143
-196.275	800.000	0.035	0.105
-195.260	-52.058	-0.479	0.223
-194.246	92.850	-0.054	-0.061
-193.231	800.000	0.016	0.051
-192.217	-41.571	-0.175	-0.090
-191.202	-118.616	-0.137	-0.024
-190.187	-49.766	-0.377	-0.180
-189.173	-57.116	-0.188	-0.083
-188.158	-14.439	-0.259	-0.167
-187.144	-72.466	0.215	-0.080
-186.129	792.050	-0.032	-0.087
-185.114	91.157	-0.135	0.152
-184.100	-104.257	0.310	0.072
-183.085	40.536	0.320	-0.289
-182.071	-169.023	0.071	-0.003
-181.056	-142.280	-0.047	-0.005
-180.042	800.000	-0.117	-0.334
-179.027	-108.668	-0.123	-0.026
-178.012	154.359	-0.077	-0.106
-176.998	-16.532	-0.248	-0.157
-175.983	28.170	0.165	0.139
-174.969	800.000	-0.040	-0.143
-173.954	-56.158	-0.123	-0.055
-172.939	800.000	-0.103	0.340
-171.925	-93.141	0.188	0.052
-170.910	800.000	-0.122	0.396
-169.896	102.924	-0.194	-0.227
-168.881	-158.196	-0.070	-0.004
-167.866	84.623	-0.150	0.165
-166.852	113.797	-0.028	-0.034
-165.837	-200.000	-0.069	-0.494
-164.823	-55.736	-0.317	0.142
-163.808	-200.000	-0.004	0.037
-162.793	-200.000	0.017	0.205
-161.779	-76.550	0.129	0.045
-160.764	106.958	-0.254	-0.303
-159.750	-45.645	-0.129	0.064
-158.735	268.325	0.141	-0.247
-157.720	-17.565	0.249	0.157
-156.706	-39.862	0.047	-0.024
-155.691	-128.627	-0.262	0.037
-154.677	-76.384	0.174	-0.061
-153.662	-200.000	0.002	0.215
-152.647	87.104	0.075	-0.083
-151.633	106.894	-0.231	0.275
-150.618	295.881	-0.077	0.141
-149.604	800.000	0.100	-0.316
-148.589	-111.325	-0.318	0.065
-147.574	103.865	0.240	-0.282
-146.560	-124.960	0.137	-0.021
-145.545	30.424	-0.050	-0.043
-144.531	-120.906	-0.169	0.028
-143.516	800.000	-0.046	0.156
-142.502	32.107	0.016	0.014
-141.487	501.245	-0.061	0.140
-140.472	9.507	0.099	-0.075
-139.458	294.629	-0.006	-0.011
-138.443	800.000	0.027	0.077
-137.429	-65.763	-0.274	0.110
-136.414	166.397	0.063	-0.089
-135.399	-24.674	0.242	-0.144
-134.385	-166.035	-0.075	-0.003
-133.370	-42.777	0.319	-0.163
-132.356	-200.000	-0.025	-0.129
-131.341	-200.000	-0.081	-0.422
-130.326	-200.000	0.023	-0.149
-129.312	-200.000	-0.002	-0.090
-128.297	-165.876	0.296	-0.013
-127.283	111.340	0.215	0.259
-126.268	-200.000	-0.017	0.196
-125.253	-124.635	0.404	0.063
-124.239	800.000	0.114	-0.331
-123.224	-57.534	0.113	-0.050
-122.210	200.084	0.159	0.243
