DTS Sentinel unit serial number:	SN413079Multiplexer serial number:	ORYXHardware model number:	OX4-SRSoftware version number:	ORYX F/W v4.00 Oryx Data Collector v3.7.2.0data status	okinstallation	princeton_trtdifferential loss correction	single-endedforward channel	channel 3reverse channel	N/Adate	2019/09/12time	02:54:11forward acquisition time	60.00reverse acquisition time	0.00gamma	496.2192k internal	0.2321k external	0.2321temperature offset calibration	1.0069default loss term (dB/km)	0.3790temperature slope calibration	1.0000multiplexer offset coefficient	1.0000multiplexer slope coefficient	1.0000fibre end	0.00T internal ref (°C)	32.31T ext. ref 1 (°C)	2.11T ext. ref 2 (°C)	27.31length (m)	temperature (°C)	Stokes	anti-Stokes-747.200	-48.482	-0.064	-0.031
-746.185	298.346	-0.175	0.326
-745.171	-200.000	0.011	0.340
-744.156	-200.000	0.039	-0.189
-743.142	44.289	-0.198	-0.183
-742.127	-7.193	-0.134	0.092
-741.112	44.811	0.075	0.070
-740.098	-64.991	-0.230	0.094
-739.083	4.319	0.189	0.140
-738.069	800.000	0.074	0.301
-737.054	-66.794	-0.325	-0.130
-736.039	-101.099	-0.079	-0.020
-735.025	160.760	0.136	0.192
-734.010	404.058	0.065	-0.138
-732.996	106.434	-0.211	-0.252
-731.981	-200.000	-0.013	-0.363
-730.966	-137.936	-0.212	0.024
-729.952	-52.139	-0.374	0.175
-728.937	31.131	-0.306	-0.265
-727.923	-200.000	0.044	-0.326
-726.908	-200.000	-0.001	0.417
-725.894	159.966	-0.029	0.041
-724.879	-110.359	-0.238	0.050
-723.864	-159.485	0.170	-0.010
-722.850	80.025	0.040	-0.043
-721.835	87.065	-0.288	0.321
-720.821	-200.000	-0.022	-0.185
-719.806	800.000	-0.033	0.127
-718.791	-33.596	-0.189	-0.105
-717.777	800.000	-0.056	0.181
-716.762	68.696	0.158	0.164
-715.748	-86.477	-0.107	-0.033
-714.733	36.701	-0.187	0.166
-713.718	-200.000	0.329	-0.000
-712.704	307.804	0.081	0.153
-711.689	-16.878	0.103	0.066
-710.675	-8.582	-0.375	0.255
-709.660	296.084	-0.107	0.199
-708.645	690.926	-0.102	-0.270
-707.631	-47.166	-0.135	0.066
-706.616	121.529	0.016	-0.020
-705.602	97.994	-0.177	-0.206
-704.587	91.653	-0.234	0.265
-703.572	-31.160	0.331	0.188
-702.558	-200.000	0.040	-0.345
-701.543	74.325	0.082	0.087
-700.529	120.830	-0.166	-0.209
-699.514	-60.041	0.186	-0.080
-698.499	7.056	0.303	-0.228
-697.485	-74.996	-0.124	-0.045
-696.470	800.000	-0.059	-0.168
-695.456	-148.853	0.309	0.025
-694.441	43.033	-0.206	0.190
-693.426	-200.000	0.012	0.235
-692.412	30.278	-0.279	0.241
-691.397	-200.000	0.008	0.090
-690.383	-200.000	0.003	-0.220
-689.368	-138.444	0.059	-0.007
-688.354	255.598	0.063	-0.109
-687.339	-200.000	-0.015	0.184
-686.324	8.098	-0.242	0.183
-685.310	-200.000	-0.036	0.211
-684.295	402.233	-0.075	-0.159
-683.281	13.654	0.228	-0.178
-682.266	170.949	0.167	0.241
-681.251	7.904	0.168	-0.127
-680.237	-200.000	0.018	0.122
-679.222	-26.818	-0.143	0.085
-678.208	800.000	-0.150	0.429
-677.193	-200.000	0.033	-0.615
-676.178	-200.000	-0.047	-0.350
-675.164	353.082	-0.051	-0.102
-674.149	-200.000	-0.036	0.351
-673.135	-46.504	-0.137	-0.068
-672.120	-200.000	-0.012	0.264
-671.105	214.922	0.084	-0.134
-670.091	-53.283	0.430	-0.199
-669.076	800.000	0.028	-0.079
-668.062	167.855	-0.283	0.405
-667.047	-60.466	-0.102	0.044
-666.032	800.000	0.052	0.153
-665.018	-113.087	-0.115	0.023
-664.003	-61.924	-0.215	-0.090
-662.989	11.532	0.209	-0.161
-661.974	-200.000	0.048	0.238
-660.959	-20.185	0.102	0.063
-659.945	-113.522	0.278	-0.055
-658.930	-143.345	-0.197	-0.019
-657.916	-90.263	0.235	0.069
-656.901	-64.177	-0.159	-0.065
-655.886	563.971	-0.092	0.225
-654.872	167.990	0.090	0.129
-653.857	4.086	-0.348	0.256
-652.843	17.827	-0.151	0.121
-651.828	800.000	-0.071	0.211
-650.814	66.130	0.197	0.201
-649.799	-55.898	0.282	-0.127
-648.784	25.446	0.192	0.161
-647.770	-200.000	-0.004	-0.078
-646.755	202.807	-0.092	-0.143
-645.741	-8.342	-0.246	-0.167
-644.726	787.122	0.024	-0.067
-643.711	800.000	0.030	-0.126
-642.697	-49.337	-0.211	0.101
-641.682	148.752	0.204	0.277
-640.668	-120.266	-0.380	-0.065
-639.653	-53.152	-0.017	-0.008
-638.638	142.406	-0.138	0.184
-637.624	800.000	0.064	-0.262
-636.609	-62.631	-0.216	0.090
-635.595	94.234	-0.131	0.150
-634.580	-85.842	0.368	0.115
-633.565	-200.000	-0.009	0.125
-632.551	123.508	-0.203	-0.256
-631.536	-109.603	0.035	-0.007
-630.522	800.000	0.079	-0.264
-629.507	-30.989	-0.073	0.042
-628.492	-31.032	0.328	0.186
-627.478	-200.000	-0.008	-0.071
-626.463	-41.920	-0.160	0.083
-625.449	22.178	-0.189	-0.155
-624.434	-119.971	0.371	-0.064
-623.419	-82.889	0.227	-0.074
-622.405	-97.001	-0.112	0.030
-621.390	-200.000	0.026	-0.401
-620.376	-124.629	0.321	0.050
-619.361	140.464	-0.137	0.182
-618.346	-127.452	0.145	-0.021
-617.332	100.015	-0.188	-0.219
-616.317	133.780	0.172	0.224
-615.303	58.941	0.155	0.153
-614.288	220.182	0.157	0.254
-613.273	800.000	-0.066	-0.198
-612.259	-55.524	-0.258	-0.116
-611.244	-137.761	-0.123	0.014
-610.230	-58.693	0.077	-0.033
-609.215	800.000	-0.054	-0.224
-608.201	29.850	-0.062	-0.053
-607.186	499.950	-0.093	0.216
-606.171	52.405	0.163	0.156
-605.157	-99.454	-0.341	-0.086
-604.142	467.073	0.075	0.169
-603.128	-79.449	-0.289	-0.098
-602.113	-127.042	-0.193	-0.029
-601.098	432.547	-0.142	-0.310
-600.084	320.258	0.098	-0.186
-599.069	-126.818	0.491	0.073
-598.055	1.663	0.114	-0.082
-597.040	-23.946	0.398	-0.239
-596.025	37.605	0.078	-0.070
-595.011	92.961	-0.107	-0.122
-593.996	-8.036	-0.132	-0.089
-592.982	198.783	0.115	-0.176
-591.967	317.411	-0.172	0.327
-590.952	137.008	0.079	0.104
-589.938	-85.129	0.332	-0.105
-588.923	800.000	-0.090	-0.316
-587.909	104.640	0.227	-0.269
-586.894	12.539	0.254	0.197
-585.879	-200.000	0.006	0.047
-584.865	-200.000	-0.007	-0.186
-583.850	242.204	0.224	-0.376
-582.836	-200.000	-0.008	0.102
-581.821	166.790	-0.186	0.264
-580.806	13.385	-0.173	0.135
-579.792	12.183	-0.091	0.070
-578.777	-180.394	0.432	-0.009
-577.763	542.746	0.100	-0.240
-576.748	-200.000	-0.038	0.517
-575.733	-117.440	-0.161	0.029
-574.719	-200.000	-0.053	-0.467
-573.704	285.742	-0.222	-0.403
-572.690	178.205	-0.122	-0.178
-571.675	-200.000	-0.027	0.176
-570.661	192.035	0.077	-0.117
-569.646	-125.733	-0.115	-0.017
-568.631	187.103	-0.106	-0.159
-567.617	92.912	-0.239	-0.271
-566.602	669.946	0.067	0.175
-565.588	-105.915	-0.120	0.027
-564.573	384.000	-0.102	0.210
-563.558	-69.581	-0.284	0.109
-562.544	-11.024	0.090	0.060
-561.529	-35.232	-0.086	0.047
-560.515	-119.267	-0.585	0.102
-559.500	-200.000	0.083	0.391
-558.485	137.636	0.150	-0.198
-557.471	-58.518	-0.259	-0.113
-556.456	-151.834	-0.047	0.003
-555.442	-200.000	0.056	0.247
-554.427	-191.155	0.155	-0.002
-553.412	421.713	0.104	-0.224
-552.398	800.000	0.009	0.032
-551.383	49.558	0.183	0.173
-550.369	-163.907	-0.270	0.013
-549.354	671.291	0.026	-0.067
-548.339	-145.451	-0.403	-0.036
-547.325	-126.304	0.591	0.089
-546.310	12.233	0.176	0.136
-545.296	116.667	-0.098	0.121
-544.281	12.518	-0.220	-0.170
-543.266	700.445	-0.145	-0.382
-542.252	477.182	-0.095	-0.216
-541.237	-200.000	0.042	0.308
-540.223	-23.705	0.288	0.173
-539.208	320.113	-0.189	-0.360
-538.193	-69.361	0.134	-0.052
-537.179	282.012	0.173	-0.310
-536.164	-44.556	0.289	0.145
-535.150	800.000	0.019	-0.067
-534.135	275.217	-0.073	0.129
-533.121	-64.833	0.411	0.167
-532.106	-200.000	0.027	0.180
-531.091	1.763	-0.236	-0.170
-530.077	157.343	-0.209	-0.290
-529.062	25.480	-0.205	-0.171
-528.048	-143.881	-0.239	0.023
-527.033	800.000	0.043	0.119
-526.018	-75.483	0.338	-0.120
-525.004	256.079	0.047	-0.080
-523.989	418.871	-0.199	0.427
-522.975	-200.000	0.027	0.237
-521.960	100.321	0.134	-0.156
-520.945	7.758	-0.042	0.032
-519.931	-31.933	-0.135	0.076
-518.916	452.826	-0.017	0.038
-517.902	-129.111	-0.178	-0.025
-516.887	164.708	0.028	-0.040
-515.872	-79.450	-0.022	0.007
-514.858	-61.024	-0.212	-0.090
-513.843	11.067	-0.390	0.298
-512.829	151.336	-0.217	-0.295
-511.814	-96.054	-0.209	-0.056
-510.799	-7.023	-0.280	0.190
-509.785	316.483	0.135	-0.255
-508.770	-11.882	0.253	-0.166
-507.756	-200.000	-0.002	-0.072
-506.741	-105.526	-0.249	0.056
-505.726	-3.936	0.113	-0.079
-504.712	-112.663	0.218	-0.044
-503.697	-173.458	0.158	0.005
-502.683	3.593	-0.108	0.079
-501.668	-31.343	-0.106	-0.059
-500.653	7.495	0.250	-0.187
-499.639	493.080	0.042	0.095
-498.624	-98.438	0.205	0.052
-497.610	172.676	-0.068	-0.098
-496.595	-128.431	-0.307	-0.044
-495.581	-200.000	0.023	0.207
-494.566	-6.267	0.232	-0.158
-493.551	-194.296	-0.234	-0.002
-492.537	-200.000	-0.018	0.163
-491.522	8.757	0.047	0.036
-490.508	157.943	0.124	0.173
-489.493	66.377	-0.032	-0.032
-488.478	215.275	0.085	0.135
-487.464	-51.556	0.090	-0.042
-486.449	53.910	-0.050	0.048
-485.435	-105.780	-0.293	-0.066
-484.420	-27.466	0.415	-0.242
-483.405	-200.000	0.011	0.097
-482.391	-200.000	-0.136	-0.000
-481.376	-99.934	0.125	-0.031
-480.362	-99.889	0.161	-0.040
-479.347	-155.077	0.405	-0.027
-478.332	117.500	0.259	0.319
-477.318	141.805	-0.041	-0.055
-476.303	-38.299	-0.089	0.047
-475.289	-47.424	-0.052	-0.025
-474.274	-64.299	0.260	-0.106
-473.259	337.007	-0.043	-0.084
-472.245	-76.991	-0.445	-0.155
-471.230	-200.000	-0.005	-0.042
-470.216	341.677	0.006	0.012
-469.201	571.600	0.051	0.123
-468.186	-145.193	0.187	-0.017
-467.172	-12.187	0.052	0.034
-466.157	800.000	0.007	-0.021
-465.143	401.908	0.032	0.067
-464.128	-58.781	-0.139	-0.060
-463.113	-200.000	-0.002	0.019
-462.099	3.823	0.240	0.175
-461.084	800.000	0.043	-0.157
-460.070	7.140	-0.259	-0.193
-459.055	-200.000	0.016	0.099
-458.040	-200.000	0.005	-0.044
-457.026	-64.984	-0.075	0.030
-456.011	-200.000	0.015	0.319
-454.997	800.000	0.084	-0.232
-453.982	-23.300	-0.215	-0.129
-452.968	-6.888	0.285	-0.194
-451.953	248.353	-0.052	-0.088
-450.938	123.270	-0.370	0.463
-449.924	163.621	0.162	-0.228
-448.909	181.981	0.132	-0.194
-447.895	7.403	-0.052	-0.039
-446.880	-39.489	-0.131	-0.068
-445.865	-29.384	0.134	0.076
-444.851	469.083	-0.117	-0.262
-443.836	-154.633	0.306	-0.020
-442.822	-93.074	0.284	0.079
-441.807	-200.000	-0.007	0.056
-440.792	800.000	-0.114	0.328
-439.778	-200.000	0.022	-0.397
-438.763	-26.515	-0.312	-0.183
-437.749	-152.042	-0.136	0.010
-436.734	340.362	0.047	0.092
-435.719	-200.000	0.006	-0.156
-434.705	248.437	0.052	-0.089
-433.690	-200.000	0.021	-0.213
-432.676	-200.000	0.034	-0.273
-431.661	-200.000	-0.007	0.107
-430.646	43.095	-0.143	0.131
-429.632	311.404	-0.078	0.147
-428.617	-5.177	-0.191	0.131
-427.603	-64.818	-0.330	-0.133
-426.588	-41.101	-0.212	0.109
-425.573	11.290	0.062	0.047
-424.559	156.862	0.064	0.088
-423.544	-13.900	-0.353	-0.227
-422.530	-69.408	-0.110	0.042
-421.515	800.000	-0.140	0.428
-420.500	108.469	-0.039	-0.047
-419.486	47.962	0.059	0.055
-418.471	23.725	0.105	0.087
-417.457	32.041	-0.051	0.044
-416.442	-47.454	0.336	0.163
-415.428	-41.406	-0.453	-0.233
-414.413	630.484	0.098	0.248
-413.398	800.000	0.043	0.119
-412.384	138.680	-0.254	-0.333
-411.369	-200.000	0.001	-0.076
-410.355	143.110	0.334	0.443
-409.340	-98.100	0.294	0.075
-408.325	-147.052	-0.133	-0.011
-407.311	-0.558	-0.076	0.054
-406.296	-81.263	0.147	-0.048
-405.282	-74.804	-0.047	-0.017
-404.267	-136.401	0.226	-0.026
-403.252	-200.000	-0.049	-0.368
-402.238	-200.000	-0.012	0.138
-401.223	20.275	-0.162	0.131
-400.209	-96.907	0.137	0.036
-399.194	-200.000	-0.032	0.207
-398.179	-180.630	0.175	0.004
-397.165	-200.000	0.030	0.409
-396.150	162.665	-0.093	-0.130
-395.136	-191.718	-0.080	-0.001
-394.121	399.663	0.184	0.384
-393.106	-43.379	0.214	-0.108
-392.092	253.553	0.078	-0.132
-391.077	268.701	0.012	-0.021
-390.063	211.179	-0.111	-0.175
-389.048	68.694	0.100	0.102
-388.033	800.000	-0.079	0.233
-387.019	26.953	-0.295	0.246
-386.004	-97.354	0.270	0.070
-384.990	-200.000	0.021	-0.263
-383.975	-7.135	0.130	-0.088
-382.960	-200.000	-0.046	-0.341
-381.946	508.755	-0.051	-0.118
-380.931	-48.891	-0.274	0.131
-379.917	208.592	0.194	0.302
-378.902	800.000	0.061	-0.175
-377.888	668.647	-0.126	0.326
-376.873	-57.547	0.235	-0.103
-375.858	-108.339	-0.114	-0.025
-374.844	-200.000	-0.023	0.145
-373.829	28.515	0.218	0.184
-372.815	-40.223	0.189	0.098
-371.800	-109.532	-0.241	0.051
-370.785	800.000	-0.027	0.108
-369.771	-200.000	-0.013	0.282
-368.756	-48.253	-0.309	0.148
-367.742	-118.013	0.225	0.040
-366.727	800.000	-0.009	0.032
-365.712	800.000	0.018	0.062
-364.698	616.231	0.095	0.236
-363.683	-200.000	-0.013	0.203
-362.669	145.850	0.088	0.117
-361.654	81.706	0.077	-0.082
-360.639	161.509	0.258	0.359
-359.625	-200.000	0.034	0.194
-358.610	-158.149	0.215	-0.013
-357.596	800.000	-0.051	-0.154
-356.581	17.104	-0.079	0.062
-355.566	127.100	-0.015	-0.019
-354.552	-83.917	-0.092	-0.029
-353.537	-81.075	0.139	0.046
-352.523	-156.051	0.310	0.020
-351.508	-13.321	0.177	-0.114
-350.493	22.489	0.017	0.014
-349.479	-57.479	-0.225	-0.098
-348.464	800.000	-0.167	-0.458
-347.450	800.000	-0.066	0.280
-346.435	-200.000	0.012	-0.081
-345.420	-200.000	0.032	-0.158
-344.406	-48.334	0.062	0.030
-343.391	793.086	0.035	0.095
-342.377	155.810	-0.106	0.146
-341.362	-158.361	0.324	0.019
-340.348	372.224	-0.124	0.250
-339.333	-126.374	0.101	-0.015
-338.318	25.773	0.138	-0.114
-337.304	123.829	-0.106	0.133
-336.289	800.000	-0.125	-0.498
-335.275	-200.000	-0.017	-0.130
-334.260	-29.550	-0.377	0.214
-333.245	-44.293	0.163	0.081
-332.231	-100.823	-0.334	-0.082
-331.216	311.454	-0.071	0.132
-330.202	800.000	-0.117	-0.372
-329.187	63.592	0.050	0.050
-328.172	-200.000	0.027	0.177
-327.158	39.479	-0.179	-0.159
-326.143	-51.016	0.222	-0.103
-325.129	-99.594	-0.061	0.015
-324.114	6.067	-0.116	0.086
-323.099	-184.746	0.194	-0.003
-322.085	93.456	0.076	-0.085
-321.070	-42.292	-0.158	-0.080
-320.056	-27.263	0.267	0.155
-319.041	-9.817	0.231	-0.153
-318.026	-200.000	-0.032	0.427
-317.012	-200.000	0.081	0.389
-315.997	45.010	0.188	-0.172
-314.983	-200.000	-0.010	-0.210
-313.968	-200.000	0.004	-0.330
-312.953	-139.880	0.075	0.008
-311.939	800.000	0.079	0.248
-310.924	-85.938	0.219	-0.067
-309.910	214.947	-0.138	-0.218
-308.895	-135.652	-0.193	0.023
-307.880	-69.059	0.092	0.035
-306.866	-169.842	0.174	-0.006
-305.851	53.461	0.141	-0.135
-304.837	-39.315	0.180	-0.094
-303.822	-23.236	0.174	0.104
-302.807	-70.104	-0.075	-0.028
-301.793	101.785	-0.246	-0.285
-300.778	-200.000	0.027	-0.245
-299.764	-150.256	-0.220	0.017
-298.749	274.303	-0.206	0.362
-297.735	-115.470	0.153	-0.029
-296.720	800.000	0.064	-0.212
-295.705	800.000	-0.013	0.051
-294.691	-52.314	-0.224	0.103
-293.676	142.278	-0.124	-0.163
-292.662	2.137	-0.160	-0.115
-291.647	119.536	0.135	-0.166
-290.632	-113.471	0.329	0.064
-289.618	121.391	0.125	-0.154
-288.603	-132.847	0.133	-0.017
-287.589	214.527	0.082	0.129
-286.574	800.000	0.060	0.195
-285.559	-200.000	0.033	0.278
-284.545	99.216	0.131	0.151
-283.530	-64.325	-0.009	-0.004
-282.516	490.956	-0.098	-0.224
-281.501	415.768	0.058	-0.124
-280.486	-14.467	0.060	-0.039
-279.472	-96.157	0.295	0.078
-278.457	25.130	0.209	0.172
-277.443	-200.000	0.049	0.436
-276.428	-55.759	-0.131	-0.058
-275.413	-95.388	-0.264	-0.070
-274.399	-200.000	-0.000	0.167
-273.384	-74.052	-0.032	0.012
-272.370	149.307	-0.178	-0.240
-271.355	-42.324	-0.102	-0.052
-270.340	-200.000	0.037	0.222
-269.326	171.565	-0.079	-0.112
-268.311	328.607	0.097	-0.185
-267.297	-50.074	0.219	-0.103
-266.282	-32.945	-0.278	0.153
-265.267	800.000	-0.070	-0.206
-264.253	-92.141	-0.028	0.008
-263.238	-200.000	0.005	-0.393
-262.224	496.076	-0.114	-0.260
-261.209	485.851	0.043	-0.098
-260.195	94.637	0.103	0.116
-259.180	800.000	0.075	-0.242
-258.165	-60.051	-0.316	0.134
-257.151	-200.000	-0.035	0.236
-256.136	63.642	-0.069	0.069
-255.122	38.973	-0.283	0.251
-254.107	237.746	-0.092	0.151
-253.092	237.878	-0.107	0.177
-252.078	-200.000	0.005	-0.279
-251.063	-150.151	0.447	0.034
-250.049	692.218	-0.134	-0.347
-249.034	124.265	0.067	0.083
-248.019	421.695	0.129	-0.275
-247.005	-108.666	-0.173	0.037
-245.990	68.873	-0.145	-0.148
-244.976	94.482	0.142	0.159
-243.961	800.000	0.086	-0.264
-242.946	434.332	-0.153	0.329
-241.932	403.585	0.080	-0.167
-240.917	-64.878	0.281	-0.113
-239.903	-34.168	0.193	-0.105
-238.888	38.481	0.183	-0.162
-237.873	704.307	-0.069	0.180
-236.859	-183.702	-0.155	0.003
-235.844	43.368	0.161	-0.146
-234.830	-200.000	0.047	-0.231
-233.815	800.000	0.119	-0.335
-232.800	800.000	0.022	0.079
-231.786	800.000	0.072	0.252
-230.771	379.242	0.154	-0.312
-229.757	312.869	-0.103	-0.192
-228.742	377.544	-0.102	-0.207
-227.727	104.998	-0.074	-0.086
-226.713	600.949	0.086	0.210
-225.698	800.000	0.084	0.271
-224.684	144.474	0.102	0.135
-223.669	517.518	-0.030	0.069
-222.655	-54.673	0.230	0.103
-221.640	-200.000	-0.017	-0.173
-220.625	-200.000	0.023	-0.213
-219.611	-200.000	-0.051	0.000
-218.596	-30.569	0.338	0.190
-217.582	800.000	-0.039	0.154
-216.567	21.791	-0.121	-0.098
-215.552	40.724	-0.119	-0.107
-214.538	-42.069	-0.186	0.094
-213.523	123.179	-0.053	-0.066
-212.509	-109.312	-0.219	0.046
-211.494	19.578	-0.038	-0.030
-210.479	413.232	0.105	0.221
-209.465	-12.207	-0.231	0.149
-208.450	79.592	-0.245	0.261
-207.436	627.126	-0.121	-0.302
-206.421	210.835	-0.189	-0.294
-205.406	123.176	-0.114	0.142
-204.392	134.164	-0.140	-0.179
-203.377	-16.856	-0.195	-0.122
-202.363	85.887	-0.216	0.235
-201.348	-49.434	-0.068	0.032
-200.333	-200.000	0.010	-0.057
-199.319	-200.000	0.077	0.450
-198.304	-200.000	-0.038	0.274
-197.290	-89.855	0.193	-0.056
-196.275	-200.000	0.050	0.245
-195.260	-106.760	-0.134	0.029
-194.246	-26.353	0.164	0.095
-193.231	800.000	-0.083	0.231
-192.217	-200.000	-0.024	0.158
-191.202	6.030	-0.261	-0.191
-190.187	20.662	0.199	-0.159
-189.173	-200.000	-0.004	0.019
-188.158	-200.000	0.018	-0.187
-187.144	134.601	-0.132	0.169
-186.129	-59.091	0.124	-0.053
-185.114	-200.000	0.027	0.327
-184.100	-66.173	0.286	0.113
-183.085	-200.000	-0.447	-0.001
-182.071	23.011	-0.187	-0.152
-181.056	-5.131	0.153	-0.104
-180.042	49.940	-0.040	0.037
-179.027	-200.000	-0.031	-0.212
-178.012	-53.643	0.255	0.115
-176.998	-119.610	0.307	-0.053
-175.983	138.335	-0.320	0.415
-174.969	42.138	0.346	0.310
-173.954	344.734	-0.153	0.296
-172.939	-77.121	0.352	-0.121
-171.925	-200.000	0.032	0.150
-170.910	28.555	-0.172	0.144
-169.896	112.995	-0.121	-0.145
-168.881	-161.253	0.106	-0.005
-167.866	-113.365	-0.145	0.028
-166.852	-100.098	0.043	-0.011
-165.837	-116.615	-0.121	-0.022
-164.823	-186.328	-0.189	0.003
-163.808	-200.000	-0.037	0.181
-162.793	-117.423	0.153	0.027
-161.779	306.733	-0.008	0.015
-160.764	-124.707	-0.141	-0.022
-159.750	-56.024	-0.177	-0.078
-158.735	-121.896	0.219	0.036
-157.720	800.000	0.080	-0.290
-156.706	-200.000	-0.007	0.049
-155.691	185.391	0.085	-0.124
-154.677	800.000	0.065	0.251
-153.662	-200.000	0.019	0.114
-152.647	-200.000	0.009	-0.090
-151.633	-200.000	-0.136	0.001
-150.618	173.547	-0.139	0.199
-149.604	-175.482	0.201	-0.005
-148.589	-117.418	0.086	0.015
-147.574	78.353	0.308	-0.325
-146.560	800.000	0.068	-0.281
-145.545	-32.488	-0.043	-0.023
-144.531	800.000	0.029	-0.081
-143.516	800.000	-0.073	0.226
-142.502	-7.285	-0.188	0.126
-141.487	373.309	-0.201	0.403
-140.472	54.394	-0.046	-0.044
-139.458	-110.755	0.092	-0.019
-138.443	-94.298	-0.174	-0.047
-137.429	-86.088	-0.190	0.058
-136.414	800.000	0.034	-0.105
-135.399	-96.019	0.165	-0.043
-134.385	218.023	0.138	-0.217
-133.370	-134.150	0.269	0.033
-132.356	1.270	-0.031	0.022
-131.341	-200.000	-0.012	0.405
-130.326	-200.000	-0.005	0.176
-129.312	800.000	-0.047	0.132
-128.297	800.000	0.071	0.227
-127.283	-200.000	0.029	0.154
-126.268	51.452	-0.063	-0.059
-125.253	49.436	-0.089	0.083
-124.239	-167.970	-0.172	-0.007
-123.224	-18.258	-0.226	0.140
-122.210	-200.000	0.029	0.373
-121.195	-200.000	-0.017	0.126
