DTS Sentinel unit serial number:	SN413079Multiplexer serial number:	ORYXHardware model number:	OX4-SRSoftware version number:	ORYX F/W v4.00 Oryx Data Collector v3.7.2.0data status	okinstallation	princeton_trtdifferential loss correction	single-endedforward channel	channel 3reverse channel	N/Adate	2019/09/10time	20:54:11forward acquisition time	60.00reverse acquisition time	0.00gamma	496.2192k internal	0.2327k external	0.2327temperature offset calibration	0.9923default loss term (dB/km)	0.3790temperature slope calibration	1.0000multiplexer offset coefficient	1.0000multiplexer slope coefficient	1.0000fibre end	0.00T internal ref (°C)	31.69T ext. ref 1 (°C)	-0.31T ext. ref 2 (°C)	25.23length (m)	temperature (°C)	Stokes	anti-Stokes-747.200	-54.642	0.107	-0.049
-746.185	-78.175	-0.255	-0.088
-745.171	-49.966	0.124	-0.059
-744.156	209.519	-0.156	0.247
-743.142	-60.092	-0.161	-0.069
-742.127	90.103	0.194	0.219
-741.112	-31.806	-0.204	-0.115
-740.098	-112.117	0.266	0.054
-739.083	-35.303	0.291	0.159
-738.069	-18.600	0.071	-0.044
-737.054	434.346	-0.095	-0.208
-736.039	-200.000	-0.065	-0.361
-735.025	-60.133	0.185	0.079
-734.010	-131.834	0.083	-0.011
-732.996	107.827	-0.064	-0.077
-731.981	-90.646	-0.135	0.039
-730.966	15.460	-0.437	0.346
-729.952	5.349	-0.275	-0.205
-728.937	123.360	0.121	-0.153
-727.923	138.651	-0.123	-0.163
-726.908	-130.676	0.177	0.024
-725.894	491.748	0.161	0.373
-724.879	800.000	-0.013	0.056
-723.864	-65.066	0.323	-0.131
-722.850	800.000	-0.055	-0.241
-721.835	610.135	-0.146	0.369
-720.821	-6.151	-0.062	0.043
-719.806	-99.708	-0.304	0.077
-718.791	-66.754	0.315	0.126
-717.777	-108.961	0.206	0.044
-716.762	-49.114	0.201	-0.097
-715.748	27.573	0.136	-0.115
-714.733	-42.609	-0.183	-0.094
-713.718	41.566	-0.107	0.097
-712.704	255.586	0.070	-0.121
-711.689	-177.853	0.460	0.011
-710.675	-166.215	0.195	0.008
-709.660	150.467	-0.119	-0.162
-708.645	-158.484	0.084	0.005
-707.631	-129.893	0.270	-0.037
-706.616	-119.265	0.154	-0.027
-705.602	-167.237	0.069	0.003
-704.587	-142.435	0.290	0.029
-703.572	-87.350	-0.111	-0.034
-702.558	-37.490	-0.119	0.064
-701.543	293.362	0.086	0.157
-700.529	-75.972	-0.142	0.051
-699.514	-107.981	0.237	-0.052
-698.499	12.559	0.211	0.164
-697.485	800.000	-0.033	-0.124
-696.470	305.654	-0.049	0.093
-695.456	-165.153	0.476	0.021
-694.441	-200.000	0.004	-0.024
-693.426	278.685	-0.075	-0.134
-692.412	-138.328	-0.213	0.024
-691.397	118.763	0.088	-0.109
-690.383	-19.510	-0.232	-0.145
-689.368	-40.984	0.246	0.128
-688.354	20.708	-0.100	-0.082
-687.339	-70.506	-0.384	-0.146
-686.324	-200.000	0.006	0.038
-685.310	-59.995	0.421	-0.181
-684.295	800.000	-0.028	-0.082
-683.281	50.082	0.184	0.174
-682.266	142.367	-0.172	-0.229
-681.251	124.209	0.162	0.205
-680.237	800.000	0.054	-0.180
-679.222	-69.181	0.310	0.120
-678.208	-75.885	0.034	-0.012
-677.193	800.000	0.038	-0.124
-676.178	-16.315	-0.165	-0.105
-675.164	-200.000	-0.009	0.346
-674.149	-200.000	-0.014	0.218
-673.135	325.902	0.065	-0.125
-672.120	-144.039	0.127	-0.012
-671.105	27.069	-0.154	0.130
-670.091	24.891	0.155	0.129
-669.076	-78.995	-0.108	-0.037
-668.062	-200.000	-0.013	-0.097
-667.047	800.000	0.071	0.263
-666.032	74.060	0.177	0.187
-665.018	-200.000	0.036	0.256
-664.003	800.000	-0.069	-0.194
-662.989	301.619	0.059	-0.110
-661.974	-200.000	-0.009	-0.229
-660.959	-200.000	0.014	-0.364
-659.945	-200.000	0.004	-0.101
-658.930	-37.035	-0.236	-0.127
-657.916	0.275	-0.124	0.089
-656.901	51.075	0.144	0.137
-655.886	-33.470	0.243	-0.135
-654.872	132.516	0.140	-0.182
-653.857	183.355	0.064	0.096
-652.843	800.000	-0.035	-0.127
-651.828	-200.000	0.056	-0.332
-650.814	-200.000	-0.000	0.190
-649.799	-54.466	0.199	0.091
-648.784	-149.556	-0.243	0.019
-647.770	568.963	-0.089	-0.218
-646.755	-100.485	-0.168	0.042
-645.741	315.488	-0.111	-0.210
-644.726	-152.756	-0.164	0.012
-643.711	35.469	0.106	-0.093
-642.697	800.000	-0.089	0.317
-641.682	-200.000	-0.009	0.261
-640.668	-200.000	0.001	0.075
-639.653	-200.000	-0.013	-0.190
-638.638	-118.183	-0.095	0.017
-637.624	174.698	0.161	0.233
-636.609	-74.722	0.447	-0.161
-635.595	-61.172	0.164	-0.069
-634.580	-193.811	-0.159	-0.001
-633.565	94.973	0.333	0.381
-632.551	-52.413	-0.262	-0.122
-631.536	-98.815	-0.294	0.075
-630.522	253.244	-0.217	0.371
-629.507	800.000	0.029	0.123
-628.492	74.393	0.120	-0.127
-627.478	-200.000	0.022	-0.174
-626.463	271.788	-0.017	-0.029
-625.449	-67.481	-0.208	-0.082
-624.434	-129.034	0.241	-0.034
-623.419	221.726	-0.101	0.163
-622.405	-66.696	-0.030	-0.012
-621.390	63.017	-0.141	0.141
-620.376	71.294	0.328	-0.341
-619.361	-200.000	-0.061	-0.553
-618.346	-32.863	-0.162	-0.090
-617.332	-77.951	-0.272	0.094
-616.317	-182.163	-0.236	0.004
-615.303	-200.000	0.037	-0.169
-614.288	-200.000	0.072	-0.429
-613.273	-43.424	0.146	0.074
-612.259	-100.001	0.203	0.051
-611.244	-200.000	0.020	-0.111
-610.230	-200.000	0.040	-0.302
-609.215	-128.220	-0.149	0.021
-608.201	-31.839	0.069	-0.039
-607.186	-200.000	-0.008	0.127
-606.171	-63.323	-0.137	-0.057
-605.157	-18.521	-0.200	0.125
-604.142	187.326	0.080	-0.119
-603.128	-113.553	-0.020	0.004
-602.113	-124.266	0.184	-0.029
-601.098	98.344	-0.144	0.166
-600.084	-200.000	0.042	-0.444
-599.069	461.043	0.063	-0.141
-598.055	-53.100	0.359	0.165
-597.040	800.000	0.053	-0.207
-596.025	-169.655	0.171	0.006
-595.011	-26.434	0.399	0.235
-593.996	243.900	-0.215	0.362
-592.982	-55.684	-0.134	-0.060
-591.967	-168.208	0.149	0.006
-590.952	670.698	-0.089	-0.230
-589.938	-200.000	0.046	0.351
-588.923	-35.732	0.152	0.083
-587.909	800.000	0.102	0.287
-586.894	337.236	0.107	-0.208
-585.879	123.426	-0.190	-0.239
-584.865	104.665	0.225	-0.266
-583.850	201.951	-0.142	0.219
-582.836	10.693	-0.121	0.093
-581.821	493.541	-0.136	-0.314
-580.806	-111.728	-0.135	0.027
-579.792	-85.180	0.201	-0.063
-578.777	96.961	-0.375	-0.431
-577.763	133.672	-0.147	-0.190
-576.748	-38.322	0.408	-0.217
-575.733	800.000	0.069	-0.218
-574.719	464.133	-0.227	-0.509
-573.704	117.277	-0.232	-0.286
-572.690	182.510	-0.046	-0.069
-571.675	-178.688	0.136	-0.003
-570.661	4.235	-0.104	-0.076
-569.646	238.463	-0.137	0.229
-568.631	-172.713	-0.340	-0.011
-567.617	-200.000	-0.011	0.178
-566.602	-86.430	0.162	0.050
-565.588	800.000	-0.041	-0.180
-564.573	-65.678	-0.281	0.113
-563.558	-29.934	-0.130	-0.074
-562.544	-81.319	-0.332	-0.110
-561.529	800.000	0.069	0.211
-560.515	-154.924	-0.324	-0.021
-559.500	255.054	-0.073	-0.125
-558.485	-95.434	-0.050	0.013
-557.471	654.642	0.056	-0.144
-556.456	-76.221	-0.319	-0.113
-555.442	87.761	-0.222	-0.246
-554.427	-147.330	0.110	0.009
-553.412	517.117	0.129	-0.301
-552.398	-16.295	0.225	-0.143
-551.383	-115.482	-0.118	-0.022
-550.369	-100.628	-0.119	0.030
-549.354	794.164	-0.144	0.395
-548.339	-72.584	0.177	-0.065
-547.325	-87.267	0.296	-0.090
-546.310	800.000	0.077	0.331
-545.296	-165.430	-0.186	-0.008
-544.281	91.545	-0.227	0.256
-543.266	325.329	-0.086	-0.165
-542.252	123.479	0.210	-0.264
-541.237	-146.149	0.367	0.032
-540.223	227.670	-0.123	0.201
-539.208	-69.014	0.136	0.052
-538.193	70.133	0.335	-0.346
-537.179	-74.822	0.072	-0.026
-536.164	-50.576	0.128	-0.061
-535.150	-68.869	0.204	0.079
-534.135	-50.838	-0.188	0.088
-533.121	-200.000	-0.006	0.090
-532.106	-105.201	0.156	-0.036
-531.091	396.416	0.044	-0.091
-530.077	-152.654	0.052	0.004
-529.062	207.782	-0.169	-0.263
-528.048	172.435	0.139	-0.200
-527.033	-17.509	0.197	-0.124
-526.018	-73.190	0.366	-0.134
-525.004	-133.415	0.029	0.004
-523.989	69.531	-0.169	-0.174
-522.975	-200.000	0.018	-0.316
-521.960	141.459	0.132	0.175
-520.945	24.016	0.232	-0.191
-519.931	800.000	0.063	0.178
-518.916	-86.254	0.096	0.030
-517.902	-200.000	-0.036	-0.220
-516.887	13.123	0.190	-0.147
-515.872	-58.657	0.148	-0.064
-514.858	-160.796	0.449	0.024
-513.843	361.533	-0.044	0.087
-512.829	66.643	-0.132	0.134
-511.814	800.000	0.088	0.365
-510.799	-55.167	0.228	-0.102
-509.785	-111.165	0.062	0.013
-508.770	58.586	-0.195	-0.192
-507.756	-129.251	-0.188	0.026
-506.741	800.000	0.046	0.171
-505.726	-122.803	-0.248	-0.040
-504.712	-102.139	0.137	-0.033
-503.697	-200.000	0.003	-0.328
-502.683	76.837	-0.142	0.151
-501.668	135.272	-0.197	0.256
-500.653	-187.316	0.088	-0.001
-499.639	99.600	0.046	-0.053
-498.624	710.275	0.030	0.079
-497.610	-94.687	0.062	0.017
-496.595	-90.845	0.104	0.030
-495.581	35.415	0.080	-0.070
-494.566	73.354	-0.178	0.186
-493.551	-34.043	-0.162	0.089
-492.537	-1.211	0.056	0.039
-491.522	471.794	-0.070	-0.158
-490.508	-103.825	-0.186	-0.043
-489.493	-200.000	0.043	-0.229
-488.478	20.658	0.197	0.159
-487.464	-89.250	0.185	0.054
-486.449	-200.000	-0.029	-0.312
-485.435	-55.707	-0.077	-0.034
-484.420	-167.179	-0.209	-0.008
-483.405	-200.000	-0.008	-0.178
-482.391	800.000	-0.072	0.260
-481.376	-200.000	0.080	0.393
-480.362	-200.000	-0.003	0.074
-479.347	800.000	0.137	-0.396
-478.332	460.611	-0.067	0.149
-477.318	265.505	-0.085	0.148
-476.303	46.259	-0.221	-0.204
-475.289	72.841	-0.062	0.065
-474.274	-93.498	-0.375	-0.104
-473.259	497.680	0.027	-0.062
-472.245	-130.793	-0.158	-0.021
-471.230	-200.000	0.030	0.242
-470.216	81.376	-0.020	-0.022
-469.201	175.376	0.041	-0.060
-468.186	617.176	0.101	-0.254
-467.172	-14.678	-0.306	-0.196
-466.157	-60.999	-0.320	-0.135
-465.143	-200.000	0.236	-0.001
-464.128	94.829	-0.034	0.038
-463.113	2.029	-0.096	0.069
-462.099	-32.189	0.094	0.052
-461.084	-200.000	0.034	0.307
-460.070	-144.223	-0.081	-0.008
-459.055	42.389	-0.131	-0.119
-458.040	280.372	-0.020	0.035
-457.026	-200.000	-0.036	-0.351
-456.011	34.198	0.232	0.202
-454.997	800.000	-0.134	0.370
-453.982	106.767	0.112	0.133
-452.968	-79.467	-0.321	-0.108
-451.953	-145.319	0.033	-0.003
-450.938	513.977	0.049	-0.115
-449.924	-146.156	0.286	0.025
-448.909	-128.883	0.073	0.010
-447.895	630.455	0.048	-0.122
-446.880	-200.000	-0.051	0.389
-445.865	-200.000	-0.057	-0.606
-444.851	61.178	-0.123	-0.121
-443.836	-200.000	-0.027	0.307
-442.822	-158.334	0.118	0.007
-441.807	330.805	-0.142	-0.272
-440.792	-20.431	0.217	0.133
-439.778	-200.000	-0.006	0.294
-438.763	-65.174	-0.333	-0.134
-437.749	-126.974	-0.141	-0.021
-436.734	-75.926	-0.248	-0.087
-435.719	800.000	-0.015	0.051
-434.705	800.000	-0.048	0.153
-433.690	-123.166	-0.221	-0.035
-432.676	343.190	0.091	-0.177
-431.661	335.614	-0.034	-0.066
-430.646	-109.710	0.259	0.054
-429.632	735.094	0.073	-0.194
-428.617	-70.083	0.097	-0.037
-427.603	-122.871	-0.072	0.012
-426.588	-151.450	-0.114	0.008
-425.573	-200.000	-0.010	0.050
-424.559	-200.000	0.009	0.194
-423.544	-160.802	-0.296	-0.016
-422.530	-149.641	0.227	0.018
-421.515	-125.035	-0.208	-0.032
-420.500	-95.724	0.109	0.029
-419.486	24.522	0.127	0.105
-418.471	218.260	0.083	0.132
-417.457	-156.525	-0.407	-0.025
-416.442	-200.000	0.006	-0.069
-415.428	-126.122	0.392	0.059
-414.413	374.902	-0.095	0.194
-413.398	91.377	0.165	0.185
-412.384	800.000	-0.128	-0.423
-411.369	168.795	0.101	-0.143
-410.355	-143.641	0.309	-0.029
-409.340	-200.000	-0.002	-0.022
-408.325	-90.654	-0.167	0.048
-407.311	115.705	-0.120	0.146
-406.296	10.180	0.111	0.084
-405.282	-80.211	0.117	0.039
-404.267	800.000	-0.068	-0.216
-403.252	800.000	0.012	-0.050
-402.238	222.093	-0.139	-0.223
-401.223	-83.629	-0.280	0.089
-400.209	-111.922	-0.209	0.042
-399.194	-1.928	0.212	-0.149
-398.179	62.290	-0.032	0.031
-397.165	227.065	-0.149	0.240
-396.150	60.607	0.106	-0.104
-395.136	800.000	-0.101	-0.293
-394.121	-54.007	0.285	-0.129
-393.106	-200.000	0.296	-0.001
-392.092	-170.767	0.277	-0.009
-391.077	800.000	-0.091	0.285
-390.063	800.000	-0.065	0.258
-389.048	-26.816	0.251	0.146
-388.033	-9.528	0.273	0.181
-387.019	354.254	-0.071	0.140
-386.004	-150.971	-0.221	0.017
-384.990	-84.184	-0.107	-0.034
-383.975	-125.426	-0.171	0.026
-382.960	-174.291	-0.222	-0.006
-381.946	25.762	0.106	0.087
-380.931	800.000	-0.091	0.368
-379.917	-20.363	0.241	-0.148
-378.902	-99.264	0.475	-0.119
-377.888	-200.000	-0.020	-0.172
-376.873	3.050	-0.217	0.157
-375.858	-76.032	0.260	-0.091
-374.844	-140.265	-0.067	0.007
-373.829	-182.788	0.025	0.000
-372.815	-200.000	-0.006	0.105
-371.800	-114.953	-0.164	-0.031
-370.785	-14.579	0.267	0.171
-369.771	-10.236	-0.286	0.189
-368.756	146.171	-0.102	-0.136
-367.742	-46.667	0.108	-0.053
-366.727	181.878	-0.116	-0.169
-365.712	800.000	-0.042	0.151
-364.698	-183.015	0.394	-0.007
-363.683	800.000	0.051	-0.158
-362.669	-116.237	-0.094	-0.017
-361.654	2.724	-0.153	-0.110
-360.639	1.640	0.147	-0.105
-359.625	800.000	-0.022	-0.077
-358.610	-43.281	0.073	-0.037
-357.596	-30.777	0.150	0.084
-356.581	-150.745	-0.161	0.012
-355.566	106.040	-0.125	0.147
-354.552	-112.486	0.160	-0.032
-353.537	157.432	0.080	0.110
-352.523	-63.501	0.226	0.092
-351.508	227.633	-0.100	0.162
-350.493	-131.653	0.367	0.048
-349.479	132.678	-0.258	-0.330
-348.464	-145.378	0.471	-0.042
-347.450	33.994	0.083	0.071
-346.435	-200.000	0.008	0.580
-345.420	209.136	0.234	0.363
-344.406	-112.726	0.492	-0.097
-343.391	177.650	0.210	0.304
-342.377	35.222	0.087	0.076
-341.362	-147.885	-0.324	-0.027
-340.348	145.455	-0.219	-0.292
-339.333	-98.480	-0.237	0.060
-338.318	-118.905	-0.169	-0.030
-337.304	18.798	-0.244	-0.194
-336.289	254.070	-0.089	-0.151
-335.275	-200.000	-0.029	0.280
-334.260	-200.000	-0.010	0.321
-333.245	63.932	0.201	0.201
-332.231	-111.329	-0.111	0.023
-331.216	261.132	0.214	-0.367
-330.202	34.257	0.205	0.178
-329.187	85.638	-0.272	-0.297
-328.172	-58.662	0.188	0.081
-327.158	298.285	-0.124	0.226
-326.143	-71.960	-0.474	0.175
-325.129	628.626	-0.105	0.263
-324.114	-200.000	0.003	0.235
-323.099	160.859	0.116	0.161
-322.085	443.058	-0.129	0.281
-321.070	57.176	-0.121	0.117
-320.056	-200.000	0.044	-0.247
-319.041	-150.872	0.314	0.024
-318.026	-30.681	0.088	-0.049
-317.012	457.972	0.045	-0.100
-315.997	-81.865	0.461	0.149
-314.983	-200.000	0.009	-0.094
-313.968	63.627	-0.202	-0.201
-312.953	-93.329	0.155	-0.043
-311.939	38.844	-0.174	0.154
-310.924	27.990	0.305	-0.255
-309.910	-79.941	0.239	0.080
-308.895	-93.067	0.137	0.038
-307.880	-98.582	-0.261	-0.066
-306.866	146.480	0.041	-0.055
-305.851	26.152	-0.140	-0.116
-304.837	-115.539	-0.086	-0.016
-303.822	66.841	-0.360	-0.364
-302.807	94.897	0.284	-0.320
-301.793	-75.497	0.431	-0.152
-300.778	-21.866	-0.220	0.133
-299.764	-101.539	-0.174	0.042
-298.749	-164.694	-0.179	-0.008
-297.735	769.033	0.158	0.427
-296.720	-151.355	0.273	-0.020
-295.705	800.000	0.047	0.148
-294.691	386.051	-0.056	-0.115
-293.676	304.193	-0.171	-0.315
-292.662	-54.337	0.143	0.064
-291.647	-78.342	-0.181	-0.061
-290.632	-200.000	-0.036	0.194
-289.618	28.384	-0.210	0.176
-288.603	-106.352	0.097	0.022
-287.589	-32.616	0.234	-0.129
-286.574	625.938	-0.037	0.092
-285.559	-133.954	-0.337	-0.041
-284.545	6.382	0.195	0.143
-283.530	-200.000	-0.004	-0.097
-282.516	-200.000	-0.038	-0.177
-281.501	-200.000	-0.004	-0.122
-280.486	-0.991	0.117	-0.082
-279.472	-3.492	-0.190	-0.131
-278.457	-200.000	0.158	0.000
-277.443	340.157	0.130	-0.251
-276.428	-45.079	-0.161	-0.079
-275.413	-51.295	-0.027	0.013
-274.399	800.000	-0.041	0.136
-273.384	-200.000	-0.008	0.089
-272.370	368.400	0.145	0.289
-271.355	800.000	0.043	-0.123
-270.340	-162.394	0.438	-0.022
-269.326	4.196	-0.270	-0.196
-268.311	78.801	-0.117	-0.124
-267.297	176.390	0.081	-0.116
-266.282	-7.273	0.209	0.140
-265.267	187.149	-0.114	-0.168
-264.253	-135.541	0.071	0.008
-263.238	-1.938	-0.125	-0.087
-262.224	-200.000	0.018	0.136
-261.209	-36.813	0.290	-0.154
-260.195	-140.194	-0.080	0.008
-259.180	-200.000	0.040	-0.207
-258.165	313.862	-0.145	-0.271
-257.151	-200.000	0.060	-0.375
-256.136	-98.737	-0.046	0.012
-255.122	627.095	0.057	-0.144
-254.107	-200.000	0.040	-0.431
-253.092	-93.391	-0.117	0.032
-252.078	-90.170	0.224	0.065
-251.063	-83.030	-0.334	-0.106
-250.049	270.844	0.071	0.123
-249.034	-101.481	-0.237	0.057
-248.019	-200.000	-0.006	-0.062
-247.005	-25.728	-0.114	-0.066
-245.990	83.751	-0.140	-0.151
-244.976	-200.000	0.053	0.308
-243.961	-188.413	0.084	0.001
-242.946	-200.000	0.001	-0.116
-241.932	127.996	0.171	0.215
-240.917	800.000	0.076	-0.243
-239.903	-17.241	0.322	-0.200
-238.888	626.360	-0.197	0.491
-237.873	40.024	0.427	0.379
-236.859	-169.840	0.275	0.010
-235.844	-145.531	0.058	0.005
-234.830	-200.000	0.017	0.357
-233.815	252.856	0.105	-0.177
-232.800	-200.000	-0.022	-0.176
-231.786	47.254	-0.085	0.078
-230.771	174.447	0.221	-0.315
-229.757	5.817	-0.183	-0.134
-228.742	-200.000	0.070	0.483
-227.727	-200.000	-0.023	0.244
-226.713	255.379	0.238	0.403
-225.698	716.865	-0.036	0.094
-224.684	-200.000	-0.018	0.147
-223.669	-14.999	-0.161	0.102
-222.655	136.348	-0.069	-0.089
-221.640	-200.000	0.281	-0.001
-220.625	456.010	-0.105	-0.230
-219.611	800.000	-0.028	-0.078
-218.596	31.972	-0.198	0.168
-217.582	800.000	0.051	-0.184
-216.567	-3.614	0.203	0.139
-215.552	-32.315	0.252	-0.139
-214.538	40.579	0.221	0.197
-213.523	-125.807	0.457	0.068
-212.509	167.490	0.095	-0.134
-211.494	-80.647	-0.162	0.053
-210.479	800.000	-0.035	-0.100
-209.465	-158.064	-0.414	-0.024
-208.450	-68.921	-0.375	0.143
-207.436	101.094	0.043	0.050
-206.421	547.302	-0.109	-0.257
-205.406	-60.702	-0.288	-0.120
-204.392	-78.863	0.380	0.128
-203.377	-200.000	-0.001	0.005
-202.363	13.938	-0.109	0.084
-201.348	320.438	-0.080	-0.151
-200.333	-200.000	-0.016	0.261
-199.319	13.406	-0.187	-0.143
-198.304	-47.969	-0.136	0.065
-197.290	-200.000	-0.042	-0.217
-196.275	800.000	0.051	0.199
-195.260	220.256	-0.169	0.268
-194.246	-57.399	0.180	0.078
-193.231	25.039	-0.067	-0.055
-192.217	-4.161	-0.107	0.073
-191.202	-39.583	-0.235	0.121
-190.187	483.806	0.099	-0.223
-189.173	39.019	0.147	-0.130
-188.158	63.227	-0.321	0.318
-187.144	104.962	-0.320	0.372
-186.129	800.000	0.090	0.338
-185.114	-80.027	0.240	-0.079
-184.100	-200.000	0.002	0.104
-183.085	38.608	-0.435	0.383
-182.071	109.827	0.126	0.149
-181.056	202.667	0.085	0.130
-180.042	800.000	-0.042	0.130
-179.027	-110.580	-0.431	-0.088
-178.012	-106.329	-0.542	0.120
-176.998	34.257	0.251	0.215
-175.983	125.502	0.111	-0.139
-174.969	296.141	-0.102	0.185
-173.954	121.684	0.168	0.206
-172.939	800.000	-0.041	0.159
-171.925	-200.000	0.000	-0.116
-170.910	-82.716	0.205	-0.065
-169.896	-200.000	-0.011	0.327
-168.881	-21.566	0.048	0.029
-167.866	335.122	0.149	-0.285
-166.852	501.112	-0.186	0.424
-165.837	73.253	0.179	0.184
-164.823	-200.000	0.007	0.081
-163.808	43.446	0.126	-0.114
-162.793	-144.463	0.169	0.015
-161.779	62.706	-0.156	-0.154
-160.764	-137.284	-0.179	0.020
-159.750	100.910	-0.082	0.094
-158.735	800.000	-0.035	0.141
-157.720	-29.036	0.193	-0.109
-156.706	800.000	0.008	0.028
-155.691	-77.530	-0.171	-0.059
-154.677	-81.432	-0.330	-0.107
-153.662	40.642	-0.110	0.098
-152.647	-38.446	0.240	0.125
-151.633	-2.656	-0.144	0.099
-150.618	-200.000	0.069	0.320
-149.604	34.892	0.075	0.065
-148.589	481.356	-0.062	0.139
-147.574	-200.000	0.011	-0.139
-146.560	-68.996	-0.321	0.122
-145.545	175.091	0.251	-0.357
-144.531	800.000	-0.046	-0.154
-143.516	-200.000	-0.019	0.426
-142.502	282.704	0.136	0.240
-141.487	511.497	0.043	-0.097
-140.472	-170.225	0.162	-0.006
-139.458	-200.000	0.035	0.160
-138.443	87.797	0.139	-0.152
-137.429	133.177	-0.176	0.224
-136.414	23.264	0.369	-0.299
-135.399	-106.059	0.260	0.058
-134.385	-147.548	-0.061	0.005
-133.370	61.005	0.075	-0.073
-132.356	61.087	0.166	-0.163
-131.341	-56.293	0.115	-0.050
-130.326	-200.000	-0.029	0.127
-129.312	-200.000	-0.005	0.044
-128.297	-200.000	0.024	0.145
-127.283	-200.000	0.002	-0.355
-126.268	280.284	0.125	-0.220
-125.253	263.695	-0.092	-0.157
-124.239	800.000	-0.026	-0.110
-123.224	363.775	0.008	-0.016
-122.210	161.861	0.101	-0.139
