DTS Sentinel unit serial number:	SN413079Multiplexer serial number:	ORYXHardware model number:	OX4-SRSoftware version number:	ORYX F/W v4.00 Oryx Data Collector v3.7.2.0data status	okinstallation	princeton_trtdifferential loss correction	single-endedforward channel	channel 3reverse channel	N/Adate	2019/09/11time	23:22:11forward acquisition time	60.00reverse acquisition time	0.00gamma	496.2192k internal	0.2317k external	0.2317temperature offset calibration	1.0054default loss term (dB/km)	0.3790temperature slope calibration	1.0000multiplexer offset coefficient	1.0000multiplexer slope coefficient	1.0000fibre end	0.00T internal ref (°C)	34.31T ext. ref 1 (°C)	1.87T ext. ref 2 (°C)	28.86length (m)	temperature (°C)	Stokes	anti-Stokes-747.200	-200.000	0.091	0.000
-746.185	-200.000	0.021	0.328
-745.171	-37.489	0.257	-0.139
-744.156	139.132	-0.246	-0.328
-743.142	288.540	0.041	-0.075
-742.127	800.000	-0.075	0.228
-741.112	39.228	0.101	0.091
-740.098	-132.999	-0.451	0.058
-739.083	21.921	-0.122	0.101
-738.069	-200.000	0.012	0.207
-737.054	157.228	0.178	-0.249
-736.039	800.000	-0.065	-0.266
-735.025	-18.280	0.138	-0.088
-734.010	317.031	-0.079	0.151
-732.996	130.980	-0.131	0.170
-731.981	426.033	0.044	-0.095
-730.966	137.681	-0.033	0.044
-729.952	184.176	-0.129	0.193
-728.937	56.991	-0.191	-0.188
-727.923	-107.150	-0.178	0.040
-726.908	-200.000	-0.042	-0.386
-725.894	210.744	-0.023	0.036
-724.879	-200.000	-0.002	-0.305
-723.864	-200.000	-0.010	-0.093
-722.850	800.000	0.037	-0.128
-721.835	-200.000	-0.031	0.259
-720.821	-200.000	-0.003	-0.074
-719.806	-74.217	0.234	-0.086
-718.791	-178.424	-0.045	0.001
-717.777	471.042	0.124	0.282
-716.762	-200.000	0.017	0.269
-715.748	-125.791	-0.292	0.045
-714.733	276.620	0.015	0.027
-713.718	-200.000	-0.030	0.238
-712.704	286.666	0.086	-0.157
-711.689	-22.214	-0.206	-0.126
-710.675	800.000	0.012	0.038
-709.660	274.970	-0.053	0.095
-708.645	-200.000	0.033	0.245
-707.631	109.597	-0.082	0.100
-706.616	340.692	0.083	0.164
-705.602	-106.386	-0.070	0.016
-704.587	166.076	0.093	-0.133
-703.572	-26.045	0.237	0.141
-702.558	501.143	0.076	0.177
-701.543	-65.303	0.284	-0.115
-700.529	59.676	0.152	0.151
-699.514	-162.356	0.166	0.008
-698.499	800.000	0.065	-0.252
-697.485	5.499	-0.165	0.123
-696.470	-200.000	0.050	-0.353
-695.456	-200.000	-0.001	-0.185
-694.441	85.671	-0.219	-0.243
-693.426	-200.000	0.072	-0.324
-692.412	-200.000	-0.006	-0.158
-691.397	-104.045	-0.255	-0.060
-690.383	800.000	-0.070	0.220
-689.368	3.236	-0.137	0.101
-688.354	800.000	-0.040	-0.117
-687.339	-200.000	-0.020	-0.107
-686.324	-200.000	0.010	0.054
-685.310	-142.467	-0.154	0.015
-684.295	43.235	-0.103	0.095
-683.281	112.279	-0.352	-0.430
-682.266	-200.000	0.010	0.105
-681.251	114.605	0.177	-0.218
-680.237	-200.000	0.013	-0.096
-679.222	-13.735	-0.037	0.024
-678.208	-10.748	0.075	0.050
-677.193	-200.000	0.035	-0.421
-676.178	-88.116	-0.482	0.146
-675.164	146.207	0.243	-0.329
-674.149	-200.000	-0.016	-0.194
-673.135	22.905	0.218	0.181
-672.120	-68.140	-0.116	-0.046
-671.105	-70.977	-0.144	-0.055
-670.091	16.276	0.026	-0.021
-669.076	-126.717	-0.352	0.053
-668.062	-200.000	0.048	-0.234
-667.047	-200.000	0.004	0.158
-666.032	282.569	0.067	0.122
-665.018	520.657	-0.108	-0.257
-664.003	-200.000	0.005	-0.260
-662.989	59.351	-0.094	0.094
-661.974	-7.725	0.248	-0.169
-660.959	55.261	-0.283	0.276
-659.945	-22.540	-0.107	0.065
-658.930	26.767	0.195	-0.165
-657.916	65.760	-0.134	-0.138
-656.901	-200.000	0.004	0.018
-655.886	37.790	0.506	-0.454
-654.872	800.000	-0.022	-0.074
-653.857	153.700	-0.144	-0.199
-652.843	-169.119	0.075	-0.003
-651.828	-109.227	0.029	0.006
-650.814	18.399	0.282	0.227
-649.799	389.442	0.043	-0.090
-648.784	1.359	0.302	0.219
-647.770	781.195	-0.094	-0.259
-646.755	-114.789	-0.207	0.040
-645.741	-175.249	0.380	0.011
-644.726	800.000	0.140	0.408
-643.711	6.758	0.098	-0.073
-642.697	457.217	-0.045	-0.100
-641.682	-85.731	-0.143	-0.045
-640.668	-84.759	0.267	-0.085
-639.653	-156.073	0.100	-0.006
-638.638	579.836	0.054	-0.134
-637.624	800.000	0.094	0.290
-636.609	682.389	0.094	-0.248
-635.595	154.335	-0.077	-0.106
-634.580	-109.581	0.201	-0.043
-633.565	-21.966	-0.254	0.156
-632.551	626.483	-0.040	0.101
-631.536	-34.324	0.273	0.151
-630.522	800.000	-0.111	0.478
-629.507	-200.000	-0.010	-0.047
-628.492	-148.338	0.456	-0.038
-627.478	513.885	-0.055	-0.130
-626.463	-112.123	-0.212	0.043
-625.449	-128.061	0.136	0.020
-624.434	-32.478	-0.115	-0.065
-623.419	-127.859	-0.396	-0.057
-622.405	-33.695	0.329	0.183
-621.390	800.000	-0.050	0.154
-620.376	-113.043	0.197	-0.039
-619.361	-80.995	0.292	-0.097
-618.346	130.490	0.191	-0.247
-617.332	-26.312	-0.166	0.098
-616.317	490.123	-0.055	-0.127
-615.303	800.000	-0.032	-0.137
-614.288	-124.777	0.228	-0.035
-613.273	-86.376	0.282	0.087
-612.259	-200.000	-0.000	-0.031
-611.244	-105.801	-0.219	0.050
-610.230	-126.714	0.202	-0.030
-609.215	339.961	0.045	-0.089
-608.201	302.350	0.151	0.281
-607.186	-200.000	0.065	0.307
-606.171	-47.897	-0.227	-0.111
-605.157	-200.000	0.004	-0.035
-604.142	427.979	0.099	-0.215
-603.128	-200.000	0.004	-0.138
-602.113	-200.000	-0.017	-0.234
-601.098	800.000	-0.048	0.195
-600.084	9.733	0.278	0.212
-599.069	-36.991	-0.312	-0.168
-598.055	31.796	-0.053	0.046
-597.040	-30.514	-0.029	-0.016
-596.025	-200.000	-0.032	0.200
-595.011	84.936	-0.241	0.266
-593.996	-200.000	0.011	0.185
-592.982	101.987	-0.177	0.208
-591.967	-200.000	0.087	-0.476
-590.952	705.828	-0.041	-0.110
-589.938	59.633	-0.094	0.094
-588.923	190.165	0.232	-0.351
-587.909	33.581	0.264	-0.231
-586.894	342.506	0.033	-0.065
-585.879	361.636	-0.095	-0.191
-584.865	-17.018	-0.228	0.145
-583.850	-32.548	-0.194	-0.109
-582.836	-200.000	0.010	0.274
-581.821	-139.098	0.093	-0.010
-580.806	-200.000	-0.007	-0.154
-579.792	-200.000	0.058	0.325
-578.777	95.353	0.196	0.225
-577.763	200.352	0.175	0.271
-576.748	-138.108	-0.101	0.011
-575.733	67.306	0.163	0.167
-574.719	29.468	-0.126	0.108
-573.704	608.543	0.110	-0.277
-572.690	-200.000	0.024	-0.120
-571.675	-118.989	-0.355	-0.063
-570.661	-200.000	-0.012	0.066
-569.646	248.748	0.036	-0.062
-568.631	-200.000	0.041	0.310
-567.617	-12.437	-0.136	-0.089
-566.602	93.054	0.195	0.221
-565.588	-46.970	-0.087	0.043
-564.573	-200.000	0.014	0.084
-563.558	-200.000	0.037	-0.257
-562.544	-200.000	0.034	-0.158
-561.529	-118.425	-0.162	-0.029
-560.515	-200.000	0.037	0.403
-559.500	800.000	-0.078	-0.327
-558.485	-181.876	-0.370	-0.007
-557.471	23.366	-0.202	-0.167
-556.456	2.115	0.165	0.119
-555.442	6.315	-0.308	-0.230
-554.427	-107.603	0.112	0.025
-553.412	188.352	0.086	0.129
-552.398	-74.713	0.189	-0.068
-551.383	-11.433	0.261	0.173
-550.369	-73.160	0.147	-0.054
-549.354	117.727	0.135	-0.168
-548.339	-35.847	0.213	0.116
-547.325	-100.193	0.260	0.065
-546.310	-86.429	-0.347	-0.107
-545.296	800.000	-0.068	0.289
-544.281	83.607	-0.263	-0.288
-543.266	200.507	-0.182	-0.281
-542.252	-200.000	0.027	-0.157
-541.237	308.691	-0.194	-0.363
-540.223	-24.167	-0.233	-0.140
-539.208	-38.213	0.065	-0.034
-538.193	-200.000	0.049	-0.279
-537.179	-200.000	0.014	-0.127
-536.164	110.917	0.107	0.130
-535.150	-147.684	0.208	0.018
-534.135	38.680	-0.162	-0.145
-533.121	800.000	0.035	-0.135
-532.106	567.771	-0.157	-0.382
-531.091	-183.664	-0.102	-0.002
-530.077	588.290	-0.122	0.303
-529.062	-200.000	0.006	0.161
-528.048	-107.431	0.148	0.033
-527.033	-160.891	0.253	0.013
-526.018	800.000	0.119	0.369
-525.004	26.569	-0.241	-0.203
-523.989	-200.000	-0.047	-0.260
-522.975	800.000	0.056	-0.167
-521.960	-71.122	0.192	-0.073
-520.945	800.000	0.018	-0.070
-519.931	-200.000	0.031	-0.385
-518.916	-131.787	-0.174	0.023
-517.902	245.627	-0.146	0.246
-516.887	9.750	-0.340	-0.259
-515.872	55.194	0.128	0.124
-514.858	709.624	-0.158	0.420
-513.843	259.016	0.035	-0.061
-512.829	621.873	-0.089	0.225
-511.814	-44.734	-0.276	0.138
-510.799	-200.000	0.013	-0.215
-509.785	-200.000	0.037	-0.177
-508.770	91.799	0.042	-0.047
-507.756	-200.000	-0.035	0.315
-506.741	-24.958	0.153	-0.091
-505.726	-200.000	-0.060	-0.292
-504.712	159.317	-0.241	-0.336
-503.697	-115.701	0.183	-0.034
-502.683	126.381	0.156	-0.197
-501.668	169.813	0.195	0.280
-500.653	-200.000	-0.024	-0.254
-499.639	399.747	0.172	0.362
-498.624	-200.000	0.031	0.215
-497.610	-22.563	-0.021	-0.012
-496.595	-31.490	0.283	-0.160
-495.581	218.110	-0.176	0.282
-494.566	531.262	0.118	-0.279
-493.551	-200.000	0.000	-0.201
-492.537	-70.715	-0.102	0.039
-491.522	153.223	-0.141	0.194
-490.508	171.672	0.094	-0.136
-489.493	-34.657	0.108	-0.059
-488.478	-200.000	0.020	0.142
-487.464	-200.000	0.017	0.109
-486.449	-131.974	-0.071	0.009
-485.435	96.585	-0.303	0.348
-484.420	-200.000	-0.018	0.114
-483.405	-125.086	0.139	0.021
-482.391	-20.332	0.037	-0.023
-481.376	-123.902	-0.146	-0.023
-480.362	-131.958	-0.415	0.054
-479.347	-21.937	-0.188	0.114
-478.332	-63.563	0.282	0.116
-477.318	-111.137	0.223	0.046
-476.303	-200.000	0.042	-0.392
-475.289	779.540	0.082	0.226
-474.274	-109.778	0.204	-0.043
-473.259	-183.578	-0.363	0.006
-472.245	40.510	0.207	0.187
-471.230	-108.457	0.097	-0.021
-470.216	568.253	0.082	0.198
-469.201	-95.413	0.090	-0.024
-468.186	-6.831	-0.356	0.243
-467.172	379.057	-0.170	-0.348
-466.157	12.329	0.141	0.109
-465.143	784.979	-0.119	0.328
-464.128	-185.343	-0.316	-0.005
-463.113	240.297	-0.091	-0.153
-462.099	-7.565	-0.202	-0.137
-461.084	-7.055	-0.120	0.082
-460.070	235.139	-0.186	0.307
-459.055	148.021	0.352	-0.475
-458.040	69.151	0.049	0.051
-457.026	56.246	-0.164	0.159
-456.011	-200.000	0.008	-0.487
-454.997	-134.327	0.157	-0.019
-453.982	-66.368	-0.243	0.097
-452.968	-6.060	0.365	0.250
-451.953	38.400	0.217	-0.193
-450.938	184.228	-0.076	-0.112
-449.924	762.824	-0.136	0.369
-448.909	-48.872	0.139	0.067
-447.895	800.000	0.060	0.232
-446.880	-9.217	-0.237	-0.159
-445.865	-101.769	-0.074	0.018
-444.851	409.073	0.013	0.028
-443.836	15.222	-0.088	-0.069
-442.822	282.607	-0.097	0.174
-441.807	-32.840	-0.195	0.109
-440.792	-151.146	-0.069	0.005
-439.778	178.135	0.122	0.179
-438.763	155.395	0.231	0.318
-437.749	650.135	-0.070	0.179
-436.734	-200.000	0.008	0.326
-435.719	800.000	0.079	0.303
-434.705	-92.339	-0.292	-0.082
-433.690	2.799	-0.084	0.061
-432.676	8.409	-0.267	0.201
-431.661	-200.000	0.044	0.218
-430.646	242.832	0.195	-0.326
-429.632	-200.000	-0.020	0.099
-428.617	445.627	0.042	-0.093
-427.603	85.114	0.102	-0.112
-426.588	-117.785	0.248	-0.045
-425.573	-106.575	-0.197	0.044
-424.559	392.629	0.044	0.091
-423.544	-146.933	-0.209	0.018
-422.530	-172.950	-0.264	0.008
-421.515	-38.094	-0.140	0.074
-420.500	-39.084	-0.178	0.094
-419.486	32.792	0.023	0.020
-418.471	139.012	-0.233	-0.306
-417.457	193.143	0.146	-0.221
-416.442	73.927	0.320	-0.336
-415.428	-200.000	0.003	-0.051
-414.413	-107.990	-0.381	0.083
-413.398	-43.541	-0.271	0.137
-412.384	-169.771	-0.099	0.004
-411.369	22.201	-0.232	-0.189
-410.355	-200.000	-0.032	-0.259
-409.340	-200.000	0.020	-0.353
-408.325	-200.000	0.020	-0.188
-407.311	173.936	0.075	-0.108
-406.296	108.655	0.204	-0.244
-405.282	193.361	-0.157	0.237
-404.267	325.757	-0.040	-0.076
-403.252	-56.549	-0.057	-0.025
-402.238	512.524	0.049	0.113
-401.223	72.183	-0.118	-0.123
-400.209	800.000	0.089	0.287
-399.194	170.608	0.237	-0.339
-398.179	-93.800	-0.132	0.036
-397.165	-200.000	0.026	0.462
-396.150	-50.569	-0.207	0.097
-395.136	-85.305	0.115	0.036
-394.121	296.332	0.152	0.278
-393.106	-200.000	-0.039	-0.255
-392.092	426.681	0.018	0.039
-391.077	-96.333	0.075	-0.020
-390.063	33.385	0.256	0.222
-389.048	-7.532	-0.171	0.115
-388.033	-200.000	-0.019	-0.346
-387.019	-200.000	-0.060	0.000
-386.004	-200.000	-0.014	-0.247
-384.990	33.953	-0.121	-0.106
-383.975	224.280	-0.097	0.157
-382.960	800.000	0.056	0.163
-381.946	597.099	0.105	-0.259
-380.931	-135.944	0.207	0.024
-379.917	162.991	0.211	-0.295
-378.902	250.759	-0.227	0.385
-377.888	175.875	0.076	-0.110
-376.873	-24.702	0.213	0.127
-375.858	800.000	0.010	0.038
-374.844	800.000	-0.093	0.308
-373.829	88.165	0.199	0.221
-372.815	-71.906	0.213	-0.079
-371.800	-81.303	0.316	0.104
-370.785	371.167	-0.029	0.060
-369.771	79.617	0.125	-0.134
-368.756	-99.942	-0.139	0.035
-367.742	800.000	0.041	0.151
-366.727	165.392	0.146	0.206
-365.712	800.000	-0.079	0.236
-364.698	169.757	-0.076	0.108
-363.683	-49.642	-0.178	-0.084
-362.669	226.437	-0.065	-0.106
-361.654	-125.214	0.067	-0.010
-360.639	-114.021	-0.227	0.044
-359.625	184.118	-0.207	-0.306
-358.610	800.000	-0.056	0.199
-357.596	-19.151	-0.118	-0.073
-356.581	-200.000	0.008	0.226
-355.566	64.942	0.105	-0.105
-354.552	156.579	-0.162	-0.223
-353.537	-35.132	0.245	-0.133
-352.523	140.647	0.089	0.117
-351.508	800.000	-0.042	0.139
-350.493	265.902	-0.078	-0.136
-349.479	41.194	-0.212	0.191
-348.464	-59.948	-0.149	0.064
-347.450	131.016	-0.079	0.101
-346.435	-200.000	0.003	-0.109
-345.420	-200.000	-0.000	0.178
-344.406	188.942	0.068	0.101
-343.391	35.419	-0.377	0.330
-342.377	-40.699	0.236	0.122
-341.362	-22.615	0.274	-0.165
-340.348	-200.000	-0.053	-0.303
-339.333	-117.716	-0.432	-0.077
-338.318	-114.371	-0.112	0.022
-337.304	0.262	-0.151	0.107
-336.289	474.821	0.110	-0.248
-335.275	-200.000	0.006	-0.126
-334.260	236.707	0.036	0.060
-333.245	95.106	0.173	-0.196
-332.231	800.000	0.090	0.257
-331.216	-68.152	0.258	-0.100
-330.202	-200.000	-0.006	0.098
-329.187	210.642	0.090	0.140
-328.172	-145.626	0.193	-0.017
-327.158	364.321	0.180	-0.361
-326.143	-159.480	0.153	0.008
-325.129	-100.955	0.146	0.036
-324.114	105.880	-0.101	-0.120
-323.099	110.131	0.268	0.321
-322.085	-200.000	0.004	-0.047
-321.070	283.870	0.054	-0.097
-320.056	-141.691	-0.108	0.011
-319.041	-44.283	-0.142	-0.071
-318.026	-200.000	-0.046	-0.313
-317.012	-200.000	-0.010	-0.323
-315.997	-200.000	0.015	-0.342
-314.983	131.223	0.178	0.228
-313.968	-81.727	-0.229	0.075
-312.953	-86.542	0.194	0.059
-311.939	-77.712	0.028	-0.009
-310.924	800.000	-0.057	-0.195
-309.910	148.139	-0.231	0.310
-308.895	-7.921	-0.293	0.197
-307.880	-200.000	-0.054	0.375
-306.866	-97.561	-0.146	-0.038
-305.851	800.000	-0.043	-0.178
-304.837	-45.689	-0.220	0.108
-303.822	-174.899	0.166	0.005
-302.807	-149.440	-0.280	0.022
-301.793	38.297	-0.106	0.094
-300.778	-200.000	-0.018	-0.180
-299.764	-200.000	0.047	-0.233
-298.749	215.898	-0.069	0.110
-297.735	-200.000	-0.066	-0.407
-296.720	-200.000	0.016	-0.520
-295.705	-200.000	0.071	0.405
-294.691	-200.000	-0.010	-0.057
-293.676	-3.522	-0.261	0.180
-292.662	481.034	-0.087	-0.197
-291.647	800.000	-0.029	0.113
-290.632	247.944	0.130	-0.219
-289.618	800.000	-0.089	0.305
-288.603	8.910	0.176	0.132
-287.589	37.621	0.496	0.438
-286.574	-200.000	-0.029	0.258
-285.559	194.506	0.136	0.205
-284.545	-130.675	0.032	0.004
-283.530	-31.814	0.047	-0.026
-282.516	128.985	-0.161	-0.204
-281.501	-50.324	-0.189	0.089
-280.486	37.579	0.325	0.287
-279.472	-200.000	-0.029	-0.252
-278.457	-200.000	0.001	0.031
-277.443	315.273	0.115	-0.215
-276.428	-109.647	0.326	0.068
-275.413	470.869	0.112	-0.250
-274.399	-200.000	0.047	-0.228
-273.384	-80.858	0.099	-0.033
-272.370	-20.747	0.133	0.081
-271.355	-160.477	-0.189	-0.010
-270.340	648.322	0.052	-0.133
-269.326	66.047	0.049	0.049
-268.311	51.488	-0.054	0.051
-267.297	-200.000	0.076	0.387
-266.282	113.699	0.110	0.132
-265.267	-63.970	0.412	0.167
-264.253	18.572	-0.292	-0.232
-263.238	-200.000	-0.005	-0.109
-262.224	-6.614	-0.193	0.130
-261.209	122.031	-0.155	-0.192
-260.195	179.078	0.118	0.171
-259.180	-108.669	0.271	-0.058
-258.165	-39.099	-0.232	-0.121
-257.151	-79.664	0.272	0.091
-256.136	7.141	0.245	0.181
-255.122	106.425	-0.046	0.054
-254.107	-12.873	-0.170	-0.110
-253.092	320.117	0.168	0.318
-252.078	-200.000	-0.036	0.206
-251.063	-54.073	-0.048	0.022
-250.049	61.567	0.160	0.158
-249.034	284.646	-0.073	-0.131
-248.019	-56.085	0.179	-0.079
-247.005	101.964	0.227	-0.263
-245.990	-200.000	-0.006	0.114
-244.976	-200.000	0.029	-0.291
-243.961	-39.981	0.300	-0.155
-242.946	590.134	0.044	0.108
-241.932	-156.525	0.255	0.016
-240.917	17.393	-0.229	-0.181
-239.903	138.353	0.122	0.159
-238.888	-53.815	-0.273	0.124
-237.873	88.699	0.277	-0.306
-236.859	51.497	-0.124	0.117
-235.844	129.028	0.084	0.107
-234.830	-12.225	-0.384	0.249
-233.815	57.041	-0.232	-0.225
-232.800	-4.057	-0.063	-0.043
-231.786	209.576	0.066	0.103
-230.771	800.000	0.047	0.184
-229.757	-200.000	-0.057	-0.314
-228.742	-24.322	-0.085	0.050
-227.727	-86.119	0.457	0.140
-226.713	-200.000	-0.024	-0.368
-225.698	220.023	0.166	-0.263
-224.684	167.012	-0.164	-0.230
-223.669	-41.582	-0.371	-0.189
-222.655	-200.000	0.067	0.569
-221.640	13.694	-0.095	0.073
-220.625	-14.391	0.109	-0.069
-219.611	395.302	0.115	0.238
-218.596	-129.667	0.301	0.041
-217.582	-77.562	-0.233	-0.080
-216.567	-31.322	-0.086	-0.048
-215.552	-200.000	-0.009	0.063
-214.538	-79.899	0.110	0.037
-213.523	-47.910	-0.240	-0.115
-212.509	-101.368	-0.205	0.050
-211.494	161.175	-0.092	-0.128
-210.479	-200.000	-0.068	-0.334
-209.465	81.715	-0.182	0.195
-208.450	-200.000	-0.040	-0.197
-207.436	-26.269	-0.095	0.055
-206.421	-162.198	-0.066	0.003
-205.406	22.138	-0.087	-0.070
-204.392	-200.000	-0.023	0.152
-203.377	-200.000	0.011	0.109
-202.363	-137.210	-0.157	0.018
-201.348	-41.228	-0.154	-0.079
-200.333	124.999	-0.168	-0.210
-199.319	45.795	-0.205	-0.188
-198.304	-131.150	0.254	-0.034
-197.290	-49.880	0.227	-0.107
-196.275	90.336	0.285	-0.316
-195.260	-7.483	0.392	0.263
-194.246	-16.819	-0.259	-0.163
-193.231	-69.421	0.243	-0.092
-192.217	-92.936	-0.169	0.047
-191.202	-89.466	-0.152	0.044
-190.187	-200.000	-0.049	0.234
-189.173	-200.000	0.001	-0.015
-188.158	341.105	-0.074	0.144
-187.144	234.382	0.021	-0.035
-186.129	800.000	-0.056	-0.167
-185.114	-126.285	0.175	0.026
-184.100	-200.000	-0.008	0.122
-183.085	-200.000	-0.046	0.538
-182.071	-35.590	-0.206	-0.111
-181.056	397.306	0.091	-0.188
-180.042	-110.960	-0.166	0.034
-179.027	249.760	-0.161	0.271
-178.012	-94.395	0.210	0.057
-176.998	4.536	0.058	-0.042
-175.983	70.515	0.230	-0.235
-174.969	10.252	0.087	-0.066
-173.954	-112.281	0.171	0.034
-172.939	-43.572	0.274	-0.137
-171.925	-200.000	-0.019	-0.113
-170.910	120.167	-0.396	-0.486
-169.896	206.620	-0.092	0.142
-168.881	-102.241	0.286	0.068
-167.866	800.000	0.013	-0.055
-166.852	585.650	-0.050	0.123
-165.837	0.516	-0.225	-0.159
-164.823	29.904	-0.211	-0.178
-163.808	-166.088	0.193	-0.008
-162.793	-71.462	-0.183	-0.068
-161.779	-119.811	0.433	0.074
-160.764	-61.082	-0.372	0.155
-159.750	70.343	-0.029	0.030
-158.735	-14.887	-0.129	0.082
-157.720	-9.747	0.173	-0.114
-156.706	211.530	0.235	-0.367
-155.691	-200.000	-0.027	0.251
-154.677	-24.253	0.111	-0.065
-153.662	163.691	-0.056	-0.078
-152.647	-64.009	-0.062	-0.025
-151.633	249.497	-0.068	0.114
-150.618	-200.000	-0.023	0.167
-149.604	498.326	-0.118	0.268
-148.589	388.800	-0.204	0.418
-147.574	-200.000	-0.017	0.226
-146.560	800.000	0.133	0.446
-145.545	-63.785	0.176	-0.071
-144.531	-153.038	-0.182	0.013
-143.516	42.445	0.096	0.087
-142.502	506.345	-0.050	-0.115
-141.487	62.633	0.138	-0.137
-140.472	-44.999	-0.067	0.033
-139.458	331.057	-0.096	-0.182
-138.443	121.793	0.157	0.193
-137.429	-48.618	0.160	0.076
-136.414	-94.153	-0.111	0.030
-135.399	800.000	0.076	0.237
-134.385	217.693	0.187	-0.295
-133.370	51.206	0.125	0.118
-132.356	-200.000	-0.029	0.199
-131.341	-125.315	0.210	0.032
-130.326	-200.000	-0.001	-0.502
-129.312	-24.401	0.074	-0.044
-128.297	185.545	0.153	0.224
-127.283	30.457	-0.251	0.212
-126.268	-75.784	-0.125	0.044
-125.253	15.958	-0.247	0.192
-124.239	-69.102	-0.257	-0.098
-123.224	-11.424	0.064	-0.042
-122.210	-138.564	0.089	-0.010
-121.195	-146.317	0.136	0.012
