DTS Sentinel unit serial number:	SN413079Multiplexer serial number:	ORYXHardware model number:	OX4-SRSoftware version number:	ORYX F/W v4.00 Oryx Data Collector v3.7.2.0data status	okinstallation	princeton_trtdifferential loss correction	single-endedforward channel	channel 3reverse channel	N/Adate	2019/09/11time	06:06:10forward acquisition time	60.00reverse acquisition time	0.00gamma	496.2192k internal	0.2330k external	0.2330temperature offset calibration	0.9910default loss term (dB/km)	0.3790temperature slope calibration	1.0000multiplexer offset coefficient	1.0000multiplexer slope coefficient	1.0000fibre end	0.00T internal ref (°C)	29.44T ext. ref 1 (°C)	-0.17T ext. ref 2 (°C)	23.78length (m)	temperature (°C)	Stokes	anti-Stokes-747.200	-200.000	0.031	-0.207
-746.185	-36.250	0.318	-0.172
-745.171	670.650	0.055	-0.144
-744.156	82.251	0.077	0.084
-743.142	21.963	-0.146	0.120
-742.127	131.302	-0.181	0.234
-741.112	15.776	0.103	0.082
-740.098	-49.584	-0.096	-0.046
-739.083	480.812	0.064	-0.145
-738.069	-60.696	0.194	-0.083
-737.054	-95.318	-0.233	-0.063
-736.039	-72.199	-0.240	-0.090
-735.025	531.102	-0.060	0.144
-734.010	-74.733	-0.211	0.076
-732.996	-200.000	0.016	0.076
-731.981	-32.901	0.100	-0.056
-730.966	-200.000	-0.016	0.204
-729.952	152.970	0.054	0.075
-728.937	-70.568	0.240	0.091
-727.923	800.000	-0.041	-0.130
-726.908	-13.115	0.184	-0.120
-725.894	-55.029	-0.441	-0.200
-724.879	-36.811	-0.137	0.074
-723.864	-61.969	-0.292	-0.123
-722.850	-85.093	-0.247	-0.078
-721.835	298.135	0.147	-0.272
-720.821	483.656	0.030	-0.069
-719.806	-15.024	-0.343	0.221
-718.791	346.808	-0.173	-0.342
-717.777	443.123	0.048	0.105
-716.762	745.509	-0.087	0.235
-715.748	133.176	0.089	0.116
-714.733	-106.594	-0.135	-0.030
-713.718	114.810	0.098	-0.121
-712.704	-118.118	0.451	-0.081
-711.689	-116.427	0.254	-0.047
-710.675	125.191	0.162	0.205
-709.660	-19.282	-0.276	-0.172
-708.645	-74.998	-0.238	0.086
-707.631	-200.000	-0.025	-0.184
-706.616	-200.000	-0.014	-0.195
-705.602	800.000	-0.093	-0.270
-704.587	-200.000	-0.007	0.219
-703.572	-3.209	-0.082	-0.058
-702.558	211.963	-0.065	0.103
-701.543	800.000	0.172	-0.576
-700.529	-72.919	0.309	0.114
-699.514	259.450	-0.058	0.100
-698.499	-200.000	-0.023	0.330
-697.485	-84.960	0.262	0.083
-696.470	800.000	-0.047	0.173
-695.456	-91.983	0.269	0.076
-694.441	654.818	0.028	-0.073
-693.426	800.000	-0.101	-0.295
-692.412	-200.000	0.001	-0.065
-691.397	-16.599	-0.361	-0.230
-690.383	207.411	-0.038	0.059
-689.368	195.397	-0.075	-0.115
-688.354	-42.546	0.240	0.123
-687.339	115.306	-0.170	-0.209
-686.324	640.863	-0.089	0.227
-685.310	-135.641	0.213	0.025
-684.295	-97.456	0.184	0.048
-683.281	-105.383	0.412	0.094
-682.266	126.571	0.043	-0.054
-681.251	-129.317	-0.136	-0.019
-680.237	-119.976	0.287	-0.049
-679.222	97.323	-0.112	-0.129
-678.208	-94.747	-0.421	0.115
-677.193	-116.230	0.167	0.031
-676.178	-200.000	0.050	-0.250
-675.164	-39.935	0.095	0.050
-674.149	156.793	-0.087	0.120
-673.135	-193.473	-0.142	0.001
-672.120	-117.038	-0.246	-0.045
-671.105	-200.000	-0.010	-0.227
-670.091	-200.000	0.013	-0.124
-669.076	-71.028	-0.241	-0.091
-668.062	-21.514	-0.238	-0.146
-667.047	-88.494	-0.309	0.092
-666.032	-61.225	-0.225	-0.095
-665.018	-110.491	-0.056	0.012
-664.003	-123.726	0.363	0.058
-662.989	415.289	0.055	0.118
-661.974	-43.860	0.169	-0.085
-660.959	109.426	0.258	0.310
-659.945	-135.143	0.175	-0.021
-658.930	94.858	0.203	0.231
-657.916	-37.996	-0.257	-0.137
-656.901	438.668	0.082	-0.179
-655.886	-200.000	-0.015	0.109
-654.872	-66.544	-0.075	0.030
-653.857	280.930	-0.072	-0.130
-652.843	23.174	-0.203	-0.167
-651.828	687.997	-0.068	-0.177
-650.814	29.492	0.029	0.025
-649.799	-200.000	0.005	0.085
-648.784	428.849	0.162	-0.352
-647.770	-189.346	-0.223	0.003
-646.755	-72.595	-0.418	-0.155
-645.741	800.000	0.019	-0.077
-644.726	-200.000	0.015	-0.070
-643.711	-80.828	0.486	-0.162
-642.697	106.599	-0.161	0.192
-641.682	37.402	-0.299	0.266
-640.668	-142.505	0.104	0.010
-639.653	150.638	-0.221	0.301
-638.638	16.429	0.270	0.214
-637.624	155.159	0.084	-0.116
-636.609	-161.494	0.130	0.007
-635.595	800.000	-0.055	-0.189
-634.580	-133.965	-0.299	0.037
-633.565	22.130	0.233	0.191
-632.551	-139.351	-0.108	-0.012
-631.536	763.888	0.180	-0.489
-630.522	-200.000	0.032	-0.272
-629.507	-154.355	-0.334	0.023
-628.492	10.589	-0.222	0.170
-627.478	-94.646	0.269	-0.073
-626.463	-133.064	-0.268	-0.034
-625.449	85.651	0.149	-0.165
-624.434	395.411	0.132	-0.276
-623.419	-200.000	0.002	-0.270
-622.405	-58.033	0.311	-0.136
-621.390	-17.855	0.216	-0.136
-620.376	165.412	0.074	0.105
-619.361	129.828	0.255	-0.326
-618.346	-49.677	-0.097	0.046
-617.332	-155.623	-0.464	-0.030
-616.317	475.172	0.106	0.241
-615.303	148.822	0.115	0.155
-614.288	284.721	-0.166	-0.300
-613.273	800.000	0.075	-0.246
-612.259	82.268	-0.041	0.045
-611.244	31.699	0.271	0.233
-610.230	-200.000	0.027	-0.191
-609.215	261.142	0.089	0.155
-608.201	-76.729	-0.279	0.098
-607.186	305.185	-0.029	0.055
-606.171	-200.000	-0.006	0.056
-605.157	464.880	0.098	-0.219
-604.142	444.770	-0.062	0.137
-603.128	146.050	-0.186	0.250
-602.113	5.194	-0.114	-0.084
-601.098	-200.000	-0.011	-0.125
-600.084	544.958	0.089	0.212
-599.069	-91.222	-0.295	0.084
-598.055	22.948	-0.195	-0.160
-597.040	-200.000	-0.071	0.471
-596.025	-153.166	-0.027	-0.002
-595.011	13.782	-0.256	-0.199
-593.996	435.022	0.145	0.315
-592.982	-153.155	0.250	-0.018
-591.967	-122.568	-0.337	-0.055
-590.952	-96.047	0.063	0.017
-589.938	410.801	-0.084	-0.178
-588.923	-200.000	-0.009	0.537
-587.909	218.015	0.040	-0.064
-586.894	97.804	0.282	-0.324
-585.879	-74.318	0.124	-0.045
-584.865	509.407	-0.147	-0.341
-583.850	103.822	-0.206	-0.242
-582.836	-20.225	0.155	-0.095
-581.821	800.000	0.040	0.162
-580.806	525.106	-0.074	0.175
-579.792	800.000	-0.055	0.221
-578.777	800.000	-0.065	-0.196
-577.763	157.411	0.074	0.102
-576.748	176.986	0.160	0.233
-575.733	-44.628	-0.152	-0.076
-574.719	248.196	0.051	-0.086
-573.704	454.247	-0.100	-0.220
-572.690	-115.763	0.081	0.015
-571.675	-90.829	0.231	0.066
-570.661	311.872	0.091	0.170
-569.646	-200.000	-0.020	-0.304
-568.631	6.840	0.241	-0.179
-567.617	-158.161	-0.067	0.004
-566.602	85.555	0.288	-0.316
-565.588	28.462	-0.095	0.080
-564.573	-32.130	-0.356	0.199
-563.558	33.963	0.186	0.162
-562.544	-48.146	-0.241	-0.116
-561.529	-149.039	-0.244	0.020
-560.515	-200.000	0.029	0.224
-559.500	800.000	0.072	0.307
-558.485	800.000	-0.039	-0.140
-557.471	242.502	-0.267	-0.447
-556.456	800.000	0.089	-0.295
-555.442	-154.041	-0.569	-0.039
-554.427	71.012	0.161	0.166
-553.412	41.786	0.089	0.081
-552.398	72.912	-0.190	0.199
-551.383	-200.000	-0.005	0.226
-550.369	218.438	-0.156	0.250
-549.354	51.916	-0.130	0.124
-548.339	800.000	-0.092	0.373
-547.325	800.000	0.036	-0.121
-546.310	431.049	0.099	-0.213
-545.296	-158.525	0.297	-0.017
-544.281	800.000	-0.103	-0.340
-543.266	90.274	0.071	-0.079
-542.252	245.710	0.080	-0.135
-541.237	-122.341	-0.063	0.010
-540.223	-200.000	-0.024	0.145
-539.208	205.163	0.032	0.050
-538.193	-114.374	0.201	-0.039
-537.179	-64.949	0.065	0.026
-536.164	-101.231	0.150	-0.037
-535.150	-57.548	0.033	-0.014
-534.135	-162.673	0.120	0.006
-533.121	-141.299	-0.235	-0.024
-532.106	-200.000	0.011	-0.263
-531.091	-117.718	-0.352	-0.063
-530.077	36.081	0.055	0.048
-529.062	-200.000	0.015	0.314
-528.048	-110.825	0.220	0.045
-527.033	25.354	0.231	0.192
-526.018	-89.237	-0.153	0.045
-525.004	-74.184	-0.467	-0.169
-523.989	36.231	-0.058	-0.051
-522.975	-200.000	-0.019	0.180
-521.960	709.375	-0.036	-0.094
-520.945	30.524	-0.187	-0.160
-519.931	-43.131	-0.272	0.138
-518.916	800.000	-0.018	-0.056
-517.902	31.841	-0.312	0.268
-516.887	7.457	-0.179	-0.133
-515.872	5.598	-0.245	-0.181
-514.858	800.000	0.060	-0.195
-513.843	188.279	-0.238	-0.355
-512.829	-200.000	-0.024	0.159
-511.814	34.667	-0.070	0.061
-510.799	-200.000	-0.022	-0.320
-509.785	-41.119	0.278	0.143
-508.770	-37.657	-0.199	-0.106
-507.756	311.519	0.194	0.363
-506.741	-93.636	0.333	0.092
-505.726	79.423	0.115	-0.123
-504.712	129.727	-0.246	-0.314
-503.697	505.086	0.072	0.167
-502.683	72.604	-0.092	0.096
-501.668	144.509	-0.099	-0.132
-500.653	-94.780	0.219	-0.059
-499.639	177.311	-0.132	-0.192
-498.624	800.000	-0.043	-0.130
-497.610	-113.262	-0.169	0.033
-496.595	-52.095	0.368	-0.170
-495.581	217.161	0.176	0.280
-494.566	48.071	0.300	0.279
-493.551	-108.014	-0.094	0.020
-492.537	-18.590	-0.185	-0.115
-491.522	113.880	-0.028	0.034
-490.508	8.968	-0.060	0.045
-489.493	-131.124	-0.414	0.055
-488.478	-20.080	-0.194	-0.119
-487.464	4.684	-0.153	0.112
-486.449	-3.076	0.188	0.131
-485.435	-149.973	-0.212	-0.017
-484.420	800.000	-0.023	0.080
-483.405	-63.550	0.235	-0.096
-482.391	-200.000	0.010	0.197
-481.376	-200.000	-0.014	-0.332
-480.362	-95.436	0.361	-0.097
-479.347	-101.729	-0.277	-0.067
-478.332	277.934	-0.096	-0.171
-477.318	509.836	0.037	0.085
-476.303	134.176	0.063	0.082
-475.289	-79.503	-0.154	-0.052
-474.274	-200.000	-0.016	-0.072
-473.259	-26.781	0.280	-0.163
-472.245	351.785	0.089	0.175
-471.230	-144.485	0.136	0.013
-470.216	-200.000	0.006	0.138
-469.201	-181.717	0.075	0.001
-468.186	28.572	-0.143	-0.120
-467.172	90.258	0.119	0.133
-466.157	415.173	0.091	-0.194
-465.143	728.924	-0.012	0.031
-464.128	-111.921	-0.345	-0.069
-463.113	-200.000	0.002	-0.257
-462.099	-53.120	0.141	0.065
-461.084	-170.793	0.136	-0.005
-460.070	81.900	0.254	-0.273
-459.055	-111.099	-0.086	0.017
-458.040	-48.212	-0.120	-0.058
-457.026	-200.000	0.443	0.000
-456.011	-200.000	0.028	0.126
-454.997	120.816	0.157	-0.195
-453.982	259.790	0.270	0.464
-452.968	132.514	-0.169	0.217
-451.953	83.348	-0.240	0.260
-450.938	617.533	-0.043	-0.106
-449.924	-200.000	0.027	-0.236
-448.909	-200.000	-0.020	0.467
-447.895	533.697	-0.111	-0.262
-446.880	36.554	-0.141	-0.124
-445.865	-95.293	0.021	-0.006
-444.851	-33.682	0.256	0.141
-443.836	-59.676	-0.519	-0.222
-442.822	-123.124	0.152	-0.024
-441.807	89.453	0.102	-0.113
-440.792	-80.726	0.233	-0.077
-439.778	-200.000	0.003	-0.288
-438.763	-200.000	0.030	-0.173
-437.749	-33.464	-0.469	0.258
-436.734	-151.607	-0.120	-0.009
-435.719	113.193	-0.117	-0.142
-434.705	28.520	-0.249	0.210
-433.690	-69.731	-0.050	0.019
-432.676	-27.638	0.248	0.143
-431.661	-66.432	-0.425	0.168
-430.646	32.472	0.286	0.246
-429.632	-131.955	-0.293	0.038
-428.617	-200.000	0.051	-0.236
-427.603	-56.774	0.237	0.104
-426.588	800.000	-0.070	-0.198
-425.573	172.879	0.211	-0.302
-424.559	156.995	-0.083	-0.114
-423.544	315.518	0.187	0.350
-422.530	-126.679	-0.351	0.052
-421.515	197.570	0.299	0.454
-420.500	-200.000	0.072	0.421
-419.486	36.107	-0.234	-0.205
-418.471	-200.000	-0.037	-0.197
-417.457	6.340	-0.074	0.055
-416.442	-79.341	0.056	-0.019
-415.428	120.723	-0.211	-0.261
-414.413	91.857	0.227	-0.254
-413.398	78.558	0.132	0.141
-412.384	-200.000	0.030	-0.199
-411.369	-93.785	0.184	-0.050
-410.355	800.000	0.023	-0.076
-409.340	-59.156	0.136	-0.058
-408.325	-200.000	-0.027	0.179
-407.311	-30.244	0.262	-0.148
-406.296	-47.093	-0.103	0.050
-405.282	308.727	-0.087	0.162
-404.267	-1.048	-0.202	-0.142
-403.252	800.000	-0.061	-0.200
-402.238	-99.321	0.469	0.117
-401.223	-49.446	-0.134	-0.063
-400.209	-181.970	-0.124	0.002
-399.194	150.224	0.046	0.062
-398.179	406.232	-0.050	0.104
-397.165	-30.356	0.225	-0.127
-396.150	-200.000	0.053	0.257
-395.136	210.971	0.076	0.119
-394.121	344.717	-0.108	-0.211
-393.106	800.000	-0.104	-0.324
-392.092	800.000	-0.073	-0.229
-391.077	9.300	-0.155	0.117
-390.063	782.065	-0.116	0.316
-389.048	-200.000	-0.020	0.090
-388.033	-54.674	-0.092	0.041
-387.019	102.031	0.406	-0.470
-386.004	-200.000	-0.046	0.217
-384.990	174.305	0.104	-0.149
-383.975	18.875	0.359	-0.286
-382.960	800.000	0.058	0.170
-381.946	-191.565	-0.333	-0.003
-380.931	-111.431	0.346	0.070
-379.917	-142.463	0.331	0.032
-378.902	-128.470	-0.130	-0.018
-377.888	-200.000	0.047	0.221
-376.873	-52.101	-0.247	-0.114
-375.858	-200.000	0.022	-0.186
-374.844	-128.391	0.021	0.003
-373.829	800.000	0.057	-0.231
-372.815	800.000	-0.085	0.333
-371.800	191.504	0.221	-0.331
-370.785	496.883	0.053	-0.120
-369.771	-22.235	-0.116	-0.070
-368.756	800.000	-0.060	0.213
-367.742	351.240	0.125	0.245
-366.727	-200.000	0.029	-0.174
-365.712	-154.543	-0.314	-0.021
-364.698	-200.000	0.019	0.189
-363.683	560.912	-0.056	-0.135
-362.669	51.332	0.120	-0.113
-361.654	-59.021	-0.115	-0.049
-360.639	147.098	0.207	0.277
-359.625	-200.000	-0.031	0.202
-358.610	-73.962	0.282	0.101
-357.596	800.000	0.019	-0.072
-356.581	212.808	-0.079	-0.123
-355.566	-14.678	-0.373	-0.238
-354.552	-174.053	0.109	0.003
-353.537	177.947	-0.021	-0.031
-352.523	800.000	-0.040	-0.153
-351.508	-200.000	-0.037	-0.218
-350.493	800.000	-0.100	-0.401
-349.479	22.362	0.223	0.181
-348.464	14.736	-0.091	-0.071
-347.450	-60.715	-0.158	0.066
-346.435	329.857	-0.042	0.080
-345.420	-77.857	0.206	0.070
-344.406	800.000	0.018	0.065
-343.391	-200.000	-0.010	0.291
-342.377	-152.084	0.141	0.010
-341.362	-149.382	-0.131	0.010
-340.348	-200.000	0.062	-0.307
-339.333	77.762	-0.178	0.188
-338.318	-26.645	0.158	0.092
-337.304	188.203	-0.011	0.016
-336.289	-200.000	-0.060	0.297
-335.275	-200.000	-0.028	0.130
-334.260	65.917	-0.371	-0.373
-333.245	12.646	-0.218	0.167
-332.231	800.000	0.025	-0.098
-331.216	-184.092	0.258	0.004
-330.202	444.762	0.028	-0.061
-329.187	71.490	0.096	0.099
-328.172	57.868	0.215	0.208
-327.158	-59.597	0.260	-0.111
-326.143	-39.085	-0.157	-0.082
-325.129	453.239	0.047	0.102
-324.114	-200.000	-0.008	0.099
-323.099	800.000	-0.078	-0.281
-322.085	800.000	0.068	0.224
-321.070	69.792	-0.132	-0.135
-320.056	76.080	0.216	0.226
-319.041	148.468	0.166	-0.222
-318.026	-113.040	0.203	0.040
-317.012	-200.000	0.012	0.190
-315.997	-200.000	-0.005	-0.042
-314.983	-100.893	0.147	0.036
-313.968	800.000	-0.020	0.063
-312.953	-79.117	-0.094	0.032
-311.939	3.490	0.193	-0.139
-310.924	-29.885	0.097	0.055
-309.910	506.055	-0.105	-0.240
-308.895	-60.192	0.335	-0.141
-307.880	20.914	-0.146	-0.117
-306.866	-162.936	-0.053	-0.003
-305.851	-200.000	0.004	0.049
-304.837	11.314	0.113	-0.085
-303.822	299.990	-0.091	-0.166
-302.807	-29.480	-0.097	-0.055
-301.793	0.116	0.251	-0.177
-300.778	-200.000	0.024	0.171
-299.764	44.463	-0.204	-0.185
-298.749	-121.290	-0.472	-0.078
-297.735	-2.173	0.020	-0.014
-296.720	-200.000	-0.033	0.267
-295.705	-54.222	0.308	-0.138
-294.691	211.985	-0.109	0.171
-293.676	-5.508	-0.081	-0.055
-292.662	-136.121	-0.236	-0.027
-291.647	17.278	0.184	0.145
-290.632	-144.874	0.184	-0.017
-289.618	-105.841	0.176	-0.039
-288.603	188.522	-0.010	0.015
-287.589	800.000	0.091	-0.314
-286.574	-80.403	0.188	0.062
-285.559	-68.590	-0.175	0.067
-284.545	800.000	-0.110	0.321
-283.530	299.980	0.030	0.055
-282.516	88.634	0.271	-0.298
-281.501	-200.000	0.034	-0.189
-280.486	-126.910	-0.355	0.052
-279.472	-181.683	0.329	0.006
-278.457	-46.184	0.191	-0.093
-277.443	358.900	0.147	0.289
-276.428	396.535	0.076	0.158
-275.413	-200.000	-0.030	0.155
-274.399	-20.653	-0.410	0.249
-273.384	-40.723	-0.106	-0.054
-272.370	25.236	0.082	0.067
-271.355	-139.915	0.289	0.030
-270.340	84.145	-0.188	0.203
-269.326	-200.000	-0.007	-0.231
-268.311	800.000	0.019	0.075
-267.297	45.635	0.155	-0.142
-266.282	118.930	-0.136	0.166
-265.267	-105.741	-0.114	0.026
-264.253	-128.052	-0.444	0.063
-263.238	-200.000	-0.003	-0.020
-262.224	73.983	0.204	-0.211
-261.209	-34.110	-0.339	0.184
-260.195	800.000	0.101	0.330
-259.180	-200.000	-0.002	0.302
-258.165	-53.308	-0.128	-0.058
-257.151	52.359	0.165	-0.155
-256.136	-138.536	0.155	0.017
-255.122	-43.062	0.178	0.089
-254.107	-200.000	-0.043	-0.242
-253.092	800.000	-0.016	0.052
-252.078	141.313	0.168	-0.220
-251.063	-77.591	-0.236	-0.081
-250.049	-200.000	0.016	-0.106
-249.034	-87.409	0.078	0.023
-248.019	-200.000	0.013	0.074
-247.005	-93.604	-0.053	-0.014
-245.990	278.322	0.053	0.093
-244.976	-39.922	-0.317	0.163
-243.961	800.000	-0.025	-0.096
-242.946	-62.252	0.149	-0.061
-241.932	82.532	0.087	-0.093
-240.917	-80.838	0.034	0.011
-239.903	-97.612	-0.056	0.014
-238.888	-8.623	-0.187	-0.124
-237.873	56.556	0.193	-0.185
-236.859	0.964	0.103	-0.073
-235.844	-200.000	-0.018	0.099
-234.830	157.143	0.158	0.216
-233.815	-148.588	-0.088	0.007
-232.800	-146.065	0.166	0.014
-231.786	-46.219	-0.451	-0.219
-230.771	-54.758	-0.077	0.034
-229.757	59.544	0.069	0.067
-228.742	109.811	0.186	0.220
-227.727	-43.480	0.029	-0.014
-226.713	800.000	0.014	-0.054
-225.698	-200.000	0.026	-0.135
-224.684	206.147	-0.070	-0.107
-223.669	82.113	0.384	0.411
-222.655	-41.825	0.297	-0.150
-221.640	800.000	0.146	-0.477
-220.625	800.000	0.057	-0.156
-219.611	34.181	-0.091	-0.079
-218.596	113.997	-0.131	0.157
-217.582	-6.293	-0.034	-0.023
-216.567	800.000	0.076	-0.301
-215.552	138.109	-0.132	-0.171
-214.538	-200.000	0.033	0.167
-213.523	-136.803	-0.138	-0.016
-212.509	-128.048	-0.171	0.024
-211.494	37.922	0.169	0.148
-210.479	-200.000	-0.019	0.231
-209.465	91.325	-0.064	-0.071
-208.450	25.989	0.121	0.100
-207.436	51.919	-0.106	0.100
-206.421	142.642	-0.149	0.195
-205.406	-193.042	-0.315	0.003
-204.392	152.890	-0.283	0.381
-203.377	31.641	-0.133	0.112
-202.363	-34.698	0.190	-0.102
-201.348	-35.274	-0.298	0.160
-200.333	-200.000	0.023	0.270
-199.319	-200.000	-0.007	-0.271
-198.304	560.115	0.038	0.091
-197.290	-117.573	-0.099	-0.018
-196.275	-97.099	-0.086	0.022
-195.260	123.479	0.197	0.243
-194.246	9.703	0.447	-0.334
-193.231	295.100	0.044	-0.079
-192.217	597.118	0.037	0.090
-191.202	-88.897	0.420	0.123
-190.187	-186.087	-0.198	0.003
-189.173	-200.000	-0.024	-0.308
-188.158	-37.901	0.184	0.097
-187.144	-81.651	0.170	0.055
-186.129	-119.864	0.157	0.027
-185.114	-200.000	-0.082	0.453
-184.100	140.067	0.283	0.367
-183.085	800.000	0.067	-0.239
-182.071	51.892	-0.280	0.262
-181.056	-200.000	-0.086	0.378
-180.042	90.000	0.188	-0.206
-179.027	-112.590	-0.222	-0.043
-178.012	247.858	0.073	0.122
-176.998	-110.239	0.319	0.065
-175.983	345.085	0.143	0.277
-174.969	-64.271	-0.147	-0.059
-173.954	-144.268	-0.087	-0.008
-172.939	800.000	0.065	-0.184
-171.925	101.517	0.136	0.155
-170.910	-200.000	0.007	-0.109
-169.896	-200.000	-0.025	-0.233
-168.881	-200.000	0.030	-0.378
-167.866	-91.522	0.298	0.084
-166.852	-128.631	0.162	-0.023
-165.837	171.276	-0.085	-0.120
-164.823	1.432	0.024	0.017
-163.808	-200.000	0.026	0.212
-162.793	-200.000	0.043	0.205
-161.779	800.000	-0.052	0.202
-160.764	-43.148	-0.163	0.081
-159.750	-200.000	-0.026	0.288
-158.735	566.277	0.084	0.200
-157.720	-67.703	0.060	0.023
-156.706	-200.000	-0.021	0.239
-155.691	800.000	-0.045	0.159
-154.677	-200.000	0.010	0.232
-153.662	15.270	-0.323	-0.250
-152.647	203.043	-0.235	-0.357
-151.633	83.767	-0.110	0.118
-150.618	-19.595	-0.242	-0.147
-149.604	-200.000	-0.053	-0.268
-148.589	-200.000	-0.035	-0.325
-147.574	800.000	-0.062	0.207
-146.560	800.000	0.072	-0.252
-145.545	46.746	-0.146	0.133
-144.531	-39.645	0.297	-0.153
-143.516	12.772	0.148	-0.112
-142.502	216.062	-0.113	-0.177
-141.487	228.189	0.075	0.120
-140.472	-200.000	0.005	0.308
-139.458	-103.985	0.269	0.062
-138.443	5.362	-0.117	-0.085
-137.429	-200.000	0.047	-0.228
-136.414	227.203	0.088	-0.140
-135.399	-52.496	-0.206	0.094
-134.385	-71.933	0.409	0.149
-133.370	-73.533	-0.186	-0.067
-132.356	800.000	-0.018	-0.073
-131.341	-23.014	0.244	0.144
-130.326	-54.330	-0.174	-0.078
-129.312	-132.813	0.159	-0.020
-128.297	-200.000	-0.008	0.123
-127.283	146.474	0.095	-0.125
-126.268	-200.000	-0.028	-0.250
-125.253	-26.182	-0.392	-0.227
-124.239	800.000	0.024	-0.097
-123.224	-17.660	0.038	0.023
-122.210	-85.441	0.238	0.073
-121.195	-200.000	0.007	-0.105
