DTS Sentinel unit serial number:	SN413079Multiplexer serial number:	ORYXHardware model number:	OX4-SRSoftware version number:	ORYX F/W v4.00 Oryx Data Collector v3.7.2.0data status	okinstallation	princeton_trtdifferential loss correction	single-endedforward channel	channel 3reverse channel	N/Adate	2019/09/10time	22:54:11forward acquisition time	60.00reverse acquisition time	0.00gamma	496.2192k internal	0.2331k external	0.2331temperature offset calibration	0.9919default loss term (dB/km)	0.3790temperature slope calibration	1.0000multiplexer offset coefficient	1.0000multiplexer slope coefficient	1.0000fibre end	0.00T internal ref (°C)	30.12T ext. ref 1 (°C)	-0.31T ext. ref 2 (°C)	23.43length (m)	temperature (°C)	Stokes	anti-Stokes-747.200	-93.439	-0.327	-0.091
-746.185	-200.000	0.003	0.283
-745.171	275.102	-0.030	0.054
-744.156	-200.000	-0.057	0.337
-743.142	800.000	0.058	-0.168
-742.127	800.000	-0.081	0.296
-741.112	800.000	-0.061	0.228
-740.098	4.823	-0.337	0.250
-739.083	-26.449	0.226	0.134
-738.069	442.052	0.057	0.126
-737.054	31.266	-0.138	-0.119
-736.039	-115.058	-0.277	0.053
-735.025	-174.329	0.329	-0.010
-734.010	-94.722	-0.129	0.035
-732.996	3.971	0.109	0.080
-731.981	141.013	0.054	-0.072
-730.966	-136.284	0.323	-0.038
-729.952	-148.545	-0.089	-0.007
-728.937	92.398	-0.296	-0.336
-727.923	-200.000	0.070	0.340
-726.908	143.677	-0.157	0.210
-725.894	-98.895	-0.091	-0.023
-724.879	76.453	-0.209	0.223
-723.864	556.086	0.070	-0.171
-722.850	184.348	0.187	0.278
-721.835	800.000	-0.028	0.121
-720.821	7.517	0.199	0.150
-719.806	-73.974	-0.131	-0.048
-718.791	-49.520	0.096	-0.046
-717.777	-178.784	0.194	-0.004
-716.762	-78.372	0.222	-0.077
-715.748	-45.440	0.064	0.032
-714.733	-200.000	-0.045	0.287
-713.718	-114.883	-0.135	-0.026
-712.704	-200.000	-0.003	0.056
-711.689	-29.725	-0.088	0.051
-710.675	-200.000	-0.053	0.327
-709.660	-18.725	0.228	0.143
-708.645	800.000	0.041	-0.137
-707.631	25.828	-0.109	-0.091
-706.616	58.907	-0.276	0.273
-705.602	610.745	0.188	0.471
-704.587	-41.720	-0.198	0.102
-703.572	-157.820	0.247	0.015
-702.558	-74.292	0.150	-0.055
-701.543	-57.643	0.366	-0.161
-700.529	561.719	-0.066	0.160
-699.514	-200.000	0.006	0.040
-698.499	-200.000	0.047	0.243
-697.485	-20.467	-0.118	0.073
-696.470	-16.819	-0.283	0.179
-695.456	-147.554	-0.098	-0.008
-694.441	198.435	0.046	-0.071
-693.426	586.731	-0.059	-0.146
-692.412	167.539	0.148	0.211
-691.397	82.969	-0.051	-0.055
-690.383	-87.233	0.105	0.032
-689.368	800.000	0.064	-0.187
-688.354	172.162	0.020	-0.029
-687.339	-186.523	-0.104	-0.001
-686.324	-32.964	-0.148	0.082
-685.310	-18.784	-0.239	-0.149
-684.295	31.807	0.193	0.167
-683.281	-42.287	-0.259	-0.133
-682.266	-157.241	-0.148	0.009
-681.251	14.159	0.109	-0.085
-680.237	-200.000	-0.041	-0.257
-679.222	45.767	0.279	-0.259
-678.208	-16.528	-0.256	-0.163
-677.193	-0.759	-0.239	0.170
-676.178	-128.408	0.115	0.016
-675.164	298.965	-0.111	0.205
-674.149	353.707	0.133	-0.265
-673.135	20.922	-0.242	-0.197
-672.120	-60.384	-0.382	0.163
-671.105	800.000	-0.043	0.178
-670.091	35.697	0.420	0.370
-669.076	800.000	-0.050	0.172
-668.062	-55.680	-0.199	0.089
-667.047	-127.475	0.164	-0.024
-666.032	-200.000	-0.012	0.118
-665.018	-49.543	0.239	0.114
-664.003	-96.865	-0.243	0.064
-662.989	231.907	-0.183	0.301
-661.974	253.905	-0.152	0.261
-660.959	-95.047	-0.202	0.055
-659.945	-81.129	-0.252	-0.084
-658.930	261.932	-0.127	0.220
-657.916	-152.286	-0.362	-0.026
-656.901	-128.457	0.108	-0.015
-655.886	11.597	-0.215	0.165
-654.872	128.206	0.170	0.216
-653.857	25.500	-0.257	0.215
-652.843	-89.400	0.178	0.053
-651.828	171.029	-0.276	0.396
-650.814	-200.000	0.006	-0.175
-649.799	176.915	-0.074	-0.107
-648.784	231.171	-0.083	0.136
-647.770	-133.728	0.262	0.033
-646.755	-200.000	-0.024	-0.216
-645.741	800.000	-0.045	-0.193
-644.726	-200.000	-0.011	-0.068
-643.711	-152.833	0.640	-0.045
-642.697	84.115	0.102	0.112
-641.682	-200.000	-0.038	-0.284
-640.668	615.396	-0.114	-0.287
-639.653	-19.705	0.361	0.224
-638.638	136.717	0.149	0.196
-637.624	576.987	-0.097	-0.237
-636.609	-200.000	0.038	0.381
-635.595	185.371	-0.182	-0.271
-634.580	-75.923	0.233	-0.083
-633.565	-200.000	-0.017	-0.101
-632.551	-200.000	0.028	0.246
-631.536	36.234	-0.073	0.064
-630.522	-173.273	-0.253	-0.008
-629.507	800.000	0.083	-0.245
-628.492	430.431	-0.173	-0.375
-627.478	1.438	0.204	-0.147
-626.463	93.994	0.164	0.187
-625.449	800.000	0.040	0.140
-624.434	-122.987	0.024	-0.004
-623.419	800.000	0.029	0.089
-622.405	-81.530	0.404	0.133
-621.390	-200.000	0.029	-0.139
-620.376	-13.720	0.122	-0.079
-619.361	124.971	-0.085	-0.108
-618.346	24.951	-0.120	0.100
-617.332	-79.335	0.311	-0.105
-616.317	-134.180	-0.304	-0.038
-615.303	-42.157	-0.204	-0.104
-614.288	800.000	0.115	-0.477
-613.273	800.000	-0.041	-0.168
-612.259	174.072	-0.073	0.106
-611.244	172.498	0.101	0.146
-610.230	-200.000	-0.015	-0.189
-609.215	-78.158	-0.126	0.043
-608.201	400.486	0.055	0.116
-607.186	2.285	-0.107	0.078
-606.171	-104.773	0.113	0.026
-605.157	-74.623	-0.391	0.141
-604.142	655.467	-0.158	0.406
-603.128	44.407	-0.372	-0.342
-602.113	-200.000	-0.021	-0.289
-601.098	50.686	-0.108	0.102
-600.084	437.214	0.099	0.215
-599.069	-200.000	0.021	-0.300
-598.055	-134.930	0.210	-0.025
-597.040	556.765	0.116	-0.281
-596.025	426.563	0.032	-0.070
-595.011	-131.619	0.325	-0.043
-593.996	-54.007	-0.154	-0.070
-592.982	-88.996	-0.324	0.096
-591.967	-200.000	0.002	-0.361
-590.952	-60.413	-0.277	0.118
-589.938	-1.369	-0.128	-0.090
-588.923	792.348	-0.031	0.086
-587.909	51.405	-0.147	-0.140
-586.894	-73.274	-0.290	0.106
-585.879	444.856	-0.110	-0.241
-584.865	-200.000	0.014	0.135
-583.850	-44.788	0.090	-0.045
-582.836	-192.205	-0.367	0.004
-581.821	-40.331	-0.109	-0.057
-580.806	22.101	-0.089	0.073
-579.792	-31.167	0.220	-0.124
-578.777	245.839	-0.147	-0.248
-577.763	147.072	-0.122	0.163
-576.748	-132.484	0.178	-0.023
-575.733	-109.254	-0.267	0.057
-574.719	158.902	-0.035	0.048
-573.704	26.039	0.028	0.023
-572.690	98.081	-0.082	0.095
-571.675	581.101	0.125	-0.306
-570.661	-19.786	-0.168	0.104
-569.646	69.781	-0.154	-0.158
-568.631	800.000	-0.076	-0.212
-567.617	494.841	-0.105	0.240
-566.602	-78.305	-0.091	0.031
-565.588	-200.000	-0.046	0.514
-564.573	485.877	-0.026	0.058
-563.558	-200.000	0.002	-0.240
-562.544	62.121	-0.285	-0.284
-561.529	-111.422	-0.077	0.016
-560.515	74.702	-0.143	-0.150
-559.500	121.918	-0.112	0.139
-558.485	76.298	-0.011	-0.012
-557.471	631.281	0.025	0.064
-556.456	-200.000	-0.034	0.327
-555.442	-200.000	-0.036	-0.304
-554.427	257.802	0.087	-0.150
-553.412	-104.935	-0.292	0.067
-552.398	-108.187	0.096	-0.021
-551.383	-137.148	-0.463	0.053
-550.369	20.379	0.109	-0.088
-549.354	256.306	-0.261	-0.447
-548.339	373.740	0.085	-0.173
-547.325	-200.000	0.057	0.311
-546.310	107.304	0.111	0.132
-545.296	208.415	0.054	0.084
-544.281	-200.000	0.000	-0.037
-543.266	-4.818	0.155	0.107
-542.252	87.052	-0.169	-0.186
-541.237	-200.000	-0.067	0.316
-540.223	-2.556	-0.091	0.064
-539.208	-107.445	-0.400	-0.088
-538.193	800.000	0.090	-0.276
-537.179	175.612	0.139	-0.201
-536.164	9.047	-0.106	0.080
-535.150	270.527	-0.065	0.113
-534.135	74.094	-0.083	-0.086
-533.121	566.890	-0.073	0.176
-532.106	203.475	0.182	-0.281
-531.091	-136.680	-0.222	-0.026
-530.077	-200.000	-0.027	0.141
-529.062	-140.505	0.199	0.021
-528.048	-119.913	-0.211	0.036
-527.033	96.585	-0.137	0.156
-526.018	800.000	-0.079	-0.219
-525.004	-73.998	0.065	-0.024
-523.989	32.246	0.254	0.218
-522.975	93.287	-0.382	-0.431
-521.960	-13.633	0.248	-0.160
-520.945	-68.282	0.281	0.109
-519.931	-24.229	-0.180	-0.107
-518.916	-200.000	0.048	0.238
-517.902	361.834	-0.174	0.348
-516.887	615.159	0.105	0.261
-515.872	-136.984	0.457	-0.052
-514.858	-64.497	0.086	0.035
-513.843	-140.986	-0.457	0.047
-512.829	-70.975	0.028	0.010
-511.814	-200.000	-0.024	-0.174
-510.799	80.673	-0.197	-0.212
-509.785	-200.000	0.009	0.207
-508.770	800.000	-0.050	0.197
-507.756	-77.989	0.104	0.036
-506.741	800.000	-0.080	0.234
-505.726	-62.917	0.195	-0.080
-504.712	-20.185	0.049	0.030
-503.697	-200.000	-0.049	-0.378
-502.683	-200.000	-0.054	-0.243
-501.668	-133.926	0.063	0.008
-500.653	262.654	-0.124	0.215
-499.639	46.696	0.119	0.110
-498.624	287.308	0.171	0.307
-497.610	37.044	-0.138	-0.122
-496.595	-63.868	-0.141	-0.057
-495.581	800.000	0.033	-0.103
-494.566	275.493	0.096	0.169
-493.551	257.079	-0.170	-0.292
-492.537	-148.186	-0.092	-0.008
-491.522	274.968	-0.144	-0.255
-490.508	-75.817	-0.216	-0.076
-489.493	-200.000	-0.053	0.241
-488.478	335.320	0.101	-0.196
-487.464	-119.348	-0.196	-0.034
-486.449	-86.679	0.270	-0.082
-485.435	800.000	-0.162	0.492
-484.420	48.594	-0.270	0.252
-483.405	73.868	-0.118	-0.123
-482.391	-200.000	-0.013	-0.144
-481.376	78.755	0.169	0.180
-480.362	-115.327	-0.144	-0.027
-479.347	-0.923	0.441	0.311
-478.332	-200.000	0.000	0.033
-477.318	-200.000	0.016	0.313
-476.303	-50.927	0.437	-0.204
-475.289	-200.000	-0.031	-0.289
-474.274	800.000	-0.043	-0.140
-473.259	-32.091	0.254	0.142
-472.245	222.628	-0.153	0.245
-471.230	-200.000	0.015	0.171
-470.216	15.257	-0.189	0.147
-469.201	-200.000	0.012	0.238
-468.186	282.120	-0.042	0.074
-467.172	-200.000	-0.019	0.243
-466.157	55.558	-0.171	-0.165
-465.143	-200.000	-0.037	0.179
-464.128	-73.298	-0.065	0.024
-463.113	800.000	-0.109	-0.375
-462.099	-200.000	-0.038	-0.271
-461.084	-200.000	-0.017	0.130
-460.070	-49.519	0.079	-0.037
-459.055	283.727	-0.147	0.263
-458.040	106.544	0.028	-0.033
-457.026	-126.638	0.468	0.069
-456.011	-152.773	-0.328	-0.023
-454.997	-2.878	0.332	0.231
-453.982	-200.000	-0.038	0.388
-452.968	-200.000	-0.010	0.109
-451.953	240.177	0.161	-0.268
-450.938	-153.072	-0.171	-0.012
-449.924	606.333	0.026	0.064
-448.909	800.000	-0.070	0.245
-447.895	244.253	-0.118	0.197
-446.880	19.807	-0.079	0.064
-445.865	800.000	-0.084	0.234
-444.851	-80.228	0.536	0.178
-443.836	-200.000	-0.042	-0.223
-442.822	-40.924	-0.155	-0.079
-441.807	-57.623	-0.356	-0.155
-440.792	-200.000	-0.061	-0.552
-439.778	-96.108	0.297	-0.078
-438.763	65.541	-0.165	-0.166
-437.749	70.409	-0.050	0.052
-436.734	430.117	-0.081	0.174
-435.719	800.000	0.008	0.034
-434.705	336.543	-0.248	0.480
-433.690	-64.720	-0.113	-0.045
-432.676	-66.278	-0.240	-0.095
-431.661	-34.057	-0.093	0.051
-430.646	212.140	-0.127	0.199
-429.632	82.996	0.215	0.232
-428.617	183.818	0.135	0.199
-427.603	-38.145	-0.148	0.078
-426.588	42.453	-0.195	0.177
-425.573	800.000	-0.135	0.401
-424.559	163.522	0.177	-0.247
-423.544	232.687	0.086	-0.140
-422.530	-78.884	0.269	-0.091
-421.515	-57.421	-0.278	0.121
-420.500	-61.070	0.209	-0.088
-419.486	-136.583	0.456	0.052
-418.471	137.806	-0.194	-0.252
-417.457	800.000	0.042	-0.127
-416.442	-105.822	0.271	-0.061
-415.428	-81.943	0.061	-0.020
-414.413	-200.000	0.030	-0.228
-413.398	-0.751	0.175	-0.123
-412.384	-200.000	0.000	-0.204
-411.369	43.641	0.142	0.129
-410.355	-150.453	-0.406	-0.031
-409.340	-165.135	-0.263	-0.012
-408.325	-176.377	0.101	0.003
-407.311	-59.340	0.173	0.074
-406.296	38.396	-0.090	0.079
-405.282	331.862	-0.057	0.109
-404.267	107.159	0.201	0.238
-403.252	-195.729	0.125	-0.001
-402.238	-200.000	0.022	-0.339
-401.223	-73.445	-0.072	0.026
-400.209	-200.000	0.023	0.202
-399.194	-9.316	0.233	0.154
-398.179	462.420	0.025	0.056
-397.165	647.260	0.116	0.293
-396.150	628.328	0.154	-0.385
-395.136	-136.700	0.117	0.013
-394.121	-111.072	0.050	-0.010
-393.106	-31.655	-0.343	0.191
-392.092	171.708	-0.266	0.379
-391.077	24.142	0.327	-0.268
-390.063	-79.356	-0.062	-0.021
-389.048	-106.123	0.220	0.049
-388.033	470.024	0.043	-0.095
-387.019	-105.003	0.120	-0.027
-386.004	-105.282	0.463	0.105
-384.990	-46.700	-0.337	0.164
-383.975	411.674	-0.059	-0.125
-382.960	85.051	-0.274	-0.298
-381.946	-47.835	-0.244	0.117
-380.931	-200.000	0.253	-0.001
-379.917	45.821	-0.040	0.037
-378.902	-72.844	0.153	-0.056
-377.888	83.597	0.172	0.186
-376.873	-125.852	0.398	0.060
-375.858	160.404	0.125	0.173
-374.844	-1.721	0.095	-0.067
-373.829	-140.033	-0.290	-0.030
-372.815	-47.595	-0.300	0.144
-371.800	227.180	-0.213	0.344
-370.785	83.874	-0.049	-0.053
-369.771	-169.228	-0.382	-0.014
-368.756	800.000	-0.127	0.363
-367.742	-70.969	-0.171	-0.064
-366.727	0.191	0.156	-0.111
-365.712	-87.094	0.177	-0.053
-364.698	61.102	-0.254	-0.250
-363.683	240.463	0.085	-0.140
-362.669	-134.777	-0.331	0.040
-361.654	-37.179	0.302	-0.160
-360.639	436.016	-0.081	-0.174
-359.625	-100.916	0.152	-0.037
-358.610	38.278	0.052	0.046
-357.596	-28.331	0.105	0.060
-356.581	-131.895	-0.346	0.045
-355.566	-22.462	0.030	-0.018
-354.552	757.295	0.032	0.086
-353.537	-125.903	-0.196	-0.029
-352.523	-29.741	0.334	0.189
-351.508	-108.000	-0.156	0.034
-350.493	8.253	-0.127	0.095
-349.479	548.183	-0.023	0.054
-348.464	-124.966	-0.087	-0.013
-347.450	705.258	-0.123	-0.321
-346.435	-90.739	-0.232	-0.066
-345.420	800.000	0.059	0.230
-344.406	-86.347	0.150	-0.046
-343.391	348.794	-0.133	-0.259
-342.377	96.999	0.035	-0.039
-341.362	11.522	0.128	-0.097
-340.348	-71.191	0.327	-0.121
-339.333	-29.284	0.124	0.070
-338.318	249.669	-0.075	-0.126
-337.304	21.404	0.326	0.262
-336.289	-44.151	-0.165	0.082
-335.275	-32.477	-0.057	-0.031
-334.260	492.569	-0.047	-0.106
-333.245	-200.000	0.046	-0.218
-332.231	-47.637	-0.147	-0.071
-331.216	800.000	-0.092	0.397
-330.202	-132.615	0.169	0.022
-329.187	154.933	0.116	-0.157
-328.172	53.376	-0.162	0.154
-327.158	10.106	0.168	0.127
-326.143	85.536	0.089	-0.097
-325.129	-59.289	-0.184	-0.078
-324.114	-200.000	0.025	0.142
-323.099	-1.356	-0.258	-0.180
-322.085	-200.000	0.020	0.290
-321.070	-64.136	0.124	0.050
-320.056	115.042	0.133	0.161
-319.041	-129.374	-0.284	-0.039
-318.026	-146.287	-0.198	0.017
-317.012	-200.000	-0.014	0.153
-315.997	-200.000	-0.015	-0.178
-314.983	-139.444	0.243	-0.026
-313.968	134.978	0.131	0.168
-312.953	-126.936	0.232	0.034
-311.939	-49.424	0.186	0.088
-310.924	-73.552	-0.104	0.038
-309.910	800.000	0.081	-0.288
-308.895	800.000	0.040	0.141
-307.880	-142.264	0.134	0.013
-306.866	2.947	0.267	-0.192
-305.851	-82.819	-0.201	0.064
-304.837	-200.000	-0.002	-0.032
-303.822	-99.411	0.331	-0.083
-302.807	-200.000	-0.015	0.297
-301.793	10.415	0.208	0.157
-300.778	-136.611	0.113	-0.013
-299.764	399.786	-0.120	0.248
-298.749	325.597	-0.161	0.305
-297.735	-200.000	-0.009	0.235
-296.720	189.113	-0.169	-0.250
-295.705	-200.000	-0.019	-0.197
-294.691	641.368	-0.083	0.209
-293.676	16.162	0.281	-0.219
-292.662	26.413	-0.256	-0.211
-291.647	-167.728	-0.315	-0.012
-290.632	190.226	-0.042	0.062
-289.618	96.881	-0.121	0.137
-288.603	289.634	0.131	-0.234
-287.589	-59.933	-0.101	-0.043
-286.574	124.018	0.053	0.066
-285.559	800.000	0.039	0.117
-284.545	324.615	0.077	-0.145
-283.530	16.631	-0.059	-0.046
-282.516	-5.239	0.287	-0.195
-281.501	10.678	0.254	-0.191
-280.486	-54.896	0.376	0.168
-279.472	132.898	0.195	0.248
-278.457	-65.002	0.180	0.072
-277.443	164.463	0.039	0.054
-276.428	605.226	-0.104	-0.256
-275.413	-76.609	-0.358	-0.124
-274.399	27.077	0.208	0.172
-273.384	693.998	0.096	-0.250
-272.370	-200.000	-0.019	-0.129
-271.355	597.833	-0.092	-0.226
-270.340	-79.484	0.157	0.052
-269.326	76.123	0.048	0.050
-268.311	97.308	-0.203	0.230
-267.297	531.791	0.145	-0.338
-266.282	-133.145	-0.326	-0.041
-265.267	76.284	0.215	-0.225
-264.253	346.582	0.085	-0.166
-263.238	144.629	0.155	-0.205
-262.224	-200.000	0.024	-0.202
-261.209	-87.902	0.052	0.016
-260.195	13.602	-0.140	-0.107
-259.180	800.000	-0.019	0.073
-258.165	107.572	-0.105	0.123
-257.151	-200.000	-0.076	-0.345
-256.136	30.820	0.305	-0.258
-255.122	800.000	-0.082	-0.272
-254.107	223.271	0.079	-0.126
-253.092	-200.000	-0.017	0.143
-252.078	24.139	0.162	0.132
-251.063	-200.000	0.049	0.374
-250.049	-114.852	-0.247	0.046
-249.034	800.000	-0.089	-0.288
-248.019	-77.377	0.234	-0.080
-247.005	-200.000	0.021	-0.105
-245.990	-18.708	0.157	0.096
-244.976	210.249	-0.044	0.068
-243.961	-87.901	0.175	-0.052
-242.946	-90.574	-0.170	0.049
-241.932	59.002	0.134	0.130
-240.917	362.176	0.094	-0.187
-239.903	29.155	0.190	-0.159
-238.888	-156.368	0.337	-0.021
-237.873	86.677	-0.086	-0.094
-236.859	-95.777	-0.329	-0.087
-235.844	800.000	0.062	-0.253
-234.830	800.000	0.034	0.142
-233.815	104.381	-0.036	-0.042
-232.800	341.755	0.060	-0.116
-231.786	-142.748	-0.319	0.031
-230.771	562.032	-0.112	-0.268
-229.757	-200.000	0.034	0.211
-228.742	12.088	-0.115	0.088
-227.727	-178.531	-0.154	0.004
-226.713	1.057	0.204	0.144
-225.698	25.291	0.256	-0.210
-224.684	800.000	-0.086	-0.282
-223.669	496.108	-0.113	0.256
-222.655	144.726	0.211	-0.277
-221.640	370.793	-0.082	-0.163
-220.625	800.000	-0.077	-0.256
-219.611	-156.801	-0.366	0.022
-218.596	-200.000	-0.012	-0.192
-217.582	-63.950	0.147	0.059
-216.567	-200.000	0.032	-0.140
-215.552	-57.227	0.229	0.099
-214.538	-127.844	0.062	0.009
-213.523	-200.000	-0.055	-0.371
-212.509	102.908	0.078	0.090
-211.494	-200.000	0.003	-0.105
-210.479	-6.779	-0.106	0.071
-209.465	-200.000	0.055	0.372
-208.450	-126.776	-0.113	0.016
-207.436	-61.435	-0.068	0.028
-206.421	-200.000	-0.011	0.139
-205.406	304.876	0.070	0.129
-204.392	180.920	0.013	0.019
-203.377	103.655	0.183	-0.212
-202.363	-69.795	-0.217	0.082
-201.348	-69.275	-0.181	-0.069
-200.333	61.010	0.116	-0.114
-199.319	-76.601	-0.202	-0.070
-198.304	-200.000	0.029	0.258
-197.290	-200.000	0.009	0.339
-196.275	43.381	-0.164	-0.148
-195.260	310.941	0.026	0.049
-194.246	-6.828	-0.197	-0.132
-193.231	-112.008	0.272	0.054
-192.217	321.137	0.072	0.135
-191.202	606.122	0.082	-0.200
-190.187	-65.371	-0.130	0.052
-189.173	-200.000	0.037	0.229
-188.158	-97.964	0.510	0.129
-187.144	-122.126	0.144	-0.023
-186.129	7.407	0.396	0.291
-185.114	224.166	-0.106	0.169
-184.100	0.638	0.282	-0.199
-183.085	-71.585	0.090	0.033
-182.071	-34.326	-0.092	-0.049
-181.056	394.715	0.133	0.273
-180.042	800.000	-0.003	0.009
-179.027	-69.403	0.086	-0.033
-178.012	-112.358	-0.096	0.019
-176.998	79.963	0.114	0.121
-175.983	-187.796	0.150	0.002
-174.969	35.349	-0.184	-0.159
-173.954	-200.000	0.028	0.414
-172.939	-2.248	-0.019	-0.013
-171.925	-102.356	0.218	0.052
-170.910	363.739	-0.173	0.341
-169.896	79.251	0.295	-0.311
-168.881	196.129	-0.031	-0.046
-167.866	-149.436	0.462	0.036
-166.852	21.763	0.145	0.116
-165.837	-102.461	-0.355	0.084
-164.823	56.478	0.152	0.146
-163.808	-200.000	-0.002	0.042
-162.793	-200.000	0.004	0.140
-161.779	800.000	0.098	-0.281
-160.764	155.688	-0.183	0.247
-159.750	168.570	-0.101	0.141
-158.735	-47.980	-0.189	0.090
-157.720	-142.800	0.392	-0.038
-156.706	205.418	-0.102	0.156
-155.691	-138.963	0.293	0.031
-154.677	800.000	-0.101	-0.292
-153.662	-52.658	-0.184	-0.084
-152.647	128.051	-0.169	0.211
-151.633	-47.079	0.152	0.073
-150.618	-200.000	-0.027	-0.168
-149.604	-52.610	0.138	-0.063
-148.589	-182.937	0.342	0.006
-147.574	-94.960	-0.315	-0.084
-146.560	222.731	-0.146	0.231
-145.545	800.000	-0.054	0.180
-144.531	800.000	0.070	0.241
-143.516	-200.000	0.014	0.208
-142.502	178.114	0.226	0.323
-141.487	-23.462	0.138	-0.081
-140.472	800.000	0.074	-0.285
-139.458	-200.000	-0.036	-0.169
-138.443	-59.250	0.052	0.022
-137.429	-83.824	-0.311	0.097
-136.414	-200.000	0.055	0.288
-135.399	-49.838	0.132	0.062
-134.385	-174.085	-0.400	-0.011
-133.370	800.000	0.053	-0.174
-132.356	18.735	-0.111	0.088
-131.341	354.798	0.050	-0.098
-130.326	125.760	-0.134	-0.166
-129.312	770.475	-0.035	-0.094
-128.297	608.224	0.093	0.229
-127.283	-46.522	0.219	-0.106
-126.268	206.858	-0.096	-0.147
-125.253	-110.741	-0.125	-0.025
-124.239	97.954	0.057	-0.065
-123.224	800.000	0.074	-0.231
-122.210	229.143	-0.179	-0.287
-121.195	-134.845	-0.170	0.020
