DTS Sentinel unit serial number:	SN413079Multiplexer serial number:	ORYXHardware model number:	OX4-SRSoftware version number:	ORYX F/W v4.00 Oryx Data Collector v3.7.2.0data status	okinstallation	princeton_trtdifferential loss correction	single-endedforward channel	channel 3reverse channel	N/Adate	2019/09/11time	07:50:11forward acquisition time	60.00reverse acquisition time	0.00gamma	496.2192k internal	0.2321k external	0.2321temperature offset calibration	0.9910default loss term (dB/km)	0.3790temperature slope calibration	1.0000multiplexer offset coefficient	1.0000multiplexer slope coefficient	1.0000fibre end	0.00T internal ref (°C)	31.77T ext. ref 1 (°C)	0.17T ext. ref 2 (°C)	28.50length (m)	temperature (°C)	Stokes	anti-Stokes-747.200	-84.809	0.139	-0.044
-746.185	364.522	0.216	0.439
-745.171	392.379	-0.202	0.423
-744.156	-93.678	-0.294	0.082
-743.142	-11.997	0.217	-0.143
-742.127	415.667	-0.020	0.044
-741.112	800.000	0.071	-0.303
-740.098	37.172	-0.263	0.235
-739.083	-176.006	0.218	-0.006
-738.069	-200.000	0.024	0.280
-737.054	75.930	0.207	-0.221
-736.039	-166.753	-0.112	-0.005
-735.025	-200.000	0.004	0.351
-734.010	-200.000	-0.047	0.251
-732.996	800.000	0.069	-0.224
-731.981	-200.000	-0.045	-0.364
-730.966	-148.375	0.169	-0.014
-729.952	-200.000	0.021	0.207
-728.937	-200.000	0.020	-0.407
-727.923	-136.200	-0.147	-0.017
-726.908	-137.672	-0.299	-0.034
-725.894	-161.032	-0.335	-0.018
-724.879	-69.890	-0.294	0.113
-723.864	-200.000	0.000	0.228
-722.850	-39.757	0.180	0.095
-721.835	-96.533	-0.170	-0.045
-720.821	800.000	-0.051	-0.147
-719.806	60.142	-0.137	0.137
-718.791	11.206	0.072	0.055
-717.777	113.293	0.142	-0.173
-716.762	-200.000	0.001	-0.342
-715.748	-150.647	-0.259	0.020
-714.733	-120.553	0.225	-0.038
-713.718	269.694	-0.028	0.050
-712.704	441.669	-0.125	-0.276
-711.689	-58.661	-0.146	0.064
-710.675	-200.000	-0.012	-0.193
-709.660	-200.000	-0.015	-0.104
-708.645	119.251	0.066	-0.082
-707.631	-90.591	0.380	-0.111
-706.616	195.500	0.067	-0.103
-705.602	-200.000	-0.027	0.132
-704.587	-34.633	-0.160	-0.088
-703.572	602.874	0.034	-0.086
-702.558	-139.377	0.217	0.024
-701.543	79.930	0.260	0.282
-700.529	-176.192	-0.299	-0.008
-699.514	800.000	-0.018	0.055
-698.499	738.497	-0.094	-0.255
-697.485	-115.737	0.101	-0.019
-696.470	-85.603	0.057	0.018
-695.456	-200.000	0.027	0.185
-694.441	-161.765	-0.305	0.016
-693.426	11.728	-0.268	-0.207
-692.412	-200.000	-0.038	0.225
-691.397	800.000	0.070	-0.205
-690.383	389.737	-0.146	-0.305
-689.368	44.048	-0.208	-0.192
-688.354	10.875	-0.092	-0.070
-687.339	219.166	0.068	0.110
-686.324	355.410	-0.077	0.154
-685.310	14.420	-0.240	-0.189
-684.295	-200.000	-0.003	-0.134
-683.281	-33.723	0.155	-0.086
-682.266	-116.335	-0.479	-0.089
-681.251	800.000	-0.020	-0.071
-680.237	-99.472	-0.096	0.024
-679.222	-5.382	-0.064	0.044
-678.208	-26.068	-0.095	0.056
-677.193	800.000	0.019	0.077
-676.178	-27.369	0.238	0.140
-675.164	101.281	0.062	0.073
-674.149	89.284	0.110	-0.124
-673.135	58.093	-0.125	-0.124
-672.120	54.218	0.123	0.119
-671.105	-46.610	0.072	-0.035
-670.091	-52.839	0.254	0.118
-669.076	-48.597	-0.259	-0.125
-668.062	800.000	0.075	-0.219
-667.047	10.223	0.181	-0.139
-666.032	-67.075	-0.187	-0.074
-665.018	-98.195	0.017	-0.004
-664.003	-199.341	-0.120	-0.001
-662.989	69.371	-0.090	-0.093
-661.974	-32.971	0.086	-0.048
-660.959	-200.000	-0.002	0.168
-659.945	50.834	-0.251	0.239
-658.930	-77.235	0.062	-0.022
-657.916	-127.769	0.547	0.079
-656.901	-92.417	0.355	0.101
-655.886	11.424	-0.135	0.105
-654.872	68.237	-0.109	-0.113
-653.857	-83.318	-0.229	0.074
-652.843	-200.000	-0.005	0.170
-651.828	-200.000	0.025	0.175
-650.814	22.305	-0.092	-0.076
-649.799	514.677	0.070	-0.165
-648.784	585.400	-0.107	0.266
-647.770	206.116	0.073	-0.114
-646.755	-188.202	-0.446	0.006
-645.741	123.543	-0.141	-0.178
-644.726	-200.000	0.005	0.040
-643.711	-89.281	0.269	-0.080
-642.697	345.636	-0.155	-0.307
-641.682	-200.000	0.026	-0.247
-640.668	-180.220	0.067	0.001
-639.653	174.957	0.055	0.080
-638.638	240.801	0.066	-0.110
-637.624	-200.000	0.026	-0.181
-636.609	-200.000	0.025	0.244
-635.595	800.000	-0.036	-0.111
-634.580	-101.332	-0.252	-0.062
-633.565	-54.459	0.312	0.142
-632.551	153.547	-0.157	-0.217
-631.536	-200.000	-0.001	-0.046
-630.522	-148.743	-0.130	0.011
-629.507	91.879	-0.197	-0.222
-628.492	800.000	-0.021	0.074
-627.478	107.210	0.161	0.192
-626.463	6.241	0.250	-0.186
-625.449	-132.241	-0.431	-0.056
-624.434	190.690	0.121	-0.183
-623.419	-36.858	-0.174	0.094
-622.405	112.975	-0.222	0.270
-621.390	623.872	-0.167	-0.423
-620.376	35.147	-0.196	-0.173
-619.361	-200.000	-0.024	-0.387
-618.346	62.922	-0.050	-0.050
-617.332	800.000	0.042	0.182
-616.317	800.000	0.013	-0.054
-615.303	100.047	0.144	0.168
-614.288	444.440	0.110	0.243
-613.273	-53.448	-0.207	-0.095
-612.259	357.093	-0.030	-0.059
-611.244	-54.166	0.214	-0.098
-610.230	43.132	-0.107	-0.099
-609.215	-60.465	-0.248	0.106
-608.201	-55.067	0.232	0.105
-607.186	800.000	0.061	-0.205
-606.171	-200.000	0.017	0.106
-605.157	-152.447	0.231	-0.017
-604.142	-200.000	0.003	0.266
-603.128	344.098	0.019	0.038
-602.113	392.495	0.076	-0.159
-601.098	285.403	0.098	0.177
-600.084	161.816	0.089	-0.125
-599.069	-72.883	0.424	-0.156
-598.055	380.176	-0.025	-0.050
-597.040	127.892	-0.126	0.161
-596.025	25.009	-0.157	0.131
-595.011	-78.401	-0.074	-0.026
-593.996	800.000	-0.016	-0.067
-592.982	800.000	0.120	0.368
-591.967	-66.188	-0.079	-0.032
-590.952	-43.757	-0.386	0.195
-589.938	-88.353	-0.194	-0.058
-588.923	-200.000	0.019	-0.215
-587.909	75.986	0.175	-0.186
-586.894	-86.549	0.066	0.020
-585.879	294.948	-0.248	0.455
-584.865	99.139	-0.257	0.299
-583.850	-200.000	0.029	0.336
-582.836	-106.283	-0.300	0.068
-581.821	199.621	-0.070	-0.108
-580.806	-200.000	-0.053	-0.333
-579.792	22.092	-0.244	0.200
-578.777	-127.655	-0.418	-0.061
-577.763	-200.000	0.024	-0.181
-576.748	-129.965	-0.273	-0.038
-575.733	-155.761	-0.396	0.025
-574.719	-108.255	-0.201	0.044
-573.704	-200.000	0.016	-0.180
-572.690	-200.000	0.021	-0.120
-571.675	-200.000	0.020	0.133
-570.661	3.286	0.064	0.047
-569.646	74.406	0.102	-0.108
-568.631	85.763	-0.211	0.233
-567.617	87.292	0.238	-0.264
-566.602	-3.105	0.125	0.088
-565.588	-200.000	0.004	-0.120
-564.573	-200.000	-0.001	-0.106
-563.558	25.203	-0.102	0.085
-562.544	-200.000	0.045	0.365
-561.529	-200.000	-0.016	-0.253
-560.515	-63.767	0.323	-0.133
-559.500	-163.062	0.203	-0.010
-558.485	-200.000	0.027	0.193
-557.471	-200.000	-0.022	0.116
-556.456	424.491	-0.062	0.134
-555.442	-17.217	-0.194	0.123
-554.427	-194.350	0.141	0.001
-553.412	25.544	0.171	0.142
-552.398	-132.239	-0.035	-0.004
-551.383	319.576	-0.140	0.266
-550.369	-200.000	-0.002	-0.143
-549.354	-126.128	-0.472	-0.071
-548.339	510.520	0.136	-0.318
-547.325	-39.166	-0.238	-0.125
-546.310	763.230	-0.101	0.275
-545.296	-1.769	0.176	0.124
-544.281	-200.000	-0.013	0.179
-543.266	247.557	0.129	-0.219
-542.252	-187.464	-0.070	-0.001
-541.237	-35.088	0.181	0.099
-540.223	-200.000	-0.012	-0.147
-539.208	-117.745	-0.236	-0.043
-538.193	369.877	-0.153	0.310
-537.179	800.000	0.087	0.252
-536.164	-200.000	0.053	0.356
-535.150	158.157	-0.198	0.275
-534.135	-122.398	-0.338	-0.055
-533.121	65.842	-0.216	0.219
-532.106	-176.740	0.402	-0.010
-531.091	800.000	-0.050	-0.188
-530.077	800.000	0.055	0.184
-529.062	-27.128	-0.142	-0.083
-528.048	-172.008	-0.120	-0.004
-527.033	-200.000	-0.007	0.195
-526.018	-142.452	-0.206	0.020
-525.004	-200.000	0.045	-0.512
-523.989	-200.000	0.027	-0.149
-522.975	-87.910	-0.163	0.049
-521.960	-200.000	0.038	0.283
-520.945	68.555	-0.115	0.118
-519.931	-89.736	-0.427	-0.125
-518.916	357.439	-0.078	0.155
-517.902	248.012	0.049	-0.084
-516.887	-135.397	0.157	0.019
-515.872	51.858	-0.082	-0.079
-514.858	-129.060	-0.286	-0.040
-513.843	421.671	0.071	-0.152
-512.829	-200.000	-0.006	-0.280
-511.814	-9.942	0.108	0.072
-510.799	-140.788	0.206	0.021
-509.785	-200.000	-0.007	0.258
-508.770	259.676	0.051	-0.089
-507.756	-14.410	-0.201	-0.129
-506.741	-109.714	-0.205	0.043
-505.726	-104.831	-0.283	-0.065
-504.712	56.636	-0.240	0.234
-503.697	43.914	0.142	-0.130
-502.683	265.750	-0.073	0.128
-501.668	91.036	0.162	-0.182
-500.653	41.549	0.257	0.233
-499.639	-123.118	-0.142	0.023
-498.624	112.773	-0.353	-0.428
-497.610	-67.239	-0.010	0.004
-496.595	-112.501	-0.137	-0.027
-495.581	800.000	-0.051	0.162
-494.566	-37.189	-0.098	0.053
-493.551	-125.011	-0.186	0.029
-492.537	-79.586	-0.319	0.108
-491.522	-200.000	0.025	0.117
-490.508	-200.000	-0.033	0.265
-489.493	-126.263	0.131	-0.020
-488.478	-37.302	-0.155	-0.083
-487.464	-48.642	-0.111	0.053
-486.449	6.567	0.059	0.044
-485.435	-17.015	0.202	0.128
-484.420	68.181	0.152	0.155
-483.405	86.831	-0.190	-0.210
-482.391	44.876	-0.142	-0.131
-481.376	56.306	0.269	0.262
-480.362	-30.302	0.043	0.024
-479.347	305.062	-0.088	0.164
-478.332	75.689	-0.173	-0.183
-477.318	690.185	0.095	0.250
-476.303	-200.000	0.004	0.111
-475.289	-200.000	0.005	-0.039
-474.274	-200.000	0.025	-0.388
-473.259	124.969	0.047	-0.059
-472.245	-49.651	-0.120	0.057
-471.230	-200.000	-0.035	0.199
-470.216	81.059	0.065	-0.070
-469.201	561.640	0.050	0.120
-468.186	388.106	0.102	-0.211
-467.172	61.594	-0.128	0.127
-466.157	243.523	-0.071	-0.119
-465.143	-64.722	-0.076	-0.031
-464.128	-103.913	0.311	0.073
-463.113	43.111	0.250	-0.228
-462.099	32.977	0.086	0.075
-461.084	441.649	0.067	-0.147
-460.070	-41.213	0.173	-0.089
-459.055	335.118	0.043	-0.083
-458.040	-200.000	-0.085	-0.424
-457.026	-21.791	0.272	-0.166
-456.011	406.621	0.030	-0.062
-454.997	-35.461	0.251	0.136
-453.982	-80.472	0.329	-0.110
-452.968	800.000	0.035	0.142
-451.953	148.239	0.201	-0.271
-450.938	-200.000	0.012	0.176
-449.924	546.924	0.117	0.280
-448.909	167.993	-0.187	-0.265
-447.895	-94.840	0.398	-0.108
-446.880	-56.458	-0.222	-0.098
-445.865	-122.315	0.193	-0.032
-444.851	24.955	0.025	-0.020
-443.836	92.858	-0.194	-0.219
-442.822	171.041	-0.129	0.185
-441.807	-94.492	0.310	0.084
-440.792	800.000	-0.077	-0.289
-439.778	-68.518	0.235	0.091
-438.763	-168.186	0.380	-0.015
-437.749	-36.565	0.152	-0.082
-436.734	800.000	0.085	0.235
-435.719	34.507	-0.154	-0.134
-434.705	-22.024	-0.197	-0.119
-433.690	-91.003	-0.266	0.076
-432.676	-24.550	0.103	0.061
-431.661	-32.995	-0.285	-0.158
-430.646	-200.000	-0.013	0.062
-429.632	800.000	0.054	0.230
-428.617	58.316	0.252	0.247
-427.603	-200.000	-0.010	0.408
-426.588	-192.370	0.390	0.004
-425.573	-86.673	0.136	-0.042
-424.559	-127.983	-0.472	-0.068
-423.544	623.878	-0.024	0.060
-422.530	-200.000	0.005	-0.114
-421.515	18.603	0.411	0.328
-420.500	92.170	0.250	-0.282
-419.486	16.067	0.175	0.138
-418.471	-82.621	0.234	0.076
-417.457	-86.965	-0.281	0.086
-416.442	-84.694	-0.088	-0.028
-415.428	77.345	0.131	0.139
-414.413	-17.687	-0.175	0.109
-413.398	161.705	-0.156	0.219
-412.384	-57.742	0.236	0.103
-411.369	48.633	-0.143	0.134
-410.355	-49.928	-0.030	-0.014
-409.340	91.385	-0.126	0.141
-408.325	-28.293	0.141	-0.081
-407.311	-173.881	0.143	-0.004
-406.296	-200.000	0.007	-0.052
-405.282	-45.490	-0.052	0.026
-404.267	460.946	-0.072	-0.160
-403.252	241.659	0.092	-0.154
-402.238	800.000	0.097	-0.326
-401.223	-59.269	-0.206	-0.088
-400.209	-56.727	0.129	0.057
-399.194	-130.690	0.316	-0.042
-398.179	-200.000	0.089	-0.408
-397.165	-200.000	-0.000	0.013
-396.150	-200.000	-0.003	-0.034
-395.136	-37.114	-0.196	0.104
-394.121	800.000	-0.054	-0.182
-393.106	-200.000	0.022	0.118
-392.092	-200.000	-0.033	-0.263
-391.077	-200.000	0.005	0.168
-390.063	158.802	0.236	0.327
-389.048	554.351	-0.210	0.505
-388.033	-80.330	0.148	-0.049
-387.019	800.000	-0.019	0.054
-386.004	728.925	0.079	0.210
-384.990	122.062	0.163	0.203
-383.975	96.676	-0.206	0.235
-382.960	-200.000	0.028	-0.237
-381.946	6.999	0.114	0.084
-380.931	-9.064	0.077	0.051
-379.917	750.850	0.063	0.169
-378.902	-200.000	0.016	-0.224
-377.888	87.055	0.245	-0.270
-376.873	-134.772	0.344	-0.042
-375.858	-133.365	-0.256	0.032
-374.844	300.395	-0.091	-0.168
-373.829	-185.096	-0.254	0.004
-372.815	-74.989	0.149	-0.053
-371.800	52.615	-0.286	-0.272
-370.785	60.154	-0.134	-0.132
-369.771	-47.604	-0.111	-0.053
-368.756	-200.000	-0.035	0.175
-367.742	-4.143	0.168	0.116
-366.727	274.233	-0.057	-0.100
-365.712	388.167	-0.139	0.285
-364.698	-200.000	0.035	-0.214
-363.683	-46.309	-0.251	-0.123
-362.669	-91.148	-0.157	-0.045
-361.654	-89.019	-0.110	-0.033
-360.639	-87.692	-0.220	-0.066
-359.625	-200.000	-0.007	0.274
-358.610	98.432	0.185	0.212
-357.596	-40.331	-0.245	0.127
-356.581	-143.449	0.338	0.032
-355.566	-72.541	0.119	0.044
-354.552	-182.145	0.250	0.005
-353.537	-200.000	-0.012	-0.243
-352.523	-114.989	0.154	0.029
-351.508	-104.708	-0.294	0.067
-350.493	-200.000	0.037	-0.303
-349.479	-139.158	-0.089	0.010
-348.464	-108.872	-0.264	0.056
-347.450	-176.371	0.168	-0.004
-346.435	-49.738	0.156	-0.074
-345.420	-200.000	0.009	0.155
-344.406	-200.000	0.026	-0.195
-343.391	-200.000	-0.010	-0.131
-342.377	514.023	0.115	0.266
-341.362	-104.498	0.319	0.073
-340.348	-71.660	0.222	-0.082
-339.333	-4.544	0.103	-0.070
-338.318	800.000	0.089	0.310
-337.304	17.255	-0.175	0.138
-336.289	-62.902	0.088	-0.036
-335.275	237.149	-0.156	0.257
-334.260	9.675	-0.262	-0.197
-333.245	46.672	-0.271	-0.250
-332.231	58.838	-0.143	-0.140
-331.216	-102.731	0.021	-0.005
-330.202	101.080	-0.044	-0.050
-329.187	-29.767	0.332	0.188
-328.172	-200.000	0.006	-0.132
-327.158	134.821	-0.090	-0.116
-326.143	247.454	0.123	-0.207
-325.129	-200.000	-0.005	-0.086
-324.114	800.000	-0.064	-0.185
-323.099	800.000	-0.060	0.172
-322.085	-65.698	-0.205	0.082
-321.070	75.544	0.201	0.211
-320.056	-61.830	0.051	-0.021
-319.041	800.000	0.034	0.113
-318.026	411.752	-0.205	0.432
-317.012	8.328	-0.181	-0.135
-315.997	33.180	0.292	-0.252
-314.983	-119.702	0.206	-0.035
-313.968	-200.000	-0.037	0.182
-312.953	-49.032	0.160	0.076
-311.939	-37.954	-0.159	0.084
-310.924	10.374	0.166	0.125
-309.910	46.384	0.279	-0.257
-308.895	87.024	-0.304	-0.333
-307.880	800.000	-0.023	0.088
-306.866	52.618	-0.182	0.172
-305.851	654.390	-0.024	0.061
-304.837	472.178	-0.158	-0.354
-303.822	-25.850	0.282	-0.165
-302.807	61.507	0.198	0.196
-301.793	-6.334	0.319	-0.216
-300.778	98.250	-0.037	0.042
-299.764	-200.000	0.032	0.242
-298.749	-200.000	-0.048	0.356
-297.735	800.000	-0.084	0.270
-296.720	800.000	-0.070	-0.301
-295.705	74.284	-0.146	0.152
-294.691	97.928	-0.041	-0.046
-293.676	-106.007	-0.059	-0.013
-292.662	68.994	0.048	-0.049
-291.647	167.816	0.058	-0.081
-290.632	-164.385	0.171	-0.008
-289.618	173.817	0.215	-0.308
-288.603	36.287	0.090	-0.078
-287.589	-200.000	0.056	-0.389
-286.574	285.088	0.083	-0.148
-285.559	40.413	0.060	0.054
-284.545	-200.000	0.007	0.061
-283.530	17.967	-0.081	-0.064
-282.516	-112.785	0.252	-0.050
-281.501	-200.000	-0.018	-0.320
-280.486	-174.995	0.210	-0.006
-279.472	-102.012	-0.425	0.102
-278.457	354.664	0.075	0.147
-277.443	-200.000	0.007	0.499
-276.428	-200.000	-0.035	-0.196
-275.413	293.682	0.050	-0.091
-274.399	310.170	0.061	0.113
-273.384	-13.204	0.045	-0.029
-272.370	-26.399	0.116	0.067
-271.355	69.657	0.327	0.334
-270.340	-96.493	0.237	-0.062
-269.326	394.109	0.121	-0.250
-268.311	-200.000	0.041	0.323
-267.297	-46.521	-0.089	0.044
-266.282	-27.834	-0.122	-0.070
-265.267	-200.000	0.021	0.263
-264.253	-36.983	0.107	0.057
-263.238	-75.041	0.298	-0.106
-262.224	-132.531	0.431	0.055
-261.209	683.982	0.061	-0.159
-260.195	-200.000	0.004	-0.105
-259.180	-164.778	-0.072	0.003
-258.165	-111.384	0.255	-0.052
-257.151	234.883	0.156	-0.255
-256.136	-99.956	-0.435	-0.108
-255.122	-74.202	-0.116	0.042
-254.107	-5.670	-0.163	-0.111
-253.092	-20.368	-0.325	-0.198
-252.078	6.952	-0.219	0.162
-251.063	79.715	0.087	-0.092
-250.049	-63.136	0.192	0.079
-249.034	799.722	0.090	0.246
-248.019	43.087	0.201	0.182
-247.005	-200.000	-0.017	0.097
-245.990	-165.859	0.241	-0.010
-244.976	28.841	0.148	-0.124
-243.961	-62.442	0.022	0.009
-242.946	91.335	-0.282	-0.313
-241.932	-70.840	0.307	0.115
-240.917	71.992	-0.236	0.243
-239.903	163.993	0.161	0.224
-238.888	-30.058	0.257	0.145
-237.873	-123.714	0.184	-0.029
-236.859	-200.000	0.007	-0.147
-235.844	-200.000	0.001	0.233
-234.830	-89.964	0.171	-0.049
-233.815	-2.190	-0.056	0.039
-232.800	-200.000	0.030	0.195
-231.786	-200.000	-0.019	-0.458
-230.771	800.000	-0.057	-0.167
-229.757	301.413	0.137	0.251
-228.742	-50.915	0.179	0.083
-227.727	-63.359	-0.228	-0.093
-226.713	-121.773	-0.193	0.032
-225.698	18.252	-0.014	0.011
-224.684	-200.000	0.007	0.079
-223.669	-17.627	-0.160	0.099
-222.655	-27.715	0.152	0.087
-221.640	51.148	0.208	0.195
-220.625	-97.466	0.257	0.066
-219.611	-200.000	-0.031	-0.429
-218.596	68.358	0.470	0.477
-217.582	200.621	-0.148	0.225
-216.567	-200.000	0.031	0.539
-215.552	311.638	0.030	0.055
-214.538	-140.597	-0.225	0.023
-213.523	-51.310	0.226	-0.105
-212.509	31.216	0.149	-0.127
-211.494	-140.222	-0.277	0.029
-210.479	-69.839	-0.169	0.064
-209.465	159.193	-0.179	0.247
-208.450	-200.000	-0.007	-0.204
-207.436	-85.604	0.124	0.038
-206.421	0.837	0.029	-0.021
-205.406	137.149	-0.098	0.127
-204.392	82.608	0.214	-0.230
-203.377	24.431	-0.138	0.113
-202.363	-168.970	-0.359	0.013
-201.348	-200.000	0.013	0.126
-200.333	441.986	-0.133	-0.289
-199.319	-83.736	-0.274	0.087
-198.304	800.000	0.045	-0.150
-197.290	-37.746	-0.095	0.050
-196.275	-27.547	-0.201	-0.116
-195.260	-134.187	-0.330	-0.040
-194.246	-33.551	0.284	-0.155
-193.231	-20.384	-0.114	-0.070
-192.217	67.288	0.250	0.252
-191.202	-26.033	0.372	0.216
-190.187	-200.000	-0.401	0.002
-189.173	-200.000	0.007	0.297
-188.158	217.890	-0.037	0.058
-187.144	-200.000	-0.025	-0.353
-186.129	-41.075	-0.178	-0.091
-185.114	-138.670	0.048	0.005
-184.100	239.688	0.133	-0.219
-183.085	-14.308	0.071	-0.045
-182.071	-151.564	-0.431	-0.032
-181.056	-200.000	-0.017	-0.073
-180.042	290.285	-0.067	0.120
-179.027	-155.429	0.107	-0.007
-178.012	-200.000	0.001	-0.215
-176.998	-200.000	-0.037	-0.166
-175.983	79.965	0.078	0.083
-174.969	-49.575	0.034	0.016
-173.954	-178.685	0.200	0.005
-172.939	390.327	0.089	-0.182
-171.925	-51.114	0.079	-0.036
-170.910	-38.773	-0.270	0.141
-169.896	496.873	-0.023	-0.053
-168.881	800.000	-0.159	-0.624
-167.866	-166.543	0.254	-0.010
-166.852	-94.516	0.066	0.018
-165.837	-62.586	0.247	0.101
-164.823	-200.000	-0.049	-0.263
-163.808	800.000	-0.058	0.169
-162.793	90.964	0.104	-0.115
-161.779	29.443	0.119	0.100
-160.764	-81.714	0.178	0.058
-159.750	-200.000	-0.006	0.160
-158.735	-200.000	-0.037	-0.304
-157.720	-106.896	0.184	-0.040
-156.706	-101.713	-0.236	0.057
-155.691	-100.267	0.267	-0.065
-154.677	800.000	-0.095	-0.314
-153.662	21.700	-0.266	-0.214
-152.647	187.626	-0.083	-0.122
-151.633	-104.014	-0.172	0.040
-150.618	-200.000	-0.011	-0.059
-149.604	-200.000	-0.016	0.153
-148.589	-200.000	0.053	-0.429
-147.574	-200.000	-0.003	-0.155
-146.560	-200.000	-0.006	-0.238
-145.545	-200.000	-0.020	0.198
-144.531	170.927	0.016	0.023
-143.516	-42.429	-0.061	0.031
-142.502	-200.000	0.004	0.090
-141.487	-99.429	0.206	-0.051
-140.472	-170.744	0.239	0.008
-139.458	-115.199	0.167	0.031
-138.443	800.000	-0.073	0.199
-137.429	-200.000	-0.011	0.298
-136.414	-99.031	-0.511	-0.128
-135.399	-200.000	-0.010	-0.123
-134.385	-95.639	0.072	-0.019
-133.370	800.000	0.067	0.212
-132.356	220.929	0.131	-0.207
-131.341	-119.110	0.144	-0.025
-130.326	-69.956	-0.258	0.097
-129.312	208.788	0.160	-0.247
-128.297	1.379	0.061	0.043
-127.283	-179.137	0.265	-0.006
-126.268	-200.000	0.002	-0.109
-125.253	103.814	0.108	-0.125
-124.239	-200.000	0.068	0.406
-123.224	-200.000	-0.016	-0.083
-122.210	388.944	0.052	-0.106
