DTS Sentinel unit serial number:	SN413079Multiplexer serial number:	ORYXHardware model number:	OX4-SRSoftware version number:	ORYX F/W v4.00 Oryx Data Collector v3.7.2.0data status	okinstallation	princeton_trtdifferential loss correction	single-endedforward channel	channel 3reverse channel	N/Adate	2019/09/11time	14:22:10forward acquisition time	60.00reverse acquisition time	0.00gamma	496.2192k internal	0.2292k external	0.2292temperature offset calibration	0.9973default loss term (dB/km)	0.3790temperature slope calibration	1.0000multiplexer offset coefficient	1.0000multiplexer slope coefficient	1.0000fibre end	0.00T internal ref (°C)	42.06T ext. ref 1 (°C)	0.87T ext. ref 2 (°C)	37.36length (m)	temperature (°C)	Stokes	anti-Stokes-747.200	66.097	-0.331	0.344
-746.185	800.000	0.073	0.321
-745.171	211.211	0.087	-0.140
-744.156	-200.000	0.086	0.558
-743.142	-8.174	0.226	-0.156
-742.127	591.328	-0.180	0.453
-741.112	-92.063	0.154	-0.044
-740.098	469.824	0.143	0.329
-739.083	-60.153	-0.095	0.042
-738.069	-200.000	0.065	0.439
-737.054	132.483	-0.132	-0.174
-736.039	-79.936	-0.246	0.085
-735.025	-22.202	-0.058	0.036
-734.010	-42.194	-0.285	0.149
-732.996	-200.000	0.068	-0.483
-731.981	530.059	0.105	0.253
-730.966	-0.820	0.333	0.242
-729.952	-200.000	-0.009	-0.330
-728.937	47.637	0.172	-0.164
-727.923	-35.934	0.083	-0.046
-726.908	-90.532	0.044	-0.013
-725.894	-200.000	-0.021	-0.255
-724.879	-135.597	-0.143	-0.017
-723.864	795.924	-0.129	-0.364
-722.850	141.538	-0.127	0.172
-721.835	-26.277	-0.061	-0.037
-720.821	365.412	0.054	-0.111
-719.806	310.878	-0.100	-0.191
-718.791	-134.230	-0.253	-0.032
-717.777	-109.717	0.231	0.050
-716.762	563.710	-0.065	0.162
-715.748	-43.847	-0.175	0.090
-714.733	-121.694	0.024	0.004
-713.718	657.867	0.084	0.221
-712.704	-135.300	-0.451	0.055
-711.689	-106.796	-0.111	-0.025
-710.675	-157.436	0.369	-0.023
-709.660	514.027	0.018	0.042
-708.645	800.000	-0.059	-0.187
-707.631	192.437	-0.112	0.172
-706.616	25.140	-0.070	0.060
-705.602	-200.000	0.001	0.082
-704.587	-65.974	-0.052	0.021
-703.572	91.052	0.220	-0.252
-702.558	19.546	0.078	-0.064
-701.543	-78.544	-0.248	-0.087
-700.529	-54.595	0.343	-0.159
-699.514	-200.000	-0.027	0.201
-698.499	-62.791	0.140	0.059
-697.485	800.000	-0.048	-0.169
-696.470	699.053	0.046	0.125
-695.456	-94.334	-0.255	-0.071
-694.441	256.662	0.135	-0.237
-693.426	133.081	-0.167	-0.220
-692.412	-200.000	0.066	0.296
-691.397	-154.823	0.067	-0.005
-690.383	-34.759	-0.141	0.079
-689.368	42.591	0.048	-0.045
-688.354	-12.849	0.123	0.082
-687.339	-200.000	0.015	-0.437
-686.324	-127.953	0.106	0.016
-685.310	-80.545	-0.226	0.077
-684.295	420.079	-0.117	-0.256
-683.281	34.502	-0.126	-0.112
-682.266	-200.000	0.018	-0.128
-681.251	-149.083	0.361	-0.030
-680.237	-49.250	0.369	-0.180
-679.222	7.557	0.198	-0.151
-678.208	-32.909	0.234	0.133
-677.193	81.054	0.070	0.077
-676.178	-181.870	0.343	0.007
-675.164	-122.010	0.279	0.047
-674.149	800.000	-0.068	0.231
-673.135	462.423	0.122	-0.277
-672.120	582.977	-0.055	-0.137
-671.105	82.183	-0.132	-0.146
-670.091	108.342	0.204	0.249
-669.076	-67.912	-0.175	-0.070
-668.062	-141.580	0.098	-0.010
-667.047	-22.858	0.332	-0.204
-666.032	800.000	-0.108	0.323
-665.018	-200.000	-0.050	-0.324
-664.003	114.475	-0.335	0.417
-662.989	-200.000	0.035	-0.186
-661.974	156.114	-0.106	-0.148
-660.959	-118.474	0.323	-0.058
-659.945	-200.000	-0.021	0.144
-658.930	191.616	-0.009	-0.014
-657.916	800.000	-0.082	-0.281
-656.901	-76.721	0.248	-0.089
-655.886	800.000	-0.066	0.219
-654.872	-200.000	0.021	0.124
-653.857	244.570	-0.094	0.162
-652.843	-120.149	-0.248	-0.043
-651.828	127.541	0.138	-0.179
-650.814	143.853	0.154	0.209
-649.799	-40.314	0.358	-0.190
-648.784	-101.320	0.180	0.045
-647.770	-83.865	-0.111	-0.036
-646.755	-32.411	-0.397	-0.226
-645.741	800.000	-0.011	-0.040
-644.726	-113.148	0.061	0.012
-643.711	-200.000	-0.009	0.094
-642.697	84.384	0.153	0.171
-641.682	-54.526	-0.201	0.093
-640.668	-89.672	-0.189	0.057
-639.653	-200.000	-0.014	-0.303
-638.638	40.602	-0.104	0.095
-637.624	101.415	0.205	0.243
-636.609	-64.625	-0.350	-0.145
-635.595	-53.078	-0.185	0.087
-634.580	163.024	-0.152	0.218
-633.565	-200.000	-0.008	-0.131
-632.551	50.943	-0.348	-0.336
-631.536	67.307	-0.209	-0.217
-630.522	-200.000	-0.018	0.257
-629.507	22.893	-0.283	0.236
-628.492	800.000	-0.072	-0.265
-627.478	509.966	-0.160	0.378
-626.463	-200.000	0.000	0.213
-625.449	-46.846	0.080	0.040
-624.434	15.712	0.122	-0.098
-623.419	-200.000	-0.052	-0.296
-622.405	112.609	0.260	0.320
-621.390	-193.032	0.226	-0.002
-620.376	262.981	-0.225	0.399
-619.361	-200.000	0.029	0.249
-618.346	681.282	-0.064	-0.169
-617.332	335.739	-0.127	0.251
-616.317	288.807	0.101	0.187
-615.303	-200.000	-0.000	-0.192
-614.288	315.673	0.106	0.204
-613.273	-63.582	0.097	0.041
-612.259	-66.202	-0.091	-0.037
-611.244	-125.265	0.240	0.037
-610.230	800.000	0.033	0.108
-609.215	-64.698	-0.043	-0.018
-608.201	134.355	-0.036	0.048
-607.186	800.000	-0.057	0.208
-606.171	-75.852	-0.292	0.105
-605.157	-12.076	-0.111	0.074
-604.142	-53.640	0.127	0.059
-603.128	-125.265	0.108	-0.017
-602.113	-200.000	0.061	-0.306
-601.098	-200.000	0.048	-0.305
-600.084	76.732	0.189	-0.204
-599.069	-85.848	0.053	-0.017
-598.055	-83.921	-0.289	-0.094
-597.040	-200.000	-0.007	0.114
-596.025	69.344	0.122	-0.128
-595.011	800.000	0.049	-0.148
-593.996	39.724	0.136	-0.124
-592.982	-124.412	-0.369	-0.059
-591.967	35.777	-0.353	-0.316
-590.952	-116.895	0.135	0.025
-589.938	-200.000	-0.025	0.145
-588.923	-161.044	-0.153	0.008
-587.909	-13.415	0.205	-0.135
-586.894	-102.682	0.274	0.067
-585.879	-45.840	-0.139	-0.070
-584.865	-38.921	-0.322	-0.173
-583.850	-108.523	0.294	0.064
-582.836	-34.708	0.240	-0.133
-581.821	-190.848	-0.228	-0.002
-580.806	188.903	-0.143	-0.218
-579.792	-115.502	0.259	-0.050
-578.777	-88.949	-0.172	-0.052
-577.763	-200.000	-0.005	-0.153
-576.748	358.348	-0.063	0.127
-575.733	28.901	0.218	0.188
-574.719	-69.537	0.094	-0.037
-573.704	-185.745	0.131	0.002
-572.690	-200.000	0.010	0.181
-571.675	118.603	0.110	0.138
-570.661	-158.789	-0.400	0.023
-569.646	-200.000	-0.022	-0.210
-568.631	-86.986	0.261	0.081
-567.617	3.821	-0.043	-0.032
-566.602	634.983	-0.062	0.160
-565.588	-174.060	0.221	0.007
-564.573	800.000	-0.053	-0.151
-563.558	-88.853	0.196	0.059
-562.544	-46.389	0.186	0.093
-561.529	800.000	-0.106	-0.340
-560.515	-2.481	0.105	0.075
-559.500	292.239	0.224	-0.414
-558.485	-109.874	-0.211	-0.045
-557.471	800.000	-0.074	-0.293
-556.456	800.000	-0.067	0.267
-555.442	386.475	0.102	0.214
-554.427	-200.000	0.045	0.257
-553.412	-200.000	0.018	-0.568
-552.398	8.500	0.240	-0.183
-551.383	117.278	-0.090	0.113
-550.369	-21.768	0.242	-0.150
-549.354	-167.393	0.354	0.014
-548.339	-22.617	-0.221	0.136
-547.325	139.356	-0.081	0.108
-546.310	161.224	0.171	-0.243
-545.296	-105.938	-0.420	0.096
-544.281	390.998	0.056	0.119
-543.266	-50.346	0.101	-0.049
-542.252	-126.019	-0.348	0.053
-541.237	87.669	0.265	-0.298
-540.223	-200.000	-0.035	-0.332
-539.208	-32.061	0.313	-0.178
-538.193	-90.658	0.076	0.022
-537.179	304.331	-0.056	0.105
-536.164	-153.692	0.040	-0.003
-535.150	-200.000	0.013	0.296
-534.135	-102.195	0.166	-0.040
-533.121	12.360	-0.340	0.266
-532.106	-200.000	-0.004	0.174
-531.091	-81.564	0.155	0.052
-530.077	104.164	-0.124	-0.149
-529.062	-86.296	0.284	0.089
-528.048	-200.000	0.037	-0.418
-527.033	-200.000	-0.038	0.197
-526.018	10.588	0.170	-0.132
-525.004	-200.000	-0.046	0.219
-523.989	-2.978	-0.057	-0.041
-522.975	-32.452	-0.206	0.117
-521.960	146.675	-0.261	-0.356
-520.945	800.000	0.039	-0.138
-519.931	-96.515	0.207	-0.055
-518.916	-91.850	0.235	0.068
-517.902	-47.101	-0.219	0.108
-516.887	65.559	-0.212	-0.218
-515.872	-200.000	0.043	-0.356
-514.858	-33.260	-0.106	0.060
-513.843	289.339	-0.111	-0.204
-512.829	800.000	0.074	-0.300
-511.814	800.000	0.096	-0.351
-510.799	-104.986	0.111	0.026
-509.785	4.777	0.232	0.173
-508.770	-96.749	-0.160	-0.043
-507.756	800.000	-0.060	-0.256
-506.741	-61.178	-0.183	0.078
-505.726	336.150	-0.148	0.292
-504.712	-200.000	-0.001	0.113
-503.697	-200.000	-0.062	0.314
-502.683	89.616	0.063	0.071
-501.668	-107.007	0.388	0.087
-500.653	-149.566	0.114	0.009
-499.639	-44.472	0.295	-0.149
-498.624	-127.787	-0.475	-0.069
-497.610	219.903	-0.024	-0.040
-496.595	119.280	-0.020	-0.025
-495.581	-38.705	0.079	0.042
-494.566	363.213	-0.091	0.185
-493.551	-67.344	0.315	-0.126
-492.537	346.751	-0.043	-0.086
-491.522	-106.237	0.099	0.022
-490.508	331.681	-0.117	0.229
-489.493	-91.214	-0.234	0.068
-488.478	216.899	-0.120	0.194
-487.464	-3.331	0.317	-0.224
-486.449	723.784	0.120	0.323
-485.435	-63.563	-0.158	-0.066
-484.420	54.645	0.284	0.278
-483.405	35.574	0.277	-0.247
-482.391	221.005	-0.149	0.242
-481.376	205.222	0.119	-0.187
-480.362	-200.000	-0.019	-0.101
-479.347	-20.090	0.032	-0.020
-478.332	-146.351	-0.048	0.004
-477.318	-44.235	-0.113	0.057
-476.303	-200.000	0.033	0.320
-475.289	800.000	-0.112	0.343
-474.274	54.127	0.138	-0.135
-473.259	-147.470	0.092	0.008
-472.245	-49.573	0.198	-0.095
-471.230	173.958	-0.171	-0.250
-470.216	87.621	-0.056	0.063
-469.201	-34.659	0.203	-0.112
-468.186	231.499	-0.073	-0.121
-467.172	69.770	0.067	-0.070
-466.157	-27.458	-0.245	-0.144
-465.143	-52.423	-0.217	-0.101
-464.128	-144.463	-0.174	-0.016
-463.113	225.253	0.178	-0.291
-462.099	28.079	-0.063	-0.054
-461.084	-166.771	0.255	-0.011
-460.070	65.124	0.110	0.112
-459.055	246.665	-0.114	0.195
-458.040	-200.000	-0.014	-0.165
-457.026	-104.140	0.192	0.045
-456.011	-133.638	0.273	-0.035
-454.997	-116.072	0.103	0.019
-453.982	-200.000	0.043	-0.196
-452.968	398.121	-0.074	-0.158
-451.953	-168.763	0.200	0.008
-450.938	-98.307	0.096	-0.025
-449.924	-180.709	-0.391	-0.008
-448.909	800.000	-0.047	-0.139
-447.895	393.705	-0.078	0.165
-446.880	800.000	-0.090	0.262
-445.865	-98.724	-0.318	-0.082
-444.851	484.418	0.060	-0.137
-443.836	57.497	-0.217	-0.214
-442.822	-200.000	-0.030	0.371
-441.807	60.800	0.099	0.100
-440.792	170.421	-0.034	0.049
-439.778	-75.073	0.327	-0.118
-438.763	276.778	0.083	0.150
-437.749	-200.000	-0.019	0.318
-436.734	-97.696	0.135	-0.035
-435.719	240.164	-0.171	-0.288
-434.705	800.000	-0.081	0.264
-433.690	-97.757	0.325	0.085
-432.676	-36.837	0.120	-0.065
-431.661	-200.000	-0.024	0.149
-430.646	170.373	0.269	-0.389
-429.632	-34.883	-0.113	-0.062
-428.617	-57.643	0.119	0.053
-427.603	-200.000	0.026	-0.223
-426.588	645.712	-0.035	0.090
-425.573	206.363	0.184	0.290
-424.559	800.000	0.042	-0.130
-423.544	-200.000	-0.036	0.193
-422.530	-166.756	0.088	-0.004
-421.515	382.251	-0.080	-0.165
-420.500	-200.000	0.018	-0.098
-419.486	-131.346	0.276	0.037
-418.471	-200.000	0.025	-0.174
-417.457	-148.238	-0.225	0.019
-416.442	-154.622	-0.280	0.019
-415.428	-112.394	-0.264	-0.053
-414.413	138.007	-0.029	-0.039
-413.398	-135.698	-0.249	-0.030
-412.384	-200.000	-0.020	-0.181
-411.369	257.592	0.007	0.012
-410.355	415.404	-0.159	-0.343
-409.340	-97.018	-0.291	-0.077
-408.325	118.178	0.014	0.017
-407.311	-72.920	-0.013	0.005
-406.296	-90.289	0.259	-0.076
-405.282	348.210	0.183	-0.365
-404.267	81.939	0.179	0.196
-403.252	125.011	-0.095	-0.121
-402.238	800.000	0.158	-0.486
-401.223	-52.938	-0.149	0.069
-400.209	-80.840	-0.362	-0.121
-399.194	161.959	0.118	-0.167
-398.179	-200.000	-0.021	-0.246
-397.165	-200.000	-0.071	-0.376
-396.150	-200.000	-0.017	0.161
-395.136	800.000	-0.091	-0.286
-394.121	-200.000	0.054	-0.376
-393.106	-200.000	-0.001	-0.073
-392.092	8.315	0.284	-0.216
-391.077	-143.850	0.184	-0.018
-390.063	-4.097	0.224	-0.157
-389.048	800.000	0.051	-0.147
-388.033	394.882	0.062	-0.131
-387.019	800.000	0.033	0.133
-386.004	231.993	-0.085	-0.141
-384.990	-6.793	0.284	0.195
-383.975	62.426	0.150	0.151
-382.960	-200.000	0.011	-0.175
-381.946	-114.662	0.184	0.036
-380.931	45.062	0.133	-0.124
-379.917	185.699	0.106	0.159
-378.902	-200.000	0.000	-0.008
-377.888	800.000	-0.094	0.299
-376.873	-152.346	-0.358	-0.026
-375.858	423.525	-0.116	0.252
-374.844	-28.696	-0.180	-0.104
-373.829	258.301	-0.175	0.303
-372.815	-114.200	0.413	0.080
-371.800	-80.516	-0.137	0.046
-370.785	-17.295	0.126	0.080
-369.771	309.514	0.077	0.144
-368.756	325.035	-0.150	0.288
-367.742	-160.687	-0.110	-0.006
-366.727	-36.931	-0.081	-0.044
-365.712	92.178	-0.154	-0.175
-364.698	-102.644	0.105	0.025
-363.683	-200.000	-0.022	0.303
-362.669	86.385	0.086	0.096
-361.654	-200.000	-0.001	0.079
-360.639	50.583	0.326	0.311
-359.625	-24.978	0.291	-0.174
-358.610	-84.468	0.156	-0.050
-357.596	-125.061	-0.299	0.046
-356.581	285.287	-0.193	0.350
-355.566	-200.000	-0.023	0.299
-354.552	-149.273	-0.246	-0.020
-353.537	57.565	-0.229	0.226
-352.523	80.136	-0.167	0.181
-351.508	-137.011	0.176	0.020
-350.493	-127.779	0.281	0.041
-349.479	42.059	0.092	0.084
-348.464	-145.928	-0.251	0.022
-347.450	-70.371	0.375	-0.143
-346.435	800.000	0.084	0.289
-345.420	-12.872	0.189	-0.124
-344.406	-75.852	0.304	0.109
-343.391	42.075	-0.139	0.127
-342.377	-63.805	0.077	0.032
-341.362	-18.546	0.037	-0.023
-340.348	-20.483	0.224	-0.139
-339.333	641.595	0.071	-0.183
-338.318	280.688	-0.125	-0.225
-337.304	800.000	0.080	-0.285
-336.289	279.542	0.078	-0.140
-335.275	-200.000	-0.023	-0.403
-334.260	42.156	0.322	-0.294
-333.245	46.771	-0.124	0.116
-332.231	-70.431	-0.090	0.034
-331.216	800.000	-0.044	-0.184
-330.202	27.983	-0.119	-0.101
-329.187	125.494	-0.064	0.081
-328.172	-200.000	0.037	-0.338
-327.158	800.000	-0.040	-0.137
-326.143	-87.800	-0.195	-0.059
-325.129	-86.198	0.096	0.030
-324.114	-196.796	0.257	0.002
-323.099	20.506	-0.078	-0.064
-322.085	275.611	0.137	0.245
-321.070	-50.432	-0.414	0.197
-320.056	-73.314	-0.211	0.078
-319.041	19.778	-0.326	-0.264
-318.026	-52.187	-0.227	-0.106
-317.012	-87.148	-0.110	0.034
-315.997	56.419	0.242	0.237
-314.983	800.000	0.102	0.327
-313.968	-200.000	-0.018	-0.099
-312.953	-134.291	0.198	-0.024
-311.939	408.629	-0.038	-0.081
-310.924	104.581	-0.339	-0.402
-309.910	-87.357	0.317	-0.097
-308.895	73.518	0.179	0.189
-307.880	-32.772	0.186	-0.104
-306.866	-200.000	0.017	0.116
-305.851	257.122	0.082	0.142
-304.837	-200.000	0.005	0.136
-303.822	800.000	-0.029	0.099
-302.807	151.189	-0.117	-0.160
-301.793	-86.961	-0.156	-0.048
-300.778	-200.000	0.003	-0.208
-299.764	-21.600	-0.201	0.124
-298.749	800.000	-0.041	0.135
-297.735	-200.000	-0.025	0.128
-296.720	55.084	0.148	-0.144
-295.705	71.328	-0.136	0.142
-294.691	15.921	0.147	0.117
-293.676	800.000	-0.074	-0.300
-292.662	498.202	-0.080	-0.186
-291.647	-53.657	-0.114	-0.053
-290.632	-136.581	-0.382	-0.044
-289.618	290.059	0.193	-0.353
-288.603	-58.084	-0.335	0.147
-287.589	-87.651	-0.267	0.081
-286.574	-157.177	0.155	-0.009
-285.559	-50.045	-0.247	0.118
-284.545	800.000	-0.031	0.136
-283.530	-102.624	0.079	0.019
-282.516	358.048	-0.088	0.176
-281.501	800.000	-0.086	-0.313
-280.486	89.685	0.038	0.042
-279.472	72.672	-0.188	0.197
-278.457	419.000	0.067	-0.144
-277.443	88.826	-0.134	-0.150
-276.428	-200.000	0.032	0.143
-275.413	-12.724	0.271	0.177
-274.399	-91.676	-0.139	0.040
-273.384	-7.268	-0.175	-0.119
-272.370	-107.241	0.121	0.027
-271.355	800.000	0.062	-0.260
-270.340	-200.000	0.005	0.184
-269.326	-143.161	0.289	-0.028
-268.311	-61.112	0.127	0.054
-267.297	-200.000	0.011	0.248
-266.282	-200.000	0.017	0.289
-265.267	-39.934	0.322	0.169
-264.253	800.000	0.113	-0.315
-263.238	800.000	0.025	0.085
-262.224	-5.845	0.186	0.128
-261.209	-121.504	0.373	0.062
-260.195	-200.000	0.059	-0.297
-259.180	20.570	-0.202	0.164
-258.165	-112.928	0.211	-0.042
-257.151	-170.619	0.126	-0.004
-256.136	265.926	0.072	0.127
-255.122	524.466	0.097	-0.229
-254.107	-200.000	-0.025	-0.191
-253.092	93.544	-0.078	-0.089
-252.078	172.915	-0.146	0.212
-251.063	-56.962	-0.315	-0.140
-250.049	-162.094	0.076	-0.004
-249.034	134.374	0.057	0.074
-248.019	263.902	-0.084	0.147
-247.005	147.899	-0.054	0.074
-245.990	96.498	-0.230	-0.264
-244.976	-200.000	0.037	-0.202
-243.961	-200.000	-0.004	0.307
-242.946	800.000	0.125	0.369
-241.932	800.000	-0.065	-0.187
-240.917	19.922	-0.264	0.214
-239.903	6.216	0.308	0.230
-238.888	-107.655	0.300	-0.066
-237.873	729.361	0.058	0.156
-236.859	127.705	-0.216	-0.275
-235.844	-159.616	-0.189	-0.011
-234.830	-200.000	0.039	-0.279
-233.815	-31.973	-0.389	-0.218
-232.800	51.892	0.152	-0.145
-231.786	800.000	-0.047	0.203
-230.771	296.448	0.139	0.256
-229.757	-38.732	-0.180	0.095
-228.742	-200.000	0.055	0.403
-227.727	-127.768	-0.271	0.039
-226.713	-133.162	-0.275	0.035
-225.698	800.000	0.070	0.224
-224.684	211.323	0.084	0.133
-223.669	151.072	-0.268	0.365
-222.655	-173.281	0.342	-0.010
-221.640	-65.412	-0.182	-0.073
-220.625	174.339	-0.135	-0.196
-219.611	-60.258	-0.578	0.247
-218.596	98.037	-0.021	0.024
-217.582	261.031	-0.152	0.263
-216.567	709.272	0.126	0.333
-215.552	135.855	0.098	0.128
-214.538	317.026	-0.081	0.154
-213.523	721.663	-0.104	0.277
-212.509	-38.741	-0.201	-0.106
-211.494	235.263	-0.113	-0.187
-210.479	135.914	0.142	0.186
-209.465	800.000	0.019	0.058
-208.450	-47.830	-0.069	-0.034
-207.436	-79.201	0.370	0.126
-206.421	800.000	-0.035	-0.130
-205.406	-185.401	-0.251	0.004
-204.392	179.014	0.130	-0.190
-203.377	-22.185	-0.280	0.170
-202.363	15.191	-0.180	0.141
-201.348	-118.317	0.208	0.037
-200.333	71.297	-0.105	-0.109
-199.319	-62.668	-0.248	-0.103
-198.304	56.851	-0.124	-0.121
-197.290	-200.000	0.021	0.480
-196.275	-200.000	0.001	0.183
-195.260	-142.505	0.107	-0.011
-194.246	-104.392	0.019	-0.005
-193.231	800.000	-0.067	-0.186
-192.217	-18.082	0.266	-0.167
-191.202	-200.000	0.060	0.317
-190.187	658.390	0.017	-0.044
-189.173	-34.370	-0.070	-0.039
-188.158	133.346	-0.154	-0.200
-187.144	76.288	-0.134	0.143
-186.129	768.771	-0.036	-0.099
-185.114	263.164	0.177	0.308
-184.100	-67.528	-0.118	0.046
-183.085	75.946	-0.035	0.037
-182.071	181.915	0.132	0.195
-181.056	-154.108	0.480	-0.033
-180.042	800.000	-0.013	-0.037
-179.027	575.626	0.115	-0.280
-178.012	-136.883	-0.169	-0.019
-176.998	10.079	0.151	-0.115
-175.983	25.056	0.097	0.081
-174.969	800.000	-0.057	-0.199
-173.954	-128.566	0.057	0.008
-172.939	-70.864	-0.147	0.056
-171.925	-26.545	0.280	-0.164
-170.910	-129.043	-0.168	0.024
-169.896	490.932	-0.067	0.155
-168.881	-6.566	0.296	0.202
-167.866	32.182	-0.049	-0.042
-166.852	178.578	0.081	0.119
-165.837	-200.000	0.025	-0.275
-164.823	131.695	-0.067	-0.086
-163.808	480.248	-0.049	0.110
-162.793	445.814	-0.104	0.230
-161.779	-200.000	0.005	0.042
-160.764	800.000	0.077	0.261
-159.750	-152.141	-0.103	-0.007
-158.735	800.000	-0.030	-0.100
-157.720	245.309	0.141	0.237
-156.706	-72.367	0.273	0.101
-155.691	800.000	-0.095	0.269
-154.677	296.129	-0.082	-0.150
-153.662	101.912	0.161	-0.188
-152.647	223.907	-0.086	-0.139
-151.633	288.603	-0.149	0.270
-150.618	-70.747	0.172	0.065
-149.604	800.000	-0.031	-0.130
-148.589	-99.620	-0.166	-0.042
-147.574	791.057	0.094	-0.259
-146.560	-68.069	-0.210	0.082
-145.545	663.733	-0.033	0.085
-144.531	-200.000	-0.059	0.426
-143.516	30.602	0.116	-0.099
-142.502	-69.705	-0.174	0.067
-141.487	-88.402	0.014	0.004
-140.472	-37.799	0.139	-0.074
-139.458	514.935	-0.099	-0.230
-138.443	-103.796	0.066	0.015
-137.429	42.297	0.107	-0.097
-136.414	-7.234	-0.144	0.098
-135.399	-122.899	-0.082	0.013
-134.385	27.082	-0.163	-0.136
-133.370	-19.701	0.150	-0.093
-132.356	89.615	0.164	0.182
-131.341	-200.000	-0.069	0.335
-130.326	21.253	0.224	-0.182
-129.312	-20.850	0.083	-0.051
-128.297	126.419	0.058	-0.073
-127.283	-106.532	-0.304	-0.068
-126.268	51.648	-0.098	-0.093
-125.253	800.000	0.081	-0.319
-124.239	696.068	0.147	-0.385
-123.224	313.170	0.167	0.313
-122.210	397.283	0.128	0.267
