DTS Sentinel unit serial number:	SN413079Multiplexer serial number:	ORYXHardware model number:	OX4-SRSoftware version number:	ORYX F/W v4.00 Oryx Data Collector v3.7.2.0data status	okinstallation	princeton_trtdifferential loss correction	single-endedforward channel	channel 3reverse channel	N/Adate	2019/09/12time	03:50:11forward acquisition time	60.00reverse acquisition time	0.00gamma	496.2192k internal	0.2322k external	0.2322temperature offset calibration	1.0065default loss term (dB/km)	0.3790temperature slope calibration	1.0000multiplexer offset coefficient	1.0000multiplexer slope coefficient	1.0000fibre end	0.00T internal ref (°C)	32.16T ext. ref 1 (°C)	2.13T ext. ref 2 (°C)	27.30length (m)	temperature (°C)	Stokes	anti-Stokes-747.200	521.802	-0.232	0.551
-746.185	11.661	0.163	-0.126
-745.171	46.119	-0.172	0.161
-744.156	83.860	-0.148	0.164
-743.142	202.799	-0.094	-0.147
-742.127	220.946	0.171	0.277
-741.112	669.952	0.102	-0.268
-740.098	18.963	0.163	-0.132
-739.083	27.782	-0.180	0.153
-738.069	-118.761	-0.483	0.086
-737.054	-200.000	0.030	0.251
-736.039	18.522	-0.107	0.087
-735.025	217.235	0.202	-0.324
-734.010	28.138	0.186	0.159
-732.996	-38.310	0.140	-0.075
-731.981	-55.511	-0.252	0.114
-730.966	-83.173	0.274	-0.089
-729.952	-92.760	-0.080	-0.023
-728.937	-66.910	-0.052	0.021
-727.923	131.433	-0.079	0.102
-726.908	-47.938	0.041	0.020
-725.894	-200.000	-0.042	0.350
-724.879	-200.000	0.062	0.301
-723.864	113.329	-0.173	0.212
-722.850	290.410	-0.118	0.216
-721.835	-117.453	-0.103	0.019
-720.821	189.745	0.139	-0.211
-719.806	-77.268	0.234	0.082
-718.791	-80.616	-0.214	-0.072
-717.777	800.000	-0.123	-0.379
-716.762	-200.000	0.006	-0.032
-715.748	-31.156	-0.059	-0.034
-714.733	233.706	0.083	-0.138
-713.718	366.887	0.046	0.094
-712.704	569.592	-0.061	-0.149
-711.689	-66.925	-0.124	0.049
-710.675	204.957	0.057	-0.089
-709.660	9.517	0.365	-0.279
-708.645	-192.969	-0.337	-0.003
-707.631	-5.430	0.205	0.142
-706.616	-25.099	-0.224	0.134
-705.602	534.454	-0.114	-0.273
-704.587	-200.000	0.031	-0.396
-703.572	800.000	-0.112	-0.332
-702.558	418.563	-0.046	-0.099
-701.543	235.069	0.123	0.206
-700.529	150.445	0.244	-0.335
-699.514	-17.774	0.315	-0.199
-698.499	265.390	-0.088	-0.154
-697.485	-200.000	0.025	-0.245
-696.470	-73.542	-0.364	0.134
-695.456	-28.093	-0.026	-0.015
-694.441	168.393	0.188	0.271
-693.426	-39.260	-0.369	0.196
-692.412	-78.935	0.222	-0.076
-691.397	800.000	-0.090	0.259
-690.383	361.701	-0.052	-0.105
-689.368	-200.000	-0.003	-0.194
-688.354	-200.000	0.045	0.000
-687.339	-158.889	0.364	-0.021
-686.324	-41.642	0.182	-0.094
-685.310	116.930	-0.236	0.293
-684.295	-200.000	0.015	0.107
-683.281	-67.591	-0.354	-0.140
-682.266	11.599	0.059	-0.046
-681.251	800.000	-0.075	0.216
-680.237	13.474	0.207	0.162
-679.222	800.000	0.045	-0.196
-678.208	-178.131	0.072	-0.002
-677.193	53.700	-0.082	-0.079
-676.178	-200.000	-0.012	-0.335
-675.164	314.705	-0.198	-0.376
-674.149	255.060	-0.083	-0.143
-673.135	-48.078	0.160	-0.078
-672.120	-200.000	0.023	0.104
-671.105	-147.089	0.320	-0.028
-670.091	174.596	-0.155	-0.226
-669.076	222.414	-0.164	-0.265
-668.062	-200.000	-0.013	0.237
-667.047	179.827	0.239	-0.353
-666.032	33.190	-0.202	0.176
-665.018	677.790	-0.139	-0.364
-664.003	-169.710	-0.174	-0.006
-662.989	10.323	-0.149	0.114
-661.974	-200.000	0.014	0.135
-660.959	181.297	0.144	-0.214
-659.945	88.459	-0.154	0.173
-658.930	-144.319	-0.248	0.023
-657.916	-4.458	-0.031	0.022
-656.901	-7.909	-0.473	-0.322
-655.886	183.786	0.088	0.131
-654.872	-11.050	0.260	-0.173
-653.857	-200.000	-0.063	0.366
-652.843	-200.000	0.043	0.206
-651.828	-200.000	0.004	-0.029
-650.814	131.529	0.075	0.097
-649.799	-200.000	0.006	-0.345
-648.784	-200.000	0.061	0.313
-647.770	34.099	-0.106	0.093
-646.755	17.739	0.212	-0.170
-645.741	184.364	-0.016	0.023
-644.726	641.203	0.126	0.323
-643.711	-19.916	-0.145	0.090
-642.697	-188.174	-0.100	-0.001
-641.682	-36.983	0.287	-0.155
-640.668	-142.557	0.165	-0.016
-639.653	-110.518	0.183	-0.038
-638.638	-34.805	-0.218	0.120
-637.624	10.785	-0.251	0.193
-636.609	-200.000	0.024	-0.259
-635.595	-93.598	-0.229	0.064
-634.580	62.993	-0.263	-0.265
-633.565	-64.690	0.041	0.017
-632.551	-80.536	0.266	-0.089
-631.536	372.824	-0.218	-0.446
-630.522	-200.000	-0.001	0.030
-629.507	-200.000	0.012	-0.124
-628.492	-4.240	-0.138	-0.096
-627.478	476.452	-0.078	-0.176
-626.463	-200.000	-0.087	-0.399
-625.449	-57.872	0.260	0.114
-624.434	-200.000	0.004	-0.475
-623.419	-43.931	0.310	-0.157
-622.405	-200.000	-0.037	-0.214
-621.390	-148.630	0.158	0.013
-620.376	-130.761	-0.278	-0.038
-619.361	10.457	0.077	-0.059
-618.346	-3.863	-0.098	-0.069
-617.332	-100.255	-0.103	-0.026
-616.317	215.135	-0.089	-0.142
-615.303	-157.701	-0.453	-0.027
-614.288	-71.790	-0.215	0.080
-613.273	-76.823	-0.185	-0.065
-612.259	-200.000	0.014	0.176
-611.244	-200.000	0.044	0.236
-610.230	-108.134	-0.122	-0.027
-609.215	800.000	-0.026	-0.107
-608.201	-28.104	-0.357	-0.207
-607.186	36.694	-0.130	0.116
-606.171	-169.413	-0.071	-0.003
-605.157	250.428	-0.115	0.197
-604.142	-200.000	0.015	-0.240
-603.128	-91.960	-0.102	0.029
-602.113	-200.000	-0.034	0.338
-601.098	196.968	-0.223	0.342
-600.084	-97.567	0.186	-0.049
-599.069	319.548	-0.106	-0.202
-598.055	-120.923	-0.150	0.025
-597.040	-12.231	0.305	0.200
-596.025	-142.906	0.209	0.020
-595.011	-35.007	-0.222	0.121
-593.996	-46.552	0.489	-0.241
-592.982	323.386	0.015	-0.029
-591.967	-124.017	0.123	0.020
-590.952	-55.188	0.042	0.019
-589.938	-200.000	-0.019	-0.112
-588.923	-200.000	-0.042	-0.233
-587.909	187.730	0.213	0.319
-586.894	360.844	-0.173	-0.348
-585.879	-112.762	-0.337	-0.067
-584.865	-200.000	-0.001	0.104
-583.850	409.792	0.108	0.229
-582.836	539.972	0.122	0.291
-581.821	440.966	0.070	-0.154
-580.806	800.000	0.047	-0.131
-579.792	-23.615	-0.102	-0.062
-578.777	266.348	0.148	0.260
-577.763	-150.935	0.012	0.001
-576.748	193.470	0.138	-0.210
-575.733	-140.995	-0.135	0.014
-574.719	104.512	0.230	0.272
-573.704	-53.843	0.183	-0.084
-572.690	172.750	0.021	-0.030
-571.675	-26.650	-0.255	-0.150
-570.661	-26.304	-0.171	0.101
-569.646	-200.000	0.087	0.410
-568.631	-77.489	-0.160	-0.056
-567.617	-200.000	-0.042	0.277
-566.602	288.944	-0.165	0.300
-565.588	25.997	-0.322	0.269
-564.573	20.891	0.280	-0.227
-563.558	-26.183	0.070	0.041
-562.544	44.218	-0.219	-0.202
-561.529	-74.985	-0.145	0.052
-560.515	795.782	0.124	0.342
-559.500	-200.000	-0.005	-0.032
-558.485	-97.911	0.092	-0.024
-557.471	-190.215	-0.206	0.002
-556.456	-115.703	0.157	-0.029
-555.442	-95.178	-0.073	-0.020
-554.427	-28.638	-0.095	0.055
-553.412	79.092	-0.255	0.274
-552.398	444.443	0.168	0.370
-551.383	-17.459	0.176	0.111
-550.369	-114.277	-0.189	-0.036
-549.354	-144.491	-0.447	-0.042
-548.339	372.388	-0.022	0.046
-547.325	-200.000	-0.033	-0.158
-546.310	800.000	-0.017	-0.057
-545.296	-200.000	0.024	0.266
-544.281	155.332	-0.091	-0.125
-543.266	401.780	0.124	0.261
-542.252	-70.033	-0.127	-0.048
-541.237	800.000	0.085	-0.294
-540.223	149.395	-0.028	0.038
-539.208	-200.000	-0.073	0.340
-538.193	-108.154	0.183	0.040
-537.179	-52.441	-0.047	0.022
-536.164	-58.461	-0.301	0.131
-535.150	-200.000	0.009	-0.050
-534.135	254.429	0.119	-0.205
-533.121	37.934	-0.135	-0.120
-532.106	-136.069	0.089	-0.010
-531.091	-16.436	-0.127	-0.081
-530.077	-70.198	-0.153	0.058
-529.062	-68.698	0.216	-0.084
-528.048	-200.000	-0.009	-0.479
-527.033	-200.000	-0.009	-0.293
-526.018	-137.909	0.133	0.015
-525.004	-200.000	-0.052	-0.265
-523.989	-200.000	0.003	-0.207
-522.975	247.982	0.107	0.181
-521.960	-200.000	0.063	-0.313
-520.945	-32.958	-0.035	-0.020
-519.931	-78.998	0.236	0.080
-518.916	-15.627	-0.068	-0.044
-517.902	115.037	-0.054	-0.066
-516.887	19.895	0.061	-0.050
-515.872	91.163	-0.137	-0.154
-514.858	-56.298	-0.233	-0.104
-513.843	-92.307	0.195	-0.055
-512.829	622.456	0.091	-0.230
-511.814	800.000	-0.038	0.110
-510.799	-76.584	-0.223	-0.078
-509.785	-79.808	-0.244	-0.082
-508.770	0.709	-0.278	-0.199
-507.756	800.000	0.037	-0.147
-506.741	744.412	-0.067	0.179
-505.726	342.766	0.099	0.194
-504.712	61.468	0.126	-0.126
-503.697	-27.483	-0.074	-0.043
-502.683	800.000	0.113	0.379
-501.668	779.608	-0.069	0.189
-500.653	-123.104	-0.452	-0.073
-499.639	-121.696	-0.246	-0.041
-498.624	-200.000	-0.029	0.240
-497.610	431.845	-0.201	0.435
-496.595	-200.000	0.014	-0.175
-495.581	161.340	-0.186	-0.260
-494.566	-34.534	-0.260	0.142
-493.551	2.923	-0.076	0.055
-492.537	79.010	-0.245	0.263
-491.522	-200.000	-0.011	0.097
-490.508	-131.057	0.139	-0.019
-489.493	318.288	-0.041	-0.078
-488.478	-9.087	0.127	0.085
-487.464	-200.000	0.007	-0.176
-486.449	-200.000	0.047	0.260
-485.435	-200.000	0.040	-0.260
-484.420	800.000	0.105	0.295
-483.405	-112.042	-0.084	-0.017
-482.391	-200.000	0.073	0.421
-481.376	100.174	0.034	0.039
-480.362	100.873	0.039	-0.045
-479.347	-106.828	0.213	0.047
-478.332	117.733	-0.216	0.266
-477.318	-200.000	-0.026	-0.262
-476.303	-148.701	0.267	0.022
-475.289	800.000	-0.117	-0.454
-474.274	27.207	-0.177	0.149
-473.259	85.219	0.124	0.137
-472.245	152.364	0.010	-0.013
-471.230	222.006	-0.164	-0.263
-470.216	-200.000	0.052	0.262
-469.201	800.000	0.093	0.291
-468.186	-27.844	-0.044	-0.025
-467.172	51.820	-0.133	0.126
-466.157	1.146	-0.275	-0.197
-465.143	-38.633	-0.050	0.027
-464.128	-200.000	0.051	-0.304
-463.113	65.893	0.116	-0.118
-462.099	106.879	0.186	0.221
-461.084	-84.255	-0.259	0.082
-460.070	707.110	0.084	-0.222
-459.055	-188.973	-0.327	-0.004
-458.040	-159.030	-0.324	-0.018
-457.026	-200.000	0.004	-0.073
-456.011	287.526	0.134	0.242
-454.997	800.000	0.084	0.346
-453.982	-41.821	-0.094	-0.048
-452.968	-158.672	-0.162	0.009
-451.953	800.000	0.108	-0.359
-450.938	-40.256	-0.214	-0.111
-449.924	-200.000	0.021	-0.359
-448.909	-109.054	-0.317	0.067
-447.895	-166.375	0.183	-0.008
-446.880	304.517	-0.050	0.093
-445.865	-98.743	-0.077	-0.020
-444.851	-105.196	-0.138	-0.031
-443.836	-161.436	0.142	0.007
-442.822	-2.131	0.053	0.037
-441.807	249.199	0.056	0.094
-440.792	-9.420	0.424	-0.283
-439.778	250.310	-0.107	-0.181
-438.763	-19.605	0.197	-0.122
-437.749	-95.784	0.342	-0.091
-436.734	26.797	-0.163	0.136
-435.719	-66.521	-0.139	0.055
-434.705	-80.918	-0.025	-0.008
-433.690	64.751	0.265	0.267
-432.676	255.931	-0.071	-0.121
-431.661	595.573	-0.122	-0.302
-430.646	-141.221	0.209	0.021
-429.632	-22.911	-0.154	-0.093
-428.617	-200.000	0.064	0.308
-427.603	355.727	0.139	0.276
-426.588	-124.463	0.256	0.040
-425.573	32.580	0.029	0.025
-424.559	800.000	0.092	0.315
-423.544	26.901	-0.108	0.091
-422.530	-175.312	0.138	0.004
-421.515	-200.000	0.016	0.111
-420.500	-61.871	0.125	0.052
-419.486	61.882	0.128	0.127
-418.471	-200.000	0.320	0.001
-417.457	-156.076	-0.156	0.010
-416.442	-200.000	-0.029	-0.147
-415.428	-49.030	0.204	0.098
-414.413	800.000	-0.067	-0.192
-413.398	-200.000	-0.030	-0.287
-412.384	-9.435	0.283	0.188
-411.369	-135.495	0.208	-0.025
-410.355	234.112	0.004	-0.006
-409.340	800.000	-0.149	-0.484
-408.325	-142.746	0.474	0.046
-407.311	800.000	-0.039	0.115
-406.296	-78.076	-0.297	-0.102
-405.282	15.774	-0.238	-0.186
-404.267	800.000	0.105	-0.298
-403.252	29.135	-0.218	-0.185
-402.238	24.472	-0.248	-0.205
-401.223	-87.215	0.263	-0.080
-400.209	-78.653	-0.229	-0.078
-399.194	232.688	0.078	-0.127
-398.179	800.000	0.089	-0.283
-397.165	-200.000	-0.114	0.552
-396.150	20.122	0.156	0.126
-395.136	64.089	0.119	-0.119
-394.121	800.000	-0.040	-0.153
-393.106	800.000	0.078	-0.272
-392.092	-75.045	-0.304	-0.109
-391.077	114.639	0.189	0.229
-390.063	-159.982	0.078	0.004
-389.048	-200.000	0.000	-0.310
-388.033	584.315	-0.039	-0.096
-387.019	509.726	-0.073	-0.170
-386.004	192.573	0.078	0.117
-384.990	800.000	0.084	-0.346
-383.975	-200.000	0.038	-0.180
-382.960	-200.000	0.019	0.193
-381.946	-50.247	-0.136	-0.064
-380.931	-200.000	-0.042	0.189
-379.917	-113.236	-0.038	-0.007
-378.902	135.032	0.087	-0.113
-377.888	-4.852	0.145	-0.100
-376.873	107.823	0.124	-0.147
-375.858	-148.664	0.223	-0.018
-374.844	23.298	0.194	-0.158
-373.829	130.915	0.149	0.190
-372.815	-60.884	-0.307	-0.129
-371.800	-124.218	0.146	0.023
-370.785	26.580	-0.121	0.101
-369.771	227.933	-0.211	0.342
-368.756	-104.368	-0.103	-0.024
-367.742	-32.121	0.018	0.010
-366.727	-68.717	-0.077	0.030
-365.712	360.218	-0.008	0.017
-364.698	-82.313	0.366	0.119
-363.683	-92.297	-0.020	0.006
-362.669	-24.001	-0.204	-0.121
-361.654	-8.584	0.122	-0.082
-360.639	-83.568	0.349	0.111
-359.625	800.000	-0.031	0.091
-358.610	-128.097	0.140	0.020
-357.596	282.395	0.086	-0.154
-356.581	206.306	-0.049	-0.076
-355.566	-200.000	-0.021	0.192
-354.552	800.000	0.108	0.305
-353.537	286.721	0.185	-0.333
-352.523	-187.095	-0.069	0.001
-351.508	99.242	0.207	0.238
-350.493	-200.000	-0.018	0.190
-349.479	-200.000	-0.010	0.249
-348.464	42.723	-0.266	0.241
-347.450	-39.469	0.083	-0.043
-346.435	175.447	-0.126	-0.182
-345.420	-19.340	-0.166	0.103
-344.406	-13.731	0.193	0.125
-343.391	4.546	0.232	-0.169
-342.377	147.331	-0.057	-0.077
-341.362	66.931	-0.189	-0.192
-340.348	-87.181	-0.458	-0.138
-339.333	96.535	0.181	-0.206
-338.318	-69.387	0.048	-0.018
-337.304	85.464	-0.138	0.150
-336.289	-200.000	-0.010	0.385
-335.275	209.205	0.086	0.134
-334.260	-22.060	0.242	0.146
-333.245	136.879	0.088	0.114
-332.231	73.483	-0.207	-0.215
-331.216	-100.941	-0.413	-0.101
-330.202	300.407	0.046	-0.084
-329.187	-34.010	0.277	-0.151
-328.172	-71.759	-0.191	-0.071
-327.158	-200.000	0.031	0.172
-326.143	-33.608	-0.203	0.111
-325.129	-92.868	-0.058	-0.016
-324.114	-125.795	0.203	0.030
-323.099	11.946	-0.375	0.287
-322.085	-151.319	0.355	0.026
-321.070	-146.298	0.376	0.033
-320.056	21.135	-0.029	0.023
-319.041	-114.699	-0.158	-0.030
-318.026	276.124	-0.115	0.202
-317.012	800.000	0.103	0.429
-315.997	-200.000	0.001	0.200
-314.983	-200.000	-0.022	0.402
-313.968	40.350	-0.122	-0.109
-312.953	48.596	-0.249	0.232
-311.939	155.283	-0.106	-0.146
-310.924	15.963	-0.380	-0.298
-309.910	5.812	0.135	-0.099
-308.895	-85.960	-0.270	-0.083
-307.880	44.603	-0.311	-0.284
-306.866	105.539	0.020	0.023
-305.851	599.958	0.100	0.247
-304.837	-74.830	0.321	0.114
-303.822	-101.218	0.360	-0.087
-302.807	152.601	0.068	-0.093
-301.793	2.963	-0.032	-0.023
-300.778	93.403	-0.058	-0.066
-299.764	71.103	0.367	0.378
-298.749	347.749	-0.138	-0.270
-297.735	-57.490	0.220	0.096
-296.720	-90.422	0.245	-0.071
-295.705	-4.104	0.114	0.079
-294.691	-200.000	-0.029	-0.237
-293.676	-105.304	-0.197	-0.045
-292.662	-16.511	0.190	0.120
-291.647	214.934	-0.325	-0.511
-290.632	-129.750	0.216	-0.029
-289.618	316.598	-0.157	0.294
-288.603	286.420	-0.114	-0.205
-287.589	-109.797	0.252	0.052
-286.574	75.276	0.268	-0.280
-285.559	412.095	0.072	0.152
-284.545	-33.258	-0.253	0.139
-283.530	468.026	-0.047	0.104
-282.516	-17.861	-0.024	0.015
-281.501	439.978	-0.117	-0.254
-280.486	-200.000	-0.002	-0.206
-279.472	-50.345	-0.171	0.080
-278.457	422.135	0.039	0.084
-277.443	543.868	0.087	0.207
-276.428	-51.324	0.260	0.121
-275.413	509.805	-0.124	-0.286
-274.399	309.794	0.077	0.143
-273.384	29.181	0.183	-0.154
-272.370	-103.344	0.191	-0.045
-271.355	40.539	0.065	-0.058
-270.340	800.000	0.104	-0.348
-269.326	-200.000	-0.049	0.356
-268.311	800.000	-0.042	0.175
-267.297	-37.948	0.016	-0.009
-266.282	800.000	0.062	-0.245
-265.267	76.068	-0.123	0.129
-264.253	32.668	0.097	-0.083
-263.238	-50.042	-0.132	-0.062
-262.224	12.543	-0.188	0.144
-261.209	54.650	0.152	-0.145
-260.195	-53.153	-0.274	-0.125
-259.180	73.316	0.375	-0.389
-258.165	-80.974	-0.339	-0.111
-257.151	-69.330	-0.124	0.047
-256.136	-200.000	-0.004	0.186
-255.122	63.794	-0.159	0.158
-254.107	-135.731	0.077	-0.009
-253.092	-186.876	0.251	0.003
-252.078	47.998	-0.061	0.057
-251.063	117.069	0.177	0.215
-250.049	-48.954	0.327	-0.155
-249.034	-153.766	0.239	-0.016
-248.019	298.292	0.133	-0.243
-247.005	73.170	-0.184	0.190
-245.990	354.394	-0.069	-0.135
-244.976	23.908	-0.147	-0.120
-243.961	-107.047	-0.366	-0.080
-242.946	417.369	0.105	0.223
-241.932	-200.000	-0.003	-0.056
-240.917	800.000	0.119	0.330
-239.903	-78.994	0.217	0.073
-238.888	764.973	0.055	0.148
-237.873	-200.000	-0.020	0.517
-236.859	-123.680	0.128	-0.020
-235.844	528.215	-0.092	-0.215
-234.830	-23.095	0.233	0.139
-233.815	-127.220	0.262	0.038
-232.800	66.529	-0.044	-0.045
-231.786	93.403	0.135	-0.151
-230.771	80.733	0.307	-0.328
-229.757	0.655	0.079	0.056
-228.742	-32.151	-0.143	0.079
-227.727	77.030	-0.047	0.050
-226.713	-146.645	-0.236	-0.020
-225.698	-91.117	0.081	-0.023
-224.684	-99.568	-0.150	-0.037
-223.669	675.478	-0.056	-0.144
-222.655	-147.935	-0.234	-0.019
-221.640	280.952	0.189	0.335
-220.625	243.589	0.113	0.188
-219.611	-200.000	-0.041	0.369
-218.596	-40.032	0.096	-0.050
-217.582	-32.731	-0.100	0.055
-216.567	-4.219	0.096	-0.066
-215.552	650.903	0.120	0.304
-214.538	215.728	-0.040	-0.063
-213.523	315.353	0.131	-0.244
-212.509	-107.460	-0.175	0.038
-211.494	-97.015	-0.180	-0.047
-210.479	-99.700	-0.103	0.026
-209.465	-60.366	-0.070	0.029
-208.450	290.232	0.181	0.325
-207.436	122.362	-0.157	-0.194
-206.421	-176.358	0.135	0.003
-205.406	37.316	0.365	0.320
-204.392	800.000	-0.043	-0.154
-203.377	-93.129	0.203	0.056
-202.363	-141.710	0.202	0.020
-201.348	34.847	-0.216	-0.187
-200.333	-69.450	-0.276	0.105
-199.319	800.000	-0.052	0.154
-198.304	-0.518	0.122	-0.085
-197.290	185.048	0.064	-0.094
-196.275	-90.571	-0.249	-0.071
-195.260	-200.000	0.026	0.291
-194.246	800.000	0.083	-0.281
-193.231	-106.001	0.225	-0.050
-192.217	-60.591	0.315	-0.132
-191.202	-57.914	0.268	-0.116
-190.187	34.385	0.153	-0.132
-189.173	314.841	0.042	0.078
-188.158	490.713	0.141	-0.320
-187.144	-200.000	-0.050	0.325
-186.129	2.859	-0.069	-0.049
-185.114	51.890	0.148	0.139
-184.100	-102.240	0.117	0.028
-183.085	249.190	0.156	0.261
-182.071	19.640	-0.128	-0.102
-181.056	33.977	-0.312	0.269
-180.042	70.204	0.187	-0.191
-179.027	29.747	0.195	-0.165
-178.012	-73.145	0.211	0.077
-176.998	-30.193	-0.216	-0.121
-175.983	-151.888	-0.165	0.012
-174.969	-200.000	-0.048	-0.262
-173.954	84.675	0.272	0.294
-172.939	323.381	-0.099	-0.187
-171.925	-200.000	0.003	0.133
-170.910	-155.515	-0.279	-0.018
-169.896	-200.000	-0.047	-0.325
-168.881	-200.000	-0.028	0.141
-167.866	254.775	-0.144	0.244
-166.852	328.554	-0.044	0.084
-165.837	-110.547	0.494	0.101
-164.823	9.120	-0.190	-0.142
-163.808	800.000	0.029	-0.084
-162.793	-60.248	0.080	-0.034
-161.779	-200.000	-0.015	-0.256
-160.764	-200.000	-0.038	0.426
-159.750	-56.486	-0.191	-0.084
-158.735	-116.423	0.253	-0.046
-157.720	67.128	-0.084	0.084
-156.706	-53.233	-0.428	0.194
-155.691	105.646	0.120	0.140
-154.677	86.974	0.257	0.281
-153.662	800.000	-0.075	0.292
-152.647	-200.000	-0.023	-0.110
-151.633	25.599	0.300	-0.246
-150.618	1.005	0.337	-0.239
-149.604	-17.536	-0.172	-0.107
-148.589	501.666	-0.082	-0.187
-147.574	409.441	0.096	-0.201
-146.560	172.869	-0.189	-0.268
-145.545	-97.275	0.271	-0.070
-144.531	218.311	-0.162	0.255
-143.516	-102.598	-0.151	0.036
-142.502	-126.887	-0.269	-0.039
-141.487	511.984	-0.129	0.298
-140.472	-1.338	-0.351	0.245
-139.458	-200.000	0.012	-0.345
-138.443	-0.938	0.395	0.276
-137.429	-200.000	-0.023	-0.298
-136.414	-200.000	0.001	0.256
-135.399	-122.376	0.331	-0.053
-134.385	9.022	0.134	0.100
-133.370	592.095	-0.011	-0.027
-132.356	-200.000	-0.064	-0.300
-131.341	100.022	-0.081	0.093
-130.326	27.364	-0.171	0.142
-129.312	13.056	0.128	0.097
-128.297	-200.000	0.125	0.583
-127.283	131.101	0.160	0.203
-126.268	-84.090	0.194	0.061
-125.253	126.941	-0.179	0.224
-124.239	-118.942	-0.177	0.031
-123.224	8.575	-0.143	-0.106
-122.210	-200.000	-0.012	-0.109
-121.195	561.924	-0.083	-0.198
