DTS Sentinel unit serial number:	SN413079Multiplexer serial number:	ORYXHardware model number:	OX4-SRSoftware version number:	ORYX F/W v4.00 Oryx Data Collector v3.7.2.0data status	okinstallation	princeton_trtdifferential loss correction	single-endedforward channel	channel 3reverse channel	N/Adate	2019/09/11time	03:46:11forward acquisition time	60.00reverse acquisition time	0.00gamma	496.2192k internal	0.2331k external	0.2331temperature offset calibration	0.9907default loss term (dB/km)	0.3790temperature slope calibration	1.0000multiplexer offset coefficient	1.0000multiplexer slope coefficient	1.0000fibre end	0.00T internal ref (°C)	29.56T ext. ref 1 (°C)	-0.29T ext. ref 2 (°C)	23.78length (m)	temperature (°C)	Stokes	anti-Stokes-747.200	602.510	0.061	-0.152
-746.185	514.281	-0.011	-0.025
-745.171	272.355	-0.027	-0.049
-744.156	69.021	0.148	0.153
-743.142	-200.000	0.001	0.230
-742.127	79.923	-0.016	0.017
-741.112	297.381	0.082	-0.152
-740.098	-26.370	-0.168	-0.099
-739.083	300.403	0.144	-0.267
-738.069	-41.882	0.317	-0.164
-737.054	-128.357	-0.282	-0.040
-736.039	-27.487	-0.367	-0.215
-735.025	800.000	0.105	0.310
-734.010	-135.036	0.174	0.021
-732.996	-111.130	-0.037	-0.008
-731.981	-16.775	-0.153	-0.097
-730.966	44.407	0.157	0.145
-729.952	236.209	0.051	0.085
-728.937	-55.390	-0.336	0.152
-727.923	-108.535	-0.180	-0.039
-726.908	63.552	-0.089	-0.090
-725.894	-59.682	0.145	0.062
-724.879	-200.000	0.025	0.253
-723.864	4.228	-0.117	0.086
-722.850	800.000	0.104	-0.350
-721.835	131.282	-0.208	-0.269
-720.821	-15.290	0.108	-0.070
-719.806	29.027	0.247	-0.210
-718.791	-6.951	-0.113	-0.077
-717.777	-17.047	-0.329	-0.209
-716.762	800.000	0.075	0.329
-715.748	-65.212	0.138	0.056
-714.733	68.713	-0.321	0.331
-713.718	-165.149	-0.241	0.011
-712.704	-122.260	-0.288	-0.047
-711.689	-200.000	-0.004	0.150
-710.675	15.016	-0.076	0.060
-709.660	51.074	0.342	0.326
-708.645	156.832	0.156	-0.216
-707.631	800.000	-0.062	0.245
-706.616	31.756	0.237	-0.205
-705.602	-19.781	-0.158	0.098
-704.587	425.703	-0.099	-0.215
-703.572	-36.041	0.228	-0.124
-702.558	-32.180	-0.097	0.055
-701.543	-49.126	-0.137	0.066
-700.529	-128.513	0.323	-0.046
-699.514	-79.423	-0.194	0.066
-698.499	9.436	0.113	0.086
-697.485	-91.046	-0.124	0.036
-696.470	255.695	-0.183	-0.315
-695.456	78.058	0.110	-0.118
-694.441	-56.167	-0.251	-0.112
-693.426	33.347	-0.055	-0.048
-692.412	-200.000	-0.012	0.222
-691.397	-51.844	0.368	-0.172
-690.383	-200.000	-0.008	-0.137
-689.368	-81.793	0.218	-0.072
-688.354	176.735	-0.063	-0.093
-687.339	-200.000	0.010	0.116
-686.324	141.821	-0.021	0.028
-685.310	-172.391	-0.151	0.005
-684.295	313.859	-0.175	-0.331
-683.281	182.243	-0.075	0.111
-682.266	-200.000	-0.061	0.444
-681.251	260.167	0.163	-0.283
-680.237	-121.645	0.198	-0.033
-679.222	57.439	-0.315	0.309
-678.208	-189.438	-0.051	0.001
-677.193	-128.569	0.304	0.043
-676.178	76.325	-0.224	-0.238
-675.164	90.163	-0.222	-0.249
-674.149	361.599	-0.029	-0.059
-673.135	-80.854	-0.033	-0.011
-672.120	133.581	-0.066	0.086
-671.105	26.233	-0.316	-0.265
-670.091	496.253	-0.057	0.131
-669.076	-64.839	0.078	-0.032
-668.062	-200.000	-0.009	-0.074
-667.047	-200.000	-0.017	0.236
-666.032	157.396	-0.094	-0.130
-665.018	156.388	-0.063	0.087
-664.003	383.092	0.038	-0.079
-662.989	-200.000	-0.002	-0.293
-661.974	-120.529	0.147	0.025
-660.959	-42.701	-0.131	-0.067
-659.945	-100.373	-0.476	0.118
-658.930	-118.306	-0.087	0.015
-657.916	-114.132	-0.070	-0.014
-656.901	-95.153	0.267	-0.072
-655.886	800.000	-0.067	-0.214
-654.872	-8.857	0.089	-0.060
-653.857	-102.699	-0.185	-0.044
-652.843	800.000	-0.089	0.312
-651.828	2.626	0.197	0.144
-650.814	-105.049	0.166	0.038
-649.799	98.761	-0.133	-0.154
-648.784	370.749	-0.049	-0.100
-647.770	-200.000	0.047	-0.244
-646.755	-200.000	-0.002	0.086
-645.741	237.796	0.152	-0.253
-644.726	-73.931	-0.037	-0.013
-643.711	445.576	0.044	-0.098
-642.697	-74.562	0.207	0.075
-641.682	-25.465	0.193	0.115
-640.668	-98.924	-0.215	-0.055
-639.653	-40.295	-0.259	0.135
-638.638	800.000	0.092	0.348
-637.624	-177.614	-0.262	-0.006
-636.609	-133.366	-0.088	-0.011
-635.595	-10.463	0.164	-0.109
-634.580	212.626	-0.141	0.223
-633.565	68.691	0.210	0.216
-632.551	-70.223	-0.110	-0.042
-631.536	9.079	-0.236	-0.179
-630.522	800.000	-0.038	-0.150
-629.507	-200.000	-0.026	0.174
-628.492	-102.561	0.236	-0.056
-627.478	-200.000	-0.026	-0.360
-626.463	350.474	-0.117	-0.233
-625.449	-131.876	-0.043	0.006
-624.434	64.116	0.061	-0.061
-623.419	345.847	0.132	-0.260
-622.405	348.286	-0.066	0.131
-621.390	374.521	0.068	0.140
-620.376	-200.000	-0.026	-0.199
-619.361	-131.272	0.305	-0.040
-618.346	800.000	-0.103	0.339
-617.332	-128.655	-0.149	0.021
-616.317	800.000	0.125	-0.351
-615.303	108.541	-0.168	-0.201
-614.288	435.163	-0.060	0.131
-613.273	800.000	0.097	-0.269
-612.259	31.856	-0.214	-0.184
-611.244	800.000	0.092	0.310
-610.230	21.724	-0.096	-0.078
-609.215	156.897	-0.060	0.083
-608.201	24.231	-0.095	-0.079
-607.186	-200.000	0.052	-0.309
-606.171	106.375	-0.099	-0.118
-605.157	-120.797	0.359	0.061
-604.142	-200.000	-0.002	-0.222
-603.128	-79.898	-0.249	0.084
-602.113	800.000	-0.164	0.609
-601.098	-45.127	0.214	0.107
-600.084	266.087	-0.072	-0.125
-599.069	-200.000	-0.035	-0.173
-598.055	540.847	0.110	0.262
-597.040	-200.000	0.002	0.140
-596.025	9.634	-0.230	-0.175
-595.011	54.807	0.375	0.362
-593.996	-26.193	0.152	0.090
-592.982	-96.853	-0.617	-0.162
-591.967	103.892	0.132	-0.155
-590.952	-76.097	-0.298	-0.105
-589.938	490.742	-0.040	0.093
-588.923	-81.384	0.130	0.043
-587.909	-46.275	-0.320	-0.157
-586.894	-138.563	-0.415	-0.046
-585.879	25.944	0.118	-0.098
-584.865	-156.343	0.298	0.019
-583.850	-42.096	-0.381	-0.195
-582.836	62.389	0.210	-0.210
-581.821	800.000	0.049	-0.205
-580.806	-115.717	-0.213	0.040
-579.792	-66.638	0.125	0.049
-578.777	800.000	0.040	0.150
-577.763	-200.000	-0.012	0.192
-576.748	52.829	-0.112	0.108
-575.733	-108.072	0.186	-0.040
-574.719	4.588	-0.150	-0.110
-573.704	-85.129	-0.087	-0.027
-572.690	101.287	0.278	-0.324
-571.675	55.290	-0.118	0.114
-570.661	800.000	0.069	-0.203
-569.646	-200.000	-0.009	-0.250
-568.631	-125.214	-0.337	0.052
-567.617	25.951	0.143	0.119
-566.602	-16.621	-0.272	-0.172
-565.588	34.392	0.109	-0.095
-564.573	-15.025	-0.319	-0.204
-563.558	168.227	0.087	-0.124
-562.544	-59.901	-0.084	-0.036
-561.529	-200.000	0.012	0.189
-560.515	289.122	-0.134	-0.243
-559.500	800.000	0.072	-0.301
-558.485	-74.759	0.188	-0.067
-557.471	-200.000	0.042	0.314
-556.456	534.732	0.111	0.263
-555.442	360.231	0.054	0.109
-554.427	132.495	0.182	-0.234
-553.412	306.135	-0.162	-0.300
-552.398	800.000	0.146	0.474
-551.383	800.000	0.061	-0.249
-550.369	-58.089	0.149	0.065
-549.354	-34.457	-0.157	0.086
-548.339	-130.788	-0.100	-0.013
-547.325	-107.617	-0.173	0.038
-546.310	-200.000	0.041	-0.374
-545.296	709.148	0.012	-0.032
-544.281	153.491	0.218	-0.298
-543.266	35.157	0.096	-0.084
-542.252	119.912	0.115	-0.142
-541.237	-108.714	0.087	0.019
-540.223	-96.675	0.299	-0.079
-539.208	-87.839	-0.024	-0.007
-538.193	281.882	0.152	-0.273
-537.179	-45.988	0.168	0.083
-536.164	-99.160	-0.171	0.043
-535.150	-75.197	-0.051	-0.018
-534.135	-200.000	0.015	-0.335
-533.121	496.538	0.074	0.169
-532.106	800.000	-0.065	0.270
-531.091	29.154	0.070	-0.059
-530.077	-1.653	0.181	0.127
-529.062	-139.546	0.066	0.007
-528.048	-159.299	-0.315	0.018
-527.033	30.030	0.282	-0.240
-526.018	69.269	0.107	-0.110
-525.004	-141.565	-0.400	-0.040
-523.989	-124.906	0.207	-0.032
-522.975	64.278	-0.148	0.149
-521.960	166.676	0.101	0.143
-520.945	-200.000	-0.044	0.291
-519.931	40.282	-0.126	0.113
-518.916	800.000	0.041	-0.121
-517.902	53.110	0.168	-0.160
-516.887	-69.141	-0.163	0.063
-515.872	168.754	0.037	-0.053
-514.858	-200.000	0.029	-0.370
-513.843	15.086	-0.150	-0.117
-512.829	42.726	-0.214	0.195
-511.814	800.000	0.137	-0.380
-510.799	-200.000	0.048	0.331
-509.785	-200.000	-0.016	0.111
-508.770	180.768	0.062	0.091
-507.756	-200.000	0.004	-0.029
-506.741	-44.581	0.102	-0.051
-505.726	608.756	0.060	0.149
-504.712	146.201	-0.107	0.143
-503.697	-85.125	-0.361	0.113
-502.683	173.082	0.047	-0.067
-501.668	-200.000	0.005	0.243
-500.653	-200.000	0.030	0.258
-499.639	680.304	-0.140	-0.363
-498.624	-141.503	0.254	-0.026
-497.610	800.000	-0.079	-0.284
-496.595	-147.163	-0.133	-0.011
-495.581	2.558	-0.164	-0.119
-494.566	-2.294	0.312	-0.218
-493.551	139.597	0.173	0.227
-492.537	569.300	-0.238	0.577
-491.522	220.039	0.133	0.213
-490.508	-38.794	-0.143	-0.075
-489.493	287.991	-0.172	-0.309
-488.478	255.421	-0.096	0.164
-487.464	-98.786	0.064	0.016
-486.449	374.827	0.054	0.110
-485.435	-200.000	0.033	0.340
-484.420	-141.595	0.249	0.025
-483.405	-50.403	0.351	0.165
-482.391	-200.000	-0.012	0.079
-481.376	298.390	-0.035	-0.064
-480.362	-163.645	0.106	0.005
-479.347	-127.110	-0.208	0.030
-478.332	-107.459	0.125	-0.027
-477.318	-63.189	-0.278	0.114
-476.303	-60.153	-0.131	-0.056
-475.289	-200.000	0.016	-0.258
-474.274	-151.819	-0.251	-0.018
-473.259	-105.027	-0.213	-0.049
-472.245	-95.263	-0.327	0.088
-471.230	-73.989	0.050	-0.018
-470.216	269.799	-0.077	-0.135
-469.201	244.138	0.050	-0.084
-468.186	-200.000	-0.045	-0.226
-467.172	164.908	-0.198	0.279
-466.157	-105.362	-0.375	0.085
-465.143	73.823	0.241	-0.252
-464.128	-139.975	-0.267	-0.028
-463.113	-11.817	-0.156	0.102
-462.099	52.801	0.353	0.336
-461.084	-57.379	-0.190	0.083
-460.070	800.000	-0.068	0.212
-459.055	190.280	0.105	-0.156
-458.040	-82.231	0.117	-0.038
-457.026	-1.653	-0.332	-0.233
-456.011	-52.776	0.328	-0.151
-454.997	-41.238	0.058	-0.030
-453.982	-102.371	-0.223	-0.053
-452.968	353.912	0.166	0.327
-451.953	-200.000	-0.005	0.173
-450.938	765.927	0.072	0.194
-449.924	-50.802	-0.094	-0.044
-448.909	113.731	0.031	-0.038
-447.895	-139.729	0.340	0.036
-446.880	64.788	-0.216	-0.217
-445.865	800.000	-0.032	-0.089
-444.851	298.827	0.049	-0.089
-443.836	-17.730	0.210	-0.131
-442.822	346.867	0.072	0.141
-441.807	-40.924	0.250	0.129
-440.792	800.000	0.029	0.119
-439.778	88.207	-0.281	0.310
-438.763	-16.613	0.143	-0.090
-437.749	342.088	-0.089	-0.174
-436.734	-200.000	0.024	-0.172
-435.719	-62.589	0.220	0.091
-434.705	178.462	0.028	0.041
-433.690	-200.000	-0.009	0.207
-432.676	-23.498	0.159	0.095
-431.661	8.432	0.149	-0.112
-430.646	-10.281	0.102	0.067
-429.632	180.541	0.081	0.119
-428.617	405.369	-0.061	-0.127
-427.603	-150.200	0.435	-0.033
-426.588	800.000	-0.115	-0.364
-425.573	-111.097	0.344	0.070
-424.559	-200.000	-0.026	0.122
-423.544	279.266	-0.064	-0.113
-422.530	201.373	-0.132	0.201
-421.515	800.000	0.066	-0.195
-420.500	62.104	0.130	0.129
-419.486	-200.000	0.022	0.179
-418.471	-38.928	0.219	0.115
-417.457	-200.000	-0.021	-0.233
-416.442	-108.374	-0.122	-0.026
-415.428	357.029	-0.023	-0.046
-414.413	-152.208	0.254	0.018
-413.398	163.355	0.131	-0.183
-412.384	-200.000	-0.001	-0.079
-411.369	430.598	0.051	-0.110
-410.355	283.212	-0.130	0.232
-409.340	-6.778	0.153	0.103
-408.325	-103.424	-0.226	0.053
-407.311	-27.649	-0.094	0.054
-406.296	216.416	0.138	0.218
-405.282	-61.966	0.393	-0.163
-404.267	-101.589	-0.171	-0.041
-403.252	209.877	-0.142	0.221
-402.238	164.009	-0.206	0.288
-401.223	19.296	0.210	0.167
-400.209	-16.001	0.192	-0.121
-399.194	145.174	-0.188	-0.250
-398.179	800.000	-0.136	0.406
-397.165	-83.565	-0.268	0.085
-396.150	124.369	0.074	0.092
-395.136	-200.000	-0.042	-0.278
-394.121	-161.628	-0.257	-0.013
-393.106	-74.259	-0.168	0.060
-392.092	-64.863	-0.190	0.076
-391.077	170.047	0.112	-0.160
-390.063	-200.000	-0.020	-0.157
-389.048	287.054	0.168	0.302
-388.033	449.920	0.124	-0.271
-387.019	800.000	0.048	0.173
-386.004	-94.482	-0.103	0.028
-384.990	-104.647	-0.249	-0.057
-383.975	-151.690	0.245	0.018
-382.960	556.588	0.085	-0.202
-381.946	-200.000	-0.040	0.242
-380.931	-17.643	0.081	0.051
-379.917	1.300	-0.162	0.115
-378.902	800.000	-0.020	-0.069
-377.888	-34.496	-0.074	0.040
-376.873	-114.814	0.174	-0.033
-375.858	23.591	0.136	-0.111
-374.844	47.459	0.104	0.096
-373.829	800.000	0.110	0.399
-372.815	-200.000	-0.066	-0.000
-371.800	1.144	0.182	0.129
-370.785	-14.865	-0.335	0.213
-369.771	800.000	0.060	-0.233
-368.756	-143.627	0.294	-0.028
-367.742	-6.828	0.222	0.150
-366.727	0.459	0.309	-0.219
-365.712	800.000	-0.084	0.338
-364.698	-143.488	0.280	0.026
-363.683	-200.000	0.005	-0.241
-362.669	147.829	-0.264	-0.352
-361.654	55.570	-0.221	0.212
-360.639	36.391	-0.348	-0.304
-359.625	-200.000	-0.001	-0.085
-358.610	-63.186	-0.134	0.055
-357.596	6.134	0.272	-0.200
-356.581	-31.993	0.228	-0.126
-355.566	98.870	0.096	0.110
-354.552	-78.358	0.023	0.008
-353.537	800.000	0.026	-0.112
-352.523	-109.125	0.219	0.046
-351.508	109.507	0.041	0.049
-350.493	-60.308	-0.154	0.065
-349.479	129.311	-0.247	0.312
-348.464	1.872	-0.069	0.049
-347.450	125.295	-0.070	-0.087
-346.435	-123.663	0.438	-0.069
-345.420	-13.233	-0.172	0.111
-344.406	232.994	-0.168	-0.273
-343.391	-200.000	-0.088	-0.405
-342.377	800.000	0.099	-0.420
-341.362	-62.841	-0.116	-0.047
-340.348	308.263	0.084	0.154
-339.333	-200.000	0.010	0.378
-338.318	166.286	0.041	0.058
-337.304	-200.000	0.032	-0.174
-336.289	-200.000	-0.023	0.251
-335.275	-124.462	0.168	-0.026
-334.260	-27.741	-0.176	0.101
-333.245	137.597	-0.019	-0.024
-332.231	-200.000	-0.013	0.301
-331.216	-199.310	-0.227	-0.001
-330.202	-121.954	0.364	0.059
-329.187	-57.952	0.338	0.146
-328.172	147.614	-0.258	-0.344
-327.158	-200.000	-0.013	0.176
-326.143	51.747	0.217	0.204
-325.129	-29.344	0.160	0.091
-324.114	-121.957	0.060	-0.010
-323.099	-35.733	-0.428	-0.229
-322.085	-111.950	-0.220	-0.044
-321.070	-94.404	-0.172	-0.047
-320.056	800.000	0.040	0.139
-319.041	-200.000	-0.015	0.125
-318.026	182.854	-0.200	-0.292
-317.012	78.407	0.195	0.206
-315.997	800.000	0.128	-0.487
-314.983	75.750	0.178	-0.187
-313.968	-90.149	0.304	-0.088
-312.953	800.000	-0.108	0.334
-311.939	294.419	-0.202	-0.365
-310.924	148.113	0.027	-0.036
-309.910	-21.516	0.170	-0.102
-308.895	422.189	-0.058	0.123
-307.880	-95.333	0.112	0.030
-306.866	67.806	0.132	0.133
-305.851	118.503	-0.039	-0.048
-304.837	112.213	-0.103	0.124
-303.822	-200.000	-0.021	0.101
-302.807	-102.626	-0.041	-0.010
-301.793	112.558	0.181	0.217
-300.778	-114.777	0.213	0.040
-299.764	-148.956	-0.235	-0.019
-298.749	41.153	0.097	-0.087
-297.735	-161.681	0.224	0.011
-296.720	89.606	-0.341	0.376
-295.705	-153.450	-0.208	0.014
-294.691	-159.215	-0.387	-0.022
-293.676	89.656	0.143	0.158
-292.662	119.217	0.200	0.245
-291.647	12.840	0.120	0.092
-290.632	-54.545	0.113	0.051
-289.618	-150.182	0.111	0.009
-288.603	-200.000	0.046	0.246
-287.589	345.292	0.021	0.040
-286.574	-76.196	-0.246	-0.086
-285.559	-90.860	0.159	0.045
-284.545	-10.154	0.416	-0.273
-283.530	-150.615	-0.142	-0.011
-282.516	-200.000	0.024	-0.236
-281.501	87.961	-0.078	-0.086
-280.486	-200.000	0.011	0.176
-279.472	33.830	0.077	0.066
-278.457	-43.410	0.106	0.053
-277.443	-128.011	-0.184	-0.026
-276.428	-157.565	-0.045	0.003
-275.413	800.000	-0.047	-0.131
-274.399	-200.000	-0.034	0.188
-273.384	-97.809	0.199	0.051
-272.370	104.060	-0.045	-0.052
-271.355	242.977	-0.176	0.292
-270.340	-81.714	0.036	0.012
-269.326	-122.250	-0.033	0.005
-268.311	-111.856	0.237	0.047
-267.297	-123.842	-0.186	-0.029
-266.282	-200.000	-0.008	0.110
-265.267	199.869	-0.169	-0.256
-264.253	404.432	0.019	0.040
-263.238	591.367	0.135	-0.329
-262.224	-111.495	-0.113	-0.023
-261.209	-199.038	0.041	0.000
-260.195	-185.989	-0.488	-0.007
-259.180	124.791	0.110	-0.137
-258.165	191.336	-0.072	0.106
-257.151	11.462	-0.150	0.113
-256.136	5.387	0.125	0.091
-255.122	-3.868	-0.228	0.156
-254.107	-200.000	0.016	-0.175
-253.092	-200.000	-0.008	-0.181
-252.078	397.079	0.184	-0.379
-251.063	514.140	0.101	-0.232
-250.049	-200.000	0.016	0.357
-249.034	-105.825	-0.138	0.031
-248.019	-128.018	-0.194	0.027
-247.005	182.892	-0.175	0.255
-245.990	450.521	0.097	-0.211
-244.976	-200.000	0.011	-0.356
-243.961	-60.443	-0.423	-0.178
-242.946	-200.000	0.025	0.264
-241.932	-84.647	0.231	-0.072
-240.917	-200.000	0.031	-0.142
-239.903	-61.352	0.220	-0.091
-238.888	398.689	0.034	0.070
-237.873	-142.870	0.272	-0.026
-236.859	-18.178	0.184	0.114
-235.844	-194.077	-0.146	0.001
-234.830	-200.000	-0.063	-0.294
-233.815	114.788	0.073	-0.088
-232.800	800.000	0.076	-0.269
-231.786	302.168	-0.159	-0.289
-230.771	382.677	0.057	0.116
-229.757	7.798	0.109	-0.081
-228.742	800.000	-0.051	-0.209
-227.727	800.000	-0.041	0.167
-226.713	77.237	0.199	-0.209
-225.698	-200.000	0.028	0.161
-224.684	-91.848	0.076	-0.021
-223.669	135.468	0.192	-0.247
-222.655	120.490	-0.115	-0.141
-221.640	800.000	-0.051	0.197
-220.625	18.541	-0.181	0.143
-219.611	23.974	0.154	-0.125
-218.596	-70.706	0.197	-0.073
-217.582	514.159	-0.049	-0.113
-216.567	178.096	-0.036	-0.052
-215.552	17.531	0.259	0.203
-214.538	-200.000	0.002	-0.048
-213.523	-109.606	0.247	0.051
-212.509	156.201	0.131	0.178
-211.494	800.000	0.110	0.461
-210.479	129.378	-0.281	0.354
-209.465	-18.582	-0.128	0.078
-208.450	374.236	0.068	-0.135
-207.436	-200.000	0.066	0.552
-206.421	504.304	-0.104	0.237
-205.406	800.000	-0.046	-0.171
-204.392	-200.000	-0.086	0.373
-203.377	-55.714	-0.300	0.132
-202.363	800.000	-0.048	-0.153
-201.348	-126.138	0.370	0.055
-200.333	731.173	-0.138	-0.363
-199.319	-4.740	0.484	-0.329
-198.304	-200.000	0.008	-0.137
-197.290	162.763	-0.139	0.192
-196.275	95.913	-0.130	-0.146
-195.260	219.448	-0.203	-0.320
-194.246	-12.357	0.230	0.148
-193.231	342.316	-0.058	0.112
-192.217	84.036	0.204	0.219
-191.202	32.188	-0.199	-0.169
-190.187	-18.104	-0.093	-0.057
-189.173	800.000	0.095	-0.338
-188.158	-200.000	0.018	-0.152
-187.144	701.438	0.157	0.408
-186.129	-35.502	0.014	0.008
-185.114	-1.263	-0.230	-0.160
-184.100	-88.460	-0.267	-0.078
-183.085	245.253	-0.169	-0.279
-182.071	676.460	-0.122	-0.313
-181.056	-200.000	-0.017	0.198
-180.042	58.092	-0.235	0.227
-179.027	800.000	-0.035	-0.144
-178.012	-107.187	0.191	0.041
-176.998	-150.515	0.258	0.019
-175.983	34.386	0.115	0.098
-174.969	53.828	-0.082	0.078
-173.954	180.453	-0.162	0.234
-172.939	33.817	0.047	0.040
-171.925	578.650	-0.053	0.128
-170.910	800.000	-0.038	0.113
-169.896	-171.666	-0.322	0.010
-168.881	-35.847	0.143	0.076
-167.866	50.556	0.139	0.130
-166.852	-63.723	-0.175	0.071
-165.837	342.775	-0.103	0.198
-164.823	8.194	-0.198	-0.146
-163.808	-75.900	0.263	0.092
-162.793	-185.295	0.566	-0.009
-161.779	388.577	0.069	0.140
-160.764	-65.136	-0.106	0.042
-159.750	800.000	0.132	0.464
-158.735	-91.096	-0.405	-0.114
-157.720	-200.000	0.023	0.303
-156.706	278.668	-0.023	-0.040
-155.691	-82.296	-0.136	0.044
-154.677	27.708	-0.175	-0.145
-153.662	75.646	-0.212	0.221
-152.647	-153.084	0.090	0.006
-151.633	55.488	-0.038	-0.036
-150.618	-200.000	0.054	-0.388
-149.604	50.296	0.244	-0.227
-148.589	-136.741	0.060	0.007
-147.574	18.735	-0.144	0.113
-146.560	-17.886	0.131	-0.081
-145.545	-155.465	-0.192	0.012
-144.531	-138.852	-0.103	-0.011
-143.516	-96.936	-0.248	0.064
-142.502	239.146	-0.184	-0.301
-141.487	800.000	-0.083	0.249
-140.472	152.997	-0.139	0.187
-139.458	-24.490	-0.082	0.048
-138.443	-91.197	0.087	0.024
-137.429	-48.927	-0.081	-0.038
-136.414	-149.994	0.064	-0.005
-135.399	104.347	0.244	0.283
-134.385	-37.014	-0.356	0.188
-133.370	-160.608	-0.185	0.010
-132.356	800.000	0.023	-0.062
-131.341	132.724	-0.124	0.158
-130.326	-200.000	0.035	0.153
-129.312	-19.127	0.141	0.086
-128.297	-148.374	-0.217	0.017
-127.283	124.442	-0.117	-0.144
-126.268	-200.000	-0.026	-0.211
-125.253	-90.207	0.289	-0.083
-124.239	800.000	0.154	0.451
-123.224	-126.974	-0.067	-0.010
-122.210	-200.000	0.015	-0.214
-121.195	-66.984	0.306	0.119
