DTS Sentinel unit serial number:	SN413079Multiplexer serial number:	ORYXHardware model number:	OX4-SRSoftware version number:	ORYX F/W v4.00 Oryx Data Collector v3.7.2.0data status	okinstallation	princeton_trtdifferential loss correction	single-endedforward channel	channel 3reverse channel	N/Adate	2019/09/12time	03:54:11forward acquisition time	60.00reverse acquisition time	0.00gamma	496.2192k internal	0.2321k external	0.2321temperature offset calibration	1.0070default loss term (dB/km)	0.3790temperature slope calibration	1.0000multiplexer offset coefficient	1.0000multiplexer slope coefficient	1.0000fibre end	0.00T internal ref (°C)	32.12T ext. ref 1 (°C)	2.15T ext. ref 2 (°C)	26.08length (m)	temperature (°C)	Stokes	anti-Stokes-747.200	270.257	0.187	0.333
-746.185	-200.000	-0.058	0.360
-745.171	28.785	-0.162	0.138
-744.156	-161.384	-0.430	-0.022
-743.142	100.941	0.301	-0.354
-742.127	497.664	-0.068	0.159
-741.112	-200.000	0.028	0.323
-740.098	-200.000	0.004	0.123
-739.083	32.738	0.312	-0.273
-738.069	-200.000	-0.009	0.219
-737.054	-200.000	-0.075	-0.342
-736.039	800.000	0.031	0.104
-735.025	135.692	0.241	0.317
-734.010	-200.000	-0.041	0.239
-732.996	227.765	-0.183	-0.300
-731.981	-160.517	-0.415	-0.022
-730.966	-19.075	0.214	-0.134
-729.952	-128.983	-0.106	0.015
-728.937	6.442	-0.178	-0.134
-727.923	169.655	0.193	-0.279
-726.908	-138.735	0.327	0.036
-725.894	-200.000	-0.001	-0.176
-724.879	-26.770	-0.182	-0.107
-723.864	319.303	-0.102	0.196
-722.850	8.185	0.097	-0.073
-721.835	158.417	0.062	-0.087
-720.821	-123.107	-0.230	-0.037
-719.806	653.966	-0.047	0.121
-718.791	-25.302	-0.260	-0.155
-717.777	324.144	0.156	-0.301
-716.762	364.266	0.103	0.210
-715.748	77.558	0.142	0.152
-714.733	58.174	0.229	0.226
-713.718	200.563	-0.106	0.165
-712.704	-58.088	0.050	-0.022
-711.689	-144.209	0.235	-0.022
-710.675	-110.212	0.311	-0.066
-709.660	-14.999	0.162	0.105
-708.645	-64.174	0.212	-0.087
-707.631	-200.000	0.009	-0.096
-706.616	-200.000	-0.011	0.133
-705.602	-178.432	0.527	-0.012
-704.587	-59.766	-0.185	0.080
-703.572	-39.105	0.117	-0.062
-702.558	-57.226	0.289	-0.128
-701.543	3.609	0.501	-0.368
-700.529	-200.000	-0.006	0.170
-699.514	96.499	0.248	0.286
-698.499	-200.000	0.014	0.109
-697.485	270.710	0.072	0.128
-696.470	-121.207	0.235	0.040
-695.456	-94.604	0.190	-0.052
-694.441	413.266	0.141	0.302
-693.426	-76.882	-0.100	0.035
-692.412	-170.933	0.256	0.009
-691.397	-200.000	-0.067	-0.339
-690.383	125.037	0.246	-0.313
-689.368	162.447	0.005	-0.008
-688.354	26.895	0.224	-0.189
-687.339	17.119	-0.104	0.083
-686.324	522.049	-0.045	-0.107
-685.310	498.843	0.074	0.173
-684.295	37.258	-0.045	-0.040
-683.281	-200.000	-0.013	-0.288
-682.266	800.000	0.080	-0.299
-681.251	-119.419	-0.203	-0.036
-680.237	-22.555	-0.181	-0.110
-679.222	-155.810	0.301	0.019
-678.208	-200.000	0.003	-0.053
-677.193	-200.000	0.040	0.378
-676.178	32.958	0.291	-0.255
-675.164	-200.000	-0.016	-0.233
-674.149	-102.906	0.268	0.064
-673.135	-200.000	0.000	0.206
-672.120	-9.908	0.184	-0.123
-671.105	-44.413	0.089	-0.045
-670.091	-95.526	-0.228	-0.062
-669.076	86.698	0.224	0.249
-668.062	800.000	0.058	0.173
-667.047	-160.960	0.029	-0.002
-666.032	800.000	0.120	-0.356
-665.018	41.590	-0.195	0.178
-664.003	800.000	0.089	-0.338
-662.989	5.429	-0.267	-0.198
-661.974	12.729	-0.167	-0.130
-660.959	41.654	-0.162	-0.148
-659.945	155.070	-0.084	-0.117
-658.930	-7.068	0.103	-0.070
-657.916	695.761	0.091	-0.240
-656.901	-200.000	0.011	0.225
-655.886	-92.755	-0.243	0.069
-654.872	-128.440	0.330	-0.047
-653.857	93.383	-0.133	-0.152
-652.843	25.827	-0.190	-0.160
-651.828	-69.408	-0.103	0.040
-650.814	246.008	0.127	-0.215
-649.799	16.584	-0.104	0.083
-648.784	-54.017	0.511	0.234
-647.770	700.961	-0.068	-0.181
-646.755	800.000	0.100	-0.429
-645.741	-97.558	-0.125	-0.033
-644.726	27.953	-0.125	-0.106
-643.711	551.227	-0.029	-0.071
-642.697	286.449	-0.212	-0.385
-641.682	-139.577	-0.118	-0.013
-640.668	-165.576	-0.116	-0.005
-639.653	103.189	0.188	-0.222
-638.638	-70.604	-0.151	-0.057
-637.624	-75.704	-0.316	-0.113
-636.609	-200.000	0.086	0.411
-635.595	800.000	-0.026	0.076
-634.580	-200.000	0.011	-0.110
-633.565	-172.618	0.381	0.012
-632.551	9.318	-0.112	0.086
-631.536	131.359	0.106	-0.137
-630.522	149.447	0.074	-0.101
-629.507	800.000	-0.156	-0.458
-628.492	238.637	0.100	-0.167
-627.478	-200.000	-0.021	0.106
-626.463	75.358	0.143	-0.151
-625.449	-155.257	-0.278	-0.018
-624.434	-200.000	-0.050	-0.260
-623.419	-52.263	0.458	-0.213
-622.405	257.325	-0.035	0.060
-621.390	-71.601	0.443	-0.166
-620.376	-70.950	0.121	0.046
-619.361	800.000	-0.026	-0.073
-618.346	329.483	0.144	0.279
-617.332	-43.696	-0.121	-0.061
-616.317	625.917	-0.068	-0.172
-615.303	-151.087	-0.219	0.017
-614.288	-135.980	0.098	-0.012
-613.273	-74.365	0.230	-0.083
-612.259	-200.000	0.021	-0.345
-611.244	110.383	0.105	-0.127
-610.230	68.601	0.096	0.099
-609.215	37.170	0.162	0.144
-608.201	-20.264	-0.175	-0.108
-607.186	800.000	0.050	0.155
-606.171	15.475	0.188	0.149
-605.157	44.770	0.225	-0.208
-604.142	81.950	-0.095	0.103
-603.128	69.439	0.169	0.175
-602.113	682.664	-0.040	-0.105
-601.098	800.000	-0.037	0.118
-600.084	-115.215	-0.348	0.066
-599.069	247.316	0.069	-0.117
-598.055	-200.000	-0.040	-0.217
-597.040	-83.175	0.102	-0.033
-596.025	50.632	0.281	-0.267
-595.011	182.837	-0.202	0.299
-593.996	293.635	-0.130	0.239
-592.982	-84.952	0.111	0.035
-591.967	800.000	-0.055	-0.231
-590.952	-90.338	-0.493	0.144
-589.938	-200.000	0.022	0.138
-588.923	30.628	-0.188	0.161
-587.909	-54.252	0.096	-0.044
-586.894	-129.550	-0.372	-0.052
-585.879	391.217	0.100	-0.209
-584.865	-9.053	0.063	-0.042
-583.850	-98.309	0.244	-0.063
-582.836	44.782	-0.119	0.110
-581.821	62.133	0.031	0.031
-580.806	52.188	-0.158	-0.151
-579.792	3.463	0.190	-0.139
-578.777	-200.000	-0.004	0.084
-577.763	-107.922	-0.146	-0.032
-576.748	384.280	-0.139	0.288
-575.733	739.982	0.093	-0.250
-574.719	166.312	-0.079	0.112
-573.704	-109.700	0.197	0.042
-572.690	571.570	0.133	-0.325
-571.675	770.515	0.039	0.107
-570.661	800.000	0.073	0.311
-569.646	-158.896	-0.124	0.007
-568.631	-84.347	-0.270	0.086
-567.617	147.328	-0.183	0.247
-566.602	-61.196	0.040	-0.017
-565.588	-157.307	-0.187	0.011
-564.573	-66.339	0.346	-0.138
-563.558	8.636	0.131	-0.099
-562.544	800.000	0.066	-0.184
-561.529	-200.000	-0.052	0.237
-560.515	119.101	-0.150	-0.186
-559.500	10.848	0.181	-0.138
-558.485	800.000	-0.159	-0.535
-557.471	-175.876	-0.107	-0.003
-556.456	111.521	-0.080	0.097
-555.442	280.595	0.025	-0.046
-554.427	228.808	0.106	-0.174
-553.412	-36.705	-0.257	-0.138
-552.398	800.000	0.037	-0.146
-551.383	-200.000	-0.024	-0.280
-550.369	800.000	-0.047	-0.141
-549.354	-68.168	-0.010	0.004
-548.339	-93.517	0.060	-0.017
-547.325	-8.618	-0.100	0.068
-546.310	-200.000	0.009	-0.240
-545.296	190.312	0.089	0.133
-544.281	-17.221	-0.155	0.098
-543.266	16.305	0.166	0.131
-542.252	-116.153	-0.063	0.012
-541.237	2.064	-0.081	0.058
-540.223	-147.399	0.268	0.023
-539.208	-133.907	-0.193	0.024
-538.193	223.374	-0.145	-0.235
-537.179	-138.864	-0.488	0.053
-536.164	800.000	-0.065	-0.183
-535.150	10.900	0.220	-0.168
-534.135	306.121	0.150	0.279
-533.121	67.098	0.160	0.164
-532.106	738.167	-0.088	-0.235
-531.091	-52.918	-0.160	0.074
-530.077	-118.120	-0.179	0.032
-529.062	800.000	0.046	-0.157
-528.048	-200.000	0.000	0.058
-527.033	42.280	0.071	0.064
-526.018	-147.261	-0.184	-0.016
-525.004	200.732	0.064	0.099
-523.989	774.278	0.028	-0.078
-522.975	341.501	-0.107	-0.209
-521.960	-29.284	-0.126	0.072
-520.945	66.165	0.087	-0.089
-519.931	-88.007	0.220	-0.066
-518.916	-200.000	0.054	0.301
-517.902	-130.691	-0.403	0.054
-516.887	-200.000	-0.056	-0.547
-515.872	800.000	-0.089	0.250
-514.858	92.781	-0.025	0.028
-513.843	800.000	0.098	0.308
-512.829	800.000	-0.060	0.199
-511.814	-140.883	-0.130	0.013
-510.799	601.626	0.111	0.275
-509.785	566.490	-0.164	0.398
-508.770	58.422	-0.147	-0.144
-507.756	-83.825	0.222	0.071
-506.741	449.599	-0.132	0.291
-505.726	-200.000	0.006	-0.368
-504.712	-200.000	-0.042	-0.240
-503.697	201.178	-0.113	0.174
-502.683	326.998	-0.212	-0.408
-501.668	-115.247	-0.162	-0.031
-500.653	-30.732	0.168	-0.095
-499.639	-200.000	0.004	0.280
-498.624	-161.802	-0.136	0.007
-497.610	1.585	0.044	0.032
-496.595	129.195	0.141	-0.180
-495.581	-200.000	-0.012	-0.248
-494.566	-76.806	-0.264	-0.092
-493.551	491.876	0.034	-0.079
-492.537	320.058	-0.142	0.269
-491.522	-200.000	-0.020	0.163
-490.508	-149.876	0.433	-0.034
-489.493	145.199	-0.039	-0.052
-488.478	235.686	0.196	-0.324
-487.464	-89.719	-0.310	-0.091
-486.449	-142.273	-0.452	0.045
-485.435	47.455	-0.225	-0.210
-484.420	-109.199	-0.337	-0.072
-483.405	2.509	-0.203	-0.147
-482.391	214.960	0.250	0.396
-481.376	-93.769	0.248	-0.068
-480.362	197.143	-0.233	-0.356
-479.347	-110.442	0.262	-0.054
-478.332	-200.000	-0.026	0.201
-477.318	17.433	-0.200	-0.159
-476.303	-64.761	-0.264	-0.107
-475.289	272.852	-0.085	0.151
-474.274	-200.000	0.067	0.492
-473.259	-200.000	0.048	0.263
-472.245	-112.599	-0.207	0.041
-471.230	-169.195	-0.078	0.003
-470.216	97.332	0.138	-0.159
-469.201	744.173	0.106	0.285
-468.186	106.712	0.070	-0.083
-467.172	-200.000	0.049	-0.250
-466.157	800.000	-0.155	-0.559
-465.143	-200.000	-0.066	0.415
-464.128	-77.595	0.045	-0.015
-463.113	458.081	-0.063	0.140
-462.099	-71.067	-0.270	-0.102
-461.084	-200.000	0.038	-0.282
-460.070	13.678	0.170	0.132
-459.055	-200.000	0.002	-0.026
-458.040	-200.000	-0.015	0.169
-457.026	-24.756	0.309	-0.183
-456.011	-148.276	-0.044	-0.004
-454.997	175.628	-0.067	-0.097
-453.982	-200.000	-0.001	0.072
-452.968	800.000	0.060	-0.236
-451.953	-200.000	-0.059	-0.429
-450.938	-125.575	-0.370	-0.056
-449.924	63.535	-0.107	0.108
-448.909	-200.000	-0.028	0.211
-447.895	-113.236	0.236	0.046
-446.880	-55.093	-0.051	-0.023
-445.865	592.945	-0.105	0.259
-444.851	800.000	0.061	-0.222
-443.836	15.300	0.034	0.027
-442.822	800.000	0.058	-0.223
-441.807	-2.315	0.220	-0.154
-440.792	-33.595	-0.100	0.055
-439.778	-200.000	0.004	0.246
-438.763	121.860	-0.045	0.057
-437.749	-59.180	-0.354	0.152
-436.734	-131.987	0.239	-0.031
-435.719	243.224	-0.075	-0.125
-434.705	-82.134	0.044	0.014
-433.690	-50.593	0.181	-0.085
-432.676	44.142	0.161	0.148
-431.661	32.226	-0.223	0.192
-430.646	-30.131	-0.193	0.110
-429.632	302.091	0.198	0.365
-428.617	-163.500	0.258	0.012
-427.603	-27.811	-0.185	0.107
-426.588	591.768	0.084	-0.206
-425.573	-114.732	0.304	-0.058
-424.559	-141.897	-0.460	-0.046
-423.544	-7.168	-0.262	-0.177
-422.530	-61.254	-0.107	0.045
-421.515	-67.066	0.057	0.022
-420.500	756.843	-0.078	0.212
-419.486	13.830	0.260	-0.202
-418.471	656.509	0.070	0.179
-417.457	800.000	0.090	0.253
-416.442	-200.000	-0.038	0.393
-415.428	179.345	-0.191	-0.278
-414.413	-108.535	0.301	-0.064
-413.398	-12.389	0.086	-0.056
-412.384	231.694	0.183	0.300
-411.369	126.007	0.111	-0.141
-410.355	-64.761	0.162	0.065
-409.340	-100.566	0.298	-0.073
-408.325	531.162	-0.133	0.315
-407.311	-88.201	0.100	-0.030
-406.296	-145.480	-0.246	0.022
-405.282	-92.292	-0.226	0.064
-404.267	493.319	-0.153	-0.350
-403.252	800.000	-0.033	-0.127
-402.238	73.900	0.150	0.157
-401.223	69.710	-0.089	-0.092
-400.209	332.018	0.070	0.134
-399.194	389.118	-0.246	0.508
-398.179	565.630	0.079	0.192
-397.165	-155.406	-0.070	0.005
-396.150	760.103	0.070	-0.189
-395.136	-124.375	-0.123	-0.019
-394.121	-190.930	-0.105	0.001
-393.106	-200.000	0.000	0.028
-392.092	-200.000	-0.005	-0.045
-391.077	186.184	0.139	-0.206
-390.063	-132.143	0.119	-0.015
-389.048	-138.573	0.042	0.005
-388.033	-200.000	0.001	-0.012
-387.019	41.275	-0.161	0.145
-386.004	435.920	0.127	0.275
-384.990	-144.614	0.072	-0.007
-383.975	-200.000	-0.002	-0.181
-382.960	-11.767	0.046	0.030
-381.946	-200.000	0.004	0.081
-380.931	-9.940	0.482	0.320
-379.917	153.625	-0.125	0.171
-378.902	67.174	0.047	-0.048
-377.888	1.973	0.194	0.139
-376.873	-124.735	0.070	-0.011
-375.858	241.062	-0.194	0.323
-374.844	46.202	-0.187	-0.173
-373.829	79.448	0.197	-0.210
-372.815	800.000	0.118	-0.326
-371.800	252.250	0.053	0.089
-370.785	800.000	-0.057	-0.237
-369.771	-200.000	0.020	-0.284
-368.756	-74.751	0.185	0.066
-367.742	-71.973	0.139	-0.051
-366.727	-200.000	-0.001	-0.445
-365.712	242.852	0.141	0.235
-364.698	245.646	-0.228	0.383
-363.683	-200.000	-0.005	-0.142
-362.669	-200.000	-0.004	-0.095
-361.654	-77.986	0.186	-0.064
-360.639	39.399	0.203	-0.181
-359.625	-200.000	-0.029	-0.186
-358.610	350.619	0.111	-0.218
-357.596	152.155	0.151	-0.206
-356.581	734.360	-0.104	0.278
-355.566	29.398	-0.104	-0.088
-354.552	510.908	-0.219	-0.506
-353.537	-31.968	0.294	0.164
-352.523	-21.593	-0.135	0.082
-351.508	-40.381	0.134	-0.070
-350.493	246.127	0.154	0.259
-349.479	-200.000	-0.060	0.276
-348.464	-25.253	0.211	0.125
-347.450	730.698	0.151	-0.402
-346.435	-33.722	0.204	0.112
-345.420	559.912	-0.122	-0.293
-344.406	-200.000	0.048	0.401
-343.391	-38.906	-0.039	0.020
-342.377	-200.000	-0.018	-0.290
-341.362	-200.000	0.039	0.306
-340.348	694.992	0.078	-0.205
-339.333	-53.020	0.030	0.014
-338.318	-106.649	0.050	0.011
-337.304	-135.609	0.244	0.029
-336.289	138.145	0.153	0.200
-335.275	250.098	-0.173	0.292
-334.260	-72.233	0.367	0.135
-333.245	365.673	0.092	0.185
-332.231	182.406	0.093	-0.136
-331.216	800.000	-0.069	0.271
-330.202	13.668	0.396	-0.306
-329.187	44.721	0.146	-0.134
-328.172	-23.769	-0.109	0.065
-327.158	-66.618	0.077	0.030
-326.143	-44.381	0.302	-0.150
-325.129	-164.143	0.351	-0.016
-324.114	-200.000	-0.064	0.431
-323.099	800.000	0.034	-0.104
-322.085	-143.347	0.196	0.019
-321.070	154.375	-0.176	0.239
-320.056	3.703	0.184	0.133
-319.041	-200.000	0.037	0.191
-318.026	-200.000	-0.028	0.398
-317.012	33.900	0.175	-0.152
-315.997	-10.404	-0.217	-0.143
-314.983	-25.080	-0.244	-0.144
-313.968	-112.668	0.275	0.054
-312.953	-164.427	-0.018	-0.001
-311.939	800.000	-0.095	0.319
-310.924	-200.000	-0.076	0.553
-309.910	6.321	-0.337	-0.249
-308.895	39.393	-0.265	-0.236
-307.880	-109.639	-0.146	-0.031
-306.866	-39.787	-0.228	-0.119
-305.851	65.626	0.145	-0.146
-304.837	141.983	-0.231	0.304
-303.822	800.000	-0.044	-0.123
-302.807	-94.777	0.205	-0.055
-301.793	786.802	-0.081	0.221
-300.778	-92.991	0.123	-0.034
-299.764	317.466	0.038	-0.072
-298.749	196.946	0.080	-0.121
-297.735	157.270	0.182	0.250
-296.720	800.000	-0.150	-0.496
-295.705	-108.886	-0.255	0.054
-294.691	222.116	0.279	-0.446
-293.676	800.000	-0.044	-0.146
-292.662	800.000	-0.068	0.198
-291.647	116.309	-0.209	0.254
-290.632	193.715	-0.075	-0.113
-289.618	-70.065	-0.187	0.071
-288.603	-114.981	0.308	0.058
-287.589	-200.000	0.026	0.224
-286.574	-200.000	-0.022	-0.353
-285.559	800.000	0.020	-0.074
-284.545	-113.722	0.229	0.044
-283.530	-81.759	0.208	-0.068
-282.516	-97.495	-0.179	-0.046
-281.501	-86.048	-0.414	-0.127
-280.486	5.298	0.209	0.153
-279.472	129.889	-0.068	-0.086
-278.457	-121.462	-0.127	-0.021
-277.443	-189.849	0.242	-0.003
-276.428	253.622	0.328	-0.555
-275.413	-37.904	0.058	-0.030
-274.399	-91.467	0.130	-0.037
-273.384	-200.000	0.003	0.226
-272.370	-200.000	0.033	-0.206
-271.355	72.279	-0.078	-0.081
-270.340	383.171	-0.138	0.282
-269.326	30.503	-0.228	0.193
-268.311	-200.000	-0.031	0.156
-267.297	101.455	0.301	0.348
-266.282	-111.652	-0.193	-0.039
-265.267	144.399	-0.027	0.035
-264.253	-139.844	-0.329	0.035
-263.238	-184.366	0.104	-0.002
-262.224	51.572	-0.333	-0.314
-261.209	55.841	-0.229	-0.220
-260.195	-119.709	0.206	-0.035
-259.180	-64.036	0.301	0.122
-258.165	-113.673	0.250	-0.048
-257.151	254.016	-0.114	0.194
-256.136	-20.194	0.139	-0.085
-255.122	-200.000	0.001	0.063
-254.107	-100.914	0.200	0.049
-253.092	39.559	0.042	0.037
-252.078	48.840	0.244	0.227
-251.063	40.060	-0.021	-0.019
-250.049	-200.000	0.065	0.421
-249.034	145.703	-0.148	0.197
-248.019	129.896	-0.224	0.284
-247.005	-70.906	0.109	-0.041
-245.990	-200.000	0.032	0.267
-244.976	-48.825	-0.372	0.177
-243.961	-200.000	0.028	-0.209
-242.946	-200.000	0.019	0.177
-241.932	-90.007	-0.204	0.059
-240.917	150.248	0.088	0.119
-239.903	-89.203	0.168	0.049
-238.888	713.361	0.034	0.090
-237.873	76.697	0.057	-0.060
-236.859	6.478	-0.322	-0.237
-235.844	-200.000	0.016	0.260
-234.830	-47.772	-0.382	-0.183
-233.815	-143.574	-0.180	0.017
-232.800	92.133	-0.102	-0.114
-231.786	-4.166	-0.219	0.150
-230.771	-200.000	0.015	0.091
-229.757	125.781	0.164	-0.205
-228.742	-39.457	-0.230	0.120
-227.727	0.585	-0.042	-0.030
-226.713	-200.000	0.022	0.182
-225.698	-148.650	-0.167	-0.013
-224.684	-94.346	-0.014	-0.004
-223.669	-200.000	0.057	0.404
-222.655	-136.138	0.174	-0.020
-221.640	123.470	-0.062	-0.077
-220.625	169.779	0.159	0.225
-219.611	137.030	-0.228	-0.295
-218.596	33.528	-0.278	0.239
-217.582	-70.213	-0.219	0.083
-216.567	-200.000	-0.056	0.338
-215.552	-167.779	0.177	-0.007
-214.538	-132.076	0.045	0.006
-213.523	106.831	-0.228	-0.268
-212.509	-200.000	0.072	-0.593
-211.494	-29.144	-0.120	-0.068
-210.479	38.462	0.138	0.122
-209.465	159.092	-0.103	-0.141
-208.450	-200.000	0.025	-0.237
-207.436	633.225	-0.084	0.210
-206.421	-200.000	0.050	-0.255
-205.406	-30.703	0.155	-0.087
-204.392	292.690	-0.075	0.136
-203.377	27.026	-0.078	0.065
-202.363	-200.000	-0.019	0.194
-201.348	104.142	0.088	-0.102
-200.333	-178.125	0.211	-0.005
-199.319	65.968	-0.066	-0.066
-198.304	-65.936	-0.312	0.123
-197.290	67.037	-0.288	-0.290
-196.275	7.954	-0.271	-0.201
-195.260	-200.000	0.022	-0.319
-194.246	800.000	-0.054	0.198
-193.231	129.157	0.119	-0.150
-192.217	-106.577	0.208	0.046
-191.202	-200.000	-0.021	-0.184
-190.187	-181.168	-0.342	-0.007
-189.173	-200.000	0.015	0.110
-188.158	-10.091	0.065	0.043
-187.144	-68.098	-0.287	0.111
-186.129	-160.918	0.260	-0.014
-185.114	100.556	0.151	0.174
-184.100	-12.024	-0.111	0.072
-183.085	-200.000	-0.004	0.041
-182.071	639.444	0.088	0.220
-181.056	-128.766	0.322	0.045
-180.042	51.290	-0.085	-0.080
-179.027	196.941	0.111	0.168
-178.012	795.103	0.065	-0.177
-176.998	-23.809	0.077	0.046
-175.983	-155.019	0.417	-0.027
-174.969	193.340	0.260	0.389
-173.954	298.017	0.040	0.073
-172.939	-200.000	-0.025	-0.298
-171.925	156.779	-0.161	-0.219
-170.910	-117.395	0.331	0.059
-169.896	800.000	0.047	0.171
-168.881	134.869	0.157	0.202
-167.866	-80.014	-0.309	0.103
-166.852	-120.953	-0.109	-0.018
-165.837	142.419	-0.039	0.051
-164.823	24.746	0.105	0.086
-163.808	-159.697	0.406	-0.022
-162.793	-200.000	0.006	0.046
-161.779	83.398	0.158	0.170
-160.764	-54.180	0.181	-0.081
-159.750	-32.487	0.365	-0.201
-158.735	-110.963	-0.422	-0.086
-157.720	-118.643	0.121	-0.021
-156.706	-157.564	-0.217	-0.013
-155.691	115.027	-0.082	-0.099
-154.677	74.470	0.343	0.357
-153.662	109.306	-0.082	0.097
-152.647	655.065	-0.162	0.412
-151.633	3.376	-0.051	-0.037
-150.618	-36.540	0.092	0.049
-149.604	18.324	-0.232	-0.183
-148.589	-31.243	0.138	0.077
-147.574	139.172	-0.176	0.228
-146.560	174.230	0.169	0.242
-145.545	525.547	-0.080	-0.185
-144.531	-164.912	0.422	-0.019
-143.516	-64.339	0.119	-0.048
-142.502	-200.000	-0.037	0.369
-141.487	303.890	0.154	0.282
-140.472	-27.845	-0.348	-0.199
-139.458	-20.803	-0.292	0.177
-138.443	364.142	-0.098	0.195
-137.429	-200.000	0.014	-0.140
-136.414	-190.430	-0.130	0.001
-135.399	-53.069	0.341	0.155
-134.385	-67.604	0.116	-0.045
-133.370	45.550	0.229	-0.209
-132.356	-119.962	0.265	-0.045
-131.341	-12.496	0.348	0.224
-130.326	282.962	0.049	0.087
-129.312	-172.449	0.335	0.010
-128.297	670.963	0.141	-0.359
-127.283	-38.965	-0.195	-0.101
-126.268	544.580	0.140	0.330
-125.253	-200.000	-0.019	-0.212
-124.239	-200.000	0.095	-0.424
-123.224	-41.692	-0.358	0.181
-122.210	-200.000	0.043	0.297
-121.195	800.000	0.017	0.060
