DTS Sentinel unit serial number:	SN413079Multiplexer serial number:	ORYXHardware model number:	OX4-SRSoftware version number:	ORYX F/W v4.00 Oryx Data Collector v3.7.2.0data status	okinstallation	princeton_trtdifferential loss correction	single-endedforward channel	channel 3reverse channel	N/Adate	2019/09/12time	06:50:11forward acquisition time	60.00reverse acquisition time	0.00gamma	496.2192k internal	0.2320k external	0.2320temperature offset calibration	1.0036default loss term (dB/km)	0.3790temperature slope calibration	1.0000multiplexer offset coefficient	1.0000multiplexer slope coefficient	1.0000fibre end	0.00T internal ref (°C)	32.14T ext. ref 1 (°C)	1.58T ext. ref 2 (°C)	27.30length (m)	temperature (°C)	Stokes	anti-Stokes-747.200	-126.780	-0.084	0.013
-746.185	-145.672	0.274	0.025
-745.171	18.782	0.155	0.126
-744.156	-137.641	-0.395	-0.045
-743.142	-129.849	-0.160	0.022
-742.127	-140.086	-0.239	-0.025
-741.112	800.000	-0.064	-0.215
-740.098	259.181	-0.219	0.383
-739.083	91.831	-0.182	0.208
-738.069	6.948	0.024	0.018
-737.054	800.000	-0.058	0.243
-736.039	-51.070	-0.137	-0.065
-735.025	-26.436	0.091	0.054
-734.010	518.146	0.088	-0.208
-732.996	28.435	-0.025	-0.022
-731.981	138.924	0.096	-0.127
-730.966	323.081	-0.089	0.171
-729.952	98.514	0.195	-0.228
-728.937	10.590	-0.434	0.334
-727.923	275.912	0.013	-0.023
-726.908	-122.745	-0.097	-0.016
-725.894	126.657	-0.283	0.362
-724.879	111.101	-0.101	-0.122
-723.864	-114.849	-0.051	-0.010
-722.850	221.520	0.121	0.197
-721.835	188.453	0.093	0.141
-720.821	123.275	-0.162	0.205
-719.806	-61.643	-0.028	-0.012
-718.791	-200.000	0.025	0.169
-717.777	253.464	0.045	0.078
-716.762	-73.551	-0.271	-0.100
-715.748	-180.347	0.037	-0.001
-714.733	-200.000	-0.033	-0.237
-713.718	51.558	-0.207	-0.199
-712.704	-200.000	0.029	0.166
-711.689	-1.240	0.166	-0.118
-710.675	225.920	0.160	-0.262
-709.660	800.000	0.025	-0.097
-708.645	-200.000	-0.006	-0.279
-707.631	-200.000	-0.031	-0.265
-706.616	-54.218	0.147	-0.068
-705.602	800.000	-0.079	-0.240
-704.587	-139.086	-0.230	0.025
-703.572	-153.862	0.433	-0.030
-702.558	744.527	0.104	0.283
-701.543	-66.973	-0.138	0.055
-700.529	-200.000	-0.035	0.273
-699.514	49.993	-0.085	0.081
-698.499	244.138	-0.055	0.094
-697.485	564.695	-0.065	0.158
-696.470	6.733	-0.212	0.159
-695.456	-37.815	0.094	-0.050
-694.441	-156.680	0.060	-0.004
-693.426	-200.000	-0.003	-0.154
-692.412	210.369	0.110	-0.175
-691.397	-196.884	-0.478	-0.003
-690.383	-74.275	0.343	0.125
-689.368	22.626	0.103	-0.085
-688.354	134.079	0.046	0.061
-687.339	310.942	0.219	-0.413
-686.324	-200.000	-0.036	0.229
-685.310	506.834	-0.050	0.116
-684.295	-89.288	0.124	0.037
-683.281	-123.177	0.065	-0.010
-682.266	154.841	-0.115	0.159
-681.251	12.446	-0.073	0.057
-680.237	-180.791	-0.123	0.003
-679.222	800.000	0.047	-0.134
-678.208	62.602	-0.131	-0.132
-677.193	-88.257	0.278	0.084
-676.178	800.000	-0.064	-0.200
-675.164	-125.285	-0.231	-0.036
-674.149	-200.000	-0.063	-0.296
-673.135	69.080	0.072	0.075
-672.120	-18.702	-0.224	0.141
-671.105	-51.639	0.066	-0.031
-670.091	335.576	-0.102	-0.199
-669.076	-75.551	0.159	-0.057
-668.062	49.650	-0.235	-0.224
-667.047	82.653	0.098	0.107
-666.032	-52.299	-0.243	-0.113
-665.018	800.000	-0.017	0.069
-664.003	-200.000	-0.045	-0.364
-662.989	-12.294	0.117	-0.077
-661.974	-200.000	-0.022	0.161
-660.959	433.525	-0.072	0.158
-659.945	-140.673	0.094	-0.010
-658.930	702.843	0.053	-0.140
-657.916	10.219	-0.255	-0.196
-656.901	-120.561	-0.142	0.024
-655.886	-177.914	0.492	0.012
-654.872	167.027	0.135	0.193
-653.857	-200.000	-0.043	0.297
-652.843	144.236	-0.130	0.175
-651.828	185.707	-0.067	-0.101
-650.814	106.893	0.264	-0.316
-649.799	68.140	0.175	-0.180
-648.784	-85.909	-0.110	0.034
-647.770	579.266	-0.039	0.095
-646.755	-66.644	0.248	0.099
-645.741	-147.176	-0.515	0.044
-644.726	-169.166	0.120	-0.004
-643.711	-30.686	-0.263	-0.150
-642.697	-91.377	0.140	0.040
-641.682	-79.167	-0.227	0.078
-640.668	-114.938	-0.330	0.063
-639.653	43.529	-0.221	0.204
-638.638	-200.000	0.009	-0.176
-637.624	-144.950	-0.286	-0.026
-636.609	-53.074	0.069	0.032
-635.595	188.679	0.086	0.129
-634.580	-200.000	0.083	0.369
-633.565	-6.787	-0.072	-0.049
-632.551	-0.749	-0.166	0.119
-631.536	6.114	0.149	-0.111
-630.522	236.992	-0.185	0.309
-629.507	-200.000	-0.003	0.382
-628.492	-91.421	0.191	0.055
-627.478	225.114	-0.038	-0.061
-626.463	148.610	0.217	0.295
-625.449	-6.589	-0.043	-0.029
-624.434	800.000	0.058	-0.200
-623.419	800.000	-0.114	-0.353
-622.405	-159.424	-0.083	-0.005
-621.390	-50.244	0.334	0.159
-620.376	769.320	-0.049	0.135
-619.361	8.760	-0.046	-0.035
-618.346	-200.000	0.005	-0.157
-617.332	-147.802	0.113	0.009
-616.317	-7.796	-0.300	-0.204
-615.303	800.000	-0.095	0.349
-614.288	279.577	-0.082	0.147
-613.273	-159.466	0.042	-0.002
-612.259	-135.980	-0.536	0.063
-611.244	800.000	0.073	-0.312
-610.230	275.864	0.031	-0.056
-609.215	800.000	-0.151	-0.509
-608.201	-77.197	-0.219	0.077
-607.186	58.521	0.106	0.104
-606.171	-179.026	0.395	-0.009
-605.157	110.230	-0.047	0.057
-604.142	327.138	0.077	-0.149
-603.128	156.804	-0.095	0.131
-602.113	-61.164	-0.143	-0.061
-601.098	13.355	0.198	-0.154
-600.084	66.041	-0.049	0.050
-599.069	-4.784	0.079	-0.055
-598.055	-71.863	-0.351	-0.132
-597.040	3.208	-0.111	-0.081
-596.025	181.836	-0.111	-0.164
-595.011	-30.101	-0.216	0.123
-593.996	138.028	0.090	0.119
-592.982	-115.502	-0.032	-0.006
-591.967	112.631	-0.070	-0.085
-590.952	225.578	-0.255	0.416
-589.938	800.000	-0.040	-0.139
-588.923	800.000	0.116	0.377
-587.909	50.712	0.158	-0.150
-586.894	-200.000	-0.041	-0.231
-585.879	800.000	0.067	0.220
-584.865	-200.000	-0.020	-0.283
-583.850	-200.000	0.014	0.267
-582.836	-6.895	0.164	0.112
-581.821	148.283	-0.122	-0.165
-580.806	-200.000	-0.055	-0.262
-579.792	-200.000	-0.015	-0.168
-578.777	108.296	-0.094	-0.113
-577.763	-83.960	-0.108	0.034
-576.748	-200.000	0.023	-0.150
-575.733	25.191	0.177	-0.148
-574.719	116.142	0.127	-0.156
-573.704	-85.212	0.371	-0.116
-572.690	647.274	-0.065	0.166
-571.675	308.560	-0.020	0.037
-570.661	-75.233	0.134	0.048
-569.646	212.106	0.219	0.347
-568.631	136.064	0.233	0.304
-567.617	439.786	0.055	-0.122
-566.602	-109.408	-0.184	-0.039
-565.588	243.668	0.110	0.185
-564.573	-200.000	0.016	-0.202
-563.558	334.824	0.111	0.216
-562.544	-138.734	0.396	0.043
-561.529	-125.948	-0.141	-0.021
-560.515	-72.255	0.190	-0.071
-559.500	66.315	0.153	-0.156
-558.485	-10.430	-0.330	0.220
-557.471	595.715	0.098	0.243
-556.456	289.499	-0.282	-0.514
-555.442	357.215	-0.047	0.094
-554.427	542.136	0.077	0.183
-553.412	-200.000	0.028	-0.330
-552.398	-122.453	-0.428	0.070
-551.383	503.072	0.139	0.322
-550.369	-70.265	-0.256	-0.098
-549.354	-9.143	-0.313	0.210
-548.339	-152.912	0.310	-0.022
-547.325	498.998	-0.098	-0.226
-546.310	200.488	0.102	-0.157
-545.296	800.000	-0.066	0.270
-544.281	144.541	0.260	0.348
-543.266	517.019	-0.119	0.279
-542.252	248.323	-0.228	-0.387
-541.237	-1.883	-0.229	-0.162
-540.223	500.771	-0.144	0.334
-539.208	-69.412	-0.203	-0.078
-538.193	-119.487	-0.190	-0.033
-537.179	83.292	-0.237	-0.258
-536.164	-200.000	0.010	-0.160
-535.150	23.638	0.210	0.174
-534.135	-153.611	-0.178	0.012
-533.121	-42.537	0.275	-0.140
-532.106	119.243	0.221	-0.274
-531.091	-74.878	-0.288	-0.104
-530.077	508.959	-0.100	0.234
-529.062	70.933	0.250	-0.260
-528.048	-200.000	-0.021	0.421
-527.033	190.406	-0.206	-0.310
-526.018	-40.120	-0.106	0.055
-525.004	140.151	0.105	0.139
-523.989	-4.797	-0.087	-0.060
-522.975	362.165	0.050	0.101
-521.960	-17.805	0.123	0.077
-520.945	-80.586	-0.004	0.001
-519.931	-200.000	0.062	0.278
-518.916	-35.986	0.149	0.081
-517.902	-16.798	-0.170	-0.108
-516.887	71.507	0.098	0.102
-515.872	7.190	0.224	0.168
-514.858	800.000	-0.052	-0.225
-513.843	-89.918	0.388	-0.114
-512.829	52.680	-0.135	-0.130
-511.814	469.433	0.119	-0.269
-510.799	9.060	0.062	0.047
-509.785	-99.158	-0.249	-0.063
-508.770	-114.453	0.327	0.063
-507.756	549.146	0.063	-0.152
-506.741	102.358	0.100	-0.117
-505.726	112.075	-0.344	-0.416
-504.712	-106.027	-0.452	-0.102
-503.697	-74.249	-0.361	-0.131
-502.683	143.789	0.129	0.173
-501.668	-131.952	-0.097	-0.013
-500.653	-7.671	0.385	0.261
-499.639	63.325	-0.212	0.212
-498.624	-200.000	-0.004	0.129
-497.610	-174.181	0.300	0.009
-496.595	223.926	-0.074	-0.120
-495.581	212.510	-0.076	0.120
-494.566	66.760	-0.133	-0.136
-493.551	-74.856	-0.204	0.073
-492.537	-106.462	0.209	0.047
-491.522	800.000	-0.077	-0.313
-490.508	-69.768	-0.397	-0.152
-489.493	169.319	0.042	-0.060
-488.478	-178.212	-0.310	-0.007
-487.464	-200.000	0.042	0.282
-486.449	-23.159	0.315	0.190
-485.435	-167.302	-0.096	-0.004
-484.420	119.304	-0.076	-0.094
-483.405	-155.853	0.088	0.006
-482.391	-134.100	-0.216	-0.027
-481.376	244.085	0.085	0.144
-480.362	28.281	0.093	-0.078
-479.347	-44.265	0.219	-0.110
-478.332	-99.915	-0.242	-0.060
-477.318	3.793	0.087	-0.064
-476.303	84.059	0.079	-0.086
-475.289	-33.987	-0.137	-0.075
-474.274	-200.000	0.009	-0.056
-473.259	-60.458	-0.300	0.127
-472.245	373.931	0.154	-0.313
-471.230	-43.517	-0.119	-0.060
-470.216	-200.000	0.028	-0.158
-469.201	-34.994	0.057	-0.031
-468.186	517.258	-0.075	0.176
-467.172	-48.567	-0.379	-0.182
-466.157	-36.562	0.163	0.087
-465.143	-200.000	-0.018	-0.147
-464.128	-94.730	0.191	-0.052
-463.113	271.261	-0.127	-0.223
-462.099	5.160	0.047	-0.034
-461.084	-76.707	0.246	-0.086
-460.070	676.870	-0.018	0.047
-459.055	521.717	0.124	0.291
-458.040	-123.729	-0.093	0.015
-457.026	491.901	0.064	0.147
-456.011	-112.599	-0.057	0.011
-454.997	373.301	0.155	-0.316
-453.982	-172.098	-0.215	0.007
-452.968	-74.101	-0.162	-0.059
-451.953	621.097	0.125	-0.313
-450.938	-200.000	-0.021	0.433
-449.924	-200.000	0.019	0.154
-448.909	-125.656	0.158	-0.024
-447.895	-200.000	-0.002	-0.025
-446.880	-19.182	-0.156	-0.097
-445.865	29.561	0.068	-0.058
-444.851	102.977	-0.043	-0.050
-443.836	800.000	0.018	-0.075
-442.822	515.079	-0.075	-0.175
-441.807	413.345	-0.051	-0.109
-440.792	-36.730	0.305	-0.164
-439.778	-200.000	0.022	-0.178
-438.763	-118.907	-0.362	-0.064
-437.749	-95.133	0.068	0.018
-436.734	489.847	-0.125	0.286
-435.719	-77.770	-0.672	0.232
-434.705	-200.000	0.001	-0.124
-433.690	-200.000	-0.017	0.102
-432.676	-10.572	-0.196	0.130
-431.661	224.589	0.132	-0.213
-430.646	298.477	0.072	-0.133
-429.632	-72.870	0.268	0.098
-428.617	762.608	-0.078	-0.211
-427.603	81.109	0.043	0.047
-426.588	680.521	0.109	-0.284
-425.573	32.730	0.131	0.113
-424.559	-57.993	0.174	0.076
-423.544	324.257	0.034	-0.065
-422.530	-200.000	0.012	-0.214
-421.515	53.084	-0.169	0.162
-420.500	-61.853	0.325	0.136
-419.486	76.514	0.122	0.129
-418.471	-200.000	0.034	0.200
-417.457	42.638	0.157	-0.143
-416.442	800.000	-0.007	-0.027
-415.428	371.946	0.085	-0.173
-414.413	1.192	-0.103	-0.074
-413.398	724.153	-0.100	-0.265
-412.384	800.000	0.045	-0.164
-411.369	800.000	0.043	-0.148
-410.355	44.044	0.298	-0.273
-409.340	-200.000	-0.022	0.182
-408.325	67.033	0.140	-0.142
-407.311	33.712	0.125	-0.109
-406.296	-200.000	0.006	0.168
-405.282	39.924	-0.130	-0.116
-404.267	438.155	0.017	0.036
-403.252	-41.585	0.296	0.152
-402.238	-70.227	0.196	0.074
-401.223	-0.384	0.332	-0.235
-400.209	124.341	0.135	0.170
-399.194	-200.000	-0.008	-0.052
-398.179	-127.340	-0.367	-0.053
-397.165	-180.930	0.352	0.007
-396.150	-3.620	0.149	0.103
-395.136	-99.929	0.433	0.108
-394.121	800.000	0.056	0.159
-393.106	-80.332	0.107	-0.036
-392.092	-62.803	0.193	0.080
-391.077	-200.000	0.020	0.094
-390.063	-137.180	-0.175	0.020
-389.048	800.000	0.060	0.173
-388.033	-123.359	0.111	-0.018
-387.019	746.603	-0.029	-0.077
-386.004	-80.451	-0.446	-0.148
-384.990	45.067	-0.210	0.193
-383.975	-200.000	0.026	0.219
-382.960	-127.660	0.124	-0.018
-381.946	-72.568	0.131	-0.048
-380.931	278.881	-0.017	-0.030
-379.917	27.641	0.285	-0.239
-378.902	573.392	0.170	-0.413
-377.888	800.000	0.042	0.127
-376.873	108.584	-0.207	0.246
-375.858	-200.000	-0.068	0.431
-374.844	-126.745	-0.438	0.065
-373.829	699.265	0.129	-0.338
-372.815	28.955	-0.072	0.061
-371.800	270.217	-0.163	-0.285
-370.785	-200.000	-0.050	-0.290
-369.771	-200.000	0.037	-0.191
-368.756	-200.000	-0.009	-0.161
-367.742	-39.900	0.286	0.149
-366.727	264.562	0.112	0.194
-365.712	-7.039	0.186	0.126
-364.698	-200.000	0.041	-0.313
-363.683	-176.383	0.373	-0.010
-362.669	-200.000	-0.011	0.103
-361.654	-126.173	-0.273	-0.041
-360.639	45.129	-0.104	0.095
-359.625	-68.079	-0.048	0.019
-358.610	94.588	0.170	0.193
-357.596	58.143	0.247	0.241
-356.581	60.610	-0.087	-0.086
-355.566	-200.000	-0.033	0.296
-354.552	371.677	0.031	-0.063
-353.537	73.213	0.100	0.104
-352.523	21.829	-0.203	0.165
-351.508	82.036	0.131	-0.142
-350.493	733.926	0.066	-0.176
-349.479	-10.881	0.057	0.038
-348.464	-129.936	0.281	-0.038
-347.450	-59.847	0.351	0.150
-346.435	-169.579	0.376	0.014
-345.420	13.291	-0.212	0.164
-344.406	-142.808	-0.106	-0.010
-343.391	-179.871	0.028	-0.001
-342.377	-142.899	-0.207	0.020
-341.362	-200.000	-0.031	0.134
-340.348	-200.000	-0.007	-0.128
-339.333	-200.000	-0.004	-0.070
-338.318	113.983	-0.281	0.340
-337.304	-81.862	-0.045	-0.015
-336.289	-200.000	-0.004	0.508
-335.275	683.965	0.050	-0.129
-334.260	-200.000	0.036	-0.386
-333.245	800.000	-0.036	0.114
-332.231	6.513	-0.292	0.216
-331.216	800.000	0.066	-0.258
-330.202	213.312	-0.083	0.130
-329.187	-134.133	-0.323	0.040
-328.172	-144.712	-0.112	-0.010
-327.158	-200.000	0.037	0.266
-326.143	123.511	-0.133	0.166
-325.129	-200.000	-0.119	0.540
-324.114	622.761	-0.045	0.112
-323.099	-200.000	0.003	-0.056
-322.085	64.451	0.054	0.054
-321.070	800.000	-0.092	0.353
-320.056	70.439	0.310	0.319
-319.041	135.559	0.294	-0.381
-318.026	-84.520	-0.074	0.023
-317.012	-101.279	-0.239	0.058
-315.997	41.193	-0.337	-0.303
-314.983	246.016	-0.071	0.119
-313.968	118.170	-0.142	-0.174
-312.953	304.373	0.165	0.304
-311.939	-200.000	0.051	0.372
-310.924	11.776	0.085	-0.065
-309.910	442.845	-0.091	-0.198
-308.895	156.259	0.053	-0.072
-307.880	-23.503	0.057	0.034
-306.866	172.635	-0.160	0.229
-305.851	257.678	0.098	0.168
-304.837	800.000	0.087	0.248
-303.822	-200.000	0.001	-0.170
-302.807	-200.000	-0.004	0.400
-301.793	93.664	0.122	-0.137
-300.778	-53.544	-0.299	-0.136
-299.764	-146.926	0.441	0.038
-298.749	41.648	0.303	-0.273
-297.735	38.361	-0.235	0.208
-296.720	-200.000	-0.005	-0.033
-295.705	800.000	-0.025	0.108
-294.691	-90.995	0.081	0.023
-293.676	-178.869	-0.377	-0.009
-292.662	-200.000	-0.007	0.063
-291.647	147.460	0.187	-0.250
-290.632	-59.933	-0.246	-0.104
-289.618	-170.029	-0.215	-0.008
-288.603	-112.229	0.299	-0.060
-287.589	-5.839	-0.262	-0.178
-286.574	-73.544	-0.229	0.083
-285.559	-78.649	-0.039	-0.013
-284.545	-200.000	-0.017	-0.414
-283.530	-200.000	0.023	-0.124
-282.516	434.711	0.068	-0.147
-281.501	-119.388	0.264	0.046
-280.486	800.000	0.041	0.129
-279.472	-153.532	-0.035	-0.002
-278.457	-119.297	0.179	-0.031
-277.443	144.206	0.073	0.097
-276.428	11.592	0.118	0.090
-275.413	-192.402	0.402	-0.004
-274.399	-17.208	0.133	0.083
-273.384	-39.297	-0.163	0.085
-272.370	-80.404	0.005	0.002
-271.355	85.123	-0.058	0.063
-270.340	800.000	-0.073	0.296
-269.326	-10.724	-0.055	-0.036
-268.311	254.101	0.168	0.284
-267.297	-200.000	0.024	-0.108
-266.282	-200.000	-0.045	0.274
-265.267	183.886	-0.133	0.195
-264.253	-53.010	-0.114	-0.052
-263.238	-139.420	-0.433	0.046
-262.224	-89.604	0.452	0.132
-261.209	-88.015	0.162	-0.048
-260.195	221.873	0.117	-0.187
-259.180	-200.000	-0.000	0.029
-258.165	800.000	0.054	0.217
-257.151	9.988	-0.266	-0.200
-256.136	185.098	0.144	0.212
-255.122	-107.601	0.080	0.017
-254.107	-129.732	-0.092	0.013
-253.092	-23.910	-0.082	0.049
-252.078	-200.000	0.011	-0.086
-251.063	-169.777	0.271	-0.010
-250.049	72.671	-0.289	-0.300
-249.034	129.702	-0.103	-0.130
-248.019	238.421	-0.231	-0.381
-247.005	82.510	-0.234	-0.252
-245.990	259.968	-0.080	-0.136
-244.976	800.000	-0.103	0.389
-243.961	-2.039	0.215	0.150
-242.946	-70.242	-0.202	0.076
-241.932	156.160	0.079	0.108
-240.917	800.000	-0.035	0.148
-239.903	642.824	-0.124	-0.315
-238.888	-141.088	-0.286	0.029
-237.873	-132.739	0.377	-0.048
-236.859	685.946	-0.125	0.323
-235.844	-121.087	0.205	-0.034
-234.830	665.797	-0.122	-0.312
-233.815	0.104	0.095	0.067
-232.800	-108.937	0.127	-0.027
-231.786	-5.036	-0.165	-0.113
-230.771	-90.556	0.146	0.042
-229.757	69.314	-0.159	-0.163
-228.742	800.000	-0.056	0.216
-227.727	114.850	0.264	0.319
-226.713	-1.034	0.111	-0.078
-225.698	114.325	-0.137	0.165
-224.684	67.221	0.083	0.083
-223.669	-1.143	-0.229	0.160
-222.655	67.133	0.116	0.117
-221.640	223.784	0.040	0.064
-220.625	-200.000	0.022	0.136
-219.611	-200.000	-0.015	-0.189
-218.596	-200.000	0.016	-0.211
-217.582	6.661	-0.053	0.039
-216.567	155.424	0.114	0.155
-215.552	-200.000	0.032	-0.169
-214.538	40.536	0.136	-0.121
-213.523	17.723	0.029	0.023
-212.509	170.382	-0.183	-0.260
-211.494	-46.764	-0.140	-0.068
-210.479	-200.000	-0.032	0.258
-209.465	800.000	-0.017	0.063
-208.450	-193.829	0.316	0.003
-207.436	-136.307	0.506	-0.058
-206.421	275.416	-0.207	-0.363
-205.406	-200.000	-0.058	-0.259
-204.392	-121.391	0.108	0.018
-203.377	-3.499	-0.177	0.122
-202.363	800.000	0.098	0.296
-201.348	82.373	-0.206	-0.222
-200.333	-200.000	-0.032	-0.225
-199.319	800.000	0.079	-0.260
-198.304	-110.198	-0.225	-0.046
-197.290	174.941	0.215	0.308
-196.275	-200.000	-0.051	0.299
-195.260	9.611	0.158	0.119
-194.246	-200.000	-0.008	0.290
-193.231	-81.678	-0.005	-0.001
-192.217	-200.000	-0.006	-0.098
-191.202	-174.929	-0.054	-0.001
-190.187	-83.702	0.093	0.029
-189.173	-200.000	0.026	-0.234
-188.158	-111.727	0.177	0.036
-187.144	-162.820	-0.160	-0.008
-186.129	-200.000	-0.015	-0.198
-185.114	-164.872	0.137	0.006
-184.100	22.530	0.207	-0.167
-183.085	-71.346	0.158	0.059
-182.071	305.767	-0.022	0.040
-181.056	93.305	0.238	0.266
-180.042	-116.595	-0.273	-0.050
-179.027	99.429	-0.157	-0.179
-178.012	89.582	0.226	-0.249
-176.998	111.139	0.219	0.261
-175.983	7.960	0.167	-0.124
-174.969	800.000	-0.047	-0.156
-173.954	448.858	0.139	-0.304
-172.939	-168.879	-0.243	0.009
-171.925	-200.000	0.019	-0.148
-170.910	162.722	-0.180	-0.249
-169.896	-200.000	-0.085	0.398
-168.881	180.803	-0.202	-0.293
-167.866	33.871	0.255	-0.219
-166.852	-96.502	0.023	0.006
-165.837	27.186	0.122	0.102
-164.823	-200.000	0.022	-0.117
-163.808	-59.013	-0.218	-0.093
-162.793	-49.015	0.286	0.135
-161.779	800.000	0.045	0.143
-160.764	-22.821	-0.343	-0.205
-159.750	-139.088	-0.101	0.011
-158.735	2.966	-0.233	0.167
-157.720	754.178	0.072	0.192
-156.706	-16.877	0.117	0.073
-155.691	-200.000	0.009	0.247
-154.677	-153.793	-0.151	0.010
-153.662	108.370	0.070	-0.082
-152.647	-18.880	0.157	0.097
-151.633	387.459	0.273	-0.558
-150.618	562.314	0.076	-0.182
-149.604	10.922	0.217	0.163
-148.589	-97.912	-0.561	0.143
-147.574	-200.000	-0.060	0.394
-146.560	17.733	-0.110	0.087
-145.545	154.838	0.131	0.178
-144.531	222.607	0.050	-0.079
-143.516	368.258	0.066	-0.132
-142.502	15.376	0.099	-0.077
-141.487	-22.581	-0.464	0.277
-140.472	-200.000	0.004	-0.091
-139.458	393.899	-0.049	0.100
-138.443	-18.419	-0.136	0.084
-137.429	138.104	-0.050	-0.065
-136.414	142.195	-0.160	-0.210
-135.399	37.211	0.212	0.185
-134.385	-200.000	0.012	0.280
-133.370	157.089	0.090	-0.123
-132.356	800.000	-0.115	-0.402
-131.341	-8.135	0.312	-0.207
-130.326	556.291	0.118	-0.280
-129.312	-200.000	0.022	-0.160
-128.297	-200.000	-0.068	0.378
-127.283	-200.000	0.023	0.197
-126.268	-7.600	0.056	-0.038
-125.253	-35.047	-0.314	-0.169
-124.239	-200.000	-0.011	-0.053
-123.224	653.905	0.104	-0.264
-122.210	71.990	-0.127	0.131
-121.195	55.660	-0.103	0.098
