DTS Sentinel unit serial number:	SN413079Multiplexer serial number:	ORYXHardware model number:	OX4-SRSoftware version number:	ORYX F/W v4.00 Oryx Data Collector v3.7.2.0data status	okinstallation	princeton_trtdifferential loss correction	single-endedforward channel	channel 3reverse channel	N/Adate	2019/09/12time	04:14:11forward acquisition time	60.00reverse acquisition time	0.00gamma	496.2192k internal	0.2323k external	0.2323temperature offset calibration	1.0068default loss term (dB/km)	0.3790temperature slope calibration	1.0000multiplexer offset coefficient	1.0000multiplexer slope coefficient	1.0000fibre end	0.00T internal ref (°C)	31.87T ext. ref 1 (°C)	2.24T ext. ref 2 (°C)	25.42length (m)	temperature (°C)	Stokes	anti-Stokes-747.200	105.282	-0.193	-0.230
-746.185	-200.000	0.015	-0.101
-745.171	298.368	-0.126	0.234
-744.156	-200.000	-0.004	0.075
-743.142	800.000	-0.036	0.151
-742.127	800.000	0.203	0.586
-741.112	800.000	-0.089	0.284
-740.098	-200.000	-0.009	0.283
-739.083	334.157	-0.050	-0.097
-738.069	29.250	-0.225	0.193
-737.054	136.245	-0.166	-0.218
-736.039	-44.215	-0.375	-0.190
-735.025	190.275	0.102	0.155
-734.010	-84.050	-0.167	-0.054
-732.996	-18.412	0.091	-0.057
-731.981	-200.000	-0.084	-0.383
-730.966	-200.000	0.092	-0.648
-729.952	88.206	0.131	-0.147
-728.937	312.554	-0.209	0.397
-727.923	-74.979	-0.141	-0.051
-726.908	-36.871	-0.108	0.059
-725.894	130.235	0.132	-0.170
-724.879	9.434	0.171	-0.131
-723.864	-20.113	-0.292	-0.182
-722.850	31.253	-0.297	0.258
-721.835	38.446	-0.171	0.154
-720.821	-160.883	0.209	0.011
-719.806	-200.000	-0.049	-0.316
-718.791	-99.091	-0.178	0.046
-717.777	268.518	0.152	-0.269
-716.762	-54.718	0.117	-0.053
-715.748	-200.000	-0.014	-0.104
-714.733	-171.678	-0.156	0.005
-713.718	152.415	0.047	-0.065
-712.704	38.277	0.178	0.160
-711.689	-200.000	-0.007	-0.069
-710.675	-200.000	0.009	-0.197
-709.660	-82.476	-0.106	0.035
-708.645	-48.654	-0.366	-0.177
-707.631	-200.000	0.042	0.233
-706.616	326.346	-0.087	-0.168
-705.602	47.617	-0.090	-0.085
-704.587	41.093	-0.127	0.116
-703.572	145.621	0.106	0.144
-702.558	-111.771	-0.154	-0.031
-701.543	-200.000	0.164	0.000
-700.529	71.725	0.019	0.020
-699.514	-52.256	-0.133	0.062
-698.499	-66.389	0.152	0.061
-697.485	-124.715	0.338	-0.053
-696.470	-106.557	-0.219	-0.049
-695.456	-92.057	-0.329	0.094
-694.441	800.000	0.091	-0.312
-693.426	164.508	0.139	0.198
-692.412	-60.167	0.039	-0.017
-691.397	576.266	-0.018	-0.045
-690.383	6.516	-0.252	-0.189
-689.368	94.745	0.112	-0.128
-688.354	-87.551	-0.279	-0.085
-687.339	797.742	-0.063	0.176
-686.324	-54.741	0.318	0.145
-685.310	-55.137	0.461	0.209
-684.295	71.623	-0.111	-0.116
-683.281	-90.606	-0.191	0.056
-682.266	-137.469	-0.210	-0.024
-681.251	435.867	0.112	0.245
-680.237	63.777	0.184	0.186
-679.222	-22.095	0.183	0.112
-678.208	800.000	0.079	-0.246
-677.193	126.021	-0.124	-0.158
-676.178	-115.893	-0.415	0.078
-675.164	33.555	0.107	-0.093
-674.149	163.764	-0.092	0.131
-673.135	445.538	0.044	-0.096
-672.120	-67.528	-0.419	-0.166
-671.105	111.066	-0.146	-0.177
-670.091	-96.847	0.359	0.095
-669.076	-200.000	0.032	-0.147
-668.062	-56.540	0.165	0.074
-667.047	-64.458	0.260	-0.107
-666.032	-200.000	-0.014	-0.411
-665.018	145.502	-0.271	-0.366
-664.003	272.723	-0.174	0.308
-662.989	-50.745	0.187	0.089
-661.974	108.174	-0.172	0.207
-660.959	-34.855	0.159	0.087
-659.945	225.919	0.079	0.129
-658.930	-200.000	0.044	-0.327
-657.916	-140.981	-0.217	-0.022
-656.901	249.967	0.023	0.039
-655.886	-93.152	-0.051	-0.014
-654.872	-149.694	0.236	-0.019
-653.857	-200.000	0.011	-0.109
-652.843	204.652	0.116	0.181
-651.828	800.000	-0.093	0.318
-650.814	-14.667	-0.081	-0.052
-649.799	169.631	-0.370	0.532
-648.784	172.456	-0.074	-0.107
-647.770	-200.000	0.000	-0.322
-646.755	89.139	-0.188	0.210
-645.741	-200.000	-0.018	-0.112
-644.726	-34.117	0.158	0.087
-643.711	-200.000	0.006	0.303
-642.697	-200.000	0.028	-0.174
-641.682	-73.332	-0.049	-0.018
-640.668	-41.227	0.124	-0.065
-639.653	-111.371	0.125	0.026
-638.638	-74.586	-0.277	-0.100
-637.624	531.677	0.103	0.245
-636.609	349.220	-0.031	-0.062
-635.595	48.456	-0.199	-0.188
-634.580	369.487	-0.136	-0.277
-633.565	36.603	0.123	-0.109
-632.551	302.160	-0.158	-0.293
-631.536	77.598	-0.172	0.184
-630.522	-76.205	0.210	0.075
-629.507	-8.885	-0.111	-0.075
-628.492	-200.000	0.000	-0.249
-627.478	-116.001	-0.285	0.053
-626.463	-15.051	0.147	-0.095
-625.449	-39.007	-0.214	-0.113
-624.434	-102.960	0.083	0.020
-623.419	497.712	-0.148	0.343
-622.405	-200.000	-0.007	-0.084
-621.390	-200.000	-0.040	0.316
-620.376	-137.697	-0.308	0.035
-619.361	-192.421	-0.014	0.000
-618.346	125.235	0.123	-0.156
-617.332	800.000	-0.036	-0.147
-616.317	-112.601	-0.258	-0.052
-615.303	-200.000	0.013	-0.181
-614.288	-40.570	0.040	-0.021
-613.273	-26.052	0.204	-0.121
-612.259	-200.000	-0.007	0.079
-611.244	-83.578	-0.223	0.072
-610.230	96.707	0.282	0.325
-609.215	-95.921	0.141	-0.038
-608.201	-23.196	-0.160	0.097
-607.186	24.601	-0.137	0.114
-606.171	-116.252	-0.216	-0.040
-605.157	-27.286	0.057	0.033
-604.142	-145.299	0.290	0.026
-603.128	-118.484	-0.201	-0.036
-602.113	113.702	0.152	-0.185
-601.098	-200.000	-0.027	0.178
-600.084	-200.000	-0.023	0.275
-599.069	34.438	0.043	-0.038
-598.055	-18.868	0.354	0.221
-597.040	-75.614	-0.361	0.129
-596.025	-200.000	-0.000	0.145
-595.011	-124.011	0.131	-0.021
-593.996	-92.094	0.311	0.088
-592.982	281.094	0.168	0.302
-591.967	-173.173	-0.039	-0.001
-590.952	271.937	-0.125	0.221
-589.938	714.872	0.047	-0.124
-588.923	-108.051	0.198	0.043
-587.909	34.601	-0.059	0.052
-586.894	-93.854	-0.132	-0.036
-585.879	432.567	0.077	-0.168
-584.865	-145.982	0.409	0.036
-583.850	-200.000	0.029	-0.284
-582.836	800.000	-0.028	0.103
-581.821	-88.379	-0.201	-0.060
-580.806	44.645	-0.173	0.160
-579.792	250.917	-0.116	-0.198
-578.777	-65.294	-0.136	-0.055
-577.763	-200.000	-0.026	-0.324
-576.748	86.871	-0.185	-0.205
-575.733	182.638	0.152	0.225
-574.719	-111.249	-0.293	0.060
-573.704	501.424	0.084	0.194
-572.690	-32.493	-0.070	0.039
-571.675	800.000	0.136	0.418
-570.661	-200.000	0.081	0.437
-569.646	-200.000	0.057	0.299
-568.631	80.572	0.085	0.091
-567.617	-59.301	0.153	-0.066
-566.602	-200.000	-0.012	0.128
-565.588	777.033	-0.040	0.110
-564.573	-191.676	-0.312	0.003
-563.558	-200.000	-0.043	-0.359
-562.544	779.348	0.107	0.294
-561.529	71.810	-0.208	0.217
-560.515	2.866	0.256	0.186
-559.500	-200.000	0.005	0.025
-558.485	9.744	0.230	0.175
-557.471	143.912	0.188	0.251
-556.456	-75.406	-0.113	0.040
-555.442	800.000	-0.015	0.061
-554.427	-200.000	0.036	-0.230
-553.412	-117.829	-0.141	-0.025
-552.398	203.944	-0.098	0.152
-551.383	-68.988	0.175	0.067
-550.369	-11.154	0.161	0.106
-549.354	2.844	-0.227	0.165
-548.339	2.641	0.325	-0.236
-547.325	-200.000	0.038	0.185
-546.310	-59.722	0.358	0.154
-545.296	-69.100	-0.128	0.050
-544.281	103.358	0.039	-0.046
-543.266	-134.968	-0.261	-0.032
-542.252	203.451	-0.150	0.233
-541.237	800.000	0.163	-0.484
-540.223	-99.563	0.137	-0.035
-539.208	-84.038	0.288	-0.092
-538.193	39.536	0.260	0.233
-537.179	-200.000	-0.021	-0.121
-536.164	609.560	0.104	0.260
-535.150	13.067	0.357	-0.277
-534.135	569.883	-0.118	0.287
-533.121	-33.066	0.402	-0.224
-532.106	10.443	-0.116	0.088
-531.091	-200.000	0.031	0.267
-530.077	47.114	-0.138	0.129
-529.062	50.431	-0.170	-0.161
-528.048	-56.838	0.271	-0.120
-527.033	106.143	0.028	-0.033
-526.018	121.920	0.227	-0.284
-525.004	800.000	-0.034	0.111
-523.989	-200.000	-0.013	-0.099
-522.975	800.000	0.058	0.163
-521.960	-34.078	-0.187	0.103
-520.945	442.329	-0.141	0.308
-519.931	393.674	0.150	-0.313
-518.916	800.000	0.034	0.108
-517.902	-84.785	-0.088	-0.028
-516.887	-200.000	-0.023	0.140
-515.872	-200.000	-0.401	0.002
-514.858	-93.797	0.235	0.065
-513.843	-97.110	-0.134	0.035
-512.829	-147.989	-0.338	0.028
-511.814	-16.574	0.140	-0.089
-510.799	104.629	0.195	0.230
-509.785	-89.999	-0.001	-0.000
-508.770	85.956	-0.046	-0.050
-507.756	-200.000	-0.020	-0.300
-506.741	22.790	-0.174	-0.143
-505.726	197.192	-0.155	0.236
-504.712	-142.368	-0.338	0.033
-503.697	800.000	0.038	0.149
-502.683	-200.000	-0.032	0.287
-501.668	-200.000	-0.021	0.216
-500.653	94.973	0.057	0.064
-499.639	-92.005	-0.285	-0.081
-498.624	-200.000	0.050	-0.224
-497.610	-200.000	0.088	-0.457
-496.595	-137.316	0.300	0.034
-495.581	-66.540	-0.170	-0.068
-494.566	-121.387	0.409	0.068
-493.551	-154.431	0.040	-0.003
-492.537	484.635	-0.041	-0.094
-491.522	800.000	-0.075	-0.297
-490.508	-182.176	-0.149	0.003
-489.493	-200.000	-0.004	-0.045
-488.478	-23.891	0.256	0.153
-487.464	470.847	-0.081	0.182
-486.449	136.313	0.098	0.127
-485.435	208.437	0.073	0.114
-484.420	60.424	0.253	-0.251
-483.405	187.960	-0.019	0.028
-482.391	6.017	-0.218	-0.161
-481.376	-200.000	0.067	-0.371
-480.362	-200.000	0.022	-0.132
-479.347	176.928	0.091	-0.133
-478.332	676.875	-0.033	0.087
-477.318	-74.703	0.116	0.042
-476.303	-35.458	-0.424	0.230
-475.289	-200.000	0.021	-0.098
-474.274	800.000	0.067	-0.266
-473.259	-99.980	0.208	-0.052
-472.245	-80.851	-0.191	-0.063
-471.230	185.850	0.017	-0.025
-470.216	-113.139	-0.426	0.084
-469.201	-135.784	-0.283	-0.033
-468.186	-94.701	-0.257	0.070
-467.172	-64.822	-0.238	0.096
-466.157	-81.513	0.140	0.046
-465.143	-41.046	-0.266	0.137
-464.128	215.354	-0.010	0.016
-463.113	64.755	-0.300	-0.303
-462.099	-22.185	0.061	-0.037
-461.084	403.081	-0.033	0.070
-460.070	436.891	0.075	0.164
-459.055	800.000	-0.145	0.405
-458.040	715.870	-0.045	-0.119
-457.026	-26.923	0.078	-0.045
-456.011	23.202	-0.326	-0.267
-454.997	483.938	0.136	0.309
-453.982	493.763	0.060	0.138
-452.968	173.189	-0.143	0.205
-451.953	74.589	0.163	0.171
-450.938	275.752	0.183	-0.325
-449.924	-72.637	0.031	0.011
-448.909	800.000	0.091	-0.263
-447.895	57.201	0.171	0.167
-446.880	-111.237	0.206	0.042
-445.865	800.000	0.050	-0.139
-444.851	-200.000	0.039	0.271
-443.836	-26.922	0.222	0.129
-442.822	266.862	-0.056	-0.098
-441.807	292.971	0.043	-0.077
-440.792	-136.022	0.292	0.034
-439.778	-118.541	-0.427	0.075
-438.763	68.652	-0.296	0.303
-437.749	320.313	-0.119	0.226
-436.734	800.000	-0.132	-0.387
-435.719	113.396	-0.163	-0.197
-434.705	-151.054	-0.375	-0.028
-433.690	-200.000	0.014	-0.229
-432.676	800.000	0.033	-0.127
-431.661	104.368	0.116	0.136
-430.646	-200.000	-0.014	-0.170
-429.632	111.388	-0.088	-0.106
-428.617	235.811	0.190	-0.314
-427.603	-200.000	0.003	0.245
-426.588	56.748	-0.026	-0.025
-425.573	37.726	0.187	0.166
-424.559	800.000	-0.051	0.145
-423.544	599.439	-0.041	0.102
-422.530	-6.556	-0.367	0.249
-421.515	19.362	0.215	-0.172
-420.500	-183.800	0.245	0.004
-419.486	-117.695	-0.167	0.030
-418.471	-176.942	-0.119	-0.003
-417.457	-152.488	0.353	-0.025
-416.442	-106.139	-0.154	-0.035
-415.428	-134.153	-0.229	-0.028
-414.413	84.540	0.183	-0.199
-413.398	-64.803	0.157	-0.063
-412.384	76.365	0.167	-0.176
-411.369	35.750	0.050	0.044
-410.355	-25.499	-0.220	-0.130
-409.340	-8.452	0.260	0.174
-408.325	-64.357	0.301	-0.122
-407.311	-53.798	-0.096	-0.044
-406.296	334.560	0.091	0.175
-405.282	-135.713	0.247	0.029
-404.267	707.897	-0.105	-0.277
-403.252	1.531	0.175	0.126
-402.238	-111.303	-0.028	0.006
-401.223	-200.000	-0.037	-0.268
-400.209	-124.771	-0.150	-0.023
-399.194	149.658	0.091	0.123
-398.179	73.802	-0.059	0.062
-397.165	-34.172	-0.257	-0.141
-396.150	35.817	-0.098	-0.086
-395.136	96.340	0.093	0.106
-394.121	-149.326	-0.295	-0.023
-393.106	-200.000	0.008	0.226
-392.092	23.147	0.182	0.149
-391.077	46.463	-0.221	0.204
-390.063	309.036	0.199	-0.371
-389.048	-84.515	0.293	0.092
-388.033	-144.869	0.202	-0.018
-387.019	-140.349	-0.350	-0.036
-386.004	-200.000	-0.049	-0.349
-384.990	-66.195	0.154	-0.061
-383.975	-106.443	0.152	0.034
-382.960	-147.230	0.313	0.027
-381.946	-200.000	0.034	0.242
-380.931	-66.109	-0.248	-0.099
-379.917	-5.044	-0.033	0.022
-378.902	-136.079	0.302	-0.035
-377.888	-150.177	0.287	-0.022
-376.873	-200.000	-0.058	0.262
-375.858	476.440	-0.104	0.234
-374.844	-200.000	-0.042	0.475
-373.829	688.076	-0.086	0.223
-372.815	-144.664	0.241	-0.022
-371.800	130.839	0.008	0.010
-370.785	33.479	0.072	-0.062
-369.771	-127.642	-0.486	-0.070
-368.756	800.000	0.072	-0.199
-367.742	-100.089	0.079	-0.020
-366.727	-50.602	0.087	-0.041
-365.712	-163.487	0.185	0.009
-364.698	-83.505	-0.263	0.084
-363.683	800.000	-0.066	0.200
-362.669	800.000	0.069	-0.298
-361.654	-198.056	0.053	-0.000
-360.639	-200.000	0.062	-0.276
-359.625	173.461	-0.120	-0.173
-358.610	519.477	0.091	0.211
-357.596	-11.806	0.067	0.044
-356.581	177.562	-0.136	0.197
-355.566	79.826	-0.155	0.166
-354.552	238.132	0.141	0.233
-353.537	487.697	0.115	-0.262
-352.523	309.130	-0.097	-0.179
-351.508	764.039	-0.082	0.220
-350.493	-72.914	-0.230	-0.084
-349.479	373.700	0.052	0.106
-348.464	733.355	0.126	0.337
-347.450	597.317	0.084	-0.207
-346.435	-128.758	-0.715	0.100
-345.420	5.859	0.045	-0.033
-344.406	800.000	-0.048	-0.176
-343.391	598.489	0.034	-0.084
-342.377	-80.279	0.076	-0.025
-341.362	-86.114	0.264	-0.081
-340.348	-141.433	-0.066	0.007
-339.333	272.459	0.051	0.090
-338.318	-89.921	-0.094	0.027
-337.304	-116.168	0.128	-0.024
-336.289	251.465	0.113	-0.191
-335.275	149.652	0.252	0.339
-334.260	193.709	-0.100	-0.150
-333.245	-57.179	0.240	0.105
-332.231	11.891	0.235	0.180
-331.216	71.400	0.076	0.078
-330.202	800.000	0.025	0.088
-329.187	22.019	-0.137	-0.111
-328.172	-200.000	-0.009	-0.178
-327.158	397.468	-0.214	-0.445
-326.143	-200.000	-0.014	-0.091
-325.129	800.000	0.152	-0.494
-324.114	-200.000	0.036	-0.439
-323.099	-32.316	0.403	0.224
-322.085	-1.774	0.494	0.345
-321.070	58.523	0.047	0.046
-320.056	-200.000	0.055	-0.272
-319.041	-200.000	-0.055	0.265
-318.026	-139.240	-0.190	-0.020
-317.012	331.543	-0.122	-0.233
-315.997	-47.324	0.209	-0.101
-314.983	100.770	-0.123	-0.142
-313.968	800.000	-0.096	0.271
-312.953	-99.927	-0.205	-0.051
-311.939	-112.387	-0.220	0.044
-310.924	14.588	0.221	0.171
-309.910	-107.148	-0.180	-0.039
-308.895	-200.000	0.293	0.000
-307.880	-160.074	-0.236	0.013
-306.866	49.442	-0.138	-0.129
-305.851	498.594	0.146	-0.335
-304.837	-200.000	0.021	0.205
-303.822	-83.806	-0.212	-0.067
-302.807	-1.578	0.264	0.184
-301.793	-14.330	0.167	0.107
-300.778	-44.853	-0.143	-0.071
-299.764	-25.153	-0.202	0.119
-298.749	800.000	-0.097	0.308
-297.735	-13.091	0.072	-0.046
-296.720	-74.194	0.189	-0.068
-295.705	-128.740	-0.164	0.023
-294.691	-76.835	-0.195	0.068
-293.676	49.514	0.194	0.181
-292.662	1.602	0.176	-0.126
-291.647	-56.322	-0.396	-0.175
-290.632	231.245	0.037	-0.060
-289.618	-116.661	-0.326	0.059
-288.603	-200.000	0.025	-0.258
-287.589	-3.879	0.186	0.128
-286.574	-183.571	-0.183	-0.003
-285.559	463.198	-0.146	-0.323
-284.545	-200.000	0.010	0.169
-283.530	800.000	-0.071	-0.195
-282.516	-64.809	-0.062	0.025
-281.501	227.809	0.202	-0.325
-280.486	18.060	0.159	0.126
-279.472	65.999	0.170	0.171
-278.457	33.436	0.108	-0.093
-277.443	138.625	-0.094	0.122
-276.428	-200.000	0.056	-0.314
-275.413	8.665	-0.086	0.064
-274.399	3.531	-0.152	0.110
-273.384	-6.485	-0.295	-0.199
-272.370	774.107	0.075	0.203
-271.355	392.357	0.049	0.101
-270.340	-9.568	-0.104	0.069
-269.326	-194.228	0.077	-0.001
-268.311	158.651	-0.104	0.144
-267.297	29.846	-0.142	0.120
-266.282	-34.096	0.125	0.068
-265.267	148.560	0.279	0.374
-264.253	-13.295	0.420	0.270
-263.238	188.102	-0.182	0.270
-262.224	800.000	-0.075	0.287
-261.209	-153.683	0.406	0.028
-260.195	-10.693	0.117	-0.077
-259.180	-34.263	0.057	0.031
-258.165	-162.176	-0.161	0.008
-257.151	-86.262	0.162	0.050
-256.136	-62.762	-0.409	-0.168
-255.122	-200.000	0.101	-0.522
-254.107	-60.005	-0.169	-0.071
-253.092	101.935	0.022	0.025
-252.078	800.000	0.101	-0.375
-251.063	-58.127	0.215	0.093
-250.049	-130.625	0.112	0.015
-249.034	178.148	-0.027	0.039
-248.019	40.405	-0.126	-0.112
-247.005	-78.751	-0.099	0.033
-245.990	-200.000	-0.018	0.171
-244.976	7.752	0.312	0.232
-243.961	800.000	0.057	0.197
-242.946	496.895	0.104	-0.237
-241.932	225.458	0.238	0.382
-240.917	231.388	0.031	0.051
-239.903	-65.205	-0.151	-0.060
-238.888	-73.892	-0.215	-0.077
-237.873	-105.681	-0.315	-0.071
-236.859	-115.699	0.214	0.040
-235.844	494.090	-0.129	0.294
-234.830	82.472	0.118	-0.127
-233.815	-194.011	-0.053	0.000
-232.800	137.485	-0.132	-0.171
-231.786	181.968	-0.276	0.402
-230.771	-71.166	-0.160	0.059
-229.757	-200.000	-0.048	-0.387
-228.742	800.000	0.036	-0.128
-227.727	-200.000	-0.021	0.094
-226.713	-140.605	-0.153	0.016
-225.698	800.000	-0.159	-0.532
-224.684	121.449	0.253	-0.312
-223.669	-180.649	0.059	-0.001
-222.655	-67.219	-0.202	0.079
-221.640	-9.516	0.305	-0.201
-220.625	-174.986	-0.403	-0.011
-219.611	-200.000	0.042	0.261
-218.596	118.846	-0.173	0.212
-217.582	-200.000	-0.024	-0.176
-216.567	-44.945	0.148	-0.073
-215.552	800.000	0.169	-0.521
-214.538	800.000	0.081	-0.249
-213.523	-200.000	0.014	-0.101
-212.509	531.190	-0.042	-0.099
-211.494	274.800	-0.155	0.271
-210.479	-114.448	-0.084	-0.016
-209.465	800.000	0.029	-0.090
-208.450	-126.100	-0.270	-0.040
-207.436	-27.829	-0.172	-0.099
-206.421	373.132	0.139	0.280
-205.406	546.102	0.102	-0.242
-204.392	272.632	-0.248	-0.432
-203.377	-17.017	-0.181	-0.113
-202.363	-200.000	0.001	-0.281
-201.348	511.206	-0.142	-0.326
-200.333	-117.136	-0.382	-0.069
-199.319	339.029	0.190	-0.365
-198.304	-30.516	0.470	-0.263
-197.290	106.175	0.063	-0.073
-196.275	-61.100	-0.331	0.138
-195.260	432.429	-0.040	0.085
-194.246	-116.310	-0.250	0.046
-193.231	22.334	0.082	0.066
-192.217	-200.000	0.008	-0.057
-191.202	-44.810	0.184	-0.091
-190.187	800.000	-0.052	-0.164
-189.173	800.000	0.033	0.115
-188.158	800.000	0.055	-0.185
-187.144	169.577	-0.026	-0.037
-186.129	3.080	0.259	-0.186
-185.114	-10.567	0.109	-0.071
-184.100	-157.972	-0.096	0.006
-183.085	49.536	0.163	-0.152
-182.071	98.698	-0.149	0.170
-181.056	12.253	0.120	-0.091
-180.042	377.460	0.142	0.286
-179.027	-1.495	0.236	0.164
-178.012	-58.824	-0.209	0.089
-176.998	-84.904	-0.287	-0.089
-175.983	-8.847	0.110	-0.073
-174.969	-142.413	0.156	-0.015
-173.954	800.000	0.095	-0.270
-172.939	800.000	0.051	-0.183
-171.925	-200.000	-0.011	-0.223
-170.910	235.882	0.014	0.022
-169.896	425.216	-0.099	0.211
-168.881	-200.000	0.001	-0.180
-167.866	-64.943	0.257	0.102
-166.852	62.582	0.233	-0.230
-165.837	509.904	0.125	0.288
-164.823	-48.529	0.125	0.059
-163.808	189.322	0.144	0.213
-162.793	84.148	0.241	0.260
-161.779	-17.694	-0.327	-0.203
-160.764	89.388	0.082	-0.090
-159.750	428.499	-0.058	-0.124
-158.735	534.379	0.119	0.279
-157.720	-138.261	-0.243	0.027
-156.706	-200.000	-0.015	-0.392
-155.691	-92.147	0.200	0.056
-154.677	-23.408	-0.122	-0.072
-153.662	125.725	0.006	-0.008
-152.647	73.554	0.107	0.110
-151.633	-200.000	-0.059	0.393
-150.618	-47.171	-0.209	0.101
-149.604	-122.975	0.367	0.058
-148.589	3.480	0.187	-0.135
-147.574	-52.156	-0.228	-0.104
-146.560	-200.000	-0.004	0.120
-145.545	-59.195	0.221	0.094
-144.531	169.320	0.191	0.270
-143.516	-126.443	-0.089	0.013
-142.502	16.840	0.257	-0.201
-141.487	-121.930	-0.267	-0.043
-140.472	-137.351	0.387	-0.043
-139.458	79.669	-0.081	-0.085
-138.443	432.585	0.116	0.249
-137.429	136.485	0.016	0.021
-136.414	230.515	-0.042	-0.068
-135.399	215.833	0.129	-0.203
-134.385	-6.282	-0.197	0.132
-133.370	-136.521	-0.245	0.028
-132.356	243.552	-0.100	0.165
-131.341	369.690	-0.150	0.299
-130.326	-22.536	-0.177	0.106
-129.312	-17.653	-0.275	0.171
-128.297	174.730	0.083	-0.119
-127.283	-0.882	-0.165	0.115
-126.268	170.888	-0.102	0.144
-125.253	554.398	0.099	-0.235
-124.239	800.000	-0.030	-0.122
-123.224	-200.000	0.008	-0.188
-122.210	-65.208	-0.230	0.091
-121.195	268.052	-0.294	0.508
