DTS Sentinel unit serial number:	SN413079Multiplexer serial number:	ORYXHardware model number:	OX4-SRSoftware version number:	ORYX F/W v4.00 Oryx Data Collector v3.7.2.0data status	okinstallation	princeton_trtdifferential loss correction	single-endedforward channel	channel 3reverse channel	N/Adate	2019/09/11time	06:50:10forward acquisition time	60.00reverse acquisition time	0.00gamma	496.2192k internal	0.2329k external	0.2329temperature offset calibration	0.9904default loss term (dB/km)	0.3790temperature slope calibration	1.0000multiplexer offset coefficient	1.0000multiplexer slope coefficient	1.0000fibre end	0.00T internal ref (°C)	29.91T ext. ref 1 (°C)	-0.14T ext. ref 2 (°C)	25.16length (m)	temperature (°C)	Stokes	anti-Stokes-747.200	56.026	0.077	0.075
-746.185	692.965	0.058	-0.153
-745.171	-119.775	0.353	0.061
-744.156	38.607	-0.071	-0.063
-743.142	70.394	-0.092	-0.096
-742.127	-135.321	-0.163	-0.020
-741.112	800.000	0.071	0.271
-740.098	800.000	-0.105	-0.404
-739.083	-68.134	-0.091	-0.036
-738.069	-200.000	0.007	0.485
-737.054	-200.000	-0.001	-0.117
-736.039	139.649	0.239	-0.316
-735.025	107.585	0.154	-0.185
-734.010	363.613	0.089	-0.179
-732.996	93.503	-0.148	-0.169
-731.981	-200.000	-0.052	0.254
-730.966	149.579	0.077	-0.105
-729.952	106.736	-0.216	-0.258
-728.937	64.413	0.211	-0.214
-727.923	-200.000	-0.011	-0.268
-726.908	142.721	-0.076	-0.102
-725.894	800.000	0.071	0.283
-724.879	348.825	0.114	0.227
-723.864	800.000	0.117	-0.363
-722.850	-10.664	-0.256	-0.170
-721.835	378.136	0.105	-0.216
-720.821	30.120	-0.049	-0.042
-719.806	28.376	-0.108	0.092
-718.791	51.666	-0.212	-0.203
-717.777	277.320	-0.088	-0.158
-716.762	287.437	-0.027	-0.050
-715.748	179.379	0.131	0.193
-714.733	800.000	0.072	-0.225
-713.718	-28.252	-0.145	-0.084
-712.704	800.000	0.053	-0.150
-711.689	-82.895	0.337	0.110
-710.675	-68.996	0.370	0.143
-709.660	-200.000	0.019	0.330
-708.645	800.000	-0.083	-0.330
-707.631	501.295	0.038	0.087
-706.616	79.459	-0.119	-0.129
-705.602	-132.655	0.262	-0.034
-704.587	555.685	0.177	-0.429
-703.572	-186.213	-0.027	0.000
-702.558	644.957	-0.038	0.099
-701.543	-128.641	-0.493	0.070
-700.529	153.778	-0.106	-0.147
-699.514	306.845	0.084	-0.157
-698.499	-200.000	-0.004	-0.123
-697.485	-119.195	0.374	0.066
-696.470	204.544	0.204	0.318
-695.456	79.585	-0.230	-0.248
-694.441	-200.000	0.002	0.015
-693.426	55.165	-0.104	0.102
-692.412	-81.317	0.317	0.105
-691.397	244.758	-0.148	-0.250
-690.383	106.473	-0.100	-0.119
-689.368	-122.574	0.081	0.013
-688.354	-129.615	0.058	0.008
-687.339	-2.769	-0.135	-0.095
-686.324	45.266	0.087	-0.080
-685.310	132.132	-0.021	-0.027
-684.295	-151.223	0.112	0.008
-683.281	64.317	0.097	-0.098
-682.266	251.887	-0.042	-0.072
-681.251	-89.345	0.093	-0.028
-680.237	315.254	0.136	0.257
-679.222	432.009	-0.153	0.333
-678.208	-141.785	-0.395	0.040
-677.193	81.966	-0.021	-0.023
-676.178	-186.615	0.121	0.002
-675.164	-200.000	-0.029	-0.212
-674.149	-145.414	-0.175	0.016
-673.135	-200.000	-0.033	-0.172
-672.120	-118.687	-0.312	-0.055
-671.105	24.297	-0.251	-0.208
-670.091	26.845	0.288	-0.243
-669.076	-200.000	0.003	-0.020
-668.062	800.000	0.090	0.385
-667.047	375.212	-0.190	-0.388
-666.032	-151.159	-0.152	-0.011
-665.018	-125.849	-0.151	-0.023
-664.003	116.100	-0.059	0.073
-662.989	297.298	-0.046	0.085
-661.974	45.144	0.236	-0.219
-660.959	-200.000	-0.044	0.383
-659.945	467.861	0.132	0.297
-658.930	-200.000	-0.031	-0.571
-657.916	800.000	0.058	-0.188
-656.901	-44.158	-0.198	-0.100
-655.886	11.213	-0.460	-0.353
-654.872	-86.121	0.089	-0.028
-653.857	-160.462	0.217	0.012
-652.843	4.671	-0.113	0.083
-651.828	146.720	0.219	0.295
-650.814	-46.467	-0.211	-0.104
-649.799	-144.746	-0.289	0.027
-648.784	-123.007	0.115	0.018
-647.770	-105.520	0.170	-0.039
-646.755	-86.497	-0.460	-0.142
-645.741	371.515	0.115	-0.234
-644.726	90.965	0.125	-0.141
-643.711	595.825	0.104	-0.259
-642.697	-138.205	-0.247	-0.027
-641.682	-200.000	0.043	-0.251
-640.668	124.195	-0.278	-0.351
-639.653	-200.000	0.040	0.253
-638.638	-160.909	0.355	-0.019
-637.624	-200.000	0.033	-0.237
-636.609	93.839	-0.042	0.048
-635.595	-10.355	-0.118	-0.079
-634.580	60.255	-0.131	0.130
-633.565	-111.584	-0.158	0.032
-632.551	-159.406	-0.261	0.015
-631.536	-81.522	-0.202	0.067
-630.522	-133.529	-0.227	0.029
-629.507	88.255	-0.070	0.078
-628.492	-200.000	-0.006	-0.072
-627.478	-99.005	-0.202	0.051
-626.463	148.288	-0.139	0.188
-625.449	-200.000	0.017	-0.175
-624.434	62.512	-0.232	-0.232
-623.419	-140.923	-0.112	0.012
-622.405	68.386	-0.233	0.239
-621.390	-22.045	0.139	0.085
-620.376	6.807	-0.136	-0.101
-619.361	107.756	0.152	-0.181
-618.346	460.547	0.101	-0.225
-617.332	362.698	-0.148	-0.299
-616.317	800.000	-0.049	0.157
-615.303	238.066	0.209	-0.348
-614.288	89.464	-0.229	0.257
-613.273	-151.452	0.320	0.024
-612.259	-149.786	0.273	0.021
-611.244	-102.838	-0.230	-0.055
-610.230	-171.571	-0.265	-0.009
-609.215	81.459	0.136	0.147
-608.201	-95.933	0.195	0.052
-607.186	532.073	0.036	0.085
-606.171	-174.672	0.144	0.004
-605.157	-71.256	0.505	0.190
-604.142	-163.474	0.102	0.005
-603.128	90.463	0.296	0.332
-602.113	-57.943	0.069	0.030
-601.098	-20.982	0.235	-0.144
-600.084	-71.390	-0.186	-0.070
-599.069	635.201	0.040	-0.101
-598.055	-200.000	-0.023	0.226
-597.040	-200.000	-0.016	-0.165
-596.025	-26.427	0.139	-0.082
-595.011	-105.576	0.232	0.053
-593.996	-158.917	-0.095	-0.005
-592.982	68.802	-0.083	0.085
-591.967	-200.000	0.041	0.313
-590.952	39.859	0.102	0.092
-589.938	81.665	-0.060	-0.065
-588.923	530.886	0.072	-0.170
-587.909	64.789	0.341	-0.345
-586.894	122.451	-0.107	-0.134
-585.879	-200.000	0.202	0.000
-584.865	136.729	-0.023	0.029
-583.850	123.774	0.093	0.116
-582.836	-131.331	-0.297	0.039
-581.821	-196.016	-0.301	-0.002
-580.806	721.232	0.135	-0.359
-579.792	800.000	-0.085	0.263
-578.777	149.536	-0.139	0.189
-577.763	-200.000	0.004	0.121
-576.748	-12.450	-0.076	0.050
-575.733	-96.229	0.178	-0.047
-574.719	800.000	-0.027	-0.118
-573.704	-200.000	0.031	0.150
-572.690	-73.464	0.314	0.115
-571.675	182.423	-0.141	-0.208
-570.661	800.000	-0.078	-0.255
-569.646	-36.372	0.508	-0.274
-568.631	800.000	0.051	0.151
-567.617	-33.825	0.340	-0.187
-566.602	-74.175	-0.302	-0.109
-565.588	697.925	-0.119	0.313
-564.573	589.372	-0.029	-0.073
-563.558	20.935	0.086	-0.070
-562.544	-3.110	-0.258	-0.180
-561.529	73.307	-0.213	-0.223
-560.515	32.161	-0.078	-0.068
-559.500	11.789	-0.054	0.041
-558.485	-32.041	0.128	-0.072
-557.471	36.982	-0.205	-0.181
-556.456	-28.615	-0.431	-0.248
-555.442	-200.000	0.003	0.303
-554.427	-173.835	-0.133	0.004
-553.412	3.884	-0.226	-0.165
-552.398	-68.428	0.205	0.079
-551.383	76.382	-0.172	-0.182
-550.369	-12.689	0.265	0.173
-549.354	102.841	-0.203	-0.237
-548.339	-200.000	-0.029	-0.305
-547.325	-144.265	-0.254	-0.024
-546.310	-200.000	-0.010	0.129
-545.296	-3.776	-0.106	0.074
-544.281	-200.000	0.023	0.282
-543.266	21.071	-0.246	-0.200
-542.252	800.000	0.018	0.078
-541.237	-200.000	0.026	-0.141
-540.223	-92.176	0.055	0.016
-539.208	103.148	0.047	0.055
-538.193	-143.329	0.241	0.023
-537.179	-169.238	-0.179	0.007
-536.164	800.000	0.061	0.197
-535.150	10.660	-0.241	0.184
-534.135	-200.000	0.003	-0.127
-533.121	22.870	-0.106	-0.087
-532.106	800.000	0.088	0.294
-531.091	45.534	-0.270	0.249
-530.077	800.000	-0.100	-0.349
-529.062	120.294	0.067	-0.083
-528.048	316.064	0.223	0.421
-527.033	800.000	-0.085	-0.253
-526.018	800.000	0.057	0.216
-525.004	-52.712	0.303	0.139
-523.989	-119.030	-0.587	-0.103
-522.975	800.000	0.074	0.215
-521.960	185.027	0.070	-0.104
-520.945	-107.406	0.276	0.061
-519.931	-165.280	-0.349	-0.015
-518.916	137.853	-0.083	0.108
-517.902	27.097	0.005	0.004
-516.887	258.917	0.166	-0.286
-515.872	46.601	-0.183	-0.170
-514.858	-84.082	0.284	-0.090
-513.843	-62.865	0.187	-0.077
-512.829	-200.000	-0.098	0.430
-511.814	-200.000	-0.017	0.265
-510.799	502.777	0.088	-0.204
-509.785	15.811	0.060	0.047
-508.770	-9.273	0.143	0.096
-507.756	-45.891	-0.371	0.183
-506.741	-200.000	-0.024	0.121
-505.726	16.778	-0.129	0.102
-504.712	-153.857	-0.145	0.010
-503.697	-136.764	-0.312	0.036
-502.683	-135.260	0.221	0.026
-501.668	-200.000	-0.006	-0.136
-500.653	-200.000	0.069	0.331
-499.639	0.482	-0.179	-0.127
-498.624	233.722	0.089	-0.146
-497.610	38.959	-0.103	0.092
-496.595	-96.120	0.229	-0.061
-495.581	-26.800	0.345	-0.201
-494.566	-85.203	-0.116	0.036
-493.551	411.594	-0.108	0.229
-492.537	-64.771	0.191	-0.077
-491.522	223.528	0.064	0.102
-490.508	28.766	0.259	0.219
-489.493	-200.000	0.012	0.252
-488.478	4.723	-0.176	0.129
-487.464	52.381	0.290	-0.276
-486.449	-137.557	0.293	-0.033
-485.435	-70.659	0.411	-0.155
-484.420	-153.530	0.252	-0.017
-483.405	183.282	0.151	-0.222
-482.391	-54.421	0.046	-0.021
-481.376	800.000	-0.048	-0.185
-480.362	50.312	-0.129	-0.121
-479.347	800.000	-0.089	-0.268
-478.332	243.708	-0.062	-0.104
-477.318	-104.917	0.116	-0.026
-476.303	226.706	-0.072	0.116
-475.289	-200.000	0.019	-0.100
-474.274	-200.000	0.008	-0.134
-473.259	562.052	0.096	-0.232
-472.245	325.796	0.077	0.147
-471.230	242.275	-0.254	-0.424
-470.216	-53.376	-0.308	0.141
-469.201	-76.092	0.195	0.069
-468.186	-112.212	-0.111	-0.022
-467.172	-66.592	0.163	0.064
-466.157	-19.508	-0.027	0.017
-465.143	-111.737	-0.291	0.059
-464.128	93.475	0.073	-0.082
-463.113	529.838	0.073	-0.172
-462.099	70.407	-0.214	0.221
-461.084	-86.171	0.220	0.068
-460.070	-24.742	-0.271	0.160
-459.055	-200.000	0.046	0.000
-458.040	-200.000	-0.003	0.205
-457.026	208.424	0.207	0.322
-456.011	-47.587	0.114	0.055
-454.997	7.284	-0.277	0.206
-453.982	800.000	0.072	-0.218
-452.968	254.797	0.106	0.181
-451.953	44.181	-0.165	0.150
-450.938	-101.069	0.055	0.013
-449.924	-15.467	-0.252	-0.161
-448.909	-154.338	-0.515	0.034
-447.895	104.404	0.176	-0.207
-446.880	-115.612	0.082	-0.015
-445.865	-198.241	0.248	0.001
-444.851	135.628	-0.154	0.200
-443.836	-125.045	0.353	-0.054
-442.822	-62.683	-0.211	-0.087
-441.807	327.057	0.108	-0.206
-440.792	121.508	0.137	-0.170
-439.778	47.454	0.126	-0.117
-438.763	-111.170	0.055	-0.011
-437.749	35.348	0.026	-0.023
-436.734	603.674	-0.026	0.065
-435.719	-147.809	0.048	0.004
-434.705	-25.584	-0.190	-0.112
-433.690	5.102	-0.222	-0.163
-432.676	6.043	-0.120	-0.088
-431.661	-172.138	0.182	-0.006
-430.646	-31.003	-0.150	-0.084
-429.632	31.226	0.031	-0.026
-428.617	-200.000	0.018	0.229
-427.603	185.527	-0.137	-0.202
-426.588	-12.707	-0.178	0.116
-425.573	800.000	-0.041	-0.128
-424.559	-122.462	0.107	-0.017
-423.544	102.477	0.326	0.380
-422.530	-1.621	0.085	-0.060
-421.515	-200.000	0.004	-0.299
-420.500	-120.364	-0.225	-0.038
-419.486	341.989	0.142	0.276
-418.471	-200.000	0.001	-0.033
-417.457	-200.000	-0.030	0.215
-416.442	-99.855	0.254	0.063
-415.428	396.644	0.160	-0.332
-414.413	-52.302	0.318	-0.146
-413.398	-200.000	0.022	-0.286
-412.384	499.532	-0.033	0.076
-411.369	-200.000	0.008	0.059
-410.355	-76.404	-0.068	0.024
-409.340	-112.615	0.182	0.036
-408.325	-200.000	-0.035	-0.309
-407.311	165.690	0.247	-0.348
-406.296	-200.000	-0.028	0.187
-405.282	800.000	0.031	-0.106
-404.267	-24.966	0.132	-0.078
-403.252	413.837	-0.052	-0.110
-402.238	-90.111	0.206	0.060
-401.223	143.233	-0.126	0.166
-400.209	375.727	0.051	0.104
-399.194	-49.965	-0.335	0.158
-398.179	28.523	0.065	-0.054
-397.165	-73.273	-0.094	-0.034
-396.150	279.320	0.213	0.378
-395.136	-22.082	0.287	-0.173
-394.121	-117.772	0.305	-0.054
-393.106	131.476	0.086	0.110
-392.092	34.643	-0.292	-0.254
-391.077	676.942	0.019	-0.050
-390.063	-200.000	0.014	0.242
-389.048	-200.000	0.078	-0.538
-388.033	-200.000	0.002	-0.104
-387.019	84.072	0.047	-0.051
-386.004	99.328	-0.164	0.189
-384.990	-101.420	0.182	-0.044
-383.975	-150.271	0.088	-0.007
-382.960	113.594	0.213	0.257
-381.946	800.000	-0.107	0.329
-380.931	-200.000	0.058	0.374
-379.917	-45.962	-0.210	0.103
-378.902	75.821	0.376	0.395
-377.888	80.003	0.146	-0.155
-376.873	45.211	-0.174	-0.159
-375.858	-113.697	0.380	0.074
-374.844	206.447	-0.125	0.194
-373.829	-200.000	0.028	0.395
-372.815	-60.184	0.108	-0.046
-371.800	112.760	-0.053	0.064
-370.785	-34.679	0.111	-0.060
-369.771	62.868	-0.255	0.253
-368.756	277.175	0.029	-0.051
-367.742	216.803	-0.076	-0.121
-366.727	584.738	-0.161	0.393
-365.712	-200.000	-0.014	-0.121
-364.698	-1.735	-0.193	0.135
-363.683	-41.487	-0.106	0.054
-362.669	800.000	-0.062	0.236
-361.654	-42.463	0.121	-0.061
-360.639	128.042	-0.045	0.057
-359.625	17.453	-0.117	0.092
-358.610	188.974	-0.064	0.095
-357.596	-93.566	0.697	0.191
-356.581	800.000	0.034	-0.134
-355.566	-200.000	0.022	0.101
-354.552	800.000	0.035	0.097
-353.537	-200.000	0.051	-0.395
-352.523	1.292	0.111	-0.079
-351.508	-84.189	-0.306	0.096
-350.493	-200.000	0.006	0.065
-349.479	800.000	-0.085	0.270
-348.464	-138.418	0.213	-0.023
-347.450	-130.433	-0.366	0.049
-346.435	396.100	0.035	0.073
-345.420	62.575	-0.227	-0.225
-344.406	800.000	0.034	-0.130
-343.391	252.119	-0.046	0.078
-342.377	800.000	0.092	0.316
-341.362	-200.000	-0.013	-0.159
-340.348	-181.807	-0.130	0.002
-339.333	32.364	0.147	0.126
-338.318	-23.986	-0.216	0.128
-337.304	-200.000	0.053	0.353
-336.289	383.880	0.031	0.064
-335.275	154.919	-0.057	0.078
-334.260	-153.100	-0.082	-0.006
-333.245	-54.151	0.140	-0.063
-332.231	-99.454	0.063	0.016
-331.216	-200.000	0.011	0.347
-330.202	800.000	-0.047	-0.185
-329.187	-46.248	-0.233	-0.113
-328.172	-81.929	-0.380	0.123
-327.158	123.596	0.120	-0.150
-326.143	-189.229	-0.122	0.001
-325.129	16.761	-0.189	-0.148
-324.114	-200.000	0.298	-0.001
-323.099	-25.577	0.060	-0.035
-322.085	-69.977	-0.239	0.090
-321.070	800.000	0.112	0.368
-320.056	25.029	-0.034	-0.028
-319.041	-32.743	-0.299	-0.165
-318.026	-158.879	-0.187	-0.011
-317.012	145.610	0.070	0.094
-315.997	-13.373	-0.344	-0.221
-314.983	104.363	0.148	-0.172
-313.968	-200.000	-0.004	-0.142
-312.953	-200.000	0.022	0.161
-311.939	108.607	0.040	-0.048
-310.924	-77.681	0.164	-0.056
-309.910	-119.136	-0.133	-0.023
-308.895	-157.099	-0.090	-0.005
-307.880	-55.293	-0.116	0.052
-306.866	-200.000	0.017	0.181
-305.851	31.022	-0.076	0.065
-304.837	-61.575	0.190	0.079
-303.822	800.000	0.052	-0.186
-302.807	10.399	-0.348	0.263
-301.793	800.000	-0.055	-0.185
-300.778	-172.213	0.151	-0.005
-299.764	535.709	-0.080	-0.189
-298.749	-200.000	-0.011	-0.166
-297.735	18.894	-0.240	0.190
-296.720	201.606	0.202	-0.309
-295.705	390.790	-0.069	-0.142
-294.691	800.000	-0.066	-0.192
-293.676	314.638	-0.097	-0.181
-292.662	31.524	0.370	-0.315
-291.647	39.039	0.056	-0.049
-290.632	-107.835	-0.290	0.063
-289.618	42.449	-0.249	0.224
-288.603	131.584	0.142	0.180
-287.589	800.000	0.053	-0.145
-286.574	-153.095	-0.445	0.031
-285.559	422.421	-0.128	0.273
-284.545	693.157	-0.142	-0.368
-283.530	81.903	-0.347	-0.372
-282.516	73.715	0.078	-0.081
-281.501	-18.916	0.241	0.148
-280.486	800.000	0.035	0.149
-279.472	178.066	0.028	-0.041
-278.457	-17.268	-0.177	0.110
-277.443	-97.741	-0.299	-0.077
-276.428	212.010	-0.173	0.270
-275.413	460.144	0.096	0.211
-274.399	-50.045	-0.187	-0.088
-273.384	47.444	-0.041	0.038
-272.370	310.440	0.051	-0.094
-271.355	-48.949	-0.210	0.099
-270.340	-117.781	-0.283	-0.050
-269.326	67.788	-0.098	0.099
-268.311	205.628	-0.161	-0.248
-267.297	-97.811	-0.348	0.089
-266.282	210.164	0.229	-0.355
-265.267	-149.070	0.178	-0.014
-264.253	-77.866	-0.288	-0.098
-263.238	-200.000	-0.002	-0.396
-262.224	800.000	0.040	-0.134
-261.209	153.125	0.144	0.194
-260.195	-62.690	-0.205	0.084
-259.180	-26.526	0.407	0.235
-258.165	314.658	-0.148	0.276
-257.151	-55.062	0.112	-0.050
-256.136	-200.000	0.023	0.248
-255.122	28.220	0.117	0.098
-254.107	800.000	0.035	0.135
-253.092	122.204	0.200	-0.247
-252.078	-156.751	0.164	-0.010
-251.063	9.882	0.091	-0.069
-250.049	-85.815	0.235	-0.072
-249.034	-102.731	0.435	-0.103
-248.019	3.993	0.141	0.102
-247.005	-24.639	0.113	-0.067
-245.990	131.359	0.148	0.188
-244.976	134.650	-0.075	0.096
-243.961	-37.686	0.039	-0.021
-242.946	-56.368	0.089	-0.039
-241.932	346.727	-0.114	0.222
-240.917	-115.853	-0.118	0.022
-239.903	-71.384	-0.160	-0.059
-238.888	-200.000	-0.057	-0.281
-237.873	-93.271	0.306	0.084
-236.859	-200.000	0.019	-0.143
-235.844	800.000	-0.053	0.191
-234.830	800.000	0.070	0.283
-233.815	-6.776	0.250	-0.168
-232.800	-200.000	-0.036	0.177
-231.786	-93.945	-0.090	-0.024
-230.771	-200.000	0.040	0.424
-229.757	-165.090	0.293	0.013
-228.742	458.543	0.050	-0.111
-227.727	-200.000	-0.028	-0.257
-226.713	800.000	-0.085	0.266
-225.698	209.207	-0.142	-0.219
-224.684	-200.000	-0.140	0.000
-223.669	108.768	-0.054	-0.064
-222.655	-157.367	0.086	0.005
-221.640	-178.924	-0.229	-0.005
-220.625	42.159	0.180	0.161
-219.611	800.000	0.035	-0.151
-218.596	450.877	-0.088	0.192
-217.582	53.742	0.188	0.178
-216.567	722.400	-0.094	-0.248
-215.552	800.000	0.050	0.167
-214.538	800.000	0.115	0.381
-213.523	-103.487	-0.182	-0.042
-212.509	-200.000	0.050	-0.456
-211.494	99.910	0.079	0.091
-210.479	-200.000	-0.053	0.326
-209.465	-106.649	0.359	-0.079
-208.450	800.000	0.115	-0.361
-207.436	-44.984	0.326	0.160
-206.421	-77.758	0.223	0.076
-205.406	363.913	0.121	0.241
-204.392	-200.000	0.020	0.266
-203.377	-157.252	0.376	-0.022
-202.363	-30.869	-0.030	-0.017
-201.348	-123.851	-0.313	0.049
-200.333	-148.764	0.575	-0.046
-199.319	-59.601	-0.134	0.057
-198.304	-200.000	0.005	0.194
-197.290	33.660	-0.198	-0.170
-196.275	11.736	-0.153	-0.116
-195.260	34.899	0.046	-0.040
-194.246	800.000	0.036	0.129
-193.231	-94.241	-0.251	-0.068
-192.217	98.781	-0.077	0.087
-191.202	130.696	-0.194	-0.245
-190.187	-56.102	-0.236	0.104
-189.173	800.000	-0.056	0.241
-188.158	44.174	0.061	-0.055
-187.144	21.430	0.197	-0.158
-186.129	215.918	0.179	0.281
-185.114	-140.125	0.160	0.017
-184.100	173.671	-0.195	-0.277
-183.085	-104.512	-0.213	-0.049
-182.071	28.185	-0.307	-0.256
-181.056	-104.327	-0.128	-0.029
-180.042	-16.974	-0.216	0.135
-179.027	-200.000	-0.037	0.353
-178.012	-182.763	0.227	-0.004
-176.998	-99.043	-0.201	0.050
-175.983	175.695	0.159	-0.227
-174.969	33.347	0.134	-0.114
-173.954	-200.000	0.016	-0.352
-172.939	195.838	0.066	-0.098
-171.925	-162.591	-0.239	-0.012
-170.910	-144.174	0.368	0.034
-169.896	-61.411	0.229	0.095
-168.881	-58.302	0.329	0.141
-167.866	-27.838	-0.135	0.077
-166.852	-123.433	-0.223	-0.035
-165.837	-135.999	-0.522	-0.060
-164.823	-111.266	-0.093	0.019
-163.808	-200.000	0.055	-0.338
-162.793	-11.297	-0.296	-0.192
-161.779	-117.726	0.441	-0.078
-160.764	-98.112	0.195	-0.049
-159.750	80.372	-0.065	0.068
-158.735	1.052	0.354	0.250
-157.720	183.407	-0.061	0.089
-156.706	172.554	-0.082	0.116
-155.691	-94.496	0.242	0.065
-154.677	-75.622	-0.138	0.048
-153.662	181.403	0.173	-0.250
-152.647	550.034	-0.075	-0.176
-151.633	-124.627	0.285	0.044
-150.618	-200.000	0.023	-0.099
-149.604	-115.822	0.173	-0.032
-148.589	26.809	-0.028	-0.023
-147.574	-169.291	0.063	-0.002
-146.560	159.751	-0.071	-0.098
-145.545	-200.000	-0.021	0.258
-144.531	-36.069	0.265	0.141
-143.516	-11.967	-0.203	-0.131
-142.502	601.429	-0.125	-0.306
-141.487	-200.000	0.047	-0.219
-140.472	-200.000	-0.015	-0.204
-139.458	800.000	-0.108	-0.298
-138.443	800.000	-0.022	0.093
-137.429	-33.231	-0.064	0.035
-136.414	799.891	0.029	0.079
-135.399	-36.447	-0.441	0.234
-134.385	-200.000	0.023	-0.154
-133.370	-122.527	-0.397	0.063
-132.356	-200.000	-0.022	-0.119
-131.341	-21.227	0.283	0.170
-130.326	130.962	0.083	-0.104
-129.312	800.000	0.058	-0.171
-128.297	-72.441	0.094	0.034
-127.283	-37.940	0.063	-0.033
-126.268	-126.634	0.148	-0.022
-125.253	40.399	0.073	0.065
-124.239	179.416	-0.050	-0.072
-123.224	800.000	0.087	0.330
-122.210	136.932	0.325	0.417
-121.195	86.333	-0.058	-0.063
