DTS Sentinel unit serial number:	SN413079Multiplexer serial number:	ORYXHardware model number:	OX4-SRSoftware version number:	ORYX F/W v4.00 Oryx Data Collector v3.7.2.0data status	okinstallation	princeton_trtdifferential loss correction	single-endedforward channel	channel 3reverse channel	N/Adate	2019/09/11time	01:06:11forward acquisition time	60.00reverse acquisition time	0.00gamma	496.2192k internal	0.2331k external	0.2331temperature offset calibration	0.9917default loss term (dB/km)	0.3790temperature slope calibration	1.0000multiplexer offset coefficient	1.0000multiplexer slope coefficient	1.0000fibre end	0.00T internal ref (°C)	29.12T ext. ref 1 (°C)	-0.30T ext. ref 2 (°C)	23.08length (m)	temperature (°C)	Stokes	anti-Stokes-747.200	355.312	-0.083	-0.166
-746.185	800.000	0.032	0.125
-745.171	660.462	0.163	0.422
-744.156	-200.000	0.078	0.394
-743.142	55.270	-0.079	0.077
-742.127	598.520	0.031	0.078
-741.112	63.572	0.211	0.213
-740.098	-50.363	-0.222	0.105
-739.083	-5.178	0.267	0.184
-738.069	-95.212	-0.051	-0.014
-737.054	77.355	-0.052	-0.056
-736.039	-151.145	-0.363	-0.027
-735.025	-113.217	0.504	-0.100
-734.010	-26.900	-0.196	-0.115
-732.996	41.506	0.049	0.045
-731.981	-1.760	0.217	0.153
-730.966	800.000	0.044	-0.128
-729.952	43.563	-0.229	-0.211
-728.937	-78.574	-0.132	-0.045
-727.923	-200.000	-0.027	-0.451
-726.908	209.548	0.114	-0.180
-725.894	-16.207	0.155	0.099
-724.879	34.081	0.224	0.196
-723.864	132.960	0.029	0.038
-722.850	-200.000	-0.073	0.494
-721.835	-200.000	-0.060	0.271
-720.821	-200.000	0.038	-0.180
-719.806	675.165	0.070	-0.182
-718.791	-200.000	-0.033	-0.422
-717.777	800.000	-0.065	-0.206
-716.762	-46.882	0.173	-0.085
-715.748	493.802	0.091	-0.210
-714.733	-78.793	0.267	0.092
-713.718	-200.000	0.000	-0.029
-712.704	142.352	-0.153	-0.205
-711.689	800.000	-0.019	0.077
-710.675	-85.976	0.243	-0.076
-709.660	394.339	0.105	0.220
-708.645	60.998	0.101	-0.101
-707.631	800.000	-0.081	-0.235
-706.616	-122.802	-0.484	0.079
-705.602	-6.212	0.211	-0.145
-704.587	535.235	-0.025	0.059
-703.572	318.391	0.121	0.231
-702.558	153.725	0.090	0.124
-701.543	-147.482	-0.251	-0.021
-700.529	-29.364	-0.197	0.113
-699.514	320.652	-0.131	0.250
-698.499	-105.402	0.154	0.035
-697.485	-148.864	0.214	0.017
-696.470	-88.803	-0.242	-0.072
-695.456	-18.942	0.146	-0.091
-694.441	-173.967	0.211	0.006
-693.426	143.469	-0.108	0.144
-692.412	-18.896	-0.236	0.147
-691.397	800.000	-0.082	-0.246
-690.383	-55.921	0.203	0.091
-689.368	-115.097	-0.230	0.044
-688.354	-200.000	-0.006	0.073
-687.339	-82.086	0.089	0.029
-686.324	2.896	-0.095	0.069
-685.310	-200.000	0.022	0.345
-684.295	381.846	-0.080	0.164
-683.281	-87.811	-0.251	-0.076
-682.266	-118.316	0.255	0.046
-681.251	-47.871	0.189	-0.092
-680.237	-200.000	-0.014	0.359
-679.222	-62.693	0.400	0.167
-678.208	-107.814	-0.211	0.046
-677.193	-150.901	-0.162	0.012
-676.178	800.000	0.063	0.203
-675.164	-90.551	-0.288	-0.084
-674.149	-94.494	0.441	0.121
-673.135	54.027	-0.275	-0.265
-672.120	-188.922	0.111	0.001
-671.105	24.209	-0.040	-0.033
-670.091	-200.000	0.009	-0.094
-669.076	29.165	-0.251	0.214
-668.062	-115.491	0.252	0.048
-667.047	800.000	-0.051	0.184
-666.032	-131.547	0.255	0.034
-665.018	518.629	0.090	0.212
-664.003	-88.282	-0.054	-0.016
-662.989	8.192	0.088	-0.066
-661.974	800.000	-0.048	0.160
-660.959	-52.299	-0.296	0.137
-659.945	8.063	-0.086	0.065
-658.930	-200.000	0.009	-0.234
-657.916	55.064	-0.150	0.145
-656.901	170.368	0.043	0.062
-655.886	-154.633	0.426	-0.028
-654.872	100.494	-0.081	0.095
-653.857	162.160	-0.199	-0.280
-652.843	-17.835	-0.612	-0.385
-651.828	-161.311	-0.334	-0.017
-650.814	35.029	0.066	0.058
-649.799	800.000	0.071	-0.245
-648.784	-90.228	-0.134	0.039
-647.770	-138.810	-0.198	-0.022
-646.755	9.117	0.072	-0.054
-645.741	-165.650	-0.246	0.011
-644.726	52.637	0.183	0.175
-643.711	397.849	0.024	0.050
-642.697	-83.419	0.161	-0.052
-641.682	-200.000	-0.002	-0.214
-640.668	-173.753	-0.214	0.006
-639.653	800.000	0.049	-0.166
-638.638	161.728	-0.207	-0.290
-637.624	-85.858	0.168	-0.052
-636.609	23.603	0.330	-0.273
-635.595	137.326	-0.097	0.127
-634.580	800.000	0.104	0.308
-633.565	-200.000	0.004	0.163
-632.551	800.000	0.015	0.046
-631.536	-131.750	0.271	0.036
-630.522	-147.301	0.077	-0.007
-629.507	800.000	0.071	0.217
-628.492	-84.681	0.111	0.035
-627.478	-76.162	-0.224	-0.079
-626.463	-200.000	-0.016	-0.181
-625.449	-80.274	-0.015	-0.005
-624.434	-98.366	-0.233	-0.060
-623.419	-155.886	0.346	-0.022
-622.405	154.744	-0.025	0.035
-621.390	288.039	0.087	-0.159
-620.376	-200.000	-0.343	0.000
-619.361	9.694	-0.046	0.035
-618.346	-52.750	-0.153	0.071
-617.332	68.288	-0.153	-0.157
-616.317	-174.301	-0.231	0.007
-615.303	-200.000	-0.069	0.412
-614.288	-200.000	-0.001	-0.069
-613.273	337.144	0.140	0.273
-612.259	160.283	0.117	-0.163
-611.244	-113.344	-0.049	-0.010
-610.230	500.114	-0.044	-0.102
-609.215	507.316	0.088	0.203
-608.201	60.284	-0.228	-0.226
-607.186	6.788	0.195	-0.145
-606.171	38.111	-0.385	-0.343
-605.157	-36.510	0.010	-0.005
-604.142	-200.000	-0.042	-0.218
-603.128	-142.761	-0.211	-0.021
-602.113	-200.000	-0.038	-0.178
-601.098	800.000	-0.097	-0.382
-600.084	-200.000	-0.025	-0.119
-599.069	103.436	-0.118	0.139
-598.055	24.957	-0.361	-0.299
-597.040	-99.792	0.079	-0.020
-596.025	-21.602	-0.354	0.216
-595.011	-55.541	-0.178	0.080
-593.996	0.660	-0.286	-0.205
-592.982	-200.000	-0.035	0.371
-591.967	-200.000	0.079	0.398
-590.952	6.400	-0.162	-0.120
-589.938	-200.000	-0.028	0.279
-588.923	-200.000	0.013	0.118
-587.909	-131.842	-0.082	0.011
-586.894	-200.000	0.005	-0.112
-585.879	800.000	0.055	-0.239
-584.865	-0.106	0.171	-0.122
-583.850	-100.002	0.472	-0.118
-582.836	459.868	-0.115	-0.255
-581.821	388.448	-0.075	-0.156
-580.806	71.564	0.136	0.141
-579.792	35.076	0.214	-0.188
-578.777	-149.525	0.309	0.024
-577.763	-85.637	0.214	0.066
-576.748	191.815	-0.078	0.118
-575.733	-46.240	-0.072	-0.035
-574.719	800.000	0.059	0.195
-573.704	100.084	-0.219	0.254
-572.690	-188.735	0.277	-0.003
-571.675	8.333	0.174	0.131
-570.661	-112.954	0.207	0.041
-569.646	28.171	-0.124	-0.105
-568.631	800.000	-0.052	0.190
-567.617	145.623	0.029	0.039
-566.602	-7.164	-0.196	0.133
-565.588	236.747	-0.096	-0.159
-564.573	800.000	-0.053	-0.168
-563.558	-55.670	-0.297	-0.133
-562.544	800.000	-0.034	0.116
-561.529	133.804	0.207	-0.268
-560.515	4.669	-0.161	-0.118
-559.500	-45.742	0.040	-0.020
-558.485	-200.000	-0.022	-0.167
-557.471	-131.227	-0.468	-0.062
-556.456	-200.000	-0.011	-0.363
-555.442	223.225	0.175	-0.283
-554.427	35.312	0.146	-0.128
-553.412	50.540	-0.078	-0.073
-552.398	-94.009	-0.139	0.038
-551.383	765.912	0.071	-0.193
-550.369	-55.618	-0.204	-0.091
-549.354	-200.000	-0.024	0.132
-548.339	30.415	-0.258	-0.221
-547.325	17.888	0.081	0.065
-546.310	9.859	-0.066	-0.050
-545.296	221.657	-0.122	0.196
-544.281	-112.000	-0.096	0.019
-543.266	-154.627	0.225	-0.015
-542.252	-85.345	0.176	0.055
-541.237	-74.151	-0.334	-0.121
-540.223	-80.021	-0.103	-0.034
-539.208	127.622	0.300	-0.381
-538.193	-200.000	-0.000	-0.060
-537.179	-85.576	0.190	0.059
-536.164	-200.000	-0.013	0.135
-535.150	-200.000	-0.015	-0.215
-534.135	-99.095	-0.147	0.037
-533.121	-110.021	0.249	0.052
-532.106	800.000	-0.084	-0.333
-531.091	113.152	-0.137	-0.166
-530.077	-88.852	0.239	-0.071
-529.062	-200.000	0.025	-0.112
-528.048	-200.000	0.002	-0.232
-527.033	-96.087	-0.091	0.024
-526.018	-200.000	0.011	-0.111
-525.004	5.833	-0.222	0.164
-523.989	-131.722	-0.108	0.014
-522.975	-200.000	0.058	0.309
-521.960	22.861	0.258	0.211
-520.945	-77.174	0.418	0.145
-519.931	91.843	-0.277	-0.311
-518.916	-200.000	0.024	-0.382
-517.902	-44.157	0.150	-0.075
-516.887	-8.769	-0.218	-0.146
-515.872	2.729	0.118	0.086
-514.858	-104.602	-0.088	-0.020
-513.843	288.637	-0.030	0.053
-512.829	-200.000	0.039	0.241
-511.814	98.362	-0.172	-0.197
-510.799	166.054	0.011	-0.015
-509.785	174.614	-0.090	0.130
-508.770	-92.828	0.416	-0.116
-507.756	275.547	-0.085	-0.150
-506.741	-7.248	0.130	-0.088
-505.726	-109.503	-0.163	-0.034
-504.712	-200.000	-0.015	0.105
-503.697	800.000	-0.066	-0.238
-502.683	800.000	0.023	0.098
-501.668	157.309	0.120	0.165
-500.653	-61.098	0.130	0.055
-499.639	-200.000	0.027	-0.444
-498.624	27.710	0.163	-0.137
-497.610	-0.288	-0.150	0.106
-496.595	686.681	0.049	-0.128
-495.581	800.000	-0.076	-0.259
-494.566	-160.524	-0.050	0.003
-493.551	-48.281	0.048	0.023
-492.537	-115.159	-0.203	0.038
-491.522	122.537	0.107	-0.133
-490.508	-147.682	-0.174	-0.015
-489.493	252.986	0.152	0.258
-488.478	-81.620	0.342	0.112
-487.464	-46.007	0.235	-0.116
-486.449	-5.532	-0.107	0.073
-485.435	167.852	0.154	-0.218
-484.420	17.698	0.178	0.141
-483.405	47.767	-0.187	0.174
-482.391	92.666	-0.160	-0.180
-481.376	-117.212	0.034	0.006
-480.362	26.959	0.042	0.035
-479.347	-0.036	-0.047	0.033
-478.332	-185.176	0.173	0.003
-477.318	800.000	0.034	0.107
-476.303	-122.525	-0.151	0.024
-475.289	250.915	-0.148	0.251
-474.274	800.000	0.045	-0.152
-473.259	42.922	-0.203	-0.184
-472.245	-72.179	-0.484	-0.179
-471.230	-200.000	0.067	-0.302
-470.216	218.395	-0.157	0.249
-469.201	800.000	-0.148	0.516
-468.186	182.204	-0.129	0.189
-467.172	-121.573	0.271	0.045
-466.157	0.850	-0.047	0.034
-465.143	800.000	-0.132	0.405
-464.128	789.550	-0.049	0.133
-463.113	-81.909	-0.241	-0.079
-462.099	-110.052	-0.298	0.062
-461.084	100.283	0.136	-0.157
-460.070	159.662	-0.090	0.124
-459.055	298.112	-0.106	-0.194
-458.040	-142.164	-0.230	0.023
-457.026	-77.596	0.265	-0.091
-456.011	-47.359	0.251	-0.122
-454.997	-56.671	-0.079	0.035
-453.982	-169.418	0.289	0.011
-452.968	41.334	0.133	0.120
-451.953	800.000	-0.138	0.398
-450.938	-200.000	-0.006	0.144
-449.924	-200.000	0.004	-0.182
-448.909	800.000	-0.061	0.210
-447.895	-136.514	-0.230	-0.027
-446.880	-41.912	-0.180	0.092
-445.865	-139.698	-0.324	-0.034
-444.851	-200.000	0.019	-0.436
-443.836	-200.000	0.053	-0.301
-442.822	-97.667	-0.181	0.047
-441.807	314.415	-0.038	0.071
-440.792	800.000	0.037	-0.148
-439.778	-200.000	0.028	-0.134
-438.763	800.000	0.067	-0.214
-437.749	44.511	0.222	0.203
-436.734	4.194	0.134	-0.098
-435.719	95.042	0.267	0.302
-434.705	-88.932	-0.171	-0.050
-433.690	-142.664	0.172	-0.017
-432.676	800.000	-0.092	0.287
-431.661	69.982	0.085	0.088
-430.646	-62.853	0.141	-0.058
-429.632	8.487	-0.321	-0.240
-428.617	800.000	0.070	0.297
-427.603	-159.160	0.339	0.019
-426.588	504.421	0.082	-0.189
-425.573	-200.000	0.017	-0.169
-424.559	-1.557	-0.147	-0.103
-423.544	182.320	0.173	-0.253
-422.530	197.558	-0.132	-0.200
-421.515	-68.831	-0.293	0.112
-420.500	26.144	-0.139	0.116
-419.486	-200.000	-0.021	-0.133
-418.471	-41.632	0.261	-0.133
-417.457	-98.005	0.204	-0.052
-416.442	102.701	0.172	0.200
-415.428	800.000	-0.044	0.192
-414.413	-200.000	0.002	0.092
-413.398	511.068	-0.103	0.238
-412.384	-200.000	0.009	-0.067
-411.369	155.282	-0.141	-0.192
-410.355	56.595	-0.244	0.236
-409.340	-21.657	0.348	0.210
-408.325	144.367	0.095	-0.126
-407.311	-27.623	0.102	0.059
-406.296	-200.000	-0.053	0.237
-405.282	208.687	-0.137	0.214
-404.267	-200.000	0.009	-0.135
-403.252	501.001	0.054	-0.123
-402.238	89.102	-0.155	-0.171
-401.223	-134.555	0.290	0.035
-400.209	-79.523	-0.235	0.079
-399.194	800.000	0.114	0.425
-398.179	800.000	-0.010	-0.043
-397.165	206.136	0.131	-0.203
-396.150	251.307	-0.077	0.131
-395.136	-19.508	-0.458	0.282
-394.121	-170.708	0.285	-0.010
-393.106	-200.000	-0.025	-0.138
-392.092	-200.000	0.033	0.241
-391.077	800.000	-0.068	-0.245
-390.063	194.843	-0.156	0.236
-389.048	-76.600	-0.097	0.034
-388.033	4.517	0.114	-0.083
-387.019	-158.257	-0.149	0.009
-386.004	358.556	-0.073	-0.144
-384.990	-112.826	0.234	0.046
-383.975	217.011	-0.148	-0.235
-382.960	800.000	-0.071	-0.275
-381.946	-200.000	-0.034	0.203
-380.931	-41.959	0.114	-0.058
-379.917	197.538	-0.251	0.380
-378.902	-200.000	0.009	-0.171
-377.888	800.000	0.055	0.186
-376.873	800.000	-0.054	0.224
-375.858	-91.958	0.371	-0.104
-374.844	-128.520	-0.366	0.051
-373.829	-28.745	0.362	0.206
-372.815	34.936	0.119	0.104
-371.800	-11.556	-0.042	0.027
-370.785	-11.736	0.253	0.164
-369.771	-200.000	0.018	0.291
-368.756	-56.250	-0.138	-0.061
-367.742	-67.886	-0.439	-0.170
-366.727	69.857	0.195	-0.199
-365.712	-82.546	0.194	-0.062
-364.698	-1.997	-0.164	0.114
-363.683	-32.558	-0.118	-0.065
-362.669	-200.000	-0.027	-0.288
-361.654	37.175	-0.091	0.080
-360.639	539.182	0.152	0.358
-359.625	567.905	0.124	-0.298
-358.610	235.536	0.072	-0.118
-357.596	-200.000	0.031	-0.222
-356.581	-116.143	-0.221	-0.041
-355.566	-200.000	-0.021	0.405
-354.552	7.704	0.133	0.099
-353.537	800.000	0.074	-0.282
-352.523	-200.000	0.024	0.105
-351.508	-3.541	-0.209	0.144
-350.493	-121.004	-0.244	-0.041
-349.479	-92.426	0.253	0.071
-348.464	169.911	0.216	0.306
-347.450	107.260	0.103	-0.122
-346.435	32.658	0.165	-0.141
-345.420	119.083	-0.257	-0.314
-344.406	800.000	0.104	-0.369
-343.391	-43.665	-0.202	-0.101
-342.377	140.343	0.215	0.281
-341.362	128.376	0.266	0.335
-340.348	-113.102	0.499	-0.098
-339.333	-200.000	0.003	0.074
-338.318	-77.502	-0.156	0.054
-337.304	149.754	-0.173	0.232
-336.289	87.446	0.302	0.331
-335.275	216.546	0.095	-0.150
-334.260	133.511	0.067	-0.086
-333.245	164.559	0.314	0.439
-332.231	-0.369	0.189	-0.133
-331.216	127.098	0.145	-0.182
-330.202	220.083	-0.225	0.357
-329.187	800.000	0.094	-0.318
-328.172	-22.395	0.031	0.019
-327.158	-86.571	0.303	0.092
-326.143	54.013	-0.193	0.184
-325.129	-155.731	-0.145	-0.009
-324.114	-87.900	-0.141	0.042
-323.099	-41.047	-0.095	-0.048
-322.085	73.445	0.203	-0.211
-321.070	-11.441	-0.072	0.047
-320.056	168.888	0.196	0.276
-319.041	-200.000	-0.023	0.180
-318.026	-200.000	0.035	0.253
-317.012	-114.962	0.081	-0.015
-315.997	-173.349	-0.256	-0.008
-314.983	151.629	0.170	0.229
-313.968	-51.532	0.237	0.109
-312.953	-173.129	0.341	-0.010
-311.939	226.207	-0.029	0.046
-310.924	214.805	-0.089	-0.140
-309.910	-164.013	0.107	0.005
-308.895	-166.143	-0.296	-0.012
-307.880	-200.000	-0.039	0.343
-306.866	163.360	0.190	0.265
-305.851	-64.800	-0.097	0.039
-304.837	-147.498	0.188	0.016
-303.822	-95.239	0.372	0.099
-302.807	103.784	0.196	0.228
-301.793	-94.329	-0.288	-0.078
-300.778	72.437	-0.090	0.092
-299.764	-200.000	0.011	-0.166
-298.749	800.000	-0.040	0.114
-297.735	800.000	-0.052	-0.149
-296.720	-9.912	-0.235	-0.154
-295.705	197.982	0.081	0.123
-294.691	42.586	-0.086	-0.078
-293.676	-114.137	-0.224	0.043
-292.662	581.306	-0.067	0.162
-291.647	-42.965	-0.056	0.028
-290.632	-108.647	-0.323	-0.069
-289.618	331.391	-0.050	0.095
-288.603	-93.112	0.256	-0.070
-287.589	-200.000	-0.007	0.299
-286.574	-27.688	0.286	0.164
-285.559	-61.381	0.202	-0.084
-284.545	-200.000	-0.043	0.227
-283.530	-200.000	-0.035	0.207
-282.516	73.519	0.268	-0.278
-281.501	-38.672	0.334	0.174
-280.486	-68.263	0.215	-0.083
-279.472	68.982	0.084	-0.086
-278.457	351.239	0.072	0.141
-277.443	267.925	-0.035	0.061
-276.428	-200.000	0.030	-0.243
-275.413	-19.233	0.039	0.024
-274.399	-169.283	0.419	-0.015
-273.384	800.000	0.091	0.256
-272.370	-79.905	-0.197	0.065
-271.355	51.077	0.081	-0.075
-270.340	5.665	0.144	0.105
-269.326	617.782	-0.097	-0.240
-268.311	-76.459	0.071	-0.025
-267.297	-200.000	0.002	0.142
-266.282	185.737	-0.197	0.290
-265.267	-49.652	0.543	0.255
-264.253	-200.000	0.016	0.108
-263.238	-174.469	0.167	-0.005
-262.224	-21.452	-0.170	-0.103
-261.209	91.557	0.279	0.310
-260.195	-155.836	-0.188	-0.012
-259.180	800.000	0.088	-0.316
-258.165	44.374	0.160	-0.145
-257.151	42.894	-0.202	-0.181
-256.136	800.000	-0.081	-0.249
-255.122	196.314	-0.056	-0.084
-254.107	199.952	-0.086	-0.130
-253.092	800.000	0.037	-0.109
-252.078	800.000	0.021	-0.076
-251.063	-200.000	0.008	-0.114
-250.049	-16.264	-0.348	-0.218
-249.034	-96.168	0.042	-0.011
-248.019	-1.640	0.167	-0.116
-247.005	800.000	0.086	-0.288
-245.990	524.259	0.106	-0.245
-244.976	-200.000	-0.060	-0.263
-243.961	189.450	0.057	0.085
-242.946	-200.000	-0.039	0.303
-241.932	-200.000	-0.009	0.318
-240.917	-99.283	0.142	-0.035
-239.903	30.728	-0.225	0.190
-238.888	-155.435	-0.286	-0.018
-237.873	-200.000	0.013	-0.198
-236.859	-200.000	0.035	-0.217
-235.844	25.037	0.171	-0.140
-234.830	-21.845	0.238	0.143
-233.815	-200.000	-0.028	0.167
-232.800	-74.630	0.329	0.117
-231.786	-191.896	0.122	-0.001
-230.771	79.065	-0.174	0.184
-229.757	86.992	0.030	0.033
-228.742	800.000	-0.068	-0.195
-227.727	-115.230	0.205	0.038
-226.713	800.000	-0.150	0.414
-225.698	-200.000	0.011	0.177
-224.684	48.309	-0.080	0.074
-223.669	-7.785	-0.100	0.066
-222.655	-156.791	0.281	0.017
-221.640	2.071	0.161	-0.114
-220.625	204.003	-0.308	-0.470
-219.611	90.622	-0.334	0.369
-218.596	-19.292	-0.349	0.213
-217.582	-172.855	-0.276	0.008
-216.567	-200.000	-0.027	0.175
-215.552	14.103	0.112	-0.086
-214.538	269.781	-0.116	0.202
-213.523	62.607	0.088	-0.087
-212.509	44.931	0.153	-0.139
-211.494	-200.000	-0.002	0.124
-210.479	448.355	-0.012	0.025
-209.465	225.795	0.094	0.151
-208.450	-200.000	-0.005	-0.153
-207.436	538.511	-0.103	0.241
-206.421	-105.789	0.240	0.053
-205.406	-38.488	0.268	-0.140
-204.392	-91.311	0.343	-0.097
-203.377	220.436	-0.084	0.132
-202.363	58.454	-0.146	0.141
-201.348	674.012	-0.062	0.160
-200.333	-200.000	0.056	0.255
-199.319	-53.825	0.174	-0.078
-198.304	593.866	0.086	0.210
-197.290	446.104	-0.086	-0.185
-196.275	-58.687	-0.157	0.067
-195.260	-116.005	0.133	-0.024
-194.246	372.541	-0.055	0.109
-193.231	136.165	-0.110	0.141
-192.217	51.451	-0.131	-0.123
-191.202	-114.907	-0.305	0.057
-190.187	-7.280	-0.159	0.106
-189.173	-61.538	-0.257	0.106
-188.158	-46.858	-0.204	-0.098
-187.144	-80.858	-0.151	0.049
-186.129	-38.869	0.326	0.169
-185.114	-83.636	0.363	0.114
-184.100	-200.000	0.022	-0.162
-183.085	-200.000	0.040	-0.360
-182.071	-82.896	-0.219	-0.070
-181.056	179.432	-0.069	-0.100
-180.042	383.265	0.219	-0.443
-179.027	-36.787	0.091	-0.048
-178.012	169.428	-0.105	0.147
-176.998	800.000	-0.108	0.309
-175.983	4.243	-0.387	0.279
-174.969	-116.107	-0.171	0.031
-173.954	142.142	0.130	-0.170
-172.939	800.000	0.024	-0.098
-171.925	-200.000	-0.006	-0.246
-170.910	-52.889	0.071	-0.032
-169.896	3.786	-0.112	-0.080
-168.881	-200.000	-0.002	0.115
-167.866	-51.721	-0.296	0.136
-166.852	64.255	-0.179	-0.177
-165.837	-173.473	-0.180	-0.005
-164.823	-175.562	0.134	0.004
-163.808	800.000	0.060	-0.219
-162.793	-200.000	0.065	-0.333
-161.779	105.397	0.255	-0.296
-160.764	-177.781	0.075	-0.002
-159.750	22.595	-0.104	-0.084
-158.735	441.640	-0.139	-0.300
-157.720	800.000	0.012	-0.050
-156.706	491.663	-0.063	-0.142
-155.691	39.139	0.154	0.136
-154.677	800.000	0.061	0.173
-153.662	-70.000	-0.132	0.050
-152.647	-42.130	0.111	0.056
-151.633	108.915	-0.219	0.257
-150.618	-200.000	0.029	-0.193
-149.604	95.364	-0.112	-0.125
-148.589	-17.448	0.331	-0.204
-147.574	-130.086	0.059	0.008
-146.560	-200.000	0.047	0.324
-145.545	182.204	0.116	0.168
-144.531	-165.718	0.405	0.017
-143.516	-70.476	0.386	0.144
-142.502	32.400	-0.104	0.089
-141.487	-200.000	-0.023	-0.539
-140.472	347.729	0.135	-0.261
-139.458	101.876	-0.178	-0.204
-138.443	-55.853	0.179	0.079
-137.429	-89.257	0.179	0.052
-136.414	422.835	-0.097	0.205
-135.399	-200.000	-0.025	0.171
-134.385	-135.341	0.337	-0.040
-133.370	115.421	0.066	-0.079
-132.356	-200.000	0.032	0.327
-131.341	-51.302	0.026	-0.012
-130.326	-200.000	0.022	0.127
-129.312	800.000	-0.028	-0.115
-128.297	-200.000	-0.013	0.209
-127.283	-108.486	-0.290	-0.061
-126.268	240.876	-0.124	-0.203
-125.253	-69.735	0.192	0.072
-124.239	364.320	0.183	-0.362
-123.224	686.704	0.108	-0.277
-122.210	35.038	-0.182	-0.156
-121.195	90.560	-0.146	0.161
-120.180	45.486	0.162	0.147
