DTS Sentinel unit serial number:	SN413079Multiplexer serial number:	ORYXHardware model number:	OX4-SRSoftware version number:	ORYX F/W v4.00 Oryx Data Collector v3.7.2.0data status	okinstallation	princeton_trtdifferential loss correction	single-endedforward channel	channel 3reverse channel	N/Adate	2019/09/11time	03:38:10forward acquisition time	60.00reverse acquisition time	0.00gamma	496.2192k internal	0.2330k external	0.2330temperature offset calibration	0.9913default loss term (dB/km)	0.3790temperature slope calibration	1.0000multiplexer offset coefficient	1.0000multiplexer slope coefficient	1.0000fibre end	0.00T internal ref (°C)	29.50T ext. ref 1 (°C)	-0.28T ext. ref 2 (°C)	23.91length (m)	temperature (°C)	Stokes	anti-Stokes-747.200	187.305	0.113	-0.170
-746.185	-152.792	-0.187	0.013
-745.171	-90.917	0.138	0.040
-744.156	-200.000	-0.006	0.087
-743.142	-200.000	-0.007	0.100
-742.127	-19.491	-0.180	0.112
-741.112	-133.793	-0.044	-0.006
-740.098	32.508	-0.128	0.111
-739.083	800.000	0.069	0.301
-738.069	-200.000	0.013	0.146
-737.054	800.000	-0.056	0.182
-736.039	-104.448	-0.212	0.049
-735.025	-28.408	0.544	0.316
-734.010	-195.543	-0.107	0.001
-732.996	41.486	0.168	-0.153
-731.981	4.158	0.065	0.048
-730.966	-79.637	-0.302	-0.103
-729.952	-8.454	0.074	0.050
-728.937	25.508	0.337	0.282
-727.923	-121.300	-0.307	-0.052
-726.908	-57.304	0.072	0.032
-725.894	-88.091	0.251	0.076
-724.879	251.927	-0.076	-0.129
-723.864	141.433	-0.232	-0.308
-722.850	-171.957	-0.055	-0.002
-721.835	-200.000	0.010	0.054
-720.821	11.051	0.077	0.059
-719.806	27.461	-0.232	-0.196
-718.791	-135.305	-0.244	-0.029
-717.777	-52.098	-0.160	-0.075
-716.762	189.472	0.107	0.161
-715.748	-200.000	0.025	-0.244
-714.733	-173.776	0.065	-0.002
-713.718	-79.900	0.148	-0.050
-712.704	163.087	0.139	-0.197
-711.689	800.000	0.014	0.049
-710.675	800.000	0.072	-0.283
-709.660	-116.149	0.237	-0.044
-708.645	-200.000	0.043	-0.271
-707.631	-200.000	0.022	0.339
-706.616	-40.598	-0.103	0.054
-705.602	-13.532	-0.263	0.171
-704.587	-200.000	0.013	0.192
-703.572	800.000	0.096	-0.313
-702.558	-151.884	0.094	0.007
-701.543	20.909	0.145	-0.118
-700.529	493.437	-0.093	-0.215
-699.514	14.559	0.122	-0.095
-698.499	800.000	0.055	0.172
-697.485	800.000	-0.031	0.096
-696.470	-200.000	-0.006	-0.235
-695.456	-13.299	-0.238	0.155
-694.441	800.000	0.140	-0.562
-693.426	-166.744	0.222	0.009
-692.412	-200.000	0.005	-0.319
-691.397	231.000	0.154	0.253
-690.383	-119.375	0.255	0.045
-689.368	18.782	-0.107	0.086
-688.354	-55.146	-0.192	-0.087
-687.339	800.000	-0.008	-0.025
-686.324	-103.148	-0.341	-0.081
-685.310	-200.000	0.003	-0.059
-684.295	288.340	-0.081	-0.147
-683.281	800.000	-0.044	-0.155
-682.266	-30.408	-0.446	0.254
-681.251	-145.727	-0.153	-0.014
-680.237	55.716	0.245	0.239
-679.222	-107.797	-0.223	0.049
-678.208	-200.000	-0.049	-0.298
-677.193	215.890	-0.079	0.126
-676.178	-64.180	0.134	-0.055
-675.164	-69.187	-0.060	-0.023
-674.149	123.995	-0.259	0.326
-673.135	368.121	-0.045	0.091
-672.120	67.429	0.274	0.281
-671.105	-148.499	0.331	0.027
-670.091	-110.032	-0.195	0.041
-669.076	-200.000	-0.006	0.107
-668.062	800.000	0.148	0.462
-667.047	-17.716	0.211	-0.133
-666.032	-122.545	-0.169	0.028
-665.018	-188.236	-0.136	-0.002
-664.003	300.631	0.045	-0.084
-662.989	-168.609	-0.056	0.002
-661.974	-122.756	-0.155	-0.025
-660.959	-32.904	-0.256	-0.142
-659.945	616.756	-0.047	0.119
-658.930	115.417	-0.195	0.239
-657.916	51.620	0.175	0.167
-656.901	-17.721	0.171	0.108
-655.886	-200.000	-0.006	-0.246
-654.872	129.292	0.191	0.244
-653.857	376.134	0.178	0.364
-652.843	800.000	-0.046	-0.135
-651.828	63.587	0.355	0.357
-650.814	218.216	-0.077	0.123
-649.799	-107.609	-0.166	0.036
-648.784	50.313	-0.031	-0.030
-647.770	800.000	0.093	0.353
-646.755	800.000	0.092	0.319
-645.741	54.547	-0.246	-0.238
-644.726	-120.792	0.391	-0.066
-643.711	-9.674	0.226	-0.151
-642.697	-37.699	-0.156	-0.083
-641.682	-125.460	-0.140	-0.021
-640.668	-94.089	-0.184	-0.051
-639.653	-111.794	-0.170	0.035
-638.638	354.684	0.058	-0.116
-637.624	375.462	0.105	0.215
-636.609	-8.443	-0.181	0.122
-635.595	74.705	0.186	-0.197
-634.580	800.000	0.086	0.254
-633.565	800.000	-0.023	0.082
-632.551	-200.000	-0.110	-0.589
-631.536	-0.360	0.033	-0.023
-630.522	601.346	0.130	-0.324
-629.507	351.366	0.142	-0.281
-628.492	-173.431	0.383	0.012
-627.478	-87.206	0.073	0.022
-626.463	-169.521	-0.206	-0.008
-625.449	-10.132	-0.254	-0.169
-624.434	-81.335	-0.464	0.153
-623.419	198.886	-0.072	0.111
-622.405	309.905	0.060	0.113
-621.390	61.716	-0.264	-0.264
-620.376	-146.807	-0.245	-0.021
-619.361	292.744	-0.082	0.149
-618.346	800.000	0.050	0.139
-617.332	66.407	0.098	-0.100
-616.317	113.103	-0.093	-0.113
-615.303	-113.710	-0.250	0.049
-614.288	-74.923	0.161	0.058
-613.273	-89.104	-0.178	-0.053
-612.259	-200.000	0.014	0.261
-611.244	69.974	-0.243	-0.251
-610.230	-17.161	0.162	-0.103
-609.215	-0.498	-0.253	0.180
-608.201	67.338	-0.237	0.242
-607.186	128.775	0.106	0.135
-606.171	-114.880	0.321	0.061
-605.157	-200.000	-0.007	0.167
-604.142	-17.401	-0.256	0.161
-603.128	721.804	0.091	-0.242
-602.113	-200.000	0.020	-0.216
-601.098	-187.907	-0.093	-0.001
-600.084	208.685	0.130	0.204
-599.069	-200.000	-0.010	0.058
-598.055	-23.823	-0.086	0.052
-597.040	-129.631	-0.136	0.019
-596.025	-61.513	-0.190	-0.080
-595.011	56.747	-0.113	-0.110
-593.996	334.855	0.095	0.184
-592.982	-200.000	0.031	-0.139
-591.967	119.867	0.151	-0.187
-590.952	276.480	0.045	0.079
-589.938	-200.000	-0.004	0.063
-588.923	190.660	0.064	-0.096
-587.909	-22.687	-0.156	-0.095
-586.894	18.659	0.232	-0.186
-585.879	-57.368	-0.070	0.031
-584.865	-200.000	0.049	-0.252
-583.850	-200.000	-0.030	0.134
-582.836	45.932	-0.147	0.136
-581.821	19.921	0.280	-0.226
-580.806	-17.623	0.092	0.058
-579.792	-7.437	-0.247	-0.167
-578.777	135.904	-0.171	-0.222
-577.763	9.974	0.337	0.256
-576.748	72.799	-0.250	-0.261
-575.733	800.000	0.100	-0.299
-574.719	-70.269	-0.167	-0.063
-573.704	143.331	0.175	0.233
-572.690	-99.094	0.461	0.117
-571.675	-92.355	0.450	-0.127
-570.661	-200.000	-0.025	0.128
-569.646	-200.000	-0.001	-0.140
-568.631	-200.000	-0.042	-0.475
-567.617	15.554	0.090	-0.071
-566.602	-200.000	-0.049	0.331
-565.588	-86.053	0.178	-0.055
-564.573	-200.000	0.024	0.183
-563.558	-105.016	0.154	-0.035
-562.544	-200.000	0.069	0.425
-561.529	-200.000	0.034	-0.244
-560.515	76.483	-0.089	-0.094
-559.500	-87.825	0.274	-0.082
-558.485	-200.000	-0.054	-0.340
-557.471	-90.861	0.084	-0.024
-556.456	-60.424	0.053	0.023
-555.442	184.234	-0.036	-0.053
-554.427	237.359	0.203	-0.336
-553.412	-81.984	-0.283	-0.092
-552.398	-200.000	0.014	-0.387
-551.383	75.270	-0.372	-0.392
-550.369	800.000	-0.088	0.377
-549.354	-67.199	-0.234	0.092
-548.339	52.818	0.071	0.068
-547.325	800.000	0.068	-0.216
-546.310	-41.333	0.162	-0.083
-545.296	356.391	-0.121	0.241
-544.281	-42.966	0.273	0.138
-543.266	215.543	-0.195	-0.308
-542.252	27.901	0.365	-0.307
-541.237	-200.000	-0.028	-0.312
-540.223	-42.924	0.215	0.109
-539.208	455.320	-0.115	0.254
-538.193	-200.000	-0.025	0.356
-537.179	-107.686	-0.412	0.090
-536.164	-127.579	-0.175	-0.025
-535.150	-99.739	0.422	0.106
-534.135	-78.089	-0.271	-0.093
-533.121	120.051	-0.092	0.114
-532.106	490.770	-0.055	0.127
-531.091	351.025	-0.029	-0.058
-530.077	768.928	-0.083	-0.226
-529.062	-200.000	0.020	0.146
-528.048	-82.315	-0.215	-0.070
-527.033	-113.422	-0.134	-0.026
-526.018	-45.481	-0.101	-0.050
-525.004	-200.000	0.015	0.170
-523.989	-47.186	0.241	-0.117
-522.975	137.499	-0.184	-0.240
-521.960	-83.210	-0.056	-0.018
-520.945	-110.429	0.207	-0.043
-519.931	-32.471	0.322	0.179
-518.916	-200.000	0.022	-0.114
-517.902	389.884	0.209	-0.432
-516.887	-189.376	-0.105	0.001
-515.872	-113.704	0.274	0.053
-514.858	-3.789	0.278	-0.192
-513.843	-2.598	-0.128	-0.089
-512.829	800.000	-0.016	0.046
-511.814	-90.214	0.240	-0.070
-510.799	247.459	-0.046	0.077
-509.785	-113.870	-0.091	-0.018
-508.770	-72.119	0.461	0.171
-507.756	12.428	-0.105	-0.081
-506.741	-86.920	0.087	-0.026
-505.726	-148.534	-0.211	-0.017
-504.712	-200.000	0.030	-0.248
-503.697	-46.770	-0.338	-0.165
-502.683	800.000	0.014	-0.061
-501.668	-58.214	-0.262	0.114
-500.653	18.781	0.098	-0.078
-499.639	549.598	0.053	0.127
-498.624	-20.664	0.320	0.196
-497.610	-94.016	-0.337	0.092
-496.595	800.000	-0.072	0.210
-495.581	145.557	0.221	-0.295
-494.566	-101.728	0.195	0.047
-493.551	-200.000	-0.029	0.508
-492.537	699.229	0.083	-0.217
-491.522	-35.206	-0.347	-0.188
-490.508	-124.268	-0.155	0.024
-489.493	-200.000	0.017	-0.595
-488.478	-200.000	0.031	-0.154
-487.464	-81.361	0.140	-0.046
-486.449	800.000	0.019	0.062
-485.435	38.912	0.079	0.070
-484.420	-200.000	-0.008	-0.337
-483.405	25.177	-0.107	0.089
-482.391	-55.213	0.069	0.031
-481.376	-200.000	0.012	0.165
-480.362	800.000	0.027	0.110
-479.347	-189.631	-0.468	-0.005
-478.332	800.000	-0.101	-0.324
-477.318	303.139	-0.079	0.146
-476.303	-139.822	-0.324	-0.034
-475.289	127.833	0.094	-0.119
-474.274	-17.858	0.114	0.071
-473.259	-2.703	0.064	0.044
-472.245	-7.250	0.101	0.068
-471.230	-200.000	-0.049	-0.258
-470.216	109.618	-0.145	-0.173
-469.201	-200.000	0.016	-0.203
-468.186	176.124	0.154	0.223
-467.172	483.535	0.052	0.117
-466.157	-184.444	-0.308	-0.005
-465.143	-200.000	0.037	0.306
-464.128	-33.990	0.185	-0.101
-463.113	-200.000	-0.079	0.383
-462.099	-114.065	-0.001	0.000
-461.084	-85.005	0.226	0.070
-460.070	718.891	0.046	0.122
-459.055	253.989	0.001	0.002
-458.040	-106.224	-0.391	-0.087
-457.026	261.078	-0.029	-0.050
-456.011	-82.765	0.039	-0.013
-454.997	101.933	0.119	0.138
-453.982	-0.827	-0.237	-0.167
-452.968	223.843	-0.114	-0.183
-451.953	630.367	-0.053	0.132
-450.938	149.909	0.342	-0.461
-449.924	44.506	0.055	-0.050
-448.909	-143.270	0.252	-0.024
-447.895	-86.046	-0.160	-0.049
-446.880	-200.000	-0.016	0.201
-445.865	800.000	0.078	0.222
-444.851	-15.464	-0.146	-0.093
-443.836	-31.618	0.157	-0.088
-442.822	217.173	0.116	0.183
-441.807	-200.000	0.010	0.168
-440.792	-200.000	-0.012	-0.159
-439.778	-200.000	-0.005	0.571
-438.763	-200.000	0.032	0.346
-437.749	-80.199	-0.247	-0.082
-436.734	-200.000	0.005	0.178
-435.719	168.536	0.123	0.175
-434.705	-200.000	-0.011	0.427
-433.690	-200.000	0.020	-0.452
-432.676	599.140	-0.036	-0.090
-431.661	-111.138	0.113	-0.023
-430.646	32.539	0.306	-0.263
-429.632	152.227	-0.083	0.113
-428.617	-68.835	0.187	-0.072
-427.603	147.519	0.191	0.256
-426.588	41.859	0.180	0.162
-425.573	34.076	0.175	0.152
-424.559	526.360	-0.206	0.482
-423.544	800.000	-0.018	0.078
-422.530	-30.901	0.051	0.029
-421.515	557.796	-0.050	0.120
-420.500	-200.000	0.013	-0.116
-419.486	-135.627	-0.099	-0.012
-418.471	-200.000	-0.043	0.371
-417.457	-200.000	0.003	-0.057
-416.442	-141.400	-0.166	0.017
-415.428	-200.000	-0.007	-0.037
-414.413	131.773	-0.109	0.139
-413.398	-164.320	-0.256	-0.012
-412.384	98.870	-0.097	-0.112
-411.369	21.974	-0.099	0.080
-410.355	800.000	-0.053	-0.194
-409.340	118.877	0.218	-0.267
-408.325	7.544	0.103	-0.077
-407.311	-200.000	-0.017	0.101
-406.296	279.666	-0.166	-0.295
-405.282	427.146	-0.051	0.108
-404.267	27.086	0.217	-0.181
-403.252	-200.000	-0.012	0.097
-402.238	-200.000	0.029	0.214
-401.223	-200.000	0.034	-0.167
-400.209	800.000	-0.025	0.102
-399.194	-200.000	-0.037	0.166
-398.179	137.878	-0.133	0.173
-397.165	-156.286	0.265	0.017
-396.150	-200.000	-0.044	0.258
-395.136	-85.291	0.213	-0.066
-394.121	332.034	0.049	0.094
-393.106	95.837	0.081	0.092
-392.092	-200.000	0.007	0.145
-391.077	-79.220	0.519	0.175
-390.063	-53.720	-0.336	-0.152
-389.048	-81.575	0.092	-0.030
-388.033	800.000	-0.162	-0.462
-387.019	-70.279	0.217	-0.082
-386.004	-59.839	0.126	-0.054
-384.990	6.855	-0.343	-0.254
-383.975	-77.161	-0.221	0.076
-382.960	290.369	0.065	-0.118
-381.946	-105.244	-0.434	-0.098
-380.931	606.164	-0.140	0.345
-379.917	284.382	0.093	0.165
-378.902	-11.060	-0.214	0.140
-377.888	800.000	-0.042	0.141
-376.873	18.361	-0.134	-0.106
-375.858	800.000	-0.026	0.105
-374.844	514.141	-0.079	0.183
-373.829	800.000	-0.046	0.183
-372.815	-200.000	-0.032	-0.205
-371.800	-200.000	-0.018	0.096
-370.785	114.557	-0.033	-0.040
-369.771	-141.990	-0.236	-0.023
-368.756	-73.020	-0.224	0.082
-367.742	-200.000	-0.030	0.202
-366.727	14.573	-0.088	0.069
-365.712	72.443	-0.172	-0.178
-364.698	284.015	-0.093	-0.166
-363.683	-200.000	0.005	0.433
-362.669	51.147	-0.197	0.185
-361.654	-70.687	0.124	-0.046
-360.639	-124.349	-0.175	0.027
-359.625	-122.053	0.085	-0.014
-358.610	-200.000	0.011	-0.236
-357.596	-118.825	0.217	-0.038
-356.581	-52.096	-0.034	0.016
-355.566	-115.029	-0.359	0.068
-354.552	-34.854	0.333	0.181
-353.537	246.965	-0.090	-0.151
-352.523	-15.243	-0.063	-0.040
-351.508	77.221	-0.147	-0.155
-350.493	-200.000	-0.020	0.204
-349.479	784.726	0.042	-0.115
-348.464	-200.000	-0.028	-0.159
-347.450	-200.000	0.045	0.210
-346.435	800.000	-0.032	0.096
-345.420	-84.772	0.372	-0.116
-344.406	-200.000	0.040	0.210
-343.391	-121.471	-0.300	0.050
-342.377	-72.934	0.105	0.038
-341.362	-53.496	-0.034	0.015
-340.348	23.553	0.121	-0.099
-339.333	128.778	-0.188	-0.238
-338.318	-200.000	0.002	0.231
-337.304	-39.843	0.078	0.040
-336.289	412.560	-0.086	0.180
-335.275	219.483	0.080	0.126
-334.260	104.484	0.158	0.184
-333.245	-200.000	-0.010	-0.098
-332.231	800.000	0.061	0.229
-331.216	-152.442	-0.391	0.028
-330.202	-200.000	-0.014	0.100
-329.187	-130.670	0.374	-0.050
-328.172	76.742	-0.280	-0.294
-327.158	-109.100	0.239	0.050
-326.143	-83.964	0.095	0.030
-325.129	57.960	0.251	0.243
-324.114	-23.758	-0.035	-0.021
-323.099	800.000	0.091	0.266
-322.085	99.516	-0.213	0.244
-321.070	-200.000	0.021	-0.103
-320.056	-38.618	0.220	-0.115
-319.041	-20.248	-0.090	-0.055
-318.026	-174.802	-0.225	0.006
-317.012	577.333	0.120	0.290
-315.997	-150.698	0.188	-0.014
-314.983	16.591	0.230	0.180
-313.968	-62.414	-0.096	-0.040
-312.953	75.219	0.086	0.090
-311.939	-73.315	-0.091	0.033
-310.924	-86.206	-0.093	-0.028
-309.910	-174.982	-0.240	-0.007
-308.895	83.041	0.100	0.107
-307.880	-144.697	0.112	-0.010
-306.866	144.560	0.085	0.112
-305.851	384.737	0.072	-0.147
-304.837	788.920	-0.066	-0.180
-303.822	145.670	0.032	-0.043
-302.807	800.000	-0.045	-0.181
-301.793	-195.587	-0.117	-0.001
-300.778	-93.690	0.162	-0.044
-299.764	-35.935	-0.050	0.027
-298.749	131.414	-0.151	-0.192
-297.735	-200.000	0.034	0.175
-296.720	-21.211	-0.219	-0.133
-295.705	-35.684	0.307	0.165
-294.691	-67.450	-0.253	0.098
-293.676	68.253	0.159	0.162
-292.662	-200.000	0.011	0.313
-291.647	695.890	-0.024	-0.063
-290.632	-200.000	0.004	-0.329
-289.618	-73.580	-0.147	0.053
-288.603	800.000	0.046	0.163
-287.589	-41.563	-0.316	0.161
-286.574	-200.000	-0.059	0.555
-285.559	-8.901	-0.412	-0.273
-284.545	-125.798	0.241	-0.036
-283.530	800.000	0.027	0.082
-282.516	631.040	-0.034	0.085
-281.501	209.265	0.006	0.009
-280.486	59.742	-0.247	-0.241
-279.472	120.333	-0.093	-0.114
-278.457	-200.000	-0.019	-0.310
-277.443	-200.000	0.057	-0.252
-276.428	-200.000	0.094	-0.616
-275.413	-200.000	0.062	0.341
-274.399	-57.815	0.068	0.029
-273.384	12.571	-0.147	0.112
-272.370	16.439	0.239	-0.186
-271.355	800.000	0.069	0.285
-270.340	106.353	0.317	0.371
-269.326	-161.836	0.081	0.004
-268.311	-45.625	-0.088	0.043
-267.297	800.000	-0.060	-0.166
-266.282	-200.000	-0.044	0.291
-265.267	-39.959	-0.271	-0.140
-264.253	238.581	0.122	-0.200
-263.238	800.000	0.010	0.040
-262.224	170.714	-0.162	-0.229
-261.209	-108.592	-0.099	-0.021
-260.195	-200.000	-0.030	-0.176
-259.180	29.193	-0.159	-0.133
-258.165	-7.466	-0.186	-0.124
-257.151	643.687	0.037	0.093
-256.136	-200.000	-0.004	0.173
-255.122	-97.331	0.141	0.036
-254.107	-51.810	0.232	-0.107
-253.092	62.451	-0.338	-0.334
-252.078	-44.700	-0.035	-0.017
-251.063	242.121	-0.204	0.337
-250.049	-155.953	-0.193	0.012
-249.034	800.000	0.062	0.210
-248.019	5.342	0.189	0.137
-247.005	-200.000	0.024	-0.262
-245.990	210.877	0.087	0.135
-244.976	-87.321	0.275	-0.082
-243.961	-200.000	0.007	0.234
-242.946	196.864	0.225	0.339
-241.932	-85.842	0.102	-0.031
-240.917	-94.486	-0.115	-0.031
-239.903	-37.876	-0.188	0.099
-238.888	-49.175	0.238	0.112
-237.873	423.835	0.082	-0.174
-236.859	-91.418	-0.192	-0.054
-235.844	52.134	-0.256	-0.241
-234.830	166.221	-0.125	-0.174
-233.815	93.648	0.151	0.168
-232.800	23.125	-0.070	0.057
-231.786	68.236	0.462	-0.467
-230.771	-164.733	0.284	0.013
-229.757	-59.325	0.029	-0.012
-228.742	-200.000	0.062	-0.394
-227.727	-54.745	0.107	0.048
-226.713	-72.400	0.484	0.177
-225.698	-200.000	-0.025	0.230
-224.684	-200.000	-0.011	-0.103
-223.669	-13.983	0.282	-0.180
-222.655	379.700	0.086	-0.174
-221.640	19.544	0.053	0.042
-220.625	-75.974	-0.249	-0.087
-219.611	245.061	-0.099	-0.164
-218.596	-62.905	-0.019	0.008
-217.582	800.000	0.114	0.378
-216.567	2.878	0.120	0.086
-215.552	-28.337	0.252	0.144
-214.538	-99.710	-0.407	-0.100
-213.523	-134.734	-0.352	0.042
-212.509	-156.226	-0.183	0.011
-211.494	-175.269	-0.394	-0.011
-210.479	496.138	-0.053	0.120
-209.465	-79.095	0.450	-0.151
-208.450	368.255	-0.058	-0.115
-207.436	-200.000	0.039	-0.214
-206.421	-70.772	0.167	-0.062
-205.406	343.031	-0.061	0.118
-204.392	-108.705	-0.141	0.030
-203.377	-96.925	0.244	0.063
-202.363	-200.000	-0.038	0.595
-201.348	433.082	0.045	0.097
-200.333	53.117	-0.147	-0.139
-199.319	-15.462	-0.211	0.133
-198.304	270.488	-0.102	0.177
-197.290	-200.000	0.032	0.288
-196.275	-154.026	0.182	0.012
-195.260	800.000	0.018	-0.069
-194.246	-20.583	0.191	0.116
-193.231	74.469	0.045	-0.047
-192.217	294.287	0.105	0.189
-191.202	69.903	0.152	0.154
-190.187	-200.000	0.006	-0.125
-189.173	-114.290	0.263	-0.050
-188.158	-17.325	-0.192	-0.119
-187.144	-137.067	-0.142	0.016
-186.129	-45.517	-0.228	0.111
-185.114	-56.998	-0.178	-0.077
-184.100	-31.148	0.200	0.111
-183.085	-101.735	0.018	-0.004
-182.071	19.616	-0.364	0.288
-181.056	52.469	0.179	0.168
-180.042	800.000	0.078	-0.311
-179.027	-40.107	0.295	-0.151
-178.012	800.000	-0.014	0.054
-176.998	-46.186	-0.318	0.154
-175.983	-82.277	0.112	-0.036
-174.969	-133.050	0.194	-0.024
-173.954	406.931	-0.080	0.166
-172.939	-29.880	0.275	0.154
-171.925	45.785	0.427	-0.388
-170.910	-123.741	-0.151	0.024
-169.896	-142.357	0.173	0.017
-168.881	124.002	0.127	-0.157
-167.866	583.890	0.199	-0.481
-166.852	-55.455	-0.241	-0.106
-165.837	0.262	0.251	-0.176
-164.823	57.940	0.312	-0.301
-163.808	579.716	-0.058	-0.140
-162.793	800.000	0.028	-0.080
-161.779	-200.000	0.066	-0.376
-160.764	800.000	0.069	-0.287
-159.750	-200.000	-0.012	0.112
-158.735	79.771	-0.230	0.243
-157.720	-35.299	0.167	-0.089
-156.706	-200.000	0.002	0.321
-155.691	341.354	-0.133	-0.257
-154.677	59.223	-0.191	-0.185
-153.662	-200.000	-0.030	0.139
-152.647	145.556	0.116	0.152
-151.633	800.000	0.026	0.096
-150.618	65.997	-0.059	0.059
-149.604	-30.081	0.166	-0.093
-148.589	-102.721	-0.345	0.081
-147.574	-200.000	-0.036	0.198
-146.560	-200.000	-0.020	0.209
-145.545	184.917	0.191	0.279
-144.531	-187.483	-0.133	0.002
-143.516	-24.722	-0.107	-0.063
-142.502	-158.671	-0.170	0.010
-141.487	706.929	-0.013	0.033
-140.472	56.694	0.190	-0.182
-139.458	-200.000	-0.003	0.034
-138.443	688.627	-0.145	0.374
-137.429	800.000	-0.017	-0.056
-136.414	-75.559	-0.374	-0.131
-135.399	115.378	0.129	-0.156
-134.385	-3.162	-0.287	0.197
-133.370	800.000	-0.038	-0.134
-132.356	800.000	0.020	-0.070
-131.341	800.000	-0.073	-0.208
-130.326	-35.266	0.235	-0.125
-129.312	-200.000	0.011	-0.104
-128.297	800.000	0.062	-0.203
-127.283	-200.000	-0.027	0.239
-126.268	-200.000	0.070	0.423
-125.253	73.343	0.071	-0.073
-124.239	-9.883	-0.149	-0.097
-123.224	334.900	-0.047	-0.090
-122.210	25.301	0.281	0.229
