DTS Sentinel unit serial number:	SN413079Multiplexer serial number:	ORYXHardware model number:	OX4-SRSoftware version number:	ORYX F/W v4.00 Oryx Data Collector v3.7.2.0data status	okinstallation	princeton_trtdifferential loss correction	single-endedforward channel	channel 3reverse channel	N/Adate	2019/09/10time	21:38:10forward acquisition time	60.00reverse acquisition time	0.00gamma	496.2192k internal	0.2329k external	0.2329temperature offset calibration	0.9920default loss term (dB/km)	0.3790temperature slope calibration	1.0000multiplexer offset coefficient	1.0000multiplexer slope coefficient	1.0000fibre end	0.00T internal ref (°C)	31.00T ext. ref 1 (°C)	-0.30T ext. ref 2 (°C)	24.24length (m)	temperature (°C)	Stokes	anti-Stokes-747.200	332.859	-0.093	-0.181
-746.185	800.000	0.092	0.346
-745.171	484.022	0.133	-0.306
-744.156	354.037	0.055	0.110
-743.142	-200.000	-0.041	0.559
-742.127	-146.636	0.342	-0.030
-741.112	-102.063	0.310	-0.075
-740.098	-85.808	-0.062	0.019
-739.083	-200.000	-0.010	0.048
-738.069	800.000	-0.058	0.222
-737.054	-141.801	-0.143	0.014
-736.039	-79.375	-0.275	0.094
-735.025	800.000	0.055	0.186
-734.010	800.000	0.064	-0.205
-732.996	-22.577	-0.232	-0.141
-731.981	-200.000	0.004	0.111
-730.966	-18.219	-0.099	0.062
-729.952	10.934	-0.196	-0.151
-728.937	498.485	0.048	0.111
-727.923	-49.293	-0.223	-0.107
-726.908	126.461	0.093	-0.118
-725.894	-37.192	-0.345	-0.186
-724.879	-76.224	-0.345	-0.122
-723.864	206.998	0.089	0.140
-722.850	315.769	-0.011	-0.021
-721.835	80.296	-0.220	-0.239
-720.821	-65.928	0.144	0.058
-719.806	686.577	-0.039	0.102
-718.791	-14.006	-0.203	0.132
-717.777	136.141	0.030	-0.040
-716.762	-47.169	-0.322	-0.158
-715.748	-200.000	0.006	0.136
-714.733	565.546	-0.120	0.292
-713.718	130.738	0.214	-0.276
-712.704	-200.000	-0.032	0.242
-711.689	0.036	0.147	0.105
-710.675	-76.149	-0.076	-0.027
-709.660	-65.892	-0.225	0.091
-708.645	137.384	0.052	-0.068
-707.631	-40.278	0.284	-0.149
-706.616	-60.141	0.094	-0.040
-705.602	-64.039	0.176	-0.072
-704.587	-121.395	0.093	-0.015
-703.572	-120.877	0.058	0.010
-702.558	475.779	-0.008	-0.018
-701.543	-171.405	-0.220	0.007
-700.529	304.709	0.053	0.099
-699.514	-200.000	-0.006	0.049
-698.499	56.324	-0.100	-0.098
-697.485	439.005	-0.136	0.298
-696.470	446.118	0.118	-0.262
-695.456	26.670	-0.062	0.052
-694.441	176.606	0.128	-0.188
-693.426	800.000	0.050	-0.186
-692.412	800.000	0.014	0.051
-691.397	-200.000	0.011	0.247
-690.383	688.068	-0.091	-0.240
-689.368	800.000	0.067	-0.258
-688.354	43.156	0.150	-0.137
-687.339	-95.321	-0.192	0.052
-686.324	148.617	-0.140	0.190
-685.310	56.008	-0.203	0.197
-684.295	242.504	-0.158	-0.266
-683.281	-76.944	-0.163	0.057
-682.266	-29.591	0.145	0.083
-681.251	38.605	0.218	0.195
-680.237	-70.666	-0.099	0.037
-679.222	-62.800	-0.111	0.046
-678.208	128.483	-0.188	0.241
-677.193	44.519	-0.177	0.164
-676.178	-84.295	0.076	-0.024
-675.164	389.048	0.067	0.139
-674.149	800.000	-0.091	-0.265
-673.135	-200.000	0.012	-0.247
-672.120	24.296	0.258	-0.215
-671.105	800.000	0.104	-0.368
-670.091	-119.388	-0.128	0.022
-669.076	-200.000	0.031	0.207
-668.062	800.000	0.051	0.176
-667.047	-200.000	-0.024	0.124
-666.032	338.374	0.073	0.143
-665.018	102.686	0.138	-0.162
-664.003	800.000	0.112	-0.325
-662.989	-72.700	0.143	-0.053
-661.974	-200.000	-0.058	-0.436
-660.959	-52.501	0.124	0.057
-659.945	800.000	-0.206	-0.621
-658.930	-80.335	0.094	0.032
-657.916	-162.472	0.258	0.013
-656.901	62.836	-0.138	0.138
-655.886	800.000	0.042	-0.184
-654.872	-42.595	-0.145	-0.074
-653.857	-200.000	-0.029	-0.233
-652.843	800.000	0.066	-0.188
-651.828	-31.863	0.269	-0.151
-650.814	82.861	-0.268	-0.292
-649.799	-200.000	-0.044	-0.223
-648.784	-114.278	-0.246	0.048
-647.770	-29.101	-0.267	0.154
-646.755	-22.774	0.212	0.128
-645.741	-65.560	-0.213	0.086
-644.726	36.790	0.099	0.088
-643.711	-97.720	0.348	-0.091
-642.697	-83.029	-0.183	0.059
-641.682	55.336	-0.043	0.042
-640.668	-11.027	0.169	-0.112
-639.653	-48.076	-0.413	-0.200
-638.638	-4.081	-0.083	0.058
-637.624	-200.000	0.005	-0.057
-636.609	-43.540	-0.282	0.143
-635.595	5.181	-0.349	0.258
-634.580	800.000	-0.077	-0.282
-633.565	-38.200	0.068	0.036
-632.551	119.638	-0.133	0.165
-631.536	4.658	-0.028	0.021
-630.522	5.837	-0.103	-0.077
-629.507	800.000	0.096	-0.267
-628.492	453.159	-0.144	-0.320
-627.478	332.664	0.151	0.292
-626.463	103.582	0.200	0.235
-625.449	-200.000	-0.009	0.062
-624.434	-18.286	-0.230	-0.144
-623.419	293.663	0.248	-0.453
-622.405	236.277	0.212	-0.351
-621.390	800.000	-0.120	-0.353
-620.376	-109.524	0.165	0.035
-619.361	168.263	0.181	-0.258
-618.346	52.055	-0.117	-0.112
-617.332	-125.642	0.216	-0.033
-616.317	188.117	-0.114	0.171
-615.303	-104.779	-0.061	-0.014
-614.288	-150.567	0.050	0.004
-613.273	397.649	-0.116	-0.242
-612.259	800.000	0.099	-0.320
-611.244	25.772	0.360	-0.301
-610.230	800.000	-0.104	-0.377
-609.215	-200.000	-0.056	0.000
-608.201	-48.019	-0.225	0.109
-607.186	-200.000	-0.032	-0.186
-606.171	236.691	0.043	0.071
-605.157	-200.000	-0.000	0.207
-604.142	-64.168	0.208	-0.085
-603.128	-200.000	-0.046	-0.321
-602.113	-162.296	0.078	-0.004
-601.098	212.092	-0.169	-0.267
-600.084	-200.000	0.012	-0.079
-599.069	252.653	0.194	-0.332
-598.055	60.964	0.059	0.059
-597.040	284.945	-0.100	-0.181
-596.025	261.077	0.080	-0.138
-595.011	378.691	-0.151	0.310
-593.996	79.504	-0.173	-0.185
-592.982	518.091	0.073	0.171
-591.967	183.318	0.051	0.076
-590.952	-44.099	0.056	0.028
-589.938	110.974	0.084	0.101
-588.923	25.697	0.150	-0.125
-587.909	-12.713	0.089	0.058
-586.894	75.525	-0.108	0.114
-585.879	98.116	0.347	0.400
-584.865	376.481	-0.073	-0.150
-583.850	800.000	-0.086	-0.321
-582.836	-128.248	0.320	0.046
-581.821	421.761	-0.059	-0.127
-580.806	-200.000	-0.025	0.249
-579.792	-167.660	0.040	0.002
-578.777	-135.267	-0.044	-0.005
-577.763	30.643	-0.089	0.076
-576.748	233.007	-0.118	-0.194
-575.733	-111.842	0.100	0.020
-574.719	-187.281	-0.082	-0.001
-573.704	800.000	-0.062	0.242
-572.690	-116.411	0.531	0.098
-571.675	529.264	-0.087	0.204
-570.661	59.900	0.104	-0.103
-569.646	-157.083	0.161	-0.010
-568.631	390.004	-0.089	0.184
-567.617	12.978	-0.127	-0.099
-566.602	134.676	-0.078	-0.102
-565.588	8.620	0.211	0.159
-564.573	363.818	-0.033	-0.066
-563.558	-92.192	-0.170	-0.048
-562.544	800.000	-0.015	-0.042
-561.529	-80.770	-0.019	0.006
-560.515	114.610	-0.112	-0.136
-559.500	-100.514	-0.404	-0.100
-558.485	-141.793	-0.306	0.031
-557.471	231.802	0.109	0.179
-556.456	13.990	0.086	-0.067
-555.442	-61.927	-0.141	0.059
-554.427	133.024	-0.011	0.015
-553.412	-137.958	0.290	-0.032
-552.398	800.000	-0.037	-0.124
-551.383	-37.527	0.264	-0.141
-550.369	-200.000	-0.051	0.258
-549.354	-200.000	-0.009	0.148
-548.339	-144.054	0.270	0.025
-547.325	800.000	0.061	-0.243
-546.310	800.000	-0.043	-0.166
-545.296	-146.671	-0.333	-0.029
-544.281	-44.082	0.043	-0.021
-543.266	550.149	-0.062	0.148
-542.252	48.779	-0.101	0.095
-541.237	332.060	-0.195	0.375
-540.223	7.544	-0.260	0.194
-539.208	186.723	0.217	-0.323
-538.193	59.611	0.086	0.085
-537.179	-200.000	-0.028	-0.246
-536.164	39.264	-0.142	0.127
-535.150	107.307	0.208	-0.247
-534.135	-138.346	0.213	0.024
-533.121	-100.547	0.344	0.085
-532.106	-124.951	-0.190	-0.029
-531.091	-200.000	0.044	0.222
-530.077	92.752	-0.313	-0.353
-529.062	-136.062	-0.224	0.026
-528.048	800.000	0.030	-0.121
-527.033	71.386	-0.099	-0.103
-526.018	-13.434	-0.061	0.040
-525.004	160.662	0.085	0.118
-523.989	800.000	0.128	0.374
-522.975	-96.381	0.423	-0.112
-521.960	160.513	0.157	0.219
-520.945	103.465	0.058	-0.068
-519.931	-25.845	-0.317	-0.186
-518.916	-22.380	-0.148	0.089
-517.902	-67.781	0.181	-0.071
-516.887	-70.018	-0.089	0.034
-515.872	24.237	-0.066	-0.054
-514.858	678.633	0.025	0.064
-513.843	-51.787	0.329	-0.153
-512.829	107.334	-0.010	0.012
-511.814	-150.980	-0.243	-0.018
-510.799	36.777	-0.208	-0.183
-509.785	6.695	-0.234	-0.173
-508.770	-8.394	0.098	0.066
-507.756	-200.000	-0.006	0.059
-506.741	1.996	0.223	-0.161
-505.726	-33.290	0.079	-0.044
-504.712	-70.513	-0.067	0.025
-503.697	46.927	-0.114	-0.106
-502.683	-200.000	-0.004	-0.023
-501.668	269.941	-0.075	0.131
-500.653	-54.302	0.154	0.070
-499.639	-200.000	-0.028	0.159
-498.624	800.000	-0.115	0.407
-497.610	800.000	-0.031	0.127
-496.595	-200.000	0.086	-0.404
-495.581	800.000	0.046	0.141
-494.566	30.298	0.208	0.177
-493.551	-89.613	0.139	0.041
-492.537	-16.876	-0.403	0.254
-491.522	-27.454	-0.183	0.106
-490.508	800.000	-0.101	-0.299
-489.493	-59.643	0.287	0.123
-488.478	-84.507	0.303	-0.095
-487.464	-200.000	0.013	-0.064
-486.449	800.000	-0.187	-0.557
-485.435	-30.430	-0.043	0.024
-484.420	-60.781	-0.120	0.051
-483.405	129.038	0.202	-0.257
-482.391	-85.234	0.163	0.051
-481.376	324.157	0.076	-0.144
-480.362	-200.000	-0.082	-0.396
-479.347	-22.846	-0.117	0.070
-478.332	214.339	0.008	-0.013
-477.318	-119.363	0.012	-0.002
-476.303	-200.000	-0.010	0.085
-475.289	327.585	-0.205	0.392
-474.274	42.082	-0.129	-0.116
-473.259	531.757	0.022	0.052
-472.245	-178.168	-0.228	-0.005
-471.230	332.389	-0.091	0.176
-470.216	-61.941	0.008	0.003
-469.201	28.901	0.381	0.322
-468.186	-120.892	-0.156	0.026
-467.172	-157.114	-0.287	0.017
-466.157	-94.963	0.183	-0.049
-465.143	59.548	0.054	0.053
-464.128	352.038	0.084	0.165
-463.113	346.613	-0.084	0.165
-462.099	-130.946	-0.141	0.019
-461.084	-150.038	0.051	-0.004
-460.070	-171.537	-0.086	-0.003
-459.055	20.873	-0.113	-0.091
-458.040	10.349	0.123	-0.093
-457.026	14.411	-0.072	0.056
-456.011	5.994	0.222	-0.164
-454.997	416.128	-0.072	-0.153
-453.982	-52.775	-0.111	0.051
-452.968	-122.058	0.163	-0.027
-451.953	-49.980	0.165	0.078
-450.938	-70.137	-0.196	0.074
-449.924	-200.000	0.005	0.186
-448.909	-131.970	-0.220	-0.029
-447.895	52.676	-0.036	0.035
-446.880	-21.687	0.050	0.030
-445.865	800.000	0.063	-0.227
-444.851	-122.646	0.274	-0.044
-443.836	-200.000	0.028	0.130
-442.822	197.924	-0.251	0.382
-441.807	219.786	0.102	-0.162
-440.792	95.769	-0.275	-0.312
-439.778	-200.000	0.036	-0.265
-438.763	-41.998	-0.207	-0.106
-437.749	-67.228	0.684	0.268
-436.734	216.607	-0.171	0.271
-435.719	99.892	-0.097	0.112
-434.705	181.155	-0.114	-0.166
-433.690	-88.967	-0.244	0.072
-432.676	-93.160	0.257	-0.071
-431.661	-136.393	0.221	0.026
-430.646	357.286	0.098	-0.195
-429.632	-200.000	-0.009	-0.109
-428.617	378.854	0.120	-0.245
-427.603	53.219	-0.267	-0.254
-426.588	126.305	-0.090	-0.113
-425.573	-90.130	-0.232	-0.067
-424.559	-139.205	0.023	-0.002
-423.544	-200.000	0.008	0.241
-422.530	345.943	0.124	0.243
-421.515	464.511	0.042	0.093
-420.500	116.257	0.317	-0.387
-419.486	-18.436	-0.315	0.196
-418.471	-130.797	-0.121	-0.016
-417.457	-0.137	0.474	-0.336
-416.442	800.000	0.052	0.178
-415.428	52.093	0.140	0.133
-414.413	58.893	-0.162	0.159
-413.398	-59.627	-0.238	0.102
-412.384	36.206	-0.246	0.215
-411.369	658.756	-0.095	0.242
-410.355	34.986	-0.062	0.054
-409.340	38.973	-0.227	0.202
-408.325	-200.000	-0.015	0.094
-407.311	-27.110	-0.226	-0.131
-406.296	127.643	-0.173	-0.218
-405.282	120.217	0.048	0.059
-404.267	92.682	-0.143	0.160
-403.252	223.397	0.131	-0.210
-402.238	-159.332	-0.369	0.021
-401.223	800.000	0.066	0.221
-400.209	800.000	0.030	0.103
-399.194	800.000	0.102	-0.332
-398.179	800.000	0.056	0.212
-397.165	-200.000	-0.051	0.329
-396.150	-200.000	-0.014	-0.426
-395.136	-20.553	-0.383	0.234
-394.121	-200.000	-0.035	0.412
-393.106	-200.000	-0.191	0.001
-392.092	-56.725	-0.077	0.034
-391.077	162.889	-0.035	-0.049
-390.063	271.810	0.217	-0.380
-389.048	800.000	-0.100	0.360
-388.033	281.338	-0.162	-0.288
-387.019	-128.964	-0.067	-0.009
-386.004	25.306	-0.134	0.110
-384.990	-59.054	0.193	0.083
-383.975	800.000	-0.059	0.208
-382.960	-6.178	0.247	-0.168
-381.946	-21.928	0.345	0.208
-380.931	-140.212	0.243	0.025
-379.917	-200.000	0.008	-0.044
-378.902	72.300	0.133	-0.138
-377.888	-69.774	0.185	-0.070
-376.873	-0.922	-0.146	0.102
-375.858	-200.000	0.003	0.262
-374.844	459.256	-0.108	-0.239
-373.829	-200.000	-0.023	-0.181
-372.815	800.000	-0.047	0.172
-371.800	-200.000	-0.023	-0.099
-370.785	270.265	-0.228	-0.399
-369.771	-200.000	-0.010	0.142
-368.756	-17.858	0.096	0.060
-367.742	-25.056	0.305	0.180
-366.727	-101.301	0.179	0.043
-365.712	393.725	0.131	0.271
-364.698	-27.331	0.131	0.076
-363.683	-200.000	0.034	0.181
-362.669	-176.776	0.316	0.008
-361.654	131.168	-0.310	-0.394
-360.639	800.000	-0.102	0.429
-359.625	-58.542	-0.087	0.037
-358.610	-95.024	0.148	-0.040
-357.596	-174.788	-0.135	0.004
-356.581	36.653	-0.164	0.144
-355.566	-59.010	-0.169	0.072
-354.552	800.000	-0.180	0.528
-353.537	-128.923	-0.306	-0.043
-352.523	-19.693	-0.225	-0.138
-351.508	-123.697	0.224	-0.035
-350.493	508.352	0.117	-0.269
-349.479	634.804	-0.059	0.148
-348.464	-106.031	-0.176	0.039
-347.450	352.246	-0.118	-0.232
-346.435	225.819	-0.149	0.239
-345.420	-52.006	0.142	0.065
-344.406	72.769	0.053	0.055
-343.391	-200.000	0.006	-0.129
-342.377	800.000	-0.053	-0.161
-341.362	-138.397	-0.022	-0.002
-340.348	-99.556	0.140	0.035
-339.333	-107.862	0.438	-0.095
-338.318	35.455	-0.139	0.121
-337.304	74.906	0.076	-0.079
-336.289	-83.209	-0.300	0.096
-335.275	-70.806	0.272	-0.102
-334.260	-200.000	0.049	0.344
-333.245	-200.000	0.028	-0.167
-332.231	-144.160	0.100	-0.009
-331.216	-5.840	-0.135	0.092
-330.202	-1.355	0.114	0.080
-329.187	49.772	-0.125	-0.117
-328.172	-200.000	0.062	-0.397
-327.158	-190.039	-0.314	0.003
-326.143	-26.230	-0.144	0.084
-325.129	-99.414	-0.092	-0.023
-324.114	-200.000	0.016	-0.164
-323.099	-66.907	0.335	-0.131
-322.085	-200.000	-0.003	0.090
-321.070	-51.350	-0.037	0.017
-320.056	14.937	-0.070	-0.054
-319.041	-145.065	0.101	0.009
-318.026	-79.661	-0.191	0.064
-317.012	-81.550	-0.300	0.098
-315.997	-200.000	0.030	0.433
-314.983	125.534	0.082	0.103
-313.968	-46.808	-0.299	-0.145
-312.953	-200.000	-0.034	-0.223
-311.939	-200.000	-0.016	0.146
-310.924	91.838	0.133	-0.148
-309.910	32.924	-0.179	-0.153
-308.895	31.686	0.017	0.015
-307.880	-64.070	-0.215	-0.087
-306.866	-200.000	0.009	0.258
-305.851	-5.198	0.226	0.154
-304.837	130.247	-0.146	0.186
-303.822	800.000	0.107	0.362
-302.807	800.000	-0.041	0.148
-301.793	1.833	0.200	0.143
-300.778	197.126	0.193	-0.292
-299.764	30.442	0.158	-0.134
-298.749	-189.853	0.059	0.001
-297.735	87.442	-0.124	-0.135
-296.720	-106.656	0.077	0.017
-295.705	-130.685	0.129	0.017
-294.691	-80.978	0.268	0.088
-293.676	21.498	0.153	-0.123
-292.662	800.000	-0.080	-0.256
-291.647	407.355	0.097	-0.203
-290.632	-200.000	-0.003	-0.242
-289.618	-165.424	-0.285	-0.012
-288.603	-48.097	-0.307	-0.147
-287.589	800.000	0.120	-0.490
-286.574	41.240	0.215	-0.193
-285.559	800.000	0.042	0.118
-284.545	800.000	-0.132	-0.365
-283.530	345.522	0.135	-0.262
-282.516	-114.366	0.190	0.036
-281.501	-200.000	0.036	0.395
-280.486	-85.771	0.209	-0.064
-279.472	-72.613	0.096	-0.035
-278.457	193.359	0.070	-0.104
-277.443	-3.686	-0.151	0.104
-276.428	-90.556	0.280	-0.080
-275.413	26.408	0.110	-0.091
-274.399	-126.521	0.338	-0.050
-273.384	121.477	-0.193	-0.238
-272.370	158.272	-0.136	0.186
-271.355	-146.568	0.342	-0.029
-270.340	-79.805	0.202	-0.067
-269.326	-200.000	0.030	0.235
-268.311	138.923	-0.039	0.050
-267.297	39.558	-0.266	0.235
-266.282	7.208	-0.324	0.239
-265.267	263.224	-0.177	0.304
-264.253	59.983	0.142	-0.139
-263.238	24.793	-0.191	-0.156
-262.224	-14.815	0.070	-0.044
-261.209	-19.739	0.211	-0.129
-260.195	44.903	0.055	-0.050
-259.180	-75.475	0.318	0.112
-258.165	42.500	-0.243	0.219
-257.151	-161.521	-0.236	0.012
-256.136	-132.065	-0.257	0.033
-255.122	134.612	0.084	-0.107
-254.107	-125.073	0.252	0.038
-253.092	84.230	-0.185	0.200
-252.078	-200.000	-0.011	-0.083
-251.063	-6.451	-0.095	-0.064
-250.049	88.414	-0.194	0.213
-249.034	-200.000	-0.095	0.000
-248.019	-116.071	-0.340	-0.063
-247.005	486.024	0.096	0.215
-245.990	223.950	-0.151	0.241
-244.976	495.664	-0.055	-0.124
-243.961	800.000	0.079	-0.238
-242.946	444.772	-0.139	0.301
-241.932	-85.882	-0.127	0.039
-240.917	384.944	-0.051	0.103
-239.903	203.182	0.255	0.389
-238.888	-82.567	0.305	0.098
-237.873	339.903	0.173	0.333
-236.859	36.961	0.220	0.192
-235.844	233.833	-0.145	0.236
-234.830	-108.411	-0.135	-0.029
-233.815	505.702	0.086	0.196
-232.800	-101.715	-0.235	0.056
-231.786	-149.459	-0.283	0.022
-230.771	177.961	-0.180	0.259
-229.757	-118.195	0.254	0.045
-228.742	69.285	-0.172	0.175
-227.727	-61.839	0.422	-0.174
-226.713	-70.235	-0.316	-0.119
-225.698	-56.428	-0.241	-0.106
-224.684	362.347	0.080	-0.158
-223.669	-38.237	0.306	-0.160
-222.655	137.246	0.147	-0.190
-221.640	188.458	0.104	0.153
-220.625	-184.334	0.273	0.004
-219.611	346.136	0.051	0.098
-218.596	-126.488	-0.087	-0.013
-217.582	48.520	-0.099	0.092
-216.567	-9.552	-0.102	-0.067
-215.552	-173.665	0.390	-0.011
-214.538	-200.000	-0.064	-0.287
-213.523	76.383	-0.231	-0.242
-212.509	67.401	-0.120	-0.121
-211.494	800.000	0.074	0.233
-210.479	-27.663	0.373	0.214
-209.465	220.928	0.067	0.106
-208.450	-104.913	-0.055	-0.012
-207.436	177.937	0.130	0.187
-206.421	-90.763	0.103	-0.029
-205.406	766.493	-0.085	0.228
-204.392	-200.000	-0.049	-0.256
-203.377	52.570	0.197	0.186
-202.363	-122.012	-0.292	-0.047
-201.348	-130.667	0.523	0.069
-200.333	572.613	-0.086	-0.206
-199.319	-200.000	-0.030	-0.159
-198.304	-200.000	-0.009	-0.187
-197.290	84.759	0.181	-0.196
-196.275	-100.966	0.099	-0.024
-195.260	-200.000	-0.048	-0.258
-194.246	-101.889	0.190	0.045
-193.231	-200.000	0.034	0.246
-192.217	-95.589	-0.404	-0.107
-191.202	6.180	0.192	-0.140
-190.187	-200.000	0.023	0.258
-189.173	-138.735	-0.318	-0.034
-188.158	202.027	-0.065	0.098
-187.144	124.515	0.032	-0.040
-186.129	-80.593	0.217	-0.071
-185.114	800.000	-0.058	-0.239
-184.100	-51.622	0.090	-0.041
-183.085	124.918	-0.183	-0.228
-182.071	278.044	0.145	-0.254
-181.056	229.362	0.090	-0.145
-180.042	-200.000	0.054	0.259
-179.027	-144.110	-0.308	0.028
-178.012	-4.197	0.143	0.098
-176.998	-200.000	-0.063	0.313
-175.983	-32.392	-0.158	0.087
-174.969	115.057	-0.125	-0.150
-173.954	-106.271	0.257	-0.057
-172.939	217.225	0.253	0.397
-171.925	-200.000	0.010	-0.217
-170.910	-24.595	0.174	-0.102
-169.896	88.327	-0.131	-0.143
-168.881	-200.000	-0.090	0.000
-167.866	-155.344	0.425	-0.027
-166.852	5.555	0.453	0.329
-165.837	-172.876	0.704	-0.022
-164.823	529.556	-0.012	0.027
-163.808	-65.425	-0.207	-0.082
-162.793	-200.000	0.051	0.258
-161.779	-84.376	0.195	-0.061
-160.764	-17.616	-0.288	0.178
-159.750	-199.948	0.144	0.001
-158.735	-23.312	-0.340	0.201
-157.720	-83.977	-0.264	0.083
-156.706	-153.443	0.292	-0.020
-155.691	-200.000	0.001	-0.102
-154.677	-101.811	-0.246	-0.059
-153.662	-96.522	0.267	-0.069
-152.647	103.541	0.076	-0.088
-151.633	-149.355	-0.466	-0.037
-150.618	-200.000	0.060	0.419
-149.604	-200.000	0.033	-0.204
-148.589	-34.988	0.393	0.211
-147.574	-151.951	0.039	0.003
-146.560	147.328	-0.157	-0.208
-145.545	-125.144	-0.264	0.040
-144.531	-54.483	0.194	-0.086
-143.516	800.000	-0.011	-0.041
-142.502	193.359	0.141	0.210
-141.487	-158.976	0.188	0.010
-140.472	-111.023	0.128	0.026
-139.458	443.640	-0.133	0.286
-138.443	-70.435	0.283	-0.106
-137.429	-55.083	0.242	0.107
-136.414	-32.018	0.159	-0.087
-135.399	6.204	-0.334	0.243
-134.385	-176.512	0.085	-0.002
-133.370	-200.000	-0.001	-0.050
-132.356	67.395	-0.307	0.308
-131.341	800.000	-0.071	-0.228
-130.326	94.566	-0.043	-0.049
-129.312	-85.287	0.225	0.069
-128.297	-99.595	0.156	-0.039
-127.283	800.000	-0.088	0.251
-126.268	-43.257	-0.064	0.032
-125.253	-30.477	-0.193	0.108
-124.239	-59.670	-0.332	-0.140
-123.224	50.266	0.194	-0.180
-122.210	-200.000	0.022	0.254
-121.195	-43.517	-0.202	0.100
