DTS Sentinel unit serial number:	SN413079Multiplexer serial number:	ORYXHardware model number:	OX4-SRSoftware version number:	ORYX F/W v4.00 Oryx Data Collector v3.7.2.0data status	okinstallation	princeton_trtdifferential loss correction	single-endedforward channel	channel 3reverse channel	N/Adate	2019/09/11time	02:58:11forward acquisition time	60.00reverse acquisition time	0.00gamma	496.2192k internal	0.2332k external	0.2332temperature offset calibration	0.9905default loss term (dB/km)	0.3790temperature slope calibration	1.0000multiplexer offset coefficient	1.0000multiplexer slope coefficient	1.0000fibre end	0.00T internal ref (°C)	29.31T ext. ref 1 (°C)	-0.29T ext. ref 2 (°C)	23.91length (m)	temperature (°C)	Stokes	anti-Stokes-747.200	244.947	0.133	0.225
-746.185	19.998	-0.195	-0.158
-745.171	-119.089	0.095	0.017
-744.156	-118.842	-0.333	-0.059
-743.142	-97.777	-0.319	0.083
-742.127	1.744	-0.440	0.319
-741.112	-31.713	-0.290	0.164
-740.098	211.799	-0.160	0.254
-739.083	-200.000	-0.056	-0.397
-738.069	173.252	-0.082	0.119
-737.054	800.000	-0.035	-0.103
-736.039	-12.960	-0.226	0.148
-735.025	677.521	-0.039	0.102
-734.010	-200.000	0.029	0.151
-732.996	35.620	-0.297	-0.262
-731.981	254.991	0.121	-0.209
-730.966	203.912	-0.040	0.062
-729.952	-200.000	0.063	-0.284
-728.937	-200.000	-0.026	-0.216
-727.923	215.281	0.028	-0.044
-726.908	-90.069	0.223	0.065
-725.894	-24.047	-0.099	0.059
-724.879	-100.461	0.081	0.020
-723.864	290.413	0.033	-0.060
-722.850	800.000	-0.062	0.266
-721.835	-153.997	-0.145	0.010
-720.821	116.194	-0.095	0.117
-719.806	327.629	0.192	-0.370
-718.791	-45.377	0.149	-0.074
-717.777	-135.387	-0.115	0.014
-716.762	-53.674	-0.308	-0.142
-715.748	25.607	0.161	-0.135
-714.733	143.338	-0.055	-0.074
-713.718	-7.098	-0.245	-0.167
-712.704	-200.000	0.012	-0.239
-711.689	-146.841	-0.210	0.018
-710.675	-110.044	-0.332	-0.070
-709.660	162.203	0.203	0.286
-708.645	800.000	0.067	0.223
-707.631	97.756	-0.138	0.160
-706.616	206.738	-0.193	-0.302
-705.602	241.870	0.076	0.127
-704.587	24.540	0.008	0.007
-703.572	208.482	-0.155	0.243
-702.558	-97.826	0.245	0.064
-701.543	119.441	0.203	-0.252
-700.529	80.881	-0.152	-0.164
-699.514	-70.669	0.100	-0.038
-698.499	-25.379	0.186	-0.110
-697.485	-119.550	-0.076	-0.013
-696.470	-166.827	0.271	0.011
-695.456	-162.701	0.252	0.012
-694.441	657.773	-0.017	-0.045
-693.426	-35.197	0.062	-0.034
-692.412	712.343	-0.039	0.105
-691.397	104.416	0.166	0.197
-690.383	-200.000	0.028	0.270
-689.368	-117.675	0.073	0.013
-688.354	-7.344	0.115	0.078
-687.339	568.855	-0.060	0.146
-686.324	-130.085	-0.318	0.044
-685.310	-169.102	0.315	-0.012
-684.295	800.000	0.065	-0.210
-683.281	409.292	-0.068	0.144
-682.266	89.208	0.165	-0.185
-681.251	515.420	0.114	-0.267
-680.237	517.467	-0.036	-0.085
-679.222	-65.493	0.313	-0.126
-678.208	89.808	-0.178	0.199
-677.193	143.072	0.201	-0.268
-676.178	-127.282	-0.069	-0.010
-675.164	800.000	0.055	-0.211
-674.149	-42.607	-0.131	0.067
-673.135	-50.123	-0.187	0.089
-672.120	-200.000	-0.006	0.065
-671.105	-121.364	0.125	0.021
-670.091	204.526	0.144	-0.224
-669.076	-16.789	-0.236	-0.150
-668.062	800.000	-0.062	-0.173
-667.047	21.206	-0.049	0.040
-666.032	-90.251	0.213	-0.062
-665.018	-40.175	0.446	-0.233
-664.003	-148.806	-0.224	0.018
-662.989	90.360	0.261	0.293
-661.974	10.400	-0.171	-0.131
-660.959	-95.891	-0.226	-0.061
-659.945	-97.811	0.038	0.010
-658.930	-139.470	0.270	0.029
-657.916	61.642	0.031	-0.031
-656.901	122.911	0.190	-0.238
-655.886	-50.878	-0.074	0.035
-654.872	28.982	-0.242	-0.206
-653.857	-143.306	0.176	-0.017
-652.843	5.932	0.095	-0.071
-651.828	-137.517	0.142	-0.016
-650.814	-60.681	-0.011	-0.004
-649.799	-19.705	0.285	0.177
-648.784	-27.396	-0.259	-0.151
-647.770	-200.000	0.010	-0.089
-646.755	106.556	0.145	0.172
-645.741	-88.905	0.140	-0.042
-644.726	-57.233	0.563	-0.248
-643.711	226.665	-0.125	-0.203
-642.697	-109.441	0.084	0.018
-641.682	-176.708	0.118	-0.003
-640.668	701.932	-0.115	-0.303
-639.653	800.000	0.055	-0.179
-638.638	149.901	0.040	0.054
-637.624	-200.000	0.026	-0.132
-636.609	257.074	-0.173	0.297
-635.595	205.384	-0.041	0.063
-634.580	-176.642	0.308	-0.008
-633.565	-200.000	-0.021	-0.194
-632.551	124.867	0.091	0.114
-631.536	194.049	-0.016	0.025
-630.522	143.242	-0.252	-0.336
-629.507	-60.882	-0.136	-0.058
-628.492	64.720	0.028	0.029
-627.478	-200.000	-0.013	-0.081
-626.463	-200.000	0.037	-0.353
-625.449	-200.000	0.007	-0.132
-624.434	-134.843	-0.474	0.057
-623.419	319.451	-0.037	-0.069
-622.405	-200.000	-0.067	-0.432
-621.390	-200.000	0.044	-0.194
-620.376	191.061	-0.117	0.176
-619.361	-200.000	0.010	0.500
-618.346	641.806	-0.189	-0.481
-617.332	25.150	-0.359	-0.298
-616.317	-41.738	-0.469	-0.241
-615.303	19.720	-0.173	-0.139
-614.288	800.000	-0.035	0.153
-613.273	73.406	-0.141	-0.148
-612.259	-183.475	-0.143	0.002
-611.244	-182.705	-0.119	0.002
-610.230	-200.000	-0.031	0.256
-609.215	231.182	0.077	-0.127
-608.201	-113.099	-0.181	0.036
-607.186	-80.579	0.075	0.025
-606.171	-200.000	-0.012	-0.187
-605.157	-83.108	-0.255	0.082
-604.142	305.708	-0.063	0.118
-603.128	-200.000	-0.046	0.282
-602.113	-103.491	0.274	-0.064
-601.098	-200.000	-0.044	0.497
-600.084	-178.012	-0.326	-0.008
-599.069	30.766	-0.054	-0.047
-598.055	-176.871	-0.104	0.003
-597.040	-88.791	0.132	-0.039
-596.025	193.958	0.212	-0.321
-595.011	800.000	-0.026	-0.077
-593.996	-130.354	-0.192	0.026
-592.982	257.338	-0.058	0.100
-591.967	-7.682	-0.347	-0.234
-590.952	-81.020	-0.153	-0.051
-589.938	28.192	-0.159	0.135
-588.923	164.327	-0.087	0.122
-587.909	125.889	-0.348	-0.440
-586.894	19.103	0.190	-0.152
-585.879	-200.000	-0.023	0.106
-584.865	-200.000	-0.071	-0.366
-583.850	800.000	-0.084	0.329
-582.836	-39.685	-0.055	0.029
-581.821	-90.301	-0.344	0.100
-580.806	-200.000	0.022	-0.188
-579.792	-200.000	-0.006	-0.311
-578.777	-81.039	-0.218	-0.072
-577.763	-200.000	-0.075	-0.494
-576.748	-200.000	-0.056	-0.278
-575.733	19.581	-0.245	0.197
-574.719	198.104	0.063	0.096
-573.704	-200.000	0.010	-0.257
-572.690	-89.153	-0.219	-0.065
-571.675	-63.792	-0.184	0.075
-570.661	4.430	-0.276	0.202
-569.646	20.681	-0.100	0.081
-568.631	-34.449	-0.308	-0.169
-567.617	-179.773	0.170	0.004
-566.602	-42.400	0.138	-0.070
-565.588	800.000	0.065	-0.251
-564.573	-94.787	-0.061	-0.017
-563.558	-30.261	-0.422	-0.239
-562.544	-200.000	-0.019	0.184
-561.529	-161.905	-0.108	0.005
-560.515	25.976	-0.019	-0.016
-559.500	211.445	0.051	0.080
-558.485	-117.879	0.206	-0.037
-557.471	-58.662	0.123	-0.053
-556.456	-105.172	-0.102	-0.023
-555.442	-28.955	0.071	-0.041
-554.427	-87.034	-0.217	-0.066
-553.412	150.761	0.065	0.088
-552.398	11.150	0.037	0.028
-551.383	-200.000	0.020	-0.213
-550.369	-153.144	0.228	0.016
-549.354	-141.819	0.137	-0.014
-548.339	-102.355	0.284	-0.068
-547.325	800.000	0.069	-0.273
-546.310	142.393	0.040	0.053
-545.296	-96.748	-0.091	0.024
-544.281	-84.234	0.142	0.045
-543.266	364.781	0.061	-0.123
-542.252	-51.200	0.422	0.197
-541.237	503.007	-0.058	0.134
-540.223	800.000	0.096	0.302
-539.208	-37.410	-0.091	-0.049
-538.193	-17.266	0.199	-0.125
-537.179	172.100	-0.185	-0.265
-536.164	166.586	0.159	-0.225
-535.150	-10.122	0.282	0.187
-534.135	61.045	-0.333	0.329
-533.121	-61.595	0.221	-0.093
-532.106	-155.616	-0.292	-0.019
-531.091	739.194	0.101	0.270
-530.077	-30.798	0.091	0.051
-529.062	-85.557	0.199	-0.062
-528.048	143.721	0.194	-0.258
-527.033	-119.120	-0.174	0.030
-526.018	-200.000	-0.018	0.415
-525.004	176.012	0.170	-0.246
-523.989	23.134	-0.164	-0.134
-522.975	-200.000	-0.014	0.276
-521.960	-200.000	0.001	0.266
-520.945	-178.289	-0.198	-0.005
-519.931	-141.649	0.210	-0.021
-518.916	-200.000	-0.077	0.408
-517.902	-150.334	0.200	0.015
-516.887	131.906	-0.079	0.101
-515.872	44.080	-0.252	-0.230
-514.858	198.308	0.105	-0.160
-513.843	247.367	0.042	0.070
-512.829	-200.000	0.020	-0.156
-511.814	18.589	-0.327	-0.260
-510.799	503.349	0.054	-0.124
-509.785	-200.000	0.072	0.332
-508.770	-41.790	0.337	-0.172
-507.756	6.345	-0.061	-0.045
-506.741	165.891	-0.077	0.109
-505.726	7.298	-0.213	-0.158
-504.712	-62.725	0.238	-0.098
-503.697	68.936	0.274	0.280
-502.683	-73.456	0.348	-0.127
-501.668	-189.420	0.196	-0.002
-500.653	800.000	0.090	-0.289
-499.639	-1.062	0.222	0.157
-498.624	-200.000	-0.015	-0.132
-497.610	-33.418	-0.053	-0.029
-496.595	-200.000	0.036	-0.235
-495.581	-34.617	-0.410	0.224
-494.566	-200.000	0.078	0.391
-493.551	-129.615	-0.053	-0.007
-492.537	46.268	-0.121	0.111
-491.522	800.000	0.068	-0.205
-490.508	679.672	-0.050	0.129
-489.493	102.462	-0.040	0.047
-488.478	-200.000	-0.024	0.283
-487.464	35.967	0.270	-0.237
-486.449	35.207	-0.075	-0.065
-485.435	-120.555	-0.172	-0.029
-484.420	449.945	-0.154	0.338
-483.405	592.027	-0.048	0.117
-482.391	-64.907	0.247	-0.099
-481.376	88.578	0.030	0.033
-480.362	-87.690	0.486	0.146
-479.347	152.987	-0.109	0.149
-478.332	36.377	0.213	-0.187
-477.318	-17.037	-0.177	-0.111
-476.303	-124.759	-0.114	-0.018
-475.289	800.000	-0.056	0.244
-474.274	-200.000	0.011	-0.074
-473.259	390.401	-0.125	0.257
-472.245	-63.187	0.217	0.089
-471.230	-200.000	-0.024	0.109
-470.216	-106.832	0.317	-0.070
-469.201	560.556	0.125	-0.300
-468.186	233.604	0.178	0.291
-467.172	601.450	0.133	-0.328
-466.157	596.356	-0.131	-0.323
-465.143	-89.995	0.394	0.114
-464.128	139.554	-0.031	0.041
-463.113	624.491	0.053	0.133
-462.099	14.997	0.138	-0.107
-461.084	-148.141	-0.147	0.012
-460.070	-119.260	0.297	0.051
-459.055	-110.099	0.061	0.013
-458.040	-55.838	-0.270	0.120
-457.026	-90.344	-0.387	0.112
-456.011	-200.000	0.014	-0.312
-454.997	66.694	0.145	0.147
-453.982	-96.687	-0.234	0.061
-452.968	754.624	0.126	0.338
-451.953	800.000	-0.097	0.334
-450.938	3.683	0.326	0.236
-449.924	306.678	0.061	0.113
-448.909	-179.492	0.147	0.003
-447.895	141.247	0.016	0.022
-446.880	732.081	-0.064	0.170
-445.865	-50.308	-0.165	0.078
-444.851	-20.246	-0.040	0.024
-443.836	-25.811	-0.385	0.226
-442.822	800.000	0.129	-0.358
-441.807	217.811	0.154	-0.244
-440.792	49.439	-0.052	-0.049
-439.778	-90.113	0.315	-0.091
-438.763	800.000	-0.090	0.249
-437.749	510.601	0.142	0.327
-436.734	-200.000	0.042	-0.363
-435.719	-81.086	0.224	0.074
-434.705	221.016	-0.258	-0.411
-433.690	-102.080	0.157	-0.038
-432.676	-134.077	0.185	-0.023
-431.661	-200.000	-0.008	-0.056
-430.646	122.477	0.178	-0.221
-429.632	800.000	-0.157	-0.489
-428.617	800.000	0.085	-0.256
-427.603	274.906	0.098	0.172
-426.588	-178.235	0.232	0.005
-425.573	-155.165	-0.360	0.023
-424.559	461.364	-0.030	-0.067
-423.544	-9.761	0.207	0.137
-422.530	-80.719	0.267	-0.088
-421.515	-26.038	-0.178	0.104
-420.500	-200.000	-0.024	-0.149
-419.486	106.980	-0.187	0.220
-418.471	-62.634	0.028	0.011
-417.457	-42.915	-0.213	0.107
-416.442	-30.213	-0.203	-0.115
-415.428	-124.792	-0.062	0.009
-414.413	82.586	-0.280	0.302
-413.398	-200.000	0.024	0.250
-412.384	800.000	0.073	0.268
-411.369	199.431	0.110	-0.167
-410.355	218.131	0.124	-0.196
-409.340	110.850	0.105	-0.126
-408.325	-97.213	-0.071	-0.018
-407.311	-122.079	0.154	0.025
-406.296	-102.600	-0.252	0.060
-405.282	407.725	-0.065	0.136
-404.267	-52.641	-0.093	-0.043
-403.252	-20.054	0.271	-0.166
-402.238	-200.000	0.016	0.235
-401.223	111.468	0.303	0.363
-400.209	-200.000	-0.061	0.290
-399.194	-200.000	0.045	-0.267
-398.179	-89.111	-0.221	-0.065
-397.165	-38.490	-0.147	0.077
-396.150	-176.595	-0.079	0.002
-395.136	-200.000	-0.008	0.119
-394.121	-15.979	-0.328	0.207
-393.106	-10.008	-0.124	-0.082
-392.092	800.000	0.081	0.285
-391.077	800.000	0.087	-0.259
-390.063	-4.572	-0.201	0.138
-389.048	-99.260	0.356	0.089
-388.033	198.656	0.119	0.181
-387.019	-149.617	-0.339	0.027
-386.004	56.038	-0.031	-0.030
-384.990	-21.811	-0.056	-0.034
-383.975	-77.071	0.060	-0.021
-382.960	641.887	0.068	0.172
-381.946	-44.072	0.222	0.110
-380.931	-125.645	0.409	0.062
-379.917	87.662	-0.059	-0.065
-378.902	431.300	-0.212	0.456
-377.888	-106.643	0.243	-0.054
-376.873	-49.810	0.234	0.110
-375.858	-173.289	0.180	0.005
-374.844	180.949	0.024	0.035
-373.829	-0.554	0.170	0.119
-372.815	-8.766	-0.278	-0.185
-371.800	-13.898	-0.277	0.177
-370.785	240.730	-0.085	0.141
-369.771	-19.434	-0.057	-0.035
-368.756	380.294	-0.106	0.215
-367.742	205.016	-0.055	0.085
-366.727	148.844	0.008	0.011
-365.712	-119.069	-0.297	0.052
-364.698	-200.000	-0.011	-0.173
-363.683	800.000	0.069	-0.294
-362.669	768.224	-0.127	0.341
-361.654	-200.000	-0.001	0.233
-360.639	487.244	-0.108	0.243
-359.625	41.572	0.235	-0.210
-358.610	-110.860	-0.380	-0.078
-357.596	-9.629	-0.128	-0.085
-356.581	-12.932	-0.083	-0.054
-355.566	-83.128	-0.297	0.095
-354.552	-150.770	0.092	0.007
-353.537	-81.075	-0.217	0.071
-352.523	-185.114	0.098	-0.002
-351.508	-91.135	-0.332	-0.094
-350.493	16.112	0.228	-0.178
-349.479	-126.071	0.339	0.050
-348.464	151.771	0.137	0.185
-347.450	-112.156	-0.485	-0.097
-346.435	105.847	0.176	-0.206
-345.420	-200.000	-0.045	-0.262
-344.406	800.000	0.012	0.043
-343.391	31.671	-0.220	0.187
-342.377	800.000	-0.054	0.157
-341.362	-68.306	0.186	0.072
-340.348	42.759	0.143	-0.129
-339.333	210.057	0.046	-0.071
-338.318	-111.926	0.188	0.038
-337.304	-100.513	-0.251	-0.061
-336.289	440.774	0.127	-0.276
-335.275	-200.000	-0.014	-0.101
-334.260	-200.000	-0.004	-0.183
-333.245	-76.572	-0.250	0.087
-332.231	77.800	-0.277	0.293
-331.216	-200.000	-0.031	0.269
-330.202	800.000	-0.102	0.359
-329.187	194.894	-0.214	-0.322
-328.172	190.928	-0.112	-0.166
-327.158	679.715	0.042	-0.109
-326.143	14.023	0.296	0.228
-325.129	-107.239	0.166	-0.036
-324.114	-124.581	-0.115	-0.018
-323.099	2.431	-0.318	0.227
-322.085	-88.999	0.599	0.176
-321.070	557.029	-0.105	0.249
-320.056	-53.213	-0.100	-0.045
-319.041	-6.987	-0.253	-0.170
-318.026	130.456	-0.217	-0.275
-317.012	23.675	0.315	0.256
-315.997	59.435	-0.121	0.118
-314.983	-87.247	0.162	0.049
-313.968	2.708	0.362	0.260
-312.953	-177.434	0.247	-0.006
-311.939	98.640	-0.117	-0.133
-310.924	113.007	0.029	-0.035
-309.910	-16.229	0.107	0.067
-308.895	-41.347	-0.099	-0.050
-307.880	-24.757	0.118	0.069
-306.866	-14.049	0.407	-0.260
-305.851	-109.739	-0.311	0.065
-304.837	42.496	0.175	-0.157
-303.822	241.446	0.146	-0.241
-302.807	-25.169	-0.209	0.122
-301.793	34.122	0.165	0.142
-300.778	4.193	0.108	0.078
-299.764	-90.628	0.439	-0.125
-298.749	528.233	0.259	-0.604
-297.735	-200.000	0.010	0.186
-296.720	32.179	-0.257	0.219
-295.705	-200.000	0.009	0.067
-294.691	75.085	-0.172	-0.179
-293.676	13.096	-0.158	-0.121
-292.662	-100.494	0.214	0.052
-291.647	-18.999	-0.266	0.164
-290.632	-200.000	0.006	0.074
-289.618	-158.215	0.170	-0.010
-288.603	800.000	-0.099	0.424
-287.589	75.571	-0.130	-0.135
-286.574	-82.202	-0.135	-0.043
-285.559	758.881	0.103	0.276
-284.545	147.607	-0.154	0.205
-283.530	304.011	0.175	0.321
-282.516	-59.662	-0.192	0.081
-281.501	50.933	0.191	0.179
-280.486	-127.173	0.240	0.035
-279.472	-115.929	-0.185	0.034
-278.457	44.253	-0.342	0.310
-277.443	0.531	-0.331	-0.234
-276.428	103.961	0.248	-0.288
-275.413	277.751	-0.246	-0.433
-274.399	-200.000	-0.073	-0.322
-273.384	800.000	-0.145	-0.415
-272.370	-133.575	-0.245	-0.030
-271.355	88.472	-0.124	0.137
-270.340	-66.466	0.219	0.086
-269.326	79.895	-0.111	0.117
-268.311	-173.582	0.303	0.009
-267.297	26.776	-0.151	0.125
-266.282	-28.224	0.072	0.041
-265.267	413.126	-0.150	0.314
-264.253	799.546	0.009	0.023
-263.238	-105.312	0.249	-0.056
-262.224	800.000	-0.054	-0.191
-261.209	-117.549	-0.191	-0.034
-260.195	70.826	0.092	0.094
-259.180	-200.000	0.054	-0.251
-258.165	-150.970	-0.206	-0.015
-257.151	18.081	-0.331	0.261
-256.136	-82.202	-0.128	0.041
-255.122	144.623	0.164	-0.216
-254.107	12.676	-0.220	0.168
-253.092	110.078	0.161	-0.191
-252.078	455.243	-0.135	0.294
-251.063	49.590	0.049	-0.046
-250.049	337.218	-0.050	-0.096
-249.034	800.000	0.031	0.107
-248.019	-158.123	0.150	0.009
-247.005	-17.373	0.032	-0.020
-245.990	-200.000	0.029	0.337
-244.976	-116.218	-0.230	-0.042
-243.961	-117.589	0.331	-0.059
-242.946	-200.000	-0.016	0.097
-241.932	19.656	0.207	0.164
-240.917	272.363	0.063	0.109
-239.903	730.913	-0.062	-0.163
-238.888	-3.569	-0.123	0.084
-237.873	-101.915	0.387	0.092
-236.859	104.174	0.070	0.082
-235.844	1.116	0.081	-0.058
-234.830	-81.141	0.275	-0.090
-233.815	-112.350	0.124	0.025
-232.800	55.629	0.208	0.199
-231.786	-123.559	0.200	0.031
-230.771	-200.000	-0.033	0.188
-229.757	-122.823	-0.257	-0.041
-228.742	-200.000	0.010	-0.083
-227.727	90.772	0.161	-0.178
-226.713	-95.181	-0.286	-0.076
-225.698	353.938	0.166	-0.325
-224.684	-73.054	0.467	0.169
-223.669	85.892	0.073	-0.079
-222.655	-140.031	0.305	0.032
-221.640	58.266	0.204	-0.197
-220.625	26.133	-0.053	0.044
-219.611	296.672	0.060	-0.108
-218.596	-160.950	-0.257	0.013
-217.582	-200.000	-0.031	0.193
-216.567	800.000	-0.038	-0.159
-215.552	-112.950	0.100	0.020
-214.538	157.628	-0.127	-0.173
-213.523	-200.000	0.051	-0.426
-212.509	-108.039	0.234	0.050
-211.494	-134.060	-0.122	-0.015
-210.479	-122.292	-0.127	-0.021
-209.465	800.000	0.078	-0.249
-208.450	192.154	-0.085	-0.126
-207.436	-21.443	0.124	-0.075
-206.421	220.552	0.237	0.375
-205.406	-158.665	-0.269	0.015
-204.392	16.114	-0.205	-0.159
-203.377	800.000	0.034	0.131
-202.363	167.658	-0.205	0.287
-201.348	58.080	0.173	0.167
-200.333	-200.000	0.016	-0.132
-199.319	-200.000	0.014	0.077
-198.304	79.374	-0.038	0.041
-197.290	96.567	-0.113	-0.128
-196.275	125.741	-0.076	0.094
-195.260	-63.130	0.087	0.035
-194.246	-51.588	0.302	-0.139
-193.231	-117.498	-0.202	-0.036
-192.217	13.563	0.195	0.149
-191.202	800.000	0.083	-0.311
-190.187	24.055	-0.379	0.308
-189.173	201.396	0.110	0.167
-188.158	711.297	0.115	0.300
-187.144	616.957	0.245	0.605
-186.129	8.672	-0.141	0.105
-185.114	276.408	-0.133	0.232
-184.100	231.884	-0.090	-0.145
-183.085	800.000	-0.026	-0.078
-182.071	-70.469	0.393	-0.146
-181.056	326.154	-0.131	-0.248
-180.042	-166.089	-0.043	-0.002
-179.027	303.778	-0.057	-0.104
-178.012	-200.000	0.015	-0.142
-176.998	458.047	0.028	-0.062
-175.983	763.990	0.031	0.082
-174.969	525.169	-0.095	-0.220
-173.954	-151.421	0.260	-0.019
-172.939	-200.000	-0.048	-0.248
-171.925	-88.837	0.371	0.108
-170.910	-55.982	-0.289	0.127
-169.896	40.241	-0.080	0.071
-168.881	-86.774	0.260	-0.078
-167.866	10.981	0.159	0.119
-166.852	800.000	0.099	0.318
-165.837	48.706	-0.120	-0.111
-164.823	-200.000	0.018	-0.191
-163.808	-200.000	0.029	-0.284
-162.793	17.784	0.059	-0.046
-161.779	-83.081	-0.261	-0.083
-160.764	116.264	0.155	0.186
-159.750	179.112	-0.142	-0.204
-158.735	113.605	0.183	-0.219
-157.720	-48.304	-0.187	-0.089
-156.706	216.027	0.058	-0.090
-155.691	800.000	-0.036	0.127
-154.677	-17.415	0.270	-0.167
-153.662	-50.320	0.157	-0.073
-152.647	82.487	0.262	0.280
-151.633	554.721	-0.066	-0.155
-150.618	-143.184	-0.056	0.005
-149.604	-121.733	-0.124	0.020
-148.589	29.293	0.214	-0.179
-147.574	91.943	0.100	-0.111
-146.560	-38.025	-0.359	-0.188
-145.545	577.281	0.065	-0.156
-144.531	-65.056	-0.233	-0.092
-143.516	800.000	0.057	-0.163
-142.502	-44.350	-0.094	0.046
-141.487	7.283	0.273	0.201
-140.472	-200.000	-0.058	-0.314
-139.458	800.000	-0.066	-0.186
-138.443	-18.671	0.294	0.180
-137.429	540.009	-0.147	0.343
-136.414	-52.402	0.248	-0.113
-135.399	-200.000	-0.037	-0.157
-134.385	-18.859	-0.151	-0.093
-133.370	241.365	-0.134	0.220
-132.356	178.001	-0.080	-0.115
-131.341	490.931	-0.035	-0.078
-130.326	22.772	-0.271	0.218
-129.312	135.636	0.367	0.469
-128.297	800.000	0.039	0.161
-127.283	-29.589	0.075	-0.042
-126.268	177.567	-0.167	0.240
-125.253	-42.190	0.261	0.131
-124.239	580.207	0.009	0.023
-123.224	-200.000	0.031	0.178
-122.210	-8.621	0.144	0.095
-121.195	-200.000	-0.023	-0.099
