DTS Sentinel unit serial number:	SN413079Multiplexer serial number:	ORYXHardware model number:	OX4-SRSoftware version number:	ORYX F/W v4.00 Oryx Data Collector v3.7.2.0data status	okinstallation	princeton_trtdifferential loss correction	single-endedforward channel	channel 3reverse channel	N/Adate	2019/09/11time	23:54:11forward acquisition time	60.00reverse acquisition time	0.00gamma	496.2192k internal	0.2318k external	0.2318temperature offset calibration	1.0068default loss term (dB/km)	0.3790temperature slope calibration	1.0000multiplexer offset coefficient	1.0000multiplexer slope coefficient	1.0000fibre end	0.00T internal ref (°C)	33.83T ext. ref 1 (°C)	2.02T ext. ref 2 (°C)	28.01length (m)	temperature (°C)	Stokes	anti-Stokes-747.200	688.628	0.077	0.204
-746.185	-200.000	0.052	0.534
-745.171	-200.000	-0.008	0.131
-744.156	500.165	0.132	0.307
-743.142	-120.707	-0.326	0.056
-742.127	342.730	-0.114	0.225
-741.112	22.113	-0.062	-0.051
-740.098	-137.187	-0.202	-0.023
-739.083	22.935	0.223	-0.185
-738.069	50.203	-0.084	0.080
-737.054	800.000	0.089	-0.353
-736.039	66.496	-0.437	-0.450
-735.025	445.073	0.100	0.223
-734.010	-62.540	-0.261	-0.110
-732.996	-200.000	-0.007	-0.164
-731.981	-106.268	-0.130	0.030
-730.966	-89.271	-0.218	0.065
-729.952	141.503	-0.020	0.027
-728.937	-61.656	-0.201	0.085
-727.923	800.000	0.048	0.171
-726.908	-200.000	-0.020	-0.235
-725.894	322.197	-0.116	-0.223
-724.879	756.758	-0.083	-0.227
-723.864	-60.383	0.314	-0.135
-722.850	-18.969	-0.337	0.212
-721.835	113.083	0.123	-0.151
-720.821	800.000	-0.046	0.130
-719.806	205.858	-0.196	-0.308
-718.791	-158.238	-0.215	-0.013
-717.777	-54.006	-0.375	-0.173
-716.762	-11.512	-0.170	-0.113
-715.748	-34.825	0.149	0.082
-714.733	85.702	0.075	-0.084
-713.718	40.166	-0.235	0.213
-712.704	-87.875	-0.185	-0.056
-711.689	96.408	-0.244	-0.282
-710.675	86.393	-0.176	0.196
-709.660	-50.463	0.172	-0.082
-708.645	514.443	0.066	-0.156
-707.631	-200.000	-0.036	0.171
-706.616	-1.681	0.148	0.105
-705.602	800.000	0.029	0.109
-704.587	126.403	-0.199	-0.255
-703.572	800.000	0.044	-0.178
-702.558	654.533	-0.111	-0.288
-701.543	1.735	0.078	-0.057
-700.529	522.827	0.068	0.161
-699.514	-51.290	0.132	-0.062
-698.499	800.000	-0.132	-0.382
-697.485	-200.000	0.009	0.077
-696.470	-93.286	-0.063	-0.018
-695.456	362.555	-0.096	-0.194
-694.441	80.348	0.301	-0.328
-693.426	-43.304	-0.156	-0.080
-692.412	-130.320	0.140	0.019
-691.397	795.257	-0.044	0.122
-690.383	-200.000	0.090	0.539
-689.368	334.602	-0.023	-0.046
-688.354	-40.321	0.268	-0.141
-687.339	-122.029	0.227	0.038
-686.324	79.095	0.129	0.139
-685.310	-53.089	0.211	0.098
-684.295	-200.000	0.018	-0.086
-683.281	800.000	-0.112	0.396
-682.266	-200.000	0.003	0.222
-681.251	-61.091	0.140	0.060
-680.237	44.173	-0.214	0.198
-679.222	-200.000	0.026	-0.250
-678.208	64.195	0.136	0.138
-677.193	109.861	-0.119	-0.144
-676.178	-200.000	-0.027	-0.123
-675.164	50.570	0.347	0.331
-674.149	-200.000	0.145	-0.000
-673.135	-200.000	-0.006	-0.144
-672.120	143.071	-0.160	-0.215
-671.105	-200.000	-0.032	-0.336
-670.091	65.501	-0.030	0.031
-669.076	-88.127	-0.113	0.034
-668.062	568.918	0.090	-0.220
-667.047	-200.000	0.019	-0.173
-666.032	28.256	0.081	-0.069
-665.018	-200.000	-0.007	0.322
-664.003	30.182	0.140	-0.121
-662.989	-200.000	-0.040	0.324
-661.974	-149.952	0.080	-0.006
-660.959	-101.000	-0.262	-0.065
-659.945	461.210	0.066	0.149
-658.930	-200.000	0.024	-0.201
-657.916	-138.855	-0.082	-0.009
-656.901	566.121	0.028	0.067
-655.886	5.024	0.244	-0.181
-654.872	37.597	0.334	0.299
-653.857	-145.911	-0.238	-0.021
-652.843	191.359	0.107	0.163
-651.828	90.617	-0.155	0.175
-650.814	36.966	0.175	0.156
-649.799	404.853	-0.052	0.111
-648.784	-200.000	-0.052	-0.279
-647.770	138.559	0.190	-0.251
-646.755	-87.066	0.053	-0.016
-645.741	436.877	0.094	0.207
-644.726	-200.000	-0.002	-0.169
-643.711	48.435	-0.206	0.195
-642.697	-57.184	0.124	0.055
-641.682	-77.022	0.197	0.069
-640.668	563.791	-0.086	-0.211
-639.653	-115.182	0.388	-0.074
-638.638	-27.101	0.094	0.055
-637.624	-67.718	0.063	0.025
-636.609	-200.000	0.018	0.351
-635.595	-141.483	-0.270	-0.027
-634.580	-160.646	0.075	0.004
-633.565	-200.000	0.014	-0.076
-632.551	-200.000	-0.042	-0.334
-631.536	-200.000	0.047	0.458
-630.522	-200.000	0.024	0.346
-629.507	-200.000	0.003	-0.104
-628.492	97.244	-0.142	-0.164
-627.478	26.152	0.290	-0.244
-626.463	-12.026	0.490	0.323
-625.449	81.483	-0.131	-0.143
-624.434	-15.409	-0.307	-0.198
-623.419	62.275	0.072	-0.073
-622.405	-200.000	-0.040	-0.270
-621.390	-200.000	-0.007	0.081
-620.376	-25.102	-0.113	-0.068
-619.361	-106.201	-0.218	0.049
-618.346	-85.524	-0.354	0.111
-617.332	800.000	-0.062	-0.236
-616.317	-200.000	-0.007	0.042
-615.303	-43.572	0.255	-0.130
-614.288	-53.661	0.212	0.097
-613.273	-200.000	0.012	-0.201
-612.259	140.533	-0.133	-0.177
-611.244	7.494	0.120	-0.091
-610.230	-44.798	-0.376	-0.189
-609.215	181.772	0.122	-0.181
-608.201	-68.691	0.387	-0.151
-607.186	11.502	-0.070	-0.054
-606.171	20.230	0.160	-0.130
-605.157	86.536	-0.105	-0.117
-604.142	101.703	-0.176	-0.207
-603.128	34.598	-0.183	0.161
-602.113	350.999	-0.175	-0.348
-601.098	-200.000	-0.086	-0.476
-600.084	-200.000	-0.016	-0.073
-599.069	181.344	-0.051	-0.076
-598.055	-200.000	-0.011	0.182
-597.040	-200.000	-0.033	-0.209
-596.025	-47.621	0.078	0.038
-595.011	-44.570	0.109	0.055
-593.996	-200.000	0.008	-0.345
-592.982	5.146	0.257	0.191
-591.967	-200.000	-0.018	0.080
-590.952	-200.000	0.017	-0.197
-589.938	-200.000	0.016	-0.259
-588.923	-116.718	-0.203	-0.037
-587.909	314.006	0.101	-0.191
-586.894	44.793	-0.231	-0.213
-585.879	-200.000	0.069	-0.411
-584.865	77.868	-0.157	0.168
-583.850	-200.000	-0.000	-0.137
-582.836	-43.418	-0.384	-0.195
-581.821	800.000	-0.028	0.090
-580.806	-132.049	-0.156	-0.020
-579.792	-76.409	0.098	-0.035
-578.777	98.920	-0.213	0.247
-577.763	-92.490	0.397	-0.112
-576.748	-55.501	0.271	-0.122
-575.733	-131.045	0.118	-0.016
-574.719	195.271	0.148	-0.226
-573.704	-113.963	-0.257	-0.050
-572.690	-8.305	-0.291	-0.197
-571.675	-25.848	0.193	-0.115
-570.661	-200.000	-0.036	-0.202
-569.646	10.135	0.146	-0.112
-568.631	-101.438	0.151	-0.037
-567.617	-53.186	-0.144	-0.067
-566.602	-41.013	0.207	-0.107
-565.588	102.487	-0.071	-0.084
-564.573	1.610	-0.048	-0.034
-563.558	-59.778	0.036	-0.016
-562.544	289.308	-0.253	-0.461
-561.529	293.744	-0.053	-0.097
-560.515	-121.618	0.327	0.055
-559.500	-200.000	0.005	0.183
-558.485	-200.000	-0.034	0.180
-557.471	-41.105	-0.431	0.224
-556.456	183.330	0.207	0.307
-555.442	-56.590	0.176	0.078
-554.427	-200.000	-0.011	-0.235
-553.412	-81.847	-0.231	0.076
-552.398	-128.943	-0.128	-0.018
-551.383	-52.007	-0.129	-0.060
-550.369	-131.775	0.364	-0.048
-549.354	39.376	0.177	-0.159
-548.339	-200.000	-0.002	0.167
-547.325	800.000	-0.074	0.245
-546.310	-130.606	0.298	-0.040
-545.296	-55.919	-0.345	-0.154
-544.281	800.000	0.032	-0.095
-543.266	-77.866	-0.091	0.031
-542.252	-200.000	-0.048	0.234
-541.237	118.275	-0.153	-0.190
-540.223	-200.000	0.008	0.118
-539.208	87.092	-0.078	-0.086
-538.193	-79.652	0.392	-0.133
-537.179	-92.942	-0.342	-0.096
-536.164	335.058	-0.122	0.237
-535.150	138.458	0.090	0.119
-534.135	768.823	-0.057	-0.156
-533.121	800.000	0.078	0.241
-532.106	408.186	-0.051	0.108
-531.091	55.506	-0.074	0.072
-530.077	63.044	0.307	-0.308
-529.062	-91.932	-0.181	0.051
-528.048	-200.000	0.065	-0.334
-527.033	-131.283	-0.196	-0.026
-526.018	-28.167	-0.127	-0.074
-525.004	-200.000	-0.006	0.055
-523.989	191.317	-0.239	-0.361
-522.975	247.112	-0.068	-0.115
-521.960	149.675	-0.050	0.069
-520.945	-200.000	-0.009	-0.090
-519.931	-94.807	-0.111	0.030
-518.916	39.228	-0.166	-0.149
-517.902	-200.000	0.010	-0.127
-516.887	33.989	-0.102	0.089
-515.872	439.231	-0.162	0.355
-514.858	79.098	0.197	-0.212
-513.843	-139.599	0.306	0.033
-512.829	486.320	-0.199	0.456
-511.814	-96.923	-0.229	-0.060
-510.799	800.000	0.027	0.082
-509.785	800.000	-0.075	-0.233
-508.770	243.548	0.045	-0.076
-507.756	-152.197	0.134	-0.010
-506.741	574.266	-0.064	-0.157
-505.726	800.000	-0.023	0.069
-504.712	800.000	-0.072	-0.279
-503.697	800.000	0.079	-0.318
-502.683	52.097	-0.133	0.127
-501.668	-149.972	-0.323	0.025
-500.653	-137.233	0.289	0.033
-499.639	95.433	0.120	-0.137
-498.624	-96.469	0.301	-0.080
-497.610	-91.485	-0.240	0.069
-496.595	209.785	0.118	0.186
-495.581	129.248	-0.137	-0.175
-494.566	-133.620	0.108	-0.014
-493.551	27.350	-0.180	0.152
-492.537	-133.549	-0.176	-0.022
-491.522	-103.132	0.143	0.034
-490.508	-61.258	-0.107	0.045
-489.493	-136.501	0.189	0.022
-488.478	800.000	0.039	-0.122
-487.464	-133.659	0.367	0.046
-486.449	331.705	-0.075	-0.145
-485.435	-138.683	0.283	-0.031
-484.420	-78.874	-0.289	-0.099
-483.405	-102.505	-0.082	0.020
-482.391	323.589	0.134	0.255
-481.376	59.206	0.056	0.056
-480.362	153.323	0.119	0.164
-479.347	-104.899	0.233	0.054
-478.332	-33.704	-0.381	-0.211
-477.318	27.812	-0.176	-0.149
-476.303	-150.473	0.210	-0.016
-475.289	-50.437	0.081	0.038
-474.274	-200.000	0.024	0.228
-473.259	776.442	-0.105	-0.288
-472.245	-200.000	-0.008	-0.198
-471.230	-45.513	0.182	0.090
-470.216	226.388	0.105	-0.171
-469.201	-79.116	-0.192	-0.065
-468.186	-200.000	0.044	-0.243
-467.172	800.000	-0.066	-0.221
-466.157	-200.000	0.018	-0.120
-465.143	-200.000	0.026	0.280
-464.128	101.149	-0.074	0.087
-463.113	135.314	-0.158	0.206
-462.099	512.828	0.052	-0.122
-461.084	-38.951	-0.057	0.030
-460.070	-200.000	-0.009	0.417
-459.055	-56.091	0.187	0.083
-458.040	-193.783	-0.135	-0.001
-457.026	-200.000	0.022	0.145
-456.011	800.000	-0.086	0.264
-454.997	-127.573	0.173	-0.025
-453.982	-200.000	-0.003	0.103
-452.968	800.000	0.058	0.220
-451.953	316.564	-0.108	0.205
-450.938	-37.624	-0.265	0.142
-449.924	45.158	-0.130	0.120
-448.909	107.000	0.043	0.051
-447.895	60.683	-0.186	-0.184
-446.880	-200.000	-0.032	-0.205
-445.865	80.306	0.162	-0.175
-444.851	-70.530	-0.199	-0.075
-443.836	325.760	0.031	0.060
-442.822	800.000	0.066	0.185
-441.807	-84.814	-0.306	-0.096
-440.792	-15.674	0.395	-0.252
-439.778	-28.481	0.388	-0.224
-438.763	-35.109	-0.314	-0.171
-437.749	404.082	-0.048	0.102
-436.734	800.000	-0.030	0.085
-435.719	800.000	0.028	-0.094
-434.705	-125.215	-0.421	0.064
-433.690	68.583	-0.095	-0.097
-432.676	800.000	-0.099	-0.288
-431.661	6.200	0.218	0.161
-430.646	297.474	-0.118	0.217
-429.632	-32.447	0.192	0.107
-428.617	-200.000	-0.080	-0.377
-427.603	-113.105	-0.278	0.055
-426.588	-177.288	0.183	0.005
-425.573	-200.000	-0.006	-0.050
-424.559	800.000	0.075	-0.222
-423.544	354.261	0.174	-0.346
-422.530	9.804	-0.089	0.067
-421.515	800.000	-0.051	0.145
-420.500	-200.000	0.047	0.229
-419.486	357.924	0.112	0.224
-418.471	-200.000	0.018	0.238
-417.457	314.981	-0.077	0.144
-416.442	-150.146	-0.242	0.019
-415.428	422.806	-0.039	-0.083
-414.413	67.390	0.118	-0.120
-413.398	33.760	-0.108	0.094
-412.384	279.008	0.076	-0.136
-411.369	227.453	0.051	0.083
-410.355	800.000	-0.051	-0.222
-409.340	-97.305	0.144	0.038
-408.325	36.136	-0.065	-0.057
-407.311	-26.023	-0.186	0.109
-406.296	-43.102	0.147	0.074
-405.282	21.803	-0.279	-0.227
-404.267	-86.765	0.496	0.151
-403.252	-85.330	-0.014	-0.004
-402.238	-95.883	0.147	0.039
-401.223	-164.960	-0.159	-0.007
-400.209	-78.703	0.262	-0.089
-399.194	-61.272	-0.296	-0.125
-398.179	162.647	-0.160	0.224
-397.165	-91.167	0.255	-0.073
-396.150	562.606	-0.086	-0.208
-395.136	-76.458	0.090	0.032
-394.121	800.000	0.047	-0.157
-393.106	235.332	-0.081	-0.133
-392.092	283.526	0.082	0.147
-391.077	800.000	-0.030	-0.087
-390.063	-135.228	-0.034	0.004
-389.048	734.660	0.097	0.260
-388.033	170.491	-0.113	0.162
-387.019	-9.711	0.238	0.158
-386.004	800.000	-0.053	0.179
-384.990	800.000	-0.011	0.031
-383.975	176.996	-0.210	0.305
-382.960	79.734	0.114	-0.122
-381.946	269.105	0.078	-0.136
-380.931	250.745	-0.086	-0.145
-379.917	-153.775	-0.371	-0.025
-378.902	70.901	-0.099	-0.102
-377.888	800.000	0.011	0.042
-376.873	-110.680	-0.218	-0.045
-375.858	-129.924	0.270	-0.037
-374.844	-17.624	-0.235	0.147
-373.829	-164.182	-0.146	-0.007
-372.815	553.938	-0.042	-0.101
-371.800	624.427	-0.106	-0.267
-370.785	22.551	0.147	0.120
-369.771	-92.920	0.110	0.031
-368.756	155.723	0.158	0.217
-367.742	214.361	-0.048	0.076
-366.727	-50.588	0.087	-0.041
-365.712	-30.927	0.066	-0.037
-364.698	-200.000	-0.032	0.184
-363.683	-154.554	-0.184	-0.012
-362.669	-3.348	0.435	0.302
-361.654	800.000	0.067	0.260
-360.639	800.000	-0.148	0.461
-359.625	-35.944	0.231	0.124
-358.610	24.807	0.127	-0.105
-357.596	-11.281	0.244	-0.160
-356.581	-200.000	-0.026	0.152
-355.566	-55.444	-0.039	0.018
-354.552	39.572	0.086	0.076
-353.537	-168.937	0.082	0.003
-352.523	-200.000	-0.015	0.120
-351.508	-200.000	0.002	0.258
-350.493	800.000	-0.085	0.288
-349.479	36.924	0.165	-0.146
-348.464	-130.605	-0.243	0.033
-347.450	-62.629	-0.351	0.145
-346.435	-45.056	-0.067	0.033
-345.420	582.120	-0.034	0.084
-344.406	800.000	-0.085	0.296
-343.391	-12.066	-0.336	0.219
-342.377	-25.867	0.094	-0.055
-341.362	198.494	-0.102	0.155
-340.348	-83.448	-0.179	0.057
-339.333	-200.000	-0.038	0.293
-338.318	231.514	0.162	0.264
-337.304	800.000	-0.027	0.102
-336.289	253.915	-0.079	0.134
-335.275	-1.923	-0.323	-0.226
-334.260	21.330	0.032	-0.026
-333.245	800.000	-0.045	0.137
-332.231	-135.272	0.120	0.014
-331.216	800.000	-0.028	-0.101
-330.202	-129.915	0.227	0.031
-329.187	-200.000	0.001	-0.141
-328.172	-200.000	-0.037	0.175
-327.158	486.049	0.054	-0.123
-326.143	-67.808	0.152	0.059
-325.129	134.594	-0.082	0.107
-324.114	187.504	-0.137	0.203
-323.099	-25.402	-0.277	0.163
-322.085	-14.318	-0.390	-0.250
-321.070	393.159	-0.044	0.091
-320.056	-200.000	0.034	0.350
-319.041	409.281	-0.136	0.287
-318.026	-102.513	0.496	-0.118
-317.012	93.218	0.015	0.017
-315.997	550.856	-0.188	0.448
-314.983	208.665	-0.099	0.155
-313.968	-28.268	0.327	0.188
-312.953	-82.089	0.223	-0.072
-311.939	-38.464	0.315	0.166
-310.924	309.887	-0.162	0.301
-309.910	307.306	-0.093	-0.172
-308.895	-200.000	0.017	0.158
-307.880	-95.733	-0.165	0.044
-306.866	800.000	0.061	-0.195
-305.851	800.000	0.039	0.166
-304.837	-188.464	-0.089	-0.001
-303.822	178.020	0.046	0.067
-302.807	383.971	0.104	-0.212
-301.793	-35.849	0.186	0.100
-300.778	-39.769	-0.088	-0.046
-299.764	388.102	-0.068	0.140
-298.749	16.478	0.317	0.249
-297.735	-112.314	0.121	-0.024
-296.720	-96.810	0.229	-0.060
-295.705	424.249	-0.225	0.482
-294.691	800.000	0.074	-0.243
-293.676	50.822	-0.049	0.046
-292.662	-53.286	-0.200	-0.091
-291.647	654.533	-0.054	-0.137
-290.632	800.000	0.045	-0.139
-289.618	21.894	0.334	0.270
-288.603	136.264	0.124	0.161
-287.589	78.619	-0.040	0.042
-286.574	-200.000	-0.034	0.242
-285.559	522.177	-0.109	-0.255
-284.545	-200.000	0.019	-0.204
-283.530	-135.032	-0.250	0.030
-282.516	800.000	0.109	0.305
-281.501	-119.150	0.119	-0.021
-280.486	359.326	-0.045	0.090
-279.472	-200.000	-0.023	-0.231
-278.457	37.393	0.541	-0.477
-277.443	283.215	-0.070	0.125
-276.428	-120.977	0.200	-0.033
-275.413	-24.895	0.114	-0.067
-274.399	144.847	-0.116	-0.154
-273.384	47.594	0.303	0.280
-272.370	246.221	0.073	0.122
-271.355	-200.000	-0.003	-0.338
-270.340	-200.000	-0.021	0.203
-269.326	676.050	-0.022	0.056
-268.311	42.834	0.373	0.338
-267.297	-48.487	-0.148	0.071
-266.282	13.148	0.293	-0.225
-265.267	125.284	-0.083	-0.104
-264.253	36.181	-0.021	0.018
-263.238	-136.326	0.049	0.006
-262.224	0.215	0.084	0.060
-261.209	11.371	-0.193	-0.146
-260.195	-79.967	-0.145	0.048
-259.180	-49.818	-0.189	-0.089
-258.165	64.034	-0.207	0.207
-257.151	-64.142	0.405	0.164
-256.136	217.500	0.210	0.332
-255.122	-83.134	0.137	-0.044
-254.107	257.575	-0.181	0.310
-253.092	-40.564	0.150	-0.077
-252.078	274.020	-0.117	0.206
-251.063	-69.297	0.219	0.084
-250.049	61.261	0.058	-0.058
-249.034	51.347	-0.046	-0.043
-248.019	800.000	-0.057	-0.190
-247.005	536.485	0.039	0.092
-245.990	-147.472	0.165	-0.014
-244.976	-125.511	0.272	-0.041
-243.961	800.000	0.076	-0.312
-242.946	405.850	0.061	0.129
-241.932	-110.906	-0.047	0.010
-240.917	-45.513	-0.185	-0.091
-239.903	83.054	0.211	-0.228
-238.888	723.281	-0.114	-0.301
-237.873	-141.292	0.196	0.020
-236.859	35.921	0.157	0.137
-235.844	-88.102	-0.350	-0.104
-234.830	-80.997	0.173	-0.057
-233.815	-200.000	-0.002	0.047
-232.800	800.000	-0.043	-0.150
-231.786	-103.740	0.060	0.014
-230.771	-200.000	0.010	0.294
-229.757	551.174	-0.190	0.453
-228.742	-111.915	0.359	0.072
-227.727	420.779	-0.120	0.256
-226.713	-163.460	-0.257	-0.012
-225.698	584.276	-0.163	0.397
-224.684	323.412	-0.017	0.032
-223.669	-10.524	-0.207	-0.136
-222.655	58.774	-0.352	-0.343
-221.640	-11.664	-0.158	0.103
-220.625	800.000	-0.053	0.219
-219.611	222.925	0.114	-0.182
-218.596	-200.000	-0.002	0.232
-217.582	-200.000	-0.014	-0.201
-216.567	339.508	-0.071	0.138
-215.552	776.192	0.183	-0.495
-214.538	-46.505	0.280	-0.136
-213.523	-97.043	0.359	-0.093
-212.509	-50.286	0.218	-0.102
-211.494	-143.087	-0.193	-0.018
-210.479	-78.584	-0.068	-0.023
-209.465	-78.345	-0.428	-0.146
-208.450	-200.000	0.032	-0.223
-207.436	301.446	-0.130	0.238
-206.421	-168.311	0.412	0.016
-205.406	73.939	0.070	-0.073
-204.392	800.000	0.085	0.313
-203.377	800.000	0.044	0.128
-202.363	176.462	-0.151	0.218
-201.348	103.386	-0.187	-0.217
-200.333	338.012	-0.059	-0.114
-199.319	-93.468	0.237	0.065
-198.304	51.533	0.393	-0.370
-197.290	175.852	0.166	-0.238
-196.275	800.000	0.082	-0.354
-195.260	74.485	-0.152	0.158
-194.246	-101.609	-0.175	-0.042
-193.231	315.178	0.068	-0.128
-192.217	-200.000	-0.003	-0.230
-191.202	-200.000	-0.042	0.230
-190.187	-154.930	0.222	-0.014
-189.173	-25.208	-0.068	0.040
-188.158	65.598	-0.328	-0.329
-187.144	-147.518	-0.193	0.016
-186.129	10.986	0.243	0.184
-185.114	259.251	0.270	0.460
-184.100	249.728	0.052	0.087
-183.085	285.278	0.038	0.067
-182.071	4.989	0.252	-0.184
-181.056	-200.000	0.004	0.255
-180.042	-101.401	-0.402	-0.097
-179.027	-98.393	-0.032	0.008
-178.012	-54.119	-0.159	-0.072
-176.998	-130.599	0.124	0.017
-175.983	212.868	-0.035	0.055
-174.969	-200.000	0.012	0.076
-173.954	81.902	0.069	0.074
-172.939	-89.334	0.142	0.041
-171.925	28.739	0.062	-0.052
-170.910	30.310	-0.061	0.052
-169.896	556.669	0.060	-0.144
-168.881	307.064	-0.113	0.208
-167.866	461.811	0.070	-0.155
-166.852	-7.716	0.247	-0.165
-165.837	15.486	0.357	0.278
-164.823	46.366	-0.097	-0.089
-163.808	800.000	-0.067	-0.191
-162.793	423.338	0.154	-0.327
-161.779	-200.000	-0.025	0.205
-160.764	-63.768	-0.178	0.072
-159.750	-62.726	0.258	0.106
-158.735	585.479	0.043	-0.103
-157.720	75.025	-0.244	-0.254
-156.706	-76.740	-0.389	0.135
-155.691	183.653	-0.031	-0.045
-154.677	83.066	-0.248	0.267
-153.662	-151.065	-0.286	-0.021
-152.647	-7.092	-0.058	0.039
-151.633	39.289	-0.069	0.061
-150.618	-129.231	-0.085	-0.012
-149.604	-25.114	-0.269	0.158
-148.589	90.999	-0.200	0.222
-147.574	358.844	0.196	0.388
-146.560	459.686	0.057	0.125
-145.545	-16.354	0.231	0.145
-144.531	-200.000	0.039	0.355
-143.516	-43.859	-0.116	-0.058
-142.502	64.259	-0.214	-0.213
-141.487	6.524	-0.094	0.069
-140.472	-200.000	0.047	0.387
-139.458	-44.441	-0.334	-0.165
-138.443	110.911	0.147	-0.174
-137.429	-89.078	0.173	0.051
-136.414	-51.489	0.069	0.032
-135.399	-200.000	0.013	0.191
-134.385	800.000	-0.069	0.222
-133.370	-161.643	0.193	-0.010
-132.356	321.248	0.175	-0.330
-131.341	181.772	-0.130	0.189
-130.326	527.008	0.030	0.069
-129.312	227.134	-0.108	-0.174
-128.297	89.309	-0.153	-0.168
-127.283	-80.267	0.369	-0.122
-126.268	-200.000	-0.029	-0.266
-125.253	-112.014	-0.153	0.030
-124.239	-81.486	-0.224	0.073
-123.224	-112.162	0.121	0.024
-122.210	-67.011	-0.235	0.092
-121.195	800.000	-0.159	0.461
