DTS Sentinel unit serial number:	SN413079Multiplexer serial number:	ORYXHardware model number:	OX4-SRSoftware version number:	ORYX F/W v4.00 Oryx Data Collector v3.7.2.0data status	okinstallation	princeton_trtdifferential loss correction	single-endedforward channel	channel 3reverse channel	N/Adate	2019/09/10time	22:34:11forward acquisition time	60.00reverse acquisition time	0.00gamma	496.2192k internal	0.2331k external	0.2331temperature offset calibration	0.9922default loss term (dB/km)	0.3790temperature slope calibration	1.0000multiplexer offset coefficient	1.0000multiplexer slope coefficient	1.0000fibre end	0.00T internal ref (°C)	30.31T ext. ref 1 (°C)	-0.29T ext. ref 2 (°C)	23.79length (m)	temperature (°C)	Stokes	anti-Stokes-747.200	201.889	0.146	0.227
-746.185	-143.675	-0.255	-0.024
-745.171	-61.669	-0.064	0.027
-744.156	-39.939	-0.133	0.070
-743.142	-200.000	-0.047	-0.258
-742.127	-200.000	-0.025	0.284
-741.112	-200.000	-0.013	-0.063
-740.098	95.394	-0.210	0.241
-739.083	-97.590	-0.123	0.032
-738.069	-65.584	-0.225	0.091
-737.054	-200.000	-0.002	-0.009
-736.039	-200.000	-0.020	0.133
-735.025	28.832	-0.183	0.156
-734.010	-163.585	0.082	-0.004
-732.996	-135.947	-0.362	0.043
-731.981	141.013	-0.184	0.245
-730.966	11.875	0.201	0.155
-729.952	-25.023	-0.297	-0.177
-728.937	-26.813	-0.209	-0.123
-727.923	-200.000	-0.008	-0.221
-726.908	-40.814	-0.450	0.234
-725.894	-52.055	0.141	-0.066
-724.879	-86.700	-0.318	0.098
-723.864	78.057	0.119	0.128
-722.850	154.351	-0.051	0.071
-721.835	8.928	0.280	-0.213
-720.821	478.669	-0.084	-0.190
-719.806	61.512	0.150	-0.150
-718.791	-200.000	-0.001	-0.261
-717.777	32.422	-0.060	0.052
-716.762	219.985	-0.173	-0.278
-715.748	143.206	0.073	-0.098
-714.733	800.000	0.043	0.132
-713.718	184.695	-0.178	0.265
-712.704	-18.207	0.243	-0.153
-711.689	-200.000	0.020	-0.090
-710.675	55.593	0.059	0.058
-709.660	136.585	0.029	-0.038
-708.645	10.661	-0.176	-0.135
-707.631	-89.222	-0.132	0.039
-706.616	-64.748	-0.145	-0.059
-705.602	-114.282	0.271	0.053
-704.587	29.954	-0.197	-0.169
-703.572	488.581	-0.125	-0.288
-702.558	370.481	0.088	0.179
-701.543	-63.928	0.049	0.020
-700.529	-24.944	-0.036	-0.021
-699.514	126.394	0.167	-0.212
-698.499	-12.264	0.163	-0.107
-697.485	-200.000	0.006	0.166
-696.470	-47.621	-0.097	0.047
-695.456	-73.285	-0.453	0.166
-694.441	42.255	0.200	-0.183
-693.426	-97.818	0.177	0.046
-692.412	800.000	-0.011	-0.047
-691.397	33.657	0.324	-0.283
-690.383	174.480	0.122	-0.177
-689.368	22.885	-0.263	0.216
-688.354	-48.006	-0.352	0.171
-687.339	50.995	-0.237	-0.225
-686.324	-81.703	-0.430	-0.142
-685.310	618.699	0.042	0.106
-684.295	800.000	-0.114	0.341
-683.281	-200.000	0.003	-0.232
-682.266	800.000	0.080	0.269
-681.251	800.000	0.043	0.161
-680.237	168.672	0.270	0.387
-679.222	-138.845	0.189	0.021
-678.208	-200.000	-0.014	-0.196
-677.193	-200.000	0.072	-0.464
-676.178	800.000	0.040	0.175
-675.164	-200.000	0.001	0.196
-674.149	29.575	-0.127	-0.109
-673.135	-200.000	0.014	-0.332
-672.120	800.000	-0.034	0.110
-671.105	-200.000	-0.005	0.085
-670.091	-80.562	0.149	-0.050
-669.076	-156.493	-0.236	-0.015
-668.062	800.000	-0.112	-0.481
-667.047	114.318	0.180	0.219
-666.032	-200.000	-0.033	0.234
-665.018	-123.545	-0.383	-0.061
-664.003	-200.000	-0.056	0.269
-662.989	-200.000	-0.012	-0.192
-661.974	148.376	0.188	-0.255
-660.959	75.929	0.224	-0.238
-659.945	135.317	0.058	-0.076
-658.930	-200.000	-0.001	0.389
-657.916	-65.696	0.152	0.061
-656.901	-49.625	0.465	0.222
-655.886	253.063	0.158	0.271
-654.872	-200.000	-0.018	-0.446
-653.857	-110.390	0.198	-0.041
-652.843	-36.909	0.188	0.101
-651.828	-78.800	-0.293	-0.100
-650.814	-20.113	-0.383	0.237
-649.799	349.356	0.232	0.459
-648.784	-119.053	-0.143	-0.025
-647.770	518.580	0.132	-0.309
-646.755	-96.924	-0.142	0.037
-645.741	800.000	-0.039	-0.121
-644.726	800.000	0.007	-0.023
-643.711	-200.000	-0.043	0.339
-642.697	101.945	-0.216	0.253
-641.682	-39.319	0.214	0.113
-640.668	-200.000	0.006	-0.283
-639.653	176.037	-0.112	0.163
-638.638	-34.840	-0.291	0.159
-637.624	-72.702	-0.392	-0.145
-636.609	-65.027	-0.291	0.118
-635.595	-80.000	-0.159	0.053
-634.580	800.000	-0.119	0.440
-633.565	-2.934	0.109	-0.076
-632.551	52.693	-0.207	0.199
-631.536	588.365	0.055	-0.136
-630.522	103.635	0.190	-0.224
-629.507	52.759	-0.219	-0.210
-628.492	-187.394	0.249	0.003
-627.478	-78.359	-0.119	0.041
-626.463	-22.765	0.144	-0.087
-625.449	33.678	0.217	-0.189
-624.434	313.006	0.066	-0.123
-623.419	-24.688	0.330	-0.197
-622.405	46.404	-0.016	-0.015
-621.390	-2.021	0.110	0.077
-620.376	159.859	-0.122	-0.171
-619.361	800.000	0.051	0.153
-618.346	-200.000	-0.032	0.246
-617.332	-137.386	-0.301	0.034
-616.317	-200.000	0.014	-0.466
-615.303	24.845	-0.166	-0.138
-614.288	-108.792	0.206	-0.044
-613.273	800.000	-0.034	0.151
-612.259	-103.758	0.487	0.114
-611.244	-200.000	-0.013	0.251
-610.230	23.097	-0.030	-0.025
-609.215	-200.000	0.010	-0.116
-608.201	124.587	-0.300	-0.379
-607.186	-179.999	-0.237	0.005
-606.171	-82.158	0.180	0.059
-605.157	450.878	0.130	-0.288
-604.142	-62.169	-0.199	0.083
-603.128	2.605	0.173	0.125
-602.113	-108.385	-0.313	-0.068
-601.098	-200.000	-0.093	0.452
-600.084	-200.000	0.007	-0.174
-599.069	321.925	0.056	0.108
-598.055	99.285	-0.129	0.149
-597.040	800.000	0.004	0.014
-596.025	-200.000	0.002	0.125
-595.011	-129.321	0.134	-0.019
-593.996	155.252	0.194	0.267
-592.982	-72.505	0.282	-0.104
-591.967	344.100	0.090	-0.176
-590.952	-101.410	0.209	-0.051
-589.938	-9.277	0.304	0.203
-588.923	-22.241	-0.065	-0.039
-587.909	49.900	-0.103	0.097
-586.894	-200.000	-0.063	0.351
-585.879	-91.299	-0.359	0.103
-584.865	-162.648	0.169	-0.008
-583.850	72.724	-0.089	-0.093
-582.836	-148.681	0.308	0.025
-581.821	371.788	-0.111	-0.225
-580.806	94.103	0.104	-0.118
-579.792	-28.165	0.022	-0.013
-578.777	267.574	-0.127	0.222
-577.763	-106.940	-0.224	0.050
-576.748	126.285	0.133	0.169
-575.733	385.045	-0.059	-0.122
-574.719	800.000	0.149	0.467
-573.704	-200.000	-0.022	-0.382
-572.690	27.024	0.189	0.159
-571.675	-55.124	0.172	-0.077
-570.661	95.615	0.025	0.028
-569.646	34.106	0.140	0.122
-568.631	67.351	-0.153	-0.156
-567.617	-66.759	0.143	0.057
-566.602	-158.883	0.289	0.016
-565.588	-49.532	-0.129	0.061
-564.573	360.803	-0.161	-0.323
-563.558	-200.000	0.035	0.296
-562.544	291.876	0.037	-0.068
-561.529	-200.000	-0.016	0.189
-560.515	-100.201	0.105	0.026
-559.500	800.000	-0.055	-0.200
-558.485	26.736	0.187	-0.157
-557.471	246.266	-0.151	0.254
-556.456	-30.470	0.135	0.077
-555.442	-138.699	0.180	0.020
-554.427	633.132	0.122	-0.309
-553.412	-165.925	-0.344	-0.015
-552.398	-80.296	-0.067	0.022
-551.383	-200.000	-0.010	-0.217
-550.369	-24.281	-0.203	-0.121
-549.354	198.301	0.036	-0.055
-548.339	239.031	-0.083	0.138
-547.325	-99.894	-0.137	-0.034
-546.310	-26.818	-0.157	0.091
-545.296	2.334	0.179	0.129
-544.281	-26.190	0.151	-0.088
-543.266	125.880	-0.120	-0.151
-542.252	-21.403	-0.033	-0.020
-541.237	-31.657	0.097	-0.055
-540.223	800.000	-0.065	0.204
-539.208	193.068	-0.049	-0.074
-538.193	800.000	0.096	-0.274
-537.179	-29.882	-0.154	0.088
-536.164	-82.266	0.328	-0.106
-535.150	-14.717	0.072	-0.046
-534.135	140.647	-0.288	0.380
-533.121	-200.000	0.008	-0.047
-532.106	29.362	0.140	-0.119
-531.091	0.702	-0.046	-0.033
-530.077	-66.421	-0.116	0.046
-529.062	-200.000	0.009	0.057
-528.048	800.000	0.020	0.072
-527.033	-200.000	-0.038	0.226
-526.018	108.425	0.126	-0.150
-525.004	-81.621	0.126	0.041
-523.989	-200.000	-0.079	-0.401
-522.975	-85.762	0.052	-0.016
-521.960	-126.924	-0.212	-0.031
-520.945	0.712	0.362	0.259
-519.931	-175.306	-0.167	-0.005
-518.916	-69.989	-0.257	0.098
-517.902	-48.052	-0.180	0.087
-516.887	19.763	-0.192	-0.154
-515.872	31.049	0.219	0.187
-514.858	-24.741	0.175	-0.104
-513.843	-25.384	-0.288	-0.170
-512.829	-33.949	0.039	-0.021
-511.814	181.696	-0.077	-0.113
-510.799	68.039	0.205	0.209
-509.785	477.600	0.083	0.186
-508.770	391.716	0.093	-0.193
-507.756	-117.952	0.302	-0.054
-506.741	368.844	0.061	-0.124
-505.726	-162.793	-0.265	-0.013
-504.712	800.000	-0.013	0.049
-503.697	134.039	0.045	-0.058
-502.683	470.892	0.052	-0.117
-501.668	96.037	-0.231	-0.263
-500.653	-200.000	0.005	0.064
-499.639	403.204	-0.092	-0.192
-498.624	-140.164	-0.257	-0.027
-497.610	557.399	0.079	-0.189
-496.595	800.000	-0.052	-0.191
-495.581	-16.343	-0.145	-0.091
-494.566	-200.000	0.034	0.401
-493.551	32.628	0.092	-0.079
-492.537	39.485	-0.346	-0.309
-491.522	112.002	-0.069	0.083
-490.508	-124.020	0.082	-0.013
-489.493	-200.000	-0.007	0.150
-488.478	65.289	-0.072	0.072
-487.464	-59.649	0.092	-0.039
-486.449	-129.591	-0.154	0.021
-485.435	-200.000	-0.038	-0.247
-484.420	482.265	0.153	-0.345
-483.405	-50.722	-0.181	-0.085
-482.391	225.501	0.171	0.275
-481.376	-6.499	0.109	0.074
-480.362	-20.435	0.160	-0.098
-479.347	7.139	-0.040	-0.030
-478.332	-7.531	-0.185	0.125
-477.318	-200.000	-0.001	0.163
-476.303	17.171	0.141	-0.111
-475.289	-200.000	-0.008	0.077
-474.274	-200.000	0.056	0.279
-473.259	-129.166	-0.093	0.013
-472.245	-200.000	0.008	0.154
-471.230	150.838	-0.111	0.150
-470.216	16.035	0.196	0.154
-469.201	-70.949	-0.221	0.083
-468.186	327.731	-0.045	-0.087
-467.172	-121.067	-0.229	0.038
-466.157	67.218	-0.063	-0.064
-465.143	-56.485	-0.127	0.056
-464.128	-146.177	-0.142	0.012
-463.113	-19.289	0.240	0.148
-462.099	-101.909	0.136	-0.033
-461.084	-126.390	0.150	-0.022
-460.070	-93.510	-0.087	-0.024
-459.055	-200.000	0.029	-0.215
-458.040	22.535	0.211	-0.171
-457.026	44.658	0.099	0.090
-456.011	-45.350	0.112	-0.055
-454.997	-176.887	0.083	0.002
-453.982	64.548	-0.256	-0.257
-452.968	-123.311	-0.211	0.034
-451.953	-35.033	-0.137	-0.075
-450.938	83.114	0.233	-0.252
-449.924	35.115	0.247	0.215
-448.909	-140.937	0.347	-0.035
-447.895	15.056	-0.139	0.109
-446.880	-200.000	-0.005	-0.345
-445.865	50.884	-0.078	0.074
-444.851	-200.000	0.010	0.237
-443.836	-200.000	-0.094	0.491
-442.822	-80.604	-0.247	-0.082
-441.807	800.000	0.062	0.206
-440.792	23.729	-0.127	0.104
-439.778	-12.950	-0.119	-0.077
-438.763	-118.811	0.160	0.028
-437.749	-102.015	0.032	-0.008
-436.734	15.115	0.153	0.119
-435.719	800.000	0.023	-0.090
-434.705	-14.678	-0.247	0.158
-433.690	-0.253	0.181	-0.128
-432.676	-52.950	-0.160	-0.073
-431.661	472.101	-0.041	-0.091
-430.646	39.878	0.028	0.025
-429.632	-103.264	0.120	0.028
-428.617	-134.458	0.249	-0.030
-427.603	-200.000	-0.012	0.275
-426.588	246.298	0.060	0.101
-425.573	-200.000	0.020	-0.343
-424.559	120.579	0.208	0.257
-423.544	800.000	0.102	-0.356
-422.530	800.000	0.033	0.101
-421.515	800.000	0.021	0.071
-420.500	800.000	0.115	-0.461
-419.486	-200.000	-0.077	0.435
-418.471	-69.442	0.136	0.052
-417.457	266.193	0.121	0.209
-416.442	118.118	-0.213	0.261
-415.428	42.243	-0.209	0.189
-414.413	33.317	-0.219	0.189
-413.398	-58.115	0.263	-0.114
-412.384	788.872	0.146	0.398
-411.369	-103.292	-0.070	0.016
-410.355	-61.175	-0.313	-0.131
-409.340	-2.253	0.166	-0.116
-408.325	5.336	0.401	-0.294
-407.311	147.244	-0.049	-0.065
-406.296	661.702	-0.070	0.179
-405.282	10.786	-0.160	-0.121
-404.267	64.504	-0.227	-0.227
-403.252	17.762	0.388	-0.306
-402.238	118.990	-0.155	-0.190
-401.223	-82.075	0.108	-0.035
-400.209	72.362	-0.194	-0.200
-399.194	76.159	-0.051	-0.053
-398.179	-127.301	0.470	-0.068
-397.165	800.000	0.093	-0.270
-396.150	227.843	0.058	0.094
-395.136	22.766	-0.042	0.034
-394.121	-200.000	-0.031	0.213
-393.106	-134.290	-0.126	-0.015
-392.092	65.669	-0.305	-0.307
-391.077	-143.466	0.268	-0.025
-390.063	-12.270	-0.122	-0.079
-389.048	-10.216	0.109	-0.072
-388.033	176.287	-0.055	0.079
-387.019	-200.000	0.018	0.291
-386.004	800.000	-0.009	0.025
-384.990	29.692	0.232	-0.196
-383.975	-200.000	-0.022	-0.181
-382.960	666.782	0.107	0.275
-381.946	-200.000	-0.061	0.281
-380.931	-200.000	-0.070	-0.332
-379.917	-120.261	-0.327	-0.055
-378.902	-154.098	-0.087	0.006
-377.888	-200.000	-0.026	0.117
-376.873	-123.439	0.210	0.033
-375.858	109.541	0.201	-0.238
-374.844	5.632	0.118	0.087
-373.829	623.168	0.030	-0.074
-372.815	33.355	0.155	-0.133
-371.800	-15.253	-0.219	-0.139
-370.785	-197.235	0.203	0.001
-369.771	230.019	0.020	-0.033
-368.756	-143.321	-0.261	-0.025
-367.742	-30.321	0.133	-0.075
-366.727	114.653	-0.138	0.167
-365.712	82.029	0.047	0.050
-364.698	122.892	0.038	0.048
-363.683	-145.790	0.178	-0.016
-362.669	400.209	0.099	-0.206
-361.654	179.262	-0.172	-0.250
-360.639	-68.872	-0.191	0.073
-359.625	475.277	0.079	-0.178
-358.610	60.277	-0.303	0.297
-357.596	-126.071	-0.367	0.055
-356.581	-124.559	0.278	0.043
-355.566	-192.212	-0.080	0.001
-354.552	-87.360	-0.102	0.031
-353.537	-27.125	0.084	-0.048
-352.523	-200.000	-0.013	0.055
-351.508	116.693	0.197	0.240
-350.493	-40.474	-0.324	0.167
-349.479	-121.723	0.324	-0.053
-348.464	-27.499	0.151	0.087
-347.450	542.705	0.132	0.311
-346.435	96.723	0.219	0.249
-345.420	38.920	0.211	-0.186
-344.406	-85.713	-0.103	0.032
-343.391	164.824	0.056	0.078
-342.377	184.331	-0.112	-0.164
-341.362	800.000	0.066	0.261
-340.348	-146.910	0.287	0.024
-339.333	208.591	-0.064	0.100
-338.318	-22.583	0.314	-0.188
-337.304	-200.000	-0.011	-0.110
-336.289	-2.984	0.297	-0.205
-335.275	-72.273	-0.261	0.096
-334.260	800.000	-0.110	0.445
-333.245	150.814	-0.124	0.168
-332.231	259.048	-0.180	0.308
-331.216	-150.672	0.259	0.020
-330.202	240.484	0.155	0.255
-329.187	-200.000	-0.041	0.269
-328.172	8.455	0.145	0.108
-327.158	-165.509	-0.377	-0.016
-326.143	-66.825	-0.197	0.077
-325.129	-32.808	0.183	-0.101
-324.114	800.000	-0.042	0.137
-323.099	-97.790	-0.152	0.039
-322.085	-37.439	-0.302	-0.159
-321.070	-95.244	0.164	0.044
-320.056	48.190	0.126	-0.116
-319.041	0.936	-0.094	0.067
-318.026	-200.000	0.055	0.259
-317.012	-200.000	0.012	0.232
-315.997	800.000	0.049	-0.137
-314.983	-72.977	-0.077	0.028
-313.968	800.000	0.126	0.440
-312.953	-69.799	0.075	0.028
-311.939	800.000	0.068	-0.233
-310.924	-131.055	0.109	0.014
-309.910	33.213	0.211	-0.181
-308.895	127.181	-0.049	-0.061
-307.880	-171.486	-0.150	-0.005
-306.866	249.309	-0.157	-0.263
-305.851	671.765	0.165	-0.424
-304.837	130.934	0.159	0.201
-303.822	-131.983	-0.392	0.051
-302.807	-122.533	0.210	0.034
-301.793	-79.843	-0.236	-0.079
-300.778	348.137	0.185	0.361
-299.764	147.958	0.268	-0.357
-298.749	800.000	-0.028	0.101
-297.735	-37.000	-0.328	-0.174
-296.720	800.000	-0.144	0.452
-295.705	-102.661	-0.347	-0.082
-294.691	-200.000	0.056	-0.382
-293.676	-98.380	0.247	-0.062
-292.662	-102.033	-0.252	-0.060
-291.647	669.815	0.103	-0.263
-290.632	-56.636	0.162	0.071
-289.618	-108.791	0.276	0.058
-288.603	233.337	-0.042	0.069
-287.589	-22.917	-0.190	0.113
-286.574	-107.971	0.236	0.051
-285.559	-31.131	0.126	-0.070
-284.545	777.116	-0.118	-0.319
-283.530	-200.000	0.049	-0.481
-282.516	-200.000	-0.049	-0.300
-281.501	41.184	-0.272	-0.243
-280.486	290.988	0.026	0.046
-279.472	659.579	-0.176	-0.447
-278.457	38.610	-0.044	-0.039
-277.443	87.822	-0.280	0.306
-276.428	32.289	0.116	-0.099
-275.413	143.079	0.051	0.067
-274.399	-108.122	-0.046	0.010
-273.384	54.658	-0.064	0.061
-272.370	-200.000	0.002	0.193
-271.355	-73.533	0.441	-0.159
-270.340	-200.000	0.015	0.107
-269.326	-97.367	0.124	0.032
-268.311	-62.024	0.232	-0.096
-267.297	-110.541	-0.294	0.060
-266.282	-200.000	-0.033	0.296
-265.267	427.857	0.159	0.340
-264.253	105.465	-0.278	-0.325
-263.238	-68.212	-0.074	-0.028
-262.224	756.454	-0.081	-0.216
-261.209	-22.479	0.216	0.129
-260.195	118.471	-0.161	0.196
-259.180	-200.000	0.041	0.186
-258.165	-31.384	-0.137	0.076
-257.151	800.000	-0.021	-0.061
-256.136	132.605	0.025	0.032
-255.122	57.164	-0.110	0.106
-254.107	-69.928	0.048	0.018
-253.092	367.196	0.086	-0.171
-252.078	49.957	-0.093	0.087
-251.063	-55.950	0.157	-0.069
-250.049	40.717	-0.113	-0.100
-249.034	59.845	-0.195	0.190
-248.019	-133.635	-0.101	0.012
-247.005	703.778	-0.074	0.193
-245.990	-49.204	-0.289	0.136
-244.976	282.743	-0.066	-0.118
-243.961	-95.976	0.449	-0.118
-242.946	-200.000	-0.004	0.117
-241.932	-89.816	-0.268	-0.077
-240.917	-200.000	-0.081	0.398
-239.903	-77.835	0.367	0.125
-238.888	7.387	-0.215	0.158
-237.873	-142.276	0.253	0.025
-236.859	-189.366	-0.213	0.002
-235.844	-61.030	-0.375	0.156
-234.830	-122.877	0.131	-0.021
-233.815	57.403	-0.095	-0.092
-232.800	-59.654	-0.138	-0.058
-231.786	-72.151	-0.190	0.070
-230.771	-155.398	0.261	-0.017
-229.757	-2.415	0.013	-0.009
-228.742	-77.175	0.148	0.051
-227.727	-17.110	0.151	-0.094
-226.713	374.427	-0.132	-0.264
-225.698	-29.949	0.186	-0.105
-224.684	145.739	0.105	0.139
-223.669	123.256	0.057	-0.070
-222.655	-59.610	-0.097	-0.041
-221.640	-26.368	-0.155	-0.090
-220.625	800.000	0.064	-0.220
-219.611	90.123	-0.141	-0.156
-218.596	-113.059	0.249	-0.048
-217.582	-65.371	-0.202	0.080
-216.567	-71.215	-0.172	-0.064
-215.552	253.961	-0.122	0.205
-214.538	-102.541	-0.487	0.115
-213.523	309.466	0.271	-0.499
-212.509	-193.672	-0.342	-0.003
-211.494	-200.000	0.013	0.439
-210.479	153.839	0.051	0.069
-209.465	-139.436	-0.288	-0.030
-208.450	-182.429	0.242	0.004
-207.436	-200.000	-0.065	-0.345
-206.421	-12.118	0.088	-0.057
-205.406	-24.782	0.201	-0.118
-204.392	61.233	0.112	-0.109
-203.377	-14.030	-0.193	-0.123
-202.363	-55.813	0.093	0.041
-201.348	-200.000	-0.026	0.252
-200.333	-38.061	0.026	0.014
-199.319	239.024	0.059	-0.096
-198.304	147.795	-0.015	0.020
-197.290	-133.440	-0.116	0.014
-196.275	227.037	0.186	0.297
-195.260	134.579	0.094	0.120
-194.246	800.000	0.078	0.266
-193.231	74.792	0.246	-0.255
-192.217	304.183	0.082	-0.150
-191.202	51.542	0.146	-0.136
-190.187	-156.649	-0.215	-0.013
-189.173	-200.000	0.020	0.165
-188.158	-101.843	0.238	0.057
-187.144	-200.000	0.024	0.119
-186.129	-200.000	-0.014	-0.095
-185.114	-43.377	0.253	0.126
-184.100	-200.000	-0.005	-0.279
-183.085	10.907	0.119	-0.090
-182.071	245.235	0.182	-0.302
-181.056	142.602	-0.029	0.038
-180.042	48.228	-0.324	-0.299
-179.027	168.198	-0.128	-0.179
-178.012	304.635	-0.139	0.255
-176.998	684.003	-0.055	-0.142
-175.983	-61.039	0.069	-0.029
-174.969	-58.615	-0.339	-0.145
-173.954	-4.621	-0.234	0.159
-172.939	-136.929	-0.118	-0.013
-171.925	-102.146	-0.120	-0.028
-170.910	-63.055	0.158	-0.064
-169.896	-73.720	0.290	0.104
-168.881	-111.087	-0.481	-0.097
-167.866	218.425	-0.065	0.102
-166.852	-152.752	0.501	0.035
-165.837	22.936	-0.149	-0.120
-164.823	151.750	-0.135	0.181
-163.808	-175.679	0.349	-0.009
-162.793	82.711	0.199	0.212
-161.779	-200.000	-0.065	0.310
-160.764	-182.915	-0.201	-0.004
-159.750	-54.570	-0.323	-0.144
-158.735	192.556	0.155	-0.231
-157.720	211.210	0.302	-0.467
-156.706	0.050	0.220	-0.154
-155.691	252.507	-0.096	-0.160
-154.677	223.101	0.014	-0.022
-153.662	94.833	-0.182	0.203
-152.647	-27.191	-0.194	0.111
-151.633	-128.351	0.211	0.030
-150.618	800.000	0.039	-0.157
-149.604	114.542	0.133	0.159
-148.589	565.114	0.160	0.380
-147.574	-83.669	0.164	-0.052
-146.560	-200.000	0.044	0.197
-145.545	-200.000	-0.020	-0.232
-144.531	132.111	-0.146	-0.185
-143.516	76.166	0.213	0.222
-142.502	75.723	-0.163	0.170
-141.487	-49.340	0.382	0.179
-140.472	-13.870	-0.309	0.196
-139.458	-74.845	-0.136	-0.048
-138.443	36.412	0.180	0.156
-137.429	203.973	0.178	-0.271
-136.414	-70.990	0.253	0.094
-135.399	-66.729	0.572	-0.223
-134.385	235.535	0.052	-0.085
-133.370	-200.000	-0.024	0.201
-132.356	121.965	0.301	-0.370
-131.341	-200.000	-0.072	0.327
-130.326	-48.743	-0.203	-0.096
-129.312	609.210	0.051	0.126
-128.297	-200.000	0.017	0.221
-127.283	-99.490	0.165	0.041
-126.268	52.667	0.074	-0.070
-125.253	497.146	-0.095	-0.214
-124.239	688.550	-0.105	-0.269
-123.224	349.849	0.077	-0.150
-122.210	800.000	-0.032	-0.128
-121.195	-10.764	0.188	0.122
