DTS Sentinel unit serial number:	SN413079Multiplexer serial number:	ORYXHardware model number:	OX4-SRSoftware version number:	ORYX F/W v4.00 Oryx Data Collector v3.7.2.0data status	okinstallation	princeton_trtdifferential loss correction	single-endedforward channel	channel 3reverse channel	N/Adate	2019/09/12time	01:58:10forward acquisition time	60.00reverse acquisition time	0.00gamma	496.2192k internal	0.2320k external	0.2320temperature offset calibration	1.0065default loss term (dB/km)	0.3790temperature slope calibration	1.0000multiplexer offset coefficient	1.0000multiplexer slope coefficient	1.0000fibre end	0.00T internal ref (°C)	32.77T ext. ref 1 (°C)	2.06T ext. ref 2 (°C)	27.40length (m)	temperature (°C)	Stokes	anti-Stokes-747.200	322.459	-0.108	-0.208
-746.185	33.356	-0.177	0.155
-745.171	800.000	-0.063	-0.197
-744.156	-200.000	0.017	0.506
-743.142	38.952	-0.119	0.107
-742.127	215.320	-0.144	0.231
-741.112	-88.441	-0.057	0.017
-740.098	-200.000	-0.026	0.116
-739.083	198.411	0.113	-0.174
-738.069	-122.988	-0.234	0.038
-737.054	-37.650	0.066	-0.035
-736.039	103.635	-0.064	-0.076
-735.025	69.194	0.089	0.092
-734.010	-52.071	0.123	-0.058
-732.996	788.082	0.090	-0.249
-731.981	-16.114	-0.050	0.032
-730.966	-153.855	-0.288	-0.020
-729.952	-141.194	-0.287	0.030
-728.937	-143.419	-0.091	-0.009
-727.923	-200.000	-0.020	0.327
-726.908	800.000	-0.161	-0.573
-725.894	800.000	-0.050	-0.203
-724.879	31.444	0.164	-0.143
-723.864	718.230	0.127	0.341
-722.850	-200.000	-0.026	-0.169
-721.835	-200.000	0.012	0.187
-720.821	30.184	-0.370	0.319
-719.806	-186.674	-0.191	0.003
-718.791	196.517	-0.131	0.201
-717.777	52.799	0.111	-0.107
-716.762	-144.122	0.218	0.021
-715.748	-9.494	-0.123	0.083
-714.733	-138.521	-0.411	0.046
-713.718	-200.000	-0.053	-0.314
-712.704	-100.288	-0.280	-0.070
-711.689	165.976	0.146	-0.208
-710.675	-97.798	0.139	0.036
-709.660	24.219	-0.272	0.227
-708.645	800.000	0.053	0.196
-707.631	-200.000	0.006	0.121
-706.616	800.000	0.036	0.145
-705.602	-107.687	0.219	0.048
-704.587	800.000	0.060	-0.228
-703.572	-117.471	0.302	-0.055
-702.558	-73.534	-0.376	0.139
-701.543	-70.913	-0.091	0.034
-700.529	-137.758	0.237	0.027
-699.514	-54.970	-0.297	0.135
-698.499	3.422	0.271	0.199
-697.485	28.221	0.215	-0.183
-696.470	131.943	0.038	0.049
-695.456	0.733	0.058	-0.042
-694.441	107.843	-0.267	-0.321
-693.426	188.138	-0.205	-0.310
-692.412	281.602	-0.063	0.113
-691.397	103.166	0.228	-0.270
-690.383	800.000	-0.034	-0.128
-689.368	-200.000	-0.008	-0.350
-688.354	-200.000	-0.035	-0.246
-687.339	88.827	-0.194	0.218
-686.324	116.269	-0.162	0.200
-685.310	13.960	-0.159	-0.125
-684.295	800.000	0.130	-0.368
-683.281	-66.366	0.205	0.082
-682.266	89.132	0.126	-0.142
-681.251	800.000	-0.091	0.378
-680.237	-113.383	0.087	-0.017
-679.222	43.441	0.127	-0.117
-678.208	800.000	0.045	-0.129
-677.193	-200.000	-0.005	0.210
-676.178	-38.449	-0.207	0.110
-675.164	160.236	-0.210	0.295
-674.149	79.123	0.054	-0.058
-673.135	800.000	-0.059	-0.208
-672.120	-4.815	0.071	-0.050
-671.105	59.493	-0.103	-0.102
-670.091	-62.834	0.202	0.084
-669.076	-200.000	-0.019	-0.269
-668.062	-200.000	-0.046	-0.247
-667.047	800.000	-0.072	-0.230
-666.032	-164.477	0.291	-0.013
-665.018	128.353	0.189	-0.243
-664.003	-107.492	-0.152	0.033
-662.989	-54.280	-0.107	0.049
-661.974	800.000	-0.078	-0.296
-660.959	-200.000	0.038	-0.175
-659.945	-5.616	-0.452	-0.312
-658.930	-116.137	-0.302	0.057
-657.916	207.700	0.159	-0.251
-656.901	587.641	0.031	-0.077
-655.886	385.056	-0.088	-0.184
-654.872	10.966	-0.145	-0.112
-653.857	-92.852	-0.143	0.040
-652.843	-200.000	-0.039	0.173
-651.828	800.000	-0.059	0.256
-650.814	16.583	-0.087	0.069
-649.799	-2.637	-0.102	0.072
-648.784	65.026	-0.199	-0.203
-647.770	190.145	0.119	0.179
-646.755	-113.006	-0.293	-0.058
-645.741	12.433	-0.203	0.158
-644.726	800.000	-0.046	-0.194
-643.711	-102.949	-0.235	0.056
-642.697	-123.320	-0.196	0.031
-641.682	743.634	0.018	-0.050
-640.668	-119.720	0.078	0.014
-639.653	-139.770	-0.231	0.025
-638.638	-131.797	-0.215	0.028
-637.624	-17.263	-0.046	0.029
-636.609	126.840	-0.091	0.116
-635.595	-27.164	-0.035	-0.021
-634.580	172.984	-0.036	0.052
-633.565	124.823	-0.073	0.093
-632.551	-66.074	0.225	0.090
-631.536	800.000	-0.080	-0.279
-630.522	-73.974	-0.291	-0.106
-629.507	-136.482	-0.143	0.017
-628.492	-200.000	0.005	0.271
-627.478	800.000	0.117	-0.419
-626.463	-122.410	0.059	0.010
-625.449	11.011	-0.081	-0.062
-624.434	-100.438	-0.269	-0.067
-623.419	800.000	0.055	0.182
-622.405	-35.733	0.191	0.104
-621.390	-36.853	-0.182	-0.099
-620.376	727.457	-0.083	0.222
-619.361	-103.636	-0.056	-0.013
-618.346	-67.442	-0.134	0.053
-617.332	-0.636	-0.311	0.222
-616.317	377.048	0.099	-0.204
-615.303	-144.258	-0.293	-0.027
-614.288	300.409	-0.095	0.176
-613.273	-117.182	-0.476	0.087
-612.259	16.331	0.091	0.073
-611.244	178.009	0.169	-0.248
-610.230	167.100	0.051	0.072
-609.215	23.511	-0.125	-0.104
-608.201	48.313	0.134	0.126
-607.186	-158.263	0.219	0.013
-606.171	240.394	0.056	-0.095
-605.157	-200.000	-0.035	0.237
-604.142	-109.544	-0.397	-0.084
-603.128	-44.405	0.220	0.111
-602.113	221.160	-0.130	-0.209
-601.098	800.000	-0.151	-0.524
-600.084	-166.940	-0.319	-0.013
-599.069	84.181	-0.150	-0.165
-598.055	56.779	-0.231	0.226
-597.040	-40.618	-0.074	-0.039
-596.025	-73.289	-0.250	0.092
-595.011	497.219	0.018	-0.041
-593.996	-5.159	0.108	0.075
-592.982	-45.404	-0.172	0.086
-591.967	-200.000	-0.015	0.232
-590.952	240.001	0.086	-0.144
-589.938	-78.269	0.282	-0.097
-588.923	-119.595	-0.033	0.006
-587.909	-122.967	0.123	0.020
-586.894	51.575	-0.024	0.023
-585.879	240.549	0.066	0.111
-584.865	-152.957	-0.405	0.029
-583.850	80.949	0.074	0.080
-582.836	-10.930	-0.090	0.060
-581.821	720.477	0.088	0.234
-580.806	124.186	0.296	0.374
-579.792	463.089	-0.060	0.135
-578.777	-44.902	-0.181	0.090
-577.763	800.000	-0.104	0.381
-576.748	800.000	0.101	0.332
-575.733	-73.061	-0.117	-0.043
-574.719	-41.651	-0.164	-0.084
-573.704	800.000	0.145	0.453
-572.690	126.874	-0.172	0.219
-571.675	-104.655	0.156	0.036
-570.661	28.283	-0.326	0.277
-569.646	339.736	-0.101	0.198
-568.631	-38.564	0.174	-0.093
-567.617	19.643	0.039	0.031
-566.602	-88.847	0.168	0.050
-565.588	800.000	-0.064	-0.257
-564.573	-101.158	-0.338	0.083
-563.558	-16.161	-0.148	0.095
-562.544	800.000	-0.040	-0.167
-561.529	-120.314	0.114	0.019
-560.515	520.933	0.045	-0.106
-559.500	800.000	-0.103	0.313
-558.485	-191.633	-0.264	0.003
-557.471	-200.000	-0.060	0.277
-556.456	671.440	0.034	0.088
-555.442	-135.586	0.156	-0.019
-554.427	-88.179	0.210	-0.063
-553.412	66.086	-0.293	-0.299
-552.398	-200.000	0.000	-0.102
-551.383	800.000	-0.027	0.086
-550.369	-200.000	-0.036	0.309
-549.354	-200.000	-0.022	-0.166
-548.339	238.103	0.067	-0.112
-547.325	-200.000	-0.024	-0.257
-546.310	127.254	0.064	0.082
-545.296	-131.506	-0.277	0.037
-544.281	160.221	-0.085	0.118
-543.266	-200.000	0.433	0.000
-542.252	-200.000	0.006	0.242
-541.237	-158.694	0.053	-0.003
-540.223	-22.526	-0.167	-0.101
-539.208	436.694	-0.021	0.047
-538.193	-129.458	0.312	0.043
-537.179	-37.889	0.323	0.173
-536.164	-144.944	0.433	0.040
-535.150	-200.000	0.031	-0.168
-534.135	19.392	-0.147	-0.119
-533.121	-200.000	-0.014	0.102
-532.106	-43.080	0.223	-0.113
-531.091	309.262	0.208	-0.390
-530.077	266.251	0.115	-0.201
-529.062	-200.000	0.043	0.413
-528.048	-169.476	0.147	-0.005
-527.033	-49.662	-0.169	-0.081
-526.018	800.000	-0.086	-0.369
-525.004	517.032	-0.107	0.251
-523.989	32.948	-0.271	-0.236
-522.975	176.418	0.091	0.133
-521.960	-31.551	0.340	-0.191
-520.945	43.202	0.152	0.139
-519.931	-163.351	-0.098	0.005
-518.916	59.215	-0.183	-0.181
-517.902	-119.203	0.121	-0.021
-516.887	-33.872	0.279	0.154
-515.872	242.587	-0.104	0.174
-514.858	123.038	0.130	0.163
-513.843	-19.375	0.212	0.132
-512.829	-120.668	0.237	0.040
-511.814	-56.179	-0.025	0.011
-510.799	800.000	0.051	-0.148
-509.785	32.080	-0.109	-0.094
-508.770	59.059	0.216	-0.213
-507.756	-135.318	-0.121	-0.015
-506.741	-33.041	-0.212	0.118
-505.726	-130.148	0.154	-0.021
-504.712	489.735	0.127	0.292
-503.697	-26.567	0.120	0.070
-502.683	-111.732	-0.199	-0.040
-501.668	-124.168	-0.152	-0.024
-500.653	48.744	0.372	-0.349
-499.639	-141.907	-0.248	-0.025
-498.624	8.928	0.168	-0.127
-497.610	-200.000	-0.078	0.566
-496.595	-158.804	0.400	0.023
-495.581	-75.847	0.184	0.065
-494.566	-161.509	-0.342	-0.018
-493.551	683.911	-0.033	0.086
-492.537	-200.000	-0.019	-0.269
-491.522	83.870	-0.126	-0.138
-490.508	138.693	-0.182	-0.239
-489.493	-33.438	0.248	0.137
-488.478	65.829	0.054	-0.055
-487.464	-6.545	-0.035	-0.024
-486.449	305.375	-0.140	-0.261
-485.435	800.000	0.048	-0.197
-484.420	175.269	-0.134	0.195
-483.405	-200.000	0.089	-0.486
-482.391	-125.018	-0.271	0.042
-481.376	-158.257	0.310	-0.018
-480.362	48.032	-0.181	0.169
-479.347	34.726	0.081	0.071
-478.332	338.382	-0.109	0.213
-477.318	-159.214	-0.111	-0.006
-476.303	-58.720	-0.119	-0.051
-475.289	-15.791	-0.321	0.205
-474.274	-200.000	0.000	-0.071
-473.259	-152.059	-0.183	0.013
-472.245	-50.113	0.355	-0.168
-471.230	-68.163	0.148	-0.058
-470.216	800.000	-0.020	0.086
-469.201	-200.000	-0.062	-0.335
-468.186	-200.000	-0.028	-0.129
-467.172	164.795	-0.275	0.388
-466.157	214.295	-0.043	-0.069
-465.143	-83.389	-0.296	0.095
-464.128	-104.391	-0.075	-0.017
-463.113	800.000	0.038	0.162
-462.099	800.000	-0.065	0.255
-461.084	-200.000	-0.016	-0.076
-460.070	331.163	0.049	-0.094
-459.055	-200.000	0.045	-0.255
-458.040	24.063	-0.235	0.194
-457.026	-160.146	-0.180	0.010
-456.011	-200.000	0.045	0.307
-454.997	-200.000	-0.013	-0.070
-453.982	800.000	0.072	-0.199
-452.968	-81.562	-0.288	-0.095
-451.953	576.316	-0.009	0.023
-450.938	-200.000	0.015	-0.136
-449.924	-161.819	0.048	0.002
-448.909	-89.599	0.435	-0.128
-447.895	-118.402	0.115	-0.020
-446.880	-200.000	-0.012	-0.073
-445.865	-157.297	0.159	-0.010
-444.851	334.666	0.100	-0.193
-443.836	37.184	0.110	0.097
-442.822	-34.467	0.127	-0.069
-441.807	-137.233	-0.173	-0.020
-440.792	-68.167	0.335	0.130
-439.778	39.463	-0.099	-0.089
-438.763	401.120	0.152	-0.319
-437.749	-200.000	0.042	-0.260
-436.734	-187.697	-0.031	0.000
-435.719	-38.567	0.022	-0.011
-434.705	155.252	0.029	-0.040
-433.690	310.165	-0.112	0.209
-432.676	-61.355	0.094	0.039
-431.661	143.064	0.173	-0.229
-430.646	66.965	-0.087	-0.088
-429.632	67.808	-0.311	0.317
-428.617	800.000	0.064	0.185
-427.603	-94.643	-0.103	-0.028
-426.588	100.354	-0.072	0.083
-425.573	82.978	0.100	0.108
-424.559	112.147	-0.241	-0.291
-423.544	-180.770	-0.177	0.004
-422.530	-12.013	0.034	-0.022
-421.515	-49.796	0.039	0.019
-420.500	-4.845	0.331	-0.228
-419.486	-110.976	-0.192	-0.039
-418.471	46.766	-0.141	-0.131
-417.457	87.938	0.280	-0.310
-416.442	69.475	-0.074	0.076
-415.428	-200.000	-0.000	0.220
-414.413	-200.000	-0.007	0.041
-413.398	-51.461	-0.122	0.057
-412.384	-200.000	0.019	0.228
-411.369	57.435	0.246	-0.240
-410.355	-0.573	-0.193	0.137
-409.340	75.505	-0.314	-0.331
-408.325	-179.245	0.222	-0.005
-407.311	120.665	-0.201	0.249
-406.296	198.951	-0.030	-0.046
-405.282	-62.414	-0.118	0.049
-404.267	43.565	-0.159	-0.145
-403.252	99.033	0.234	-0.270
-402.238	259.336	-0.241	-0.415
-401.223	-82.173	0.272	0.089
-400.209	30.068	-0.181	0.154
-399.194	167.909	0.138	-0.196
-398.179	-200.000	-0.098	-0.483
-397.165	800.000	-0.022	0.069
-396.150	-141.866	-0.370	0.037
-395.136	76.098	0.200	0.211
-394.121	-62.719	0.031	-0.013
-393.106	-150.688	0.140	-0.011
-392.092	-36.324	-0.038	-0.021
-391.077	-7.526	-0.359	-0.242
-390.063	-41.096	-0.151	-0.078
-389.048	1.059	0.306	0.219
-388.033	370.788	0.164	0.332
-387.019	19.340	0.210	0.168
-386.004	-182.560	0.310	-0.006
-384.990	-4.683	-0.047	-0.032
-383.975	25.813	-0.465	0.386
-382.960	-192.171	0.088	-0.001
-381.946	588.188	0.054	0.132
-380.931	755.768	-0.079	-0.214
-379.917	95.996	-0.111	0.126
-378.902	-80.274	0.405	-0.135
-377.888	-25.678	-0.117	-0.069
-376.873	-10.714	-0.159	-0.105
-375.858	42.272	-0.205	0.186
-374.844	-94.642	0.160	-0.043
-373.829	-172.632	-0.190	-0.006
-372.815	-200.000	0.004	-0.020
-371.800	-15.870	0.306	-0.194
-370.785	-200.000	-0.002	-0.196
-369.771	117.468	0.172	0.211
-368.756	800.000	-0.039	0.123
-367.742	-119.462	0.182	-0.031
-366.727	-38.384	-0.073	0.038
-365.712	-200.000	-0.025	0.249
-364.698	-63.598	0.212	0.087
-363.683	-200.000	0.013	0.266
-362.669	9.998	0.143	-0.108
-361.654	-200.000	0.050	0.400
-360.639	44.682	-0.162	0.148
-359.625	-161.250	-0.211	0.011
-358.610	-100.226	-0.078	-0.019
-357.596	-200.000	0.017	0.109
-356.581	-117.116	-0.040	0.007
-355.566	739.261	0.033	0.088
-354.552	-85.701	-0.157	-0.049
-353.537	-39.609	-0.158	-0.082
-352.523	-133.523	-0.183	-0.023
-351.508	-144.459	-0.341	-0.031
-350.493	-26.628	0.089	-0.052
-349.479	59.577	0.280	-0.275
-348.464	5.921	-0.219	-0.161
-347.450	-200.000	-0.064	-0.315
-346.435	-129.367	0.110	-0.015
-345.420	10.142	0.245	-0.185
-344.406	77.591	0.045	0.047
-343.391	-200.000	-0.008	0.243
-342.377	-13.045	-0.099	0.064
-341.362	-123.771	0.288	-0.045
-340.348	-100.773	0.192	0.047
-339.333	-92.280	0.099	-0.028
-338.318	11.391	-0.291	-0.222
-337.304	25.965	0.372	-0.309
-336.289	-200.000	0.006	0.035
-335.275	800.000	0.029	0.080
-334.260	-200.000	-0.059	0.475
-333.245	-200.000	0.026	0.425
-332.231	8.597	-0.186	-0.139
-331.216	-34.290	0.178	0.097
-330.202	-122.127	0.302	-0.049
-329.187	-73.700	-0.078	-0.028
-328.172	-85.293	0.162	0.050
-327.158	47.081	0.179	-0.166
-326.143	260.386	0.144	0.247
-325.129	800.000	-0.056	-0.223
-324.114	-187.121	0.345	-0.005
-323.099	-24.036	0.079	-0.047
-322.085	-200.000	0.034	-0.257
-321.070	53.309	0.123	-0.118
-320.056	-35.257	-0.111	-0.060
-319.041	800.000	-0.077	0.303
-318.026	-170.261	0.210	-0.007
-317.012	-76.229	0.152	0.053
-315.997	-136.290	0.173	-0.020
-314.983	40.045	-0.187	0.167
-313.968	185.271	-0.235	0.347
-312.953	31.884	0.133	0.114
-311.939	-45.018	-0.284	-0.140
-310.924	362.620	-0.101	-0.202
-309.910	0.519	0.142	0.101
-308.895	-200.000	-0.008	0.078
-307.880	-69.132	-0.209	0.080
-306.866	135.204	0.137	-0.177
-305.851	-46.102	0.100	-0.049
-304.837	-139.897	0.169	0.018
-303.822	-89.043	-0.376	-0.111
-302.807	-131.690	0.188	-0.025
-301.793	-200.000	-0.064	0.320
-300.778	-129.697	0.198	0.027
-299.764	-63.392	-0.270	-0.111
-298.749	-57.515	-0.253	-0.111
-297.735	-117.048	-0.185	-0.033
-296.720	-123.083	-0.327	0.052
-295.705	783.528	0.115	0.313
-294.691	105.295	0.200	-0.235
-293.676	800.000	-0.008	0.022
-292.662	329.212	-0.165	-0.314
-291.647	169.591	0.155	0.219
-290.632	-28.886	0.202	0.115
-289.618	-173.889	0.274	0.008
-288.603	79.381	-0.154	0.164
-287.589	88.598	-0.146	-0.162
-286.574	-99.685	0.051	-0.013
-285.559	-55.870	0.210	-0.093
-284.545	-41.483	-0.311	-0.159
-283.530	552.412	-0.103	0.245
-282.516	-140.243	0.224	-0.023
-281.501	-200.000	0.057	0.422
-280.486	-139.188	0.171	-0.018
-279.472	-77.985	0.450	-0.154
-278.457	122.341	0.107	0.133
-277.443	394.354	0.066	0.137
-276.428	-144.159	0.291	-0.027
-275.413	-71.690	0.443	0.164
-274.399	359.590	0.074	-0.146
-273.384	332.932	0.205	-0.394
-272.370	-4.438	0.233	-0.160
-271.355	243.879	-0.070	0.116
-270.340	149.388	-0.164	-0.221
-269.326	-135.113	0.421	0.050
-268.311	-200.000	-0.024	-0.225
-267.297	-1.705	0.155	-0.108
-266.282	-70.919	0.207	0.078
-265.267	186.879	0.123	0.182
-264.253	800.000	-0.059	0.189
-263.238	-107.899	-0.184	0.040
-262.224	-21.878	-0.164	-0.099
-261.209	-200.000	-0.019	0.197
-260.195	-156.680	0.154	0.009
-259.180	800.000	-0.033	-0.133
-258.165	116.280	0.234	-0.285
-257.151	-113.114	-0.154	0.030
-256.136	367.689	-0.034	0.068
-255.122	-84.616	-0.285	-0.089
-254.107	-32.238	0.408	0.226
-253.092	15.922	-0.255	-0.199
-252.078	-200.000	0.061	0.460
-251.063	204.940	0.127	-0.195
-250.049	-200.000	-0.020	0.091
-249.034	800.000	-0.071	-0.284
-248.019	104.165	-0.095	-0.111
-247.005	800.000	-0.039	-0.156
-245.990	-200.000	0.056	0.000
-244.976	800.000	-0.048	0.196
-243.961	4.685	0.184	-0.134
-242.946	-200.000	-0.070	-0.546
-241.932	-33.499	0.101	-0.055
-240.917	-91.279	-0.300	-0.085
-239.903	552.190	0.019	-0.046
-238.888	401.123	-0.122	-0.255
-237.873	209.687	-0.091	0.141
-236.859	-34.365	0.087	0.047
-235.844	43.419	0.325	-0.294
-234.830	223.567	0.191	0.306
-233.815	-147.570	-0.185	-0.015
-232.800	800.000	-0.136	-0.390
-231.786	-43.494	-0.223	0.112
-230.771	180.621	-0.031	0.045
-229.757	-200.000	0.046	0.582
-228.742	-200.000	0.006	0.042
-227.727	273.042	0.135	0.236
-226.713	80.732	0.087	0.093
-225.698	800.000	0.039	-0.149
-224.684	-95.928	0.156	0.041
-223.669	-67.345	0.191	0.074
-222.655	295.511	0.167	-0.302
-221.640	-56.861	-0.371	-0.163
-220.625	480.102	0.161	-0.361
-219.611	253.383	-0.117	-0.197
-218.596	-95.062	0.030	0.008
-217.582	-22.365	-0.268	-0.161
-216.567	-200.000	-0.032	0.241
-215.552	132.242	-0.083	0.105
-214.538	-200.000	0.025	0.306
-213.523	504.694	0.052	0.120
-212.509	30.154	0.170	-0.144
-211.494	33.390	0.129	-0.111
-210.479	59.676	-0.211	0.206
-209.465	-105.124	-0.143	0.032
-208.450	800.000	0.051	-0.174
-207.436	-86.563	-0.501	-0.152
-206.421	112.283	-0.156	-0.187
-205.406	770.685	0.065	0.176
-204.392	800.000	-0.078	-0.316
-203.377	-23.620	-0.139	-0.082
-202.363	-24.288	-0.322	-0.190
-201.348	-55.624	0.351	-0.155
-200.333	433.958	-0.065	-0.140
-199.319	-13.802	0.405	-0.259
-198.304	-109.672	0.113	-0.024
-197.290	-200.000	0.004	0.026
-196.275	50.185	-0.314	-0.294
-195.260	-2.041	-0.167	0.116
-194.246	-62.603	0.332	0.136
-193.231	-200.000	0.027	0.147
-192.217	-78.064	-0.101	0.034
-191.202	-195.660	-0.129	-0.001
-190.187	-57.510	0.185	0.080
-189.173	-85.997	0.100	-0.031
-188.158	-102.683	0.046	-0.011
-187.144	299.846	0.076	0.139
-186.129	245.097	0.044	-0.073
-185.114	-20.646	0.326	-0.198
-184.100	362.032	0.096	-0.191
-183.085	-57.336	0.204	-0.089
-182.071	-200.000	-0.022	-0.226
-181.056	-130.388	0.057	0.008
-180.042	60.545	0.242	0.237
-179.027	800.000	0.016	-0.061
-178.012	48.340	0.232	0.215
-176.998	-16.678	0.108	-0.068
-175.983	66.116	-0.266	-0.267
-174.969	519.512	-0.157	0.365
-173.954	174.365	0.041	-0.058
-172.939	-58.509	-0.185	0.079
-171.925	-75.446	-0.187	0.066
-170.910	-200.000	-0.041	0.216
-169.896	-200.000	-0.004	0.229
-168.881	800.000	-0.077	0.227
-167.866	-200.000	-0.010	0.249
-166.852	-141.568	0.290	-0.029
-165.837	52.496	0.314	0.297
-164.823	19.607	-0.203	0.161
-163.808	38.424	-0.202	-0.178
-162.793	-200.000	-0.025	0.248
-161.779	-133.293	0.208	-0.026
-160.764	-77.208	0.272	-0.093
-159.750	203.570	-0.189	-0.289
-158.735	-200.000	0.028	0.204
-157.720	-93.738	-0.309	-0.084
-156.706	169.178	0.172	-0.243
-155.691	-130.509	0.137	0.018
-154.677	-166.616	0.216	0.009
-153.662	389.920	-0.207	-0.425
-152.647	800.000	0.040	0.128
-151.633	-91.740	0.178	-0.050
-150.618	-200.000	0.031	0.236
-149.604	-42.789	0.103	-0.052
-148.589	-69.205	-0.297	0.113
-147.574	-162.836	-0.147	-0.007
-146.560	15.346	0.218	-0.169
-145.545	521.239	-0.094	0.217
-144.531	-92.702	-0.194	0.054
-143.516	105.855	-0.125	0.146
-142.502	508.393	0.098	0.225
-141.487	-19.941	0.483	0.295
-140.472	-21.027	-0.008	0.005
-139.458	-127.033	0.193	-0.028
-138.443	209.982	0.123	-0.191
-137.429	-87.021	0.220	-0.066
-136.414	17.950	-0.039	-0.031
-135.399	689.955	0.153	0.396
-134.385	-53.994	0.289	0.130
-133.370	800.000	0.088	-0.297
-132.356	-9.459	-0.039	-0.026
-131.341	17.982	-0.207	-0.163
-130.326	-59.398	-0.033	0.014
-129.312	-175.747	-0.194	-0.005
-128.297	800.000	0.018	-0.067
-127.283	-200.000	-0.268	0.001
-126.268	-56.026	-0.227	0.100
-125.253	-78.151	-0.313	0.106
-124.239	480.388	0.020	-0.045
-123.224	293.242	0.105	-0.189
-122.210	-32.920	-0.212	0.116
