DTS Sentinel unit serial number:	SN413079Multiplexer serial number:	ORYXHardware model number:	OX4-SRSoftware version number:	ORYX F/W v4.00 Oryx Data Collector v3.7.2.0data status	okinstallation	princeton_trtdifferential loss correction	single-endedforward channel	channel 3reverse channel	N/Adate	2019/09/11time	07:06:11forward acquisition time	60.00reverse acquisition time	0.00gamma	496.2192k internal	0.2328k external	0.2328temperature offset calibration	0.9900default loss term (dB/km)	0.3790temperature slope calibration	1.0000multiplexer offset coefficient	1.0000multiplexer slope coefficient	1.0000fibre end	0.00T internal ref (°C)	30.28T ext. ref 1 (°C)	-0.13T ext. ref 2 (°C)	26.15length (m)	temperature (°C)	Stokes	anti-Stokes-747.200	800.000	0.029	0.104
-746.185	33.630	-0.152	-0.134
-745.171	653.019	0.040	-0.103
-744.156	29.363	-0.112	-0.096
-743.142	-106.025	0.214	0.048
-742.127	453.647	-0.136	0.304
-741.112	-200.000	0.042	-0.226
-740.098	607.085	0.033	-0.083
-739.083	100.913	0.229	-0.268
-738.069	-107.122	-0.292	-0.065
-737.054	-114.231	-0.389	0.076
-736.039	-109.441	0.142	-0.030
-735.025	800.000	0.045	-0.150
-734.010	155.595	-0.295	-0.409
-732.996	197.232	0.181	-0.279
-731.981	-43.096	-0.244	0.124
-730.966	-114.617	0.095	0.018
-729.952	-200.000	0.020	0.159
-728.937	-58.560	0.218	0.095
-727.923	15.893	0.170	-0.135
-726.908	-200.000	-0.013	-0.062
-725.894	800.000	-0.110	-0.308
-724.879	139.796	-0.120	0.159
-723.864	-56.525	-0.249	0.111
-722.850	800.000	0.029	0.117
-721.835	-137.964	-0.096	0.011
-720.821	6.310	0.279	0.208
-719.806	-45.726	-0.316	-0.157
-718.791	-200.000	0.065	0.323
-717.777	2.653	0.156	-0.114
-716.762	-179.183	0.288	-0.006
-715.748	162.210	-0.188	0.266
-714.733	674.553	0.101	0.263
-713.718	-200.000	0.018	-0.157
-712.704	201.602	0.153	-0.237
-711.689	-99.925	-0.202	-0.051
-710.675	-140.868	-0.193	0.020
-709.660	-161.830	-0.295	-0.015
-708.645	-200.000	0.043	0.205
-707.631	4.643	0.132	0.098
-706.616	87.005	0.102	-0.113
-705.602	242.025	-0.122	-0.206
-704.587	-92.211	0.215	0.061
-703.572	-41.979	-0.539	-0.278
-702.558	-154.719	-0.074	0.005
-701.543	-104.178	0.230	0.054
-700.529	800.000	0.042	-0.169
-699.514	751.935	-0.045	0.123
-698.499	-200.000	-0.104	-0.460
-697.485	410.276	-0.138	0.294
-696.470	115.946	-0.081	-0.100
-695.456	-200.000	-0.036	-0.222
-694.441	-146.943	0.171	0.015
-693.426	156.340	0.043	-0.059
-692.412	251.241	-0.147	0.252
-691.397	151.248	-0.133	-0.181
-690.383	-124.115	-0.214	-0.034
-689.368	-51.251	0.316	0.149
-688.354	-156.017	-0.073	-0.005
-687.339	-7.008	0.049	-0.034
-686.324	-200.000	-0.021	0.203
-685.310	37.771	-0.336	0.301
-684.295	26.254	-0.249	0.209
-683.281	520.653	0.127	-0.299
-682.266	40.429	-0.090	0.081
-681.251	247.184	-0.121	-0.205
-680.237	200.991	0.117	-0.180
-679.222	-137.814	-0.065	-0.007
-678.208	-175.155	0.157	-0.004
-677.193	-43.413	0.059	-0.030
-676.178	-39.156	-0.223	-0.118
-675.164	116.682	0.128	-0.157
-674.149	-92.100	-0.124	-0.035
-673.135	-153.290	0.143	-0.010
-672.120	-49.952	-0.194	-0.092
-671.105	452.329	0.045	-0.099
-670.091	-127.787	-0.231	-0.033
-669.076	-152.310	-0.517	-0.037
-668.062	-154.998	0.387	0.026
-667.047	800.000	0.059	-0.260
-666.032	-65.915	0.206	-0.083
-665.018	-50.203	-0.243	-0.115
-664.003	-20.926	0.202	0.124
-662.989	-82.852	-0.134	0.043
-661.974	701.996	-0.086	-0.228
-660.959	-69.313	0.076	-0.029
-659.945	112.391	0.122	0.148
-658.930	-169.283	0.186	0.007
-657.916	-162.517	0.232	-0.011
-656.901	800.000	-0.132	0.398
-655.886	-58.624	0.080	-0.035
-654.872	694.977	-0.124	0.328
-653.857	-54.071	-0.215	-0.098
-652.843	297.439	-0.085	-0.157
-651.828	-41.276	-0.163	0.085
-650.814	-54.661	0.474	0.215
-649.799	-20.372	0.349	0.216
-648.784	-44.766	-0.185	-0.093
-647.770	227.211	-0.115	0.187
-646.755	46.218	-0.150	0.140
-645.741	78.359	-0.085	0.091
-644.726	17.012	-0.129	-0.102
-643.711	9.917	0.100	-0.076
-642.697	-20.239	-0.255	-0.158
-641.682	-13.067	0.086	0.056
-640.668	106.138	-0.096	-0.115
-639.653	217.373	-0.175	0.280
-638.638	367.636	0.015	-0.030
-637.624	-60.354	0.218	-0.093
-636.609	-84.341	-0.028	0.009
-635.595	428.077	-0.146	0.317
-634.580	-102.488	-0.227	0.054
-633.565	89.982	-0.024	0.027
-632.551	56.558	0.181	-0.177
-631.536	58.625	0.054	-0.053
-630.522	-168.143	-0.332	0.013
-629.507	-151.641	0.396	0.029
-628.492	-27.297	0.259	0.151
-627.478	-200.000	-0.058	0.276
-626.463	-24.407	-0.132	0.079
-625.449	-200.000	0.023	-0.113
-624.434	-200.000	-0.052	0.348
-623.419	238.091	-0.116	0.193
-622.405	85.290	-0.160	-0.176
-621.390	-0.004	0.129	0.092
-620.376	39.297	0.120	0.108
-619.361	225.169	-0.129	-0.209
-618.346	-200.000	0.000	-0.283
-617.332	800.000	0.069	0.254
-616.317	668.756	0.037	-0.097
-615.303	-10.122	-0.188	-0.125
-614.288	68.755	-0.287	0.295
-613.273	-66.685	0.289	0.115
-612.259	96.941	-0.142	-0.163
-611.244	-200.000	-0.063	0.286
-610.230	800.000	0.068	0.261
-609.215	306.521	-0.084	0.156
-608.201	205.240	0.053	0.083
-607.186	9.324	0.311	0.235
-606.171	-20.328	-0.286	0.177
-605.157	-135.554	0.274	0.033
-604.142	-200.000	0.016	-0.102
-603.128	667.209	-0.108	0.279
-602.113	21.919	0.289	-0.236
-601.098	-158.874	0.126	-0.007
-600.084	113.715	0.217	-0.265
-599.069	71.419	0.191	-0.198
-598.055	-172.314	0.182	0.006
-597.040	800.000	0.035	-0.108
-596.025	595.159	-0.129	0.320
-595.011	281.852	0.126	-0.227
-593.996	800.000	-0.121	0.350
-592.982	354.571	0.124	0.247
-591.967	-200.000	-0.016	0.141
-590.952	-200.000	-0.057	-0.260
-589.938	800.000	0.054	-0.192
-588.923	46.107	-0.220	0.204
-587.909	-131.502	0.306	-0.040
-586.894	-116.560	-0.133	-0.025
-585.879	134.429	0.230	0.299
-584.865	-90.832	-0.149	0.043
-583.850	-68.725	-0.157	0.061
-582.836	301.928	0.025	0.047
-581.821	-66.117	0.284	-0.113
-580.806	-113.085	-0.310	0.061
-579.792	-60.521	0.112	0.048
-578.777	739.170	-0.130	-0.350
-577.763	-137.754	0.162	-0.018
-576.748	-25.521	0.439	0.260
-575.733	199.969	-0.149	-0.230
-574.719	-200.000	0.009	-0.115
-573.704	141.426	-0.098	0.130
-572.690	103.645	0.156	0.184
-571.675	800.000	-0.050	-0.152
-570.661	-26.477	-0.222	0.130
-569.646	-200.000	-0.020	0.218
-568.631	-107.089	-0.208	-0.046
-567.617	172.482	0.162	-0.233
-566.602	800.000	0.140	-0.400
-565.588	-125.993	0.371	-0.056
-564.573	-200.000	-0.055	-0.303
-563.558	800.000	0.198	-0.660
-562.544	800.000	-0.111	-0.354
-561.529	-25.009	0.367	-0.218
-560.515	-93.992	-0.293	-0.081
-559.500	33.661	0.324	0.282
-558.485	96.278	-0.238	0.272
-557.471	30.121	-0.092	-0.078
-556.456	800.000	-0.043	0.163
-555.442	-111.627	0.394	-0.080
-554.427	-94.161	-0.221	0.060
-553.412	274.345	-0.167	0.296
-552.398	-96.909	-0.386	-0.101
-551.383	-200.000	0.036	-0.325
-550.369	182.833	0.169	0.250
-549.354	-189.297	0.184	-0.002
-548.339	-200.000	-0.022	-0.225
-547.325	-71.644	0.077	-0.029
-546.310	-200.000	-0.023	-0.218
-545.296	-2.134	-0.283	0.198
-544.281	800.000	0.036	-0.146
-543.266	667.276	-0.084	-0.217
-542.252	-127.427	-0.264	0.038
-541.237	800.000	-0.035	0.136
-540.223	-43.431	0.046	-0.023
-539.208	800.000	-0.065	-0.272
-538.193	486.973	0.046	-0.106
-537.179	-200.000	-0.033	-0.444
-536.164	-102.365	-0.315	-0.076
-535.150	-200.000	0.006	0.067
-534.135	84.141	0.273	-0.298
-533.121	-62.367	-0.250	-0.104
-532.106	92.984	0.106	0.120
-531.091	46.020	-0.301	-0.279
-530.077	-24.672	0.127	-0.075
-529.062	47.175	0.117	-0.109
-528.048	-55.015	-0.140	-0.063
-527.033	-200.000	-0.005	0.048
-526.018	-200.000	0.007	-0.049
-525.004	13.667	-0.157	-0.122
-523.989	75.609	0.095	0.101
-522.975	446.842	0.090	0.199
-521.960	96.085	0.161	-0.184
-520.945	42.622	-0.212	-0.192
-519.931	227.716	-0.031	-0.050
-518.916	-200.000	0.001	-0.025
-517.902	800.000	0.043	0.135
-516.887	-62.694	-0.098	0.041
-515.872	45.923	-0.280	0.259
-514.858	-200.000	-0.026	-0.132
-513.843	1.305	0.188	-0.135
-512.829	-200.000	-0.006	0.101
-511.814	-95.524	-0.140	-0.037
-510.799	-200.000	0.037	-0.286
-509.785	-200.000	-0.031	-0.317
-508.770	23.310	-0.052	-0.043
-507.756	193.451	-0.154	0.232
-506.741	-132.471	-0.116	-0.015
-505.726	358.433	-0.066	0.132
-504.712	-200.000	0.028	0.154
-503.697	734.346	0.132	0.353
-502.683	-132.349	-0.247	-0.032
-501.668	267.572	-0.073	0.127
-500.653	-115.840	-0.058	0.011
-499.639	-15.657	-0.212	-0.135
-498.624	-66.025	-0.242	-0.096
-497.610	-81.945	-0.126	0.041
-496.595	18.706	0.081	-0.065
-495.581	-39.998	0.137	0.071
-494.566	-10.199	0.106	-0.070
-493.551	226.013	-0.078	0.127
-492.537	12.478	0.239	-0.184
-491.522	-200.000	0.019	-0.210
-490.508	-153.872	0.516	0.035
-489.493	-125.981	0.187	-0.028
-488.478	174.837	0.109	0.157
-487.464	-121.400	0.342	0.057
-486.449	-200.000	0.014	-0.248
-485.435	-83.079	-0.128	-0.041
-484.420	-200.000	0.038	0.169
-483.405	-55.375	0.033	0.015
-482.391	-200.000	0.028	-0.148
-481.376	-137.426	0.257	-0.029
-480.362	-162.526	0.170	0.008
-479.347	-134.716	0.036	0.004
-478.332	-200.000	0.007	-0.071
-477.318	20.100	-0.113	-0.091
-476.303	-200.000	-0.002	0.069
-475.289	-22.691	0.292	-0.176
-474.274	-174.209	-0.150	0.004
-473.259	437.663	0.129	0.279
-472.245	-200.000	0.001	0.163
-471.230	-44.238	-0.197	0.098
-470.216	-200.000	-0.025	-0.124
-469.201	-200.000	-0.026	0.163
-468.186	-200.000	-0.027	-0.191
-467.172	58.553	-0.170	0.167
-466.157	569.345	-0.134	-0.325
-465.143	68.138	0.301	0.307
-464.128	-79.447	0.361	-0.122
-463.113	312.058	0.155	-0.290
-462.099	-43.238	-0.176	0.089
-461.084	-87.383	0.206	-0.062
-460.070	53.487	-0.194	0.185
-459.055	-15.229	0.087	-0.056
-458.040	-142.714	0.312	0.030
-457.026	721.457	-0.108	-0.287
-456.011	323.718	0.246	0.467
-454.997	271.650	-0.140	0.245
-453.982	-37.468	-0.354	-0.188
-452.968	343.473	0.060	-0.117
-451.953	-42.743	0.238	-0.121
-450.938	378.236	0.124	-0.253
-449.924	-200.000	-0.039	0.224
-448.909	184.064	-0.079	0.117
-447.895	-200.000	-0.067	0.434
-446.880	305.422	-0.063	0.118
-445.865	-200.000	0.035	0.190
-444.851	-26.541	0.166	0.097
-443.836	800.000	-0.078	-0.262
-442.822	78.436	0.238	-0.253
-441.807	800.000	0.046	-0.133
-440.792	800.000	0.045	-0.124
-439.778	-82.855	-0.173	-0.056
-438.763	118.649	-0.078	-0.096
-437.749	82.640	-0.156	-0.168
-436.734	748.147	-0.060	0.161
-435.719	-101.208	0.082	0.020
-434.705	-48.365	-0.290	0.139
-433.690	-142.051	-0.198	0.020
-432.676	4.666	-0.128	-0.093
-431.661	-200.000	0.016	0.313
-430.646	800.000	-0.119	-0.383
-429.632	49.778	-0.356	-0.334
-428.617	-200.000	0.008	0.158
-427.603	358.481	-0.129	-0.257
-426.588	2.910	-0.266	-0.192
-425.573	800.000	0.045	-0.173
-424.559	-64.147	-0.308	-0.125
-423.544	-64.514	0.186	-0.075
-422.530	-119.131	0.133	0.023
-421.515	156.506	0.060	0.083
-420.500	-158.835	0.145	-0.008
-419.486	376.996	0.107	0.218
-418.471	800.000	-0.032	0.116
-417.457	-200.000	0.011	-0.099
-416.442	-200.000	0.040	-0.298
-415.428	100.543	-0.105	0.122
-414.413	800.000	0.100	-0.312
-413.398	25.796	0.320	-0.265
-412.384	-26.310	-0.194	0.114
-411.369	31.890	0.114	-0.098
-410.355	417.070	-0.078	0.166
-409.340	-200.000	-0.009	-0.212
-408.325	-9.903	-0.314	0.208
-407.311	149.704	-0.201	0.271
-406.296	-71.955	0.258	-0.095
-405.282	-153.432	-0.394	-0.027
-404.267	800.000	0.111	-0.335
-403.252	157.353	-0.198	0.273
-402.238	-43.582	0.263	0.132
-401.223	-68.302	-0.227	0.088
-400.209	800.000	0.111	-0.334
-399.194	800.000	-0.058	0.198
-398.179	215.467	-0.184	0.290
-397.165	-145.815	0.395	0.035
-396.150	61.668	-0.404	-0.400
-395.136	-18.020	0.124	-0.077
-394.121	-114.563	-0.129	0.025
-393.106	113.293	-0.199	0.240
-392.092	-200.000	-0.012	0.133
-391.077	-22.125	0.347	0.209
-390.063	-200.000	-0.065	0.319
-389.048	-94.747	0.269	0.073
-388.033	800.000	-0.017	-0.059
-387.019	-0.399	0.279	-0.197
-386.004	800.000	-0.094	-0.391
-384.990	-150.492	-0.320	-0.024
-383.975	-200.000	0.014	0.259
-382.960	224.224	0.206	0.331
-381.946	-181.111	0.370	-0.007
-380.931	285.915	-0.203	0.364
-379.917	-59.127	0.080	0.034
-378.902	800.000	0.069	0.233
-377.888	2.279	-0.128	-0.092
-376.873	-11.474	-0.127	-0.083
-375.858	-113.842	-0.108	0.021
-374.844	-89.760	0.199	-0.058
-373.829	69.172	-0.232	0.237
-372.815	-81.605	-0.113	-0.037
-371.800	460.562	0.101	-0.223
-370.785	147.756	0.285	-0.381
-369.771	767.356	0.107	0.288
-368.756	-9.945	0.110	0.073
-367.742	-200.000	0.068	-0.302
-366.727	253.964	-0.076	0.129
-365.712	-181.069	-0.205	0.004
-364.698	-65.996	0.073	-0.029
-363.683	-200.000	0.017	-0.251
-362.669	151.606	-0.167	0.226
-361.654	-147.055	-0.144	-0.012
-360.639	800.000	-0.140	-0.392
-359.625	-200.000	0.003	-0.045
-358.610	-86.804	-0.120	0.037
-357.596	109.619	-0.182	-0.216
-356.581	66.885	0.162	-0.164
-355.566	-181.007	0.219	0.004
-354.552	-49.181	-0.066	-0.031
-353.537	81.507	0.171	-0.184
-352.523	44.582	0.031	0.029
-351.508	-4.898	0.057	-0.039
-350.493	774.318	-0.100	0.271
-349.479	-141.053	0.191	-0.019
-348.464	-200.000	0.027	-0.268
-347.450	-20.219	0.285	-0.174
-346.435	90.160	-0.270	0.300
-345.420	-70.608	0.303	-0.114
-344.406	5.647	0.160	0.117
-343.391	516.352	0.050	-0.115
-342.377	800.000	0.123	0.392
-341.362	-125.929	0.145	-0.022
-340.348	-97.327	-0.071	0.018
-339.333	-81.924	0.163	-0.053
-338.318	34.511	-0.148	-0.128
-337.304	282.571	0.153	0.272
-336.289	74.036	-0.045	0.047
-335.275	-200.000	-0.013	0.365
-334.260	-200.000	0.034	0.346
-333.245	-66.316	-0.067	-0.027
-332.231	-48.681	0.146	-0.070
-331.216	-116.408	0.188	-0.034
-330.202	235.747	-0.185	0.304
-329.187	800.000	-0.037	-0.160
-328.172	149.232	-0.063	0.085
-327.158	-200.000	0.037	-0.232
-326.143	800.000	-0.040	-0.139
-325.129	336.736	-0.110	-0.213
-324.114	-183.145	0.243	-0.004
-323.099	19.226	-0.131	0.104
-322.085	517.712	-0.039	-0.091
-321.070	800.000	-0.055	-0.206
-320.056	-49.639	-0.159	-0.075
-319.041	158.904	-0.206	-0.283
-318.026	-131.223	0.114	0.015
-317.012	20.762	0.326	0.262
-315.997	81.262	0.234	-0.251
-314.983	-13.632	0.416	0.267
-313.968	-77.965	0.256	-0.087
-312.953	-155.914	0.260	0.016
-311.939	-76.054	0.221	0.077
-310.924	-200.000	0.037	0.338
-309.910	-127.532	0.479	-0.069
-308.895	-200.000	0.005	-0.510
-307.880	-200.000	-0.030	0.316
-306.866	-85.635	-0.160	0.049
-305.851	-15.213	-0.156	-0.099
-304.837	-147.842	-0.429	0.036
-303.822	22.245	0.098	0.080
-302.807	-107.449	0.366	0.079
-301.793	-179.612	-0.216	0.005
-300.778	-84.318	-0.145	-0.046
-299.764	-61.598	-0.113	0.047
-298.749	19.244	0.155	-0.123
-297.735	0.691	-0.247	0.175
-296.720	-11.001	-0.423	0.276
-295.705	-102.766	0.178	-0.042
-294.691	800.000	-0.057	-0.187
-293.676	800.000	0.058	0.239
-292.662	-95.678	0.178	-0.047
-291.647	-200.000	-0.056	0.360
-290.632	-132.832	-0.136	0.017
-289.618	-200.000	0.025	-0.211
-288.603	-21.407	-0.289	0.174
-287.589	-2.863	-0.235	-0.162
-286.574	-200.000	-0.078	-0.398
-285.559	-21.907	-0.086	-0.052
-284.545	386.708	0.032	0.065
-283.530	-64.184	-0.128	-0.052
-282.516	-32.733	-0.079	0.044
-281.501	123.891	-0.164	-0.204
-280.486	-120.823	-0.087	0.014
-279.472	-200.000	-0.011	0.378
-278.457	800.000	0.056	-0.241
-277.443	232.854	0.101	0.164
-276.428	-114.500	-0.013	-0.002
-275.413	117.529	-0.274	-0.334
-274.399	58.446	0.225	-0.218
-273.384	350.107	-0.069	0.135
-272.370	-41.903	-0.030	0.015
-271.355	340.698	-0.226	-0.436
-270.340	-45.969	0.202	0.099
-269.326	-27.292	-0.259	0.149
-268.311	344.932	0.141	0.275
-267.297	800.000	0.077	-0.288
-266.282	-188.867	-0.340	-0.004
-265.267	102.701	0.127	0.147
-264.253	-124.479	0.177	0.027
-263.238	4.183	-0.177	0.128
-262.224	-18.930	0.050	-0.031
-261.209	-66.972	-0.260	-0.101
-260.195	474.952	-0.045	0.100
-259.180	-200.000	-0.010	0.057
-258.165	-143.883	-0.144	-0.013
-257.151	-200.000	-0.023	0.228
-256.136	-200.000	0.001	-0.134
-255.122	16.799	0.101	0.079
-254.107	-27.432	-0.275	-0.158
-253.092	266.192	-0.059	0.102
-252.078	-51.841	-0.344	-0.158
-251.063	-200.000	-0.013	0.215
-250.049	326.555	-0.083	-0.157
-249.034	-200.000	-0.012	-0.129
-248.019	800.000	-0.012	0.034
-247.005	300.027	-0.101	0.185
-245.990	-26.641	0.219	-0.127
-244.976	-46.406	-0.217	-0.105
-243.961	-200.000	-0.034	0.272
-242.946	-37.271	-0.125	0.066
-241.932	-154.544	0.201	-0.013
-240.917	-84.936	-0.195	-0.061
-239.903	248.250	-0.031	0.052
-238.888	91.580	0.374	-0.415
-237.873	-101.477	-0.089	-0.021
-236.859	-99.162	0.107	-0.027
-235.844	-76.124	-0.248	-0.087
-234.830	-48.569	-0.308	-0.146
-233.815	-200.000	-0.012	-0.162
-232.800	-156.178	0.080	-0.005
-231.786	-15.765	0.131	-0.082
-230.771	-55.721	0.274	-0.121
-229.757	121.528	0.211	0.260
-228.742	800.000	0.102	0.278
-227.727	29.011	-0.182	-0.153
-226.713	-69.783	0.107	-0.040
-225.698	395.265	0.119	0.244
-224.684	161.381	0.166	0.229
-223.669	184.118	-0.123	0.179
-222.655	800.000	0.042	0.135
-221.640	145.309	-0.135	0.178
-220.625	-143.428	0.362	0.034
-219.611	458.055	0.117	-0.257
-218.596	-200.000	-0.016	-0.273
-217.582	20.636	0.335	0.268
-216.567	-76.064	-0.144	0.050
-215.552	17.599	0.233	-0.183
-214.538	800.000	0.057	0.245
-213.523	517.141	-0.038	0.087
-212.509	-200.000	-0.035	0.362
-211.494	-200.000	-0.004	0.359
-210.479	-37.710	-0.225	-0.118
-209.465	275.109	0.117	0.204
-208.450	-13.374	-0.161	0.103
-207.436	697.591	0.053	0.137
-206.421	-98.330	-0.230	-0.058
-205.406	-200.000	-0.015	0.451
-204.392	29.959	0.368	-0.309
-203.377	800.000	-0.065	-0.234
-202.363	-75.046	0.335	-0.118
-201.348	800.000	0.076	-0.288
-200.333	-146.873	0.076	-0.006
-199.319	159.793	-0.162	-0.223
-198.304	-200.000	0.020	0.118
-197.290	-200.000	-0.018	0.212
-196.275	396.907	0.024	-0.049
-195.260	-78.713	-0.367	0.123
-194.246	61.137	-0.104	-0.102
-193.231	-77.537	-0.077	0.026
-192.217	-2.047	0.328	0.227
-191.202	184.317	-0.049	0.072
-190.187	368.839	-0.069	-0.137
-189.173	3.685	0.243	-0.175
-188.158	433.032	0.076	0.162
-187.144	321.591	0.036	-0.068
-186.129	-114.190	-0.096	-0.018
-185.114	-200.000	-0.012	-0.078
-184.100	-9.556	0.194	0.127
-183.085	-134.483	-0.142	-0.017
-182.071	-56.828	-0.140	0.061
-181.056	31.783	0.098	-0.083
-180.042	143.143	-0.077	0.101
-179.027	-200.000	-0.029	0.235
-178.012	500.794	-0.054	0.123
-176.998	18.358	-0.113	0.089
-175.983	284.176	0.268	-0.476
-174.969	155.117	0.173	0.234
-173.954	20.241	-0.069	-0.055
-172.939	74.554	-0.353	-0.366
-171.925	428.514	-0.020	0.042
-170.910	-200.000	0.013	0.210
-169.896	-200.000	-0.063	0.279
-168.881	129.071	-0.033	0.042
-167.866	149.059	-0.205	0.273
-166.852	-86.412	0.287	0.087
-165.837	103.854	0.056	-0.065
-164.823	-200.000	-0.002	0.153
-163.808	-200.000	-0.039	-0.240
-162.793	-48.242	-0.045	0.022
-161.779	105.443	-0.122	-0.142
-160.764	240.844	-0.195	0.321
-159.750	105.719	-0.188	-0.219
-158.735	-10.284	-0.276	0.180
-157.720	-185.511	0.152	0.002
-156.706	-200.000	0.014	0.105
-155.691	36.830	0.304	0.265
-154.677	-200.000	-0.020	-0.145
-153.662	-144.784	0.109	0.010
-152.647	11.963	0.364	-0.275
-151.633	187.286	-0.141	-0.207
-150.618	-129.259	0.199	0.027
-149.604	255.418	0.109	0.184
-148.589	247.914	0.091	-0.151
-147.574	-55.979	0.332	0.146
-146.560	800.000	-0.085	-0.291
-145.545	28.732	0.224	-0.187
-144.531	-100.224	-0.368	-0.090
-143.516	800.000	-0.087	0.284
-142.502	-200.000	-0.025	0.113
-141.487	-200.000	0.036	-0.215
-140.472	-114.280	0.627	-0.119
-139.458	-200.000	0.001	0.186
-138.443	575.895	0.107	0.257
-137.429	117.000	-0.082	-0.099
-136.414	-36.288	0.339	-0.180
-135.399	-44.983	-0.039	0.019
-134.385	40.581	0.279	0.247
-133.370	-200.000	-0.092	-0.436
-132.356	-29.169	-0.350	0.197
-131.341	-144.477	-0.466	-0.043
-130.326	-39.955	0.161	0.083
-129.312	-41.906	-0.330	0.166
-128.297	-200.000	0.053	-0.316
-127.283	-79.637	0.446	-0.148
-126.268	55.997	-0.363	-0.347
-125.253	-200.000	0.024	0.229
-124.239	765.179	0.079	-0.212
-123.224	-125.483	0.321	-0.048
-122.210	57.235	0.112	0.108
