DTS Sentinel unit serial number:	SN413079Multiplexer serial number:	ORYXHardware model number:	OX4-SRSoftware version number:	ORYX F/W v4.00 Oryx Data Collector v3.7.2.0data status	okinstallation	princeton_trtdifferential loss correction	single-endedforward channel	channel 3reverse channel	N/Adate	2019/09/11time	10:38:11forward acquisition time	60.00reverse acquisition time	0.00gamma	496.2192k internal	0.2297k external	0.2297temperature offset calibration	0.9939default loss term (dB/km)	0.3790temperature slope calibration	1.0000multiplexer offset coefficient	1.0000multiplexer slope coefficient	1.0000fibre end	0.00T internal ref (°C)	36.61T ext. ref 1 (°C)	0.16T ext. ref 2 (°C)	34.05length (m)	temperature (°C)	Stokes	anti-Stokes-747.200	-118.341	0.610	-0.111
-746.185	454.757	0.069	0.156
-745.171	800.000	0.067	0.213
-744.156	800.000	0.037	0.151
-743.142	-42.491	0.146	-0.076
-742.127	355.721	0.082	0.166
-741.112	-200.000	-0.006	0.040
-740.098	217.392	-0.075	0.123
-739.083	-88.491	-0.180	0.055
-738.069	606.349	0.126	0.320
-737.054	-200.000	-0.373	-0.000
-736.039	-58.719	-0.375	-0.166
-735.025	-45.653	-0.267	-0.135
-734.010	-33.125	-0.159	-0.090
-732.996	-0.873	-0.284	-0.206
-731.981	295.115	-0.111	0.207
-730.966	800.000	0.040	-0.148
-729.952	800.000	-0.038	-0.157
-728.937	-181.698	0.327	0.006
-727.923	800.000	0.099	-0.322
-726.908	61.780	-0.339	0.345
-725.894	800.000	0.094	0.334
-724.879	37.837	0.078	-0.071
-723.864	72.726	0.128	-0.137
-722.850	-104.589	0.112	0.026
-721.835	-200.000	0.024	0.214
-720.821	-200.000	0.031	0.302
-719.806	59.289	-0.151	0.152
-718.791	-114.673	0.302	-0.059
-717.777	-200.000	0.040	-0.237
-716.762	76.283	-0.126	0.136
-715.748	51.366	0.269	-0.261
-714.733	161.856	-0.143	-0.204
-713.718	-107.521	-0.274	0.061
-712.704	-77.518	0.142	0.050
-711.689	-28.596	-0.093	0.055
-710.675	415.969	-0.020	0.043
-709.660	-40.415	-0.335	-0.178
-708.645	-72.757	-0.309	0.116
-707.631	-72.836	-0.212	-0.080
-706.616	9.718	-0.226	-0.175
-705.602	91.165	0.077	0.088
-704.587	-62.100	-0.341	0.145
-703.572	-200.000	0.027	0.318
-702.558	429.456	-0.253	0.558
-701.543	-200.000	0.027	-0.122
-700.529	386.725	-0.149	0.313
-699.514	10.551	-0.275	-0.214
-698.499	-75.552	0.045	0.016
-697.485	21.706	-0.138	-0.115
-696.470	-22.095	-0.078	0.049
-695.456	290.883	0.069	-0.127
-694.441	-152.401	-0.185	0.014
-693.426	-77.974	-0.117	-0.041
-692.412	334.324	0.236	-0.465
-691.397	170.522	0.220	-0.321
-690.383	-80.017	-0.052	0.018
-689.368	800.000	0.013	0.046
-688.354	-200.000	-0.046	-0.277
-687.339	-200.000	0.012	0.097
-686.324	800.000	-0.081	-0.254
-685.310	-200.000	-0.079	0.425
-684.295	69.948	-0.112	-0.117
-683.281	-45.467	0.267	-0.135
-682.266	-11.304	-0.075	-0.050
-681.251	-200.000	-0.025	0.419
-680.237	-126.584	0.280	-0.042
-679.222	-119.005	0.107	0.019
-678.208	-125.713	-0.197	0.030
-677.193	66.841	0.089	0.093
-676.178	-81.365	-0.257	0.086
-675.164	-200.000	-0.022	-0.250
-674.149	-200.000	0.071	0.353
-673.135	230.344	0.074	0.123
-672.120	-148.215	-0.336	-0.028
-671.105	800.000	-0.064	-0.189
-670.091	-18.433	-0.143	0.091
-669.076	-99.906	0.092	0.023
-668.062	-125.884	0.164	0.025
-667.047	-78.305	0.279	-0.097
-666.032	800.000	0.077	0.300
-665.018	-112.955	0.072	0.014
-664.003	-148.124	-0.354	0.030
-662.989	800.000	-0.075	-0.294
-661.974	74.715	0.056	-0.060
-660.959	-79.406	-0.097	-0.033
-659.945	632.859	-0.099	-0.255
-658.930	31.732	-0.101	-0.088
-657.916	152.383	0.084	0.116
-656.901	-200.000	0.024	0.195
-655.886	-200.000	-0.082	-0.441
-654.872	-66.029	-0.171	-0.070
-653.857	134.328	0.162	0.214
-652.843	187.602	-0.071	-0.108
-651.828	800.000	-0.053	-0.181
-650.814	-44.083	0.323	-0.165
-649.799	204.504	-0.110	-0.173
-648.784	-200.000	0.053	-0.284
-647.770	73.903	-0.284	-0.304
-646.755	35.238	-0.251	-0.224
-645.741	2.424	-0.321	0.236
-644.726	512.712	-0.055	0.129
-643.711	274.488	-0.169	0.305
-642.697	-114.686	-0.081	0.016
-641.682	800.000	-0.053	0.223
-640.668	193.681	0.147	0.227
-639.653	-200.000	-0.013	0.217
-638.638	-112.870	-0.086	-0.017
-637.624	97.603	-0.081	-0.095
-636.609	-125.139	-0.274	0.043
-635.595	295.154	-0.147	0.273
-634.580	142.724	0.050	-0.068
-633.565	-43.495	-0.175	0.090
-632.551	-89.531	0.240	-0.072
-631.536	-137.636	0.457	0.052
-630.522	52.406	-0.090	0.087
-629.507	-95.366	0.245	0.067
-628.492	41.308	-0.089	-0.081
-627.478	93.954	-0.206	0.238
-626.463	-7.950	-0.140	-0.096
-625.449	418.661	-0.085	0.186
-624.434	-49.481	-0.313	-0.151
-623.419	-147.155	0.420	-0.036
-622.405	-70.304	0.377	-0.145
-621.390	532.691	-0.081	0.194
-620.376	320.226	0.129	-0.248
-619.361	-63.299	-0.152	0.064
-618.346	-200.000	0.043	-0.278
-617.332	235.567	-0.047	0.080
-616.317	-38.797	0.132	0.071
-615.303	117.052	0.177	-0.221
-614.288	500.559	0.070	0.165
-613.273	-98.420	-0.404	-0.105
-612.259	-170.243	0.221	-0.008
-611.244	82.315	-0.043	-0.047
-610.230	204.802	-0.154	-0.243
-609.215	272.991	0.063	0.113
-608.201	178.103	-0.305	0.452
-607.186	800.000	0.081	0.261
-606.171	622.288	-0.050	-0.128
-605.157	-200.000	-0.056	0.270
-604.142	-15.454	0.108	0.070
-603.128	800.000	-0.084	0.274
-602.113	800.000	0.045	0.191
-601.098	-35.482	0.177	0.098
-600.084	-134.723	0.010	0.001
-599.069	470.448	-0.161	0.368
-598.055	331.717	0.040	0.078
-597.040	103.132	0.242	-0.288
-596.025	441.333	0.125	-0.278
-595.011	110.143	-0.086	-0.105
-593.996	-69.088	0.188	-0.073
-592.982	-148.554	-0.121	-0.010
-591.967	-83.581	-0.347	-0.113
-590.952	-119.066	-0.111	0.020
-589.938	710.163	-0.124	0.333
-588.923	-8.177	0.098	0.067
-587.909	-84.024	0.449	-0.145
-586.894	288.410	-0.131	-0.240
-585.879	92.529	-0.192	0.220
-584.865	170.624	-0.164	0.238
-583.850	15.877	0.127	0.101
-582.836	530.920	0.076	-0.183
-581.821	-83.682	0.104	0.034
-580.806	-200.000	-0.006	-0.342
-579.792	-200.000	0.007	-0.043
-578.777	171.482	0.045	-0.065
-577.763	283.093	0.171	0.311
-576.748	-200.000	-0.025	-0.145
-575.733	-200.000	0.022	0.121
-574.719	100.487	-0.158	-0.186
-573.704	-116.602	0.037	0.007
-572.690	-38.545	-0.320	-0.172
-571.675	32.001	-0.202	0.176
-570.661	-72.739	-0.139	0.052
-569.646	800.000	0.089	-0.324
-568.631	-200.000	0.005	0.083
-567.617	-64.366	0.218	-0.090
-566.602	-200.000	0.003	-0.225
-565.588	177.200	-0.188	-0.278
-564.573	-84.431	0.240	0.077
-563.558	-109.406	-0.270	-0.058
-562.544	-85.008	0.387	-0.123
-561.529	-151.947	0.219	0.016
-560.515	800.000	0.090	0.312
-559.500	-175.706	0.198	-0.005
-558.485	-45.281	0.297	-0.150
-557.471	-63.097	-0.042	-0.017
-556.456	-200.000	0.008	0.095
-555.442	-51.592	0.095	-0.045
-554.427	-129.717	0.131	0.018
-553.412	90.565	-0.133	-0.151
-552.398	800.000	0.089	-0.277
-551.383	33.136	-0.113	0.099
-550.369	-18.127	-0.339	-0.215
-549.354	439.918	0.048	-0.106
-548.339	-200.000	-0.041	-0.186
-547.325	130.063	-0.118	0.153
-546.310	734.394	-0.098	-0.266
-545.296	48.872	-0.073	-0.070
-544.281	355.320	-0.095	0.192
-543.266	-33.053	-0.154	-0.087
-542.252	109.408	0.060	-0.072
-541.237	-200.000	-0.025	0.123
-540.223	-107.729	0.365	0.081
-539.208	642.527	-0.150	-0.388
-538.193	74.784	0.095	0.102
-537.179	65.633	-0.194	0.199
-536.164	-20.834	0.152	-0.094
-535.150	-200.000	-0.004	-0.200
-534.135	-200.000	-0.005	0.108
-533.121	277.543	-0.106	-0.190
-532.106	-156.632	0.200	-0.013
-531.091	-88.626	0.250	-0.075
-530.077	723.704	0.048	-0.131
-529.062	-57.963	-0.275	0.122
-528.048	40.898	-0.163	-0.149
-527.033	800.000	0.032	-0.092
-526.018	-200.000	0.029	-0.411
-525.004	37.223	0.194	-0.174
-523.989	88.154	-0.136	-0.153
-522.975	-120.506	-0.213	0.037
-521.960	29.580	-0.232	0.199
-520.945	-16.695	0.200	-0.128
-519.931	-200.000	0.004	-0.188
-518.916	-165.797	0.080	0.003
-517.902	-20.518	0.336	0.209
-516.887	285.800	-0.123	0.224
-515.872	183.386	-0.111	0.167
-514.858	-69.420	-0.162	0.063
-513.843	-200.000	0.011	0.328
-512.829	800.000	-0.029	-0.122
-511.814	800.000	0.044	-0.131
-510.799	5.969	-0.104	0.078
-509.785	-70.271	-0.136	-0.052
-508.770	-200.000	-0.020	0.217
-507.756	800.000	-0.057	0.228
-506.741	-41.168	-0.206	0.108
-505.726	141.474	0.156	-0.209
-504.712	144.255	0.222	0.300
-503.697	203.582	-0.152	-0.238
-502.683	-36.917	-0.149	0.081
-501.668	31.709	-0.192	0.167
-500.653	-42.755	0.257	-0.132
-499.639	-43.692	-0.318	-0.162
-498.624	94.521	0.078	-0.089
-497.610	800.000	0.134	-0.445
-496.595	-106.948	-0.338	-0.076
-495.581	-54.850	-0.189	-0.086
-494.566	223.560	0.051	-0.084
-493.551	-3.364	-0.123	-0.087
-492.537	-200.000	0.042	-0.249
-491.522	800.000	0.041	-0.122
-490.508	-144.920	-0.359	0.033
-489.493	194.272	0.029	-0.044
-488.478	-137.825	-0.214	-0.024
-487.464	278.910	0.148	-0.266
-486.449	143.429	-0.077	-0.103
-485.435	-200.000	0.033	0.348
-484.420	800.000	0.030	0.088
-483.405	-28.440	-0.278	0.162
-482.391	305.131	0.074	-0.139
-481.376	-113.454	-0.127	-0.025
-480.362	156.032	0.083	-0.116
-479.347	-30.039	0.106	0.061
-478.332	15.042	0.350	0.277
-477.318	-200.000	0.009	0.157
-476.303	193.412	0.194	-0.297
-475.289	184.720	0.196	-0.294
-474.274	-55.011	-0.268	-0.122
-473.259	572.670	0.063	-0.156
-472.245	-191.478	-0.300	0.003
-471.230	-69.741	-0.077	-0.030
-470.216	-177.410	-0.170	0.004
-469.201	-200.000	0.025	-0.191
-468.186	800.000	0.010	-0.030
-467.172	-78.202	-0.325	0.113
-466.157	-2.717	-0.072	0.051
-465.143	800.000	0.053	-0.171
-464.128	210.990	0.150	0.238
-463.113	-200.000	-0.015	-0.493
-462.099	550.734	-0.076	0.185
-461.084	-97.819	-0.112	0.029
-460.070	-200.000	0.011	-0.095
-459.055	-152.989	0.307	0.022
-458.040	-173.277	-0.133	0.004
-457.026	-71.658	0.177	0.067
-456.011	45.220	-0.243	-0.227
-454.997	143.247	0.062	0.083
-453.982	30.535	0.168	0.145
-452.968	15.951	0.109	-0.087
-451.953	-141.404	-0.082	0.008
-450.938	-50.771	-0.350	-0.166
-449.924	800.000	0.063	0.212
-448.909	-200.000	0.005	0.161
-447.895	375.593	-0.165	-0.341
-446.880	-27.161	0.191	0.113
-445.865	226.460	-0.045	-0.074
-444.851	204.151	0.255	-0.398
-443.836	303.576	-0.152	-0.285
-442.822	-28.238	-0.119	0.070
-441.807	173.647	-0.104	-0.151
-440.792	-119.268	0.136	-0.024
-439.778	-85.985	0.270	0.084
-438.763	800.000	-0.009	-0.041
-437.749	800.000	-0.021	0.088
-436.734	82.250	0.133	0.146
-435.719	15.716	0.216	0.171
-434.705	5.409	0.202	-0.150
-433.690	-28.954	0.058	0.033
-432.676	134.751	0.328	0.430
-431.661	70.287	-0.130	0.135
-430.646	295.216	0.086	0.159
-429.632	-200.000	0.017	-0.214
-428.617	433.376	0.091	0.200
-427.603	800.000	0.123	-0.407
-426.588	31.107	-0.070	-0.060
-425.573	-113.083	0.129	-0.026
-424.559	192.364	-0.125	-0.190
-423.544	-200.000	-0.003	-0.314
-422.530	103.430	-0.102	-0.120
-421.515	-200.000	-0.000	-0.018
-420.500	-15.011	0.107	0.069
-419.486	-106.349	-0.246	0.056
-418.471	-200.000	-0.061	-0.335
-417.457	-133.522	-0.421	-0.053
-416.442	-200.000	-0.022	0.174
-415.428	-200.000	-0.003	0.553
-414.413	800.000	-0.085	0.249
-413.398	26.643	-0.230	0.194
-412.384	27.746	0.228	-0.194
-411.369	511.392	0.032	0.075
-410.355	17.927	-0.293	-0.235
-409.340	800.000	-0.047	-0.146
-408.325	-0.903	0.436	0.311
-407.311	51.007	0.066	0.063
-406.296	359.439	0.075	0.152
-405.282	133.307	-0.284	0.370
-404.267	13.354	-0.353	0.276
-403.252	-69.978	0.383	0.147
-402.238	-76.826	0.086	0.030
-401.223	484.184	-0.076	-0.174
-400.209	-200.000	-0.015	0.246
-399.194	800.000	0.019	0.052
-398.179	434.717	-0.116	0.253
-397.165	800.000	-0.098	0.316
-396.150	-147.880	0.179	0.015
-395.136	-82.678	0.272	0.089
-394.121	-26.584	-0.030	0.018
-393.106	-200.000	-0.025	-0.131
-392.092	-85.832	-0.270	0.084
-391.077	-77.051	0.220	0.077
-390.063	32.231	0.212	0.184
-389.048	-75.668	-0.233	-0.083
-388.033	126.703	-0.207	0.264
-387.019	-157.812	0.078	0.005
-386.004	-176.392	0.185	-0.005
-384.990	343.903	-0.079	0.157
-383.975	-200.000	-0.019	-0.173
-382.960	361.512	-0.113	0.229
-381.946	-19.367	0.078	0.048
-380.931	-185.857	0.342	0.005
-379.917	-105.159	-0.131	0.030
-378.902	-200.000	-0.007	0.281
-377.888	-29.702	0.094	-0.054
-376.873	701.315	-0.024	0.064
-375.858	-90.587	0.115	0.034
-374.844	2.043	-0.032	0.023
-373.829	-129.045	0.392	0.055
-372.815	325.928	0.175	-0.337
-371.800	123.723	-0.077	0.097
-370.785	-47.796	0.181	0.088
-369.771	353.297	-0.036	-0.071
-368.756	-200.000	0.018	0.205
-367.742	800.000	0.066	0.243
-366.727	-52.580	-0.124	-0.058
-365.712	800.000	0.107	-0.314
-364.698	113.895	0.094	-0.115
-363.683	-44.922	-0.227	0.114
-362.669	51.814	-0.192	0.184
-361.654	-200.000	-0.010	-0.318
-360.639	-200.000	0.046	0.251
-359.625	-112.183	0.059	-0.012
-358.610	22.597	0.079	0.065
-357.596	-26.074	0.100	-0.059
-356.581	-141.757	0.178	-0.018
-355.566	326.209	0.086	-0.166
-354.552	301.377	-0.058	0.108
-353.537	-148.818	-0.176	0.014
-352.523	-66.615	0.033	-0.013
-351.508	546.321	0.129	0.310
-350.493	-157.975	0.116	0.007
-349.479	480.895	0.069	-0.157
-348.464	738.196	-0.037	0.101
-347.450	75.061	-0.210	0.223
-346.435	-200.000	0.034	0.220
-345.420	405.756	-0.084	0.177
-344.406	-200.000	0.000	0.035
-343.391	-200.000	-0.001	-0.298
-342.377	64.543	-0.010	0.010
-341.362	-88.828	-0.315	0.094
-340.348	800.000	0.092	0.285
-339.333	-35.033	0.235	-0.129
-338.318	-82.515	-0.188	-0.061
-337.304	-3.160	0.171	-0.120
-336.289	-200.000	-0.053	0.292
-335.275	476.164	0.249	-0.564
-334.260	284.292	0.151	-0.274
-333.245	657.960	0.098	0.254
-332.231	-81.729	-0.235	0.077
-331.216	298.569	0.070	0.129
-330.202	283.743	0.142	0.257
-329.187	-78.591	0.188	-0.064
-328.172	232.006	0.163	-0.268
-327.158	-98.855	-0.214	-0.055
-326.143	-49.226	-0.143	0.069
-325.129	785.026	-0.037	0.103
-324.114	205.186	-0.021	0.033
-323.099	-200.000	0.017	0.243
-322.085	-32.838	0.233	-0.130
-321.070	-162.600	0.167	-0.008
-320.056	152.044	-0.051	-0.070
-319.041	-46.663	0.223	0.110
-318.026	-13.082	-0.496	-0.324
-317.012	-92.498	0.106	-0.030
-315.997	419.545	-0.060	-0.128
-314.983	18.427	-0.097	0.077
-313.968	268.617	-0.065	0.114
-312.953	-130.171	0.266	-0.036
-311.939	-121.692	-0.292	-0.049
-310.924	242.397	0.062	0.105
-309.910	198.778	-0.166	0.255
-308.895	18.872	0.125	0.101
-307.880	404.416	-0.162	-0.342
-306.866	-200.000	0.016	0.344
-305.851	-120.522	0.236	0.040
-304.837	800.000	-0.022	-0.072
-303.822	704.685	0.060	0.158
-302.807	-115.649	-0.321	0.060
-301.793	-5.491	0.289	0.199
-300.778	313.408	-0.081	0.153
-299.764	-54.108	0.289	0.132
-298.749	-71.564	-0.226	0.085
-297.735	-200.000	0.025	0.225
-296.720	-200.000	-0.023	0.121
-295.705	276.489	0.052	-0.093
-294.691	56.798	-0.206	0.201
-293.676	331.783	-0.191	0.370
-292.662	-200.000	-0.039	0.205
-291.647	-31.519	0.275	-0.155
-290.632	448.942	-0.179	-0.395
-289.618	-42.374	0.441	0.226
-288.603	-128.764	0.128	0.018
-287.589	-71.262	0.466	-0.175
-286.574	-200.000	0.019	-0.120
-285.559	800.000	-0.015	0.056
-284.545	-162.306	-0.168	-0.008
-283.530	-140.632	0.175	-0.018
-282.516	-200.000	0.017	0.100
-281.501	303.495	-0.113	0.210
-280.486	-181.441	0.464	0.009
-279.472	-200.000	-0.001	-0.134
-278.457	491.892	-0.039	0.090
-277.443	467.100	-0.077	-0.173
-276.428	-200.000	0.013	0.174
-275.413	47.383	0.137	0.128
-274.399	61.592	0.150	0.150
-273.384	46.318	-0.147	-0.137
-272.370	-47.686	0.020	-0.010
-271.355	381.345	0.035	-0.073
-270.340	51.005	-0.160	0.152
-269.326	-200.000	0.053	0.422
-268.311	-71.419	-0.060	0.023
-267.297	-96.856	-0.321	-0.085
-266.282	-200.000	-0.000	0.244
-265.267	-55.058	0.242	0.109
-264.253	-130.858	-0.260	-0.035
-263.238	-144.641	-0.150	0.014
-262.224	-200.000	0.044	-0.253
-261.209	-200.000	-0.023	-0.149
-260.195	-40.838	0.379	-0.197
-259.180	-8.947	0.096	-0.064
-258.165	-46.786	0.135	-0.066
-257.151	-129.152	-0.251	0.035
-256.136	364.902	-0.055	-0.111
-255.122	-200.000	-0.024	0.306
-254.107	210.061	-0.194	0.305
-253.092	-36.827	0.184	-0.099
-252.078	-41.672	0.058	-0.030
-251.063	-60.317	0.028	-0.012
-250.049	-124.680	0.229	-0.036
-249.034	-200.000	0.004	0.300
-248.019	4.465	-0.159	-0.117
-247.005	172.028	-0.205	-0.295
-245.990	-90.448	0.199	0.058
-244.976	501.323	0.036	0.083
-243.961	-77.012	-0.281	0.098
-242.946	-200.000	-0.039	-0.341
-241.932	119.473	0.097	-0.120
-240.917	480.996	-0.104	0.237
-239.903	-90.044	-0.153	-0.045
-238.888	83.213	-0.163	-0.177
-237.873	-148.808	0.120	0.010
-236.859	519.202	0.142	0.334
-235.844	-200.000	0.010	0.158
-234.830	68.153	-0.071	0.073
-233.815	122.665	0.157	0.196
-232.800	-81.738	-0.023	-0.007
-231.786	-200.000	-0.053	-0.232
-230.771	-84.293	0.259	-0.082
-229.757	-78.920	-0.134	0.046
-228.742	50.670	0.166	-0.157
-227.727	-200.000	-0.087	-0.565
-226.713	704.511	0.108	-0.284
-225.698	-95.690	0.164	0.044
-224.684	-200.000	-0.026	-0.128
-223.669	800.000	-0.046	0.155
-222.655	-108.573	0.118	0.025
-221.640	21.620	-0.117	-0.095
-220.625	224.822	-0.180	0.291
-219.611	-129.961	0.297	0.041
-218.596	800.000	0.009	0.028
-217.582	-200.000	0.015	-0.283
-216.567	-29.351	0.254	0.146
-215.552	-61.396	-0.037	-0.015
-214.538	-126.423	0.292	-0.044
-213.523	800.000	0.082	0.248
-212.509	-75.581	-0.044	0.016
-211.494	-156.317	-0.086	0.005
-210.479	-43.947	0.171	-0.086
-209.465	270.810	-0.054	-0.094
-208.450	-45.283	-0.142	-0.071
-207.436	-112.717	-0.200	-0.040
-206.421	-21.200	-0.157	0.096
-205.406	243.264	-0.111	-0.186
-204.392	-38.875	0.107	-0.056
-203.377	-23.714	0.100	-0.060
-202.363	-154.110	0.176	0.012
-201.348	-44.975	-0.077	0.038
-200.333	-200.000	0.013	-0.172
-199.319	78.914	-0.045	0.048
-198.304	89.974	-0.355	-0.397
-197.290	-200.000	-0.045	-0.223
-196.275	-41.661	0.158	-0.081
-195.260	51.476	-0.067	0.064
-194.246	-130.677	-0.175	0.024
-193.231	-67.281	0.189	0.074
-192.217	-118.740	0.294	0.052
-191.202	52.701	-0.124	-0.118
-190.187	568.087	-0.069	0.167
-189.173	37.461	-0.137	-0.122
-188.158	-30.343	0.046	-0.026
-187.144	78.158	-0.332	0.354
-186.129	-200.000	0.048	-0.272
-185.114	-113.889	-0.227	0.044
-184.100	-23.769	-0.075	-0.045
-183.085	180.064	0.181	0.265
-182.071	-82.904	-0.244	0.079
-181.056	-142.735	0.197	-0.019
-180.042	-150.526	0.276	0.021
-179.027	25.784	-0.201	-0.167
-178.012	-68.812	0.243	-0.094
-176.998	-52.115	-0.059	-0.027
-175.983	349.461	0.092	-0.181
-174.969	800.000	-0.059	0.236
-173.954	247.595	0.095	-0.160
-172.939	106.115	-0.177	-0.209
-171.925	800.000	0.082	-0.346
-170.910	-200.000	-0.020	-0.180
-169.896	-58.556	-0.145	-0.063
-168.881	-7.235	-0.127	-0.086
-167.866	800.000	-0.036	-0.114
-166.852	164.107	0.143	0.201
-165.837	-64.963	0.118	-0.048
-164.823	-200.000	-0.061	-0.426
-163.808	-103.433	0.174	-0.041
-162.793	7.983	0.192	0.144
-161.779	-52.401	-0.391	0.181
-160.764	68.214	0.199	-0.203
-159.750	-173.464	0.101	0.003
-158.735	800.000	0.157	-0.485
-157.720	85.853	-0.109	0.120
-156.706	-183.507	-0.279	0.005
-155.691	-138.818	-0.215	0.023
-154.677	-20.773	-0.235	0.144
-153.662	-112.761	0.172	0.034
-152.647	-162.774	0.233	-0.011
-151.633	36.088	0.017	0.015
-150.618	307.105	-0.122	-0.226
-149.604	800.000	-0.075	0.275
-148.589	-19.967	-0.037	0.023
-147.574	-96.070	0.204	0.054
-146.560	-200.000	-0.035	-0.189
-145.545	234.588	-0.045	-0.075
-144.531	-48.844	-0.252	0.120
-143.516	-200.000	0.029	-0.421
-142.502	-200.000	-0.007	0.051
-141.487	-58.941	-0.204	-0.088
-140.472	8.549	-0.261	-0.196
-139.458	-160.655	-0.180	0.010
-138.443	-200.000	-0.034	0.264
-137.429	200.114	0.083	0.127
-136.414	-25.306	-0.184	-0.108
-135.399	331.751	0.076	-0.146
-134.385	105.403	0.152	-0.178
-133.370	-200.000	0.002	-0.074
-132.356	-28.656	0.146	-0.084
-131.341	-39.948	0.167	-0.087
-130.326	183.184	-0.068	-0.100
-129.312	-123.958	0.231	-0.036
-128.297	-200.000	0.000	0.253
-127.283	-200.000	-0.013	0.254
-126.268	-85.798	0.504	-0.156
-125.253	-200.000	-0.001	-0.154
-124.239	-128.832	0.276	0.039
-123.224	259.117	-0.029	0.051
-122.210	800.000	0.069	0.228
-121.195	800.000	-0.021	0.060
