DTS Sentinel unit serial number:	SN413079Multiplexer serial number:	ORYXHardware model number:	OX4-SRSoftware version number:	ORYX F/W v4.00 Oryx Data Collector v3.7.2.0data status	okinstallation	princeton_trtdifferential loss correction	single-endedforward channel	channel 3reverse channel	N/Adate	2019/09/11time	18:30:11forward acquisition time	60.00reverse acquisition time	0.00gamma	496.2192k internal	0.2287k external	0.2287temperature offset calibration	1.0003default loss term (dB/km)	0.3790temperature slope calibration	1.0000multiplexer offset coefficient	1.0000multiplexer slope coefficient	1.0000fibre end	0.00T internal ref (°C)	43.86T ext. ref 1 (°C)	1.18T ext. ref 2 (°C)	37.40length (m)	temperature (°C)	Stokes	anti-Stokes-747.200	645.458	0.040	-0.105
-746.185	800.000	0.107	0.332
-745.171	-77.425	0.262	-0.093
-744.156	738.891	0.059	0.163
-743.142	-200.000	0.014	-0.111
-742.127	-11.876	-0.302	0.203
-741.112	287.139	0.167	0.309
-740.098	-13.397	0.140	-0.093
-739.083	158.081	-0.265	0.377
-738.069	800.000	-0.077	0.294
-737.054	800.000	0.017	-0.076
-736.039	800.000	-0.049	0.171
-735.025	800.000	0.009	0.028
-734.010	-114.215	-0.371	-0.074
-732.996	-32.426	-0.266	0.152
-731.981	-200.000	-0.096	0.430
-730.966	20.672	0.247	-0.205
-729.952	-60.558	-0.422	-0.184
-728.937	-105.825	-0.246	-0.057
-727.923	-148.045	-0.441	0.038
-726.908	-42.036	-0.100	0.053
-725.894	460.643	0.081	0.186
-724.879	488.318	-0.042	-0.098
-723.864	490.676	-0.058	-0.136
-722.850	800.000	-0.013	0.041
-721.835	14.444	0.093	0.074
-720.821	-149.129	0.194	-0.016
-719.806	25.617	0.277	-0.237
-718.791	-200.000	0.005	-0.028
-717.777	249.167	0.171	-0.298
-716.762	341.550	-0.146	0.293
-715.748	51.856	0.153	0.149
-714.733	392.991	-0.095	-0.203
-713.718	303.496	-0.036	-0.069
-712.704	-34.720	-0.152	0.085
-711.689	-34.976	0.245	0.137
-710.675	-35.594	-0.202	0.112
-709.660	-64.030	-0.292	-0.122
-708.645	-200.000	0.011	0.211
-707.631	388.780	0.083	-0.175
-706.616	220.582	0.077	0.126
-705.602	54.511	0.131	0.129
-704.587	231.881	-0.101	-0.169
-703.572	-200.000	0.020	0.107
-702.558	22.899	0.134	0.113
-701.543	-200.000	-0.034	0.179
-700.529	126.371	-0.068	-0.089
-699.514	90.674	0.140	0.160
-698.499	114.638	-0.117	-0.146
-697.485	-23.394	-0.119	0.073
-696.470	177.162	-0.120	0.179
-695.456	-200.000	0.028	0.163
-694.441	240.417	0.147	-0.250
-693.426	618.512	0.112	0.289
-692.412	254.854	-0.090	0.158
-691.397	-200.000	0.004	-0.259
-690.383	-200.000	0.036	0.281
-689.368	800.000	0.040	0.167
-688.354	21.362	-0.239	-0.198
-687.339	-55.198	-0.128	0.059
-686.324	151.304	-0.204	0.284
-685.310	-200.000	0.067	-0.376
-684.295	-200.000	0.022	-0.423
-683.281	-59.378	-0.475	0.209
-682.266	-200.000	-0.000	0.130
-681.251	-200.000	0.159	-0.001
-680.237	-200.000	0.011	-0.119
-679.222	-200.000	0.027	-0.138
-678.208	-19.446	-0.161	-0.102
-677.193	-61.543	0.260	0.112
-676.178	15.000	-0.279	-0.224
-675.164	-200.000	-0.070	0.438
-674.149	-140.577	0.224	-0.024
-673.135	800.000	0.044	0.170
-672.120	-174.729	0.111	0.003
-671.105	-64.136	-0.267	-0.111
-670.091	2.730	-0.179	-0.133
-669.076	-156.973	0.187	-0.012
-668.062	-200.000	0.046	-0.260
-667.047	-8.696	-0.154	0.106
-666.032	25.080	-0.092	0.078
-665.018	-148.340	-0.140	0.012
-664.003	-51.636	0.149	-0.071
-662.989	800.000	-0.071	0.301
-661.974	-121.452	0.152	0.026
-660.959	-17.619	-0.096	0.062
-659.945	98.571	-0.137	0.162
-658.930	112.888	-0.227	0.281
-657.916	800.000	-0.004	0.012
-656.901	800.000	0.056	0.217
-655.886	477.918	0.113	0.261
-654.872	-186.398	-0.113	0.002
-653.857	32.055	0.198	-0.175
-652.843	-7.100	0.290	0.201
-651.828	92.144	0.190	-0.219
-650.814	-200.000	0.016	-0.215
-649.799	75.285	-0.263	-0.284
-648.784	-114.764	0.108	0.021
-647.770	-77.011	-0.273	0.097
-646.755	-200.000	0.005	0.085
-645.741	140.390	0.125	0.169
-644.726	800.000	-0.025	0.073
-643.711	120.848	0.297	0.378
-642.697	82.024	-0.009	-0.010
-641.682	43.134	0.219	-0.204
-640.668	612.260	-0.045	0.115
-639.653	24.448	0.197	-0.166
-638.638	-109.564	0.331	0.071
-637.624	-81.537	0.249	-0.084
-636.609	-59.502	-0.187	0.082
-635.595	-200.000	0.006	-0.320
-634.580	-3.754	0.228	0.162
-633.565	2.910	0.302	0.224
-632.551	-148.746	0.360	0.030
-631.536	107.251	0.149	0.181
-630.522	-200.000	0.018	0.082
-629.507	19.754	0.250	0.205
-628.492	-62.066	0.055	-0.023
-627.478	152.856	-0.165	-0.231
-626.463	-71.525	-0.096	-0.037
-625.449	-1.717	0.215	-0.155
-624.434	78.084	0.356	-0.388
-623.419	-200.000	-0.013	0.257
-622.405	101.906	0.021	0.024
-621.390	-200.000	-0.037	-0.167
-620.376	-102.709	0.203	-0.049
-619.361	800.000	0.048	0.153
-618.346	74.031	-0.177	0.190
-617.332	-200.000	0.004	0.060
-616.317	-200.000	0.005	0.201
-615.303	132.440	0.208	0.274
-614.288	221.474	0.133	-0.218
-613.273	138.690	-0.187	0.250
-612.259	800.000	0.035	-0.110
-611.244	-129.712	-0.140	-0.020
-610.230	501.138	0.134	-0.317
-609.215	-83.808	-0.214	-0.070
-608.201	-200.000	-0.031	0.156
-607.186	-77.903	-0.304	0.107
-606.171	320.649	0.066	-0.129
-605.157	104.155	-0.138	0.166
-604.142	-43.329	-0.247	-0.128
-603.128	800.000	-0.067	-0.296
-602.113	149.457	-0.093	0.128
-601.098	68.383	-0.035	0.037
-600.084	51.860	0.020	-0.019
-599.069	1.632	-0.252	-0.185
-598.055	-67.769	-0.183	0.073
-597.040	169.627	0.093	-0.135
-596.025	-26.934	-0.172	0.102
-595.011	64.050	0.185	-0.190
-593.996	194.277	-0.107	-0.165
-592.982	800.000	0.042	-0.164
-591.967	-15.263	0.303	-0.198
-590.952	-26.419	0.254	0.152
-589.938	305.385	-0.013	0.025
-588.923	800.000	-0.103	0.331
-587.909	71.123	0.154	-0.162
-586.894	-200.000	0.051	-0.248
-585.879	2.149	-0.071	-0.052
-584.865	-138.201	-0.300	0.034
-583.850	69.488	-0.086	0.091
-582.836	241.571	0.051	-0.087
-581.821	233.903	-0.013	0.022
-580.806	800.000	0.034	0.118
-579.792	27.865	-0.134	-0.115
-578.777	766.976	0.079	-0.219
-577.763	626.227	-0.082	-0.212
-576.748	800.000	0.090	-0.276
-575.733	-123.393	-0.234	-0.038
-574.719	-98.766	-0.039	0.010
-573.704	133.372	-0.060	0.079
-572.690	36.599	0.088	-0.079
-571.675	-200.000	-0.020	-0.247
-570.661	-34.991	-0.048	0.027
-569.646	800.000	-0.092	-0.308
-568.631	-35.352	0.270	-0.150
-567.617	-200.000	0.070	0.333
-566.602	-200.000	-0.038	0.319
-565.588	647.151	-0.103	-0.268
-564.573	-17.070	-0.073	-0.047
-563.558	-136.117	-0.226	0.027
-562.544	388.710	-0.042	-0.088
-561.529	-123.185	0.182	-0.030
-560.515	273.822	-0.093	0.167
-559.500	211.751	0.140	0.225
-558.485	-8.791	0.320	0.219
-557.471	-45.886	-0.147	-0.074
-556.456	-200.000	0.016	0.121
-555.442	-97.210	0.218	0.058
-554.427	-107.695	-0.151	-0.034
-553.412	-172.417	-0.033	0.001
-552.398	-55.712	-0.440	-0.201
-551.383	-113.349	0.181	0.036
-550.369	-38.128	-0.145	0.078
-549.354	-200.000	-0.035	-0.335
-548.339	116.515	0.045	-0.056
-547.325	-37.741	-0.099	0.054
-546.310	800.000	-0.094	0.332
-545.296	-96.497	-0.264	0.071
-544.281	-75.008	0.114	-0.042
-543.266	-90.276	0.125	-0.037
-542.252	154.098	0.080	0.111
-541.237	-50.692	0.528	0.253
-540.223	-168.915	0.199	-0.008
-539.208	-152.674	0.118	-0.009
-538.193	-200.000	-0.021	-0.111
-537.179	-64.740	-0.207	-0.085
-536.164	228.349	0.238	-0.394
-535.150	-57.769	-0.230	-0.102
-534.135	-102.151	0.324	0.079
-533.121	800.000	0.102	-0.453
-532.106	237.572	0.159	0.269
-531.091	-200.000	-0.020	0.373
-530.077	-113.298	-0.218	-0.044
-529.062	370.012	0.019	0.040
-528.048	73.222	0.080	-0.085
-527.033	-104.917	-0.248	-0.058
-526.018	800.000	0.047	-0.181
-525.004	-200.000	-0.022	-0.310
-523.989	-142.298	0.318	-0.032
-522.975	800.000	-0.044	-0.175
-521.960	115.377	-0.136	0.169
-520.945	-169.328	-0.261	-0.010
-519.931	185.180	-0.270	-0.407
-518.916	207.979	0.072	0.115
-517.902	-200.000	-0.007	-0.060
-516.887	26.317	-0.085	-0.072
-515.872	-39.406	-0.164	0.088
-514.858	371.284	0.111	0.229
-513.843	800.000	-0.034	0.134
-512.829	-63.277	-0.523	0.219
-511.814	800.000	-0.080	0.283
-510.799	166.470	0.164	0.236
-509.785	64.706	0.162	0.166
-508.770	800.000	-0.019	-0.066
-507.756	-80.577	0.122	-0.041
-506.741	74.483	0.194	0.207
-505.726	233.787	0.090	0.151
-504.712	-42.966	0.113	-0.058
-503.697	482.348	0.097	0.224
-502.683	-88.505	-0.176	-0.053
-501.668	76.614	-0.109	0.117
-500.653	-200.000	-0.021	0.375
-499.639	101.428	-0.040	0.048
-498.624	645.710	-0.051	-0.133
-497.610	179.369	0.089	0.133
-496.595	-96.096	-0.144	0.039
-495.581	282.104	-0.034	-0.061
-494.566	800.000	-0.054	-0.165
-493.551	516.819	-0.061	-0.145
-492.537	-34.120	-0.180	0.100
-491.522	800.000	-0.037	0.106
-490.508	564.526	0.002	-0.004
-489.493	57.630	-0.170	0.169
-488.478	-95.889	0.197	0.053
-487.464	-81.680	0.123	-0.041
-486.449	-11.827	-0.160	-0.107
-485.435	800.000	-0.029	0.116
-484.420	-102.655	0.415	-0.100
-483.405	-74.287	0.123	-0.045
-482.391	149.323	0.178	0.244
-481.376	800.000	-0.110	-0.362
-480.362	107.142	-0.323	-0.390
-479.347	-82.794	0.316	-0.104
-478.332	-200.000	-0.017	-0.363
-477.318	-94.276	0.071	0.020
-476.303	-132.458	0.175	0.023
-475.289	-123.917	-0.309	0.049
-474.274	-15.046	0.214	0.139
-473.259	-87.474	-0.282	-0.087
-472.245	-76.668	-0.313	0.111
-471.230	-92.170	0.048	-0.014
-470.216	-93.707	0.131	0.037
-469.201	-200.000	0.016	0.186
-468.186	-125.874	0.129	0.020
-467.172	376.060	-0.151	0.313
-466.157	-200.000	-0.032	0.198
-465.143	49.071	-0.208	-0.198
-464.128	-200.000	-0.000	-0.336
-463.113	372.531	0.006	0.013
-462.099	-105.630	0.064	0.015
-461.084	-75.381	-0.138	0.050
-460.070	-155.129	0.295	0.020
-459.055	325.936	-0.093	-0.180
-458.040	-17.008	-0.236	0.151
-457.026	128.491	-0.028	0.037
-456.011	-48.965	0.090	-0.044
-454.997	-45.220	0.103	0.052
-453.982	-123.664	-0.249	-0.040
-452.968	13.446	-0.375	0.295
-451.953	418.803	0.114	0.247
-450.938	109.185	0.177	0.215
-449.924	53.815	0.028	-0.027
-448.909	-134.439	-0.305	-0.038
-447.895	-38.766	-0.439	-0.235
-446.880	113.820	-0.057	0.070
-445.865	-6.600	-0.268	0.185
-444.851	-34.899	-0.298	-0.165
-443.836	-200.000	-0.009	0.241
-442.822	800.000	-0.038	0.162
-441.807	-46.770	-0.112	0.056
-440.792	-139.164	0.047	0.005
-439.778	159.291	-0.159	0.224
-438.763	-200.000	0.020	-0.173
-437.749	-36.860	0.203	-0.110
-436.734	66.085	0.107	0.110
-435.719	-103.320	0.369	0.088
-434.705	800.000	-0.056	0.213
-433.690	76.814	0.138	0.149
-432.676	-200.000	0.006	-0.349
-431.661	-132.058	0.096	-0.013
-430.646	-136.373	-0.223	-0.026
-429.632	-64.793	-0.025	0.010
-428.617	-101.799	0.218	-0.054
-427.603	128.721	0.094	0.122
-426.588	30.756	0.280	0.243
-425.573	80.828	-0.100	-0.109
-424.559	-105.912	0.024	0.006
-423.544	-87.813	-0.316	0.097
-422.530	131.454	-0.028	0.036
-421.515	-67.625	0.062	-0.025
-420.500	-19.247	0.097	-0.061
-419.486	330.457	-0.062	-0.122
-418.471	-77.129	-0.362	0.128
-417.457	-73.860	0.187	0.069
-416.442	-200.000	-0.006	-0.063
-415.428	-65.137	-0.096	-0.039
-414.413	-200.000	0.003	-0.116
-413.398	-200.000	-0.027	0.206
-412.384	227.042	-0.075	-0.124
-411.369	381.674	0.075	-0.157
-410.355	-200.000	0.018	-0.084
-409.340	163.842	-0.102	-0.146
-408.325	67.776	-0.084	0.087
-407.311	-200.000	0.022	0.116
-406.296	382.403	-0.133	-0.277
-405.282	201.020	-0.119	-0.186
-404.267	178.165	-0.193	0.285
-403.252	800.000	0.052	-0.215
-402.238	-200.000	0.103	-0.000
-401.223	399.384	-0.037	-0.079
-400.209	-200.000	0.039	-0.241
-399.194	-131.483	-0.373	-0.050
-398.179	-155.959	0.121	-0.008
-397.165	150.259	0.193	0.265
-396.150	478.052	0.228	0.522
-395.136	800.000	0.056	0.242
-394.121	201.856	0.141	-0.219
-393.106	67.518	-0.094	0.097
-392.092	-0.629	0.147	0.106
-391.077	-112.396	0.208	0.042
-390.063	0.412	0.144	0.104
-389.048	12.722	-0.187	0.146
-388.033	-200.000	-0.010	-0.197
-387.019	800.000	0.002	-0.006
-386.004	-200.000	-0.005	0.172
-384.990	-200.000	0.028	0.382
-383.975	800.000	0.087	-0.327
-382.960	-200.000	0.004	-0.222
-381.946	662.687	0.095	-0.248
-380.931	-63.706	0.262	0.109
-379.917	-47.027	0.255	0.126
-378.902	197.033	0.155	-0.240
-377.888	616.133	-0.064	-0.162
-376.873	-40.064	-0.299	-0.158
-375.858	-200.000	-0.023	-0.550
-374.844	-89.183	-0.198	0.059
-373.829	800.000	-0.046	0.139
-372.815	275.355	-0.168	0.300
-371.800	90.125	-0.036	0.041
-370.785	492.210	-0.205	-0.474
-369.771	800.000	0.035	0.100
-368.756	-29.094	-0.185	0.107
-367.742	494.056	0.105	0.244
-366.727	-200.000	-0.096	0.550
-365.712	64.424	0.200	0.203
-364.698	-114.232	-0.307	0.060
-363.683	800.000	0.068	0.298
-362.669	-200.000	0.016	0.226
-361.654	116.047	-0.134	0.166
-360.639	423.449	-0.108	0.236
-359.625	-18.690	-0.212	-0.134
-358.610	-200.000	-0.001	-0.050
-357.596	-25.319	0.104	0.062
-356.581	69.204	-0.287	-0.298
-355.566	-200.000	0.020	-0.120
-354.552	800.000	-0.120	-0.427
-353.537	-68.245	0.309	0.122
-352.523	-126.779	-0.121	0.018
-351.508	-200.000	0.017	-0.355
-350.493	800.000	0.146	-0.484
-349.479	410.511	-0.019	-0.041
-348.464	198.675	0.017	-0.026
-347.450	-137.815	0.336	0.038
-346.435	-127.770	0.293	0.043
-345.420	-200.000	-0.024	0.209
-344.406	-46.918	0.335	0.166
-343.391	-126.602	-0.344	0.052
-342.377	-200.000	0.024	0.205
-341.362	548.192	0.085	0.205
-340.348	248.857	0.231	-0.396
-339.333	800.000	0.101	0.299
-338.318	-147.230	-0.215	-0.019
-337.304	-61.113	-0.180	-0.077
-336.289	-200.000	-0.029	-0.130
-335.275	375.087	-0.120	-0.247
-334.260	-200.000	0.058	-0.360
-333.245	454.891	0.146	-0.326
-332.231	6.385	-0.410	-0.307
-331.216	-87.576	0.131	-0.040
-330.202	-13.201	0.076	-0.050
-329.187	-200.000	-0.063	-0.320
-328.172	-182.033	0.138	-0.003
-327.158	-96.459	-0.101	-0.027
-326.143	-40.327	-0.306	-0.161
-325.129	-52.177	-0.048	0.022
-324.114	18.291	-0.125	-0.101
-323.099	362.019	-0.109	0.221
-322.085	93.478	-0.210	-0.240
-321.070	-107.145	-0.202	0.045
-320.056	121.969	0.185	0.232
-319.041	-124.896	-0.216	-0.034
-318.026	-200.000	0.020	0.213
-317.012	-100.083	0.274	0.069
-315.997	-108.668	-0.072	0.016
-314.983	-200.000	0.022	-0.175
-313.968	-133.720	-0.221	-0.028
-312.953	35.661	0.065	-0.057
-311.939	281.131	0.132	-0.239
-310.924	-143.020	-0.249	0.024
-309.910	332.543	0.318	0.619
-308.895	-200.000	0.024	-0.188
-307.880	-200.000	-0.081	0.817
-306.866	-1.500	0.249	-0.177
-305.851	800.000	0.050	0.155
-304.837	378.068	0.104	0.215
-303.822	259.869	-0.126	0.220
-302.807	77.723	-0.261	-0.281
-301.793	-58.324	-0.040	0.017
-300.778	17.905	0.071	-0.057
-299.764	-154.824	0.140	-0.009
-298.749	800.000	0.060	-0.242
-297.735	-200.000	0.005	-0.182
-296.720	-2.179	0.114	-0.081
-295.705	-82.592	-0.171	-0.056
-294.691	-61.290	0.353	0.150
-293.676	87.772	0.235	-0.263
-292.662	-86.574	0.327	0.101
-291.647	-49.488	-0.345	0.166
-290.632	-9.381	-0.079	-0.053
-289.618	-36.293	0.030	-0.017
-288.603	707.397	-0.077	-0.206
-287.589	-200.000	-0.013	0.140
-286.574	282.587	0.042	0.076
-285.559	265.892	-0.088	-0.155
-284.545	506.981	-0.156	-0.365
-283.530	-20.929	-0.028	0.017
-282.516	-111.264	-0.375	-0.077
-281.501	243.966	-0.051	-0.086
-280.486	71.326	0.153	0.160
-279.472	-71.941	-0.084	0.031
-278.457	800.000	-0.043	-0.174
-277.443	-82.916	0.155	0.050
-276.428	205.535	0.127	0.198
-275.413	-200.000	0.017	-0.149
-274.399	-33.178	0.092	0.052
-273.384	-200.000	-0.003	-0.109
-272.370	-122.035	0.334	0.055
-271.355	216.249	0.067	0.106
-270.340	-87.427	-0.324	0.099
-269.326	-11.506	-0.241	0.160
-268.311	-58.287	-0.237	0.104
-267.297	-156.606	-0.252	0.016
-266.282	-17.537	0.112	-0.071
-265.267	800.000	0.071	0.229
-264.253	-120.709	-0.264	0.045
-263.238	43.457	0.106	-0.097
-262.224	-21.376	0.308	-0.190
-261.209	49.201	0.055	-0.052
-260.195	-200.000	-0.052	0.231
-259.180	-49.562	0.047	0.023
-258.165	67.240	-0.030	-0.031
-257.151	-47.526	-0.073	0.036
-256.136	4.329	-0.020	-0.014
-255.122	800.000	0.127	-0.474
-254.107	772.504	0.157	-0.431
-253.092	800.000	0.082	-0.331
-252.078	281.364	-0.186	0.334
-251.063	-200.000	0.031	-0.324
-250.049	-116.372	0.229	0.043
-249.034	-200.000	0.033	0.283
-248.019	-67.570	-0.061	-0.024
-247.005	191.198	0.050	-0.076
-245.990	-94.137	-0.086	0.024
-244.976	-156.596	0.207	0.013
-243.961	-200.000	-0.021	-0.419
-242.946	65.725	-0.185	0.189
-241.932	76.953	0.142	-0.152
-240.917	-200.000	0.002	0.029
-239.903	128.460	-0.156	-0.200
-238.888	-117.490	0.275	0.050
-237.873	-200.000	0.031	0.390
-236.859	800.000	-0.011	0.041
-235.844	-200.000	0.019	-0.172
-234.830	-200.000	0.015	-0.194
-233.815	99.065	0.200	0.232
-232.800	800.000	-0.107	0.462
-231.786	-200.000	0.016	-0.083
-230.771	36.266	0.062	-0.055
-229.757	800.000	-0.113	0.319
-228.742	800.000	-0.068	-0.251
-227.727	56.169	-0.122	-0.119
-226.713	-28.556	0.247	-0.143
-225.698	412.518	-0.077	0.165
-224.684	127.664	-0.035	-0.045
-223.669	130.982	0.154	0.199
-222.655	57.984	0.218	0.215
-221.640	-49.501	0.087	0.041
-220.625	-143.096	0.516	0.050
-219.611	-200.000	0.002	-0.080
-218.596	286.881	-0.150	0.272
-217.582	161.424	-0.154	0.217
-216.567	-200.000	-0.007	0.359
-215.552	62.291	-0.223	-0.223
-214.538	-113.331	-0.092	0.018
-213.523	-20.803	0.434	-0.268
-212.509	49.695	-0.031	0.029
-211.494	-78.506	-0.365	0.125
-210.479	-5.951	-0.098	-0.067
-209.465	-31.789	0.133	-0.075
-208.450	403.154	-0.238	0.503
-207.436	-200.000	0.015	-0.146
-206.421	207.306	-0.060	-0.093
-205.406	800.000	-0.127	0.380
-204.392	5.151	0.279	0.206
-203.377	298.755	-0.118	-0.217
-202.363	-174.572	-0.123	-0.004
-201.348	-200.000	0.003	0.265
-200.333	169.840	0.138	0.199
-199.319	-200.000	0.014	0.095
-198.304	800.000	0.134	-0.396
-197.290	-173.007	-0.174	-0.005
-196.275	-44.317	0.141	-0.071
-195.260	42.388	-0.148	0.135
-194.246	-86.475	0.289	-0.089
-193.231	-21.112	-0.108	-0.066
-192.217	-200.000	-0.001	-0.355
-191.202	-54.585	0.076	0.034
-190.187	-59.824	-0.175	-0.075
-189.173	-94.265	0.276	0.076
-188.158	800.000	0.031	-0.131
-187.144	800.000	-0.147	-0.479
-186.129	-52.963	0.398	-0.184
-185.114	-200.000	0.037	0.190
-184.100	34.148	0.385	0.337
-183.085	601.358	-0.108	-0.269
-182.071	133.568	-0.077	-0.100
-181.056	-200.000	0.011	-0.154
-180.042	-200.000	0.040	0.190
-179.027	800.000	-0.055	0.233
-178.012	102.589	-0.076	-0.090
-176.998	265.686	0.103	-0.180
-175.983	-200.000	0.015	-0.230
-174.969	-200.000	-0.025	0.136
-173.954	366.560	0.040	-0.081
-172.939	800.000	0.102	0.360
-171.925	800.000	-0.065	0.276
-170.910	126.842	-0.204	0.259
-169.896	-200.000	-0.009	0.263
-168.881	124.126	-0.164	-0.207
-167.866	-68.820	0.228	-0.088
-166.852	156.542	0.168	0.233
-165.837	-200.000	0.035	0.356
-164.823	-31.161	-0.242	0.137
-163.808	23.728	-0.179	-0.148
-162.793	590.417	-0.214	-0.528
-161.779	7.702	0.096	0.072
-160.764	134.925	0.122	0.160
-159.750	-75.404	0.154	-0.055
-158.735	-200.000	-0.015	0.127
-157.720	78.263	0.134	0.144
-156.706	111.289	0.214	-0.258
-155.691	-84.336	-0.392	-0.124
-154.677	151.892	-0.157	-0.215
-153.662	243.105	0.205	-0.344
-152.647	-109.740	-0.103	0.022
-151.633	-200.000	-0.003	-0.176
-150.618	-148.755	0.290	-0.024
-149.604	-38.975	-0.145	0.077
-148.589	-42.456	0.152	-0.078
-147.574	-26.688	0.167	0.098
-146.560	16.614	-0.160	0.127
-145.545	-143.278	-0.156	0.015
-144.531	-51.073	-0.154	-0.072
-143.516	-40.993	-0.304	0.157
-142.502	-51.878	0.268	-0.125
-141.487	-49.846	0.099	0.047
-140.472	-36.822	-0.099	0.053
-139.458	35.401	0.132	-0.116
-138.443	-126.528	-0.160	0.024
-137.429	734.631	-0.141	0.378
-136.414	22.890	-0.125	0.102
-135.399	800.000	0.093	0.275
-134.385	210.971	-0.082	0.129
-133.370	-200.000	-0.014	-0.062
-132.356	260.969	0.124	0.215
-131.341	-200.000	0.011	0.145
-130.326	65.827	0.091	-0.092
-129.312	-51.283	-0.068	0.032
-128.297	526.087	-0.120	0.283
-127.283	38.331	0.056	-0.050
-126.268	77.437	-0.307	-0.327
-125.253	283.026	0.089	0.160
-124.239	-152.624	0.178	0.013
-123.224	-200.000	0.016	0.154
-122.210	-46.482	-0.302	-0.148
-121.195	-200.000	0.038	0.405
