DTS Sentinel unit serial number:	SN413079Multiplexer serial number:	ORYXHardware model number:	OX4-SRSoftware version number:	ORYX F/W v4.00 Oryx Data Collector v3.7.2.0data status	okinstallation	princeton_trtdifferential loss correction	single-endedforward channel	channel 3reverse channel	N/Adate	2019/09/12time	07:06:11forward acquisition time	60.00reverse acquisition time	0.00gamma	496.2192k internal	0.2320k external	0.2320temperature offset calibration	1.0032default loss term (dB/km)	0.3790temperature slope calibration	1.0000multiplexer offset coefficient	1.0000multiplexer slope coefficient	1.0000fibre end	0.00T internal ref (°C)	32.17T ext. ref 1 (°C)	1.60T ext. ref 2 (°C)	27.51length (m)	temperature (°C)	Stokes	anti-Stokes-747.200	631.080	0.053	0.136
-746.185	-180.094	-0.141	0.003
-745.171	509.857	0.009	-0.020
-744.156	357.154	0.043	0.086
-743.142	36.862	0.325	0.291
-742.127	800.000	-0.068	0.285
-741.112	139.130	-0.240	0.319
-740.098	-162.157	-0.364	0.018
-739.083	-109.518	-0.138	-0.030
-738.069	800.000	-0.084	0.245
-737.054	29.656	-0.209	0.180
-736.039	-14.982	-0.193	-0.125
-735.025	-65.892	-0.322	-0.130
-734.010	-59.884	-0.155	0.067
-732.996	-171.739	-0.147	-0.005
-731.981	-138.472	-0.142	-0.016
-730.966	22.712	-0.388	-0.322
-729.952	-200.000	0.020	-0.178
-728.937	-77.675	-0.128	0.045
-727.923	-200.000	-0.006	0.286
-726.908	-200.000	-0.042	-0.216
-725.894	175.644	-0.149	-0.219
-724.879	412.663	-0.091	-0.195
-723.864	-200.000	0.015	-0.204
-722.850	-26.959	0.206	-0.122
-721.835	14.219	-0.088	-0.070
-720.821	100.126	0.080	-0.094
-719.806	-200.000	-0.022	-0.217
-718.791	-200.000	0.027	-0.121
-717.777	-64.582	0.140	0.057
-716.762	-136.913	-0.266	0.031
-715.748	-200.000	0.023	0.169
-714.733	-97.317	-0.189	0.050
-713.718	800.000	0.054	-0.159
-712.704	121.615	-0.236	-0.297
-711.689	52.617	0.187	0.181
-710.675	-65.988	0.114	0.046
-709.660	-200.000	-0.042	-0.264
-708.645	84.730	0.229	-0.254
-707.631	-22.358	-0.300	-0.183
-706.616	23.982	-0.281	-0.234
-705.602	134.440	-0.162	-0.212
-704.587	800.000	0.083	-0.248
-703.572	-139.875	-0.141	0.015
-702.558	800.000	0.026	0.094
-701.543	-105.677	-0.233	0.053
-700.529	-113.563	-0.081	-0.016
-699.514	-200.000	0.036	-0.331
-698.499	-58.021	0.255	0.112
-697.485	-200.000	0.001	0.036
-696.470	-158.210	-0.060	-0.004
-695.456	-200.000	0.001	0.238
-694.441	-156.838	0.132	0.008
-693.426	-82.566	0.039	0.013
-692.412	-82.621	0.180	0.059
-691.397	241.547	-0.056	-0.094
-690.383	-200.000	-0.032	-0.199
-689.368	-40.552	0.197	0.103
-688.354	-70.437	0.293	0.112
-687.339	70.665	0.221	0.230
-686.324	-11.156	-0.195	-0.130
-685.310	265.704	0.127	-0.224
-684.295	309.126	-0.029	0.055
-683.281	-110.023	0.235	-0.050
-682.266	136.401	0.162	0.213
-681.251	101.779	0.234	0.275
-680.237	-200.000	0.003	-0.267
-679.222	267.221	-0.050	-0.088
-678.208	-200.000	-0.055	-0.331
-677.193	15.328	-0.229	-0.182
-676.178	-76.246	0.147	0.052
-675.164	-198.420	0.085	0.000
-674.149	-59.467	-0.409	-0.177
-673.135	800.000	0.067	-0.215
-672.120	773.290	0.099	-0.272
-671.105	31.212	0.185	-0.160
-670.091	-200.000	-0.024	0.154
-669.076	-157.204	0.077	-0.005
-668.062	23.072	-0.101	0.084
-667.047	23.272	-0.123	0.102
-666.032	464.717	0.066	-0.149
-665.018	-57.289	-0.204	-0.091
-664.003	84.574	-0.147	-0.162
-662.989	618.768	-0.137	0.347
-661.974	-57.185	-0.235	0.104
-660.959	-200.000	0.085	-0.423
-659.945	134.284	0.179	0.234
-658.930	-99.105	-0.305	-0.078
-657.916	-42.308	0.242	-0.125
-656.901	800.000	0.094	0.311
-655.886	-69.167	-0.269	0.104
-654.872	186.873	-0.286	-0.429
-653.857	159.941	-0.276	-0.388
-652.843	-65.478	-0.237	0.096
-651.828	800.000	0.026	-0.114
-650.814	258.270	-0.099	0.172
-649.799	800.000	-0.089	0.320
-648.784	-7.327	0.085	-0.058
-647.770	310.443	0.091	-0.171
-646.755	-200.000	-0.010	-0.109
-645.741	-41.925	-0.202	-0.104
-644.726	-110.770	-0.443	0.092
-643.711	-43.731	0.108	0.055
-642.697	-28.033	-0.156	0.091
-641.682	0.237	-0.255	-0.183
-640.668	40.718	0.074	-0.068
-639.653	-200.000	0.004	0.053
-638.638	60.438	-0.273	-0.272
-637.624	-200.000	-0.002	0.269
-636.609	-88.011	0.048	0.014
-635.595	366.201	0.100	0.204
-634.580	118.013	0.027	0.033
-633.565	281.205	-0.224	-0.403
-632.551	-58.638	0.206	0.090
-631.536	-74.157	-0.268	0.098
-630.522	5.347	-0.288	0.214
-629.507	263.959	-0.110	-0.193
-628.492	-98.625	0.474	-0.122
-627.478	-159.563	-0.308	-0.017
-626.463	-33.922	-0.438	-0.243
-625.449	-200.000	-0.107	-0.481
-624.434	800.000	-0.116	0.441
-623.419	-107.843	-0.303	-0.066
-622.405	36.550	0.225	0.200
-621.390	150.147	0.189	-0.258
-620.376	96.137	-0.099	-0.114
-619.361	143.029	-0.071	0.095
-618.346	-200.000	0.019	-0.125
-617.332	-116.116	-0.200	-0.037
-616.317	-88.527	-0.140	0.042
-615.303	-92.139	-0.104	0.030
-614.288	-33.336	0.112	-0.062
-613.273	388.433	0.154	0.322
-612.259	353.453	-0.098	0.195
-611.244	197.543	-0.105	0.161
-610.230	56.144	-0.125	-0.122
-609.215	27.663	-0.208	0.176
-608.201	-138.053	0.141	0.016
-607.186	-85.018	-0.383	-0.121
-606.171	-131.377	0.130	-0.017
-605.157	602.210	-0.078	-0.195
-604.142	-108.781	-0.137	0.029
-603.128	-153.227	0.078	-0.005
-602.113	-156.071	0.102	-0.006
-601.098	-200.000	-0.022	-0.253
-600.084	397.759	-0.144	-0.304
-599.069	334.024	-0.043	-0.083
-598.055	2.792	-0.034	-0.025
-597.040	572.375	-0.065	0.158
-596.025	-200.000	0.018	0.150
-595.011	42.544	-0.320	-0.293
-593.996	213.302	0.025	0.039
-592.982	800.000	0.109	-0.349
-591.967	-200.000	-0.033	-0.330
-590.952	-200.000	0.003	-0.053
-589.938	800.000	0.091	-0.354
-588.923	-48.350	-0.165	0.080
-587.909	-70.229	0.088	0.034
-586.894	309.382	0.038	0.072
-585.879	1.578	-0.105	0.076
-584.865	22.908	-0.187	-0.154
-583.850	-18.810	-0.231	0.144
-582.836	-16.805	0.367	0.233
-581.821	-116.193	0.115	0.021
-580.806	800.000	0.060	-0.173
-579.792	800.000	-0.101	-0.282
-578.777	800.000	0.066	0.191
-577.763	800.000	-0.046	0.139
-576.748	-4.573	-0.092	-0.064
-575.733	50.626	0.208	-0.198
-574.719	-200.000	0.010	0.127
-573.704	-8.482	-0.138	0.093
-572.690	800.000	0.100	-0.380
-571.675	366.743	-0.194	0.393
-570.661	-114.452	0.283	-0.055
-569.646	58.522	-0.061	0.061
-568.631	-35.213	0.354	0.193
-567.617	140.325	0.136	0.180
-566.602	-200.000	-0.016	0.276
-565.588	-18.127	0.205	0.129
-564.573	76.551	-0.311	0.331
-563.558	-115.263	0.301	-0.057
-562.544	294.665	-0.231	-0.423
-561.529	89.700	0.161	0.180
-560.515	-142.450	-0.230	-0.023
-559.500	-53.190	-0.136	-0.063
-558.485	195.741	0.179	-0.273
-557.471	44.223	-0.131	-0.120
-556.456	144.896	-0.102	0.136
-555.442	-86.138	-0.059	0.018
-554.427	-200.000	-0.020	0.097
-553.412	-77.271	-0.211	0.074
-552.398	252.042	-0.063	0.107
-551.383	800.000	0.052	0.152
-550.369	409.073	-0.155	-0.330
-549.354	-64.896	-0.087	0.035
-548.339	85.529	-0.135	-0.149
-547.325	-10.141	0.144	0.096
-546.310	659.670	0.039	-0.101
-545.296	-90.823	-0.128	0.037
-544.281	-200.000	-0.026	-0.307
-543.266	86.483	0.180	0.199
-542.252	603.318	-0.081	0.201
-541.237	-30.054	0.232	0.133
-540.223	410.342	0.055	0.116
-539.208	-62.008	0.245	0.103
-538.193	181.113	0.233	0.344
-537.179	88.065	0.221	-0.246
-536.164	-200.000	0.087	-0.478
-535.150	57.016	0.068	-0.066
-534.135	90.285	-0.056	0.063
-533.121	269.458	0.003	0.005
-532.106	800.000	-0.132	-0.399
-531.091	-155.396	-0.141	-0.009
-530.077	251.801	-0.187	0.320
-529.062	-109.380	0.031	0.007
-528.048	-200.000	0.014	-0.125
-527.033	-200.000	0.035	-0.244
-526.018	595.582	0.097	0.241
-525.004	57.162	0.102	-0.100
-523.989	-74.089	0.543	0.197
-522.975	-121.050	0.178	0.030
-521.960	12.941	0.166	-0.129
-520.945	303.208	-0.230	-0.427
-519.931	347.052	0.036	0.071
-518.916	-32.842	-0.176	0.098
-517.902	800.000	-0.026	0.101
-516.887	-200.000	-0.052	0.358
-515.872	-4.382	-0.273	0.189
-514.858	450.880	-0.084	0.185
-513.843	-110.856	0.172	0.035
-512.829	46.060	-0.412	-0.383
-511.814	-121.079	0.601	-0.101
-510.799	0.004	-0.125	0.090
-509.785	-76.448	-0.190	-0.067
-508.770	352.322	0.087	0.172
-507.756	-63.883	0.120	0.049
-506.741	92.204	-0.067	0.076
-505.726	800.000	0.092	-0.313
-504.712	-91.092	0.140	-0.040
-503.697	238.716	0.154	-0.257
-502.683	800.000	-0.096	0.337
-501.668	-200.000	-0.037	0.273
-500.653	25.243	-0.153	-0.128
-499.639	-200.000	-0.001	-0.196
-498.624	227.026	-0.133	-0.217
-497.610	345.987	-0.107	0.212
-496.595	-73.304	0.105	0.038
-495.581	-108.895	0.584	0.125
-494.566	-66.815	-0.115	-0.046
-493.551	189.896	-0.053	0.080
-492.537	-200.000	-0.048	0.242
-491.522	800.000	-0.054	-0.220
-490.508	-200.000	0.081	-0.521
-489.493	-179.092	0.331	0.007
-488.478	164.009	-0.135	-0.190
-487.464	-200.000	-0.017	0.122
-486.449	290.232	-0.154	0.280
-485.435	-200.000	0.004	-0.234
-484.420	-38.277	-0.081	-0.043
-483.405	-163.662	0.236	-0.011
-482.391	74.590	0.162	0.170
-481.376	119.493	0.170	0.211
-480.362	-98.383	0.090	0.023
-479.347	-125.241	-0.206	-0.032
-478.332	39.151	-0.058	0.052
-477.318	331.760	0.089	-0.172
-476.303	-35.070	-0.295	0.161
-475.289	151.355	0.099	0.136
-474.274	800.000	0.088	0.248
-473.259	-200.000	-0.029	0.380
-472.245	14.531	-0.261	0.204
-471.230	42.977	-0.069	-0.063
-470.216	220.032	-0.180	0.288
-469.201	-122.896	0.045	0.007
-468.186	66.827	-0.065	0.067
-467.172	-79.844	-0.221	-0.074
-466.157	136.396	0.165	-0.216
-465.143	-200.000	0.037	-0.180
-464.128	800.000	-0.079	-0.251
-463.113	59.710	-0.157	-0.155
-462.099	30.224	0.088	-0.076
-461.084	-71.608	-0.050	-0.019
-460.070	488.618	0.022	0.050
-459.055	-13.009	-0.203	0.132
-458.040	-200.000	0.023	-0.179
-457.026	-175.630	-0.274	-0.007
-456.011	228.470	0.123	-0.200
-454.997	56.500	0.109	0.106
-453.982	144.048	-0.037	-0.049
-452.968	-139.346	-0.165	0.018
-451.953	10.601	0.205	-0.157
-450.938	174.600	-0.094	0.136
-449.924	-94.482	0.104	-0.028
-448.909	-52.350	-0.048	-0.022
-447.895	800.000	-0.025	0.087
-446.880	-95.114	-0.185	0.050
-445.865	13.055	-0.090	-0.070
-444.851	-70.048	0.128	-0.049
-443.836	149.094	-0.090	0.121
-442.822	-48.094	0.140	-0.068
-441.807	-40.756	-0.115	0.060
-440.792	-10.141	0.244	-0.162
-439.778	701.938	-0.028	-0.074
-438.763	365.150	-0.247	-0.496
-437.749	-124.101	-0.187	0.029
-436.734	-131.748	0.267	-0.035
-435.719	49.082	-0.262	-0.246
-434.705	0.984	0.158	0.113
-433.690	381.599	-0.032	-0.066
-432.676	-118.798	-0.070	-0.012
-431.661	-93.038	-0.233	0.065
-430.646	328.784	0.200	0.383
-429.632	800.000	0.083	0.293
-428.617	178.441	0.132	-0.193
-427.603	-58.285	0.219	0.095
-426.588	-200.000	0.009	0.204
-425.573	-116.710	0.379	0.070
-424.559	800.000	-0.048	0.183
-423.544	-200.000	-0.002	0.171
-422.530	16.611	-0.268	0.212
-421.515	3.327	0.262	0.190
-420.500	380.949	0.044	-0.090
-419.486	156.381	-0.081	0.112
-418.471	-160.847	0.380	-0.020
-417.457	-138.672	0.105	0.011
-416.442	-153.948	-0.148	0.010
-415.428	39.569	0.122	0.109
-414.413	-76.643	0.311	-0.109
-413.398	-115.467	0.233	0.044
-412.384	72.858	0.132	0.138
-411.369	62.776	-0.275	0.274
-410.355	486.718	0.146	-0.333
-409.340	-200.000	-0.013	-0.235
-408.325	800.000	0.041	0.129
-407.311	31.713	0.167	-0.144
-406.296	542.713	-0.071	-0.170
-405.282	42.529	-0.093	-0.084
-404.267	800.000	-0.100	0.403
-403.252	-126.509	0.064	0.010
-402.238	-146.657	0.295	0.026
-401.223	800.000	-0.110	0.367
-400.209	-118.918	-0.008	0.001
-399.194	-200.000	-0.041	-0.212
-398.179	-127.521	0.253	-0.037
-397.165	-97.482	-0.215	0.056
-396.150	-200.000	0.047	-0.212
-395.136	316.958	-0.122	0.230
-394.121	20.618	0.134	0.108
-393.106	-80.290	-0.205	0.068
-392.092	-24.123	-0.185	0.110
-391.077	180.859	0.189	-0.276
-390.063	-9.170	-0.201	-0.134
-389.048	-200.000	0.029	-0.191
-388.033	36.889	-0.217	0.191
-387.019	-42.488	-0.295	-0.150
-386.004	-200.000	0.032	0.301
-384.990	-140.320	0.290	0.030
-383.975	-5.898	-0.229	0.156
-382.960	-31.325	0.241	0.135
-381.946	609.520	0.149	0.370
-380.931	26.824	-0.210	0.176
-379.917	-200.000	-0.009	0.283
-378.902	-67.350	-0.156	0.061
-377.888	-86.273	0.357	-0.110
-376.873	42.528	-0.048	0.043
-375.858	-200.000	-0.005	-0.028
-374.844	-56.988	0.303	-0.133
-373.829	610.164	0.056	-0.138
-372.815	397.711	0.189	-0.393
-371.800	800.000	-0.034	-0.104
-370.785	-132.309	0.169	0.022
-369.771	-175.255	-0.210	-0.006
-368.756	27.756	0.202	-0.170
-367.742	73.473	0.184	-0.192
-366.727	-56.600	-0.082	-0.036
-365.712	195.673	0.131	0.199
-364.698	121.114	-0.087	-0.108
-363.683	-62.294	0.050	-0.021
-362.669	-110.154	0.409	0.085
-361.654	-200.000	0.075	0.359
-360.639	-11.524	-0.142	0.093
-359.625	-16.113	0.222	0.141
-358.610	-161.474	-0.166	0.009
-357.596	124.547	0.068	0.086
-356.581	-110.665	0.377	-0.078
-355.566	173.505	-0.092	0.132
-354.552	-98.939	0.151	0.038
-353.537	103.589	0.206	-0.241
-352.523	184.576	0.048	0.071
-351.508	26.153	0.049	0.040
-350.493	-67.234	0.466	-0.183
-349.479	-200.000	-0.027	-0.226
-348.464	97.892	-0.038	0.043
-347.450	195.976	-0.213	0.323
-346.435	-200.000	0.049	0.240
-345.420	102.213	0.153	0.178
-344.406	472.985	-0.089	-0.200
-343.391	112.012	0.089	-0.107
-342.377	-200.000	-0.005	0.132
-341.362	-14.178	0.117	-0.075
-340.348	-124.209	0.112	0.017
-339.333	800.000	0.019	0.074
-338.318	-87.549	0.305	-0.092
-337.304	800.000	-0.049	0.167
-336.289	154.107	0.060	0.082
-335.275	-142.071	-0.492	-0.049
-334.260	-174.290	-0.302	-0.009
-333.245	196.232	-0.059	0.089
-332.231	-34.549	-0.090	-0.049
-331.216	-120.496	0.142	0.024
-330.202	558.757	-0.178	-0.427
-329.187	-91.591	-0.337	-0.096
-328.172	15.903	0.166	-0.130
-327.158	-200.000	-0.072	0.433
-326.143	-200.000	-0.040	-0.203
-325.129	800.000	-0.054	0.174
-324.114	800.000	-0.053	0.200
-323.099	-106.878	0.054	0.012
-322.085	800.000	0.040	-0.170
-321.070	-200.000	0.012	0.131
-320.056	-27.436	0.095	0.055
-319.041	419.708	0.122	0.261
-318.026	69.211	-0.170	0.174
-317.012	26.161	-0.118	0.098
-315.997	7.247	-0.186	-0.138
-314.983	-1.927	-0.135	0.094
-313.968	-200.000	-0.045	-0.206
-312.953	194.071	0.063	0.095
-311.939	-200.000	0.018	0.240
-310.924	-69.519	0.053	-0.020
-309.910	-77.623	-0.310	-0.107
-308.895	-200.000	-0.007	0.030
-307.880	-175.540	0.339	-0.009
-306.866	-163.966	-0.090	-0.004
-305.851	-199.843	-0.158	0.001
-304.837	-167.283	0.207	0.008
-303.822	124.549	-0.127	0.159
-302.807	165.810	-0.033	0.047
-301.793	-154.606	-0.234	0.015
-300.778	344.144	-0.110	-0.214
-299.764	-75.002	0.090	0.032
-298.749	678.102	0.080	-0.206
-297.735	87.184	0.058	0.064
-296.720	-2.827	-0.243	0.169
-295.705	-174.944	-0.295	0.008
-294.691	-200.000	0.012	-0.217
-293.676	-110.342	0.205	-0.042
-292.662	-132.977	-0.096	0.012
-291.647	-154.756	0.181	0.012
-290.632	-200.000	0.052	0.468
-289.618	-151.633	-0.240	-0.018
-288.603	150.021	0.274	-0.369
-287.589	-61.551	-0.315	-0.131
-286.574	-200.000	-0.046	-0.282
-285.559	-114.516	0.134	-0.026
-284.545	28.311	-0.085	-0.071
-283.530	-12.791	-0.122	-0.079
-282.516	-150.654	0.370	-0.028
-281.501	0.311	0.178	-0.126
-280.486	-71.569	0.348	0.129
-279.472	-77.448	-0.160	0.055
-278.457	29.049	-0.292	0.246
-277.443	51.024	0.032	0.030
-276.428	800.000	-0.050	0.167
-275.413	86.318	-0.174	0.190
-274.399	448.822	-0.132	0.290
-273.384	-126.927	0.133	0.019
-272.370	56.114	0.161	-0.155
-271.355	-200.000	0.016	0.158
-270.340	223.761	0.047	-0.076
-269.326	-200.000	-0.037	-0.303
-268.311	-16.102	0.205	-0.129
-267.297	-77.907	0.174	0.060
-266.282	-102.968	-0.210	-0.050
-265.267	179.231	0.157	0.229
-264.253	116.828	-0.061	0.075
-263.238	-193.761	0.047	-0.000
-262.224	-200.000	-0.041	0.319
-261.209	-121.054	-0.179	0.030
-260.195	-95.823	0.319	-0.084
-259.180	-164.962	-0.296	0.013
-258.165	-53.220	-0.156	-0.071
-257.151	72.304	-0.227	-0.234
-256.136	71.647	0.120	0.123
-255.122	-47.376	0.219	0.106
-254.107	-200.000	0.015	0.157
-253.092	800.000	-0.041	0.150
-252.078	-98.763	-0.087	-0.022
-251.063	800.000	-0.083	0.295
-250.049	4.648	0.254	-0.185
-249.034	124.908	-0.143	-0.178
-248.019	-172.815	-0.332	0.010
-247.005	-200.000	-0.063	0.360
-245.990	-71.952	-0.118	-0.044
-244.976	-89.126	-0.128	-0.038
-243.961	238.667	0.199	-0.328
-242.946	111.822	-0.205	-0.245
-241.932	-146.824	-0.353	0.030
-240.917	23.443	-0.179	-0.146
-239.903	800.000	-0.051	-0.157
-238.888	-90.999	0.209	0.059
-237.873	-32.250	0.162	-0.090
-236.859	-200.000	-0.009	-0.211
-235.844	-159.061	-0.402	0.023
-234.830	-99.205	0.297	0.074
-233.815	385.431	0.078	-0.160
-232.800	36.200	0.266	-0.232
-231.786	246.393	-0.123	-0.206
-230.771	-200.000	-0.031	-0.352
-229.757	120.955	0.144	-0.178
-228.742	-200.000	0.003	-0.307
-227.727	105.327	-0.142	-0.166
-226.713	107.188	0.244	0.288
-225.698	39.259	-0.203	0.180
-224.684	800.000	-0.043	0.163
-223.669	258.893	0.129	-0.220
-222.655	-24.938	0.243	0.143
-221.640	-43.161	-0.123	-0.062
-220.625	235.410	0.301	0.492
-219.611	-200.000	-0.031	-0.329
-218.596	-140.153	-0.208	-0.022
-217.582	-97.444	0.034	0.009
-216.567	-40.240	0.184	-0.095
-215.552	717.323	-0.134	0.354
-214.538	-37.479	-0.133	-0.070
-213.523	567.862	-0.071	-0.170
-212.509	-84.114	0.274	0.086
-211.494	-200.000	0.010	0.127
-210.479	36.789	-0.095	0.083
-209.465	-200.000	0.002	-0.068
-208.450	-72.847	0.315	-0.115
-207.436	95.222	0.204	0.230
-206.421	-131.106	-0.209	0.028
-205.406	52.324	-0.114	0.108
-204.392	-200.000	-0.045	-0.211
-203.377	-1.116	-0.212	0.148
-202.363	782.119	0.115	0.313
-201.348	187.810	0.054	-0.080
-200.333	-200.000	-0.028	-0.148
-199.319	125.258	0.087	0.109
-198.304	723.098	-0.131	-0.345
-197.290	8.586	0.027	0.020
-196.275	-200.000	0.004	0.028
-195.260	677.920	-0.025	-0.065
-194.246	-200.000	-0.014	0.202
-193.231	-124.933	0.241	-0.037
-192.217	-108.246	0.202	0.043
-191.202	-20.769	0.112	0.068
-190.187	61.478	0.217	-0.213
-189.173	109.496	0.083	-0.098
-188.158	-124.430	0.059	0.009
-187.144	18.937	-0.200	0.158
-186.129	-24.771	0.015	-0.009
-185.114	-82.645	0.213	-0.068
-184.100	118.782	0.180	-0.220
-183.085	-73.287	0.194	-0.070
-182.071	161.842	-0.109	-0.151
-181.056	-45.178	0.039	-0.019
-180.042	-122.948	-0.326	0.052
-179.027	-4.784	0.124	0.084
-178.012	-130.672	0.236	-0.031
-176.998	118.072	0.146	-0.177
-175.983	146.585	-0.157	-0.209
-174.969	800.000	-0.040	0.119
-173.954	438.317	-0.084	0.181
-172.939	-125.723	-0.181	0.027
-171.925	267.172	-0.098	-0.169
-170.910	-136.324	-0.201	-0.023
-169.896	-107.342	0.082	-0.018
-168.881	67.268	-0.283	-0.286
-167.866	-21.166	-0.192	-0.116
-166.852	-200.000	-0.029	-0.275
-165.837	-111.699	-0.108	0.022
-164.823	-55.011	0.205	0.091
-163.808	-60.842	-0.251	0.105
-162.793	195.948	0.117	-0.176
-161.779	-174.677	0.346	0.010
-160.764	37.246	-0.167	0.146
-159.750	180.687	0.201	-0.291
-158.735	70.159	-0.111	0.113
-157.720	-77.980	0.109	0.037
-156.706	105.390	0.102	-0.119
-155.691	-200.000	-0.057	0.260
-154.677	-58.163	0.102	0.044
-153.662	-134.119	0.138	0.017
-152.647	-200.000	0.057	-0.255
-151.633	124.411	0.277	0.345
-150.618	800.000	0.022	0.069
-149.604	-200.000	0.056	0.291
-148.589	564.239	-0.131	0.313
-147.574	2.683	-0.077	0.055
-146.560	-200.000	-0.003	0.244
-145.545	41.408	0.246	-0.220
-144.531	800.000	-0.006	0.022
-143.516	-38.085	-0.044	0.023
-142.502	800.000	-0.127	0.374
-141.487	-200.000	0.005	0.056
-140.472	98.120	-0.149	-0.169
-139.458	8.066	0.172	0.127
-138.443	-179.952	0.212	0.004
-137.429	213.792	0.098	0.153
-136.414	800.000	-0.027	-0.105
-135.399	413.518	0.039	-0.081
-134.385	-80.159	0.161	-0.053
-133.370	-140.551	0.360	0.037
-132.356	95.916	-0.157	-0.177
-131.341	-146.434	0.183	0.016
-130.326	-200.000	0.078	0.546
-129.312	800.000	-0.036	-0.142
-128.297	172.603	0.078	0.110
-127.283	-200.000	-0.015	0.254
-126.268	-156.210	0.311	0.019
-125.253	-98.064	-0.303	0.077
-124.239	-200.000	-0.011	0.154
-123.224	-58.148	-0.184	0.079
-122.210	-11.388	0.218	0.142
-121.195	7.780	-0.190	-0.140
