DTS Sentinel unit serial number:	SN413079Multiplexer serial number:	ORYXHardware model number:	OX4-SRSoftware version number:	ORYX F/W v4.00 Oryx Data Collector v3.7.2.0data status	okinstallation	princeton_trtdifferential loss correction	single-endedforward channel	channel 3reverse channel	N/Adate	2019/09/11time	20:06:10forward acquisition time	60.00reverse acquisition time	0.00gamma	496.2192k internal	0.2301k external	0.2301temperature offset calibration	1.0021default loss term (dB/km)	0.3790temperature slope calibration	1.0000multiplexer offset coefficient	1.0000multiplexer slope coefficient	1.0000fibre end	0.00T internal ref (°C)	38.56T ext. ref 1 (°C)	1.42T ext. ref 2 (°C)	32.02length (m)	temperature (°C)	Stokes	anti-Stokes-747.200	-200.000	0.023	-0.122
-746.185	800.000	0.065	-0.214
-745.171	-108.775	-0.156	0.034
-744.156	239.135	-0.189	0.321
-743.142	132.311	-0.166	-0.218
-742.127	317.207	-0.046	-0.088
-741.112	-123.465	0.256	-0.041
-740.098	-43.618	-0.182	-0.094
-739.083	800.000	0.090	-0.375
-738.069	-192.344	0.500	0.005
-737.054	154.256	-0.119	0.167
-736.039	15.119	-0.233	0.186
-735.025	8.744	0.323	0.248
-734.010	-109.220	-0.366	-0.079
-732.996	75.586	-0.169	-0.182
-731.981	800.000	0.049	0.177
-730.966	-200.000	0.011	0.260
-729.952	-122.258	-0.292	0.049
-728.937	720.586	-0.052	-0.141
-727.923	800.000	-0.027	0.086
-726.908	25.015	-0.320	-0.271
-725.894	797.854	-0.117	-0.329
-724.879	800.000	-0.117	-0.406
-723.864	800.000	-0.086	-0.288
-722.850	800.000	-0.041	0.137
-721.835	14.317	-0.225	0.179
-720.821	-200.000	-0.026	-0.257
-719.806	-29.492	-0.197	0.115
-718.791	800.000	-0.050	-0.206
-717.777	50.775	0.221	0.214
-716.762	800.000	-0.053	-0.211
-715.748	170.617	-0.028	0.041
-714.733	19.240	0.144	0.117
-713.718	-35.060	0.245	0.136
-712.704	-67.989	-0.238	0.094
-711.689	800.000	-0.024	-0.091
-710.675	-123.477	-0.130	-0.021
-709.660	10.963	-0.082	0.064
-708.645	97.311	0.220	-0.257
-707.631	-189.873	-0.314	0.004
-706.616	14.175	-0.190	0.150
-705.602	119.389	0.119	-0.150
-704.587	-131.050	-0.217	-0.029
-703.572	800.000	-0.044	0.175
-702.558	127.147	0.228	0.295
-701.543	-27.986	0.089	0.053
-700.529	63.268	0.129	-0.131
-699.514	136.657	-0.162	-0.215
-698.499	288.943	0.082	-0.152
-697.485	-155.388	0.336	-0.022
-696.470	-71.515	-0.267	-0.102
-695.456	-200.000	-0.006	-0.358
-694.441	800.000	-0.066	-0.231
-693.426	57.909	0.146	0.146
-692.412	41.291	0.111	0.102
-691.397	-200.000	0.050	-0.253
-690.383	-51.637	-0.152	0.072
-689.368	-24.641	-0.070	0.042
-688.354	-68.915	-0.291	0.114
-687.339	-48.235	0.372	-0.183
-686.324	69.911	-0.346	-0.363
-685.310	-22.615	0.150	0.092
-684.295	705.540	0.055	0.149
-683.281	-176.029	0.112	0.003
-682.266	-200.000	-0.031	-0.269
-681.251	253.929	-0.130	-0.226
-680.237	-36.389	-0.186	-0.102
-679.222	800.000	0.101	0.338
-678.208	-33.988	-0.430	-0.241
-677.193	349.693	0.150	-0.302
-676.178	-93.145	0.150	-0.043
-675.164	800.000	0.054	-0.174
-674.149	177.057	-0.057	-0.084
-673.135	121.524	0.148	-0.188
-672.120	-129.248	-0.187	-0.026
-671.105	-200.000	-0.324	-0.001
-670.091	-200.000	0.008	-0.109
-669.076	-146.930	0.187	0.016
-668.062	420.114	0.096	0.208
-667.047	-18.927	-0.143	0.090
-666.032	-144.572	-0.340	0.032
-665.018	342.634	-0.024	0.048
-664.003	606.494	-0.039	-0.099
-662.989	800.000	0.119	0.362
-661.974	658.567	-0.150	-0.393
-660.959	-64.574	-0.031	-0.013
-659.945	-92.548	-0.064	0.018
-658.930	171.163	-0.102	-0.148
-657.916	217.520	0.070	-0.113
-656.901	-200.000	-0.045	-0.228
-655.886	74.447	-0.041	-0.044
-654.872	-152.093	-0.565	0.042
-653.857	-200.000	-0.005	0.064
-652.843	-200.000	0.043	0.236
-651.828	-200.000	-0.034	-0.374
-650.814	-192.006	0.232	0.002
-649.799	347.831	-0.136	0.273
-648.784	-200.000	-0.018	0.192
-647.770	-132.146	0.290	-0.038
-646.755	99.692	0.208	-0.244
-645.741	-200.000	-0.041	-0.201
-644.726	33.671	-0.095	-0.084
-643.711	-200.000	-0.009	-0.097
-642.697	2.631	-0.103	0.076
-641.682	320.589	0.121	0.233
-640.668	-94.210	-0.176	-0.049
-639.653	-200.000	0.005	-0.214
-638.638	-200.000	0.044	-0.235
-637.624	34.804	0.210	-0.186
-636.609	335.159	0.107	-0.210
-635.595	72.864	-0.282	0.299
-634.580	436.379	-0.017	-0.038
-633.565	800.000	0.015	-0.054
-632.551	39.187	0.126	-0.114
-631.536	-144.423	-0.186	0.018
-630.522	-15.177	0.104	0.068
-629.507	-74.373	0.022	-0.008
-628.492	-200.000	0.078	0.373
-627.478	800.000	-0.065	-0.247
-626.463	330.304	-0.150	-0.293
-625.449	-3.071	0.238	0.168
-624.434	800.000	-0.029	-0.117
-623.419	608.925	0.099	0.252
-622.405	541.942	0.109	-0.265
-621.390	229.761	0.028	0.046
-620.376	593.237	0.134	-0.336
-619.361	-156.596	0.192	0.012
-618.346	800.000	-0.038	0.127
-617.332	67.413	0.212	-0.220
-616.317	309.785	-0.149	0.282
-615.303	-46.158	-0.211	-0.105
-614.288	-51.194	0.283	0.135
-613.273	-106.494	0.256	-0.058
-612.259	99.841	0.151	-0.177
-611.244	29.782	0.322	-0.278
-610.230	-47.138	-0.306	-0.151
-609.215	-176.230	0.311	-0.008
-608.201	111.776	-0.193	-0.236
-607.186	-140.462	0.341	-0.036
-606.171	52.687	-0.154	0.149
-605.157	-38.919	-0.043	0.023
-604.142	-200.000	-0.048	-0.299
-603.128	188.861	0.128	0.194
-602.113	191.275	-0.026	0.040
-601.098	-71.101	0.149	-0.057
-600.084	800.000	-0.037	0.153
-599.069	47.875	-0.091	0.086
-598.055	-37.965	0.514	0.277
-597.040	250.400	-0.103	-0.177
-596.025	-50.289	-0.279	-0.134
-595.011	81.340	-0.175	0.192
-593.996	366.152	0.183	-0.374
-592.982	-200.000	-0.046	-0.251
-591.967	71.281	0.340	0.358
-590.952	-200.000	0.210	0.001
-589.938	-69.250	-0.373	0.145
-588.923	-57.540	-0.473	-0.210
-587.909	-200.000	-0.010	-0.269
-586.894	-200.000	-0.050	-0.338
-585.879	119.499	0.108	0.136
-584.865	800.000	0.040	-0.113
-583.850	218.788	0.174	-0.282
-582.836	-50.974	-0.325	-0.155
-581.821	194.987	-0.103	-0.158
-580.806	-177.343	-0.496	-0.012
-579.792	305.862	0.030	-0.056
-578.777	800.000	0.026	-0.103
-577.763	170.520	0.114	-0.165
-576.748	-186.297	0.259	-0.004
-575.733	498.011	-0.036	-0.085
-574.719	60.032	0.103	-0.103
-573.704	800.000	0.032	0.089
-572.690	-61.280	-0.314	0.134
-571.675	90.478	-0.104	0.118
-570.661	-58.352	-0.266	0.117
-569.646	-3.054	-0.402	-0.284
-568.631	-88.358	0.130	0.039
-567.617	227.624	0.091	0.149
-566.602	104.116	0.169	-0.201
-565.588	-200.000	-0.025	-0.200
-564.573	-187.667	-0.448	0.006
-563.558	-71.722	-0.184	-0.070
-562.544	310.754	0.162	0.308
-561.529	-39.411	-0.135	0.072
-560.515	-200.000	-0.035	-0.312
-559.500	-162.707	-0.130	0.006
-558.485	-125.341	0.159	-0.025
-557.471	800.000	0.113	-0.338
-556.456	-200.000	-0.048	0.289
-555.442	800.000	-0.081	0.280
-554.427	10.631	-0.166	0.128
-553.412	-200.000	-0.006	0.103
-552.398	-99.608	0.368	0.093
-551.383	-123.917	-0.083	0.013
-550.369	61.287	-0.400	-0.402
-549.354	71.983	0.146	0.154
-548.339	-156.921	0.309	0.019
-547.325	-145.624	-0.173	-0.016
-546.310	-112.773	-0.067	0.014
-545.296	-200.000	0.018	0.243
-544.281	-86.402	0.091	-0.028
-543.266	788.728	0.063	0.174
-542.252	489.834	0.062	-0.143
-541.237	102.289	-0.238	0.281
-540.223	-147.075	0.268	0.023
-539.208	-200.000	0.044	0.223
-538.193	-200.000	-0.007	-0.256
-537.179	-103.147	0.158	0.038
-536.164	800.000	-0.063	-0.189
-535.150	-92.769	-0.274	0.078
-534.135	289.936	-0.036	0.065
-533.121	-200.000	-0.035	0.249
-532.106	94.443	-0.154	-0.177
-531.091	307.980	-0.083	0.157
-530.077	428.960	-0.208	-0.455
-529.062	-200.000	-0.008	0.079
-528.048	-193.036	-0.187	0.002
-527.033	5.062	0.226	-0.168
-526.018	755.020	-0.045	-0.122
-525.004	-156.681	0.186	-0.012
-523.989	8.746	-0.128	-0.098
-522.975	-200.000	-0.036	0.229
-521.960	-31.906	0.117	-0.066
-520.945	39.513	0.071	-0.064
-519.931	-74.701	0.246	0.089
-518.916	33.971	-0.242	-0.213
-517.902	628.857	-0.052	0.133
-516.887	-36.291	-0.246	0.134
-515.872	800.000	-0.109	0.423
-514.858	30.971	0.114	-0.099
-513.843	-155.142	0.242	-0.016
-512.829	-146.695	-0.160	-0.014
-511.814	-78.645	0.302	-0.104
-510.799	-33.693	0.239	0.133
-509.785	-69.329	-0.397	-0.154
-508.770	10.240	0.099	0.076
-507.756	37.203	-0.309	0.276
-506.741	115.251	0.186	-0.230
-505.726	-74.436	0.198	0.072
-504.712	-200.000	0.031	-0.139
-503.697	-34.034	-0.376	-0.209
-502.683	-200.000	-0.026	0.118
-501.668	-200.000	-0.015	0.123
-500.653	187.008	0.129	-0.195
-499.639	-138.242	0.225	0.025
-498.624	-96.249	0.204	0.054
-497.610	78.427	0.054	-0.058
-496.595	-61.858	-0.079	-0.033
-495.581	-59.151	0.081	0.035
-494.566	451.345	-0.018	0.039
-493.551	-200.000	-0.027	0.181
-492.537	303.892	0.100	0.188
-491.522	250.596	-0.205	-0.351
-490.508	446.043	0.106	0.234
-489.493	-79.052	0.249	0.085
-488.478	800.000	0.147	-0.439
-487.464	-200.000	0.025	0.136
-486.449	-200.000	-0.035	-0.184
-485.435	130.147	-0.088	0.114
-484.420	108.780	-0.082	-0.099
-483.405	-186.782	-0.403	0.006
-482.391	0.087	0.107	-0.077
-481.376	-161.191	0.204	0.011
-480.362	800.000	-0.095	0.323
-479.347	335.612	0.105	0.206
-478.332	153.706	0.252	0.348
-477.318	-200.000	0.004	-0.047
-476.303	-200.000	-0.068	0.421
-475.289	-28.804	0.294	-0.170
-474.274	478.713	0.067	0.153
-473.259	19.909	-0.347	-0.282
-472.245	438.623	0.113	-0.248
-471.230	253.279	0.059	-0.102
-470.216	-180.934	0.061	0.001
-469.201	-70.365	-0.171	-0.065
-468.186	-87.725	-0.325	-0.099
-467.172	-21.623	-0.151	0.093
-466.157	-29.328	0.257	0.149
-465.143	10.623	-0.109	0.084
-464.128	-91.339	-0.061	0.018
-463.113	71.673	0.166	-0.174
-462.099	-200.000	-0.017	0.216
-461.084	-157.662	0.314	0.019
-460.070	-200.000	-0.022	-0.112
-459.055	-200.000	0.004	-0.027
-458.040	800.000	-0.073	0.304
-457.026	-85.570	0.085	-0.027
-456.011	800.000	0.155	-0.433
-454.997	-92.876	-0.302	0.085
-453.982	800.000	0.102	-0.395
-452.968	-200.000	0.033	0.200
-451.953	220.434	-0.232	-0.375
-450.938	800.000	0.112	-0.479
-449.924	18.224	-0.186	-0.149
-448.909	-51.859	-0.071	-0.033
-447.895	-200.000	0.011	0.140
-446.880	263.144	0.101	0.177
-445.865	-65.720	0.195	-0.079
-444.851	212.810	0.121	0.193
-443.836	800.000	-0.076	0.278
-442.822	-173.964	-0.232	0.007
-441.807	-114.884	0.090	-0.017
-440.792	-80.096	-0.294	0.099
-439.778	73.180	0.261	-0.275
-438.763	-90.768	0.281	-0.082
-437.749	43.892	0.081	0.075
-436.734	62.667	-0.098	-0.098
-435.719	-169.707	0.344	0.013
-434.705	800.000	0.044	-0.127
-433.690	794.841	0.105	-0.291
-432.676	800.000	0.039	0.142
-431.661	-40.489	-0.130	0.068
-430.646	800.000	-0.063	-0.259
-429.632	-183.303	0.222	0.004
-428.617	513.006	-0.074	0.173
-427.603	220.392	-0.051	0.082
-426.588	-200.000	0.008	-0.220
-425.573	351.801	-0.064	-0.129
-424.559	-200.000	0.045	0.409
-423.544	177.340	0.227	0.333
-422.530	-43.842	-0.224	-0.114
-421.515	-109.534	-0.247	-0.053
-420.500	480.915	-0.089	0.203
-419.486	233.956	0.209	-0.347
-418.471	98.803	-0.220	-0.255
-417.457	-59.856	-0.170	-0.073
-416.442	-36.308	0.242	-0.131
-415.428	-112.685	-0.219	0.044
-414.413	362.525	0.075	0.152
-413.398	435.003	-0.051	0.111
-412.384	-99.796	0.358	-0.090
-411.369	-56.001	0.208	-0.094
-410.355	-46.610	-0.211	0.104
-409.340	-116.734	-0.065	0.012
-408.325	-148.922	0.269	0.022
-407.311	-173.312	0.236	-0.007
-406.296	56.787	0.311	-0.305
-405.282	282.099	-0.090	0.162
-404.267	-108.840	0.194	0.042
-403.252	-2.733	0.112	0.079
-402.238	800.000	-0.020	0.081
-401.223	-55.193	0.315	0.143
-400.209	-5.865	0.203	-0.140
-399.194	29.643	-0.018	-0.016
-398.179	36.246	-0.248	-0.220
-397.165	-84.159	-0.281	0.090
-396.150	162.051	-0.116	0.163
-395.136	-20.105	0.344	0.213
-394.121	405.822	0.063	-0.133
-393.106	-200.000	0.014	-0.308
-392.092	27.657	-0.158	-0.134
-391.077	7.267	0.147	-0.110
-390.063	-200.000	-0.078	-0.359
-389.048	182.300	0.132	-0.195
-388.033	-200.000	0.015	0.402
-387.019	30.138	-0.168	0.144
-386.004	-55.815	0.188	-0.084
-384.990	-28.144	0.195	0.113
-383.975	5.303	-0.124	0.092
-382.960	-96.780	0.334	0.088
-381.946	-200.000	0.004	-0.159
-380.931	-124.065	-0.062	-0.010
-379.917	209.869	-0.063	-0.100
-378.902	-200.000	0.003	0.217
-377.888	14.050	-0.369	0.289
-376.873	-0.033	-0.263	-0.188
-375.858	76.475	0.092	-0.098
-374.844	36.370	-0.083	-0.074
-373.829	510.272	-0.234	-0.548
-372.815	118.682	-0.285	0.354
-371.800	-200.000	-0.027	0.131
-370.785	174.970	0.046	-0.067
-369.771	280.799	0.142	0.255
-368.756	243.304	-0.009	-0.015
-367.742	617.378	-0.019	-0.049
-366.727	-174.103	-0.118	0.003
-365.712	11.807	0.144	0.111
-364.698	145.986	0.218	-0.294
-363.683	328.037	-0.032	0.061
-362.669	-200.000	0.008	0.372
-361.654	169.185	0.113	0.162
-360.639	230.074	0.065	0.107
-359.625	-64.729	0.059	0.024
-358.610	-127.690	0.193	0.028
-357.596	52.819	-0.166	0.159
-356.581	124.474	-0.118	0.149
-355.566	800.000	0.030	0.083
-354.552	299.965	-0.170	-0.314
-353.537	302.047	0.133	0.247
-352.523	-200.000	0.021	0.432
-351.508	-200.000	-0.030	0.526
-350.493	-200.000	-0.016	-0.261
-349.479	316.219	-0.149	-0.282
-348.464	497.829	-0.083	0.192
-347.450	-12.064	0.054	0.035
-346.435	-200.000	-0.013	-0.316
-345.420	400.060	0.143	-0.300
-344.406	23.548	0.012	-0.010
-343.391	-200.000	0.031	0.146
-342.377	-200.000	-0.036	-0.235
-341.362	-26.875	0.308	0.181
-340.348	178.619	-0.062	-0.091
-339.333	-116.547	0.262	-0.048
-338.318	129.549	-0.297	0.381
-337.304	-39.829	0.200	-0.105
-336.289	-61.021	-0.113	-0.048
-335.275	-200.000	-0.027	0.147
-334.260	104.897	0.122	0.145
-333.245	800.000	0.084	-0.287
-332.231	-103.470	0.212	0.050
-331.216	12.816	-0.070	-0.054
-330.202	215.847	0.060	-0.095
-329.187	-200.000	-0.026	0.173
-328.172	-67.722	0.211	-0.083
-327.158	-39.571	0.190	0.100
-326.143	131.649	0.085	0.110
-325.129	-28.009	0.136	-0.079
-324.114	-175.404	0.193	-0.005
-323.099	583.676	-0.081	0.199
-322.085	-200.000	0.039	0.397
-321.070	800.000	0.029	-0.095
-320.056	-138.366	0.139	0.015
-319.041	800.000	0.101	0.393
-318.026	21.924	-0.189	0.154
-317.012	-200.000	-0.029	0.444
-315.997	-172.157	0.366	-0.012
-314.983	-25.250	0.229	0.136
-313.968	-120.081	0.299	-0.051
-312.953	-56.213	-0.181	0.081
-311.939	230.164	0.100	-0.164
-310.924	149.786	-0.252	-0.342
-309.910	-11.244	0.348	-0.230
-308.895	-200.000	-0.036	-0.216
-307.880	-200.000	-0.019	-0.121
-306.866	-72.448	0.246	0.091
-305.851	58.111	0.326	0.320
-304.837	8.264	-0.046	-0.034
-303.822	7.043	0.128	0.096
-302.807	800.000	-0.056	0.195
-301.793	555.869	-0.279	0.673
-300.778	2.738	0.127	0.092
-299.764	-96.990	0.235	0.062
-298.749	676.669	-0.091	-0.236
-297.735	-5.596	-0.405	-0.278
-296.720	800.000	0.083	-0.272
-295.705	800.000	-0.072	-0.220
-294.691	-85.911	0.386	0.120
-293.676	212.264	0.056	-0.089
-292.662	300.944	0.085	0.158
-291.647	-125.520	0.157	-0.024
-290.632	-38.433	0.204	-0.108
-289.618	266.154	-0.095	-0.167
-288.603	64.024	-0.152	0.154
-287.589	-200.000	0.001	-0.016
-286.574	439.933	-0.023	-0.050
-285.559	-73.337	-0.368	-0.135
-284.545	-131.826	-0.404	-0.053
-283.530	-169.307	0.336	-0.012
-282.516	800.000	-0.093	0.272
-281.501	-58.351	-0.121	0.053
-280.486	800.000	0.098	0.295
-279.472	577.624	0.152	0.372
-278.457	800.000	-0.120	0.419
-277.443	-137.336	0.074	0.008
-276.428	200.794	-0.182	0.280
-275.413	-43.656	-0.257	0.130
-274.399	-54.084	-0.073	-0.033
-273.384	-200.000	-0.012	-0.086
-272.370	-113.253	-0.486	-0.096
-271.355	-200.000	0.002	0.262
-270.340	-200.000	-0.020	-0.116
-269.326	-62.284	-0.266	-0.111
-268.311	-97.546	0.122	-0.032
-267.297	85.553	0.273	0.300
-266.282	-174.586	-0.324	0.009
-265.267	-24.603	-0.303	0.181
-264.253	-113.646	0.090	0.018
-263.238	-200.000	-0.033	0.517
-262.224	182.511	0.246	-0.363
-261.209	-139.740	-0.256	-0.027
-260.195	-160.404	-0.100	0.005
-259.180	-200.000	-0.010	0.057
-258.165	88.649	0.210	0.233
-257.151	-18.630	-0.179	0.111
-256.136	-200.000	0.037	-0.211
-255.122	8.728	0.345	0.260
-254.107	-20.835	-0.039	-0.024
-253.092	180.853	-0.224	0.329
-252.078	14.136	0.124	-0.097
-251.063	-136.423	-0.303	-0.035
-250.049	115.478	-0.225	-0.275
-249.034	-200.000	0.009	-0.166
-248.019	-43.206	-0.216	-0.109
-247.005	-17.894	-0.109	-0.068
-245.990	-200.000	-0.042	0.186
-244.976	-18.536	-0.174	-0.108
-243.961	-137.213	-0.119	-0.014
-242.946	348.009	0.087	-0.171
-241.932	-88.233	0.110	0.033
-240.917	58.194	0.139	0.136
-239.903	-200.000	0.057	0.262
-238.888	144.661	0.145	0.194
-237.873	682.914	-0.066	-0.172
-236.859	213.963	-0.246	0.388
-235.844	443.481	-0.212	0.465
-234.830	-52.641	0.045	0.021
-233.815	-200.000	-0.049	-0.248
-232.800	-93.031	-0.166	0.046
-231.786	-50.277	0.245	-0.116
-230.771	-59.557	-0.236	-0.101
-229.757	55.292	-0.108	0.105
-228.742	515.101	-0.093	-0.217
-227.727	665.412	-0.025	-0.066
-226.713	-200.000	-0.061	-0.456
-225.698	-200.000	0.021	-0.111
-224.684	-200.000	-0.037	-0.167
-223.669	-200.000	-0.015	0.232
-222.655	-78.220	-0.146	-0.050
-221.640	-136.757	-0.183	0.021
-220.625	4.672	0.126	0.092
-219.611	-65.607	0.136	-0.055
-218.596	168.638	-0.148	0.210
-217.582	180.335	0.151	-0.221
-216.567	-141.434	-0.319	-0.032
-215.552	-117.376	0.236	0.043
-214.538	-25.218	0.247	0.146
-213.523	-85.921	-0.157	-0.048
-212.509	685.659	0.032	-0.084
-211.494	-59.291	-0.111	-0.048
-210.479	16.414	-0.207	-0.163
-209.465	-62.080	0.118	0.049
-208.450	-79.270	0.122	-0.041
-207.436	-106.575	0.204	-0.045
-206.421	-43.927	0.319	-0.160
-205.406	156.743	0.098	0.136
-204.392	-28.517	-0.252	0.145
-203.377	-106.166	-0.209	-0.047
-202.363	-40.725	0.192	0.099
-201.348	-174.611	0.289	0.008
-200.333	-200.000	-0.042	-0.252
-199.319	-47.052	-0.035	0.017
-198.304	168.682	0.058	-0.083
-197.290	525.725	0.079	0.185
-196.275	363.686	-0.162	-0.326
-195.260	-200.000	0.040	0.216
-194.246	-200.000	-0.031	-0.231
-193.231	-49.973	-0.274	0.130
-192.217	-96.960	-0.264	0.069
-191.202	159.067	-0.195	0.271
-190.187	26.308	-0.139	0.116
-189.173	136.297	0.127	-0.166
-188.158	-34.124	-0.416	-0.228
-187.144	214.719	-0.235	0.372
-186.129	147.466	0.160	0.215
-185.114	-200.000	-0.015	-0.156
-184.100	186.438	-0.052	0.078
-183.085	-13.806	-0.182	0.117
-182.071	483.231	-0.102	-0.232
-181.056	-200.000	0.012	-0.304
-180.042	-162.140	0.553	0.028
-179.027	625.791	0.147	0.369
-178.012	-38.144	0.165	0.087
-176.998	-22.740	-0.172	0.104
-175.983	38.315	0.192	-0.170
-174.969	-200.000	-0.017	-0.121
-173.954	351.889	0.038	0.076
-172.939	-53.653	0.255	-0.116
-171.925	-130.418	-0.209	-0.028
-170.910	37.880	0.186	0.164
-169.896	-28.516	-0.054	-0.031
-168.881	159.746	-0.069	-0.095
-167.866	-123.845	-0.372	0.058
-166.852	-200.000	0.003	-0.154
-165.837	16.978	-0.203	-0.160
-164.823	161.152	-0.058	0.081
-163.808	300.752	-0.067	0.123
-162.793	15.497	0.249	-0.195
-161.779	86.071	0.306	-0.336
-160.764	82.421	-0.248	0.268
-159.750	-45.393	-0.201	0.099
-158.735	57.406	-0.277	-0.269
-157.720	-101.009	-0.347	-0.085
-156.706	-17.218	-0.184	0.116
-155.691	-106.921	-0.421	-0.093
-154.677	1.115	0.147	0.105
-153.662	-200.000	-0.011	-0.063
-152.647	311.595	-0.035	0.066
-151.633	58.386	0.381	-0.372
-150.618	800.000	0.092	-0.336
-149.604	228.272	-0.208	0.337
-148.589	-53.383	-0.045	-0.021
-147.574	94.021	-0.183	0.206
-146.560	64.932	0.193	0.194
-145.545	442.425	-0.063	0.138
-144.531	-95.133	0.247	0.066
-143.516	-182.608	0.191	0.003
-142.502	-95.259	0.299	0.080
-141.487	-89.362	0.400	0.117
-140.472	-102.173	-0.274	-0.066
-139.458	800.000	-0.040	-0.145
-138.443	513.049	0.064	0.148
-137.429	224.981	-0.128	0.207
-136.414	-15.814	0.208	-0.132
-135.399	-69.819	-0.146	0.055
-134.385	-113.461	0.437	-0.085
-133.370	800.000	-0.058	-0.181
-132.356	-200.000	0.035	-0.358
-131.341	579.813	-0.131	-0.320
-130.326	-64.460	-0.401	0.162
-129.312	161.400	0.067	-0.094
-128.297	-200.000	0.021	-0.132
-127.283	-200.000	-0.010	0.077
-126.268	800.000	-0.096	0.354
-125.253	83.092	-0.048	-0.052
-124.239	68.570	0.033	-0.033
-123.224	87.274	-0.180	-0.198
-122.210	800.000	-0.057	-0.234
