DTS Sentinel unit serial number:	SN413079Multiplexer serial number:	ORYXHardware model number:	OX4-SRSoftware version number:	ORYX F/W v4.00 Oryx Data Collector v3.7.2.0data status	okinstallation	princeton_trtdifferential loss correction	single-endedforward channel	channel 3reverse channel	N/Adate	2019/09/11time	00:54:10forward acquisition time	60.00reverse acquisition time	0.00gamma	496.2192k internal	0.2332k external	0.2332temperature offset calibration	0.9914default loss term (dB/km)	0.3790temperature slope calibration	1.0000multiplexer offset coefficient	1.0000multiplexer slope coefficient	1.0000fibre end	0.00T internal ref (°C)	29.16T ext. ref 1 (°C)	-0.31T ext. ref 2 (°C)	22.89length (m)	temperature (°C)	Stokes	anti-Stokes-747.200	-200.000	0.014	-0.180
-746.185	-200.000	-0.028	-0.206
-745.171	108.442	-0.128	0.153
-744.156	250.051	-0.036	-0.061
-743.142	800.000	-0.039	0.143
-742.127	-200.000	-0.024	0.369
-741.112	79.000	0.177	0.191
-740.098	800.000	0.061	0.256
-739.083	-61.522	0.082	0.035
-738.069	80.488	-0.271	0.294
-737.054	-200.000	-0.009	-0.174
-736.039	-173.132	-0.180	-0.006
-735.025	-19.517	0.309	-0.193
-734.010	-55.161	0.103	-0.047
-732.996	-200.000	0.090	-0.000
-731.981	-65.670	-0.336	0.136
-730.966	26.122	-0.114	0.095
-729.952	350.635	-0.095	0.189
-728.937	746.974	0.057	-0.155
-727.923	-160.587	0.361	0.019
-726.908	-103.537	0.444	0.105
-725.894	-104.536	-0.449	-0.104
-724.879	-0.126	0.160	-0.114
-723.864	800.000	-0.035	-0.153
-722.850	800.000	0.094	-0.347
-721.835	-88.178	-0.173	-0.052
-720.821	800.000	-0.028	0.102
-719.806	35.232	0.174	-0.154
-718.791	-166.117	-0.258	0.011
-717.777	800.000	-0.043	0.148
-716.762	-200.000	-0.059	0.412
-715.748	708.243	-0.053	0.140
-714.733	-73.849	0.147	-0.054
-713.718	800.000	0.031	0.093
-712.704	8.829	0.143	-0.109
-711.689	-164.248	-0.319	-0.015
-710.675	-200.000	-0.003	0.030
-709.660	-200.000	0.011	0.082
-708.645	-62.276	0.196	-0.082
-707.631	-191.115	0.177	-0.002
-706.616	-170.917	-0.047	-0.002
-705.602	64.103	-0.075	-0.076
-704.587	542.091	-0.032	0.077
-703.572	18.465	-0.119	-0.096
-702.558	34.480	0.181	-0.159
-701.543	-56.805	-0.147	-0.065
-700.529	800.000	-0.092	-0.313
-699.514	331.511	-0.083	0.161
-698.499	-57.984	-0.128	-0.056
-697.485	-90.904	0.215	0.062
-696.470	800.000	0.042	-0.172
-695.456	33.641	-0.258	-0.225
-694.441	800.000	0.024	-0.080
-693.426	-26.359	0.119	-0.070
-692.412	88.468	0.125	0.139
-691.397	-68.982	0.160	0.062
-690.383	800.000	-0.023	-0.082
-689.368	-185.432	-0.168	-0.003
-688.354	-119.224	0.112	-0.020
-687.339	-26.109	0.268	-0.158
-686.324	-25.463	-0.158	0.093
-685.310	340.612	0.194	-0.381
-684.295	-183.960	0.221	0.004
-683.281	-122.385	0.113	-0.018
-682.266	-200.000	-0.006	0.032
-681.251	88.562	0.180	0.201
-680.237	-71.261	-0.304	0.114
-679.222	-27.683	0.102	-0.060
-678.208	-149.988	-0.131	0.010
-677.193	275.244	-0.126	-0.225
-676.178	301.864	0.107	0.198
-675.164	641.821	0.050	0.127
-674.149	96.107	0.063	0.072
-673.135	33.757	0.066	0.057
-672.120	6.814	-0.284	0.212
-671.105	800.000	-0.074	-0.239
-670.091	358.270	-0.019	-0.038
-669.076	237.222	0.065	-0.109
-668.062	366.404	-0.111	-0.224
-667.047	800.000	0.005	-0.018
-666.032	-34.681	-0.101	0.055
-665.018	-200.000	0.026	-0.334
-664.003	486.396	-0.092	-0.211
-662.989	731.846	0.070	0.187
-661.974	-200.000	-0.027	0.190
-660.959	124.853	-0.130	-0.165
-659.945	-22.505	-0.149	0.090
-658.930	139.984	-0.194	-0.256
-657.916	67.246	0.275	-0.281
-656.901	140.214	-0.128	-0.170
-655.886	-47.260	-0.223	0.109
-654.872	-41.648	-0.066	0.034
-653.857	-87.739	0.069	-0.021
-652.843	800.000	-0.072	-0.214
-651.828	208.776	-0.137	0.214
-650.814	-60.268	-0.204	0.087
-649.799	-121.947	0.174	-0.029
-648.784	-68.406	-0.137	-0.053
-647.770	-58.793	0.312	-0.135
-646.755	5.641	0.287	-0.213
-645.741	-52.337	0.294	-0.137
-644.726	-162.061	0.161	0.008
-643.711	-0.620	0.148	-0.105
-642.697	306.796	0.051	0.094
-641.682	205.329	0.102	0.159
-640.668	-200.000	-0.297	-0.000
-639.653	-113.221	-0.044	-0.009
-638.638	-200.000	0.035	0.191
-637.624	10.303	0.145	-0.111
-636.609	-174.007	-0.224	-0.007
-635.595	191.661	-0.037	0.056
-634.580	-200.000	0.056	-0.273
-633.565	1.106	-0.426	0.306
-632.551	-166.396	0.245	-0.010
-631.536	-116.102	-0.201	-0.037
-630.522	289.060	-0.023	0.041
-629.507	-200.000	0.032	0.365
-628.492	424.874	-0.186	0.402
-627.478	2.419	-0.187	-0.135
-626.463	-58.877	0.071	0.031
-625.449	324.787	-0.171	-0.328
-624.434	-200.000	0.046	0.207
-623.419	-67.308	-0.075	0.029
-622.405	-144.649	-0.292	0.027
-621.390	366.792	-0.147	-0.298
-620.376	800.000	-0.094	-0.307
-619.361	7.478	0.296	-0.221
-618.346	-37.831	-0.457	-0.244
-617.332	800.000	0.027	-0.089
-616.317	-38.240	0.245	0.130
-615.303	-30.094	0.287	-0.163
-614.288	-116.456	-0.176	-0.033
-613.273	-200.000	-0.016	-0.173
-612.259	-47.915	-0.306	-0.148
-611.244	-5.181	-0.341	-0.235
-610.230	54.071	0.208	0.200
-609.215	33.028	0.063	-0.054
-608.201	8.100	0.313	-0.235
-607.186	-200.000	0.055	0.344
-606.171	106.632	0.277	0.329
-605.157	-100.079	-0.191	0.048
-604.142	800.000	-0.087	0.329
-603.128	417.981	-0.083	-0.177
-602.113	-200.000	0.036	0.361
-601.098	430.657	-0.068	0.147
-600.084	-117.168	0.084	0.015
-599.069	-44.405	-0.292	-0.146
-598.055	-43.810	0.174	-0.088
-597.040	-200.000	0.005	-0.096
-596.025	-130.695	0.040	0.005
-595.011	288.662	-0.138	-0.250
-593.996	-130.988	-0.375	0.050
-592.982	-19.481	0.243	-0.151
-591.967	31.293	-0.417	-0.358
-590.952	40.141	-0.184	-0.166
-589.938	153.295	0.072	-0.099
-588.923	-6.279	0.261	-0.178
-587.909	-200.000	0.025	-0.220
-586.894	-200.000	0.083	0.455
-585.879	30.834	-0.285	-0.244
-584.865	-200.000	-0.005	-0.398
-583.850	-200.000	-0.043	-0.190
-582.836	-153.622	-0.230	0.016
-581.821	-74.103	0.146	-0.053
-580.806	221.416	0.119	-0.191
-579.792	-99.685	0.125	0.031
-578.777	-170.544	0.575	-0.020
-577.763	414.420	-0.059	0.125
-576.748	-200.000	-0.073	0.432
-575.733	184.754	0.197	0.292
-574.719	137.080	0.239	0.312
-573.704	135.110	0.084	-0.108
-572.690	-200.000	0.089	-0.498
-571.675	102.040	-0.099	0.116
-570.661	-47.211	-0.347	0.169
-569.646	258.035	0.053	-0.091
-568.631	-176.275	-0.251	0.007
-567.617	-200.000	0.012	-0.295
-566.602	-200.000	0.076	-0.354
-565.588	610.203	0.068	0.169
-564.573	146.850	-0.083	-0.112
-563.558	272.908	0.015	0.026
-562.544	103.286	-0.044	-0.051
-561.529	30.657	0.047	0.041
-560.515	-64.709	-0.157	-0.064
-559.500	-27.840	-0.352	0.204
-558.485	-74.586	0.289	0.104
-557.471	6.812	0.174	0.130
-556.456	95.203	-0.033	-0.037
-555.442	0.707	0.047	-0.034
-554.427	-17.424	-0.204	0.128
-553.412	-122.770	-0.206	-0.033
-552.398	-179.625	-0.431	0.009
-551.383	-59.975	-0.247	-0.105
-550.369	-63.570	-0.210	-0.086
-549.354	208.714	-0.165	-0.259
-548.339	546.767	0.020	-0.047
-547.325	-161.766	-0.235	0.012
-546.310	-200.000	-0.013	-0.145
-545.296	-16.753	0.261	0.165
-544.281	800.000	-0.042	-0.134
-543.266	-119.196	0.112	-0.019
-542.252	800.000	-0.103	-0.293
-541.237	-66.205	0.092	-0.037
-540.223	-119.101	0.160	-0.028
-539.208	-0.871	-0.174	-0.123
-538.193	-200.000	-0.014	-0.087
-537.179	665.776	-0.028	-0.072
-536.164	116.296	-0.210	0.257
-535.150	43.532	0.203	0.185
-534.135	-200.000	0.090	0.000
-533.121	421.379	-0.124	0.265
-532.106	800.000	0.046	-0.169
-531.091	800.000	-0.058	-0.220
-530.077	-6.715	-0.149	-0.101
-529.062	-27.414	-0.028	0.016
-528.048	2.892	-0.246	-0.178
-527.033	-134.878	0.075	-0.009
-526.018	15.635	-0.120	-0.094
-525.004	-200.000	-0.031	-0.327
-523.989	310.835	0.117	0.218
-522.975	-112.492	-0.276	-0.055
-521.960	-164.599	0.186	-0.008
-520.945	370.311	0.036	-0.073
-519.931	-66.632	-0.354	0.140
-518.916	36.650	-0.163	0.144
-517.902	-200.000	0.005	0.123
-516.887	800.000	0.088	0.299
-515.872	102.879	-0.285	0.333
-514.858	-145.638	0.049	0.004
-513.843	290.309	0.064	-0.116
-512.829	800.000	-0.071	-0.250
-511.814	545.695	0.028	-0.066
-510.799	219.092	0.203	0.324
-509.785	-39.981	0.070	-0.036
-508.770	221.347	-0.078	-0.125
-507.756	214.900	0.109	0.172
-506.741	-53.801	-0.389	-0.177
-505.726	-61.461	0.169	0.071
-504.712	165.301	0.153	0.216
-503.697	-2.663	0.154	0.108
-502.683	-106.234	-0.119	-0.027
-501.668	149.591	-0.160	-0.216
-500.653	96.611	-0.211	0.241
-499.639	-160.466	0.127	-0.007
-498.624	-200.000	0.008	0.089
-497.610	-200.000	-0.042	-0.230
-496.595	-88.390	0.196	0.058
-495.581	-132.991	0.500	-0.063
-494.566	234.845	-0.124	-0.204
-493.551	-143.828	0.115	-0.011
-492.537	-36.431	0.292	0.157
-491.522	-166.230	-0.029	0.001
-490.508	608.290	0.033	0.083
-489.493	-49.133	0.170	-0.081
-488.478	673.282	0.030	0.077
-487.464	-86.915	0.318	0.097
-486.449	-200.000	0.065	0.000
-485.435	-50.447	0.165	0.078
-484.420	614.621	-0.077	-0.192
-483.405	-44.563	-0.306	0.152
-482.391	5.010	0.045	-0.033
-481.376	-24.791	-0.092	0.055
-480.362	-17.052	0.196	0.123
-479.347	77.884	0.135	-0.144
-478.332	153.170	0.110	-0.150
-477.318	179.989	0.217	-0.317
-476.303	20.435	0.339	-0.273
-475.289	317.313	-0.084	0.158
-474.274	157.205	0.060	0.083
-473.259	-108.619	-0.412	-0.088
-472.245	-27.977	-0.166	0.096
-471.230	-200.000	-0.049	-0.260
-470.216	-80.892	-0.032	0.010
-469.201	-96.035	-0.199	0.053
-468.186	-79.260	-0.283	-0.095
-467.172	-200.000	-0.015	-0.314
-466.157	477.364	0.070	-0.158
-465.143	30.180	0.097	0.082
-464.128	-35.155	0.087	0.047
-463.113	577.712	-0.002	-0.004
-462.099	-200.000	0.001	-0.117
-461.084	-56.728	0.157	0.069
-460.070	134.708	0.264	0.341
-459.055	800.000	0.129	0.455
-458.040	324.614	-0.120	0.228
-457.026	121.696	0.133	-0.165
-456.011	-177.906	0.184	0.004
-454.997	639.464	0.042	0.106
-453.982	2.986	-0.171	0.124
-452.968	387.779	-0.051	0.105
-451.953	-200.000	-0.023	0.162
-450.938	-79.675	-0.033	0.011
-449.924	232.481	-0.027	-0.045
-448.909	-52.061	-0.130	0.060
-447.895	-44.702	-0.322	-0.160
-446.880	-200.000	-0.056	0.264
-445.865	-200.000	-0.044	-0.453
-444.851	-97.911	0.176	0.045
-443.836	-114.161	0.084	-0.016
-442.822	-116.305	-0.113	0.021
-441.807	-157.221	-0.301	-0.018
-440.792	489.548	0.200	-0.455
-439.778	49.667	0.237	0.222
-438.763	800.000	0.096	0.318
-437.749	800.000	0.038	0.144
-436.734	63.051	-0.114	-0.113
-435.719	800.000	0.012	-0.040
-434.705	-200.000	-0.021	-0.125
-433.690	20.033	0.063	-0.050
-432.676	-53.625	0.419	0.190
-431.661	84.811	-0.123	0.134
-430.646	-60.317	-0.100	-0.042
-429.632	-151.466	-0.449	0.033
-428.617	46.673	0.275	-0.254
-427.603	455.514	-0.072	0.158
-426.588	25.005	0.207	-0.171
-425.573	-142.730	-0.420	0.041
-424.559	-19.719	-0.285	-0.175
-423.544	14.912	-0.308	-0.239
-422.530	-123.210	0.207	0.033
-421.515	-200.000	0.018	-0.377
-420.500	88.830	0.097	-0.107
-419.486	-200.000	0.001	-0.195
-418.471	-123.433	-0.259	-0.041
-417.457	54.619	-0.174	-0.167
-416.442	85.408	-0.162	0.177
-415.428	409.054	-0.148	0.312
-414.413	-200.000	0.242	0.001
-413.398	-71.050	0.352	0.132
-412.384	-96.938	0.261	-0.068
-411.369	382.494	-0.114	0.232
-410.355	-200.000	0.038	0.217
-409.340	16.305	0.234	0.183
-408.325	-17.785	-0.429	0.268
-407.311	760.458	0.039	-0.106
-406.296	791.207	-0.088	0.240
-405.282	584.494	-0.066	-0.160
-404.267	800.000	0.029	-0.127
-403.252	33.955	0.017	-0.015
-402.238	-54.613	-0.097	-0.044
-401.223	800.000	-0.054	-0.186
-400.209	-200.000	-0.001	0.143
-399.194	-200.000	-0.032	-0.160
-398.179	-200.000	0.012	-0.098
-397.165	-200.000	-0.257	-0.001
-396.150	-200.000	-0.030	-0.249
-395.136	269.893	-0.054	-0.093
-394.121	-200.000	0.051	0.263
-393.106	-200.000	0.051	-0.300
-392.092	115.871	-0.311	-0.378
-391.077	-54.941	0.090	0.040
-390.063	-200.000	-0.028	0.152
-389.048	-5.087	0.097	0.066
-388.033	256.917	-0.147	0.250
-387.019	61.294	-0.098	0.097
-386.004	21.479	-0.110	-0.089
-384.990	-129.315	-0.274	0.038
-383.975	-18.051	0.132	-0.082
-382.960	-68.178	-0.231	0.089
-381.946	-92.690	0.433	-0.120
-380.931	50.346	-0.158	-0.148
-379.917	-146.854	-0.139	0.012
-378.902	-35.711	-0.347	-0.186
-377.888	-20.950	-0.111	0.068
-376.873	-36.618	0.039	-0.021
-375.858	800.000	0.152	0.492
-374.844	15.196	0.275	0.214
-373.829	-138.077	0.265	0.029
-372.815	-30.635	-0.124	-0.070
-371.800	166.001	0.061	-0.086
-370.785	-0.025	0.008	0.006
-369.771	-70.826	0.418	0.156
-368.756	6.111	0.196	0.144
-367.742	800.000	-0.052	-0.191
-366.727	-34.612	0.106	0.058
-365.712	236.300	-0.111	-0.181
-364.698	94.097	0.136	0.153
-363.683	800.000	0.034	-0.113
-362.669	800.000	-0.013	-0.036
-361.654	435.435	0.156	-0.336
-360.639	-113.555	-0.062	0.012
-359.625	-85.879	0.240	-0.074
-358.610	-33.376	0.104	-0.057
-357.596	72.268	-0.039	-0.041
-356.581	800.000	0.030	0.119
-355.566	-10.836	0.369	0.242
-354.552	400.110	-0.037	-0.078
-353.537	-200.000	0.020	0.189
-352.523	-56.496	0.409	0.180
-351.508	793.287	-0.062	-0.169
-350.493	227.764	0.162	-0.261
-349.479	800.000	0.050	-0.211
-348.464	-94.189	0.534	-0.145
-347.450	-200.000	-0.046	-0.334
-346.435	-106.444	-0.316	0.070
-345.420	-200.000	0.048	0.313
-344.406	-133.571	-0.210	0.026
-343.391	50.538	0.105	0.098
-342.377	-26.139	0.148	0.086
-341.362	-200.000	0.013	0.071
-340.348	-9.533	-0.087	-0.058
-339.333	-61.514	0.037	0.016
-338.318	800.000	0.052	-0.154
-337.304	76.367	-0.169	0.177
-336.289	167.877	0.162	-0.229
-335.275	73.738	-0.195	-0.202
-334.260	50.130	-0.108	-0.101
-333.245	-70.334	0.299	-0.112
-332.231	-51.912	0.246	0.113
-331.216	-98.930	-0.110	-0.028
-330.202	-99.531	-0.351	0.087
-329.187	157.407	0.177	0.242
-328.172	68.623	0.270	-0.274
-327.158	445.303	-0.062	0.135
-326.143	268.180	-0.117	-0.203
-325.129	-200.000	0.006	-0.093
-324.114	800.000	0.065	0.179
-323.099	-61.693	0.132	-0.055
-322.085	-5.819	0.341	0.231
-321.070	530.644	-0.188	0.440
-320.056	102.475	0.096	0.111
-319.041	-200.000	0.008	0.132
-318.026	-98.672	-0.026	0.006
-317.012	139.875	-0.076	-0.100
-315.997	-200.000	0.033	-0.192
-314.983	-71.898	0.434	0.160
-313.968	-200.000	-0.020	0.192
-312.953	669.630	0.129	0.331
-311.939	101.646	0.182	0.210
-310.924	-200.000	-0.037	-0.300
-309.910	-129.814	-0.205	0.028
-308.895	149.733	0.084	0.112
-307.880	-135.873	0.089	-0.010
-306.866	258.405	-0.062	0.105
-305.851	-157.133	-0.277	-0.017
-304.837	6.637	-0.190	-0.140
-303.822	-200.000	-0.044	-0.283
-302.807	653.838	0.079	-0.201
-301.793	-119.588	0.207	0.035
-300.778	-114.225	0.246	-0.047
-299.764	-186.700	0.515	-0.007
-298.749	-200.000	0.024	0.149
-297.735	159.881	-0.164	0.226
-296.720	-200.000	-0.034	0.241
-295.705	-200.000	0.027	0.138
-294.691	10.305	-0.188	-0.142
-293.676	800.000	-0.054	-0.229
-292.662	-28.062	0.108	-0.062
-291.647	-200.000	-0.012	-0.071
-290.632	-16.007	0.139	-0.087
-289.618	-200.000	0.011	0.096
-288.603	-104.698	-0.244	-0.055
-287.589	356.080	0.124	0.244
-286.574	-95.970	-0.382	0.100
-285.559	105.034	0.117	-0.137
-284.545	-143.968	-0.223	-0.021
-283.530	-39.188	-0.134	-0.070
-282.516	-27.653	-0.053	0.030
-281.501	170.718	0.048	-0.068
-280.486	25.151	-0.089	-0.073
-279.472	-200.000	0.000	-0.029
-278.457	-79.752	-0.303	-0.101
-277.443	221.189	-0.112	-0.178
-276.428	95.309	-0.061	-0.068
-275.413	-38.247	-0.113	-0.059
-274.399	-200.000	0.032	0.257
-273.384	-118.395	0.529	0.093
-272.370	-63.881	0.054	-0.022
-271.355	676.768	0.143	0.366
-270.340	-41.127	-0.107	0.054
-269.326	800.000	0.051	-0.217
-268.311	213.649	-0.036	0.056
-267.297	168.571	0.034	-0.048
-266.282	-3.325	0.135	-0.093
-265.267	-200.000	-0.041	0.230
-264.253	-45.740	-0.172	-0.084
-263.238	85.020	0.189	-0.205
-262.224	499.007	0.032	-0.074
-261.209	-108.553	0.356	-0.076
-260.195	800.000	0.132	0.481
-259.180	22.095	0.065	-0.053
-258.165	298.767	0.064	-0.117
-257.151	16.522	-0.266	-0.207
-256.136	-138.927	-0.063	-0.007
-255.122	-60.404	0.158	-0.066
-254.107	256.631	-0.131	-0.222
-253.092	-35.756	0.113	0.061
-252.078	-74.765	0.205	0.073
-251.063	144.420	0.220	-0.290
-250.049	-137.478	-0.314	0.035
-249.034	-46.447	0.167	0.081
-248.019	-52.277	-0.331	-0.151
-247.005	-88.859	0.202	0.059
-245.990	-136.800	-0.136	0.015
-244.976	-38.999	0.234	0.122
-243.961	-65.677	0.070	0.028
-242.946	306.471	0.161	0.296
-241.932	-58.900	-0.116	0.049
-240.917	800.000	-0.077	0.313
-239.903	-200.000	0.003	-0.208
-238.888	604.111	0.050	0.123
-237.873	43.670	0.166	-0.150
-236.859	-59.151	0.106	-0.045
-235.844	-83.246	0.160	-0.051
-234.830	-64.919	0.267	0.107
-233.815	20.641	-0.077	-0.061
-232.800	39.212	-0.233	-0.205
-231.786	-15.837	0.202	-0.127
-230.771	112.643	0.121	-0.144
-229.757	800.000	0.052	0.162
-228.742	30.936	0.138	0.117
-227.727	-3.031	-0.078	-0.054
-226.713	68.581	0.226	-0.229
-225.698	-65.101	0.117	0.047
-224.684	1.874	-0.214	-0.152
-223.669	800.000	-0.078	0.289
-222.655	-59.993	-0.260	-0.109
-221.640	-93.186	-0.207	0.057
-220.625	139.612	0.180	0.234
-219.611	-160.879	0.413	-0.021
-218.596	98.310	-0.226	-0.256
-217.582	-200.000	0.009	0.148
-216.567	-200.000	-0.023	-0.123
-215.552	-58.130	0.069	-0.029
-214.538	-200.000	-0.014	0.287
-213.523	-84.018	-0.166	0.052
-212.509	-82.487	0.404	-0.129
-211.494	-200.000	0.012	0.172
-210.479	424.400	-0.083	0.175
-209.465	-31.868	-0.253	0.140
-208.450	-200.000	-0.015	0.126
-207.436	-5.824	-0.094	-0.063
-206.421	-200.000	0.037	0.268
-205.406	-132.620	-0.141	-0.018
-204.392	-29.068	-0.331	-0.187
-203.377	-16.242	-0.148	-0.093
-202.363	215.782	0.187	-0.293
-201.348	-95.600	-0.172	-0.045
-200.333	3.178	0.484	-0.346
-199.319	-80.010	-0.120	-0.040
-198.304	20.167	-0.276	0.220
-197.290	30.889	-0.040	-0.034
-196.275	157.733	-0.134	-0.183
-195.260	594.891	-0.134	-0.327
-194.246	-71.530	-0.299	-0.110
-193.231	371.052	0.127	0.254
-192.217	800.000	-0.102	0.333
-191.202	-96.825	0.058	-0.015
-190.187	-99.047	-0.180	-0.045
-189.173	-90.863	0.023	0.007
-188.158	-49.855	0.182	0.085
-187.144	800.000	-0.065	0.277
-186.129	103.778	-0.095	0.109
-185.114	-153.492	0.237	0.016
-184.100	-45.843	0.287	0.139
-183.085	800.000	0.075	0.258
-182.071	-111.056	0.167	0.034
-181.056	374.539	-0.255	0.512
-180.042	-95.196	-0.137	0.036
-179.027	800.000	0.078	-0.248
-178.012	96.362	-0.089	-0.100
-176.998	187.023	0.232	0.340
-175.983	182.249	0.123	-0.178
-174.969	82.044	-0.257	0.274
-173.954	94.714	-0.234	0.262
-172.939	-200.000	0.014	0.094
-171.925	560.905	0.151	0.359
-170.910	800.000	0.072	0.215
-169.896	-94.993	-0.080	0.021
-168.881	115.593	0.036	-0.043
-167.866	-4.637	0.067	-0.046
-166.852	118.937	-0.092	-0.112
-165.837	3.248	-0.054	0.039
-164.823	-74.021	-0.115	-0.041
-163.808	-21.053	-0.140	0.084
-162.793	-89.552	0.239	-0.069
-161.779	-40.888	-0.293	-0.149
-160.764	800.000	-0.106	0.348
-159.750	-200.000	0.029	0.217
-158.735	130.435	0.210	0.264
-157.720	58.278	-0.266	-0.257
-156.706	-200.000	-0.001	-0.094
-155.691	-200.000	-0.092	-0.433
-154.677	800.000	-0.003	0.009
-153.662	358.433	0.076	0.149
-152.647	228.669	-0.074	0.118
-151.633	235.981	-0.204	0.332
-150.618	-112.761	0.453	-0.089
-149.604	18.837	-0.130	-0.102
-148.589	-138.444	0.197	-0.021
-147.574	-200.000	0.032	0.215
-146.560	-92.408	-0.190	0.053
-145.545	-85.370	-0.225	-0.069
-144.531	-63.042	-0.163	0.066
-143.516	-77.452	-0.262	-0.089
-142.502	14.988	0.020	0.015
-141.487	555.512	-0.033	0.078
-140.472	214.559	0.179	0.279
-139.458	404.946	-0.106	0.219
-138.443	0.123	-0.101	0.071
-137.429	287.548	0.092	-0.164
-136.414	31.465	0.132	-0.112
-135.399	113.983	0.341	-0.407
-134.385	147.902	-0.145	0.192
-133.370	-1.030	0.209	0.145
-132.356	324.907	-0.035	-0.065
-131.341	259.316	0.109	-0.185
-130.326	456.483	0.037	-0.081
-129.312	-200.000	-0.030	-0.301
-128.297	-152.123	0.126	-0.009
-127.283	-74.233	0.235	0.083
-126.268	242.444	0.025	-0.041
-125.253	439.810	0.049	-0.105
-124.239	474.363	0.142	-0.314
-123.224	352.629	0.092	-0.179
-122.210	-200.000	-0.034	0.164
-121.195	385.893	0.057	-0.116
