DTS Sentinel unit serial number:	SN413079Multiplexer serial number:	ORYXHardware model number:	OX4-SRSoftware version number:	ORYX F/W v4.00 Oryx Data Collector v3.7.2.0data status	okinstallation	princeton_trtdifferential loss correction	single-endedforward channel	channel 3reverse channel	N/Adate	2019/09/12time	03:14:10forward acquisition time	60.00reverse acquisition time	0.00gamma	496.2192k internal	0.2321k external	0.2321temperature offset calibration	1.0071default loss term (dB/km)	0.3790temperature slope calibration	1.0000multiplexer offset coefficient	1.0000multiplexer slope coefficient	1.0000fibre end	0.00T internal ref (°C)	32.25T ext. ref 1 (°C)	2.12T ext. ref 2 (°C)	27.24length (m)	temperature (°C)	Stokes	anti-Stokes-747.200	-143.908	-0.102	-0.010
-746.185	190.825	0.055	0.083
-745.171	92.207	0.111	0.127
-744.156	100.186	-0.155	0.181
-743.142	-85.647	-0.162	-0.051
-742.127	-48.918	0.218	-0.105
-741.112	-77.102	0.178	0.063
-740.098	-200.000	-0.002	-0.057
-739.083	-90.452	-0.325	-0.095
-738.069	-91.317	0.226	-0.065
-737.054	211.765	0.103	-0.163
-736.039	344.263	-0.098	-0.195
-735.025	262.987	0.133	0.234
-734.010	24.912	-0.379	-0.318
-732.996	189.971	-0.195	-0.295
-731.981	-124.810	-0.181	0.028
-730.966	800.000	-0.024	0.104
-729.952	-2.437	0.076	0.054
-728.937	-83.570	0.125	-0.040
-727.923	-170.285	-0.332	0.012
-726.908	-64.299	-0.217	-0.089
-725.894	-200.000	-0.012	0.057
-724.879	-133.586	-0.434	0.055
-723.864	-3.246	-0.080	-0.056
-722.850	-14.826	-0.278	-0.180
-721.835	87.702	0.168	0.188
-720.821	-105.268	0.333	-0.077
-719.806	-65.979	-0.191	-0.077
-718.791	-200.000	-0.077	-0.417
-717.777	-118.617	-0.509	-0.091
-716.762	-77.480	-0.174	-0.061
-715.748	339.012	0.079	0.155
-714.733	-75.820	0.278	0.099
-713.718	-67.975	0.076	-0.030
-712.704	12.421	-0.344	0.267
-711.689	-8.563	0.217	-0.147
-710.675	124.065	-0.035	0.045
-709.660	324.784	0.178	0.343
-708.645	150.554	-0.036	0.050
-707.631	407.410	-0.132	-0.281
-706.616	800.000	0.053	-0.156
-705.602	-74.443	-0.142	0.052
-704.587	392.076	0.126	-0.265
-703.572	-200.000	-0.018	-0.148
-702.558	390.264	0.092	0.192
-701.543	387.466	0.092	0.192
-700.529	250.449	0.067	0.114
-699.514	6.635	-0.071	0.054
-698.499	565.476	0.079	-0.193
-697.485	728.481	0.070	-0.187
-696.470	18.994	-0.103	0.084
-695.456	800.000	0.083	0.310
-694.441	-28.092	-0.127	0.074
-693.426	800.000	0.066	0.183
-692.412	-200.000	-0.101	0.454
-691.397	-1.048	-0.039	-0.028
-690.383	-80.138	0.195	-0.066
-689.368	-66.169	-0.282	-0.113
-688.354	467.096	-0.096	-0.218
-687.339	49.725	0.118	-0.112
-686.324	-200.000	-0.017	-0.094
-685.310	-200.000	-0.041	-0.368
-684.295	18.555	0.128	0.103
-683.281	460.132	-0.100	-0.225
-682.266	-49.079	0.199	-0.096
-681.251	-113.445	-0.139	0.028
-680.237	203.121	-0.067	0.105
-679.222	-200.000	0.020	0.338
-678.208	-200.000	-0.044	-0.351
-677.193	30.986	0.198	-0.171
-676.178	60.489	0.115	-0.115
-675.164	-200.000	0.026	0.166
-674.149	-63.980	0.218	0.090
-673.135	-65.949	0.181	0.073
-672.120	800.000	-0.068	-0.243
-671.105	-200.000	0.016	-0.155
-670.091	-113.411	0.325	0.064
-669.076	-78.490	0.048	0.017
-668.062	218.162	0.155	-0.250
-667.047	-77.539	-0.222	0.077
-666.032	526.513	-0.044	-0.104
-665.018	483.264	0.082	-0.187
-664.003	800.000	0.065	0.284
-662.989	549.863	-0.090	0.216
-661.974	-200.000	-0.000	-0.209
-660.959	-200.000	0.042	-0.423
-659.945	149.947	-0.159	-0.218
-658.930	-78.458	0.306	-0.106
-657.916	-112.513	-0.226	0.045
-656.901	-200.000	0.006	0.136
-655.886	800.000	-0.064	0.245
-654.872	-200.000	-0.057	0.496
-653.857	-9.985	0.192	-0.128
-652.843	16.057	0.284	-0.225
-651.828	-200.000	0.021	-0.287
-650.814	-200.000	0.009	0.113
-649.799	407.637	-0.065	-0.137
-648.784	800.000	-0.039	-0.159
-647.770	-200.000	0.015	0.104
-646.755	-61.844	-0.156	0.066
-645.741	-83.011	0.395	-0.128
-644.726	-97.796	-0.205	0.053
-643.711	540.713	0.143	-0.343
-642.697	-153.631	-0.078	0.005
-641.682	-200.000	0.004	0.045
-640.668	318.986	0.102	0.196
-639.653	-150.999	0.431	0.033
-638.638	-200.000	-0.017	-0.233
-637.624	23.714	0.288	0.238
-636.609	227.259	0.098	0.160
-635.595	-200.000	0.009	0.190
-634.580	800.000	-0.098	0.299
-633.565	-122.744	-0.250	-0.041
-632.551	147.773	-0.184	0.249
-631.536	-116.350	-0.248	0.046
-630.522	-167.147	-0.122	0.005
-629.507	14.225	-0.043	0.034
-628.492	-47.516	0.114	0.056
-627.478	104.807	-0.077	-0.092
-626.463	-170.267	-0.270	-0.010
-625.449	63.437	0.081	0.081
-624.434	-33.535	0.141	0.078
-623.419	-4.715	-0.255	0.177
-622.405	105.645	0.047	-0.056
-621.390	-67.814	0.232	-0.091
-620.376	121.006	-0.168	-0.210
-619.361	409.732	0.080	-0.171
-618.346	800.000	-0.070	0.261
-617.332	454.463	-0.138	-0.307
-616.317	767.358	0.043	-0.118
-615.303	-169.203	0.033	-0.001
-614.288	800.000	0.010	0.033
-613.273	506.037	0.160	-0.372
-612.259	-131.871	0.162	-0.021
-611.244	-200.000	-0.005	-0.190
-610.230	113.296	-0.046	0.056
-609.215	77.041	-0.058	0.062
-608.201	-75.665	-0.146	-0.052
-607.186	-42.688	0.212	-0.109
-606.171	-2.165	-0.142	-0.100
-605.157	-48.751	-0.591	-0.285
-604.142	435.442	-0.034	0.075
-603.128	-60.330	0.302	-0.129
-602.113	-200.000	-0.056	-0.259
-601.098	-66.389	-0.150	0.060
-600.084	-137.205	-0.222	-0.025
-599.069	-63.679	0.374	-0.154
-598.055	-200.000	-0.016	0.127
-597.040	192.284	-0.227	-0.345
-596.025	800.000	0.129	-0.463
-595.011	364.573	-0.091	0.184
-593.996	-32.856	-0.038	0.021
-592.982	292.499	0.034	0.062
-591.967	360.883	-0.069	-0.139
-590.952	-37.321	0.137	-0.073
-589.938	38.940	0.099	-0.089
-588.923	-185.493	-0.027	0.000
-587.909	221.639	-0.070	-0.112
-586.894	-200.000	-0.017	-0.380
-585.879	-200.000	-0.006	-0.212
-584.865	162.633	0.086	-0.121
-583.850	147.591	-0.146	0.198
-582.836	-200.000	-0.033	0.171
-581.821	-82.071	0.238	-0.078
-580.806	75.969	-0.154	0.164
-579.792	-200.000	-0.016	-0.185
-578.777	-15.572	0.170	-0.109
-577.763	-200.000	0.004	0.075
-576.748	-200.000	-0.015	-0.151
-575.733	-19.272	0.211	-0.132
-574.719	8.735	-0.111	0.084
-573.704	800.000	0.022	-0.061
-572.690	-120.631	-0.055	0.009
-571.675	-200.000	0.000	-0.148
-570.661	49.519	-0.234	-0.221
-569.646	-64.665	-0.174	-0.071
-568.631	-200.000	-0.014	-0.111
-567.617	-135.108	-0.127	-0.015
-566.602	149.388	-0.213	-0.290
-565.588	-101.090	0.126	-0.031
-564.573	-200.000	-0.118	0.548
-563.558	800.000	0.024	0.071
-562.544	-200.000	-0.030	0.251
-561.529	-15.641	0.119	-0.076
-560.515	800.000	0.092	0.256
-559.500	-198.585	0.196	0.001
-558.485	616.946	-0.182	0.459
-557.471	800.000	0.020	0.073
-556.456	346.482	0.083	0.164
-555.442	800.000	0.035	-0.105
-554.427	800.000	-0.034	-0.142
-553.412	-200.000	0.006	0.066
-552.398	800.000	-0.039	-0.164
-551.383	-39.884	-0.107	0.056
-550.369	-2.217	0.087	0.061
-549.354	-200.000	0.030	0.183
-548.339	-29.854	0.335	0.192
-547.325	160.487	-0.093	-0.130
-546.310	95.950	-0.084	-0.096
-545.296	-165.456	0.171	0.007
-544.281	-102.012	-0.279	-0.067
-543.266	113.539	-0.295	-0.359
-542.252	800.000	0.045	0.172
-541.237	87.974	0.242	-0.269
-540.223	800.000	0.033	0.139
-539.208	27.878	-0.383	-0.324
-538.193	94.383	-0.068	-0.077
-537.179	-130.930	-0.363	0.049
-536.164	-200.000	-0.010	0.554
-535.150	-90.854	-0.533	0.154
-534.135	-21.038	0.325	0.199
-533.121	-200.000	-0.004	-0.121
-532.106	558.310	0.029	-0.071
-531.091	393.799	0.084	0.176
-530.077	329.295	-0.042	0.081
-529.062	-200.000	0.012	-0.178
-528.048	-7.267	0.253	-0.172
-527.033	-191.908	-0.266	0.003
-526.018	111.694	-0.076	0.091
-525.004	120.800	0.077	0.096
-523.989	-200.000	0.077	-0.373
-522.975	-100.501	-0.363	0.090
-521.960	-44.813	0.060	0.030
-520.945	-77.193	0.170	-0.059
-519.931	-200.000	0.022	0.195
-518.916	-88.938	0.180	-0.053
-517.902	617.033	-0.086	0.215
-516.887	-64.837	-0.260	0.105
-515.872	24.244	0.159	0.132
-514.858	-126.621	0.289	0.043
-513.843	156.438	0.125	-0.173
-512.829	716.553	0.122	0.324
-511.814	71.556	-0.102	0.106
-510.799	-4.576	-0.111	0.077
-509.785	355.517	-0.063	-0.125
-508.770	50.679	0.141	-0.134
-507.756	-144.454	0.073	0.007
-506.741	-200.000	-0.276	0.001
-505.726	800.000	0.075	0.290
-504.712	-200.000	0.041	-0.196
-503.697	-88.039	0.266	0.080
-502.683	-200.000	-0.071	0.363
-501.668	116.711	-0.055	-0.067
-500.653	-53.137	-0.199	-0.091
-499.639	7.757	-0.178	-0.134
-498.624	-131.886	0.180	-0.024
-497.610	-6.672	0.267	0.182
-496.595	-137.109	0.138	-0.016
-495.581	-167.232	0.334	-0.014
-494.566	797.490	-0.064	-0.176
-493.551	148.260	-0.061	0.083
-492.537	-9.657	0.046	-0.030
-491.522	-119.010	-0.150	0.026
-490.508	17.436	-0.131	-0.104
-489.493	421.417	0.117	-0.250
-488.478	800.000	-0.021	0.089
-487.464	766.807	-0.064	-0.174
-486.449	-90.466	-0.302	0.087
-485.435	-170.792	-0.148	-0.005
-484.420	187.725	0.062	0.093
-483.405	-16.545	-0.095	0.060
-482.391	-123.558	-0.038	0.006
-481.376	61.430	-0.326	-0.324
-480.362	48.285	0.113	-0.106
-479.347	359.684	-0.085	0.171
-478.332	208.474	0.026	-0.041
-477.318	109.208	-0.103	-0.124
-476.303	142.996	-0.294	-0.391
-475.289	800.000	0.064	-0.199
-474.274	98.154	-0.094	0.108
-473.259	-200.000	0.077	-0.347
-472.245	-200.000	0.056	-0.434
-471.230	-125.214	-0.172	-0.026
-470.216	-81.612	0.459	-0.151
-469.201	-151.954	0.427	-0.031
-468.186	-3.941	-0.201	0.139
-467.172	-98.722	-0.181	-0.046
-466.157	-65.916	-0.080	0.032
-465.143	800.000	-0.074	-0.300
-464.128	-25.901	-0.203	0.120
-463.113	-51.805	-0.357	0.166
-462.099	-42.460	-0.063	-0.032
-461.084	143.428	-0.112	-0.149
-460.070	-114.810	-0.196	-0.037
-459.055	800.000	0.074	0.212
-458.040	55.024	-0.224	0.216
-457.026	-126.946	-0.550	-0.081
-456.011	-100.511	0.186	-0.046
-454.997	-180.953	-0.105	-0.002
-453.982	121.684	-0.180	-0.224
-452.968	-200.000	0.012	-0.206
-451.953	-109.766	0.078	0.016
-450.938	-200.000	0.031	0.517
-449.924	-183.751	0.336	-0.006
-448.909	-200.000	0.027	0.180
-447.895	800.000	-0.049	-0.211
-446.880	-200.000	0.016	-0.313
-445.865	60.123	0.244	0.241
-444.851	482.648	-0.169	-0.384
-443.836	-38.707	0.060	0.032
-442.822	-28.380	0.177	-0.102
-441.807	-139.945	0.146	-0.015
-440.792	279.639	-0.077	-0.137
-439.778	-200.000	0.015	-0.330
-438.763	-200.000	0.013	0.143
-437.749	-110.291	-0.169	0.035
-436.734	-58.496	0.046	0.020
-435.719	-73.847	-0.030	-0.011
-434.705	302.454	-0.017	-0.031
-433.690	48.169	-0.081	0.076
-432.676	41.688	0.227	0.205
-431.661	184.590	-0.009	0.014
-430.646	16.736	0.158	-0.125
-429.632	-200.000	0.001	-0.230
-428.617	-137.950	0.166	0.018
-427.603	-135.250	-0.387	0.046
-426.588	197.182	-0.137	-0.209
-425.573	101.005	-0.025	-0.030
-424.559	291.760	-0.034	0.061
-423.544	-200.000	-0.016	0.105
-422.530	-200.000	0.021	-0.199
-421.515	-200.000	0.069	-0.393
-420.500	296.052	-0.151	-0.277
-419.486	-200.000	0.005	0.046
-418.471	127.548	0.045	-0.057
-417.457	800.000	0.037	-0.137
-416.442	99.541	-0.083	0.096
-415.428	-45.041	-0.435	0.216
-414.413	392.494	-0.161	0.333
-413.398	-86.811	0.296	0.090
-412.384	145.486	0.132	0.177
-411.369	56.543	-0.166	-0.161
-410.355	800.000	-0.122	0.374
-409.340	-200.000	-0.046	0.448
-408.325	-144.600	-0.164	0.015
-407.311	-192.265	0.102	-0.001
-406.296	-200.000	0.010	0.158
-405.282	-200.000	0.053	-0.347
-404.267	-141.619	0.020	0.002
-403.252	189.210	0.018	0.027
-402.238	-67.833	-0.291	0.113
-401.223	-200.000	-0.009	-0.143
-400.209	117.779	0.023	0.029
-399.194	133.644	0.105	0.135
-398.179	-65.572	-0.365	-0.146
-397.165	-200.000	-0.029	0.195
-396.150	131.259	0.132	0.169
-395.136	161.946	0.116	0.162
-394.121	15.933	-0.141	0.111
-393.106	800.000	-0.109	-0.430
-392.092	-22.470	-0.221	-0.134
-391.077	-200.000	0.025	-0.130
-390.063	-123.724	0.176	0.028
-389.048	-25.899	-0.190	0.112
-388.033	-65.883	-0.345	0.138
-387.019	320.433	-0.091	0.173
-386.004	-137.197	0.183	-0.021
-384.990	77.496	-0.288	0.306
-383.975	-31.500	-0.037	-0.021
-382.960	800.000	0.046	0.138
-381.946	-35.799	-0.285	-0.154
-380.931	597.596	0.105	-0.259
-379.917	800.000	-0.101	0.424
-378.902	19.722	0.493	-0.395
-377.888	-142.857	-0.148	0.014
-376.873	132.435	0.122	0.156
-375.858	-39.984	-0.288	-0.150
-374.844	416.901	0.105	-0.223
-373.829	104.233	-0.154	0.181
-372.815	43.061	0.165	-0.150
-371.800	-126.231	-0.323	0.048
-370.785	192.071	-0.138	0.207
-369.771	-53.851	0.096	-0.043
-368.756	96.683	0.053	0.061
-367.742	-200.000	-0.006	-0.177
-366.727	800.000	0.033	0.104
-365.712	-200.000	0.118	-0.000
-364.698	-194.438	-0.362	0.003
-363.683	-42.008	-0.199	-0.102
-362.669	144.076	0.308	0.409
-361.654	-5.856	0.179	0.122
-360.639	-157.438	0.368	-0.022
-359.625	-200.000	0.060	0.266
-358.610	636.585	0.072	0.183
-357.596	294.323	0.109	0.198
-356.581	123.348	-0.131	0.163
-355.566	-83.962	0.360	-0.114
-354.552	1.732	0.028	0.020
-353.537	283.513	0.092	0.165
-352.523	800.000	-0.024	-0.090
-351.508	211.938	-0.128	-0.201
-350.493	-109.532	0.160	-0.034
-349.479	-140.344	0.052	-0.005
-348.464	-95.598	0.267	-0.071
-347.450	112.563	0.071	-0.086
-346.435	-90.332	-0.107	0.031
-345.420	312.110	0.149	-0.278
-344.406	-60.003	-0.199	-0.085
-343.391	181.884	0.103	-0.151
-342.377	145.135	0.253	-0.337
-341.362	-78.442	0.207	0.071
-340.348	113.286	-0.114	-0.137
-339.333	35.006	-0.189	0.165
-338.318	274.521	-0.228	0.402
-337.304	-200.000	0.012	-0.131
-336.289	-200.000	-0.027	0.215
-335.275	-50.292	-0.203	0.095
-334.260	-38.291	0.047	0.025
-333.245	-123.604	0.132	0.021
-332.231	-200.000	0.012	-0.193
-331.216	30.249	0.056	0.048
-330.202	-131.250	0.071	0.009
-329.187	279.916	-0.050	-0.090
-328.172	-161.456	-0.132	-0.007
-327.158	220.094	0.106	-0.169
-326.143	-200.000	-0.008	0.143
-325.129	29.099	-0.106	-0.089
-324.114	172.955	0.136	0.195
-323.099	-36.576	-0.176	-0.094
-322.085	-200.000	0.017	0.122
-321.070	-200.000	0.013	-0.443
-320.056	-200.000	-0.104	0.000
-319.041	-200.000	-0.042	0.386
-318.026	-200.000	-0.049	-0.338
-317.012	-87.785	-0.278	-0.083
-315.997	800.000	-0.060	0.214
-314.983	671.746	0.120	-0.308
-313.968	-200.000	-0.006	-0.269
-312.953	800.000	0.074	0.245
-311.939	-200.000	-0.007	0.066
-310.924	-4.452	0.265	0.182
-309.910	459.110	0.111	-0.245
-308.895	278.257	-0.118	0.208
-307.880	-57.161	-0.203	-0.089
-306.866	800.000	0.024	-0.103
-305.851	28.400	-0.191	-0.160
-304.837	800.000	-0.054	0.235
-303.822	-102.333	0.317	-0.076
-302.807	800.000	-0.089	0.273
-301.793	215.162	0.191	0.300
-300.778	-200.000	0.028	-0.191
-299.764	91.609	-0.179	0.200
-298.749	-145.286	-0.204	0.018
-297.735	72.471	-0.196	-0.203
-296.720	-91.783	0.376	0.106
-295.705	-19.337	0.114	0.070
-294.691	91.510	-0.090	0.101
-293.676	800.000	-0.060	0.243
-292.662	-172.922	0.090	0.003
-291.647	73.153	0.243	-0.252
-290.632	800.000	-0.108	-0.347
-289.618	142.581	0.148	-0.195
-288.603	25.907	0.320	-0.265
-287.589	-39.283	0.431	0.224
-286.574	154.997	0.111	0.152
-285.559	76.959	-0.090	-0.094
-284.545	-36.715	0.160	-0.085
-283.530	-188.036	-0.110	-0.001
-282.516	-88.228	0.172	0.051
-281.501	-84.134	0.158	0.050
-280.486	388.489	-0.031	0.064
-279.472	-139.401	0.069	-0.007
-278.457	142.400	0.224	-0.295
-277.443	224.088	0.099	0.159
-276.428	69.085	0.149	0.152
-275.413	49.539	-0.073	-0.068
-274.399	-132.462	0.149	-0.019
-273.384	10.080	0.128	0.097
-272.370	129.167	0.157	0.199
-271.355	-40.074	-0.127	-0.065
-270.340	-200.000	0.027	0.453
-269.326	526.869	0.063	0.148
-268.311	-200.000	0.025	0.153
-267.297	124.246	0.126	0.158
-266.282	769.043	0.136	0.367
-265.267	87.152	-0.135	0.148
-264.253	-200.000	0.027	-0.164
-263.238	47.453	0.015	-0.014
-262.224	-125.053	-0.314	-0.048
-261.209	-48.637	0.168	0.080
-260.195	-103.546	0.174	-0.041
-259.180	-200.000	0.055	0.241
-258.165	334.671	-0.092	-0.176
-257.151	-62.549	-0.454	-0.187
-256.136	800.000	0.059	-0.206
-255.122	-200.000	-0.068	0.319
-254.107	193.546	0.071	0.107
-253.092	498.317	0.175	-0.399
-252.078	20.918	-0.252	0.202
-251.063	-85.663	0.407	0.125
-250.049	-184.369	-0.313	-0.005
-249.034	13.435	0.133	-0.102
-248.019	-200.000	0.017	0.169
-247.005	800.000	0.052	0.161
-245.990	-183.901	0.353	0.006
-244.976	-35.356	-0.325	0.175
-243.961	119.994	-0.213	0.262
-242.946	-88.997	-0.210	-0.061
-241.932	-152.897	0.409	-0.029
-240.917	32.013	0.238	-0.204
-239.903	-19.867	-0.240	-0.147
-238.888	-6.622	0.157	0.106
-237.873	800.000	0.073	-0.266
-236.859	-61.807	-0.151	0.063
-235.844	0.562	0.478	0.339
-234.830	-200.000	-0.047	0.227
-233.815	539.197	0.071	-0.167
-232.800	-187.008	0.168	-0.002
-231.786	113.602	0.131	-0.158
-230.771	228.222	0.151	-0.243
-229.757	-36.334	-0.047	0.025
-228.742	-124.734	0.113	0.017
-227.727	33.650	0.099	-0.085
-226.713	112.614	0.193	0.231
-225.698	-37.769	0.150	-0.079
-224.684	136.604	-0.149	0.192
-223.669	10.185	0.298	-0.224
-222.655	48.497	0.134	-0.125
-221.640	-46.715	-0.448	0.217
-220.625	440.539	0.067	-0.145
-219.611	800.000	0.086	-0.320
-218.596	800.000	0.122	-0.387
-217.582	69.599	0.090	0.091
-216.567	-200.000	0.017	-0.147
-215.552	429.079	-0.154	0.330
-214.538	10.027	-0.220	-0.166
-213.523	577.780	-0.129	-0.313
-212.509	11.536	0.115	0.087
-211.494	-143.281	-0.145	0.014
-210.479	3.336	0.304	0.219
-209.465	495.466	0.062	-0.141
-208.450	-200.000	-0.027	-0.375
-207.436	-120.865	-0.193	0.032
-206.421	-200.000	0.036	-0.202
-205.406	-71.879	-0.109	0.040
-204.392	-200.000	-0.063	0.314
-203.377	-200.000	-0.009	0.056
-202.363	-200.000	-0.032	0.310
-201.348	800.000	0.048	-0.158
-200.333	125.651	-0.049	0.061
-199.319	-11.850	0.347	0.225
-198.304	-117.408	-0.062	0.011
-197.290	-200.000	-0.020	-0.154
-196.275	-200.000	-0.020	0.192
-195.260	139.674	0.120	-0.157
-194.246	-62.313	0.178	0.073
-193.231	-126.274	-0.085	-0.012
-192.217	78.848	0.113	0.119
-191.202	-129.104	-0.071	-0.010
-190.187	-23.370	0.141	0.084
-189.173	39.650	-0.174	-0.154
-188.158	-200.000	0.060	0.375
-187.144	-200.000	0.019	-0.117
-186.129	314.991	0.012	0.022
-185.114	-69.800	-0.255	-0.096
-184.100	63.811	-0.143	0.142
-183.085	-73.782	0.108	0.039
-182.071	16.416	-0.221	-0.173
-181.056	800.000	-0.077	0.283
-180.042	-200.000	-0.039	0.340
-179.027	478.732	0.183	0.411
-178.012	-117.279	-0.346	-0.062
-176.998	33.737	0.145	0.125
-175.983	-52.582	0.432	-0.197
-174.969	-17.216	0.374	0.233
-173.954	-68.720	0.203	0.078
-172.939	-0.973	0.171	-0.120
-171.925	-200.000	-0.078	0.416
-170.910	-200.000	-0.004	0.067
-169.896	-200.000	0.203	-0.000
-168.881	-200.000	-0.030	-0.180
-167.866	-124.485	-0.258	0.040
-166.852	-118.612	-0.384	-0.067
-165.837	-200.000	0.069	-0.000
-164.823	-52.231	0.075	0.034
-163.808	221.234	-0.156	0.248
-162.793	354.870	0.066	0.129
-161.779	800.000	0.101	-0.289
-160.764	-200.000	0.016	0.173
-159.750	30.468	0.281	0.237
-158.735	-200.000	-0.024	-0.383
-157.720	-42.804	-0.082	-0.041
-156.706	-200.000	-0.047	0.226
-155.691	-200.000	0.013	0.073
-154.677	32.643	-0.294	0.251
-153.662	800.000	0.070	-0.242
-152.647	-200.000	-0.037	-0.208
-151.633	-99.045	0.294	-0.073
-150.618	-140.027	0.218	-0.023
-149.604	-200.000	-0.031	0.232
-148.589	-77.069	-0.106	-0.036
-147.574	-200.000	0.027	-0.349
-146.560	-200.000	-0.035	0.155
-145.545	-168.682	0.216	0.008
-144.531	-41.370	-0.099	0.051
-143.516	-200.000	-0.007	0.174
-142.502	153.573	0.165	0.223
-141.487	177.000	0.105	-0.151
-140.472	290.128	-0.056	0.101
-139.458	184.500	0.251	0.367
-138.443	736.790	0.006	-0.017
-137.429	-200.000	0.014	0.174
-136.414	-200.000	-0.009	-0.188
-135.399	-7.990	0.279	-0.185
-134.385	10.812	-0.293	-0.221
-133.370	800.000	0.029	-0.085
-132.356	59.841	0.069	0.067
-131.341	535.487	-0.116	0.272
-130.326	196.986	0.151	-0.227
-129.312	800.000	-0.043	-0.187
-128.297	-200.000	0.020	0.089
-127.283	110.866	0.064	-0.076
-126.268	-85.039	-0.130	0.040
-125.253	-162.358	-0.246	0.012
-124.239	-17.162	0.125	-0.078
-123.224	-70.583	-0.177	0.066
-122.210	-200.000	0.033	-0.219
