DTS Sentinel unit serial number:	SN413079Multiplexer serial number:	ORYXHardware model number:	OX4-SRSoftware version number:	ORYX F/W v4.00 Oryx Data Collector v3.7.2.0data status	okinstallation	princeton_trtdifferential loss correction	single-endedforward channel	channel 3reverse channel	N/Adate	2019/09/10time	23:06:11forward acquisition time	60.00reverse acquisition time	0.00gamma	496.2192k internal	0.2332k external	0.2332temperature offset calibration	0.9919default loss term (dB/km)	0.3790temperature slope calibration	1.0000multiplexer offset coefficient	1.0000multiplexer slope coefficient	1.0000fibre end	0.00T internal ref (°C)	29.98T ext. ref 1 (°C)	-0.30T ext. ref 2 (°C)	23.51length (m)	temperature (°C)	Stokes	anti-Stokes-747.200	34.400	0.147	0.129
-746.185	55.727	-0.149	0.145
-745.171	35.326	-0.251	-0.221
-744.156	-120.372	-0.265	-0.045
-743.142	-200.000	-0.087	0.423
-742.127	-92.470	-0.259	-0.073
-741.112	195.222	0.179	0.273
-740.098	48.447	0.244	0.230
-739.083	800.000	-0.012	0.052
-738.069	-50.994	-0.130	-0.061
-737.054	-8.301	0.234	0.158
-736.039	-57.255	-0.165	-0.073
-735.025	-28.113	0.203	0.118
-734.010	-200.000	0.014	-0.370
-732.996	-65.362	-0.315	-0.127
-731.981	-72.942	-0.226	0.084
-730.966	800.000	-0.081	-0.289
-729.952	281.715	0.141	-0.254
-728.937	-166.952	-0.228	-0.009
-727.923	27.394	-0.249	-0.210
-726.908	-200.000	-0.011	0.201
-725.894	-102.166	-0.231	-0.056
-724.879	800.000	-0.144	-0.487
-723.864	122.063	-0.112	0.140
-722.850	-200.000	-0.069	-0.317
-721.835	-182.309	-0.278	-0.005
-720.821	-114.942	0.185	-0.035
-719.806	-200.000	-0.041	-0.315
-718.791	-30.587	0.210	-0.120
-717.777	4.184	-0.199	0.147
-716.762	-52.821	0.190	0.088
-715.748	-41.425	0.237	0.123
-714.733	800.000	0.023	0.067
-713.718	-152.675	-0.126	-0.009
-712.704	-200.000	-0.047	-0.208
-711.689	-57.533	0.059	-0.026
-710.675	-88.541	0.176	-0.053
-709.660	-155.434	0.317	-0.021
-708.645	800.000	-0.019	0.066
-707.631	800.000	0.108	-0.410
-706.616	192.212	0.127	0.193
-705.602	-18.401	0.054	0.034
-704.587	324.815	-0.139	-0.266
-703.572	248.879	-0.113	0.192
-702.558	-85.200	-0.280	-0.088
-701.543	-184.081	0.275	-0.005
-700.529	-41.148	-0.091	-0.047
-699.514	-96.137	0.069	-0.018
-698.499	-186.196	0.217	-0.003
-697.485	-200.000	0.003	-0.014
-696.470	-200.000	0.002	0.350
-695.456	-58.148	0.312	0.137
-694.441	74.572	0.123	-0.130
-693.426	-27.019	0.061	0.036
-692.412	-119.074	0.285	0.050
-691.397	-200.000	0.024	-0.247
-690.383	272.289	-0.180	-0.318
-689.368	-139.090	-0.214	0.023
-688.354	-99.313	-0.059	-0.015
-687.339	166.034	-0.069	0.099
-686.324	-72.117	0.251	0.094
-685.310	152.108	0.192	0.263
-684.295	110.668	0.226	-0.272
-683.281	7.125	0.161	-0.120
-682.266	51.637	-0.077	-0.074
-681.251	-112.802	0.129	0.026
-680.237	-17.137	-0.448	-0.283
-679.222	63.738	0.108	-0.109
-678.208	800.000	-0.032	-0.114
-677.193	254.041	-0.021	-0.036
-676.178	37.612	0.119	-0.106
-675.164	372.610	-0.077	0.157
-674.149	-182.667	-0.160	0.003
-673.135	432.075	0.084	-0.184
-672.120	123.206	0.116	0.146
-671.105	213.855	-0.101	-0.160
-670.091	342.571	0.152	-0.299
-669.076	562.865	0.042	0.102
-668.062	241.044	-0.020	-0.034
-667.047	-200.000	-0.035	-0.262
-666.032	-48.477	0.201	0.097
-665.018	-200.000	-0.011	-0.423
-664.003	-46.907	-0.288	0.141
-662.989	206.029	0.030	-0.047
-661.974	-78.459	-0.410	-0.141
-660.959	-70.676	-0.283	0.107
-659.945	26.038	0.312	-0.261
-658.930	-44.594	-0.257	0.129
-657.916	-169.097	0.304	-0.011
-656.901	800.000	0.050	-0.142
-655.886	-200.000	-0.110	-0.509
-654.872	51.518	-0.229	-0.218
-653.857	-98.504	-0.265	0.068
-652.843	173.844	0.165	0.239
-651.828	43.124	0.283	-0.259
-650.814	121.260	-0.133	-0.166
-649.799	-71.865	0.092	0.034
-648.784	119.121	0.187	0.232
-647.770	247.875	-0.151	0.256
-646.755	-52.592	-0.156	0.072
-645.741	-152.826	-0.060	0.004
-644.726	254.037	-0.199	0.340
-643.711	-200.000	-0.008	0.168
-642.697	-116.377	-0.395	-0.073
-641.682	-77.748	-0.176	0.061
-640.668	74.853	0.075	0.079
-639.653	-200.000	-0.004	0.178
-638.638	144.335	0.107	0.143
-637.624	-192.621	0.230	-0.002
-636.609	-81.653	0.202	-0.066
-635.595	181.713	-0.112	0.165
-634.580	-10.572	0.208	-0.138
-633.565	-27.473	0.037	-0.021
-632.551	-200.000	-0.003	0.073
-631.536	298.712	-0.137	0.252
-630.522	-1.571	-0.211	-0.149
-629.507	92.778	-0.240	0.271
-628.492	-200.000	-0.096	0.450
-627.478	-7.928	0.100	-0.068
-626.463	139.920	0.091	-0.120
-625.449	-109.238	0.210	-0.045
-624.434	-200.000	-0.042	0.384
-623.419	-200.000	-0.053	0.299
-622.405	-200.000	0.003	-0.035
-621.390	37.259	0.210	0.187
-620.376	-18.675	-0.120	0.075
-619.361	-138.244	-0.190	-0.021
-618.346	137.543	0.216	0.283
-617.332	-200.000	0.054	-0.272
-616.317	66.021	0.255	-0.259
-615.303	-138.152	-0.364	-0.040
-614.288	-169.856	-0.152	0.005
-613.273	-70.117	-0.378	0.144
-612.259	-65.754	-0.094	-0.038
-611.244	800.000	0.035	0.124
-610.230	3.324	-0.439	0.320
-609.215	-200.000	0.039	0.181
-608.201	-66.808	-0.153	0.061
-607.186	317.201	-0.022	0.041
-606.171	800.000	-0.022	0.066
-605.157	-200.000	-0.041	0.243
-604.142	136.482	-0.112	0.146
-603.128	20.471	0.070	-0.057
-602.113	28.722	-0.258	0.219
-601.098	-42.373	0.150	0.077
-600.084	662.796	-0.050	0.128
-599.069	292.747	-0.092	-0.167
-598.055	-200.000	0.037	-0.305
-597.040	24.529	0.202	-0.167
-596.025	-120.332	0.218	0.037
-595.011	168.171	0.107	0.153
-593.996	5.302	-0.056	0.042
-592.982	-26.974	0.051	-0.030
-591.967	800.000	0.030	0.127
-590.952	177.945	0.108	-0.157
-589.938	-12.861	-0.102	0.067
-588.923	-5.770	0.165	-0.113
-587.909	-56.458	0.172	0.076
-586.894	25.855	0.136	-0.113
-585.879	-138.720	0.115	0.013
-584.865	-39.161	0.258	-0.136
-583.850	19.688	0.342	0.275
-582.836	-200.000	-0.063	-0.281
-581.821	-97.684	0.228	0.059
-580.806	-17.688	-0.158	0.099
-579.792	3.072	0.385	-0.280
-578.777	800.000	-0.073	-0.228
-577.763	-193.342	0.270	0.002
-576.748	-41.328	0.480	0.247
-575.733	40.435	-0.199	0.179
-574.719	-200.000	-0.039	-0.188
-573.704	-129.522	-0.077	0.011
-572.690	-66.952	0.215	0.085
-571.675	-21.510	0.026	0.016
-570.661	-38.588	0.319	0.169
-569.646	-85.373	-0.539	0.168
-568.631	80.959	-0.149	0.160
-567.617	-200.000	-0.078	-0.000
-566.602	-200.000	-0.083	0.444
-565.588	-22.228	0.346	0.209
-564.573	-200.000	0.024	0.149
-563.558	42.174	0.061	-0.055
-562.544	-28.978	0.126	-0.072
-561.529	-137.949	0.179	0.020
-560.515	16.479	-0.092	-0.073
-559.500	37.373	-0.022	0.019
-558.485	-200.000	-0.035	0.189
-557.471	-133.288	-0.412	-0.052
-556.456	-35.576	-0.130	-0.070
-555.442	-18.626	0.255	-0.159
-554.427	694.991	-0.186	-0.488
-553.412	-19.733	0.456	-0.282
-552.398	-22.848	-0.337	-0.203
-551.383	-200.000	0.009	0.391
-550.369	-200.000	-0.020	0.173
-549.354	-200.000	0.058	-0.297
-548.339	-38.312	0.128	-0.068
-547.325	-102.911	-0.214	0.051
-546.310	-135.150	-0.411	0.049
-545.296	119.642	-0.063	0.078
-544.281	123.887	-0.208	0.261
-543.266	-73.188	-0.126	0.046
-542.252	-107.819	-0.257	-0.056
-541.237	800.000	0.080	-0.242
-540.223	633.950	0.068	-0.173
-539.208	-200.000	-0.010	-0.409
-538.193	-172.896	0.117	-0.004
-537.179	-200.000	0.002	0.008
-536.164	-104.532	0.184	-0.042
-535.150	339.877	-0.148	-0.289
-534.135	117.401	0.109	0.134
-533.121	-67.742	0.161	0.063
-532.106	-200.000	-0.045	-0.210
-531.091	-31.652	0.102	0.057
-530.077	206.187	-0.242	-0.376
-529.062	-11.722	-0.109	-0.071
-528.048	-160.263	0.415	0.022
-527.033	-138.731	0.030	0.003
-526.018	44.324	-0.049	-0.045
-525.004	6.761	0.152	0.113
-523.989	-200.000	0.003	0.051
-522.975	320.335	0.190	0.360
-521.960	386.841	0.203	0.418
-520.945	-200.000	-0.024	-0.188
-519.931	-149.641	-0.242	-0.019
-518.916	535.416	-0.075	-0.178
-517.902	-147.174	-0.178	-0.015
-516.887	-200.000	-0.009	0.118
-515.872	-143.657	0.076	0.007
-514.858	-46.488	0.091	-0.044
-513.843	-200.000	0.007	-0.212
-512.829	800.000	0.035	0.098
-511.814	520.016	-0.066	-0.155
-510.799	-200.000	0.006	0.382
-509.785	-124.610	0.089	0.014
-508.770	227.994	0.074	0.121
-507.756	-72.565	-0.202	-0.074
-506.741	-143.095	-0.171	0.016
-505.726	-200.000	0.001	0.154
-504.712	39.042	-0.116	-0.103
-503.697	185.797	0.124	0.184
-502.683	23.017	-0.266	0.217
-501.668	-98.738	0.381	-0.097
-500.653	-200.000	0.052	0.254
-499.639	-61.924	0.059	0.025
-498.624	-78.552	0.153	0.052
-497.610	800.000	-0.054	0.200
-496.595	-77.742	0.333	0.115
-495.581	206.544	-0.116	0.180
-494.566	-200.000	0.018	0.278
-493.551	173.665	-0.126	-0.182
-492.537	-53.593	-0.138	0.063
-491.522	-103.167	0.097	-0.023
-490.508	800.000	0.070	0.206
-489.493	-108.778	-0.479	0.102
-488.478	800.000	-0.035	0.113
-487.464	65.986	-0.092	0.093
-486.449	-200.000	0.095	0.428
-485.435	800.000	-0.042	-0.130
-484.420	-114.733	0.063	0.012
-483.405	-102.936	0.210	-0.050
-482.391	-79.172	-0.270	-0.091
-481.376	134.012	-0.267	0.345
-480.362	-200.000	0.035	-0.166
-479.347	-40.289	-0.340	-0.176
-478.332	-18.978	-0.127	0.079
-477.318	641.383	-0.124	-0.314
-476.303	800.000	0.109	-0.378
-475.289	-46.974	0.174	-0.085
-474.274	326.376	0.056	-0.107
-473.259	-54.070	-0.298	0.135
-472.245	-200.000	-0.039	-0.401
-471.230	800.000	0.046	0.138
-470.216	-60.568	0.272	-0.115
-469.201	-57.658	0.200	-0.087
-468.186	-59.709	-0.406	-0.173
-467.172	-190.898	-0.416	-0.004
-466.157	-62.822	0.160	0.066
-465.143	-15.742	0.384	-0.244
-464.128	-114.656	-0.363	-0.069
-463.113	258.244	-0.139	0.239
-462.099	-200.000	0.012	0.076
-461.084	2.446	-0.226	0.163
-460.070	-130.353	0.158	0.021
-459.055	0.748	-0.355	-0.253
-458.040	-29.636	-0.143	0.081
-457.026	-94.419	-0.172	0.047
-456.011	-62.835	0.166	0.068
-454.997	82.601	-0.176	0.190
-453.982	-3.170	-0.219	-0.152
-452.968	209.754	-0.197	-0.307
-451.953	307.921	0.138	-0.256
-450.938	-200.000	-0.025	-0.440
-449.924	-176.363	0.252	0.007
-448.909	193.283	-0.088	0.132
-447.895	339.425	-0.137	-0.265
-446.880	-160.075	-0.257	0.014
-445.865	-50.467	-0.307	0.144
-444.851	-23.648	0.455	0.272
-443.836	148.111	0.019	0.025
-442.822	-48.564	0.178	-0.085
-441.807	-81.815	-0.102	-0.033
-440.792	109.971	-0.056	-0.067
-439.778	-76.674	0.153	-0.053
-438.763	-4.793	0.145	-0.099
-437.749	67.768	-0.277	-0.281
-436.734	-94.993	0.015	0.004
-435.719	-98.580	0.169	0.043
-434.705	42.922	-0.172	-0.156
-433.690	-38.380	0.128	-0.067
-432.676	800.000	0.042	-0.117
-431.661	334.633	0.026	0.051
-430.646	21.426	-0.149	-0.120
-429.632	10.098	0.266	0.201
-428.617	355.218	0.174	0.344
-427.603	-4.335	-0.051	-0.035
-426.588	-4.678	-0.193	-0.132
-425.573	594.690	-0.165	0.405
-424.559	-200.000	0.015	-0.179
-423.544	-200.000	-0.030	-0.224
-422.530	329.931	0.014	-0.027
-421.515	1.866	-0.040	0.028
-420.500	-103.720	0.196	0.046
-419.486	160.198	0.117	0.161
-418.471	78.291	0.146	0.155
-417.457	-24.536	0.212	-0.126
-416.442	217.101	0.169	0.268
-415.428	-174.287	-0.171	-0.005
-414.413	800.000	0.109	0.354
-413.398	-200.000	-0.008	-0.269
-412.384	-200.000	0.006	-0.181
-411.369	388.179	-0.120	-0.246
-410.355	-200.000	-0.019	-0.196
-409.340	-200.000	0.021	-0.285
-408.325	188.878	-0.213	-0.317
-407.311	-92.461	0.191	0.053
-406.296	271.553	-0.045	0.078
-405.282	-200.000	0.012	0.238
-404.267	72.145	-0.159	-0.164
-403.252	-189.292	0.189	0.002
-402.238	-124.264	0.177	-0.027
-401.223	-82.871	-0.287	0.092
-400.209	192.740	-0.087	-0.130
-399.194	-200.000	-0.041	-0.314
-398.179	800.000	-0.061	-0.211
-397.165	251.794	0.120	-0.202
-396.150	-200.000	-0.024	0.194
-395.136	199.752	0.015	-0.023
-394.121	-131.014	0.293	0.039
-393.106	517.294	-0.066	0.153
-392.092	177.402	-0.044	0.063
-391.077	-200.000	-0.042	-0.423
-390.063	-105.774	-0.534	-0.120
-389.048	-200.000	0.028	-0.143
-388.033	-112.402	-0.273	-0.054
-387.019	-50.390	0.189	-0.089
-386.004	800.000	-0.131	-0.456
-384.990	315.489	-0.141	0.264
-383.975	-200.000	-0.062	-0.310
-382.960	-149.492	-0.219	0.017
-381.946	-62.172	-0.170	-0.070
-380.931	-66.873	0.048	0.019
-379.917	172.787	0.157	-0.225
-378.902	74.543	-0.076	0.079
-377.888	-200.000	0.031	-0.283
-376.873	-200.000	0.002	-0.255
-375.858	-32.057	0.514	0.285
-374.844	-13.838	-0.092	-0.059
-373.829	432.743	0.128	-0.275
-372.815	-24.139	-0.136	-0.081
-371.800	-200.000	-0.039	-0.228
-370.785	-71.385	0.144	-0.054
-369.771	574.027	0.098	-0.237
-368.756	-99.650	-0.078	-0.019
-367.742	-200.000	-0.038	-0.186
-366.727	-200.000	0.053	-0.277
-365.712	-67.840	0.262	-0.102
-364.698	52.823	-0.139	0.132
-363.683	159.238	-0.172	0.237
-362.669	-200.000	0.008	-0.082
-361.654	161.435	0.146	-0.202
-360.639	-76.753	-0.100	0.035
-359.625	-185.464	-0.141	-0.002
-358.610	21.569	-0.074	-0.060
-357.596	-200.000	0.029	0.301
-356.581	-163.157	-0.258	-0.012
-355.566	-127.310	0.396	0.057
-354.552	-99.959	-0.173	0.043
-353.537	-200.000	-0.030	0.263
-352.523	272.290	0.025	0.044
-351.508	-200.000	-0.018	-0.138
-350.493	-12.490	-0.076	-0.049
-349.479	-101.495	0.138	0.033
-348.464	32.153	-0.085	-0.073
-347.450	-143.854	0.208	-0.019
-346.435	-91.997	0.133	0.037
-345.420	5.347	-0.288	-0.210
-344.406	800.000	0.032	0.132
-343.391	207.961	-0.268	0.414
-342.377	-100.666	0.201	0.049
-341.362	169.991	0.107	-0.152
-340.348	397.164	0.023	0.047
-339.333	-9.443	0.321	-0.212
-338.318	-29.447	0.114	-0.065
-337.304	72.355	0.064	0.066
-336.289	-132.064	0.040	0.005
-335.275	364.637	-0.076	0.151
-334.260	800.000	0.076	0.221
-333.245	143.728	0.200	0.265
-332.231	631.886	0.104	0.260
-331.216	800.000	0.058	-0.211
-330.202	-37.420	-0.224	-0.119
-329.187	-159.528	0.257	-0.014
-328.172	-200.000	-0.015	-0.195
-327.158	-110.694	0.214	0.044
-326.143	-55.641	-0.182	-0.081
-325.129	-87.092	0.131	-0.039
-324.114	124.636	0.216	0.269
-323.099	-135.528	0.358	0.042
-322.085	-118.596	-0.173	-0.030
-321.070	178.960	-0.158	-0.228
-320.056	800.000	-0.095	-0.298
-319.041	800.000	0.140	-0.465
-318.026	13.092	-0.248	-0.190
-317.012	10.500	-0.191	-0.144
-315.997	-200.000	-0.013	0.237
-314.983	558.605	0.022	-0.053
-313.968	219.394	0.158	-0.250
-312.953	-6.075	0.271	0.183
-311.939	-22.224	-0.195	-0.117
-310.924	-81.317	0.089	-0.029
-309.910	-68.309	-0.110	-0.042
-308.895	-91.062	0.258	-0.073
-307.880	-139.311	-0.164	0.017
-306.866	84.407	-0.378	0.409
-305.851	-130.878	-0.374	-0.050
-304.837	-12.385	-0.284	0.184
-303.822	37.557	0.259	-0.227
-302.807	-135.853	0.493	0.057
-301.793	163.071	-0.150	-0.209
-300.778	138.709	0.174	-0.225
-299.764	500.577	0.117	0.266
-298.749	-200.000	0.013	0.247
-297.735	36.035	0.155	-0.135
-296.720	103.991	-0.139	-0.162
-295.705	3.906	0.102	0.074
-294.691	-200.000	0.010	0.105
-293.676	800.000	-0.022	0.084
-292.662	-99.294	0.182	-0.045
-291.647	-50.155	0.169	-0.079
-290.632	-134.428	-0.227	0.028
-289.618	-105.526	0.181	-0.041
-288.603	64.033	-0.197	-0.196
-287.589	-47.261	0.068	-0.033
-286.574	354.040	-0.123	0.242
-285.559	344.894	0.050	0.098
-284.545	172.976	0.221	0.315
-283.530	244.278	0.194	0.323
-282.516	-26.390	0.083	0.048
-281.501	124.196	0.073	0.091
-280.486	800.000	-0.045	0.130
-279.472	800.000	-0.044	-0.159
-278.457	67.214	-0.327	0.329
-277.443	129.255	0.048	-0.060
-276.428	-200.000	0.024	-0.237
-275.413	137.539	-0.098	0.126
-274.399	789.720	0.064	0.174
-273.384	82.379	0.082	0.088
-272.370	-200.000	0.025	-0.134
-271.355	800.000	-0.104	-0.320
-270.340	800.000	0.104	-0.320
-269.326	-84.948	0.112	0.035
-268.311	-67.384	0.213	-0.083
-267.297	93.238	-0.260	0.291
-266.282	72.654	-0.208	0.214
-265.267	-122.050	0.453	0.073
-264.253	-127.261	0.121	0.017
-263.238	144.239	-0.230	0.303
-262.224	180.335	-0.094	0.136
-261.209	800.000	-0.087	-0.311
-260.195	33.895	0.123	-0.106
-259.180	800.000	-0.102	-0.306
-258.165	-125.169	0.284	-0.043
-257.151	-104.645	0.319	-0.073
-256.136	-96.116	-0.201	0.053
-255.122	-200.000	-0.031	-0.235
-254.107	-200.000	-0.034	0.210
-253.092	-21.124	-0.275	0.166
-252.078	-107.492	0.256	0.055
-251.063	-113.457	0.159	0.031
-250.049	168.851	0.210	-0.295
-249.034	-76.357	-0.112	0.039
-248.019	-73.284	0.312	-0.113
-247.005	-100.092	-0.187	0.046
-245.990	800.000	-0.042	0.167
-244.976	-65.273	0.195	0.078
-243.961	-31.096	0.245	0.136
-242.946	5.082	-0.066	0.048
-241.932	-200.000	-0.072	-0.378
-240.917	193.512	0.124	-0.185
-239.903	-82.224	-0.232	-0.075
-238.888	-84.307	-0.106	0.033
-237.873	738.336	0.104	-0.275
-236.859	579.074	0.102	-0.246
-235.844	-200.000	0.007	-0.263
-234.830	107.436	-0.154	-0.181
-233.815	-181.166	0.209	0.004
-232.800	29.457	-0.229	0.192
-231.786	54.764	0.164	-0.156
-230.771	-200.000	-0.020	-0.127
-229.757	800.000	-0.074	0.297
-228.742	-200.000	0.030	0.245
-227.727	-102.709	-0.227	0.053
-226.713	-137.780	0.346	0.038
-225.698	-50.939	0.206	0.095
-224.684	-42.600	0.315	0.158
-223.669	11.135	0.101	0.076
-222.655	210.228	-0.284	-0.439
-221.640	154.559	0.071	0.096
-220.625	-128.633	-0.087	-0.012
-219.611	63.356	0.148	-0.147
-218.596	106.287	-0.126	0.148
-217.582	-58.016	-0.265	-0.114
-216.567	-10.488	-0.324	0.212
-215.552	50.064	0.287	0.267
-214.538	80.916	0.189	0.201
-213.523	614.478	0.013	-0.033
-212.509	312.775	-0.107	-0.199
-211.494	-200.000	0.009	-0.130
-210.479	9.223	-0.217	-0.161
-209.465	454.091	0.063	0.138
-208.450	-85.453	0.298	-0.091
-207.436	90.653	-0.036	-0.040
-206.421	164.975	-0.099	0.138
-205.406	-200.000	-0.052	0.470
-204.392	800.000	0.050	0.182
-203.377	13.578	-0.181	-0.138
-202.363	-53.519	0.119	-0.054
-201.348	285.134	-0.210	0.372
-200.333	54.693	-0.136	-0.129
-199.319	323.093	0.024	0.046
-198.304	-200.000	0.027	0.196
-197.290	-200.000	0.008	0.226
-196.275	68.312	0.330	-0.333
-195.260	616.743	-0.047	0.115
-194.246	177.361	0.229	0.329
-193.231	-200.000	-0.036	-0.422
-192.217	-200.000	0.027	-0.296
-191.202	-50.835	-0.044	0.020
-190.187	293.190	-0.147	-0.264
-189.173	707.757	-0.065	-0.169
-188.158	-200.000	0.016	-0.212
-187.144	752.169	0.035	-0.094
-186.129	-1.012	-0.383	0.267
-185.114	250.792	-0.079	0.133
-184.100	-6.194	0.226	0.152
-183.085	-200.000	0.008	-0.040
-182.071	-36.477	0.141	-0.075
-181.056	800.000	-0.065	0.262
-180.042	137.892	0.056	0.073
-179.027	-200.000	-0.033	-0.150
-178.012	103.606	0.173	-0.200
-176.998	84.008	-0.167	-0.180
-175.983	-200.000	0.006	-0.336
-174.969	283.066	0.114	0.201
-173.954	-74.495	-0.205	-0.073
-172.939	2.521	0.175	0.124
-171.925	-87.401	0.298	-0.089
-170.910	-18.300	-0.078	0.048
-169.896	-9.896	-0.301	0.197
-168.881	800.000	0.022	-0.068
-167.866	-90.778	0.175	-0.050
-166.852	-101.871	-0.203	0.048
-165.837	170.035	-0.125	0.176
-164.823	66.671	-0.107	0.107
-163.808	-118.550	0.164	0.028
-162.793	81.464	-0.117	-0.125
-161.779	-200.000	-0.024	-0.185
-160.764	-112.501	0.479	0.094
-159.750	-200.000	0.027	-0.199
-158.735	174.230	-0.196	0.278
-157.720	-72.056	0.332	0.121
-156.706	59.821	-0.151	-0.147
-155.691	800.000	-0.049	0.200
-154.677	-13.126	-0.310	-0.198
-153.662	77.690	-0.086	-0.090
-152.647	166.882	-0.193	0.270
-151.633	-200.000	-0.036	0.201
-150.618	658.792	0.059	0.148
-149.604	-200.000	-0.010	-0.249
-148.589	-200.000	0.018	0.187
-147.574	-107.208	-0.097	0.021
-146.560	48.896	-0.090	-0.083
-145.545	44.196	0.145	-0.131
-144.531	617.781	0.069	-0.171
-143.516	-143.076	-0.395	0.038
-142.502	-79.105	0.127	-0.042
-141.487	-80.477	-0.196	0.064
-140.472	157.863	0.158	0.215
-139.458	-55.640	-0.074	-0.032
-138.443	71.852	-0.090	-0.092
-137.429	800.000	-0.062	-0.242
-136.414	112.666	-0.036	0.043
-135.399	-16.789	0.241	0.149
-134.385	800.000	0.023	0.079
-133.370	-69.404	0.234	0.088
-132.356	-200.000	-0.030	0.275
-131.341	126.668	0.335	-0.417
-130.326	-15.073	-0.314	0.197
-129.312	60.928	-0.150	-0.146
-128.297	574.099	-0.038	-0.091
-127.283	67.008	0.211	-0.211
-126.268	-200.000	0.004	0.084
-125.253	-87.430	0.065	0.019
-124.239	-10.214	-0.158	-0.103
-123.224	30.652	0.128	0.108
-122.210	97.574	0.092	0.104
-121.195	-179.508	-0.151	0.003
