DTS Sentinel unit serial number:	SN413079Multiplexer serial number:	ORYXHardware model number:	OX4-SRSoftware version number:	ORYX F/W v4.00 Oryx Data Collector v3.7.2.0data status	okinstallation	princeton_trtdifferential loss correction	single-endedforward channel	channel 3reverse channel	N/Adate	2019/09/11time	21:42:11forward acquisition time	60.00reverse acquisition time	0.00gamma	496.2192k internal	0.2311k external	0.2311temperature offset calibration	1.0034default loss term (dB/km)	0.3790temperature slope calibration	1.0000multiplexer offset coefficient	1.0000multiplexer slope coefficient	1.0000fibre end	0.00T internal ref (°C)	35.81T ext. ref 1 (°C)	1.63T ext. ref 2 (°C)	30.29length (m)	temperature (°C)	Stokes	anti-Stokes-747.200	800.000	0.134	0.409
-746.185	800.000	-0.081	0.289
-745.171	104.514	-0.265	0.317
-744.156	38.001	0.136	-0.122
-743.142	113.955	-0.195	0.241
-742.127	-5.949	-0.205	0.143
-741.112	-200.000	-0.033	-0.213
-740.098	-122.871	0.022	0.004
-739.083	322.553	0.136	-0.262
-738.069	608.068	0.088	-0.222
-737.054	-200.000	-0.024	0.158
-736.039	-200.000	0.050	0.000
-735.025	298.940	0.070	0.131
-734.010	-70.191	0.133	0.051
-732.996	-159.479	-0.320	-0.018
-731.981	-84.542	-0.239	0.076
-730.966	-200.000	0.011	0.246
-729.952	-39.677	0.144	0.076
-728.937	800.000	-0.015	-0.054
-727.923	-0.508	0.319	0.230
-726.908	-68.707	-0.118	0.046
-725.894	-80.093	0.248	-0.084
-724.879	-200.000	0.022	-0.169
-723.864	18.061	-0.123	0.099
-722.850	691.721	0.100	-0.265
-721.835	205.006	0.123	0.194
-720.821	714.377	0.073	0.197
-719.806	-200.000	0.004	0.413
-718.791	800.000	-0.051	-0.195
-717.777	38.749	0.221	-0.200
-716.762	78.877	0.104	-0.113
-715.748	77.942	-0.173	-0.187
-714.733	367.001	-0.101	-0.207
-713.718	-94.001	0.455	-0.127
-712.704	-200.000	-0.028	0.129
-711.689	-86.705	-0.171	-0.053
-710.675	-56.627	0.120	-0.054
-709.660	-200.000	0.013	-0.125
-708.645	-145.775	-0.208	-0.019
-707.631	64.551	-0.072	-0.073
-706.616	89.835	0.116	-0.131
-705.602	-126.530	0.319	0.048
-704.587	800.000	0.096	-0.406
-703.572	-200.000	0.054	-0.255
-702.558	800.000	0.025	0.078
-701.543	-61.486	-0.349	0.149
-700.529	7.017	0.180	-0.136
-699.514	117.780	-0.126	0.157
-698.499	93.577	0.108	0.124
-697.485	-115.548	-0.108	0.021
-696.470	133.548	-0.162	0.212
-695.456	380.496	-0.191	-0.397
-694.441	294.849	-0.092	0.170
-693.426	358.506	0.093	0.188
-692.412	34.437	0.111	-0.098
-691.397	-200.000	0.018	0.256
-690.383	-200.000	0.008	0.043
-689.368	-86.321	-0.107	-0.033
-688.354	533.518	-0.129	0.310
-687.339	-200.000	-0.015	0.132
-686.324	123.483	0.219	-0.278
-685.310	-200.000	-0.013	-0.283
-684.295	185.245	-0.290	-0.435
-683.281	37.639	-0.149	-0.134
-682.266	-43.901	0.306	-0.156
-681.251	-165.270	-0.162	-0.007
-680.237	147.992	-0.040	0.055
-679.222	-81.126	0.127	-0.043
-678.208	-134.857	-0.007	-0.001
-677.193	-48.041	-0.201	-0.098
-676.178	-200.000	0.022	-0.146
-675.164	-116.189	0.233	0.044
-674.149	167.941	0.143	-0.205
-673.135	-200.000	-0.001	0.079
-672.120	-74.674	-0.180	0.065
-671.105	16.634	-0.094	0.076
-670.091	311.986	-0.083	-0.158
-669.076	450.502	0.023	0.051
-668.062	8.601	0.118	0.090
-667.047	41.225	0.275	-0.252
-666.032	-200.000	0.007	-0.052
-665.018	595.123	0.072	0.181
-664.003	156.349	0.062	-0.087
-662.989	-5.535	-0.230	-0.160
-661.974	178.842	0.075	0.111
-660.959	-90.511	-0.197	-0.058
-659.945	-200.000	0.011	-0.144
-658.930	46.820	0.295	-0.277
-657.916	-146.868	-0.341	0.030
-656.901	-60.358	0.228	0.098
-655.886	150.663	0.151	-0.207
-654.872	36.115	-0.207	0.184
-653.857	-101.185	-0.243	-0.060
-652.843	190.864	0.268	0.407
-651.828	-28.322	0.156	0.091
-650.814	202.183	-0.166	0.259
-649.799	-164.817	0.166	-0.008
-648.784	450.604	-0.174	0.389
-647.770	-200.000	0.064	0.333
-646.755	216.456	-0.133	0.215
-645.741	68.249	0.367	0.380
-644.726	-161.289	0.155	-0.008
-643.711	273.620	0.107	-0.191
-642.697	-200.000	0.001	-0.010
-641.682	219.577	0.223	-0.360
-640.668	800.000	0.072	-0.207
-639.653	174.531	0.110	-0.161
-638.638	-144.185	-0.192	0.018
-637.624	-49.959	-0.075	0.036
-636.609	71.692	0.054	0.057
-635.595	-77.930	0.059	-0.021
-634.580	678.262	-0.032	-0.085
-633.565	-14.301	-0.070	-0.046
-632.551	265.456	0.091	0.160
-631.536	-140.496	-0.237	-0.025
-630.522	81.133	-0.141	0.154
-629.507	59.096	-0.141	-0.141
-628.492	371.199	-0.213	0.437
-627.478	-16.141	-0.248	-0.159
-626.463	-80.909	-0.205	-0.069
-625.449	-159.379	0.161	0.009
-624.434	297.453	0.057	-0.106
-623.419	354.045	0.153	-0.307
-622.405	-43.810	-0.416	-0.211
-621.390	768.621	-0.083	-0.229
-620.376	217.438	0.095	-0.153
-619.361	-174.656	0.151	0.004
-618.346	325.847	-0.125	0.241
-617.332	-200.000	0.010	-0.153
-616.317	800.000	0.036	-0.120
-615.303	44.362	-0.220	0.204
-614.288	-184.454	-0.314	-0.005
-613.273	-200.000	-0.030	-0.364
-612.259	-103.113	-0.246	0.059
-611.244	96.570	-0.195	-0.225
-610.230	-92.665	0.069	-0.020
-609.215	-59.139	0.201	-0.088
-608.201	-119.243	-0.361	-0.063
-607.186	-162.536	-0.120	0.006
-606.171	147.368	-0.123	0.167
-605.157	25.104	-0.133	0.111
-604.142	86.163	-0.078	0.087
-603.128	-115.402	0.167	-0.032
-602.113	60.118	-0.148	0.148
-601.098	240.373	0.073	-0.122
-600.084	-126.894	0.053	0.008
-599.069	-87.469	-0.198	0.061
-598.055	-148.720	-0.068	-0.006
-597.040	170.183	-0.133	0.193
-596.025	800.000	-0.100	0.302
-595.011	-200.000	0.022	0.469
-593.996	-59.301	-0.038	0.017
-592.982	-67.860	0.290	0.114
-591.967	-20.002	0.192	-0.120
-590.952	-70.029	0.161	0.062
-589.938	-153.972	-0.490	-0.034
-588.923	-200.000	0.015	-0.107
-587.909	-96.854	0.124	0.033
-586.894	-200.000	0.057	0.301
-585.879	-58.473	-0.179	-0.079
-584.865	-64.552	-0.198	0.081
-583.850	-119.338	-0.027	-0.005
-582.836	800.000	0.084	-0.246
-581.821	800.000	-0.038	0.148
-580.806	748.292	0.070	-0.191
-579.792	318.063	-0.058	-0.111
-578.777	-33.869	0.233	0.130
-577.763	-113.107	-0.210	0.042
-576.748	75.843	-0.188	-0.200
-575.733	-200.000	-0.000	-0.283
-574.719	-109.689	0.281	0.060
-573.704	-56.500	-0.102	-0.046
-572.690	-174.570	-0.262	-0.008
-571.675	-136.194	0.100	-0.012
-570.661	-106.524	0.134	0.030
-569.646	648.770	0.085	-0.218
-568.631	-200.000	0.022	0.300
-567.617	-200.000	-0.008	-0.291
-566.602	-200.000	-0.040	0.279
-565.588	-200.000	-0.071	-0.348
-564.573	-200.000	0.078	-0.443
-563.558	-200.000	-0.021	-0.137
-562.544	-12.907	-0.176	0.115
-561.529	-109.926	0.286	0.060
-560.515	193.477	-0.196	-0.299
-559.500	-4.845	0.067	-0.047
-558.485	-113.081	-0.136	0.027
-557.471	-73.536	-0.569	-0.209
-556.456	243.728	-0.129	0.218
-555.442	27.579	0.084	-0.071
-554.427	111.110	0.075	-0.091
-553.412	800.000	0.021	-0.086
-552.398	-136.650	0.149	-0.017
-551.383	800.000	0.065	-0.183
-550.369	24.970	-0.077	0.064
-549.354	-200.000	0.016	0.177
-548.339	-200.000	0.022	0.135
-547.325	96.759	-0.154	0.178
-546.310	-29.127	-0.233	-0.134
-545.296	66.374	-0.126	0.129
-544.281	237.430	-0.113	0.188
-543.266	-52.826	-0.264	-0.122
-542.252	-55.094	0.344	0.156
-541.237	-55.393	-0.419	0.190
-540.223	95.154	0.038	0.043
-539.208	3.958	0.155	-0.114
-538.193	-67.705	0.315	-0.124
-537.179	48.885	0.348	-0.329
-536.164	-200.000	-0.053	-0.364
-535.150	-47.364	-0.012	-0.006
-534.135	-113.571	0.036	0.007
-533.121	-200.000	-0.009	-0.057
-532.106	26.667	-0.153	0.129
-531.091	202.112	-0.083	-0.129
-530.077	-124.256	-0.149	-0.023
-529.062	174.533	0.171	-0.248
-528.048	-97.753	0.300	0.078
-527.033	201.784	0.163	-0.252
-526.018	23.480	0.205	-0.170
-525.004	123.373	-0.175	-0.221
-523.989	-0.037	-0.193	-0.138
-522.975	800.000	-0.032	-0.123
-521.960	-200.000	0.031	0.244
-520.945	-132.374	0.384	-0.050
-519.931	230.459	-0.038	0.062
-518.916	-28.077	-0.205	-0.119
-517.902	-40.253	-0.112	-0.058
-516.887	-57.002	0.209	0.093
-515.872	800.000	-0.034	0.118
-514.858	800.000	0.034	0.147
-513.843	163.732	-0.035	0.050
-512.829	-46.596	-0.259	0.128
-511.814	800.000	0.054	0.223
-510.799	16.987	-0.184	0.147
-509.785	-200.000	-0.041	0.240
-508.770	-133.538	0.172	0.022
-507.756	681.362	-0.092	0.241
-506.741	43.096	0.080	0.074
-505.726	-60.858	-0.308	0.131
-504.712	800.000	0.041	-0.158
-503.697	64.040	-0.294	-0.298
-502.683	164.504	0.081	0.115
-501.668	-200.000	-0.068	-0.404
-500.653	-200.000	-0.017	0.083
-499.639	168.795	-0.121	-0.174
-498.624	99.906	-0.083	0.096
-497.610	351.538	-0.062	0.124
-496.595	533.653	-0.085	0.203
-495.581	800.000	0.082	0.283
-494.566	-13.855	0.188	0.122
-493.551	-200.000	0.005	0.127
-492.537	-105.235	-0.383	0.088
-491.522	458.791	-0.081	0.180
-490.508	-47.291	-0.068	-0.033
-489.493	-65.531	0.094	-0.038
-488.478	-200.000	-0.015	0.092
-487.464	800.000	0.091	-0.293
-486.449	-37.368	0.196	-0.105
-485.435	800.000	0.059	0.232
-484.420	-81.706	0.284	0.094
-483.405	-113.928	0.139	-0.027
-482.391	800.000	0.044	-0.137
-481.376	-94.221	0.083	0.023
-480.362	387.815	0.081	0.169
-479.347	-91.079	0.248	-0.072
-478.332	800.000	-0.094	0.284
-477.318	-180.882	0.104	0.002
-476.303	148.700	0.173	0.235
-475.289	-200.000	-0.055	0.332
-474.274	361.477	-0.061	0.123
-473.259	-60.060	0.200	-0.086
-472.245	-200.000	0.047	0.231
-471.230	800.000	-0.040	0.135
-470.216	142.397	0.108	0.144
-469.201	-92.301	0.042	0.012
-468.186	6.290	-0.227	-0.169
-467.172	-70.228	-0.080	-0.031
-466.157	-200.000	-0.032	0.336
-465.143	-200.000	0.019	0.177
-464.128	-10.307	-0.152	0.101
-463.113	-70.006	-0.105	-0.040
-462.099	-200.000	-0.036	0.200
-461.084	-20.759	-0.028	0.017
-460.070	-97.976	-0.127	0.033
-459.055	64.595	0.084	-0.085
-458.040	-200.000	-0.012	0.109
-457.026	-53.080	-0.189	-0.087
-456.011	-104.414	-0.337	0.078
-454.997	225.364	-0.093	0.151
-453.982	-0.985	0.294	0.209
-452.968	20.428	-0.105	0.085
-451.953	354.795	-0.116	-0.231
-450.938	391.641	-0.091	0.191
-449.924	-200.000	-0.008	-0.164
-448.909	268.340	0.033	0.058
-447.895	800.000	0.086	-0.267
-446.880	-97.383	0.050	0.013
-445.865	-43.926	0.226	-0.114
-444.851	360.359	0.024	0.049
-443.836	-118.188	-0.181	-0.032
-442.822	-89.414	-0.215	-0.063
-441.807	49.628	0.051	-0.048
-440.792	403.837	-0.028	0.059
-439.778	-200.000	-0.018	0.417
-438.763	-200.000	-0.007	0.565
-437.749	46.018	-0.114	0.106
-436.734	32.106	0.182	0.157
-435.719	800.000	0.085	-0.324
-434.705	-200.000	0.040	0.257
-433.690	-128.451	0.143	-0.020
-432.676	-78.114	0.286	0.099
-431.661	110.703	0.104	-0.126
-430.646	-177.738	-0.167	0.004
-429.632	371.188	0.080	-0.163
-428.617	800.000	-0.049	-0.173
-427.603	-28.518	0.185	0.107
-426.588	-76.403	0.374	-0.132
-425.573	-200.000	-0.023	-0.246
-424.559	88.612	0.154	-0.172
-423.544	-150.756	0.333	-0.025
-422.530	-79.923	-0.160	-0.054
-421.515	800.000	-0.133	0.465
-420.500	-17.109	-0.061	0.039
-419.486	-47.013	0.140	-0.069
-418.471	800.000	-0.010	-0.038
-417.457	-53.208	0.334	-0.154
-416.442	-200.000	0.049	-0.390
-415.428	130.353	-0.013	0.016
-414.413	141.423	0.169	-0.225
-413.398	666.205	-0.041	-0.107
-412.384	170.959	-0.061	-0.088
-411.369	-87.699	-0.048	-0.014
-410.355	-200.000	0.024	0.333
-409.340	33.906	-0.187	-0.164
-408.325	76.035	0.262	-0.278
-407.311	-200.000	-0.016	-0.379
-406.296	-200.000	0.031	-0.168
-405.282	-87.067	0.327	0.100
-404.267	146.657	0.015	-0.020
-403.252	-75.636	0.206	-0.073
-402.238	-170.823	-0.079	0.003
-401.223	133.715	0.236	0.306
-400.209	201.661	-0.169	-0.260
-399.194	-93.290	-0.171	-0.047
-398.179	649.614	0.116	0.296
-397.165	179.549	-0.040	-0.059
-396.150	601.060	-0.133	-0.332
-395.136	-124.190	-0.197	0.031
-394.121	-168.036	-0.062	0.002
-393.106	-197.262	-0.113	-0.001
-392.092	-122.193	0.157	0.026
-391.077	-57.430	-0.102	0.045
-390.063	800.000	-0.088	-0.338
-389.048	31.776	-0.110	0.094
-388.033	-200.000	0.011	0.183
-387.019	800.000	0.051	-0.167
-386.004	562.961	-0.088	-0.214
-384.990	63.619	0.245	-0.246
-383.975	800.000	0.038	-0.155
-382.960	800.000	0.021	-0.061
-381.946	-59.632	0.153	-0.066
-380.931	-89.217	0.102	-0.030
-379.917	-0.529	0.081	-0.058
-378.902	-56.339	0.050	-0.022
-377.888	289.067	0.061	-0.111
-376.873	-200.000	-0.098	0.453
-375.858	-41.437	-0.194	0.100
-374.844	-38.182	0.099	0.052
-373.829	-128.247	-0.339	0.048
-372.815	-200.000	-0.041	-0.244
-371.800	800.000	0.066	-0.277
-370.785	800.000	0.071	0.232
-369.771	-81.219	0.169	0.056
-368.756	418.330	-0.080	-0.170
-367.742	416.081	-0.083	-0.177
-366.727	-200.000	0.032	0.339
-365.712	576.863	0.064	0.157
-364.698	-118.999	0.174	0.030
-363.683	-12.837	-0.206	-0.134
-362.669	-162.043	0.186	0.009
-361.654	489.360	0.127	-0.290
-360.639	418.646	-0.207	-0.443
-359.625	-3.436	0.106	-0.073
-358.610	-33.431	0.050	-0.028
-357.596	800.000	0.119	0.331
-356.581	265.463	0.159	0.277
-355.566	-84.699	0.070	0.022
-354.552	-89.304	-0.299	-0.088
-353.537	-200.000	0.053	0.358
-352.523	-25.626	-0.181	0.107
-351.508	-131.438	-0.445	-0.059
-350.493	244.452	-0.060	-0.100
-349.479	-3.698	-0.134	-0.093
-348.464	-3.936	-0.102	0.071
-347.450	-33.115	-0.131	0.072
-346.435	54.805	-0.142	0.137
-345.420	162.733	0.075	0.105
-344.406	800.000	0.054	0.198
-343.391	-110.103	0.170	-0.035
-342.377	-194.160	0.232	-0.002
-341.362	21.880	-0.252	-0.205
-340.348	220.637	-0.054	-0.087
-339.333	-31.328	0.171	-0.096
-338.318	359.938	-0.063	0.127
-337.304	-133.725	-0.015	0.002
-336.289	-87.698	-0.252	0.076
-335.275	-42.941	0.269	-0.136
-334.260	-200.000	-0.009	0.169
-333.245	-83.163	0.206	0.066
-332.231	-200.000	0.027	0.146
-331.216	800.000	0.027	-0.091
-330.202	-200.000	0.011	-0.308
-329.187	-16.034	-0.216	0.137
-328.172	150.393	-0.071	0.096
-327.158	-171.834	0.251	0.008
-326.143	12.038	-0.192	-0.148
-325.129	-200.000	-0.050	-0.244
-324.114	-200.000	-0.014	0.392
-323.099	-200.000	-0.085	0.450
-322.085	800.000	0.079	0.340
-321.070	333.090	-0.132	-0.254
-320.056	-200.000	0.055	-0.246
-319.041	155.413	-0.179	0.246
-318.026	68.024	0.113	0.116
-317.012	-200.000	-0.004	0.212
-315.997	-167.752	-0.174	0.007
-314.983	63.589	0.211	-0.211
-313.968	-200.000	-0.011	0.333
-312.953	-185.809	-0.142	0.002
-311.939	160.223	0.163	-0.227
-310.924	800.000	0.102	0.404
-309.910	800.000	0.050	-0.190
-308.895	-33.809	-0.117	-0.064
-307.880	94.238	-0.157	0.178
-306.866	32.620	0.060	0.052
-305.851	-55.309	0.124	0.055
-304.837	-3.536	0.132	0.091
-303.822	79.796	0.104	0.112
-302.807	276.541	0.159	-0.282
-301.793	0.588	-0.103	0.073
-300.778	500.986	0.100	-0.230
-299.764	-121.409	0.291	0.048
-298.749	-53.551	0.118	-0.054
-297.735	-200.000	-0.012	-0.196
-296.720	-200.000	-0.080	0.355
-295.705	-76.995	-0.157	0.055
-294.691	83.734	-0.074	0.081
-293.676	-43.973	-0.060	0.030
-292.662	800.000	0.081	0.225
-291.647	617.726	-0.105	0.263
-290.632	223.713	0.055	-0.088
-289.618	-200.000	-0.004	0.055
-288.603	342.794	-0.087	0.170
-287.589	179.544	-0.054	-0.079
-286.574	800.000	-0.106	-0.348
-285.559	-154.306	0.218	-0.015
-284.545	-200.000	-0.018	0.131
-283.530	800.000	-0.066	0.280
-282.516	226.296	-0.074	0.120
-281.501	11.386	-0.170	-0.130
-280.486	800.000	-0.044	-0.135
-279.472	132.441	-0.146	-0.188
-278.457	800.000	-0.070	0.263
-277.443	182.641	0.036	-0.053
-276.428	152.267	0.240	-0.327
-275.413	156.408	-0.171	0.236
-274.399	-79.599	-0.270	-0.091
-273.384	-136.508	0.319	0.037
-272.370	-200.000	0.009	-0.083
-271.355	-64.365	-0.270	-0.110
-270.340	-23.379	0.139	0.083
-269.326	-103.302	-0.384	-0.090
-268.311	-151.699	0.271	0.020
-267.297	-126.249	0.385	0.057
-266.282	-152.782	0.196	0.014
-265.267	82.385	-0.098	-0.106
-264.253	-137.643	-0.198	0.022
-263.238	-135.465	0.243	0.029
-262.224	-200.000	-0.003	-0.095
-261.209	-122.870	0.275	0.044
-260.195	37.695	-0.054	0.048
-259.180	177.178	0.061	0.088
-258.165	127.053	0.201	0.254
-257.151	-169.479	0.388	0.014
-256.136	202.225	-0.247	-0.379
-255.122	108.906	-0.074	-0.089
-254.107	-200.000	-0.026	0.208
-253.092	800.000	-0.037	-0.149
-252.078	-43.149	0.128	-0.065
-251.063	-32.752	-0.110	-0.061
-250.049	24.727	-0.157	0.130
-249.034	-54.161	-0.216	0.098
-248.019	800.000	0.051	-0.196
-247.005	800.000	-0.080	-0.287
-245.990	-52.524	0.084	-0.039
-244.976	-93.210	0.268	-0.074
-243.961	595.176	-0.088	-0.217
-242.946	253.561	-0.079	-0.134
-241.932	-38.224	0.222	-0.117
-240.917	-104.698	0.219	-0.050
-239.903	4.034	-0.278	0.202
-238.888	-70.156	-0.080	0.030
-237.873	-144.552	0.057	0.005
-236.859	-39.865	0.319	0.166
-235.844	305.467	-0.138	0.255
-234.830	-5.645	0.185	-0.126
-233.815	800.000	-0.071	-0.294
-232.800	-83.356	0.315	-0.100
-231.786	207.121	-0.275	-0.426
-230.771	257.635	-0.236	-0.403
-229.757	-36.267	0.222	-0.119
-228.742	-200.000	-0.005	-0.204
-227.727	-101.514	0.207	-0.050
-226.713	-9.423	0.227	-0.150
-225.698	788.366	0.176	0.480
-224.684	-200.000	0.005	0.025
-223.669	-76.201	-0.117	-0.041
-222.655	65.776	0.319	-0.322
-221.640	-62.784	0.267	0.110
-220.625	-121.072	-0.160	0.027
-219.611	692.770	-0.106	-0.277
-218.596	-80.790	-0.127	-0.042
-217.582	21.689	-0.379	0.307
-216.567	-138.624	0.176	0.019
-215.552	93.844	-0.117	0.132
-214.538	-179.075	0.347	0.008
-213.523	-24.303	-0.335	0.199
-212.509	265.363	-0.069	-0.119
-211.494	350.540	-0.111	-0.217
-210.479	800.000	-0.048	-0.139
-209.465	-200.000	-0.087	-0.480
-208.450	167.123	-0.192	0.271
-207.436	-85.962	-0.240	0.074
-206.421	-200.000	-0.043	-0.233
-205.406	-81.851	-0.199	-0.065
-204.392	192.914	0.152	-0.228
-203.377	-90.101	-0.220	-0.064
-202.363	-64.169	0.308	0.125
-201.348	477.519	0.047	0.105
-200.333	147.497	0.113	-0.151
-199.319	-27.501	-0.173	0.100
-198.304	-60.164	0.242	0.103
-197.290	800.000	0.095	0.277
-196.275	58.837	-0.266	0.260
-195.260	27.354	0.073	0.061
-194.246	91.192	0.170	-0.190
-193.231	-23.380	-0.238	0.142
-192.217	26.217	-0.210	0.174
-191.202	4.516	0.212	0.154
-190.187	-92.894	0.234	0.065
-189.173	800.000	-0.035	-0.140
-188.158	139.861	-0.123	-0.161
-187.144	-200.000	0.010	-0.153
-186.129	-50.885	-0.114	0.053
-185.114	379.656	0.078	0.160
-184.100	-186.018	0.306	0.004
-183.085	37.951	0.165	-0.146
-182.071	-49.353	0.182	-0.086
-181.056	-200.000	0.046	-0.237
-180.042	-6.525	-0.145	0.098
-179.027	-45.196	0.284	0.140
-178.012	65.561	-0.044	-0.044
-176.998	-200.000	0.014	-0.158
-175.983	5.166	-0.204	0.149
-174.969	59.319	-0.160	0.156
-173.954	-200.000	0.020	-0.239
-172.939	-117.643	0.163	-0.029
-171.925	14.345	0.117	-0.090
-170.910	-200.000	0.016	-0.084
-169.896	-76.043	0.115	-0.040
-168.881	-200.000	-0.049	0.320
-167.866	44.301	0.136	-0.124
-166.852	800.000	-0.019	-0.078
-165.837	-150.045	-0.090	-0.007
-164.823	-200.000	0.018	0.080
-163.808	800.000	0.051	0.211
-162.793	123.167	0.196	0.244
-161.779	454.529	0.070	-0.154
-160.764	785.972	0.019	-0.052
-159.750	-200.000	-0.001	0.105
-158.735	-88.502	-0.375	-0.111
-157.720	602.473	0.024	-0.060
-156.706	-142.454	-0.169	0.017
-155.691	-200.000	-0.045	0.225
-154.677	-100.721	0.459	-0.112
-153.662	-77.058	0.529	0.183
-152.647	206.265	-0.080	0.124
-151.633	-86.820	-0.163	-0.049
-150.618	-200.000	-0.034	-0.200
-149.604	188.018	0.266	0.394
-148.589	348.090	-0.110	-0.215
-147.574	-200.000	-0.021	-0.325
-146.560	-135.102	0.088	-0.011
-145.545	114.033	-0.138	0.167
-144.531	-200.000	-0.036	-0.223
-143.516	280.348	0.100	0.177
-142.502	-200.000	0.013	0.101
-141.487	161.466	0.052	-0.072
-140.472	219.045	0.264	0.419
-139.458	115.924	-0.090	-0.109
-138.443	-33.660	-0.121	-0.066
-137.429	469.255	0.118	0.263
-136.414	-53.213	0.195	0.089
-135.399	-6.248	0.154	0.104
-134.385	-94.288	0.292	-0.079
-133.370	573.979	0.117	0.283
-132.356	111.871	-0.183	-0.219
-131.341	84.382	0.135	0.147
-130.326	-188.108	0.143	0.002
-129.312	64.181	0.051	-0.051
-128.297	-200.000	0.058	0.255
-127.283	771.087	-0.077	0.209
-126.268	800.000	-0.049	-0.139
-125.253	-23.468	-0.064	-0.038
-124.239	-161.868	-0.199	0.010
-123.224	-126.484	-0.269	-0.040
-122.210	-49.399	0.382	-0.180
-121.195	800.000	-0.032	0.124
