DTS Sentinel unit serial number:	SN413079Multiplexer serial number:	ORYXHardware model number:	OX4-SRSoftware version number:	ORYX F/W v4.00 Oryx Data Collector v3.7.2.0data status	okinstallation	princeton_trtdifferential loss correction	single-endedforward channel	channel 3reverse channel	N/Adate	2019/09/11time	02:54:10forward acquisition time	60.00reverse acquisition time	0.00gamma	496.2192k internal	0.2331k external	0.2331temperature offset calibration	0.9914default loss term (dB/km)	0.3790temperature slope calibration	1.0000multiplexer offset coefficient	1.0000multiplexer slope coefficient	1.0000fibre end	0.00T internal ref (°C)	29.27T ext. ref 1 (°C)	-0.30T ext. ref 2 (°C)	23.71length (m)	temperature (°C)	Stokes	anti-Stokes-747.200	-85.830	-0.106	0.033
-746.185	148.207	-0.247	0.335
-745.171	69.513	0.264	0.273
-744.156	112.275	0.098	-0.119
-743.142	114.251	0.158	-0.194
-742.127	359.751	-0.058	0.117
-741.112	185.490	-0.037	-0.055
-740.098	151.519	0.149	0.205
-739.083	63.581	-0.078	0.078
-738.069	-100.219	0.362	-0.090
-737.054	-200.000	-0.047	-0.257
-736.039	483.538	-0.057	0.130
-735.025	-135.059	0.169	0.020
-734.010	97.399	-0.050	0.058
-732.996	-200.000	0.023	-0.480
-731.981	-200.000	0.010	-0.157
-730.966	564.413	0.056	0.137
-729.952	-68.600	-0.211	-0.082
-728.937	64.535	0.275	0.279
-727.923	-200.000	-0.006	-0.097
-726.908	59.382	-0.204	-0.202
-725.894	-200.000	0.040	-0.510
-724.879	254.500	0.163	0.280
-723.864	-107.838	-0.045	0.010
-722.850	-86.339	-0.130	-0.040
-721.835	2.211	-0.223	-0.162
-720.821	-83.937	-0.442	0.141
-719.806	163.416	0.074	0.105
-718.791	800.000	-0.100	0.288
-717.777	46.382	0.083	0.077
-716.762	-200.000	-0.009	0.151
-715.748	-69.006	-0.079	-0.030
-714.733	800.000	-0.095	-0.321
-713.718	18.294	-0.301	-0.241
-712.704	-152.813	-0.320	0.023
-711.689	-200.000	-0.009	0.479
-710.675	334.835	0.021	-0.041
-709.660	-200.000	-0.039	-0.374
-708.645	-24.663	0.218	0.130
-707.631	401.882	0.022	0.047
-706.616	-14.461	0.199	-0.128
-705.602	274.484	0.145	-0.258
-704.587	235.027	0.101	-0.168
-703.572	77.448	-0.130	0.139
-702.558	-200.000	0.016	0.221
-701.543	800.000	-0.052	0.157
-700.529	-200.000	-0.016	0.339
-699.514	-147.948	-0.254	-0.021
-698.499	-171.385	-0.145	0.005
-697.485	121.104	0.069	0.086
-696.470	721.496	0.119	0.318
-695.456	800.000	0.032	0.126
-694.441	-30.954	-0.170	-0.097
-693.426	800.000	0.070	-0.302
-692.412	800.000	-0.117	0.374
-691.397	20.820	0.126	0.103
-690.383	-77.652	-0.252	0.088
-689.368	-200.000	-0.063	0.323
-688.354	49.414	-0.104	0.098
-687.339	800.000	0.015	-0.064
-686.324	687.073	-0.080	0.209
-685.310	-138.955	-0.324	-0.035
-684.295	163.414	-0.098	0.139
-683.281	-200.000	-0.027	-0.439
-682.266	97.498	-0.208	0.240
-681.251	71.834	-0.242	0.252
-680.237	-97.590	-0.127	0.033
-679.222	-76.759	0.209	0.074
-678.208	-122.622	-0.280	-0.046
-677.193	266.449	-0.175	-0.306
-676.178	21.719	0.180	-0.147
-675.164	367.044	-0.186	-0.377
-674.149	103.828	0.032	0.038
-673.135	-128.159	-0.321	0.046
-672.120	-102.352	-0.346	-0.083
-671.105	-58.655	0.267	0.116
-670.091	162.119	0.190	-0.267
-669.076	380.842	0.043	-0.088
-668.062	-200.000	-0.033	-0.404
-667.047	788.746	-0.090	0.247
-666.032	-99.048	-0.225	-0.057
-665.018	494.687	0.100	0.231
-664.003	2.816	0.098	0.072
-662.989	207.643	0.170	0.266
-661.974	-77.737	0.197	-0.068
-660.959	-119.773	-0.391	-0.068
-659.945	-29.131	0.059	-0.034
-658.930	-30.687	-0.298	0.169
-657.916	-200.000	0.033	0.432
-656.901	48.614	-0.198	-0.187
-655.886	-17.783	0.378	0.238
-654.872	289.080	0.050	-0.090
-653.857	-187.286	-0.307	-0.004
-652.843	800.000	-0.097	-0.270
-651.828	233.416	-0.191	0.315
-650.814	46.764	0.194	0.181
-649.799	119.277	-0.102	-0.127
-648.784	20.530	-0.177	-0.144
-647.770	-115.239	0.281	0.053
-646.755	53.237	-0.268	0.257
-645.741	800.000	0.074	-0.290
-644.726	179.571	-0.157	-0.230
-643.711	239.972	0.061	0.102
-642.697	11.967	-0.123	0.095
-641.682	188.354	0.117	0.176
-640.668	24.498	0.448	0.372
-639.653	-57.727	0.175	0.077
-638.638	-200.000	-0.018	-0.135
-637.624	155.921	-0.034	0.047
-636.609	800.000	-0.020	-0.078
-635.595	-119.089	0.218	0.038
-634.580	492.250	0.163	-0.374
-633.565	-36.265	0.303	0.164
-632.551	97.536	-0.123	0.142
-631.536	-67.073	-0.078	0.031
-630.522	-200.000	0.012	-0.150
-629.507	36.940	-0.195	-0.172
-628.492	246.435	-0.136	0.230
-627.478	-200.000	0.006	0.039
-626.463	800.000	0.040	-0.164
-625.449	-56.680	-0.272	-0.121
-624.434	-132.436	-0.380	-0.049
-623.419	-200.000	0.021	-0.340
-622.405	-200.000	-0.005	0.094
-621.390	-200.000	0.041	0.332
-620.376	95.456	0.161	-0.184
-619.361	800.000	0.010	-0.039
-618.346	800.000	-0.073	-0.252
-617.332	-70.988	-0.194	-0.073
-616.317	51.297	0.296	0.282
-615.303	61.043	-0.135	-0.135
-614.288	270.793	-0.114	-0.202
-613.273	-137.214	0.240	-0.027
-612.259	-143.346	-0.248	-0.024
-611.244	98.716	-0.181	-0.209
-610.230	-167.718	0.236	-0.009
-609.215	-131.589	0.296	0.039
-608.201	800.000	0.058	-0.199
-607.186	-17.263	-0.060	0.038
-606.171	-86.441	0.153	-0.047
-605.157	142.726	0.155	0.207
-604.142	434.745	-0.062	0.134
-603.128	-200.000	0.122	0.000
-602.113	76.038	0.137	0.145
-601.098	-68.082	-0.293	-0.114
-600.084	-200.000	0.020	-0.231
-599.069	422.741	0.106	-0.228
-598.055	-31.845	0.213	-0.119
-597.040	-112.344	0.101	0.020
-596.025	133.168	-0.200	-0.258
-595.011	-200.000	-0.001	-0.149
-593.996	564.397	-0.196	0.476
-592.982	800.000	0.040	0.154
-591.967	-164.127	0.247	-0.011
-590.952	-185.675	0.137	0.002
-589.938	-61.758	0.536	-0.225
-588.923	800.000	0.081	0.340
-587.909	586.745	-0.100	-0.246
-586.894	278.694	-0.229	0.408
-585.879	-200.000	0.026	0.251
-584.865	778.370	-0.043	-0.117
-583.850	-51.840	0.327	-0.152
-582.836	45.540	-0.298	0.275
-581.821	-107.823	-0.150	0.033
-580.806	-130.100	-0.129	-0.018
-579.792	-200.000	-0.035	0.375
-578.777	800.000	0.112	0.465
-577.763	-200.000	0.013	-0.133
-576.748	-38.179	-0.095	-0.050
-575.733	-57.860	-0.197	0.086
-574.719	800.000	0.097	-0.395
-573.704	-200.000	-0.072	-0.321
-572.690	59.026	0.129	0.126
-571.675	-200.000	-0.001	0.204
-570.661	26.356	-0.288	-0.241
-569.646	-123.218	-0.222	0.036
-568.631	-117.636	-0.256	0.046
-567.617	138.421	-0.084	-0.110
-566.602	-135.080	0.177	0.021
-565.588	-124.805	0.050	-0.008
-564.573	104.305	0.199	0.234
-563.558	2.804	-0.240	0.174
-562.544	-108.950	-0.385	-0.082
-561.529	-200.000	0.031	-0.305
-560.515	52.096	0.174	-0.166
-559.500	-121.231	-0.292	0.049
-558.485	-62.410	0.354	0.147
-557.471	97.445	0.048	0.055
-556.456	-200.000	0.083	-0.366
-555.442	188.780	0.061	0.092
-554.427	67.011	-0.086	0.087
-553.412	676.328	0.060	0.157
-552.398	244.497	-0.091	-0.152
-551.383	102.482	0.201	0.234
-550.369	-51.416	-0.232	0.109
-549.354	-61.812	0.453	-0.189
-548.339	33.841	0.221	-0.192
-547.325	-200.000	-0.054	-0.383
-546.310	402.959	0.045	0.094
-545.296	-90.805	0.317	0.091
-544.281	-200.000	0.005	-0.050
-543.266	95.879	-0.082	-0.094
-542.252	-50.449	0.198	0.093
-541.237	-200.000	-0.033	0.202
-540.223	-200.000	0.012	0.110
-539.208	-200.000	-0.017	-0.117
-538.193	-200.000	-0.056	0.330
-537.179	21.345	-0.115	-0.093
-536.164	66.025	0.170	0.172
-535.150	-200.000	0.111	-0.000
-534.135	-30.384	0.282	0.160
-533.121	-115.797	0.023	0.004
-532.106	217.302	-0.177	-0.281
-531.091	800.000	0.080	-0.255
-530.077	167.880	-0.224	-0.318
-529.062	-110.964	-0.362	-0.074
-528.048	-200.000	0.045	-0.330
-527.033	133.847	-0.221	0.286
-526.018	331.028	-0.135	-0.260
-525.004	800.000	-0.062	0.235
-523.989	124.323	-0.159	0.200
-522.975	71.463	-0.093	0.097
-521.960	171.634	0.040	-0.058
-520.945	-200.000	-0.006	0.057
-519.931	-200.000	-0.020	0.242
-518.916	-112.488	-0.036	0.007
-517.902	281.914	0.039	-0.071
-516.887	-50.512	-0.201	-0.095
-515.872	-9.661	-0.225	-0.150
-514.858	90.681	-0.059	0.066
-513.843	-200.000	0.296	0.000
-512.829	44.166	-0.127	-0.117
-511.814	800.000	-0.032	0.107
-510.799	226.792	-0.136	0.221
-509.785	-87.053	0.276	-0.084
-508.770	19.588	-0.030	-0.024
-507.756	-53.538	-0.089	0.041
-506.741	-73.214	-0.275	0.101
-505.726	-61.760	0.214	0.089
-504.712	-121.356	0.355	-0.059
-503.697	9.215	-0.131	-0.099
-502.683	800.000	-0.050	-0.188
-501.668	800.000	0.053	-0.181
-500.653	-200.000	0.108	0.561
-499.639	-87.280	0.028	0.009
-498.624	-200.000	0.032	-0.151
-497.610	178.973	-0.132	0.193
-496.595	-171.915	-0.266	-0.009
-495.581	307.633	0.113	0.210
-494.566	-133.871	-0.278	0.034
-493.551	-200.000	0.016	0.222
-492.537	800.000	0.035	0.152
-491.522	-143.300	-0.340	0.032
-490.508	166.461	-0.129	0.183
-489.493	-67.988	-0.034	-0.013
-488.478	81.075	-0.190	-0.204
-487.464	800.000	0.025	-0.107
-486.449	56.334	0.194	0.188
-485.435	800.000	-0.039	-0.151
-484.420	352.200	-0.102	0.202
-483.405	176.084	0.199	0.288
-482.391	-69.837	-0.183	-0.069
-481.376	12.424	0.165	0.127
-480.362	-93.903	0.051	-0.014
-479.347	-129.292	-0.133	0.018
-478.332	-49.499	0.328	-0.155
-477.318	800.000	-0.132	0.368
-476.303	-200.000	-0.022	0.375
-475.289	234.718	0.128	0.211
-474.274	-200.000	0.008	0.228
-473.259	761.149	-0.076	-0.206
-472.245	13.919	-0.179	0.138
-471.230	-105.987	0.462	-0.104
-470.216	-124.179	-0.269	0.042
-469.201	-146.465	-0.230	0.020
-468.186	-200.000	0.044	-0.272
-467.172	-200.000	0.034	-0.275
-466.157	-134.341	-0.236	-0.029
-465.143	-200.000	-0.017	0.120
-464.128	-84.515	0.181	0.057
-463.113	-152.432	-0.441	0.032
-462.099	800.000	-0.045	0.126
-461.084	-5.222	0.258	0.177
-460.070	-200.000	-0.085	0.384
-459.055	-33.367	-0.235	0.129
-458.040	254.721	-0.128	-0.218
-457.026	-200.000	-0.020	-0.378
-456.011	-115.077	-0.189	-0.036
-454.997	219.971	0.150	-0.240
-453.982	482.004	0.154	-0.348
-452.968	800.000	-0.016	-0.052
-451.953	351.481	-0.126	-0.248
-450.938	-36.363	-0.100	-0.053
-449.924	637.768	0.049	0.124
-448.909	-28.243	0.071	0.041
-447.895	800.000	-0.011	-0.045
-446.880	-153.181	-0.127	0.009
-445.865	91.371	-0.257	-0.287
-444.851	-200.000	0.025	-0.139
-443.836	38.108	-0.079	-0.070
-442.822	399.140	0.167	-0.347
-441.807	-61.569	0.217	-0.091
-440.792	800.000	-0.076	-0.296
-439.778	800.000	-0.056	0.169
-438.763	-62.538	-0.317	0.131
-437.749	-200.000	0.021	-0.191
-436.734	148.128	-0.150	0.201
-435.719	-85.040	0.107	-0.033
-434.705	660.933	0.142	0.364
-433.690	63.547	0.102	-0.102
-432.676	-61.881	0.191	0.079
-431.661	-194.744	0.360	0.003
-430.646	800.000	0.076	0.212
-429.632	45.841	0.158	0.145
-428.617	-200.000	-0.017	-0.175
-427.603	-200.000	0.006	-0.417
-426.588	-2.528	-0.074	-0.051
-425.573	205.045	-0.082	-0.126
-424.559	-102.071	-0.209	-0.050
-423.544	-17.262	0.145	0.091
-422.530	238.767	0.033	0.055
-421.515	125.230	0.054	-0.068
-420.500	-200.000	0.035	-0.465
-419.486	63.306	0.147	0.147
-418.471	-200.000	-0.019	-0.112
-417.457	-48.363	0.228	-0.109
-416.442	62.712	0.033	0.033
-415.428	-98.349	-0.312	0.079
-414.413	80.332	-0.151	-0.161
-413.398	-200.000	-0.022	0.255
-412.384	-55.707	-0.068	-0.030
-411.369	4.095	0.245	0.178
-410.355	800.000	0.108	0.366
-409.340	800.000	0.059	0.257
-408.325	-50.618	-0.269	0.126
-407.311	-45.943	0.295	0.144
-406.296	-46.636	0.229	-0.111
-405.282	-118.897	-0.367	0.064
-404.267	281.519	-0.063	0.113
-403.252	290.294	0.074	0.134
-402.238	-62.304	-0.066	-0.027
-401.223	-200.000	0.018	0.103
-400.209	142.683	-0.153	0.202
-399.194	-107.587	-0.314	-0.068
-398.179	-27.336	-0.248	-0.143
-397.165	26.031	0.095	-0.078
-396.150	61.982	-0.135	-0.134
-395.136	504.803	0.025	0.058
-394.121	314.315	0.202	0.378
-393.106	282.049	-0.196	0.348
-392.092	-189.006	0.172	0.002
-391.077	115.297	0.236	-0.287
-390.063	-77.296	0.081	0.028
-389.048	800.000	0.074	-0.222
-388.033	-200.000	0.041	-0.197
-387.019	-26.167	-0.317	-0.185
-386.004	-1.789	-0.248	0.173
-384.990	-123.091	-0.087	0.014
-383.975	800.000	0.018	0.075
-382.960	74.652	-0.070	-0.073
-381.946	48.190	-0.181	0.168
-380.931	-200.000	0.000	0.273
-379.917	149.923	0.070	-0.095
-378.902	-200.000	0.008	-0.054
-377.888	-122.414	-0.372	-0.060
-376.873	-104.136	0.450	-0.104
-375.858	-200.000	-0.058	-0.320
-374.844	334.443	0.153	-0.294
-373.829	-144.023	-0.179	-0.017
-372.815	-156.852	0.419	-0.026
-371.800	-77.611	-0.262	0.090
-370.785	-200.000	-0.012	-0.093
-369.771	-53.539	0.232	-0.105
-368.756	-43.022	0.302	0.152
-367.742	-155.822	-0.138	0.009
-366.727	-200.000	0.035	-0.167
-365.712	-138.262	-0.186	0.020
-364.698	15.025	0.114	-0.089
-363.683	-160.740	0.161	-0.008
-362.669	304.035	0.092	0.170
-361.654	-74.494	0.276	-0.099
-360.639	-69.471	-0.162	-0.062
-359.625	142.192	-0.061	-0.080
-358.610	34.763	0.158	0.137
-357.596	603.547	-0.058	0.143
-356.581	-200.000	-0.079	0.397
-355.566	-45.394	0.303	0.149
-354.552	800.000	0.082	0.342
-353.537	653.885	0.100	-0.255
-352.523	-153.181	0.280	0.019
-351.508	-178.156	0.120	0.003
-350.493	-200.000	-0.002	-0.408
-349.479	30.786	0.207	0.176
-348.464	-105.655	-0.326	0.073
-347.450	22.767	-0.210	0.171
-346.435	-200.000	-0.010	-0.508
-345.420	-105.936	-0.375	0.084
-344.406	-8.743	-0.127	-0.084
-343.391	209.059	0.078	0.121
-342.377	72.609	0.050	0.052
-341.362	26.758	-0.061	-0.050
-340.348	-152.074	-0.255	0.018
-339.333	-200.000	0.019	0.091
-338.318	47.649	-0.155	0.144
-337.304	800.000	0.077	-0.252
-336.289	-130.275	0.076	0.010
-335.275	-94.432	-0.145	-0.039
-334.260	585.138	0.147	-0.358
-333.245	-200.000	0.017	-0.130
-332.231	800.000	-0.079	-0.270
-331.216	-54.909	0.174	0.078
-330.202	30.157	0.231	-0.195
-329.187	119.525	-0.118	-0.144
-328.172	-200.000	0.014	-0.176
-327.158	-123.158	-0.385	0.061
-326.143	311.073	0.093	-0.173
-325.129	-15.362	-0.061	0.039
-324.114	800.000	0.059	0.216
-323.099	-200.000	0.015	0.076
-322.085	-12.295	-0.178	0.116
-321.070	34.932	-0.044	0.038
-320.056	27.629	0.087	0.072
-319.041	123.676	-0.068	-0.085
-318.026	-102.374	0.335	-0.080
-317.012	-91.121	-0.109	0.031
-315.997	159.378	0.033	-0.045
-314.983	-132.638	-0.142	0.018
-313.968	143.245	0.180	-0.237
-312.953	-13.794	-0.245	0.157
-311.939	-200.000	0.025	0.118
-310.924	22.993	0.368	-0.298
-309.910	-153.180	-0.402	0.028
-308.895	88.771	-0.213	0.234
-307.880	340.645	0.163	0.315
-306.866	-200.000	-0.047	0.387
-305.851	141.166	-0.174	-0.228
-304.837	174.420	0.043	-0.062
-303.822	-200.000	-0.033	0.240
-302.807	13.940	0.081	0.062
-301.793	230.099	0.119	0.193
-300.778	168.444	-0.148	0.209
-299.764	122.916	0.138	0.171
-298.749	800.000	0.087	0.250
-297.735	85.903	-0.225	0.245
-296.720	-194.472	-0.415	-0.003
-295.705	800.000	-0.055	0.172
-294.691	-105.885	0.068	0.015
-293.676	-62.220	-0.105	-0.043
-292.662	-169.870	0.271	0.010
-291.647	101.045	-0.161	0.186
-290.632	339.024	0.127	-0.245
-289.618	-169.733	0.286	0.010
-288.603	113.621	0.179	-0.215
-287.589	445.828	-0.069	0.150
-286.574	-123.263	0.194	-0.031
-285.559	-200.000	0.008	0.113
-284.545	77.985	-0.136	-0.143
-283.530	-148.961	0.236	0.019
-282.516	398.383	0.073	-0.150
-281.501	401.885	-0.047	0.097
-280.486	2.003	-0.344	-0.246
-279.472	-131.314	0.166	0.022
-278.457	395.744	-0.083	-0.171
-277.443	-200.000	0.068	-0.597
-276.428	-17.261	-0.194	-0.121
-275.413	-200.000	-0.016	-0.211
-274.399	239.863	-0.035	-0.058
-273.384	-112.945	-0.338	0.066
-272.370	800.000	0.040	-0.112
-271.355	630.403	-0.155	0.387
-270.340	128.622	0.333	0.420
-269.326	-200.000	0.017	0.304
-268.311	-114.870	-0.246	0.046
-267.297	25.900	-0.191	-0.157
-266.282	116.560	0.205	0.248
-265.267	-119.547	-0.331	-0.057
-264.253	-133.720	-0.255	-0.031
-263.238	-200.000	-0.048	-0.228
-262.224	-3.113	-0.188	0.129
-261.209	312.713	-0.108	-0.200
-260.195	39.592	-0.057	0.050
-259.180	-113.857	0.085	-0.016
-258.165	-159.434	-0.204	0.011
-257.151	-101.940	0.212	-0.051
-256.136	130.037	0.120	0.152
-255.122	-200.000	0.006	-0.165
-254.107	-36.067	0.217	-0.116
-253.092	-200.000	0.023	-0.154
-252.078	386.726	-0.056	-0.114
-251.063	-134.930	0.176	0.021
-250.049	237.738	0.110	0.180
-249.034	266.594	-0.117	-0.202
-248.019	433.196	0.132	-0.283
-247.005	-165.239	-0.270	-0.012
-245.990	46.572	-0.197	-0.180
-244.976	-102.499	0.315	0.074
-243.961	104.788	0.062	-0.073
-242.946	61.615	0.113	0.111
-241.932	-39.322	-0.179	0.093
-240.917	675.357	-0.122	0.314
-239.903	-90.031	0.281	0.081
-238.888	-196.722	-0.161	-0.001
-237.873	-171.328	-0.131	-0.004
-236.859	198.109	0.084	-0.127
-235.844	800.000	-0.099	-0.338
-234.830	-85.931	-0.313	0.095
-233.815	-82.931	0.104	0.033
-232.800	-53.386	0.107	-0.048
-231.786	-107.855	0.242	0.052
-230.771	-93.729	0.209	-0.057
-229.757	-50.212	0.441	0.206
-228.742	-146.730	-0.202	-0.017
-227.727	3.932	0.181	-0.131
-226.713	-149.336	-0.149	0.012
-225.698	800.000	0.124	-0.364
-224.684	-68.269	-0.041	-0.016
-223.669	67.880	0.134	0.135
-222.655	84.633	-0.175	-0.189
-221.640	-2.763	0.199	-0.137
-220.625	-200.000	0.057	-0.319
-219.611	-152.674	-0.283	0.020
-218.596	-25.036	0.078	-0.045
-217.582	-200.000	0.001	0.164
-216.567	96.121	0.217	0.244
-215.552	-200.000	0.013	-0.156
-214.538	256.260	-0.068	-0.115
-213.523	-200.000	0.035	0.333
-212.509	-200.000	-0.046	0.386
-211.494	-200.000	0.039	0.269
-210.479	-126.302	0.277	-0.041
-209.465	-200.000	-0.022	0.134
-208.450	86.076	0.069	0.074
-207.436	-200.000	-0.024	0.220
-206.421	-75.437	-0.485	-0.170
-205.406	356.531	0.123	-0.242
-204.392	-64.140	-0.060	-0.024
-203.377	-200.000	-0.012	-0.205
-202.363	-200.000	0.050	0.220
-201.348	800.000	0.095	-0.404
-200.333	-121.062	0.208	-0.034
-199.319	-72.443	0.285	-0.104
-198.304	-141.631	-0.496	0.049
-197.290	-47.940	0.116	0.055
-196.275	110.911	-0.126	0.149
-195.260	-70.754	0.116	-0.043
-194.246	800.000	0.076	0.224
-193.231	-58.883	-0.428	-0.182
-192.217	-93.179	-0.143	-0.039
-191.202	-5.070	0.216	-0.146
-190.187	-79.475	0.207	0.069
-189.173	-10.026	-0.280	0.183
-188.158	800.000	0.032	-0.086
-187.144	-200.000	-0.067	-0.291
-186.129	-200.000	-0.053	0.269
-185.114	800.000	-0.135	-0.413
-184.100	402.335	0.113	-0.234
-183.085	-200.000	-0.055	-0.252
-182.071	234.468	0.072	0.116
-181.056	-55.834	0.171	-0.075
-180.042	92.915	0.152	-0.169
-179.027	365.197	0.114	-0.226
-178.012	125.741	0.229	0.285
-176.998	-106.761	0.142	0.031
-175.983	-102.387	0.092	0.022
-174.969	191.458	0.071	0.106
-173.954	800.000	-0.148	-0.455
-172.939	-23.758	0.292	0.172
-171.925	-64.926	0.172	-0.069
-170.910	-200.000	-0.025	0.274
-169.896	557.082	0.100	0.236
-168.881	36.979	-0.253	0.220
-167.866	-200.000	-0.078	-0.490
-166.852	-200.000	0.006	0.179
-165.837	435.131	-0.034	0.073
-164.823	380.231	-0.144	0.291
-163.808	437.840	0.078	0.168
-162.793	211.321	0.152	0.235
-161.779	252.589	0.029	-0.049
-160.764	171.144	0.070	0.099
-159.750	-156.220	0.009	0.001
-158.735	800.000	0.034	-0.120
-157.720	72.726	0.176	-0.181
-156.706	-200.000	0.026	-0.141
-155.691	170.567	-0.084	0.119
-154.677	-7.547	0.070	0.047
-153.662	-131.940	0.289	0.037
-152.647	14.210	0.204	0.156
-151.633	-200.000	-0.002	0.258
-150.618	-200.000	0.014	0.065
-149.604	147.773	-0.368	-0.488
-148.589	800.000	0.072	0.203
-147.574	-200.000	0.005	0.041
-146.560	-44.542	-0.170	-0.084
-145.545	670.820	-0.042	-0.107
-144.531	102.318	-0.073	-0.084
-143.516	427.669	0.036	-0.077
-142.502	17.970	-0.305	0.239
-141.487	-8.641	-0.132	-0.087
-140.472	488.121	-0.054	-0.121
-139.458	-200.000	-0.060	0.282
-138.443	-97.127	-0.283	0.073
-137.429	739.177	-0.028	-0.074
-136.414	-163.582	-0.217	-0.010
-135.399	215.551	0.269	0.420
-134.385	800.000	-0.121	0.397
-133.370	28.540	0.418	0.347
-132.356	-84.009	-0.216	0.068
-131.341	-136.461	-0.157	-0.018
-130.326	-4.935	0.213	-0.144
-129.312	-4.551	0.192	0.130
-128.297	-200.000	0.007	0.190
-127.283	-200.000	0.006	-0.068
-126.268	183.638	-0.110	0.159
-125.253	-36.171	0.096	0.051
-124.239	38.687	0.044	-0.038
-123.224	18.568	0.205	-0.161
-122.210	639.282	0.059	-0.148
-121.195	242.030	0.130	0.213
