DTS Sentinel unit serial number:	SN413079Multiplexer serial number:	ORYXHardware model number:	OX4-SRSoftware version number:	ORYX F/W v4.00 Oryx Data Collector v3.7.2.0data status	okinstallation	princeton_trtdifferential loss correction	single-endedforward channel	channel 3reverse channel	N/Adate	2019/09/11time	18:06:11forward acquisition time	60.00reverse acquisition time	0.00gamma	496.2192k internal	0.2287k external	0.2287temperature offset calibration	0.9995default loss term (dB/km)	0.3790temperature slope calibration	1.0000multiplexer offset coefficient	1.0000multiplexer slope coefficient	1.0000fibre end	0.00T internal ref (°C)	44.00T ext. ref 1 (°C)	1.17T ext. ref 2 (°C)	38.99length (m)	temperature (°C)	Stokes	anti-Stokes-747.200	-98.471	-0.139	0.036
-746.185	-29.375	-0.265	0.155
-745.171	36.382	0.158	-0.143
-744.156	-171.192	-0.191	0.007
-743.142	30.652	0.387	-0.340
-742.127	-34.131	0.031	0.018
-741.112	285.524	0.089	-0.164
-740.098	-200.000	0.034	0.235
-739.083	520.429	0.088	-0.211
-738.069	-12.114	0.306	-0.205
-737.054	370.387	0.130	-0.270
-736.039	-120.748	-0.080	0.014
-735.025	7.355	0.216	-0.165
-734.010	188.316	-0.212	0.326
-732.996	315.007	0.170	-0.329
-731.981	-200.000	0.029	-0.305
-730.966	24.786	-0.320	0.272
-729.952	30.464	-0.131	0.115
-728.937	224.361	-0.173	-0.286
-727.923	-200.000	0.001	-0.099
-726.908	-145.916	0.143	-0.013
-725.894	26.942	-0.145	-0.125
-724.879	-87.500	-0.247	0.077
-723.864	800.000	-0.039	0.139
-722.850	-0.747	-0.110	-0.080
-721.835	148.934	0.222	0.308
-720.821	-27.498	-0.051	0.030
-719.806	440.590	-0.146	0.326
-718.791	238.175	0.063	-0.107
-717.777	577.932	-0.022	-0.055
-716.762	-37.110	-0.333	-0.183
-715.748	-200.000	0.003	0.312
-714.733	-22.836	-0.334	-0.207
-713.718	-155.064	-0.096	-0.006
-712.704	-200.000	-0.026	0.275
-711.689	533.015	0.042	-0.103
-710.675	-48.886	-0.149	0.073
-709.660	-139.687	-0.281	-0.031
-708.645	-19.388	-0.043	-0.027
-707.631	181.261	0.119	0.179
-706.616	-120.078	-0.185	-0.032
-705.602	800.000	-0.078	0.248
-704.587	73.272	0.211	-0.226
-703.572	-0.074	0.153	-0.111
-702.558	-8.234	-0.338	-0.233
-701.543	-25.587	-0.286	-0.173
-700.529	800.000	0.137	0.550
-699.514	61.344	-0.177	-0.180
-698.499	-200.000	-0.019	0.119
-697.485	171.315	-0.094	-0.139
-696.470	295.323	0.115	-0.215
-695.456	-154.124	-0.029	0.002
-694.441	-200.000	-0.026	-0.237
-693.426	-171.461	0.124	-0.004
-692.412	-71.004	-0.264	-0.102
-691.397	18.798	0.214	-0.176
-690.383	471.918	0.060	-0.138
-689.368	-200.000	0.009	-0.182
-688.354	-75.880	-0.368	0.133
-687.339	-10.731	-0.203	-0.138
-686.324	-6.542	-0.535	-0.373
-685.310	-48.646	-0.220	-0.108
-684.295	-200.000	0.018	-0.110
-683.281	-200.000	0.001	0.080
-682.266	-120.347	-0.180	0.031
-681.251	-171.245	-0.433	-0.015
-680.237	310.476	0.088	0.169
-679.222	-200.000	-0.059	0.275
-678.208	-118.816	-0.058	-0.010
-677.193	229.771	-0.125	-0.209
-676.178	-36.996	-0.232	0.127
-675.164	-116.796	-0.195	0.037
-674.149	-58.078	-0.235	-0.105
-673.135	-28.234	0.204	0.121
-672.120	176.398	-0.155	-0.231
-671.105	-200.000	0.026	0.193
-670.091	45.960	-0.350	0.331
-669.076	-91.887	-0.402	0.117
-668.062	-88.143	-0.358	-0.110
-667.047	481.418	0.064	-0.149
-666.032	-76.578	0.068	0.024
-665.018	-76.864	-0.183	-0.066
-664.003	800.000	-0.025	-0.100
-662.989	128.659	-0.091	0.119
-661.974	267.598	0.100	-0.180
-660.959	-85.534	0.299	-0.095
-659.945	-66.151	0.254	-0.104
-658.930	-200.000	0.065	-0.310
-657.916	3.368	-0.115	-0.086
-656.901	0.084	-0.159	-0.116
-655.886	179.638	-0.074	0.110
-654.872	579.964	0.054	0.136
-653.857	-41.756	0.145	0.076
-652.843	-28.315	-0.044	-0.026
-651.828	343.091	-0.082	0.165
-650.814	328.103	-0.069	-0.135
-649.799	-200.000	-0.060	-0.477
-648.784	44.735	-0.167	-0.157
-647.770	-47.815	-0.333	0.165
-646.755	-35.404	0.190	-0.105
-645.741	-44.731	0.226	-0.115
-644.726	342.244	-0.119	-0.238
-643.711	800.000	0.127	0.499
-642.697	6.992	-0.486	0.370
-641.682	-23.743	-0.162	-0.099
-640.668	39.122	-0.175	-0.160
-639.653	-25.722	0.369	-0.222
-638.638	34.043	-0.205	-0.182
-637.624	-50.077	-0.138	0.067
-636.609	-98.587	0.181	-0.047
-635.595	-67.386	0.184	0.074
-634.580	161.518	-0.102	-0.145
-633.565	151.848	-0.076	0.106
-632.551	419.075	0.075	-0.165
-631.536	-6.207	-0.211	0.147
-630.522	448.398	0.210	-0.473
-629.507	800.000	0.053	-0.152
-628.492	-13.458	0.062	-0.041
-627.478	413.690	0.123	-0.268
-626.463	336.691	-0.031	-0.062
-625.449	800.000	0.012	0.042
-624.434	-117.192	0.442	0.082
-623.419	-87.571	-0.191	-0.059
-622.405	68.332	0.143	-0.149
-621.390	434.952	-0.111	0.247
-620.376	-200.000	0.039	0.242
-619.361	272.115	0.145	-0.261
-618.346	-200.000	-0.053	0.293
-617.332	-200.000	-0.016	-0.205
-616.317	-200.000	-0.013	0.081
-615.303	-89.517	-0.334	-0.100
-614.288	-46.153	-0.176	0.088
-613.273	-27.478	0.264	-0.157
-612.259	35.946	-0.152	0.137
-611.244	-181.645	0.174	0.003
-610.230	-38.687	0.176	0.095
-609.215	637.770	-0.021	-0.055
-608.201	116.038	0.088	-0.110
-607.186	-29.203	-0.387	-0.226
-606.171	109.378	0.189	-0.231
-605.157	170.806	-0.079	-0.115
-604.142	-1.809	0.258	-0.185
-603.128	453.400	-0.171	0.385
-602.113	-200.000	0.012	-0.282
-601.098	-59.507	0.062	-0.027
-600.084	-71.791	-0.199	0.076
-599.069	-101.849	0.141	0.035
-598.055	-88.369	0.221	-0.067
-597.040	83.154	-0.249	-0.276
-596.025	-66.013	0.301	0.123
-595.011	-0.028	-0.163	0.118
-593.996	-100.373	0.464	0.117
-592.982	-200.000	0.020	-0.120
-591.967	-58.621	0.054	0.024
-590.952	70.608	-0.168	0.177
-589.938	396.828	-0.105	0.224
-588.923	41.909	-0.251	0.232
-587.909	276.700	-0.168	-0.304
-586.894	232.642	-0.057	-0.095
-585.879	-86.930	-0.290	-0.090
-584.865	25.997	0.226	0.192
-583.850	59.988	-0.113	0.114
-582.836	-200.000	0.027	0.217
-581.821	-88.691	0.240	-0.073
-580.806	-112.054	0.288	0.059
-579.792	35.062	0.305	-0.273
-578.777	-49.364	-0.301	-0.146
-577.763	687.443	0.038	-0.101
-576.748	251.856	0.053	-0.093
-575.733	141.502	0.196	-0.265
-574.719	-40.975	-0.291	0.153
-573.704	74.796	-0.076	-0.082
-572.690	-200.000	0.007	-0.152
-571.675	-84.416	0.157	-0.050
-570.661	-67.661	-0.420	-0.168
-569.646	-70.909	-0.336	0.129
-568.631	228.666	0.039	-0.065
-567.617	-73.604	-0.149	-0.055
-566.602	-46.209	-0.127	0.064
-565.588	-31.551	-0.078	0.045
-564.573	-84.766	-0.082	-0.026
-563.558	-16.105	0.331	-0.214
-562.544	149.387	0.117	0.161
-561.529	120.651	-0.154	0.195
-560.515	-60.371	0.151	0.065
-559.500	800.000	-0.069	-0.225
-558.485	-200.000	-0.012	0.122
-557.471	0.218	0.094	-0.068
-556.456	85.792	-0.251	0.281
-555.442	-33.778	-0.121	0.068
-554.427	-200.000	0.043	-0.253
-553.412	-200.000	0.073	-0.337
-552.398	-14.879	-0.271	-0.177
-551.383	-200.000	0.032	-0.313
-550.369	-183.823	-0.317	-0.005
-549.354	33.228	0.271	0.239
-548.339	-200.000	-0.003	-0.148
-547.325	-26.368	0.080	0.048
-546.310	-53.547	-0.091	-0.043
-545.296	-200.000	0.010	-0.123
-544.281	-156.008	-0.328	-0.021
-543.266	-200.000	-0.031	0.336
-542.252	-200.000	-0.002	-0.028
-541.237	-200.000	-0.056	0.283
-540.223	-83.525	0.360	-0.117
-539.208	111.197	-0.291	-0.356
-538.193	-133.938	0.129	-0.016
-537.179	-200.000	0.039	0.193
-536.164	452.999	-0.090	-0.203
-535.150	57.509	0.064	0.063
-534.135	-200.000	-0.050	0.317
-533.121	800.000	-0.136	0.399
-532.106	120.921	0.046	0.059
-531.091	119.190	0.048	0.060
-530.077	43.414	-0.137	0.127
-529.062	603.689	0.066	0.168
-528.048	-1.870	0.137	-0.098
-527.033	-62.258	-0.106	-0.045
-526.018	800.000	0.077	0.229
-525.004	-150.167	0.101	0.008
-523.989	581.406	0.111	-0.277
-522.975	34.616	-0.157	0.139
-521.960	800.000	-0.054	-0.169
-520.945	103.757	0.199	0.237
-519.931	-73.936	-0.274	0.101
-518.916	-63.835	0.052	0.022
-517.902	73.408	0.247	0.263
-516.887	-200.000	-0.004	0.075
-515.872	31.951	0.145	-0.127
-514.858	-178.979	-0.572	-0.013
-513.843	70.551	0.167	0.176
-512.829	-200.000	0.001	-0.079
-511.814	-77.380	-0.186	-0.066
-510.799	-200.000	0.002	0.029
-509.785	93.844	0.031	0.036
-508.770	120.113	0.205	-0.258
-507.756	672.205	-0.140	-0.369
-506.741	19.981	0.142	-0.116
-505.726	-34.542	0.069	0.038
-504.712	26.220	-0.253	-0.215
-503.697	50.409	-0.148	-0.142
-502.683	800.000	0.043	-0.147
-501.668	84.491	0.045	0.050
-500.653	46.293	0.068	-0.064
-499.639	-200.000	0.050	0.435
-498.624	30.374	-0.115	0.100
-497.610	194.722	0.176	-0.271
-496.595	-52.200	0.311	0.147
-495.581	-45.010	-0.267	-0.135
-494.566	800.000	-0.021	0.058
-493.551	-118.867	0.175	-0.031
-492.537	-106.248	0.202	0.046
-491.522	800.000	0.065	0.194
-490.508	-58.064	-0.113	0.050
-489.493	-113.002	0.249	0.050
-488.478	-6.312	-0.143	0.099
-487.464	-108.432	-0.210	-0.046
-486.449	35.737	-0.381	-0.340
-485.435	5.145	0.156	-0.116
-484.420	-200.000	-0.057	0.343
-483.405	-105.187	0.163	0.038
-482.391	-133.370	0.222	-0.028
-481.376	-118.849	0.213	0.038
-480.362	-83.970	0.288	0.093
-479.347	10.209	0.244	-0.189
-478.332	-98.803	-0.346	-0.090
-477.318	230.403	0.094	-0.157
-476.303	-26.416	-0.252	0.150
-475.289	-41.021	0.204	-0.107
-474.274	-169.760	-0.209	0.008
-473.259	-59.137	0.269	0.118
-472.245	3.328	-0.221	-0.163
-471.230	8.369	0.106	0.081
-470.216	-132.097	-0.062	0.008
-469.201	-60.535	-0.243	0.105
-468.186	-152.656	0.276	-0.020
-467.172	129.196	0.056	-0.072
-466.157	274.476	-0.097	0.175
-465.143	787.159	-0.078	0.216
-464.128	-143.339	0.136	-0.013
-463.113	-144.509	-0.248	-0.023
-462.099	4.107	-0.139	-0.103
-461.084	-95.507	-0.148	0.040
-460.070	24.893	-0.055	0.046
-459.055	-200.000	0.011	-0.271
-458.040	-200.000	0.006	0.161
-457.026	-143.973	-0.179	0.017
-456.011	-48.094	-0.255	0.125
-454.997	-139.178	0.405	-0.044
-453.982	-138.431	-0.032	-0.004
-452.968	-200.000	0.023	0.272
-451.953	-200.000	-0.030	-0.152
-450.938	144.425	-0.086	0.117
-449.924	43.473	-0.141	0.131
-448.909	98.900	0.233	-0.273
-447.895	-12.063	0.131	0.087
-446.880	232.244	-0.083	0.138
-445.865	130.059	-0.015	-0.019
-444.851	38.655	-0.064	-0.058
-443.836	195.626	-0.116	0.179
-442.822	22.915	-0.229	-0.190
-441.807	-107.970	0.307	0.068
-440.792	50.029	0.062	-0.060
-439.778	-146.190	0.146	-0.013
-438.763	-200.000	-0.036	-0.234
-437.749	-112.014	0.312	0.064
-436.734	-64.476	0.089	0.037
-435.719	204.146	0.095	0.149
-434.705	800.000	0.041	0.123
-433.690	374.880	0.092	-0.190
-432.676	-13.672	0.208	0.136
-431.661	309.031	-0.130	-0.247
-430.646	-200.000	0.055	0.362
-429.632	110.836	0.002	0.003
-428.617	-78.246	0.213	-0.074
-427.603	800.000	0.059	-0.207
-426.588	115.160	0.056	0.069
-425.573	-58.765	0.218	0.095
-424.559	-200.000	0.013	0.168
-423.544	-200.000	-0.018	0.235
-422.530	-31.509	-0.290	0.165
-421.515	-200.000	0.019	0.145
-420.500	210.893	0.148	-0.236
-419.486	-200.000	0.013	0.063
-418.471	-200.000	0.012	0.081
-417.457	-200.000	-0.029	-0.201
-416.442	347.070	0.055	-0.109
-415.428	52.594	0.171	-0.165
-414.413	0.944	-0.163	-0.118
-413.398	-1.328	0.033	-0.024
-412.384	177.783	-0.021	0.031
-411.369	-199.061	-0.121	-0.001
-410.355	3.199	0.230	-0.169
-409.340	-200.000	0.011	-0.454
-408.325	-200.000	-0.016	-0.074
-407.311	83.318	-0.100	-0.111
-406.296	-164.795	0.053	0.002
-405.282	-200.000	0.016	-0.153
-404.267	352.857	0.209	0.419
-403.252	-55.083	-0.234	0.107
-402.238	104.741	0.126	0.150
-401.223	-63.160	0.033	0.014
-400.209	453.599	0.071	-0.160
-399.194	189.716	0.065	-0.098
-398.179	-130.241	0.501	-0.069
-397.165	-113.204	-0.184	0.037
-396.150	-200.000	0.032	0.361
-395.136	-22.996	-0.179	-0.109
-394.121	482.089	-0.025	-0.057
-393.106	757.610	0.044	0.121
-392.092	-84.859	0.277	0.088
-391.077	125.187	0.048	0.061
-390.063	-73.889	0.034	0.012
-389.048	800.000	0.087	0.301
-388.033	764.369	0.087	-0.240
-387.019	-200.000	-0.046	0.305
-386.004	-200.000	-0.035	0.297
-384.990	-200.000	-0.005	-0.163
-383.975	800.000	0.028	-0.120
-382.960	-73.093	-0.338	-0.125
-381.946	30.485	0.235	-0.203
-380.931	87.307	-0.034	0.038
-379.917	253.749	-0.087	-0.151
-378.902	236.238	-0.130	0.217
-377.888	-186.764	-0.273	0.004
-376.873	-200.000	0.018	0.122
-375.858	308.786	0.162	-0.305
-374.844	-64.486	0.257	-0.106
-373.829	800.000	0.032	-0.092
-372.815	-200.000	-0.009	-0.249
-371.800	57.243	-0.057	-0.056
-370.785	-68.300	-0.275	-0.108
-369.771	24.599	0.155	0.130
-368.756	256.945	0.159	0.277
-367.742	-200.000	-0.048	-0.355
-366.727	-152.875	0.219	0.016
-365.712	-41.287	0.133	-0.069
-364.698	-152.753	-0.166	0.012
-363.683	261.119	-0.121	0.212
-362.669	800.000	-0.018	0.050
-361.654	-91.536	0.326	-0.094
-360.639	-174.601	-0.188	-0.005
-359.625	-4.127	-0.336	0.235
-358.610	-200.000	-0.026	0.344
-357.596	207.432	0.038	-0.060
-356.581	318.148	0.177	-0.338
-355.566	118.209	-0.079	-0.098
-354.552	-200.000	-0.020	-0.151
-353.537	120.013	0.015	-0.019
-352.523	-34.578	-0.159	-0.088
-351.508	800.000	-0.031	0.126
-350.493	-20.834	0.258	0.160
-349.479	18.568	0.518	0.418
-348.464	87.393	0.132	0.147
-347.450	800.000	0.024	-0.098
-346.435	349.234	-0.063	-0.126
-345.420	-200.000	-0.028	0.217
-344.406	471.338	-0.127	0.289
-343.391	-107.346	-0.251	0.056
-342.377	167.247	-0.039	-0.057
-341.362	-0.884	0.165	-0.118
-340.348	-180.141	-0.532	-0.011
-339.333	-124.815	0.257	0.040
-338.318	615.800	0.053	-0.134
-337.304	-6.687	0.121	0.083
-336.289	152.558	0.239	-0.329
-335.275	-53.841	-0.226	0.104
-334.260	41.470	0.297	-0.271
-333.245	-200.000	-0.027	-0.133
-332.231	800.000	-0.083	0.329
-331.216	221.035	-0.242	0.392
-330.202	91.763	0.259	0.294
-329.187	75.410	-0.216	-0.230
-328.172	40.241	0.265	-0.241
-327.158	800.000	-0.036	-0.130
-326.143	800.000	-0.091	0.387
-325.129	-124.543	-0.156	0.024
-324.114	63.485	0.076	0.077
-323.099	-82.132	0.125	-0.041
-322.085	-87.379	0.195	0.060
-321.070	66.615	-0.247	-0.253
-320.056	298.283	0.114	0.212
-319.041	59.502	-0.080	0.079
-318.026	590.280	0.085	-0.211
-317.012	-200.000	-0.008	0.066
-315.997	800.000	0.092	0.383
-314.983	800.000	-0.069	-0.229
-313.968	135.465	-0.232	0.304
-312.953	6.533	-0.189	0.142
-311.939	-200.000	-0.040	0.217
-310.924	79.172	0.132	0.143
-309.910	-200.000	0.012	-0.085
-308.895	800.000	-0.137	-0.453
-307.880	190.245	-0.081	-0.123
-306.866	-112.095	0.033	-0.007
-305.851	-75.173	-0.174	-0.063
-304.837	-200.000	-0.180	-0.000
-303.822	800.000	-0.059	0.246
-302.807	19.792	-0.267	0.217
-301.793	-45.662	0.245	0.122
-300.778	-45.231	0.201	0.101
-299.764	-112.354	-0.255	0.051
-298.749	-72.818	-0.698	0.259
-297.735	505.047	0.141	-0.328
-296.720	800.000	-0.121	-0.337
-295.705	-132.419	0.100	-0.013
-294.691	-200.000	-0.006	0.109
-293.676	-26.264	0.043	-0.025
-292.662	-113.459	0.110	0.022
-291.647	800.000	0.066	0.245
-290.632	800.000	0.052	0.179
-289.618	313.251	-0.166	-0.314
-288.603	-139.435	0.508	-0.055
-287.589	-135.157	-0.090	0.011
-286.574	16.750	0.349	-0.278
-285.559	-115.360	0.252	0.048
-284.545	-55.689	-0.327	-0.148
-283.530	27.722	0.008	0.007
-282.516	-200.000	0.009	0.134
-281.501	-142.237	-0.169	-0.017
-280.486	-7.151	0.266	-0.182
-279.472	110.707	-0.172	0.208
-278.457	-126.550	-0.088	-0.013
-277.443	-48.496	0.273	0.132
-276.428	-200.000	0.011	-0.087
-275.413	290.581	-0.033	-0.060
-274.399	-39.297	-0.081	0.043
-273.384	309.694	-0.115	0.217
-272.370	32.905	0.294	-0.256
-271.355	-31.658	-0.278	0.157
-270.340	127.913	-0.235	0.301
-269.326	267.368	-0.037	-0.065
-268.311	-81.224	-0.277	0.092
-267.297	-200.000	0.036	-0.285
-266.282	800.000	0.103	0.350
-265.267	-113.286	0.063	0.013
-264.253	-121.857	0.582	-0.097
-263.238	-200.000	-0.030	-0.233
-262.224	-200.000	-0.026	0.213
-261.209	800.000	0.012	0.034
-260.195	-168.877	0.109	-0.004
-259.180	435.846	0.126	-0.277
-258.165	124.591	-0.199	0.252
-257.151	-43.830	0.267	0.135
-256.136	80.492	-0.291	-0.315
-255.122	-171.067	0.145	-0.005
-254.107	-68.361	0.332	0.130
-253.092	-63.735	0.156	-0.064
-252.078	26.824	-0.027	0.023
-251.063	4.627	0.291	-0.215
-250.049	237.891	-0.118	-0.197
-249.034	-42.755	-0.229	-0.117
-248.019	116.396	-0.061	0.075
-247.005	-76.731	-0.349	-0.123
-245.990	2.052	0.109	0.080
-244.976	-27.574	-0.062	0.036
-243.961	236.719	-0.284	-0.473
-242.946	235.641	-0.160	0.265
-241.932	-21.124	0.296	0.182
-240.917	388.776	-0.028	0.058
-239.903	390.777	-0.180	-0.375
-238.888	0.679	0.292	-0.210
-237.873	-200.000	-0.010	-0.250
-236.859	800.000	-0.021	-0.064
-235.844	-200.000	-0.040	0.214
-234.830	-23.747	0.257	0.155
-233.815	-41.161	0.100	-0.052
-232.800	-200.000	-0.005	-0.305
-231.786	-200.000	0.038	-0.227
-230.771	800.000	-0.027	0.078
-229.757	-90.989	0.058	0.017
-228.742	-14.840	0.361	-0.233
-227.727	22.171	-0.037	-0.031
-226.713	162.280	-0.112	0.158
-225.698	-200.000	0.004	-0.022
-224.684	746.060	0.061	0.164
-223.669	800.000	0.050	0.189
-222.655	-200.000	0.014	-0.106
-221.640	-24.155	0.332	0.199
-220.625	-94.998	0.083	-0.023
-219.611	461.531	-0.057	0.128
-218.596	-124.486	-0.224	-0.035
-217.582	-52.295	0.178	-0.083
-216.567	800.000	0.058	0.250
-215.552	120.280	-0.048	0.060
-214.538	800.000	0.025	-0.103
-213.523	-33.365	-0.075	-0.042
-212.509	-200.000	-0.025	-0.490
-211.494	800.000	0.047	0.200
-210.479	-14.206	-0.264	-0.171
-209.465	101.317	0.170	-0.199
-208.450	-11.304	0.262	0.173
-207.436	800.000	-0.056	0.165
-206.421	20.692	0.236	-0.192
-205.406	-200.000	0.014	-0.119
-204.392	90.326	0.211	-0.238
-203.377	168.456	-0.212	0.303
-202.363	123.520	-0.149	0.188
-201.348	800.000	0.029	-0.099
-200.333	-57.712	0.223	0.098
-199.319	-103.452	-0.072	0.017
-198.304	172.204	-0.098	0.142
-197.290	-200.000	0.120	0.000
-196.275	-45.538	-0.248	0.123
-195.260	-21.574	0.205	0.126
-194.246	304.091	-0.081	-0.152
-193.231	217.639	-0.081	0.130
-192.217	90.831	-0.216	-0.243
-191.202	461.352	-0.021	-0.047
-190.187	2.331	0.180	-0.130
-189.173	-150.756	-0.262	-0.020
-188.158	0.373	-0.184	-0.132
-187.144	238.731	-0.130	0.217
-186.129	477.419	0.042	-0.096
-185.114	-44.987	0.203	0.101
-184.100	421.492	-0.180	0.388
-183.085	-70.324	-0.358	0.136
-182.071	372.285	-0.079	0.161
-181.056	432.287	0.079	0.172
-180.042	212.593	-0.162	0.257
-179.027	35.750	0.098	-0.087
-178.012	527.538	-0.072	0.171
-176.998	-200.000	-0.239	-0.001
-175.983	-12.060	-0.212	-0.139
-174.969	295.071	0.117	-0.214
-173.954	16.052	0.215	-0.170
-172.939	-200.000	-0.015	0.166
-171.925	-200.000	0.017	0.494
-170.910	-200.000	0.006	0.041
-169.896	-102.914	0.333	-0.079
-168.881	-51.173	0.287	0.135
-167.866	800.000	-0.048	0.138
-166.852	-61.365	0.128	-0.054
-165.837	-200.000	-0.004	0.096
-164.823	111.814	-0.065	0.078
-163.808	-200.000	-0.012	0.069
-162.793	-17.813	-0.164	0.103
-161.779	-95.523	-0.224	0.060
-160.764	19.911	0.226	-0.183
-159.750	-200.000	0.045	0.289
-158.735	-95.658	-0.446	-0.120
-157.720	6.307	-0.100	0.074
-156.706	-112.286	-0.241	0.048
-155.691	-185.490	-0.179	-0.003
-154.677	-52.584	-0.303	0.140
-153.662	32.940	-0.372	-0.323
-152.647	-28.994	0.320	-0.184
-151.633	-200.000	-0.003	0.113
-150.618	659.730	0.063	-0.163
-149.604	-62.959	-0.292	-0.121
-148.589	44.891	0.174	0.161
-147.574	-111.150	-0.131	-0.027
-146.560	-12.284	0.143	-0.093
-145.545	-200.000	-0.003	-0.172
-144.531	111.528	0.120	0.145
-143.516	800.000	-0.056	0.193
-142.502	-0.776	-0.152	0.108
-141.487	-200.000	-0.018	0.245
-140.472	-200.000	-0.048	-0.396
-139.458	-35.071	0.098	-0.053
-138.443	800.000	0.049	0.173
-137.429	-200.000	0.020	-0.247
-136.414	-200.000	-0.058	0.256
-135.399	248.830	0.037	-0.063
-134.385	368.012	-0.078	-0.159
-133.370	1.810	-0.231	0.167
-132.356	17.848	0.098	-0.078
-131.341	800.000	0.015	-0.050
-130.326	345.128	0.131	-0.257
-129.312	-200.000	0.048	0.324
-128.297	-200.000	0.001	0.310
-127.283	92.567	0.040	-0.046
-126.268	141.831	0.143	0.190
-125.253	-189.075	-0.142	-0.002
-124.239	352.026	0.036	0.071
-123.224	72.101	0.047	0.049
-122.210	34.711	-0.166	0.146
-121.195	5.848	0.036	0.027
