DTS Sentinel unit serial number:	SN413079Multiplexer serial number:	ORYXHardware model number:	OX4-SRSoftware version number:	ORYX F/W v4.00 Oryx Data Collector v3.7.2.0data status	okinstallation	princeton_trtdifferential loss correction	single-endedforward channel	channel 3reverse channel	N/Adate	2019/09/11time	05:38:10forward acquisition time	60.00reverse acquisition time	0.00gamma	496.2192k internal	0.2331k external	0.2331temperature offset calibration	0.9908default loss term (dB/km)	0.3790temperature slope calibration	1.0000multiplexer offset coefficient	1.0000multiplexer slope coefficient	1.0000fibre end	0.00T internal ref (°C)	29.42T ext. ref 1 (°C)	-0.27T ext. ref 2 (°C)	23.37length (m)	temperature (°C)	Stokes	anti-Stokes-747.200	-200.000	-0.028	-0.183
-746.185	800.000	0.031	0.118
-745.171	-125.166	0.136	-0.021
-744.156	121.583	-0.191	0.239
-743.142	779.613	-0.108	0.297
-742.127	800.000	-0.035	-0.128
-741.112	260.080	0.070	0.122
-740.098	166.986	-0.126	0.180
-739.083	-200.000	0.044	0.220
-738.069	131.124	-0.187	0.241
-737.054	11.631	-0.189	0.146
-736.039	-185.385	-0.411	-0.006
-735.025	-30.586	-0.280	0.160
-734.010	-200.000	-0.097	-0.480
-732.996	288.835	-0.169	-0.308
-731.981	-22.086	-0.184	-0.112
-730.966	217.855	0.065	0.104
-729.952	-76.893	-0.086	-0.030
-728.937	105.464	0.153	0.181
-727.923	7.787	-0.233	-0.175
-726.908	-151.969	-0.076	0.006
-725.894	800.000	-0.035	-0.150
-724.879	-200.000	0.061	-0.359
-723.864	10.263	-0.290	-0.222
-722.850	-200.000	0.014	-0.136
-721.835	-42.241	0.237	0.122
-720.821	209.034	0.094	-0.148
-719.806	283.503	-0.070	-0.127
-718.791	-7.462	0.051	-0.035
-717.777	800.000	-0.063	-0.266
-716.762	191.636	-0.070	-0.106
-715.748	-101.667	0.115	-0.028
-714.733	-200.000	0.013	-0.146
-713.718	-26.911	-0.270	-0.159
-712.704	94.344	-0.256	-0.292
-711.689	262.411	0.041	0.071
-710.675	-38.873	0.356	0.188
-709.660	800.000	0.001	-0.004
-708.645	206.044	-0.102	-0.160
-707.631	72.061	-0.152	0.159
-706.616	-134.467	-0.071	0.009
-705.602	-85.515	0.389	0.122
-704.587	150.959	0.152	0.207
-703.572	-3.316	0.140	-0.098
-702.558	-12.535	-0.034	0.022
-701.543	41.709	-0.188	0.171
-700.529	-200.000	-0.032	-0.248
-699.514	762.007	-0.140	0.382
-698.499	-200.000	-0.029	-0.264
-697.485	253.061	0.091	-0.155
-696.470	-102.825	0.167	-0.040
-695.456	800.000	-0.088	-0.303
-694.441	295.775	-0.087	0.159
-693.426	-128.718	-0.413	0.059
-692.412	-53.766	-0.254	-0.116
-691.397	-163.370	-0.248	0.012
-690.383	5.607	0.112	0.083
-689.368	195.915	-0.054	-0.082
-688.354	49.517	0.177	-0.167
-687.339	-14.428	-0.242	0.157
-686.324	-200.000	0.008	0.059
-685.310	-14.768	0.196	-0.126
-684.295	-74.860	0.172	0.062
-683.281	279.228	0.101	0.180
-682.266	-138.045	-0.185	-0.021
-681.251	-3.764	0.254	0.177
-680.237	95.870	-0.194	-0.223
-679.222	-74.459	0.095	-0.035
-678.208	69.110	-0.107	-0.111
-677.193	-200.000	-0.028	0.195
-676.178	-200.000	0.017	0.146
-675.164	-200.000	-0.041	-0.366
-674.149	-66.964	-0.133	0.053
-673.135	-200.000	-0.001	-0.198
-672.120	72.107	0.139	0.145
-671.105	72.073	-0.040	-0.042
-670.091	85.494	0.239	0.263
-669.076	-81.671	-0.304	0.100
-668.062	119.215	-0.349	-0.433
-667.047	77.447	0.275	-0.294
-666.032	271.679	0.072	0.128
-665.018	-75.631	-0.258	0.092
-664.003	800.000	0.067	-0.188
-662.989	-130.119	-0.269	0.037
-661.974	800.000	-0.148	0.493
-660.959	145.375	0.231	-0.310
-659.945	-121.584	0.165	0.028
-658.930	-167.153	0.032	-0.001
-657.916	160.214	-0.351	-0.491
-656.901	302.822	0.087	-0.161
-655.886	800.000	0.030	-0.104
-654.872	197.794	0.121	0.186
-653.857	541.979	0.063	0.151
-652.843	-1.290	-0.120	-0.085
-651.828	101.894	0.188	-0.220
-650.814	335.471	0.107	0.209
-649.799	63.488	-0.265	0.267
-648.784	140.631	0.090	0.119
-647.770	-183.371	-0.284	0.005
-646.755	-9.925	-0.169	-0.113
-645.741	220.258	0.115	-0.184
-644.726	641.056	-0.056	0.144
-643.711	240.843	0.100	-0.168
-642.697	800.000	0.035	-0.118
-641.682	-72.766	-0.297	-0.110
-640.668	-200.000	0.033	-0.148
-639.653	-19.491	-0.136	0.084
-638.638	-66.846	-0.181	-0.072
-637.624	800.000	0.060	0.193
-636.609	-159.055	-0.389	-0.022
-635.595	200.619	0.171	0.264
-634.580	-55.789	0.226	0.101
-633.565	32.410	0.192	-0.166
-632.551	-124.208	-0.344	0.054
-631.536	47.536	0.063	-0.059
-630.522	617.953	-0.015	0.039
-629.507	800.000	-0.108	0.300
-628.492	-20.850	-0.220	0.135
-627.478	100.562	0.051	0.059
-626.463	56.549	-0.291	-0.284
-625.449	-27.520	0.315	-0.184
-624.434	278.014	0.063	0.113
-623.419	-104.889	-0.306	0.070
-622.405	-27.054	-0.290	0.169
-621.390	-161.769	-0.292	-0.015
-620.376	-9.885	0.201	0.134
-619.361	-1.357	-0.224	0.158
-618.346	116.656	0.203	-0.250
-617.332	800.000	-0.072	-0.233
-616.317	-126.402	0.271	0.040
-615.303	-96.179	0.426	0.113
-614.288	800.000	-0.047	-0.145
-613.273	86.838	0.232	-0.256
-612.259	103.111	-0.147	0.173
-611.244	-200.000	0.007	0.116
-610.230	98.155	0.069	-0.079
-609.215	-68.528	0.006	-0.002
-608.201	-200.000	0.028	0.164
-607.186	-14.034	0.211	0.136
-606.171	18.629	0.227	0.182
-605.157	239.019	-0.040	0.067
-604.142	-103.325	-0.252	-0.059
-603.128	275.511	0.157	-0.278
-602.113	-200.000	-0.015	0.248
-601.098	-43.048	0.123	-0.062
-600.084	35.500	-0.233	-0.205
-599.069	65.329	0.108	-0.109
-598.055	10.565	0.180	-0.137
-597.040	110.906	0.162	0.196
-596.025	723.756	-0.153	0.409
-595.011	-200.000	0.013	0.253
-593.996	91.269	-0.116	0.130
-592.982	34.327	0.154	-0.135
-591.967	1.348	-0.120	0.086
-590.952	-200.000	0.007	-0.042
-589.938	-14.443	-0.161	0.104
-588.923	-75.284	0.240	0.086
-587.909	-34.707	-0.302	0.165
-586.894	-200.000	-0.005	0.131
-585.879	-200.000	0.081	-0.437
-584.865	-25.028	-0.183	0.108
-583.850	33.150	0.069	-0.059
-582.836	-200.000	-0.042	0.379
-581.821	-200.000	0.001	0.066
-580.806	101.303	-0.055	-0.064
-579.792	-200.000	-0.031	0.143
-578.777	-200.000	0.043	-0.320
-577.763	-72.310	0.222	-0.082
-576.748	-36.266	-0.393	-0.212
-575.733	800.000	0.022	0.079
-574.719	-200.000	0.193	0.000
-573.704	134.124	-0.217	-0.282
-572.690	-200.000	-0.001	0.161
-571.675	-57.115	0.098	0.043
-570.661	800.000	-0.065	-0.204
-569.646	254.069	0.105	-0.179
-568.631	-88.906	-0.270	0.080
-567.617	324.846	-0.285	0.544
-566.602	-69.728	-0.074	-0.028
-565.588	327.733	0.071	-0.137
-564.573	-149.102	-0.247	0.020
-563.558	800.000	0.006	-0.020
-562.544	-75.663	-0.289	-0.103
-561.529	-149.604	-0.239	0.019
-560.515	-38.353	-0.137	-0.072
-559.500	-98.761	-0.223	-0.057
-558.485	263.737	0.209	-0.363
-557.471	125.339	0.070	-0.088
-556.456	-200.000	0.000	-0.143
-555.442	-180.974	-0.171	0.003
-554.427	-200.000	-0.001	0.118
-553.412	-68.053	-0.292	0.114
-552.398	343.980	-0.098	-0.192
-551.383	800.000	-0.051	-0.180
-550.369	-200.000	-0.044	-0.208
-549.354	800.000	0.022	0.075
-548.339	334.304	-0.139	0.269
-547.325	800.000	0.072	-0.273
-546.310	14.740	0.141	-0.110
-545.296	-165.409	0.207	0.009
-544.281	109.427	-0.061	0.073
-543.266	77.437	0.054	0.058
-542.252	-115.411	-0.456	0.086
-541.237	325.935	-0.125	-0.238
-540.223	269.803	-0.029	-0.050
-539.208	64.110	0.128	0.129
-538.193	533.610	0.066	-0.157
-537.179	-1.108	-0.350	-0.247
-536.164	-97.639	0.237	-0.061
-535.150	800.000	0.076	-0.240
-534.135	147.535	0.236	0.318
-533.121	166.471	0.084	0.118
-532.106	-200.000	0.016	-0.137
-531.091	-120.261	-0.109	0.019
-530.077	115.705	0.407	-0.497
-529.062	208.767	-0.131	-0.205
-528.048	81.060	-0.052	-0.056
-527.033	-24.409	0.250	0.149
-526.018	-173.599	-0.270	-0.008
-525.004	-2.209	-0.072	-0.050
-523.989	551.287	-0.105	0.252
-522.975	-15.922	0.212	0.135
-521.960	246.209	-0.107	0.180
-520.945	245.117	-0.075	0.126
-519.931	-135.064	-0.346	-0.042
-518.916	300.191	0.174	-0.321
-517.902	86.440	0.169	0.186
-516.887	787.397	-0.019	0.051
-515.872	-35.812	-0.106	0.057
-514.858	235.911	0.046	0.076
-513.843	153.197	-0.116	0.158
-512.829	-91.783	-0.245	0.069
-511.814	-200.000	0.014	0.113
-510.799	332.178	-0.059	-0.114
-509.785	-70.478	-0.350	-0.132
-508.770	-95.304	-0.095	0.025
-507.756	146.620	0.093	-0.125
-506.741	417.197	0.096	-0.204
-505.726	800.000	0.016	-0.045
-504.712	-101.478	0.242	-0.059
-503.697	-200.000	0.008	0.143
-502.683	186.061	-0.007	-0.011
-501.668	445.829	-0.126	0.275
-500.653	217.171	0.111	0.177
-499.639	-110.456	-0.302	0.063
-498.624	800.000	-0.071	-0.217
-497.610	800.000	-0.018	-0.053
-496.595	-94.407	0.080	-0.022
-495.581	-56.594	-0.247	-0.109
-494.566	-200.000	-0.003	-0.174
-493.551	-93.575	0.221	0.061
-492.537	-200.000	0.034	-0.173
-491.522	-117.542	-0.235	-0.042
-490.508	-186.715	0.181	0.003
-489.493	-28.794	0.248	0.142
-488.478	-200.000	-0.011	0.064
-487.464	-200.000	-0.020	-0.400
-486.449	252.573	-0.091	-0.155
-485.435	39.227	0.131	0.117
-484.420	-28.338	0.151	-0.087
-483.405	-200.000	0.040	-0.189
-482.391	154.270	0.083	-0.114
-481.376	-83.866	0.299	-0.095
-480.362	800.000	-0.162	0.455
-479.347	64.179	0.052	0.052
-478.332	724.545	-0.059	-0.157
-477.318	67.537	0.234	-0.238
-476.303	288.021	-0.257	0.463
-475.289	-146.560	0.095	0.008
-474.274	0.194	-0.311	-0.221
-473.259	-66.274	0.507	-0.201
-472.245	-111.672	-0.052	-0.011
-471.230	344.645	-0.124	-0.243
-470.216	-57.946	0.135	0.059
-469.201	-13.993	0.234	0.150
-468.186	-100.727	-0.123	0.030
-467.172	26.944	-0.259	-0.217
-466.157	15.050	0.174	0.136
-465.143	-122.573	0.419	-0.068
-464.128	197.393	0.136	0.206
-463.113	-81.783	0.495	-0.161
-462.099	-162.524	0.353	0.017
-461.084	-200.000	-0.054	0.349
-460.070	9.274	0.143	0.107
-459.055	-122.572	0.106	0.017
-458.040	800.000	-0.106	-0.325
-457.026	-200.000	-0.031	0.254
-456.011	521.847	-0.015	0.036
-454.997	564.451	-0.199	-0.480
-453.982	-200.000	0.030	0.179
-452.968	206.573	0.097	0.150
-451.953	158.076	-0.051	0.070
-450.938	20.055	-0.078	0.063
-449.924	-113.093	-0.268	0.053
-448.909	-88.348	0.237	0.070
-447.895	236.050	-0.102	0.168
-446.880	-4.157	-0.030	0.021
-445.865	216.001	0.136	-0.215
-444.851	113.709	-0.131	-0.158
-443.836	-200.000	-0.013	0.091
-442.822	-2.897	-0.224	0.155
-441.807	-200.000	-0.030	-0.454
-440.792	416.958	0.080	0.169
-439.778	103.906	0.300	0.350
-438.763	-125.006	0.218	0.033
-437.749	-200.000	-0.085	0.397
-436.734	-171.281	0.428	0.014
-435.719	75.157	0.036	-0.037
-434.705	-200.000	-0.015	0.529
-433.690	-142.965	-0.248	0.024
-432.676	-15.927	0.140	0.089
-431.661	-199.798	0.113	-0.001
-430.646	195.492	-0.133	-0.201
-429.632	800.000	0.039	-0.116
-428.617	1.736	-0.215	-0.154
-427.603	-200.000	-0.015	-0.131
-426.588	-200.000	-0.022	-0.265
-425.573	647.424	0.115	-0.291
-424.559	-86.477	-0.230	0.070
-423.544	-55.877	-0.161	0.072
-422.530	-116.333	-0.191	0.035
-421.515	-10.880	-0.255	-0.167
-420.500	-96.671	0.182	-0.048
-419.486	-16.502	0.350	-0.221
-418.471	-87.700	-0.231	-0.069
-417.457	-159.630	0.159	0.009
-416.442	-35.069	-0.323	-0.175
-415.428	304.897	0.118	-0.218
-414.413	-132.106	0.446	-0.058
-413.398	-157.785	-0.133	-0.008
-412.384	-25.279	-0.162	-0.095
-411.369	-42.691	0.205	0.104
-410.355	-32.694	-0.274	-0.151
-409.340	800.000	0.047	0.180
-408.325	-35.976	-0.139	0.075
-407.311	-28.503	0.258	-0.148
-406.296	-200.000	-0.019	0.288
-405.282	800.000	-0.184	0.528
-404.267	-72.342	0.312	0.115
-403.252	17.197	0.202	0.159
-402.238	5.640	0.221	0.162
-401.223	186.001	0.137	0.203
-400.209	-58.013	-0.193	0.084
-399.194	332.283	0.021	-0.040
-398.179	387.000	-0.054	-0.110
-397.165	85.899	-0.039	0.043
-396.150	-200.000	0.003	0.282
-395.136	184.434	0.189	0.277
-394.121	-120.160	0.021	-0.003
-393.106	800.000	-0.044	0.124
-392.092	-132.551	-0.344	0.044
-391.077	414.900	0.037	-0.078
-390.063	156.080	-0.040	-0.055
-389.048	576.603	-0.012	-0.030
-388.033	-88.918	-0.092	-0.027
-387.019	800.000	-0.040	0.109
-386.004	8.689	0.271	0.203
-384.990	-41.658	0.117	-0.060
-383.975	-100.033	0.340	-0.084
-382.960	-114.346	-0.142	-0.027
-381.946	-101.996	0.054	-0.013
-380.931	-200.000	-0.012	-0.100
-379.917	147.163	0.137	0.183
-378.902	-162.936	0.144	-0.007
-377.888	-87.141	0.093	0.028
-376.873	-200.000	0.009	-0.226
-375.858	749.108	0.124	0.332
-374.844	-200.000	-0.041	0.357
-373.829	-143.340	0.129	0.012
-372.815	800.000	-0.074	-0.220
-371.800	-200.000	0.053	-0.376
-370.785	-200.000	0.031	0.141
-369.771	433.355	-0.069	-0.150
-368.756	46.851	-0.153	0.141
-367.742	177.169	-0.228	-0.330
-366.727	-12.096	-0.169	-0.110
-365.712	-200.000	0.067	-0.348
-364.698	-131.460	0.535	0.070
-363.683	800.000	0.075	-0.215
-362.669	327.194	-0.016	-0.031
-361.654	800.000	-0.049	0.212
-360.639	-127.614	0.389	-0.056
-359.625	-45.741	0.132	0.065
-358.610	62.256	0.071	0.070
-357.596	-200.000	0.032	0.210
-356.581	-200.000	0.039	-0.312
-355.566	754.562	0.055	-0.147
-354.552	-139.891	0.108	0.011
-353.537	440.840	-0.117	0.254
-352.523	10.496	-0.058	-0.043
-351.508	800.000	-0.021	-0.073
-350.493	800.000	0.055	-0.189
-349.479	-157.190	-0.344	0.021
-348.464	245.096	0.154	0.257
-347.450	-184.096	-0.256	0.004
-346.435	-118.836	-0.082	-0.014
-345.420	100.505	0.038	-0.044
-344.406	-200.000	-0.024	-0.120
-343.391	-162.300	0.049	0.002
-342.377	-7.992	0.336	-0.224
-341.362	213.643	0.138	-0.216
-340.348	-63.361	0.152	0.062
-339.333	67.098	0.090	0.091
-338.318	499.485	0.054	-0.122
-337.304	26.496	0.160	-0.133
-336.289	-112.624	0.512	0.101
-335.275	123.433	-0.050	-0.063
-334.260	33.586	0.034	0.029
-333.245	-129.276	-0.240	0.033
-332.231	-200.000	-0.029	-0.128
-331.216	-61.237	0.163	0.068
-330.202	-200.000	-0.036	0.250
-329.187	383.568	-0.045	-0.093
-328.172	-90.012	0.311	0.090
-327.158	444.601	0.051	-0.110
-326.143	591.860	-0.089	-0.217
-325.129	-0.349	0.250	0.176
-324.114	-91.364	0.223	0.063
-323.099	-65.755	-0.419	-0.166
-322.085	-200.000	-0.016	0.134
-321.070	800.000	0.045	0.141
-320.056	-108.684	0.099	-0.021
-319.041	403.326	-0.100	-0.208
-318.026	-166.834	-0.058	-0.002
-317.012	-200.000	0.042	-0.190
-315.997	116.115	-0.225	0.272
-314.983	563.661	-0.070	0.167
-313.968	-200.000	-0.020	0.226
-312.953	800.000	0.027	0.077
-311.939	213.944	-0.082	0.129
-310.924	-67.390	0.234	-0.091
-309.910	-130.223	-0.183	0.025
-308.895	-88.329	0.231	0.068
-307.880	-109.595	0.215	0.045
-306.866	-162.456	-0.244	0.012
-305.851	-96.445	-0.190	0.050
-304.837	1.416	0.407	-0.290
-303.822	-200.000	-0.014	0.086
-302.807	-139.132	-0.371	0.040
-301.793	-138.409	0.068	-0.007
-300.778	-107.692	0.252	-0.055
-299.764	39.266	-0.225	-0.199
-298.749	490.071	-0.044	-0.099
-297.735	-99.964	0.031	0.008
-296.720	-200.000	-0.006	0.103
-295.705	109.423	0.248	-0.294
-294.691	90.819	-0.126	-0.140
-293.676	-135.290	0.214	-0.025
-292.662	-78.730	0.174	0.059
-291.647	-46.093	-0.083	0.041
-290.632	727.743	-0.051	-0.135
-289.618	-200.000	-0.059	-0.273
-288.603	89.053	-0.144	0.159
-287.589	-149.049	-0.185	0.015
-286.574	-158.515	-0.339	0.019
-285.559	259.861	-0.036	0.061
-284.545	-123.660	-0.138	0.022
-283.530	-170.012	0.316	0.011
-282.516	77.949	0.093	0.098
-281.501	584.448	-0.114	0.278
-280.486	-40.628	0.203	0.104
-279.472	800.000	0.109	-0.302
-278.457	-200.000	-0.011	-0.179
-277.443	336.287	0.099	-0.190
-276.428	-46.702	-0.432	0.209
-275.413	800.000	-0.066	-0.192
-274.399	800.000	0.093	0.302
-273.384	-191.123	-0.157	-0.002
-272.370	-166.927	0.232	0.009
-271.355	-200.000	0.031	-0.286
-270.340	800.000	-0.022	-0.088
-269.326	-200.000	0.015	0.066
-268.311	395.926	-0.097	-0.201
-267.297	77.392	-0.115	0.120
-266.282	-111.641	0.117	0.024
-265.267	68.154	-0.162	0.163
-264.253	-72.569	0.195	0.071
-263.238	670.906	0.060	-0.155
-262.224	54.013	0.147	-0.140
-261.209	-200.000	0.022	0.337
-260.195	-103.792	-0.491	0.113
-259.180	-32.368	0.042	0.023
-258.165	-133.844	-0.288	-0.035
-257.151	800.000	0.035	0.116
-256.136	800.000	0.084	0.284
-255.122	77.130	-0.296	0.310
-254.107	-99.636	0.194	-0.048
-253.092	575.786	-0.082	0.197
-252.078	20.751	-0.081	0.064
-251.063	-200.000	-0.001	0.230
-250.049	-105.030	-0.153	0.034
-249.034	159.110	0.170	0.234
-248.019	-200.000	0.037	-0.172
-247.005	702.636	-0.066	0.170
-245.990	-200.000	-0.002	-0.073
-244.976	-200.000	0.000	-0.193
-243.961	295.237	-0.032	-0.059
-242.946	412.148	-0.095	0.199
-241.932	-108.730	-0.238	0.050
-240.917	800.000	0.081	-0.232
-239.903	572.887	-0.077	-0.186
-238.888	-30.715	0.159	0.089
-237.873	10.415	0.036	-0.027
-236.859	116.614	-0.266	0.322
-235.844	-100.802	0.232	-0.056
-234.830	-200.000	0.016	-0.237
-233.815	340.066	0.047	-0.090
-232.800	-163.444	0.212	0.010
-231.786	-35.963	0.167	-0.089
-230.771	95.126	-0.125	-0.140
-229.757	40.668	-0.140	-0.125
-228.742	39.132	0.134	-0.118
-227.727	-54.223	-0.136	0.061
-226.713	-200.000	-0.004	-0.053
-225.698	-127.371	0.345	-0.050
-224.684	134.806	-0.053	0.068
-223.669	437.112	0.106	0.228
-222.655	-107.629	0.447	0.096
-221.640	-43.275	0.119	0.059
-220.625	472.681	-0.062	-0.137
-219.611	-24.566	0.271	0.159
-218.596	-94.868	-0.116	-0.031
-217.582	-200.000	-0.240	-0.001
-216.567	-96.139	-0.105	-0.028
-215.552	-70.313	-0.232	-0.087
-214.538	150.091	-0.113	-0.150
-213.523	800.000	-0.083	-0.267
-212.509	-200.000	-0.057	-0.441
-211.494	-72.329	0.155	-0.056
-210.479	72.049	-0.189	-0.194
-209.465	353.995	0.199	0.389
-208.450	-11.417	0.087	-0.056
-207.436	92.232	-0.255	-0.283
-206.421	-117.954	-0.129	0.023
-205.406	-200.000	0.016	-0.245
-204.392	65.410	-0.408	-0.407
-203.377	44.607	0.282	-0.255
-202.363	11.567	-0.224	0.169
-201.348	-68.607	-0.228	0.087
-200.333	-20.390	0.229	-0.139
-199.319	301.945	0.051	-0.093
-198.304	9.344	-0.157	-0.117
-197.290	-200.000	0.031	0.211
-196.275	33.751	0.103	0.088
-195.260	-200.000	0.061	0.381
-194.246	-186.163	0.163	-0.002
-193.231	2.863	0.230	-0.164
-192.217	-125.849	-0.115	-0.017
-191.202	-9.893	-0.179	-0.118
-190.187	106.312	-0.183	0.214
-189.173	-86.437	-0.101	0.031
-188.158	496.913	0.023	-0.052
-187.144	217.564	-0.114	0.178
-186.129	261.699	-0.057	0.097
-185.114	124.794	-0.215	0.266
-184.100	-9.325	0.094	-0.062
-183.085	70.194	-0.186	-0.189
-182.071	144.538	-0.175	0.230
-181.056	130.658	0.186	-0.235
-180.042	464.885	0.075	0.164
-179.027	-121.837	0.147	-0.024
-178.012	-151.912	-0.094	-0.007
-176.998	-200.000	-0.057	0.532
-175.983	577.522	-0.121	0.291
-174.969	77.119	-0.310	0.324
-173.954	-200.000	-0.007	-0.147
-172.939	11.215	-0.019	0.014
-171.925	62.483	0.118	-0.116
-170.910	-29.258	0.082	-0.046
-169.896	93.828	0.132	-0.147
-168.881	-101.809	-0.318	-0.076
-167.866	37.678	-0.128	0.111
-166.852	-140.281	0.153	-0.016
-165.837	-200.000	-0.004	0.200
-164.823	-102.989	-0.184	-0.043
-163.808	44.064	0.182	0.164
-162.793	-28.691	-0.086	-0.049
-161.779	-200.000	0.200	0.001
-160.764	-3.701	0.203	0.139
-159.750	446.037	-0.115	-0.248
-158.735	-54.979	0.163	0.072
-157.720	233.533	0.090	-0.146
-156.706	800.000	0.110	0.349
-155.691	1.728	0.200	-0.142
-154.677	-87.896	0.108	0.032
-153.662	800.000	-0.087	-0.264
-152.647	66.536	0.259	0.259
-151.633	-19.074	-0.119	-0.072
-150.618	-200.000	0.020	0.269
-149.604	-23.427	-0.197	0.116
-148.589	800.000	0.105	-0.386
-147.574	800.000	0.106	-0.342
-146.560	-20.711	0.233	0.140
-145.545	138.148	0.123	-0.159
-144.531	-200.000	0.004	-0.090
-143.516	-167.751	-0.214	0.008
-142.502	-133.372	-0.279	-0.034
-141.487	-60.307	0.403	0.169
-140.472	-200.000	-0.033	0.151
-139.458	-51.467	-0.153	-0.070
-138.443	-78.425	0.070	-0.024
-137.429	128.232	0.097	-0.121
-136.414	-175.646	0.355	0.009
-135.399	-102.025	0.264	0.063
-134.385	146.026	0.241	0.318
-133.370	800.000	-0.015	0.061
-132.356	-20.869	-0.168	0.101
-131.341	466.501	0.072	-0.158
-130.326	23.305	0.118	-0.095
-129.312	264.368	0.045	-0.077
-128.297	-200.000	0.040	0.398
-127.283	800.000	0.053	0.154
-126.268	409.484	0.012	-0.024
-125.253	800.000	0.119	-0.426
-124.239	245.596	0.178	0.295
-123.224	-98.292	0.113	-0.029
-122.210	800.000	0.120	-0.444
-121.195	24.391	-0.218	0.177
