DTS Sentinel unit serial number:	SN413079Multiplexer serial number:	ORYXHardware model number:	OX4-SRSoftware version number:	ORYX F/W v4.00 Oryx Data Collector v3.7.2.0data status	okinstallation	princeton_trtdifferential loss correction	single-endedforward channel	channel 3reverse channel	N/Adate	2019/09/10time	22:14:11forward acquisition time	60.00reverse acquisition time	0.00gamma	496.2192k internal	0.2330k external	0.2330temperature offset calibration	0.9921default loss term (dB/km)	0.3790temperature slope calibration	1.0000multiplexer offset coefficient	1.0000multiplexer slope coefficient	1.0000fibre end	0.00T internal ref (°C)	30.55T ext. ref 1 (°C)	-0.32T ext. ref 2 (°C)	23.88length (m)	temperature (°C)	Stokes	anti-Stokes-747.200	-64.478	-0.333	0.136
-746.185	44.640	0.148	-0.137
-745.171	-127.021	-0.224	-0.033
-744.156	242.669	-0.130	0.219
-743.142	-200.000	-0.055	0.485
-742.127	394.450	-0.125	0.263
-741.112	-103.477	0.256	-0.061
-740.098	313.053	0.118	-0.223
-739.083	11.182	0.080	0.062
-738.069	50.078	0.096	-0.091
-737.054	-184.784	-0.020	-0.000
-736.039	-200.000	0.018	0.338
-735.025	-22.161	0.424	0.259
-734.010	-46.866	-0.288	0.142
-732.996	-95.024	-0.267	-0.073
-731.981	26.479	0.189	-0.159
-730.966	-162.394	-0.118	0.006
-729.952	800.000	-0.043	-0.178
-728.937	87.959	-0.146	-0.163
-727.923	629.137	0.019	-0.047
-726.908	-200.000	0.036	-0.208
-725.894	-29.165	-0.252	-0.145
-724.879	92.463	-0.039	0.044
-723.864	-200.000	0.016	-0.165
-722.850	-98.637	-0.258	-0.066
-721.835	-200.000	0.019	-0.427
-720.821	345.766	-0.160	-0.317
-719.806	282.318	-0.111	-0.200
-718.791	-200.000	-0.007	0.136
-717.777	756.849	-0.092	-0.250
-716.762	-79.194	0.019	-0.007
-715.748	-41.129	-0.230	0.120
-714.733	136.638	-0.074	0.097
-713.718	-153.565	0.304	-0.021
-712.704	-41.746	0.348	-0.180
-711.689	800.000	-0.055	-0.196
-710.675	-7.734	0.189	-0.128
-709.660	-53.340	0.100	0.046
-708.645	-41.838	0.085	-0.044
-707.631	-53.342	-0.124	0.057
-706.616	-142.818	-0.462	0.045
-705.602	-86.159	0.560	-0.174
-704.587	516.703	-0.089	-0.209
-703.572	-200.000	0.031	-0.378
-702.558	-9.744	0.246	0.165
-701.543	130.545	0.210	-0.271
-700.529	651.832	-0.081	0.208
-699.514	-200.000	-0.003	0.143
-698.499	703.733	0.074	-0.195
-697.485	-200.000	-0.069	-0.395
-696.470	329.273	0.079	-0.152
-695.456	11.739	0.144	-0.111
-694.441	-136.452	-0.337	-0.039
-693.426	319.248	0.045	0.086
-692.412	-82.612	0.206	0.067
-691.397	-6.501	-0.314	-0.215
-690.383	370.122	-0.100	0.203
-689.368	-64.388	0.134	0.055
-688.354	93.772	-0.035	0.039
-687.339	-119.702	0.066	0.011
-686.324	-106.301	-0.154	0.035
-685.310	610.818	0.007	-0.018
-684.295	-156.938	0.109	-0.007
-683.281	-186.721	0.100	0.001
-682.266	-37.855	0.206	0.110
-681.251	-66.168	0.245	-0.098
-680.237	64.166	-0.231	-0.233
-679.222	-200.000	0.033	-0.166
-678.208	-67.095	-0.292	-0.116
-677.193	518.132	-0.147	-0.346
-676.178	-3.096	-0.274	-0.192
-675.164	423.539	-0.108	0.234
-674.149	800.000	-0.056	0.176
-673.135	-67.154	0.195	0.077
-672.120	504.173	0.093	-0.215
-671.105	-181.981	-0.378	0.007
-670.091	-80.676	-0.323	-0.108
-669.076	124.174	-0.111	-0.140
-668.062	72.797	0.087	0.091
-667.047	-200.000	-0.012	-0.057
-666.032	-66.464	-0.315	0.126
-665.018	-200.000	-0.023	-0.157
-664.003	-200.000	0.022	0.272
-662.989	203.514	-0.057	0.089
-661.974	-200.000	0.003	-0.285
-660.959	168.547	-0.273	0.391
-659.945	800.000	-0.024	0.077
-658.930	800.000	-0.038	-0.137
-657.916	-142.525	-0.328	0.032
-656.901	-200.000	0.524	0.001
-655.886	7.928	0.066	-0.050
-654.872	-115.355	-0.313	-0.059
-653.857	-53.994	0.127	-0.058
-652.843	800.000	-0.067	-0.254
-651.828	12.298	0.140	-0.108
-650.814	37.280	0.036	-0.032
-649.799	-102.231	0.305	0.074
-648.784	-26.650	-0.057	-0.033
-647.770	363.348	-0.088	-0.178
-646.755	-21.216	0.092	-0.056
-645.741	-16.295	0.174	-0.111
-644.726	46.897	0.196	0.182
-643.711	-200.000	0.036	-0.550
-642.697	297.382	-0.092	0.170
-641.682	218.840	0.116	-0.186
-640.668	25.059	0.249	-0.207
-639.653	22.999	0.134	-0.110
-638.638	800.000	-0.045	-0.167
-637.624	-200.000	0.021	-0.204
-636.609	-138.100	0.055	-0.006
-635.595	40.897	0.151	0.137
-634.580	614.220	0.092	-0.231
-633.565	99.947	-0.066	-0.076
-632.551	80.006	-0.147	-0.159
-631.536	4.128	0.093	-0.068
-630.522	800.000	0.046	-0.173
-629.507	-181.924	-0.341	0.006
-628.492	456.282	0.121	0.270
-627.478	-200.000	-0.015	-0.126
-626.463	-53.938	-0.100	0.046
-625.449	-1.924	-0.165	-0.116
-624.434	27.586	-0.163	0.137
-623.419	175.713	0.084	-0.122
-622.405	-189.141	0.056	0.001
-621.390	45.559	-0.272	0.252
-620.376	214.370	0.112	-0.177
-619.361	-200.000	0.018	-0.249
-618.346	-200.000	0.000	-0.069
-617.332	117.505	0.074	-0.092
-616.317	-87.405	-0.217	-0.066
-615.303	213.892	-0.122	0.193
-614.288	800.000	0.102	0.437
-613.273	47.972	0.238	-0.222
-612.259	-58.104	0.150	-0.065
-611.244	-200.000	0.002	-0.119
-610.230	-90.931	-0.290	-0.084
-609.215	-10.379	-0.290	-0.193
-608.201	800.000	-0.058	0.211
-607.186	106.181	-0.209	0.248
-606.171	-128.871	-0.114	0.016
-605.157	12.150	0.040	-0.031
-604.142	199.469	0.249	-0.382
-603.128	57.298	-0.212	-0.207
-602.113	3.212	-0.252	-0.184
-601.098	760.675	0.040	-0.109
-600.084	-72.567	-0.282	0.104
-599.069	800.000	-0.089	-0.266
-598.055	-97.720	0.315	-0.082
-597.040	-179.641	0.244	0.005
-596.025	-200.000	0.010	0.411
-595.011	800.000	-0.066	0.183
-593.996	-105.126	-0.111	0.025
-592.982	-135.457	-0.265	0.032
-591.967	-200.000	-0.000	0.293
-590.952	257.994	0.214	0.369
-589.938	-125.065	0.211	-0.032
-588.923	-0.394	-0.122	-0.087
-587.909	708.972	-0.065	-0.173
-586.894	-81.643	0.179	0.059
-585.879	-200.000	-0.008	-0.116
-584.865	159.996	-0.170	-0.237
-583.850	-109.373	0.115	0.024
-582.836	800.000	0.072	0.269
-581.821	-113.168	-0.342	-0.067
-580.806	-21.890	-0.066	-0.040
-579.792	-57.256	-0.282	-0.124
-578.777	257.988	-0.035	-0.060
-577.763	-54.860	-0.085	0.038
-576.748	-200.000	0.002	-0.065
-575.733	-28.477	-0.252	-0.145
-574.719	-200.000	-0.051	-0.356
-573.704	379.935	0.066	0.136
-572.690	-79.387	-0.195	-0.066
-571.675	-31.262	0.133	-0.075
-570.661	92.062	-0.090	-0.102
-569.646	34.151	-0.111	-0.097
-568.631	-61.198	0.040	0.017
-567.617	800.000	-0.085	0.272
-566.602	457.518	0.056	-0.125
-565.588	800.000	0.122	-0.355
-564.573	800.000	-0.085	0.255
-563.558	-99.570	0.225	0.056
-562.544	-20.018	-0.163	-0.101
-561.529	57.637	-0.091	-0.089
-560.515	21.167	-0.158	0.128
-559.500	-88.194	0.269	0.081
-558.485	-153.163	0.274	-0.019
-557.471	-200.000	0.030	0.155
-556.456	-94.331	0.236	0.064
-555.442	-200.000	0.003	-0.239
-554.427	-96.648	-0.172	0.045
-553.412	69.384	-0.084	-0.086
-552.398	-107.697	0.172	0.038
-551.383	-138.564	0.210	0.023
-550.369	209.203	-0.042	-0.066
-549.354	40.617	0.128	0.116
-548.339	-141.215	0.027	0.003
-547.325	208.765	-0.155	0.243
-546.310	-63.953	0.084	-0.034
-545.296	-200.000	-0.039	-0.231
-544.281	-200.000	-0.055	-0.549
-543.266	-112.407	0.159	0.032
-542.252	-179.349	0.089	-0.002
-541.237	169.946	0.101	-0.144
-540.223	133.600	0.132	-0.170
-539.208	15.373	-0.180	-0.141
-538.193	183.180	-0.066	-0.097
-537.179	-200.000	0.012	-0.403
-536.164	-200.000	-0.479	-0.002
-535.150	-9.900	0.149	0.099
-534.135	-91.540	-0.264	0.075
-533.121	-200.000	0.098	0.000
-532.106	800.000	-0.101	0.376
-531.091	-46.573	0.134	0.065
-530.077	527.361	-0.186	0.438
-529.062	-87.822	0.030	-0.009
-528.048	-152.705	0.043	0.003
-527.033	-200.000	0.025	-0.362
-526.018	167.471	-0.135	-0.191
-525.004	20.316	0.162	0.131
-523.989	263.800	-0.077	-0.134
-522.975	531.693	-0.166	-0.391
-521.960	735.593	-0.104	-0.277
-520.945	-134.185	-0.195	0.024
-519.931	-90.088	0.219	0.064
-518.916	-9.047	-0.242	-0.162
-517.902	16.446	-0.198	-0.156
-516.887	136.392	0.064	0.084
-515.872	800.000	0.140	0.540
-514.858	508.670	-0.017	0.040
-513.843	65.343	-0.123	-0.124
-512.829	-56.438	-0.332	-0.147
-511.814	-132.799	0.306	0.039
-510.799	-200.000	0.022	0.111
-509.785	-88.274	0.277	0.083
-508.770	397.653	-0.046	0.096
-507.756	-107.234	-0.333	-0.073
-506.741	91.069	0.020	-0.022
-505.726	-52.599	0.213	0.098
-504.712	231.865	0.072	-0.118
-503.697	-31.620	0.549	0.308
-502.683	-53.084	-0.290	-0.133
-501.668	-104.481	0.205	0.047
-500.653	-200.000	0.014	-0.101
-499.639	-7.465	0.292	-0.197
-498.624	173.046	-0.057	-0.082
-497.610	-162.719	-0.210	-0.010
-496.595	260.283	-0.188	-0.323
-495.581	-187.966	0.228	0.003
-494.566	42.782	0.060	-0.055
-493.551	-200.000	0.010	-0.159
-492.537	-200.000	-0.046	-0.234
-491.522	-86.617	0.274	-0.084
-490.508	100.397	0.100	0.116
-489.493	119.010	0.034	-0.041
-488.478	50.809	-0.074	-0.070
-487.464	-103.009	-0.378	-0.089
-486.449	800.000	0.087	0.298
-485.435	800.000	-0.031	-0.130
-484.420	54.430	0.094	0.090
-483.405	135.965	-0.097	0.126
-482.391	169.568	-0.291	0.414
-481.376	-200.000	-0.032	0.328
-480.362	295.321	-0.148	-0.270
-479.347	-121.350	0.223	0.037
-478.332	-73.372	0.120	-0.044
-477.318	-2.006	0.193	0.135
-476.303	-124.172	-0.224	-0.035
-475.289	28.094	0.283	0.238
-474.274	-200.000	-0.011	-0.112
-473.259	-134.639	0.237	0.029
-472.245	651.684	-0.123	0.313
-471.230	510.973	-0.110	0.256
-470.216	800.000	-0.044	0.130
-469.201	-100.129	0.099	0.024
-468.186	234.350	0.168	0.275
-467.172	-101.144	0.200	0.049
-466.157	-76.615	-0.218	0.076
-465.143	63.459	0.144	0.144
-464.128	347.086	0.097	0.190
-463.113	800.000	-0.042	-0.123
-462.099	166.946	0.058	-0.082
-461.084	-30.908	0.265	-0.149
-460.070	62.658	0.136	0.136
-459.055	1.374	-0.133	0.096
-458.040	-28.724	0.228	0.131
-457.026	-93.928	-0.128	0.035
-456.011	800.000	-0.067	0.205
-454.997	73.237	-0.359	-0.374
-453.982	265.916	0.051	0.089
-452.968	148.089	0.026	0.036
-451.953	10.678	-0.272	0.206
-450.938	90.941	-0.267	-0.298
-449.924	-167.309	-0.165	-0.007
-448.909	414.494	-0.076	-0.162
-447.895	389.082	0.080	0.166
-446.880	-21.532	-0.171	-0.104
-445.865	182.919	-0.245	0.360
-444.851	-6.519	0.128	-0.087
-443.836	-200.000	-0.007	-0.063
-442.822	253.907	0.105	-0.178
-441.807	230.072	-0.034	0.055
-440.792	430.195	-0.053	0.115
-439.778	-47.652	0.408	0.197
-438.763	381.029	0.123	0.252
-437.749	-128.297	-0.135	-0.019
-436.734	445.240	-0.109	-0.239
-435.719	800.000	0.145	-0.447
-434.705	-157.758	-0.261	0.015
-433.690	-200.000	-0.032	0.326
-432.676	-200.000	-0.047	0.244
-431.661	528.574	0.168	-0.394
-430.646	-37.630	0.230	-0.122
-429.632	-106.850	-0.077	-0.017
-428.617	-70.871	0.136	-0.051
-427.603	-30.471	-0.135	-0.076
-426.588	-107.816	0.430	-0.093
-425.573	800.000	0.084	-0.273
-424.559	-48.121	0.343	-0.165
-423.544	73.006	0.163	0.170
-422.530	315.003	0.027	-0.050
-421.515	-51.506	0.047	0.022
-420.500	78.448	0.200	-0.212
-419.486	-27.051	0.450	0.261
-418.471	-7.326	0.204	-0.138
-417.457	-200.000	0.043	-0.223
-416.442	104.465	-0.226	0.264
-415.428	800.000	-0.018	-0.069
-414.413	-59.650	-0.206	-0.088
-413.398	86.023	0.115	0.126
-412.384	-200.000	0.001	0.228
-411.369	800.000	0.087	0.325
-410.355	54.644	0.387	0.371
-409.340	-200.000	0.059	-0.294
-408.325	42.167	-0.229	-0.206
-407.311	-30.765	0.353	-0.199
-406.296	446.751	0.110	-0.240
-405.282	800.000	-0.048	0.139
-404.267	-67.482	-0.047	0.018
-403.252	237.978	0.185	-0.306
-402.238	-200.000	0.019	0.223
-401.223	800.000	-0.101	-0.323
-400.209	-144.631	-0.132	-0.012
-399.194	-95.041	-0.126	-0.034
-398.179	161.724	-0.114	0.158
-397.165	800.000	0.131	0.408
-396.150	-20.687	-0.036	-0.022
-395.136	-28.730	-0.037	-0.021
-394.121	-200.000	0.017	0.222
-393.106	592.251	-0.154	0.377
-392.092	-200.000	-0.029	0.217
-391.077	-76.503	-0.105	0.037
-390.063	461.398	-0.186	0.411
-389.048	-141.974	-0.297	0.029
-388.033	-200.000	-0.028	-0.378
-387.019	269.557	-0.023	0.040
-386.004	63.402	0.027	0.027
-384.990	-200.000	-0.004	-0.269
-383.975	-186.483	-0.107	-0.002
-382.960	800.000	-0.063	0.259
-381.946	577.510	0.031	0.075
-380.931	-200.000	0.012	-0.147
-379.917	-51.625	-0.038	-0.018
-378.902	-103.590	0.360	-0.084
-377.888	-120.415	0.031	-0.005
-376.873	800.000	0.042	0.116
-375.858	-128.973	-0.360	-0.050
-374.844	-7.131	0.225	-0.151
-373.829	109.199	0.099	-0.118
-372.815	85.958	-0.136	0.148
-371.800	-22.235	-0.095	0.057
-370.785	-200.000	0.032	-0.566
-369.771	800.000	-0.038	-0.143
-368.756	-152.636	-0.248	0.018
-367.742	50.557	0.195	0.183
-366.727	-42.794	0.146	-0.074
-365.712	-80.516	0.302	-0.100
-364.698	299.080	0.207	0.377
-363.683	-30.323	-0.112	0.063
-362.669	795.489	0.065	-0.177
-361.654	85.489	-0.122	0.133
-360.639	492.702	0.226	-0.513
-359.625	132.423	-0.136	-0.174
-358.610	169.832	-0.130	0.184
-357.596	800.000	0.085	-0.363
-356.581	21.201	0.155	-0.125
-355.566	-144.892	-0.403	-0.037
-354.552	212.511	0.203	-0.317
-353.537	61.408	-0.154	0.152
-352.523	-129.998	-0.047	-0.006
-351.508	-200.000	0.003	-0.064
-350.493	-5.810	-0.406	0.276
-349.479	22.554	-0.059	0.048
-348.464	800.000	0.057	0.213
-347.450	800.000	0.044	-0.162
-346.435	800.000	-0.087	-0.240
-345.420	207.353	-0.130	0.200
-344.406	132.215	0.202	-0.258
-343.391	-125.802	-0.322	0.048
-342.377	-3.764	-0.239	-0.165
-341.362	-118.480	0.399	-0.070
-340.348	679.980	0.112	0.289
-339.333	-200.000	-0.024	0.184
-338.318	-51.167	-0.126	0.059
-337.304	-53.369	0.189	0.086
-336.289	313.906	-0.021	-0.039
-335.275	108.292	-0.290	0.343
-334.260	83.399	0.132	-0.143
-333.245	-143.557	0.264	0.025
-332.231	800.000	0.064	0.189
-331.216	-82.654	-0.059	-0.019
-330.202	-200.000	0.067	-0.405
-329.187	88.114	0.217	-0.238
-328.172	14.996	0.073	-0.056
-327.158	240.311	-0.092	-0.152
-326.143	-124.412	-0.112	0.017
-325.129	8.595	-0.198	-0.148
-324.114	37.622	-0.129	-0.113
-323.099	-17.847	-0.148	0.092
-322.085	363.651	0.140	-0.280
-321.070	277.841	-0.132	0.232
-320.056	63.025	-0.212	0.211
-319.041	626.167	-0.063	-0.159
-318.026	-200.000	0.005	0.320
-317.012	-76.893	-0.169	0.059
-315.997	-167.493	0.099	0.004
-314.983	-176.253	0.259	-0.007
-313.968	-200.000	0.022	0.257
-312.953	-30.115	0.075	0.042
-311.939	-43.279	0.108	0.054
-310.924	-125.164	0.218	0.033
-309.910	-46.098	-0.339	0.165
-308.895	122.707	0.081	0.100
-307.880	2.030	0.176	-0.126
-306.866	317.602	0.160	-0.300
-305.851	749.515	0.046	-0.124
-304.837	28.345	-0.178	0.149
-303.822	-96.653	-0.200	0.052
-302.807	30.893	0.175	0.149
-301.793	-200.000	-0.065	0.393
-300.778	-80.889	-0.166	0.054
-299.764	-200.000	0.015	-0.240
-298.749	800.000	0.074	-0.296
-297.735	-125.720	-0.126	0.019
-296.720	-129.243	-0.166	-0.023
-295.705	82.973	0.123	-0.132
-294.691	800.000	-0.046	0.175
-293.676	458.694	-0.075	0.164
-292.662	13.050	0.141	-0.108
-291.647	-200.000	0.023	0.360
-290.632	150.037	-0.033	0.044
-289.618	-167.768	-0.408	0.016
-288.603	-200.000	0.005	0.045
-287.589	800.000	-0.064	0.186
-286.574	-28.816	-0.070	0.040
-285.559	318.200	-0.185	-0.347
-284.545	-96.429	0.138	0.036
-283.530	742.582	0.098	-0.260
-282.516	-19.663	-0.250	0.153
-281.501	29.344	-0.095	-0.080
-280.486	81.054	-0.159	0.170
-279.472	-29.258	0.181	0.103
-278.457	53.076	-0.140	0.133
-277.443	50.739	0.144	-0.135
-276.428	1.815	0.194	-0.138
-275.413	-200.000	0.015	-0.351
-274.399	-40.040	-0.241	0.124
-273.384	800.000	-0.028	-0.092
-272.370	-66.168	-0.416	-0.164
-271.355	-64.692	-0.081	-0.032
-270.340	-179.138	-0.173	0.004
-269.326	145.677	0.071	-0.094
-268.311	-67.980	-0.186	-0.072
-267.297	78.747	0.145	-0.154
-266.282	-200.000	-0.055	0.339
-265.267	44.046	-0.202	0.183
-264.253	800.000	0.093	0.309
-263.238	683.402	0.123	-0.317
-262.224	-200.000	-0.074	0.453
-261.209	125.195	-0.303	0.378
-260.195	-155.123	0.363	-0.023
-259.180	283.965	-0.085	-0.150
-258.165	-200.000	0.032	-0.261
-257.151	398.831	0.100	-0.208
-256.136	55.526	0.135	0.130
-255.122	76.226	0.197	0.206
-254.107	-65.529	0.044	0.018
-253.092	-200.000	0.023	0.120
-252.078	505.859	0.051	-0.118
-251.063	-11.969	-0.119	0.077
-250.049	-11.307	0.365	0.237
-249.034	192.974	0.027	-0.040
-248.019	-101.324	-0.170	0.041
-247.005	-200.000	-0.005	-0.065
-245.990	269.310	-0.116	0.201
-244.976	-18.188	-0.055	0.034
-243.961	-200.000	-0.125	0.810
-242.946	800.000	-0.083	0.275
-241.932	43.640	-0.246	-0.222
-240.917	233.333	-0.115	0.187
-239.903	800.000	0.067	0.238
-238.888	-87.246	-0.134	-0.040
-237.873	-127.765	0.163	0.023
-236.859	177.140	0.035	-0.050
-235.844	247.629	0.025	0.042
-234.830	428.357	0.113	-0.241
-233.815	405.014	0.107	-0.223
-232.800	8.536	-0.177	0.132
-231.786	52.859	0.173	-0.163
-230.771	-154.571	0.069	-0.005
-229.757	-34.801	0.040	0.021
-228.742	-200.000	-0.014	0.291
-227.727	-200.000	0.064	0.288
-226.713	-187.558	0.356	0.005
-225.698	800.000	0.096	0.282
-224.684	-200.000	0.007	-0.108
-223.669	448.388	-0.130	-0.282
-222.655	82.408	0.136	-0.146
-221.640	346.578	-0.107	-0.208
-220.625	344.684	0.034	-0.066
-219.611	-47.842	0.063	0.030
-218.596	125.956	-0.066	0.083
-217.582	289.805	-0.132	0.235
-216.567	-108.811	0.299	0.063
-215.552	-59.653	0.210	-0.089
-214.538	-184.921	-0.072	-0.001
-213.523	249.825	-0.072	-0.120
-212.509	-26.317	0.119	-0.069
-211.494	-200.000	-0.023	-0.130
-210.479	800.000	0.065	-0.256
-209.465	40.657	-0.070	0.062
-208.450	-62.539	0.325	-0.133
-207.436	-82.059	-0.122	0.039
-206.421	504.898	-0.109	0.250
-205.406	344.986	-0.113	0.219
-204.392	197.638	-0.197	0.297
-203.377	-96.576	-0.266	0.069
-202.363	800.000	-0.067	0.231
-201.348	-64.229	-0.213	0.085
-200.333	84.290	0.206	0.222
-199.319	800.000	-0.081	0.278
-198.304	85.791	-0.243	0.263
-197.290	-167.078	0.214	0.009
-196.275	800.000	-0.050	-0.178
-195.260	443.596	0.080	-0.174
-194.246	89.777	0.140	0.155
-193.231	511.092	0.077	-0.176
-192.217	18.541	0.261	0.206
-191.202	-23.869	0.358	-0.211
-190.187	215.233	-0.170	-0.265
-189.173	139.080	0.023	-0.030
-188.158	29.534	-0.060	-0.051
-187.144	258.768	-0.135	-0.229
-186.129	176.579	-0.125	0.179
-185.114	84.275	0.038	-0.041
-184.100	800.000	-0.090	0.262
-183.085	-149.689	0.462	-0.036
-182.071	-129.494	0.064	0.009
-181.056	9.832	-0.141	0.105
-180.042	-136.482	-0.005	0.001
-179.027	-84.418	0.363	-0.113
-178.012	-90.244	0.158	0.045
-176.998	-122.645	0.272	-0.043
-175.983	800.000	0.041	0.154
-174.969	112.760	0.151	-0.180
-173.954	800.000	-0.083	0.305
-172.939	220.235	-0.139	0.219
-171.925	-200.000	0.085	0.439
-170.910	-59.802	-0.230	0.097
-169.896	800.000	-0.092	-0.351
-168.881	-83.465	0.195	0.062
-167.866	-200.000	-0.064	-0.395
-166.852	-23.360	-0.485	-0.287
-165.837	728.092	0.073	0.191
-164.823	-152.122	0.547	-0.039
-163.808	6.472	-0.252	0.184
-162.793	55.532	-0.004	-0.004
-161.779	-53.135	0.139	-0.063
-160.764	800.000	-0.016	0.057
-159.750	43.588	-0.192	-0.172
-158.735	-116.007	-0.241	-0.044
-157.720	800.000	0.075	0.299
-156.706	248.894	0.089	-0.148
-155.691	-79.901	0.284	-0.094
-154.677	-49.348	-0.085	0.040
-153.662	-200.000	-0.038	0.306
-152.647	77.848	-0.163	0.171
-151.633	800.000	-0.100	-0.380
-150.618	261.036	-0.100	-0.170
-149.604	-76.942	-0.283	-0.097
-148.589	-78.635	0.325	0.109
-147.574	-54.183	-0.111	-0.050
-146.560	82.803	0.084	0.090
-145.545	-65.542	0.286	0.113
-144.531	-200.000	-0.008	0.095
-143.516	58.837	-0.160	-0.154
-142.502	-16.077	0.036	0.022
-141.487	48.948	-0.143	-0.132
-140.472	-30.173	-0.185	0.103
-139.458	-200.000	-0.002	0.012
-138.443	-42.992	0.196	0.098
-137.429	145.758	-0.208	-0.274
-136.414	-49.151	0.017	0.008
-135.399	-104.588	-0.329	-0.075
-134.385	55.164	0.067	-0.063
-133.370	800.000	-0.075	-0.269
-132.356	-200.000	-0.014	0.128
-131.341	308.363	-0.054	0.100
-130.326	60.099	-0.155	0.151
-129.312	386.782	-0.066	0.135
-128.297	224.346	0.251	0.398
-127.283	800.000	0.063	0.185
-126.268	317.984	0.134	-0.249
-125.253	-127.713	0.375	-0.053
-124.239	185.896	0.076	0.111
-123.224	-123.307	0.438	-0.069
-122.210	75.343	0.189	-0.195
-121.195	-140.219	-0.300	-0.031
