DTS Sentinel unit serial number:	SN413079Multiplexer serial number:	ORYXHardware model number:	OX4-SRSoftware version number:	ORYX F/W v4.00 Oryx Data Collector v3.7.2.0data status	okinstallation	princeton_trtdifferential loss correction	single-endedforward channel	channel 3reverse channel	N/Adate	2019/09/12time	00:42:11forward acquisition time	60.00reverse acquisition time	0.00gamma	496.2192k internal	0.2319k external	0.2319temperature offset calibration	1.0065default loss term (dB/km)	0.3790temperature slope calibration	1.0000multiplexer offset coefficient	1.0000multiplexer slope coefficient	1.0000fibre end	0.00T internal ref (°C)	33.31T ext. ref 1 (°C)	2.07T ext. ref 2 (°C)	28.06length (m)	temperature (°C)	Stokes	anti-Stokes-747.200	-200.000	-0.005	0.288
-746.185	800.000	-0.138	0.403
-745.171	423.066	-0.133	0.289
-744.156	25.898	-0.144	0.121
-743.142	-200.000	-0.001	-0.152
-742.127	-200.000	-0.011	0.424
-741.112	-37.140	-0.172	-0.093
-740.098	-11.664	-0.302	-0.201
-739.083	43.657	-0.151	0.140
-738.069	210.307	-0.115	0.182
-737.054	-77.700	0.078	-0.027
-736.039	137.270	-0.066	-0.088
-735.025	-51.666	0.330	-0.156
-734.010	-196.252	-0.419	-0.003
-732.996	36.846	0.216	-0.193
-731.981	-200.000	0.036	-0.274
-730.966	-46.569	-0.337	0.167
-729.952	-68.056	-0.188	-0.074
-728.937	106.775	-0.072	-0.087
-727.923	472.468	-0.091	-0.208
-726.908	-200.000	-0.000	0.234
-725.894	-200.000	0.030	-0.250
-724.879	256.354	-0.147	-0.255
-723.864	102.584	0.057	-0.067
-722.850	-119.271	-0.168	-0.030
-721.835	515.572	-0.079	-0.188
-720.821	337.654	0.203	-0.399
-719.806	76.657	-0.132	0.142
-718.791	133.351	-0.135	0.177
-717.777	-141.341	-0.281	-0.029
-716.762	234.398	0.372	-0.621
-715.748	-161.823	-0.178	-0.009
-714.733	-200.000	-0.027	0.151
-713.718	-77.796	-0.295	0.103
-712.704	173.979	0.176	-0.257
-711.689	16.381	-0.286	-0.228
-710.675	-29.371	0.417	-0.241
-709.660	13.004	0.079	0.061
-708.645	272.211	-0.243	0.432
-707.631	174.854	0.060	-0.088
-706.616	429.026	-0.115	0.252
-705.602	800.000	-0.070	-0.305
-704.587	-0.379	-0.259	0.186
-703.572	-146.230	0.129	0.011
-702.558	-200.000	0.037	0.182
-701.543	-117.082	0.242	-0.045
-700.529	-129.250	-0.168	-0.024
-699.514	-29.217	0.115	0.067
-698.499	-200.000	-0.008	0.078
-697.485	-59.633	-0.115	-0.050
-696.470	-71.232	0.027	-0.010
-695.456	212.362	-0.178	-0.284
-694.441	35.016	0.173	0.153
-693.426	-87.896	-0.164	-0.050
-692.412	356.127	-0.173	0.348
-691.397	140.475	0.158	0.210
-690.383	-135.388	-0.040	0.005
-689.368	800.000	0.067	-0.296
-688.354	-38.995	0.158	0.084
-687.339	800.000	0.116	-0.511
-686.324	214.423	-0.116	-0.185
-685.310	-200.000	-0.027	0.158
-684.295	160.240	-0.079	-0.111
-683.281	-200.000	-0.067	0.437
-682.266	-143.262	0.342	-0.033
-681.251	-200.000	-0.024	-0.185
-680.237	-200.000	-0.013	0.334
-679.222	231.895	-0.200	-0.332
-678.208	115.282	-0.249	-0.307
-677.193	800.000	0.104	-0.358
-676.178	800.000	-0.046	0.164
-675.164	10.778	-0.062	-0.048
-674.149	-200.000	0.001	-0.263
-673.135	-6.751	-0.103	-0.071
-672.120	800.000	-0.021	-0.077
-671.105	-35.081	-0.163	-0.089
-670.091	-65.208	0.180	-0.073
-669.076	-74.284	-0.081	-0.029
-668.062	-200.000	0.025	-0.486
-667.047	800.000	-0.058	-0.180
-666.032	45.473	-0.261	0.243
-665.018	181.606	0.167	-0.248
-664.003	152.203	-0.147	0.202
-662.989	-111.272	-0.314	-0.065
-661.974	-64.224	-0.037	-0.015
-660.959	106.728	-0.195	0.234
-659.945	-56.076	-0.405	-0.182
-658.930	409.815	-0.030	-0.064
-657.916	-133.130	-0.046	0.006
-656.901	-85.918	-0.256	0.080
-655.886	-200.000	-0.051	-0.277
-654.872	301.302	0.094	-0.175
-653.857	82.579	0.054	0.059
-652.843	-110.450	-0.258	-0.054
-651.828	-42.062	0.121	0.062
-650.814	-159.901	-0.367	-0.020
-649.799	800.000	0.059	0.212
-648.784	224.264	0.180	-0.293
-647.770	-200.000	-0.007	-0.231
-646.755	-109.610	0.241	-0.051
-645.741	-200.000	0.003	-0.501
-644.726	38.756	0.180	0.162
-643.711	-123.701	-0.138	-0.022
-642.697	221.561	-0.289	0.468
-641.682	-200.000	0.067	0.313
-640.668	800.000	0.079	-0.314
-639.653	800.000	-0.085	-0.248
-638.638	-39.633	0.061	-0.032
-637.624	-120.466	-0.227	-0.039
-636.609	119.281	0.169	-0.210
-635.595	-146.535	-0.080	0.007
-634.580	-7.841	-0.281	0.191
-633.565	115.110	-0.113	-0.139
-632.551	264.304	0.201	0.353
-631.536	-107.218	-0.329	0.073
-630.522	44.233	0.048	0.045
-629.507	-187.136	-0.348	0.005
-628.492	27.148	0.133	0.113
-627.478	-62.828	0.076	-0.032
-626.463	-113.036	-0.192	0.038
-625.449	-200.000	-0.026	0.214
-624.434	365.406	-0.101	-0.205
-623.419	-73.224	-0.259	-0.095
-622.405	-79.501	0.151	-0.051
-621.390	-42.303	-0.400	0.205
-620.376	800.000	0.054	-0.229
-619.361	-200.000	-0.033	-0.236
-618.346	719.159	0.096	-0.256
-617.332	197.407	-0.049	-0.076
-616.317	376.522	0.150	-0.308
-615.303	800.000	-0.059	0.202
-614.288	-200.000	-0.032	0.146
-613.273	-200.000	-0.022	-0.140
-612.259	-38.178	-0.258	-0.138
-611.244	40.219	-0.368	0.333
-610.230	-200.000	0.111	0.000
-609.215	-70.287	-0.124	0.047
-608.201	800.000	0.009	-0.030
-607.186	-116.614	-0.227	-0.042
-606.171	155.603	-0.142	-0.196
-605.157	145.173	0.173	0.233
-604.142	83.172	-0.198	0.217
-603.128	-29.351	-0.137	-0.079
-602.113	800.000	-0.055	0.228
-601.098	800.000	-0.037	0.151
-600.084	-200.000	0.007	-0.060
-599.069	-200.000	0.024	-0.116
-598.055	-0.227	0.252	0.180
-597.040	179.715	-0.148	-0.217
-596.025	-152.983	0.106	-0.008
-595.011	-200.000	0.050	-0.226
-593.996	-13.124	-0.204	0.133
-592.982	-200.000	0.069	-0.345
-591.967	71.672	0.211	0.221
-590.952	-144.784	0.260	-0.024
-589.938	18.296	0.036	0.029
-588.923	800.000	-0.116	0.322
-587.909	-1.098	0.274	-0.195
-586.894	-30.133	0.175	-0.100
-585.879	-3.886	-0.094	-0.066
-584.865	-25.727	0.330	-0.196
-583.850	609.044	-0.094	-0.237
-582.836	109.407	0.184	-0.222
-581.821	129.699	-0.159	-0.204
-580.806	-78.731	0.247	-0.085
-579.792	-125.174	-0.199	-0.031
-578.777	-13.739	-0.333	0.217
-577.763	83.162	0.255	-0.279
-576.748	-46.035	-0.025	0.013
-575.733	57.051	0.076	-0.075
-574.719	62.372	0.201	-0.201
-573.704	-77.105	-0.266	-0.093
-572.690	800.000	-0.121	0.358
-571.675	56.215	0.169	-0.165
-570.661	132.670	-0.193	0.250
-569.646	-164.191	0.319	-0.015
-568.631	326.368	0.055	0.106
-567.617	-45.376	-0.260	0.130
-566.602	-80.746	0.260	-0.087
-565.588	41.924	-0.260	-0.237
-564.573	341.140	0.096	0.189
-563.558	70.568	0.052	-0.054
-562.544	-200.000	0.020	-0.200
-561.529	278.576	0.165	0.295
-560.515	153.851	-0.010	-0.014
-559.500	-79.881	0.235	0.080
-558.485	242.302	-0.045	0.075
-557.471	330.274	-0.085	0.164
-556.456	34.084	-0.162	0.141
-555.442	-66.178	-0.170	0.068
-554.427	48.580	-0.075	-0.070
-553.412	-150.242	0.216	0.017
-552.398	389.343	0.077	0.160
-551.383	-200.000	0.340	0.001
-550.369	517.030	0.080	0.188
-549.354	800.000	0.033	-0.104
-548.339	297.192	0.133	0.246
-547.325	17.997	0.212	0.170
-546.310	-154.352	-0.239	-0.016
-545.296	59.162	0.072	0.071
-544.281	328.194	-0.098	-0.189
-543.266	-133.898	0.148	0.018
-542.252	10.901	0.125	0.096
-541.237	357.681	-0.081	-0.162
-540.223	261.945	0.110	0.191
-539.208	76.506	-0.099	-0.105
-538.193	294.313	0.069	-0.126
-537.179	-50.859	-0.112	0.053
-536.164	-169.305	-0.299	-0.011
-535.150	67.143	-0.252	0.258
-534.135	615.097	0.128	0.321
-533.121	-50.769	-0.172	-0.081
-532.106	106.726	-0.167	0.199
-531.091	800.000	-0.062	-0.228
-530.077	193.995	-0.166	-0.253
-529.062	-36.627	0.099	-0.053
-528.048	221.811	0.183	0.294
-527.033	800.000	-0.144	-0.398
-526.018	711.420	-0.055	-0.145
-525.004	800.000	-0.031	0.094
-523.989	-152.003	-0.084	-0.006
-522.975	379.631	-0.129	0.266
-521.960	3.498	-0.136	0.100
-520.945	78.783	-0.308	-0.331
-519.931	-200.000	0.023	0.116
-518.916	179.656	0.158	-0.233
-517.902	183.004	-0.340	-0.504
-516.887	-26.404	-0.029	-0.017
-515.872	6.373	0.250	0.186
-514.858	-55.660	-0.105	-0.047
-513.843	351.696	0.113	-0.225
-512.829	-135.301	-0.146	0.018
-511.814	0.760	-0.167	-0.120
-510.799	27.222	0.343	-0.289
-509.785	800.000	-0.049	-0.141
-508.770	-200.000	0.017	-0.201
-507.756	13.414	-0.215	0.167
-506.741	800.000	-0.036	-0.117
-505.726	185.921	0.019	0.028
-504.712	800.000	0.060	0.196
-503.697	-109.724	-0.399	-0.084
-502.683	156.439	0.063	-0.088
-501.668	-15.405	-0.249	-0.159
-500.653	-200.000	-0.059	0.459
-499.639	24.559	0.208	-0.172
-498.624	-200.000	0.031	-0.215
-497.610	-200.000	0.030	-0.188
-496.595	800.000	0.078	-0.273
-495.581	-129.990	0.283	-0.039
-494.566	-72.369	-0.286	-0.106
-493.551	-1.550	0.329	-0.233
-492.537	-200.000	0.047	-0.369
-491.522	-200.000	-0.016	0.166
-490.508	331.763	-0.219	-0.424
-489.493	-200.000	-0.070	0.371
-488.478	-102.171	-0.149	-0.036
-487.464	-130.072	-0.147	-0.020
-486.449	83.497	-0.109	0.119
-485.435	50.362	0.129	0.122
-484.420	17.906	-0.188	0.150
-483.405	-67.467	0.094	0.037
-482.391	-111.342	0.065	-0.013
-481.376	196.577	0.061	-0.092
-480.362	-200.000	-0.016	-0.185
-479.347	-200.000	0.028	0.245
-478.332	196.084	0.083	0.126
-477.318	246.714	0.003	-0.005
-476.303	342.287	0.124	-0.242
-475.289	-91.274	0.457	0.131
-474.274	62.207	-0.108	0.108
-473.259	664.222	0.102	-0.265
-472.245	-200.000	-0.012	-0.274
-471.230	800.000	-0.017	-0.064
-470.216	-200.000	-0.010	0.182
-469.201	-17.501	-0.098	-0.062
-468.186	-68.013	-0.157	0.061
-467.172	-2.778	-0.114	-0.080
-466.157	-108.261	0.137	0.030
-465.143	-2.697	0.144	-0.101
-464.128	-2.472	-0.325	0.228
-463.113	-122.947	-0.056	-0.009
-462.099	108.251	-0.146	-0.174
-461.084	-79.091	0.188	-0.064
-460.070	-200.000	0.004	-0.387
-459.055	-33.014	0.099	-0.055
-458.040	32.140	-0.098	-0.084
-457.026	800.000	0.055	-0.165
-456.011	-33.839	0.237	0.131
-454.997	-58.559	-0.075	-0.033
-453.982	196.585	-0.069	0.105
-452.968	-113.049	0.252	-0.050
-451.953	-200.000	-0.057	0.248
-450.938	118.563	-0.139	0.172
-449.924	341.699	0.107	-0.210
-448.909	800.000	-0.019	-0.060
-447.895	468.059	-0.113	0.254
-446.880	-172.566	0.172	-0.005
-445.865	63.296	0.099	-0.099
-444.851	-124.194	0.236	-0.037
-443.836	-200.000	0.033	0.294
-442.822	199.819	0.159	-0.244
-441.807	-69.436	-0.367	-0.141
-440.792	-137.904	-0.401	0.045
-439.778	800.000	0.036	-0.150
-438.763	-72.403	0.275	0.102
-437.749	357.892	-0.141	-0.282
-436.734	228.268	-0.082	-0.133
-435.719	-72.836	0.192	-0.071
-434.705	130.018	-0.223	0.285
-433.690	10.186	-0.006	-0.005
-432.676	286.524	0.109	0.197
-431.661	-52.351	0.204	0.095
-430.646	464.720	-0.107	-0.238
-429.632	-94.623	-0.166	-0.045
-428.617	800.000	0.041	-0.179
-427.603	-200.000	0.001	0.175
-426.588	-95.964	0.190	0.051
-425.573	800.000	-0.034	-0.098
-424.559	-46.547	0.386	-0.189
-423.544	613.321	0.082	-0.205
-422.530	-16.678	0.103	-0.065
-421.515	41.839	0.251	-0.227
-420.500	200.803	-0.034	0.053
-419.486	800.000	-0.067	0.207
-418.471	44.340	-0.062	0.057
-417.457	-71.948	0.075	0.028
-416.442	-131.470	0.187	-0.025
-415.428	-126.421	0.266	0.040
-414.413	85.459	-0.119	0.131
-413.398	-200.000	-0.011	-0.159
-412.384	89.632	-0.066	0.074
-411.369	82.045	0.201	-0.218
-410.355	713.025	0.040	-0.106
-409.340	-200.000	0.024	0.170
-408.325	-200.000	-0.025	-0.254
-407.311	-18.364	-0.423	-0.264
-406.296	-200.000	-0.017	-0.084
-405.282	211.793	-0.108	-0.169
-404.267	-105.055	0.088	0.020
-403.252	81.205	-0.171	-0.185
-402.238	-200.000	-0.038	0.178
-401.223	8.593	0.184	0.139
-400.209	-33.593	-0.132	0.073
-399.194	294.382	0.183	0.334
-398.179	-33.689	-0.168	-0.093
-397.165	800.000	0.106	0.412
-396.150	258.355	-0.105	-0.180
-395.136	-71.875	0.196	0.073
-394.121	16.992	0.147	-0.116
-393.106	424.830	-0.143	0.306
-392.092	-200.000	-0.078	0.382
-391.077	45.788	0.197	0.182
-390.063	128.581	0.137	-0.174
-389.048	-158.938	0.174	-0.010
-388.033	-200.000	-0.020	-0.098
-387.019	94.312	0.130	0.147
-386.004	-200.000	-0.048	0.268
-384.990	17.097	0.047	0.037
-383.975	565.472	0.053	-0.129
-382.960	-98.931	0.047	0.012
-381.946	32.057	-0.021	-0.018
-380.931	87.672	0.177	0.196
-379.917	800.000	-0.037	-0.149
-378.902	-100.244	0.276	-0.068
-377.888	133.165	0.245	-0.315
-376.873	286.896	-0.102	-0.184
-375.858	800.000	-0.049	0.148
-374.844	-156.095	-0.118	0.007
-373.829	9.861	-0.162	-0.123
-372.815	744.974	0.036	-0.096
-371.800	55.498	-0.192	0.186
-370.785	427.077	-0.071	-0.153
-369.771	-66.351	-0.286	-0.113
-368.756	-200.000	-0.048	-0.272
-367.742	-200.000	0.006	0.133
-366.727	-5.276	-0.130	0.089
-365.712	-111.396	-0.097	0.020
-364.698	666.908	-0.123	-0.317
-363.683	-128.061	-0.211	-0.030
-362.669	104.182	0.155	0.182
-361.654	-135.544	-0.114	0.014
-360.639	117.589	-0.151	-0.185
-359.625	712.938	-0.104	-0.275
-358.610	217.068	0.121	-0.193
-357.596	116.177	-0.043	0.053
-356.581	-98.922	-0.254	0.064
-355.566	-141.659	0.262	0.026
-354.552	-200.000	-0.000	-0.213
-353.537	4.166	-0.147	-0.107
-352.523	-200.000	-0.007	0.134
-351.508	467.824	-0.037	0.082
-350.493	74.105	-0.095	0.099
-349.479	136.823	0.156	-0.203
-348.464	21.371	0.269	0.217
-347.450	800.000	0.096	-0.337
-346.435	-200.000	-0.060	-0.264
-345.420	598.654	0.054	-0.133
-344.406	-200.000	-0.022	-0.421
-343.391	-200.000	-0.003	0.035
-342.377	-95.066	0.145	0.039
-341.362	-200.000	0.001	-0.033
-340.348	800.000	-0.108	0.312
-339.333	-130.758	0.154	0.021
-338.318	-109.613	0.058	0.012
-337.304	413.064	0.037	-0.078
-336.289	-50.636	0.054	0.025
-335.275	-200.000	-0.019	0.117
-334.260	-72.994	-0.529	0.193
-333.245	-123.662	0.119	0.019
-332.231	800.000	-0.093	0.292
-331.216	-159.752	-0.104	0.006
-330.202	-200.000	0.001	-0.254
-329.187	-113.020	0.090	0.018
-328.172	358.861	-0.094	0.187
-327.158	-129.371	0.192	-0.026
-326.143	-200.000	-0.019	0.206
-325.129	-149.468	0.051	0.004
-324.114	0.042	0.182	0.129
-323.099	553.951	0.071	-0.171
-322.085	-200.000	-0.032	0.182
-321.070	-39.678	0.327	0.170
-320.056	-200.000	-0.022	0.298
-319.041	95.467	-0.049	0.055
-318.026	468.539	0.103	0.230
-317.012	-200.000	-0.011	-0.228
-315.997	434.153	0.033	0.072
-314.983	425.590	0.168	0.360
-313.968	-45.497	-0.194	0.096
-312.953	-56.645	-0.109	-0.048
-311.939	342.593	0.090	-0.176
-310.924	566.207	0.151	-0.365
-309.910	-177.500	0.400	-0.010
-308.895	302.183	0.125	-0.230
-307.880	-157.789	0.122	-0.007
-306.866	-77.402	-0.178	-0.061
-305.851	4.323	-0.281	-0.205
-304.837	545.262	-0.088	0.209
-303.822	-200.000	-0.004	0.038
-302.807	-129.426	-0.243	-0.033
-301.793	-200.000	0.041	0.220
-300.778	20.773	-0.334	0.269
-299.764	-200.000	-0.013	0.144
-298.749	-148.593	0.338	-0.027
-297.735	-38.162	0.094	-0.049
-296.720	-63.191	0.302	0.124
-295.705	307.102	0.029	0.053
-294.691	737.316	0.106	0.281
-293.676	-68.135	-0.384	0.148
-292.662	24.662	0.226	-0.186
-291.647	-9.252	0.374	0.248
-290.632	16.751	-0.075	0.059
-289.618	741.618	-0.045	-0.120
-288.603	-40.412	-0.344	0.178
-287.589	-131.366	0.221	-0.029
-286.574	-200.000	0.005	-0.048
-285.559	-66.569	-0.486	-0.192
-284.545	-200.000	-0.051	-0.392
-283.530	24.429	-0.200	-0.164
-282.516	-42.786	0.260	0.131
-281.501	1.514	-0.219	0.156
-280.486	-39.572	0.280	-0.146
-279.472	-70.472	-0.072	0.027
-278.457	-44.160	0.258	0.129
-277.443	591.492	0.085	-0.207
-276.428	800.000	0.035	0.113
-275.413	800.000	-0.063	-0.260
-274.399	-13.069	-0.113	-0.073
-273.384	-200.000	0.064	0.356
-272.370	-59.247	-0.175	-0.075
-271.355	82.894	-0.153	-0.165
-270.340	37.877	-0.292	-0.257
-269.326	-133.872	-0.437	-0.054
-268.311	208.242	0.113	0.175
-267.297	65.331	-0.088	-0.088
-266.282	800.000	-0.084	0.364
-265.267	448.712	-0.047	0.104
-264.253	-104.928	0.057	-0.013
-263.238	-165.483	-0.129	-0.006
-262.224	186.840	-0.093	0.138
-261.209	-200.000	-0.005	0.081
-260.195	-20.677	-0.133	-0.081
-259.180	-124.813	-0.274	-0.042
-258.165	-36.192	-0.152	0.081
-257.151	136.337	-0.175	0.226
-256.136	32.546	0.128	0.110
-255.122	-53.357	0.152	0.069
-254.107	63.007	0.130	0.129
-253.092	265.061	-0.059	-0.103
-252.078	-128.591	0.269	0.038
-251.063	9.643	0.017	-0.013
-250.049	241.932	0.175	0.290
-249.034	-7.195	-0.131	0.088
-248.019	-200.000	0.007	0.183
-247.005	-18.471	-0.184	-0.114
-245.990	607.381	0.076	0.189
-244.976	-200.000	0.044	0.274
-243.961	-108.061	-0.138	-0.030
-242.946	624.000	0.102	-0.256
-241.932	-200.000	0.000	0.058
-240.917	-176.733	0.131	0.003
-239.903	114.255	0.289	0.349
-238.888	331.083	0.136	0.260
-237.873	-64.025	0.381	0.154
-236.859	420.022	0.118	0.252
-235.844	-28.063	-0.126	0.072
-234.830	13.087	-0.186	0.143
-233.815	-200.000	0.055	0.252
-232.800	800.000	-0.121	0.392
-231.786	800.000	-0.084	-0.233
-230.771	-37.366	0.046	-0.024
-229.757	4.470	-0.310	0.225
-228.742	-105.252	0.132	0.030
-227.727	305.168	-0.048	0.089
-226.713	163.619	0.089	0.124
-225.698	120.511	0.445	-0.549
-224.684	-200.000	-0.004	0.503
-223.669	-200.000	-0.052	0.254
-222.655	800.000	-0.093	0.271
-221.640	-106.674	-0.130	-0.029
-220.625	55.811	0.073	-0.070
-219.611	15.106	0.106	-0.083
-218.596	-37.247	0.105	0.056
-217.582	800.000	-0.043	-0.152
-216.567	565.702	-0.040	0.096
-215.552	-10.264	-0.157	-0.103
-214.538	-138.185	0.210	0.023
-213.523	-200.000	0.000	-0.265
-212.509	-113.701	0.266	0.052
-211.494	591.925	0.039	0.095
-210.479	46.246	-0.087	0.080
-209.465	800.000	0.055	-0.163
-208.450	121.817	-0.104	-0.129
-207.436	-40.456	0.271	-0.140
-206.421	308.240	0.105	-0.195
-205.406	800.000	-0.046	0.135
-204.392	-200.000	-0.034	0.239
-203.377	-200.000	0.006	0.463
-202.363	-140.295	-0.140	-0.014
-201.348	3.932	-0.155	-0.112
-200.333	-117.410	-0.045	-0.008
-199.319	800.000	0.118	0.352
-198.304	-138.920	0.055	-0.006
-197.290	-110.742	-0.221	-0.045
-196.275	98.887	0.229	-0.262
-195.260	-116.199	0.174	0.032
-194.246	-58.970	0.210	0.090
-193.231	5.695	0.088	0.065
-192.217	-141.766	-0.153	-0.015
-191.202	-200.000	-0.063	0.329
-190.187	60.970	-0.240	-0.236
-189.173	200.291	0.087	0.132
-188.158	-147.822	0.033	0.003
-187.144	247.441	0.186	-0.311
-186.129	-95.655	0.176	-0.047
-185.114	13.599	0.182	-0.140
-184.100	-50.606	-0.371	0.173
-183.085	-49.304	-0.200	-0.095
-182.071	-14.455	0.128	-0.082
-181.056	369.491	-0.233	0.466
-180.042	58.352	0.133	-0.129
-179.027	800.000	0.060	0.170
-178.012	231.766	0.062	-0.100
-176.998	142.349	-0.093	-0.122
-175.983	800.000	0.103	0.325
-174.969	-83.721	0.318	-0.100
-173.954	483.735	-0.072	-0.162
-172.939	-181.662	-0.212	0.004
-171.925	-159.573	-0.049	0.003
-170.910	-200.000	0.005	-0.371
-169.896	-187.616	0.246	-0.003
-168.881	-184.924	0.212	0.003
-167.866	315.612	-0.023	-0.042
-166.852	800.000	-0.067	0.189
-165.837	8.603	0.172	-0.128
-164.823	-117.344	-0.256	-0.046
-163.808	123.378	0.205	0.255
-162.793	-200.000	0.009	0.280
-161.779	120.595	0.265	0.326
-160.764	-200.000	-0.001	0.135
-159.750	-200.000	0.001	0.232
-158.735	-154.469	0.181	-0.012
-157.720	39.225	-0.119	-0.105
-156.706	-144.647	-0.271	-0.025
-155.691	-16.020	0.105	0.066
-154.677	35.567	-0.311	-0.270
-153.662	800.000	0.091	-0.319
-152.647	-200.000	0.019	-0.237
-151.633	-196.126	-0.092	0.001
-150.618	-9.351	-0.096	0.064
-149.604	-90.025	0.091	0.026
-148.589	140.456	0.118	0.154
-147.574	800.000	-0.057	0.177
-146.560	-200.000	0.001	0.300
-145.545	-20.811	-0.283	0.172
-144.531	61.911	0.150	0.148
-143.516	-114.117	0.143	-0.027
-142.502	-200.000	-0.014	0.271
-141.487	-87.775	-0.241	0.072
-140.472	150.398	0.082	-0.110
-139.458	-33.940	-0.292	-0.159
-138.443	22.227	-0.105	0.085
-137.429	-111.807	0.119	0.024
-136.414	-64.394	0.407	-0.164
-135.399	53.115	0.121	-0.115
-134.385	11.379	-0.249	0.189
-133.370	506.715	0.054	-0.125
-132.356	-119.719	0.240	0.041
-131.341	-140.677	0.222	-0.023
-130.326	446.146	0.050	-0.109
-129.312	8.370	-0.133	-0.099
-128.297	224.454	-0.105	-0.167
-127.283	647.581	-0.040	-0.100
-126.268	-200.000	-0.036	0.233
-125.253	-5.036	-0.036	0.025
-124.239	146.045	0.103	-0.137
-123.224	-86.340	-0.246	-0.075
-122.210	124.530	0.094	-0.116
