DTS Sentinel unit serial number:	SN413079Multiplexer serial number:	ORYXHardware model number:	OX4-SRSoftware version number:	ORYX F/W v4.00 Oryx Data Collector v3.7.2.0data status	okinstallation	princeton_trtdifferential loss correction	single-endedforward channel	channel 3reverse channel	N/Adate	2019/09/10time	22:18:11forward acquisition time	60.00reverse acquisition time	0.00gamma	496.2192k internal	0.2330k external	0.2330temperature offset calibration	0.9918default loss term (dB/km)	0.3790temperature slope calibration	1.0000multiplexer offset coefficient	1.0000multiplexer slope coefficient	1.0000fibre end	0.00T internal ref (°C)	30.50T ext. ref 1 (°C)	-0.31T ext. ref 2 (°C)	23.94length (m)	temperature (°C)	Stokes	anti-Stokes-747.200	-56.109	-0.364	-0.163
-746.185	-77.272	-0.358	0.125
-745.171	232.492	-0.066	0.110
-744.156	-108.592	-0.310	-0.067
-743.142	317.072	0.048	-0.091
-742.127	800.000	0.098	0.302
-741.112	-31.819	0.188	-0.106
-740.098	-179.557	-0.040	-0.001
-739.083	-39.853	0.139	-0.073
-738.069	-44.045	-0.137	0.070
-737.054	-52.817	-0.192	-0.089
-736.039	255.303	-0.145	0.249
-735.025	-200.000	-0.056	0.326
-734.010	0.073	0.159	-0.114
-732.996	-79.250	-0.378	0.129
-731.981	787.819	0.085	0.236
-730.966	222.921	0.028	0.046
-729.952	-131.092	-0.196	-0.026
-728.937	122.116	0.192	-0.241
-727.923	51.352	0.134	0.128
-726.908	1.273	0.203	0.146
-725.894	-40.558	0.015	-0.008
-724.879	-0.111	-0.272	-0.195
-723.864	31.820	0.282	0.244
-722.850	43.180	-0.145	-0.133
-721.835	-69.977	-0.149	-0.057
-720.821	-200.000	-0.014	-0.179
-719.806	-150.159	-0.145	-0.011
-718.791	-150.947	0.184	0.014
-717.777	800.000	0.010	-0.029
-716.762	-36.113	0.046	0.025
-715.748	74.005	0.201	0.212
-714.733	-79.276	-0.237	0.081
-713.718	462.161	-0.190	-0.426
-712.704	-103.081	-0.243	-0.058
-711.689	800.000	0.070	-0.201
-710.675	-30.197	0.089	-0.051
-709.660	-200.000	0.034	-0.152
-708.645	-87.295	0.078	0.024
-707.631	-21.058	-0.258	0.159
-706.616	-200.000	-0.001	-0.057
-705.602	-120.493	0.223	-0.038
-704.587	382.393	0.067	-0.138
-703.572	-14.134	0.179	-0.116
-702.558	240.771	-0.131	0.219
-701.543	-158.370	-0.229	0.013
-700.529	-27.718	0.125	0.073
-699.514	27.717	0.295	0.250
-698.499	-200.000	-0.040	-0.287
-697.485	201.722	-0.083	-0.129
-696.470	-123.437	-0.261	0.042
-695.456	-113.024	0.061	0.012
-694.441	-21.995	-0.085	0.052
-693.426	75.455	-0.231	0.245
-692.412	239.759	0.123	0.206
-691.397	-73.863	0.173	0.063
-690.383	261.042	-0.135	-0.235
-689.368	29.936	-0.141	-0.121
-688.354	-83.004	-0.188	0.061
-687.339	77.497	-0.237	-0.253
-686.324	800.000	-0.060	-0.241
-685.310	-87.008	0.058	0.018
-684.295	-200.000	0.019	-0.254
-683.281	800.000	0.019	-0.072
-682.266	-99.836	-0.232	0.058
-681.251	81.752	0.033	-0.036
-680.237	-45.155	0.181	-0.090
-679.222	58.595	-0.209	-0.207
-678.208	135.388	0.230	0.300
-677.193	800.000	0.050	0.205
-676.178	78.388	-0.080	-0.086
-675.164	800.000	-0.062	0.198
-674.149	-200.000	-0.003	0.021
-673.135	-109.583	0.478	-0.101
-672.120	-58.083	-0.169	-0.074
-671.105	61.636	-0.111	0.111
-670.091	-112.085	0.334	-0.067
-669.076	29.586	0.042	-0.036
-668.062	800.000	0.129	0.506
-667.047	-147.688	-0.289	-0.024
-666.032	-10.280	-0.344	0.229
-665.018	-200.000	0.011	-0.084
-664.003	-170.748	0.189	0.007
-662.989	-49.986	0.337	-0.161
-661.974	-6.639	-0.113	0.078
-660.959	800.000	0.060	-0.191
-659.945	800.000	-0.091	-0.308
-658.930	60.318	-0.241	0.240
-657.916	352.087	-0.185	0.369
-656.901	36.463	-0.315	0.279
-655.886	-200.000	-0.033	0.000
-654.872	-200.000	0.004	-0.057
-653.857	491.701	0.101	-0.231
-652.843	40.817	-0.167	-0.151
-651.828	-30.142	0.232	0.132
-650.814	-200.000	0.066	0.309
-649.799	-102.584	0.389	-0.093
-648.784	254.225	-0.134	-0.229
-647.770	-200.000	-0.039	-0.300
-646.755	-50.374	-0.098	0.046
-645.741	260.371	0.133	-0.231
-644.726	211.674	0.057	0.089
-643.711	-159.651	0.297	0.016
-642.697	499.588	-0.054	-0.124
-641.682	800.000	-0.053	-0.155
-640.668	89.733	0.082	0.092
-639.653	134.092	-0.133	-0.173
-638.638	468.658	-0.103	-0.232
-637.624	-43.042	-0.011	-0.006
-636.609	-93.319	0.224	0.062
-635.595	200.759	0.118	0.182
-634.580	800.000	0.030	0.110
-633.565	-200.000	0.036	-0.238
-632.551	-200.000	-0.018	-0.606
-631.536	99.984	-0.170	0.197
-630.522	-200.000	-0.012	0.286
-629.507	18.271	-0.322	-0.258
-628.492	217.339	-0.068	0.108
-627.478	-200.000	0.003	0.080
-626.463	800.000	0.067	-0.207
-625.449	-42.777	0.170	0.087
-624.434	-72.829	-0.106	-0.039
-623.419	117.272	-0.151	-0.186
-622.405	123.491	0.160	-0.200
-621.390	-3.795	-0.131	0.091
-620.376	49.258	0.290	0.273
-619.361	2.313	0.333	0.242
-618.346	233.009	0.185	-0.305
-617.332	-200.000	-0.024	0.200
-616.317	-184.379	0.146	0.002
-615.303	-200.000	0.016	-0.246
-614.288	-135.340	-0.361	-0.043
-613.273	-102.379	-0.369	0.088
-612.259	-132.188	-0.205	-0.027
-611.244	-121.654	-0.265	-0.044
-610.230	-48.619	-0.351	-0.169
-609.215	-43.286	-0.188	0.095
-608.201	3.642	0.205	-0.150
-607.186	800.000	-0.049	0.194
-606.171	1.198	-0.081	0.058
-605.157	216.570	-0.043	0.069
-604.142	-148.778	-0.325	-0.026
-603.128	-128.557	0.118	0.017
-602.113	71.035	0.093	-0.097
-601.098	-135.071	-0.035	-0.004
-600.084	75.904	-0.143	0.151
-599.069	-63.158	0.104	-0.043
-598.055	-200.000	-0.047	0.251
-597.040	-65.565	-0.082	0.033
-596.025	-156.890	0.266	-0.016
-595.011	-200.000	0.038	0.394
-593.996	-95.117	0.347	0.094
-592.982	-67.635	-0.418	0.164
-591.967	-200.000	-0.200	0.000
-590.952	169.967	-0.171	0.245
-589.938	572.765	-0.165	0.402
-588.923	-119.586	0.088	0.015
-587.909	-42.903	0.381	-0.193
-586.894	-88.723	0.455	-0.135
-585.879	-39.142	-0.303	-0.160
-584.865	-13.840	0.075	-0.048
-583.850	-173.812	0.150	0.004
-582.836	99.365	-0.135	-0.156
-581.821	-141.446	0.248	0.025
-580.806	-150.370	-0.274	-0.021
-579.792	800.000	-0.054	0.169
-578.777	113.239	0.094	0.115
-577.763	-65.747	-0.420	-0.168
-576.748	-127.847	-0.182	0.026
-575.733	-200.000	0.034	-0.283
-574.719	-200.000	-0.008	-0.373
-573.704	-44.880	-0.074	0.037
-572.690	-90.461	0.138	-0.040
-571.675	-200.000	-0.043	0.195
-570.661	-71.004	-0.250	0.094
-569.646	734.205	0.063	-0.169
-568.631	429.570	-0.143	-0.309
-567.617	-200.000	-0.001	-0.319
-566.602	-40.516	-0.121	0.063
-565.588	-200.000	0.029	0.436
-564.573	66.572	0.114	0.116
-563.558	-154.881	-0.194	0.013
-562.544	284.714	-0.043	-0.078
-561.529	800.000	-0.084	-0.349
-560.515	84.574	-0.136	-0.149
-559.500	140.961	-0.052	0.069
-558.485	-200.000	0.081	0.361
-557.471	121.815	0.127	0.159
-556.456	800.000	-0.121	0.390
-555.442	47.820	-0.171	-0.159
-554.427	-41.923	0.188	0.097
-553.412	800.000	-0.054	0.177
-552.398	800.000	-0.097	-0.271
-551.383	-60.000	-0.190	0.081
-550.369	764.909	0.045	-0.122
-549.354	-200.000	0.001	-0.140
-548.339	47.551	-0.271	-0.253
-547.325	-200.000	0.017	-0.400
-546.310	800.000	-0.020	0.066
-545.296	-94.001	-0.318	0.087
-544.281	233.148	-0.113	0.185
-543.266	-104.195	-0.388	0.090
-542.252	-51.838	-0.239	-0.111
-541.237	178.908	0.108	0.157
-540.223	-125.237	0.078	-0.012
-539.208	631.591	-0.073	-0.185
-538.193	85.560	0.099	-0.109
-537.179	48.315	0.207	0.194
-536.164	-98.978	0.390	-0.099
-535.150	45.287	-0.125	0.115
-534.135	-70.869	0.359	0.135
-533.121	-200.000	0.039	-0.263
-532.106	-94.752	0.175	-0.048
-531.091	-200.000	-0.027	-0.218
-530.077	-107.060	0.077	0.017
-529.062	49.788	-0.143	-0.135
-528.048	-61.653	-0.117	-0.049
-527.033	17.623	-0.201	0.159
-526.018	153.542	-0.161	-0.220
-525.004	-95.871	0.356	-0.095
-523.989	177.129	0.065	-0.094
-522.975	-200.000	0.022	-0.286
-521.960	-22.760	-0.172	-0.103
-520.945	149.887	-0.114	-0.155
-519.931	-200.000	0.022	0.231
-518.916	263.771	-0.098	0.170
-517.902	205.532	-0.036	-0.056
-516.887	-56.144	0.074	-0.033
-515.872	800.000	0.034	0.103
-514.858	-143.185	0.147	-0.014
-513.843	16.277	-0.167	0.131
-512.829	-117.219	-0.112	0.020
-511.814	27.314	0.179	0.150
-510.799	473.281	-0.094	-0.210
-509.785	800.000	-0.091	0.294
-508.770	-62.318	0.334	0.139
-507.756	-200.000	-0.051	-0.240
-506.741	675.284	-0.051	0.131
-505.726	236.946	-0.133	-0.221
-504.712	50.911	0.158	0.149
-503.697	156.506	0.209	0.288
-502.683	143.110	0.267	0.354
-501.668	-96.022	-0.098	-0.026
-500.653	-200.000	-0.007	-0.035
-499.639	0.948	-0.290	-0.208
-498.624	800.000	-0.046	0.162
-497.610	-131.583	-0.192	-0.025
-496.595	149.397	0.153	-0.206
-495.581	-49.712	0.273	0.129
-494.566	-186.390	0.249	0.004
-493.551	9.910	0.175	-0.132
-492.537	-200.000	-0.011	0.324
-491.522	-73.216	-0.347	-0.127
-490.508	-29.877	-0.275	-0.156
-489.493	-121.126	-0.206	-0.034
-488.478	-1.111	-0.188	-0.132
-487.464	591.374	-0.062	-0.152
-486.449	-56.465	0.138	0.061
-485.435	-200.000	-0.004	0.121
-484.420	800.000	0.085	0.248
-483.405	312.636	-0.073	-0.136
-482.391	-200.000	0.020	-0.112
-481.376	-75.431	-0.141	-0.050
-480.362	-33.794	0.169	0.093
-479.347	653.499	0.130	0.331
-478.332	-106.620	0.116	0.026
-477.318	-200.000	-0.069	-0.341
-476.303	-200.000	-0.017	-0.078
-475.289	800.000	0.085	0.290
-474.274	147.013	-0.093	0.124
-473.259	348.683	0.180	-0.354
-472.245	800.000	-0.050	-0.161
-471.230	26.662	0.317	-0.264
-470.216	-87.566	-0.266	0.080
-469.201	108.803	0.149	0.177
-468.186	-177.435	0.321	-0.008
-467.172	-124.887	-0.215	0.033
-466.157	-200.000	0.018	0.139
-465.143	-142.515	-0.239	-0.023
-464.128	-200.000	0.037	-0.162
-463.113	4.239	-0.147	0.107
-462.099	-27.360	0.375	0.217
-461.084	-67.063	-0.400	-0.157
-460.070	800.000	0.041	0.166
-459.055	104.499	-0.121	0.142
-458.040	-127.474	0.272	-0.039
-457.026	80.440	-0.165	-0.177
-456.011	46.467	-0.132	-0.121
-454.997	22.429	-0.186	0.151
-453.982	-200.000	0.006	0.129
-452.968	-144.456	0.058	-0.005
-451.953	-37.748	0.106	-0.056
-450.938	-70.439	-0.342	-0.129
-449.924	-200.000	0.034	0.192
-448.909	-129.970	-0.127	0.017
-447.895	-77.762	-0.433	0.149
-446.880	43.570	-0.067	-0.061
-445.865	-189.964	0.253	0.003
-444.851	179.669	0.157	-0.229
-443.836	-200.000	0.018	-0.225
-442.822	119.841	-0.144	0.178
-441.807	89.146	-0.072	-0.079
-440.792	-32.988	-0.136	-0.075
-439.778	13.223	0.354	0.273
-438.763	-55.668	0.203	-0.090
-437.749	-119.199	0.283	-0.049
-436.734	-82.102	-0.312	0.101
-435.719	150.194	0.068	-0.091
-434.705	-99.249	0.256	0.064
-433.690	142.335	-0.158	-0.208
-432.676	-28.573	-0.298	-0.171
-431.661	-78.706	0.107	-0.036
-430.646	800.000	0.065	-0.245
-429.632	-161.015	0.234	0.012
-428.617	-200.000	-0.022	0.321
-427.603	-91.470	-0.066	-0.019
-426.588	366.290	0.133	0.267
-425.573	-200.000	0.011	0.078
-424.559	51.815	-0.209	-0.198
-423.544	-61.423	-0.157	0.066
-422.530	-6.747	0.307	-0.208
-421.515	-105.950	0.243	-0.054
-420.500	800.000	0.080	0.244
-419.486	-81.719	0.112	-0.037
-418.471	-81.278	-0.201	-0.066
-417.457	-60.219	-0.181	0.077
-416.442	-92.293	-0.169	-0.047
-415.428	-8.234	-0.389	-0.260
-414.413	27.364	-0.274	0.229
-413.398	-118.288	0.121	-0.021
-412.384	-72.908	0.184	-0.067
-411.369	49.616	0.019	0.018
-410.355	349.057	0.104	-0.204
-409.340	-110.035	0.304	0.063
-408.325	84.554	0.068	-0.074
-407.311	-200.000	-0.071	-0.309
-406.296	110.944	0.063	-0.075
-405.282	517.166	-0.039	0.090
-404.267	192.925	0.161	0.241
-403.252	-16.231	-0.110	0.069
-402.238	-200.000	-0.025	0.241
-401.223	-186.025	-0.020	-0.000
-400.209	-157.167	-0.067	-0.004
-399.194	-200.000	-0.055	-0.314
-398.179	143.976	0.052	-0.068
-397.165	-110.368	-0.326	0.067
-396.150	-200.000	0.026	0.138
-395.136	104.157	0.077	-0.090
-394.121	-200.000	-0.001	-0.146
-393.106	-200.000	-0.018	-0.299
-392.092	147.934	0.054	0.072
-391.077	6.690	-0.232	-0.171
-390.063	-12.663	-0.497	-0.322
-389.048	-5.328	-0.094	-0.064
-388.033	800.000	0.036	-0.134
-387.019	-7.262	-0.073	-0.049
-386.004	10.934	-0.224	-0.170
-384.990	66.888	0.213	-0.215
-383.975	135.310	0.097	0.126
-382.960	-127.681	-0.270	-0.039
-381.946	-200.000	-0.057	0.289
-380.931	-107.972	-0.180	0.039
-379.917	35.418	0.361	-0.315
-378.902	-53.461	0.054	0.025
-377.888	800.000	0.075	-0.254
-376.873	-27.102	0.126	-0.073
-375.858	-200.000	-0.013	-0.092
-374.844	-200.000	-0.006	0.170
-373.829	154.842	0.223	0.304
-372.815	800.000	0.042	-0.133
-371.800	-200.000	0.011	-0.271
-370.785	-200.000	-0.040	-0.207
-369.771	-113.979	0.175	0.034
-368.756	27.896	0.042	0.035
-367.742	-200.000	0.005	-0.139
-366.727	12.989	-0.156	0.120
-365.712	800.000	-0.062	-0.254
-364.698	8.662	0.283	0.212
-363.683	800.000	0.092	0.328
-362.669	304.164	-0.103	0.190
-361.654	-102.714	0.261	0.062
-360.639	144.412	-0.169	-0.223
-359.625	-90.326	0.157	-0.045
-358.610	32.962	-0.169	0.145
-357.596	-111.173	0.142	0.029
-356.581	-86.386	0.416	-0.127
-355.566	-160.986	-0.373	0.019
-354.552	0.360	0.203	-0.143
-353.537	-89.396	0.142	0.042
-352.523	-33.326	0.084	0.046
-351.508	-187.524	0.192	-0.003
-350.493	522.837	0.099	0.230
-349.479	195.247	-0.248	-0.373
-348.464	-200.000	0.027	-0.118
-347.450	-134.589	-0.039	0.005
-346.435	-147.687	-0.175	0.015
-345.420	-200.000	0.059	0.272
-344.406	131.606	0.105	-0.133
-343.391	193.554	0.141	0.212
-342.377	-18.294	-0.073	0.045
-341.362	800.000	0.031	0.093
-340.348	124.470	-0.178	0.222
-339.333	-150.001	0.267	-0.021
-338.318	98.526	-0.136	-0.155
-337.304	521.730	-0.058	-0.134
-336.289	-59.011	-0.389	0.167
-335.275	-101.289	0.279	-0.068
-334.260	-200.000	0.025	-0.165
-333.245	-1.574	0.345	0.241
-332.231	358.316	0.073	-0.145
-331.216	-200.000	0.010	0.357
-330.202	676.652	-0.149	0.383
-329.187	90.837	-0.144	0.160
-328.172	-93.511	0.215	-0.059
-327.158	-200.000	0.066	-0.298
-326.143	-51.091	-0.192	0.089
-325.129	800.000	0.033	0.132
-324.114	-101.246	0.364	-0.088
-323.099	319.306	0.131	0.245
-322.085	-25.487	0.310	-0.181
-321.070	24.839	-0.080	0.066
-320.056	800.000	0.088	0.299
-319.041	463.247	-0.038	0.084
-318.026	-8.186	0.223	0.149
-317.012	-115.372	0.315	0.059
-315.997	-200.000	0.000	0.354
-314.983	800.000	0.098	-0.285
-313.968	-4.516	0.075	-0.051
-312.953	-19.073	-0.287	-0.177
-311.939	17.520	0.290	-0.228
-310.924	-34.551	-0.170	0.092
-309.910	-99.252	-0.099	-0.025
-308.895	64.359	-0.241	0.240
-307.880	800.000	0.163	0.463
-306.866	21.624	-0.330	0.266
-305.851	109.530	-0.186	-0.221
-304.837	188.094	0.054	0.080
-303.822	40.728	-0.158	-0.141
-302.807	454.235	-0.102	0.224
-301.793	-200.000	0.001	-0.043
-300.778	-136.969	-0.261	-0.030
-299.764	-74.709	0.032	-0.011
-298.749	-166.432	0.326	-0.014
-297.735	573.850	0.103	-0.248
-296.720	-161.319	-0.153	0.008
-295.705	-142.040	0.213	-0.021
-294.691	-46.603	0.330	-0.160
-293.676	138.980	-0.136	-0.177
-292.662	-111.651	-0.248	0.050
-291.647	-111.384	0.182	-0.037
-290.632	-149.460	0.208	0.016
-289.618	266.901	0.111	-0.191
-288.603	16.816	0.286	0.224
-287.589	87.525	-0.128	0.140
-286.574	335.837	0.179	-0.342
-285.559	84.226	0.233	-0.251
-284.545	125.432	0.255	-0.319
-283.530	-64.887	-0.312	-0.125
-282.516	53.954	0.084	-0.080
-281.501	-200.000	-0.045	0.450
-280.486	-197.485	-0.316	-0.002
-279.472	-200.000	-0.002	0.172
-278.457	-200.000	0.030	0.277
-277.443	678.130	0.093	0.238
-276.428	25.728	0.248	0.204
-275.413	-55.322	-0.343	-0.152
-274.399	7.436	0.169	-0.125
-273.384	123.564	0.132	0.163
-272.370	556.028	-0.146	-0.348
-271.355	-118.103	0.223	0.039
-270.340	4.539	-0.144	-0.105
-269.326	-200.000	-0.034	-0.183
-268.311	8.441	-0.206	0.153
-267.297	-17.480	-0.376	0.233
-266.282	800.000	0.021	0.064
-265.267	192.576	-0.081	0.121
-264.253	-4.400	-0.063	0.043
-263.238	-200.000	0.005	0.077
-262.224	268.671	0.068	0.118
-261.209	-200.000	-0.037	0.188
-260.195	-42.090	-0.086	-0.043
-259.180	202.303	-0.110	0.168
-258.165	-67.815	-0.127	0.049
-257.151	-200.000	-0.006	0.090
-256.136	-125.901	0.252	0.038
-255.122	-200.000	0.118	-0.000
-254.107	-200.000	0.028	0.211
-253.092	-200.000	-0.005	0.062
-252.078	153.228	-0.044	0.060
-251.063	115.469	-0.109	0.131
-250.049	420.813	0.057	0.120
-249.034	800.000	0.038	0.107
-248.019	-200.000	-0.009	0.221
-247.005	-200.000	-0.036	-0.230
-245.990	-100.871	-0.407	0.099
-244.976	-41.387	-0.162	0.082
-243.961	5.918	0.269	0.197
-242.946	-98.637	-0.100	-0.025
-241.932	-200.000	-0.047	0.254
-240.917	-73.892	-0.410	0.147
-239.903	-200.000	0.104	0.000
-238.888	-80.052	-0.043	-0.014
-237.873	143.130	-0.115	-0.151
-236.859	-71.288	0.146	0.054
-235.844	20.439	0.218	-0.174
-234.830	800.000	0.070	-0.218
-233.815	98.948	-0.147	0.167
-232.800	-75.553	0.567	0.199
-231.786	361.404	0.171	-0.338
-230.771	-85.159	-0.201	-0.062
-229.757	10.758	-0.100	0.076
-228.742	719.213	0.083	-0.217
-227.727	-70.023	0.255	0.096
-226.713	-77.072	-0.195	0.067
-225.698	113.500	0.128	-0.154
-224.684	-31.003	-0.503	-0.280
-223.669	-80.828	0.460	0.151
-222.655	154.439	0.144	0.195
-221.640	-200.000	-0.057	-0.287
-220.625	412.922	-0.102	-0.214
-219.611	361.434	0.081	0.159
-218.596	286.072	0.056	-0.100
-217.582	254.982	0.117	0.197
-216.567	75.198	-0.203	0.211
-215.552	-83.719	0.082	-0.026
-214.538	740.246	0.162	0.430
-213.523	-1.317	0.043	0.030
-212.509	-49.619	-0.091	0.043
-211.494	-76.457	-0.120	-0.042
-210.479	187.639	-0.323	0.475
-209.465	-69.854	-0.169	-0.064
-208.450	800.000	0.050	-0.190
-207.436	410.444	-0.071	0.148
-206.421	621.098	-0.050	0.123
-205.406	-12.996	-0.170	0.109
-204.392	53.049	0.229	0.216
-203.377	-63.736	0.213	-0.086
-202.363	-200.000	-0.092	-0.488
-201.348	-140.252	0.226	0.023
-200.333	390.655	-0.114	0.234
-199.319	-73.060	-0.254	-0.092
-198.304	130.023	0.117	-0.147
-197.290	-200.000	-0.123	0.000
-196.275	175.612	0.203	0.290
-195.260	800.000	0.101	-0.279
-194.246	-75.910	-0.381	0.133
-193.231	65.684	0.243	-0.243
-192.217	-147.980	-0.094	-0.008
-191.202	11.334	-0.207	0.156
-190.187	104.547	-0.159	0.184
-189.173	-200.000	-0.026	-0.289
-188.158	-114.951	0.390	-0.073
-187.144	800.000	-0.027	-0.112
-186.129	800.000	0.082	-0.320
-185.114	94.353	0.149	-0.167
-184.100	-67.829	-0.075	-0.029
-183.085	151.700	-0.060	-0.081
-182.071	800.000	0.094	-0.273
-181.056	-154.565	-0.149	0.010
-180.042	-200.000	0.004	-0.116
-179.027	183.700	0.092	-0.134
-178.012	800.000	0.026	0.083
-176.998	-166.261	0.190	-0.008
-175.983	-200.000	-0.039	-0.291
-174.969	-29.546	0.293	-0.165
-173.954	-23.427	0.147	-0.087
-172.939	-104.881	0.154	-0.035
-171.925	41.403	0.102	0.091
-170.910	800.000	0.047	0.140
-169.896	91.348	0.138	0.152
-168.881	800.000	0.068	0.254
-167.866	-200.000	-0.040	0.252
-166.852	202.622	-0.065	-0.100
-165.837	800.000	0.060	-0.191
-164.823	800.000	-0.010	-0.027
-163.808	33.704	0.021	0.018
-162.793	800.000	0.076	0.221
-161.779	-113.249	-0.146	0.028
-160.764	73.662	-0.220	0.227
-159.750	800.000	0.028	0.084
-158.735	286.305	0.104	0.185
-157.720	-74.777	0.402	0.142
-156.706	800.000	0.026	-0.098
-155.691	-58.401	-0.147	0.063
-154.677	-138.252	0.245	0.027
-153.662	24.349	0.050	0.041
-152.647	-97.370	-0.101	0.026
-151.633	-34.456	0.053	0.029
-150.618	75.998	0.376	0.392
-149.604	-48.219	0.126	0.060
-148.589	800.000	-0.048	0.192
-147.574	106.983	0.121	-0.141
-146.560	-69.092	-0.229	-0.087
-145.545	0.866	0.208	-0.146
-144.531	488.304	0.136	0.306
-143.516	-200.000	0.005	0.278
-142.502	26.047	0.262	-0.215
-141.487	-79.921	0.178	-0.059
-140.472	144.613	-0.402	-0.528
-139.458	383.115	0.153	-0.309
-138.443	114.692	-0.017	-0.020
-137.429	-120.565	0.176	0.029
-136.414	109.965	0.169	-0.200
-135.399	-105.682	0.483	0.107
-134.385	264.757	-0.128	-0.219
-133.370	126.321	-0.321	0.399
-132.356	-2.063	0.028	0.019
-131.341	-30.841	0.201	-0.112
-130.326	-99.543	0.272	0.067
-129.312	-14.533	0.184	0.116
-128.297	-200.000	-0.014	0.275
-127.283	-34.901	0.313	0.168
-126.268	-122.205	0.248	-0.040
-125.253	30.637	0.140	0.118
-124.239	-70.028	-0.180	-0.067
-123.224	-8.070	0.083	0.055
-122.210	-200.000	0.029	-0.146
-121.195	62.378	-0.052	0.051
-120.180	67.116	0.099	-0.099
