DTS Sentinel unit serial number:	SN413079Multiplexer serial number:	ORYXHardware model number:	OX4-SRSoftware version number:	ORYX F/W v4.00 Oryx Data Collector v3.7.2.0data status	okinstallation	princeton_trtdifferential loss correction	single-endedforward channel	channel 3reverse channel	N/Adate	2019/09/11time	03:06:11forward acquisition time	60.00reverse acquisition time	0.00gamma	496.2192k internal	0.2331k external	0.2331temperature offset calibration	0.9911default loss term (dB/km)	0.3790temperature slope calibration	1.0000multiplexer offset coefficient	1.0000multiplexer slope coefficient	1.0000fibre end	0.00T internal ref (°C)	29.31T ext. ref 1 (°C)	-0.31T ext. ref 2 (°C)	23.84length (m)	temperature (°C)	Stokes	anti-Stokes-747.200	-147.565	0.234	-0.020
-746.185	-161.743	-0.265	0.014
-745.171	14.051	0.121	0.094
-744.156	639.004	-0.045	0.115
-743.142	-200.000	-0.032	0.206
-742.127	18.966	-0.049	-0.039
-741.112	-169.435	-0.109	0.004
-740.098	-18.687	-0.249	0.156
-739.083	176.132	0.103	0.150
-738.069	103.217	-0.099	0.117
-737.054	77.399	0.091	0.097
-736.039	-76.935	-0.428	0.150
-735.025	-112.354	0.336	-0.068
-734.010	-2.960	-0.093	0.066
-732.996	-35.422	0.027	-0.015
-731.981	4.170	-0.221	-0.163
-730.966	-6.891	-0.031	0.021
-729.952	-200.000	-0.039	-0.234
-728.937	174.637	-0.170	0.248
-727.923	-103.886	-0.273	0.064
-726.908	800.000	-0.053	0.164
-725.894	-2.658	-0.229	0.161
-724.879	-65.019	-0.077	-0.031
-723.864	-186.428	-0.105	-0.002
-722.850	-200.000	0.011	-0.175
-721.835	-12.699	-0.140	0.091
-720.821	-128.067	-0.167	-0.024
-719.806	-131.608	0.202	0.027
-718.791	-14.421	-0.087	0.057
-717.777	41.087	-0.183	0.166
-716.762	94.483	-0.268	0.306
-715.748	141.425	-0.201	-0.268
-714.733	143.688	-0.044	-0.059
-713.718	32.891	-0.208	-0.181
-712.704	179.521	0.092	0.135
-711.689	-57.424	-0.187	-0.082
-710.675	-200.000	-0.006	0.092
-709.660	244.633	0.149	0.251
-708.645	-104.958	0.102	0.023
-707.631	-61.260	-0.186	-0.079
-706.616	-73.718	-0.223	0.082
-705.602	-200.000	0.039	-0.335
-704.587	-152.706	-0.112	-0.008
-703.572	-200.000	-0.008	-0.179
-702.558	-10.263	0.369	0.246
-701.543	201.548	0.139	0.215
-700.529	411.016	0.120	-0.257
-699.514	-130.570	-0.297	-0.040
-698.499	-200.000	0.001	-0.106
-697.485	-166.661	-0.165	-0.007
-696.470	-91.717	0.172	-0.049
-695.456	-200.000	0.015	0.281
-694.441	-5.650	-0.221	0.152
-693.426	208.590	0.201	-0.315
-692.412	-69.243	0.318	0.123
-691.397	-200.000	0.015	-0.173
-690.383	18.642	-0.212	0.171
-689.368	-101.470	-0.266	-0.065
-688.354	800.000	0.047	-0.144
-687.339	-109.640	0.166	0.035
-686.324	-121.538	0.201	-0.033
-685.310	-200.000	0.047	0.334
-684.295	240.707	0.170	-0.284
-683.281	278.510	-0.036	-0.064
-682.266	-87.492	0.089	-0.027
-681.251	-17.008	0.079	-0.050
-680.237	67.470	-0.223	0.229
-679.222	-200.000	-0.041	-0.298
-678.208	800.000	-0.086	-0.265
-677.193	800.000	0.059	-0.195
-676.178	-200.000	0.011	0.195
-675.164	-66.002	0.284	-0.114
-674.149	-10.596	0.423	0.281
-673.135	-27.989	0.133	0.077
-672.120	-93.430	-0.237	-0.066
-671.105	6.185	0.229	-0.170
-670.091	800.000	-0.083	-0.245
-669.076	-8.887	-0.186	0.125
-668.062	-69.535	-0.122	0.047
-667.047	-200.000	-0.033	-0.156
-666.032	-2.424	-0.305	0.214
-665.018	-102.759	-0.067	-0.016
-664.003	35.607	-0.222	-0.196
-662.989	-200.000	0.047	-0.264
-661.974	-200.000	-0.052	0.239
-660.959	279.046	0.160	-0.287
-659.945	208.278	0.148	0.233
-658.930	608.664	-0.151	-0.379
-657.916	-200.000	-0.011	-0.159
-656.901	-35.925	0.046	-0.025
-655.886	-75.306	0.091	0.033
-654.872	267.911	0.080	-0.141
-653.857	800.000	0.049	-0.182
-652.843	159.110	-0.124	-0.173
-651.828	800.000	0.079	0.231
-650.814	22.995	0.079	-0.065
-649.799	145.666	-0.021	-0.028
-648.784	-69.002	0.093	0.036
-647.770	557.543	-0.074	0.180
-646.755	800.000	-0.041	-0.180
-645.741	800.000	0.018	-0.059
-644.726	-200.000	0.022	-0.268
-643.711	-200.000	0.029	-0.528
-642.697	-34.314	-0.416	-0.229
-641.682	-200.000	0.104	0.000
-640.668	-92.691	0.231	-0.065
-639.653	159.938	-0.232	-0.323
-638.638	-118.855	-0.080	0.014
-637.624	211.722	0.048	-0.076
-636.609	166.307	-0.097	-0.138
-635.595	-100.126	-0.037	0.009
-634.580	-200.000	-0.016	-0.183
-633.565	-33.282	-0.088	0.049
-632.551	800.000	-0.068	0.195
-631.536	-182.838	-0.197	-0.004
-630.522	-99.520	-0.118	0.030
-629.507	-131.228	0.165	0.022
-628.492	9.482	0.109	-0.082
-627.478	7.657	0.201	0.151
-626.463	-123.343	-0.264	0.042
-625.449	389.516	0.086	0.178
-624.434	60.135	0.218	0.216
-623.419	552.661	-0.095	-0.228
-622.405	30.667	0.058	0.050
-621.390	417.092	0.064	-0.137
-620.376	-62.213	-0.241	0.101
-619.361	137.789	-0.038	-0.050
-618.346	775.828	-0.094	-0.258
-617.332	-14.961	-0.234	-0.150
-616.317	-19.211	0.092	-0.057
-615.303	-147.646	0.104	-0.009
-614.288	-78.714	-0.101	0.035
-613.273	-75.691	-0.162	0.058
-612.259	8.546	-0.203	-0.153
-611.244	-84.650	0.085	0.027
-610.230	-200.000	-0.057	-0.275
-609.215	-200.000	-0.023	-0.473
-608.201	-30.005	0.121	0.069
-607.186	-39.537	0.421	-0.220
-606.171	269.813	-0.087	-0.153
-605.157	84.235	-0.193	-0.211
-604.142	-146.611	0.250	0.022
-603.128	-164.876	-0.115	-0.005
-602.113	-140.538	0.219	-0.023
-601.098	-200.000	0.001	0.024
-600.084	98.923	-0.118	-0.136
-599.069	-126.789	0.058	0.009
-598.055	-200.000	-0.037	0.213
-597.040	297.483	0.120	0.220
-596.025	-94.205	-0.249	-0.068
-595.011	360.181	0.217	-0.435
-593.996	-200.000	-0.060	-0.335
-592.982	-200.000	0.038	0.236
-591.967	121.020	0.039	0.048
-590.952	-117.706	0.178	0.032
-589.938	245.870	-0.065	0.109
-588.923	-107.861	-0.294	0.064
-587.909	-200.000	-0.013	0.346
-586.894	-200.000	0.004	0.187
-585.879	30.013	0.113	0.096
-584.865	-200.000	0.000	-0.080
-583.850	394.578	0.093	0.193
-582.836	-117.208	-0.302	-0.055
-581.821	-18.831	0.130	-0.081
-580.806	-51.536	-0.163	-0.076
-579.792	-200.000	-0.031	0.142
-578.777	800.000	0.066	-0.220
-577.763	698.611	-0.034	0.089
-576.748	49.879	0.135	0.127
-575.733	413.337	-0.030	-0.064
-574.719	-57.350	0.145	-0.064
-573.704	72.006	-0.201	-0.209
-572.690	3.925	-0.228	0.166
-571.675	-200.000	0.049	0.434
-570.661	-43.929	-0.261	0.131
-569.646	-200.000	0.015	0.382
-568.631	34.598	0.080	-0.070
-567.617	-31.807	-0.221	-0.124
-566.602	60.620	0.243	-0.241
-565.588	548.774	-0.017	-0.042
-564.573	-37.164	-0.209	-0.112
-563.558	-200.000	-0.009	0.267
-562.544	-200.000	0.020	0.254
-561.529	-200.000	0.020	0.346
-560.515	160.079	-0.309	0.431
-559.500	92.060	-0.131	-0.147
-558.485	-200.000	0.066	-0.395
-557.471	565.370	-0.059	0.143
-556.456	-200.000	-0.019	-0.191
-555.442	15.065	0.131	0.103
-554.427	-42.538	0.471	-0.240
-553.412	800.000	-0.094	-0.296
-552.398	-70.924	0.034	0.013
-551.383	107.639	0.091	0.108
-550.369	554.046	-0.110	0.265
-549.354	-60.436	0.254	0.108
-548.339	-38.644	0.320	0.169
-547.325	-106.788	-0.543	-0.120
-546.310	-34.394	0.224	-0.123
-545.296	12.259	-0.360	-0.277
-544.281	-91.253	0.131	-0.037
-543.266	-47.450	-0.246	-0.120
-542.252	205.922	-0.226	0.350
-541.237	-133.642	0.186	0.023
-540.223	223.637	0.103	0.165
-539.208	-85.441	0.079	0.025
-538.193	-91.861	-0.419	0.119
-537.179	35.025	0.056	-0.049
-536.164	-200.000	0.031	-0.250
-535.150	-116.137	-0.420	-0.078
-534.135	-200.000	0.025	-0.161
-533.121	2.144	0.105	0.076
-532.106	248.375	0.019	0.032
-531.091	330.084	0.183	0.351
-530.077	63.352	0.196	0.196
-529.062	628.332	-0.079	0.200
-528.048	-66.756	-0.172	-0.068
-527.033	53.326	-0.219	-0.210
-526.018	-57.794	0.337	0.147
-525.004	504.248	-0.087	-0.200
-523.989	-200.000	-0.014	0.233
-522.975	-122.462	-0.163	-0.026
-521.960	-33.498	0.295	0.163
-520.945	-76.691	0.163	-0.057
-519.931	232.341	-0.145	0.238
-518.916	800.000	-0.013	0.053
-517.902	149.951	0.201	0.272
-516.887	-92.029	0.172	0.049
-515.872	-159.431	0.400	0.022
-514.858	116.539	-0.198	-0.242
-513.843	56.235	-0.151	-0.147
-512.829	-7.645	0.079	0.053
-511.814	-134.841	-0.404	0.049
-510.799	38.249	-0.056	0.049
-509.785	800.000	-0.006	0.026
-508.770	406.106	-0.040	-0.085
-507.756	175.996	-0.285	0.412
-506.741	261.046	0.148	-0.255
-505.726	266.044	-0.107	0.186
-504.712	489.223	0.217	-0.494
-503.697	-200.000	0.021	-0.161
-502.683	-109.509	-0.119	-0.025
-501.668	-32.207	0.112	-0.062
-500.653	-93.909	-0.426	0.117
-499.639	-200.000	-0.005	0.230
-498.624	-93.065	0.356	-0.099
-497.610	146.514	0.220	0.295
-496.595	523.804	0.039	0.091
-495.581	-148.463	-0.481	-0.039
-494.566	285.612	0.050	-0.089
-493.551	357.286	0.108	0.215
-492.537	-85.115	0.131	0.041
-491.522	239.187	0.285	-0.472
-490.508	-13.781	0.204	0.132
-489.493	214.600	0.189	0.298
-488.478	-200.000	0.009	0.203
-487.464	89.927	0.104	0.115
-486.449	31.391	0.121	-0.104
-485.435	-130.354	0.131	0.018
-484.420	-80.371	-0.251	-0.084
-483.405	-126.969	-0.293	0.043
-482.391	-40.937	0.164	-0.085
-481.376	-200.000	0.024	-0.223
-480.362	165.135	0.194	-0.272
-479.347	-103.130	0.106	0.025
-478.332	-90.090	0.129	0.037
-477.318	-200.000	-0.036	-0.423
-476.303	145.264	0.113	0.150
-475.289	-78.710	0.127	0.043
-474.274	-200.000	-0.276	0.001
-473.259	-200.000	-0.045	-0.354
-472.245	138.769	0.047	0.061
-471.230	-149.848	-0.078	0.006
-470.216	80.261	-0.125	-0.134
-469.201	800.000	0.079	0.283
-468.186	-200.000	0.006	-0.226
-467.172	35.233	-0.145	0.127
-466.157	-33.097	-0.223	0.123
-465.143	-200.000	0.001	0.127
-464.128	10.018	-0.185	0.140
-463.113	-30.328	-0.166	-0.094
-462.099	182.868	0.159	-0.234
-461.084	-19.322	-0.260	-0.160
-460.070	318.776	0.039	-0.073
-459.055	70.158	-0.270	-0.277
-458.040	-200.000	0.010	-0.128
-457.026	20.199	-0.145	0.117
-456.011	-26.670	0.188	-0.109
-454.997	-48.359	-0.071	0.034
-453.982	-110.255	0.279	-0.058
-452.968	-164.707	-0.115	-0.005
-451.953	653.934	0.035	0.090
-450.938	-69.259	-0.200	0.077
-449.924	408.816	0.145	-0.305
-448.909	-102.488	0.035	-0.008
-447.895	-150.761	-0.083	-0.006
-446.880	-22.579	-0.151	0.091
-445.865	61.438	0.329	0.326
-444.851	393.718	-0.327	-0.678
-443.836	80.580	-0.064	0.068
-442.822	268.999	0.069	0.121
-441.807	-200.000	0.076	0.389
-440.792	-200.000	0.034	0.162
-439.778	-200.000	0.030	-0.179
-438.763	544.850	-0.018	0.043
-437.749	99.282	-0.219	0.252
-436.734	612.725	0.156	-0.388
-435.719	101.789	0.061	-0.071
-434.705	-70.789	0.320	-0.120
-433.690	-200.000	-0.042	0.320
-432.676	564.611	-0.069	0.167
-431.661	47.385	0.315	-0.292
-430.646	-54.564	0.194	-0.087
-429.632	80.437	0.217	-0.233
-428.617	206.226	0.148	-0.228
-427.603	-200.000	-0.034	0.280
-426.588	800.000	0.127	0.452
-425.573	-6.108	-0.278	-0.188
-424.559	800.000	0.051	-0.199
-423.544	-139.576	0.123	-0.013
-422.530	-32.507	-0.385	0.213
-421.515	17.283	0.110	-0.087
-420.500	7.643	-0.095	0.071
-419.486	2.207	0.220	-0.158
-418.471	800.000	-0.085	-0.300
-417.457	49.884	-0.254	0.238
-416.442	-131.920	-0.316	0.041
-415.428	800.000	0.058	0.236
-414.413	333.012	-0.101	0.194
-413.398	-44.491	-0.057	-0.029
-412.384	641.844	0.183	0.464
-411.369	242.298	0.214	0.355
-410.355	551.567	-0.128	0.305
-409.340	48.466	0.187	-0.174
-408.325	204.288	-0.126	0.194
-407.311	710.484	-0.080	-0.211
-406.296	-200.000	-0.012	0.133
-405.282	164.436	0.187	0.261
-404.267	800.000	-0.084	0.329
-403.252	25.497	-0.410	-0.339
-402.238	166.305	-0.262	0.369
-401.223	800.000	0.036	-0.155
-400.209	-155.749	-0.159	0.010
-399.194	-200.000	0.021	0.184
-398.179	-70.034	0.203	-0.077
-397.165	-102.570	-0.072	-0.017
-396.150	-93.961	0.157	0.043
-395.136	-94.025	0.307	-0.084
-394.121	-19.652	0.059	-0.036
-393.106	-200.000	0.032	0.160
-392.092	148.564	0.285	-0.383
-391.077	373.232	-0.097	0.196
-390.063	-200.000	-0.018	-0.116
-389.048	-122.426	0.175	0.028
-388.033	-31.242	-0.141	-0.079
-387.019	45.269	-0.048	-0.044
-386.004	-200.000	-0.013	-0.088
-384.990	-73.346	-0.177	-0.064
-383.975	-5.183	-0.118	0.081
-382.960	251.675	0.046	0.078
-381.946	800.000	0.066	0.212
-380.931	-200.000	-0.021	0.189
-379.917	-200.000	-0.121	-0.001
-378.902	-123.997	-0.234	-0.037
-377.888	-169.415	0.188	0.007
-376.873	-81.503	-0.195	0.064
-375.858	-200.000	-0.010	-0.127
-374.844	-102.435	0.464	0.110
-373.829	-29.691	-0.203	-0.115
-372.815	83.055	0.220	-0.237
-371.800	642.072	0.083	-0.210
-370.785	-70.755	0.092	0.034
-369.771	-83.946	0.281	-0.089
-368.756	-200.000	-0.001	-0.567
-367.742	-22.140	-0.199	0.120
-366.727	6.324	0.389	0.286
-365.712	-200.000	-0.053	0.497
-364.698	-200.000	-0.034	-0.315
-363.683	-156.811	0.175	0.011
-362.669	295.842	-0.072	-0.131
-361.654	-200.000	0.061	0.266
-360.639	-155.524	-0.104	0.007
-359.625	-123.323	0.155	-0.025
-358.610	37.711	-0.171	0.150
-357.596	289.915	-0.151	0.272
-356.581	62.630	-0.171	-0.170
-355.566	-200.000	-0.046	-0.326
-354.552	-64.996	-0.299	-0.120
-353.537	-9.692	0.195	0.129
-352.523	800.000	-0.014	0.045
-351.508	-86.574	0.307	0.093
-350.493	58.650	-0.026	-0.025
-349.479	-151.514	0.226	0.017
-348.464	162.838	-0.120	-0.167
-347.450	1.917	-0.142	0.102
-346.435	100.546	0.153	-0.176
-345.420	6.074	-0.040	-0.029
-344.406	-116.493	-0.084	-0.015
-343.391	-200.000	0.031	-0.309
-342.377	-37.273	-0.162	0.086
-341.362	800.000	0.003	-0.008
-340.348	-84.623	0.105	0.033
-339.333	-171.916	0.266	-0.009
-338.318	800.000	0.077	0.228
-337.304	-200.000	-0.045	0.394
-336.289	-27.077	0.180	0.104
-335.275	-62.753	-0.249	0.102
-334.260	-143.821	-0.114	0.011
-333.245	-23.953	0.148	0.087
-332.231	-200.000	-0.065	0.285
-331.216	800.000	0.055	-0.183
-330.202	800.000	-0.062	0.198
-329.187	-48.756	0.204	0.097
-328.172	28.250	-0.219	-0.183
-327.158	-200.000	-0.040	-0.192
-326.143	466.105	0.065	-0.144
-325.129	-16.405	0.049	-0.031
-324.114	-156.125	0.052	0.003
-323.099	144.616	-0.245	0.324
-322.085	337.009	-0.108	0.208
-321.070	73.088	-0.202	-0.209
-320.056	800.000	0.063	-0.188
-319.041	-108.018	0.053	0.011
-318.026	643.822	-0.049	0.124
-317.012	43.499	-0.011	-0.010
-315.997	271.785	-0.126	0.220
-314.983	800.000	-0.037	-0.149
-313.968	-55.325	-0.047	-0.021
-312.953	-55.434	0.270	-0.120
-311.939	-168.568	-0.304	-0.011
-310.924	800.000	-0.090	0.263
-309.910	217.919	-0.121	0.191
-308.895	-112.967	-0.404	0.079
-307.880	325.826	0.078	0.148
-306.866	54.544	0.242	0.231
-305.851	-47.957	-0.271	-0.130
-304.837	45.000	-0.120	0.109
-303.822	-45.003	-0.218	-0.107
-302.807	38.726	-0.178	-0.157
-301.793	-143.341	0.257	-0.024
-300.778	625.524	0.041	-0.102
-299.764	-90.247	0.110	0.032
-298.749	68.086	0.036	0.036
-297.735	-68.818	0.247	0.094
-296.720	-173.779	0.480	0.014
-295.705	149.260	0.057	0.077
-294.691	800.000	-0.009	-0.034
-293.676	207.556	0.167	0.258
-292.662	451.217	0.104	0.227
-291.647	-200.000	0.011	0.072
-290.632	-148.067	-0.173	-0.014
-289.618	-180.930	0.180	-0.004
-288.603	94.930	-0.093	0.104
-287.589	-66.912	0.340	0.133
-286.574	629.986	0.042	-0.106
-285.559	800.000	-0.026	0.085
-284.545	800.000	0.037	-0.109
-283.530	206.938	0.204	-0.314
-282.516	-33.282	-0.192	-0.105
-281.501	31.176	0.140	-0.119
-280.486	-3.809	0.207	-0.142
-279.472	237.632	0.062	-0.102
-278.457	81.061	-0.096	0.102
-277.443	-72.174	0.368	0.135
-276.428	-168.603	-0.118	-0.004
-275.413	-173.951	0.546	-0.016
-274.399	-119.654	-0.251	-0.043
-273.384	-200.000	-0.011	0.130
-272.370	800.000	-0.064	-0.216
-271.355	-200.000	0.028	0.142
-270.340	265.462	0.088	0.151
-269.326	800.000	-0.096	0.279
-268.311	486.159	0.085	-0.191
-267.297	-157.121	0.221	0.013
-266.282	800.000	0.056	0.172
-265.267	-147.782	0.256	0.021
-264.253	609.503	0.088	-0.217
-263.238	800.000	0.116	0.444
-262.224	38.936	0.204	-0.180
-261.209	-130.879	-0.381	0.050
-260.195	-66.119	0.174	-0.068
-259.180	252.771	0.073	0.123
-258.165	-200.000	0.065	0.310
-257.151	-69.597	0.254	-0.096
-256.136	285.350	-0.090	-0.160
-255.122	-8.317	-0.082	-0.054
-254.107	155.659	0.120	-0.163
-253.092	102.821	-0.238	-0.274
-252.078	-200.000	0.009	-0.062
-251.063	115.552	-0.324	0.391
-250.049	-50.310	0.258	-0.120
-249.034	3.479	0.243	0.175
-248.019	-45.011	-0.204	-0.100
-247.005	-73.858	-0.097	0.035
-245.990	133.549	0.114	0.146
-244.976	459.483	-0.121	0.265
-243.961	86.092	-0.004	-0.004
-242.946	-124.211	0.194	-0.030
-241.932	222.743	0.115	0.183
-240.917	760.199	0.095	0.254
-239.903	-200.000	-0.066	-0.397
-238.888	-139.084	0.056	-0.006
-237.873	800.000	-0.070	-0.294
-236.859	46.723	0.134	-0.123
-235.844	3.510	-0.438	-0.315
-234.830	616.894	-0.122	-0.302
-233.815	16.637	-0.197	-0.154
-232.800	-115.229	-0.316	0.059
-231.786	-200.000	-0.015	0.073
-230.771	-200.000	-0.002	0.384
-229.757	250.587	-0.156	0.261
-228.742	-200.000	-0.081	-0.581
-227.727	151.817	0.145	-0.196
-226.713	-67.610	0.085	-0.033
-225.698	-88.356	-0.247	-0.073
-224.684	11.377	-0.162	0.123
-223.669	571.481	0.060	-0.144
-222.655	-123.343	-0.129	0.020
-221.640	53.633	-0.193	-0.183
-220.625	33.725	0.103	0.089
-219.611	-64.267	-0.051	0.020
-218.596	-153.342	0.098	-0.007
-217.582	800.000	-0.075	-0.206
-216.567	432.356	0.104	0.222
-215.552	-185.487	0.129	0.002
-214.538	19.680	0.323	-0.257
-213.523	-200.000	0.037	-0.175
-212.509	188.166	-0.170	-0.251
-211.494	104.005	-0.133	-0.154
-210.479	-91.821	0.057	0.016
-209.465	-200.000	0.030	0.323
-208.450	-147.649	-0.427	-0.035
-207.436	-151.621	-0.126	-0.009
-206.421	-132.877	-0.101	-0.013
-205.406	800.000	0.098	0.268
-204.392	-50.488	-0.377	0.175
-203.377	-56.902	-0.251	-0.109
-202.363	-200.000	-0.036	0.261
-201.348	-57.307	-0.027	-0.012
-200.333	59.986	0.143	-0.140
-199.319	55.373	-0.126	0.120
-198.304	200.074	-0.106	0.160
-197.290	-200.000	-0.033	0.158
-196.275	4.577	-0.126	-0.091
-195.260	-132.158	0.305	-0.039
-194.246	-151.388	0.296	-0.022
-193.231	800.000	0.093	0.327
-192.217	-136.562	-0.368	-0.042
-191.202	-190.803	0.215	0.002
-190.187	74.176	0.160	0.166
-189.173	62.551	0.252	-0.248
-188.158	-200.000	-0.019	-0.304
-187.144	23.967	0.199	0.161
-186.129	81.514	-0.285	-0.303
-185.114	-52.879	0.212	-0.096
-184.100	102.584	-0.021	-0.024
-183.085	-28.391	-0.099	-0.056
-182.071	222.359	0.235	-0.373
-181.056	-123.875	-0.129	-0.020
-180.042	800.000	0.022	0.060
-179.027	800.000	0.041	0.158
-178.012	-69.592	-0.447	-0.168
-176.998	-25.630	-0.130	-0.076
-175.983	370.565	0.043	0.086
-174.969	-111.884	-0.132	0.026
-173.954	-179.088	-0.187	0.004
-172.939	-158.893	0.378	-0.021
-171.925	1.731	0.138	0.098
-170.910	-91.784	0.084	0.024
-169.896	-200.000	0.015	-0.183
-168.881	9.292	-0.219	0.163
-167.866	331.167	-0.119	0.226
-166.852	-118.347	0.081	-0.014
-165.837	800.000	0.025	0.097
-164.823	-67.484	0.110	-0.043
-163.808	586.567	0.060	-0.146
-162.793	800.000	-0.064	-0.176
-161.779	-26.917	0.177	-0.101
-160.764	4.008	0.206	-0.148
-159.750	478.418	0.175	0.389
-158.735	-167.927	-0.342	-0.013
-157.720	-133.335	0.102	-0.013
-156.706	635.603	-0.151	0.376
-155.691	-13.182	0.168	-0.107
-154.677	25.795	0.218	-0.178
-153.662	63.521	-0.097	-0.096
-152.647	-139.661	0.312	0.033
-151.633	-200.000	-0.048	-0.296
-150.618	-102.961	-0.121	-0.028
-149.604	-111.107	0.419	0.084
-148.589	-127.324	-0.318	-0.046
-147.574	-138.046	-0.383	0.042
-146.560	183.601	-0.068	-0.099
-145.545	244.846	-0.108	-0.178
-144.531	561.680	0.090	0.213
-143.516	800.000	0.077	0.233
-142.502	-162.054	0.021	0.001
-141.487	-200.000	-0.075	0.348
-140.472	352.271	0.160	-0.312
-139.458	2.169	0.157	-0.112
-138.443	800.000	-0.097	-0.332
-137.429	-148.819	0.447	0.036
-136.414	764.331	0.127	-0.339
-135.399	-200.000	0.059	0.277
-134.385	-35.589	-0.389	-0.207
-133.370	-200.000	-0.028	-0.269
-132.356	25.257	-0.160	-0.130
-131.341	-200.000	0.001	0.126
-130.326	-200.000	-0.014	-0.113
-129.312	99.216	0.069	-0.078
-128.297	-126.523	0.126	-0.018
-127.283	-200.000	-0.008	-0.191
-126.268	-127.362	0.365	-0.052
-125.253	131.481	0.037	-0.046
-124.239	800.000	-0.066	0.205
-123.224	-86.463	0.149	-0.045
-122.210	-86.143	-0.108	-0.033
-121.195	77.805	-0.229	0.240
