DTS Sentinel unit serial number:	SN413079Multiplexer serial number:	ORYXHardware model number:	OX4-SRSoftware version number:	ORYX F/W v4.00 Oryx Data Collector v3.7.2.0data status	okinstallation	princeton_trtdifferential loss correction	single-endedforward channel	channel 3reverse channel	N/Adate	2019/09/11time	17:50:11forward acquisition time	60.00reverse acquisition time	0.00gamma	496.2192k internal	0.2286k external	0.2286temperature offset calibration	0.9994default loss term (dB/km)	0.3790temperature slope calibration	1.0000multiplexer offset coefficient	1.0000multiplexer slope coefficient	1.0000fibre end	0.00T internal ref (°C)	43.95T ext. ref 1 (°C)	1.12T ext. ref 2 (°C)	39.25length (m)	temperature (°C)	Stokes	anti-Stokes-747.200	33.410	-0.104	0.092
-746.185	-88.432	-0.217	-0.067
-745.171	226.836	0.098	0.163
-744.156	-23.087	-0.248	0.154
-743.142	69.769	0.078	0.082
-742.127	-38.431	-0.374	0.203
-741.112	-39.598	-0.166	-0.089
-740.098	148.895	0.306	0.424
-739.083	590.232	0.041	-0.103
-738.069	-91.810	0.266	0.077
-737.054	-97.315	-0.212	-0.057
-736.039	800.000	0.092	0.346
-735.025	22.084	0.045	-0.037
-734.010	5.356	-0.216	0.163
-732.996	730.347	-0.054	-0.149
-731.981	-97.621	-0.244	0.065
-730.966	-200.000	0.020	0.263
-729.952	-45.997	0.115	-0.058
-728.937	-53.631	0.290	0.136
-727.923	293.125	0.043	0.081
-726.908	360.282	-0.090	-0.184
-725.894	-111.705	-0.096	0.020
-724.879	-200.000	0.013	-0.245
-723.864	43.189	-0.152	0.143
-722.850	800.000	-0.007	0.027
-721.835	-159.505	0.121	-0.007
-720.821	6.048	0.123	-0.093
-719.806	55.403	-0.187	-0.186
-718.791	77.568	-0.199	-0.217
-717.777	426.309	-0.030	-0.065
-716.762	-60.918	-0.228	0.099
-715.748	183.028	0.138	0.209
-714.733	-111.852	0.133	-0.028
-713.718	-157.586	0.130	0.008
-712.704	-200.000	0.064	-0.304
-711.689	-200.000	-0.065	-0.329
-710.675	-113.156	-0.177	0.036
-709.660	401.533	0.020	-0.044
-708.645	800.000	0.071	-0.281
-707.631	218.751	-0.097	-0.159
-706.616	-200.000	0.000	-0.218
-705.602	33.119	0.259	-0.230
-704.587	134.328	0.145	0.193
-703.572	14.255	-0.057	0.046
-702.558	-166.402	0.222	-0.010
-701.543	228.201	0.115	-0.191
-700.529	-128.967	0.414	0.060
-699.514	226.652	0.096	0.159
-698.499	-106.492	0.236	-0.054
-697.485	-187.568	-0.265	-0.004
-696.470	-51.551	-0.027	-0.013
-695.456	-62.585	0.222	-0.094
-694.441	-142.718	0.071	0.007
-693.426	759.641	-0.119	0.329
-692.412	-17.747	0.359	0.231
-691.397	95.031	0.035	0.041
-690.383	-61.457	-0.474	-0.204
-689.368	-200.000	-0.286	0.000
-688.354	-148.442	-0.248	-0.021
-687.339	-200.000	-0.004	-0.136
-686.324	-88.051	-0.163	-0.050
-685.310	-200.000	-0.029	0.235
-684.295	-75.379	-0.132	-0.048
-683.281	800.000	-0.019	-0.066
-682.266	136.923	0.090	0.120
-681.251	-175.055	-0.101	-0.003
-680.237	393.012	-0.203	-0.432
-679.222	-30.448	-0.121	-0.070
-678.208	-31.383	0.143	0.082
-677.193	800.000	0.032	0.103
-676.178	800.000	0.039	0.117
-675.164	-150.884	-0.162	-0.013
-674.149	-100.494	-0.290	0.073
-673.135	443.719	-0.090	-0.203
-672.120	800.000	0.107	-0.361
-671.105	661.948	0.119	-0.313
-670.091	507.130	-0.112	0.266
-669.076	-200.000	-0.039	-0.206
-668.062	176.016	0.003	-0.004
-667.047	100.326	-0.077	0.092
-666.032	-100.727	-0.072	0.018
-665.018	152.515	-0.067	-0.094
-664.003	-93.378	-0.248	-0.070
-662.989	-139.696	0.363	0.039
-661.974	292.236	0.047	-0.088
-660.959	196.574	0.131	0.204
-659.945	-134.210	-0.215	-0.027
-658.930	-200.000	-0.001	0.491
-657.916	800.000	-0.045	-0.175
-656.901	-200.000	-0.005	-0.126
-655.886	-49.248	0.369	0.180
-654.872	-200.000	0.082	-0.385
-653.857	49.428	-0.338	0.325
-652.843	94.205	0.099	0.115
-651.828	-200.000	0.008	-0.047
-650.814	-181.143	-0.187	0.004
-649.799	-152.123	-0.364	0.027
-648.784	-54.833	0.263	0.121
-647.770	-16.864	-0.039	0.025
-646.755	170.858	0.114	-0.167
-645.741	133.538	-0.151	-0.199
-644.726	-199.682	-0.122	-0.001
-643.711	684.025	0.103	-0.276
-642.697	165.446	0.133	-0.192
-641.682	-41.074	-0.223	0.118
-640.668	-200.000	0.048	-0.487
-639.653	800.000	-0.120	-0.393
-638.638	51.019	0.060	-0.058
-637.624	143.888	-0.085	-0.116
-636.609	54.138	0.030	-0.030
-635.595	-200.000	-0.027	-0.145
-634.580	214.577	-0.135	0.219
-633.565	-112.473	-0.378	-0.077
-632.551	163.214	0.082	0.118
-631.536	-200.000	0.014	0.071
-630.522	216.682	-0.106	0.173
-629.507	-150.489	0.211	-0.017
-628.492	-120.201	0.252	0.044
-627.478	42.258	-0.277	0.257
-626.463	20.255	0.146	-0.121
-625.449	-16.429	-0.260	0.168
-624.434	13.910	-0.074	-0.059
-623.419	4.250	0.353	-0.264
-622.405	2.923	0.140	0.104
-621.390	-131.244	-0.133	-0.018
-620.376	-57.464	-0.209	-0.094
-619.361	-85.867	-0.420	-0.133
-618.346	-113.306	0.160	0.032
-617.332	-67.326	0.092	-0.037
-616.317	63.727	0.231	0.237
-615.303	800.000	-0.046	-0.155
-614.288	-24.042	0.073	-0.044
-613.273	-52.707	-0.267	0.126
-612.259	290.361	0.068	-0.125
-611.244	-200.000	-0.019	-0.188
-610.230	-200.000	-0.058	-0.275
-609.215	19.683	0.424	0.348
-608.201	800.000	0.080	0.280
-607.186	-9.388	0.167	0.114
-606.171	204.812	0.168	-0.266
-605.157	-200.000	-0.061	0.327
-604.142	-188.785	-0.218	-0.003
-603.128	-118.422	-0.235	-0.043
-602.113	800.000	0.082	-0.294
-601.098	68.950	-0.266	-0.279
-600.084	-200.000	-0.011	0.194
-599.069	800.000	-0.166	-0.508
-598.055	66.806	-0.073	-0.076
-597.040	-200.000	0.019	-0.168
-596.025	445.344	0.203	-0.456
-595.011	-115.310	0.085	0.016
-593.996	23.568	0.185	0.155
-592.982	-110.618	0.296	0.062
-591.967	308.732	-0.108	-0.207
-590.952	-43.702	0.206	0.106
-589.938	-4.002	-0.113	0.080
-588.923	158.689	-0.090	-0.128
-587.909	622.717	0.077	0.197
-586.894	69.156	-0.211	0.221
-585.879	53.471	0.064	-0.063
-584.865	202.000	0.172	0.271
-583.850	-92.068	0.067	-0.019
-582.836	415.441	-0.114	0.248
-581.821	71.111	-0.060	-0.063
-580.806	-82.195	-0.267	0.089
-579.792	-200.000	-0.000	0.220
-578.777	138.613	0.203	-0.272
-577.763	68.613	0.157	-0.164
-576.748	-148.607	0.054	-0.004
-575.733	-11.478	-0.373	0.250
-574.719	-144.962	-0.171	-0.016
-573.704	-200.000	0.015	-0.215
-572.690	518.216	-0.068	0.161
-571.675	-147.260	-0.231	0.020
-570.661	78.084	-0.231	-0.251
-569.646	2.942	0.148	-0.110
-568.631	592.138	-0.028	0.070
-567.617	-200.000	0.018	-0.125
-566.602	-200.000	0.021	-0.194
-565.588	105.695	-0.064	-0.078
-564.573	476.135	-0.038	0.086
-563.558	800.000	-0.114	-0.386
-562.544	147.703	-0.225	-0.309
-561.529	-108.789	-0.184	0.040
-560.515	12.769	-0.279	-0.220
-559.500	-200.000	-0.031	-0.444
-558.485	800.000	-0.083	-0.336
-557.471	-26.764	-0.225	0.134
-556.456	-200.000	0.041	-0.264
-555.442	179.577	-0.197	-0.294
-554.427	32.397	0.337	0.296
-553.412	340.717	0.077	0.153
-552.398	800.000	0.026	0.106
-551.383	-97.913	-0.490	0.129
-550.369	-47.142	0.088	0.044
-549.354	-200.000	0.005	-0.094
-548.339	-92.569	0.175	-0.050
-547.325	-200.000	0.015	0.167
-546.310	-200.000	-0.027	0.206
-545.296	-124.210	-0.173	-0.028
-544.281	-28.883	0.257	0.150
-543.266	800.000	0.062	0.190
-542.252	-34.045	0.227	0.127
-541.237	-105.836	0.211	-0.048
-540.223	269.596	-0.193	-0.346
-539.208	800.000	-0.074	-0.248
-538.193	-77.389	-0.406	0.144
-537.179	-8.508	-0.073	0.050
-536.164	-149.883	-0.388	-0.031
-535.150	96.726	0.162	-0.189
-534.135	456.961	0.017	-0.039
-533.121	-98.732	0.279	-0.072
-532.106	-7.177	0.174	-0.120
-531.091	-113.845	0.089	-0.018
-530.077	63.624	-0.110	0.112
-529.062	235.585	-0.071	0.119
-528.048	-200.000	-0.026	0.436
-527.033	-200.000	0.023	-0.147
-526.018	196.232	0.098	-0.151
-525.004	317.393	0.121	0.233
-523.989	800.000	0.120	-0.395
-522.975	40.772	0.048	-0.044
-521.960	526.679	-0.010	0.024
-520.945	-200.000	-0.005	-0.287
-519.931	178.422	-0.139	-0.207
-518.916	318.517	-0.107	0.206
-517.902	-78.780	0.187	-0.065
-516.887	800.000	-0.141	0.426
-515.872	-200.000	0.007	0.393
-514.858	265.736	-0.129	-0.229
-513.843	205.319	0.226	0.357
-512.829	-180.780	-0.156	0.003
-511.814	-133.675	0.203	-0.026
-510.799	-200.000	-0.009	-0.543
-509.785	800.000	0.113	-0.378
-508.770	239.860	-0.145	0.245
-507.756	144.331	0.074	0.100
-506.741	800.000	0.040	0.151
-505.726	-200.000	0.009	0.110
-504.712	-17.203	-0.201	-0.129
-503.697	-91.157	0.323	-0.094
-502.683	-27.659	-0.073	-0.043
-501.668	620.936	-0.057	-0.145
-500.653	-200.000	-0.045	0.288
-499.639	-120.115	0.167	-0.029
-498.624	-200.000	0.013	-0.146
-497.610	-109.641	0.082	-0.018
-496.595	-200.000	0.052	0.234
-495.581	-148.012	0.160	0.013
-494.566	-87.591	-0.286	-0.088
-493.551	27.754	-0.136	-0.117
-492.537	-115.551	0.127	0.024
-491.522	-50.770	0.135	-0.065
-490.508	-75.994	0.130	0.047
-489.493	-65.879	0.132	0.053
-488.478	-4.712	0.040	0.028
-487.464	-200.000	-0.009	-0.235
-486.449	800.000	0.056	-0.160
-485.435	-122.489	0.425	-0.070
-484.420	-140.500	0.177	0.019
-483.405	29.515	-0.172	-0.148
-482.391	-36.313	-0.416	0.228
-481.376	-103.276	-0.390	-0.094
-480.362	-200.000	-0.015	-0.221
-479.347	-132.002	-0.381	0.050
-478.332	532.114	-0.034	-0.082
-477.318	-55.837	0.272	0.123
-476.303	-183.480	-0.222	-0.004
-475.289	-200.000	0.025	-0.271
-474.274	-69.737	-0.136	-0.053
-473.259	546.052	-0.137	-0.334
-472.245	285.846	0.147	-0.269
-471.230	-200.000	0.002	0.214
-470.216	92.298	0.255	-0.292
-469.201	800.000	0.039	-0.125
-468.186	-44.190	-0.115	-0.058
-467.172	58.332	0.136	-0.135
-466.157	-150.577	0.330	-0.026
-465.143	-200.000	0.048	-0.284
-464.128	61.489	0.086	-0.087
-463.113	-4.504	-0.261	-0.183
-462.099	82.070	0.209	-0.230
-461.084	-39.035	-0.207	0.110
-460.070	-200.000	0.045	-0.206
-459.055	30.239	0.132	-0.115
-458.040	-131.466	-0.499	-0.067
-457.026	-200.000	0.020	0.148
-456.011	-200.000	0.006	0.045
-454.997	-16.017	0.378	-0.244
-453.982	-200.000	-0.024	-0.243
-452.968	583.618	-0.091	0.226
-451.953	-200.000	-0.022	0.164
-450.938	164.817	0.077	0.110
-449.924	-86.799	0.285	-0.088
-448.909	-200.000	0.020	-0.133
-447.895	-14.867	-0.111	-0.073
-446.880	-54.071	0.283	-0.131
-445.865	-200.000	0.048	0.339
-444.851	580.451	0.126	0.314
-443.836	-162.855	-0.170	0.008
-442.822	-69.879	0.370	0.143
-441.807	800.000	-0.055	0.226
-440.792	-149.484	-0.110	-0.009
-439.778	-129.904	-0.164	-0.023
-438.763	424.315	-0.220	0.480
-437.749	-124.962	0.240	0.038
-436.734	-71.214	0.241	0.092
-435.719	153.961	0.178	0.248
-434.705	-200.000	-0.032	0.410
-433.690	800.000	0.075	0.228
-432.676	414.142	-0.231	-0.499
-431.661	-90.001	-0.272	0.080
-430.646	-200.000	0.001	0.094
-429.632	59.639	0.114	0.114
-428.617	800.000	-0.052	0.205
-427.603	-200.000	-0.002	0.137
-426.588	-49.578	0.315	0.152
-425.573	89.988	0.228	-0.258
-424.559	40.267	0.172	-0.157
-423.544	44.885	-0.026	0.024
-422.530	-200.000	0.034	-0.344
-421.515	49.743	0.097	-0.093
-420.500	-200.000	0.022	-0.286
-419.486	694.715	-0.038	0.102
-418.471	10.976	0.280	0.217
-417.457	-3.872	-0.029	0.021
-416.442	-69.215	-0.239	-0.093
-415.428	-38.518	-0.134	0.072
-414.413	-2.367	-0.176	-0.125
-413.398	-39.861	0.193	0.102
-412.384	800.000	-0.033	-0.101
-411.369	-85.206	0.427	-0.135
-410.355	164.632	0.165	-0.236
-409.340	-61.493	-0.270	-0.115
-408.325	-200.000	-0.025	-0.136
-407.311	5.236	0.090	0.067
-406.296	800.000	0.087	0.324
-405.282	800.000	0.034	0.135
-404.267	-10.937	-0.094	0.063
-403.252	-186.448	0.239	-0.003
-402.238	155.436	-0.280	0.390
-401.223	800.000	0.100	-0.286
-400.209	-59.932	0.358	0.155
-399.194	-21.269	-0.052	-0.032
-398.179	467.525	-0.046	0.105
-397.165	182.237	0.163	-0.243
-396.150	106.943	0.242	0.291
-395.136	-78.012	0.225	-0.078
-394.121	-19.433	-0.189	0.119
-393.106	-81.725	-0.228	0.076
-392.092	-72.778	-0.197	0.073
-391.077	-49.515	-0.354	0.171
-390.063	-78.443	0.355	-0.123
-389.048	149.881	0.112	-0.154
-388.033	-200.000	0.051	0.349
-387.019	446.296	0.084	-0.188
-386.004	800.000	-0.152	0.483
-384.990	408.002	0.112	0.239
-383.975	-159.609	0.189	-0.011
-382.960	-52.359	-0.200	0.094
-381.946	35.155	-0.266	0.236
-380.931	-200.000	-0.024	-0.418
-379.917	-159.498	-0.390	0.022
-378.902	800.000	-0.026	-0.107
-377.888	-200.000	0.008	-0.140
-376.873	25.150	0.093	0.078
-375.858	-66.962	0.436	-0.174
-374.844	449.705	0.111	0.247
-373.829	800.000	-0.096	-0.311
-372.815	126.210	0.103	-0.132
-371.800	-200.000	-0.001	0.282
-370.785	-129.253	0.378	0.053
-369.771	112.763	-0.114	0.140
-368.756	82.168	-0.130	0.143
-367.742	-200.000	-0.005	0.117
-366.727	-92.520	0.490	-0.139
-365.712	-117.163	-0.146	-0.027
-364.698	-102.480	-0.397	-0.096
-363.683	-130.079	-0.225	-0.031
-362.669	615.026	0.072	-0.183
-361.654	11.881	0.122	0.094
-360.639	185.381	0.233	0.349
-359.625	173.226	-0.076	0.110
-358.610	-92.947	-0.181	0.051
-357.596	-38.429	0.147	0.079
-356.581	5.903	-0.250	0.187
-355.566	121.053	0.053	0.066
-354.552	-200.000	-0.017	0.340
-353.537	-200.000	0.010	0.256
-352.523	800.000	-0.058	0.253
-351.508	-11.591	-0.188	-0.125
-350.493	800.000	0.066	-0.264
-349.479	42.951	-0.263	-0.242
-348.464	-165.615	-0.212	0.009
-347.450	800.000	0.067	0.258
-346.435	-56.906	-0.230	-0.103
-345.420	-106.468	-0.091	0.020
-344.406	93.307	-0.316	-0.361
-343.391	-200.000	-0.016	0.363
-342.377	-136.809	0.345	0.040
-341.362	-9.490	0.169	-0.114
-340.348	295.649	0.052	0.097
-339.333	-200.000	0.026	-0.144
-338.318	129.006	0.121	-0.156
-337.304	-200.000	-0.007	-0.033
-336.289	111.302	-0.122	-0.148
-335.275	-33.887	-0.108	0.060
-334.260	800.000	0.071	-0.274
-333.245	-15.977	-0.064	0.041
-332.231	800.000	0.073	0.272
-331.216	-24.190	-0.312	-0.188
-330.202	-147.142	-0.083	-0.007
-329.187	-161.208	-0.234	0.012
-328.172	-69.110	-0.300	-0.117
-327.158	-32.997	-0.116	-0.065
-326.143	-200.000	0.031	0.196
-325.129	-147.685	0.237	-0.020
-324.114	32.159	-0.185	0.161
-323.099	220.599	0.093	-0.150
-322.085	236.844	0.061	-0.102
-321.070	-70.989	-0.082	0.031
-320.056	-200.000	-0.023	0.316
-319.041	73.217	-0.174	0.184
-318.026	-200.000	-0.023	-0.125
-317.012	-200.000	-0.021	0.228
-315.997	136.140	-0.102	0.135
-314.983	298.999	-0.098	0.181
-313.968	319.481	0.064	0.122
-312.953	159.805	0.059	-0.083
-311.939	95.189	-0.161	0.186
-310.924	-116.615	0.199	0.037
-309.910	270.055	-0.110	0.195
-308.895	-37.718	0.120	0.064
-307.880	-120.967	-0.175	-0.030
-306.866	-71.111	0.168	0.064
-305.851	-67.810	-0.387	0.153
-304.837	-97.946	-0.234	-0.061
-303.822	604.966	-0.146	-0.368
-302.807	-44.954	0.101	-0.051
-301.793	-56.704	-0.197	0.088
-300.778	800.000	-0.047	-0.189
-299.764	19.639	0.120	-0.097
-298.749	-86.876	0.301	-0.093
-297.735	130.446	-0.113	-0.146
-296.720	86.302	0.100	-0.111
-295.705	-200.000	-0.013	-0.104
-294.691	-5.668	0.233	-0.161
-293.676	-60.284	0.156	-0.067
-292.662	56.670	-0.090	-0.089
-291.647	-200.000	0.002	-0.167
-290.632	-110.104	0.241	-0.051
-289.618	-70.592	0.078	0.030
-288.603	125.662	-0.105	0.134
-287.589	40.612	-0.065	-0.059
-286.574	89.823	-0.048	-0.054
-285.559	175.098	0.239	0.348
-284.545	-28.202	-0.214	0.125
-283.530	-85.241	-0.367	-0.115
-282.516	800.000	0.058	-0.174
-281.501	-200.000	0.003	0.293
-280.486	-57.510	0.177	-0.078
-279.472	50.307	0.274	0.261
-278.457	-200.000	0.025	-0.139
-277.443	-180.946	-0.163	-0.003
-276.428	109.266	-0.086	0.103
-275.413	-200.000	0.078	0.425
-274.399	-107.553	-0.345	0.076
-273.384	-78.547	0.188	-0.065
-272.370	-200.000	0.031	-0.199
-271.355	-2.522	0.133	-0.094
-270.340	700.034	-0.117	-0.310
-269.326	113.304	-0.239	-0.292
-268.311	-29.519	0.139	-0.080
-267.297	-55.107	0.139	-0.063
-266.282	53.026	0.087	-0.084
-265.267	285.334	-0.080	-0.145
-264.253	81.844	-0.208	0.227
-263.238	800.000	-0.107	0.314
-262.224	-115.238	0.172	-0.033
-261.209	-200.000	-0.007	0.333
-260.195	-157.645	0.503	0.030
-259.180	-200.000	-0.037	-0.306
-258.165	95.593	0.281	-0.322
-257.151	-38.616	0.229	-0.122
-256.136	-200.000	-0.009	-0.203
-255.122	-200.000	-0.049	0.309
-254.107	64.036	0.200	-0.202
-253.092	33.117	-0.144	-0.125
-252.078	800.000	0.038	0.137
-251.063	-158.817	-0.312	0.018
-250.049	34.521	-0.177	0.155
-249.034	40.537	0.154	-0.139
-248.019	-200.000	-0.069	-0.318
-247.005	-118.934	-0.191	0.034
-245.990	1.416	-0.131	0.095
-244.976	-98.458	0.139	0.036
-243.961	108.706	0.155	-0.186
-242.946	-26.962	0.384	0.226
-241.932	676.684	-0.116	0.303
-240.917	800.000	0.111	-0.316
-239.903	68.467	0.195	0.201
-238.888	16.573	0.096	0.076
-237.873	22.397	-0.127	0.105
-236.859	69.939	-0.280	0.291
-235.844	241.327	0.066	-0.110
-234.830	-137.116	0.116	-0.013
-233.815	11.838	-0.114	0.088
-232.800	-4.100	-0.127	0.088
-231.786	149.905	0.083	-0.114
-230.771	96.050	0.268	-0.308
-229.757	-116.699	-0.444	-0.082
-228.742	-19.675	0.287	-0.178
-227.727	-0.701	0.203	0.145
-226.713	-118.309	0.280	-0.050
-225.698	-15.673	-0.040	-0.026
-224.684	-164.112	-0.263	-0.012
-223.669	800.000	0.034	-0.131
-222.655	-150.663	0.480	0.037
-221.640	800.000	-0.148	0.434
-220.625	9.670	-0.087	-0.067
-219.611	800.000	-0.062	-0.213
-218.596	-200.000	0.006	-0.065
-217.582	-150.898	-0.150	0.011
-216.567	-72.370	-0.133	0.049
-215.552	217.167	-0.108	0.173
-214.538	-179.904	0.184	0.004
-213.523	-200.000	0.014	0.597
-212.509	-44.771	-0.366	0.184
-211.494	37.016	-0.192	0.170
-210.479	74.124	-0.233	0.246
-209.465	-40.500	-0.238	0.124
-208.450	-125.324	-0.388	-0.060
-207.436	-7.774	0.137	0.093
-206.421	-200.000	-0.012	-0.286
-205.406	41.847	-0.230	-0.209
-204.392	-49.516	0.217	0.104
-203.377	412.197	0.046	-0.098
-202.363	-71.939	0.105	-0.039
-201.348	-24.388	0.207	-0.124
-200.333	34.737	-0.112	-0.099
-199.319	-115.390	-0.054	-0.010
-198.304	-200.000	-0.012	0.120
-197.290	-159.634	0.273	-0.015
-196.275	-125.968	0.365	-0.055
-195.260	-130.465	0.300	-0.041
-194.246	-62.030	0.154	0.064
-193.231	72.859	0.184	0.193
-192.217	-200.000	-0.059	0.299
-191.202	30.376	0.292	-0.250
-190.187	-32.688	-0.071	0.040
-189.173	-200.000	-0.011	-0.147
-188.158	-64.846	0.164	0.067
-187.144	-44.593	0.132	-0.066
-186.129	800.000	0.058	0.205
-185.114	117.214	0.330	0.408
-184.100	221.470	0.125	0.202
-183.085	-42.052	-0.353	0.181
-182.071	800.000	0.028	-0.093
-181.056	336.196	0.108	-0.210
-180.042	136.150	0.102	0.133
-179.027	800.000	0.111	0.322
-178.012	728.308	0.004	-0.010
-176.998	-102.441	-0.333	-0.080
-175.983	-181.489	-0.374	-0.007
-174.969	794.199	0.039	-0.107
-173.954	-200.000	0.059	0.361
-172.939	56.562	0.098	0.096
-171.925	239.381	-0.150	0.250
-170.910	539.297	0.030	0.071
-169.896	284.605	0.125	-0.226
-168.881	-124.153	0.168	-0.026
-167.866	-143.098	-0.062	0.006
-166.852	-58.411	-0.194	-0.085
-165.837	-116.589	-0.056	0.010
-164.823	251.101	-0.055	-0.094
-163.808	-109.507	0.024	0.005
-162.793	-200.000	-0.060	0.295
-161.779	-122.688	-0.317	0.051
-160.764	-48.912	0.219	-0.105
-159.750	21.189	0.165	-0.134
-158.735	-33.375	-0.039	0.022
-157.720	800.000	0.101	0.329
-156.706	103.524	-0.220	0.259
-155.691	-25.269	0.078	-0.046
-154.677	-200.000	-0.027	-0.170
-153.662	-200.000	0.041	0.257
-152.647	-4.501	0.159	0.110
-151.633	-200.000	-0.008	0.276
-150.618	-82.965	-0.078	-0.025
-149.604	-200.000	-0.033	-0.168
-148.589	746.738	-0.113	-0.306
-147.574	69.151	-0.002	0.002
-146.560	719.460	0.160	0.425
-145.545	7.612	-0.119	-0.089
-144.531	102.723	0.182	0.214
-143.516	95.563	-0.118	-0.135
-142.502	-92.582	-0.420	0.118
-141.487	-65.857	-0.133	-0.053
-140.472	126.838	0.304	0.386
-139.458	800.000	-0.040	-0.154
-138.443	-200.000	-0.025	0.274
-137.429	-101.335	0.209	0.051
-136.414	37.213	-0.218	0.193
-135.399	-67.039	0.204	0.081
-134.385	-113.299	-0.304	-0.060
-133.370	-169.961	-0.068	-0.002
-132.356	-54.301	-0.114	0.052
-131.341	139.786	-0.112	0.147
-130.326	-119.234	0.423	-0.074
-129.312	-200.000	-0.005	-0.252
-128.297	95.883	0.106	-0.121
-127.283	-59.980	0.203	0.087
-126.268	23.387	0.201	-0.166
-125.253	100.693	0.128	-0.149
-124.239	-6.941	0.316	-0.215
-123.224	132.366	-0.081	-0.104
-122.210	30.123	0.107	0.091
