DTS Sentinel unit serial number:	SN413079Multiplexer serial number:	ORYXHardware model number:	OX4-SRSoftware version number:	ORYX F/W v4.00 Oryx Data Collector v3.7.2.0data status	okinstallation	princeton_trtdifferential loss correction	single-endedforward channel	channel 3reverse channel	N/Adate	2019/09/10time	20:10:10forward acquisition time	60.00reverse acquisition time	0.00gamma	496.2192k internal	0.2325k external	0.2325temperature offset calibration	0.9921default loss term (dB/km)	0.3790temperature slope calibration	1.0000multiplexer offset coefficient	1.0000multiplexer slope coefficient	1.0000fibre end	0.00T internal ref (°C)	32.44T ext. ref 1 (°C)	-0.31T ext. ref 2 (°C)	25.32length (m)	temperature (°C)	Stokes	anti-Stokes-747.200	-172.854	-0.331	0.010
-746.185	-103.225	-0.331	0.079
-745.171	-78.991	-0.034	0.012
-744.156	45.087	-0.126	0.117
-743.142	-200.000	-0.005	-0.236
-742.127	-200.000	-0.033	0.180
-741.112	-9.834	-0.033	-0.022
-740.098	-86.809	-0.312	0.096
-739.083	12.377	0.348	-0.270
-738.069	-200.000	-0.003	-0.317
-737.054	-160.729	-0.269	0.014
-736.039	-70.237	-0.150	-0.058
-735.025	-168.366	0.291	0.011
-734.010	-6.470	-0.273	-0.188
-732.996	638.228	0.085	-0.219
-731.981	83.087	0.352	-0.386
-730.966	-26.075	-0.239	-0.142
-729.952	96.333	-0.200	-0.230
-728.937	-182.074	-0.251	0.005
-727.923	202.613	-0.131	-0.203
-726.908	249.808	-0.022	-0.037
-725.894	-200.000	0.005	0.053
-724.879	-200.000	0.049	-0.240
-723.864	601.759	0.076	-0.192
-722.850	-32.782	-0.253	-0.142
-721.835	-57.236	-0.068	0.030
-720.821	305.859	-0.110	-0.205
-719.806	-11.389	-0.139	-0.092
-718.791	137.552	-0.029	0.038
-717.777	800.000	0.084	-0.262
-716.762	-118.160	-0.354	0.064
-715.748	-110.112	0.286	-0.060
-714.733	800.000	0.023	0.076
-713.718	-15.804	-0.353	0.227
-712.704	800.000	0.075	-0.282
-711.689	-149.404	-0.368	0.029
-710.675	-200.000	0.013	0.175
-709.660	-164.288	-0.243	0.011
-708.645	800.000	-0.040	0.113
-707.631	311.236	0.089	0.168
-706.616	275.079	-0.116	-0.207
-705.602	-121.567	-0.242	-0.041
-704.587	-144.349	-0.407	0.038
-703.572	113.415	-0.055	-0.068
-702.558	-200.000	-0.001	0.312
-701.543	5.499	0.199	-0.148
-700.529	62.782	-0.127	0.128
-699.514	-31.979	0.239	-0.135
-698.499	663.002	-0.081	0.209
-697.485	175.144	-0.268	0.391
-696.470	-45.988	-0.118	0.059
-695.456	623.144	-0.011	0.027
-694.441	-200.000	0.000	0.167
-693.426	262.560	-0.134	-0.233
-692.412	-13.745	0.141	-0.092
-691.397	-126.945	-0.225	0.033
-690.383	800.000	0.056	0.168
-689.368	-200.000	-0.076	0.368
-688.354	-162.724	0.208	0.010
-687.339	-200.000	-0.009	0.090
-686.324	26.801	0.063	-0.053
-685.310	-189.583	0.347	-0.004
-684.295	-200.000	-0.040	0.452
-683.281	201.389	0.104	0.161
-682.266	174.055	-0.043	0.062
-681.251	800.000	0.104	-0.329
-680.237	-200.000	-0.006	0.163
-679.222	5.797	0.253	0.188
-678.208	800.000	-0.043	-0.146
-677.193	-78.901	-0.393	0.135
-676.178	-63.578	-0.123	0.051
-675.164	421.174	-0.109	-0.235
-674.149	800.000	-0.071	-0.212
-673.135	-200.000	-0.025	0.226
-672.120	-18.596	-0.252	-0.158
-671.105	-78.533	-0.137	-0.047
-670.091	-50.928	0.182	0.086
-669.076	-119.087	-0.393	-0.069
-668.062	56.143	0.337	-0.329
-667.047	-200.000	-0.019	0.260
-666.032	800.000	-0.064	-0.192
-665.018	-183.151	-0.282	0.005
-664.003	46.442	0.089	0.083
-662.989	-9.300	-0.139	-0.093
-661.974	-39.552	-0.216	-0.114
-660.959	-38.436	-0.181	-0.096
-659.945	-200.000	-0.004	-0.206
-658.930	800.000	-0.090	-0.299
-657.916	-35.652	0.219	-0.120
-656.901	-200.000	-0.063	-0.288
-655.886	475.491	-0.063	-0.144
-654.872	197.123	0.237	-0.363
-653.857	582.360	-0.127	0.313
-652.843	63.078	-0.251	-0.252
-651.828	-123.942	0.126	-0.020
-650.814	-107.799	-0.061	0.013
-649.799	95.044	-0.255	0.292
-648.784	161.581	-0.149	0.210
-647.770	800.000	-0.027	0.106
-646.755	115.903	0.149	0.184
-645.741	7.487	-0.151	-0.113
-644.726	153.442	0.172	-0.237
-643.711	-200.000	-0.042	0.193
-642.697	21.305	0.058	-0.047
-641.682	71.633	-0.283	-0.295
-640.668	-146.507	0.172	0.015
-639.653	181.448	0.118	0.175
-638.638	206.588	0.056	-0.088
-637.624	-65.599	0.201	0.081
-636.609	-156.801	0.178	-0.011
-635.595	80.638	0.139	-0.150
-634.580	481.682	-0.131	-0.298
-633.565	-200.000	0.017	-0.112
-632.551	-200.000	0.047	0.325
-631.536	-9.210	-0.190	-0.128
-630.522	-154.908	0.300	0.020
-629.507	24.411	-0.324	-0.269
-628.492	-29.712	-0.155	0.089
-627.478	-101.993	-0.039	0.009
-626.463	-47.495	-0.336	-0.164
-625.449	800.000	0.051	0.191
-624.434	-75.789	0.202	-0.072
-623.419	-106.637	-0.145	-0.032
-622.405	302.715	-0.143	-0.266
-621.390	9.559	0.231	0.176
-620.376	-101.931	-0.156	-0.038
-619.361	-12.268	-0.267	0.175
-618.346	-75.697	-0.178	0.063
-617.332	200.353	-0.178	-0.275
-616.317	81.049	0.125	-0.135
-615.303	94.502	0.126	-0.144
-614.288	-75.857	0.302	0.107
-613.273	55.053	-0.319	-0.309
-612.259	-107.122	-0.211	0.047
-611.244	70.921	0.192	-0.199
-610.230	-200.000	0.019	-0.223
-609.215	800.000	0.067	0.267
-608.201	-200.000	0.036	0.207
-607.186	37.103	-0.238	-0.211
-606.171	-200.000	-0.026	-0.352
-605.157	436.435	0.217	-0.474
-604.142	-200.000	-0.017	-0.095
-603.128	-166.293	-0.129	-0.005
-602.113	-54.653	-0.208	0.094
-601.098	-97.923	0.202	-0.052
-600.084	-200.000	-0.015	-0.182
-599.069	99.565	-0.065	-0.075
-598.055	111.194	0.130	-0.157
-597.040	-46.231	0.058	0.029
-596.025	-10.521	0.018	-0.012
-595.011	-61.594	0.532	-0.224
-593.996	-200.000	0.007	0.048
-592.982	-76.686	-0.394	-0.139
-591.967	800.000	-0.076	-0.256
-590.952	-58.941	-0.220	0.095
-589.938	-87.412	-0.274	-0.083
-588.923	58.113	-0.126	-0.124
-587.909	88.646	-0.152	-0.170
-586.894	-2.865	0.059	0.041
-585.879	-51.716	0.262	0.122
-584.865	-109.906	-0.155	-0.033
-583.850	-44.105	0.039	0.019
-582.836	308.833	0.058	0.108
-581.821	155.449	-0.055	-0.076
-580.806	-12.988	-0.216	-0.141
-579.792	-200.000	-0.075	-0.382
-578.777	800.000	-0.034	0.127
-577.763	303.063	0.048	-0.089
-576.748	513.751	-0.106	-0.248
-575.733	-200.000	-0.023	0.130
-574.719	-200.000	0.040	-0.273
-573.704	-200.000	0.000	-0.063
-572.690	-157.569	-0.145	-0.009
-571.675	-200.000	0.006	-0.095
-570.661	800.000	-0.096	-0.346
-569.646	-200.000	0.027	0.199
-568.631	280.165	-0.115	0.206
-567.617	-32.840	0.148	0.083
-566.602	60.011	0.099	-0.098
-565.588	-42.575	0.155	-0.079
-564.573	-152.165	0.210	-0.015
-563.558	-12.700	-0.021	-0.014
-562.544	92.920	0.079	0.089
-561.529	-57.953	-0.268	0.117
-560.515	-12.010	0.200	0.131
-559.500	-32.335	0.092	0.052
-558.485	-75.929	0.289	-0.102
-557.471	488.690	-0.125	-0.287
-556.456	-61.328	-0.162	0.068
-555.442	800.000	0.085	0.298
-554.427	-45.977	-0.221	-0.109
-553.412	573.349	0.056	0.138
-552.398	-27.247	0.375	0.218
-551.383	-41.289	-0.220	-0.114
-550.369	244.593	-0.023	-0.038
-549.354	-163.017	-0.129	-0.006
-548.339	0.198	-0.147	-0.105
-547.325	-200.000	0.015	-0.174
-546.310	-94.407	-0.212	0.058
-545.296	16.020	-0.397	-0.313
-544.281	3.890	-0.233	-0.171
-543.266	800.000	-0.041	-0.158
-542.252	-47.406	-0.210	-0.102
-541.237	331.107	0.067	0.129
-540.223	-133.551	-0.224	-0.028
-539.208	-200.000	0.009	0.062
-538.193	-200.000	-0.021	-0.138
-537.179	800.000	-0.077	-0.237
-536.164	-81.114	0.166	0.055
-535.150	-74.702	0.357	-0.128
-534.135	-77.215	-0.265	0.092
-533.121	-1.353	-0.254	-0.179
-532.106	-73.693	-0.282	-0.103
-531.091	-200.000	-0.007	0.124
-530.077	-200.000	0.058	-0.455
-529.062	800.000	0.093	-0.387
-528.048	-65.267	0.166	-0.067
-527.033	-200.000	0.010	-0.217
-526.018	-41.222	0.191	-0.099
-525.004	72.235	0.095	0.099
-523.989	-0.011	-0.053	-0.038
-522.975	-144.910	-0.244	-0.022
-521.960	800.000	-0.030	-0.097
-520.945	800.000	-0.063	0.253
-519.931	800.000	-0.012	0.043
-518.916	16.643	-0.107	0.085
-517.902	152.994	0.119	-0.163
-516.887	19.184	-0.182	-0.146
-515.872	-200.000	-0.055	-0.434
-514.858	62.447	0.068	-0.068
-513.843	-69.435	-0.206	0.079
-512.829	694.300	0.009	-0.025
-511.814	-45.145	-0.024	-0.012
-510.799	-101.989	0.229	-0.055
-509.785	-200.000	0.006	-0.062
-508.770	800.000	0.031	-0.104
-507.756	13.094	0.217	0.168
-506.741	-28.007	0.159	0.092
-505.726	63.028	0.336	-0.337
-504.712	-131.572	-0.081	0.011
-503.697	200.407	0.200	0.307
-502.683	-37.303	-0.230	0.123
-501.668	-53.773	0.186	0.085
-500.653	-94.772	-0.224	0.061
-499.639	-24.595	-0.095	-0.057
-498.624	140.795	-0.271	0.358
-497.610	214.459	-0.232	-0.367
-496.595	275.095	-0.137	0.242
-495.581	209.485	-0.146	0.229
-494.566	-21.544	0.259	-0.158
-493.551	-114.738	-0.152	-0.029
-492.537	-1.177	0.178	-0.126
-491.522	-7.441	-0.169	-0.114
-490.508	634.675	-0.093	0.236
-489.493	75.647	0.007	-0.007
-488.478	109.832	0.199	-0.239
-487.464	114.611	-0.152	0.185
-486.449	-200.000	-0.027	0.215
-485.435	-109.197	0.293	0.062
-484.420	-106.483	0.111	-0.025
-483.405	78.355	0.131	0.139
-482.391	132.837	-0.075	0.096
-481.376	-200.000	0.010	-0.125
-480.362	36.938	-0.094	-0.083
-479.347	-172.472	-0.324	0.010
-478.332	-131.560	-0.110	-0.014
-477.318	96.634	0.290	0.332
-476.303	84.863	-0.203	-0.222
-475.289	-200.000	-0.039	-0.207
-474.274	-145.670	0.282	0.025
-473.259	-120.449	-0.060	-0.010
-472.245	166.044	-0.182	0.257
-471.230	-200.000	0.046	0.000
-470.216	-200.000	-0.025	-0.161
-469.201	-115.001	-0.199	0.038
-468.186	579.921	-0.169	0.413
-467.172	-10.777	0.185	0.122
-466.157	800.000	0.051	0.197
-465.143	110.672	-0.256	0.307
-464.128	-97.511	-0.337	-0.087
-463.113	-48.877	0.231	0.111
-462.099	-4.879	-0.077	0.053
-461.084	-83.575	-0.129	0.041
-460.070	-140.759	-0.247	0.025
-459.055	10.509	-0.174	-0.133
-458.040	178.667	-0.078	-0.114
-457.026	369.732	0.051	-0.103
-456.011	-132.833	-0.160	0.020
-454.997	-12.434	0.226	0.147
-453.982	-109.123	-0.247	0.052
-452.968	-200.000	0.049	0.297
-451.953	-200.000	0.010	-0.435
-450.938	-82.567	-0.031	-0.010
-449.924	335.181	-0.034	-0.066
-448.909	95.261	-0.202	-0.230
-447.895	-14.679	-0.125	0.080
-446.880	40.474	-0.114	0.103
-445.865	-121.418	0.249	-0.041
-444.851	-111.819	0.236	0.048
-443.836	-75.512	-0.207	0.073
-442.822	-92.733	-0.181	-0.051
-441.807	-134.195	0.137	0.017
-440.792	-101.092	-0.091	0.022
-439.778	-200.000	0.064	-0.321
-438.763	181.201	0.129	-0.189
-437.749	-148.207	-0.190	-0.016
-436.734	-150.821	0.049	-0.004
-435.719	-200.000	0.011	-0.192
-434.705	-107.738	-0.041	0.009
-433.690	-101.355	0.128	0.031
-432.676	110.333	0.173	-0.207
-431.661	-22.660	0.116	0.070
-430.646	-34.252	-0.177	0.097
-429.632	-200.000	-0.082	-0.382
-428.617	-120.890	0.315	-0.053
-427.603	31.402	0.265	-0.226
-426.588	-65.752	0.261	0.104
-425.573	335.241	0.095	0.183
-424.559	-106.472	-0.257	-0.057
-423.544	7.731	0.188	0.140
-422.530	-200.000	0.036	-0.304
-421.515	-200.000	-0.018	-0.296
-420.500	-14.523	-0.168	-0.108
-419.486	-112.513	0.243	-0.048
-418.471	-19.561	-0.130	0.080
-417.457	-141.000	-0.056	-0.006
-416.442	102.160	0.117	0.136
-415.428	-64.119	-0.279	-0.113
-414.413	-121.660	0.485	-0.080
-413.398	-30.353	-0.339	0.192
-412.384	32.519	-0.147	0.127
-411.369	800.000	-0.018	0.052
-410.355	42.993	0.167	0.152
-409.340	-47.224	0.294	-0.143
-408.325	-200.000	0.213	-0.000
-407.311	600.032	-0.060	0.149
-406.296	598.921	-0.118	0.292
-405.282	64.085	0.124	-0.124
-404.267	81.376	0.264	0.284
-403.252	-9.529	-0.104	0.069
-402.238	-200.000	0.070	0.483
-401.223	-49.310	-0.294	-0.140
-400.209	7.101	0.127	0.095
-399.194	133.380	-0.049	0.063
-398.179	-132.580	0.192	-0.025
-397.165	81.379	-0.287	-0.309
-396.150	0.854	-0.052	0.037
-395.136	-200.000	0.078	0.413
-394.121	800.000	-0.130	0.420
-393.106	529.745	-0.116	0.272
-392.092	-137.420	-0.272	-0.031
-391.077	455.417	-0.075	-0.166
-390.063	23.928	-0.025	-0.021
-389.048	-200.000	-0.022	0.186
-388.033	-37.963	-0.154	0.082
-387.019	104.805	-0.099	-0.117
-386.004	800.000	-0.041	-0.114
-384.990	396.557	-0.114	0.238
-383.975	94.568	0.214	0.242
-382.960	-138.409	0.281	0.031
-381.946	-41.582	0.052	0.026
-380.931	-134.633	-0.208	-0.025
-379.917	58.252	-0.027	0.026
-378.902	707.835	-0.043	0.114
-377.888	-94.621	-0.135	0.037
-376.873	170.639	-0.132	0.188
-375.858	-200.000	0.025	0.449
-374.844	-150.344	-0.131	0.010
-373.829	-102.016	-0.223	0.054
-372.815	253.369	-0.100	-0.170
-371.800	800.000	-0.087	-0.376
-370.785	-200.000	-0.017	0.246
-369.771	289.593	-0.119	0.214
-368.756	800.000	0.015	0.054
-367.742	43.863	0.093	0.085
-366.727	-200.000	0.040	0.305
-365.712	-50.900	-0.274	0.128
-364.698	-200.000	0.031	-0.218
-363.683	-3.722	0.227	-0.156
-362.669	64.957	0.304	0.305
-361.654	21.491	-0.203	-0.164
-360.639	130.791	0.188	0.240
-359.625	-184.031	0.091	0.002
-358.610	-200.000	-0.028	-0.215
-357.596	42.905	-0.256	0.232
-356.581	-200.000	-0.021	0.286
-355.566	439.947	-0.072	0.156
-354.552	89.820	-0.089	-0.099
-353.537	800.000	0.052	0.192
-352.523	0.682	-0.124	0.088
-351.508	102.754	0.045	0.053
-350.493	-118.066	0.393	-0.070
-349.479	-200.000	0.004	-0.102
-348.464	568.336	-0.076	0.183
-347.450	-71.289	0.022	0.008
-346.435	261.122	0.140	0.240
-345.420	-200.000	0.020	0.170
-344.406	112.750	0.222	-0.267
-343.391	-100.321	-0.265	0.065
-342.377	-60.967	0.150	0.063
-341.362	-200.000	0.003	0.184
-340.348	-26.940	0.138	-0.080
-339.333	124.289	-0.162	-0.203
-338.318	-88.865	-0.171	0.050
-337.304	-16.128	-0.297	-0.187
-336.289	12.593	0.054	-0.041
-335.275	-200.000	0.002	0.046
-334.260	5.233	0.216	-0.158
-333.245	-200.000	0.003	-0.241
-332.231	-160.671	-0.016	0.001
-331.216	41.069	0.122	-0.109
-330.202	106.652	0.163	0.192
-329.187	-146.730	-0.226	-0.019
-328.172	-68.293	0.442	0.171
-327.158	-104.522	-0.160	-0.037
-326.143	585.901	-0.084	0.205
-325.129	-200.000	0.025	0.450
-324.114	72.266	-0.174	-0.180
-323.099	-200.000	-0.064	-0.323
-322.085	-111.262	-0.310	-0.063
-321.070	-169.874	-0.128	-0.005
-320.056	-117.095	-0.346	-0.063
-319.041	-49.423	0.183	0.087
-318.026	34.639	0.228	0.198
-317.012	-94.871	-0.118	0.032
-315.997	-200.000	0.026	-0.179
-314.983	546.919	0.123	-0.291
-313.968	696.591	0.031	-0.080
-312.953	-200.000	-0.036	0.409
-311.939	-8.094	0.082	-0.055
-310.924	-153.612	-0.143	0.010
-309.910	800.000	0.119	0.331
-308.895	800.000	-0.037	-0.110
-307.880	-124.499	-0.157	0.024
-306.866	187.168	0.090	-0.133
-305.851	298.347	-0.126	-0.229
-304.837	-124.623	0.207	0.032
-303.822	-82.799	-0.130	-0.042
-302.807	800.000	0.072	-0.235
-301.793	-40.715	0.228	-0.117
-300.778	195.796	0.145	0.219
-299.764	-81.220	0.228	-0.075
-298.749	294.621	-0.033	-0.060
-297.735	-165.631	0.146	-0.006
-296.720	800.000	-0.048	0.155
-295.705	-0.561	0.043	0.030
-294.691	800.000	-0.105	0.290
-293.676	800.000	0.071	0.294
-292.662	-132.738	0.103	0.013
-291.647	168.511	-0.077	0.109
-290.632	-112.340	0.259	-0.051
-289.618	-200.000	-0.010	0.121
-288.603	372.593	0.088	0.178
-287.589	-54.180	0.187	-0.084
-286.574	800.000	-0.061	0.239
-285.559	-42.708	0.084	-0.042
-284.545	800.000	-0.047	-0.151
-283.530	-42.795	-0.103	-0.052
-282.516	-200.000	0.011	-0.053
-281.501	-10.908	-0.326	0.214
-280.486	-6.820	0.123	0.083
-279.472	-133.370	-0.138	0.017
-278.457	23.171	0.371	0.302
-277.443	-34.191	0.098	-0.054
-276.428	800.000	-0.104	0.296
-275.413	-82.776	-0.105	-0.034
-274.399	212.157	0.079	-0.124
-273.384	-126.420	-0.273	0.040
-272.370	800.000	0.151	0.418
-271.355	800.000	0.041	0.124
-270.340	183.221	0.102	-0.149
-269.326	-194.232	0.390	-0.003
-268.311	45.100	0.159	-0.145
-267.297	-200.000	-0.059	-0.296
-266.282	67.969	-0.160	-0.162
-265.267	-200.000	0.016	-0.103
-264.253	573.736	-0.138	0.333
-263.238	78.542	0.097	0.102
-262.224	-124.401	-0.190	0.029
-261.209	-140.612	0.260	-0.027
-260.195	-111.996	0.352	-0.070
-259.180	-200.000	-0.063	0.274
-258.165	538.581	-0.039	0.091
-257.151	-143.200	-0.103	-0.010
-256.136	179.509	0.052	-0.075
-255.122	57.305	0.178	-0.172
-254.107	-66.467	0.065	0.025
-253.092	800.000	-0.092	0.290
-252.078	290.094	-0.078	-0.140
-251.063	800.000	0.091	0.366
-250.049	-76.620	0.182	-0.063
-249.034	-104.665	0.077	0.018
-248.019	510.583	0.032	0.074
-247.005	113.130	-0.089	0.106
-245.990	800.000	0.040	-0.124
-244.976	-200.000	0.013	0.097
-243.961	-200.000	-0.053	0.237
-242.946	-200.000	0.035	-0.280
-241.932	221.189	0.098	-0.156
-240.917	-41.341	0.219	0.112
-239.903	106.944	-0.265	-0.311
-238.888	379.468	0.074	0.150
-237.873	238.376	0.221	-0.363
-236.859	197.016	-0.024	0.036
-235.844	55.060	0.243	-0.232
-234.830	35.823	0.094	-0.082
-233.815	318.597	0.049	0.092
-232.800	250.332	0.098	0.165
-231.786	-200.000	0.059	0.371
-230.771	-97.313	0.277	-0.072
-229.757	-137.519	0.093	0.010
-228.742	-66.242	-0.056	0.022
-227.727	-16.585	0.378	-0.237
-226.713	9.654	0.144	0.108
-225.698	-65.038	0.255	-0.102
-224.684	-200.000	0.019	0.215
-223.669	58.082	-0.153	0.148
-222.655	35.653	-0.112	0.098
-221.640	98.931	-0.035	-0.040
-220.625	395.920	-0.091	-0.187
-219.611	-35.406	-0.011	0.006
-218.596	313.100	0.018	0.034
-217.582	-98.810	0.200	-0.050
-216.567	-57.590	-0.565	-0.245
-215.552	75.398	0.154	0.161
-214.538	-17.806	0.187	0.116
-213.523	-200.000	0.011	0.056
-212.509	30.131	0.204	0.172
-211.494	-41.915	-0.020	0.010
-210.479	-0.882	-0.238	0.167
-209.465	-200.000	-0.065	-0.414
-208.450	-156.768	0.475	-0.029
-207.436	-38.004	-0.225	-0.118
-206.421	705.587	-0.162	0.423
-205.406	-5.666	-0.146	0.099
-204.392	-60.084	0.048	0.020
-203.377	685.258	0.005	-0.014
-202.363	800.000	-0.075	0.316
-201.348	800.000	-0.027	0.077
-200.333	-1.255	0.180	-0.125
-199.319	152.525	0.129	0.174
-198.304	536.867	0.120	-0.281
-197.290	-3.853	0.130	-0.089
-196.275	-10.101	0.043	0.028
-195.260	-200.000	0.005	-0.176
-194.246	45.506	-0.156	0.142
-193.231	-200.000	0.004	0.201
-192.217	-194.007	-0.149	-0.001
-191.202	69.064	-0.025	0.026
-190.187	800.000	0.080	-0.249
-189.173	117.087	-0.017	-0.020
-188.158	-37.854	-0.228	-0.120
-187.144	316.948	-0.026	-0.048
-186.129	144.571	-0.130	-0.172
-185.114	-9.475	0.121	0.080
-184.100	800.000	-0.126	-0.465
-183.085	24.931	0.097	-0.079
-182.071	-200.000	-0.013	-0.071
-181.056	-61.879	-0.328	0.135
-180.042	6.207	-0.142	-0.104
-179.027	-21.369	-0.113	0.068
-178.012	29.730	0.195	-0.163
-176.998	-62.004	0.051	-0.021
-175.983	13.425	0.173	0.132
-174.969	145.185	-0.166	-0.219
-173.954	156.620	0.108	0.147
-172.939	12.039	-0.103	0.078
-171.925	-200.000	-0.025	0.145
-170.910	-114.942	0.115	0.022
-169.896	-83.910	0.077	-0.024
-168.881	-130.516	0.192	0.026
-167.866	-200.000	0.026	0.237
-166.852	-139.329	-0.110	-0.012
-165.837	-4.980	0.312	-0.212
-164.823	-200.000	-0.004	-0.100
-163.808	-200.000	0.048	-0.290
-162.793	-200.000	-0.017	0.111
-161.779	-184.412	0.048	-0.001
-160.764	-41.673	0.135	0.068
-159.750	-160.581	0.270	0.014
-158.735	-45.104	0.301	-0.148
-157.720	-103.123	0.241	-0.056
-156.706	-99.748	-0.100	0.025
-155.691	25.218	0.259	0.212
-154.677	-200.000	0.516	0.002
-153.662	193.656	0.094	0.140
-152.647	800.000	0.035	0.121
-151.633	-100.093	-0.422	0.104
-150.618	-200.000	0.003	-0.522
-149.604	68.153	-0.253	-0.256
-148.589	-200.000	-0.067	0.296
-147.574	-69.118	0.280	-0.106
-146.560	287.108	-0.080	-0.143
-145.545	-88.684	0.350	-0.103
-144.531	218.469	-0.327	0.515
-143.516	-77.488	-0.230	0.079
-142.502	-53.178	0.161	0.073
-141.487	-44.432	-0.218	0.107
-140.472	-200.000	-0.025	-0.166
-139.458	19.093	0.084	0.067
-138.443	800.000	0.030	0.087
-137.429	-200.000	-0.035	0.245
-136.414	105.415	-0.220	-0.256
-135.399	-17.247	0.281	-0.175
-134.385	242.321	-0.262	-0.432
-133.370	-48.450	0.484	-0.229
-132.356	-141.509	0.295	0.029
-131.341	-32.492	-0.246	-0.135
-130.326	112.034	-0.036	0.043
-129.312	800.000	-0.140	0.493
-128.297	15.335	0.249	0.193
-127.283	115.833	-0.201	0.243
-126.268	-73.362	-0.279	0.100
-125.253	-160.512	0.313	-0.016
-124.239	342.418	-0.137	-0.265
-123.224	-72.134	0.330	-0.121
-122.210	800.000	-0.072	0.287
