DTS Sentinel unit serial number:	SN413079Multiplexer serial number:	ORYXHardware model number:	OX4-SRSoftware version number:	ORYX F/W v4.00 Oryx Data Collector v3.7.2.0data status	okinstallation	princeton_trtdifferential loss correction	single-endedforward channel	channel 3reverse channel	N/Adate	2019/09/11time	00:38:11forward acquisition time	60.00reverse acquisition time	0.00gamma	496.2192k internal	0.2331k external	0.2331temperature offset calibration	0.9918default loss term (dB/km)	0.3790temperature slope calibration	1.0000multiplexer offset coefficient	1.0000multiplexer slope coefficient	1.0000fibre end	0.00T internal ref (°C)	29.19T ext. ref 1 (°C)	-0.29T ext. ref 2 (°C)	22.95length (m)	temperature (°C)	Stokes	anti-Stokes-747.200	-200.000	0.020	-0.244
-746.185	678.504	-0.075	0.195
-745.171	-200.000	0.017	0.386
-744.156	-137.699	-0.110	-0.012
-743.142	-200.000	0.030	0.281
-742.127	-200.000	-0.010	0.368
-741.112	800.000	0.067	0.270
-740.098	-200.000	-0.025	-0.164
-739.083	-101.899	0.291	-0.071
-738.069	-99.246	-0.281	0.072
-737.054	-200.000	-0.024	-0.133
-736.039	-200.000	-0.003	0.058
-735.025	71.937	0.198	0.207
-734.010	91.179	-0.088	-0.099
-732.996	-200.000	-0.045	-0.313
-731.981	22.455	-0.490	-0.403
-730.966	800.000	-0.057	0.182
-729.952	-200.000	-0.021	-0.120
-728.937	10.681	0.128	0.098
-727.923	-56.660	0.133	0.059
-726.908	-200.000	0.036	-0.253
-725.894	-200.000	0.010	-0.258
-724.879	-122.775	-0.334	-0.054
-723.864	-200.000	-0.015	0.369
-722.850	254.763	0.031	0.053
-721.835	-86.961	-0.215	-0.066
-720.821	750.066	-0.039	-0.105
-719.806	-8.577	0.165	0.112
-718.791	503.209	0.063	-0.147
-717.777	-62.112	0.116	-0.049
-716.762	82.278	-0.198	-0.216
-715.748	736.749	0.116	-0.312
-714.733	-200.000	-0.002	-0.121
-713.718	164.971	0.072	0.103
-712.704	-159.914	0.404	0.022
-711.689	-200.000	-0.033	-0.302
-710.675	-128.513	-0.452	0.064
-709.660	-114.469	0.286	-0.055
-708.645	-3.842	-0.060	-0.042
-707.631	-110.773	-0.243	0.050
-706.616	5.599	-0.036	0.027
-705.602	800.000	-0.091	0.360
-704.587	-93.123	0.399	0.112
-703.572	-68.086	-0.248	-0.097
-702.558	-200.000	0.036	-0.214
-701.543	-118.676	-0.352	0.062
-700.529	800.000	0.058	0.241
-699.514	-200.000	-0.007	0.103
-698.499	-200.000	0.080	0.461
-697.485	243.948	0.204	0.345
-696.470	-200.000	-0.031	0.234
-695.456	38.344	-0.037	0.033
-694.441	20.808	0.178	0.145
-693.426	324.290	0.161	0.308
-692.412	404.844	-0.175	-0.371
-691.397	-149.822	-0.221	0.017
-690.383	-120.592	0.086	-0.015
-689.368	650.532	-0.111	-0.285
-688.354	312.567	-0.097	0.183
-687.339	120.513	0.140	-0.174
-686.324	800.000	0.062	0.219
-685.310	321.408	-0.146	0.278
-684.295	-46.629	0.167	0.082
-683.281	800.000	0.058	0.246
-682.266	-114.551	-0.233	0.045
-681.251	-84.089	-0.196	0.062
-680.237	-72.117	0.162	-0.060
-679.222	800.000	0.038	-0.139
-678.208	-42.378	0.235	-0.120
-677.193	-200.000	-0.046	0.258
-676.178	-42.149	0.110	-0.056
-675.164	62.034	-0.261	-0.261
-674.149	-129.977	0.470	-0.065
-673.135	-167.987	0.233	-0.009
-672.120	6.962	-0.129	-0.097
-671.105	-189.331	0.185	-0.002
-670.091	-200.000	-0.027	-0.265
-669.076	800.000	0.043	-0.146
-668.062	297.501	-0.035	0.064
-667.047	-66.504	-0.058	-0.023
-666.032	499.602	-0.025	0.058
-665.018	174.228	-0.172	-0.250
-664.003	315.277	-0.074	0.139
-662.989	501.524	0.134	-0.311
-661.974	-78.133	0.208	-0.072
-660.959	277.804	-0.017	0.031
-659.945	275.261	-0.077	0.137
-658.930	47.439	-0.310	0.290
-657.916	-200.000	0.032	0.165
-656.901	-147.763	-0.139	-0.012
-655.886	309.153	-0.080	-0.150
-654.872	-92.939	-0.087	-0.024
-653.857	-176.863	0.303	-0.008
-652.843	-25.724	-0.282	-0.167
-651.828	-200.000	0.013	-0.077
-650.814	18.750	0.161	-0.129
-649.799	-174.937	-0.360	0.010
-648.784	800.000	-0.021	-0.090
-647.770	-200.000	0.039	-0.347
-646.755	-143.479	0.182	0.017
-645.741	-61.293	-0.293	0.124
-644.726	-94.808	-0.198	0.054
-643.711	-68.509	0.248	0.097
-642.697	69.282	-0.174	0.180
-641.682	7.838	-0.342	0.257
-640.668	-70.586	0.141	-0.053
-639.653	164.280	0.008	0.011
-638.638	-200.000	0.007	-0.200
-637.624	-109.039	-0.216	-0.046
-636.609	-80.749	0.403	-0.134
-635.595	-153.248	-0.245	-0.017
-634.580	197.712	-0.172	-0.263
-633.565	-200.000	-0.003	-0.037
-632.551	71.061	0.108	-0.113
-631.536	-101.940	-0.252	-0.061
-630.522	147.849	0.150	-0.203
-629.507	-200.000	-0.000	-0.055
-628.492	-105.137	-0.242	0.056
-627.478	-200.000	-0.049	0.458
-626.463	-200.000	-0.032	0.199
-625.449	-200.000	0.046	-0.216
-624.434	-200.000	0.033	0.253
-623.419	-200.000	-0.025	-0.144
-622.405	-61.598	-0.048	0.020
-621.390	128.899	-0.139	0.178
-620.376	43.610	-0.084	0.077
-619.361	-200.000	-0.027	-0.236
-618.346	-14.924	-0.020	-0.013
-617.332	-200.000	0.024	-0.322
-616.317	-1.067	0.174	-0.123
-615.303	3.300	0.212	-0.155
-614.288	-114.156	0.277	0.054
-613.273	110.651	-0.259	-0.312
-612.259	-29.228	-0.179	-0.103
-611.244	30.817	-0.040	-0.034
-610.230	180.503	0.237	0.348
-609.215	234.279	-0.107	0.176
-608.201	-14.866	-0.228	0.146
-607.186	-6.778	-0.082	0.056
-606.171	229.209	0.146	-0.239
-605.157	80.762	-0.054	-0.058
-604.142	123.636	0.342	-0.429
-603.128	-84.518	-0.166	0.053
-602.113	-98.349	-0.247	0.063
-601.098	-142.797	0.347	0.034
-600.084	-51.651	0.096	0.045
-599.069	40.289	-0.057	-0.051
-598.055	-135.738	0.059	-0.007
-597.040	800.000	-0.062	0.210
-596.025	800.000	0.025	-0.090
-595.011	-61.892	0.194	0.081
-593.996	311.779	0.033	0.063
-592.982	339.059	-0.201	-0.392
-591.967	-200.000	0.017	-0.414
-590.952	176.158	-0.065	0.095
-589.938	480.207	-0.043	0.098
-588.923	112.669	0.191	0.231
-587.909	82.322	-0.135	0.147
-586.894	-88.262	-0.303	0.091
-585.879	-200.000	-0.011	0.408
-584.865	49.398	0.139	-0.130
-583.850	800.000	-0.028	-0.123
-582.836	-3.486	-0.128	-0.089
-581.821	281.177	0.063	-0.113
-580.806	174.514	0.056	-0.081
-579.792	800.000	0.011	0.036
-578.777	-118.598	-0.162	0.029
-577.763	-112.173	0.427	-0.086
-576.748	-50.609	0.095	0.045
-575.733	212.091	0.110	-0.173
-574.719	800.000	-0.037	-0.134
-573.704	-79.016	-0.154	-0.052
-572.690	-15.428	0.369	0.236
-571.675	116.397	-0.192	0.235
-570.661	-67.459	0.450	-0.176
-569.646	-200.000	-0.071	0.505
-568.631	-7.390	-0.166	0.112
-567.617	-200.000	-0.027	0.424
-566.602	-83.087	0.307	0.099
-565.588	-105.920	-0.310	0.070
-564.573	-119.665	-0.388	0.067
-563.558	-200.000	-0.013	0.151
-562.544	105.023	0.053	0.063
-561.529	-124.475	-0.246	0.038
-560.515	-91.536	-0.391	0.112
-559.500	256.324	0.107	0.183
-558.485	800.000	-0.088	-0.288
-557.471	-14.419	-0.067	-0.043
-556.456	-174.184	0.281	0.008
-555.442	-6.089	-0.174	0.119
-554.427	-200.000	-0.005	-0.112
-553.412	-200.000	0.002	0.204
-552.398	-200.000	0.080	0.407
-551.383	43.085	-0.235	-0.215
-550.369	-4.473	-0.182	-0.125
-549.354	35.499	-0.204	0.179
-548.339	-181.504	-0.045	-0.001
-547.325	282.539	-0.113	-0.203
-546.310	-200.000	0.022	0.188
-545.296	133.334	0.283	-0.365
-544.281	-67.503	0.212	0.083
-543.266	-200.000	0.011	0.202
-542.252	79.190	0.265	-0.283
-541.237	-56.287	0.131	0.058
-540.223	73.150	0.227	0.237
-539.208	-126.587	-0.220	0.033
-538.193	60.510	-0.128	0.127
-537.179	-153.659	-0.011	0.001
-536.164	83.581	-0.307	-0.334
-535.150	10.405	0.200	-0.152
-534.135	57.252	0.217	0.212
-533.121	18.375	0.178	-0.142
-532.106	-14.780	-0.280	-0.179
-531.091	180.515	0.147	-0.216
-530.077	86.494	-0.148	-0.162
-529.062	47.486	-0.196	0.183
-528.048	89.874	0.319	-0.356
-527.033	208.965	0.150	-0.235
-526.018	-119.221	0.290	0.050
-525.004	-29.508	0.336	0.192
-523.989	175.012	-0.075	0.108
-522.975	-15.269	0.161	-0.103
-521.960	-200.000	0.001	0.033
-520.945	-153.940	-0.395	0.027
-519.931	-200.000	-0.033	-0.160
-518.916	170.315	-0.092	-0.132
-517.902	-25.712	0.264	0.155
-516.887	7.598	0.199	0.148
-515.872	-200.000	-0.029	-0.293
-514.858	-0.463	0.141	0.100
-513.843	-149.347	0.159	0.013
-512.829	800.000	-0.071	0.281
-511.814	-98.796	0.445	0.113
-510.799	800.000	-0.064	0.267
-509.785	-113.033	0.044	0.009
-508.770	142.389	-0.032	0.042
-507.756	-45.999	-0.095	0.047
-506.741	-37.615	-0.066	-0.035
-505.726	-118.955	0.155	0.027
-504.712	-113.224	0.422	0.083
-503.697	-113.824	-0.499	0.097
-502.683	151.471	-0.098	-0.133
-501.668	800.000	-0.071	0.208
-500.653	7.683	-0.195	-0.146
-499.639	143.204	-0.074	0.098
-498.624	-85.226	-0.201	0.063
-497.610	-200.000	0.001	0.104
-496.595	90.413	0.065	0.073
-495.581	371.257	0.067	0.136
-494.566	19.985	0.332	-0.267
-493.551	-33.904	0.178	0.098
-492.537	-200.000	0.010	0.208
-491.522	-200.000	-0.036	-0.381
-490.508	800.000	0.074	-0.218
-489.493	-188.997	0.125	0.002
-488.478	-200.000	0.030	0.373
-487.464	-0.423	-0.013	0.009
-486.449	-64.859	-0.275	-0.111
-485.435	98.416	-0.136	-0.156
-484.420	85.530	0.200	-0.219
-483.405	800.000	0.031	0.104
-482.391	-96.850	0.255	0.067
-481.376	-94.469	-0.285	0.077
-480.362	196.374	0.132	0.200
-479.347	-83.749	-0.083	-0.027
-478.332	-40.147	-0.079	0.041
-477.318	54.401	-0.145	0.139
-476.303	-200.000	0.037	-0.300
-475.289	-140.233	-0.044	-0.005
-474.274	-50.324	-0.101	-0.048
-473.259	-146.525	0.101	0.009
-472.245	-25.956	0.232	0.136
-471.230	-3.936	-0.056	0.039
-470.216	-200.000	0.072	0.333
-469.201	-98.421	0.116	0.030
-468.186	171.563	0.208	0.297
-467.172	-8.486	0.192	0.128
-466.157	-200.000	0.072	0.528
-465.143	496.087	0.073	-0.168
-464.128	53.436	-0.055	-0.052
-463.113	800.000	-0.030	0.121
-462.099	-58.152	-0.450	-0.195
-461.084	-144.703	-0.365	0.033
-460.070	668.580	0.025	-0.064
-459.055	-144.819	0.163	0.015
-458.040	685.305	0.037	-0.096
-457.026	-126.346	0.103	-0.015
-456.011	337.001	-0.064	0.124
-454.997	385.350	-0.025	-0.052
-453.982	-97.668	0.082	-0.021
-452.968	-200.000	-0.025	0.241
-451.953	-92.579	-0.245	-0.068
-450.938	-78.605	0.067	0.023
-449.924	-27.100	0.198	0.115
-448.909	83.099	-0.152	-0.165
-447.895	-184.237	0.093	0.002
-446.880	122.892	-0.178	-0.221
-445.865	221.034	0.099	-0.158
-444.851	-200.000	-0.016	-0.110
-443.836	-172.013	-0.238	-0.008
-442.822	-50.464	-0.078	-0.037
-441.807	800.000	-0.056	-0.187
-440.792	-110.591	-0.110	0.023
-439.778	-39.162	-0.314	-0.164
-438.763	8.898	0.272	0.204
-437.749	-51.723	0.186	-0.086
-436.734	-106.799	-0.377	0.083
-435.719	108.291	-0.169	0.200
-434.705	-85.073	0.360	0.112
-433.690	-117.005	0.452	0.082
-432.676	-94.593	-0.254	0.069
-431.661	-26.922	-0.279	0.162
-430.646	77.622	-0.216	0.228
-429.632	194.786	-0.184	0.278
-428.617	-183.995	0.046	0.001
-427.603	-200.000	-0.013	0.266
-426.588	800.000	-0.066	-0.198
-425.573	-123.712	0.215	0.034
-424.559	-55.197	-0.194	-0.087
-423.544	174.364	0.022	0.032
-422.530	-200.000	0.028	-0.224
-421.515	-144.719	-0.345	-0.032
-420.500	542.006	0.064	-0.152
-419.486	173.978	0.218	0.312
-418.471	66.725	0.117	-0.119
-417.457	-125.368	-0.413	-0.063
-416.442	544.437	-0.068	-0.160
-415.428	318.702	0.131	0.246
-414.413	-128.419	0.126	-0.018
-413.398	-86.428	-0.254	-0.078
-412.384	-105.782	0.101	-0.023
-411.369	-45.338	-0.179	-0.088
-410.355	268.965	-0.107	-0.187
-409.340	-26.495	-0.209	0.122
-408.325	23.113	0.101	-0.083
-407.311	-200.000	0.005	0.132
-406.296	-200.000	-0.021	0.248
-405.282	-200.000	0.053	-0.289
-404.267	668.158	-0.037	-0.094
-403.252	73.937	-0.182	-0.190
-402.238	-173.729	0.076	0.002
-401.223	800.000	0.120	-0.336
-400.209	36.669	-0.357	0.313
-399.194	-200.000	-0.066	0.296
-398.179	-102.517	-0.199	0.047
-397.165	-200.000	-0.412	0.002
-396.150	800.000	-0.056	0.159
-395.136	-106.015	-0.373	-0.083
-394.121	-14.508	-0.249	-0.159
-393.106	-118.177	0.250	0.044
-392.092	-114.000	-0.391	0.075
-391.077	180.257	-0.203	0.296
-390.063	-144.111	0.260	-0.024
-389.048	-200.000	-0.023	-0.445
-388.033	-169.551	0.295	-0.011
-387.019	-200.000	0.006	-0.549
-386.004	123.342	-0.118	-0.147
-384.990	-105.004	0.236	0.054
-383.975	-200.000	-0.035	0.161
-382.960	-20.024	-0.398	-0.244
-381.946	-200.000	0.037	0.256
-380.931	-44.772	0.313	-0.155
-379.917	-127.624	0.281	0.040
-378.902	-118.691	-0.380	-0.067
-377.888	-200.000	-0.048	0.297
-376.873	50.076	0.221	-0.207
-375.858	-150.219	0.243	-0.019
-374.844	219.822	-0.154	0.245
-373.829	401.885	-0.122	0.255
-372.815	-98.450	-0.209	0.053
-371.800	247.356	-0.185	-0.310
-370.785	-168.694	0.167	0.006
-369.771	26.987	-0.073	-0.061
-368.756	-104.283	-0.096	-0.022
-367.742	119.711	-0.072	0.089
-366.727	53.581	-0.224	0.213
-365.712	800.000	-0.087	-0.333
-364.698	-7.212	0.166	-0.112
-363.683	-200.000	-0.002	-0.093
-362.669	-200.000	0.010	0.165
-361.654	-200.000	-0.005	-0.350
-360.639	-57.119	-0.255	-0.111
-359.625	-156.091	0.180	0.011
-358.610	-109.490	0.037	0.008
-357.596	-12.864	0.228	0.147
-356.581	51.808	0.311	-0.293
-355.566	-163.033	-0.164	-0.008
-354.552	-200.000	-0.006	0.199
-353.537	-23.341	-0.052	-0.031
-352.523	-54.088	0.194	0.088
-351.508	192.489	0.119	-0.178
-350.493	-200.000	-0.022	-0.106
-349.479	-57.372	-0.362	-0.158
-348.464	-61.464	0.164	-0.068
-347.450	145.410	0.186	-0.247
-346.435	-200.000	0.016	0.115
-345.420	458.771	-0.076	0.167
-344.406	-84.512	0.157	-0.049
-343.391	134.135	0.128	0.164
-342.377	-142.558	-0.244	-0.024
-341.362	45.057	0.228	-0.208
-340.348	-200.000	0.048	-0.215
-339.333	26.670	0.136	0.112
-338.318	-200.000	-0.029	0.241
-337.304	254.248	0.087	0.148
-336.289	774.785	0.142	-0.383
-335.275	-66.986	-0.139	0.054
-334.260	407.215	-0.101	0.212
-333.245	46.377	0.135	-0.124
-332.231	19.709	-0.049	0.039
-331.216	-200.000	0.034	0.156
-330.202	29.507	-0.187	0.158
-329.187	-170.447	0.151	0.005
-328.172	800.000	-0.115	0.393
-327.158	-63.666	0.163	-0.066
-326.143	109.459	0.083	-0.099
-325.129	-32.490	0.331	-0.183
-324.114	800.000	-0.029	-0.081
-323.099	-140.685	-0.195	-0.020
-322.085	2.387	-0.260	0.187
-321.070	586.966	0.151	-0.369
-320.056	-89.142	0.271	-0.079
-319.041	-155.066	-0.112	0.007
-318.026	-73.788	-0.072	-0.026
-317.012	29.297	0.219	-0.184
-315.997	-200.000	0.010	0.072
-314.983	-126.625	-0.373	-0.055
-313.968	-38.601	0.075	-0.039
-312.953	-110.206	-0.369	-0.076
-311.939	-200.000	-0.006	0.159
-310.924	-123.033	-0.102	-0.016
-309.910	32.494	0.179	0.153
-308.895	-200.000	0.029	-0.299
-307.880	32.439	0.096	0.082
-306.866	-95.993	0.284	0.075
-305.851	-200.000	0.024	-0.178
-304.837	-65.983	0.198	-0.078
-303.822	-74.482	-0.299	-0.107
-302.807	-85.901	-0.264	0.081
-301.793	193.381	-0.019	-0.029
-300.778	-71.621	-0.309	-0.114
-299.764	-45.786	0.112	-0.055
-298.749	-71.147	0.334	0.124
-297.735	-94.365	-0.435	-0.118
-296.720	92.947	0.148	-0.165
-295.705	-186.964	0.279	-0.004
-294.691	-80.710	0.215	0.071
-293.676	414.004	-0.109	-0.229
-292.662	5.009	-0.272	-0.198
-291.647	84.640	-0.343	0.371
-290.632	548.752	0.095	0.225
-289.618	-114.000	-0.178	-0.034
-288.603	8.024	-0.087	0.064
-287.589	99.477	0.148	-0.169
-286.574	241.917	0.165	0.273
-285.559	41.994	0.299	-0.268
-284.545	-200.000	0.001	0.086
-283.530	122.725	-0.029	-0.036
-282.516	-200.000	-0.002	0.055
-281.501	-145.736	0.255	-0.023
-280.486	119.782	-0.191	0.234
-279.472	-68.426	-0.157	0.060
-278.457	-26.288	0.325	0.189
-277.443	-200.000	0.014	-0.102
-276.428	-52.187	-0.289	-0.132
-275.413	-200.000	0.010	-0.082
-274.399	-92.472	0.376	-0.104
-273.384	-116.298	0.302	0.055
-272.370	-103.611	0.359	-0.083
-271.355	-66.533	0.370	0.145
-270.340	-83.240	0.358	-0.114
-269.326	171.052	0.045	-0.064
-268.311	-200.000	-0.057	0.536
-267.297	-139.787	0.222	-0.023
-266.282	200.872	-0.227	0.345
-265.267	342.747	-0.054	-0.105
-264.253	800.000	-0.100	-0.278
-263.238	545.383	-0.104	-0.246
-262.224	-39.381	0.262	-0.136
-261.209	-200.000	0.011	-0.225
-260.195	115.504	0.209	0.252
-259.180	-200.000	0.018	-0.128
-258.165	-77.355	0.129	-0.044
-257.151	196.554	0.103	0.155
-256.136	99.127	0.079	-0.090
-255.122	158.012	0.101	-0.138
-254.107	-146.410	0.112	0.010
-253.092	-59.172	-0.137	0.058
-252.078	142.589	-0.129	0.169
-251.063	-72.007	-0.197	0.072
-250.049	-124.768	0.223	-0.034
-249.034	156.192	-0.017	0.023
-248.019	88.244	0.186	0.204
-247.005	-151.879	-0.167	0.012
-245.990	800.000	0.024	-0.079
-244.976	36.211	0.233	-0.203
-243.961	-84.070	-0.200	-0.063
-242.946	800.000	-0.141	0.409
-241.932	2.250	-0.152	0.108
-240.917	22.923	0.195	-0.158
-239.903	-200.000	0.017	-0.077
-238.888	800.000	-0.010	0.038
-237.873	-95.955	-0.181	0.048
-236.859	302.379	0.022	0.040
-235.844	-39.405	0.363	0.188
-234.830	-44.917	0.018	-0.009
-233.815	118.347	0.229	-0.278
-232.800	5.269	-0.264	-0.192
-231.786	-200.000	-0.025	0.168
-230.771	-200.000	-0.011	-0.272
-229.757	-79.327	-0.097	0.032
-228.742	398.254	0.042	0.087
-227.727	100.879	-0.072	0.082
-226.713	44.540	-0.146	0.132
-225.698	195.629	0.045	-0.068
-224.684	-47.375	-0.459	-0.220
-223.669	336.987	-0.018	-0.034
-222.655	-102.931	0.259	0.061
-221.640	-8.459	0.044	-0.029
-220.625	144.748	-0.074	0.097
-219.611	214.148	0.080	-0.125
-218.596	-170.796	-0.060	-0.002
-217.582	274.978	0.125	0.219
-216.567	-179.926	-0.230	-0.005
-215.552	-112.932	-0.217	-0.042
-214.538	-81.822	0.380	-0.123
-213.523	346.951	-0.042	-0.082
-212.509	-127.451	0.125	-0.018
-211.494	-200.000	0.020	0.394
-210.479	-163.519	-0.263	-0.012
-209.465	-133.416	0.270	-0.033
-208.450	-200.000	0.040	0.221
-207.436	33.125	-0.082	-0.070
-206.421	-184.187	0.166	0.003
-205.406	-18.111	-0.092	-0.057
-204.392	-50.981	-0.139	0.064
-203.377	-200.000	0.068	-0.346
-202.363	-8.500	-0.153	0.101
-201.348	-53.521	-0.149	0.067
-200.333	166.876	-0.181	-0.252
-199.319	4.487	-0.260	0.188
-198.304	800.000	0.073	-0.208
-197.290	-40.253	0.171	0.088
-196.275	-200.000	0.011	0.094
-195.260	-68.604	-0.410	0.156
-194.246	-188.632	0.223	0.003
-193.231	580.118	-0.129	-0.311
-192.217	-18.096	0.154	0.095
-191.202	-144.829	0.051	-0.005
-190.187	-51.397	-0.182	-0.084
-189.173	-200.000	0.008	0.057
-188.158	800.000	0.070	0.232
-187.144	796.510	-0.062	0.169
-186.129	-31.025	0.255	-0.142
-185.114	-200.000	-0.040	0.214
-184.100	130.385	-0.261	0.330
-183.085	119.047	0.184	0.224
-182.071	-116.514	0.368	-0.067
-181.056	33.612	-0.323	-0.276
-180.042	-200.000	0.100	-0.579
-179.027	-200.000	0.077	-0.438
-178.012	-93.428	-0.512	0.140
-176.998	800.000	-0.097	0.340
-175.983	41.461	0.126	-0.112
-174.969	248.818	0.147	-0.245
-173.954	-133.831	0.293	-0.036
-172.939	-75.193	-0.228	0.080
-171.925	-135.323	0.209	0.025
-170.910	800.000	0.055	-0.176
-169.896	-200.000	-0.001	0.274
-168.881	-139.321	-0.037	0.004
-167.866	-74.697	0.145	-0.051
-166.852	-106.517	0.445	0.098
-165.837	-87.940	-0.102	0.030
-164.823	-101.232	0.266	-0.064
-163.808	520.985	-0.108	0.248
-162.793	-33.539	-0.410	0.223
-161.779	-0.934	0.207	-0.144
-160.764	-130.729	0.233	-0.031
-159.750	628.047	-0.105	-0.261
-158.735	-200.000	0.006	0.276
-157.720	-62.733	0.222	0.091
-156.706	-7.277	-0.303	-0.202
-155.691	-146.865	0.327	-0.028
-154.677	-74.774	0.200	-0.071
-153.662	71.305	0.104	-0.106
-152.647	-78.567	0.215	0.072
-151.633	-200.000	-0.016	-0.087
-150.618	83.920	0.307	0.329
-149.604	-105.469	0.267	0.060
-148.589	-102.110	0.335	-0.079
-147.574	-123.390	0.045	-0.007
-146.560	-9.363	0.220	0.144
-145.545	29.061	-0.382	-0.319
-144.531	-41.286	0.404	-0.205
-143.516	800.000	-0.104	-0.395
-142.502	144.987	-0.131	0.172
-141.487	-200.000	-0.048	0.272
-140.472	-150.030	0.101	0.008
-139.458	102.733	-0.068	0.078
-138.443	800.000	0.065	-0.244
-137.429	-6.544	-0.175	-0.117
-136.414	-200.000	0.224	0.001
-135.399	-22.573	0.174	0.104
-134.385	43.481	-0.334	0.300
-133.370	-78.192	-0.236	0.080
-132.356	800.000	0.143	0.440
-131.341	800.000	-0.021	0.084
-130.326	154.573	0.115	-0.155
-129.312	55.534	0.089	0.085
-128.297	800.000	-0.058	0.204
-127.283	-28.060	0.344	0.195
-126.268	800.000	0.052	0.184
-125.253	9.507	-0.238	-0.177
-124.239	-200.000	-0.001	0.185
-123.224	-99.770	0.254	-0.063
-122.210	652.808	0.056	0.142
