DTS Sentinel unit serial number:	SN413079Multiplexer serial number:	ORYXHardware model number:	OX4-SRSoftware version number:	ORYX F/W v4.00 Oryx Data Collector v3.7.2.0data status	okinstallation	princeton_trtdifferential loss correction	single-endedforward channel	channel 3reverse channel	N/Adate	2019/09/11time	20:34:11forward acquisition time	60.00reverse acquisition time	0.00gamma	496.2192k internal	0.2305k external	0.2305temperature offset calibration	1.0026default loss term (dB/km)	0.3790temperature slope calibration	1.0000multiplexer offset coefficient	1.0000multiplexer slope coefficient	1.0000fibre end	0.00T internal ref (°C)	37.50T ext. ref 1 (°C)	1.51T ext. ref 2 (°C)	30.82length (m)	temperature (°C)	Stokes	anti-Stokes-747.200	0.991	0.497	0.363
-746.185	10.989	-0.202	0.157
-745.171	-200.000	-0.039	-0.209
-744.156	117.567	0.218	0.273
-743.142	-71.150	-0.088	-0.034
-742.127	392.996	0.084	0.177
-741.112	-200.000	0.011	-0.199
-740.098	-26.209	-0.324	-0.194
-739.083	33.413	-0.300	0.265
-738.069	119.090	-0.182	0.229
-737.054	-84.930	0.219	-0.070
-736.039	800.000	-0.093	0.314
-735.025	-200.000	-0.021	0.105
-734.010	31.393	-0.078	0.068
-732.996	9.781	-0.240	-0.185
-731.981	800.000	0.065	-0.187
-730.966	-74.563	-0.180	-0.066
-729.952	42.599	-0.159	0.147
-728.937	481.184	-0.050	0.115
-727.923	-61.214	0.102	0.044
-726.908	172.204	-0.137	-0.200
-725.894	419.439	0.076	0.165
-724.879	775.591	-0.199	0.553
-723.864	-113.105	0.179	0.036
-722.850	265.390	0.092	0.163
-721.835	70.343	-0.138	-0.145
-720.821	-110.488	0.353	-0.074
-719.806	-136.040	0.327	0.039
-718.791	800.000	0.019	-0.059
-717.777	344.544	-0.074	-0.148
-716.762	3.668	0.339	-0.251
-715.748	37.629	0.097	0.087
-714.733	800.000	0.031	0.134
-713.718	7.815	-0.044	-0.033
-712.704	-107.062	0.316	0.071
-711.689	-73.011	0.176	-0.066
-710.675	-39.446	-0.159	0.085
-709.660	-110.986	0.230	-0.048
-708.645	-33.957	0.104	0.058
-707.631	591.142	-0.062	0.156
-706.616	-50.664	0.209	0.100
-705.602	-26.219	0.329	-0.197
-704.587	-127.467	-0.042	0.006
-703.572	66.220	0.221	0.228
-702.558	187.438	-0.024	-0.037
-701.543	36.548	-0.316	-0.283
-700.529	-200.000	0.025	0.303
-699.514	-185.898	-0.154	0.002
-698.499	186.374	-0.196	0.297
-697.485	-200.000	0.000	0.232
-696.470	-41.379	-0.200	-0.105
-695.456	-200.000	-0.014	0.071
-694.441	92.772	0.207	-0.238
-693.426	88.777	-0.160	0.180
-692.412	61.857	0.061	0.062
-691.397	-136.021	0.096	-0.011
-690.383	800.000	-0.164	-0.520
-689.368	502.536	0.129	0.304
-688.354	-143.137	-0.367	0.036
-687.339	453.815	-0.122	0.275
-686.324	-101.352	-0.242	0.060
-685.310	800.000	0.065	-0.254
-684.295	-64.766	-0.088	0.036
-683.281	800.000	-0.035	0.138
-682.266	16.133	-0.269	0.216
-681.251	89.411	-0.262	-0.297
-680.237	67.774	-0.235	-0.244
-679.222	-200.000	0.003	-0.194
-678.208	800.000	0.054	0.161
-677.193	-13.901	0.392	-0.257
-676.178	-100.372	-0.270	-0.068
-675.164	30.361	-0.060	-0.052
-674.149	-1.263	0.049	-0.035
-673.135	-33.426	-0.102	0.057
-672.120	31.486	0.095	-0.083
-671.105	-200.000	0.019	-0.283
-670.091	-200.000	-0.015	0.162
-669.076	158.338	0.187	-0.263
-668.062	-136.536	-0.402	-0.047
-667.047	203.129	-0.230	-0.361
-666.032	-158.854	-0.215	-0.012
-665.018	800.000	0.060	-0.254
-664.003	-40.437	-0.239	0.126
-662.989	-200.000	0.046	0.235
-661.974	-109.601	-0.064	-0.014
-660.959	-27.896	0.195	0.115
-659.945	-2.207	0.170	-0.121
-658.930	47.389	0.151	0.142
-657.916	-155.237	0.181	-0.012
-656.901	800.000	-0.072	0.208
-655.886	-35.341	-0.191	-0.105
-654.872	-96.923	-0.045	-0.012
-653.857	699.742	0.082	-0.219
-652.843	225.926	-0.030	0.049
-651.828	12.618	0.126	-0.099
-650.814	107.125	0.206	-0.248
-649.799	-107.114	-0.291	0.065
-648.784	-123.369	-0.228	0.037
-647.770	48.056	-0.181	0.172
-646.755	800.000	-0.066	-0.253
-645.741	-49.037	0.095	-0.046
-644.726	-200.000	-0.008	-0.384
-643.711	-200.000	-0.020	-0.233
-642.697	-200.000	0.026	-0.140
-641.682	800.000	-0.004	0.016
-640.668	-84.761	-0.396	-0.126
-639.653	311.672	-0.060	-0.114
-638.638	-200.000	-0.005	-0.075
-637.624	-200.000	-0.281	0.000
-636.609	720.673	-0.033	-0.088
-635.595	117.586	0.237	0.296
-634.580	800.000	-0.045	-0.127
-633.565	108.290	-0.163	-0.197
-632.551	-118.542	0.205	0.037
-631.536	-105.895	0.257	-0.059
-630.522	-116.061	0.139	-0.026
-629.507	513.047	-0.091	-0.216
-628.492	-200.000	0.021	0.124
-627.478	800.000	0.090	-0.360
-626.463	-200.000	0.021	-0.105
-625.449	-63.188	-0.189	-0.079
-624.434	-80.923	-0.232	0.078
-623.419	197.617	0.102	-0.158
-622.405	-1.185	0.329	0.235
-621.390	800.000	0.026	0.108
-620.376	29.748	-0.061	-0.053
-619.361	-108.143	-0.060	-0.013
-618.346	131.753	-0.194	0.252
-617.332	-61.147	0.019	-0.008
-616.317	792.600	-0.103	-0.288
-615.303	-107.182	-0.197	-0.044
-614.288	-200.000	-0.019	0.111
-613.273	93.529	-0.065	0.075
-612.259	74.554	-0.051	-0.055
-611.244	-158.491	0.023	0.001
-610.230	84.880	0.104	0.115
-609.215	-35.740	-0.176	-0.097
-608.201	-200.000	0.006	-0.360
-607.186	48.991	0.090	0.086
-606.171	45.736	-0.192	0.180
-605.157	800.000	0.071	0.279
-604.142	406.993	-0.027	0.057
-603.128	-111.956	0.112	0.023
-602.113	-103.514	-0.124	0.030
-601.098	-83.294	-0.036	0.012
-600.084	-78.814	-0.189	0.065
-599.069	-101.645	-0.204	0.050
-598.055	601.736	-0.109	0.273
-597.040	-44.327	-0.293	-0.149
-596.025	-200.000	-0.018	-0.351
-595.011	78.738	-0.057	0.061
-593.996	-141.739	0.067	0.007
-592.982	-113.328	0.102	0.020
-591.967	-81.592	-0.100	-0.033
-590.952	-70.673	-0.061	-0.023
-589.938	-200.000	-0.001	-0.071
-588.923	-5.813	0.356	0.247
-587.909	64.440	-0.280	-0.285
-586.894	-29.631	-0.191	-0.110
-585.879	22.153	-0.250	-0.206
-584.865	-107.736	0.137	0.030
-583.850	415.659	0.154	0.332
-582.836	800.000	-0.068	-0.242
-581.821	-85.326	-0.293	-0.092
-580.806	117.774	-0.173	-0.215
-579.792	-25.871	-0.102	-0.061
-578.777	-200.000	-0.007	-0.096
-577.763	44.171	-0.095	0.088
-576.748	-16.129	-0.141	-0.090
-575.733	-200.000	-0.000	-0.215
-574.719	79.599	0.238	0.258
-573.704	800.000	-0.039	-0.138
-572.690	103.101	-0.075	-0.089
-571.675	800.000	-0.022	-0.064
-570.661	-19.862	0.229	0.143
-569.646	800.000	-0.036	-0.149
-568.631	-99.552	0.433	0.110
-567.617	-109.144	0.251	-0.054
-566.602	-200.000	0.027	-0.255
-565.588	322.279	-0.160	0.308
-564.573	-82.279	0.194	-0.064
-563.558	-132.600	-0.331	-0.043
-562.544	-200.000	-0.049	0.231
-561.529	150.100	0.108	-0.148
-560.515	606.807	-0.131	0.331
-559.500	-86.856	0.490	-0.151
-558.485	-200.000	-0.032	-0.317
-557.471	52.937	-0.157	0.152
-556.456	-200.000	0.038	0.406
-555.442	800.000	0.060	0.224
-554.427	142.486	0.093	0.125
-553.412	800.000	0.057	0.172
-552.398	-200.000	-0.073	0.329
-551.383	4.763	0.087	-0.065
-550.369	-71.226	-0.123	0.047
-549.354	800.000	0.109	-0.318
-548.339	-60.627	0.165	0.071
-547.325	-78.379	0.105	0.036
-546.310	-96.683	-0.068	-0.018
-545.296	316.090	0.103	-0.196
-544.281	-1.899	-0.152	0.108
-543.266	6.573	0.243	-0.182
-542.252	-60.127	0.332	0.143
-541.237	-66.369	0.232	0.093
-540.223	22.588	0.291	0.241
-539.208	50.034	-0.249	0.238
-538.193	-155.696	0.190	-0.012
-537.179	-200.000	0.094	-0.443
-536.164	-44.240	-0.188	-0.095
-535.150	-110.599	-0.140	0.029
-534.135	57.535	-0.291	0.287
-533.121	86.165	0.189	-0.210
-532.106	-21.102	0.053	-0.032
-531.091	-200.000	-0.001	-0.113
-530.077	-200.000	-0.258	0.001
-529.062	-200.000	-0.060	-0.441
-528.048	101.196	-0.074	-0.087
-527.033	576.521	0.115	0.283
-526.018	800.000	-0.096	-0.342
-525.004	186.578	-0.075	0.113
-523.989	90.031	0.141	-0.159
-522.975	63.861	0.190	-0.193
-521.960	405.765	0.097	-0.207
-520.945	271.557	-0.160	-0.284
-519.931	462.172	-0.105	0.236
-518.916	59.192	0.276	0.274
-517.902	301.514	0.064	-0.119
-516.887	-67.813	0.114	-0.045
-515.872	4.523	-0.152	-0.112
-514.858	29.160	-0.082	-0.070
-513.843	14.655	0.091	-0.071
-512.829	222.008	0.148	-0.241
-511.814	800.000	-0.045	0.192
-510.799	588.848	-0.101	0.251
-509.785	800.000	0.051	0.196
-508.770	173.459	-0.116	-0.169
-507.756	-115.055	0.169	-0.032
-506.741	800.000	-0.045	0.181
-505.726	20.930	0.127	-0.104
-504.712	-85.225	0.169	-0.053
-503.697	25.022	-0.168	-0.140
-502.683	-83.928	-0.023	-0.007
-501.668	-109.126	-0.269	0.058
-500.653	-200.000	-0.037	0.220
-499.639	-191.492	-0.105	0.001
-498.624	-152.550	-0.299	-0.022
-497.610	-124.055	-0.296	-0.047
-496.595	24.623	-0.106	-0.089
-495.581	-100.519	0.242	0.060
-494.566	800.000	0.074	-0.264
-493.551	-19.565	0.326	-0.204
-492.537	-25.712	-0.463	0.275
-491.522	4.500	0.170	-0.126
-490.508	-111.920	-0.191	-0.039
-489.493	-200.000	0.002	-0.294
-488.478	800.000	0.051	0.164
-487.464	-200.000	-0.055	0.487
-486.449	86.435	0.165	0.184
-485.435	135.768	-0.226	-0.297
-484.420	800.000	-0.023	0.075
-483.405	-111.045	-0.233	0.048
-482.391	225.998	0.205	0.334
-481.376	397.865	-0.039	-0.082
-480.362	24.049	0.047	0.039
-479.347	-120.547	-0.283	-0.048
-478.332	-5.141	-0.399	-0.276
-477.318	75.208	-0.129	-0.137
-476.303	-159.212	0.164	0.009
-475.289	-79.771	0.104	-0.035
-474.274	27.591	-0.070	0.060
-473.259	-39.857	0.189	0.099
-472.245	364.473	0.142	0.288
-471.230	-200.000	-0.004	-0.068
-470.216	72.744	-0.083	0.088
-469.201	-96.915	-0.435	0.115
-468.186	-200.000	0.002	0.070
-467.172	-132.633	0.308	0.040
-466.157	-147.260	0.113	-0.010
-465.143	-7.869	-0.203	0.138
-464.128	-68.323	-0.144	0.056
-463.113	98.851	-0.218	0.253
-462.099	75.650	-0.156	0.166
-461.084	-172.480	-0.099	0.003
-460.070	261.257	-0.059	0.104
-459.055	-178.461	-0.319	0.007
-458.040	-18.713	0.249	0.156
-457.026	-200.000	0.012	0.404
-456.011	-111.480	-0.458	-0.094
-454.997	-200.000	0.051	0.238
-453.982	-127.449	-0.303	0.044
-452.968	423.354	0.126	-0.273
-451.953	22.651	-0.082	0.067
-450.938	800.000	-0.033	-0.144
-449.924	-102.207	0.324	-0.078
-448.909	228.026	0.209	-0.342
-447.895	-90.502	-0.115	0.034
-446.880	-200.000	0.467	-0.002
-445.865	-88.524	-0.192	-0.058
-444.851	344.027	0.124	-0.244
-443.836	-92.859	-0.376	-0.106
-442.822	-112.805	-0.135	0.027
-441.807	172.589	-0.116	-0.168
-440.792	-200.000	-0.025	-0.297
-439.778	800.000	-0.121	-0.381
-438.763	452.918	-0.120	0.268
-437.749	800.000	0.092	0.262
-436.734	-24.316	-0.069	-0.041
-435.719	-66.700	-0.347	0.138
-434.705	38.523	-0.133	0.119
-433.690	-164.066	0.163	-0.008
-432.676	493.348	0.128	0.294
-431.661	-200.000	0.006	0.184
-430.646	-77.187	0.259	0.091
-429.632	69.997	0.191	-0.198
-428.617	13.950	0.156	-0.122
-427.603	-200.000	0.004	-0.163
-426.588	-51.704	-0.357	-0.167
-425.573	-160.626	-0.198	-0.011
-424.559	212.479	0.169	-0.268
-423.544	462.015	-0.071	0.160
-422.530	-106.300	-0.125	0.028
-421.515	-200.000	-0.092	0.508
-420.500	-112.473	0.151	-0.030
-419.486	311.792	0.119	-0.224
-418.471	-200.000	-0.003	0.068
-417.457	305.077	0.136	-0.253
-416.442	-200.000	-0.064	0.403
-415.428	-89.395	-0.374	0.111
-414.413	-200.000	0.016	0.167
-413.398	-200.000	-0.027	0.162
-412.384	-161.922	-0.339	0.017
-411.369	-89.570	-0.045	0.013
-410.355	342.705	0.092	-0.181
-409.340	-99.315	-0.135	0.034
-408.325	5.408	0.181	-0.134
-407.311	-72.640	0.343	-0.127
-406.296	-59.171	0.090	-0.039
-405.282	91.400	-0.225	0.254
-404.267	800.000	-0.073	-0.252
-403.252	-159.247	0.277	-0.016
-402.238	-153.559	0.440	-0.031
-401.223	-78.576	0.092	-0.032
-400.209	-92.528	0.151	-0.043
-399.194	324.616	-0.092	-0.176
-398.179	277.048	0.163	-0.291
-397.165	-119.197	-0.229	-0.040
-396.150	-165.242	-0.238	0.011
-395.136	40.278	0.185	-0.167
-394.121	234.456	0.068	-0.113
-393.106	-62.089	0.141	0.059
-392.092	-144.792	0.313	-0.029
-391.077	415.759	0.089	0.190
-390.063	800.000	-0.097	-0.325
-389.048	-24.653	0.117	0.070
-388.033	-114.686	0.454	-0.087
-387.019	730.732	-0.064	0.172
-386.004	-200.000	-0.002	-0.317
-384.990	800.000	0.049	0.200
-383.975	-144.452	0.267	-0.025
-382.960	800.000	-0.013	0.049
-381.946	49.772	0.070	-0.066
-380.931	-64.259	-0.243	-0.099
-379.917	-5.587	0.218	0.150
-378.902	438.099	-0.086	0.188
-377.888	-200.000	0.010	0.290
-376.873	637.542	-0.072	-0.185
-375.858	-70.770	-0.017	0.007
-374.844	800.000	-0.042	0.165
-373.829	152.580	-0.111	0.153
-372.815	-200.000	-0.021	-0.150
-371.800	93.896	-0.216	-0.246
-370.785	800.000	0.073	-0.241
-369.771	-33.961	-0.203	0.112
-368.756	257.476	0.249	0.429
-367.742	-200.000	0.032	-0.156
-366.727	-200.000	-0.046	-0.249
-365.712	97.585	-0.078	0.090
-364.698	-8.532	0.180	-0.121
-363.683	-9.447	-0.150	0.100
-362.669	-101.743	0.152	-0.037
-361.654	35.524	-0.142	0.125
-360.639	339.515	0.049	-0.095
-359.625	238.952	-0.081	0.135
-358.610	46.192	0.085	-0.079
-357.596	747.416	-0.103	0.278
-356.581	-174.896	-0.397	-0.011
-355.566	459.474	0.154	-0.344
-354.552	179.825	0.140	-0.205
-353.537	-14.680	-0.169	-0.109
-352.523	241.349	0.073	0.122
-351.508	-200.000	-0.013	-0.232
-350.493	7.107	0.330	0.247
-349.479	-58.988	-0.257	0.111
-348.464	89.154	-0.034	-0.038
-347.450	106.203	0.233	-0.276
-346.435	-193.619	-0.387	-0.003
-345.420	-200.000	0.000	-0.223
-344.406	-96.347	0.188	-0.050
-343.391	31.981	0.160	0.138
-342.377	301.081	-0.158	-0.292
-341.362	275.208	-0.095	-0.168
-340.348	-112.939	0.374	-0.074
-339.333	-88.217	0.256	0.077
-338.318	-70.368	0.096	0.037
-337.304	-39.032	-0.286	-0.151
-336.289	-155.450	-0.159	-0.010
-335.275	-39.379	0.050	0.026
-334.260	-3.653	0.162	0.113
-333.245	-42.166	-0.169	0.087
-332.231	-83.784	-0.078	0.025
-331.216	94.058	-0.014	-0.016
-330.202	586.510	-0.090	0.223
-329.187	395.324	-0.040	0.083
-328.172	-79.436	0.432	0.146
-327.158	-200.000	-0.024	-0.269
-326.143	521.763	-0.087	0.204
-325.129	800.000	0.033	0.112
-324.114	41.584	-0.050	0.045
-323.099	249.345	-0.058	-0.098
-322.085	-79.568	0.251	0.085
-321.070	188.073	0.079	0.118
-320.056	21.540	0.151	-0.123
-319.041	-85.804	0.305	-0.095
-318.026	-133.718	-0.133	0.017
-317.012	-82.052	0.020	0.007
-315.997	-200.000	0.013	-0.076
-314.983	-22.506	0.168	0.102
-313.968	1.245	0.109	0.079
-312.953	-200.000	-0.014	-0.064
-311.939	249.206	0.083	0.140
-310.924	-50.513	-0.377	-0.178
-309.910	192.635	0.112	0.170
-308.895	245.375	-0.033	-0.056
-307.880	6.345	0.160	-0.119
-306.866	-171.892	-0.483	0.016
-305.851	20.990	0.092	-0.074
-304.837	207.453	0.021	0.033
-303.822	519.266	0.077	-0.180
-302.807	-200.000	-0.010	0.243
-301.793	325.406	0.054	0.104
-300.778	-36.645	0.167	0.090
-299.764	-200.000	0.011	-0.261
-298.749	597.334	-0.122	-0.302
-297.735	-124.361	0.127	0.020
-296.720	458.642	-0.033	0.074
-295.705	163.697	-0.064	-0.090
-294.691	-166.581	-0.160	-0.007
-293.676	-157.550	0.029	0.002
-292.662	-97.739	0.378	0.098
-291.647	-200.000	0.047	0.284
-290.632	230.035	-0.152	0.248
-289.618	-55.990	-0.361	-0.161
-288.603	25.660	0.255	-0.213
-287.589	800.000	-0.061	-0.229
-286.574	99.491	-0.171	-0.198
-285.559	-200.000	0.007	0.391
-284.545	-200.000	0.011	0.136
-283.530	800.000	0.041	0.128
-282.516	-63.702	0.135	0.055
-281.501	-76.370	-0.116	-0.041
-280.486	-121.665	-0.334	0.055
-279.472	-129.197	-0.381	0.053
-278.457	800.000	-0.025	0.087
-277.443	-76.616	0.151	-0.053
-276.428	-200.000	-0.018	-0.242
-275.413	-142.157	0.059	-0.006
-274.399	-13.841	-0.434	0.281
-273.384	109.665	0.191	-0.229
-272.370	1.313	-0.316	0.227
-271.355	69.452	0.209	0.215
-270.340	-144.164	0.330	0.031
-269.326	-200.000	-0.003	0.437
-268.311	-32.781	-0.373	0.207
-267.297	-57.984	-0.134	-0.058
-266.282	103.617	-0.234	-0.275
-265.267	728.370	0.102	0.272
-264.253	-200.000	-0.008	0.085
-263.238	118.023	0.158	0.195
-262.224	-34.130	-0.194	-0.106
-261.209	-102.296	-0.255	-0.061
-260.195	76.617	-0.136	0.144
-259.180	-200.000	-0.027	-0.293
-258.165	-66.584	0.308	0.122
-257.151	102.035	0.192	-0.224
-256.136	11.423	-0.165	0.126
-255.122	-130.385	-0.227	-0.031
-254.107	-9.054	0.297	0.199
-253.092	148.070	-0.017	-0.023
-252.078	800.000	-0.028	0.110
-251.063	-178.069	-0.203	-0.005
-250.049	31.046	0.236	0.202
-249.034	-200.000	-0.041	0.269
-248.019	272.690	-0.131	-0.232
-247.005	479.932	-0.013	-0.030
-245.990	800.000	-0.093	0.389
-244.976	-69.599	-0.085	0.033
-243.961	17.737	-0.156	0.124
-242.946	628.620	-0.036	0.091
-241.932	800.000	0.043	-0.152
-240.917	-50.864	-0.387	-0.182
-239.903	-18.164	0.375	-0.234
-238.888	-200.000	0.067	0.294
-237.873	72.537	-0.147	0.153
-236.859	-91.589	0.308	-0.088
-235.844	-27.340	-0.219	-0.127
-234.830	19.510	0.151	0.121
-233.815	120.395	0.015	0.018
-232.800	133.004	-0.125	-0.161
-231.786	16.160	0.309	-0.243
-230.771	-114.584	-0.083	0.016
-229.757	-55.432	-0.050	-0.022
-228.742	-33.287	-0.234	-0.129
-227.727	193.376	0.140	0.212
-226.713	46.315	-0.117	0.108
-225.698	-19.383	-0.228	-0.141
-224.684	15.866	0.138	-0.108
-223.669	146.091	0.057	-0.076
-222.655	-130.225	0.575	0.078
-221.640	-30.564	-0.168	0.095
-220.625	-112.716	0.173	-0.034
-219.611	262.933	0.084	0.146
-218.596	-46.404	-0.341	-0.167
-217.582	-200.000	0.001	-0.197
-216.567	44.959	0.155	-0.143
-215.552	406.553	-0.066	0.139
-214.538	-74.303	0.362	0.130
-213.523	-115.930	-0.399	0.074
-212.509	-200.000	0.058	0.321
-211.494	-200.000	-0.003	0.203
-210.479	800.000	0.066	0.218
-209.465	95.833	-0.047	-0.054
-208.450	-9.024	0.142	-0.095
-207.436	-200.000	0.009	0.128
-206.421	800.000	-0.039	-0.137
-205.406	-4.071	-0.103	-0.071
-204.392	-162.923	0.356	-0.017
-203.377	-200.000	0.002	0.042
-202.363	-1.781	0.167	0.117
-201.348	800.000	-0.029	0.124
-200.333	-200.000	0.030	0.230
-199.319	19.745	0.475	-0.381
-198.304	-200.000	0.260	-0.000
-197.290	105.956	0.218	0.257
-196.275	36.366	0.229	-0.201
-195.260	-131.688	0.221	-0.029
-194.246	800.000	0.053	-0.154
-193.231	-133.962	0.222	-0.027
-192.217	-200.000	0.036	0.341
-191.202	10.274	0.076	0.058
-190.187	-200.000	-0.044	0.337
-189.173	-173.079	0.112	0.003
-188.158	-151.763	0.078	-0.006
-187.144	106.902	0.105	0.124
-186.129	-63.359	-0.170	0.070
-185.114	-130.473	0.103	-0.014
-184.100	475.324	0.071	-0.160
-183.085	-200.000	0.020	-0.387
-182.071	-200.000	-0.288	-0.001
-181.056	-146.281	0.180	0.016
-180.042	-166.435	0.240	0.010
-179.027	-119.805	0.119	-0.020
-178.012	800.000	0.069	-0.250
-176.998	373.926	-0.055	0.112
-175.983	26.548	-0.219	0.183
-174.969	3.883	-0.260	0.189
-173.954	-4.885	0.127	-0.087
-172.939	121.004	0.061	-0.076
-171.925	-53.682	0.157	0.071
-170.910	-75.737	0.255	-0.090
-169.896	800.000	0.046	-0.173
-168.881	-200.000	0.007	-0.231
-167.866	-137.689	0.123	0.014
-166.852	-23.982	0.115	0.068
-165.837	113.426	0.218	0.263
-164.823	116.044	0.324	0.395
-163.808	3.273	0.057	-0.042
-162.793	-39.949	0.332	0.173
-161.779	-200.000	0.002	0.013
-160.764	197.640	-0.127	0.192
-159.750	108.170	-0.148	-0.175
-158.735	38.891	-0.280	-0.249
-157.720	-72.043	-0.300	-0.111
-156.706	-22.424	0.322	0.194
-155.691	611.396	-0.093	0.231
-154.677	92.824	0.062	-0.070
-153.662	800.000	0.040	-0.124
-152.647	535.388	-0.039	-0.091
-151.633	655.666	0.096	-0.245
-150.618	-130.093	-0.112	0.015
-149.604	227.041	-0.057	0.092
-148.589	800.000	0.106	0.345
-147.574	117.134	-0.282	0.344
-146.560	-83.576	0.311	0.099
-145.545	302.542	0.201	-0.370
-144.531	238.694	-0.102	-0.168
-143.516	54.317	-0.286	-0.274
-142.502	800.000	0.041	-0.135
-141.487	-83.107	0.241	-0.077
-140.472	42.617	0.395	-0.358
-139.458	-175.556	0.172	-0.005
-138.443	-81.761	0.211	-0.069
-137.429	76.186	0.131	-0.138
-136.414	-7.516	0.167	-0.112
-135.399	751.541	0.080	-0.214
-134.385	-200.000	0.005	-0.285
-133.370	-162.843	0.218	-0.011
-132.356	-129.869	-0.264	-0.036
-131.341	-54.764	-0.212	-0.095
-130.326	-200.000	0.012	-0.058
-129.312	-122.574	0.115	-0.019
-128.297	82.993	0.118	-0.128
-127.283	-112.017	-0.162	-0.032
-126.268	106.000	-0.013	0.015
-125.253	76.614	-0.198	-0.208
-124.239	-166.239	0.269	0.011
-123.224	-10.897	-0.113	0.074
-122.210	-129.780	0.382	-0.052
-121.195	-200.000	0.017	0.370
