DTS Sentinel unit serial number:	SN413079Multiplexer serial number:	ORYXHardware model number:	OX4-SRSoftware version number:	ORYX F/W v4.00 Oryx Data Collector v3.7.2.0data status	okinstallation	princeton_trtdifferential loss correction	single-endedforward channel	channel 3reverse channel	N/Adate	2019/09/11time	05:02:11forward acquisition time	60.00reverse acquisition time	0.00gamma	496.2192k internal	0.2330k external	0.2330temperature offset calibration	0.9907default loss term (dB/km)	0.3790temperature slope calibration	1.0000multiplexer offset coefficient	1.0000multiplexer slope coefficient	1.0000fibre end	0.00T internal ref (°C)	29.48T ext. ref 1 (°C)	-0.28T ext. ref 2 (°C)	23.36length (m)	temperature (°C)	Stokes	anti-Stokes-747.200	357.626	-0.168	-0.338
-746.185	800.000	-0.125	0.499
-745.171	-200.000	0.043	-0.190
-744.156	-200.000	0.008	-0.148
-743.142	-200.000	-0.014	-0.176
-742.127	51.479	0.130	-0.125
-741.112	320.175	-0.203	-0.389
-740.098	125.522	0.170	0.216
-739.083	198.324	-0.122	0.189
-738.069	-132.115	0.022	0.003
-737.054	335.945	0.075	-0.146
-736.039	-104.362	-0.393	-0.092
-735.025	272.695	0.128	0.227
-734.010	33.251	-0.117	-0.102
-732.996	-155.664	-0.283	-0.018
-731.981	-7.174	-0.391	0.267
-730.966	-97.052	0.069	-0.018
-729.952	-48.666	0.362	-0.175
-728.937	-83.386	-0.125	-0.040
-727.923	56.881	0.117	0.114
-726.908	-82.266	-0.232	-0.076
-725.894	664.379	0.036	-0.095
-724.879	583.649	0.048	0.119
-723.864	148.865	-0.132	-0.180
-722.850	-139.419	-0.223	-0.024
-721.835	-5.779	0.191	-0.131
-720.821	240.724	0.123	-0.206
-719.806	800.000	-0.083	-0.365
-718.791	-63.801	-0.330	-0.136
-717.777	-58.941	-0.349	-0.152
-716.762	-200.000	-0.076	0.362
-715.748	242.547	-0.040	0.067
-714.733	-127.391	-0.208	0.030
-713.718	106.823	0.133	0.159
-712.704	799.433	-0.155	-0.429
-711.689	-139.470	-0.254	-0.027
-710.675	-86.946	-0.115	-0.035
-709.660	17.433	-0.049	-0.039
-708.645	-78.206	-0.080	-0.028
-707.631	-40.751	-0.107	0.056
-706.616	44.871	-0.193	-0.179
-705.602	-94.949	0.229	0.062
-704.587	-200.000	0.094	0.476
-703.572	-200.000	0.040	-0.252
-702.558	90.571	0.105	-0.118
-701.543	800.000	0.122	-0.389
-700.529	-70.772	0.247	0.094
-699.514	800.000	-0.122	0.466
-698.499	461.617	0.091	-0.204
-697.485	61.785	-0.042	0.042
-696.470	116.276	-0.238	-0.293
-695.456	-132.889	-0.160	-0.021
-694.441	-146.232	0.113	-0.010
-693.426	800.000	0.061	-0.173
-692.412	-127.361	-0.363	-0.053
-691.397	59.358	-0.179	-0.177
-690.383	-200.000	0.005	0.145
-689.368	-200.000	-0.002	0.070
-688.354	-200.000	0.013	0.127
-687.339	-200.000	-0.020	0.272
-686.324	-142.913	-0.289	-0.028
-685.310	-39.924	-0.171	0.090
-684.295	244.296	-0.034	-0.057
-683.281	91.871	-0.095	0.107
-682.266	-129.575	0.170	0.024
-681.251	134.165	-0.060	0.078
-680.237	-67.193	-0.037	0.015
-679.222	46.690	0.059	0.055
-678.208	442.607	-0.031	0.068
-677.193	-200.000	-0.013	0.577
-676.178	-200.000	-0.011	0.194
-675.164	-12.057	0.205	0.135
-674.149	679.741	-0.121	0.317
-673.135	-58.741	-0.298	-0.130
-672.120	-26.713	0.284	0.167
-671.105	248.622	-0.154	0.261
-670.091	15.122	-0.336	-0.264
-669.076	-71.445	-0.259	-0.097
-668.062	-69.914	-0.068	-0.026
-667.047	800.000	-0.065	-0.210
-666.032	434.165	0.066	-0.144
-665.018	-69.323	-0.201	-0.078
-664.003	127.282	0.057	0.073
-662.989	-200.000	0.025	-0.143
-661.974	-131.557	-0.211	0.028
-660.959	343.953	-0.198	0.389
-659.945	428.890	-0.019	0.042
-658.930	-80.015	-0.132	-0.044
-657.916	105.812	-0.119	0.142
-656.901	-200.000	0.029	-0.431
-655.886	-30.054	0.195	-0.112
-654.872	-86.244	-0.306	0.094
-653.857	-144.418	-0.207	-0.019
-652.843	-80.813	0.153	-0.051
-651.828	-126.438	-0.218	-0.033
-650.814	-161.234	0.105	0.005
-649.799	-200.000	0.003	0.039
-648.784	-142.888	-0.572	0.056
-647.770	800.000	-0.004	-0.014
-646.755	-13.475	0.386	-0.251
-645.741	-200.000	0.056	0.294
-644.726	239.132	-0.136	0.227
-643.711	-62.410	-0.266	0.111
-642.697	-62.396	-0.225	-0.094
-641.682	-54.880	0.221	-0.100
-640.668	100.266	0.293	-0.341
-639.653	800.000	0.044	0.160
-638.638	-77.927	-0.052	-0.018
-637.624	337.760	0.106	-0.206
-636.609	-200.000	-0.053	0.335
-635.595	-200.000	0.059	0.392
-634.580	-27.876	-0.221	-0.128
-633.565	-72.753	0.325	-0.120
-632.551	125.156	0.114	-0.144
-631.536	-48.901	-0.264	0.127
-630.522	800.000	-0.043	-0.183
-629.507	-200.000	-0.028	0.382
-628.492	-151.940	-0.293	0.021
-627.478	-200.000	-0.082	0.388
-626.463	-32.042	-0.186	-0.104
-625.449	800.000	-0.104	-0.345
-624.434	-83.318	0.499	-0.161
-623.419	-101.415	0.234	-0.057
-622.405	-131.633	0.116	0.015
-621.390	115.971	-0.209	-0.257
-620.376	-99.668	-0.488	-0.123
-619.361	-64.758	0.183	-0.074
-618.346	-197.097	-0.512	-0.003
-617.332	94.928	-0.037	0.043
-616.317	48.601	0.171	0.161
-615.303	163.220	-0.235	0.331
-614.288	39.409	-0.187	-0.167
-613.273	204.899	-0.309	-0.480
-612.259	-71.569	0.178	-0.066
-611.244	800.000	0.067	0.204
-610.230	51.534	0.265	-0.252
-609.215	127.722	-0.044	0.056
-608.201	-94.217	-0.152	0.042
-607.186	-157.973	-0.186	0.011
-606.171	-54.920	0.254	-0.115
-605.157	-200.000	0.078	0.651
-604.142	-4.603	0.048	-0.033
-603.128	-25.266	0.176	0.105
-602.113	-106.781	0.220	-0.049
-601.098	45.462	0.132	0.122
-600.084	-58.987	-0.268	-0.116
-599.069	-200.000	0.028	0.167
-598.055	-50.750	0.117	0.055
-597.040	-16.544	0.130	-0.083
-596.025	-200.000	0.037	0.238
-595.011	211.212	0.149	0.235
-593.996	74.110	-0.265	0.278
-592.982	-200.000	-0.031	0.150
-591.967	651.426	-0.033	-0.085
-590.952	-200.000	0.138	-0.000
-589.938	-134.272	-0.481	-0.059
-588.923	-83.055	-0.305	-0.098
-587.909	-200.000	-0.005	0.099
-586.894	-199.962	-0.063	-0.000
-585.879	-17.592	0.231	-0.145
-584.865	2.583	0.155	-0.112
-583.850	-5.370	-0.127	-0.087
-582.836	215.763	-0.078	-0.123
-581.821	-200.000	0.025	-0.116
-580.806	-14.895	0.059	-0.038
-579.792	-66.008	0.180	-0.072
-578.777	-106.992	0.300	-0.066
-577.763	742.713	-0.064	0.172
-576.748	-200.000	-0.009	0.165
-575.733	-200.000	-0.018	-0.122
-574.719	-118.829	-0.051	0.009
-573.704	-60.744	0.038	0.016
-572.690	30.139	0.136	-0.116
-571.675	-200.000	-0.011	-0.071
-570.661	-200.000	-0.026	-0.133
-569.646	800.000	-0.052	-0.203
-568.631	234.612	0.150	0.248
-567.617	-200.000	0.044	-0.309
-566.602	304.829	0.091	-0.168
-565.588	800.000	-0.156	0.492
-564.573	-200.000	-0.016	0.105
-563.558	800.000	-0.018	-0.057
-562.544	-100.832	-0.220	-0.054
-561.529	14.217	-0.156	0.121
-560.515	800.000	0.086	0.332
-559.500	-3.662	-0.454	-0.316
-558.485	690.930	0.141	0.370
-557.471	-154.905	-0.122	-0.008
-556.456	-10.289	-0.091	-0.060
-555.442	-92.870	-0.237	0.066
-554.427	-168.670	0.200	-0.008
-553.412	-109.024	0.332	0.071
-552.398	430.336	-0.043	-0.093
-551.383	130.391	-0.217	-0.278
-550.369	-81.648	-0.356	-0.117
-549.354	523.555	0.148	-0.349
-548.339	447.404	-0.070	0.154
-547.325	-200.000	-0.020	0.221
-546.310	45.402	-0.178	0.164
-545.296	800.000	0.011	0.035
-544.281	53.078	0.158	0.151
-543.266	147.430	-0.140	0.188
-542.252	166.233	0.165	0.233
-541.237	-126.415	0.296	0.044
-540.223	-51.951	-0.133	0.062
-539.208	95.422	-0.199	-0.226
-538.193	163.787	-0.107	-0.150
-537.179	-126.805	0.361	-0.053
-536.164	768.522	-0.040	-0.109
-535.150	-200.000	-0.015	0.109
-534.135	546.568	-0.063	-0.150
-533.121	156.677	0.279	-0.385
-532.106	50.280	0.200	0.189
-531.091	-94.153	-0.461	-0.126
-530.077	800.000	-0.007	-0.021
-529.062	-44.911	-0.118	-0.059
-528.048	48.335	-0.132	-0.123
-527.033	-84.062	-0.402	0.127
-526.018	800.000	0.060	-0.216
-525.004	-112.855	-0.525	-0.104
-523.989	165.944	-0.153	-0.216
-522.975	277.633	-0.090	0.161
-521.960	-141.253	-0.172	-0.018
-520.945	-60.469	0.260	-0.110
-519.931	17.591	-0.093	-0.074
-518.916	694.110	-0.138	-0.362
-517.902	-151.455	0.214	0.016
-516.887	97.197	0.186	0.213
-515.872	140.165	-0.097	-0.127
-514.858	-200.000	0.015	-0.234
-513.843	57.040	-0.210	0.204
-512.829	800.000	0.013	0.053
-511.814	800.000	-0.048	0.199
-510.799	-90.374	0.194	0.056
-509.785	759.770	-0.160	-0.432
-508.770	681.251	0.096	0.249
-507.756	463.133	0.147	-0.327
-506.741	800.000	-0.044	0.190
-505.726	193.184	0.083	-0.125
-504.712	-200.000	0.002	0.248
-503.697	-61.059	0.065	0.028
-502.683	370.014	0.051	0.104
-501.668	-86.422	0.406	-0.124
-500.653	476.115	-0.106	0.240
-499.639	800.000	-0.031	0.124
-498.624	800.000	-0.100	-0.299
-497.610	-3.119	-0.251	-0.175
-496.595	-190.080	-0.237	0.003
-495.581	384.325	0.213	0.436
-494.566	66.982	0.137	0.139
-493.551	26.776	-0.384	-0.320
-492.537	288.883	0.088	0.159
-491.522	180.786	0.116	0.170
-490.508	48.485	0.171	-0.159
-489.493	787.703	0.056	-0.154
-488.478	-200.000	-0.031	0.209
-487.464	-173.721	0.155	-0.005
-486.449	-42.572	0.060	0.031
-485.435	-200.000	-0.005	0.082
-484.420	-31.978	-0.274	-0.153
-483.405	49.106	0.113	0.106
-482.391	234.293	-0.193	0.316
-481.376	-87.050	-0.321	-0.097
-480.362	-200.000	0.057	0.280
-479.347	800.000	0.020	0.061
-478.332	15.999	0.231	0.181
-477.318	-41.819	0.201	-0.103
-476.303	721.997	-0.065	0.171
-475.289	-3.657	0.248	-0.171
-474.274	-6.082	-0.089	-0.061
-473.259	-97.278	0.277	-0.072
-472.245	-114.065	-0.373	0.072
-471.230	248.512	0.057	-0.096
-470.216	800.000	-0.116	-0.395
-469.201	-200.000	-0.049	-0.262
-468.186	212.163	0.097	-0.152
-467.172	-200.000	0.010	-0.498
-466.157	-200.000	0.002	-0.426
-465.143	-99.691	0.244	-0.061
-464.128	-139.684	-0.113	0.012
-463.113	-139.677	-0.277	-0.029
-462.099	411.798	0.038	-0.081
-461.084	-200.000	-0.078	-0.428
-460.070	-200.000	0.057	-0.396
-459.055	-200.000	0.062	0.294
-458.040	-58.260	-0.458	-0.198
-457.026	82.041	-0.215	0.232
-456.011	-161.887	0.198	-0.010
-454.997	779.480	-0.071	0.193
-453.982	-107.608	-0.148	0.032
-452.968	-116.526	-0.209	-0.038
-451.953	-78.990	-0.076	-0.026
-450.938	-137.139	-0.379	0.043
-449.924	-112.400	-0.171	0.034
-448.909	78.951	0.136	-0.144
-447.895	-200.000	-0.007	0.047
-446.880	-189.615	-0.234	-0.003
-445.865	-108.153	0.295	-0.064
-444.851	800.000	-0.070	-0.271
-443.836	201.940	-0.080	0.123
-442.822	-200.000	0.029	-0.173
-441.807	-200.000	-0.011	-0.228
-440.792	-140.313	0.428	-0.045
-439.778	159.210	-0.134	-0.185
-438.763	1.455	0.182	0.130
-437.749	-16.797	-0.236	0.149
-436.734	-200.000	-0.040	-0.326
-435.719	540.044	-0.122	-0.290
-434.705	788.212	-0.079	0.215
-433.690	-49.005	0.109	0.052
-432.676	241.476	-0.231	-0.384
-431.661	101.213	0.316	0.365
-430.646	-200.000	-0.031	0.158
-429.632	562.856	0.067	-0.160
-428.617	-20.500	-0.219	0.134
-427.603	-85.254	-0.129	0.040
-426.588	57.997	-0.148	-0.144
-425.573	-68.857	0.559	0.215
-424.559	-187.900	0.194	0.003
-423.544	-110.784	0.198	0.041
-422.530	-100.088	-0.143	-0.035
-421.515	-90.904	-0.166	-0.047
-420.500	-79.916	0.132	-0.044
-419.486	-200.000	0.028	-0.154
-418.471	270.542	-0.053	-0.093
-417.457	41.866	0.192	0.173
-416.442	367.895	-0.051	0.103
-415.428	78.916	0.141	-0.150
-414.413	66.308	0.414	0.418
-413.398	-52.421	-0.152	-0.070
-412.384	279.422	0.105	0.186
-411.369	62.176	0.130	0.129
-410.355	-76.383	-0.269	-0.094
-409.340	800.000	0.065	-0.226
-408.325	800.000	-0.012	-0.048
-407.311	-13.776	-0.137	0.088
-406.296	44.274	-0.171	-0.156
-405.282	-141.424	-0.173	-0.017
-404.267	116.723	-0.149	0.181
-403.252	-43.358	0.302	0.152
-402.238	56.698	-0.199	-0.193
-401.223	-54.059	0.100	0.045
-400.209	260.043	0.174	-0.299
-399.194	-20.909	0.089	0.054
-398.179	-130.202	0.231	0.031
-397.165	-200.000	-0.020	0.273
-396.150	-200.000	-0.058	0.460
-395.136	173.390	0.078	0.112
-394.121	288.942	0.068	0.123
-393.106	4.016	-0.172	0.125
-392.092	800.000	-0.058	0.254
-391.077	-23.134	-0.284	0.170
-390.063	-200.000	0.014	0.255
-389.048	338.513	0.093	0.179
-388.033	-37.643	-0.153	-0.081
-387.019	376.455	-0.065	0.132
-386.004	-200.000	-0.021	-0.204
-384.990	-181.015	0.210	-0.004
-383.975	-22.488	0.210	-0.126
-382.960	-81.798	0.359	-0.117
-381.946	-35.262	0.057	-0.031
-380.931	114.407	0.121	-0.147
-379.917	-137.603	-0.486	-0.054
-378.902	-200.000	0.016	-0.093
-377.888	-83.200	-0.289	0.092
-376.873	800.000	-0.038	-0.155
-375.858	-39.986	-0.276	-0.143
-374.844	-114.049	0.146	-0.028
-373.829	-166.145	-0.183	0.008
-372.815	-1.464	0.224	0.157
-371.800	30.861	0.331	-0.282
-370.785	39.565	-0.291	0.258
-369.771	182.079	-0.093	-0.136
-368.756	-134.535	-0.121	-0.015
-367.742	-50.632	-0.261	0.122
-366.727	-79.784	-0.238	0.079
-365.712	-200.000	0.003	0.288
-364.698	-200.000	0.013	-0.178
-363.683	-32.996	-0.015	0.008
-362.669	373.078	-0.015	0.030
-361.654	-200.000	0.011	-0.062
-360.639	127.272	0.172	0.216
-359.625	4.954	-0.060	0.044
-358.610	800.000	-0.077	0.267
-357.596	-101.489	-0.431	-0.104
-356.581	3.154	0.309	-0.223
-355.566	256.132	0.189	-0.321
-354.552	-200.000	-0.003	-0.041
-353.537	10.021	-0.083	0.062
-352.523	-200.000	0.015	0.186
-351.508	-8.359	0.137	-0.092
-350.493	-106.065	0.640	0.143
-349.479	122.928	0.268	0.333
-348.464	-96.286	0.264	0.069
-347.450	-59.247	-0.162	-0.069
-346.435	-9.627	-0.213	0.141
-345.420	800.000	-0.089	0.323
-344.406	-133.577	0.527	0.065
-343.391	39.534	0.290	0.258
-342.377	-113.719	0.229	0.044
-341.362	-88.133	-0.229	0.068
-340.348	6.424	0.137	0.101
-339.333	60.773	0.180	-0.177
-338.318	800.000	-0.076	0.208
-337.304	-40.359	0.179	0.092
-336.289	-65.473	-0.198	-0.079
-335.275	10.814	-0.142	0.107
-334.260	-121.735	0.238	0.039
-333.245	-66.664	-0.145	-0.057
-332.231	-12.633	0.162	-0.105
-331.216	-200.000	-0.007	-0.236
-330.202	-200.000	0.021	-0.114
-329.187	-200.000	0.025	0.298
-328.172	467.213	-0.118	0.263
-327.158	-146.840	-0.363	-0.031
-326.143	249.907	0.109	-0.184
-325.129	-14.381	0.172	-0.110
-324.114	-39.786	0.284	0.147
-323.099	-76.557	-0.224	0.078
-322.085	-86.596	0.260	0.079
-321.070	587.123	0.097	0.237
-320.056	170.665	-0.097	0.138
-319.041	800.000	-0.169	0.496
-318.026	-200.000	-0.008	0.159
-317.012	95.676	0.129	0.145
-315.997	33.174	0.156	0.134
-314.983	214.532	-0.026	-0.040
-313.968	230.747	-0.061	-0.099
-312.953	10.292	0.129	-0.097
-311.939	408.964	0.099	-0.207
-310.924	-140.081	0.155	0.016
-309.910	-82.683	-0.292	0.093
-308.895	460.447	0.045	0.099
-307.880	-29.438	-0.213	-0.121
-306.866	-102.921	-0.136	0.032
-305.851	-200.000	-0.025	0.111
-304.837	86.083	-0.081	-0.088
-303.822	-200.000	0.001	-0.021
-302.807	155.336	0.098	-0.134
-301.793	176.909	0.145	0.209
-300.778	265.221	0.267	-0.460
-299.764	-131.176	-0.233	-0.031
-298.749	315.744	-0.037	0.069
-297.735	130.379	0.237	0.301
-296.720	47.580	-0.168	0.155
-295.705	304.119	0.084	0.153
-294.691	-96.910	0.313	0.081
-293.676	-50.372	0.140	0.065
-292.662	800.000	-0.145	-0.467
-291.647	-200.000	-0.003	0.142
-290.632	191.530	0.261	0.388
-289.618	103.513	-0.062	0.072
-288.603	116.595	0.209	-0.254
-287.589	-155.645	0.133	0.008
-286.574	-66.658	0.122	0.048
-285.559	-80.813	0.087	-0.029
-284.545	-113.610	0.308	-0.060
-283.530	-200.000	0.058	-0.290
-282.516	-102.982	0.166	0.039
-281.501	-200.000	0.041	-0.205
-280.486	-200.000	0.022	-0.196
-279.472	-200.000	-0.031	-0.197
-278.457	128.337	0.214	0.270
-277.443	-126.460	-0.050	-0.007
-276.428	464.574	-0.030	-0.067
-275.413	-66.067	-0.091	0.036
-274.399	-90.346	-0.216	-0.062
-273.384	27.605	-0.340	-0.283
-272.370	-165.346	-0.082	-0.004
-271.355	118.938	-0.089	0.109
-270.340	-200.000	-0.035	0.239
-269.326	-34.727	0.151	-0.082
-268.311	78.652	0.154	-0.163
-267.297	800.000	-0.047	-0.184
-266.282	47.805	0.202	0.186
-265.267	147.434	0.244	-0.325
-264.253	800.000	0.019	-0.064
-263.238	559.829	-0.126	0.301
-262.224	800.000	-0.047	-0.142
-261.209	-55.456	0.134	-0.059
-260.195	126.722	0.034	0.042
-259.180	186.556	0.133	0.196
-258.165	-178.020	0.290	0.007
-257.151	-200.000	-0.002	0.025
-256.136	-200.000	-0.036	-0.306
-255.122	-162.149	-0.179	0.009
-254.107	-200.000	0.010	0.233
-253.092	-200.000	0.019	-0.250
-252.078	-69.439	0.289	-0.109
-251.063	493.280	0.038	-0.087
-250.049	122.845	-0.256	-0.316
-249.034	147.355	0.065	0.087
-248.019	-104.613	-0.203	0.046
-247.005	-20.317	0.259	0.157
-245.990	141.598	0.280	-0.366
-244.976	-200.000	-0.016	-0.190
-243.961	39.547	-0.180	0.159
-242.946	382.039	0.091	-0.185
-241.932	-33.944	-0.260	0.142
-240.917	800.000	-0.013	-0.044
-239.903	-41.973	0.245	0.124
-238.888	156.104	0.090	0.123
-237.873	-32.024	-0.167	-0.092
-236.859	104.325	-0.114	-0.132
-235.844	-95.103	0.161	0.043
-234.830	-20.690	0.258	0.156
-233.815	-200.000	0.032	0.454
-232.800	-158.406	0.132	0.008
-231.786	-200.000	-0.009	-0.156
-230.771	-200.000	0.049	0.225
-229.757	-95.219	0.087	-0.023
-228.742	1.181	-0.175	-0.124
-227.727	5.110	-0.121	-0.088
-226.713	800.000	-0.036	-0.098
-225.698	292.476	0.127	-0.228
-224.684	-25.257	-0.336	0.196
-223.669	-22.410	-0.348	0.208
-222.655	-41.838	0.127	-0.064
-221.640	-40.294	0.260	-0.133
-220.625	45.561	0.277	-0.252
-219.611	-62.326	-0.127	-0.052
-218.596	-24.647	0.350	0.205
-217.582	-138.044	0.166	0.018
-216.567	45.005	-0.216	0.197
-215.552	392.478	-0.115	-0.237
-214.538	800.000	0.080	-0.230
-213.523	-56.427	0.111	0.049
-212.509	-53.746	-0.190	0.086
-211.494	-181.250	0.328	-0.006
-210.479	-14.046	-0.184	0.117
-209.465	-112.521	0.342	-0.067
-208.450	47.382	-0.112	-0.103
-207.436	190.180	0.144	0.213
-206.421	56.267	-0.251	0.241
-205.406	-91.812	0.073	-0.020
-204.392	82.784	0.183	-0.196
-203.377	-105.168	-0.158	0.036
-202.363	22.286	0.168	-0.136
-201.348	689.331	0.071	-0.182
-200.333	-29.386	-0.155	-0.088
-199.319	-100.420	0.317	-0.077
-198.304	-102.670	0.078	-0.018
-197.290	19.010	0.075	0.059
-196.275	-117.980	-0.171	0.030
-195.260	34.277	0.248	-0.214
-194.246	0.312	-0.167	-0.117
-193.231	-106.193	-0.514	0.114
-192.217	238.625	-0.195	0.319
-191.202	800.000	-0.090	0.256
-190.187	-125.209	0.283	-0.043
-189.173	23.439	0.082	0.066
-188.158	-31.748	0.051	-0.028
-187.144	-200.000	0.002	0.123
-186.129	40.285	0.241	0.213
-185.114	-200.000	-0.021	0.193
-184.100	38.547	0.167	0.146
-183.085	-200.000	0.057	-0.264
-182.071	-200.000	0.025	0.142
-181.056	-16.397	-0.342	-0.214
-180.042	2.591	0.157	-0.112
-179.027	-156.476	-0.380	-0.023
-178.012	-200.000	0.004	0.174
-176.998	-138.993	0.189	0.020
-175.983	-200.000	-0.029	0.129
-174.969	-97.791	0.097	0.025
-173.954	-34.795	0.096	0.052
-172.939	800.000	0.039	-0.147
-171.925	360.641	0.019	-0.037
-170.910	-200.000	-0.053	-0.329
-169.896	61.367	-0.299	-0.293
-168.881	171.943	-0.164	0.232
-167.866	-200.000	-0.023	-0.287
-166.852	74.485	-0.097	-0.100
-165.837	-6.994	-0.093	0.062
-164.823	141.299	0.135	-0.176
-163.808	-200.000	0.060	0.341
-162.793	157.338	0.132	-0.180
-161.779	-66.156	-0.191	0.075
-160.764	-22.443	-0.409	0.244
-159.750	-79.485	-0.184	-0.061
-158.735	-48.001	-0.122	0.058
-157.720	156.341	-0.108	-0.147
-156.706	-200.000	-0.036	-0.154
-155.691	346.654	0.012	0.023
-154.677	104.523	-0.013	0.016
-153.662	-200.000	-0.020	-0.194
-152.647	111.453	0.104	0.123
-151.633	-200.000	-0.023	0.101
-150.618	541.597	-0.072	-0.170
-149.604	151.211	0.248	0.332
-148.589	-86.891	0.281	-0.084
-147.574	-122.024	0.139	0.023
-146.560	7.373	-0.207	0.152
-145.545	-35.382	0.182	-0.098
-144.531	-169.159	0.289	-0.011
-143.516	-77.686	0.171	0.058
-142.502	514.898	-0.037	0.084
-141.487	-200.000	0.000	-0.038
-140.472	-57.008	0.137	-0.059
-139.458	432.603	0.087	-0.185
-138.443	800.000	-0.040	-0.145
-137.429	-56.169	0.217	-0.095
-136.414	52.287	0.189	-0.177
-135.399	60.631	-0.150	-0.146
-134.385	800.000	0.143	-0.390
-133.370	800.000	0.046	0.180
-132.356	106.183	0.197	-0.229
-131.341	800.000	-0.096	-0.335
-130.326	-31.928	0.230	-0.127
-129.312	-21.137	-0.087	-0.052
-128.297	-44.243	0.279	-0.137
-127.283	-59.127	0.246	0.104
-126.268	-17.365	-0.103	0.063
-125.253	285.236	0.085	-0.151
-124.239	481.083	-0.065	-0.145
-123.224	-200.000	-0.028	0.141
-122.210	800.000	-0.025	0.081
