DTS Sentinel unit serial number:	SN413079Multiplexer serial number:	ORYXHardware model number:	OX4-SRSoftware version number:	ORYX F/W v4.00 Oryx Data Collector v3.7.2.0data status	okinstallation	princeton_trtdifferential loss correction	single-endedforward channel	channel 3reverse channel	N/Adate	2019/09/11time	11:54:11forward acquisition time	60.00reverse acquisition time	0.00gamma	496.2192k internal	0.2291k external	0.2291temperature offset calibration	0.9938default loss term (dB/km)	0.3790temperature slope calibration	1.0000multiplexer offset coefficient	1.0000multiplexer slope coefficient	1.0000fibre end	0.00T internal ref (°C)	39.00T ext. ref 1 (°C)	0.19T ext. ref 2 (°C)	37.18length (m)	temperature (°C)	Stokes	anti-Stokes-747.200	-24.624	-0.044	0.027
-746.185	773.711	0.075	0.211
-745.171	-96.750	0.146	0.039
-744.156	-132.575	-0.206	-0.027
-743.142	48.345	0.189	-0.181
-742.127	85.138	-0.116	-0.130
-741.112	-200.000	-0.023	-0.110
-740.098	-200.000	0.033	0.358
-739.083	-72.124	0.048	0.018
-738.069	-200.000	0.028	0.130
-737.054	794.488	0.160	-0.451
-736.039	-77.743	0.249	0.088
-735.025	-78.390	0.254	0.089
-734.010	53.318	-0.202	0.198
-732.996	800.000	0.066	-0.269
-731.981	-2.464	-0.151	-0.108
-730.966	-18.247	-0.280	-0.179
-729.952	-131.515	0.108	0.015
-728.937	-167.426	-0.443	0.018
-727.923	0.124	-0.138	-0.100
-726.908	189.839	-0.102	-0.157
-725.894	-156.339	-0.133	0.009
-724.879	83.214	-0.155	-0.172
-723.864	-19.482	-0.308	-0.195
-722.850	-200.000	0.021	-0.214
-721.835	-14.433	-0.064	0.042
-720.821	91.944	-0.159	0.183
-719.806	-200.000	-0.006	-0.119
-718.791	-36.776	0.054	-0.029
-717.777	-182.324	-0.511	0.010
-716.762	100.691	-0.189	0.224
-715.748	800.000	0.014	0.057
-714.733	35.154	0.304	-0.273
-713.718	-37.384	0.015	-0.008
-712.704	-123.656	-0.044	0.007
-711.689	35.102	-0.091	0.082
-710.675	-5.578	-0.196	0.137
-709.660	-17.090	0.159	0.102
-708.645	119.224	-0.042	-0.053
-707.631	-200.000	-0.002	-0.013
-706.616	800.000	0.041	-0.167
-705.602	568.208	-0.170	0.423
-704.587	-98.611	-0.305	-0.080
-703.572	-91.340	0.246	0.072
-702.558	27.939	0.136	-0.117
-701.543	-28.452	-0.091	0.053
-700.529	433.259	-0.050	0.112
-699.514	770.662	-0.013	0.036
-698.499	-96.088	0.240	0.065
-697.485	-200.000	-0.041	-0.259
-696.470	250.980	0.099	0.172
-695.456	20.644	-0.075	-0.062
-694.441	-116.280	-0.136	0.026
-693.426	-200.000	0.003	0.233
-692.412	-44.855	0.171	-0.087
-691.397	-200.000	0.034	-0.178
-690.383	3.208	-0.243	-0.181
-689.368	-8.070	-0.287	0.198
-688.354	-200.000	-0.012	-0.280
-687.339	254.087	-0.047	0.082
-686.324	800.000	-0.127	-0.373
-685.310	7.188	0.108	0.082
-684.295	254.818	-0.103	-0.180
-683.281	800.000	0.105	0.422
-682.266	-200.000	0.012	-0.410
-681.251	-62.830	-0.278	0.118
-680.237	-110.032	-0.449	0.096
-679.222	25.336	0.054	0.046
-678.208	-107.145	0.122	-0.028
-677.193	-200.000	0.021	-0.286
-676.178	283.606	-0.136	-0.250
-675.164	-124.977	0.223	0.035
-674.149	76.395	-0.127	0.137
-673.135	-200.000	-0.024	0.142
-672.120	-151.153	0.346	-0.026
-671.105	-94.627	-0.291	0.081
-670.091	173.836	-0.209	0.308
-669.076	-200.000	0.068	-0.424
-668.062	-200.000	-0.077	-0.453
-667.047	-48.050	-0.240	-0.119
-666.032	800.000	-0.021	-0.060
-665.018	-92.401	0.451	-0.129
-664.003	55.874	-0.122	-0.121
-662.989	-89.218	0.245	-0.074
-661.974	36.486	0.077	-0.070
-660.959	-200.000	-0.018	-0.185
-659.945	-116.546	-0.209	0.039
-658.930	-200.000	-0.020	0.093
-657.916	-71.860	-0.195	-0.074
-656.901	91.358	-0.043	-0.049
-655.886	-132.825	-0.027	-0.003
-654.872	615.984	-0.075	-0.191
-653.857	385.551	0.059	-0.125
-652.843	449.442	-0.122	0.274
-651.828	48.359	-0.014	0.013
-650.814	43.753	-0.175	-0.163
-649.799	-200.000	0.037	0.187
-648.784	-75.303	-0.107	-0.039
-647.770	-200.000	0.014	-0.133
-646.755	-121.124	-0.047	-0.008
-645.741	132.451	0.317	-0.416
-644.726	-200.000	0.029	-0.286
-643.711	138.657	-0.163	0.219
-642.697	-90.342	0.072	0.021
-641.682	666.659	-0.038	-0.100
-640.668	-96.978	0.326	0.087
-639.653	-144.004	0.135	-0.013
-638.638	-200.000	0.017	-0.098
-637.624	-39.784	0.219	0.117
-636.609	800.000	0.033	-0.130
-635.595	10.956	-0.185	-0.144
-634.580	-136.562	0.027	-0.003
-633.565	298.782	0.208	-0.391
-632.551	-139.470	-0.277	-0.030
-631.536	52.409	-0.062	-0.060
-630.522	-22.832	0.016	-0.010
-629.507	-200.000	-0.028	-0.164
-628.492	-39.016	0.093	-0.050
-627.478	199.297	0.083	0.129
-626.463	-200.000	-0.005	0.225
-625.449	408.267	-0.056	-0.121
-624.434	-108.931	0.124	-0.027
-623.419	-87.453	-0.334	-0.103
-622.405	-77.836	-0.070	-0.025
-621.390	34.795	0.180	-0.160
-620.376	-115.588	-0.262	-0.050
-619.361	289.224	-0.053	-0.097
-618.346	-115.811	-0.376	0.072
-617.332	-59.793	-0.297	0.130
-616.317	472.337	0.079	-0.181
-615.303	620.975	0.103	-0.263
-614.288	-100.074	-0.042	0.011
-613.273	-73.071	-0.304	0.113
-612.259	-200.000	-0.056	-0.265
-611.244	23.647	-0.155	0.130
-610.230	255.795	0.206	-0.360
-609.215	-200.000	0.015	0.132
-608.201	800.000	0.083	-0.328
-607.186	-200.000	0.005	-0.110
-606.171	21.257	0.299	-0.248
-605.157	-200.000	0.003	0.298
-604.142	800.000	-0.070	-0.219
-603.128	192.551	-0.149	0.229
-602.113	-200.000	-0.025	0.277
-601.098	-80.513	-0.320	-0.109
-600.084	167.609	-0.203	0.293
-599.069	800.000	0.086	-0.336
-598.055	10.471	-0.203	-0.158
-597.040	23.984	-0.337	0.283
-596.025	-200.000	0.013	0.336
-595.011	-116.985	-0.154	0.029
-593.996	-200.000	0.039	0.244
-592.982	87.898	0.219	0.247
-591.967	-59.115	0.176	0.077
-590.952	376.574	0.210	-0.435
-589.938	-68.575	-0.126	-0.050
-588.923	-48.486	-0.102	-0.050
-587.909	69.431	-0.215	0.225
-586.894	308.696	-0.094	-0.179
-585.879	-188.914	-0.475	0.006
-584.865	800.000	-0.093	0.375
-583.850	-200.000	0.035	-0.395
-582.836	-106.570	-0.376	-0.085
-581.821	378.379	-0.139	0.290
-580.806	644.548	0.060	0.155
-579.792	457.844	0.095	-0.215
-578.777	-113.907	-0.158	0.031
-577.763	-141.042	-0.539	0.056
-576.748	-134.136	0.219	0.028
-575.733	-200.000	0.011	-0.108
-574.719	331.107	0.166	-0.325
-573.704	800.000	-0.018	-0.053
-572.690	-200.000	-0.023	0.342
-571.675	-35.597	0.153	-0.084
-570.661	-6.288	0.192	0.133
-569.646	106.628	0.250	0.302
-568.631	-200.000	-0.017	0.097
-567.617	154.001	-0.132	0.184
-566.602	-64.957	-0.181	-0.074
-565.588	-24.020	0.147	-0.089
-564.573	800.000	0.064	-0.259
-563.558	-129.594	0.255	0.036
-562.544	-200.000	0.048	-0.286
-561.529	-23.417	-0.217	-0.132
-560.515	93.411	0.318	-0.365
-559.500	-200.000	-0.017	0.229
-558.485	31.454	-0.111	-0.097
-557.471	31.793	-0.249	0.218
-556.456	-200.000	-0.037	-0.189
-555.442	14.939	-0.123	0.098
-554.427	439.032	-0.062	-0.137
-553.412	173.678	0.106	-0.156
-552.398	-200.000	-0.008	-0.059
-551.383	157.135	0.360	-0.506
-550.369	800.000	0.040	0.119
-549.354	-51.799	0.065	-0.031
-548.339	290.455	-0.065	0.121
-547.325	663.090	-0.141	0.371
-546.310	91.808	-0.260	-0.297
-545.296	143.237	0.173	0.234
-544.281	-200.000	-0.025	0.272
-543.266	800.000	0.141	0.464
-542.252	-63.833	0.470	0.195
-541.237	800.000	0.003	0.015
-540.223	121.783	-0.152	0.193
-539.208	-200.000	0.023	0.186
-538.193	83.518	0.193	0.214
-537.179	-200.000	0.012	0.078
-536.164	5.947	-0.224	0.169
-535.150	-200.000	-0.008	0.046
-534.135	282.171	-0.053	-0.097
-533.121	-22.425	-0.287	0.176
-532.106	3.221	-0.171	-0.126
-531.091	-0.685	-0.255	0.184
-530.077	-200.000	-0.003	-0.065
-529.062	-200.000	0.060	0.274
-528.048	234.593	0.183	0.306
-527.033	47.589	-0.095	0.090
-526.018	-23.602	0.281	-0.171
-525.004	-26.626	-0.346	-0.206
-523.989	-102.955	-0.259	-0.062
-522.975	800.000	0.140	0.532
-521.960	192.497	0.049	0.076
-520.945	-48.914	-0.085	0.041
-519.931	-9.317	0.362	0.245
-518.916	6.748	-0.059	0.044
-517.902	-109.946	0.235	-0.050
-516.887	-16.338	0.307	0.198
-515.872	-27.684	-0.323	0.190
-514.858	-114.840	-0.181	-0.035
-513.843	-147.782	0.216	-0.018
-512.829	52.601	-0.164	0.159
-511.814	-56.970	-0.208	0.093
-510.799	85.927	0.097	0.108
-509.785	9.020	0.217	-0.166
-508.770	14.492	0.158	0.125
-507.756	746.216	0.070	-0.191
-506.741	-70.186	0.306	0.118
-505.726	800.000	0.019	0.082
-504.712	124.447	-0.188	-0.240
-503.697	-151.270	-0.298	-0.023
-502.683	-145.558	0.231	-0.021
-501.668	37.435	-0.104	-0.093
-500.653	8.786	-0.288	-0.221
-499.639	58.990	-0.021	-0.021
-498.624	176.381	-0.060	0.088
-497.610	16.530	0.142	0.114
-496.595	-18.822	0.131	-0.083
-495.581	258.755	-0.106	0.185
-494.566	-164.100	-0.315	-0.015
-493.551	-26.842	-0.314	-0.186
-492.537	41.832	-0.107	0.098
-491.522	-37.384	0.023	0.013
-490.508	423.152	0.065	0.142
-489.493	-39.755	-0.134	-0.071
-488.478	-46.985	0.113	-0.056
-487.464	-75.818	-0.042	0.015
-486.449	370.185	-0.109	0.224
-485.435	-14.185	0.143	0.093
-484.420	-81.837	0.276	-0.091
-483.405	26.297	0.301	-0.255
-482.391	800.000	-0.031	0.111
-481.376	-200.000	0.001	-0.213
-480.362	142.933	-0.143	0.193
-479.347	-200.000	0.096	0.463
-478.332	-200.000	0.005	0.077
-477.318	-86.546	-0.215	0.067
-476.303	800.000	-0.061	0.218
-475.289	-200.000	-0.004	-0.044
-474.274	137.219	-0.094	-0.124
-473.259	17.771	0.187	0.151
-472.245	86.189	-0.049	-0.055
-471.230	-200.000	0.029	-0.164
-470.216	270.507	0.046	-0.082
-469.201	107.987	0.145	-0.176
-468.186	-108.621	-0.439	-0.095
-467.172	-163.731	-0.110	-0.005
-466.157	397.031	0.102	-0.217
-465.143	-200.000	0.041	-0.192
-464.128	-200.000	0.059	0.353
-463.113	-200.000	-0.023	-0.346
-462.099	491.557	0.078	0.180
-461.084	-62.661	0.076	-0.032
-460.070	-200.000	-0.024	0.142
-459.055	71.987	0.372	0.392
-458.040	-200.000	-0.045	-0.259
-457.026	-158.670	0.144	0.008
-456.011	73.187	0.156	0.166
-454.997	-97.413	0.353	0.093
-453.982	-47.760	-0.178	-0.087
-452.968	-81.418	-0.357	-0.119
-451.953	55.116	0.150	-0.147
-450.938	-97.310	-0.091	-0.024
-449.924	-144.822	-0.340	-0.032
-448.909	-200.000	0.023	-0.160
-447.895	-47.832	-0.345	-0.169
-446.880	61.954	0.092	0.092
-445.865	-110.240	-0.187	-0.039
-444.851	-66.809	0.235	0.094
-443.836	158.645	0.194	0.272
-442.822	-42.872	0.191	0.098
-441.807	1.272	-0.079	-0.057
-440.792	-66.434	-0.215	-0.086
-439.778	-11.489	0.198	0.132
-438.763	800.000	0.066	-0.269
-437.749	-200.000	-0.008	0.057
-436.734	-97.728	0.409	-0.107
-435.719	674.932	0.106	0.278
-434.705	-29.276	0.277	0.161
-433.690	-54.127	0.266	0.122
-432.676	246.138	0.052	-0.089
-431.661	-48.742	-0.162	0.079
-430.646	-148.047	-0.416	0.035
-429.632	161.955	-0.130	0.185
-428.617	-66.019	-0.257	0.104
-427.603	800.000	0.090	0.255
-426.588	-22.971	-0.315	0.192
-425.573	-20.268	-0.144	0.089
-424.559	32.294	-0.158	0.138
-423.544	-100.680	0.340	-0.085
-422.530	117.786	-0.143	-0.178
-421.515	9.362	0.239	0.183
-420.500	-200.000	-0.022	-0.155
-419.486	-200.000	0.049	-0.253
-418.471	-67.053	0.035	-0.014
-417.457	24.673	-0.241	-0.202
-416.442	-116.840	-0.128	-0.024
-415.428	38.502	0.242	-0.218
-414.413	-84.373	-0.201	-0.064
-413.398	-200.000	-0.050	-0.348
-412.384	-11.852	0.158	0.105
-411.369	-76.567	-0.215	-0.076
-410.355	-200.000	0.078	-0.447
-409.340	67.679	-0.073	0.075
-408.325	-200.000	0.039	-0.333
-407.311	-200.000	0.001	0.205
-406.296	94.177	0.097	-0.111
-405.282	44.171	0.424	-0.393
-404.267	-186.358	0.157	-0.002
-403.252	-16.003	0.306	0.197
-402.238	-36.788	0.199	0.108
-401.223	-54.870	-0.273	0.124
-400.209	-33.543	0.222	0.124
-399.194	20.027	-0.083	-0.068
-398.179	594.191	-0.088	0.219
-397.165	-123.909	-0.189	0.030
-396.150	-200.000	-0.018	0.130
-395.136	163.922	-0.069	0.098
-394.121	154.885	-0.140	0.195
-393.106	93.778	0.097	-0.110
-392.092	-152.865	-0.238	0.017
-391.077	10.246	-0.203	0.156
-390.063	-200.000	-0.334	0.001
-389.048	63.531	-0.078	0.079
-388.033	-200.000	0.023	-0.208
-387.019	128.943	-0.147	-0.189
-386.004	19.797	0.235	-0.191
-384.990	-12.541	-0.126	0.083
-383.975	788.125	0.070	0.195
-382.960	39.777	0.142	-0.129
-381.946	-104.885	0.160	-0.037
-380.931	186.584	0.103	0.154
-379.917	-200.000	0.010	0.210
-378.902	38.868	0.210	-0.189
-377.888	-49.062	0.311	0.150
-376.873	-200.000	-0.006	-0.077
-375.858	422.916	0.110	0.238
-374.844	-200.000	-0.022	-0.186
-373.829	800.000	0.117	0.358
-372.815	313.541	-0.012	-0.023
-371.800	120.088	-0.158	-0.198
-370.785	-68.523	-0.122	-0.048
-369.771	99.393	-0.085	-0.099
-368.756	-96.122	-0.078	-0.021
-367.742	-95.466	-0.117	-0.032
-366.727	-200.000	-0.004	-0.203
-365.712	-59.782	0.215	0.093
-364.698	512.487	-0.063	-0.147
-363.683	-160.911	-0.194	0.010
-362.669	-200.000	-0.046	-0.345
-361.654	265.630	0.050	-0.088
-360.639	0.116	0.255	-0.183
-359.625	249.534	0.090	-0.153
-358.610	800.000	0.117	0.407
-357.596	-39.188	0.134	0.071
-356.581	-15.354	0.125	-0.080
-355.566	-165.009	0.157	-0.007
-354.552	426.299	-0.038	-0.083
-353.537	-73.177	-0.177	0.065
-352.523	161.810	0.125	-0.176
-351.508	-39.215	-0.041	0.022
-350.493	-133.419	-0.256	-0.032
-349.479	800.000	0.044	0.125
-348.464	-115.883	0.130	0.025
-347.450	-200.000	-0.033	0.175
-346.435	62.368	0.110	0.111
-345.420	-69.326	-0.371	-0.144
-344.406	800.000	0.063	0.225
-343.391	-200.000	-0.023	-0.270
-342.377	-88.984	0.256	0.076
-341.362	348.695	0.024	0.048
-340.348	-14.124	-0.298	-0.194
-339.333	-1.569	0.062	-0.044
-338.318	-54.748	0.492	-0.224
-337.304	-23.979	-0.151	0.091
-336.289	-30.900	-0.301	0.171
-335.275	301.682	-0.123	-0.229
-334.260	-66.457	-0.043	0.017
-333.245	-200.000	0.056	0.354
-332.231	-69.205	-0.069	-0.027
-331.216	57.363	0.142	0.140
-330.202	-140.626	-0.222	0.023
-329.187	424.062	0.071	0.155
-328.172	171.426	-0.004	-0.006
-327.158	41.417	-0.051	-0.046
-326.143	-32.889	0.220	0.123
-325.129	-200.000	0.020	-0.113
-324.114	-200.000	0.029	-0.387
-323.099	-13.995	0.239	0.156
-322.085	-198.856	-0.226	0.001
-321.070	195.628	-0.006	-0.009
-320.056	-59.638	0.117	-0.051
-319.041	-59.956	0.147	0.063
-318.026	11.288	0.161	-0.124
-317.012	800.000	-0.025	0.099
-315.997	205.867	-0.158	-0.247
-314.983	-29.725	0.109	-0.063
-313.968	-68.301	0.267	0.105
-312.953	-110.351	0.203	-0.042
-311.939	-200.000	0.027	-0.284
-310.924	54.775	0.108	-0.105
-309.910	577.215	-0.122	-0.299
-308.895	82.245	0.140	0.152
-307.880	156.855	-0.099	-0.138
-306.866	-190.469	0.049	0.001
-305.851	597.164	-0.013	-0.031
-304.837	-32.755	0.032	0.018
-303.822	163.860	0.049	-0.070
-302.807	-200.000	0.006	-0.144
-301.793	-178.993	0.193	-0.004
-300.778	15.031	0.213	-0.168
-299.764	-76.883	-0.072	0.025
-298.749	-34.834	0.277	0.152
-297.735	-200.000	0.024	-0.274
-296.720	1.790	0.246	0.178
-295.705	-133.146	0.102	-0.013
-294.691	8.802	-0.212	-0.161
-293.676	-66.964	0.283	-0.112
-292.662	220.564	-0.046	0.075
-291.647	-66.386	-0.277	-0.111
-290.632	287.685	-0.057	-0.103
-289.618	176.074	0.028	0.040
-288.603	-200.000	0.026	0.172
-287.589	-50.522	-0.436	0.207
-286.574	111.533	0.275	0.333
-285.559	-200.000	0.005	0.034
-284.545	3.922	0.404	-0.297
-283.530	800.000	0.099	-0.405
-282.516	44.313	-0.118	0.109
-281.501	-132.841	0.068	-0.009
-280.486	800.000	-0.036	-0.107
-279.472	210.842	0.107	0.170
-278.457	-124.321	0.266	0.042
-277.443	111.527	-0.129	-0.157
-276.428	522.591	0.015	-0.036
-275.413	-53.084	-0.239	0.111
-274.399	-151.803	-0.200	0.015
-273.384	-124.480	-0.145	0.023
-272.370	315.638	-0.097	-0.184
-271.355	-35.207	0.296	-0.162
-270.340	220.161	0.157	0.252
-269.326	-4.896	0.155	0.107
-268.311	160.358	-0.158	-0.221
-267.297	800.000	-0.030	-0.124
-266.282	284.442	0.205	-0.371
-265.267	394.616	0.056	0.116
-264.253	77.546	-0.206	-0.220
-263.238	-200.000	0.028	-0.161
-262.224	17.343	-0.195	-0.156
-261.209	259.838	0.171	0.297
-260.195	-85.703	-0.229	-0.072
-259.180	-137.756	0.097	0.011
-258.165	-110.352	-0.292	0.061
-257.151	-14.489	0.081	-0.053
-256.136	-200.000	-0.007	0.078
-255.122	-65.383	0.165	0.067
-254.107	-146.234	0.384	0.034
-253.092	387.227	-0.054	-0.112
-252.078	800.000	-0.052	-0.195
-251.063	69.940	0.176	0.183
-250.049	-43.019	-0.161	0.082
-249.034	-110.112	-0.261	0.055
-248.019	-200.000	0.023	0.156
-247.005	800.000	-0.038	0.148
-245.990	-122.634	-0.060	-0.010
-244.976	291.059	0.016	-0.029
-243.961	-200.000	0.015	-0.228
-242.946	17.475	0.249	0.199
-241.932	-134.571	0.162	0.020
-240.917	-146.909	-0.042	-0.004
-239.903	-200.000	-0.067	0.323
-238.888	-200.000	-0.013	0.215
-237.873	-119.524	0.308	-0.054
-236.859	-36.846	-0.106	0.057
-235.844	-31.671	0.187	0.105
-234.830	-145.554	0.245	-0.022
-233.815	-200.000	0.024	-0.152
-232.800	800.000	-0.132	-0.401
-231.786	389.596	-0.165	-0.344
-230.771	-200.000	0.032	0.197
-229.757	-200.000	-0.016	0.321
-228.742	-38.952	-0.184	0.097
-227.727	-106.895	-0.261	0.058
-226.713	-56.527	0.169	0.075
-225.698	34.381	-0.141	-0.124
-224.684	-76.133	-0.224	-0.079
-223.669	-200.000	0.001	-0.063
-222.655	800.000	-0.044	0.188
-221.640	800.000	-0.038	0.134
-220.625	-200.000	-0.107	-0.001
-219.611	592.295	-0.090	0.223
-218.596	-200.000	0.060	0.328
-217.582	46.184	0.110	0.102
-216.567	800.000	-0.025	-0.072
-215.552	-200.000	0.003	0.047
-214.538	-200.000	0.033	-0.277
-213.523	-29.223	0.190	-0.109
-212.509	192.468	0.131	0.199
-211.494	-200.000	0.038	-0.297
-210.479	-104.591	0.275	-0.064
-209.465	-163.063	-0.195	0.009
-208.450	-200.000	0.108	-0.000
-207.436	543.524	-0.066	0.158
-206.421	511.691	-0.057	0.133
-205.406	-200.000	-0.013	0.325
-204.392	58.670	-0.269	-0.265
-203.377	-140.286	-0.283	-0.030
-202.363	-134.066	0.512	-0.063
-201.348	165.916	-0.073	0.104
-200.333	-200.000	0.008	-0.229
-199.319	-77.350	0.056	-0.019
-198.304	110.895	-0.145	-0.175
-197.290	800.000	0.041	0.132
-196.275	-90.875	0.390	0.113
-195.260	-129.245	-0.281	0.039
-194.246	-125.367	-0.111	-0.017
-193.231	31.855	-0.233	0.201
-192.217	-67.883	0.332	0.130
-191.202	-200.000	-0.039	-0.199
-190.187	158.665	-0.062	-0.087
-189.173	55.450	-0.138	0.134
-188.158	-23.387	-0.256	-0.154
-187.144	800.000	0.049	0.147
-186.129	114.064	-0.227	0.277
-185.114	-83.866	-0.121	0.039
-184.100	132.003	0.049	0.063
-183.085	59.344	0.108	0.107
-182.071	800.000	0.063	-0.256
-181.056	-200.000	-0.002	-0.357
-180.042	-5.528	0.139	-0.095
-179.027	43.251	0.083	0.076
-178.012	19.581	0.224	0.181
-176.998	35.842	-0.230	0.203
-175.983	26.437	-0.161	-0.135
-174.969	124.360	-0.064	-0.080
-173.954	800.000	0.019	0.072
-172.939	800.000	0.097	0.331
-171.925	-161.163	0.436	0.023
-170.910	365.890	0.067	0.135
-169.896	-200.000	-0.008	0.177
-168.881	-171.074	0.246	-0.008
-167.866	-122.022	-0.134	0.022
-166.852	-134.672	0.059	-0.007
-165.837	-64.312	-0.114	-0.047
-164.823	-146.007	-0.313	0.028
-163.808	-115.520	0.083	-0.016
-162.793	153.569	0.069	-0.094
-161.779	-200.000	0.049	-0.234
-160.764	-82.152	-0.181	-0.059
-159.750	800.000	-0.063	0.202
-158.735	-179.445	-0.125	0.003
-157.720	235.123	0.196	-0.323
-156.706	-61.810	-0.113	0.047
-155.691	-15.663	0.039	-0.025
-154.677	28.308	-0.339	0.286
-153.662	-37.144	-0.232	-0.124
-152.647	217.852	0.245	-0.391
-151.633	-200.000	0.003	0.097
-150.618	542.828	0.146	0.348
-149.604	-48.736	-0.186	-0.089
-148.589	800.000	0.038	-0.159
-147.574	62.856	0.332	-0.332
-146.560	-166.649	-0.270	0.011
-145.545	80.978	-0.210	-0.226
-144.531	-200.000	0.011	0.210
-143.516	-2.345	-0.406	0.285
-142.502	184.440	-0.115	-0.170
-141.487	11.750	0.089	-0.068
-140.472	-137.075	-0.167	-0.019
-139.458	-200.000	0.008	0.039
-138.443	-200.000	0.001	0.011
-137.429	-86.019	-0.231	-0.071
-136.414	185.064	-0.154	-0.228
-135.399	97.706	0.259	-0.298
-134.385	52.542	-0.273	-0.260
-133.370	-76.666	-0.210	0.074
-132.356	-40.761	0.428	-0.221
-131.341	-9.913	-0.065	-0.043
-130.326	-46.460	-0.244	0.120
-129.312	-57.600	0.190	0.083
-128.297	205.457	0.139	0.216
-127.283	-3.003	0.165	-0.115
-126.268	66.168	-0.190	-0.192
-125.253	60.532	-0.087	0.086
-124.239	47.186	-0.249	0.232
-123.224	-138.666	-0.250	0.027
-122.210	151.274	-0.019	-0.026
-121.195	-39.278	0.092	-0.048
