DTS Sentinel unit serial number:	SN413079Multiplexer serial number:	ORYXHardware model number:	OX4-SRSoftware version number:	ORYX F/W v4.00 Oryx Data Collector v3.7.2.0data status	okinstallation	princeton_trtdifferential loss correction	single-endedforward channel	channel 3reverse channel	N/Adate	2019/09/12time	02:06:11forward acquisition time	60.00reverse acquisition time	0.00gamma	496.2192k internal	0.2320k external	0.2320temperature offset calibration	1.0064default loss term (dB/km)	0.3790temperature slope calibration	1.0000multiplexer offset coefficient	1.0000multiplexer slope coefficient	1.0000fibre end	0.00T internal ref (°C)	32.69T ext. ref 1 (°C)	2.06T ext. ref 2 (°C)	27.31length (m)	temperature (°C)	Stokes	anti-Stokes-747.200	-48.963	-0.184	-0.089
-746.185	-200.000	-0.006	0.374
-745.171	-104.039	-0.060	0.014
-744.156	231.603	-0.194	0.322
-743.142	-96.792	-0.167	-0.044
-742.127	251.094	-0.161	0.277
-741.112	135.728	-0.132	0.173
-740.098	-200.000	-0.011	0.354
-739.083	12.163	-0.050	0.039
-738.069	-200.000	-0.015	0.193
-737.054	403.595	0.111	-0.235
-736.039	-200.000	-0.006	-0.046
-735.025	418.807	0.020	0.043
-734.010	-102.614	-0.144	-0.035
-732.996	-158.019	-0.184	0.011
-731.981	-57.746	-0.159	0.070
-730.966	112.815	-0.231	-0.283
-729.952	199.678	-0.180	-0.279
-728.937	-178.036	-0.363	0.009
-727.923	-117.044	-0.129	-0.024
-726.908	71.421	0.042	0.044
-725.894	-53.104	-0.278	-0.129
-724.879	24.495	0.228	-0.190
-723.864	800.000	0.112	0.341
-722.850	-5.940	-0.099	0.068
-721.835	414.715	-0.096	0.206
-720.821	305.092	0.069	0.130
-719.806	-142.334	-0.250	0.025
-718.791	370.172	0.150	-0.306
-717.777	-144.075	-0.110	-0.010
-716.762	-200.000	-0.091	-0.437
-715.748	97.785	-0.029	0.034
-714.733	-65.974	-0.362	-0.146
-713.718	435.626	0.190	-0.417
-712.704	371.847	0.124	-0.255
-711.689	65.703	0.066	-0.068
-710.675	233.340	-0.049	-0.081
-709.660	-71.171	0.133	0.050
-708.645	149.975	-0.200	-0.274
-707.631	230.507	-0.268	0.442
-706.616	127.973	-0.268	-0.344
-705.602	800.000	0.041	-0.152
-704.587	186.147	-0.253	-0.379
-703.572	-26.056	-0.087	0.052
-702.558	-22.523	0.269	-0.164
-701.543	-200.000	-0.021	-0.340
-700.529	-166.611	0.225	0.009
-699.514	-1.264	0.280	-0.200
-698.499	800.000	0.067	-0.268
-697.485	-81.174	-0.154	0.051
-696.470	-176.002	0.182	0.005
-695.456	-113.982	-0.152	-0.030
-694.441	590.564	0.025	0.063
-693.426	422.249	-0.105	0.228
-692.412	-59.137	0.190	0.082
-691.397	-18.113	-0.170	0.108
-690.383	-82.305	-0.389	0.128
-689.368	800.000	0.063	0.207
-688.354	-200.000	-0.069	0.410
-687.339	-113.193	-0.158	-0.031
-686.324	-155.707	0.063	-0.004
-685.310	800.000	-0.155	-0.511
-684.295	163.388	-0.135	0.192
-683.281	57.421	0.097	-0.095
-682.266	277.993	0.037	0.067
-681.251	-200.000	0.037	-0.293
-680.237	239.865	0.109	-0.184
-679.222	-60.093	0.281	-0.121
-678.208	-200.000	0.032	-0.170
-677.193	-22.254	-0.165	-0.101
-676.178	800.000	-0.073	-0.221
-675.164	221.846	0.044	0.071
-674.149	-79.308	-0.084	0.029
-673.135	71.785	-0.127	-0.133
-672.120	254.662	0.166	-0.286
-671.105	-87.658	-0.306	-0.093
-670.091	800.000	-0.065	-0.219
-669.076	-91.830	-0.113	-0.032
-668.062	-1.295	0.085	-0.060
-667.047	-200.000	-0.052	0.352
-666.032	-200.000	0.058	-0.318
-665.018	-161.483	-0.146	-0.008
-664.003	-38.157	-0.089	-0.048
-662.989	-200.000	-0.005	-0.098
-661.974	-117.859	-0.088	0.016
-660.959	-56.641	-0.106	-0.047
-659.945	-24.582	-0.214	0.129
-658.930	108.950	0.162	-0.195
-657.916	720.184	-0.104	-0.279
-656.901	-92.072	-0.240	0.068
-655.886	-139.814	-0.075	-0.008
-654.872	280.949	-0.019	0.034
-653.857	-200.000	0.014	-0.362
-652.843	17.356	-0.119	0.095
-651.828	729.982	0.055	0.147
-650.814	625.997	0.121	0.308
-649.799	-90.819	0.332	0.096
-648.784	800.000	0.124	0.451
-647.770	800.000	-0.098	0.340
-646.755	60.667	-0.137	-0.137
-645.741	-84.945	0.310	-0.098
-644.726	-175.917	-0.083	-0.002
-643.711	24.488	-0.094	-0.078
-642.697	129.826	0.267	0.344
-641.682	32.280	0.071	-0.062
-640.668	8.336	0.138	0.105
-639.653	50.032	-0.154	0.146
-638.638	-11.120	0.303	-0.201
-637.624	201.270	0.049	-0.077
-636.609	78.686	-0.063	-0.068
-635.595	800.000	0.019	0.052
-634.580	276.236	-0.043	-0.078
-633.565	99.095	0.024	-0.028
-632.551	-200.000	-0.005	-0.089
-631.536	63.177	-0.121	-0.122
-630.522	-46.074	-0.366	0.182
-629.507	-116.062	-0.325	0.061
-628.492	-50.786	0.077	0.037
-627.478	-47.070	-0.114	-0.056
-626.463	-109.021	-0.140	0.030
-625.449	441.809	0.025	0.054
-624.434	800.000	0.072	-0.283
-623.419	-107.412	-0.118	-0.026
-622.405	-200.000	0.014	0.276
-621.390	-200.000	0.020	-0.137
-620.376	207.934	-0.150	0.236
-619.361	309.409	0.068	-0.129
-618.346	191.446	0.166	0.252
-617.332	-84.253	0.132	0.042
-616.317	-200.000	0.002	-0.063
-615.303	-200.000	-0.076	0.362
-614.288	424.666	-0.093	0.201
-613.273	800.000	0.055	-0.180
-612.259	681.470	-0.041	-0.108
-611.244	-113.994	0.395	0.077
-610.230	7.595	-0.156	-0.118
-609.215	-164.940	0.121	0.005
-608.201	-116.908	-0.161	-0.030
-607.186	-200.000	0.003	0.070
-606.171	-200.000	-0.018	-0.601
-605.157	-179.576	0.018	0.000
-604.142	54.854	0.307	0.298
-603.128	11.819	-0.226	0.175
-602.113	-200.000	-0.002	-0.117
-601.098	109.177	-0.175	-0.211
-600.084	717.091	-0.138	-0.369
-599.069	-37.914	0.270	-0.144
-598.055	-200.000	0.051	0.311
-597.040	-200.000	0.005	0.055
-596.025	-134.722	-0.415	-0.051
-595.011	-200.000	-0.010	0.116
-593.996	132.428	0.347	-0.449
-592.982	-101.365	0.238	0.058
-591.967	404.817	0.031	-0.066
-590.952	-91.449	0.199	-0.057
-589.938	22.200	0.188	0.155
-588.923	-123.112	-0.173	0.028
-587.909	675.929	-0.093	0.242
-586.894	726.540	0.021	-0.056
-585.879	102.647	-0.092	-0.109
-584.865	122.811	-0.272	-0.342
-583.850	-200.000	-0.042	0.196
-582.836	-92.982	0.153	0.043
-581.821	-24.294	-0.181	0.109
-580.806	12.163	-0.396	-0.306
-579.792	-73.493	0.472	0.173
-578.777	-200.000	0.019	-0.088
-577.763	-200.000	-0.072	-0.332
-576.748	-95.395	-0.020	0.005
-575.733	-117.461	-0.261	-0.047
-574.719	-109.427	-0.120	-0.025
-573.704	298.203	-0.067	-0.123
-572.690	-113.522	0.090	0.018
-571.675	-101.335	0.116	0.028
-570.661	-167.682	-0.144	0.006
-569.646	-100.074	-0.321	-0.080
-568.631	-140.873	0.158	-0.016
-567.617	-132.281	0.184	0.024
-566.602	-105.740	-0.242	0.055
-565.588	27.288	-0.166	-0.140
-564.573	-142.096	-0.154	-0.015
-563.558	-41.763	0.206	0.106
-562.544	-2.642	0.121	-0.085
-561.529	208.045	-0.261	-0.409
-560.515	34.925	-0.094	-0.083
-559.500	-36.424	-0.241	-0.130
-558.485	207.773	0.209	-0.328
-557.471	-200.000	-0.049	-0.216
-556.456	-200.000	-0.026	-0.205
-555.442	800.000	0.079	0.258
-554.427	-139.293	-0.287	0.031
-553.412	115.941	0.174	0.214
-552.398	-200.000	0.018	0.101
-551.383	-200.000	-0.045	-0.206
-550.369	-62.453	0.217	-0.091
-549.354	213.487	-0.097	-0.154
-548.339	281.080	0.120	0.215
-547.325	72.298	-0.145	0.152
-546.310	315.320	-0.098	0.186
-545.296	-149.369	0.279	-0.022
-544.281	597.394	0.177	-0.440
-543.266	-115.308	-0.495	-0.094
-542.252	-110.714	0.055	-0.011
-541.237	-92.967	-0.272	-0.076
-540.223	43.139	0.167	-0.152
-539.208	-155.771	-0.104	0.007
-538.193	-2.788	0.137	0.096
-537.179	-187.551	0.389	-0.005
-536.164	-17.968	0.039	0.024
-535.150	-30.519	-0.254	0.144
-534.135	800.000	-0.039	-0.118
-533.121	43.932	-0.047	0.043
-532.106	45.037	-0.237	0.219
-531.091	-200.000	-0.041	-0.220
-530.077	414.907	-0.089	0.190
-529.062	-155.651	0.233	0.015
-528.048	111.457	0.232	-0.281
-527.033	748.119	0.042	-0.113
-526.018	-158.301	-0.334	-0.019
-525.004	-200.000	-0.037	-0.322
-523.989	-115.361	0.067	0.013
-522.975	-3.950	-0.124	0.087
-521.960	15.516	0.128	0.101
-520.945	27.947	0.094	0.080
-519.931	-200.000	0.059	-0.330
-518.916	13.088	-0.279	-0.216
-517.902	-19.595	-0.175	0.108
-516.887	-200.000	-0.006	0.038
-515.872	71.328	0.103	0.107
-514.858	60.769	-0.059	-0.058
-513.843	-200.000	-0.013	-0.339
-512.829	111.897	-0.067	0.082
-511.814	138.450	-0.131	0.172
-510.799	800.000	0.060	0.206
-509.785	-174.179	-0.273	0.008
-508.770	-200.000	0.006	-0.097
-507.756	-200.000	-0.007	-0.058
-506.741	-200.000	0.009	0.349
-505.726	4.770	-0.163	0.120
-504.712	186.209	0.221	0.330
-503.697	-144.145	0.419	0.039
-502.683	-105.438	0.118	-0.027
-501.668	57.842	-0.110	-0.108
-500.653	-47.042	-0.218	0.106
-499.639	-4.803	0.121	-0.084
-498.624	-139.000	0.060	0.007
-497.610	229.475	-0.063	0.103
-496.595	11.255	-0.100	0.077
-495.581	202.031	0.076	-0.118
-494.566	-49.097	-0.214	0.103
-493.551	-115.514	-0.363	0.068
-492.537	-200.000	0.045	0.243
-491.522	-120.213	0.535	-0.091
-490.508	-200.000	0.020	-0.266
-489.493	-21.915	-0.086	-0.053
-488.478	-200.000	-0.070	-0.322
-487.464	116.458	-0.104	-0.128
-486.449	87.043	-0.094	-0.104
-485.435	-80.962	0.098	-0.032
-484.420	-16.793	0.215	-0.136
-483.405	-15.623	0.206	0.132
-482.391	-200.000	-0.005	-0.033
-481.376	231.225	0.088	-0.145
-480.362	6.904	0.216	0.161
-479.347	713.420	0.026	0.069
-478.332	-0.373	0.339	-0.241
-477.318	133.739	0.036	0.047
-476.303	-159.532	0.208	-0.012
-475.289	-186.810	0.141	-0.002
-474.274	43.960	-0.246	0.225
-473.259	-28.295	0.106	-0.061
-472.245	-39.248	0.144	0.076
-471.230	-136.286	0.460	0.054
-470.216	-0.487	0.268	0.191
-469.201	800.000	0.053	-0.166
-468.186	800.000	0.018	0.074
-467.172	117.903	-0.133	0.164
-466.157	-135.842	-0.280	0.033
-465.143	-200.000	-0.026	-0.216
-464.128	800.000	0.055	0.185
-463.113	-200.000	0.006	0.036
-462.099	-200.000	0.046	0.242
-461.084	306.521	-0.171	0.319
-460.070	69.879	-0.163	0.168
-459.055	800.000	-0.089	0.343
-458.040	86.081	0.123	0.135
-457.026	357.916	-0.121	0.242
-456.011	193.475	-0.073	-0.110
-454.997	-114.818	0.101	0.019
-453.982	133.407	0.165	-0.213
-452.968	-200.000	0.069	0.396
-451.953	49.853	0.170	0.160
-450.938	377.075	0.108	0.221
-449.924	-115.816	0.503	-0.094
-448.909	-200.000	-0.031	0.186
-447.895	800.000	-0.004	-0.015
-446.880	-36.870	-0.527	-0.283
-445.865	379.837	-0.166	0.340
-444.851	800.000	0.018	0.077
-443.836	-40.583	-0.239	0.124
-442.822	-200.000	0.028	0.154
-441.807	-200.000	-0.015	0.190
-440.792	-68.343	0.239	0.093
-439.778	178.670	0.139	0.202
-438.763	271.164	-0.097	-0.170
-437.749	-184.726	0.047	0.001
-436.734	120.240	-0.224	0.277
-435.719	-200.000	0.024	0.154
-434.705	-30.470	-0.074	0.042
-433.690	-200.000	-0.008	-0.200
-432.676	-200.000	0.017	-0.148
-431.661	-71.820	0.195	0.073
-430.646	800.000	0.110	0.378
-429.632	206.776	0.070	0.109
-428.617	-83.604	-0.317	0.101
-427.603	-21.944	-0.401	0.243
-426.588	-15.872	-0.094	0.059
-425.573	-60.665	0.059	-0.025
-424.559	-200.000	0.014	0.144
-423.544	-76.466	-0.167	0.058
-422.530	-15.049	-0.149	0.096
-421.515	800.000	0.030	0.100
-420.500	-25.948	-0.114	-0.067
-419.486	-90.385	-0.279	-0.081
-418.471	-139.277	-0.273	-0.029
-417.457	151.624	-0.066	-0.090
-416.442	-200.000	0.004	0.035
-415.428	15.262	-0.052	-0.041
-414.413	124.990	-0.211	0.266
-413.398	686.762	0.100	-0.261
-412.384	-137.541	-0.349	0.039
-411.369	351.337	-0.030	0.059
-410.355	-123.183	-0.228	-0.036
-409.340	-153.109	0.182	-0.013
-408.325	-153.835	-0.171	0.012
-407.311	-200.000	0.095	-0.552
-406.296	11.641	-0.139	0.106
-405.282	-183.649	0.112	-0.002
-404.267	277.909	-0.073	-0.130
-403.252	46.710	0.135	-0.125
-402.238	-70.761	-0.088	0.033
-401.223	319.630	0.046	-0.087
-400.209	-200.000	-0.022	-0.152
-399.194	-18.810	-0.146	-0.091
-398.179	-112.915	-0.164	0.032
-397.165	-32.279	-0.076	0.042
-396.150	-124.700	0.113	0.017
-395.136	-164.555	-0.193	0.009
-394.121	-84.876	0.279	-0.087
-393.106	-0.080	-0.170	0.121
-392.092	-0.885	0.258	0.183
-391.077	-200.000	-0.044	0.293
-390.063	-98.744	0.203	0.051
-389.048	800.000	0.037	0.158
-388.033	23.415	-0.292	0.240
-387.019	143.019	0.154	0.204
-386.004	800.000	0.063	0.258
-384.990	-200.000	0.012	-0.097
-383.975	-200.000	0.012	0.526
-382.960	-200.000	-0.012	-0.296
-381.946	-31.984	-0.053	0.029
-380.931	-200.000	-0.044	0.374
-379.917	-51.754	0.268	0.125
-378.902	800.000	0.033	-0.116
-377.888	-200.000	-0.050	-0.279
-376.873	123.031	0.033	0.041
-375.858	-88.290	0.206	-0.061
-374.844	-172.282	-0.172	-0.005
-373.829	365.965	-0.116	-0.234
-372.815	4.299	-0.253	-0.185
-371.800	-33.405	0.455	-0.251
-370.785	-200.000	-0.089	0.000
-369.771	-133.245	0.263	0.033
-368.756	-60.481	0.126	0.053
-367.742	20.761	-0.040	0.032
-366.727	-200.000	-0.025	-0.152
-365.712	-99.582	-0.254	-0.064
-364.698	-36.159	-0.150	-0.080
-363.683	-54.454	0.308	-0.139
-362.669	165.167	-0.100	-0.141
-361.654	23.701	0.024	0.020
-360.639	50.504	-0.207	-0.195
-359.625	528.718	0.028	-0.066
-358.610	-200.000	0.016	0.384
-357.596	-200.000	-0.071	-0.321
-356.581	-55.372	0.361	-0.161
-355.566	332.255	0.051	-0.099
-354.552	-100.371	0.058	-0.014
-353.537	-166.778	-0.070	-0.003
-352.523	-200.000	0.044	0.309
-351.508	11.700	-0.230	-0.176
-350.493	-200.000	0.018	0.151
-349.479	-24.027	-0.163	-0.097
-348.464	172.506	0.123	-0.176
-347.450	800.000	0.035	0.148
-346.435	-108.002	0.204	-0.044
-345.420	800.000	-0.127	0.407
-344.406	-67.678	0.080	-0.031
-343.391	329.825	-0.082	-0.158
-342.377	-84.320	-0.219	-0.069
-341.362	800.000	0.043	0.162
-340.348	318.446	-0.131	0.246
-339.333	800.000	-0.069	-0.197
-338.318	-54.302	-0.178	-0.080
-337.304	-143.656	-0.125	-0.012
-336.289	-21.291	-0.062	0.038
-335.275	655.770	0.056	0.144
-334.260	-105.620	-0.332	0.075
-333.245	143.632	0.195	0.258
-332.231	-67.808	0.245	-0.095
-331.216	262.699	-0.130	-0.224
-330.202	800.000	0.066	0.229
-329.187	74.516	-0.091	-0.095
-328.172	19.676	-0.193	-0.154
-327.158	-51.438	0.232	-0.108
-326.143	-200.000	0.085	0.495
-325.129	-200.000	-0.023	0.145
-324.114	92.368	-0.071	-0.080
-323.099	109.911	-0.366	-0.437
-322.085	-175.561	-0.572	0.015
-321.070	-176.302	0.196	-0.005
-320.056	-98.228	0.445	-0.114
-319.041	51.351	0.162	-0.153
-318.026	-200.000	-0.010	0.228
-317.012	-40.097	-0.063	0.032
-315.997	-85.482	-0.319	-0.099
-314.983	-172.918	0.148	0.005
-313.968	183.594	0.149	-0.219
-312.953	259.429	-0.228	-0.391
-311.939	80.092	0.044	-0.047
-310.924	-99.755	-0.075	-0.019
-309.910	-200.000	0.008	-0.120
-308.895	135.141	-0.168	-0.218
-307.880	-144.856	0.269	0.024
-306.866	742.701	-0.050	0.133
-305.851	-12.675	-0.054	-0.035
-304.837	3.084	-0.104	-0.075
-303.822	-200.000	0.015	-0.076
-302.807	60.341	-0.088	-0.087
-301.793	-200.000	0.057	-0.352
-300.778	800.000	0.011	-0.043
-299.764	800.000	0.092	-0.271
-298.749	-200.000	-0.029	0.131
-297.735	-99.355	0.275	-0.069
-296.720	408.972	0.098	0.207
-295.705	596.067	0.076	-0.187
-294.691	-115.256	0.267	0.050
-293.676	800.000	0.068	-0.241
-292.662	-190.330	-0.208	-0.002
-291.647	-200.000	0.027	-0.178
-290.632	154.022	0.147	0.200
-289.618	-1.716	-0.245	-0.171
-288.603	-66.941	0.161	0.063
-287.589	13.823	-0.353	-0.273
-286.574	-80.761	-0.194	0.064
-285.559	-200.000	-0.028	0.149
-284.545	54.456	-0.256	0.245
-283.530	36.928	0.289	-0.254
-282.516	-76.087	-0.164	0.058
-281.501	-200.000	-0.036	-0.236
-280.486	-99.768	0.283	-0.070
-279.472	-175.001	0.192	-0.005
-278.457	-35.443	0.311	-0.168
-277.443	307.820	-0.040	0.074
-276.428	-173.065	0.220	-0.007
-275.413	-200.000	-0.004	0.063
-274.399	661.983	-0.104	-0.265
-273.384	-200.000	-0.011	0.128
-272.370	192.725	0.065	0.097
-271.355	-91.035	0.139	-0.040
-270.340	-200.000	0.015	-0.074
-269.326	-200.000	0.003	0.190
-268.311	800.000	0.041	0.152
-267.297	-200.000	0.007	-0.231
-266.282	-113.057	0.265	-0.052
-265.267	41.358	-0.165	0.148
-264.253	-7.158	-0.324	0.218
-263.238	-200.000	-0.021	-0.159
-262.224	244.862	-0.058	0.097
-261.209	800.000	-0.091	-0.321
-260.195	44.078	0.189	-0.172
-259.180	-58.301	-0.169	-0.073
-258.165	800.000	-0.032	-0.115
-257.151	-111.900	0.191	-0.038
-256.136	800.000	0.078	-0.216
-255.122	384.575	-0.084	0.172
-254.107	-24.378	0.380	-0.225
-253.092	36.371	-0.305	0.267
-252.078	-106.930	-0.313	0.069
-251.063	452.522	-0.149	0.326
-250.049	42.917	0.150	-0.136
-249.034	15.859	0.132	0.103
-248.019	-8.960	-0.291	0.193
-247.005	-74.620	0.234	0.084
-245.990	-33.757	-0.216	0.118
-244.976	-94.212	0.170	-0.046
-243.961	-53.939	0.102	0.046
-242.946	800.000	0.017	-0.062
-241.932	-200.000	-0.005	-0.071
-240.917	800.000	0.044	0.165
-239.903	-200.000	-0.043	-0.199
-238.888	14.343	-0.336	-0.259
-237.873	-26.678	0.366	-0.212
-236.859	-27.741	-0.481	0.277
-235.844	129.124	-0.178	-0.225
-234.830	-10.538	0.039	0.025
-233.815	-14.233	-0.299	0.191
-232.800	219.787	0.086	0.137
-231.786	-154.251	-0.175	0.012
-230.771	720.479	-0.136	-0.358
-229.757	149.345	-0.225	-0.303
-228.742	-48.230	-0.264	0.126
-227.727	800.000	0.102	0.297
-226.713	-135.888	0.137	0.016
-225.698	-148.295	0.097	-0.008
-224.684	7.190	0.493	-0.364
-223.669	800.000	-0.079	0.217
-222.655	14.788	0.238	0.185
-221.640	578.773	0.111	0.269
-220.625	531.023	-0.070	-0.164
-219.611	-200.000	-0.016	0.145
-218.596	231.433	0.174	0.283
-217.582	-41.589	0.343	-0.174
-216.567	-46.786	0.051	0.025
-215.552	-200.000	-0.000	0.177
-214.538	-162.768	0.221	-0.011
-213.523	219.241	-0.095	0.151
-212.509	91.745	-0.158	0.176
-211.494	-200.000	0.021	0.176
-210.479	-65.378	0.192	0.076
-209.465	-200.000	0.092	-0.463
-208.450	321.490	-0.134	0.252
-207.436	2.043	-0.090	0.065
-206.421	-19.503	-0.314	0.193
-205.406	195.697	0.086	0.129
-204.392	198.408	0.229	0.347
-203.377	153.102	-0.226	0.306
-202.363	-200.000	-0.017	-0.200
-201.348	345.073	0.113	-0.220
-200.333	-71.262	0.145	0.054
-199.319	-39.514	-0.101	0.053
-198.304	-97.364	0.350	0.090
-197.290	84.542	-0.184	-0.199
-196.275	707.080	-0.035	-0.091
-195.260	9.855	-0.336	-0.253
-194.246	-200.000	0.023	-0.191
-193.231	793.807	0.072	-0.196
-192.217	-200.000	-0.024	0.139
-191.202	789.170	0.024	0.066
-190.187	286.394	-0.049	-0.087
-189.173	-15.764	0.246	-0.155
-188.158	277.511	-0.091	-0.161
-187.144	-59.287	0.081	0.034
-186.129	800.000	0.058	-0.191
-185.114	-53.644	-0.272	-0.123
-184.100	-200.000	0.020	0.180
-183.085	-200.000	0.023	-0.193
-182.071	-185.743	-0.161	0.002
-181.056	-200.000	0.024	-0.111
-180.042	477.844	0.166	-0.372
-179.027	-37.193	0.180	-0.095
-178.012	800.000	0.064	0.220
-176.998	461.251	0.068	0.150
-175.983	25.732	-0.147	-0.121
-174.969	-105.974	0.117	0.026
-173.954	38.156	0.232	-0.205
-172.939	-200.000	-0.003	-0.136
-171.925	-64.999	0.180	-0.072
-170.910	93.912	-0.191	0.214
-169.896	147.856	0.280	0.374
-168.881	-80.603	-0.087	-0.029
-167.866	-200.000	0.008	-0.328
-166.852	-101.987	0.302	-0.072
-165.837	-62.751	0.285	-0.117
-164.823	-200.000	-0.022	-0.164
-163.808	228.768	0.134	0.216
-162.793	104.094	0.233	0.271
-161.779	-114.251	0.202	0.039
-160.764	172.294	-0.136	0.194
-159.750	-128.171	0.093	-0.013
-158.735	23.647	0.259	0.211
-157.720	65.650	-0.204	-0.205
-156.706	-12.554	0.489	0.315
-155.691	136.049	-0.101	0.130
-154.677	-9.398	0.225	-0.148
-153.662	-200.000	-0.032	0.157
-152.647	430.204	-0.095	-0.203
-151.633	-100.062	-0.241	0.059
-150.618	59.697	0.345	0.336
-149.604	-50.483	0.109	0.051
-148.589	328.297	-0.123	0.233
-147.574	108.333	-0.126	0.148
-146.560	188.358	-0.121	-0.179
-145.545	800.000	0.119	-0.367
-144.531	-200.000	-0.021	0.119
-143.516	-200.000	-0.044	-0.192
-142.502	-112.269	0.358	-0.071
-141.487	-44.505	-0.044	-0.022
-140.472	486.908	0.109	-0.246
-139.458	-75.172	-0.093	0.033
-138.443	-31.305	0.175	-0.098
-137.429	-45.959	0.250	0.122
-136.414	-200.000	-0.003	0.045
-135.399	800.000	-0.173	0.564
-134.385	316.373	-0.126	0.236
-133.370	-200.000	-0.001	0.024
-132.356	79.582	0.138	-0.146
-131.341	-105.081	-0.310	0.070
-130.326	28.697	0.121	0.101
-129.312	-4.369	-0.280	0.191
-128.297	-200.000	-0.034	0.284
-127.283	601.532	0.114	0.280
-126.268	198.041	-0.354	0.534
-125.253	800.000	-0.095	0.293
-124.239	-117.170	-0.247	0.044
-123.224	-113.640	-0.111	0.021
