DTS Sentinel unit serial number:	SN413079Multiplexer serial number:	ORYXHardware model number:	OX4-SRSoftware version number:	ORYX F/W v4.00 Oryx Data Collector v3.7.2.0data status	okinstallation	princeton_trtdifferential loss correction	single-endedforward channel	channel 3reverse channel	N/Adate	2019/09/11time	20:42:11forward acquisition time	60.00reverse acquisition time	0.00gamma	496.2192k internal	0.2306k external	0.2306temperature offset calibration	1.0031default loss term (dB/km)	0.3790temperature slope calibration	1.0000multiplexer offset coefficient	1.0000multiplexer slope coefficient	1.0000fibre end	0.00T internal ref (°C)	37.20T ext. ref 1 (°C)	1.55T ext. ref 2 (°C)	30.81length (m)	temperature (°C)	Stokes	anti-Stokes-747.200	800.000	0.165	0.549
-746.185	-81.717	-0.283	0.095
-745.171	-200.000	-0.050	-0.278
-744.156	-94.809	0.474	-0.131
-743.142	186.922	-0.037	0.056
-742.127	-31.051	-0.133	0.076
-741.112	-200.000	-0.012	-0.113
-740.098	800.000	-0.080	-0.296
-739.083	-96.648	0.221	0.059
-738.069	800.000	-0.157	0.664
-737.054	405.017	0.128	0.275
-736.039	253.795	0.106	-0.185
-735.025	43.203	-0.096	-0.089
-734.010	-62.061	-0.253	0.107
-732.996	-120.142	-0.325	-0.057
-731.981	-96.549	0.248	0.067
-730.966	-54.836	0.055	-0.025
-729.952	-95.606	-0.399	-0.109
-728.937	799.045	0.151	-0.424
-727.923	-12.652	-0.383	0.254
-726.908	146.312	0.273	-0.373
-725.894	338.623	-0.089	-0.177
-724.879	-19.951	-0.327	-0.205
-723.864	-75.654	0.140	-0.051
-722.850	-200.000	0.026	-0.148
-721.835	173.092	-0.154	-0.225
-720.821	-135.426	0.249	0.030
-719.806	-100.858	-0.241	0.060
-718.791	-117.927	-0.187	-0.034
-717.777	164.162	0.114	-0.164
-716.762	-180.727	0.158	-0.003
-715.748	83.110	-0.285	-0.315
-714.733	181.589	0.211	0.316
-713.718	800.000	-0.059	0.228
-712.704	-60.886	-0.173	0.074
-711.689	-16.980	-0.163	-0.104
-710.675	-127.842	-0.440	-0.064
-709.660	137.346	0.186	-0.248
-708.645	-43.457	-0.345	0.177
-707.631	-148.607	-0.205	-0.017
-706.616	52.025	-0.217	-0.210
-705.602	-60.310	-0.262	0.114
-704.587	25.418	-0.123	0.104
-703.572	285.520	0.136	0.249
-702.558	791.337	0.153	-0.427
-701.543	-200.000	0.007	-0.186
-700.529	-96.927	0.134	0.036
-699.514	-147.307	0.321	-0.028
-698.499	800.000	-0.034	0.124
-697.485	-133.695	0.107	-0.014
-696.470	95.415	0.096	-0.111
-695.456	800.000	-0.042	-0.150
-694.441	274.532	-0.172	0.310
-693.426	433.530	-0.085	0.188
-692.412	800.000	0.092	-0.362
-691.397	-152.221	-0.169	-0.012
-690.383	-200.000	-0.013	0.205
-689.368	24.823	0.321	0.270
-688.354	-1.024	-0.252	0.181
-687.339	-170.918	-0.160	0.006
-686.324	-166.017	-0.065	-0.003
-685.310	-84.117	-0.242	0.078
-684.295	-37.364	-0.251	-0.136
-683.281	-200.000	0.038	0.217
-682.266	-144.514	-0.183	0.017
-681.251	-128.709	-0.211	-0.030
-680.237	-143.168	-0.228	-0.022
-679.222	-65.486	0.308	-0.126
-678.208	57.824	0.100	0.099
-677.193	124.443	-0.085	-0.109
-676.178	800.000	-0.171	-0.504
-675.164	-200.000	-0.027	-0.425
-674.149	474.811	-0.138	-0.316
-673.135	114.822	-0.057	-0.070
-672.120	-200.000	0.047	0.223
-671.105	186.223	-0.146	-0.220
-670.091	-200.000	0.015	-0.108
-669.076	800.000	-0.089	-0.345
-668.062	-17.971	-0.352	-0.223
-667.047	800.000	-0.145	-0.432
-666.032	-16.937	-0.232	-0.148
-665.018	-28.347	0.146	-0.085
-664.003	-7.681	0.141	-0.097
-662.989	81.357	0.105	0.116
-661.974	-200.000	0.001	-0.159
-660.959	-104.840	-0.094	0.022
-659.945	-99.046	0.284	-0.073
-658.930	-110.086	-0.483	0.102
-657.916	78.297	-0.046	0.050
-656.901	26.493	-0.231	0.196
-655.886	28.994	-0.158	-0.136
-654.872	-42.420	0.168	0.087
-653.857	4.968	-0.368	-0.275
-652.843	434.929	-0.101	0.224
-651.828	-67.723	-0.093	-0.037
-650.814	570.498	-0.081	-0.200
-649.799	-113.836	0.137	0.027
-648.784	-115.665	-0.333	0.063
-647.770	-200.000	-0.038	0.506
-646.755	-187.265	-0.350	0.005
-645.741	101.407	-0.217	-0.256
-644.726	268.858	-0.126	-0.223
-643.711	-200.000	0.021	-0.118
-642.697	49.523	-0.250	0.238
-641.682	-81.725	0.229	-0.076
-640.668	193.625	0.262	-0.403
-639.653	130.541	-0.237	0.307
-638.638	-168.590	0.094	0.004
-637.624	86.668	-0.013	0.015
-636.609	202.275	0.102	-0.159
-635.595	20.202	0.171	0.140
-634.580	71.427	0.150	0.158
-633.565	242.908	-0.105	0.178
-632.551	317.013	0.046	0.089
-631.536	515.665	-0.065	0.153
-630.522	17.078	-0.182	-0.146
-629.507	-42.631	0.100	0.052
-628.492	-200.000	0.031	0.216
-627.478	800.000	-0.089	0.252
-626.463	-200.000	-0.002	0.031
-625.449	7.802	0.066	0.050
-624.434	76.524	-0.201	0.216
-623.419	-149.291	0.132	0.011
-622.405	-89.975	-0.272	-0.080
-621.390	-96.900	0.187	0.050
-620.376	67.538	0.194	0.201
-619.361	160.338	-0.093	-0.132
-618.346	800.000	-0.024	0.083
-617.332	-65.061	0.353	-0.144
-616.317	-69.590	-0.284	0.110
-615.303	711.188	-0.109	-0.292
-614.288	445.292	-0.210	-0.468
-613.273	-89.274	-0.093	0.028
-612.259	-149.358	-0.192	-0.016
-611.244	-200.000	0.007	0.401
-610.230	-60.670	-0.072	-0.031
-609.215	339.244	0.051	0.100
-608.201	123.530	-0.141	0.179
-607.186	-105.908	0.333	-0.076
-606.171	36.241	0.035	-0.031
-605.157	-200.000	0.015	-0.152
-604.142	-84.949	0.202	0.064
-603.128	800.000	0.046	0.169
-602.113	372.992	0.006	0.012
-601.098	-72.310	-0.215	-0.081
-600.084	197.708	0.044	0.067
-599.069	800.000	-0.075	0.283
-598.055	48.335	0.273	0.258
-597.040	768.716	-0.057	0.157
-596.025	-144.815	-0.167	-0.016
-595.011	-200.000	0.054	0.336
-593.996	-200.000	-0.013	-0.303
-592.982	-2.242	-0.264	0.188
-591.967	281.055	0.070	-0.127
-590.952	-13.303	-0.306	-0.201
-589.938	214.129	0.054	-0.087
-588.923	219.336	0.084	-0.136
-587.909	-36.253	0.416	-0.227
-586.894	-30.169	-0.120	-0.069
-585.879	32.179	-0.269	0.234
-584.865	-137.115	-0.292	0.034
-583.850	180.157	0.120	-0.178
-582.836	800.000	-0.043	-0.130
-581.821	-30.316	0.215	-0.124
-580.806	-168.249	-0.179	-0.007
-579.792	8.317	0.070	0.053
-578.777	111.138	0.030	-0.037
-577.763	-53.583	0.394	-0.182
-576.748	-6.724	-0.112	-0.077
-575.733	-200.000	0.034	-0.267
-574.719	800.000	0.046	0.142
-573.704	-116.199	-0.344	-0.065
-572.690	-200.000	-0.043	0.362
-571.675	65.458	0.192	-0.196
-570.661	25.453	-0.179	0.150
-569.646	-129.130	0.221	-0.031
-568.631	435.044	-0.068	0.149
-567.617	-200.000	0.019	0.116
-566.602	-40.511	-0.214	-0.112
-565.588	20.620	-0.205	0.168
-564.573	-20.342	0.180	-0.112
-563.558	-93.330	0.135	-0.038
-562.544	0.002	-0.234	0.169
-561.529	65.429	0.190	-0.194
-560.515	-200.000	-0.039	-0.194
-559.500	572.834	0.036	-0.088
-558.485	-65.563	-0.094	0.038
-557.471	0.027	0.061	-0.044
-556.456	67.540	0.152	0.157
-555.442	352.663	-0.042	-0.084
-554.427	64.021	0.059	0.060
-553.412	-55.147	0.206	0.094
-552.398	-60.207	0.249	-0.107
-551.383	-33.859	-0.125	-0.070
-550.369	547.555	0.100	0.241
-549.354	-89.465	0.161	0.048
-548.339	20.860	-0.376	-0.308
-547.325	-111.195	0.214	-0.044
-546.310	-122.217	0.105	-0.017
-545.296	-200.000	0.006	-0.196
-544.281	208.283	-0.155	0.244
-543.266	-65.161	-0.114	-0.046
-542.252	270.453	-0.229	-0.406
-541.237	800.000	-0.014	0.039
-540.223	795.906	-0.042	-0.116
-539.208	331.532	0.080	-0.155
-538.193	31.922	0.309	-0.268
-537.179	-43.789	-0.137	-0.070
-536.164	72.531	-0.039	0.041
-535.150	205.090	-0.030	0.047
-534.135	115.347	0.150	0.185
-533.121	200.691	0.034	-0.053
-532.106	-200.000	0.028	-0.287
-531.091	-141.635	-0.303	0.031
-530.077	27.872	-0.179	-0.152
-529.062	252.803	0.105	-0.181
-528.048	21.966	0.144	-0.119
-527.033	175.013	-0.147	-0.215
-526.018	213.791	0.080	-0.128
-525.004	124.126	-0.151	0.191
-523.989	22.601	0.070	-0.058
-522.975	-38.523	0.194	-0.104
-521.960	552.756	0.057	0.138
-520.945	-171.827	0.092	0.003
-519.931	-200.000	0.069	-0.323
-518.916	-200.000	0.050	0.277
-517.902	800.000	0.065	-0.238
-516.887	-62.742	-0.070	0.029
-515.872	189.067	-0.044	0.066
-514.858	-15.334	0.022	-0.014
-513.843	202.256	0.040	0.062
-512.829	-184.135	-0.394	-0.007
-511.814	-14.357	0.142	0.092
-510.799	630.791	-0.119	-0.304
-509.785	-105.685	0.292	0.067
-508.770	-38.090	-0.365	-0.195
-507.756	90.537	-0.240	0.271
-506.741	242.890	-0.186	-0.314
-505.726	-106.545	-0.034	-0.008
-504.712	50.046	-0.214	-0.204
-503.697	-144.335	-0.367	0.034
-502.683	34.885	-0.235	-0.208
-501.668	-138.435	0.158	-0.018
-500.653	-5.120	-0.177	-0.123
-499.639	75.336	0.130	-0.138
-498.624	800.000	0.012	-0.042
-497.610	800.000	-0.109	-0.346
-496.595	-200.000	-0.036	0.262
-495.581	486.489	-0.125	0.288
-494.566	-200.000	0.020	0.294
-493.551	383.376	-0.161	0.333
-492.537	-13.411	-0.169	0.111
-491.522	152.116	-0.049	0.067
-490.508	-0.928	0.324	0.231
-489.493	-77.073	-0.228	-0.080
-488.478	-74.696	-0.368	-0.133
-487.464	213.907	-0.211	-0.336
-486.449	64.252	-0.440	-0.446
-485.435	-16.393	0.302	0.193
-484.420	-145.194	-0.139	0.013
-483.405	258.347	0.016	-0.028
-482.391	34.176	0.123	-0.108
-481.376	33.291	-0.231	-0.202
-480.362	800.000	-0.047	-0.151
-479.347	-101.072	-0.332	-0.082
-478.332	33.624	0.139	0.121
-477.318	15.019	-0.050	0.039
-476.303	148.790	-0.119	0.162
-475.289	263.004	0.062	-0.109
-474.274	-60.037	-0.229	-0.099
-473.259	11.877	0.240	-0.186
-472.245	-200.000	-0.017	0.131
-471.230	392.659	-0.130	-0.271
-470.216	147.373	-0.078	0.106
-469.201	79.796	-0.186	-0.201
-468.186	-169.537	0.058	0.002
-467.172	-130.831	-0.045	0.006
-466.157	335.638	-0.084	-0.164
-465.143	62.233	0.042	0.043
-464.128	-44.221	-0.300	0.152
-463.113	-89.853	-0.132	0.039
-462.099	-82.920	0.136	0.044
-461.084	55.213	-0.132	-0.129
-460.070	-112.924	0.180	0.036
-459.055	514.966	0.066	0.155
-458.040	-200.000	0.011	0.246
-457.026	86.539	0.263	0.292
-456.011	40.057	-0.086	0.077
-454.997	-70.249	-0.228	0.087
-453.982	181.771	-0.138	0.205
-452.968	-12.300	-0.245	-0.161
-451.953	-200.000	-0.020	0.103
-450.938	-120.494	0.071	0.012
-449.924	-108.227	-0.184	-0.040
-448.909	800.000	-0.072	-0.254
-447.895	-103.601	-0.301	0.071
-446.880	800.000	-0.033	-0.117
-445.865	-200.000	-0.040	-0.325
-444.851	-160.952	0.062	0.003
-443.836	610.887	-0.047	-0.118
-442.822	-200.000	-0.025	0.397
-441.807	32.310	0.089	0.078
-440.792	182.052	-0.176	0.261
-439.778	-200.000	0.044	0.206
-438.763	-8.098	0.292	-0.198
-437.749	-1.202	0.297	-0.211
-436.734	72.184	-0.024	0.025
-435.719	168.913	-0.064	0.092
-434.705	-53.989	0.069	-0.032
-433.690	-0.398	-0.378	0.270
-432.676	-200.000	-0.031	-0.185
-431.661	147.493	0.263	-0.356
-430.646	69.275	0.234	-0.241
-429.632	144.933	-0.071	-0.095
-428.617	-162.307	0.187	-0.009
-427.603	4.029	0.162	0.119
-426.588	-11.540	0.175	-0.116
-425.573	-89.470	-0.294	-0.087
-424.559	190.803	-0.275	-0.416
-423.544	39.892	0.101	-0.091
-422.530	800.000	-0.026	-0.109
-421.515	-200.000	-0.006	-0.281
-420.500	-79.220	-0.254	-0.086
-419.486	-111.204	0.223	-0.046
-418.471	-121.013	-0.272	0.046
-417.457	-106.833	0.120	0.027
-416.442	272.849	0.122	0.216
-415.428	40.797	0.096	-0.087
-414.413	93.010	-0.174	0.198
-413.398	25.548	0.223	0.187
-412.384	-94.180	0.462	-0.127
-411.369	-34.543	0.019	-0.011
-410.355	-144.981	-0.315	0.029
-409.340	-170.841	0.204	0.007
-408.325	149.503	0.115	0.156
-407.311	-102.949	0.127	-0.030
-406.296	-49.388	0.232	0.111
-405.282	-36.958	0.235	-0.126
-404.267	110.544	-0.045	-0.054
-403.252	-101.919	0.280	0.068
-402.238	800.000	-0.043	-0.191
-401.223	-164.311	-0.204	0.009
-400.209	-67.270	0.169	0.067
-399.194	17.402	0.082	-0.065
-398.179	800.000	-0.056	-0.231
-397.165	26.036	-0.246	-0.206
-396.150	-10.737	0.239	-0.159
-395.136	384.005	-0.133	0.274
-394.121	800.000	0.102	-0.299
-393.106	-33.127	-0.482	0.268
-392.092	510.362	0.185	0.432
-391.077	288.226	0.049	0.089
-390.063	-69.855	-0.030	-0.011
-389.048	800.000	-0.048	-0.136
-388.033	86.688	0.140	0.155
-387.019	648.119	0.038	-0.098
-386.004	156.954	-0.078	-0.108
-384.990	10.304	-0.167	-0.127
-383.975	2.733	0.333	0.242
-382.960	558.389	-0.032	-0.077
-381.946	-74.360	-0.260	-0.094
-380.931	800.000	0.055	-0.163
-379.917	-200.000	-0.038	-0.367
-378.902	37.784	0.025	-0.022
-377.888	-153.622	-0.302	0.021
-376.873	800.000	-0.129	0.435
-375.858	-114.710	0.382	-0.073
-374.844	-37.415	0.144	-0.077
-373.829	-200.000	-0.035	-0.164
-372.815	101.705	-0.194	-0.227
-371.800	-75.340	-0.332	-0.119
-370.785	800.000	0.072	0.250
-369.771	-105.994	0.246	0.055
-368.756	-200.000	-0.016	0.138
-367.742	-47.123	-0.117	0.057
-366.727	737.820	-0.085	-0.230
-365.712	800.000	-0.071	-0.259
-364.698	357.467	-0.173	0.346
-363.683	-200.000	0.007	-0.095
-362.669	547.183	-0.069	-0.166
-361.654	-200.000	0.020	0.252
-360.639	-200.000	0.038	0.240
-359.625	800.000	0.058	-0.162
-358.610	-54.051	0.113	-0.052
-357.596	-125.689	0.238	-0.036
-356.581	39.171	0.154	-0.138
-355.566	223.019	-0.260	0.419
-354.552	-200.000	-0.037	0.313
-353.537	292.708	0.090	0.165
-352.523	154.943	0.155	0.213
-351.508	23.525	0.126	0.104
-350.493	553.750	-0.202	0.486
-349.479	800.000	0.104	0.426
-348.464	67.874	-0.125	-0.128
-347.450	46.502	0.279	0.259
-346.435	21.973	-0.233	0.190
-345.420	800.000	0.026	0.103
-344.406	-67.605	0.050	-0.020
-343.391	-200.000	-0.063	-0.292
-342.377	-164.052	0.107	-0.005
-341.362	373.877	-0.146	-0.297
-340.348	78.285	0.095	-0.102
-339.333	-30.053	-0.170	0.097
-338.318	231.374	-0.121	-0.199
-337.304	-89.414	-0.315	-0.093
-336.289	-193.735	-0.272	-0.002
-335.275	-66.072	-0.244	-0.097
-334.260	-11.198	-0.471	-0.311
-333.245	-13.692	0.272	0.176
-332.231	-143.882	0.073	0.007
-331.216	20.691	-0.067	0.054
-330.202	543.196	0.174	-0.415
-329.187	-31.029	-0.182	-0.103
-328.172	-92.600	0.215	-0.060
-327.158	251.354	0.136	-0.232
-326.143	-200.000	-0.051	-0.300
-325.129	284.503	0.162	-0.292
-324.114	-94.043	-0.275	0.076
-323.099	636.381	0.094	-0.240
-322.085	-103.265	-0.089	0.021
-321.070	21.209	-0.112	-0.091
-320.056	-66.011	-0.071	-0.028
-319.041	170.091	0.129	0.184
-318.026	-47.819	0.394	0.191
-317.012	-200.000	0.039	0.349
-315.997	174.405	0.096	-0.139
-314.983	-200.000	0.033	-0.404
-313.968	-200.000	-0.020	0.237
-312.953	70.512	-0.080	0.083
-311.939	70.927	0.145	0.150
-310.924	-200.000	0.028	0.219
-309.910	-36.414	0.166	0.089
-308.895	-200.000	0.012	-0.140
-307.880	100.493	0.279	0.324
-306.866	62.879	-0.108	0.108
-305.851	59.428	0.130	0.128
-304.837	-200.000	-0.023	-0.146
-303.822	800.000	0.047	0.131
-302.807	800.000	-0.030	0.101
-301.793	-151.547	-0.169	-0.013
-300.778	-135.913	-0.463	0.055
-299.764	-63.810	0.090	-0.037
-298.749	665.234	-0.038	0.097
-297.735	231.021	0.171	-0.280
-296.720	-192.722	-0.228	-0.002
-295.705	56.774	0.177	0.172
-294.691	800.000	0.065	-0.186
-293.676	-167.000	0.092	0.004
-292.662	-23.368	-0.226	0.136
-291.647	-200.000	0.018	-0.113
-290.632	675.240	-0.097	0.253
-289.618	-200.000	0.015	0.098
-288.603	460.997	-0.128	0.285
-287.589	-163.420	0.136	-0.006
-286.574	-68.564	-0.193	0.075
-285.559	780.457	-0.033	0.090
-284.545	-197.785	0.124	-0.001
-283.530	800.000	-0.037	-0.134
-282.516	209.633	-0.033	-0.051
-281.501	-156.823	0.233	0.014
-280.486	174.624	0.053	0.077
-279.472	-18.536	0.327	-0.204
-278.457	-23.348	-0.159	0.095
-277.443	82.453	0.120	0.130
-276.428	-114.385	-0.324	-0.062
-275.413	-200.000	0.033	0.275
-274.399	-90.656	-0.096	0.028
-273.384	-200.000	0.005	0.080
-272.370	170.060	-0.225	0.322
-271.355	-200.000	-0.070	0.382
-270.340	225.543	-0.076	-0.123
-269.326	-112.579	-0.237	0.047
-268.311	460.361	0.068	0.152
-267.297	800.000	-0.034	0.104
-266.282	-48.363	-0.124	0.060
-265.267	-88.301	-0.092	-0.027
-264.253	-200.000	0.024	-0.256
-263.238	-200.000	-0.053	-0.447
-262.224	-157.076	0.304	0.019
-261.209	35.865	0.305	0.268
-260.195	-200.000	-0.010	-0.141
-259.180	800.000	0.064	0.185
-258.165	-60.648	0.093	0.039
-257.151	732.287	0.095	0.254
-256.136	-200.000	-0.014	0.173
-255.122	3.100	-0.085	0.062
-254.107	-200.000	0.004	0.066
-253.092	-47.580	0.251	-0.122
-252.078	-113.703	0.256	-0.050
-251.063	74.587	0.157	-0.165
-250.049	97.624	0.057	0.065
-249.034	82.628	-0.116	0.126
-248.019	-200.000	0.050	-0.303
-247.005	660.574	0.062	-0.160
-245.990	-81.837	-0.196	-0.064
-244.976	-200.000	0.030	-0.206
-243.961	93.202	0.212	0.239
-242.946	800.000	0.087	-0.343
-241.932	-200.000	0.090	-0.723
-240.917	800.000	0.060	-0.174
-239.903	-40.627	0.257	0.133
-238.888	37.350	0.012	0.011
-237.873	350.847	0.107	-0.212
-236.859	800.000	0.131	0.374
-235.844	-50.486	-0.361	-0.170
-234.830	-48.608	-0.303	0.145
-233.815	-99.416	0.336	0.084
-232.800	-24.492	-0.308	0.183
-231.786	221.530	0.095	0.152
-230.771	-200.000	-0.036	-0.215
-229.757	123.938	-0.195	-0.244
-228.742	157.257	0.132	-0.182
-227.727	-200.000	-0.067	0.380
-226.713	27.576	0.116	0.097
-225.698	-130.153	-0.277	0.038
-224.684	448.513	-0.019	-0.041
-223.669	635.756	0.059	0.150
-222.655	65.555	-0.185	-0.187
-221.640	-129.175	0.411	-0.057
-220.625	-200.000	-0.006	0.066
-219.611	-200.000	0.019	0.263
-218.596	800.000	0.038	-0.148
-217.582	157.853	-0.057	0.078
-216.567	-130.172	-0.140	0.019
-215.552	26.399	0.174	-0.145
-214.538	207.444	0.102	-0.159
-213.523	-103.816	0.289	0.067
-212.509	320.341	0.097	-0.184
-211.494	-200.000	-0.064	-0.326
-210.479	106.184	0.145	-0.171
-209.465	339.513	0.124	-0.241
-208.450	-180.456	-0.320	-0.007
-207.436	-124.506	0.220	-0.034
-206.421	334.610	0.130	0.250
-205.406	236.384	-0.254	-0.419
-204.392	516.885	-0.130	0.302
-203.377	13.705	0.339	0.262
-202.363	520.619	0.113	0.264
-201.348	-51.907	-0.255	-0.118
-200.333	25.723	0.276	-0.229
-199.319	-52.156	0.391	0.181
-198.304	533.234	-0.136	-0.322
-197.290	-142.387	0.352	0.035
-196.275	-25.419	0.068	0.040
-195.260	23.664	0.136	-0.112
-194.246	-200.000	0.002	0.026
-193.231	89.879	0.085	0.094
-192.217	654.628	0.153	0.390
-191.202	800.000	0.061	-0.167
-190.187	800.000	0.033	0.140
-189.173	248.857	0.014	-0.024
-188.158	-200.000	-0.021	-0.183
-187.144	800.000	-0.067	0.213
-186.129	141.067	0.193	0.254
-185.114	-116.973	0.195	0.035
-184.100	-69.084	-0.307	0.118
-183.085	223.383	0.109	0.175
-182.071	-117.479	0.155	0.028
-181.056	235.137	0.248	-0.407
-180.042	-55.328	0.235	0.105
-179.027	-200.000	-0.063	0.391
-178.012	310.405	0.125	0.233
-176.998	-59.118	0.227	0.097
-175.983	800.000	0.062	0.212
-174.969	-80.393	0.114	-0.038
-173.954	800.000	-0.044	-0.142
-172.939	800.000	-0.012	0.047
-171.925	23.528	0.166	-0.135
-170.910	22.925	0.219	0.178
-169.896	68.114	0.206	-0.209
-168.881	118.341	0.153	-0.188
-167.866	-92.727	0.321	-0.089
-166.852	-100.108	-0.414	0.102
-165.837	223.043	0.334	0.535
-164.823	180.928	-0.073	0.106
-163.808	800.000	0.018	-0.051
-162.793	159.843	0.177	0.245
-161.779	644.727	-0.038	0.096
-160.764	-200.000	0.002	-0.099
-159.750	-4.532	0.077	-0.053
-158.735	164.425	0.054	-0.075
-157.720	-200.000	-0.032	0.172
-156.706	-71.171	-0.134	0.050
-155.691	-75.907	-0.200	-0.071
-154.677	-53.564	-0.174	0.079
-153.662	52.476	0.185	0.176
-152.647	-47.176	0.201	-0.097
-151.633	96.115	-0.151	0.171
-150.618	-57.337	0.189	0.083
-149.604	800.000	0.149	0.440
-148.589	-67.824	-0.103	0.040
-147.574	-164.012	0.316	-0.015
-146.560	-45.929	-0.274	0.134
-145.545	-115.170	0.237	-0.045
-144.531	-21.428	0.101	-0.061
-143.516	7.935	0.187	0.139
-142.502	-200.000	-0.052	-0.329
-141.487	-141.862	0.269	-0.027
-140.472	351.038	0.089	-0.176
-139.458	163.633	0.127	-0.177
-138.443	53.915	0.071	-0.068
-137.429	221.998	-0.227	-0.363
-136.414	398.538	0.152	-0.316
-135.399	-198.677	-0.332	0.002
-134.385	767.380	0.057	-0.153
-133.370	-135.652	0.226	-0.027
-132.356	-102.204	-0.281	0.067
-131.341	-200.000	-0.023	0.099
-130.326	-200.000	0.030	0.147
-129.312	-188.955	-0.180	-0.002
-128.297	-12.348	0.259	0.168
-127.283	112.072	-0.256	-0.307
-126.268	37.412	0.103	0.090
-125.253	53.634	-0.178	-0.170
-124.239	26.717	0.221	0.184
-123.224	242.636	0.046	-0.076
-122.210	-200.000	-0.021	0.517
-121.195	-194.648	0.198	0.002
