DTS Sentinel unit serial number:	SN413079Multiplexer serial number:	ORYXHardware model number:	OX4-SRSoftware version number:	ORYX F/W v4.00 Oryx Data Collector v3.7.2.0data status	okinstallation	princeton_trtdifferential loss correction	single-endedforward channel	channel 3reverse channel	N/Adate	2019/09/10time	16:18:11forward acquisition time	60.00reverse acquisition time	0.00gamma	496.2192k internal	0.2298k external	0.2298temperature offset calibration	0.9907default loss term (dB/km)	0.3790temperature slope calibration	1.0000multiplexer offset coefficient	1.0000multiplexer slope coefficient	1.0000fibre end	0.00T internal ref (°C)	38.25T ext. ref 1 (°C)	-0.28T ext. ref 2 (°C)	30.85length (m)	temperature (°C)	Stokes	anti-Stokes-747.200	-112.195	0.192	0.039
-746.185	191.823	-0.162	0.249
-745.171	-200.000	-0.000	0.192
-744.156	67.694	0.143	0.149
-743.142	-200.000	0.003	0.071
-742.127	6.526	-0.175	0.133
-741.112	188.806	0.119	-0.182
-740.098	54.055	-0.125	0.122
-739.083	-200.000	0.002	0.286
-738.069	800.000	-0.086	0.252
-737.054	800.000	-0.084	0.308
-736.039	181.753	-0.118	0.177
-735.025	-124.163	0.216	-0.035
-734.010	-200.000	-0.025	-0.187
-732.996	-200.000	0.029	-0.632
-731.981	312.040	-0.179	-0.343
-730.966	545.081	-0.098	0.238
-729.952	-62.335	-0.215	-0.091
-728.937	68.332	-0.207	-0.217
-727.923	91.056	0.246	0.282
-726.908	800.000	-0.119	-0.352
-725.894	190.322	-0.170	-0.260
-724.879	-134.391	-0.132	-0.016
-723.864	203.002	-0.093	-0.146
-722.850	-54.647	0.137	-0.063
-721.835	800.000	-0.067	-0.190
-720.821	127.666	0.099	0.129
-719.806	-101.662	-0.035	-0.009
-718.791	366.766	-0.123	0.254
-717.777	-53.841	0.251	-0.117
-716.762	-200.000	-0.103	-0.573
-715.748	-61.265	0.067	-0.029
-714.733	237.491	-0.165	0.279
-713.718	-53.537	0.116	0.054
-712.704	73.222	0.190	0.203
-711.689	800.000	-0.045	-0.167
-710.675	-200.000	0.054	-0.294
-709.660	38.383	0.174	-0.158
-708.645	-78.336	0.104	0.036
-707.631	-108.042	0.301	-0.067
-706.616	474.150	-0.133	0.305
-705.602	-139.273	-0.096	-0.011
-704.587	0.625	-0.159	-0.116
-703.572	436.722	0.168	0.373
-702.558	-125.513	-0.407	0.063
-701.543	200.661	0.125	0.196
-700.529	-200.000	0.040	-0.195
-699.514	-52.849	-0.203	0.095
-698.499	123.445	-0.048	-0.062
-697.485	31.870	0.213	-0.187
-696.470	23.591	-0.236	-0.198
-695.456	141.181	-0.116	-0.157
-694.441	121.556	0.210	-0.266
-693.426	800.000	0.028	0.117
-692.412	-120.758	-0.417	0.072
-691.397	-26.547	-0.017	0.010
-690.383	-96.306	-0.119	0.032
-689.368	-200.000	-0.005	0.153
-688.354	-188.336	-0.164	-0.002
-687.339	-101.269	0.166	0.041
-686.324	109.138	0.187	-0.228
-685.310	-47.645	-0.238	0.118
-684.295	800.000	0.045	-0.185
-683.281	-200.000	-0.027	-0.246
-682.266	279.823	0.034	-0.062
-681.251	-200.000	-0.001	-0.119
-680.237	-58.615	-0.160	0.071
-679.222	-200.000	-0.002	-0.130
-678.208	-6.735	0.111	0.077
-677.193	-43.867	0.161	-0.082
-676.178	800.000	-0.020	-0.078
-675.164	283.962	-0.112	-0.205
-674.149	296.383	0.167	-0.312
-673.135	800.000	0.008	-0.031
-672.120	-200.000	-0.040	-0.311
-671.105	800.000	0.071	-0.232
-670.091	96.804	0.163	-0.190
-669.076	-148.146	0.129	-0.011
-668.062	-200.000	0.036	-0.173
-667.047	31.147	0.129	-0.113
-666.032	243.062	0.118	-0.201
-665.018	13.142	-0.186	-0.147
-664.003	38.916	-0.295	-0.268
-662.989	-200.000	0.027	0.212
-661.974	52.782	0.151	-0.147
-660.959	63.132	-0.288	-0.294
-659.945	-38.872	-0.210	-0.113
-658.930	-48.347	0.201	-0.099
-657.916	377.895	-0.143	-0.298
-656.901	-200.000	-0.029	-0.270
-655.886	-200.000	0.306	0.001
-654.872	601.066	0.106	-0.268
-653.857	508.949	0.102	-0.241
-652.843	96.630	0.064	0.074
-651.828	177.618	-0.152	-0.225
-650.814	-106.387	0.059	-0.013
-649.799	-200.000	-0.001	-0.157
-648.784	652.645	0.100	-0.260
-647.770	152.297	-0.054	-0.075
-646.755	-200.000	0.023	0.344
-645.741	-19.688	-0.073	-0.046
-644.726	-68.310	0.115	-0.045
-643.711	-101.324	-0.170	0.042
-642.697	800.000	-0.047	-0.161
-641.682	-111.982	0.137	-0.028
-640.668	-63.190	-0.137	0.058
-639.653	33.236	-0.237	-0.209
-638.638	-105.195	0.376	0.087
-637.624	800.000	-0.061	-0.224
-636.609	-200.000	-0.021	0.168
-635.595	119.709	-0.057	0.072
-634.580	-126.324	-0.304	-0.046
-633.565	294.733	-0.045	0.084
-632.551	-2.050	-0.146	-0.104
-631.536	20.369	0.126	0.104
-630.522	87.547	0.052	0.058
-629.507	138.986	-0.075	0.100
-628.492	-113.551	-0.230	0.046
-627.478	-34.216	0.370	-0.206
-626.463	83.806	-0.162	-0.179
-625.449	183.461	-0.110	-0.165
-624.434	800.000	-0.137	-0.398
-623.419	-200.000	-0.004	-0.021
-622.405	156.733	-0.257	-0.360
-621.390	-199.883	-0.093	-0.000
-620.376	-34.240	-0.133	-0.074
-619.361	-40.728	0.165	-0.087
-618.346	-121.597	-0.283	0.048
-617.332	-200.000	0.059	0.366
-616.317	215.722	-0.075	0.121
-615.303	281.375	0.228	-0.415
-614.288	-3.252	-0.101	0.071
-613.273	503.548	-0.056	0.132
-612.259	175.790	-0.102	-0.150
-611.244	800.000	0.111	0.419
-610.230	580.584	0.117	-0.292
-609.215	-162.909	0.054	0.003
-608.201	800.000	0.060	0.213
-607.186	239.118	0.134	-0.226
-606.171	45.949	0.109	-0.102
-605.157	-139.905	0.196	0.021
-604.142	14.810	0.033	0.027
-603.128	166.011	0.055	0.078
-602.113	412.936	-0.111	-0.239
-601.098	-200.000	-0.013	-0.106
-600.084	-69.263	0.118	-0.046
-599.069	32.119	-0.346	-0.303
-598.055	10.121	0.226	0.174
-597.040	-200.000	-0.007	0.347
-596.025	-119.712	-0.213	-0.037
-595.011	800.000	0.060	-0.210
-593.996	-51.236	-0.265	-0.126
-592.982	-131.962	0.168	-0.022
-591.967	-96.031	0.142	0.038
-590.952	-73.009	-0.268	-0.100
-589.938	208.808	-0.166	-0.263
-588.923	800.000	-0.039	-0.146
-587.909	78.652	0.097	-0.106
-586.894	206.679	-0.081	0.128
-585.879	218.338	-0.136	-0.220
-584.865	301.961	-0.205	-0.384
-583.850	327.223	-0.097	0.189
-582.836	-60.046	-0.283	0.122
-581.821	491.852	0.180	-0.417
-580.806	-14.650	-0.350	0.228
-579.792	328.856	-0.047	0.091
-578.777	3.812	-0.069	-0.051
-577.763	218.564	0.276	-0.447
-576.748	162.371	0.077	-0.109
-575.733	13.997	-0.037	0.029
-574.719	-78.287	0.446	0.155
-573.704	-103.618	-0.168	0.040
-572.690	-29.801	0.239	-0.138
-571.675	-136.128	0.283	0.034
-570.661	2.870	0.017	-0.012
-569.646	167.283	-0.125	0.180
-568.631	44.611	-0.312	0.290
-567.617	-13.197	-0.217	-0.143
-566.602	107.992	0.072	-0.087
-565.588	800.000	-0.117	0.346
-564.573	197.963	-0.035	-0.055
-563.558	101.448	-0.026	0.030
-562.544	-146.960	0.091	-0.008
-561.529	-71.176	-0.171	-0.065
-560.515	31.632	-0.201	0.175
-559.500	-200.000	-0.033	-0.261
-558.485	24.902	0.131	-0.110
-557.471	294.639	0.096	0.177
-556.456	369.697	0.091	0.187
-555.442	-149.592	-0.372	0.030
-554.427	-80.623	-0.246	-0.083
-553.412	46.024	-0.116	0.109
-552.398	121.524	0.107	0.135
-551.383	339.407	-0.210	-0.415
-550.369	63.278	-0.190	0.193
-549.354	-169.157	0.482	-0.018
-548.339	191.490	0.050	-0.077
-547.325	-200.000	-0.046	0.282
-546.310	78.790	-0.137	-0.148
-545.296	140.904	-0.088	0.117
-544.281	498.286	0.036	0.084
-543.266	800.000	-0.067	0.206
-542.252	-54.627	-0.230	0.106
-541.237	800.000	0.050	0.178
-540.223	121.364	-0.050	0.064
-539.208	-161.735	0.299	-0.015
-538.193	-200.000	-0.005	0.025
-537.179	-91.419	-0.504	0.146
-536.164	438.854	0.203	-0.449
-535.150	6.296	0.340	-0.256
-534.135	-12.114	-0.122	0.081
-533.121	-59.408	-0.153	0.067
-532.106	-0.364	-0.161	-0.116
-531.091	116.965	0.211	0.263
-530.077	107.974	-0.039	0.047
-529.062	172.720	-0.218	-0.318
-528.048	800.000	-0.062	0.244
-527.033	448.532	-0.163	-0.363
-526.018	397.138	0.099	0.209
-525.004	6.562	0.386	0.291
-523.989	40.520	0.132	-0.120
-522.975	-17.508	-0.452	-0.288
-521.960	-11.284	-0.139	-0.092
-520.945	-200.000	-0.008	0.138
-519.931	-42.505	0.158	-0.081
-518.916	-200.000	-0.018	0.103
-517.902	-151.018	0.312	-0.024
-516.887	-105.233	-0.166	0.038
-515.872	800.000	-0.085	0.343
-514.858	800.000	-0.041	0.141
-513.843	85.363	-0.199	-0.221
-512.829	-129.403	-0.047	-0.007
-511.814	443.160	-0.102	0.227
-510.799	-153.097	0.461	-0.033
-509.785	800.000	0.031	0.121
-508.770	35.292	0.221	-0.196
-507.756	800.000	-0.208	0.583
-506.741	-169.337	-0.375	0.014
-505.726	-139.769	-0.185	-0.020
-504.712	-115.751	0.224	-0.042
-503.697	128.751	0.266	-0.343
-502.683	-101.944	-0.315	-0.077
-501.668	36.118	0.161	0.144
-500.653	91.531	0.250	-0.284
-499.639	-200.000	-0.012	-0.084
-498.624	-200.000	0.051	-0.270
-497.610	800.000	-0.079	-0.232
-496.595	318.808	-0.202	0.387
-495.581	-163.126	-0.015	0.001
-494.566	-58.538	-0.185	0.081
-493.551	-152.867	0.541	-0.039
-492.537	-8.396	-0.293	-0.199
-491.522	26.812	0.248	0.210
-490.508	16.585	-0.127	-0.102
-489.493	-200.000	0.021	0.146
-488.478	0.836	-0.253	-0.183
-487.464	-46.368	0.198	0.098
-486.449	-124.456	-0.115	-0.018
-485.435	188.843	-0.205	-0.310
-484.420	-128.310	0.313	0.045
-483.405	-200.000	0.027	-0.200
-482.391	800.000	0.014	0.047
-481.376	36.561	-0.472	-0.421
-480.362	-200.000	-0.015	0.270
-479.347	-53.333	-0.065	0.030
-478.332	-200.000	-0.003	-0.244
-477.318	-61.764	0.225	0.095
-476.303	-12.970	0.266	0.175
-475.289	-200.000	0.018	0.097
-474.274	60.681	-0.218	0.218
-473.259	-21.541	0.171	-0.105
-472.245	57.378	0.058	0.057
-471.230	-87.532	-0.374	-0.114
-470.216	8.912	0.130	0.099
-469.201	293.346	-0.109	0.200
-468.186	-86.743	0.243	0.075
-467.172	44.500	-0.388	0.360
-466.157	-16.238	-0.165	-0.106
-465.143	-100.053	0.207	0.052
-464.128	-200.000	-0.031	-0.217
-463.113	-97.818	0.046	-0.012
-462.099	-26.492	0.280	-0.166
-461.084	-26.900	0.172	0.101
-460.070	-200.000	0.034	0.199
-459.055	-84.207	0.180	0.058
-458.040	-200.000	-0.037	-0.184
-457.026	278.767	0.113	0.203
-456.011	82.545	-0.072	0.079
-454.997	34.915	-0.100	-0.088
-453.982	96.952	0.352	-0.407
-452.968	-200.000	0.005	0.160
-451.953	133.724	-0.255	0.333
-450.938	-200.000	-0.021	0.186
-449.924	-93.235	0.462	-0.130
-448.909	244.160	0.125	-0.212
-447.895	-28.109	0.332	0.194
-446.880	234.015	-0.065	0.108
-445.865	-60.356	0.196	0.084
-444.851	800.000	0.056	-0.212
-443.836	95.586	0.056	-0.064
-442.822	-200.000	-0.015	-0.202
-441.807	-28.232	0.163	0.095
-440.792	-169.792	-0.281	0.010
-439.778	-200.000	-0.045	-0.215
-438.763	-200.000	0.052	-0.370
-437.749	-77.717	0.343	-0.120
-436.734	-200.000	-0.010	-0.098
-435.719	296.297	0.061	-0.112
-434.705	78.894	0.242	-0.261
-433.690	800.000	0.056	0.198
-432.676	-100.682	0.329	-0.082
-431.661	-114.731	0.025	-0.005
-430.646	-200.000	-0.011	-0.085
-429.632	-200.000	0.001	-0.277
-428.617	-72.378	-0.226	0.084
-427.603	-182.227	0.181	0.003
-426.588	-125.710	-0.231	-0.035
-425.573	26.961	0.105	-0.089
-424.559	-171.152	0.375	-0.013
-423.544	160.268	-0.141	0.198
-422.530	-30.551	-0.215	-0.123
-421.515	-200.000	-0.018	0.238
-420.500	-18.947	0.390	0.244
-419.486	764.735	-0.143	-0.391
-418.471	47.450	0.139	-0.131
-417.457	-132.156	-0.161	0.021
-416.442	17.055	-0.250	-0.200
-415.428	-28.650	-0.104	-0.060
-414.413	-128.473	-0.104	0.015
-413.398	800.000	0.069	-0.206
-412.384	-63.959	0.095	0.039
-411.369	-200.000	0.014	-0.084
-410.355	137.631	0.268	0.354
-409.340	60.112	0.160	0.159
-408.325	306.434	0.074	0.138
-407.311	-200.000	-0.045	-0.383
-406.296	-118.298	-0.149	0.027
-405.282	121.489	-0.136	0.170
-404.267	-100.113	0.058	0.015
-403.252	-124.626	0.042	0.007
-402.238	-200.000	0.007	-0.084
-401.223	745.868	-0.116	0.313
-400.209	-94.119	-0.200	0.055
-399.194	782.458	-0.023	-0.064
-398.179	216.367	0.071	-0.113
-397.165	-9.954	0.037	-0.025
-396.150	123.141	-0.191	0.241
-395.136	-81.943	-0.069	0.023
-394.121	175.863	0.148	-0.216
-393.106	800.000	-0.045	-0.152
-392.092	-119.897	-0.268	-0.046
-391.077	-59.304	0.067	-0.029
-390.063	365.494	0.178	0.362
-389.048	800.000	0.041	0.158
-388.033	800.000	-0.081	-0.229
-387.019	800.000	0.071	0.248
-386.004	119.226	-0.074	0.092
-384.990	800.000	-0.060	0.175
-383.975	-25.140	-0.130	-0.077
-382.960	-200.000	-0.010	0.222
-381.946	-200.000	0.019	-0.160
-380.931	-57.542	-0.185	-0.082
-379.917	176.749	-0.171	0.250
-378.902	236.556	0.174	0.289
-377.888	378.180	-0.057	-0.117
-376.873	-200.000	0.015	0.102
-375.858	-84.766	-0.485	0.153
-374.844	150.195	-0.098	0.134
-373.829	1.376	0.142	0.103
-372.815	-96.036	-0.247	0.066
-371.800	-200.000	-0.004	0.107
-370.785	-200.000	0.014	0.071
-369.771	800.000	-0.050	0.138
-368.756	-200.000	-0.019	0.112
-367.742	14.427	-0.168	-0.132
-366.727	-189.400	0.151	0.002
-365.712	-90.884	-0.299	-0.086
-364.698	-200.000	0.068	-0.322
-363.683	-113.071	0.181	0.036
-362.669	31.869	0.372	0.323
-361.654	-77.185	-0.297	0.104
-360.639	-79.714	0.113	0.038
-359.625	-200.000	-0.069	0.412
-358.610	121.619	-0.173	0.217
-357.596	74.227	0.066	0.070
-356.581	-37.129	-0.123	-0.066
-355.566	290.339	-0.113	-0.207
-354.552	-101.361	-0.203	-0.050
-353.537	50.736	-0.267	-0.254
-352.523	-10.678	0.118	0.078
-351.508	-200.000	0.045	0.294
-350.493	800.000	0.049	-0.144
-349.479	272.749	0.140	0.248
-348.464	-200.000	-0.000	0.204
-347.450	-200.000	-0.010	-0.055
-346.435	9.820	0.250	-0.191
-345.420	-200.000	-0.035	0.165
-344.406	98.303	-0.190	0.220
-343.391	48.201	0.343	-0.322
-342.377	-116.207	0.051	-0.009
-341.362	708.197	0.132	-0.352
-340.348	-77.414	0.075	-0.026
-339.333	301.382	-0.080	-0.149
-338.318	-200.000	0.038	0.282
-337.304	-19.747	0.175	0.109
-336.289	-20.399	0.339	0.210
-335.275	800.000	-0.075	0.312
-334.260	36.967	0.180	-0.160
-333.245	-175.409	0.318	0.009
-332.231	-138.708	0.540	-0.059
-331.216	-83.048	-0.294	-0.095
-330.202	1.673	0.188	0.136
-329.187	-87.986	-0.079	0.024
-328.172	-34.796	0.028	-0.016
-327.158	251.612	0.133	-0.227
-326.143	-15.011	-0.108	0.069
-325.129	44.625	0.105	0.097
-324.114	-200.000	-0.022	0.292
-323.099	-18.248	-0.103	-0.065
-322.085	-138.673	-0.306	-0.034
-321.070	-74.662	0.213	0.077
-320.056	-182.355	-0.239	-0.004
-319.041	147.655	0.154	-0.209
-318.026	-25.660	-0.441	-0.261
-317.012	456.141	-0.097	-0.215
-315.997	137.720	-0.066	-0.087
-314.983	-83.517	0.333	-0.107
-313.968	800.000	0.010	0.029
-312.953	-200.000	0.019	-0.098
-311.939	800.000	-0.077	-0.237
-310.924	-47.596	-0.242	-0.118
-309.910	582.108	0.231	0.569
-308.895	-200.000	-0.036	-0.204
-307.880	198.000	-0.271	0.416
-306.866	-82.169	0.092	0.030
-305.851	-200.000	0.000	-0.164
-304.837	27.188	-0.253	-0.213
-303.822	-84.944	0.411	-0.129
-302.807	-117.325	0.076	0.014
-301.793	-200.000	-0.012	-0.234
-300.778	496.769	-0.088	-0.203
-299.764	800.000	-0.105	-0.304
-298.749	-75.905	0.130	0.046
-297.735	-200.000	0.320	0.001
-296.720	28.560	0.140	-0.119
-295.705	-116.817	0.333	0.061
-294.691	-35.394	0.210	0.114
-293.676	114.464	0.194	0.238
-292.662	356.191	-0.098	-0.195
-291.647	-114.745	0.080	0.015
-290.632	-200.000	-0.003	-0.104
-289.618	-62.765	-0.223	-0.093
-288.603	-200.000	0.047	0.347
-287.589	191.732	-0.207	-0.313
-286.574	-159.997	-0.092	0.005
-285.559	-125.117	0.322	0.050
-284.545	-130.132	0.373	-0.051
-283.530	-168.654	-0.160	0.006
-282.516	-112.603	-0.087	0.017
-281.501	57.605	0.150	0.147
-280.486	75.878	0.210	0.223
-279.472	-56.045	-0.112	0.050
-278.457	-200.000	-0.019	0.325
-277.443	-70.792	-0.163	-0.062
-276.428	205.072	-0.229	0.357
-275.413	-60.074	0.179	-0.077
-274.399	324.025	-0.034	-0.064
-273.384	-41.716	-0.094	0.048
-272.370	-42.910	0.064	0.033
-271.355	223.625	-0.116	-0.188
-270.340	-200.000	-0.085	-0.445
-269.326	-200.000	0.061	-0.276
-268.311	66.006	0.025	0.026
-267.297	-200.000	-0.050	-0.402
-266.282	-200.000	0.016	-0.240
-265.267	-67.356	0.055	-0.022
-264.253	-57.693	-0.257	0.113
-263.238	46.367	-0.341	0.316
-262.224	-102.466	-0.031	0.008
-261.209	800.000	0.026	0.094
-260.195	483.573	-0.015	-0.033
-259.180	-88.653	0.213	0.064
-258.165	-200.000	0.001	0.160
-257.151	-36.117	-0.367	0.199
-256.136	223.331	0.169	0.273
-255.122	-200.000	-0.060	-0.405
-254.107	-7.244	-0.295	-0.200
-253.092	170.189	0.062	0.089
-252.078	170.588	-0.115	0.165
-251.063	-200.000	-0.061	0.355
-250.049	0.114	-0.313	-0.223
-249.034	-200.000	-0.027	-0.281
-248.019	25.573	0.123	0.102
-247.005	-31.506	-0.163	-0.092
-245.990	800.000	0.090	0.272
-244.976	729.104	0.065	-0.175
-243.961	-66.002	-0.076	0.031
-242.946	-56.976	0.156	0.069
-241.932	-123.301	0.164	-0.026
-240.917	238.390	0.047	0.079
-239.903	800.000	0.054	-0.222
-238.888	800.000	-0.095	0.332
-237.873	411.135	-0.088	-0.187
-236.859	800.000	-0.087	0.293
-235.844	14.381	-0.282	0.220
-234.830	-200.000	-0.015	-0.098
-233.815	186.727	-0.040	0.060
-232.800	-200.000	0.001	0.058
-231.786	376.038	0.154	0.315
-230.771	580.389	-0.091	0.222
-229.757	-10.867	0.151	0.100
-228.742	97.194	0.038	-0.043
-227.727	48.155	-0.172	-0.161
-226.713	-122.940	-0.092	0.015
-225.698	-200.000	0.031	0.305
-224.684	-47.015	-0.182	0.089
-223.669	-29.686	-0.216	-0.123
-222.655	513.202	0.206	-0.481
-221.640	-80.489	-0.146	0.049
-220.625	-53.164	0.221	0.101
-219.611	-200.000	0.043	0.459
-218.596	-118.919	0.052	-0.009
-217.582	800.000	0.125	-0.378
-216.567	-136.391	0.204	-0.024
-215.552	-200.000	0.004	0.091
-214.538	-12.370	-0.168	-0.109
-213.523	-56.459	-0.302	-0.134
-212.509	229.740	-0.047	0.077
-211.494	-177.234	-0.340	0.008
-210.479	27.393	-0.204	-0.171
-209.465	-121.737	0.265	0.044
-208.450	-130.665	0.371	-0.050
-207.436	55.114	0.160	-0.155
-206.421	-200.000	0.031	0.225
-205.406	-120.955	-0.056	-0.009
-204.392	167.139	-0.256	-0.363
-203.377	800.000	-0.061	-0.182
-202.363	114.835	0.165	-0.201
-201.348	166.428	-0.141	-0.199
-200.333	378.830	0.125	-0.256
-199.319	-151.870	0.203	-0.015
-198.304	16.434	0.183	0.144
-197.290	-200.000	-0.016	0.076
-196.275	-200.000	-0.077	0.407
-195.260	106.398	-0.206	0.244
-194.246	309.633	0.151	0.281
-193.231	-135.125	0.479	0.058
-192.217	45.970	0.213	0.197
-191.202	-53.240	-0.040	0.018
-190.187	82.638	0.210	-0.228
-189.173	800.000	-0.039	-0.148
-188.158	800.000	-0.114	0.490
-187.144	-60.541	-0.022	-0.009
-186.129	598.094	-0.015	0.038
-185.114	-120.212	-0.302	0.052
-184.100	131.025	0.126	0.161
-183.085	316.469	0.125	-0.235
-182.071	-131.748	-0.250	-0.033
-181.056	-109.233	-0.189	0.040
-180.042	-163.180	-0.123	0.006
-179.027	800.000	0.085	0.278
-178.012	267.325	-0.100	0.175
-176.998	800.000	-0.106	0.330
-175.983	800.000	-0.025	-0.076
-174.969	-54.260	0.126	0.057
-173.954	323.755	0.077	-0.148
-172.939	-200.000	0.062	0.296
-171.925	-6.400	0.180	0.123
-170.910	-14.489	0.195	-0.125
-169.896	-200.000	0.002	0.134
-168.881	-31.588	0.145	0.081
-167.866	195.303	-0.163	-0.247
-166.852	606.046	-0.081	-0.201
-165.837	-117.340	-0.293	0.053
-164.823	-11.735	0.126	-0.083
-163.808	-130.220	0.399	0.054
-162.793	332.850	0.141	-0.272
-161.779	-118.288	0.145	0.026
-160.764	-158.742	0.410	-0.023
-159.750	-200.000	0.055	-0.248
-158.735	-69.632	0.248	-0.095
-157.720	458.867	-0.170	0.377
-156.706	-200.000	0.050	0.272
-155.691	168.130	-0.201	-0.285
-154.677	-87.758	0.213	-0.064
-153.662	-88.849	-0.070	0.021
-152.647	-93.832	0.303	-0.083
-151.633	-200.000	-0.009	0.289
-150.618	793.663	0.093	0.255
-149.604	-185.280	0.115	0.002
-148.589	99.543	0.142	0.164
-147.574	17.986	-0.081	0.064
-146.560	-51.238	0.257	0.120
-145.545	29.394	0.162	0.137
-144.531	800.000	0.089	0.298
-143.516	8.753	-0.241	0.181
-142.502	-10.569	0.177	0.117
-141.487	49.665	0.115	-0.108
-140.472	-53.615	-0.231	0.105
-139.458	133.054	0.206	0.265
-138.443	744.088	0.087	0.233
-137.429	19.704	-0.159	0.127
-136.414	-46.213	0.306	0.150
-135.399	-31.322	-0.339	-0.190
-134.385	-155.204	0.176	-0.011
-133.370	-14.978	-0.280	0.179
-132.356	800.000	0.040	0.129
-131.341	-200.000	-0.014	0.247
-130.326	-200.000	0.014	-0.119
-129.312	148.575	0.163	0.219
-128.297	-141.290	0.170	0.017
-127.283	234.466	0.146	-0.239
-126.268	182.675	0.098	-0.143
-125.253	-200.000	0.038	-0.179
-124.239	-42.150	-0.199	-0.102
-123.224	800.000	-0.101	0.376
-122.210	-200.000	-0.055	-0.382
