DTS Sentinel unit serial number:	SN413079Multiplexer serial number:	ORYXHardware model number:	OX4-SRSoftware version number:	ORYX F/W v4.00 Oryx Data Collector v3.7.2.0data status	okinstallation	princeton_trtdifferential loss correction	single-endedforward channel	channel 3reverse channel	N/Adate	2019/09/11time	22:18:11forward acquisition time	60.00reverse acquisition time	0.00gamma	496.2192k internal	0.2313k external	0.2313temperature offset calibration	1.0045default loss term (dB/km)	0.3790temperature slope calibration	1.0000multiplexer offset coefficient	1.0000multiplexer slope coefficient	1.0000fibre end	0.00T internal ref (°C)	35.27T ext. ref 1 (°C)	1.75T ext. ref 2 (°C)	29.62length (m)	temperature (°C)	Stokes	anti-Stokes-747.200	-200.000	0.006	-0.039
-746.185	-200.000	0.018	0.230
-745.171	-127.999	0.308	-0.045
-744.156	800.000	0.087	0.350
-743.142	-200.000	0.031	-0.334
-742.127	800.000	0.046	0.195
-741.112	52.696	0.094	0.091
-740.098	7.372	0.247	0.187
-739.083	231.911	0.157	0.261
-738.069	800.000	0.122	0.441
-737.054	119.972	0.119	-0.149
-736.039	-97.591	0.471	-0.124
-735.025	-105.082	0.336	0.078
-734.010	337.909	0.129	0.254
-732.996	-200.000	-0.075	-0.405
-731.981	800.000	0.043	-0.169
-730.966	150.296	0.250	-0.344
-729.952	-5.865	-0.076	-0.053
-728.937	215.646	-0.151	-0.243
-727.923	-125.782	-0.323	-0.049
-726.908	-44.839	0.420	-0.212
-725.894	89.887	0.049	0.055
-724.879	718.426	-0.189	-0.508
-723.864	-2.155	-0.185	0.131
-722.850	-110.976	-0.230	0.048
-721.835	-177.785	0.308	0.008
-720.821	20.630	-0.133	0.109
-719.806	138.542	0.338	-0.450
-718.791	18.730	-0.351	-0.285
-717.777	44.667	0.162	0.151
-716.762	-200.000	-0.046	-0.327
-715.748	800.000	-0.038	-0.146
-714.733	129.254	0.054	-0.069
-713.718	40.223	-0.242	0.221
-712.704	77.389	-0.207	-0.223
-711.689	800.000	-0.053	-0.150
-710.675	102.494	0.023	-0.028
-709.660	14.476	0.118	0.093
-708.645	371.244	0.007	-0.015
-707.631	800.000	-0.041	0.178
-706.616	282.574	-0.092	0.168
-705.602	291.744	-0.063	0.116
-704.587	-2.432	-0.045	-0.032
-703.572	-200.000	0.003	0.478
-702.558	-200.000	0.005	0.031
-701.543	67.216	0.110	0.114
-700.529	4.928	-0.217	-0.162
-699.514	-200.000	0.012	0.280
-698.499	-65.970	0.167	-0.067
-697.485	190.106	0.097	0.148
-696.470	-75.988	0.302	0.108
-695.456	-164.824	-0.067	0.003
-694.441	4.953	-0.158	-0.118
-693.426	-134.949	0.254	0.031
-692.412	127.670	0.167	-0.214
-691.397	-13.618	-0.234	-0.153
-690.383	147.015	0.083	-0.112
-689.368	157.143	0.058	0.081
-688.354	361.663	0.082	0.166
-687.339	-26.164	-0.189	0.112
-686.324	-123.306	0.245	-0.040
-685.310	35.196	0.282	0.250
-684.295	353.002	-0.057	-0.115
-683.281	268.152	0.135	0.240
-682.266	18.361	-0.277	0.224
-681.251	-99.471	-0.047	-0.012
-680.237	176.643	0.210	0.309
-679.222	-34.453	-0.066	0.037
-678.208	578.217	0.041	-0.100
-677.193	-87.233	-0.117	0.036
-676.178	-37.157	-0.253	0.137
-675.164	144.517	-0.145	-0.196
-674.149	384.134	0.075	0.157
-673.135	800.000	0.065	0.264
-672.120	76.626	-0.069	-0.073
-671.105	5.415	-0.226	0.168
-670.091	-183.284	0.078	-0.001
-669.076	371.386	0.037	0.075
-668.062	-200.000	-0.020	0.107
-667.047	-97.676	0.272	0.071
-666.032	-34.164	-0.236	0.131
-665.018	177.157	0.200	0.295
-664.003	-200.000	-0.014	-0.135
-662.989	800.000	-0.039	0.122
-661.974	800.000	-0.003	0.012
-660.959	-126.707	0.244	0.036
-659.945	-17.476	0.072	-0.046
-658.930	168.078	0.239	0.344
-657.916	426.681	-0.080	-0.174
-656.901	-93.467	0.403	-0.113
-655.886	-200.000	-0.027	-0.265
-654.872	800.000	-0.061	-0.236
-653.857	-115.218	-0.174	0.033
-652.843	53.102	-0.105	0.102
-651.828	800.000	0.043	-0.145
-650.814	-160.869	-0.252	0.013
-649.799	-200.000	-0.033	0.176
-648.784	-95.346	-0.189	0.051
-647.770	386.679	-0.029	-0.060
-646.755	34.531	-0.177	-0.156
-645.741	83.462	-0.149	-0.164
-644.726	190.130	0.203	0.308
-643.711	107.579	0.145	-0.175
-642.697	-200.000	-0.054	0.247
-641.682	80.171	-0.070	0.076
-640.668	627.872	0.051	0.129
-639.653	-200.000	-0.030	-0.154
-638.638	12.491	0.226	-0.176
-637.624	5.363	-0.260	0.193
-636.609	-123.147	0.253	0.041
-635.595	-200.000	-0.033	0.195
-634.580	800.000	-0.015	0.048
-633.565	363.172	0.089	0.180
-632.551	-13.124	0.114	0.075
-631.536	-126.054	-0.047	0.007
-630.522	-58.209	0.128	-0.056
-629.507	-196.492	0.093	-0.001
-628.492	-200.000	-0.015	0.169
-627.478	-134.942	0.145	-0.018
-626.463	417.014	-0.104	0.225
-625.449	-84.184	0.311	0.100
-624.434	-127.292	0.134	-0.020
-623.419	-37.730	-0.053	0.028
-622.405	-98.326	-0.243	0.063
-621.390	205.859	-0.097	0.152
-620.376	338.629	-0.046	-0.091
-619.361	-57.462	0.293	-0.130
-618.346	82.032	0.182	0.199
-617.332	-200.000	-0.034	0.201
-616.317	240.438	-0.086	-0.145
-615.303	-200.000	0.049	-0.329
-614.288	386.956	-0.173	0.362
-613.273	-140.283	0.161	-0.017
-612.259	1.667	-0.103	0.075
-611.244	800.000	0.057	0.206
-610.230	228.028	-0.098	-0.161
-609.215	89.461	-0.111	-0.125
-608.201	-46.500	-0.306	0.151
-607.186	-24.115	0.393	0.237
-606.171	-138.447	0.375	-0.042
-605.157	434.397	0.196	-0.430
-604.142	-18.810	-0.370	0.232
-603.128	-63.409	-0.110	0.046
-602.113	800.000	-0.152	-0.544
-601.098	-45.949	-0.251	0.125
-600.084	-18.069	0.050	-0.032
-599.069	1.736	0.163	-0.119
-598.055	-121.706	-0.095	-0.016
-597.040	117.658	-0.147	-0.182
-596.025	150.545	-0.066	-0.091
-595.011	-164.110	0.044	0.002
-593.996	800.000	0.042	0.142
-592.982	535.411	0.134	-0.321
-591.967	800.000	-0.020	0.085
-590.952	-105.325	-0.100	-0.023
-589.938	-199.460	-0.237	-0.001
-588.923	-200.000	0.036	0.240
-587.909	-5.847	0.241	-0.167
-586.894	-82.166	0.089	-0.029
-585.879	-200.000	-0.038	-0.402
-584.865	210.118	-0.084	0.132
-583.850	-200.000	0.033	0.163
-582.836	-73.413	-0.156	-0.057
-581.821	-130.847	0.163	-0.022
-580.806	366.975	0.095	-0.193
-579.792	-62.160	-0.160	-0.067
-578.777	94.571	-0.113	0.130
-577.763	-200.000	-0.030	-0.164
-576.748	-72.855	-0.103	-0.038
-575.733	232.469	-0.156	-0.259
-574.719	73.770	0.042	-0.045
-573.704	170.674	-0.019	0.028
-572.690	-108.240	0.239	0.052
-571.675	608.866	0.079	-0.198
-570.661	-87.388	-0.298	-0.091
-569.646	-200.000	0.009	-0.250
-568.631	-118.695	0.267	-0.047
-567.617	724.130	-0.050	0.134
-566.602	-13.463	-0.193	0.126
-565.588	-49.851	0.222	0.106
-564.573	-28.912	-0.121	0.070
-563.558	182.591	0.086	0.128
-562.544	32.228	-0.126	-0.110
-561.529	162.381	0.074	-0.104
-560.515	32.432	-0.148	-0.128
-559.500	196.321	-0.126	0.193
-558.485	661.560	0.060	0.155
-557.471	345.466	-0.128	-0.253
-556.456	342.414	-0.026	-0.051
-555.442	-200.000	0.024	0.156
-554.427	800.000	0.078	0.265
-553.412	-200.000	-0.006	-0.030
-552.398	295.363	0.154	0.283
-551.383	-105.895	-0.118	-0.027
-550.369	800.000	-0.074	0.213
-549.354	-141.454	-0.388	-0.040
-548.339	-45.122	-0.111	0.056
-547.325	59.300	-0.209	-0.207
-546.310	-33.976	-0.118	-0.065
-545.296	-154.432	0.102	-0.007
-544.281	-13.678	0.171	-0.111
-543.266	545.029	-0.130	0.313
-542.252	190.416	0.074	0.112
-541.237	716.000	0.091	0.244
-540.223	-118.634	0.223	0.040
-539.208	800.000	-0.117	-0.404
-538.193	42.444	0.205	0.188
-537.179	-35.768	-0.116	-0.063
-536.164	-8.540	-0.231	0.156
-535.150	-200.000	-0.006	0.204
-534.135	-3.748	-0.198	-0.138
-533.121	109.964	-0.171	-0.207
-532.106	800.000	-0.085	0.298
-531.091	209.463	0.133	-0.209
-530.077	199.539	-0.091	-0.141
-529.062	-167.278	0.167	0.007
-528.048	41.868	-0.254	-0.231
-527.033	111.399	0.163	0.197
-526.018	345.819	0.128	-0.254
-525.004	-47.524	-0.243	0.118
-523.989	328.451	0.176	0.341
-522.975	738.619	-0.076	0.204
-521.960	800.000	0.032	-0.094
-520.945	800.000	0.057	-0.198
-519.931	-80.441	-0.239	0.080
-518.916	-63.080	-0.376	-0.156
-517.902	53.150	-0.080	0.077
-516.887	12.611	-0.239	0.185
-515.872	232.738	0.089	0.148
-514.858	-86.640	0.427	0.132
-513.843	12.091	-0.050	0.039
-512.829	-18.932	-0.189	0.118
-511.814	-200.000	-0.017	-0.185
-510.799	327.025	0.055	-0.106
-509.785	-200.000	0.076	0.425
-508.770	-10.682	0.161	0.107
-507.756	800.000	0.039	-0.108
-506.741	133.838	-0.150	0.196
-505.726	123.469	0.131	0.166
-504.712	-200.000	0.024	0.376
-503.697	188.958	-0.174	0.262
-502.683	46.245	0.131	-0.122
-501.668	-200.000	0.010	-0.292
-500.653	288.013	-0.101	0.183
-499.639	82.671	-0.197	-0.215
-498.624	164.847	0.196	-0.278
-497.610	654.150	-0.033	-0.086
-496.595	199.831	0.249	-0.384
-495.581	-200.000	-0.007	0.191
-494.566	-8.548	0.340	0.229
-493.551	658.563	-0.069	0.178
-492.537	-155.161	-0.438	0.029
-491.522	-68.269	0.248	-0.097
-490.508	-200.000	0.064	-0.429
-489.493	34.337	0.252	-0.221
-488.478	-121.141	0.137	0.023
-487.464	-18.602	-0.214	-0.134
-486.449	346.900	-0.098	0.193
-485.435	-169.046	0.308	0.012
-484.420	800.000	0.032	-0.123
-483.405	-28.580	0.076	-0.044
-482.391	-182.034	-0.464	-0.009
-481.376	295.017	-0.158	0.290
-480.362	160.931	0.169	-0.237
-479.347	-200.000	0.005	-0.118
-478.332	60.460	-0.316	-0.314
-477.318	27.511	0.172	-0.146
-476.303	-152.682	-0.418	0.030
-475.289	800.000	0.039	0.126
-474.274	345.331	-0.039	0.078
-473.259	349.925	0.016	0.031
-472.245	524.220	0.151	0.356
-471.230	800.000	-0.008	0.030
-470.216	-128.375	-0.258	0.037
-469.201	-109.168	0.228	-0.049
-468.186	-142.929	0.283	0.028
-467.172	800.000	0.041	0.136
-466.157	92.325	-0.273	0.309
-465.143	-0.784	0.196	0.140
-464.128	48.762	-0.239	0.225
-463.113	349.646	-0.178	-0.352
-462.099	237.753	0.118	0.197
-461.084	-200.000	-0.027	-0.146
-460.070	-68.529	-0.030	0.012
-459.055	-200.000	0.312	0.000
-458.040	-149.028	-0.145	0.012
-457.026	188.319	0.151	-0.227
-456.011	91.442	0.104	-0.117
-454.997	-200.000	0.030	-0.161
-453.982	800.000	0.027	0.075
-452.968	-200.000	-0.009	-0.062
-451.953	-195.877	0.117	0.001
-450.938	-97.128	-0.169	-0.044
-449.924	694.682	0.043	-0.113
-448.909	563.814	-0.094	0.229
-447.895	-200.000	-0.030	-0.194
-446.880	-137.929	0.340	0.038
-445.865	26.530	0.075	-0.063
-444.851	-86.093	0.355	-0.110
-443.836	-200.000	-0.061	0.351
-442.822	156.838	-0.143	0.197
-441.807	94.634	0.159	-0.181
-440.792	-200.000	0.043	-0.274
-439.778	515.672	-0.044	-0.102
-438.763	-167.585	-0.139	-0.006
-437.749	-48.545	-0.392	-0.189
-436.734	-200.000	0.031	-0.164
-435.719	-104.803	-0.167	0.038
-434.705	-21.844	-0.147	-0.090
-433.690	-200.000	-0.031	-0.294
-432.676	363.621	0.161	0.324
-431.661	-54.855	-0.348	0.157
-430.646	309.411	0.121	0.227
-429.632	-56.169	0.281	0.125
-428.617	-200.000	0.052	-0.249
-427.603	-138.345	-0.067	0.007
-426.588	-200.000	0.034	-0.236
-425.573	158.023	-0.089	-0.124
-424.559	800.000	-0.088	0.284
-423.544	182.181	0.114	0.168
-422.530	-102.495	0.237	0.057
-421.515	-114.723	-0.092	0.018
-420.500	-200.000	0.000	-0.114
-419.486	59.763	-0.102	0.101
-418.471	-50.934	0.285	-0.134
-417.457	-65.437	0.207	-0.083
-416.442	-87.202	0.413	-0.126
-415.428	195.120	-0.014	-0.022
-414.413	38.553	-0.175	0.156
-413.398	-94.855	0.299	0.081
-412.384	-16.180	-0.106	-0.068
-411.369	800.000	-0.071	0.243
-410.355	-21.833	-0.051	0.031
-409.340	-42.466	0.067	-0.034
-408.325	143.100	-0.243	0.323
-407.311	-0.062	0.140	-0.100
-406.296	93.207	-0.220	0.250
-405.282	-52.715	-0.240	-0.111
-404.267	634.437	0.037	-0.094
-403.252	39.773	0.221	-0.199
-402.238	60.754	0.113	-0.112
-401.223	800.000	0.046	-0.185
-400.209	-62.125	0.048	0.020
-399.194	-200.000	0.033	-0.214
-398.179	-93.802	0.127	0.035
-397.165	72.869	0.067	0.070
-396.150	120.456	0.072	-0.090
-395.136	358.382	-0.048	0.096
-394.121	800.000	-0.159	-0.637
-393.106	546.337	-0.065	-0.156
-392.092	-102.868	0.175	0.042
-391.077	800.000	-0.046	0.166
-390.063	-131.833	-0.261	-0.034
-389.048	-31.149	0.068	-0.038
-388.033	-50.636	0.128	-0.060
-387.019	159.871	-0.076	0.106
-386.004	207.547	-0.190	0.297
-384.990	-200.000	-0.047	0.284
-383.975	-33.566	0.373	0.206
-382.960	349.448	0.218	0.431
-381.946	352.823	-0.042	0.083
-380.931	-78.374	-0.194	-0.066
-379.917	111.992	-0.219	-0.265
-378.902	-167.591	-0.318	-0.013
-377.888	-116.493	-0.329	0.061
-376.873	-107.883	-0.281	0.061
-375.858	-200.000	0.015	-0.114
-374.844	-7.061	0.141	0.096
-373.829	71.228	0.209	-0.217
-372.815	-26.241	0.120	-0.070
-371.800	49.651	0.093	0.087
-370.785	521.414	0.100	-0.234
-369.771	214.256	-0.044	-0.070
-368.756	26.587	-0.029	0.024
-367.742	-200.000	-0.013	0.068
-366.727	719.096	0.072	-0.192
-365.712	-200.000	-0.005	0.025
-364.698	236.935	0.060	-0.099
-363.683	800.000	-0.063	-0.193
-362.669	-34.871	0.040	0.022
-361.654	-35.480	0.086	-0.046
-360.639	-85.871	0.431	0.133
-359.625	39.979	0.198	-0.178
-358.610	98.844	0.034	-0.039
-357.596	33.966	0.136	-0.118
-356.581	12.490	-0.233	-0.180
-355.566	138.351	-0.101	-0.132
-354.552	-79.396	0.337	-0.114
-353.537	-79.429	-0.155	-0.052
-352.523	-77.854	-0.225	-0.078
-351.508	-66.600	0.285	0.113
-350.493	800.000	0.071	-0.233
-349.479	-200.000	0.065	0.374
-348.464	-39.794	0.322	0.168
-347.450	334.514	0.098	0.190
-346.435	46.694	0.065	0.060
-345.420	800.000	-0.019	-0.072
-344.406	25.023	-0.064	-0.053
-343.391	-89.493	-0.018	0.005
-342.377	210.312	-0.051	0.080
-341.362	-200.000	-0.019	0.373
-340.348	-11.943	0.193	-0.126
-339.333	635.568	-0.125	-0.317
-338.318	180.722	-0.166	0.244
-337.304	800.000	-0.076	0.261
-336.289	-47.655	0.152	0.074
-335.275	495.202	0.164	0.377
-334.260	248.956	0.075	-0.126
-333.245	-200.000	-0.002	-0.219
-332.231	98.632	-0.086	-0.099
-331.216	132.354	0.222	-0.285
-330.202	-91.510	0.362	-0.103
-329.187	-101.168	-0.177	0.043
-328.172	553.483	0.072	0.172
-327.158	236.643	0.055	-0.091
-326.143	0.147	0.252	0.179
-325.129	-6.139	-0.217	0.148
-324.114	-200.000	0.040	0.256
-323.099	-36.301	0.006	-0.003
-322.085	-54.827	0.210	-0.095
-321.070	319.313	-0.116	0.220
-320.056	342.458	0.159	0.310
-319.041	78.441	-0.207	-0.220
-318.026	279.319	0.224	-0.399
-317.012	-200.000	-0.076	-0.411
-315.997	102.479	-0.160	0.186
-314.983	-138.526	-0.345	0.038
-313.968	34.017	0.094	-0.082
-312.953	-200.000	0.024	0.191
-311.939	-151.890	0.444	0.032
-310.924	800.000	-0.110	-0.304
-309.910	-7.401	-0.113	0.076
-308.895	800.000	0.023	-0.092
-307.880	-200.000	0.001	-0.241
-306.866	800.000	-0.097	-0.418
-305.851	-22.226	0.128	0.077
-304.837	800.000	0.075	0.262
-303.822	-14.521	-0.026	0.017
-302.807	-141.707	-0.130	0.013
-301.793	-121.325	-0.277	-0.046
-300.778	800.000	-0.077	-0.211
-299.764	304.637	-0.060	-0.112
-298.749	800.000	-0.070	-0.223
-297.735	-200.000	-0.013	-0.136
-296.720	-200.000	-0.012	-0.155
-295.705	786.440	0.092	0.251
-294.691	-130.124	-0.319	-0.043
-293.676	47.171	-0.158	-0.147
-292.662	260.436	-0.027	-0.047
-291.647	552.611	-0.066	0.157
-290.632	-123.262	-0.480	0.077
-289.618	31.216	0.302	0.258
-288.603	261.776	0.131	-0.226
-287.589	79.891	0.171	0.183
-286.574	143.879	-0.036	0.048
-285.559	570.375	-0.051	0.122
-284.545	453.061	0.149	-0.328
-283.530	42.991	0.123	0.112
-282.516	-73.787	-0.363	-0.131
-281.501	-61.637	-0.046	-0.019
-280.486	55.188	-0.080	0.077
-279.472	-200.000	-0.030	-0.195
-278.457	426.129	-0.073	0.157
-277.443	-45.987	-0.099	-0.049
-276.428	-27.857	0.449	0.259
-275.413	-95.453	0.195	-0.052
-274.399	-144.230	-0.328	-0.030
-273.384	-28.660	0.172	0.099
-272.370	-200.000	0.019	0.339
-271.355	-162.182	0.192	-0.010
-270.340	-200.000	-0.018	0.251
-269.326	98.363	0.158	-0.182
-268.311	677.717	0.046	0.120
-267.297	44.328	0.255	-0.233
-266.282	230.464	0.134	0.219
-265.267	12.861	0.182	-0.140
-264.253	-16.272	0.101	-0.064
-263.238	-200.000	0.018	-0.269
-262.224	180.301	0.193	-0.282
-261.209	54.893	-0.114	-0.110
-260.195	-200.000	-0.046	0.266
-259.180	-200.000	0.013	-0.265
-258.165	-138.516	-0.116	-0.013
-257.151	10.729	-0.063	0.048
-256.136	24.134	0.122	-0.100
-255.122	-200.000	-0.002	-0.031
-254.107	318.889	-0.193	0.364
-253.092	-114.847	-0.218	0.041
-252.078	7.556	0.126	-0.094
-251.063	66.277	-0.228	0.230
-250.049	800.000	0.091	-0.333
-249.034	162.413	0.022	0.031
-248.019	-59.580	0.108	0.046
-247.005	-200.000	-0.026	-0.314
-245.990	34.589	0.277	0.241
-244.976	-192.552	-0.376	-0.003
-243.961	800.000	-0.076	0.215
-242.946	15.593	-0.210	0.164
-241.932	-46.124	0.201	-0.099
-240.917	62.606	-0.124	0.123
-239.903	20.621	-0.099	0.079
-238.888	-51.298	0.189	0.088
-237.873	-38.678	0.203	0.107
-236.859	-44.205	0.068	0.034
-235.844	63.126	-0.114	0.114
-234.830	44.655	-0.051	-0.046
-233.815	-132.479	-0.343	0.044
-232.800	-57.281	-0.152	-0.067
-231.786	-24.477	-0.254	-0.150
-230.771	77.385	-0.214	-0.226
-229.757	-200.000	-0.010	0.348
-228.742	31.556	-0.169	-0.144
-227.727	78.025	-0.309	0.327
-226.713	-107.212	0.246	0.054
-225.698	130.273	0.283	-0.361
-224.684	-200.000	-0.012	-0.067
-223.669	-6.442	0.179	-0.121
-222.655	-29.193	0.071	0.041
-221.640	-165.210	-0.094	0.004
-220.625	800.000	0.027	0.074
-219.611	343.146	-0.141	-0.275
-218.596	217.272	-0.123	-0.194
-217.582	-200.000	-0.003	0.150
-216.567	-140.429	0.045	0.005
-215.552	-51.685	0.106	-0.049
-214.538	-74.835	0.221	-0.079
-213.523	170.747	-0.129	0.184
-212.509	92.679	0.182	0.203
-211.494	-200.000	0.005	-0.204
-210.479	201.252	0.055	-0.084
-209.465	0.189	0.304	0.215
-208.450	-170.639	0.080	0.003
-207.436	341.049	-0.074	0.143
-206.421	9.462	-0.136	0.102
-205.406	-161.920	0.156	0.008
-204.392	-200.000	-0.216	-0.001
-203.377	7.994	-0.240	0.179
-202.363	44.086	-0.020	-0.018
-201.348	-200.000	0.022	-0.383
-200.333	-124.125	-0.112	-0.017
-199.319	55.916	0.090	0.087
-198.304	92.169	0.137	0.153
-197.290	800.000	0.048	0.133
-196.275	0.989	0.165	-0.117
-195.260	-5.446	-0.081	-0.055
-194.246	-36.009	0.249	0.133
-193.231	3.253	0.280	-0.202
-192.217	-110.825	-0.230	-0.047
-191.202	-130.670	-0.229	-0.031
-190.187	-155.281	0.182	-0.012
-189.173	310.477	0.070	0.130
-188.158	38.821	0.210	0.186
-187.144	350.861	-0.065	-0.128
-186.129	-47.534	-0.180	0.087
-185.114	-70.431	0.163	0.061
-184.100	173.624	0.105	0.150
-183.085	-1.588	0.122	0.085
-182.071	94.964	0.223	-0.251
-181.056	-22.546	-0.237	0.143
-180.042	263.545	-0.104	-0.180
-179.027	262.493	-0.027	-0.047
-178.012	-31.468	-0.238	0.133
-176.998	197.908	-0.315	-0.477
-175.983	800.000	-0.071	0.212
-174.969	-200.000	0.023	0.250
-173.954	-86.663	-0.290	-0.088
-172.939	-86.394	0.136	-0.042
-171.925	-75.476	-0.123	0.044
-170.910	-112.987	-0.207	0.041
-169.896	-0.763	0.023	0.016
-168.881	48.389	-0.132	-0.122
-167.866	-200.000	0.034	-0.194
-166.852	-58.740	-0.346	-0.149
-165.837	62.742	-0.058	-0.057
-164.823	53.752	-0.115	0.109
-163.808	138.851	0.221	-0.287
-162.793	55.832	0.308	0.297
-161.779	-1.581	-0.078	-0.055
-160.764	-200.000	0.043	-0.565
-159.750	-34.912	0.200	0.108
-158.735	-138.026	0.135	-0.015
-157.720	800.000	0.063	0.200
-156.706	-27.798	0.052	0.030
-155.691	-200.000	0.012	-0.133
-154.677	-50.160	-0.208	0.097
-153.662	-200.000	0.030	0.580
-152.647	-200.000	-0.024	0.133
-151.633	-200.000	-0.033	-0.257
-150.618	-24.039	0.340	0.201
-149.604	-119.564	0.195	-0.033
-148.589	92.105	-0.119	0.133
-147.574	-51.101	0.623	0.290
-146.560	-27.244	0.239	0.138
-145.545	-200.000	-0.021	0.154
-144.531	-164.231	0.168	0.008
-143.516	800.000	0.083	0.352
-142.502	-87.129	0.402	0.121
-141.487	157.398	0.174	0.239
-140.472	27.795	0.028	-0.023
-139.458	68.976	0.151	-0.154
-138.443	-103.815	0.112	0.026
-137.429	72.928	0.064	-0.067
-136.414	-149.757	0.382	-0.030
-135.399	-200.000	-0.041	0.442
-134.385	170.665	-0.063	-0.089
-133.370	-200.000	-0.043	-0.301
-132.356	-69.051	0.419	0.160
-131.341	1.748	0.183	-0.130
-130.326	-74.111	0.352	0.126
-129.312	-38.854	-0.050	0.026
-128.297	91.854	0.139	-0.155
-127.283	-67.572	0.132	0.051
-126.268	211.139	-0.068	-0.106
-125.253	35.190	-0.221	0.192
-124.239	-86.148	0.106	0.032
-123.224	800.000	0.041	0.163
-122.210	-18.185	0.120	-0.074
-121.195	-78.089	0.278	0.095
-120.180	-61.690	-0.257	-0.107
-119.166	619.238	-0.059	-0.146
