DTS Sentinel unit serial number:	SN413079Multiplexer serial number:	ORYXHardware model number:	OX4-SRSoftware version number:	ORYX F/W v4.00 Oryx Data Collector v3.7.2.0data status	okinstallation	princeton_trtdifferential loss correction	single-endedforward channel	channel 3reverse channel	N/Adate	2019/09/11time	05:26:11forward acquisition time	60.00reverse acquisition time	0.00gamma	496.2192k internal	0.2331k external	0.2331temperature offset calibration	0.9907default loss term (dB/km)	0.3790temperature slope calibration	1.0000multiplexer offset coefficient	1.0000multiplexer slope coefficient	1.0000fibre end	0.00T internal ref (°C)	29.44T ext. ref 1 (°C)	-0.26T ext. ref 2 (°C)	23.48length (m)	temperature (°C)	Stokes	anti-Stokes-747.200	-88.409	0.459	0.138
-746.185	-45.174	-0.085	-0.042
-745.171	-56.261	0.219	0.098
-744.156	-70.367	-0.306	0.117
-743.142	-132.589	0.054	-0.007
-742.127	-47.844	0.066	-0.032
-741.112	800.000	0.104	-0.339
-740.098	-150.087	0.262	-0.021
-739.083	-200.000	-0.027	-0.283
-738.069	-64.741	-0.326	0.133
-737.054	-24.786	0.217	-0.130
-736.039	-171.136	-0.317	0.011
-735.025	-200.000	-0.065	-0.423
-734.010	185.345	-0.100	-0.149
-732.996	-165.936	-0.100	-0.004
-731.981	179.729	0.262	-0.386
-730.966	-200.000	-0.023	0.254
-729.952	133.168	-0.294	0.382
-728.937	-200.000	-0.033	0.209
-727.923	296.539	-0.064	0.118
-726.908	467.165	-0.020	0.046
-725.894	-200.000	0.034	0.319
-724.879	-52.887	0.104	0.048
-723.864	800.000	0.025	0.096
-722.850	-101.430	-0.292	0.072
-721.835	-200.000	0.028	-0.425
-720.821	-200.000	-0.047	-0.315
-719.806	89.344	-0.152	-0.170
-718.791	-200.000	-0.066	0.328
-717.777	-124.950	-0.080	0.012
-716.762	-200.000	0.082	-0.449
-715.748	-200.000	0.016	-0.095
-714.733	292.423	0.076	0.139
-713.718	198.208	0.161	0.247
-712.704	-56.016	0.117	-0.052
-711.689	75.847	-0.211	0.224
-710.675	-1.933	-0.303	-0.215
-709.660	-19.266	-0.310	-0.194
-708.645	-200.000	-0.016	-0.112
-707.631	-200.000	0.014	0.073
-706.616	291.365	0.036	-0.065
-705.602	-63.544	-0.126	-0.052
-704.587	-200.000	0.005	0.054
-703.572	-200.000	-0.056	0.358
-702.558	-141.582	-0.342	-0.035
-701.543	5.719	0.292	-0.217
-700.529	31.804	-0.169	-0.146
-699.514	207.640	-0.152	-0.239
-698.499	-150.286	-0.015	0.001
-697.485	800.000	0.089	-0.325
-696.470	20.935	-0.147	-0.120
-695.456	-150.835	0.295	-0.022
-694.441	800.000	-0.089	-0.289
-693.426	-200.000	0.026	-0.225
-692.412	350.494	0.055	-0.110
-691.397	-138.403	-0.057	-0.006
-690.383	-200.000	0.022	-0.309
-689.368	78.204	-0.181	-0.194
-688.354	-20.612	0.236	0.146
-687.339	-56.012	-0.127	-0.057
-686.324	-80.693	-0.043	0.014
-685.310	57.193	-0.117	-0.115
-684.295	-200.000	0.000	-0.045
-683.281	-39.066	0.251	0.133
-682.266	-59.460	-0.387	-0.167
-681.251	623.896	0.027	-0.069
-680.237	-84.118	-0.458	0.146
-679.222	-200.000	0.002	0.066
-678.208	-143.875	0.246	-0.023
-677.193	67.639	-0.152	0.156
-676.178	-94.553	0.201	-0.055
-675.164	-153.530	0.379	0.026
-674.149	-200.000	0.030	-0.138
-673.135	-116.245	-0.049	0.009
-672.120	-31.946	0.324	-0.182
-671.105	-200.000	-0.010	0.265
-670.091	-82.557	-0.198	0.065
-669.076	225.185	0.273	-0.444
-668.062	-200.000	0.008	-0.120
-667.047	345.320	0.073	-0.144
-666.032	-200.000	0.029	0.217
-665.018	-84.565	-0.204	-0.065
-664.003	-200.000	-0.048	-0.461
-662.989	-122.017	0.135	-0.022
-661.974	-42.905	-0.106	0.054
-660.959	329.999	-0.095	-0.184
-659.945	-142.292	0.287	-0.028
-658.930	118.095	-0.161	0.199
-657.916	15.528	0.144	-0.113
-656.901	133.465	0.119	-0.154
-655.886	-61.914	0.056	-0.023
-654.872	-41.369	0.044	-0.023
-653.857	-4.354	-0.131	-0.091
-652.843	-200.000	0.004	0.328
-651.828	175.131	0.131	0.191
-650.814	-122.377	-0.160	-0.026
-649.799	14.245	-0.172	-0.135
-648.784	-51.414	-0.097	-0.045
-647.770	-172.390	-0.293	0.009
-646.755	492.156	0.023	-0.054
-645.741	-200.000	0.010	-0.319
-644.726	92.574	0.390	0.441
-643.711	43.010	0.143	0.131
-642.697	800.000	-0.077	-0.231
-641.682	-81.163	0.387	-0.128
-640.668	-20.715	-0.232	0.143
-639.653	-200.000	-0.048	0.268
-638.638	-200.000	0.052	0.315
-637.624	-142.369	-0.263	-0.026
-636.609	-139.317	0.274	0.029
-635.595	558.464	-0.151	-0.366
-634.580	-38.871	-0.074	0.039
-633.565	473.428	-0.177	-0.399
-632.551	23.272	-0.083	-0.068
-631.536	93.165	-0.110	-0.124
-630.522	278.064	-0.176	0.314
-629.507	800.000	-0.038	-0.124
-628.492	-10.751	0.237	0.157
-627.478	260.815	-0.121	-0.209
-626.463	210.956	-0.096	0.151
-625.449	-80.051	0.437	-0.147
-624.434	-200.000	0.009	0.223
-623.419	581.282	-0.114	0.280
-622.405	-200.000	-0.012	0.181
-621.390	-200.000	0.075	-0.347
-620.376	-25.582	-0.376	-0.222
-619.361	166.132	-0.307	0.435
-618.346	-200.000	0.034	-0.207
-617.332	4.191	0.314	-0.230
-616.317	20.728	0.142	-0.115
-615.303	-37.627	0.109	0.058
-614.288	29.347	-0.199	-0.169
-613.273	-194.736	-0.114	0.001
-612.259	64.106	-0.157	-0.158
-611.244	-65.615	0.141	-0.057
-610.230	-18.235	-0.083	-0.052
-609.215	-200.000	0.006	-0.048
-608.201	-200.000	0.044	-0.312
-607.186	16.339	-0.145	0.115
-606.171	110.357	0.055	-0.067
-605.157	-200.000	-0.025	-0.123
-604.142	69.509	-0.173	-0.178
-603.128	-160.176	-0.167	-0.009
-602.113	-200.000	-0.022	-0.227
-601.098	-154.938	0.252	-0.017
-600.084	800.000	-0.066	0.197
-599.069	-71.810	0.210	-0.078
-598.055	52.312	-0.159	0.152
-597.040	34.348	0.187	-0.163
-596.025	-145.276	0.137	-0.012
-595.011	-63.116	-0.194	-0.080
-593.996	33.278	-0.251	-0.218
-592.982	-86.431	0.255	-0.078
-591.967	-96.835	-0.342	0.090
-590.952	-200.000	-0.017	0.132
-589.938	-12.952	-0.209	0.136
-588.923	35.099	0.015	-0.013
-587.909	-200.000	0.008	-0.146
-586.894	-69.824	0.169	0.064
-585.879	-23.599	0.117	-0.070
-584.865	-154.694	-0.096	0.006
-583.850	800.000	0.083	-0.331
-582.836	-27.217	0.114	0.067
-581.821	285.186	-0.052	0.093
-580.806	-19.285	-0.080	-0.049
-579.792	117.535	0.294	0.362
-578.777	800.000	0.020	0.084
-577.763	-76.263	0.091	0.032
-576.748	41.283	0.225	0.204
-575.733	410.719	-0.126	0.268
-574.719	90.621	-0.097	0.109
-573.704	513.475	-0.118	-0.274
-572.690	-200.000	-0.007	0.217
-571.675	-35.597	0.044	-0.024
-570.661	-200.000	0.021	-0.095
-569.646	-82.047	0.157	0.051
-568.631	-68.550	0.052	-0.020
-567.617	-200.000	-0.019	-0.308
-566.602	-14.111	-0.173	0.112
-565.588	-125.106	-0.306	-0.047
-564.573	484.031	-0.094	0.214
-563.558	-168.192	0.236	0.009
-562.544	-128.990	-0.367	0.051
-561.529	-105.638	-0.206	-0.047
-560.515	287.079	-0.260	0.470
-559.500	30.990	-0.309	0.265
-558.485	-165.661	-0.147	-0.006
-557.471	41.535	0.066	-0.060
-556.456	48.553	0.195	0.182
-555.442	323.960	-0.111	-0.211
-554.427	186.912	-0.110	0.163
-553.412	-105.284	0.314	-0.072
-552.398	311.854	-0.054	-0.102
-551.383	800.000	0.048	-0.211
-550.369	0.021	0.081	-0.058
-549.354	201.747	0.075	0.116
-548.339	-102.136	0.200	-0.048
-547.325	-200.000	0.012	-0.194
-546.310	800.000	-0.063	0.209
-545.296	170.723	0.065	-0.093
-544.281	36.504	0.082	-0.072
-543.266	-24.404	-0.149	0.089
-542.252	59.062	0.329	0.323
-541.237	47.235	0.094	-0.087
-540.223	-115.898	0.063	-0.012
-539.208	-22.436	0.268	-0.162
-538.193	-11.078	-0.037	0.024
-537.179	280.991	-0.080	0.143
-536.164	-135.174	-0.257	-0.031
-535.150	31.700	0.077	-0.066
-534.135	389.074	0.232	-0.479
-533.121	-18.387	0.154	0.096
-532.106	346.259	0.105	0.206
-531.091	254.169	-0.093	-0.158
-530.077	-200.000	-0.022	-0.121
-529.062	-126.463	0.145	-0.022
-528.048	-176.062	-0.169	-0.004
-527.033	40.330	-0.237	0.213
-526.018	-200.000	0.083	-0.457
-525.004	-89.375	0.359	-0.106
-523.989	-94.574	0.121	-0.033
-522.975	56.479	-0.080	-0.078
-521.960	-200.000	-0.051	0.376
-520.945	800.000	-0.045	-0.142
-519.931	279.903	-0.083	-0.147
-518.916	711.347	0.210	-0.555
-517.902	66.327	0.170	0.172
-516.887	17.447	0.253	-0.201
-515.872	123.912	0.110	-0.138
-514.858	31.132	-0.065	0.056
-513.843	-140.428	0.123	0.013
-512.829	-85.520	-0.165	-0.051
-511.814	198.586	0.143	-0.219
-510.799	-200.000	0.027	-0.328
-509.785	145.238	-0.130	0.174
-508.770	-19.932	0.134	0.082
-507.756	8.196	-0.103	-0.077
-506.741	231.856	0.052	-0.085
-505.726	800.000	-0.046	0.191
-504.712	-77.543	-0.226	0.078
-503.697	-89.407	0.271	0.080
-502.683	51.820	-0.131	-0.124
-501.668	-143.536	-0.161	0.015
-500.653	-150.850	0.028	-0.002
-499.639	800.000	-0.014	0.057
-498.624	800.000	0.097	0.404
-497.610	-200.000	-0.006	0.177
-496.595	-125.825	-0.042	-0.006
-495.581	49.500	-0.153	-0.143
-494.566	-200.000	0.008	-0.073
-493.551	132.939	-0.157	-0.202
-492.537	734.172	0.082	-0.218
-491.522	22.719	0.137	0.112
-490.508	800.000	-0.081	0.235
-489.493	-200.000	0.050	-0.324
-488.478	-132.905	-0.090	-0.011
-487.464	-200.000	-0.001	0.444
-486.449	-200.000	-0.035	0.440
-485.435	637.148	0.074	-0.187
-484.420	-200.000	-0.022	0.237
-483.405	77.795	-0.035	0.037
-482.391	261.467	-0.054	0.093
-481.376	-35.331	-0.320	0.173
-480.362	-200.000	0.027	0.427
-479.347	81.930	0.304	0.329
-478.332	-117.340	0.246	0.044
-477.318	800.000	-0.013	-0.046
-476.303	-200.000	-0.033	0.225
-475.289	160.415	0.101	0.140
-474.274	-181.520	-0.048	-0.001
-473.259	258.108	0.052	-0.088
-472.245	-200.000	0.007	-0.224
-471.230	-34.107	-0.002	0.001
-470.216	-89.074	-0.305	-0.090
-469.201	245.353	-0.111	-0.186
-468.186	800.000	0.002	-0.006
-467.172	15.482	-0.389	0.304
-466.157	231.684	-0.036	-0.058
-465.143	-15.974	-0.185	0.117
-464.128	-200.000	-0.005	-0.121
-463.113	800.000	0.042	-0.170
-462.099	800.000	-0.041	-0.136
-461.084	489.037	-0.144	0.328
-460.070	-200.000	0.030	0.173
-459.055	27.866	-0.152	0.128
-458.040	-28.530	-0.192	0.110
-457.026	53.666	0.212	-0.202
-456.011	-63.242	-0.231	-0.095
-454.997	-26.877	0.061	0.036
-453.982	20.769	0.166	-0.133
-452.968	-200.000	0.001	0.160
-451.953	-80.180	-0.176	-0.059
-450.938	48.058	-0.124	0.116
-449.924	178.461	0.079	0.115
-448.909	-200.000	0.017	0.235
-447.895	-200.000	-0.018	0.094
-446.880	-199.929	-0.090	0.000
-445.865	320.986	0.059	-0.111
-444.851	-200.000	0.029	0.145
-443.836	418.738	0.147	0.312
-442.822	800.000	-0.027	-0.116
-441.807	-164.252	0.286	-0.013
-440.792	-51.435	-0.310	0.144
-439.778	247.496	-0.163	0.275
-438.763	-200.000	-0.017	0.179
-437.749	-54.009	-0.124	0.056
-436.734	124.804	0.145	0.182
-435.719	800.000	0.094	-0.329
-434.705	285.815	-0.214	-0.384
-433.690	-200.000	0.064	0.440
-432.676	-43.306	0.160	0.080
-431.661	26.647	0.129	-0.107
-430.646	-200.000	0.001	-0.097
-429.632	-114.155	-0.094	-0.018
-428.617	-121.713	0.116	0.019
-427.603	800.000	0.043	-0.132
-426.588	-200.000	0.005	-0.100
-425.573	201.296	-0.084	-0.129
-424.559	-76.191	0.215	-0.075
-423.544	15.069	0.149	0.116
-422.530	-200.000	0.004	0.168
-421.515	800.000	-0.072	-0.202
-420.500	-23.047	-0.204	-0.122
-419.486	-64.518	0.122	-0.049
-418.471	204.696	0.230	-0.355
-417.457	761.622	0.060	-0.161
-416.442	-78.856	0.254	-0.086
-415.428	-65.450	-0.269	-0.107
-414.413	-76.156	0.346	0.121
-413.398	216.945	0.054	-0.085
-412.384	-127.191	0.403	-0.059
-411.369	99.146	0.371	0.426
-410.355	78.848	0.093	0.099
-409.340	122.283	-0.110	-0.137
-408.325	448.005	-0.092	-0.202
-407.311	-30.085	-0.023	-0.013
-406.296	800.000	-0.081	0.262
-405.282	25.029	-0.206	0.170
-404.267	-92.203	0.250	0.070
-403.252	-49.958	0.104	0.049
-402.238	-200.000	0.004	0.036
-401.223	-36.327	0.129	0.069
-400.209	125.993	-0.179	0.225
-399.194	-20.277	0.139	0.085
-398.179	-200.000	0.002	-0.152
-397.165	-200.000	-0.014	0.149
-396.150	522.215	-0.123	0.286
-395.136	22.622	-0.275	0.223
-394.121	182.665	0.178	0.261
-393.106	-43.121	0.180	0.091
-392.092	10.847	0.190	-0.144
-391.077	-200.000	0.025	-0.257
-390.063	264.511	0.189	0.327
-389.048	-139.398	0.131	0.014
-388.033	174.361	0.033	0.047
-387.019	486.636	-0.157	-0.355
-386.004	-200.000	-0.054	0.242
-384.990	-78.495	0.055	0.019
-383.975	355.665	-0.091	0.179
-382.960	-200.000	-0.000	0.037
-381.946	-56.431	-0.114	-0.050
-380.931	-52.501	0.151	-0.069
-379.917	107.734	-0.124	-0.146
-378.902	50.955	-0.104	0.098
-377.888	-61.047	0.262	-0.110
-376.873	-14.494	0.216	-0.138
-375.858	454.419	-0.057	-0.125
-374.844	-200.000	0.063	0.343
-373.829	-73.246	0.308	-0.112
-372.815	-7.407	-0.081	0.054
-371.800	13.770	-0.142	-0.109
-370.785	-93.021	-0.326	0.090
-369.771	-137.361	-0.357	0.040
-368.756	-143.364	-0.215	0.020
-367.742	-93.373	0.186	0.051
-366.727	188.658	0.114	-0.169
-365.712	33.857	-0.196	0.169
-364.698	385.167	0.128	-0.262
-363.683	273.802	0.060	0.106
-362.669	800.000	-0.125	0.437
-361.654	325.346	-0.119	-0.225
-360.639	-56.600	-0.043	0.019
-359.625	-200.000	0.015	-0.299
-358.610	453.603	-0.027	-0.060
-357.596	-61.669	0.264	-0.110
-356.581	-200.000	0.016	-0.359
-355.566	20.550	0.289	0.232
-354.552	-74.701	-0.299	-0.107
-353.537	-136.954	-0.086	-0.010
-352.523	396.388	0.056	0.115
-351.508	146.597	-0.122	0.162
-350.493	58.060	0.128	0.124
-349.479	735.419	-0.061	0.162
-348.464	-11.555	-0.530	-0.345
-347.450	4.592	-0.245	-0.178
-346.435	153.828	-0.155	0.211
-345.420	-5.870	0.216	-0.146
-344.406	259.891	0.066	-0.114
-343.391	-200.000	0.034	0.279
-342.377	156.915	-0.132	-0.181
-341.362	800.000	0.067	-0.261
-340.348	-50.388	0.128	0.060
-339.333	800.000	-0.070	-0.251
-338.318	-89.710	-0.219	0.063
-337.304	-141.493	-0.197	-0.020
-336.289	-200.000	-0.013	-0.255
-335.275	190.251	0.142	-0.212
-334.260	-26.271	0.100	0.058
-333.245	-120.580	-0.397	0.067
-332.231	140.501	0.205	-0.268
-331.216	208.249	0.072	0.111
-330.202	-91.028	-0.183	0.052
-329.187	21.682	0.069	-0.056
-328.172	165.526	-0.100	-0.141
-327.158	15.850	0.545	-0.425
-326.143	-169.674	-0.303	-0.011
-325.129	800.000	-0.010	0.042
-324.114	-200.000	-0.020	-0.103
-323.099	-123.699	-0.260	-0.041
-322.085	67.173	0.260	-0.262
-321.070	-143.234	0.047	0.004
-320.056	45.871	0.162	0.148
-319.041	305.167	-0.032	0.059
-318.026	-78.943	-0.213	0.072
-317.012	423.735	-0.037	-0.079
-315.997	239.821	0.125	0.206
-314.983	276.231	-0.219	0.385
-313.968	-123.363	0.138	0.022
-312.953	-63.860	-0.282	-0.114
-311.939	-14.379	-0.143	0.091
-310.924	148.318	-0.125	-0.167
-309.910	-7.105	-0.326	-0.219
-308.895	103.678	-0.216	0.251
-307.880	87.202	0.170	-0.186
-306.866	-92.543	0.478	0.133
-305.851	-200.000	0.015	-0.077
-304.837	-200.000	0.024	0.203
-303.822	702.454	0.032	-0.083
-302.807	132.384	0.040	-0.051
-301.793	99.444	0.224	0.256
-300.778	16.840	-0.172	0.135
-299.764	-125.128	-0.287	-0.044
-298.749	-115.375	0.044	-0.008
-297.735	-78.799	0.127	-0.043
-296.720	85.483	0.275	-0.299
-295.705	252.556	0.112	0.188
-294.691	97.990	-0.126	0.144
-293.676	-30.646	-0.143	-0.080
-292.662	41.033	0.040	0.035
-291.647	-14.466	0.198	-0.126
-290.632	68.978	0.291	-0.296
-289.618	-106.306	-0.304	0.067
-288.603	-200.000	-0.045	-0.325
-287.589	-200.000	-0.046	-0.408
-286.574	-46.313	0.173	-0.084
-285.559	-200.000	0.009	-0.067
-284.545	-130.082	-0.460	0.062
-283.530	-133.007	0.189	-0.024
-282.516	-200.000	-0.006	-0.205
-281.501	-91.907	0.116	0.033
-280.486	-200.000	-0.035	0.197
-279.472	172.942	0.111	-0.158
-278.457	-0.885	0.103	0.072
-277.443	491.714	-0.088	-0.200
-276.428	179.932	0.061	-0.089
-275.413	-60.785	0.205	-0.086
-274.399	360.248	-0.102	0.202
-273.384	205.836	0.166	0.255
-272.370	321.422	0.085	0.160
-271.355	-200.000	0.036	0.304
-270.340	90.127	-0.104	0.115
-269.326	-23.024	0.129	0.077
-268.311	-181.731	-0.304	-0.006
-267.297	-87.236	0.099	0.030
-266.282	101.338	0.046	-0.053
-265.267	36.810	0.167	-0.145
-264.253	-103.640	-0.235	-0.054
-263.238	116.956	0.043	0.052
-262.224	-200.000	0.027	0.147
-261.209	800.000	-0.048	0.182
-260.195	-126.549	0.270	-0.040
-259.180	22.972	0.067	-0.055
-258.165	-69.957	0.135	-0.051
-257.151	-58.167	0.103	0.044
-256.136	-200.000	0.021	-0.321
-255.122	-99.635	0.318	-0.079
-254.107	-200.000	0.000	-0.017
-253.092	-121.412	-0.244	-0.040
-252.078	-36.512	0.133	-0.071
-251.063	-63.353	0.094	-0.038
-250.049	-200.000	-0.031	-0.387
-249.034	-200.000	-0.001	0.340
-248.019	156.637	-0.117	0.159
-247.005	-135.065	0.221	-0.026
-245.990	-122.944	-0.217	-0.035
-244.976	800.000	-0.128	0.411
-243.961	800.000	-0.053	0.189
-242.946	182.113	0.067	-0.098
-241.932	-200.000	-0.037	-0.214
-240.917	168.037	0.227	-0.319
-239.903	357.395	0.043	-0.084
-238.888	-129.808	-0.074	-0.010
-237.873	800.000	0.048	-0.205
-236.859	800.000	-0.087	-0.315
-235.844	-140.412	-0.228	-0.023
-234.830	-157.084	-0.280	0.017
-233.815	-66.050	0.244	-0.096
-232.800	-200.000	-0.033	0.172
-231.786	17.674	-0.346	0.272
-230.771	646.762	-0.168	0.423
-229.757	-200.000	0.073	0.368
-228.742	-22.952	-0.032	0.019
-227.727	-71.173	-0.171	-0.063
-226.713	-82.971	-0.280	-0.089
-225.698	800.000	-0.074	0.206
-224.684	101.776	0.017	0.019
-223.669	-139.762	0.167	-0.018
-222.655	800.000	0.133	0.476
-221.640	800.000	-0.040	0.150
-220.625	-200.000	-0.026	-0.150
-219.611	-200.000	0.011	-0.121
-218.596	-139.721	0.267	-0.028
-217.582	-44.799	-0.041	-0.020
-216.567	-200.000	0.000	0.218
-215.552	208.471	0.040	0.061
-214.538	-105.144	-0.258	0.058
-213.523	-71.461	-0.227	-0.084
-212.509	-110.300	0.229	-0.047
-211.494	-44.548	0.183	-0.090
-210.479	-85.880	-0.143	0.044
-209.465	68.135	-0.056	-0.057
-208.450	688.481	0.114	0.293
-207.436	470.883	-0.166	0.368
-206.421	225.747	-0.035	0.055
-205.406	20.743	-0.045	0.036
-204.392	145.382	-0.076	-0.100
-203.377	800.000	0.106	0.301
-202.363	115.589	0.015	-0.018
-201.348	46.849	0.200	-0.183
-200.333	-200.000	0.044	-0.286
-199.319	124.662	-0.009	0.011
-198.304	-53.066	-0.211	0.096
-197.290	-193.301	-0.103	-0.001
-196.275	213.480	0.071	-0.110
-195.260	-94.276	0.396	-0.107
-194.246	31.611	0.128	0.109
-193.231	-172.638	-0.216	0.007
-192.217	96.590	-0.121	-0.136
-191.202	800.000	0.102	-0.333
-190.187	241.171	0.048	-0.080
-189.173	-142.402	-0.332	-0.032
-188.158	177.391	0.106	-0.152
-187.144	39.744	-0.099	-0.087
-186.129	-34.383	-0.101	-0.054
-185.114	1.005	0.061	0.043
-184.100	191.223	0.064	-0.096
-183.085	-200.000	-0.159	0.001
-182.071	117.597	0.169	-0.205
-181.056	-200.000	0.029	-0.228
-180.042	32.706	-0.147	0.125
-179.027	-0.145	0.110	-0.077
-178.012	182.168	0.173	0.251
-176.998	-83.677	-0.249	0.078
-175.983	71.163	-0.181	0.184
-174.969	262.950	0.198	-0.339
-173.954	-186.964	0.388	0.005
-172.939	13.516	0.188	-0.143
-171.925	181.527	0.261	0.379
-170.910	52.591	0.296	-0.278
-169.896	-200.000	-0.106	0.000
-168.881	-103.861	-0.314	0.072
-167.866	97.394	-0.136	0.154
-166.852	-152.999	0.220	0.015
-165.837	-200.000	-0.003	-0.027
-164.823	-36.334	-0.108	-0.057
-163.808	800.000	-0.037	0.129
-162.793	-200.000	0.075	0.364
-161.779	166.537	0.132	0.184
-160.764	-119.765	0.258	-0.044
-159.750	91.511	0.162	-0.180
-158.735	-61.255	-0.125	-0.052
-157.720	-78.213	0.159	-0.054
-156.706	93.639	-0.028	0.031
-155.691	772.628	0.076	-0.204
-154.677	800.000	-0.028	-0.113
-153.662	104.980	-0.139	0.161
-152.647	-113.336	-0.189	0.036
-151.633	379.088	-0.033	0.066
-150.618	-115.797	0.173	0.032
-149.604	-200.000	-0.052	0.260
-148.589	-5.809	0.131	-0.088
-147.574	-200.000	-0.032	-0.154
-146.560	-141.558	0.269	-0.027
-145.545	-200.000	0.010	0.132
-144.531	391.210	0.132	0.270
-143.516	-126.634	-0.202	-0.029
-142.502	102.591	-0.198	-0.228
-141.487	-50.993	0.286	-0.132
-140.472	148.605	-0.059	-0.078
-139.458	8.834	-0.120	0.089
-138.443	28.728	-0.061	0.051
-137.429	-77.648	0.137	-0.046
-136.414	512.229	-0.141	-0.324
-135.399	154.460	-0.191	-0.258
-134.385	800.000	-0.057	0.201
-133.370	-166.734	-0.141	0.006
-132.356	-76.036	-0.230	-0.080
-131.341	-200.000	-0.031	-0.214
-130.326	-7.649	-0.065	-0.043
-129.312	-0.348	0.079	-0.055
-128.297	-200.000	-0.059	0.386
-127.283	800.000	0.100	0.309
-126.268	-200.000	-0.011	0.087
-125.253	318.210	0.092	0.171
-124.239	-118.837	-0.141	0.024
-123.224	559.343	0.040	-0.095
