DTS Sentinel unit serial number:	SN413079Multiplexer serial number:	ORYXHardware model number:	OX4-SRSoftware version number:	ORYX F/W v4.00 Oryx Data Collector v3.7.2.0data status	okinstallation	princeton_trtdifferential loss correction	single-endedforward channel	channel 3reverse channel	N/Adate	2019/09/11time	12:18:10forward acquisition time	60.00reverse acquisition time	0.00gamma	496.2192k internal	0.2294k external	0.2294temperature offset calibration	0.9932default loss term (dB/km)	0.3790temperature slope calibration	1.0000multiplexer offset coefficient	1.0000multiplexer slope coefficient	1.0000fibre end	0.00T internal ref (°C)	40.00T ext. ref 1 (°C)	0.20T ext. ref 2 (°C)	38.26length (m)	temperature (°C)	Stokes	anti-Stokes-747.200	351.428	0.075	-0.151
-746.185	-150.927	0.127	0.010
-745.171	-200.000	0.050	-0.344
-744.156	-200.000	-0.017	0.167
-743.142	-22.346	0.198	0.123
-742.127	100.099	-0.148	-0.175
-741.112	676.747	-0.073	-0.193
-740.098	-137.590	-0.197	0.023
-739.083	-76.677	0.301	0.108
-738.069	197.179	-0.081	-0.127
-737.054	-118.527	-0.269	0.049
-736.039	-155.146	-0.289	0.019
-735.025	73.883	-0.220	-0.236
-734.010	-64.762	-0.132	0.054
-732.996	154.226	0.134	-0.189
-731.981	156.225	0.122	0.172
-730.966	-200.000	0.007	-0.047
-729.952	-93.169	-0.182	0.052
-728.937	35.347	-0.191	-0.171
-727.923	800.000	-0.067	0.214
-726.908	39.751	0.098	-0.090
-725.894	195.048	-0.037	-0.057
-724.879	311.533	-0.109	-0.209
-723.864	-132.513	-0.539	-0.071
-722.850	-79.191	-0.055	0.019
-721.835	-44.495	0.176	0.090
-720.821	-95.248	-0.323	0.089
-719.806	-152.680	-0.284	0.021
-718.791	130.685	0.052	-0.068
-717.777	62.381	-0.219	-0.224
-716.762	-47.047	-0.029	0.014
-715.748	-27.178	0.035	-0.021
-714.733	-23.832	0.198	0.121
-713.718	-200.000	0.030	0.269
-712.704	194.086	-0.212	0.327
-711.689	-128.436	0.087	-0.013
-710.675	-200.000	0.063	-0.355
-709.660	-76.250	0.112	-0.040
-708.645	-25.821	0.083	-0.050
-707.631	-44.981	-0.188	0.096
-706.616	-99.320	0.075	0.019
-705.602	62.833	0.217	-0.221
-704.587	800.000	0.025	0.074
-703.572	800.000	-0.108	0.352
-702.558	-56.767	0.419	-0.189
-701.543	40.206	0.156	-0.144
-700.529	-200.000	-0.063	-0.420
-699.514	-90.243	0.219	-0.065
-698.499	587.002	-0.081	-0.204
-697.485	-200.000	-0.012	-0.208
-696.470	79.568	-0.126	-0.138
-695.456	-158.495	-0.439	-0.026
-694.441	-61.346	0.124	-0.053
-693.426	109.087	-0.068	-0.083
-692.412	-47.780	-0.256	0.127
-691.397	25.397	0.058	0.049
-690.383	800.000	-0.119	-0.343
-689.368	-200.000	0.038	-0.357
-688.354	22.884	-0.034	0.029
-687.339	191.258	-0.160	0.246
-686.324	37.409	0.142	0.128
-685.310	800.000	-0.030	-0.112
-684.295	-196.196	0.220	-0.002
-683.281	62.543	0.066	-0.067
-682.266	-128.149	0.263	0.038
-681.251	15.029	-0.153	0.122
-680.237	-174.529	-0.099	-0.003
-679.222	-200.000	0.044	0.600
-678.208	20.338	0.277	0.229
-677.193	376.104	0.043	-0.090
-676.178	-169.247	-0.163	-0.006
-675.164	-200.000	-0.003	-0.093
-674.149	-63.901	-0.264	-0.110
-673.135	403.390	0.020	0.044
-672.120	-200.000	-0.014	-0.386
-671.105	71.781	-0.379	-0.402
-670.091	-200.000	-0.044	0.252
-669.076	210.894	0.148	-0.237
-668.062	-59.619	0.330	-0.144
-667.047	800.000	0.037	0.121
-666.032	-120.464	-0.250	-0.043
-665.018	134.089	0.095	-0.126
-664.003	127.175	0.167	-0.216
-662.989	762.551	-0.111	0.307
-661.974	-75.794	0.016	0.006
-660.959	16.808	-0.374	0.302
-659.945	-195.960	0.401	0.003
-658.930	800.000	0.069	-0.281
-657.916	-200.000	-0.014	0.217
-656.901	800.000	-0.105	0.339
-655.886	-44.432	-0.143	0.073
-654.872	95.753	-0.060	0.070
-653.857	-128.092	-0.212	0.031
-652.843	393.708	-0.085	0.179
-651.828	-17.867	0.152	-0.097
-650.814	-94.611	-0.373	0.103
-649.799	607.194	-0.064	-0.163
-648.784	36.119	0.127	0.114
-647.770	-44.688	-0.226	-0.115
-646.755	183.629	-0.273	-0.411
-645.741	348.950	0.092	0.184
-644.726	-150.969	-0.109	-0.008
-643.711	-59.781	-0.236	-0.103
-642.697	-82.480	0.183	-0.061
-641.682	-200.000	0.053	-0.431
-640.668	20.913	-0.168	-0.138
-639.653	71.809	-0.189	-0.200
-638.638	27.994	-0.133	-0.114
-637.624	227.907	-0.295	-0.489
-636.609	133.258	0.161	-0.212
-635.595	-200.000	0.027	0.173
-634.580	-106.058	-0.264	0.061
-633.565	-200.000	0.006	-0.115
-632.551	-92.843	-0.296	0.084
-631.536	664.082	-0.092	0.241
-630.522	47.436	0.225	-0.213
-629.507	112.908	0.106	-0.131
-628.492	235.082	-0.110	-0.185
-627.478	47.010	0.232	0.219
-626.463	17.976	-0.282	-0.229
-625.449	107.291	-0.142	-0.172
-624.434	-96.674	0.199	0.053
-623.419	780.882	0.078	0.217
-622.405	-200.000	0.055	0.300
-621.390	56.788	0.201	0.199
-620.376	-108.215	0.251	0.055
-619.361	-156.779	0.271	0.017
-618.346	-200.000	0.004	-0.091
-617.332	-13.191	0.145	-0.096
-616.317	-67.110	-0.325	0.130
-615.303	800.000	-0.122	-0.406
-614.288	313.574	0.047	-0.090
-613.273	-200.000	0.061	0.501
-612.259	-105.229	-0.407	0.095
-611.244	-200.000	-0.022	0.236
-610.230	21.730	-0.170	0.141
-609.215	25.616	0.073	-0.061
-608.201	-200.000	0.063	0.328
-607.186	-200.000	0.012	0.333
-606.171	283.956	-0.224	-0.410
-605.157	33.698	0.281	-0.249
-604.142	-200.000	0.001	-0.014
-603.128	-124.996	0.108	-0.017
-602.113	214.900	-0.173	-0.279
-601.098	68.301	-0.209	0.218
-600.084	-200.000	0.078	0.453
-599.069	-38.499	0.202	-0.108
-598.055	-76.606	-0.450	0.161
-597.040	390.438	0.153	-0.322
-596.025	-99.532	-0.086	0.022
-595.011	-143.210	-0.205	-0.020
-593.996	-84.468	-0.203	0.065
-592.982	-134.644	0.281	-0.035
-591.967	-200.000	-0.018	0.347
-590.952	15.110	0.114	0.091
-589.938	800.000	-0.134	0.434
-588.923	-200.000	-0.025	-0.121
-587.909	87.022	-0.091	0.102
-586.894	-19.862	-0.201	0.126
-585.879	19.032	-0.361	-0.294
-584.865	-89.354	0.189	-0.057
-583.850	-200.000	0.040	-0.250
-582.836	-200.000	-0.003	-0.065
-581.821	-115.398	0.360	-0.069
-580.806	4.020	0.068	0.051
-579.792	-200.000	-0.018	-0.136
-578.777	20.600	-0.123	-0.101
-577.763	129.140	0.203	0.264
-576.748	-105.167	-0.293	0.068
-575.733	-200.000	-0.014	-0.116
-574.719	-73.070	0.194	0.072
-573.704	-16.385	0.207	-0.133
-572.690	510.622	-0.021	-0.051
-571.675	-7.675	0.177	-0.121
-570.661	-200.000	0.035	0.256
-569.646	407.144	-0.187	0.402
-568.631	-33.297	0.227	-0.128
-567.617	-120.237	0.141	-0.024
-566.602	418.964	-0.149	-0.324
-565.588	354.166	0.115	-0.233
-564.573	-40.670	-0.268	-0.141
-563.558	-74.303	0.296	0.108
-562.544	-106.291	-0.365	0.083
-561.529	-79.511	-0.304	0.104
-560.515	-92.530	0.383	0.109
-559.500	288.569	-0.146	-0.268
-558.485	203.693	-0.026	-0.042
-557.471	-200.000	-0.048	-0.411
-556.456	800.000	0.040	0.168
-555.442	-92.657	-0.256	-0.073
-554.427	-77.097	-0.029	0.010
-553.412	-97.300	0.342	0.090
-552.398	-28.410	-0.311	-0.182
-551.383	231.629	0.156	-0.260
-550.369	-39.844	-0.402	-0.213
-549.354	-129.838	-0.301	-0.042
-548.339	-30.792	0.140	-0.080
-547.325	32.336	-0.021	0.019
-546.310	-45.967	0.211	-0.106
-545.296	-76.899	0.117	0.042
-544.281	21.938	-0.246	-0.203
-543.266	-126.517	0.075	-0.011
-542.252	-92.670	-0.355	-0.101
-541.237	-53.005	-0.259	-0.121
-540.223	-152.479	0.237	0.017
-539.208	-48.469	0.246	0.120
-538.193	800.000	0.071	0.213
-537.179	96.925	0.190	0.220
-536.164	-96.924	0.331	0.088
-535.150	94.699	-0.099	-0.115
-534.135	-200.000	0.011	0.144
-533.121	21.809	0.028	-0.023
-532.106	669.197	0.037	-0.098
-531.091	723.096	0.032	-0.086
-530.077	-10.901	0.116	-0.078
-529.062	-68.874	0.213	0.083
-528.048	800.000	-0.014	0.053
-527.033	-26.220	0.246	-0.147
-526.018	-200.000	-0.033	0.318
-525.004	458.688	0.110	-0.247
-523.989	-136.820	-0.503	-0.059
-522.975	-11.678	-0.046	-0.031
-521.960	-105.974	0.297	-0.068
-520.945	10.871	0.224	0.173
-519.931	-200.000	0.031	-0.181
-518.916	-67.415	-0.075	0.030
-517.902	266.884	0.143	-0.254
-516.887	114.575	-0.037	0.045
-515.872	-200.000	0.001	-0.226
-514.858	21.833	0.139	0.115
-513.843	-73.069	0.228	0.085
-512.829	-200.000	-0.044	-0.238
-511.814	-54.304	-0.132	-0.061
-510.799	63.020	0.117	-0.119
-509.785	-200.000	0.026	0.435
-508.770	155.658	0.078	0.109
-507.756	-112.060	0.253	0.052
-506.741	-103.714	-0.094	0.022
-505.726	-200.000	0.003	0.019
-504.712	-131.738	-0.248	0.033
-503.697	776.213	-0.118	-0.325
-502.683	-39.106	-0.169	-0.090
-501.668	205.402	-0.116	0.183
-500.653	82.560	-0.312	-0.344
-499.639	180.176	0.074	-0.109
-498.624	-70.850	-0.245	0.094
-497.610	-21.648	-0.235	-0.145
-496.595	-200.000	0.067	-0.320
-495.581	-200.000	-0.011	0.058
-494.566	-54.714	0.337	0.154
-493.551	-90.823	-0.174	0.051
-492.537	-85.887	0.254	-0.080
-491.522	132.205	-0.181	0.236
-490.508	-82.203	-0.187	-0.062
-489.493	-11.519	-0.207	-0.138
-488.478	-200.000	-0.031	-0.257
-487.464	13.525	0.153	-0.120
-486.449	-200.000	0.257	0.000
-485.435	-135.026	-0.298	-0.036
-484.420	-3.257	-0.132	-0.093
-483.405	51.396	0.065	0.063
-482.391	800.000	0.046	-0.184
-481.376	634.898	0.096	0.248
-480.362	2.938	0.204	0.150
-479.347	38.188	-0.195	-0.175
-478.332	-126.548	0.357	0.054
-477.318	-136.089	0.217	-0.026
-476.303	-200.000	-0.030	0.150
-475.289	140.476	-0.267	0.357
-474.274	334.890	0.046	-0.091
-473.259	209.504	-0.149	-0.236
-472.245	67.846	-0.136	-0.141
-471.230	-200.000	0.003	-0.159
-470.216	-95.119	0.251	-0.068
-469.201	-70.865	0.109	-0.042
-468.186	-200.000	-0.133	0.000
-467.172	-138.362	0.126	-0.014
-466.157	400.419	-0.103	0.218
-465.143	-66.678	0.133	0.053
-464.128	-200.000	0.064	-0.360
-463.113	-68.374	-0.147	-0.058
-462.099	309.523	-0.099	0.187
-461.084	-200.000	0.059	0.445
-460.070	-58.628	0.208	0.091
-459.055	-200.000	-0.031	-0.319
-458.040	-200.000	0.022	0.364
-457.026	800.000	-0.041	0.152
-456.011	65.755	0.124	-0.127
-454.997	233.059	-0.142	0.236
-453.982	-96.969	-0.326	-0.086
-452.968	-200.000	0.022	-0.134
-451.953	35.907	0.124	-0.110
-450.938	70.821	0.117	0.123
-449.924	8.928	-0.171	-0.131
-448.909	-27.327	0.028	-0.017
-447.895	800.000	0.061	0.267
-446.880	-117.984	0.292	0.053
-445.865	-200.000	-0.010	-0.117
-444.851	120.480	0.071	-0.089
-443.836	-136.971	0.151	0.018
-442.822	800.000	0.034	-0.105
-441.807	339.705	-0.122	-0.241
-440.792	-91.554	0.104	-0.030
-439.778	-200.000	0.014	0.277
-438.763	-27.817	0.145	0.085
-437.749	246.250	-0.176	0.299
-436.734	-180.411	0.321	0.007
-435.719	46.549	0.066	0.062
-434.705	-92.819	0.050	-0.014
-433.690	800.000	0.023	-0.086
-432.676	-43.771	0.096	0.049
-431.661	-67.746	-0.211	0.084
-430.646	11.520	-0.217	-0.168
-429.632	185.032	-0.129	0.194
-428.617	-60.215	0.364	0.157
-427.603	-133.022	0.249	-0.032
-426.588	324.572	0.094	0.181
-425.573	-200.000	-0.052	-0.238
-424.559	-200.000	0.011	0.168
-423.544	67.495	0.144	0.148
-422.530	-200.000	-0.009	0.151
-421.515	-162.724	-0.224	-0.011
-420.500	19.363	0.094	0.076
-419.486	132.412	-0.071	-0.093
-418.471	-200.000	0.038	0.299
-417.457	800.000	0.038	-0.158
-416.442	-127.885	0.129	0.019
-415.428	-200.000	-0.017	0.233
-414.413	-37.863	-0.357	-0.192
-413.398	-200.000	0.003	0.083
-412.384	-200.000	0.045	0.411
-411.369	-200.000	-0.002	-0.207
-410.355	451.787	-0.059	0.131
-409.340	-108.214	-0.125	0.027
-408.325	800.000	-0.063	-0.211
-407.311	800.000	-0.066	0.242
-406.296	40.403	-0.091	0.083
-405.282	27.274	-0.167	-0.141
-404.267	-131.602	0.292	-0.039
-403.252	-185.498	0.195	0.003
-402.238	-34.890	-0.132	0.073
-401.223	800.000	0.090	-0.364
-400.209	-12.549	-0.107	0.070
-399.194	103.752	-0.146	0.173
-398.179	-120.033	-0.045	-0.008
-397.165	800.000	0.026	0.109
-396.150	55.851	-0.102	-0.100
-395.136	164.272	0.065	-0.092
-394.121	-200.000	0.023	-0.202
-393.106	48.566	-0.227	0.214
-392.092	-104.608	0.555	-0.129
-391.077	-200.000	-0.011	-0.206
-390.063	-8.751	-0.093	-0.063
-389.048	65.653	-0.160	0.163
-388.033	218.688	-0.022	-0.036
-387.019	712.580	-0.051	-0.135
-386.004	154.873	0.099	0.137
-384.990	-11.659	0.062	0.041
-383.975	289.486	0.026	0.048
-382.960	370.698	0.073	-0.148
-381.946	572.519	-0.072	-0.176
-380.931	-68.827	0.087	0.034
-379.917	224.965	-0.265	-0.432
-378.902	530.797	-0.171	-0.407
-377.888	-161.946	0.519	0.026
-376.873	-77.051	0.419	0.147
-375.858	-200.000	-0.006	0.182
-374.844	245.784	-0.030	-0.050
-373.829	280.523	-0.035	0.063
-372.815	-200.000	0.037	0.171
-371.800	202.452	-0.041	-0.063
-370.785	380.709	-0.028	-0.058
-369.771	-47.783	-0.208	0.102
-368.756	-42.356	-0.406	-0.209
-367.742	-200.000	-0.018	-0.306
-366.727	-126.260	0.218	0.033
-365.712	-0.500	0.094	0.067
-364.698	-200.000	0.074	-0.361
-363.683	505.739	0.069	0.161
-362.669	800.000	-0.034	0.097
-361.654	-200.000	0.032	0.274
-360.639	-200.000	-0.055	-0.295
-359.625	-104.716	-0.291	-0.067
-358.610	-56.225	0.477	0.214
-357.596	418.719	0.082	0.177
-356.581	32.637	-0.267	-0.233
-355.566	800.000	0.069	-0.245
-354.552	49.329	0.143	0.135
-353.537	15.379	-0.159	0.126
-352.523	11.247	0.398	0.307
-351.508	125.239	0.237	-0.301
-350.493	-9.250	-0.160	0.108
-349.479	-108.790	0.157	0.034
-348.464	-29.767	-0.243	0.139
-347.450	106.760	0.100	0.119
-346.435	-27.153	0.119	-0.070
-345.420	-60.031	0.139	-0.060
-344.406	800.000	-0.071	0.262
-343.391	-81.474	-0.320	-0.106
-342.377	110.237	0.178	-0.215
-341.362	55.598	0.160	-0.156
-340.348	-200.000	-0.005	0.165
-339.333	-84.835	-0.285	0.090
-338.318	-37.856	-0.182	0.097
-337.304	-55.419	0.396	0.179
-336.289	-200.000	0.018	-0.087
-335.275	132.683	-0.188	0.244
-334.260	-59.067	-0.138	-0.060
-333.245	92.845	0.160	0.181
-332.231	-24.262	0.532	0.320
-331.216	-200.000	-0.013	0.200
-330.202	292.168	-0.065	-0.119
-329.187	132.260	0.040	-0.051
-328.172	66.516	0.295	-0.302
-327.158	-200.000	-0.018	-0.087
-326.143	-3.875	0.138	-0.097
-325.129	371.266	0.031	-0.063
-324.114	10.794	0.176	0.135
-323.099	34.199	-0.047	0.041
-322.085	18.369	-0.098	0.079
-321.070	-200.000	0.023	-0.369
-320.056	-88.734	-0.303	-0.091
-319.041	-64.052	0.162	-0.067
-318.026	-175.593	0.181	0.005
-317.012	130.435	-0.177	-0.228
-315.997	-45.841	-0.164	0.082
-314.983	-127.632	-0.193	0.028
-313.968	-200.000	-0.048	-0.346
-312.953	344.569	-0.025	-0.049
-311.939	49.456	0.219	-0.207
-310.924	4.200	0.225	0.166
-309.910	121.946	0.146	-0.183
-308.895	42.981	0.043	-0.039
-307.880	422.783	0.077	0.167
-306.866	-163.820	0.194	-0.009
-305.851	753.648	0.153	-0.415
-304.837	-95.661	0.267	-0.072
-303.822	42.167	-0.316	-0.288
-302.807	163.902	-0.284	0.401
-301.793	-64.581	0.263	-0.107
-300.778	-81.492	0.168	-0.056
-299.764	-31.786	-0.262	-0.148
-298.749	800.000	-0.051	0.193
-297.735	405.333	0.015	0.032
-296.720	14.039	0.253	0.198
-295.705	393.766	0.067	-0.140
-294.691	-200.000	0.104	0.493
-293.676	-181.821	0.187	0.004
-292.662	179.631	-0.048	-0.071
-291.647	-200.000	0.014	0.161
-290.632	-200.000	-0.000	-0.043
-289.618	-36.399	0.360	-0.195
-288.603	-200.000	-0.000	-0.115
-287.589	800.000	-0.024	-0.070
-286.574	-200.000	0.017	0.347
-285.559	359.137	-0.052	-0.105
-284.545	-144.449	0.213	-0.020
-283.530	-88.077	0.291	-0.088
-282.516	-200.000	0.057	0.376
-281.501	-45.668	0.384	-0.191
-280.486	2.889	0.264	0.192
-279.472	-113.100	-0.172	0.034
-278.457	-110.621	-0.249	0.052
-277.443	384.727	0.155	-0.320
-276.428	55.659	0.027	-0.026
-275.413	509.296	-0.030	0.071
-274.399	115.436	-0.168	-0.206
-273.384	800.000	0.091	0.378
-272.370	-1.300	-0.440	-0.312
-271.355	-2.143	0.213	-0.150
-270.340	-87.548	-0.119	-0.036
-269.326	452.871	0.116	0.257
-268.311	260.414	-0.157	0.272
-267.297	800.000	-0.037	0.106
-266.282	-191.388	-0.372	0.004
-265.267	82.628	-0.277	0.302
-264.253	-62.322	0.057	-0.024
-263.238	-25.981	-0.122	0.072
-262.224	67.481	0.085	-0.087
-261.209	-167.123	0.272	-0.011
-260.195	0.600	0.255	0.183
-259.180	800.000	-0.071	0.246
-258.165	103.687	-0.122	-0.144
-257.151	800.000	0.102	0.316
-256.136	18.358	0.211	-0.169
-255.122	800.000	0.004	-0.018
-254.107	-193.879	-0.291	0.002
-253.092	69.026	-0.255	0.263
-252.078	71.911	-0.184	0.192
-251.063	-42.815	-0.209	0.106
-250.049	-43.142	-0.158	0.080
-249.034	-155.472	-0.276	-0.018
-248.019	-200.000	0.012	0.427
-247.005	-200.000	-0.035	0.301
-245.990	-200.000	0.019	0.178
-244.976	-36.381	0.155	-0.084
-243.961	32.388	0.082	-0.071
-242.946	-40.075	0.044	-0.023
-241.932	-200.000	-0.084	-0.458
-240.917	81.333	-0.243	0.264
-239.903	-200.000	0.013	-0.143
-238.888	800.000	0.082	0.287
-237.873	115.201	0.114	0.140
-236.859	79.358	-0.236	0.253
-235.844	800.000	-0.119	0.353
-234.830	800.000	0.084	0.332
-233.815	429.722	0.085	0.184
-232.800	191.536	0.086	0.129
-231.786	-26.194	0.155	-0.091
-230.771	-200.000	0.067	0.365
-229.757	-111.765	0.193	0.039
-228.742	-79.813	-0.073	0.025
-227.727	81.297	0.045	-0.048
-226.713	-162.059	-0.089	0.004
-225.698	-95.275	0.110	-0.030
-224.684	-200.000	0.035	-0.253
-223.669	-200.000	-0.034	0.379
-222.655	394.006	0.079	0.164
-221.640	237.541	-0.185	-0.308
-220.625	-157.534	-0.076	-0.005
-219.611	800.000	-0.077	-0.307
-218.596	186.146	-0.215	-0.321
-217.582	-183.433	-0.217	-0.004
-216.567	-76.045	0.071	0.025
-215.552	79.820	0.189	-0.203
-214.538	158.116	0.034	-0.047
-213.523	800.000	0.041	-0.178
-212.509	111.353	-0.071	-0.086
-211.494	247.818	-0.022	-0.038
-210.479	519.767	0.039	-0.092
-209.465	-147.589	0.057	-0.005
-208.450	105.083	-0.095	0.112
-207.436	-200.000	0.052	-0.415
-206.421	-200.000	0.071	0.366
-205.406	-66.476	-0.246	-0.098
-204.392	-200.000	-0.000	0.143
-203.377	-3.654	0.255	0.177
-202.363	-41.975	0.176	-0.090
-201.348	-152.503	-0.106	0.008
-200.333	-57.680	-0.403	-0.177
-199.319	-12.733	-0.114	-0.074
-198.304	107.105	-0.099	-0.118
-197.290	285.140	-0.035	-0.063
-196.275	581.585	-0.111	0.273
-195.260	-80.003	0.262	-0.088
-194.246	20.843	0.200	0.162
-193.231	-105.106	-0.157	0.036
-192.217	42.891	0.159	0.145
-191.202	-89.937	-0.223	-0.065
-190.187	-200.000	-0.003	0.278
-189.173	-33.937	0.294	0.162
-188.158	-200.000	-0.017	-0.176
-187.144	-70.846	-0.402	-0.151
-186.129	-41.378	-0.056	-0.029
-185.114	562.386	0.156	-0.377
-184.100	-200.000	0.012	-0.151
-183.085	800.000	0.045	-0.152
-182.071	-137.119	-0.200	0.023
-181.056	99.866	-0.121	0.141
-180.042	13.622	0.097	-0.075
-179.027	-114.445	0.081	0.015
-178.012	-200.000	-0.030	-0.191
-176.998	-141.503	0.183	-0.018
-175.983	381.173	-0.110	0.226
-174.969	95.418	-0.234	-0.266
-173.954	-145.201	-0.147	-0.013
-172.939	800.000	-0.030	-0.118
-171.925	419.626	0.084	0.181
-170.910	190.824	-0.208	0.312
-169.896	-133.800	-0.178	0.022
-168.881	57.919	0.098	0.096
-167.866	-200.000	0.030	0.150
-166.852	32.752	-0.229	0.198
-165.837	343.811	0.044	0.086
-164.823	-104.845	-0.209	0.048
-163.808	-184.276	0.146	0.002
-162.793	-200.000	-0.024	-0.255
-161.779	800.000	0.040	-0.151
-160.764	-21.268	0.069	0.042
-159.750	-126.583	0.225	0.033
-158.735	-120.907	0.134	0.022
-157.720	110.145	0.167	0.200
-156.706	-4.291	-0.227	0.157
-155.691	-45.972	0.163	0.080
-154.677	-200.000	-0.006	0.220
-153.662	-200.000	-0.020	0.108
-152.647	69.111	-0.283	-0.290
-151.633	31.029	-0.279	-0.239
-150.618	-62.346	-0.269	-0.112
-149.604	25.722	-0.137	-0.114
-148.589	536.231	0.034	0.080
-147.574	-200.000	0.010	0.331
-146.560	204.914	-0.188	-0.291
-145.545	-93.081	-0.085	0.024
-144.531	-117.596	0.098	0.018
-143.516	775.664	-0.093	0.254
-142.502	314.297	-0.109	0.205
-141.487	-200.000	-0.004	-0.241
-140.472	800.000	0.035	-0.134
-139.458	-200.000	0.003	-0.197
-138.443	100.058	0.147	0.171
-137.429	-2.470	-0.267	-0.187
-136.414	-59.525	-0.094	-0.040
-135.399	-84.286	-0.135	-0.043
-134.385	800.000	-0.078	0.218
-133.370	78.760	-0.141	-0.151
-132.356	800.000	0.145	-0.399
-131.341	800.000	-0.073	-0.288
-130.326	-62.760	0.105	0.044
-129.312	-200.000	-0.001	-0.101
-128.297	414.975	0.044	0.093
-127.283	-12.464	-0.130	-0.085
-126.268	407.068	-0.163	-0.343
-125.253	-114.853	-0.198	0.038
-124.239	-200.000	-0.007	-0.250
-123.224	-113.430	0.115	0.023
-122.210	-99.123	0.063	0.016
-121.195	-56.376	0.165	0.073
