DTS Sentinel unit serial number:	SN413079Multiplexer serial number:	ORYXHardware model number:	OX4-SRSoftware version number:	ORYX F/W v4.00 Oryx Data Collector v3.7.2.0data status	okinstallation	princeton_trtdifferential loss correction	single-endedforward channel	channel 3reverse channel	N/Adate	2019/09/11time	14:46:11forward acquisition time	60.00reverse acquisition time	0.00gamma	496.2192k internal	0.2290k external	0.2290temperature offset calibration	0.9980default loss term (dB/km)	0.3790temperature slope calibration	1.0000multiplexer offset coefficient	1.0000multiplexer slope coefficient	1.0000fibre end	0.00T internal ref (°C)	42.45T ext. ref 1 (°C)	0.94T ext. ref 2 (°C)	37.86length (m)	temperature (°C)	Stokes	anti-Stokes-747.200	-200.000	0.003	0.209
-746.185	-116.587	-0.146	0.028
-745.171	390.694	-0.148	-0.314
-744.156	-46.550	0.227	-0.114
-743.142	-8.542	-0.158	-0.109
-742.127	108.667	0.201	0.246
-741.112	-78.183	-0.062	0.022
-740.098	-87.666	0.058	-0.018
-739.083	219.652	0.040	-0.066
-738.069	-166.743	-0.367	0.016
-737.054	-143.158	-0.360	-0.035
-736.039	324.859	0.040	-0.079
-735.025	-200.000	-0.019	0.225
-734.010	73.669	-0.043	-0.046
-732.996	-141.733	-0.155	-0.016
-731.981	-200.000	-0.039	-0.358
-730.966	-51.124	-0.387	-0.186
-729.952	174.612	-0.069	-0.103
-728.937	609.537	-0.013	0.033
-727.923	249.184	-0.051	0.088
-726.908	689.876	-0.074	-0.200
-725.894	-200.000	-0.021	-0.238
-724.879	-43.686	-0.272	-0.141
-723.864	311.703	-0.061	0.118
-722.850	800.000	-0.033	-0.094
-721.835	306.384	-0.110	-0.210
-720.821	-200.000	0.019	-0.222
-719.806	94.060	-0.109	-0.126
-718.791	-84.443	0.383	-0.124
-717.777	-110.163	-0.160	-0.034
-716.762	46.245	-0.149	0.142
-715.748	46.342	-0.343	-0.325
-714.733	86.226	0.253	0.285
-713.718	-145.408	-0.106	-0.010
-712.704	77.417	-0.060	0.065
-711.689	50.365	0.220	0.213
-710.675	89.470	-0.153	-0.174
-709.660	-59.899	-0.235	0.103
-708.645	-165.257	-0.137	-0.006
-707.631	800.000	0.105	-0.315
-706.616	-200.000	0.066	-0.452
-705.602	-71.034	0.115	-0.044
-704.587	-200.000	0.010	0.140
-703.572	-200.000	-0.028	-0.268
-702.558	-105.741	0.468	0.108
-701.543	800.000	-0.066	0.191
-700.529	-54.948	-0.397	0.183
-699.514	-156.507	-0.195	0.012
-698.499	-200.000	-0.005	-0.252
-697.485	-148.120	-0.196	-0.017
-696.470	-1.909	-0.074	0.054
-695.456	-113.430	-0.205	0.041
-694.441	-200.000	0.024	0.237
-693.426	29.648	0.189	0.165
-692.412	414.049	0.112	-0.244
-691.397	78.378	0.126	-0.138
-690.383	4.843	0.128	0.096
-689.368	-200.000	-0.016	0.117
-688.354	-98.743	-0.312	-0.081
-687.339	59.986	0.079	-0.080
-686.324	-149.358	0.170	0.014
-685.310	-200.000	0.036	-0.320
-684.295	440.730	-0.240	-0.537
-683.281	63.736	-0.062	-0.064
-682.266	-154.665	-0.195	-0.013
-681.251	-34.529	0.112	-0.063
-680.237	-88.499	0.175	0.053
-679.222	-82.704	-0.214	-0.071
-678.208	-116.023	-0.393	-0.075
-677.193	264.358	0.145	-0.258
-676.178	-86.802	-0.155	0.049
-675.164	-136.696	-0.472	0.056
-674.149	-183.182	0.227	-0.004
-673.135	144.419	-0.151	-0.206
-672.120	-40.281	-0.060	-0.032
-671.105	-32.233	-0.126	-0.072
-670.091	-126.821	0.491	-0.074
-669.076	-116.875	-0.089	0.017
-668.062	614.165	0.026	-0.066
-667.047	88.621	0.083	0.094
-666.032	82.725	0.238	0.264
-665.018	12.745	0.155	0.122
-664.003	370.401	0.078	-0.162
-662.989	-200.000	-0.007	0.088
-661.974	800.000	-0.023	-0.065
-660.959	-67.801	-0.316	-0.126
-659.945	315.872	0.089	-0.172
-658.930	54.908	-0.143	-0.141
-657.916	-25.791	-0.277	-0.167
-656.901	800.000	-0.064	0.182
-655.886	120.005	0.204	0.259
-654.872	112.457	-0.228	-0.281
-653.857	0.651	0.236	0.172
-652.843	-122.793	0.393	-0.065
-651.828	-200.000	-0.038	0.170
-650.814	-156.562	-0.451	-0.029
-649.799	-200.000	-0.019	0.207
-648.784	16.764	-0.119	0.096
-647.770	435.909	0.080	0.178
-646.755	-43.418	-0.216	0.111
-645.741	-200.000	-0.021	0.111
-644.726	-87.768	-0.302	-0.093
-643.711	-0.955	-0.168	0.121
-642.697	800.000	0.050	-0.182
-641.682	-99.050	-0.286	0.074
-640.668	268.555	-0.105	-0.188
-639.653	-74.917	-0.338	0.123
-638.638	605.722	0.075	0.190
-637.624	-26.651	0.093	-0.056
-636.609	800.000	0.030	-0.088
-635.595	-103.962	-0.456	-0.108
-634.580	449.606	0.020	0.044
-633.565	-26.723	-0.086	-0.051
-632.551	89.434	0.151	-0.172
-631.536	97.589	0.065	-0.076
-630.522	-121.503	0.566	0.096
-629.507	-200.000	0.011	0.154
-628.492	1.924	0.081	-0.059
-627.478	-122.952	-0.378	0.062
-626.463	800.000	0.024	0.073
-625.449	192.206	-0.151	-0.232
-624.434	190.034	-0.018	0.028
-623.419	-117.712	-0.254	-0.047
-622.405	605.212	-0.091	-0.232
-621.390	87.700	-0.298	-0.337
-620.376	-137.178	0.275	0.032
-619.361	-148.367	0.194	0.016
-618.346	124.699	-0.079	0.102
-617.332	74.993	0.082	0.088
-616.317	199.579	0.134	-0.209
-615.303	-200.000	-0.020	-0.206
-614.288	-200.000	-0.015	0.177
-613.273	800.000	0.053	0.218
-612.259	-95.568	-0.142	-0.039
-611.244	212.719	-0.208	-0.335
-610.230	800.000	0.039	-0.141
-609.215	800.000	-0.107	0.345
-608.201	-55.717	-0.045	-0.020
-607.186	87.901	0.365	0.412
-606.171	-1.030	0.292	-0.210
-605.157	800.000	-0.080	0.309
-604.142	-200.000	-0.024	-0.342
-603.128	-39.505	0.350	0.187
-602.113	-128.491	-0.129	-0.019
-601.098	179.030	0.178	-0.266
-600.084	800.000	-0.037	-0.118
-599.069	105.512	-0.076	-0.092
-598.055	-200.000	-0.031	0.274
-597.040	800.000	-0.094	-0.268
-596.025	100.285	0.043	-0.051
-595.011	28.618	0.076	-0.065
-593.996	371.824	0.024	0.050
-592.982	-38.954	-0.324	0.174
-591.967	135.936	0.126	0.167
-590.952	-200.000	0.017	-0.086
-589.938	-91.894	-0.124	0.036
-588.923	16.818	0.022	0.018
-587.909	220.076	0.197	-0.321
-586.894	311.384	-0.076	0.145
-585.879	-96.986	-0.173	0.046
-584.865	-169.547	-0.366	-0.014
-583.850	165.847	0.032	-0.046
-582.836	800.000	-0.083	-0.313
-581.821	10.462	-0.332	-0.257
-580.806	800.000	0.021	-0.081
-579.792	-200.000	-0.003	-0.086
-578.777	15.024	0.036	-0.028
-577.763	30.564	0.136	0.119
-576.748	-34.957	-0.371	-0.206
-575.733	491.816	0.025	0.057
-574.719	629.018	-0.163	-0.419
-573.704	126.777	0.057	-0.074
-572.690	800.000	0.066	0.186
-571.675	800.000	0.056	0.185
-570.661	-200.000	-0.009	-0.158
-569.646	256.768	0.094	-0.165
-568.631	-200.000	0.022	0.107
-567.617	71.647	-0.161	0.170
-566.602	-200.000	-0.023	-0.176
-565.588	-86.937	-0.355	0.110
-564.573	63.751	0.136	0.139
-563.558	71.928	0.223	-0.235
-562.544	235.234	0.105	-0.177
-561.529	-170.950	-0.142	-0.005
-560.515	143.401	0.223	-0.302
-559.500	-27.489	-0.463	0.274
-558.485	14.418	0.085	-0.067
-557.471	121.708	0.241	0.305
-556.456	-200.000	0.014	-0.102
-555.442	-200.000	0.004	-0.023
-554.427	342.733	0.084	0.168
-553.412	-152.279	0.140	-0.010
-552.398	-200.000	-0.039	-0.263
-551.383	-84.965	-0.371	0.118
-550.369	-200.000	0.001	-0.020
-549.354	-200.000	-0.013	-0.071
-548.339	-200.000	-0.022	-0.157
-547.325	28.068	0.087	0.074
-546.310	-86.362	0.418	-0.131
-545.296	-119.636	-0.195	0.034
-544.281	92.707	0.135	-0.155
-543.266	43.146	-0.063	-0.059
-542.252	-35.193	-0.192	-0.106
-541.237	-27.480	-0.183	0.108
-540.223	119.040	-0.148	0.186
-539.208	-27.368	0.193	0.114
-538.193	82.519	-0.393	0.433
-537.179	103.978	0.140	0.167
-536.164	-127.756	0.310	-0.045
-535.150	-128.754	0.372	0.053
-534.135	321.451	-0.144	0.278
-533.121	181.193	0.096	-0.144
-532.106	-51.317	-0.123	0.058
-531.091	800.000	0.054	0.203
-530.077	274.879	-0.046	0.084
-529.062	-180.869	-0.143	0.003
-528.048	191.945	0.217	0.332
-527.033	-82.270	-0.215	0.071
-526.018	-200.000	0.045	-0.263
-525.004	50.820	-0.083	0.080
-523.989	800.000	0.090	0.254
-522.975	123.096	0.077	-0.099
-521.960	384.950	0.033	0.068
-520.945	-27.034	0.200	0.119
-519.931	122.922	0.159	0.202
-518.916	-101.119	0.099	0.025
-517.902	-200.000	0.020	0.110
-516.887	535.479	-0.154	-0.370
-515.872	241.604	0.085	0.144
-514.858	-200.000	0.006	-0.247
-513.843	800.000	0.107	0.314
-512.829	377.075	0.172	-0.356
-511.814	-97.192	-0.196	0.052
-510.799	-46.448	-0.164	-0.082
-509.785	151.453	-0.088	-0.122
-508.770	-126.264	-0.336	-0.051
-507.756	0.565	-0.372	-0.270
-506.741	69.400	-0.306	-0.320
-505.726	-183.432	0.098	-0.002
-504.712	93.783	-0.137	0.158
-503.697	-3.671	0.304	-0.214
-502.683	158.166	-0.218	-0.306
-501.668	800.000	0.077	-0.217
-500.653	-200.000	-0.063	0.284
-499.639	42.501	-0.320	0.295
-498.624	-200.000	-0.051	0.323
-497.610	-200.000	-0.025	-0.132
-496.595	-200.000	0.012	-0.335
-495.581	-110.216	0.242	-0.051
-494.566	-132.590	-0.062	-0.008
-493.551	-200.000	0.032	0.262
-492.537	-75.532	0.306	0.111
-491.522	-98.769	0.379	-0.098
-490.508	800.000	-0.069	-0.211
-489.493	800.000	-0.057	-0.233
-488.478	800.000	0.067	-0.208
-487.464	-200.000	0.006	0.092
-486.449	248.846	-0.050	0.086
-485.435	50.507	0.152	0.146
-484.420	6.636	0.139	0.105
-483.405	64.121	-0.051	-0.052
-482.391	2.230	0.150	-0.110
-481.376	255.094	0.176	0.305
-480.362	-35.016	0.261	0.145
-479.347	56.423	-0.072	-0.071
-478.332	679.774	0.032	-0.085
-477.318	-49.143	-0.101	0.049
-476.303	-200.000	0.047	-0.346
-475.289	140.315	-0.228	-0.305
-474.274	175.625	-0.174	-0.256
-473.259	284.782	-0.122	-0.223
-472.245	85.504	0.122	-0.136
-471.230	-5.329	-0.097	0.067
-470.216	-200.000	0.004	0.323
-469.201	-76.199	0.260	0.093
-468.186	-87.537	-0.306	0.094
-467.172	-147.616	-0.224	-0.019
-466.157	-83.924	0.266	-0.086
-465.143	-3.474	0.123	-0.087
-464.128	189.194	-0.047	-0.071
-463.113	121.969	0.132	-0.167
-462.099	-200.000	0.029	-0.172
-461.084	-200.000	-0.026	-0.130
-460.070	307.807	-0.094	0.178
-459.055	766.345	-0.087	-0.239
-458.040	800.000	0.049	0.199
-457.026	-148.631	-0.111	-0.009
-456.011	530.501	-0.049	-0.116
-454.997	-85.480	-0.139	0.044
-453.982	-6.356	-0.276	0.191
-452.968	16.172	0.052	-0.042
-451.953	94.793	-0.222	-0.255
-450.938	-49.601	-0.121	-0.058
-449.924	31.472	0.121	0.105
-448.909	86.318	-0.119	-0.133
-447.895	-58.775	0.211	0.092
-446.880	-39.662	0.313	-0.166
-445.865	5.362	-0.164	0.123
-444.851	-91.247	-0.239	0.069
-443.836	17.788	0.224	0.180
-442.822	-112.410	-0.213	0.043
-441.807	-198.527	0.082	-0.000
-440.792	-124.391	-0.429	-0.068
-439.778	-144.003	-0.246	-0.023
-438.763	-160.893	-0.054	0.003
-437.749	125.128	0.090	0.114
-436.734	-200.000	0.039	-0.178
-435.719	585.268	-0.058	0.143
-434.705	-200.000	0.027	-0.122
-433.690	-22.190	-0.448	0.275
-432.676	-24.674	-0.131	-0.079
-431.661	222.637	0.106	-0.173
-430.646	-200.000	-0.052	-0.353
-429.632	-27.618	-0.295	0.173
-428.617	-56.197	-0.098	0.044
-427.603	-19.650	-0.133	0.083
-426.588	-137.317	-0.184	-0.021
-425.573	379.924	-0.096	0.200
-424.559	-200.000	0.019	-0.209
-423.544	166.892	-0.075	0.107
-422.530	-200.000	0.004	-0.048
-421.515	-120.953	0.218	-0.037
-420.500	800.000	0.131	-0.419
-419.486	-54.027	0.235	-0.108
-418.471	207.783	-0.271	-0.429
-417.457	-98.424	-0.136	-0.035
-416.442	64.326	0.090	-0.092
-415.428	341.236	-0.097	-0.192
-414.413	-200.000	-0.030	-0.188
-413.398	-105.466	0.211	-0.048
-412.384	-200.000	0.026	-0.310
-411.369	-200.000	0.013	-0.455
-410.355	-191.400	0.457	-0.005
-409.340	-88.552	0.155	0.047
-408.325	280.498	0.227	-0.410
-407.311	7.792	0.406	0.308
-406.296	-200.000	-0.052	0.276
-405.282	280.346	-0.062	0.111
-404.267	800.000	-0.077	0.338
-403.252	436.984	0.066	0.145
-402.238	-200.000	0.038	0.348
-401.223	-3.353	0.315	0.222
-400.209	-87.486	0.030	-0.009
-399.194	49.491	0.079	0.076
-398.179	-125.751	-0.103	-0.016
-397.165	-200.000	-0.042	-0.400
-396.150	-108.780	0.148	0.032
-395.136	252.702	0.067	0.115
-394.121	-200.000	0.006	-0.042
-393.106	-200.000	-0.011	-0.180
-392.092	295.791	-0.101	0.187
-391.077	59.954	0.232	0.232
-390.063	-102.405	-0.197	-0.048
-389.048	-200.000	0.011	-0.100
-388.033	-101.445	-0.121	0.030
-387.019	72.677	0.138	-0.145
-386.004	800.000	-0.085	-0.250
-384.990	-107.316	0.151	0.033
-383.975	162.220	-0.051	-0.072
-382.960	173.695	-0.082	-0.119
-381.946	125.867	0.185	0.236
-380.931	341.051	-0.066	0.131
-379.917	-59.539	0.319	-0.138
-378.902	-200.000	-0.033	-0.154
-377.888	-77.132	-0.080	-0.028
-376.873	800.000	-0.075	0.290
-375.858	-132.304	0.176	0.023
-374.844	179.867	-0.057	-0.084
-373.829	-71.823	0.153	-0.057
-372.815	-200.000	-0.026	0.178
-371.800	498.332	-0.202	0.469
-370.785	219.536	0.055	-0.090
-369.771	-15.308	-0.068	0.044
-368.756	116.474	-0.137	-0.169
-367.742	31.150	0.102	0.088
-366.727	-57.433	0.129	-0.057
-365.712	-157.796	-0.179	0.011
-364.698	-200.000	0.031	0.227
-363.683	-51.890	0.056	-0.026
-362.669	385.722	-0.068	0.142
-361.654	115.391	0.162	0.199
-360.639	-77.534	0.067	-0.024
-359.625	493.367	-0.013	0.030
-358.610	-200.000	0.032	-0.147
-357.596	59.051	-0.101	-0.100
-356.581	-79.105	-0.124	0.042
-355.566	-21.473	0.191	-0.118
-354.552	89.718	0.080	-0.090
-353.537	48.441	0.177	0.167
-352.523	800.000	0.052	-0.147
-351.508	340.796	-0.141	0.277
-350.493	79.666	0.044	0.048
-349.479	751.229	0.050	0.137
-348.464	-200.000	-0.052	-0.273
-347.450	37.846	0.142	-0.128
-346.435	34.575	-0.354	-0.312
-345.420	-36.272	-0.141	-0.077
-344.406	-176.685	0.143	0.004
-343.391	-112.005	-0.133	-0.027
-342.377	50.958	-0.284	-0.272
-341.362	-200.000	0.031	0.189
-340.348	-144.767	-0.112	0.010
-339.333	26.632	0.165	0.139
-338.318	800.000	0.053	0.170
-337.304	-51.818	0.188	0.088
-336.289	-124.776	-0.263	-0.041
-335.275	158.787	0.120	0.168
-334.260	-200.000	-0.055	0.301
-333.245	-200.000	0.018	0.133
-332.231	251.200	-0.110	0.189
-331.216	-137.855	-0.237	0.027
-330.202	-40.783	-0.208	0.109
-329.187	-48.193	-0.207	0.101
-328.172	-131.684	-0.289	-0.038
-327.158	-73.496	0.167	0.062
-326.143	-200.000	-0.018	0.213
-325.129	39.787	-0.119	-0.108
-324.114	-34.373	0.114	0.063
-323.099	486.876	0.134	0.309
-322.085	-84.278	-0.220	-0.070
-321.070	147.799	0.061	0.083
-320.056	219.828	0.087	0.141
-319.041	-1.546	-0.027	0.019
-318.026	195.341	-0.166	0.254
-317.012	66.652	-0.305	-0.313
-315.997	-43.675	-0.110	0.056
-314.983	-44.634	-0.167	0.084
-313.968	55.110	-0.062	0.061
-312.953	-11.818	-0.140	-0.092
-311.939	47.523	-0.132	0.124
-310.924	292.417	-0.054	-0.098
-309.910	-152.886	0.206	-0.015
-308.895	-107.417	-0.424	0.094
-307.880	-50.009	-0.080	0.038
-306.866	352.963	-0.045	0.090
-305.851	-38.821	-0.131	0.070
-304.837	-67.798	-0.119	-0.047
-303.822	800.000	0.065	-0.256
-302.807	-21.212	-0.211	0.130
-301.793	800.000	0.032	-0.111
-300.778	-24.518	0.134	0.080
-299.764	-94.576	0.247	-0.068
-298.749	-44.589	-0.053	0.027
-297.735	-79.176	0.302	-0.103
-296.720	-200.000	-0.000	-0.295
-295.705	800.000	-0.041	0.117
-294.691	119.701	-0.269	0.336
-293.676	10.039	-0.146	-0.112
-292.662	-50.877	0.323	0.153
-291.647	-31.857	0.208	0.117
-290.632	-200.000	-0.030	0.236
-289.618	38.336	-0.215	0.193
-288.603	-9.631	-0.291	0.195
-287.589	-200.000	-0.014	0.259
-286.574	-200.000	0.017	-0.103
-285.559	171.034	-0.198	-0.286
-284.545	-172.996	-0.164	0.005
-283.530	-114.650	-0.112	-0.022
-282.516	-200.000	-0.029	-0.172
-281.501	161.805	-0.132	0.185
-280.486	-79.786	-0.105	-0.035
-279.472	294.241	-0.091	-0.166
-278.457	-132.462	0.067	-0.009
-277.443	-0.860	0.067	0.047
-276.428	176.307	-0.127	-0.185
-275.413	-200.000	-0.009	-0.160
-274.399	124.704	0.239	0.303
-273.384	-25.233	-0.287	-0.171
-272.370	45.305	-0.066	0.061
-271.355	-172.550	0.013	0.000
-270.340	-47.266	0.117	-0.057
-269.326	-152.735	-0.354	0.025
-268.311	-113.045	-0.140	0.028
-267.297	-200.000	-0.064	-0.429
-266.282	386.541	0.034	0.071
-265.267	-54.700	-0.100	0.045
-264.253	800.000	0.050	-0.155
-263.238	144.326	0.120	-0.161
-262.224	47.643	0.138	-0.129
-261.209	123.701	0.203	0.257
-260.195	657.403	0.067	0.173
-259.180	93.267	0.190	0.216
-258.165	121.993	0.070	-0.088
-257.151	122.867	0.115	0.145
-256.136	26.449	0.155	0.130
-255.122	-175.453	-0.172	0.005
-254.107	-117.333	-0.188	0.034
-253.092	745.590	-0.121	-0.326
-252.078	-153.875	-0.109	-0.007
-251.063	-200.000	0.034	0.161
-250.049	800.000	-0.108	-0.311
-249.034	226.166	0.114	0.185
-248.019	-200.000	-0.019	-0.105
-247.005	-11.334	-0.215	-0.142
-245.990	-200.000	-0.025	-0.167
-244.976	-139.461	0.312	0.034
-243.961	401.020	0.065	0.137
-242.946	479.973	-0.015	0.034
-241.932	-158.512	-0.175	0.010
-240.917	83.929	-0.037	-0.041
-239.903	-167.701	0.303	0.012
-238.888	-62.018	-0.311	0.130
-237.873	82.969	0.114	-0.125
-236.859	46.217	-0.051	-0.047
-235.844	223.271	0.194	-0.315
-234.830	-95.485	0.334	0.090
-233.815	-110.717	0.115	-0.024
-232.800	660.450	0.045	-0.115
-231.786	60.215	-0.147	-0.146
-230.771	-67.648	0.185	-0.073
-229.757	163.017	-0.035	0.049
-228.742	-54.353	-0.110	0.050
-227.727	-34.464	0.131	-0.072
-226.713	-79.944	0.404	-0.136
-225.698	51.940	-0.044	0.042
-224.684	12.778	0.187	0.145
-223.669	-36.783	0.427	0.230
-222.655	-113.821	0.312	0.061
-221.640	-118.052	-0.053	-0.009
-220.625	574.086	0.033	-0.082
-219.611	-200.000	-0.020	0.121
-218.596	-2.385	0.164	0.116
-217.582	152.905	0.230	0.315
-216.567	488.077	0.124	-0.284
-215.552	-49.535	-0.095	-0.046
-214.538	-200.000	0.068	0.312
-213.523	800.000	0.071	-0.292
-212.509	16.624	0.337	-0.267
-211.494	-125.515	0.214	-0.033
-210.479	800.000	0.136	-0.413
-209.465	-51.035	0.327	-0.154
-208.450	204.684	0.188	0.292
-207.436	383.782	0.051	0.106
-206.421	-75.188	-0.374	0.134
-205.406	40.189	0.088	0.079
-204.392	226.345	0.121	0.197
-203.377	-121.445	0.127	0.021
-202.363	-200.000	0.284	0.000
-201.348	-200.000	-0.013	-0.156
-200.333	800.000	-0.045	0.192
-199.319	538.922	0.088	0.209
-198.304	800.000	-0.091	-0.281
-197.290	-200.000	0.019	-0.237
-196.275	-200.000	-0.008	0.368
-195.260	800.000	0.019	-0.084
-194.246	-57.758	-0.115	-0.050
-193.231	-28.797	0.465	0.268
-192.217	3.016	0.160	-0.116
-191.202	-77.363	-0.442	-0.154
-190.187	567.964	0.108	-0.264
-189.173	132.487	0.115	0.149
-188.158	-200.000	-0.011	0.160
-187.144	181.879	-0.067	0.099
-186.129	377.459	0.123	0.251
-185.114	35.300	-0.058	0.051
-184.100	-128.827	-0.096	0.014
-183.085	-200.000	-0.019	-0.107
-182.071	214.631	-0.132	-0.210
-181.056	61.504	0.179	0.178
-180.042	-200.000	0.017	0.175
-179.027	-146.894	0.451	0.039
-178.012	21.474	-0.099	0.080
-176.998	800.000	-0.091	0.339
-175.983	-29.997	0.119	0.068
-174.969	-89.840	0.173	0.051
-173.954	91.941	0.132	0.149
-172.939	363.724	0.146	0.295
-171.925	-10.528	-0.266	0.177
-170.910	1.639	0.130	0.094
-169.896	-145.274	0.211	-0.019
-168.881	-88.151	0.129	0.039
-167.866	44.623	-0.020	-0.019
-166.852	800.000	0.035	-0.152
-165.837	-27.702	-0.279	0.162
-164.823	100.229	0.203	0.236
-163.808	-200.000	0.042	-0.209
-162.793	-108.609	0.266	0.057
-161.779	-120.179	0.418	0.072
-160.764	-95.652	0.095	0.026
-159.750	800.000	0.069	-0.222
-158.735	-56.388	-0.286	0.127
-157.720	333.940	0.054	0.105
-156.706	-148.067	0.265	0.022
-155.691	-70.838	0.364	-0.138
-154.677	800.000	-0.050	-0.150
-153.662	-127.383	-0.363	0.053
-152.647	20.246	0.204	-0.165
-151.633	-39.710	-0.086	-0.045
-150.618	-165.256	-0.143	-0.006
-149.604	-200.000	-0.022	-0.471
-148.589	96.219	0.044	-0.051
-147.574	-200.000	-0.013	-0.085
-146.560	-175.375	-0.224	0.006
-145.545	-200.000	0.020	-0.105
-144.531	-79.829	0.102	0.034
-143.516	-200.000	-0.078	0.365
-142.502	716.047	0.018	-0.049
-141.487	-200.000	-0.019	-0.250
-140.472	37.361	0.113	0.100
-139.458	-200.000	-0.023	0.298
-138.443	-86.435	0.214	-0.066
-137.429	-84.998	-0.187	-0.059
-136.414	-6.206	0.229	-0.156
-135.399	-172.624	0.277	0.009
-134.385	152.417	0.056	0.076
-133.370	-130.911	0.166	-0.022
-132.356	487.304	-0.114	-0.260
-131.341	800.000	0.048	0.161
-130.326	-26.098	-0.120	-0.071
-129.312	-135.555	0.146	-0.017
-128.297	-78.245	0.172	-0.059
-127.283	-37.372	0.094	-0.050
-126.268	-86.986	0.365	0.111
-125.253	615.690	0.115	-0.289
-124.239	800.000	-0.035	0.119
-123.224	-93.971	-0.193	-0.053
-122.210	-132.015	0.395	0.051
