DTS Sentinel unit serial number:	SN413079Multiplexer serial number:	ORYXHardware model number:	OX4-SRSoftware version number:	ORYX F/W v4.00 Oryx Data Collector v3.7.2.0data status	okinstallation	princeton_trtdifferential loss correction	single-endedforward channel	channel 3reverse channel	N/Adate	2019/09/11time	01:58:11forward acquisition time	60.00reverse acquisition time	0.00gamma	496.2192k internal	0.2332k external	0.2332temperature offset calibration	0.9910default loss term (dB/km)	0.3790temperature slope calibration	1.0000multiplexer offset coefficient	1.0000multiplexer slope coefficient	1.0000fibre end	0.00T internal ref (°C)	29.19T ext. ref 1 (°C)	-0.31T ext. ref 2 (°C)	23.28length (m)	temperature (°C)	Stokes	anti-Stokes-747.200	-16.030	0.205	0.132
-746.185	-171.254	-0.652	-0.022
-745.171	240.477	-0.043	0.072
-744.156	483.562	-0.057	0.130
-743.142	-200.000	0.003	-0.111
-742.127	493.127	-0.171	0.395
-741.112	-44.703	-0.155	0.078
-740.098	-200.000	-0.019	-0.310
-739.083	-87.058	0.187	0.057
-738.069	120.083	-0.152	0.190
-737.054	71.545	-0.281	-0.293
-736.039	-105.281	0.068	-0.016
-735.025	-169.803	0.095	0.003
-734.010	237.242	-0.179	-0.298
-732.996	-200.000	-0.020	-0.197
-731.981	73.351	0.219	-0.231
-730.966	-162.922	-0.416	0.020
-729.952	-9.778	-0.115	0.077
-728.937	160.203	-0.193	0.270
-727.923	20.018	-0.138	0.112
-726.908	631.402	-0.138	-0.350
-725.894	137.407	-0.381	-0.501
-724.879	320.540	-0.105	-0.201
-723.864	800.000	0.025	-0.081
-722.850	405.190	0.082	0.174
-721.835	27.613	-0.331	0.280
-720.821	716.165	-0.002	0.007
-719.806	800.000	-0.054	-0.237
-718.791	-200.000	-0.007	0.136
-717.777	-88.869	-0.545	-0.162
-716.762	49.121	0.167	-0.157
-715.748	800.000	0.068	-0.273
-714.733	257.237	0.063	-0.108
-713.718	-50.691	0.392	0.185
-712.704	800.000	-0.052	-0.193
-711.689	-93.576	-0.186	0.052
-710.675	-39.521	-0.173	0.091
-709.660	-35.802	-0.075	-0.041
-708.645	-48.921	-0.162	0.078
-707.631	-200.000	-0.050	-0.244
-706.616	31.037	-0.247	-0.213
-705.602	233.029	0.168	0.278
-704.587	-30.267	0.111	0.063
-703.572	-92.030	0.267	0.076
-702.558	741.200	0.120	0.325
-701.543	41.425	-0.398	0.362
-700.529	-91.961	0.261	0.074
-699.514	134.848	-0.169	-0.221
-698.499	-115.360	-0.103	0.019
-697.485	75.699	0.086	-0.091
-696.470	86.219	-0.141	0.156
-695.456	63.419	-0.161	-0.163
-694.441	102.692	-0.141	0.166
-693.426	-17.844	0.311	0.196
-692.412	407.858	-0.041	0.087
-691.397	-7.240	0.294	-0.200
-690.383	197.574	0.115	-0.177
-689.368	-2.377	0.037	0.026
-688.354	15.518	0.282	-0.222
-687.339	97.729	0.244	-0.281
-686.324	-68.119	0.177	0.069
-685.310	-29.964	0.118	-0.067
-684.295	-32.340	-0.285	-0.160
-683.281	-162.329	0.329	-0.016
-682.266	-22.246	-0.083	-0.050
-681.251	-154.027	-0.155	0.011
-680.237	-22.606	0.136	-0.082
-679.222	83.423	0.175	0.191
-678.208	111.172	-0.291	0.352
-677.193	-98.934	-0.271	0.069
-676.178	94.749	0.069	-0.079
-675.164	-102.969	0.209	-0.050
-674.149	800.000	-0.035	0.098
-673.135	800.000	0.044	-0.162
-672.120	-52.654	-0.020	-0.009
-671.105	-162.676	0.183	-0.009
-670.091	-200.000	-0.009	0.159
-669.076	0.185	0.108	0.077
-668.062	-0.408	0.215	-0.153
-667.047	-23.876	0.209	0.125
-666.032	800.000	0.040	-0.141
-665.018	-83.728	-0.069	0.022
-664.003	-44.996	-0.289	-0.144
-662.989	42.569	0.358	-0.327
-661.974	-3.445	-0.243	0.170
-660.959	259.519	0.068	-0.117
-659.945	308.211	-0.032	0.060
-658.930	402.814	0.034	0.071
-657.916	31.859	0.062	0.054
-656.901	-124.406	0.103	0.016
-655.886	-106.793	-0.181	-0.040
-654.872	547.427	-0.193	0.463
-653.857	-62.174	0.383	-0.160
-652.843	107.840	0.135	0.161
-651.828	-161.430	-0.172	0.009
-650.814	-112.984	-0.166	0.033
-649.799	-112.722	-0.082	0.016
-648.784	-50.404	-0.370	0.175
-647.770	-51.766	-0.232	-0.108
-646.755	-45.209	0.184	-0.092
-645.741	800.000	-0.030	-0.097
-644.726	-143.264	0.464	-0.045
-643.711	-200.000	-0.002	0.081
-642.697	-1.990	-0.280	0.197
-641.682	49.774	-0.101	-0.095
-640.668	53.355	0.097	-0.093
-639.653	-40.610	0.085	0.044
-638.638	49.413	-0.205	-0.193
-637.624	-200.000	-0.024	-0.128
-636.609	275.283	-0.062	0.110
-635.595	83.999	0.078	0.086
-634.580	681.097	-0.120	-0.314
-633.565	289.894	0.085	-0.154
-632.551	-46.088	-0.188	-0.093
-631.536	800.000	0.017	-0.067
-630.522	800.000	0.066	-0.191
-629.507	-45.225	-0.101	0.050
-628.492	-22.525	0.185	-0.112
-627.478	-31.411	0.237	-0.133
-626.463	-200.000	-0.001	0.051
-625.449	-200.000	-0.009	-0.199
-624.434	-77.844	-0.144	-0.050
-623.419	114.049	-0.198	0.241
-622.405	-200.000	0.007	-0.103
-621.390	136.328	0.103	-0.135
-620.376	-200.000	0.000	0.202
-619.361	-117.510	0.182	-0.033
-618.346	-60.965	-0.292	0.123
-617.332	-56.066	-0.289	0.129
-616.317	-105.338	0.317	0.072
-615.303	-64.265	0.224	-0.091
-614.288	-158.293	-0.223	-0.013
-613.273	-35.862	-0.265	-0.144
-612.259	-200.000	-0.006	-0.083
-611.244	-200.000	-0.002	-0.131
-610.230	131.720	-0.150	-0.193
-609.215	-16.380	0.049	0.031
-608.201	-67.432	0.233	0.091
-607.186	430.755	-0.224	0.486
-606.171	96.510	0.115	-0.131
-605.157	-200.000	-0.001	-0.049
-604.142	-200.000	0.004	-0.235
-603.128	252.417	0.138	-0.236
-602.113	-200.000	-0.040	-0.181
-601.098	-25.453	-0.250	-0.148
-600.084	-115.453	-0.076	-0.014
-599.069	485.718	0.120	0.273
-598.055	-193.741	-0.134	-0.001
-597.040	-189.679	-0.273	0.003
-596.025	6.230	-0.142	0.105
-595.011	369.831	-0.046	0.094
-593.996	-200.000	0.021	-0.120
-592.982	-49.077	-0.261	0.125
-591.967	203.355	-0.043	-0.067
-590.952	684.203	0.032	-0.084
-589.938	-63.497	0.226	0.093
-588.923	-200.000	0.002	-0.160
-587.909	124.671	-0.167	-0.210
-586.894	-200.000	0.064	0.315
-585.879	307.274	0.160	0.298
-584.865	434.354	-0.102	0.222
-583.850	-122.977	-0.188	-0.030
-582.836	637.507	-0.152	0.385
-581.821	46.786	0.179	-0.166
-580.806	-12.506	-0.079	-0.051
-579.792	322.760	0.139	-0.264
-578.777	104.655	0.087	-0.103
-577.763	11.792	-0.028	0.022
-576.748	13.563	-0.227	0.176
-575.733	-200.000	-0.000	-0.080
-574.719	482.180	0.057	0.129
-573.704	-78.111	-0.170	0.059
-572.690	58.808	0.120	0.118
-571.675	105.790	0.139	0.165
-570.661	81.348	0.131	-0.141
-569.646	312.497	0.101	0.190
-568.631	340.927	-0.070	0.137
-567.617	266.722	0.167	0.291
-566.602	-200.000	0.014	0.084
-565.588	716.484	-0.106	-0.282
-564.573	-200.000	0.047	-0.239
-563.558	-74.262	-0.145	-0.052
-562.544	800.000	0.042	-0.150
-561.529	-39.997	0.292	-0.152
-560.515	-68.211	0.166	-0.065
-559.500	-87.391	-0.091	0.028
-558.485	-200.000	0.016	0.070
-557.471	130.892	-0.028	0.036
-556.456	-110.517	0.072	0.015
-555.442	459.554	0.166	0.369
-554.427	-59.998	-0.175	-0.074
-553.412	-60.073	-0.240	0.102
-552.398	800.000	0.047	-0.133
-551.383	131.469	-0.074	-0.095
-550.369	72.005	-0.204	0.212
-549.354	-143.083	-0.111	0.011
-548.339	-24.734	0.165	-0.098
-547.325	-77.890	0.105	0.036
-546.310	-101.166	0.174	-0.042
-545.296	622.186	0.012	0.030
-544.281	95.825	0.197	-0.224
-543.266	245.031	-0.097	0.163
-542.252	19.395	0.239	0.192
-541.237	7.649	0.273	0.204
-540.223	270.784	0.018	0.031
-539.208	-48.694	0.189	0.091
-538.193	-200.000	-0.044	0.324
-537.179	-200.000	-0.004	-0.175
-536.164	-200.000	-0.024	0.245
-535.150	362.615	-0.175	0.350
-534.135	-88.706	0.281	0.083
-533.121	-1.607	0.193	0.136
-532.106	-74.288	-0.159	0.057
-531.091	84.007	0.168	-0.183
-530.077	573.146	0.141	-0.342
-529.062	800.000	0.117	-0.357
-528.048	51.066	-0.216	-0.205
-527.033	21.509	-0.173	-0.140
-526.018	800.000	-0.100	0.355
-525.004	321.614	-0.146	-0.277
-523.989	509.329	0.124	0.287
-522.975	800.000	-0.031	-0.107
-521.960	280.311	0.092	-0.163
-520.945	800.000	-0.072	-0.221
-519.931	-176.676	-0.291	0.007
-518.916	483.079	-0.046	0.105
-517.902	354.897	-0.087	0.172
-516.887	-200.000	-0.040	-0.268
-515.872	800.000	-0.049	0.160
-514.858	-200.000	-0.005	-0.204
-513.843	-200.000	-0.470	0.001
-512.829	800.000	-0.027	-0.078
-511.814	-87.170	-0.433	-0.131
-510.799	401.332	0.209	-0.437
-509.785	58.610	-0.187	-0.183
-508.770	16.080	0.210	-0.165
-507.756	689.501	-0.047	0.122
-506.741	800.000	0.038	0.125
-505.726	-200.000	-0.010	-0.220
-504.712	76.056	0.074	0.078
-503.697	37.874	0.132	0.117
-502.683	7.721	-0.146	0.109
-501.668	379.941	-0.261	-0.532
-500.653	800.000	-0.094	-0.279
-499.639	3.669	0.084	-0.061
-498.624	170.182	-0.074	0.106
-497.610	16.801	-0.262	-0.206
-496.595	307.217	-0.069	0.129
-495.581	242.552	-0.063	0.105
-494.566	152.006	-0.138	-0.188
-493.551	314.269	-0.063	-0.119
-492.537	-132.787	0.137	0.017
-491.522	-200.000	0.042	-0.248
-490.508	-36.962	0.159	-0.085
-489.493	31.172	0.143	-0.122
-488.478	-200.000	0.019	-0.259
-487.464	14.753	0.153	-0.119
-486.449	415.303	-0.076	0.162
-485.435	111.616	-0.352	0.423
-484.420	-200.000	-0.012	0.219
-483.405	277.161	0.222	-0.393
-482.391	135.416	-0.010	0.013
-481.376	8.867	0.068	0.051
-480.362	-75.892	-0.144	-0.051
-479.347	-200.000	-0.026	-0.187
-478.332	-170.089	0.094	0.003
-477.318	-200.000	0.011	0.277
-476.303	120.960	0.182	0.226
-475.289	-7.457	-0.117	0.079
-474.274	613.428	-0.119	-0.298
-473.259	136.305	-0.126	-0.164
-472.245	-39.534	-0.345	-0.180
-471.230	-200.000	0.004	0.112
-470.216	-61.793	0.291	-0.121
-469.201	368.225	0.087	-0.175
-468.186	-86.577	0.082	-0.025
-467.172	-95.961	0.148	-0.039
-466.157	-126.112	0.183	-0.027
-465.143	134.560	0.173	-0.223
-464.128	-17.269	0.182	-0.114
-463.113	-49.652	0.258	0.122
-462.099	-49.922	-0.268	-0.126
-461.084	-187.934	0.151	0.002
-460.070	212.512	0.082	0.129
-459.055	800.000	0.072	0.250
-458.040	-1.815	-0.259	-0.182
-457.026	526.859	-0.186	0.435
-456.011	-92.396	-0.229	0.064
-454.997	125.289	0.186	0.233
-453.982	24.646	0.294	0.242
-452.968	60.869	0.273	-0.269
-451.953	67.785	-0.298	0.303
-450.938	705.218	0.040	0.106
-449.924	-135.606	-0.175	-0.021
-448.909	-86.224	0.249	0.076
-447.895	-31.444	-0.193	0.108
-446.880	0.069	0.095	-0.067
-445.865	152.220	0.089	0.121
-444.851	517.989	0.150	0.349
-443.836	-119.913	-0.345	0.059
-442.822	230.191	0.136	0.222
-441.807	-164.257	0.225	0.010
-440.792	274.827	0.124	0.218
-439.778	351.425	0.009	-0.018
-438.763	-200.000	0.020	-0.124
-437.749	72.257	0.088	0.091
-436.734	29.725	-0.076	-0.064
-435.719	764.554	-0.094	0.255
-434.705	178.392	-0.153	0.222
-433.690	-115.542	-0.274	-0.051
-432.676	-200.000	0.022	-0.195
-431.661	-200.000	0.061	-0.327
-430.646	153.553	0.061	0.083
-429.632	-200.000	-0.020	0.229
-428.617	-83.320	-0.161	-0.051
-427.603	-89.015	-0.161	-0.047
-426.588	210.621	-0.062	-0.097
-425.573	-56.001	0.278	-0.123
-424.559	-186.998	-0.291	-0.004
-423.544	-44.443	-0.307	-0.153
-422.530	8.516	0.241	0.180
-421.515	-102.364	-0.208	0.050
-420.500	-153.296	0.163	-0.011
-419.486	74.153	0.294	0.307
-418.471	577.776	0.115	-0.280
-417.457	-29.649	-0.155	0.088
-416.442	317.475	0.044	0.082
-415.428	-200.000	0.185	0.001
-414.413	-184.374	-0.310	-0.005
-413.398	286.684	-0.140	0.251
-412.384	-110.929	0.076	0.016
-411.369	-200.000	0.020	-0.127
-410.355	800.000	0.093	-0.335
-409.340	-143.338	-0.147	0.014
-408.325	800.000	-0.086	-0.341
-407.311	-200.000	0.010	0.156
-406.296	-41.671	-0.047	-0.024
-405.282	19.122	0.044	-0.035
-404.267	-200.000	0.039	-0.235
-403.252	-200.000	0.029	0.187
-402.238	157.521	-0.067	-0.092
-401.223	-79.312	0.030	0.010
-400.209	800.000	0.027	-0.091
-399.194	-200.000	-0.019	0.226
-398.179	-200.000	-0.028	0.326
-397.165	-8.779	-0.202	0.134
-396.150	-200.000	0.041	0.190
-395.136	-200.000	0.021	-0.122
-394.121	541.704	0.091	0.216
-393.106	341.947	0.083	0.162
-392.092	11.595	-0.212	0.161
-391.077	480.842	0.189	0.425
-390.063	-200.000	-0.011	0.049
-389.048	49.977	0.355	0.333
-388.033	448.585	0.090	-0.197
-387.019	-120.180	-0.254	-0.043
-386.004	-200.000	-0.017	0.220
-384.990	340.190	0.074	-0.143
-383.975	7.719	-0.408	-0.303
-382.960	800.000	-0.039	-0.133
-381.946	-125.312	0.073	-0.011
-380.931	-5.795	-0.219	0.148
-379.917	110.291	-0.197	0.234
-378.902	392.821	0.049	0.101
-377.888	-3.149	-0.160	-0.110
-376.873	-171.373	-0.216	0.007
-375.858	-117.713	0.444	-0.079
-374.844	43.366	0.112	-0.101
-373.829	-84.030	-0.041	0.013
-372.815	74.624	-0.182	0.189
-371.800	718.698	0.074	-0.194
-370.785	20.406	0.034	0.028
-369.771	-200.000	-0.024	0.187
-368.756	313.042	0.167	-0.311
-367.742	-200.000	-0.039	-0.287
-366.727	35.170	-0.181	-0.157
-365.712	-17.777	-0.273	-0.170
-364.698	-43.504	-0.227	-0.114
-363.683	-107.994	0.334	0.072
-362.669	-42.097	-0.126	0.064
-361.654	301.986	0.139	-0.255
-360.639	5.285	0.337	-0.246
-359.625	14.873	-0.129	-0.100
-358.610	-59.994	-0.279	0.118
-357.596	800.000	-0.054	0.163
-356.581	107.434	-0.239	0.281
-355.566	29.074	0.152	-0.128
-354.552	108.410	-0.142	-0.168
-353.537	-0.009	0.169	0.119
-352.523	800.000	0.046	0.156
-351.508	-107.897	-0.344	0.074
-350.493	219.677	0.129	0.205
-349.479	-200.000	-0.045	0.224
-348.464	289.507	0.057	-0.103
-347.450	-13.937	-0.147	-0.094
-346.435	19.190	-0.086	-0.069
-345.420	-32.382	0.229	0.127
-344.406	-200.000	0.004	0.134
-343.391	32.033	0.165	-0.141
-342.377	-150.921	-0.183	0.014
-341.362	491.460	-0.117	-0.265
-340.348	9.612	0.247	-0.185
-339.333	-115.784	0.123	-0.023
-338.318	149.601	0.057	-0.077
-337.304	7.901	0.192	-0.143
-336.289	178.004	0.134	-0.194
-335.275	-200.000	-0.034	0.279
-334.260	30.541	0.144	0.122
-333.245	-96.494	0.278	0.073
-332.231	761.668	-0.130	-0.348
-331.216	-97.919	-0.207	0.053
-330.202	-200.000	0.018	0.122
-329.187	86.097	0.144	-0.157
-328.172	-25.736	-0.159	0.093
-327.158	226.257	-0.212	0.341
-326.143	-40.939	-0.170	0.087
-325.129	-200.000	-0.028	-0.230
-324.114	-105.127	0.206	-0.047
-323.099	-161.875	-0.121	-0.006
-322.085	-141.230	-0.257	0.026
-321.070	162.195	0.084	0.117
-320.056	22.935	0.212	0.172
-319.041	800.000	-0.024	-0.092
-318.026	-200.000	0.020	-0.234
-317.012	-143.348	-0.273	0.026
-315.997	61.362	-0.264	0.259
-314.983	-7.220	0.128	-0.086
-313.968	800.000	0.008	-0.030
-312.953	150.819	0.142	-0.191
-311.939	-200.000	-0.002	0.028
-310.924	219.178	-0.110	-0.174
-309.910	-78.494	0.201	0.068
-308.895	24.516	-0.036	-0.030
-307.880	-42.919	0.083	0.042
-306.866	-142.574	-0.225	0.022
-305.851	800.000	0.141	0.400
-304.837	800.000	-0.115	0.376
-303.822	-4.838	0.057	0.039
-302.807	31.758	0.217	-0.185
-301.793	-93.018	0.174	-0.048
-300.778	-200.000	0.008	0.267
-299.764	-53.308	0.157	0.071
-298.749	249.265	0.076	0.127
-297.735	-147.796	0.349	-0.029
-296.720	105.804	0.133	0.155
-295.705	187.903	-0.093	0.137
-294.691	25.357	0.072	0.059
-293.676	-113.563	-0.070	0.014
-292.662	-110.624	0.073	0.015
-291.647	-138.389	0.247	-0.027
-290.632	-200.000	0.024	0.134
-289.618	-25.178	0.059	0.035
-288.603	-20.494	0.264	-0.160
-287.589	-120.676	-0.126	0.021
-286.574	96.951	0.179	-0.203
-285.559	147.834	-0.074	0.098
-284.545	800.000	0.039	-0.121
-283.530	229.147	-0.155	-0.250
-282.516	-111.655	-0.257	0.052
-281.501	-91.246	0.055	-0.016
-280.486	-200.000	-0.034	0.203
-279.472	-200.000	0.053	-0.325
-278.457	-43.826	0.073	-0.036
-277.443	-200.000	0.019	0.239
-276.428	300.198	0.052	0.095
-275.413	34.705	0.226	0.195
-274.399	800.000	-0.058	-0.165
-273.384	-200.000	-0.040	-0.368
-272.370	-77.604	-0.215	-0.073
-271.355	-77.701	0.287	-0.098
-270.340	98.062	-0.262	0.298
-269.326	-177.310	0.130	0.003
-268.311	140.496	0.156	-0.203
-267.297	719.844	0.022	0.058
-266.282	-12.812	0.217	0.140
-265.267	220.445	0.208	-0.329
-264.253	119.067	-0.045	-0.054
-263.238	34.053	-0.031	0.027
-262.224	800.000	-0.029	-0.125
-261.209	-200.000	0.004	0.023
-260.195	455.290	-0.062	-0.136
-259.180	800.000	0.071	-0.202
-258.165	-88.526	-0.258	-0.076
-257.151	-7.508	0.048	-0.032
-256.136	123.188	-0.104	0.128
-255.122	45.067	0.310	0.281
-254.107	800.000	0.178	-0.525
-253.092	26.155	-0.295	0.243
-252.078	211.332	-0.144	-0.223
-251.063	-121.165	0.143	-0.024
-250.049	-123.200	-0.378	0.060
-249.034	-1.639	0.094	-0.065
-248.019	85.606	0.124	-0.134
-247.005	-83.633	0.124	0.039
-245.990	79.117	0.257	0.272
-244.976	-98.558	0.113	-0.028
-243.961	-200.000	-0.006	-0.047
-242.946	-200.000	0.014	-0.212
-241.932	-200.000	-0.008	-0.051
-240.917	-200.000	0.080	0.388
-239.903	-200.000	-0.021	0.160
-238.888	151.916	-0.299	-0.402
-237.873	-153.658	0.118	-0.008
-236.859	27.421	0.162	-0.135
-235.844	508.427	0.076	-0.173
-234.830	164.015	0.163	-0.227
-233.815	-200.000	-0.237	-0.001
-232.800	24.502	0.112	0.091
-231.786	-103.685	0.222	-0.051
-230.771	63.426	0.178	0.176
-229.757	-51.081	0.084	-0.039
-228.742	-200.000	-0.004	-0.120
-227.727	-200.000	0.001	0.025
-226.713	-151.827	-0.319	0.023
-225.698	502.575	0.083	0.190
-224.684	6.668	0.114	-0.084
-223.669	-200.000	-0.002	0.044
-222.655	345.779	-0.043	0.083
-221.640	-145.948	0.221	-0.019
-220.625	-117.740	-0.165	-0.029
-219.611	-200.000	0.035	-0.239
-218.596	-105.724	0.207	-0.046
-217.582	155.447	-0.264	0.358
-216.567	-195.419	0.252	0.002
-215.552	141.696	-0.161	0.210
-214.538	117.195	0.070	-0.085
-213.523	-86.146	0.278	-0.084
-212.509	123.600	-0.080	0.099
-211.494	77.406	0.140	0.147
-210.479	-109.032	0.340	-0.071
-209.465	-51.837	-0.160	0.073
-208.450	3.948	-0.207	-0.149
-207.436	-18.511	-0.524	-0.322
-206.421	-200.000	0.015	-0.294
-205.406	-200.000	-0.004	0.041
-204.392	800.000	0.014	-0.039
-203.377	-69.672	0.287	0.108
-202.363	-200.000	-0.006	0.058
-201.348	-45.264	0.331	-0.162
-200.333	-148.670	-0.155	-0.012
-199.319	561.623	0.100	0.239
-198.304	49.897	0.087	-0.081
-197.290	16.800	0.067	0.052
-196.275	3.593	0.177	-0.127
-195.260	-60.886	0.300	0.125
-194.246	-200.000	-0.013	0.267
-193.231	377.194	0.142	0.285
-192.217	-200.000	-0.007	0.118
-191.202	800.000	0.034	0.127
-190.187	419.955	-0.128	-0.269
-189.173	219.053	-0.039	0.061
-188.158	800.000	0.045	0.190
-187.144	32.239	0.158	0.134
-186.129	-112.956	0.132	-0.026
-185.114	-200.000	0.001	-0.211
-184.100	-137.791	0.265	-0.029
-183.085	-55.550	-0.204	0.090
-182.071	595.750	0.025	-0.060
-181.056	354.691	0.027	0.052
-180.042	421.649	-0.226	0.476
-179.027	353.028	-0.074	0.145
-178.012	56.663	-0.198	0.189
-176.998	127.451	-0.179	-0.224
-175.983	504.959	0.119	-0.271
-174.969	527.412	-0.009	0.020
-173.954	-15.048	0.148	-0.094
-172.939	226.643	-0.107	-0.171
-171.925	201.094	-0.194	0.293
-170.910	-11.509	0.058	-0.038
-169.896	-120.447	-0.278	-0.047
-168.881	299.305	0.139	-0.253
-167.866	406.195	-0.103	0.214
-166.852	15.500	-0.158	0.122
-165.837	-51.300	0.169	0.078
-164.823	12.836	-0.213	-0.162
-163.808	-200.000	0.019	0.138
-162.793	328.533	-0.150	-0.283
-161.779	433.583	0.032	0.067
-160.764	92.565	0.152	-0.169
-159.750	68.832	-0.076	-0.077
-158.735	43.149	0.157	-0.141
-157.720	-107.740	-0.036	-0.008
-156.706	-200.000	0.003	0.216
-155.691	-104.453	-0.214	-0.049
-154.677	-200.000	-0.043	0.190
-153.662	37.787	-0.174	0.152
-152.647	-16.162	0.267	0.167
-151.633	-8.930	-0.410	0.270
-150.618	-123.088	0.234	-0.037
-149.604	176.480	-0.205	-0.293
-148.589	59.003	0.137	-0.132
-147.574	-104.408	0.196	-0.045
-146.560	-83.733	0.160	-0.050
-145.545	168.923	0.159	0.222
-144.531	-200.000	0.000	0.208
-143.516	-89.448	0.247	-0.071
-142.502	29.233	0.328	-0.273
-141.487	800.000	0.053	0.213
-140.472	-114.265	0.142	0.027
-139.458	200.114	-0.098	0.148
-138.443	-62.019	0.475	0.195
-137.429	-102.070	-0.054	-0.013
-136.414	-33.323	0.380	0.206
-135.399	-116.727	-0.137	-0.025
-134.385	-189.693	0.304	0.003
-133.370	-103.567	0.265	-0.061
-132.356	280.210	0.164	0.288
-131.341	617.846	0.087	0.215
-130.326	119.090	0.292	-0.355
-129.312	-49.052	0.093	0.044
-128.297	-200.000	0.015	-0.213
-127.283	-200.000	0.072	-0.499
-126.268	556.834	-0.081	0.192
-125.253	-200.000	-0.041	-0.257
-124.239	800.000	0.030	0.090
-123.224	-59.912	-0.357	-0.150
-122.210	17.908	0.109	-0.085
-121.195	800.000	-0.059	-0.229
-120.180	-96.400	0.241	0.063
