DTS Sentinel unit serial number:	SN413079Multiplexer serial number:	ORYXHardware model number:	OX4-SRSoftware version number:	ORYX F/W v4.00 Oryx Data Collector v3.7.2.0data status	okinstallation	princeton_trtdifferential loss correction	single-endedforward channel	channel 3reverse channel	N/Adate	2019/09/12time	04:42:11forward acquisition time	60.00reverse acquisition time	0.00gamma	496.2192k internal	0.2324k external	0.2324temperature offset calibration	1.0094default loss term (dB/km)	0.3790temperature slope calibration	1.0000multiplexer offset coefficient	1.0000multiplexer slope coefficient	1.0000fibre end	0.00T internal ref (°C)	31.62T ext. ref 1 (°C)	2.51T ext. ref 2 (°C)	27.21length (m)	temperature (°C)	Stokes	anti-Stokes-747.200	800.000	0.063	-0.195
-746.185	371.451	0.165	0.338
-745.171	800.000	0.192	0.574
-744.156	25.926	-0.163	0.137
-743.142	364.581	0.110	-0.224
-742.127	800.000	-0.108	0.433
-741.112	-26.497	0.067	-0.040
-740.098	-40.285	-0.122	0.064
-739.083	800.000	-0.013	0.056
-738.069	603.444	0.144	0.362
-737.054	-200.000	0.020	0.125
-736.039	-200.000	0.000	-0.122
-735.025	-68.327	0.334	0.131
-734.010	-42.034	-0.108	0.056
-732.996	-142.544	-0.302	-0.030
-731.981	-200.000	0.054	0.665
-730.966	135.528	-0.103	-0.135
-729.952	-168.103	-0.168	-0.007
-728.937	460.929	-0.217	-0.488
-727.923	18.399	-0.075	0.061
-726.908	-200.000	-0.022	0.123
-725.894	-200.000	-0.047	-0.254
-724.879	-7.492	-0.270	0.185
-723.864	530.538	-0.113	0.269
-722.850	34.950	0.076	-0.067
-721.835	-104.758	0.198	0.046
-720.821	-200.000	0.033	-0.206
-719.806	-200.000	-0.035	-0.172
-718.791	10.761	-0.230	-0.177
-717.777	800.000	0.060	-0.192
-716.762	73.096	0.203	-0.214
-715.748	15.607	-0.313	-0.248
-714.733	-7.813	0.047	0.032
-713.718	654.734	-0.063	0.162
-712.704	77.623	-0.334	0.358
-711.689	-172.116	-0.230	-0.007
-710.675	60.470	0.034	0.034
-709.660	249.236	-0.062	-0.106
-708.645	14.633	-0.202	-0.159
-707.631	179.759	0.169	-0.249
-706.616	-166.038	-0.128	0.006
-705.602	305.164	-0.152	0.284
-704.587	552.921	-0.072	0.175
-703.572	49.229	0.203	0.192
-702.558	-70.326	-0.100	-0.038
-701.543	280.474	0.219	0.394
-700.529	-180.367	-0.097	-0.002
-699.514	-142.022	0.178	-0.018
-698.499	-43.844	0.102	-0.052
-697.485	540.834	-0.098	-0.235
-696.470	-169.024	-0.204	-0.008
-695.456	-94.711	-0.134	0.037
-694.441	-200.000	0.054	-0.249
-693.426	800.000	-0.056	0.219
-692.412	-121.057	-0.281	0.047
-691.397	800.000	-0.096	-0.281
-690.383	-144.092	0.219	0.021
-689.368	692.346	0.085	0.225
-688.354	64.465	-0.150	-0.153
-687.339	78.139	0.096	-0.103
-686.324	365.648	-0.089	-0.182
-685.310	-6.354	-0.115	-0.079
-684.295	36.903	-0.191	-0.170
-683.281	-197.862	-0.427	-0.003
-682.266	54.995	-0.088	0.086
-681.251	24.831	-0.184	0.154
-680.237	207.318	-0.204	-0.320
-679.222	-11.519	-0.167	0.111
-678.208	-104.231	0.068	-0.016
-677.193	301.754	0.083	0.155
-676.178	800.000	0.089	-0.289
-675.164	63.208	0.217	-0.219
-674.149	-50.615	-0.212	-0.100
-673.135	800.000	0.060	0.205
-672.120	212.052	-0.249	0.395
-671.105	238.424	-0.195	-0.326
-670.091	26.629	-0.208	0.175
-669.076	800.000	0.022	-0.089
-668.062	-183.527	-0.271	-0.005
-667.047	245.093	-0.130	-0.219
-666.032	-12.552	0.241	0.158
-665.018	-191.383	-0.226	0.002
-664.003	22.976	-0.111	0.092
-662.989	54.401	0.245	-0.238
-661.974	-200.000	-0.038	0.356
-660.959	-78.040	-0.095	-0.033
-659.945	384.840	0.040	0.083
-658.930	139.582	0.185	-0.244
-657.916	-111.574	-0.139	0.028
-656.901	-75.383	0.087	0.031
-655.886	800.000	-0.048	-0.159
-654.872	-161.598	0.255	0.013
-653.857	-200.000	0.029	0.169
-652.843	-200.000	0.039	0.219
-651.828	-128.207	0.154	0.022
-650.814	31.252	-0.189	0.164
-649.799	-200.000	0.013	-0.153
-648.784	347.023	0.132	0.261
-647.770	800.000	0.014	-0.044
-646.755	125.682	-0.066	-0.083
-645.741	-102.044	-0.154	-0.037
-644.726	800.000	-0.188	-0.615
-643.711	-200.000	0.016	-0.235
-642.697	114.107	0.142	0.173
-641.682	-62.616	0.190	0.079
-640.668	-133.800	-0.173	-0.022
-639.653	84.193	-0.171	0.188
-638.638	-150.127	-0.237	-0.018
-637.624	-155.390	-0.235	0.015
-636.609	-200.000	0.041	0.202
-635.595	-200.000	-0.005	0.043
-634.580	-35.714	-0.121	0.066
-633.565	800.000	-0.014	-0.054
-632.551	-200.000	-0.025	0.142
-631.536	-74.085	-0.277	-0.101
-630.522	-160.228	-0.405	0.022
-629.507	-72.450	-0.073	0.027
-628.492	-85.369	0.206	-0.065
-627.478	-85.424	0.249	-0.078
-626.463	238.506	0.034	0.057
-625.449	108.961	-0.200	-0.241
-624.434	-88.666	0.385	-0.115
-623.419	-200.000	0.017	0.233
-622.405	112.992	-0.060	0.073
-621.390	40.676	-0.252	0.228
-620.376	30.056	-0.009	-0.007
-619.361	-61.900	-0.217	-0.091
-618.346	-200.000	0.055	0.316
-617.332	-89.452	-0.124	0.037
-616.317	231.675	-0.261	-0.430
-615.303	201.675	0.219	0.339
-614.288	180.570	0.073	0.108
-613.273	-6.595	0.030	0.020
-612.259	800.000	-0.122	0.516
-611.244	373.255	0.058	-0.118
-610.230	-200.000	0.004	0.165
-609.215	-112.411	-0.319	0.064
-608.201	534.745	0.016	-0.038
-607.186	311.201	0.053	-0.101
-606.171	69.671	0.257	-0.266
-605.157	-200.000	-0.023	-0.135
-604.142	800.000	0.055	-0.210
-603.128	-15.176	-0.141	-0.091
-602.113	-104.425	0.162	-0.038
-601.098	800.000	0.017	0.066
-600.084	63.225	-0.256	0.257
-599.069	9.051	-0.171	-0.129
-598.055	-194.096	-0.295	-0.002
-597.040	-75.024	-0.112	-0.040
-596.025	-149.481	0.176	-0.014
-595.011	462.160	-0.045	-0.100
-593.996	-200.000	-0.004	0.139
-592.982	-35.308	0.051	0.028
-591.967	-52.953	0.207	-0.095
-590.952	-67.228	-0.042	-0.016
-589.938	346.487	0.010	0.019
-588.923	418.529	0.151	-0.324
-587.909	-123.106	0.253	0.041
-586.894	256.463	-0.100	0.173
-585.879	109.337	-0.163	0.195
-584.865	-133.331	0.161	0.020
-583.850	-100.976	0.158	0.039
-582.836	800.000	-0.129	-0.361
-581.821	-200.000	-0.008	-0.402
-580.806	601.066	0.158	-0.395
-579.792	-66.657	-0.323	0.129
-578.777	278.663	0.098	-0.176
-577.763	90.218	0.096	0.107
-576.748	362.624	0.152	0.306
-575.733	-153.863	-0.248	0.017
-574.719	-200.000	-0.030	0.253
-573.704	-200.000	-0.063	-0.427
-572.690	-28.317	-0.196	0.114
-571.675	-174.019	0.109	0.003
-570.661	124.772	-0.247	-0.312
-569.646	-200.000	-0.033	0.406
-568.631	68.096	0.316	-0.324
-567.617	-200.000	-0.010	0.291
-566.602	-200.000	-0.045	-0.213
-565.588	613.407	-0.109	0.273
-564.573	27.907	-0.213	0.180
-563.558	-92.556	0.245	-0.069
-562.544	-34.548	-0.191	0.105
-561.529	800.000	-0.025	-0.102
-560.515	395.118	0.034	-0.071
-559.500	-78.965	-0.232	-0.079
-558.485	-200.000	-0.004	0.295
-557.471	-17.292	-0.250	0.158
-556.456	-22.710	0.294	0.178
-555.442	-200.000	-0.010	-0.171
-554.427	800.000	-0.037	-0.114
-553.412	800.000	0.043	0.136
-552.398	-73.832	0.099	0.036
-551.383	-101.047	0.367	0.090
-550.369	-200.000	0.025	0.277
-549.354	800.000	-0.036	0.146
-548.339	56.489	-0.402	-0.392
-547.325	-200.000	0.071	0.338
-546.310	-200.000	0.036	0.186
-545.296	-13.153	-0.170	0.111
-544.281	-161.903	-0.306	-0.016
-543.266	137.975	0.162	-0.212
-542.252	-101.907	0.157	0.038
-541.237	800.000	-0.049	0.186
-540.223	162.662	-0.097	-0.136
-539.208	-200.000	0.064	-0.286
-538.193	-89.498	-0.348	0.103
-537.179	-37.447	-0.110	0.059
-536.164	-61.445	-0.174	-0.073
-535.150	31.699	-0.259	-0.223
-534.135	158.326	-0.154	-0.214
-533.121	209.999	-0.116	-0.183
-532.106	237.173	0.125	-0.207
-531.091	341.810	0.108	-0.211
-530.077	-113.508	0.077	0.015
-529.062	223.840	-0.031	-0.051
-528.048	412.332	0.155	-0.329
-527.033	-200.000	-0.032	-0.156
-526.018	-200.000	-0.065	-0.313
-525.004	-200.000	0.020	0.245
-523.989	800.000	-0.008	-0.023
-522.975	-106.117	0.220	-0.049
-521.960	-200.000	-0.003	-0.032
-520.945	-89.109	-0.071	0.021
-519.931	-130.882	-0.194	-0.026
-518.916	3.596	0.190	0.139
-517.902	-200.000	0.012	-0.069
-516.887	761.062	-0.123	-0.335
-515.872	-72.961	-0.132	0.048
-514.858	34.704	0.035	0.031
-513.843	319.759	0.104	0.197
-512.829	-114.534	-0.115	0.022
-511.814	-183.460	0.178	-0.003
-510.799	-94.325	-0.270	0.074
-509.785	237.590	-0.047	0.078
-508.770	0.063	-0.170	-0.121
-507.756	800.000	-0.083	-0.239
-506.741	-200.000	-0.005	0.280
-505.726	-74.921	0.283	-0.102
-504.712	-53.819	0.204	-0.093
-503.697	-200.000	0.010	0.064
-502.683	-65.585	-0.187	0.075
-501.668	267.294	-0.143	0.250
-500.653	-47.364	-0.288	-0.140
-499.639	310.777	0.106	0.199
-498.624	-200.000	0.011	0.171
-497.610	204.131	0.081	-0.126
-496.595	-200.000	-0.049	-0.288
-495.581	-42.844	0.176	-0.089
-494.566	-47.776	0.222	-0.108
-493.551	-200.000	0.002	-0.229
-492.537	-87.403	-0.111	-0.034
-491.522	-113.874	-0.175	-0.034
-490.508	-200.000	-0.304	-0.001
-489.493	13.551	-0.190	-0.148
-488.478	421.634	0.018	-0.038
-487.464	-89.146	-0.270	0.080
-486.449	-26.426	0.241	-0.141
-485.435	-154.639	-0.130	0.009
-484.420	-200.000	-0.039	-0.276
-483.405	-121.897	-0.169	-0.028
-482.391	-200.000	0.004	-0.260
-481.376	384.275	0.009	-0.019
-480.362	436.465	-0.051	0.112
-479.347	800.000	0.044	-0.183
-478.332	800.000	0.070	-0.234
-477.318	119.198	-0.150	-0.185
-476.303	-200.000	-0.003	0.230
-475.289	-104.587	-0.205	0.047
-474.274	-200.000	-0.035	0.238
-473.259	-55.508	-0.213	-0.095
-472.245	800.000	0.049	0.197
-471.230	286.093	0.115	0.207
-470.216	-150.483	0.233	-0.018
-469.201	-200.000	0.011	-0.198
-468.186	-54.620	-0.189	-0.085
-467.172	505.336	0.137	-0.317
-466.157	-125.338	-0.186	-0.028
-465.143	-46.203	0.139	-0.068
-464.128	800.000	0.033	0.129
-463.113	583.490	0.074	-0.182
-462.099	-52.500	0.476	-0.220
-461.084	197.600	-0.049	0.074
-460.070	621.043	0.059	-0.147
-459.055	39.246	0.096	-0.086
-458.040	754.443	0.017	-0.046
-457.026	715.093	-0.123	0.325
-456.011	800.000	-0.090	0.263
-454.997	198.916	0.130	0.199
-453.982	-5.305	-0.114	-0.079
-452.968	-170.437	0.271	-0.009
-451.953	-200.000	-0.000	0.307
-450.938	-129.190	0.301	0.042
-449.924	-192.362	0.387	0.004
-448.909	208.654	0.267	0.416
-447.895	-55.289	-0.271	0.121
-446.880	-170.912	0.244	0.008
-445.865	501.586	0.059	0.135
-444.851	474.447	-0.012	0.027
-443.836	-200.000	-0.049	0.406
-442.822	-56.362	-0.402	0.178
-441.807	22.889	0.052	0.042
-440.792	-200.000	-0.007	-0.097
-439.778	-200.000	0.408	-0.002
-438.763	90.197	-0.174	-0.194
-437.749	-104.050	0.027	0.006
-436.734	-76.087	0.145	-0.051
-435.719	63.331	0.227	-0.227
-434.705	-48.364	0.173	-0.083
-433.690	-23.930	-0.246	0.147
-432.676	-200.000	0.002	-0.126
-431.661	106.217	-0.087	0.103
-430.646	767.702	-0.025	0.069
-429.632	-4.551	0.321	-0.221
-428.617	40.926	-0.038	-0.034
-427.603	-200.000	0.037	0.300
-426.588	-2.251	0.300	0.210
-425.573	800.000	-0.095	-0.410
-424.559	124.022	0.133	0.166
-423.544	41.766	-0.279	0.252
-422.530	786.534	-0.038	0.104
-421.515	293.133	0.149	0.270
-420.500	110.441	-0.101	-0.121
-419.486	800.000	0.064	-0.192
-418.471	25.669	-0.076	-0.063
-417.457	800.000	-0.056	0.185
-416.442	77.816	0.203	-0.216
-415.428	56.166	0.095	0.092
-414.413	13.775	0.145	-0.112
-413.398	-120.995	0.278	-0.046
-412.384	-200.000	0.028	0.193
-411.369	-35.352	-0.124	0.067
-410.355	-17.680	0.322	-0.202
-409.340	-80.016	-0.344	-0.115
-408.325	144.998	-0.203	0.271
-407.311	62.252	-0.143	-0.142
-406.296	451.254	-0.024	-0.054
-405.282	661.933	-0.063	-0.161
-404.267	6.999	-0.358	-0.266
-403.252	66.920	0.096	0.097
-402.238	-146.497	0.223	0.019
-401.223	-22.634	-0.342	0.206
-400.209	245.009	0.144	0.241
-399.194	-48.058	-0.207	-0.100
-398.179	599.261	-0.045	-0.110
-397.165	-200.000	-0.012	-0.186
-396.150	-30.896	0.126	0.071
-395.136	800.000	-0.091	0.313
-394.121	14.691	-0.404	-0.315
-393.106	-1.625	0.162	-0.114
-392.092	-200.000	0.018	-0.296
-391.077	-141.549	0.125	-0.013
-390.063	21.263	0.128	0.104
-389.048	-18.190	-0.047	0.029
-388.033	-200.000	-0.009	-0.360
-387.019	256.324	-0.068	-0.116
-386.004	256.152	0.102	0.174
-384.990	422.581	0.062	0.132
-383.975	86.362	0.199	-0.218
-382.960	56.675	0.265	-0.257
-381.946	-80.308	-0.229	0.076
-380.931	243.847	-0.251	0.419
-379.917	129.103	-0.195	0.247
-378.902	-59.432	-0.399	0.171
-377.888	-123.124	-0.239	0.038
-376.873	63.458	-0.127	0.127
-375.858	-107.473	-0.414	-0.090
-374.844	292.439	0.072	0.131
-373.829	-4.728	0.145	-0.099
-372.815	-107.929	0.357	0.077
-371.800	-120.750	-0.348	-0.058
-370.785	439.076	-0.043	-0.093
-369.771	101.753	-0.068	0.079
-368.756	-200.000	0.052	-0.370
-367.742	-115.005	0.352	0.067
-366.727	240.251	0.072	-0.119
-365.712	-184.229	0.029	0.000
-364.698	-134.720	0.194	-0.023
-363.683	421.044	-0.048	0.101
-362.669	171.056	0.301	-0.429
-361.654	-178.956	0.233	0.005
-360.639	-85.966	0.084	-0.026
-359.625	-111.333	-0.315	0.064
-358.610	184.864	0.013	-0.019
-357.596	-56.906	0.055	-0.024
-356.581	-125.029	-0.237	0.036
-355.566	-75.195	-0.183	0.065
-354.552	106.721	-0.125	0.147
-353.537	363.792	-0.082	0.164
-352.523	-75.654	0.236	0.083
-351.508	-110.147	0.034	0.007
-350.493	34.254	0.181	0.157
-349.479	-200.000	-0.034	-0.281
-348.464	-143.860	-0.248	0.023
-347.450	-36.713	-0.087	0.047
-346.435	257.979	0.132	-0.226
-345.420	-155.588	-0.292	-0.019
-344.406	-44.899	0.082	-0.041
-343.391	-200.000	-0.066	-0.313
-342.377	56.026	0.224	0.216
-341.362	-42.932	0.442	0.223
-340.348	-68.343	-0.103	-0.040
-339.333	-82.343	0.250	-0.081
-338.318	-11.941	0.090	0.058
-337.304	-112.935	0.103	0.020
-336.289	-200.000	-0.055	0.260
-335.275	654.689	0.094	0.239
-334.260	84.164	0.281	-0.305
-333.245	800.000	0.025	-0.095
-332.231	-200.000	0.030	-0.172
-331.216	183.899	-0.122	-0.179
-330.202	-200.000	-0.041	-0.254
-329.187	-120.999	0.098	0.016
-328.172	566.158	-0.022	0.054
-327.158	-92.402	0.293	0.082
-326.143	-200.000	0.049	-0.257
-325.129	800.000	0.019	-0.065
-324.114	28.822	-0.038	-0.032
-323.099	132.244	0.161	0.205
-322.085	800.000	0.026	0.097
-321.070	-130.315	-0.201	-0.027
-320.056	176.305	-0.154	0.222
-319.041	55.793	0.176	0.169
-318.026	567.055	0.070	0.168
-317.012	-200.000	-0.067	-0.481
-315.997	-36.709	-0.087	-0.046
-314.983	423.786	-0.089	0.189
-313.968	-147.877	0.160	0.013
-312.953	-56.203	0.332	-0.147
-311.939	-24.498	-0.198	-0.117
-310.924	-71.135	-0.291	-0.108
-309.910	167.385	-0.230	0.324
-308.895	-107.503	-0.208	-0.045
-307.880	577.538	0.030	0.073
-306.866	-200.000	-0.037	0.330
-305.851	37.509	-0.119	0.105
-304.837	231.475	-0.057	0.093
-303.822	-21.970	0.184	-0.111
-302.807	265.002	-0.107	0.184
-301.793	51.468	-0.019	0.018
-300.778	-200.000	-0.003	-0.081
-299.764	71.243	0.302	0.311
-298.749	-200.000	0.075	0.325
-297.735	117.678	-0.231	0.282
-296.720	14.773	-0.223	0.173
-295.705	-200.000	0.028	-0.183
-294.691	-138.205	0.177	0.019
-293.676	-1.419	0.107	-0.075
-292.662	184.577	0.248	0.364
-291.647	-159.921	0.179	0.010
-290.632	343.774	-0.097	0.189
-289.618	-98.543	-0.134	0.034
-288.603	106.700	0.139	-0.164
-287.589	-75.410	-0.182	-0.064
-286.574	38.235	-0.017	0.015
-285.559	800.000	-0.054	-0.225
-284.545	-10.917	-0.051	0.033
-283.530	132.128	0.121	-0.154
-282.516	-46.946	-0.281	-0.136
-281.501	-33.529	0.120	0.065
-280.486	-77.131	-0.465	-0.161
-279.472	-200.000	0.028	-0.202
-278.457	-36.668	0.226	0.120
-277.443	-145.066	-0.075	0.007
-276.428	41.050	0.366	0.328
-275.413	-67.108	0.221	-0.087
-274.399	-74.031	0.343	-0.123
-273.384	800.000	0.057	-0.218
-272.370	-107.869	0.201	0.043
-271.355	17.418	-0.043	0.034
-270.340	62.645	-0.203	-0.201
-269.326	-200.000	-0.043	-0.220
-268.311	-177.317	0.328	0.008
-267.297	-200.000	0.003	0.101
-266.282	627.548	-0.069	0.172
-265.267	204.279	-0.203	0.312
-264.253	-200.000	0.002	0.117
-263.238	-200.000	-0.030	-0.163
-262.224	321.573	-0.058	-0.109
-261.209	800.000	0.057	-0.201
-260.195	-116.890	-0.196	-0.036
-259.180	579.224	0.020	0.049
-258.165	369.257	-0.076	0.152
-257.151	-47.740	0.354	-0.170
-256.136	800.000	-0.069	-0.195
-255.122	800.000	-0.081	-0.268
-254.107	-42.836	0.180	0.091
-253.092	-21.455	0.103	-0.062
-252.078	711.329	-0.093	-0.243
-251.063	800.000	-0.058	-0.251
-250.049	-133.928	0.068	0.008
-249.034	-67.601	0.178	0.069
-248.019	-2.644	0.118	0.081
-247.005	-59.261	-0.297	0.127
-245.990	-79.042	0.041	-0.014
-244.976	-44.097	-0.180	-0.089
-243.961	83.531	0.062	-0.067
-242.946	-12.742	-0.339	0.219
-241.932	353.351	0.117	0.231
-240.917	-49.950	0.205	-0.096
-239.903	-39.164	0.219	-0.114
-238.888	26.702	0.212	-0.176
-237.873	-62.485	0.498	-0.205
-236.859	148.122	-0.186	-0.248
-235.844	152.964	-0.042	0.057
-234.830	184.795	0.238	-0.349
-233.815	38.926	-0.075	-0.066
-232.800	20.458	-0.154	0.123
-231.786	80.539	0.286	0.305
-230.771	800.000	-0.074	-0.207
-229.757	734.778	0.102	0.269
-228.742	-47.607	0.118	-0.057
-227.727	-79.539	0.187	0.062
-226.713	-200.000	-0.013	-0.162
-225.698	27.993	-0.063	-0.053
-224.684	46.502	-0.123	0.113
-223.669	43.147	0.280	0.253
-222.655	-109.126	-0.202	0.042
-221.640	-200.000	0.002	-0.044
-220.625	-11.268	-0.132	0.086
-219.611	800.000	-0.119	0.432
-218.596	492.253	0.017	-0.039
-217.582	-86.252	0.338	-0.103
-216.567	-40.250	-0.143	0.073
-215.552	441.057	-0.115	0.249
-214.538	-193.627	0.343	0.003
-213.523	-200.000	0.034	0.313
-212.509	73.994	-0.312	0.323
-211.494	-142.934	0.235	0.023
-210.479	-49.638	-0.033	-0.015
-209.465	208.517	-0.045	-0.070
-208.450	145.699	0.087	0.115
-207.436	587.256	0.018	0.045
-206.421	-119.984	0.247	0.042
-205.406	-147.330	-0.200	0.017
-204.392	-200.000	-0.009	-0.067
-203.377	-148.994	0.216	-0.017
-202.363	100.824	-0.124	-0.142
-201.348	-200.000	0.009	0.136
-200.333	-157.007	0.252	-0.015
-199.319	380.934	-0.209	0.424
-198.304	-18.652	0.106	-0.065
-197.290	-200.000	-0.052	-0.231
-196.275	-20.051	0.328	-0.200
-195.260	800.000	0.063	-0.240
-194.246	34.961	-0.112	0.097
-193.231	-51.659	-0.134	-0.062
-192.217	-200.000	0.029	0.126
-191.202	800.000	0.021	-0.064
-190.187	-62.736	-0.058	-0.024
-189.173	-200.000	0.005	-0.067
-188.158	-46.990	0.272	-0.131
-187.144	559.683	-0.055	-0.130
-186.129	-200.000	-0.059	-0.352
-185.114	-116.550	0.142	-0.026
-184.100	-200.000	0.013	0.467
-183.085	-200.000	-0.005	0.174
-182.071	-200.000	0.019	0.164
-181.056	753.046	0.119	0.317
-180.042	-181.660	0.213	-0.004
-179.027	211.977	0.135	0.210
-178.012	-52.269	-0.091	0.041
-176.998	-15.844	0.127	-0.080
-175.983	476.352	0.057	-0.127
-174.969	-54.972	-0.217	0.097
-173.954	-92.738	0.152	0.042
-172.939	-38.269	0.138	0.072
-171.925	800.000	-0.029	0.095
-170.910	91.984	0.138	0.153
-169.896	-200.000	0.025	0.215
-168.881	28.087	0.096	-0.080
-167.866	-58.698	0.220	0.094
-166.852	-110.765	-0.455	0.093
-165.837	-134.727	-0.138	-0.017
-164.823	-181.149	-0.164	-0.003
-163.808	90.945	-0.214	0.236
-162.793	-200.000	-0.029	-0.141
-161.779	-75.129	-0.093	0.033
-160.764	-200.000	-0.012	0.217
-159.750	-128.699	-0.203	0.028
-158.735	45.338	0.167	-0.152
-157.720	-77.154	-0.324	-0.111
-156.706	299.499	0.017	-0.032
-155.691	7.265	0.062	0.045
-154.677	-64.299	-0.295	-0.118
-153.662	21.554	0.167	-0.134
-152.647	-84.726	0.207	0.064
-151.633	-200.000	-0.032	-0.201
-150.618	-47.393	0.052	-0.025
-149.604	-200.000	-0.019	-0.185
-148.589	308.826	0.090	-0.165
-147.574	-39.606	-0.114	-0.059
-146.560	5.124	-0.567	0.412
-145.545	379.097	0.071	0.143
-144.531	-85.294	-0.392	0.121
-143.516	53.120	0.356	-0.336
-142.502	65.687	0.202	0.202
-141.487	76.149	-0.219	0.229
-140.472	-5.350	0.192	0.130
-139.458	13.926	0.206	0.158
-138.443	-129.855	0.040	0.005
-137.429	406.752	0.138	0.287
-136.414	43.382	-0.022	-0.020
-135.399	-67.555	-0.194	-0.075
-134.385	643.105	0.153	0.386
-133.370	-200.000	0.036	0.272
-132.356	-200.000	0.056	-0.249
-131.341	-200.000	-0.008	-0.256
-130.326	-73.225	0.225	-0.081
-129.312	222.102	-0.155	0.246
-128.297	-104.739	-0.151	-0.034
-127.283	-113.936	0.353	0.068
-126.268	-141.932	-0.388	0.038
-125.253	37.764	0.034	0.030
-124.239	-55.941	-0.314	0.138
-123.224	-46.379	-0.046	0.022
-122.210	28.805	0.350	0.292
