DTS Sentinel unit serial number:	SN413079Multiplexer serial number:	ORYXHardware model number:	OX4-SRSoftware version number:	ORYX F/W v4.00 Oryx Data Collector v3.7.2.0data status	okinstallation	princeton_trtdifferential loss correction	single-endedforward channel	channel 3reverse channel	N/Adate	2019/09/12time	01:34:10forward acquisition time	60.00reverse acquisition time	0.00gamma	496.2192k internal	0.2320k external	0.2320temperature offset calibration	1.0070default loss term (dB/km)	0.3790temperature slope calibration	1.0000multiplexer offset coefficient	1.0000multiplexer slope coefficient	1.0000fibre end	0.00T internal ref (°C)	32.92T ext. ref 1 (°C)	2.07T ext. ref 2 (°C)	27.19length (m)	temperature (°C)	Stokes	anti-Stokes-747.200	-200.000	0.030	0.349
-746.185	609.021	-0.065	0.164
-745.171	800.000	0.059	-0.215
-744.156	285.680	-0.185	0.338
-743.142	-107.270	-0.164	0.036
-742.127	262.022	-0.073	0.128
-741.112	800.000	-0.072	-0.244
-740.098	86.677	0.246	0.274
-739.083	-56.958	0.223	-0.100
-738.069	-200.000	0.002	-0.194
-737.054	59.679	-0.079	-0.079
-736.039	-200.000	0.088	0.400
-735.025	-104.396	0.191	0.045
-734.010	558.028	-0.139	0.339
-732.996	-200.000	-0.004	-0.093
-731.981	-200.000	0.003	-0.060
-730.966	800.000	-0.064	-0.257
-729.952	-115.173	-0.208	-0.040
-728.937	159.544	0.180	-0.253
-727.923	-15.834	0.168	-0.108
-726.908	52.873	-0.077	-0.074
-725.894	-156.727	0.147	0.009
-724.879	-200.000	0.026	0.165
-723.864	92.139	0.167	0.190
-722.850	-200.000	-0.014	0.158
-721.835	-28.451	-0.069	0.040
-720.821	743.418	-0.111	-0.300
-719.806	43.442	-0.349	-0.322
-718.791	-152.925	0.072	-0.005
-717.777	-6.430	-0.193	0.133
-716.762	63.368	0.025	-0.025
-715.748	-57.848	-0.244	-0.108
-714.733	236.375	-0.224	-0.374
-713.718	-172.775	-0.376	-0.012
-712.704	-200.000	-0.063	0.350
-711.689	-108.407	0.168	-0.036
-710.675	-26.913	-0.326	0.192
-709.660	441.625	-0.038	0.084
-708.645	-135.167	0.039	-0.005
-707.631	23.169	-0.113	-0.094
-706.616	-200.000	-0.011	0.223
-705.602	800.000	-0.068	0.250
-704.587	64.800	0.183	-0.186
-703.572	415.173	-0.175	0.376
-702.558	-17.341	0.243	0.155
-701.543	14.089	-0.205	-0.162
-700.529	-127.081	-0.133	0.020
-699.514	-200.000	0.052	-0.359
-698.499	-200.000	0.012	0.072
-697.485	-64.255	-0.320	-0.132
-696.470	-200.000	-0.030	-0.192
-695.456	169.284	-0.120	-0.173
-694.441	500.232	-0.077	-0.178
-693.426	-200.000	0.033	0.272
-692.412	77.770	-0.138	0.148
-691.397	-108.503	-0.156	0.034
-690.383	-103.455	-0.156	-0.037
-689.368	375.820	0.132	0.272
-688.354	800.000	-0.022	-0.085
-687.339	19.844	-0.122	-0.099
-686.324	-70.775	0.324	-0.124
-685.310	-76.839	-0.219	-0.077
-684.295	-96.880	0.341	-0.090
-683.281	-200.000	-0.005	0.031
-682.266	30.857	-0.123	0.107
-681.251	-26.503	-0.303	-0.179
-680.237	800.000	-0.070	-0.240
-679.222	-120.212	-0.365	-0.063
-678.208	-39.106	0.187	0.099
-677.193	-200.000	-0.024	-0.170
-676.178	-136.018	-0.204	-0.024
-675.164	-200.000	0.019	0.114
-674.149	-57.438	0.303	-0.134
-673.135	-200.000	-0.056	0.253
-672.120	-103.513	-0.257	0.061
-671.105	-77.523	-0.190	-0.067
-670.091	135.926	-0.093	-0.122
-669.076	-117.388	-0.128	-0.023
-668.062	-200.000	0.048	0.214
-667.047	-21.028	-0.100	-0.062
-666.032	-200.000	-0.013	-0.198
-665.018	17.853	0.059	0.047
-664.003	-106.436	0.333	0.075
-662.989	80.199	-0.189	-0.205
-661.974	800.000	0.103	-0.384
-660.959	60.461	0.172	-0.171
-659.945	-200.000	0.031	-0.200
-658.930	29.013	0.136	0.117
-657.916	-200.000	0.056	0.379
-656.901	-34.341	-0.321	0.177
-655.886	51.296	-0.096	0.092
-654.872	-102.367	-0.210	0.051
-653.857	-21.270	0.041	0.025
-652.843	-42.652	0.299	-0.153
-651.828	-200.000	-0.043	0.206
-650.814	-28.173	0.134	0.078
-649.799	175.436	-0.290	-0.423
-648.784	800.000	0.066	-0.222
-647.770	-145.523	-0.136	0.012
-646.755	-200.000	0.000	-0.093
-645.741	-45.391	0.077	0.039
-644.726	800.000	-0.134	0.438
-643.711	-147.084	0.236	-0.020
-642.697	390.602	-0.101	0.211
-641.682	-54.804	0.352	-0.160
-640.668	-21.731	-0.139	0.085
-639.653	25.552	-0.345	0.289
-638.638	-6.461	-0.112	0.077
-637.624	-144.534	-0.118	-0.011
-636.609	-18.328	-0.242	-0.152
-635.595	-152.686	-0.072	-0.005
-634.580	-184.736	-0.312	0.005
-633.565	-111.521	-0.513	0.105
-632.551	352.984	0.051	-0.102
-631.536	118.899	0.075	-0.094
-630.522	31.348	0.201	-0.174
-629.507	-200.000	-0.009	0.258
-628.492	-36.525	-0.148	0.080
-627.478	800.000	-0.079	0.254
-626.463	45.642	0.145	0.135
-625.449	-200.000	-0.083	-0.491
-624.434	-177.812	0.055	0.001
-623.419	-86.942	0.206	-0.063
-622.405	280.302	0.145	0.260
-621.390	800.000	-0.019	0.082
-620.376	800.000	0.138	0.408
-619.361	266.595	-0.079	-0.139
-618.346	800.000	0.027	-0.113
-617.332	-80.209	0.052	0.018
-616.317	604.125	-0.049	0.122
-615.303	-17.755	0.158	0.100
-614.288	12.487	0.121	-0.094
-613.273	-94.876	0.156	-0.043
-612.259	716.239	0.126	-0.337
-611.244	242.325	-0.081	-0.137
-610.230	5.283	0.226	0.168
-609.215	-36.473	-0.124	-0.067
-608.201	800.000	-0.175	-0.490
-607.186	212.966	-0.021	0.034
-606.171	-53.806	0.176	0.081
-605.157	800.000	-0.007	-0.021
-604.142	-64.863	0.388	0.158
-603.128	-200.000	-0.032	-0.279
-602.113	800.000	-0.088	-0.245
-601.098	-106.986	0.294	0.065
-600.084	-103.037	-0.134	-0.032
-599.069	43.000	-0.106	-0.097
-598.055	-140.592	-0.139	-0.015
-597.040	-153.258	0.126	-0.009
-596.025	40.035	-0.077	0.070
-595.011	800.000	0.142	-0.503
-593.996	-30.493	-0.350	-0.199
-592.982	513.702	-0.051	0.120
-591.967	-132.445	0.271	0.035
-590.952	-200.000	0.004	-0.277
-589.938	-200.000	0.042	0.505
-588.923	-150.803	-0.366	0.028
-587.909	0.552	-0.167	-0.120
-586.894	800.000	0.093	-0.293
-585.879	-138.974	-0.446	-0.049
-584.865	-62.539	0.035	0.014
-583.850	-200.000	-0.011	0.189
-582.836	72.463	-0.268	0.280
-581.821	-19.747	0.124	-0.077
-580.806	800.000	-0.055	0.227
-579.792	7.168	-0.234	-0.176
-578.777	-187.292	0.187	0.003
-577.763	-200.000	-0.061	-0.466
-576.748	-109.653	0.188	-0.040
-575.733	17.777	-0.141	0.113
-574.719	-35.469	0.400	-0.218
-573.704	-39.870	-0.169	-0.088
-572.690	-44.431	-0.259	-0.130
-571.675	446.400	-0.108	0.239
-570.661	-156.727	0.258	-0.016
-569.646	-11.011	0.133	0.088
-568.631	-135.654	0.085	0.010
-567.617	131.135	-0.122	0.157
-566.602	800.000	-0.048	0.147
-565.588	-119.013	0.139	0.024
-564.573	340.180	0.044	0.087
-563.558	800.000	0.078	-0.286
-562.544	355.770	-0.073	-0.145
-561.529	-200.000	0.013	-0.165
-560.515	-200.000	-0.018	-0.228
-559.500	196.068	-0.072	-0.110
-558.485	-200.000	0.009	-0.203
-557.471	800.000	0.012	0.053
-556.456	775.909	0.076	-0.207
-555.442	233.684	0.186	-0.307
-554.427	-200.000	0.015	-0.252
-553.412	-69.308	-0.262	-0.101
-552.398	800.000	0.055	-0.179
-551.383	-98.615	-0.201	0.052
-550.369	-48.865	0.118	-0.057
-549.354	-90.856	0.028	0.008
-548.339	-51.443	-0.233	-0.109
-547.325	-147.639	-0.202	0.017
-546.310	404.719	0.089	-0.188
-545.296	78.767	-0.153	-0.164
-544.281	172.937	0.167	-0.242
-543.266	-110.428	-0.287	0.060
-542.252	476.191	0.160	0.364
-541.237	63.423	0.060	-0.060
-540.223	-142.735	0.309	-0.030
-539.208	-61.029	0.174	0.074
-538.193	-200.000	-0.041	-0.260
-537.179	133.491	0.138	0.180
-536.164	314.674	0.117	0.221
-535.150	-200.000	0.009	-0.269
-534.135	107.824	-0.079	-0.094
-533.121	134.973	0.114	-0.149
-532.106	800.000	-0.069	-0.234
-531.091	470.299	0.021	-0.047
-530.077	784.833	-0.021	-0.058
-529.062	351.980	-0.174	0.346
-528.048	40.945	-0.221	-0.200
-527.033	336.512	-0.158	0.308
-526.018	665.501	0.095	0.245
-525.004	-49.571	0.217	-0.104
-523.989	324.053	-0.030	0.057
-522.975	73.573	-0.147	0.154
-521.960	-166.150	0.067	0.003
-520.945	800.000	-0.027	0.094
-519.931	-143.257	-0.108	0.010
-518.916	-27.786	-0.065	-0.038
-517.902	13.016	-0.167	0.130
-516.887	162.630	0.126	0.178
-515.872	-105.804	0.193	-0.044
-514.858	800.000	-0.015	0.058
-513.843	611.264	-0.066	0.164
-512.829	800.000	0.098	-0.328
-511.814	-36.321	0.247	-0.134
-510.799	800.000	-0.017	-0.068
-509.785	422.103	-0.100	0.215
-508.770	229.962	0.109	0.179
-507.756	-125.334	-0.264	0.040
-506.741	67.978	0.098	-0.101
-505.726	794.911	0.080	-0.220
-504.712	-200.000	0.002	-0.114
-503.697	-101.623	0.214	0.052
-502.683	-200.000	-0.040	-0.201
-501.668	-50.125	-0.084	0.040
-500.653	-200.000	-0.001	-0.098
-499.639	-156.798	0.368	-0.023
-498.624	51.845	0.065	-0.062
-497.610	-59.236	-0.338	-0.146
-496.595	800.000	-0.050	-0.209
-495.581	202.187	0.160	-0.247
-494.566	800.000	0.032	0.094
-493.551	45.025	0.076	-0.070
-492.537	-29.193	-0.555	-0.318
-491.522	-22.724	0.213	0.129
-490.508	-47.062	0.271	0.133
-489.493	62.347	-0.125	-0.125
-488.478	-200.000	0.060	0.288
-487.464	-63.943	0.558	0.229
-486.449	24.918	-0.102	-0.084
-485.435	-50.707	-0.324	-0.153
-484.420	-200.000	-0.005	0.086
-483.405	-200.000	-0.004	-0.038
-482.391	82.668	0.177	0.193
-481.376	-153.687	0.325	-0.022
-480.362	39.163	-0.044	-0.040
-479.347	-200.000	-0.027	0.282
-478.332	-200.000	-0.005	0.106
-477.318	499.133	-0.032	-0.073
-476.303	-60.022	0.207	0.088
-475.289	375.781	0.108	0.221
-474.274	-138.258	-0.118	-0.013
-473.259	-27.326	0.144	-0.084
-472.245	-200.000	0.059	-0.484
-471.230	35.687	0.278	-0.245
-470.216	800.000	-0.079	0.278
-469.201	171.632	-0.171	0.245
-468.186	-200.000	-0.006	0.452
-467.172	13.848	-0.164	0.127
-466.157	97.531	0.150	-0.172
-465.143	800.000	-0.101	-0.306
-464.128	62.408	0.198	0.198
-463.113	-200.000	0.055	0.465
-462.099	73.780	0.097	-0.101
-461.084	87.619	-0.291	0.322
-460.070	116.850	0.186	-0.228
-459.055	-71.098	-0.152	0.057
-458.040	-200.000	0.008	-0.050
-457.026	296.702	-0.111	-0.203
-456.011	41.330	0.099	0.089
-454.997	-132.885	0.197	-0.025
-453.982	58.919	0.074	-0.073
-452.968	-165.057	-0.166	-0.007
-451.953	800.000	0.039	0.154
-450.938	-200.000	0.012	0.122
-449.924	-50.350	0.092	-0.043
-448.909	-75.762	-0.330	-0.117
-447.895	800.000	0.036	-0.110
-446.880	79.397	-0.140	0.150
-445.865	-47.950	-0.091	-0.044
-444.851	-39.550	0.108	-0.056
-443.836	-200.000	0.009	-0.193
-442.822	-163.133	0.132	-0.006
-441.807	-160.065	-0.335	0.018
-440.792	-138.292	0.199	0.022
-439.778	-200.000	0.010	0.146
-438.763	800.000	-0.035	0.149
-437.749	-26.059	0.278	-0.163
-436.734	-27.136	-0.049	0.029
-435.719	125.441	-0.201	-0.254
-434.705	236.800	-0.147	-0.242
-433.690	381.289	-0.150	-0.308
-432.676	-200.000	0.006	-0.031
-431.661	267.399	0.084	0.147
-430.646	219.768	-0.073	0.117
-429.632	200.418	0.078	-0.119
-428.617	-58.789	-0.229	0.099
-427.603	-200.000	-0.013	0.307
-426.588	-200.000	-0.026	-0.237
-425.573	81.501	-0.060	0.065
-424.559	-200.000	-0.037	0.498
-423.544	38.437	-0.119	0.106
-422.530	-200.000	0.005	0.139
-421.515	-152.010	-0.318	0.023
-420.500	-43.861	-0.136	-0.068
-419.486	-200.000	0.008	0.152
-418.471	-200.000	0.017	0.126
-417.457	800.000	-0.014	-0.039
-416.442	-108.516	-0.105	-0.023
-415.428	-141.159	0.041	-0.004
-414.413	40.673	0.081	0.073
-413.398	800.000	0.060	0.212
-412.384	259.593	0.168	-0.290
-411.369	-200.000	-0.009	0.143
-410.355	-200.000	-0.021	0.182
-409.340	476.267	-0.044	-0.100
-408.325	-10.369	-0.079	-0.052
-407.311	-145.787	0.462	0.041
-406.296	81.384	-0.144	-0.156
-405.282	-94.394	0.334	0.091
-404.267	-93.957	-0.137	-0.038
-403.252	-15.931	-0.158	0.101
-402.238	-3.143	-0.317	-0.221
-401.223	-123.113	-0.127	0.020
-400.209	-108.840	-0.299	0.064
-399.194	-6.475	0.162	0.110
-398.179	244.267	-0.035	-0.059
-397.165	45.192	-0.152	-0.140
-396.150	-200.000	0.014	-0.070
-395.136	-64.499	0.212	-0.086
-394.121	138.626	0.155	-0.203
-393.106	442.863	-0.043	-0.095
-392.092	-200.000	0.056	-0.257
-391.077	103.540	0.324	0.379
-390.063	-3.286	-0.346	0.240
-389.048	-50.740	0.205	0.096
-388.033	233.102	0.208	0.341
-387.019	52.174	0.409	0.389
-386.004	141.855	-0.145	-0.192
-384.990	698.738	0.032	0.083
-383.975	80.651	-0.209	0.224
-382.960	16.794	-0.200	-0.158
-381.946	-128.514	0.205	-0.029
-380.931	-102.128	0.111	0.027
-379.917	800.000	0.043	0.136
-378.902	-200.000	-0.053	0.269
-377.888	-200.000	-0.042	-0.282
-376.873	249.449	-0.119	0.200
-375.858	-200.000	-0.010	0.147
-374.844	325.923	-0.150	-0.287
-373.829	-98.705	0.185	0.047
-372.815	800.000	-0.043	-0.178
-371.800	800.000	-0.147	-0.413
-370.785	-67.910	0.263	0.102
-369.771	-132.019	0.286	0.037
-368.756	-200.000	0.004	0.079
-367.742	-80.801	-0.255	-0.085
-366.727	-170.214	-0.135	-0.005
-365.712	365.400	0.101	0.202
-364.698	649.759	0.094	-0.241
-363.683	18.977	-0.211	0.168
-362.669	18.454	-0.159	0.126
-361.654	-91.051	-0.127	0.036
-360.639	-84.798	0.291	0.091
-359.625	57.235	0.103	0.101
-358.610	735.398	-0.132	0.352
-357.596	228.619	-0.150	-0.244
-356.581	800.000	-0.037	-0.143
-355.566	-65.024	0.332	0.134
-354.552	93.439	-0.215	-0.243
-353.537	-200.000	0.031	0.579
-352.523	-74.533	-0.098	0.035
-351.508	-15.747	-0.415	0.263
-350.493	-78.077	0.302	-0.103
-349.479	800.000	-0.027	0.116
-348.464	-200.000	-0.021	0.156
-347.450	-113.970	0.325	-0.063
-346.435	-91.702	0.129	0.036
-345.420	644.214	0.166	0.422
-344.406	-200.000	-0.006	0.082
-343.391	75.666	0.335	0.352
-342.377	84.190	-0.040	0.043
-341.362	-200.000	0.009	-0.130
-340.348	-18.161	0.154	-0.096
-339.333	-121.943	0.052	0.008
-338.318	-130.116	0.420	0.057
-337.304	251.707	0.119	-0.202
-336.289	108.384	0.328	0.390
-335.275	15.299	0.383	-0.299
-334.260	-34.504	0.124	-0.068
-333.245	-138.941	0.286	0.031
-332.231	-200.000	0.022	0.248
-331.216	162.726	0.154	-0.215
-330.202	75.597	-0.107	0.112
-329.187	-200.000	0.013	-0.156
-328.172	-200.000	-0.072	0.347
-327.158	-97.489	-0.422	-0.109
-326.143	163.225	-0.168	0.235
-325.129	6.910	0.350	-0.259
-324.114	50.768	-0.157	-0.148
-323.099	-200.000	0.014	0.154
-322.085	-200.000	0.028	0.129
-321.070	-132.443	-0.270	0.035
-320.056	800.000	0.090	0.283
-319.041	-31.173	-0.186	0.104
-318.026	-114.147	-0.115	-0.022
-317.012	-200.000	-0.025	-0.159
-315.997	800.000	0.053	0.173
-314.983	-67.600	-0.164	0.064
-313.968	-76.787	0.170	-0.059
-312.953	-200.000	0.040	0.178
-311.939	-200.000	-0.052	-0.243
-310.924	-113.398	-0.131	-0.025
-309.910	38.338	0.212	-0.188
-308.895	147.625	0.111	0.149
-307.880	-66.234	-0.225	-0.089
-306.866	109.502	0.221	0.263
-305.851	54.023	-0.270	0.258
-304.837	-200.000	-0.046	0.249
-303.822	-167.072	0.304	-0.012
-302.807	-51.993	-0.304	-0.141
-301.793	-135.608	0.097	0.011
-300.778	-43.334	0.102	0.051
-299.764	27.376	0.126	-0.105
-298.749	-38.045	0.187	0.099
-297.735	-99.704	0.134	-0.033
-296.720	-200.000	0.081	0.710
-295.705	36.929	-0.062	0.054
-294.691	-177.632	-0.117	0.003
-293.676	164.886	-0.163	-0.229
-292.662	-166.108	-0.197	0.008
-291.647	15.708	-0.325	-0.254
-290.632	-111.569	0.364	-0.074
-289.618	145.711	-0.080	-0.107
-288.603	10.930	0.289	0.219
-287.589	60.960	0.210	-0.207
-286.574	800.000	-0.087	0.313
-285.559	-200.000	0.048	0.264
-284.545	-113.404	0.406	0.079
-283.530	63.442	-0.173	-0.172
-282.516	-81.468	-0.022	0.007
-281.501	-174.179	0.272	-0.008
-280.486	-126.139	-0.266	-0.040
-279.472	-106.896	0.231	0.051
-278.457	-93.155	-0.157	-0.043
-277.443	21.636	0.238	-0.193
-276.428	24.992	0.177	-0.146
-275.413	81.885	0.212	0.228
-274.399	-42.802	0.155	0.078
-273.384	-108.776	0.099	-0.021
-272.370	104.420	0.138	0.161
-271.355	-200.000	0.044	-0.442
-270.340	-13.138	-0.237	-0.153
-269.326	-39.303	0.016	-0.008
-268.311	467.950	0.068	-0.152
-267.297	496.982	0.133	0.304
-266.282	-105.521	-0.217	-0.049
-265.267	800.000	0.132	0.492
-264.253	495.031	-0.032	0.072
-263.238	-55.222	0.275	0.122
-262.224	376.982	0.204	0.413
-261.209	280.288	-0.096	-0.171
-260.195	-7.420	0.118	-0.079
-259.180	-200.000	-0.081	0.362
-258.165	66.594	-0.113	0.114
-257.151	176.474	-0.232	0.335
-256.136	-200.000	-0.065	-0.292
-255.122	-123.464	-0.395	0.062
-254.107	-200.000	-0.000	0.064
-253.092	254.673	0.034	-0.058
-252.078	63.636	0.066	-0.065
-251.063	194.693	-0.283	-0.426
-250.049	-3.050	-0.146	-0.101
-249.034	800.000	-0.064	-0.211
-248.019	10.713	-0.054	-0.041
-247.005	800.000	0.102	-0.292
-245.990	-101.409	-0.088	-0.021
-244.976	-2.687	-0.074	-0.051
-243.961	-92.954	0.318	-0.088
-242.946	548.073	0.069	-0.165
-241.932	800.000	0.021	-0.083
-240.917	-145.699	-0.223	-0.020
-239.903	-112.260	-0.246	-0.049
-238.888	-106.710	-0.071	-0.016
-237.873	-37.662	0.438	-0.231
-236.859	-114.676	0.435	0.083
-235.844	800.000	-0.078	0.307
-234.830	-21.188	-0.188	0.114
-233.815	-53.888	-0.447	0.202
-232.800	800.000	-0.102	0.301
-231.786	-159.298	0.184	0.010
-230.771	-44.657	-0.357	-0.177
-229.757	250.725	-0.114	-0.193
-228.742	-109.247	-0.267	-0.056
-227.727	26.973	0.067	-0.056
-226.713	-71.570	-0.153	-0.057
-225.698	83.034	0.041	0.044
-224.684	800.000	0.074	-0.262
-223.669	-1.515	0.332	0.232
-222.655	-200.000	0.033	-0.153
-221.640	-112.608	0.090	0.018
-220.625	386.156	0.049	-0.101
-219.611	800.000	-0.010	0.034
-218.596	259.484	0.015	0.025
-217.582	209.398	-0.062	-0.097
-216.567	-36.768	0.022	-0.012
-215.552	-134.098	-0.101	0.012
-214.538	385.071	0.098	0.201
-213.523	-119.259	-0.318	0.055
-212.509	800.000	-0.080	-0.286
-211.494	-75.305	-0.323	-0.114
-210.479	-8.271	0.233	-0.155
-209.465	-29.718	0.249	0.141
-208.450	710.149	-0.142	-0.373
-207.436	-93.934	-0.402	0.109
-206.421	-200.000	0.011	-0.091
-205.406	19.973	0.331	-0.264
-204.392	-88.445	0.287	0.085
-203.377	-200.000	0.041	-0.442
-202.363	146.125	0.191	-0.254
-201.348	-200.000	0.059	-0.279
-200.333	800.000	-0.065	0.271
-199.319	205.586	0.119	-0.184
-198.304	161.160	-0.132	-0.183
-197.290	800.000	-0.049	-0.162
-196.275	32.906	-0.268	-0.230
-195.260	35.019	-0.155	0.134
-194.246	82.333	0.130	-0.139
-193.231	-200.000	0.015	-0.186
-192.217	-19.622	0.060	0.036
-191.202	20.288	-0.021	0.017
-190.187	-200.000	0.012	-0.196
-189.173	72.404	0.149	0.154
-188.158	-117.213	0.342	0.062
-187.144	383.197	0.229	0.467
-186.129	-19.700	-0.215	0.132
-185.114	-130.269	-0.252	0.034
-184.100	1.181	-0.159	0.113
-183.085	145.485	-0.153	-0.203
-182.071	464.233	-0.141	-0.311
-181.056	-25.349	0.075	0.044
-180.042	-40.545	-0.255	-0.131
-179.027	-105.821	-0.154	-0.034
-178.012	-97.103	-0.304	-0.079
-176.998	600.408	0.118	0.291
-175.983	-72.382	0.170	0.062
-174.969	-88.210	-0.226	0.067
-173.954	80.068	0.081	-0.086
-172.939	-103.306	0.078	-0.018
-171.925	16.024	-0.134	0.104
-170.910	341.234	-0.116	0.224
-169.896	-117.054	-0.119	-0.022
-168.881	-200.000	-0.064	0.370
-167.866	44.520	0.090	-0.082
-166.852	-29.620	-0.323	0.182
-165.837	522.082	-0.119	0.277
-164.823	-200.000	0.001	-0.159
-163.808	800.000	0.091	0.354
-162.793	-115.966	-0.064	0.012
-161.779	649.208	-0.165	-0.416
-160.764	-200.000	-0.001	-0.154
-159.750	-77.296	-0.140	0.048
-158.735	-148.875	-0.171	-0.014
-157.720	753.733	-0.101	0.269
-156.706	207.676	0.098	-0.152
-155.691	112.886	0.109	-0.131
-154.677	315.725	0.066	0.123
-153.662	-77.869	-0.136	0.046
-152.647	-59.345	0.193	-0.082
-151.633	-107.298	0.192	0.042
-150.618	129.224	-0.023	0.029
-149.604	-100.131	0.166	-0.041
-148.589	-33.654	-0.233	0.127
-147.574	693.847	-0.103	-0.266
-146.560	800.000	0.027	0.076
-145.545	-29.376	-0.172	-0.097
-144.531	-184.896	-0.103	-0.002
-143.516	-22.048	-0.294	-0.176
-142.502	-47.378	-0.131	-0.063
-141.487	-70.743	0.402	0.150
-140.472	-42.342	0.228	0.115
-139.458	-111.149	0.158	0.032
-138.443	-41.975	-0.077	0.039
-137.429	-13.365	-0.174	-0.111
-136.414	-18.417	-0.042	-0.026
-135.399	292.450	0.055	0.099
-134.385	800.000	0.048	-0.206
-133.370	-200.000	-0.003	-0.127
-132.356	-200.000	-0.083	-0.389
-131.341	623.264	0.054	-0.134
-130.326	-112.509	0.051	0.010
-129.312	-123.088	-0.184	-0.029
-128.297	514.091	0.109	0.251
-127.283	210.594	-0.097	-0.150
-126.268	-14.769	-0.124	-0.079
-125.253	800.000	-0.007	0.021
-124.239	159.049	-0.159	-0.218
-123.224	-8.811	0.157	-0.104
