DTS Sentinel unit serial number:	SN413079Multiplexer serial number:	ORYXHardware model number:	OX4-SRSoftware version number:	ORYX F/W v4.00 Oryx Data Collector v3.7.2.0data status	okinstallation	princeton_trtdifferential loss correction	single-endedforward channel	channel 3reverse channel	N/Adate	2019/09/12time	02:10:11forward acquisition time	60.00reverse acquisition time	0.00gamma	496.2192k internal	0.2320k external	0.2320temperature offset calibration	1.0060default loss term (dB/km)	0.3790temperature slope calibration	1.0000multiplexer offset coefficient	1.0000multiplexer slope coefficient	1.0000fibre end	0.00T internal ref (°C)	32.69T ext. ref 1 (°C)	2.07T ext. ref 2 (°C)	27.40length (m)	temperature (°C)	Stokes	anti-Stokes-747.200	-200.000	-0.065	0.326
-746.185	-100.736	-0.230	-0.057
-745.171	-49.565	0.132	-0.063
-744.156	53.509	0.123	0.119
-743.142	-109.990	-0.081	0.017
-742.127	-200.000	0.038	0.182
-741.112	463.255	-0.163	0.369
-740.098	-200.000	0.007	0.293
-739.083	-143.403	0.063	-0.006
-738.069	79.416	-0.212	0.230
-737.054	800.000	0.084	0.275
-736.039	62.788	0.013	0.013
-735.025	-200.000	-0.042	-0.215
-734.010	-144.896	-0.305	-0.028
-732.996	-138.833	-0.273	0.030
-731.981	-128.977	-0.321	-0.045
-730.966	-108.231	0.156	-0.034
-729.952	-6.766	-0.274	0.188
-728.937	-21.820	-0.166	-0.102
-727.923	-95.501	0.385	-0.104
-726.908	-9.632	-0.086	0.058
-725.894	99.869	-0.148	-0.173
-724.879	107.479	-0.013	-0.015
-723.864	-11.897	0.291	-0.193
-722.850	-124.220	-0.172	0.027
-721.835	-85.529	-0.290	0.091
-720.821	-34.873	-0.098	-0.054
-719.806	-10.957	0.085	-0.057
-718.791	-121.933	-0.217	-0.036
-717.777	-98.235	0.208	-0.054
-716.762	-0.879	0.279	-0.200
-715.748	45.269	-0.052	-0.048
-714.733	-38.478	0.191	0.102
-713.718	785.845	0.055	-0.153
-712.704	-84.125	0.163	0.052
-711.689	31.765	0.107	-0.093
-710.675	-5.654	-0.135	0.094
-709.660	-96.357	0.191	-0.051
-708.645	-15.831	-0.363	-0.233
-707.631	-200.000	-0.002	0.124
-706.616	-149.586	0.155	-0.012
-705.602	31.454	-0.191	-0.166
-704.587	-173.920	-0.079	0.002
-703.572	3.308	-0.088	0.065
-702.558	-163.308	-0.344	-0.017
-701.543	505.994	-0.050	-0.116
-700.529	297.348	0.055	-0.101
-699.514	800.000	-0.060	-0.177
-698.499	198.933	0.045	-0.070
-697.485	-200.000	-0.017	0.191
-696.470	78.806	0.098	0.106
-695.456	-200.000	0.033	0.159
-694.441	-200.000	-0.009	0.177
-693.426	-105.285	0.365	0.084
-692.412	-175.780	0.043	0.001
-691.397	-68.376	-0.342	0.134
-690.383	625.983	-0.032	-0.080
-689.368	-200.000	-0.021	-0.154
-688.354	93.785	-0.185	0.212
-687.339	236.630	-0.084	-0.140
-686.324	-176.068	0.217	0.006
-685.310	61.687	0.212	0.213
-684.295	13.662	-0.169	-0.132
-683.281	-13.216	-0.362	-0.237
-682.266	589.274	-0.208	-0.516
-681.251	141.772	-0.218	-0.292
-680.237	-200.000	-0.011	-0.301
-679.222	141.684	0.164	-0.219
-678.208	-58.755	0.161	0.070
-677.193	-21.716	-0.283	-0.174
-676.178	184.131	-0.174	0.260
-675.164	246.309	-0.132	-0.225
-674.149	133.824	0.102	-0.133
-673.135	389.273	-0.140	-0.292
-672.120	574.413	0.128	-0.315
-671.105	20.223	-0.143	-0.117
-670.091	24.285	0.107	-0.089
-669.076	-29.276	0.242	-0.140
-668.062	383.687	0.063	-0.131
-667.047	-57.370	-0.195	-0.086
-666.032	70.120	0.058	0.060
-665.018	88.382	-0.096	-0.107
-664.003	-117.175	-0.215	-0.039
-662.989	-103.908	0.220	0.052
-661.974	22.828	-0.103	-0.085
-660.959	-200.000	0.052	-0.610
-659.945	-195.962	0.206	0.001
-658.930	-107.713	-0.466	0.102
-657.916	707.408	-0.039	0.103
-656.901	249.935	0.212	0.363
-655.886	120.316	0.057	0.071
-654.872	800.000	-0.040	-0.147
-653.857	-53.941	0.127	0.058
-652.843	296.767	0.065	-0.119
-651.828	190.413	0.086	0.131
-650.814	800.000	-0.096	-0.363
-649.799	-7.131	-0.308	-0.210
-648.784	-90.475	0.127	0.037
-647.770	800.000	0.082	-0.299
-646.755	800.000	-0.027	0.111
-645.741	-169.675	0.281	-0.010
-644.726	4.317	-0.181	-0.133
-643.711	226.233	0.070	-0.115
-642.697	541.469	-0.132	-0.317
-641.682	25.172	0.169	-0.141
-640.668	-10.550	-0.209	0.140
-639.653	-48.939	-0.058	-0.028
-638.638	26.721	0.273	0.230
-637.624	-150.557	-0.324	-0.025
-636.609	52.904	-0.188	-0.181
-635.595	631.574	-0.021	0.054
-634.580	107.791	-0.189	-0.226
-633.565	263.042	0.045	-0.078
-632.551	311.737	0.034	0.065
-631.536	-81.676	0.079	-0.026
-630.522	800.000	-0.047	0.189
-629.507	667.619	-0.109	0.284
-628.492	100.932	-0.178	0.208
-627.478	-15.959	0.031	0.020
-626.463	13.706	0.058	-0.045
-625.449	-200.000	-0.012	0.116
-624.434	-184.943	0.143	-0.002
-623.419	-142.387	0.054	-0.005
-622.405	-106.558	-0.318	-0.071
-621.390	-142.451	-0.285	0.028
-620.376	-98.322	-0.039	0.010
-619.361	199.190	0.075	0.116
-618.346	-64.730	0.109	0.044
-617.332	224.820	-0.228	-0.372
-616.317	260.087	-0.093	-0.162
-615.303	-75.130	0.250	-0.090
-614.288	-60.847	-0.111	0.047
-613.273	-60.110	0.161	-0.069
-612.259	-77.353	0.186	-0.065
-611.244	143.637	0.112	-0.150
-610.230	-93.940	0.100	0.028
-609.215	29.807	-0.370	0.317
-608.201	375.653	-0.116	-0.238
-607.186	9.574	-0.147	0.112
-606.171	110.586	0.315	-0.381
-605.157	13.545	0.187	0.146
-604.142	113.238	-0.241	-0.294
-603.128	-200.000	-0.038	-0.170
-602.113	-172.517	0.057	-0.002
-601.098	81.509	-0.112	-0.122
-600.084	800.000	0.040	0.123
-599.069	94.564	-0.062	-0.070
-598.055	-112.516	-0.306	-0.061
-597.040	800.000	0.063	-0.243
-596.025	-200.000	-0.002	-0.011
-595.011	-200.000	-0.060	-0.451
-593.996	-73.530	-0.043	0.016
-592.982	-200.000	0.062	-0.552
-591.967	-63.673	0.274	-0.113
-590.952	-42.418	0.304	0.156
-589.938	-176.587	0.423	0.011
-588.923	-200.000	0.008	-0.373
-587.909	-200.000	-0.030	-0.259
-586.894	800.000	-0.074	0.275
-585.879	241.457	-0.177	0.297
-584.865	-200.000	0.028	-0.254
-583.850	-200.000	-0.008	-0.095
-582.836	-2.823	-0.183	0.129
-581.821	800.000	-0.048	0.193
-580.806	199.442	-0.117	0.181
-579.792	66.047	-0.193	-0.197
-578.777	15.780	0.166	0.131
-577.763	797.998	-0.071	-0.197
-576.748	-149.260	0.111	0.009
-575.733	800.000	0.042	0.148
-574.719	15.333	0.113	0.089
-573.704	-200.000	-0.070	0.336
-572.690	29.540	0.043	0.037
-571.675	13.589	0.236	0.184
-570.661	94.712	-0.027	0.031
-569.646	92.750	-0.097	0.110
-568.631	552.050	-0.172	0.414
-567.617	559.469	0.058	0.141
-566.602	681.877	-0.084	-0.220
-565.588	-200.000	-0.022	-0.180
-564.573	-4.578	-0.151	-0.105
-563.558	445.382	-0.045	-0.099
-562.544	800.000	0.028	-0.102
-561.529	-89.964	-0.248	0.073
-560.515	-90.928	0.300	0.087
-559.500	-61.397	0.272	0.115
-558.485	-200.000	0.081	0.522
-557.471	767.753	0.074	0.202
-556.456	-55.541	-0.168	-0.075
-555.442	38.016	0.161	-0.143
-554.427	-85.661	0.425	-0.132
-553.412	-200.000	0.038	0.380
-552.398	104.580	-0.177	-0.209
-551.383	-50.536	-0.063	-0.030
-550.369	44.167	-0.164	0.151
-549.354	667.063	-0.105	0.274
-548.339	-10.190	-0.106	0.070
-547.325	-200.000	0.054	0.342
-546.310	364.831	0.029	0.058
-545.296	205.094	-0.069	-0.108
-544.281	192.394	-0.066	-0.100
-543.266	-60.534	0.440	0.188
-542.252	36.212	0.257	-0.227
-541.237	13.569	-0.205	-0.160
-540.223	15.353	0.221	-0.174
-539.208	-33.594	0.065	-0.036
-538.193	-163.781	0.293	-0.014
-537.179	427.812	0.080	0.174
-536.164	800.000	0.049	0.143
-535.150	-187.513	-0.059	-0.001
-534.135	114.800	-0.045	-0.055
-533.121	-12.698	0.090	-0.059
-532.106	114.905	-0.085	-0.103
-531.091	450.199	-0.076	0.167
-530.077	-200.000	-0.012	-0.087
-529.062	-200.000	-0.100	-0.677
-528.048	7.888	0.259	0.195
-527.033	-200.000	0.036	0.260
-526.018	17.745	0.182	0.145
-525.004	-118.925	0.071	0.012
-523.989	739.647	0.110	-0.296
-522.975	-200.000	-0.028	-0.200
-521.960	-94.072	-0.276	0.076
-520.945	243.144	0.123	0.207
-519.931	353.631	0.132	0.263
-518.916	800.000	0.032	-0.126
-517.902	-157.052	0.400	0.024
-516.887	-83.818	0.120	-0.038
-515.872	-200.000	-0.040	-0.324
-514.858	76.221	0.087	-0.092
-513.843	719.572	0.149	-0.397
-512.829	-61.255	0.454	-0.192
-511.814	-200.000	-0.022	-0.117
-510.799	26.818	-0.144	0.121
-509.785	-34.215	-0.032	0.018
-508.770	-156.640	-0.537	0.033
-507.756	-100.974	0.214	-0.053
-506.741	-185.580	0.140	-0.002
-505.726	-23.892	0.154	-0.093
-504.712	-73.342	0.266	0.098
-503.697	18.027	-0.078	0.062
-502.683	-9.406	-0.182	-0.122
-501.668	44.344	0.042	-0.039
-500.653	800.000	-0.078	-0.326
-499.639	-37.021	0.188	0.101
-498.624	-33.749	-0.114	-0.063
-497.610	-178.377	0.063	0.001
-496.595	-40.120	-0.141	0.073
-495.581	161.848	0.015	0.022
-494.566	-200.000	-0.032	0.368
-493.551	-129.371	-0.200	0.028
-492.537	125.056	0.061	0.076
-491.522	-140.098	0.624	-0.066
-490.508	-115.903	-0.398	0.074
-489.493	-200.000	0.004	-0.022
-488.478	800.000	0.060	-0.167
-487.464	272.727	-0.197	-0.347
-486.449	116.070	-0.221	0.271
-485.435	-200.000	0.040	0.248
-484.420	207.822	0.092	-0.144
-483.405	800.000	-0.062	0.200
-482.391	-61.282	0.291	-0.123
-481.376	100.744	0.241	0.280
-480.362	278.294	0.054	-0.096
-479.347	144.624	-0.127	0.169
-478.332	40.633	-0.155	-0.140
-477.318	-200.000	-0.026	0.312
-476.303	-119.637	0.219	-0.038
-475.289	264.324	-0.171	0.299
-474.274	-99.334	0.476	0.120
-473.259	142.040	-0.097	0.128
-472.245	-200.000	0.077	-0.431
-471.230	-116.795	-0.511	0.094
-470.216	100.288	0.286	-0.332
-469.201	714.229	-0.134	-0.355
-468.186	242.020	-0.139	0.232
-467.172	81.747	-0.156	-0.169
-466.157	-172.575	-0.490	-0.015
-465.143	80.091	0.067	-0.072
-464.128	5.364	-0.144	-0.106
-463.113	201.456	0.234	-0.361
-462.099	215.275	-0.101	-0.161
-461.084	800.000	-0.032	0.093
-460.070	-200.000	-0.009	-0.136
-459.055	-133.493	0.297	0.037
-458.040	596.879	0.074	0.183
-457.026	260.785	0.247	0.428
-456.011	800.000	0.062	-0.238
-454.997	396.616	0.114	-0.239
-453.982	-57.735	-0.107	-0.047
-452.968	527.243	0.019	-0.045
-451.953	-200.000	0.040	-0.184
-450.938	-38.832	0.292	0.154
-449.924	-20.000	0.232	0.143
-448.909	-143.308	-0.125	0.012
-447.895	-125.235	0.405	0.062
-446.880	-156.673	-0.060	-0.004
-445.865	-200.000	-0.002	0.356
-444.851	800.000	-0.035	-0.142
-443.836	-31.136	0.143	0.081
-442.822	-200.000	0.000	-0.215
-441.807	-43.129	0.223	-0.113
-440.792	-21.667	0.122	0.074
-439.778	-200.000	0.004	0.093
-438.763	185.919	-0.035	0.052
-437.749	-8.997	0.233	0.156
-436.734	-48.778	0.205	-0.098
-435.719	694.634	0.097	0.253
-434.705	29.213	-0.159	0.135
-433.690	-65.960	0.214	-0.085
-432.676	81.008	-0.128	-0.138
-431.661	536.499	-0.021	-0.050
-430.646	-167.596	0.209	0.008
-429.632	85.447	0.242	-0.265
-428.617	323.588	0.122	-0.232
-427.603	139.140	0.218	0.287
-426.588	-132.531	-0.056	0.007
-425.573	434.794	0.026	-0.056
-424.559	105.611	-0.038	-0.045
-423.544	-83.234	-0.383	0.123
-422.530	-200.000	0.023	0.153
-421.515	425.155	0.112	0.242
-420.500	-182.021	-0.229	-0.004
-419.486	-97.968	-0.171	0.044
-418.471	157.362	0.165	0.228
-417.457	-200.000	0.028	0.218
-416.442	27.383	0.305	0.256
-415.428	-76.530	-0.106	0.037
-414.413	422.472	-0.060	0.129
-413.398	-18.386	-0.403	-0.252
-412.384	158.973	0.202	0.281
-411.369	800.000	0.077	-0.290
-410.355	221.338	0.160	0.256
-409.340	418.122	-0.139	0.296
-408.325	-149.727	-0.025	-0.002
-407.311	-72.278	-0.095	0.035
-406.296	45.437	0.278	0.256
-405.282	-200.000	-0.004	0.155
-404.267	-200.000	0.015	0.138
-403.252	166.995	0.098	-0.139
-402.238	320.677	-0.195	-0.370
-401.223	-200.000	0.100	-0.464
-400.209	800.000	0.107	-0.367
-399.194	-128.023	-0.240	0.034
-398.179	31.585	0.194	-0.166
-397.165	-200.000	-0.055	-0.300
-396.150	60.211	0.045	0.045
-395.136	-200.000	0.034	0.208
-394.121	-124.778	0.145	-0.022
-393.106	800.000	0.140	0.445
-392.092	-113.229	-0.131	0.026
-391.077	-97.488	-0.265	0.069
-390.063	-200.000	0.010	-0.341
-389.048	800.000	-0.092	-0.297
-388.033	-92.018	-0.173	0.049
-387.019	-80.360	-0.245	-0.082
-386.004	-60.730	-0.151	0.064
-384.990	-79.108	0.125	0.042
-383.975	-145.002	-0.230	0.021
-382.960	92.618	0.148	-0.166
-381.946	53.167	-0.075	0.072
-380.931	-70.697	0.189	0.071
-379.917	-200.000	-0.023	-0.203
-378.902	-151.466	-0.043	0.003
-377.888	-29.002	-0.145	-0.083
-376.873	-200.000	-0.027	-0.188
-375.858	-200.000	-0.007	0.034
-374.844	83.970	-0.111	-0.121
-373.829	-200.000	-0.047	0.214
-372.815	285.163	-0.190	0.342
-371.800	-40.386	-0.117	-0.061
-370.785	24.660	0.167	0.138
-369.771	-200.000	-0.036	0.233
-368.756	-86.712	0.243	0.074
-367.742	-74.551	0.203	0.073
-366.727	-104.982	0.149	0.034
-365.712	-200.000	0.002	-0.110
-364.698	89.635	0.211	0.235
-363.683	319.993	0.110	0.208
-362.669	800.000	0.057	0.236
-361.654	656.437	0.055	0.140
-360.639	46.289	-0.175	-0.162
-359.625	27.631	0.235	0.197
-358.610	-103.419	0.304	0.071
-357.596	-200.000	-0.017	-0.134
-356.581	53.265	0.163	-0.156
-355.566	87.843	-0.120	-0.133
-354.552	116.207	0.135	-0.164
-353.537	665.971	-0.106	-0.273
-352.523	-200.000	-0.029	0.324
-351.508	-156.861	0.172	0.011
-350.493	-124.937	0.130	-0.020
-349.479	-143.635	-0.074	0.007
-348.464	133.984	0.114	-0.146
-347.450	24.963	-0.110	0.091
-346.435	0.539	0.213	0.152
-345.420	259.259	0.059	0.101
-344.406	800.000	0.046	0.162
-343.391	-44.558	-0.187	0.093
-342.377	10.379	-0.113	-0.085
-341.362	47.044	0.304	0.282
-340.348	-200.000	-0.022	0.192
-339.333	360.634	-0.126	0.252
-338.318	-6.441	-0.233	-0.158
-337.304	-71.115	0.096	-0.036
-336.289	-132.501	-0.271	-0.035
-335.275	123.783	-0.185	-0.231
-334.260	172.408	-0.150	0.214
-333.245	-148.004	-0.229	0.019
-332.231	800.000	0.072	0.208
-331.216	38.392	0.145	0.129
-330.202	3.419	-0.073	-0.053
-329.187	394.947	-0.127	-0.263
-328.172	-3.257	-0.122	-0.084
-327.158	99.471	-0.314	0.361
-326.143	650.098	0.103	-0.261
-325.129	14.952	0.124	0.097
-324.114	-104.041	-0.419	-0.097
-323.099	0.333	0.039	0.028
-322.085	98.781	0.137	-0.157
-321.070	-106.786	0.208	0.046
-320.056	297.151	0.041	-0.075
-319.041	137.331	-0.201	-0.261
-318.026	293.573	0.133	0.241
-317.012	149.385	-0.149	0.201
-315.997	642.390	-0.073	-0.186
-314.983	800.000	-0.029	-0.115
-313.968	-83.754	0.509	0.161
-312.953	-5.391	-0.277	0.189
-311.939	366.575	-0.143	0.286
-310.924	-136.359	0.296	-0.034
-309.910	-97.876	0.118	-0.030
-308.895	-96.409	0.526	-0.138
-307.880	47.747	-0.234	-0.217
-306.866	-113.919	-0.252	-0.049
-305.851	-200.000	-0.035	-0.300
-304.837	-38.214	0.161	-0.085
-303.822	-173.066	-0.226	0.007
-302.807	122.723	-0.055	0.068
-301.793	-71.451	-0.452	0.168
-300.778	-128.733	0.265	0.037
-299.764	179.697	-0.090	0.131
-298.749	-91.873	-0.371	0.105
-297.735	-88.176	-0.192	0.057
-296.720	-123.258	0.195	-0.031
-295.705	239.174	0.160	0.264
-294.691	-200.000	0.020	-0.195
-293.676	15.331	-0.337	-0.262
-292.662	61.031	-0.210	-0.207
-291.647	-13.953	0.321	0.206
-290.632	-200.000	-0.063	-0.437
-289.618	10.682	0.160	0.121
-288.603	-6.912	0.055	-0.037
-287.589	-24.446	0.316	0.187
-286.574	221.435	-0.206	0.329
-285.559	129.836	0.087	0.110
-284.545	-85.422	0.175	0.054
-283.530	-64.444	0.073	-0.030
-282.516	-150.892	0.235	-0.018
-281.501	-200.000	-0.033	-0.231
-280.486	237.275	-0.096	0.158
-279.472	800.000	0.067	0.213
-278.457	227.420	0.162	0.261
-277.443	-117.490	0.266	-0.048
-276.428	-200.000	0.055	0.248
-275.413	-103.348	0.062	-0.014
-274.399	-41.511	-0.086	-0.044
-273.384	-83.564	-0.306	0.097
-272.370	-72.766	-0.129	0.047
-271.355	64.036	0.038	-0.038
-270.340	-36.677	-0.246	0.131
-269.326	800.000	0.007	-0.028
-268.311	75.047	-0.191	0.200
-267.297	72.112	0.227	-0.234
-266.282	-37.321	0.198	0.105
-265.267	-200.000	0.038	0.183
-264.253	-200.000	-0.012	-0.168
-263.238	-102.838	-0.191	-0.045
-262.224	-24.373	-0.207	0.123
-261.209	10.896	-0.136	-0.103
-260.195	80.725	-0.286	0.305
-259.180	29.383	-0.112	0.094
-258.165	-200.000	-0.001	-0.132
-257.151	800.000	0.034	0.115
-256.136	-200.000	-0.028	0.326
-255.122	-64.560	-0.366	-0.147
-254.107	-80.085	0.111	-0.037
-253.092	53.139	-0.131	0.125
-252.078	800.000	0.041	-0.177
-251.063	7.807	-0.048	0.035
-250.049	-108.115	-0.418	-0.090
-249.034	18.483	0.046	0.036
-248.019	363.280	-0.116	0.231
-247.005	-14.606	0.179	-0.114
-245.990	235.414	0.167	0.274
-244.976	195.113	-0.090	-0.136
-243.961	-200.000	0.048	-0.457
-242.946	498.075	0.101	0.230
-241.932	-200.000	-0.046	0.335
-240.917	53.781	-0.074	-0.071
-239.903	640.802	0.055	0.138
-238.888	-105.495	-0.171	-0.039
-237.873	668.753	0.072	-0.185
-236.859	-105.378	0.211	0.048
-235.844	267.239	-0.178	-0.309
-234.830	800.000	-0.031	0.086
-233.815	64.074	0.145	-0.145
-232.800	-200.000	-0.066	0.403
-231.786	126.676	-0.292	0.367
-230.771	-49.963	-0.291	0.137
-229.757	-122.731	0.213	0.034
-228.742	-83.528	-0.062	-0.020
-227.727	39.851	0.185	-0.165
-226.713	-0.054	0.070	0.049
-225.698	800.000	0.035	0.132
-224.684	294.524	-0.269	-0.487
-223.669	129.219	-0.091	0.115
-222.655	43.843	-0.057	0.052
-221.640	-200.000	0.035	-0.175
-220.625	-143.312	0.473	-0.045
-219.611	-138.764	0.203	0.022
-218.596	-147.354	-0.202	0.017
-217.582	800.000	-0.093	-0.297
-216.567	-200.000	0.011	0.278
-215.552	519.687	-0.027	0.062
-214.538	-200.000	-0.033	-0.340
-213.523	-34.560	-0.250	-0.136
-212.509	800.000	0.115	0.315
-211.494	-146.963	0.261	0.022
-210.479	351.798	0.022	0.043
-209.465	-121.172	-0.316	-0.052
-208.450	-157.110	-0.131	-0.008
-207.436	-112.105	-0.319	0.064
-206.421	590.498	-0.108	-0.264
-205.406	-129.306	-0.163	-0.022
-204.392	-200.000	-0.009	-0.321
-203.377	11.872	-0.182	0.138
-202.363	62.322	-0.087	-0.086
-201.348	183.822	0.147	-0.215
-200.333	483.626	-0.111	0.250
-199.319	180.319	-0.249	-0.361
-198.304	-200.000	0.062	-0.336
-197.290	163.545	-0.133	0.185
-196.275	271.005	-0.111	-0.193
-195.260	219.902	-0.039	0.062
-194.246	-5.894	0.105	-0.071
-193.231	-130.090	-0.149	0.020
-192.217	204.861	0.097	-0.150
-191.202	-200.000	0.004	0.060
-190.187	-200.000	0.006	0.141
-189.173	-172.265	0.075	-0.002
-188.158	-102.132	-0.058	0.014
-187.144	368.428	-0.040	0.080
-186.129	350.134	0.065	0.128
-185.114	175.571	0.131	0.188
-184.100	-110.488	0.415	0.085
-183.085	43.577	-0.239	-0.216
-182.071	-124.446	-0.323	0.050
-181.056	-200.000	-0.007	-0.055
-180.042	113.311	0.082	-0.098
-179.027	-36.583	0.160	0.085
-178.012	-112.629	-0.151	0.030
-176.998	130.203	-0.046	0.058
-175.983	399.598	0.113	-0.233
-174.969	-28.928	-0.258	-0.146
-173.954	701.459	-0.056	0.145
-172.939	-188.937	-0.175	-0.002
-171.925	-91.328	-0.329	0.093
-170.910	-61.744	-0.415	-0.172
-169.896	800.000	0.183	-0.500
-168.881	559.181	0.078	-0.187
-167.866	-200.000	0.001	0.133
-166.852	800.000	-0.017	-0.057
-165.837	-61.279	-0.205	-0.085
-164.823	-129.037	0.137	0.019
-163.808	800.000	0.077	0.215
-162.793	28.900	0.092	0.077
-161.779	-200.000	0.007	0.049
-160.764	136.611	0.044	0.057
-159.750	-41.172	0.253	-0.129
-158.735	660.203	-0.110	-0.279
-157.720	-92.764	0.154	0.043
-156.706	-200.000	-0.030	0.151
-155.691	-84.109	-0.417	0.131
-154.677	130.694	-0.024	0.030
-153.662	-103.255	0.188	-0.044
-152.647	46.469	0.213	0.195
-151.633	-200.000	-0.018	-0.278
-150.618	429.361	-0.085	-0.182
-149.604	-0.386	0.234	-0.164
-148.589	-13.686	0.107	0.069
-147.574	-186.215	-0.255	0.004
-146.560	-200.000	0.015	0.149
-145.545	800.000	0.078	-0.270
-144.531	-200.000	-0.007	-0.118
-143.516	7.557	-0.085	0.063
-142.502	-200.000	0.023	0.560
-141.487	32.732	-0.301	0.257
-140.472	-68.666	-0.107	0.041
-139.458	8.211	0.377	-0.280
-138.443	-200.000	0.012	0.136
-137.429	800.000	0.038	0.119
-136.414	-172.529	0.119	-0.004
-135.399	-200.000	-0.025	0.134
-134.385	-64.065	-0.221	0.089
-133.370	-69.333	-0.117	-0.045
-132.356	-41.439	-0.136	0.069
-131.341	385.968	0.099	-0.201
-130.326	-174.107	-0.360	-0.010
-129.312	65.266	0.187	-0.187
-128.297	-200.000	0.048	-0.213
-127.283	-78.450	0.146	-0.049
-126.268	-200.000	-0.016	-0.163
-125.253	213.122	0.046	-0.072
-124.239	462.611	0.167	-0.367
-123.224	-200.000	0.001	0.070
-122.210	-200.000	0.031	0.175
-121.195	48.643	0.266	-0.246
