DTS Sentinel unit serial number:	SN413079Multiplexer serial number:	ORYXHardware model number:	OX4-SRSoftware version number:	ORYX F/W v4.00 Oryx Data Collector v3.7.2.0data status	okinstallation	princeton_trtdifferential loss correction	single-endedforward channel	channel 3reverse channel	N/Adate	2019/09/11time	01:46:11forward acquisition time	60.00reverse acquisition time	0.00gamma	496.2192k internal	0.2331k external	0.2331temperature offset calibration	0.9911default loss term (dB/km)	0.3790temperature slope calibration	1.0000multiplexer offset coefficient	1.0000multiplexer slope coefficient	1.0000fibre end	0.00T internal ref (°C)	29.17T ext. ref 1 (°C)	-0.31T ext. ref 2 (°C)	23.18length (m)	temperature (°C)	Stokes	anti-Stokes-747.200	-93.041	0.087	0.025
-746.185	800.000	-0.059	0.230
-745.171	-175.594	0.078	0.002
-744.156	-80.990	-0.192	0.064
-743.142	800.000	-0.152	-0.433
-742.127	-200.000	0.024	0.126
-741.112	-173.840	0.171	0.005
-740.098	-200.000	-0.032	0.174
-739.083	297.612	0.090	-0.166
-738.069	-200.000	0.048	0.377
-737.054	339.280	0.103	0.202
-736.039	482.988	-0.103	0.235
-735.025	78.794	0.045	0.048
-734.010	800.000	-0.037	0.144
-732.996	-71.424	-0.127	0.048
-731.981	-200.000	-0.053	-0.614
-730.966	-81.879	-0.102	0.034
-729.952	-200.000	-0.015	0.095
-728.937	800.000	0.034	-0.142
-727.923	568.659	-0.075	-0.183
-726.908	-55.237	-0.505	0.228
-725.894	800.000	0.066	-0.208
-724.879	3.726	-0.155	-0.114
-723.864	-112.214	0.072	0.015
-722.850	-200.000	0.034	-0.203
-721.835	-112.103	0.125	0.025
-720.821	-46.842	-0.243	-0.119
-719.806	23.854	-0.044	0.036
-718.791	-200.000	0.018	0.091
-717.777	-200.000	-0.010	0.154
-716.762	-64.381	-0.295	0.120
-715.748	-200.000	0.019	-0.091
-714.733	-152.760	-0.784	-0.056
-713.718	10.424	-0.337	-0.258
-712.704	-106.702	0.046	-0.010
-711.689	-200.000	0.008	0.229
-710.675	74.023	-0.108	0.114
-709.660	800.000	-0.080	-0.307
-708.645	16.005	-0.132	-0.105
-707.631	-7.402	-0.126	0.086
-706.616	-45.120	-0.039	-0.019
-705.602	22.082	0.159	-0.130
-704.587	47.899	0.145	0.136
-703.572	-1.561	0.204	-0.145
-702.558	454.862	-0.125	0.277
-701.543	1.463	-0.301	-0.218
-700.529	-93.630	0.118	-0.033
-699.514	-200.000	-0.006	-0.053
-698.499	-200.000	0.015	-0.094
-697.485	800.000	-0.098	-0.397
-696.470	239.829	-0.130	0.218
-695.456	-91.521	-0.025	0.007
-694.441	313.528	-0.098	0.186
-693.426	-142.567	0.209	0.021
-692.412	174.213	0.097	-0.141
-691.397	249.520	-0.064	0.109
-690.383	46.038	0.223	0.208
-689.368	52.669	-0.098	0.094
-688.354	-68.523	0.115	-0.045
-687.339	-104.374	-0.221	0.051
-686.324	-200.000	-0.057	0.356
-685.310	51.196	0.142	0.135
-684.295	113.860	-0.181	0.221
-683.281	10.786	-0.097	0.074
-682.266	124.006	0.172	-0.217
-681.251	81.907	0.058	-0.063
-680.237	-200.000	-0.002	-0.212
-679.222	321.616	-0.155	0.296
-678.208	246.270	-0.067	0.114
-677.193	-69.292	-0.282	-0.109
-676.178	10.509	-0.127	-0.097
-675.164	153.108	-0.135	-0.186
-674.149	-94.534	0.098	0.027
-673.135	-200.000	-0.013	0.079
-672.120	41.176	0.082	-0.075
-671.105	800.000	-0.082	-0.298
-670.091	-106.205	0.231	-0.052
-669.076	-69.665	-0.228	0.087
-668.062	-200.000	0.022	-0.366
-667.047	174.372	-0.280	-0.406
-666.032	117.053	-0.006	-0.008
-665.018	-141.626	-0.286	-0.029
-664.003	407.307	-0.120	0.255
-662.989	30.016	-0.131	0.112
-661.974	-200.000	0.036	-0.183
-660.959	-51.668	-0.327	-0.153
-659.945	22.398	-0.178	-0.146
-658.930	-139.522	0.109	0.012
-657.916	-95.737	0.203	0.054
-656.901	-8.522	-0.148	0.099
-655.886	35.591	-0.070	0.062
-654.872	800.000	-0.030	0.093
-653.857	268.478	0.052	-0.091
-652.843	257.242	-0.160	-0.276
-651.828	-200.000	-0.009	-0.194
-650.814	-35.324	0.187	-0.102
-649.799	-161.495	-0.314	0.016
-648.784	94.891	0.152	-0.173
-647.770	54.899	0.203	0.197
-646.755	11.129	-0.049	-0.037
-645.741	-156.418	-0.247	0.015
-644.726	61.084	-0.027	0.027
-643.711	-54.308	0.094	-0.043
-642.697	-32.855	-0.166	-0.092
-641.682	486.148	-0.126	-0.289
-640.668	-187.629	0.066	0.001
-639.653	244.207	-0.071	0.119
-638.638	800.000	0.022	-0.087
-637.624	-0.986	-0.109	0.077
-636.609	-200.000	-0.001	-0.376
-635.595	18.019	-0.060	0.048
-634.580	420.950	0.023	-0.049
-633.565	35.309	-0.139	-0.122
-632.551	-148.465	-0.094	0.008
-631.536	-200.000	-0.008	-0.256
-630.522	-200.000	0.008	0.076
-629.507	-67.001	0.177	-0.070
-628.492	29.786	0.177	-0.151
-627.478	80.817	0.084	-0.090
-626.463	510.159	0.053	-0.122
-625.449	47.882	-0.161	-0.150
-624.434	-9.225	-0.295	0.197
-623.419	-112.735	0.151	-0.030
-622.405	-196.152	-0.126	0.001
-621.390	-3.011	0.250	0.175
-620.376	582.544	-0.104	0.255
-619.361	-97.575	-0.313	0.081
-618.346	35.634	0.059	0.052
-617.332	-104.474	0.012	0.003
-616.317	800.000	-0.043	0.176
-615.303	25.716	0.377	-0.315
-614.288	-129.156	0.054	0.008
-613.273	43.186	0.179	-0.163
-612.259	714.534	0.067	0.177
-611.244	-112.756	0.047	0.009
-610.230	118.656	-0.286	0.353
-609.215	271.931	-0.046	0.081
-608.201	195.958	-0.220	-0.335
-607.186	53.621	0.131	-0.126
-606.171	800.000	-0.091	-0.260
-605.157	-194.630	0.501	-0.004
-604.142	-81.155	0.192	-0.063
-603.128	-8.987	0.101	0.068
-602.113	-133.883	-0.085	-0.011
-601.098	3.669	-0.187	-0.136
-600.084	86.309	0.127	-0.140
-599.069	-108.700	0.154	0.033
-598.055	-156.197	-0.203	-0.013
-597.040	800.000	0.033	-0.103
-596.025	13.625	-0.042	0.032
-595.011	800.000	-0.057	-0.199
-593.996	34.812	-0.072	-0.063
-592.982	-200.000	-0.051	0.348
-591.967	22.599	-0.053	-0.043
-590.952	148.988	-0.040	0.054
-589.938	-200.000	0.004	-0.069
-588.923	76.455	0.232	0.246
-587.909	800.000	0.075	0.282
-586.894	91.210	-0.166	-0.186
-585.879	-48.034	-0.258	-0.125
-584.865	-200.000	0.002	0.137
-583.850	-200.000	0.014	0.075
-582.836	216.131	0.131	0.208
-581.821	-62.566	-0.049	0.020
-580.806	79.071	0.153	0.163
-579.792	-26.170	-0.120	0.071
-578.777	800.000	-0.004	0.014
-577.763	118.577	-0.081	-0.100
-576.748	186.277	-0.138	-0.205
-575.733	5.365	-0.281	-0.207
-574.719	277.406	-0.069	0.124
-573.704	-96.399	-0.392	0.104
-572.690	27.437	0.083	-0.070
-571.675	-112.077	-0.199	-0.040
-570.661	312.443	-0.132	0.248
-569.646	-200.000	-0.001	0.016
-568.631	198.147	0.210	-0.320
-567.617	-18.284	0.207	-0.129
-566.602	800.000	-0.062	-0.215
-565.588	-33.545	0.406	0.224
-564.573	264.624	-0.122	0.212
-563.558	-160.219	0.299	-0.016
-562.544	-130.560	-0.165	0.022
-561.529	-200.000	0.006	-0.184
-560.515	-200.000	-0.001	-0.526
-559.500	800.000	-0.039	0.114
-558.485	800.000	-0.102	0.434
-557.471	517.204	-0.090	0.210
-556.456	-151.070	-0.259	0.019
-555.442	346.052	0.067	-0.132
-554.427	551.072	-0.090	0.216
-553.412	-48.919	0.219	-0.105
-552.398	-8.733	-0.057	0.038
-551.383	800.000	0.144	0.449
-550.369	800.000	0.043	-0.131
-549.354	800.000	-0.080	0.232
-548.339	-51.962	0.062	0.029
-547.325	-0.711	0.208	-0.147
-546.310	-122.872	-0.130	-0.021
-545.296	-58.186	-0.146	0.063
-544.281	-101.314	-0.043	0.010
-543.266	-63.380	0.298	0.122
-542.252	42.027	0.228	0.206
-541.237	-30.268	-0.192	-0.109
-540.223	592.072	0.185	0.457
-539.208	304.616	-0.117	0.216
-538.193	-41.729	0.389	0.199
-537.179	-60.754	0.112	-0.047
-536.164	-164.811	-0.465	-0.021
-535.150	454.209	-0.153	0.338
-534.135	235.556	-0.066	0.108
-533.121	201.568	0.070	-0.108
-532.106	534.498	-0.123	-0.291
-531.091	505.744	-0.091	0.211
-530.077	800.000	0.079	-0.249
-529.062	-200.000	0.029	-0.172
-528.048	-50.602	0.132	0.062
-527.033	241.230	-0.062	-0.104
-526.018	-39.772	-0.289	-0.151
-525.004	81.740	-0.080	-0.087
-523.989	-7.343	-0.269	-0.181
-522.975	-200.000	0.016	0.182
-521.960	8.572	0.228	0.171
-520.945	137.815	0.098	-0.128
-519.931	-200.000	0.002	0.258
-518.916	2.648	-0.055	-0.040
-517.902	764.885	0.128	-0.348
-516.887	-200.000	0.007	-0.180
-515.872	-148.275	0.236	-0.019
-514.858	58.564	-0.062	-0.060
-513.843	-103.133	-0.379	0.089
-512.829	800.000	-0.027	-0.086
-511.814	-200.000	-0.021	0.178
-510.799	-12.847	-0.174	0.113
-509.785	800.000	0.037	0.139
-508.770	69.477	-0.231	-0.237
-507.756	77.911	0.147	-0.156
-506.741	-177.422	-0.019	-0.000
-505.726	184.860	-0.154	0.228
-504.712	-75.553	0.232	0.082
-503.697	-200.000	-0.056	0.392
-502.683	172.814	-0.111	0.159
-501.668	29.903	0.238	-0.202
-500.653	32.162	0.148	0.128
-499.639	-154.373	-0.256	-0.017
-498.624	89.399	0.132	0.146
-497.610	18.646	-0.237	0.189
-496.595	45.014	-0.072	0.066
-495.581	25.508	0.355	0.294
-494.566	-200.000	0.018	0.146
-493.551	653.249	0.043	0.111
-492.537	-126.542	0.392	-0.058
-491.522	-200.000	0.030	0.134
-490.508	800.000	0.058	0.202
-489.493	160.813	-0.231	-0.321
-488.478	143.575	-0.148	-0.196
-487.464	-200.000	-0.015	-0.103
-486.449	10.199	-0.186	-0.141
-485.435	71.278	-0.302	-0.313
-484.420	-155.269	0.320	0.021
-483.405	142.218	-0.047	-0.062
-482.391	-88.952	-0.305	0.090
-481.376	-143.805	-0.146	-0.014
-480.362	-114.283	-0.425	0.082
-479.347	-155.559	-0.121	0.008
-478.332	-88.066	-0.290	0.087
-477.318	584.819	-0.107	-0.262
-476.303	-169.309	0.068	0.003
-475.289	-156.786	-0.415	-0.025
-474.274	88.025	0.041	0.045
-473.259	255.189	-0.264	-0.450
-472.245	-200.000	0.014	-0.346
-471.230	83.359	0.090	-0.098
-470.216	-177.712	0.173	-0.004
-469.201	800.000	-0.016	-0.045
-468.186	442.362	0.033	-0.071
-467.172	-96.827	-0.291	-0.076
-466.157	800.000	0.049	-0.167
-465.143	-200.000	-0.077	0.452
-464.128	283.415	0.088	-0.158
-463.113	-8.431	0.003	-0.002
-462.099	167.122	0.098	0.138
-461.084	-6.095	-0.261	-0.177
-460.070	-200.000	0.003	0.195
-459.055	220.443	0.059	0.095
-458.040	-21.326	-0.369	0.224
-457.026	-54.048	-0.132	-0.060
-456.011	-171.517	-0.390	0.013
-454.997	-109.845	0.155	0.032
-453.982	226.178	-0.052	-0.084
-452.968	623.504	0.108	0.271
-451.953	-61.359	-0.100	-0.042
-450.938	45.782	-0.109	-0.100
-449.924	-53.586	0.051	0.023
-448.909	-18.141	-0.050	0.031
-447.895	-200.000	0.008	0.248
-446.880	-200.000	-0.009	0.071
-445.865	92.137	0.175	0.196
-444.851	72.616	0.126	0.131
-443.836	-14.412	-0.033	0.021
-442.822	229.714	-0.078	0.127
-441.807	17.321	-0.044	0.034
-440.792	-200.000	0.053	0.265
-439.778	-200.000	0.241	0.001
-438.763	-111.987	-0.126	-0.025
-437.749	-200.000	-0.076	0.359
-436.734	800.000	0.111	0.387
-435.719	70.277	0.185	0.190
-434.705	5.225	-0.121	0.089
-433.690	103.146	0.291	-0.339
-432.676	-200.000	0.054	-0.260
-431.661	52.980	0.301	-0.286
-430.646	-32.002	0.276	0.154
-429.632	800.000	0.052	0.183
-428.617	-200.000	-0.012	0.123
-427.603	570.687	-0.121	0.292
-426.588	217.301	-0.096	-0.152
-425.573	167.471	-0.079	-0.111
-424.559	40.839	-0.363	-0.325
-423.544	-200.000	-0.023	-0.244
-422.530	1.462	-0.072	0.051
-421.515	337.700	0.066	-0.128
-420.500	102.826	-0.315	-0.367
-419.486	-106.263	-0.253	0.056
-418.471	30.678	0.082	-0.070
-417.457	68.741	0.096	0.098
-416.442	69.145	0.126	-0.129
-415.428	-150.951	0.229	-0.017
-414.413	48.256	0.124	0.116
-413.398	10.770	0.152	0.115
-412.384	-149.448	0.294	0.023
-411.369	-37.016	-0.344	-0.183
-410.355	-200.000	-0.060	-0.329
-409.340	-200.000	-0.020	0.128
-408.325	199.149	0.248	-0.378
-407.311	102.307	0.056	0.065
-406.296	-4.262	-0.103	-0.071
-405.282	800.000	0.065	0.177
-404.267	-105.912	0.144	-0.032
-403.252	107.549	-0.099	-0.117
-402.238	-75.992	0.296	-0.104
-401.223	387.947	0.269	0.553
-400.209	-33.004	-0.218	0.120
-399.194	-19.567	-0.152	0.093
-398.179	800.000	-0.044	-0.128
-397.165	115.456	-0.083	-0.101
-396.150	60.192	-0.171	0.168
-395.136	-112.920	-0.423	-0.083
-394.121	-91.911	0.256	-0.072
-393.106	-196.974	0.117	-0.001
-392.092	-155.444	0.397	-0.025
-391.077	162.135	0.225	0.313
-390.063	-200.000	-0.021	-0.118
-389.048	-28.401	0.145	0.083
-388.033	723.739	0.075	0.198
-387.019	-130.698	0.234	-0.031
-386.004	800.000	-0.080	0.310
-384.990	800.000	-0.024	0.092
-383.975	365.788	0.075	-0.151
-382.960	431.187	0.066	-0.143
-381.946	-78.559	-0.411	-0.140
-380.931	185.189	-0.065	-0.095
-379.917	-200.000	0.013	-0.076
-378.902	-200.000	0.039	-0.296
-377.888	-11.258	0.071	0.046
-376.873	-200.000	0.033	-0.330
-375.858	84.408	0.257	0.278
-374.844	-87.342	-0.167	0.050
-373.829	-89.067	0.297	-0.087
-372.815	29.176	-0.302	-0.254
-371.800	63.148	0.072	0.072
-370.785	-63.915	-0.369	0.150
-369.771	-200.000	0.022	-0.200
-368.756	-95.641	0.147	-0.039
-367.742	3.818	0.097	-0.070
-366.727	-92.528	0.293	0.082
-365.712	-45.332	0.147	0.072
-364.698	215.416	0.047	0.074
-363.683	-91.766	-0.463	0.130
-362.669	-113.971	-0.117	-0.023
-361.654	19.155	0.033	0.027
-360.639	-113.144	0.179	0.035
-359.625	-35.096	-0.174	0.094
-358.610	432.033	0.097	-0.209
-357.596	800.000	-0.104	-0.337
-356.581	-200.000	0.023	0.193
-355.566	332.066	-0.053	-0.102
-354.552	800.000	-0.057	-0.219
-353.537	-116.812	0.290	-0.053
-352.523	74.428	-0.140	0.145
-351.508	133.382	0.138	-0.177
-350.493	-135.107	0.281	0.034
-349.479	800.000	-0.044	0.150
-348.464	411.993	0.111	-0.233
-347.450	-121.873	-0.107	-0.017
-346.435	-123.827	-0.102	0.016
-345.420	650.716	0.177	0.450
-344.406	447.742	0.080	0.174
-343.391	-46.449	0.169	-0.082
-342.377	307.017	-0.053	-0.098
-341.362	392.551	0.113	0.233
-340.348	402.810	-0.022	0.046
-339.333	59.151	0.136	0.133
-338.318	-56.454	0.097	-0.043
-337.304	-148.306	-0.227	-0.018
-336.289	-200.000	0.029	-0.378
-335.275	-200.000	-0.008	0.082
-334.260	53.739	0.104	0.098
-333.245	762.513	0.190	0.509
-332.231	-101.059	0.186	0.045
-331.216	590.208	-0.098	-0.238
-330.202	171.873	-0.201	-0.286
-329.187	682.590	-0.118	0.304
-328.172	-92.145	0.105	-0.029
-327.158	-103.621	0.182	-0.042
-326.143	113.397	0.196	-0.235
-325.129	166.756	0.123	-0.173
-324.114	-73.899	0.183	0.066
-323.099	285.491	-0.051	0.092
-322.085	-12.616	0.395	0.255
-321.070	-145.357	-0.217	-0.019
-320.056	-8.038	-0.151	-0.101
-319.041	-75.573	0.199	0.070
-318.026	396.485	0.028	0.057
-317.012	25.326	0.210	-0.173
-315.997	-126.275	0.290	0.043
-314.983	604.867	0.128	0.316
-313.968	189.319	0.042	0.062
-312.953	-200.000	-0.031	-0.192
-311.939	-171.569	0.217	0.007
-310.924	-200.000	-0.002	-0.114
-309.910	56.171	-0.165	-0.158
-308.895	-200.000	-0.020	-0.192
-307.880	354.846	-0.169	0.332
-306.866	-173.720	0.310	-0.009
-305.851	472.251	-0.040	0.089
-304.837	-75.892	0.338	-0.118
-303.822	0.264	-0.091	-0.064
-302.807	538.110	0.048	-0.113
-301.793	800.000	0.083	0.243
-300.778	800.000	0.072	-0.243
-299.764	-106.339	-0.133	-0.030
-298.749	800.000	0.086	0.311
-297.735	-147.531	-0.199	0.017
-296.720	28.454	0.164	-0.137
-295.705	340.212	-0.160	-0.309
-294.691	800.000	0.012	-0.049
-293.676	-164.290	0.170	-0.008
-292.662	158.688	-0.165	0.226
-291.647	800.000	-0.064	-0.215
-290.632	-173.053	0.266	-0.008
-289.618	-35.631	0.462	0.248
-288.603	-7.123	-0.134	-0.090
-287.589	800.000	0.020	-0.074
-286.574	-74.645	0.188	0.067
-285.559	31.640	0.133	0.113
-284.545	33.656	0.051	-0.044
-283.530	-115.927	-0.132	0.024
-282.516	24.234	0.202	-0.165
-281.501	-43.894	0.260	-0.129
-280.486	-200.000	-0.083	0.481
-279.472	-60.577	0.107	-0.045
-278.457	497.379	-0.093	-0.211
-277.443	143.738	-0.075	0.099
-276.428	800.000	-0.037	-0.127
-275.413	-63.632	-0.422	-0.171
-274.399	-71.937	0.157	-0.058
-273.384	-116.516	-0.049	-0.009
-272.370	407.634	0.018	-0.038
-271.355	-200.000	0.015	-0.285
-270.340	-105.817	0.379	-0.085
-269.326	800.000	-0.091	0.254
-268.311	-44.709	-0.344	-0.169
-267.297	-200.000	0.002	0.168
-266.282	-98.555	0.142	0.036
-265.267	-200.000	0.026	-0.316
-264.253	800.000	0.016	0.063
-263.238	62.411	-0.063	0.062
-262.224	619.852	0.077	0.192
-261.209	57.234	0.082	0.079
-260.195	-118.180	-0.226	0.040
-259.180	333.088	-0.197	0.375
-258.165	90.129	-0.138	0.153
-257.151	8.596	-0.312	-0.232
-256.136	-179.074	-0.230	0.005
-255.122	86.341	-0.262	0.285
-254.107	-17.208	-0.113	0.070
-253.092	28.799	0.170	0.142
-252.078	-48.928	0.126	0.060
-251.063	-200.000	0.066	-0.388
-250.049	800.000	0.042	0.152
-249.034	-6.169	-0.259	0.175
-248.019	-26.009	-0.131	0.076
-247.005	-38.468	-0.152	0.079
-245.990	-193.945	0.384	0.003
-244.976	133.676	0.212	0.271
-243.961	17.279	-0.133	-0.104
-242.946	118.520	-0.072	-0.088
-241.932	-92.689	0.080	-0.022
-240.917	114.536	-0.082	-0.098
-239.903	-200.000	-0.040	-0.332
-238.888	378.413	0.084	0.170
-237.873	253.366	-0.123	-0.208
-236.859	-64.580	-0.064	-0.026
-235.844	418.445	-0.139	-0.294
-234.830	800.000	0.103	-0.357
-233.815	275.686	-0.112	-0.197
-232.800	6.486	0.147	0.108
-231.786	800.000	0.065	0.224
-230.771	-148.704	-0.251	0.020
-229.757	131.411	0.058	0.073
-228.742	637.570	0.148	0.371
-227.727	-22.130	0.057	-0.034
-226.713	-200.000	0.036	-0.259
-225.698	-151.874	-0.287	-0.021
-224.684	-200.000	-0.027	0.131
-223.669	-161.377	0.225	0.011
-222.655	-36.842	0.120	-0.063
-221.640	-200.000	-0.027	-0.173
-220.625	201.060	-0.221	-0.335
-219.611	286.892	0.080	-0.142
-218.596	492.443	-0.076	0.171
-217.582	-200.000	-0.013	0.214
-216.567	800.000	-0.062	-0.203
-215.552	217.668	-0.149	0.235
-214.538	-164.449	-0.380	-0.017
-213.523	228.498	-0.248	0.399
-212.509	-96.709	0.267	0.069
-211.494	634.539	-0.093	-0.233
-210.479	-60.475	-0.212	0.089
-209.465	489.544	-0.098	0.221
-208.450	31.873	-0.070	-0.060
-207.436	-101.648	0.142	-0.034
-206.421	-200.000	-0.099	0.432
-205.406	800.000	0.055	0.165
-204.392	108.523	-0.135	-0.159
-203.377	-200.000	-0.008	-0.192
-202.363	-104.263	-0.156	0.036
-201.348	-120.112	0.109	-0.018
-200.333	-36.708	0.246	-0.130
-199.319	186.066	-0.045	-0.066
-198.304	26.444	0.152	-0.125
-197.290	-85.407	-0.266	-0.082
-196.275	343.766	0.116	-0.225
-195.260	800.000	0.109	0.378
-194.246	800.000	0.018	-0.055
-193.231	163.200	0.049	-0.068
-192.217	-175.685	0.313	-0.008
-191.202	2.695	0.074	0.053
-190.187	-38.597	0.044	-0.023
-189.173	800.000	-0.090	0.263
-188.158	20.315	-0.227	0.180
-187.144	292.394	-0.315	0.566
-186.129	-187.915	0.268	-0.003
-185.114	38.368	0.282	-0.247
-184.100	-200.000	0.033	-0.211
-183.085	800.000	-0.054	0.203
-182.071	-68.623	0.401	0.153
-181.056	-200.000	-0.007	-0.090
-180.042	208.362	0.075	-0.116
-179.027	800.000	-0.071	0.270
-178.012	47.246	0.078	-0.072
-176.998	-74.492	-0.160	0.057
-175.983	243.075	-0.089	-0.147
-174.969	-88.402	-0.256	0.075
-173.954	738.628	0.047	0.124
-172.939	-53.181	-0.295	0.133
-171.925	800.000	-0.074	-0.318
-170.910	122.950	0.262	-0.322
-169.896	299.658	0.029	-0.052
-168.881	-47.416	0.204	-0.098
-167.866	-200.000	-0.025	-0.248
-166.852	216.509	0.050	-0.079
-165.837	-138.343	0.205	0.022
-164.823	-200.000	-0.055	-0.316
-163.808	-80.305	0.368	0.121
-162.793	-18.666	0.282	-0.173
-161.779	-200.000	-0.030	0.164
-160.764	-200.000	0.011	-0.277
-159.750	257.623	-0.164	0.277
-158.735	755.417	0.079	0.209
-157.720	252.253	0.077	-0.129
-156.706	-200.000	0.043	-0.190
-155.691	-144.221	0.041	-0.004
-154.677	31.541	-0.163	-0.138
-153.662	500.574	-0.078	-0.176
-152.647	-72.303	-0.155	-0.056
-151.633	800.000	-0.047	-0.189
-150.618	-36.639	-0.246	-0.130
-149.604	106.515	-0.058	0.068
-148.589	-165.119	0.421	-0.018
-147.574	-22.211	-0.250	0.149
-146.560	260.406	0.113	-0.192
-145.545	38.375	0.252	0.221
-144.531	-92.702	0.315	-0.087
-143.516	101.045	-0.212	-0.243
-142.502	48.034	0.200	-0.184
-141.487	-92.816	0.276	-0.076
-140.472	188.161	0.085	-0.125
-139.458	800.000	-0.085	-0.237
-138.443	211.397	0.016	-0.025
-137.429	-122.243	0.218	0.035
-136.414	222.126	0.183	-0.290
-135.399	3.126	0.066	-0.047
-134.385	-116.295	0.118	0.022
-133.370	-34.458	-0.103	-0.055
-132.356	-77.411	-0.135	0.046
-131.341	145.340	0.121	-0.160
-130.326	29.747	-0.113	-0.095
-129.312	-146.401	-0.100	0.009
-128.297	-200.000	-0.047	0.410
-127.283	-25.258	-0.201	0.117
-126.268	7.948	0.209	0.154
-125.253	42.395	0.097	0.087
-124.239	-64.410	-0.125	0.050
-123.224	-200.000	0.052	0.302
-122.210	0.630	0.076	-0.053
-121.195	-17.931	0.226	-0.139
-120.180	-200.000	0.040	0.322
