DTS Sentinel unit serial number:	SN413079Multiplexer serial number:	ORYXHardware model number:	OX4-SRSoftware version number:	ORYX F/W v4.00 Oryx Data Collector v3.7.2.0data status	okinstallation	princeton_trtdifferential loss correction	single-endedforward channel	channel 3reverse channel	N/Adate	2019/09/12time	07:42:10forward acquisition time	60.00reverse acquisition time	0.00gamma	496.2192k internal	0.2315k external	0.2315temperature offset calibration	1.0032default loss term (dB/km)	0.3790temperature slope calibration	1.0000multiplexer offset coefficient	1.0000multiplexer slope coefficient	1.0000fibre end	0.00T internal ref (°C)	32.75T ext. ref 1 (°C)	1.63T ext. ref 2 (°C)	29.02length (m)	temperature (°C)	Stokes	anti-Stokes-747.200	636.534	0.109	-0.281
-746.185	-4.346	-0.190	0.133
-745.171	15.889	0.126	-0.101
-744.156	110.476	-0.050	0.061
-743.142	585.964	-0.010	-0.025
-742.127	45.498	0.104	-0.097
-741.112	-130.418	0.178	0.024
-740.098	121.048	-0.076	0.095
-739.083	192.495	-0.056	0.086
-738.069	508.851	-0.108	0.255
-737.054	381.286	-0.091	0.189
-736.039	107.138	-0.372	-0.447
-735.025	-89.716	-0.402	0.119
-734.010	128.871	-0.094	-0.121
-732.996	428.882	-0.110	0.240
-731.981	55.027	0.240	0.234
-730.966	-59.469	-0.365	0.159
-729.952	-167.956	0.313	0.012
-728.937	800.000	0.114	-0.485
-727.923	-200.000	-0.055	0.277
-726.908	-200.000	-0.054	-0.270
-725.894	-156.813	-0.320	-0.020
-724.879	-200.000	-0.046	-0.403
-723.864	70.083	-0.081	-0.085
-722.850	74.119	-0.118	-0.125
-721.835	-34.163	-0.238	0.133
-720.821	-112.030	-0.139	-0.028
-719.806	75.757	-0.189	0.202
-718.791	-200.000	-0.012	0.104
-717.777	-98.384	-0.163	0.042
-716.762	20.314	-0.058	0.048
-715.748	-155.359	0.251	-0.017
-714.733	27.764	-0.092	-0.078
-713.718	-171.991	0.305	0.010
-712.704	33.726	0.062	0.055
-711.689	-72.769	0.034	0.013
-710.675	6.350	0.216	-0.162
-709.660	-167.793	0.463	0.018
-708.645	476.193	0.045	0.103
-707.631	-27.446	0.351	-0.206
-706.616	734.094	-0.013	0.035
-705.602	-200.000	-0.001	0.058
-704.587	-70.878	-0.193	0.074
-703.572	-200.000	-0.050	-0.251
-702.558	-39.810	-0.210	0.111
-701.543	800.000	-0.054	-0.158
-700.529	23.803	-0.307	0.256
-699.514	-200.000	0.024	-0.119
-698.499	-18.018	-0.123	0.078
-697.485	288.856	-0.038	-0.069
-696.470	202.170	0.125	-0.195
-695.456	800.000	-0.091	-0.376
-694.441	800.000	0.068	-0.244
-693.426	-200.000	0.013	0.283
-692.412	8.323	-0.162	-0.123
-691.397	-43.137	-0.211	-0.108
-690.383	-103.457	0.151	0.036
-689.368	-144.476	-0.172	-0.016
-688.354	1.522	0.090	0.065
-687.339	800.000	0.015	-0.047
-686.324	-41.283	-0.098	0.051
-685.310	207.452	-0.058	0.092
-684.295	800.000	0.084	-0.268
-683.281	-9.846	-0.392	0.264
-682.266	1.607	-0.130	-0.094
-681.251	-38.819	-0.083	0.044
-680.237	-57.085	0.287	-0.128
-679.222	227.299	-0.104	-0.171
-678.208	-200.000	0.007	-0.257
-677.193	-200.000	0.001	0.065
-676.178	-56.637	-0.206	-0.092
-675.164	-16.581	0.140	-0.089
-674.149	-182.360	0.171	0.003
-673.135	88.834	0.187	-0.210
-672.120	17.432	0.161	0.129
-671.105	67.471	-0.164	-0.169
-670.091	-125.482	-0.111	-0.017
-669.076	-91.762	0.207	0.059
-668.062	131.400	0.215	-0.279
-667.047	179.827	0.245	0.363
-666.032	-63.740	-0.179	0.074
-665.018	-113.144	0.185	0.037
-664.003	-200.000	0.049	-0.349
-662.989	-200.000	0.013	0.197
-661.974	-31.364	-0.307	0.175
-660.959	475.978	0.101	-0.230
-659.945	-200.000	0.052	-0.285
-658.930	-12.342	-0.152	-0.101
-657.916	-133.510	0.084	0.011
-656.901	230.675	-0.172	-0.283
-655.886	-200.000	-0.020	0.161
-654.872	-3.634	-0.223	0.156
-653.857	609.486	0.114	-0.287
-652.843	130.223	0.186	0.241
-651.828	-98.739	-0.058	0.015
-650.814	-200.000	0.050	-0.275
-649.799	534.886	0.151	-0.361
-648.784	-122.135	0.053	0.009
-647.770	-62.322	-0.179	0.075
-646.755	-200.000	0.017	-0.196
-645.741	74.636	-0.185	0.197
-644.726	-127.550	-0.095	-0.014
-643.711	-103.285	0.203	-0.048
-642.697	-98.070	-0.224	-0.058
-641.682	-2.210	0.060	0.043
-640.668	235.227	-0.071	0.119
-639.653	58.825	0.128	0.127
-638.638	219.581	-0.136	0.220
-637.624	114.568	-0.130	-0.160
-636.609	-200.000	0.012	0.152
-635.595	465.735	0.015	-0.034
-634.580	-153.229	0.068	-0.005
-633.565	-102.345	0.149	0.036
-632.551	20.929	0.175	-0.143
-631.536	800.000	-0.038	0.120
-630.522	-200.000	-0.004	-0.033
-629.507	-91.930	0.118	0.034
-628.492	-25.687	-0.128	0.076
-627.478	-97.982	0.091	-0.024
-626.463	-168.539	0.102	-0.004
-625.449	151.790	-0.238	-0.327
-624.434	-200.000	0.008	-0.132
-623.419	-200.000	0.020	0.158
-622.405	153.923	0.176	-0.244
-621.390	138.425	0.154	0.203
-620.376	-200.000	0.045	0.349
-619.361	278.175	-0.045	-0.080
-618.346	148.422	-0.110	-0.150
-617.332	-200.000	-0.000	0.157
-616.317	-40.158	0.179	0.094
-615.303	78.377	0.168	0.181
-614.288	-1.408	-0.150	0.107
-613.273	-200.000	-0.026	0.180
-612.259	800.000	-0.048	-0.161
-611.244	125.037	0.093	-0.118
-610.230	-30.847	0.044	0.025
-609.215	428.908	-0.181	-0.394
-608.201	22.360	0.295	-0.243
-607.186	-52.874	-0.174	0.081
-606.171	-164.408	0.112	0.005
-605.157	18.798	0.157	-0.127
-604.142	-24.188	0.234	0.141
-603.128	77.962	-0.090	0.097
-602.113	-56.044	0.285	-0.128
-601.098	79.152	-0.246	0.266
-600.084	-200.000	0.024	-0.144
-599.069	800.000	-0.046	0.162
-598.055	-42.158	0.126	0.065
-597.040	-45.654	0.236	-0.118
-596.025	220.778	0.111	-0.179
-595.011	40.331	0.208	0.189
-593.996	-101.513	-0.166	-0.041
-592.982	233.940	-0.103	0.170
-591.967	30.060	-0.068	0.059
-590.952	-124.356	-0.189	0.030
-589.938	-49.688	-0.067	-0.032
-588.923	-88.065	0.251	-0.076
-587.909	-200.000	0.002	0.049
-586.894	271.196	-0.128	0.227
-585.879	89.140	0.066	-0.074
-584.865	-200.000	0.069	-0.435
-583.850	-92.270	0.273	-0.077
-582.836	-200.000	0.041	-0.214
-581.821	52.498	-0.049	0.047
-580.806	118.820	-0.144	0.179
-579.792	800.000	0.058	-0.220
-578.777	-148.900	-0.331	-0.027
-577.763	-122.489	0.225	0.037
-576.748	-52.170	-0.198	0.092
-575.733	-200.000	-0.008	-0.044
-574.719	-200.000	-0.027	-0.128
-573.704	-17.323	-0.137	0.087
-572.690	-200.000	-0.004	0.287
-571.675	147.641	0.123	-0.167
-570.661	-101.864	0.219	0.053
-569.646	25.755	0.367	-0.308
-568.631	30.668	0.191	0.165
-567.617	99.101	-0.187	0.217
-566.602	-92.194	-0.435	0.124
-565.588	-200.000	0.012	0.063
-564.573	-200.000	0.023	0.205
-563.558	-148.450	-0.079	0.006
-562.544	-200.000	0.010	0.253
-561.529	-120.425	0.153	0.026
-560.515	-90.448	0.193	0.056
-559.500	-44.281	0.194	-0.098
-558.485	-53.686	-0.150	0.069
-557.471	-138.241	0.219	-0.024
-556.456	406.447	0.157	-0.333
-555.442	-13.172	0.226	-0.147
-554.427	-124.389	0.299	0.047
-553.412	-56.339	-0.046	0.021
-552.398	-130.938	-0.109	0.015
-551.383	168.718	0.071	0.101
-550.369	800.000	-0.071	0.212
-549.354	800.000	-0.094	-0.328
-548.339	-24.676	0.158	-0.095
-547.325	-72.561	0.183	-0.068
-546.310	-200.000	-0.034	-0.159
-545.296	194.706	0.055	0.084
-544.281	-200.000	-0.038	-0.224
-543.266	258.362	0.137	0.238
-542.252	-100.043	-0.302	0.076
-541.237	800.000	-0.039	-0.129
-540.223	-145.976	0.252	-0.022
-539.208	147.767	0.139	0.189
-538.193	62.478	0.071	0.071
-537.179	-44.282	-0.372	-0.187
-536.164	-200.000	-0.026	0.118
-535.150	-200.000	-0.075	-0.399
-534.135	29.169	-0.234	0.200
-533.121	172.518	-0.272	0.394
-532.106	46.613	0.135	0.126
-531.091	150.732	0.172	-0.235
-530.077	28.995	-0.147	0.125
-529.062	-35.619	0.124	-0.067
-528.048	83.120	0.124	0.135
-527.033	-103.956	0.222	-0.052
-526.018	-200.000	0.061	0.291
-525.004	-146.055	0.153	-0.014
-523.989	177.903	0.148	0.217
-522.975	-69.881	-0.427	0.164
-521.960	-133.886	-0.399	-0.050
-520.945	484.387	0.090	-0.205
-519.931	509.960	0.051	0.120
-518.916	-50.683	-0.222	-0.105
-517.902	-111.429	0.234	0.048
-516.887	736.818	0.092	-0.247
-515.872	-16.903	0.292	0.185
-514.858	-132.060	-0.106	-0.014
-513.843	-73.617	-0.189	0.069
-512.829	-23.635	0.063	0.038
-511.814	-200.000	0.048	-0.246
-510.799	16.903	0.130	-0.104
-509.785	-32.316	-0.233	-0.131
-508.770	800.000	-0.025	-0.080
-507.756	-15.191	0.239	-0.154
-506.741	-15.758	-0.146	-0.093
-505.726	-168.915	-0.179	-0.007
-504.712	-32.149	0.086	-0.048
-503.697	-88.420	0.185	-0.055
-502.683	-189.309	0.080	-0.001
-501.668	4.358	-0.222	0.163
-500.653	-112.598	-0.422	0.084
-499.639	-76.241	0.261	0.092
-498.624	-18.926	0.177	-0.111
-497.610	79.285	0.215	-0.231
-496.595	-62.007	-0.110	-0.046
-495.581	-200.000	0.036	0.343
-494.566	-90.945	-0.340	0.098
-493.551	-200.000	0.019	0.180
-492.537	177.536	-0.041	-0.060
-491.522	800.000	-0.082	-0.227
-490.508	26.960	-0.099	0.083
-489.493	321.277	-0.134	-0.256
-488.478	163.082	-0.106	0.149
-487.464	83.804	0.194	-0.212
-486.449	-200.000	-0.041	0.267
-485.435	-200.000	0.034	-0.160
-484.420	-33.040	0.094	0.052
-483.405	78.350	-0.063	0.068
-482.391	112.991	-0.155	-0.189
-481.376	284.818	-0.139	0.251
-480.362	259.560	-0.052	0.089
-479.347	72.534	-0.187	-0.196
-478.332	259.787	0.025	-0.043
-477.318	-90.936	-0.173	0.050
-476.303	183.645	-0.272	0.404
-475.289	201.003	-0.032	-0.050
-474.274	-79.810	-0.271	0.091
-473.259	174.098	-0.225	0.326
-472.245	-78.894	-0.166	-0.057
-471.230	-33.846	-0.185	0.102
-470.216	148.526	-0.161	0.218
-469.201	-200.000	0.045	-0.238
-468.186	-24.663	0.018	0.010
-467.172	11.245	0.064	0.049
-466.157	408.768	-0.100	0.211
-465.143	800.000	0.153	-0.481
-464.128	252.704	-0.033	-0.056
-463.113	-99.070	0.216	-0.055
-462.099	30.677	0.149	0.128
-461.084	-12.343	-0.259	-0.170
-460.070	-77.948	-0.272	0.094
-459.055	800.000	-0.030	0.092
-458.040	-123.495	0.339	-0.054
-457.026	-67.958	0.195	-0.076
-456.011	-200.000	-0.056	0.365
-454.997	451.963	0.035	0.077
-453.982	-106.255	-0.144	0.032
-452.968	-90.778	-0.250	0.072
-451.953	-83.322	0.616	-0.198
-450.938	83.155	-0.230	-0.250
-449.924	-123.505	0.234	-0.037
-448.909	32.561	-0.049	0.043
-447.895	181.367	0.221	0.326
-446.880	250.828	0.118	0.202
-445.865	-131.083	-0.054	0.007
-444.851	-158.559	-0.448	0.026
-443.836	99.935	-0.210	0.243
-442.822	215.262	-0.232	-0.369
-441.807	135.894	0.181	0.236
-440.792	-25.396	0.129	-0.076
-439.778	-200.000	-0.055	0.327
-438.763	-69.037	0.151	0.058
-437.749	440.535	0.040	-0.087
-436.734	16.178	-0.223	0.176
-435.719	-151.102	0.162	-0.012
-434.705	100.013	0.122	-0.141
-433.690	-52.188	0.341	0.158
-432.676	-168.248	-0.175	0.007
-431.661	-200.000	0.005	0.080
-430.646	-200.000	0.034	-0.329
-429.632	-114.600	0.116	0.022
-428.617	-200.000	-0.090	-0.000
-427.603	-114.824	0.197	0.038
-426.588	159.750	-0.116	0.161
-425.573	-200.000	-0.028	0.124
-424.559	498.842	-0.111	0.255
-423.544	-14.536	-0.097	-0.062
-422.530	800.000	0.044	-0.123
-421.515	-78.474	0.150	0.051
-420.500	-200.000	-0.002	0.169
-419.486	-200.000	-0.023	-0.164
-418.471	-109.820	0.207	0.044
-417.457	307.504	-0.105	-0.196
-416.442	3.667	-0.177	-0.130
-415.428	-97.401	0.172	0.045
-414.413	-47.296	0.299	-0.146
-413.398	-117.188	0.018	0.003
-412.384	-71.182	0.247	0.093
-411.369	-200.000	-0.018	0.358
-410.355	-87.714	-0.404	0.122
-409.340	800.000	-0.081	-0.242
-408.325	-74.079	-0.120	0.044
-407.311	30.001	-0.075	-0.064
-406.296	87.050	-0.058	-0.064
-405.282	-200.000	0.044	-0.247
-404.267	-99.704	0.210	0.053
-403.252	-60.019	0.126	-0.054
-402.238	35.873	-0.180	-0.158
-401.223	800.000	0.081	-0.308
-400.209	101.865	0.153	0.179
-399.194	60.522	0.272	-0.270
-398.179	-134.957	0.201	0.024
-397.165	124.092	0.264	0.332
-396.150	-41.510	-0.255	0.131
-395.136	800.000	-0.015	-0.046
-394.121	800.000	-0.029	0.097
-393.106	-91.935	0.223	-0.063
-392.092	13.088	-0.238	0.184
-391.077	-92.421	-0.106	-0.030
-390.063	-3.866	-0.315	-0.218
-389.048	100.857	-0.200	-0.232
-388.033	-54.743	0.041	-0.019
-387.019	91.927	0.297	-0.334
-386.004	-200.000	-0.023	0.205
-384.990	-12.791	0.063	-0.041
-383.975	-15.547	-0.097	0.062
-382.960	-200.000	0.010	0.165
-381.946	487.091	-0.075	0.172
-380.931	196.823	-0.017	-0.025
-379.917	800.000	-0.019	-0.068
-378.902	-192.586	-0.038	-0.000
-377.888	-63.842	0.164	0.067
-376.873	800.000	-0.068	0.255
-375.858	-55.658	0.164	0.073
-374.844	201.535	0.169	0.259
-373.829	-22.791	0.121	0.073
-372.815	-189.538	0.354	0.004
-371.800	800.000	0.063	0.224
-370.785	-154.668	-0.124	-0.008
-369.771	-200.000	0.005	-0.057
-368.756	-29.293	0.225	0.129
-367.742	646.182	-0.172	0.438
-366.727	134.310	0.097	-0.125
-365.712	-200.000	-0.001	-0.202
-364.698	800.000	0.021	-0.077
-363.683	25.294	-0.129	-0.107
-362.669	-87.505	0.116	0.035
-361.654	-122.559	0.102	0.017
-360.639	-45.398	-0.268	-0.133
-359.625	800.000	0.172	-0.612
-358.610	-45.837	0.223	0.110
-357.596	6.856	-0.209	0.155
-356.581	-200.000	0.039	0.209
-355.566	194.474	-0.178	0.270
-354.552	26.982	0.123	0.103
-353.537	-132.938	-0.116	-0.015
-352.523	-63.167	-0.165	0.068
-351.508	331.294	0.066	0.126
-350.493	-108.720	-0.088	-0.019
-349.479	-97.021	0.361	0.094
-348.464	-200.000	-0.057	0.308
-347.450	65.097	0.339	-0.341
-346.435	252.944	0.027	-0.046
-345.420	-110.046	0.305	0.064
-344.406	-10.417	0.201	0.133
-343.391	-177.632	-0.112	-0.003
-342.377	-96.038	-0.111	-0.029
-341.362	-137.334	-0.070	-0.008
-340.348	197.125	-0.231	-0.351
-339.333	121.796	0.037	-0.046
-338.318	800.000	0.018	0.056
-337.304	-134.838	0.309	0.037
-336.289	319.224	-0.084	-0.159
-335.275	663.940	0.010	-0.025
-334.260	27.701	0.099	0.083
-333.245	14.006	0.084	-0.065
-332.231	93.389	-0.216	0.244
-331.216	-83.443	0.262	-0.084
-330.202	12.617	-0.186	0.143
-329.187	138.668	-0.073	-0.095
-328.172	800.000	-0.101	-0.393
-327.158	96.744	0.220	-0.251
-326.143	800.000	-0.037	-0.135
-325.129	-94.523	0.112	0.030
-324.114	768.771	-0.081	-0.220
-323.099	-138.385	-0.170	-0.019
-322.085	-66.180	-0.161	-0.064
-321.070	-200.000	-0.010	0.118
-320.056	-22.581	-0.256	0.154
-319.041	-200.000	-0.053	-0.361
-318.026	-200.000	-0.026	-0.472
-317.012	174.675	-0.194	-0.280
-315.997	169.168	-0.038	-0.054
-314.983	-200.000	0.003	-0.188
-313.968	-200.000	-0.024	0.207
-312.953	-200.000	-0.005	-0.329
-311.939	-22.059	-0.140	0.084
-310.924	-15.181	-0.314	-0.200
-309.910	-60.685	-0.131	-0.055
-308.895	-57.830	0.282	-0.123
-307.880	-9.821	-0.224	-0.149
-306.866	-141.105	-0.203	-0.021
-305.851	-135.368	-0.388	-0.046
-304.837	-59.087	0.300	-0.129
-303.822	800.000	-0.094	0.311
-302.807	216.947	0.041	0.065
-301.793	-200.000	0.003	0.047
-300.778	800.000	0.091	0.283
-299.764	-107.116	0.158	-0.035
-298.749	-165.755	-0.413	0.018
-297.735	-74.992	-0.192	0.068
-296.720	78.702	0.162	0.173
-295.705	-32.722	-0.035	-0.019
-294.691	-121.862	-0.173	0.028
-293.676	-182.290	-0.173	0.003
-292.662	199.979	-0.064	-0.098
-291.647	-200.000	0.032	0.264
-290.632	-200.000	0.025	0.122
-289.618	360.768	0.041	-0.081
-288.603	165.881	-0.169	-0.238
-287.589	-67.222	-0.119	0.047
-286.574	-200.000	0.008	0.311
-285.559	228.308	0.068	-0.110
-284.545	56.612	-0.216	-0.209
-283.530	800.000	-0.124	0.459
-282.516	8.090	-0.079	0.059
-281.501	-74.076	-0.251	0.091
-280.486	17.741	0.220	-0.174
-279.472	-92.094	-0.440	-0.124
-278.457	-75.981	0.168	-0.059
-277.443	331.170	0.059	-0.113
-276.428	-91.356	-0.409	0.116
-275.413	-120.654	0.256	-0.043
-274.399	-44.594	-0.202	-0.100
-273.384	-200.000	-0.021	-0.194
-272.370	-200.000	0.011	-0.055
-271.355	-116.714	-0.176	-0.032
-270.340	330.268	0.162	0.310
-269.326	628.148	-0.015	0.039
-268.311	579.317	-0.063	-0.153
-267.297	-125.399	-0.314	-0.048
-266.282	-29.116	0.148	0.084
-265.267	-200.000	-0.033	0.158
-264.253	161.940	-0.107	0.148
-263.238	-112.104	-0.311	-0.062
-262.224	-200.000	-0.005	-0.162
-261.209	-200.000	0.017	-0.150
-260.195	60.404	0.097	-0.095
-259.180	-27.513	-0.284	-0.164
-258.165	-200.000	-0.001	0.455
-257.151	-17.847	0.055	-0.034
-256.136	-200.000	0.008	-0.103
-255.122	-114.610	-0.370	0.071
-254.107	800.000	0.119	-0.332
-253.092	10.746	0.087	-0.066
-252.078	-105.430	0.172	0.039
-251.063	85.544	-0.161	0.176
-250.049	-53.153	-0.155	0.071
-249.034	-200.000	-0.004	-0.058
-248.019	299.898	-0.084	-0.154
-247.005	359.852	0.072	-0.144
-245.990	-102.718	-0.160	0.038
-244.976	618.858	-0.103	-0.256
-243.961	244.358	-0.251	-0.418
-242.946	32.263	-0.165	-0.141
-241.932	-200.000	0.030	-0.498
-240.917	91.825	-0.127	-0.142
-239.903	-86.393	0.075	-0.023
-238.888	800.000	0.078	0.273
-237.873	-200.000	0.011	0.129
-236.859	54.235	-0.159	-0.152
-235.844	2.189	0.147	0.106
-234.830	-151.092	-0.218	0.016
-233.815	285.301	0.080	-0.143
-232.800	73.949	0.067	-0.069
-231.786	1.159	-0.198	0.141
-230.771	61.347	0.126	0.124
-229.757	555.578	0.073	0.174
-228.742	100.969	0.093	0.107
-227.727	87.649	-0.142	0.156
-226.713	-200.000	-0.029	0.185
-225.698	-72.706	-0.090	0.033
-224.684	-74.483	0.110	-0.039
-223.669	640.257	-0.031	0.080
-222.655	-196.945	0.146	-0.001
-221.640	144.155	0.061	0.080
-220.625	-200.000	0.002	-0.218
-219.611	41.663	0.151	-0.136
-218.596	-200.000	-0.010	0.295
-217.582	-30.802	0.208	-0.117
-216.567	800.000	0.020	0.071
-215.552	254.408	-0.011	0.019
-214.538	-123.340	0.242	-0.038
-213.523	47.758	-0.268	-0.249
-212.509	800.000	0.085	-0.332
-211.494	14.591	0.129	-0.100
-210.479	260.725	0.096	0.166
-209.465	-200.000	-0.101	0.570
-208.450	21.570	-0.051	-0.041
-207.436	53.770	-0.144	0.137
-206.421	800.000	-0.047	0.131
-205.406	-200.000	0.007	-0.048
-204.392	304.280	0.199	-0.366
-203.377	-200.000	-0.023	-0.150
-202.363	102.486	0.144	-0.167
-201.348	800.000	-0.058	-0.222
-200.333	-48.864	-0.219	-0.104
-199.319	97.016	0.194	-0.220
-198.304	-200.000	0.001	-0.022
-197.290	-118.804	-0.225	0.039
-196.275	-109.238	0.281	0.059
-195.260	19.186	0.065	-0.052
-194.246	-17.092	-0.236	-0.148
-193.231	387.246	0.117	0.240
-192.217	-200.000	-0.014	0.497
-191.202	108.342	0.183	0.216
-190.187	800.000	-0.091	-0.387
-189.173	-200.000	0.010	0.121
-188.158	-108.072	0.341	0.073
-187.144	-200.000	0.013	0.058
-186.129	93.210	0.077	-0.086
-185.114	-200.000	0.028	0.174
-184.100	16.745	0.109	0.086
-183.085	-52.575	0.156	0.071
-182.071	-37.186	-0.162	-0.086
-181.056	-22.296	0.153	0.092
-180.042	-133.496	0.195	-0.024
-179.027	33.763	-0.287	-0.248
-178.012	-200.000	-0.004	-0.071
-176.998	348.113	0.015	0.029
-175.983	-47.830	-0.168	0.081
-174.969	263.556	0.244	-0.421
-173.954	-0.472	-0.100	0.070
-172.939	-14.070	0.287	-0.183
-171.925	-141.121	0.060	0.006
-170.910	281.850	-0.015	0.026
-169.896	-200.000	-0.030	0.307
-168.881	-41.887	0.250	0.127
-167.866	-76.019	-0.118	-0.041
-166.852	140.887	-0.028	0.037
-165.837	-200.000	-0.041	0.443
-164.823	-90.328	0.126	0.036
-163.808	-124.466	0.170	0.026
-162.793	-84.585	0.259	0.081
-161.779	-172.049	-0.267	0.009
-160.764	-3.539	0.146	-0.101
-159.750	134.937	0.150	0.193
-158.735	47.341	0.058	-0.054
-157.720	48.009	0.148	-0.137
-156.706	-200.000	-0.033	0.202
-155.691	-200.000	-0.020	0.268
-154.677	800.000	0.105	-0.327
-153.662	-131.896	0.243	0.031
-152.647	-200.000	-0.008	-0.132
-151.633	78.650	0.055	-0.058
-150.618	-59.760	-0.059	0.025
-149.604	-200.000	-0.018	-0.287
-148.589	-200.000	-0.019	0.122
-147.574	800.000	-0.065	-0.195
-146.560	-15.692	0.059	0.037
-145.545	-200.000	0.021	0.217
-144.531	800.000	0.033	-0.125
-143.516	-100.268	0.347	0.085
-142.502	-126.476	-0.440	0.065
-141.487	-94.426	0.352	0.095
-140.472	-125.141	0.417	-0.063
-139.458	-200.000	-0.001	0.136
-138.443	-200.000	-0.011	-0.088
-137.429	94.484	-0.038	0.043
-136.414	241.748	-0.065	-0.108
-135.399	29.419	0.278	-0.234
-134.385	800.000	0.099	-0.373
-133.370	-106.903	0.171	-0.037
-132.356	-200.000	0.020	-0.259
-131.341	524.212	0.172	-0.400
-130.326	396.646	-0.084	-0.174
-129.312	-132.935	0.368	0.046
-128.297	72.766	-0.164	-0.169
-127.283	-200.000	-0.015	-0.130
-126.268	-38.908	0.180	-0.094
-125.253	18.119	0.360	-0.284
-124.239	-200.000	-0.055	-0.432
-123.224	-37.480	-0.025	-0.013
-122.210	-200.000	-0.010	-0.331
