DTS Sentinel unit serial number:	SN413079Multiplexer serial number:	ORYXHardware model number:	OX4-SRSoftware version number:	ORYX F/W v4.00 Oryx Data Collector v3.7.2.0data status	okinstallation	princeton_trtdifferential loss correction	single-endedforward channel	channel 3reverse channel	N/Adate	2019/09/12time	05:42:10forward acquisition time	60.00reverse acquisition time	0.00gamma	496.2192k internal	0.2321k external	0.2321temperature offset calibration	1.0034default loss term (dB/km)	0.3790temperature slope calibration	1.0000multiplexer offset coefficient	1.0000multiplexer slope coefficient	1.0000fibre end	0.00T internal ref (°C)	32.00T ext. ref 1 (°C)	1.59T ext. ref 2 (°C)	27.53length (m)	temperature (°C)	Stokes	anti-Stokes-747.200	-40.646	0.075	0.039
-746.185	146.543	0.140	0.191
-745.171	-99.552	0.091	0.023
-744.156	-100.957	0.189	0.047
-743.142	390.665	-0.097	0.202
-742.127	-42.978	-0.283	0.145
-741.112	629.696	-0.124	0.317
-740.098	133.818	-0.150	-0.196
-739.083	5.461	0.284	0.212
-738.069	-200.000	-0.000	0.233
-737.054	-148.396	-0.202	-0.017
-736.039	-45.858	-0.220	-0.110
-735.025	-111.425	0.371	-0.076
-734.010	800.000	-0.042	-0.120
-732.996	219.193	-0.203	-0.328
-731.981	-200.000	-0.034	-0.317
-730.966	-70.987	-0.380	-0.144
-729.952	-200.000	0.425	-0.001
-728.937	603.021	0.055	0.138
-727.923	-50.314	-0.111	0.053
-726.908	-23.127	-0.272	-0.165
-725.894	-5.171	0.102	-0.071
-724.879	-200.000	-0.020	0.109
-723.864	312.646	0.028	-0.053
-722.850	800.000	-0.090	-0.288
-721.835	-200.000	0.092	0.448
-720.821	182.396	-0.192	-0.287
-719.806	-102.209	-0.292	-0.071
-718.791	156.007	-0.132	-0.184
-717.777	-160.321	0.224	0.012
-716.762	1.961	-0.284	-0.207
-715.748	-200.000	0.000	-0.137
-714.733	-156.762	0.396	-0.025
-713.718	-73.859	-0.091	-0.033
-712.704	115.228	-0.272	-0.336
-711.689	-185.318	0.073	-0.001
-710.675	800.000	-0.087	-0.330
-709.660	34.492	0.112	-0.099
-708.645	19.526	0.076	0.062
-707.631	226.949	0.115	0.189
-706.616	-200.000	-0.001	0.383
-705.602	-200.000	0.005	0.284
-704.587	12.259	0.206	-0.160
-703.572	-127.380	-0.107	0.016
-702.558	-200.000	-0.031	-0.160
-701.543	79.024	0.192	-0.207
-700.529	800.000	-0.061	0.233
-699.514	-11.628	-0.040	-0.026
-698.499	-51.431	0.164	-0.077
-697.485	124.030	0.106	-0.134
-696.470	46.704	0.200	-0.188
-695.456	100.451	-0.137	-0.160
-694.441	51.642	0.045	0.044
-693.426	375.893	0.077	0.159
-692.412	-13.098	0.090	-0.059
-691.397	650.648	-0.045	-0.117
-690.383	50.018	0.148	-0.141
-689.368	-77.994	0.237	-0.082
-688.354	-200.000	-0.016	-0.224
-687.339	800.000	0.048	0.154
-686.324	-200.000	-0.024	-0.277
-685.310	800.000	0.080	0.275
-684.295	596.914	0.079	-0.198
-683.281	-10.919	0.230	0.153
-682.266	736.295	0.027	-0.072
-681.251	94.654	0.108	0.124
-680.237	-96.814	0.164	0.043
-679.222	-200.000	0.010	-0.057
-678.208	-5.510	0.045	0.031
-677.193	-108.471	0.248	-0.054
-676.178	-40.229	-0.203	0.107
-675.164	137.740	-0.041	-0.055
-674.149	-49.456	0.133	-0.064
-673.135	74.488	-0.072	-0.077
-672.120	90.172	0.179	0.202
-671.105	196.354	0.250	-0.384
-670.091	19.165	0.168	-0.136
-669.076	13.839	0.255	0.200
-668.062	-10.702	-0.195	0.130
-667.047	-100.520	0.311	0.077
-666.032	-55.786	-0.172	-0.078
-665.018	-200.000	0.000	-0.070
-664.003	800.000	-0.061	0.263
-662.989	800.000	0.056	0.200
-661.974	-129.789	-0.265	-0.037
-660.959	-114.376	-0.235	-0.045
-659.945	185.529	-0.142	-0.213
-658.930	123.594	-0.225	0.284
-657.916	-200.000	0.014	-0.288
-656.901	-123.102	-0.289	-0.047
-655.886	373.291	0.069	-0.142
-654.872	-200.000	0.032	0.174
-653.857	66.622	0.157	-0.160
-652.843	800.000	-0.048	0.196
-651.828	168.495	-0.042	0.060
-650.814	255.878	0.094	0.162
-649.799	-164.824	0.030	-0.001
-648.784	146.766	0.134	0.181
-647.770	-200.000	0.017	0.203
-646.755	-200.000	0.046	-0.563
-645.741	-122.976	-0.277	0.045
-644.726	800.000	0.068	0.259
-643.711	-145.479	-0.251	-0.023
-642.697	-114.877	-0.208	-0.040
-641.682	-200.000	0.014	-0.152
-640.668	102.126	0.131	0.155
-639.653	-135.585	0.305	-0.037
-638.638	139.346	-0.107	0.142
-637.624	800.000	-0.066	-0.229
-636.609	-146.950	0.282	0.024
-635.595	34.470	0.199	0.175
-634.580	-117.408	0.390	-0.071
-633.565	-200.000	0.051	-0.242
-632.551	688.424	-0.040	-0.105
-631.536	-56.850	-0.079	0.035
-630.522	97.700	-0.039	0.045
-629.507	-38.829	0.285	0.151
-628.492	54.725	-0.147	0.143
-627.478	-200.000	0.005	-0.095
-626.463	-200.000	0.006	0.146
-625.449	-122.983	-0.267	-0.043
-624.434	800.000	0.022	-0.081
-623.419	455.609	-0.024	-0.053
-622.405	50.330	0.147	-0.140
-621.390	-200.000	-0.018	-0.146
-620.376	-200.000	-0.010	-0.080
-619.361	91.086	0.036	0.041
-618.346	478.064	-0.164	0.373
-617.332	156.334	-0.105	-0.145
-616.317	683.827	0.014	-0.037
-615.303	204.624	-0.054	0.084
-614.288	-23.903	0.235	-0.141
-613.273	20.245	-0.281	0.228
-612.259	-111.229	-0.504	0.104
-611.244	40.414	0.169	-0.153
-610.230	80.857	-0.147	-0.160
-609.215	-200.000	0.021	-0.136
-608.201	338.413	-0.153	-0.300
-607.186	214.773	0.252	-0.402
-606.171	-53.784	-0.142	0.065
-605.157	128.371	-0.094	0.121
-604.142	204.933	-0.115	0.179
-603.128	223.116	0.059	-0.095
-602.113	-200.000	0.045	0.286
-601.098	-200.000	-0.016	0.150
-600.084	-200.000	-0.005	-0.253
-599.069	-164.587	0.316	-0.014
-598.055	800.000	-0.068	0.222
-597.040	-200.000	-0.012	0.374
-596.025	-137.035	0.066	0.008
-595.011	-55.028	0.153	-0.069
-593.996	37.668	-0.220	-0.196
-592.982	-157.551	-0.224	0.013
-591.967	-154.016	0.429	-0.029
-590.952	-42.054	-0.154	-0.079
-589.938	-60.801	-0.319	0.136
-588.923	356.073	-0.138	-0.277
-587.909	335.818	-0.068	-0.132
-586.894	-174.272	0.337	-0.010
-585.879	-122.421	-0.085	0.014
-584.865	240.329	0.088	-0.148
-583.850	-200.000	0.010	0.110
-582.836	-200.000	-0.033	-0.170
-581.821	300.596	-0.103	-0.192
-580.806	-40.649	0.044	0.023
-579.792	304.244	0.008	0.016
-578.777	800.000	0.083	-0.232
-577.763	648.839	-0.106	0.271
-576.748	-112.097	0.157	-0.032
-575.733	-109.768	-0.445	0.094
-574.719	-23.468	0.032	0.019
-573.704	165.016	-0.194	0.276
-572.690	-110.356	-0.208	-0.043
-571.675	800.000	0.046	0.153
-570.661	193.000	0.161	-0.244
-569.646	624.757	-0.095	0.241
-568.631	450.442	-0.105	0.234
-567.617	117.308	-0.085	0.105
-566.602	-94.542	0.344	0.094
-565.588	765.723	-0.077	0.211
-564.573	154.067	0.170	0.234
-563.558	-200.000	-0.001	0.231
-562.544	-1.222	0.115	-0.082
-561.529	-200.000	-0.007	-0.287
-560.515	-186.058	-0.219	0.003
-559.500	-106.056	0.239	-0.054
-558.485	-44.528	-0.362	0.181
-557.471	465.359	-0.170	0.383
-556.456	800.000	0.082	0.335
-555.442	227.128	-0.113	-0.184
-554.427	52.712	0.362	0.347
-553.412	-29.659	-0.234	0.134
-552.398	649.809	-0.137	-0.353
-551.383	70.498	-0.182	0.189
-550.369	18.968	-0.080	-0.064
-549.354	800.000	0.074	-0.245
-548.339	-144.312	-0.170	-0.016
-547.325	195.456	0.121	-0.184
-546.310	-200.000	0.035	-0.251
-545.296	-43.350	-0.102	-0.052
-544.281	50.919	-0.109	-0.104
-543.266	177.852	0.104	0.153
-542.252	122.550	-0.165	0.207
-541.237	177.742	-0.126	0.184
-540.223	-22.763	0.299	0.181
-539.208	357.983	-0.065	-0.130
-538.193	205.172	0.179	0.279
-537.179	174.352	0.045	0.066
-536.164	643.004	0.041	0.106
-535.150	200.565	-0.206	0.317
-534.135	-120.111	0.109	-0.019
-533.121	-66.513	0.386	-0.154
-532.106	-6.718	-0.259	-0.177
-531.091	-200.000	-0.241	0.000
-530.077	-75.803	0.207	-0.074
-529.062	-52.782	-0.298	-0.138
-528.048	33.025	0.182	0.158
-527.033	28.327	-0.116	0.099
-526.018	137.977	0.291	0.382
-525.004	-200.000	-0.009	-0.436
-523.989	138.396	-0.133	-0.175
-522.975	-174.903	-0.304	-0.009
-521.960	-83.492	0.370	-0.119
-520.945	800.000	0.099	-0.415
-519.931	-200.000	-0.070	-0.369
-518.916	33.247	0.103	0.090
-517.902	16.404	-0.162	0.129
-516.887	-165.136	-0.253	-0.011
-515.872	206.544	0.105	-0.164
-514.858	800.000	0.016	0.067
-513.843	144.762	0.110	0.147
-512.829	-183.567	-0.075	-0.001
-511.814	-200.000	0.009	0.128
-510.799	102.801	-0.124	0.146
-509.785	-27.912	-0.213	-0.124
-508.770	3.111	-0.139	-0.101
-507.756	-129.795	-0.059	-0.008
-506.741	365.712	0.206	0.415
-505.726	0.732	0.158	-0.113
-504.712	800.000	0.085	0.260
-503.697	7.377	0.146	-0.109
-502.683	800.000	-0.113	0.325
-501.668	70.778	0.300	-0.311
-500.653	-200.000	-0.060	0.279
-499.639	135.581	-0.084	0.109
-498.624	-103.211	-0.058	0.014
-497.610	-5.811	0.047	0.032
-496.595	-200.000	-0.009	0.063
-495.581	-200.000	-0.020	-0.420
-494.566	-20.223	-0.086	0.053
-493.551	301.597	-0.072	-0.134
-492.537	-200.000	0.010	0.116
-491.522	314.590	-0.144	-0.271
-490.508	67.865	0.203	-0.208
-489.493	-200.000	0.067	0.323
-488.478	-174.972	-0.110	-0.003
-487.464	132.748	0.084	0.109
-486.449	-32.459	0.182	0.101
-485.435	82.936	-0.121	0.132
-484.420	-200.000	0.026	0.293
-483.405	-53.661	-0.205	-0.094
-482.391	275.081	0.098	0.174
-481.376	-121.140	0.219	-0.037
-480.362	593.924	0.050	0.124
-479.347	-47.682	-0.263	0.128
-478.332	35.209	0.155	-0.136
-477.318	239.002	-0.079	-0.131
-476.303	-4.269	0.299	0.207
-475.289	-24.964	0.127	0.075
-474.274	-200.000	-0.019	0.148
-473.259	226.576	0.171	-0.277
-472.245	-200.000	-0.027	-0.282
-471.230	-89.501	-0.149	-0.044
-470.216	-200.000	-0.027	-0.168
-469.201	-61.219	-0.346	0.146
-468.186	88.732	0.099	-0.111
-467.172	-72.337	0.160	-0.059
-466.157	226.386	-0.101	0.164
-465.143	-102.757	0.105	-0.025
-464.128	-200.000	0.075	-0.480
-463.113	-43.141	0.186	0.094
-462.099	-86.660	0.294	-0.090
-461.084	-25.102	0.194	-0.115
-460.070	242.335	0.108	-0.181
-459.055	114.688	0.082	0.101
-458.040	20.802	0.388	-0.314
-457.026	-10.159	-0.222	0.147
-456.011	800.000	0.077	-0.325
-454.997	800.000	0.044	-0.139
-453.982	-160.309	-0.266	-0.014
-452.968	220.107	-0.206	0.330
-451.953	-171.916	-0.275	0.009
-450.938	-16.613	0.152	-0.096
-449.924	7.706	0.142	-0.106
-448.909	-200.000	-0.004	0.181
-447.895	30.712	-0.170	0.146
-446.880	196.702	-0.161	-0.245
-445.865	-94.984	-0.118	-0.032
-444.851	800.000	-0.056	-0.182
-443.836	-63.396	-0.153	-0.063
-442.822	301.458	0.096	-0.178
-441.807	800.000	-0.116	-0.357
-440.792	-200.000	0.029	0.370
-439.778	-86.100	0.110	0.034
-438.763	-58.991	-0.230	0.099
-437.749	148.825	0.157	0.213
-436.734	-115.890	-0.446	-0.083
-435.719	-53.727	0.233	-0.106
-434.705	-29.723	-0.130	-0.074
-433.690	43.690	-0.129	-0.118
-432.676	-200.000	0.021	-0.112
-431.661	-163.045	-0.242	-0.012
-430.646	800.000	0.064	-0.246
-429.632	172.742	0.186	0.267
-428.617	-96.080	-0.131	0.035
-427.603	66.379	0.104	-0.106
-426.588	-78.965	-0.200	-0.068
-425.573	-192.165	0.331	0.003
-424.559	-85.586	0.183	-0.057
-423.544	183.079	0.038	-0.056
-422.530	80.855	-0.152	-0.163
-421.515	-51.835	0.216	0.100
-420.500	-200.000	-0.027	0.370
-419.486	-9.961	-0.201	-0.133
-418.471	212.524	-0.238	0.375
-417.457	800.000	-0.028	-0.115
-416.442	-99.429	0.378	-0.095
-415.428	114.763	-0.114	-0.139
-414.413	73.697	-0.157	-0.164
-413.398	800.000	0.070	-0.223
-412.384	-200.000	0.002	-0.286
-411.369	-37.963	0.264	0.140
-410.355	156.992	0.120	0.165
-409.340	373.923	-0.042	-0.086
-408.325	382.079	-0.112	-0.230
-407.311	36.668	0.093	-0.082
-406.296	-200.000	-0.029	0.400
-405.282	-83.889	-0.174	-0.055
-404.267	-70.714	-0.156	0.059
-403.252	43.413	-0.188	0.171
-402.238	87.415	-0.076	-0.084
-401.223	-30.722	-0.171	-0.097
-400.209	-200.000	-0.004	-0.100
-399.194	621.976	-0.053	0.133
-398.179	-182.485	-0.196	-0.004
-397.165	-42.403	-0.356	-0.181
-396.150	-122.989	0.116	0.019
-395.136	94.706	0.077	-0.087
-394.121	14.748	0.290	-0.226
-393.106	745.452	0.033	0.090
-392.092	-200.000	0.026	-0.161
-391.077	19.476	-0.337	-0.270
-390.063	-200.000	0.076	0.424
-389.048	-167.144	-0.386	0.016
-388.033	351.429	-0.071	0.140
-387.019	-200.000	0.033	0.371
-386.004	56.812	-0.233	0.226
-384.990	-200.000	0.069	-0.328
-383.975	29.952	-0.426	-0.362
-382.960	278.760	0.062	0.111
-381.946	800.000	-0.036	0.102
-380.931	-183.534	-0.152	-0.003
-379.917	-109.304	-0.432	0.091
-378.902	800.000	-0.102	-0.358
-377.888	-130.596	-0.278	0.037
-376.873	800.000	0.013	0.039
-375.858	-89.305	0.370	-0.109
-374.844	197.810	0.164	0.250
-373.829	-200.000	-0.003	0.143
-372.815	-73.401	0.418	-0.152
-371.800	800.000	0.071	-0.270
-370.785	-101.223	0.393	-0.096
-369.771	93.906	-0.054	-0.061
-368.756	65.634	-0.115	0.116
-367.742	-98.472	0.177	0.045
-366.727	-178.837	-0.310	0.007
-365.712	10.481	-0.195	0.148
-364.698	-144.132	0.214	-0.020
-363.683	295.376	0.065	0.119
-362.669	-144.161	0.017	-0.002
-361.654	550.484	-0.161	0.384
-360.639	91.518	-0.235	0.263
-359.625	-200.000	-0.087	0.583
-358.610	444.018	-0.089	0.194
-357.596	36.337	-0.106	0.093
-356.581	-44.084	-0.327	-0.164
-355.566	80.967	-0.164	-0.177
-354.552	-52.680	-0.273	-0.125
-353.537	-97.962	-0.323	-0.083
-352.523	-89.784	-0.251	-0.073
-351.508	-82.246	0.474	-0.154
-350.493	277.834	-0.114	0.201
-349.479	-170.849	-0.088	-0.003
-348.464	-7.597	-0.047	-0.031
-347.450	68.501	-0.138	0.141
-346.435	-85.598	-0.385	-0.119
-345.420	368.588	0.051	0.102
-344.406	-200.000	0.023	0.424
-343.391	-87.141	-0.055	0.017
-342.377	-6.145	0.158	-0.107
-341.362	488.829	-0.153	-0.347
-340.348	-200.000	0.019	-0.283
-339.333	15.842	0.162	-0.127
-338.318	-85.677	0.119	0.037
-337.304	73.791	-0.074	-0.077
-336.289	673.538	-0.028	-0.071
-335.275	302.282	-0.079	-0.146
-334.260	-195.053	-0.072	-0.001
-333.245	-51.397	0.116	0.054
-332.231	-200.000	0.032	0.199
-331.216	-36.361	0.143	0.076
-330.202	-200.000	0.039	0.381
-329.187	-200.000	0.016	-0.246
-328.172	800.000	0.021	0.059
-327.158	18.283	0.254	0.201
-326.143	458.540	0.089	-0.196
-325.129	-200.000	-0.033	0.174
-324.114	1.129	-0.227	0.162
-323.099	-30.611	0.050	0.028
-322.085	35.024	0.160	-0.140
-321.070	-56.216	-0.017	-0.008
-320.056	92.029	-0.048	0.054
-319.041	-81.733	0.276	0.090
-318.026	158.983	0.147	-0.204
-317.012	163.988	0.149	0.208
-315.997	-200.000	-0.020	-0.124
-314.983	-32.287	-0.387	0.215
-313.968	-52.220	0.093	-0.043
-312.953	166.430	0.249	-0.351
-311.939	6.026	-0.324	-0.238
-310.924	-92.121	-0.031	-0.009
-309.910	213.293	-0.204	0.321
-308.895	-200.000	-0.027	0.271
-307.880	-27.224	0.262	-0.152
-306.866	-39.173	-0.309	-0.162
-305.851	800.000	0.013	-0.051
-304.837	800.000	-0.023	0.093
-303.822	762.195	0.028	0.077
-302.807	45.111	0.183	0.168
-301.793	-11.562	0.139	0.091
-300.778	-29.964	0.296	0.167
-299.764	555.425	-0.033	-0.079
-298.749	109.057	0.194	-0.230
-297.735	800.000	-0.068	0.193
-296.720	368.414	-0.096	0.193
-295.705	-11.128	-0.237	0.155
-294.691	-200.000	0.025	0.118
-293.676	-200.000	0.018	-0.202
-292.662	800.000	-0.024	0.082
-291.647	800.000	0.045	0.171
-290.632	7.816	0.097	0.072
-289.618	4.600	-0.023	0.017
-288.603	-17.247	0.207	0.130
-287.589	800.000	0.065	-0.253
-286.574	-143.376	-0.460	0.044
-285.559	-29.775	0.367	0.208
-284.545	8.472	0.219	-0.163
-283.530	19.070	0.230	0.183
-282.516	-200.000	-0.004	0.043
-281.501	53.132	-0.009	0.009
-280.486	360.655	0.004	-0.008
-279.472	169.467	-0.014	-0.019
-278.457	462.195	0.094	0.208
-277.443	-164.064	0.046	0.002
-276.428	-51.961	-0.156	0.072
-275.413	5.414	-0.115	-0.084
-274.399	800.000	0.099	0.329
-273.384	16.771	0.235	-0.184
-272.370	-200.000	-0.004	-0.077
-271.355	20.630	-0.092	-0.074
-270.340	-55.590	0.218	-0.097
-269.326	33.127	0.166	-0.143
-268.311	349.093	0.149	0.291
-267.297	-3.899	0.227	-0.157
-266.282	398.165	0.139	0.289
-265.267	-200.000	-0.010	-0.295
-264.253	481.941	-0.075	-0.169
-263.238	7.787	0.190	0.141
-262.224	140.994	-0.194	0.254
-261.209	33.567	0.219	0.189
-260.195	-132.598	-0.232	-0.030
-259.180	-198.003	0.185	0.001
-258.165	29.492	-0.223	0.188
-257.151	474.874	0.077	-0.173
-256.136	245.910	0.091	0.152
-255.122	800.000	0.098	0.326
-254.107	237.713	-0.130	-0.214
-253.092	800.000	-0.230	-0.666
-252.078	66.170	0.223	-0.225
-251.063	251.039	-0.166	-0.280
-250.049	-42.217	0.170	0.086
-249.034	90.618	0.270	0.299
-248.019	341.216	0.224	-0.434
-247.005	-90.984	-0.109	0.031
-245.990	-99.275	-0.325	0.081
-244.976	-106.447	-0.075	0.017
-243.961	-200.000	-0.023	0.219
-242.946	254.334	0.109	-0.185
-241.932	-155.460	-0.219	0.014
-240.917	114.945	0.079	0.096
-239.903	800.000	-0.043	-0.119
-238.888	-146.768	0.252	0.022
-237.873	-200.000	0.066	-0.428
-236.859	-1.142	0.045	0.032
-235.844	800.000	0.152	0.567
-234.830	51.033	-0.253	0.238
-233.815	212.751	-0.062	-0.097
-232.800	-200.000	-0.008	-0.069
-231.786	-56.682	0.204	-0.089
-230.771	-104.880	0.290	0.066
-229.757	800.000	-0.082	0.353
-228.742	35.113	0.145	-0.126
-227.727	-72.705	0.175	-0.064
-226.713	-78.941	-0.096	0.033
-225.698	-52.316	0.135	-0.062
-224.684	800.000	-0.023	0.078
-223.669	122.420	-0.187	-0.231
-222.655	-75.720	0.219	0.077
-221.640	-200.000	0.057	-0.330
-220.625	223.732	-0.188	-0.301
-219.611	-25.619	0.057	-0.033
-218.596	-34.605	0.201	-0.109
-217.582	800.000	-0.014	-0.049
-216.567	800.000	0.030	-0.099
-215.552	16.464	0.142	-0.111
-214.538	470.120	0.035	-0.077
-213.523	-107.948	0.218	0.047
-212.509	-34.993	-0.176	0.095
-211.494	800.000	-0.037	0.123
-210.479	-200.000	-0.008	0.216
-209.465	58.339	0.185	0.180
-208.450	-151.096	0.185	-0.014
-207.436	-52.902	0.208	-0.095
-206.421	5.137	-0.129	-0.094
-205.406	50.086	-0.017	-0.016
-204.392	800.000	-0.021	-0.084
-203.377	-39.293	0.028	0.015
-202.363	-19.144	0.152	-0.094
-201.348	96.700	0.098	0.111
-200.333	5.951	0.030	-0.022
-199.319	-200.000	0.015	-0.240
-198.304	-200.000	-0.005	-0.172
-197.290	-131.173	0.379	-0.050
-196.275	-98.688	-0.272	-0.069
-195.260	-200.000	0.051	-0.247
-194.246	-200.000	-0.064	0.282
-193.231	-59.169	-0.114	0.049
-192.217	-102.892	0.055	0.013
-191.202	41.538	-0.184	-0.165
-190.187	210.286	0.107	0.166
-189.173	-38.761	0.178	-0.093
-188.158	-122.145	0.445	0.072
-187.144	236.693	0.127	-0.207
-186.129	-200.000	0.031	-0.187
-185.114	382.158	0.058	-0.119
-184.100	-200.000	0.012	0.190
-183.085	-200.000	0.006	0.076
-182.071	422.323	0.137	0.290
-181.056	-57.518	-0.375	0.163
-180.042	800.000	-0.047	-0.169
-179.027	-200.000	0.031	-0.157
-178.012	-78.934	0.175	0.059
-176.998	-22.534	-0.144	0.086
-175.983	20.401	0.198	-0.158
-174.969	-164.894	-0.365	0.016
-173.954	542.755	-0.131	0.308
-172.939	-63.382	-0.180	0.073
-171.925	-34.707	0.228	-0.123
-170.910	-0.937	0.141	-0.098
-169.896	364.270	0.119	-0.236
-168.881	11.735	0.078	0.059
-167.866	449.128	-0.216	0.471
-166.852	-127.679	0.138	0.020
-165.837	-68.610	-0.073	0.028
-164.823	-151.048	0.080	-0.006
-163.808	381.141	0.030	-0.060
-162.793	9.874	-0.181	-0.135
-161.779	-87.278	0.162	-0.049
-160.764	-100.837	-0.238	0.058
-159.750	-108.495	0.031	0.007
-158.735	55.755	0.037	0.035
-157.720	-107.881	0.423	-0.091
-156.706	147.971	-0.168	0.224
-155.691	-131.053	0.311	0.041
-154.677	43.022	-0.067	-0.060
-153.662	800.000	-0.099	-0.336
-152.647	-6.725	-0.203	-0.137
-151.633	-146.093	-0.224	0.019
-150.618	14.605	0.198	0.152
-149.604	800.000	0.131	0.391
-148.589	88.877	0.051	-0.056
-147.574	-200.000	0.034	-0.149
-146.560	69.645	0.090	0.091
-145.545	175.303	0.068	-0.097
-144.531	602.000	-0.136	-0.334
-143.516	-83.927	0.379	-0.119
-142.502	-144.343	-0.368	-0.034
-141.487	521.710	0.045	0.104
-140.472	800.000	-0.040	-0.147
-139.458	-134.249	0.175	-0.021
-138.443	-54.178	0.264	-0.118
-137.429	-200.000	-0.020	0.193
-136.414	-61.016	0.240	-0.100
-135.399	-62.410	0.096	-0.040
-134.385	224.282	0.186	0.296
-133.370	-41.750	-0.341	0.173
-132.356	126.927	-0.056	0.070
-131.341	100.091	-0.129	0.148
-130.326	-55.874	0.087	-0.038
-129.312	-115.651	0.363	-0.067
-128.297	-200.000	-0.021	0.329
-127.283	743.563	-0.022	0.059
-126.268	-200.000	0.014	-0.116
-125.253	-64.187	0.096	-0.039
-124.239	-49.241	-0.275	-0.130
-123.224	-200.000	-0.000	-0.042
-122.210	-200.000	-0.020	-0.181
-121.195	105.121	0.218	-0.254
