DTS Sentinel unit serial number:	SN413079Multiplexer serial number:	ORYXHardware model number:	OX4-SRSoftware version number:	ORYX F/W v4.00 Oryx Data Collector v3.7.2.0data status	okinstallation	princeton_trtdifferential loss correction	single-endedforward channel	channel 3reverse channel	N/Adate	2019/09/11time	21:46:10forward acquisition time	60.00reverse acquisition time	0.00gamma	496.2192k internal	0.2311k external	0.2311temperature offset calibration	1.0039default loss term (dB/km)	0.3790temperature slope calibration	1.0000multiplexer offset coefficient	1.0000multiplexer slope coefficient	1.0000fibre end	0.00T internal ref (°C)	35.75T ext. ref 1 (°C)	1.71T ext. ref 2 (°C)	30.10length (m)	temperature (°C)	Stokes	anti-Stokes-747.200	-200.000	0.004	-0.178
-746.185	-107.506	-0.345	0.077
-745.171	2.593	0.136	0.100
-744.156	800.000	0.083	0.260
-743.142	800.000	0.045	0.128
-742.127	96.849	0.186	0.217
-741.112	15.845	-0.138	-0.110
-740.098	33.857	-0.153	0.135
-739.083	-15.242	-0.056	0.036
-738.069	276.236	0.043	-0.077
-737.054	-28.399	-0.153	-0.090
-736.039	19.785	-0.047	-0.038
-735.025	95.800	0.298	-0.345
-734.010	800.000	0.090	0.306
-732.996	-46.041	0.130	0.065
-731.981	219.032	-0.170	0.276
-730.966	-128.675	0.180	0.026
-729.952	306.522	-0.181	-0.342
-728.937	-79.008	0.221	-0.076
-727.923	-132.264	-0.392	-0.051
-726.908	17.273	-0.164	-0.132
-725.894	-44.563	0.336	-0.171
-724.879	-111.205	0.158	-0.033
-723.864	50.912	0.305	-0.293
-722.850	594.134	-0.151	0.378
-721.835	43.663	-0.164	0.152
-720.821	159.976	-0.233	-0.329
-719.806	-35.359	-0.255	0.140
-718.791	79.753	0.158	-0.172
-717.777	94.142	-0.261	0.301
-716.762	-112.479	-0.015	-0.003
-715.748	-82.779	-0.273	0.090
-714.733	154.443	0.095	-0.133
-713.718	-73.665	0.122	0.045
-712.704	-77.710	-0.073	-0.025
-711.689	-200.000	-0.014	0.078
-710.675	-22.316	0.375	0.231
-709.660	-104.913	0.103	0.024
-708.645	-200.000	-0.019	0.244
-707.631	749.056	0.210	0.575
-706.616	800.000	-0.085	0.287
-705.602	78.993	0.048	0.052
-704.587	-85.230	0.214	0.068
-703.572	-120.800	0.193	0.033
-702.558	137.668	0.085	-0.112
-701.543	800.000	-0.046	-0.133
-700.529	-200.000	0.037	0.338
-699.514	800.000	-0.103	0.358
-698.499	372.657	0.145	0.299
-697.485	800.000	-0.027	0.100
-696.470	-177.924	0.115	-0.003
-695.456	50.099	0.084	-0.080
-694.441	85.780	0.148	-0.165
-693.426	764.362	0.085	-0.233
-692.412	41.734	0.069	0.063
-691.397	-124.857	-0.563	0.088
-690.383	196.621	-0.109	-0.168
-689.368	-94.285	0.324	0.090
-688.354	-138.294	-0.231	0.026
-687.339	-200.000	0.007	-0.183
-686.324	99.283	0.055	-0.065
-685.310	-98.980	0.209	-0.054
-684.295	334.852	0.082	0.161
-683.281	-114.440	-0.588	-0.114
-682.266	59.044	0.130	-0.129
-681.251	-44.515	-0.235	-0.119
-680.237	192.833	0.029	-0.044
-679.222	-77.831	-0.245	-0.086
-678.208	167.652	-0.120	-0.173
-677.193	-68.881	-0.472	-0.184
-676.178	-10.416	0.127	-0.085
-675.164	-72.947	-0.087	0.032
-674.149	183.905	-0.057	0.085
-673.135	249.622	0.040	0.069
-672.120	-126.282	0.114	0.017
-671.105	28.413	0.167	0.143
-670.091	-200.000	-0.005	0.062
-669.076	800.000	-0.034	-0.136
-668.062	-25.700	-0.101	0.060
-667.047	-64.369	0.156	0.064
-666.032	-160.306	0.199	0.011
-665.018	-149.643	0.067	-0.005
-664.003	196.150	-0.125	-0.192
-662.989	-109.140	-0.212	-0.046
-661.974	-74.947	0.077	0.028
-660.959	61.400	-0.087	-0.088
-659.945	-31.872	0.206	0.117
-658.930	177.977	0.119	-0.176
-657.916	551.325	-0.116	0.281
-656.901	4.507	-0.141	-0.104
-655.886	-35.507	0.177	-0.097
-654.872	192.009	0.091	0.139
-653.857	800.000	-0.104	0.361
-652.843	27.170	0.330	0.280
-651.828	-196.291	0.216	0.002
-650.814	459.412	0.069	-0.155
-649.799	-18.442	-0.119	-0.075
-648.784	800.000	-0.105	-0.410
-647.770	-132.264	0.174	0.023
-646.755	111.346	0.178	0.217
-645.741	438.133	-0.074	0.164
-644.726	7.179	-0.133	-0.100
-643.711	800.000	0.047	-0.163
-642.697	-105.228	-0.177	0.041
-641.682	-200.000	0.002	-0.226
-640.668	663.739	-0.081	-0.212
-639.653	-200.000	0.039	0.216
-638.638	-200.000	0.024	-0.268
-637.624	226.872	-0.039	0.064
-636.609	-154.334	-0.264	-0.018
-635.595	103.618	0.120	0.142
-634.580	-112.920	-0.273	-0.055
-633.565	30.636	-0.142	-0.122
-632.551	233.364	0.103	-0.172
-631.536	-200.000	-0.014	-0.252
-630.522	36.050	0.178	-0.159
-629.507	53.550	-0.282	0.274
-628.492	-25.948	-0.136	-0.081
-627.478	85.701	0.007	0.008
-626.463	800.000	-0.087	0.361
-625.449	-14.330	0.203	-0.132
-624.434	256.223	0.075	-0.131
-623.419	167.657	-0.203	0.292
-622.405	-97.501	0.208	0.055
-621.390	-200.000	0.023	-0.243
-620.376	-59.901	-0.395	-0.171
-619.361	-45.418	-0.272	0.136
-618.346	98.373	0.009	0.011
-617.332	-124.403	-0.204	-0.032
-616.317	-87.432	-0.183	-0.056
-615.303	-95.818	-0.214	-0.058
-614.288	-1.196	0.314	0.224
-613.273	139.285	-0.079	-0.105
-612.259	-67.399	-0.327	0.130
-611.244	-116.187	-0.268	0.050
-610.230	-200.000	0.053	-0.281
-609.215	84.274	-0.097	-0.107
-608.201	-200.000	0.007	0.091
-607.186	-0.022	0.172	-0.124
-606.171	205.550	0.022	0.034
-605.157	-84.742	0.359	0.114
-604.142	19.869	0.060	-0.049
-603.128	689.165	-0.073	0.193
-602.113	800.000	-0.058	0.233
-601.098	800.000	0.062	-0.227
-600.084	85.071	-0.394	-0.437
-599.069	601.624	0.046	0.114
-598.055	-140.001	-0.046	0.005
-597.040	22.223	-0.057	-0.047
-596.025	26.844	0.181	-0.153
-595.011	678.993	0.178	0.468
-593.996	349.791	0.030	-0.060
-592.982	-142.075	-0.325	0.033
-591.967	-128.894	-0.176	-0.025
-590.952	800.000	0.077	-0.245
-589.938	-132.908	-0.371	0.048
-588.923	771.035	-0.076	-0.210
-587.909	-155.378	0.279	-0.018
-586.894	2.033	0.058	-0.042
-585.879	294.644	-0.164	-0.303
-584.865	82.455	0.134	-0.146
-583.850	-60.179	0.372	-0.160
-582.836	98.266	0.050	0.059
-581.821	46.538	0.122	0.114
-580.806	101.629	-0.133	0.157
-579.792	6.674	-0.182	-0.137
-578.777	-200.000	-0.006	0.150
-577.763	273.564	0.051	0.092
-576.748	-98.279	-0.032	0.008
-575.733	-22.758	0.150	-0.092
-574.719	-61.800	0.119	0.050
-573.704	8.050	-0.277	0.210
-572.690	-200.000	0.024	-0.356
-571.675	215.872	0.104	-0.167
-570.661	-200.000	0.014	-0.119
-569.646	-200.000	0.009	0.106
-568.631	671.881	-0.049	-0.128
-567.617	-200.000	-0.017	-0.167
-566.602	-200.000	0.002	-0.061
-565.588	-159.103	-0.234	-0.013
-564.573	-93.036	0.375	-0.105
-563.558	159.640	-0.118	0.165
-562.544	-101.986	0.112	0.027
-561.529	308.055	0.187	-0.351
-560.515	-200.000	0.011	0.188
-559.500	-200.000	-0.028	-0.193
-558.485	444.773	0.047	-0.105
-557.471	106.508	0.117	0.139
-556.456	593.281	0.093	0.230
-555.442	-173.673	0.359	-0.011
-554.427	-133.836	0.265	-0.033
-553.412	-63.736	0.117	0.048
-552.398	178.153	-0.050	-0.074
-551.383	-48.932	-0.075	0.036
-550.369	-108.361	-0.028	-0.006
-549.354	-125.727	-0.116	-0.018
-548.339	-200.000	-0.026	-0.122
-547.325	193.849	-0.087	-0.132
-546.310	-200.000	-0.014	0.064
-545.296	-121.024	0.077	0.013
-544.281	-98.398	0.328	0.085
-543.266	641.268	0.042	0.108
-542.252	-110.899	0.046	-0.009
-541.237	-200.000	-0.006	0.081
-540.223	-200.000	-0.011	0.061
-539.208	160.955	-0.214	-0.301
-538.193	-200.000	0.050	-0.261
-537.179	-200.000	-0.015	-0.108
-536.164	-32.982	-0.210	-0.117
-535.150	0.627	-0.395	0.285
-534.135	407.248	0.093	-0.197
-533.121	29.392	0.324	-0.277
-532.106	-200.000	-0.004	0.038
-531.091	92.701	-0.103	-0.117
-530.077	-50.688	-0.299	0.142
-529.062	157.853	-0.245	0.342
-528.048	800.000	0.121	-0.359
-527.033	-92.626	-0.131	-0.037
-526.018	145.428	0.052	0.070
-525.004	-8.631	-0.142	-0.096
-523.989	-200.000	0.000	0.178
-522.975	34.295	0.077	-0.068
-521.960	-193.730	0.107	0.001
-520.945	-21.352	-0.208	-0.128
-519.931	-8.840	0.090	0.061
-518.916	-200.000	0.056	-0.276
-517.902	-38.850	0.103	0.055
-516.887	19.019	-0.257	-0.207
-515.872	800.000	-0.049	-0.195
-514.858	800.000	0.060	-0.168
-513.843	-66.781	-0.286	0.114
-512.829	-84.368	-0.063	0.020
-511.814	83.910	-0.075	-0.083
-510.799	-200.000	0.016	-0.093
-509.785	-74.613	-0.278	0.101
-508.770	-122.764	0.268	-0.044
-507.756	-200.000	-0.034	-0.000
-506.741	800.000	-0.044	0.131
-505.726	667.528	-0.023	0.059
-504.712	-200.000	-0.013	0.254
-503.697	305.923	0.061	-0.114
-502.683	14.674	-0.138	-0.109
-501.668	142.464	0.139	0.185
-500.653	-4.065	-0.183	-0.128
-499.639	800.000	-0.085	-0.281
-498.624	-200.000	-0.002	0.105
-497.610	-126.097	-0.337	-0.051
-496.595	676.557	0.069	0.181
-495.581	-165.379	-0.461	0.020
-494.566	253.631	-0.164	0.282
-493.551	800.000	-0.098	0.362
-492.537	139.013	-0.028	-0.037
-491.522	132.674	-0.184	0.239
-490.508	17.804	0.052	-0.042
-489.493	33.844	0.224	0.196
-488.478	-95.268	-0.151	0.041
-487.464	-127.889	-0.108	-0.016
-486.449	-174.642	-0.057	0.002
-485.435	127.659	-0.137	0.175
-484.420	-107.579	-0.142	-0.031
-483.405	-200.000	-0.004	0.250
-482.391	14.321	0.285	-0.223
-481.376	472.363	-0.158	-0.357
-480.362	346.611	-0.088	0.175
-479.347	-200.000	-0.042	-0.366
-478.332	-200.000	-0.018	0.288
-477.318	-200.000	0.005	0.056
-476.303	53.651	0.127	0.122
-475.289	-94.078	-0.143	0.039
-474.274	-19.991	-0.207	0.128
-473.259	88.174	-0.239	-0.266
-472.245	-31.678	-0.180	-0.101
-471.230	-106.803	0.117	-0.026
-470.216	260.887	0.083	-0.145
-469.201	7.214	-0.134	0.100
-468.186	-200.000	0.013	0.068
-467.172	-106.976	-0.051	-0.011
-466.157	40.040	0.165	-0.149
-465.143	800.000	-0.074	-0.219
-464.128	181.079	-0.073	0.108
-463.113	-36.911	0.193	0.104
-462.099	246.057	0.197	0.334
-461.084	82.324	0.216	-0.235
-460.070	-200.000	0.005	-0.365
-459.055	185.687	0.248	0.369
-458.040	-102.845	0.253	-0.060
-457.026	-28.053	-0.081	-0.047
-456.011	49.485	0.133	-0.126
-454.997	-34.003	-0.100	-0.055
-453.982	84.819	0.161	0.178
-452.968	-200.000	0.007	-0.265
-451.953	-154.510	-0.493	-0.033
-450.938	269.865	-0.125	0.220
-449.924	253.914	-0.092	-0.157
-448.909	-113.981	-0.516	0.100
-447.895	455.935	0.124	-0.277
-446.880	-28.931	0.072	0.042
-445.865	800.000	-0.043	0.149
-444.851	-200.000	0.018	-0.120
-443.836	-147.091	-0.105	0.009
-442.822	-34.156	0.209	-0.115
-441.807	-5.368	-0.142	0.098
-440.792	-128.888	-0.182	-0.026
-439.778	-200.000	0.003	-0.054
-438.763	-200.000	0.005	0.111
-437.749	244.049	-0.064	0.107
-436.734	442.616	-0.117	0.258
-435.719	-3.333	0.072	-0.050
-434.705	800.000	0.051	-0.182
-433.690	487.840	0.034	-0.078
-432.676	32.941	0.031	-0.027
-431.661	72.590	-0.063	0.066
-430.646	0.375	0.171	0.123
-429.632	142.094	0.034	0.046
-428.617	-61.711	-0.267	-0.112
-427.603	-107.645	0.111	0.024
-426.588	-183.908	-0.209	-0.004
-425.573	472.174	-0.055	-0.125
-424.559	242.520	-0.071	0.120
-423.544	800.000	0.079	0.264
-422.530	86.039	0.293	0.323
-421.515	54.253	-0.086	-0.083
-420.500	-46.318	-0.058	0.028
-419.486	-146.738	0.051	-0.004
-418.471	-103.442	0.059	0.014
-417.457	101.460	0.055	-0.064
-416.442	800.000	0.019	0.070
-415.428	-200.000	0.046	-0.280
-414.413	74.420	-0.208	-0.219
-413.398	800.000	-0.011	0.045
-412.384	210.242	0.297	-0.467
-411.369	-107.265	0.427	-0.094
-410.355	43.502	0.170	0.155
-409.340	800.000	-0.131	-0.394
-408.325	800.000	0.135	-0.380
-407.311	-64.797	0.140	-0.057
-406.296	332.385	-0.101	0.196
-405.282	43.517	0.077	-0.071
-404.267	506.361	-0.065	0.151
-403.252	341.059	-0.095	0.186
-402.238	-114.158	-0.045	-0.009
-401.223	-59.590	0.067	-0.029
-400.209	123.543	-0.239	-0.300
-399.194	380.463	0.046	-0.094
-398.179	37.370	0.221	0.196
-397.165	26.893	-0.069	0.058
-396.150	-21.748	-0.049	0.030
-395.136	800.000	0.038	0.153
-394.121	125.053	-0.086	0.109
-393.106	-35.520	-0.104	-0.057
-392.092	-200.000	-0.444	-0.002
-391.077	68.602	0.123	0.126
-390.063	800.000	-0.066	0.265
-389.048	-200.000	0.042	0.258
-388.033	-48.621	0.112	-0.054
-387.019	-200.000	-0.007	-0.161
-386.004	160.591	-0.152	-0.213
-384.990	800.000	0.031	0.112
-383.975	-152.357	-0.061	-0.004
-382.960	-200.000	-0.012	0.181
-381.946	-103.292	0.440	-0.104
-380.931	-26.255	-0.143	-0.084
-379.917	-46.896	0.333	-0.163
-378.902	188.781	0.025	0.037
-377.888	-200.000	-0.006	0.245
-376.873	-87.280	-0.286	0.087
-375.858	20.722	-0.301	0.244
-374.844	94.024	0.098	0.112
-373.829	67.350	0.072	0.073
-372.815	16.438	0.188	-0.149
-371.800	-4.501	0.203	0.140
-370.785	-24.547	0.415	-0.247
-369.771	800.000	0.033	0.116
-368.756	214.589	-0.103	0.163
-367.742	-200.000	0.097	-0.000
-366.727	32.324	-0.056	0.048
-365.712	1.378	0.110	-0.079
-364.698	46.191	0.246	0.228
-363.683	110.537	0.043	0.051
-362.669	-91.601	0.091	-0.026
-361.654	-111.113	0.326	0.067
-360.639	280.813	-0.109	-0.195
-359.625	-140.558	0.273	-0.028
-358.610	-123.308	0.128	-0.020
-357.596	-8.089	0.146	0.099
-356.581	-200.000	0.075	0.360
-355.566	-200.000	-0.018	-0.226
-354.552	-149.543	0.195	0.015
-353.537	39.520	0.119	-0.106
-352.523	-200.000	-0.024	0.154
-351.508	26.571	-0.215	0.180
-350.493	-126.662	0.244	0.036
-349.479	15.887	-0.268	0.211
-348.464	-58.240	0.089	-0.039
-347.450	-200.000	0.003	-0.102
-346.435	226.348	-0.147	-0.238
-345.420	23.304	0.123	-0.101
-344.406	-111.013	0.219	0.045
-343.391	-200.000	-0.042	-0.257
-342.377	-200.000	0.051	0.335
-341.362	376.031	0.023	0.047
-340.348	-56.071	0.274	0.122
-339.333	800.000	0.113	0.387
-338.318	49.603	0.331	0.311
-337.304	-104.093	0.063	0.015
-336.289	-200.000	0.060	-0.355
-335.275	12.749	0.199	0.153
-334.260	-27.906	0.334	-0.193
-333.245	425.317	-0.071	-0.152
-332.231	298.190	-0.026	-0.048
-331.216	55.589	-0.037	-0.036
-330.202	800.000	0.102	0.358
-329.187	20.935	0.305	-0.247
-328.172	800.000	0.092	0.308
-327.158	70.794	-0.084	0.086
-326.143	800.000	0.019	-0.053
-325.129	-9.178	-0.232	0.155
-324.114	27.505	-0.351	0.295
-323.099	-200.000	0.045	0.210
-322.085	90.564	-0.188	0.210
-321.070	99.977	-0.125	-0.145
-320.056	62.585	-0.239	0.238
-319.041	-45.049	0.133	0.066
-318.026	223.047	0.240	0.387
-317.012	72.504	-0.138	0.144
-315.997	-38.704	-0.073	-0.039
-314.983	85.602	-0.098	-0.107
-313.968	279.456	0.070	-0.125
-312.953	244.132	-0.116	-0.195
-311.939	800.000	0.095	0.363
-310.924	-200.000	-0.058	0.302
-309.910	244.359	0.112	0.188
-308.895	-177.307	-0.011	-0.000
-307.880	46.718	-0.242	0.225
-306.866	53.960	0.284	0.272
-305.851	-20.462	-0.094	0.058
-304.837	-13.562	0.178	-0.115
-303.822	79.908	0.101	-0.109
-302.807	370.711	-0.142	-0.287
-301.793	-200.000	-0.035	-0.304
-300.778	36.214	0.049	0.043
-299.764	-124.378	0.418	-0.065
-298.749	97.542	0.035	-0.040
-297.735	-70.621	-0.258	0.097
-296.720	134.501	0.198	0.257
-295.705	43.318	-0.094	0.086
-294.691	-200.000	-0.001	-0.381
-293.676	-22.381	-0.253	-0.153
-292.662	-200.000	-0.012	0.404
-291.647	-194.377	0.315	0.003
-290.632	239.026	-0.038	-0.063
-289.618	436.073	-0.040	-0.087
-288.603	128.596	-0.181	0.230
-287.589	-127.386	-0.255	-0.037
-286.574	-12.018	0.362	-0.237
-285.559	11.495	0.078	0.060
-284.545	219.455	-0.135	-0.215
-283.530	-44.549	0.563	0.281
-282.516	270.860	0.071	-0.125
-281.501	-86.452	-0.201	0.062
-280.486	800.000	0.091	0.270
-279.472	4.618	-0.418	0.306
-278.457	-131.611	0.190	-0.025
-277.443	21.301	0.255	-0.207
-276.428	225.998	0.029	-0.047
-275.413	274.938	-0.244	0.431
-274.399	40.239	-0.318	0.285
-273.384	150.054	0.205	-0.278
-272.370	-200.000	-0.034	0.167
-271.355	800.000	-0.027	-0.093
-270.340	-102.562	0.099	-0.024
-269.326	-97.758	0.403	0.104
-268.311	-200.000	0.030	0.195
-267.297	-2.878	0.100	-0.070
-266.282	-93.120	-0.172	0.048
-265.267	-200.000	-0.021	0.319
-264.253	145.809	-0.039	-0.052
-263.238	118.358	-0.058	0.071
-262.224	-200.000	-0.038	-0.347
-261.209	219.954	0.138	-0.220
-260.195	-200.000	0.010	0.131
-259.180	273.840	-0.175	-0.309
-258.165	-200.000	-0.004	0.072
-257.151	-33.886	-0.319	0.175
-256.136	463.808	-0.040	-0.089
-255.122	-200.000	0.014	-0.129
-254.107	-200.000	-0.003	-0.203
-253.092	387.450	0.035	-0.071
-252.078	105.031	-0.251	0.295
-251.063	18.031	-0.121	0.096
-250.049	148.019	-0.089	0.120
-249.034	347.716	0.129	-0.254
-248.019	-200.000	-0.013	-0.132
-247.005	500.232	-0.121	-0.278
-245.990	-89.286	0.187	-0.055
-244.976	194.569	0.218	-0.329
-243.961	-90.767	0.446	-0.128
-242.946	-71.936	0.306	-0.113
-241.932	-107.906	0.227	-0.049
-240.917	-147.322	-0.105	-0.009
-239.903	800.000	-0.024	0.093
-238.888	-48.723	0.281	0.134
-237.873	-9.825	-0.289	-0.192
-236.859	533.237	-0.138	0.324
-235.844	-200.000	0.017	-0.180
-234.830	-200.000	-0.028	0.178
-233.815	471.855	-0.059	0.133
-232.800	119.066	-0.121	-0.149
-231.786	-58.976	0.136	0.058
-230.771	-187.833	-0.240	0.003
-229.757	-31.629	0.243	0.136
-228.742	-200.000	-0.010	0.096
-227.727	-34.422	-0.350	0.191
-226.713	-183.138	0.109	-0.002
-225.698	-85.798	-0.051	0.016
-224.684	182.540	-0.104	0.152
-223.669	-200.000	0.053	-0.327
-222.655	-1.122	0.033	-0.023
-221.640	27.930	-0.142	0.119
-220.625	-200.000	-0.103	0.472
-219.611	-15.134	-0.165	0.105
-218.596	171.987	-0.209	0.299
-217.582	800.000	0.086	-0.260
-216.567	-3.577	-0.311	0.215
-215.552	800.000	0.111	-0.377
-214.538	217.295	0.128	0.203
-213.523	-43.799	0.186	-0.093
-212.509	-200.000	0.067	-0.311
-211.494	-80.618	-0.074	0.024
-210.479	207.292	-0.182	0.283
-209.465	800.000	0.143	0.463
-208.450	647.484	-0.074	0.189
-207.436	710.398	0.012	0.032
-206.421	21.394	0.070	0.057
-205.406	-96.638	-0.074	0.019
-204.392	-200.000	0.027	-0.679
-203.377	800.000	0.115	-0.326
-202.363	153.892	0.091	-0.123
-201.348	-200.000	0.017	-0.170
-200.333	592.806	-0.080	-0.195
-199.319	-108.131	0.161	0.035
-198.304	-200.000	-0.005	0.142
-197.290	79.992	0.182	-0.195
-196.275	-36.215	0.171	-0.091
-195.260	294.813	0.127	0.232
-194.246	-52.673	0.146	0.067
-193.231	-55.865	0.132	-0.059
-192.217	180.777	-0.049	0.071
-191.202	-18.507	0.191	0.118
-190.187	250.281	0.113	0.191
-189.173	178.876	0.058	-0.084
-188.158	485.395	-0.097	-0.219
-187.144	-200.000	-0.036	-0.181
-186.129	-127.720	0.253	0.036
-185.114	5.427	0.165	-0.121
-184.100	153.678	0.100	0.137
-183.085	-200.000	-0.039	0.280
-182.071	-66.348	0.235	0.093
-181.056	-181.199	0.197	0.004
-180.042	343.623	-0.080	-0.155
-179.027	1.850	0.094	-0.067
-178.012	23.512	-0.061	0.050
-176.998	232.207	-0.125	0.203
-175.983	-8.331	0.329	-0.220
-174.969	-200.000	0.025	0.198
-173.954	13.314	0.107	0.082
-172.939	181.056	-0.172	0.251
-171.925	-200.000	0.004	0.120
-170.910	-200.000	-0.011	-0.186
-169.896	154.147	0.025	-0.034
-168.881	-136.143	-0.427	-0.050
-167.866	-29.250	-0.258	0.147
-166.852	800.000	0.020	0.067
-165.837	-200.000	-0.014	-0.169
-164.823	367.235	0.084	0.168
-163.808	-100.084	-0.236	-0.058
-162.793	-146.031	-0.178	0.016
-161.779	800.000	-0.101	0.329
-160.764	-141.886	0.121	0.012
-159.750	-87.758	0.121	-0.036
-158.735	58.308	0.236	-0.230
-157.720	-25.263	0.147	-0.086
-156.706	-200.000	0.009	0.064
-155.691	476.748	-0.150	-0.337
-154.677	396.231	-0.200	-0.414
-153.662	800.000	-0.048	-0.208
-152.647	-153.504	-0.082	-0.006
-151.633	12.700	-0.138	-0.106
-150.618	-92.966	0.076	0.021
-149.604	-55.191	0.200	0.089
-148.589	800.000	0.139	-0.381
-147.574	-200.000	-0.006	-0.088
-146.560	-126.239	0.296	0.044
-145.545	206.633	-0.076	-0.117
-144.531	681.905	0.022	-0.056
-143.516	-128.229	-0.223	-0.032
-142.502	-16.588	-0.304	-0.191
-141.487	263.502	0.090	-0.155
-140.472	409.207	0.040	-0.084
-139.458	-200.000	0.022	-0.197
-138.443	-37.761	-0.196	0.104
-137.429	305.468	0.026	0.047
-136.414	140.207	0.223	-0.292
-135.399	-126.532	-0.437	-0.064
-134.385	30.567	0.075	-0.064
-133.370	-124.130	0.094	0.015
-132.356	-34.122	0.309	-0.168
-131.341	-16.934	0.238	-0.149
-130.326	150.040	0.118	0.158
-129.312	-66.821	-0.137	-0.054
-128.297	151.295	0.064	0.087
-127.283	317.964	0.083	-0.155
-126.268	800.000	0.045	-0.172
-125.253	443.369	0.113	0.245
-124.239	-43.542	0.389	-0.194
-123.224	-6.544	-0.363	0.245
-122.210	134.535	0.075	0.096
-121.195	339.478	-0.123	-0.237
-120.180	-115.882	0.327	-0.060
