DTS Sentinel unit serial number:	SN413079Multiplexer serial number:	ORYXHardware model number:	OX4-SRSoftware version number:	ORYX F/W v4.00 Oryx Data Collector v3.7.2.0data status	okinstallation	princeton_trtdifferential loss correction	single-endedforward channel	channel 3reverse channel	N/Adate	2019/09/10time	20:18:11forward acquisition time	60.00reverse acquisition time	0.00gamma	496.2192k internal	0.2325k external	0.2325temperature offset calibration	0.9923default loss term (dB/km)	0.3790temperature slope calibration	1.0000multiplexer offset coefficient	1.0000multiplexer slope coefficient	1.0000fibre end	0.00T internal ref (°C)	32.25T ext. ref 1 (°C)	-0.29T ext. ref 2 (°C)	25.31length (m)	temperature (°C)	Stokes	anti-Stokes-747.200	-112.438	-0.372	-0.075
-746.185	247.703	0.243	0.414
-745.171	-105.691	0.327	-0.075
-744.156	-200.000	-0.006	0.249
-743.142	-200.000	-0.029	0.218
-742.127	132.545	0.176	-0.229
-741.112	-200.000	0.054	0.427
-740.098	707.788	-0.110	0.292
-739.083	28.526	-0.123	0.105
-738.069	800.000	0.094	0.379
-737.054	552.657	-0.128	0.311
-736.039	800.000	-0.032	-0.096
-735.025	-61.446	0.234	-0.099
-734.010	-133.096	-0.262	0.033
-732.996	800.000	0.060	-0.175
-731.981	448.700	0.115	0.255
-730.966	-111.967	-0.157	-0.032
-729.952	253.823	-0.159	-0.274
-728.937	11.524	0.103	-0.079
-727.923	510.148	-0.092	-0.216
-726.908	300.291	-0.042	-0.077
-725.894	402.051	-0.171	-0.362
-724.879	-200.000	0.025	-0.382
-723.864	-200.000	-0.020	0.128
-722.850	-122.937	-0.182	0.029
-721.835	127.499	-0.008	0.010
-720.821	412.133	-0.160	-0.342
-719.806	800.000	-0.039	-0.135
-718.791	-200.000	0.012	0.099
-717.777	-200.000	-0.010	-0.053
-716.762	75.134	-0.156	-0.166
-715.748	77.661	-0.075	-0.080
-714.733	-54.748	0.205	0.093
-713.718	-200.000	0.065	-0.321
-712.704	542.484	0.086	-0.208
-711.689	72.843	0.207	-0.218
-710.675	131.576	0.117	0.152
-709.660	800.000	-0.053	0.150
-708.645	-61.828	0.211	0.089
-707.631	-200.000	-0.005	0.193
-706.616	-200.000	0.021	-0.483
-705.602	401.748	0.186	-0.393
-704.587	800.000	-0.012	0.038
-703.572	179.720	0.104	0.154
-702.558	-92.939	-0.280	-0.079
-701.543	-143.379	0.244	-0.023
-700.529	34.618	-0.265	-0.234
-699.514	-17.478	-0.289	0.183
-698.499	-40.054	-0.260	0.136
-697.485	-16.917	-0.106	0.067
-696.470	-136.562	-0.258	-0.030
-695.456	161.778	0.108	-0.152
-694.441	800.000	-0.027	-0.087
-693.426	94.345	0.106	0.121
-692.412	-108.877	-0.015	0.003
-691.397	24.149	0.254	-0.211
-690.383	800.000	0.042	-0.132
-689.368	398.788	-0.053	-0.112
-688.354	-101.239	-0.316	0.078
-687.339	800.000	0.080	-0.234
-686.324	-120.378	-0.159	-0.027
-685.310	55.657	0.047	0.046
-684.295	-200.000	-0.106	0.530
-683.281	-148.787	0.259	0.021
-682.266	2.592	0.089	0.065
-681.251	-60.130	-0.304	0.131
-680.237	-41.729	-0.159	0.082
-679.222	70.684	0.178	-0.186
-678.208	-200.000	-0.012	-0.232
-677.193	-200.000	-0.007	-0.088
-676.178	-156.760	0.250	0.016
-675.164	-47.245	-0.149	-0.073
-674.149	800.000	0.023	-0.078
-673.135	-136.942	-0.207	0.024
-672.120	93.990	-0.185	-0.211
-671.105	-104.961	-0.052	-0.012
-670.091	82.612	0.082	0.090
-669.076	-200.000	0.017	-0.137
-668.062	119.893	-0.138	-0.172
-667.047	69.728	0.197	-0.204
-666.032	268.767	-0.056	0.099
-665.018	-200.000	0.010	0.174
-664.003	-175.390	0.503	-0.014
-662.989	346.893	-0.140	-0.278
-661.974	-200.000	-0.009	-0.188
-660.959	440.099	-0.098	0.214
-659.945	-200.000	0.016	0.192
-658.930	-200.000	0.005	-0.180
-657.916	-200.000	0.021	-0.128
-656.901	375.381	-0.092	0.188
-655.886	-200.000	-0.095	0.000
-654.872	-200.000	-0.011	-0.132
-653.857	603.890	0.076	-0.191
-652.843	-200.000	-0.021	-0.098
-651.828	-41.073	-0.262	-0.136
-650.814	80.554	0.168	0.182
-649.799	-141.913	0.396	-0.040
-648.784	440.921	-0.103	0.227
-647.770	239.895	0.046	-0.078
-646.755	496.106	-0.159	-0.367
-645.741	-9.253	-0.257	-0.173
-644.726	37.683	0.099	0.088
-643.711	-21.079	0.143	0.088
-642.697	101.051	0.119	0.140
-641.682	327.100	0.070	0.134
-640.668	-18.112	0.080	-0.051
-639.653	692.122	-0.082	-0.215
-638.638	-113.041	-0.217	0.043
-637.624	-43.073	-0.268	-0.137
-636.609	800.000	0.092	-0.297
-635.595	93.918	0.101	-0.116
-634.580	-72.221	-0.156	-0.058
-633.565	-200.000	0.058	-0.346
-632.551	-200.000	-0.009	-0.095
-631.536	-84.315	0.109	0.035
-630.522	-82.138	-0.261	-0.085
-629.507	4.168	0.080	0.059
-628.492	-200.000	0.018	0.291
-627.478	-54.720	0.119	0.054
-626.463	-89.935	-0.111	-0.033
-625.449	800.000	0.039	-0.112
-624.434	-41.483	-0.102	0.053
-623.419	148.841	-0.059	0.080
-622.405	-55.270	0.114	0.052
-621.390	430.482	0.033	0.071
-620.376	-169.911	-0.283	0.010
-619.361	-200.000	0.014	-0.075
-618.346	144.103	0.139	0.186
-617.332	-81.173	0.310	0.103
-616.317	-9.287	-0.242	0.162
-615.303	-131.068	0.127	-0.017
-614.288	-4.676	-0.279	0.193
-613.273	4.385	-0.025	0.019
-612.259	-171.823	-0.259	-0.009
-611.244	800.000	-0.049	-0.206
-610.230	-20.402	-0.195	-0.121
-609.215	-200.000	-0.050	0.268
-608.201	12.534	0.238	0.184
-607.186	-19.578	0.211	-0.131
-606.171	800.000	0.024	0.074
-605.157	-200.000	-0.010	-0.368
-604.142	133.491	-0.135	0.175
-603.128	135.959	-0.101	-0.132
-602.113	-111.493	0.183	0.037
-601.098	-200.000	-0.075	-0.531
-600.084	-130.890	-0.114	-0.015
-599.069	-57.269	-0.383	-0.169
-598.055	145.257	-0.152	-0.204
-597.040	-77.875	0.148	-0.051
-596.025	129.417	-0.139	-0.178
-595.011	764.713	0.041	-0.110
-593.996	-75.342	-0.062	0.022
-592.982	167.340	-0.139	0.198
-591.967	26.211	-0.181	0.151
-590.952	179.920	-0.071	-0.104
-589.938	147.895	-0.061	0.083
-588.923	-195.143	-0.033	0.000
-587.909	-105.989	-0.150	0.034
-586.894	8.411	0.288	-0.217
-585.879	269.539	-0.051	0.090
-584.865	-73.865	0.155	0.056
-583.850	300.784	-0.050	-0.093
-582.836	-183.718	0.240	0.004
-581.821	-72.898	-0.501	0.185
-580.806	2.332	0.133	-0.097
-579.792	76.739	0.159	0.169
-578.777	19.367	-0.119	0.096
-577.763	-75.803	0.100	-0.036
-576.748	313.451	-0.101	-0.190
-575.733	-139.272	-0.179	-0.019
-574.719	309.731	-0.101	-0.189
-573.704	-36.075	0.158	-0.085
-572.690	-41.661	-0.314	0.162
-571.675	800.000	0.018	-0.065
-570.661	-57.232	-0.254	0.112
-569.646	-200.000	-0.005	0.090
-568.631	800.000	-0.062	0.227
-567.617	245.120	-0.239	0.403
-566.602	32.254	0.101	0.088
-565.588	-200.000	0.035	0.231
-564.573	158.331	0.058	0.081
-563.558	-200.000	-0.028	-0.343
-562.544	-200.000	0.005	-0.048
-561.529	-13.444	-0.138	0.090
-560.515	58.929	0.186	-0.183
-559.500	403.866	0.024	0.050
-558.485	-200.000	-0.036	-0.209
-557.471	-200.000	-0.021	0.237
-556.456	-176.651	0.435	-0.011
-555.442	222.013	0.111	0.178
-554.427	800.000	-0.028	0.119
-553.412	-44.560	0.088	0.044
-552.398	576.681	0.085	0.207
-551.383	72.034	0.353	0.368
-550.369	-200.000	-0.005	0.035
-549.354	-117.675	-0.269	0.048
-548.339	-57.426	-0.193	-0.085
-547.325	-93.523	-0.146	-0.040
-546.310	56.954	0.188	-0.183
-545.296	228.846	-0.058	0.094
-544.281	-177.930	-0.219	-0.005
-543.266	-66.899	0.166	0.066
-542.252	-107.736	0.168	0.037
-541.237	-200.000	-0.008	-0.197
-540.223	6.031	0.058	-0.043
-539.208	-27.846	0.054	0.032
-538.193	58.431	0.146	-0.143
-537.179	-88.643	0.125	0.037
-536.164	-200.000	0.108	0.508
-535.150	-45.592	0.507	-0.251
-534.135	326.588	-0.065	-0.124
-533.121	-32.383	-0.355	0.198
-532.106	-183.536	-0.169	0.003
-531.091	-107.209	0.188	-0.041
-530.077	121.657	-0.040	-0.050
-529.062	-200.000	-0.017	-0.106
-528.048	-38.959	0.098	0.051
-527.033	-143.565	0.333	0.032
-526.018	362.698	-0.036	0.073
-525.004	800.000	-0.046	-0.184
-523.989	99.328	0.110	0.128
-522.975	48.200	-0.244	-0.229
-521.960	105.564	-0.386	-0.456
-520.945	-110.035	0.107	-0.022
-519.931	75.470	-0.112	0.118
-518.916	-131.859	-0.035	0.005
-517.902	234.645	0.169	-0.278
-516.887	-200.000	0.018	-0.086
-515.872	82.735	0.204	-0.222
-514.858	-62.330	-0.237	-0.099
-513.843	-139.022	-0.423	0.046
-512.829	-56.971	0.160	-0.071
-511.814	-150.867	0.182	0.014
-510.799	277.068	-0.095	0.169
-509.785	136.545	-0.235	0.306
-508.770	69.322	0.198	0.203
-507.756	-200.000	0.035	-0.311
-506.741	754.921	0.064	0.174
-505.726	-29.738	-0.063	0.036
-504.712	58.188	0.197	-0.193
-503.697	-55.010	-0.570	-0.257
-502.683	-54.689	0.280	0.127
-501.668	113.409	0.106	-0.128
-500.653	-54.271	0.329	0.149
-499.639	-101.292	-0.382	0.093
-498.624	58.010	0.062	0.060
-497.610	94.003	-0.227	0.257
-496.595	-36.426	-0.162	-0.087
-495.581	-162.795	-0.321	0.016
-494.566	-0.162	-0.148	-0.105
-493.551	-200.000	0.002	-0.024
-492.537	-200.000	0.050	0.236
-491.522	279.148	-0.069	0.123
-490.508	181.720	-0.064	-0.094
-489.493	-158.855	-0.384	-0.022
-488.478	-196.108	-0.162	0.001
-487.464	-19.360	-0.254	-0.157
-486.449	182.925	-0.209	-0.308
-485.435	267.319	0.033	0.058
-484.420	-57.874	0.212	-0.093
-483.405	-93.837	-0.117	0.032
-482.391	-200.000	-0.004	-0.099
-481.376	800.000	-0.067	0.205
-480.362	405.879	-0.137	-0.288
-479.347	246.548	0.135	-0.228
-478.332	75.075	-0.035	0.037
-477.318	183.058	0.231	0.340
-476.303	141.422	0.149	0.198
-475.289	-200.000	-0.005	0.061
-474.274	-76.940	0.068	0.024
-473.259	546.533	-0.070	-0.168
-472.245	771.956	-0.077	0.209
-471.230	128.333	-0.139	-0.177
-470.216	-115.051	0.319	0.060
-469.201	-35.251	0.157	0.085
-468.186	756.382	0.104	-0.280
-467.172	124.122	-0.144	0.180
-466.157	800.000	-0.075	-0.232
-465.143	-200.000	0.050	0.238
-464.128	-91.728	0.154	0.044
-463.113	19.340	-0.162	-0.130
-462.099	48.686	0.051	0.047
-461.084	-24.916	0.242	0.143
-460.070	-11.953	-0.234	0.153
-459.055	-35.440	0.145	0.079
-458.040	-5.739	-0.124	-0.085
-457.026	-200.000	0.022	0.208
-456.011	646.055	0.101	-0.257
-454.997	-200.000	0.001	0.217
-453.982	309.625	-0.104	0.194
-452.968	-33.003	0.136	0.075
-451.953	45.821	-0.052	-0.048
-450.938	-200.000	0.001	-0.198
-449.924	-37.154	-0.104	-0.056
-448.909	120.839	0.295	0.366
-447.895	-200.000	0.001	-0.168
-446.880	-125.484	-0.084	0.013
-445.865	87.802	0.083	-0.092
-444.851	122.360	-0.036	-0.045
-443.836	59.584	0.269	-0.265
-442.822	-14.883	0.043	0.027
-441.807	-137.789	0.108	0.012
-440.792	800.000	-0.043	0.142
-439.778	-84.601	0.038	0.012
-438.763	-200.000	-0.048	0.277
-437.749	-200.000	0.033	0.414
-436.734	52.615	0.147	0.140
-435.719	800.000	0.093	-0.308
-434.705	15.782	-0.121	-0.095
-433.690	800.000	0.045	-0.186
-432.676	-83.050	-0.116	-0.037
-431.661	-62.973	-0.219	-0.090
-430.646	252.321	-0.129	0.220
-429.632	221.717	-0.067	-0.108
-428.617	109.783	-0.190	-0.227
-427.603	-60.561	0.296	0.125
-426.588	-126.535	-0.054	0.008
-425.573	-35.764	0.131	-0.071
-424.559	76.494	-0.187	0.198
-423.544	-200.000	-0.042	0.268
-422.530	35.628	0.258	-0.225
-421.515	-116.740	0.161	-0.029
-420.500	-2.317	0.193	0.135
-419.486	194.167	0.110	-0.166
-418.471	-200.000	0.042	0.267
-417.457	-82.061	0.265	-0.086
-416.442	-132.450	0.305	0.039
-415.428	69.968	-0.125	0.128
-414.413	164.301	-0.022	0.031
-413.398	-72.738	0.547	-0.201
-412.384	22.605	-0.219	-0.179
-411.369	293.855	-0.218	-0.396
-410.355	-133.250	0.139	0.017
-409.340	-149.238	0.305	-0.024
-408.325	90.669	-0.056	-0.062
-407.311	-200.000	0.009	0.281
-406.296	476.443	0.186	-0.419
-405.282	-200.000	-0.005	0.087
-404.267	67.989	0.209	-0.213
-403.252	5.393	0.302	0.222
-402.238	63.700	-0.353	-0.353
-401.223	-200.000	-0.006	0.285
-400.209	-138.828	-0.376	0.041
-399.194	-138.474	-0.407	0.045
-398.179	-94.003	0.183	-0.050
-397.165	11.447	-0.298	-0.227
-396.150	122.117	0.109	-0.136
-395.136	-200.000	0.057	0.301
-394.121	81.160	-0.127	0.136
-393.106	-41.030	0.229	0.118
-392.092	-31.741	-0.159	-0.089
-391.077	-43.451	0.493	0.248
-390.063	495.461	-0.068	-0.155
-389.048	438.727	-0.184	0.400
-388.033	760.677	-0.087	-0.234
-387.019	-155.955	-0.081	0.005
-386.004	291.967	-0.046	0.084
-384.990	146.891	-0.179	-0.240
-383.975	19.987	-0.090	0.072
-382.960	726.878	-0.047	0.125
-381.946	334.201	0.120	0.232
-380.931	386.064	0.090	-0.185
-379.917	-200.000	0.028	-0.328
-378.902	48.105	0.159	0.148
-377.888	-86.073	0.172	0.053
-376.873	-200.000	-0.010	0.178
-375.858	4.527	0.204	0.149
-374.844	162.779	0.031	-0.044
-373.829	-0.113	-0.355	-0.251
-372.815	-39.036	-0.307	0.160
-371.800	757.973	-0.139	0.374
-370.785	800.000	-0.081	0.237
-369.771	-75.139	-0.327	0.116
-368.756	47.194	0.243	0.225
-367.742	800.000	0.054	-0.188
-366.727	-200.000	0.020	-0.183
-365.712	-200.000	-0.056	-0.245
-364.698	-16.671	-0.326	-0.205
-363.683	14.128	0.078	0.061
-362.669	-35.721	-0.137	-0.074
-361.654	-114.864	0.145	0.028
-360.639	-123.347	0.048	0.008
-359.625	-84.237	0.220	0.069
-358.610	-194.846	-0.147	0.001
-357.596	6.513	0.259	0.192
-356.581	-200.000	-0.001	0.083
-355.566	-200.000	0.057	0.368
-354.552	163.699	-0.222	-0.311
-353.537	-43.040	0.143	-0.072
-352.523	800.000	-0.053	-0.195
-351.508	-76.735	-0.081	-0.028
-350.493	-48.670	0.094	-0.045
-349.479	337.472	-0.059	-0.114
-348.464	173.019	0.126	-0.181
-347.450	-116.148	-0.275	-0.051
-346.435	-99.717	-0.107	-0.027
-345.420	144.033	-0.152	-0.201
-344.406	440.794	0.082	0.177
-343.391	-90.500	-0.230	-0.066
-342.377	42.886	0.145	0.132
-341.362	-172.806	0.051	0.002
-340.348	-200.000	-0.008	-0.116
-339.333	-76.353	0.459	0.161
-338.318	-88.571	-0.230	-0.068
-337.304	-47.281	0.035	0.017
-336.289	-20.524	0.122	-0.074
-335.275	30.702	-0.168	-0.143
-334.260	800.000	0.033	0.119
-333.245	39.389	0.221	-0.196
-332.231	535.773	0.040	0.094
-331.216	-200.000	-0.007	-0.035
-330.202	-7.863	-0.106	-0.071
-329.187	-66.998	-0.283	0.111
-328.172	337.820	0.053	-0.102
-327.158	-165.938	-0.109	-0.005
-326.143	262.788	0.084	0.145
-325.129	-134.461	-0.265	0.032
-324.114	-200.000	0.070	0.361
-323.099	9.974	0.176	0.133
-322.085	174.907	-0.181	-0.260
-321.070	-46.926	0.230	0.112
-320.056	424.287	-0.115	0.245
-319.041	-200.000	0.006	0.075
-318.026	-16.670	0.193	-0.122
-317.012	-200.000	0.018	-0.093
-315.997	-200.000	0.080	0.397
-314.983	800.000	-0.035	0.146
-313.968	557.605	0.116	-0.278
-312.953	-125.477	-0.344	-0.052
-311.939	336.258	0.104	0.201
-310.924	800.000	0.012	0.041
-309.910	-143.945	-0.047	-0.004
-308.895	-63.935	-0.305	0.124
-307.880	306.960	0.141	0.260
-306.866	-200.000	-0.022	0.165
-305.851	-119.462	0.334	-0.057
-304.837	-200.000	-0.004	-0.116
-303.822	70.317	-0.236	0.242
-302.807	-152.683	0.088	0.006
-301.793	-99.515	0.184	-0.046
-300.778	74.178	0.103	0.107
-299.764	-200.000	-0.072	-0.318
-298.749	279.381	0.026	-0.047
-297.735	-48.371	-0.157	0.075
-296.720	-200.000	0.041	0.210
-295.705	-2.566	-0.209	0.145
-294.691	46.753	-0.188	-0.173
-293.676	-62.161	-0.285	0.118
-292.662	71.307	0.237	0.244
-291.647	800.000	0.054	-0.191
-290.632	800.000	-0.046	0.155
-289.618	-21.154	-0.162	-0.098
-288.603	-200.000	0.024	-0.149
-287.589	787.363	-0.066	0.179
-286.574	134.232	0.143	0.184
-285.559	-43.835	-0.165	-0.082
-284.545	40.657	-0.157	0.140
-283.530	137.573	0.312	-0.405
-282.516	4.309	0.239	0.173
-281.501	8.569	-0.140	0.104
-280.486	15.464	0.157	0.122
-279.472	-108.740	0.148	-0.031
-278.457	-123.650	-0.211	-0.033
-277.443	-87.205	0.320	-0.096
-276.428	-134.050	0.223	-0.027
-275.413	800.000	0.077	-0.221
-274.399	226.770	0.119	0.191
-273.384	1.848	0.122	-0.087
-272.370	644.308	-0.120	-0.304
-271.355	-83.067	-0.053	-0.017
-270.340	21.574	-0.165	-0.133
-269.326	-143.900	-0.269	-0.025
-268.311	-102.455	-0.204	0.048
-267.297	8.825	-0.095	0.071
-266.282	-27.662	0.174	-0.100
-265.267	-130.389	0.351	-0.047
-264.253	-106.991	-0.120	-0.026
-263.238	128.060	-0.155	-0.195
-262.224	151.564	-0.054	0.073
-261.209	-81.734	-0.179	0.058
-260.195	117.053	0.119	-0.145
-259.180	-80.654	-0.044	0.014
-258.165	-133.207	-0.292	-0.037
-257.151	679.451	0.044	0.114
-256.136	26.528	0.071	-0.058
-255.122	-70.431	-0.187	-0.070
-254.107	-75.998	0.177	-0.062
-253.092	-200.000	-0.070	-0.425
-252.078	446.099	-0.062	-0.134
-251.063	78.918	-0.121	0.128
-250.049	342.926	0.130	0.252
-249.034	281.672	0.110	0.195
-248.019	-156.348	0.221	-0.014
-247.005	-42.999	0.253	0.127
-245.990	84.911	-0.072	0.078
-244.976	-200.000	-0.100	0.555
-243.961	-151.031	-0.222	0.017
-242.946	177.166	-0.195	-0.281
-241.932	-117.871	0.126	0.022
-240.917	111.601	0.122	-0.145
-239.903	206.923	0.081	0.126
-238.888	2.193	-0.278	-0.199
-237.873	-136.144	-0.248	0.029
-236.859	-137.455	-0.161	0.018
-235.844	60.245	0.149	-0.146
-234.830	-182.783	0.061	-0.001
-233.815	299.557	0.091	-0.165
-232.800	-8.322	0.083	0.055
-231.786	7.236	-0.089	-0.065
-230.771	-200.000	0.060	-0.275
-229.757	92.574	-0.159	-0.177
-228.742	160.542	0.223	0.308
-227.727	-114.755	-0.052	0.010
-226.713	76.676	-0.100	-0.105
-225.698	106.372	-0.186	0.218
-224.684	-39.007	-0.175	0.091
-223.669	-99.901	0.198	-0.049
-222.655	-22.099	0.174	0.104
-221.640	-200.000	0.035	0.295
-220.625	-14.436	-0.259	-0.165
-219.611	-200.000	0.295	0.000
-218.596	-152.574	0.276	-0.019
-217.582	-13.410	0.159	-0.102
-216.567	-67.474	-0.077	0.030
-215.552	-18.952	0.064	0.039
-214.538	-200.000	0.002	-0.091
-213.523	69.109	0.330	-0.335
-212.509	110.802	0.289	-0.344
-211.494	-200.000	0.040	0.214
-210.479	800.000	0.023	0.074
-209.465	-200.000	0.009	0.044
-208.450	800.000	-0.096	-0.359
-207.436	743.330	-0.097	0.258
-206.421	229.991	0.107	-0.173
-205.406	257.508	-0.033	0.057
-204.392	-7.261	0.117	-0.078
-203.377	210.018	-0.083	0.129
-202.363	205.064	0.087	-0.133
-201.348	800.000	0.095	-0.338
-200.333	-150.418	0.034	-0.003
-199.319	-200.000	-0.010	0.000
-198.304	-50.708	0.094	0.044
-197.290	25.740	-0.092	-0.076
-196.275	-155.087	-0.310	-0.020
-195.260	-113.204	0.185	-0.036
-194.246	-200.000	0.001	-0.145
-193.231	-160.774	0.206	0.011
-192.217	-200.000	-0.017	0.365
-191.202	-93.155	0.279	0.077
-190.187	-78.211	0.127	0.043
-189.173	-164.430	0.093	-0.004
-188.158	188.429	0.164	0.241
-187.144	54.634	-0.087	0.082
-186.129	201.644	-0.175	-0.267
-185.114	800.000	0.048	0.152
-184.100	-103.036	-0.259	-0.061
-183.085	471.276	-0.099	0.220
-182.071	-179.020	0.111	0.002
-181.056	-200.000	-0.014	0.287
-180.042	-106.175	0.260	0.057
-179.027	-124.324	0.197	0.030
-178.012	158.219	0.280	-0.383
-176.998	-97.613	-0.215	-0.055
-175.983	-57.159	0.196	0.085
-174.969	-200.000	-0.029	0.149
-173.954	-152.587	-0.062	0.004
-172.939	88.025	0.140	-0.154
-171.925	-68.009	-0.147	0.057
-170.910	-200.000	-0.048	0.236
-169.896	-200.000	0.001	-0.179
-168.881	-47.188	0.207	-0.100
-167.866	136.912	-0.170	-0.219
-166.852	-200.000	-0.046	-0.199
-165.837	-62.317	0.320	0.131
-164.823	-200.000	-0.010	0.150
-163.808	42.399	-0.182	-0.164
-162.793	-101.312	-0.096	0.023
-161.779	-14.914	0.199	0.126
-160.764	-200.000	0.026	-0.150
-159.750	94.641	-0.123	0.138
-158.735	146.534	0.143	0.189
-157.720	-22.350	-0.068	0.040
-156.706	-200.000	0.022	0.140
-155.691	1.082	-0.084	0.059
-154.677	800.000	0.065	-0.220
-153.662	-200.000	0.011	-0.295
-152.647	-76.044	0.075	-0.026
-151.633	-46.108	-0.083	0.040
-150.618	66.914	0.173	0.174
-149.604	101.009	0.238	0.273
-148.589	-89.561	-0.477	0.138
-147.574	-39.462	0.648	-0.335
-146.560	-153.337	-0.109	-0.007
-145.545	-177.989	0.211	-0.005
-144.531	157.663	-0.157	0.214
-143.516	471.870	0.186	-0.412
-142.502	-200.000	0.013	-0.176
-141.487	205.518	0.113	0.173
-140.472	205.899	0.117	-0.179
-139.458	800.000	-0.073	0.229
-138.443	800.000	0.034	0.119
-137.429	-149.401	0.274	0.021
-136.414	-31.069	0.206	0.115
-135.399	-200.000	-0.014	0.274
-134.385	-200.000	0.000	0.101
-133.370	143.564	-0.067	0.087
-132.356	-200.000	-0.059	0.520
-131.341	-45.783	0.202	0.098
-130.326	171.427	-0.113	0.160
-129.312	135.822	0.195	0.250
-128.297	-132.141	0.256	-0.033
-127.283	-59.606	0.123	0.052
-126.268	-200.000	0.052	0.286
-125.253	3.937	-0.221	-0.159
-124.239	11.815	-0.058	-0.044
-123.224	-178.579	0.187	0.004
-122.210	88.821	-0.048	0.053
-121.195	800.000	-0.071	-0.277
