DTS Sentinel unit serial number:	SN413079Multiplexer serial number:	ORYXHardware model number:	OX4-SRSoftware version number:	ORYX F/W v4.00 Oryx Data Collector v3.7.2.0data status	okinstallation	princeton_trtdifferential loss correction	single-endedforward channel	channel 3reverse channel	N/Adate	2019/09/10time	19:26:11forward acquisition time	60.00reverse acquisition time	0.00gamma	496.2192k internal	0.2319k external	0.2319temperature offset calibration	0.9912default loss term (dB/km)	0.3790temperature slope calibration	1.0000multiplexer offset coefficient	1.0000multiplexer slope coefficient	1.0000fibre end	0.00T internal ref (°C)	33.62T ext. ref 1 (°C)	-0.34T ext. ref 2 (°C)	26.05length (m)	temperature (°C)	Stokes	anti-Stokes-747.200	109.161	-0.223	-0.270
-746.185	-81.300	-0.245	0.082
-745.171	-139.892	0.267	0.029
-744.156	-200.000	0.020	-0.196
-743.142	-200.000	0.006	-0.097
-742.127	-200.000	0.008	0.308
-741.112	-172.376	-0.182	0.006
-740.098	-49.316	-0.251	0.121
-739.083	172.853	-0.045	-0.066
-738.069	-200.000	-0.097	-0.502
-737.054	-200.000	0.008	-0.358
-736.039	-57.753	-0.271	-0.120
-735.025	-200.000	-0.035	0.216
-734.010	-98.546	0.135	0.035
-732.996	98.099	-0.133	-0.154
-731.981	-97.613	-0.464	0.122
-730.966	-131.896	-0.308	-0.041
-729.952	800.000	-0.082	-0.288
-728.937	-200.000	-0.019	-0.405
-727.923	800.000	-0.037	-0.160
-726.908	142.540	-0.053	0.071
-725.894	503.235	0.086	0.201
-724.879	8.630	-0.126	-0.096
-723.864	54.255	0.265	-0.258
-722.850	-114.830	-0.280	0.054
-721.835	546.923	-0.100	-0.243
-720.821	-67.663	-0.246	-0.097
-719.806	-117.184	-0.352	-0.065
-718.791	252.939	0.027	0.047
-717.777	-200.000	-0.062	-0.407
-716.762	-58.987	-0.294	-0.128
-715.748	800.000	0.054	0.177
-714.733	114.259	-0.132	0.162
-713.718	58.328	-0.159	-0.157
-712.704	748.501	0.098	-0.266
-711.689	470.580	0.089	-0.203
-710.675	116.192	-0.057	0.071
-709.660	96.814	0.056	0.065
-708.645	61.633	-0.240	0.241
-707.631	107.765	0.220	-0.265
-706.616	-72.508	0.087	0.033
-705.602	-200.000	-0.055	-0.371
-704.587	-50.983	-0.187	-0.089
-703.572	225.963	0.115	-0.188
-702.558	627.850	0.027	0.068
-701.543	33.758	-0.177	0.155
-700.529	93.467	-0.293	-0.335
-699.514	-200.000	0.009	-0.084
-698.499	223.241	0.076	0.124
-697.485	-200.000	-0.037	0.173
-696.470	1.849	0.191	-0.139
-695.456	372.782	0.166	0.340
-694.441	46.875	-0.188	0.177
-693.426	-86.396	0.138	-0.043
-692.412	-118.890	0.262	0.046
-691.397	800.000	-0.092	0.355
-690.383	131.474	-0.162	0.211
-689.368	162.738	0.107	-0.152
-688.354	230.405	-0.075	0.124
-687.339	-200.000	0.025	-0.177
-686.324	-145.265	-0.256	-0.023
-685.310	206.966	-0.206	-0.324
-684.295	-2.438	0.163	0.115
-683.281	427.933	0.036	0.078
-682.266	37.433	-0.126	0.112
-681.251	168.651	0.016	-0.024
-680.237	-200.000	0.115	0.001
-679.222	-153.865	0.101	0.007
-678.208	682.297	-0.032	-0.083
-677.193	-200.000	0.010	0.084
-676.178	224.257	0.173	0.282
-675.164	-75.245	-0.221	0.079
-674.149	800.000	-0.060	-0.194
-673.135	-200.000	0.005	0.026
-672.120	278.510	0.113	-0.204
-671.105	-22.732	-0.408	-0.249
-670.091	-78.779	0.215	-0.074
-669.076	52.240	-0.065	-0.062
-668.062	131.647	-0.205	-0.266
-667.047	21.968	-0.275	0.226
-666.032	-32.978	-0.115	0.064
-665.018	583.402	-0.043	0.105
-664.003	391.487	0.025	0.052
-662.989	122.647	-0.259	-0.327
-661.974	-25.031	-0.153	-0.091
-660.959	-137.426	-0.173	0.020
-659.945	-26.178	-0.261	-0.154
-658.930	-200.000	-0.026	-0.294
-657.916	-37.353	-0.110	-0.059
-656.901	-200.000	0.033	0.176
-655.886	-178.908	-0.075	0.002
-654.872	81.202	-0.197	-0.215
-653.857	-107.841	-0.135	0.030
-652.843	-129.319	-0.242	0.034
-651.828	-200.000	0.076	-0.361
-650.814	-200.000	0.022	0.121
-649.799	-99.708	-0.207	-0.052
-648.784	-80.006	-0.084	-0.028
-647.770	-78.222	-0.082	-0.028
-646.755	800.000	-0.103	-0.405
-645.741	-151.127	-0.058	-0.004
-644.726	94.322	0.077	0.088
-643.711	84.978	-0.081	0.089
-642.697	-101.034	-0.212	-0.052
-641.682	716.476	-0.058	-0.155
-640.668	586.849	-0.136	0.338
-639.653	-200.000	0.003	-0.044
-638.638	-70.122	0.148	0.057
-637.624	-83.097	-0.334	0.108
-636.609	-3.316	0.226	-0.159
-635.595	489.727	0.049	0.112
-634.580	-172.536	0.112	0.004
-633.565	-35.034	-0.405	-0.222
-632.551	800.000	0.042	0.184
-631.536	32.441	0.056	0.048
-630.522	-11.117	0.173	-0.115
-629.507	352.018	0.139	-0.277
-628.492	651.885	-0.031	0.079
-627.478	-200.000	-0.037	-0.392
-626.463	-102.215	-0.018	0.004
-625.449	-96.682	-0.161	0.043
-624.434	99.854	0.188	-0.220
-623.419	-82.852	-0.127	0.041
-622.405	-200.000	-0.025	-0.172
-621.390	-83.494	-0.090	0.029
-620.376	-8.609	0.056	-0.038
-619.361	-100.283	-0.173	-0.043
-618.346	66.226	-0.142	-0.145
-617.332	-6.462	0.257	-0.176
-616.317	-200.000	-0.004	-0.144
-615.303	-12.960	0.275	0.180
-614.288	800.000	0.103	-0.306
-613.273	160.551	0.080	-0.113
-612.259	-89.353	-0.069	0.021
-611.244	-67.052	0.394	0.156
-610.230	-200.000	0.025	-0.226
-609.215	-52.637	-0.100	-0.047
-608.201	-135.557	0.395	0.047
-607.186	-150.775	-0.240	0.018
-606.171	-96.323	0.039	0.011
-605.157	800.000	-0.031	0.114
-604.142	460.622	0.089	-0.200
-603.128	21.674	0.122	0.100
-602.113	19.425	0.283	0.229
-601.098	214.059	-0.180	0.286
-600.084	496.156	0.096	-0.221
-599.069	29.208	0.102	0.087
-598.055	341.287	-0.135	-0.266
-597.040	-81.655	0.280	0.092
-596.025	-200.000	-0.031	-0.168
-595.011	-110.295	-0.302	0.063
-593.996	-86.488	-0.185	0.057
-592.982	332.712	0.068	-0.132
-591.967	196.752	0.138	-0.212
-590.952	-63.289	0.103	0.043
-589.938	172.171	0.064	-0.093
-588.923	237.709	0.228	-0.381
-587.909	34.612	0.180	-0.158
-586.894	449.147	0.116	-0.256
-585.879	-143.869	-0.358	-0.034
-584.865	-80.156	-0.316	0.107
-583.850	-57.071	0.132	-0.059
-582.836	-149.565	0.260	-0.021
-581.821	8.753	-0.116	-0.088
-580.806	-200.000	0.022	0.300
-579.792	800.000	-0.147	0.500
-578.777	-44.839	-0.032	0.016
-577.763	677.330	-0.107	-0.278
-576.748	800.000	-0.060	-0.210
-575.733	-200.000	0.023	0.375
-574.719	36.481	-0.094	0.084
-573.704	372.671	-0.153	0.312
-572.690	-113.985	-0.172	-0.034
-571.675	18.892	-0.398	-0.320
-570.661	55.560	0.231	-0.225
-569.646	-89.890	0.168	-0.049
-568.631	4.211	-0.199	-0.146
-567.617	-68.735	0.099	-0.039
-566.602	-112.092	0.273	0.055
-565.588	800.000	0.079	0.222
-564.573	284.048	-0.093	0.167
-563.558	-200.000	0.003	-0.215
-562.544	-117.768	-0.358	-0.065
-561.529	148.927	0.250	0.340
-560.515	-64.296	0.357	-0.146
-559.500	-77.382	-0.308	0.107
-558.485	800.000	-0.039	-0.119
-557.471	178.671	-0.080	0.118
-556.456	69.846	-0.236	-0.244
-555.442	46.814	0.009	-0.009
-554.427	-148.686	0.261	0.021
-553.412	240.731	0.147	-0.247
-552.398	-79.018	0.312	0.107
-551.383	-200.000	-0.021	-0.197
-550.369	-200.000	-0.004	-0.132
-549.354	-200.000	0.013	0.169
-548.339	-200.000	0.004	-0.225
-547.325	-200.000	0.029	-0.170
-546.310	-83.543	-0.205	-0.066
-545.296	800.000	-0.060	-0.202
-544.281	-87.326	-0.208	-0.063
-543.266	-63.700	-0.168	0.069
-542.252	418.117	0.042	0.089
-541.237	-48.680	-0.152	-0.073
-540.223	-200.000	-0.044	0.321
-539.208	-13.596	-0.406	0.264
-538.193	16.748	0.229	0.182
-537.179	-88.149	-0.243	0.073
-536.164	-53.630	0.264	0.121
-535.150	145.210	0.092	0.124
-534.135	475.044	-0.116	-0.264
-533.121	800.000	0.043	-0.146
-532.106	-200.000	0.030	-0.298
-531.091	24.272	-0.248	-0.205
-530.077	-182.877	-0.326	0.006
-529.062	-53.870	0.282	0.129
-528.048	48.168	-0.214	0.201
-527.033	429.303	0.058	0.126
-526.018	269.772	-0.081	0.143
-525.004	-200.000	-0.019	0.162
-523.989	-101.180	0.261	-0.064
-522.975	157.253	-0.139	0.192
-521.960	-65.087	0.290	0.118
-520.945	12.858	0.169	0.131
-519.931	-49.034	0.229	-0.110
-518.916	-69.422	-0.292	-0.112
-517.902	800.000	-0.135	-0.506
-516.887	-200.000	0.019	0.233
-515.872	-27.099	-0.239	0.140
-514.858	400.402	0.061	-0.129
-513.843	-84.046	0.288	-0.092
-512.829	101.604	-0.199	0.232
-511.814	-91.958	-0.183	-0.052
-510.799	314.587	-0.048	0.091
-509.785	-200.000	0.043	-0.252
-508.770	-67.228	-0.114	0.045
-507.756	405.878	-0.100	0.211
-506.741	87.925	-0.123	0.137
-505.726	46.487	-0.144	-0.134
-504.712	93.453	0.113	-0.129
-503.697	-62.422	0.260	-0.108
-502.683	100.748	0.111	-0.129
-501.668	-200.000	-0.004	0.091
-500.653	-82.999	-0.177	0.057
-499.639	-147.581	-0.259	-0.022
-498.624	98.235	-0.176	0.203
-497.610	800.000	-0.051	-0.189
-496.595	-25.825	-0.355	-0.210
-495.581	152.462	-0.109	-0.149
-494.566	-75.628	-0.238	0.085
-493.551	800.000	-0.064	-0.232
-492.537	800.000	0.123	-0.368
-491.522	-136.300	-0.048	0.006
-490.508	58.288	0.243	-0.239
-489.493	-118.218	0.230	-0.041
-488.478	477.973	0.041	-0.093
-487.464	-200.000	-0.034	0.204
-486.449	800.000	0.077	-0.301
-485.435	-200.000	-0.003	-0.150
-484.420	-105.631	-0.159	0.036
-483.405	-54.925	0.155	-0.070
-482.391	-96.845	0.274	-0.072
-481.376	-95.850	-0.378	-0.101
-480.362	355.726	0.100	0.198
-479.347	-174.109	-0.078	-0.002
-478.332	200.770	0.174	-0.268
-477.318	-88.944	0.248	-0.074
-476.303	-96.370	0.083	0.022
-475.289	-200.000	-0.021	-0.171
-474.274	-200.000	-0.012	0.429
-473.259	110.580	0.114	0.137
-472.245	-66.076	-0.335	-0.134
-471.230	539.801	-0.110	-0.262
-470.216	683.323	-0.033	-0.087
-469.201	167.945	0.047	-0.067
-468.186	97.950	0.073	-0.084
-467.172	-159.294	-0.313	0.018
-466.157	153.243	-0.144	-0.197
-465.143	800.000	0.053	-0.167
-464.128	-64.618	-0.329	0.133
-463.113	63.370	-0.073	-0.073
-462.099	800.000	-0.042	-0.176
-461.084	15.212	0.172	-0.135
-460.070	9.157	-0.385	-0.291
-459.055	-200.000	0.012	0.085
-458.040	-40.570	-0.114	-0.059
-457.026	204.765	0.154	-0.238
-456.011	49.180	0.167	-0.157
-454.997	21.041	0.103	-0.084
-453.982	-200.000	-0.034	0.266
-452.968	-200.000	-0.007	0.082
-451.953	-129.354	-0.173	-0.024
-450.938	24.897	0.252	0.209
-449.924	164.877	-0.178	0.251
-448.909	-116.934	0.394	0.072
-447.895	-96.321	-0.311	-0.082
-446.880	-200.000	-0.004	0.047
-445.865	167.505	-0.047	-0.067
-444.851	-96.121	0.071	0.019
-443.836	179.425	0.008	-0.011
-442.822	-200.000	-0.047	-0.241
-441.807	-155.994	0.129	-0.008
-440.792	572.374	-0.191	0.466
-439.778	-23.962	-0.118	-0.070
-438.763	-84.348	0.129	0.041
-437.749	276.094	0.156	0.276
-436.734	176.624	-0.127	0.184
-435.719	-36.992	0.130	0.070
-434.705	-16.346	-0.161	0.102
-433.690	-200.000	-0.069	-0.355
-432.676	556.455	-0.112	0.270
-431.661	800.000	0.072	-0.206
-430.646	524.022	0.072	-0.168
-429.632	54.334	0.210	0.202
-428.617	-111.292	-0.175	-0.036
-427.603	264.038	-0.070	-0.122
-426.588	7.762	0.132	0.099
-425.573	235.102	0.077	-0.127
-424.559	191.044	-0.204	-0.307
-423.544	163.180	-0.046	-0.065
-422.530	-111.882	-0.336	-0.068
-421.515	800.000	-0.036	0.125
-420.500	-20.046	-0.202	0.125
-419.486	-156.526	0.153	0.009
-418.471	-58.323	0.121	-0.052
-417.457	96.409	0.193	0.220
-416.442	-200.000	0.036	-0.302
-415.428	531.562	0.108	-0.256
-414.413	474.603	0.074	0.166
-413.398	-49.572	0.161	-0.077
-412.384	-4.378	-0.169	-0.117
-411.369	6.209	-0.155	-0.115
-410.355	-109.580	-0.459	-0.097
-409.340	76.515	-0.062	-0.065
-408.325	214.805	0.245	0.388
-407.311	800.000	0.048	-0.170
-406.296	248.713	0.197	0.334
-405.282	-200.000	0.014	0.087
-404.267	-9.747	-0.073	0.048
-403.252	-56.087	0.199	-0.088
-402.238	452.426	-0.043	-0.095
-401.223	-31.459	-0.236	-0.133
-400.209	397.497	0.086	-0.181
-399.194	128.593	0.093	0.118
-398.179	-200.000	-0.058	0.260
-397.165	53.259	0.079	0.076
-396.150	263.677	-0.148	-0.256
-395.136	-92.044	0.406	0.115
-394.121	622.297	-0.093	-0.233
-393.106	-105.272	0.388	-0.088
-392.092	-200.000	0.001	0.024
-391.077	-2.111	-0.027	0.019
-390.063	-200.000	0.026	0.117
-389.048	-200.000	0.013	0.223
-388.033	285.521	-0.116	-0.209
-387.019	800.000	0.055	-0.234
-386.004	-30.925	0.192	-0.108
-384.990	-47.118	-0.148	0.072
-383.975	165.828	-0.183	-0.258
-382.960	-107.574	0.310	-0.068
-381.946	15.295	0.218	0.170
-380.931	250.759	-0.117	0.198
-379.917	297.831	-0.070	-0.128
-378.902	-160.884	-0.147	-0.008
-377.888	-149.034	0.321	-0.026
-376.873	96.205	-0.158	-0.180
-375.858	-159.724	-0.123	0.007
-374.844	-174.269	-0.210	0.006
-373.829	-75.472	0.229	0.081
-372.815	441.761	-0.063	0.137
-371.800	228.634	0.151	0.246
-370.785	-70.116	0.159	-0.060
-369.771	-76.007	0.127	0.045
-368.756	86.952	-0.179	0.197
-367.742	-200.000	-0.383	-0.001
-366.727	-200.000	-0.029	0.264
-365.712	127.290	-0.124	-0.157
-364.698	2.661	0.202	0.146
-363.683	-100.062	0.226	-0.056
-362.669	-149.266	0.097	-0.008
-361.654	-36.859	-0.257	0.137
-360.639	-64.000	-0.350	-0.142
-359.625	-200.000	0.045	0.196
-358.610	87.033	0.206	-0.227
-357.596	-200.000	0.013	-0.376
-356.581	-148.129	-0.223	0.018
-355.566	-54.207	0.256	0.116
-354.552	-55.267	0.335	0.150
-353.537	6.685	0.151	0.112
-352.523	363.957	0.017	0.034
-351.508	31.042	0.125	-0.107
-350.493	372.673	0.215	-0.434
-349.479	-56.243	-0.135	0.060
-348.464	-170.430	-0.068	-0.002
-347.450	-200.000	-0.004	0.267
-346.435	-139.559	0.145	-0.015
-345.420	-197.783	-0.158	-0.001
-344.406	-200.000	-0.045	0.208
-343.391	75.968	-0.305	-0.321
-342.377	119.676	0.191	-0.236
-341.362	437.789	0.059	-0.127
-340.348	-80.825	-0.301	-0.099
-339.333	-132.188	0.175	-0.023
-338.318	-122.442	0.092	-0.015
-337.304	46.441	0.263	0.243
-336.289	283.607	0.102	0.183
-335.275	93.241	-0.193	-0.217
-334.260	-179.410	0.345	-0.008
-333.245	441.711	0.189	0.411
-332.231	47.383	-0.168	0.155
-331.216	196.682	0.070	0.107
-330.202	-200.000	-0.003	0.046
-329.187	-20.620	-0.199	-0.122
-328.172	360.799	-0.012	0.024
-327.158	-50.489	0.252	0.118
-326.143	-67.658	0.237	-0.092
-325.129	-8.799	0.221	0.147
-324.114	-100.647	0.208	0.051
-323.099	-149.007	0.131	0.010
-322.085	514.995	-0.192	0.447
-321.070	-200.000	-0.047	0.218
-320.056	-27.692	0.363	0.210
-319.041	159.319	-0.117	0.162
-318.026	27.512	-0.117	0.098
-317.012	-76.951	-0.325	-0.113
-315.997	-114.443	-0.218	-0.042
-314.983	-94.392	0.108	0.029
-313.968	146.161	-0.072	-0.096
-312.953	27.769	-0.354	0.297
-311.939	60.544	0.074	0.072
-310.924	-200.000	0.001	0.233
-309.910	-169.765	0.173	0.006
-308.895	800.000	0.062	0.195
-307.880	800.000	0.046	-0.177
-306.866	414.674	-0.068	-0.144
-305.851	697.583	-0.141	-0.367
-304.837	-45.018	-0.184	0.091
-303.822	-50.636	0.361	0.169
-302.807	-200.000	-0.028	-0.151
-301.793	180.868	0.224	0.327
-300.778	800.000	0.050	0.169
-299.764	-86.666	-0.061	-0.019
-298.749	-129.903	-0.110	-0.015
-297.735	226.842	-0.079	-0.128
-296.720	-64.008	0.263	-0.107
-295.705	525.526	0.172	0.402
-294.691	270.636	-0.077	0.134
-293.676	800.000	0.066	0.206
-292.662	-11.587	-0.134	-0.087
-291.647	800.000	0.085	-0.350
-290.632	-200.000	0.027	-0.154
-289.618	175.083	-0.029	-0.042
-288.603	-58.925	0.153	-0.066
-287.589	309.304	-0.012	0.022
-286.574	800.000	0.084	0.289
-285.559	-200.000	0.025	-0.115
-284.545	800.000	-0.055	-0.160
-283.530	-105.569	-0.325	0.073
-282.516	800.000	-0.014	-0.048
-281.501	-173.532	-0.437	-0.013
-280.486	-87.749	0.292	0.087
-279.472	286.000	-0.157	-0.282
-278.457	-13.765	-0.196	-0.126
-277.443	-68.791	-0.198	0.076
-276.428	88.357	0.120	0.132
-275.413	-200.000	0.001	0.338
-274.399	-200.000	-0.026	0.217
-273.384	176.274	-0.066	0.096
-272.370	-157.496	-0.225	0.013
-271.355	-176.941	0.491	0.012
-270.340	162.216	-0.141	0.196
-269.326	-118.610	0.243	0.043
-268.311	-136.785	0.063	-0.007
-267.297	800.000	-0.046	0.177
-266.282	-58.093	0.254	0.110
-265.267	-75.362	-0.149	0.053
-264.253	91.063	-0.092	0.103
-263.238	-200.000	-0.034	-0.187
-262.224	800.000	0.025	0.073
-261.209	38.974	-0.276	-0.245
-260.195	-200.000	-0.020	-0.234
-259.180	-200.000	-0.004	-0.154
-258.165	-200.000	0.002	0.390
-257.151	-74.929	0.158	-0.056
-256.136	17.875	0.054	0.043
-255.122	-113.475	0.032	-0.006
-254.107	619.414	0.032	0.079
-253.092	16.933	-0.246	-0.193
-252.078	109.234	-0.129	0.154
-251.063	-200.000	0.057	0.404
-250.049	-200.000	0.007	-0.217
-249.034	-200.000	0.035	0.205
-248.019	800.000	0.093	0.344
-247.005	109.770	0.049	0.058
-245.990	-200.000	0.027	-0.216
-244.976	164.195	0.099	0.139
-243.961	800.000	0.040	-0.120
-242.946	347.051	-0.188	-0.366
-241.932	88.141	0.171	-0.188
-240.917	137.091	-0.157	0.203
-239.903	-92.992	0.191	0.053
-238.888	580.532	-0.086	0.209
-237.873	21.775	0.222	0.179
-236.859	-200.000	-0.004	0.335
-235.844	-200.000	0.017	-0.350
-234.830	-200.000	0.074	-0.383
-233.815	-41.589	-0.239	0.122
-232.800	-70.302	-0.128	0.048
-231.786	-13.510	0.148	0.095
-230.771	0.180	0.057	-0.040
-229.757	63.634	-0.142	-0.142
-228.742	110.880	0.076	0.090
-227.727	-200.000	0.376	0.001
-226.713	62.036	-0.242	0.239
-225.698	486.767	0.096	-0.218
-224.684	274.845	0.042	-0.074
-223.669	201.601	0.131	0.200
-222.655	-200.000	0.002	0.311
-221.640	-140.346	-0.240	0.025
-220.625	800.000	-0.018	0.062
-219.611	20.572	0.238	-0.191
-218.596	-200.000	-0.033	0.358
-217.582	-160.328	0.049	0.003
-216.567	195.353	-0.193	-0.290
-215.552	-93.471	0.234	0.064
-214.538	38.819	-0.277	-0.245
-213.523	-200.000	0.015	-0.115
-212.509	495.110	0.028	0.063
-211.494	800.000	-0.015	-0.057
-210.479	-60.193	0.131	-0.055
-209.465	-200.000	0.081	0.412
-208.450	317.342	0.233	0.436
-207.436	800.000	0.031	-0.088
-206.421	143.628	-0.134	-0.176
-205.406	-24.415	-0.260	0.153
-204.392	800.000	0.054	0.170
-203.377	800.000	-0.046	-0.172
-202.363	-101.128	0.307	-0.074
-201.348	473.509	0.178	0.398
-200.333	366.798	-0.049	0.099
-199.319	145.204	0.047	0.062
-198.304	-8.195	-0.148	-0.099
-197.290	31.883	0.202	-0.172
-196.275	-200.000	0.009	0.162
-195.260	-61.979	0.240	0.099
-194.246	-51.311	0.288	0.133
-193.231	-200.000	0.042	0.322
-192.217	94.708	-0.169	-0.190
-191.202	-56.277	0.022	-0.010
-190.187	-39.736	0.071	-0.037
-189.173	-30.153	-0.086	0.048
-188.158	326.945	-0.183	0.347
-187.144	-72.420	-0.189	0.069
-186.129	37.058	0.174	-0.152
-185.114	-25.868	-0.121	-0.070
-184.100	-99.487	0.208	0.052
-183.085	-92.656	-0.281	-0.078
-182.071	182.332	-0.197	-0.287
-181.056	-149.543	0.179	0.014
-180.042	195.104	0.061	-0.092
-179.027	47.565	0.158	-0.145
-178.012	237.117	-0.101	-0.166
-176.998	800.000	-0.014	-0.053
-175.983	-10.263	0.165	0.108
-174.969	-52.724	-0.146	-0.067
-173.954	68.104	0.275	0.279
-172.939	-200.000	-0.049	-0.393
-171.925	-82.530	0.176	-0.056
-170.910	444.179	-0.145	-0.316
-169.896	9.095	-0.148	0.110
-168.881	800.000	-0.069	0.227
-167.866	-200.000	-0.035	-0.202
-166.852	116.232	-0.078	0.094
-165.837	-125.611	-0.149	-0.022
-164.823	77.059	0.068	0.071
-163.808	-51.697	0.232	-0.107
-162.793	-135.544	-0.165	0.019
-161.779	79.711	-0.264	0.281
-160.764	800.000	-0.108	0.322
-159.750	57.987	-0.111	0.107
-158.735	43.817	0.139	-0.126
-157.720	10.125	0.188	0.141
-156.706	205.578	0.128	0.197
-155.691	-85.090	0.306	-0.095
-154.677	197.399	-0.231	0.349
-153.662	800.000	-0.047	0.198
-152.647	0.747	0.005	0.003
-151.633	-117.195	0.120	-0.022
-150.618	800.000	0.101	0.294
-149.604	161.529	-0.166	0.230
-148.589	-200.000	0.020	-0.153
-147.574	51.469	-0.065	-0.061
-146.560	-200.000	-0.028	0.164
-145.545	-200.000	-0.035	0.281
-144.531	127.255	0.081	0.101
-143.516	-127.005	-0.079	-0.011
-142.502	-73.619	-0.294	0.106
-141.487	84.841	-0.035	0.037
-140.472	8.150	-0.162	-0.120
-139.458	-2.150	-0.338	0.235
-138.443	584.373	-0.022	-0.053
-137.429	-200.000	-0.033	-0.150
-136.414	251.611	0.054	0.090
-135.399	-200.000	-0.076	0.481
-134.385	416.035	-0.107	0.226
-133.370	54.927	-0.108	0.103
-132.356	491.931	-0.202	0.458
-131.341	-200.000	0.010	0.143
-130.326	-7.137	-0.265	0.178
-129.312	-71.964	0.408	0.150
-128.297	-60.206	-0.097	-0.041
-127.283	12.915	-0.261	-0.200
-126.268	36.146	0.409	0.356
-125.253	-163.703	-0.121	0.006
-124.239	-34.164	0.076	-0.041
-123.224	-200.000	-0.026	-0.453
-122.210	800.000	0.052	-0.193
-121.195	230.501	0.233	0.376
