DTS Sentinel unit serial number:	SN413079Multiplexer serial number:	ORYXHardware model number:	OX4-SRSoftware version number:	ORYX F/W v4.00 Oryx Data Collector v3.7.2.0data status	okinstallation	princeton_trtdifferential loss correction	single-endedforward channel	channel 3reverse channel	N/Adate	2019/09/11time	02:42:11forward acquisition time	60.00reverse acquisition time	0.00gamma	496.2192k internal	0.2332k external	0.2332temperature offset calibration	0.9904default loss term (dB/km)	0.3790temperature slope calibration	1.0000multiplexer offset coefficient	1.0000multiplexer slope coefficient	1.0000fibre end	0.00T internal ref (°C)	29.27T ext. ref 1 (°C)	-0.31T ext. ref 2 (°C)	23.14length (m)	temperature (°C)	Stokes	anti-Stokes-747.200	532.116	-0.071	-0.170
-746.185	532.390	0.096	-0.229
-745.171	0.475	-0.103	-0.074
-744.156	-200.000	0.022	0.144
-743.142	207.148	0.046	0.072
-742.127	-200.000	0.026	-0.260
-741.112	-48.934	-0.119	-0.057
-740.098	800.000	-0.108	-0.383
-739.083	-126.789	-0.241	-0.036
-738.069	-76.931	0.208	-0.073
-737.054	-18.255	-0.166	0.105
-736.039	239.029	0.221	-0.370
-735.025	-109.064	-0.125	-0.027
-734.010	-37.409	-0.322	0.173
-732.996	79.977	0.147	-0.159
-731.981	800.000	-0.027	-0.082
-730.966	-105.771	0.078	0.018
-729.952	-39.102	-0.257	-0.136
-728.937	45.112	-0.175	-0.162
-727.923	40.556	0.344	-0.312
-726.908	-75.224	-0.185	-0.066
-725.894	-163.102	-0.196	0.010
-724.879	-90.728	0.353	-0.102
-723.864	25.910	0.346	-0.290
-722.850	-47.780	0.179	-0.087
-721.835	-124.977	-0.337	0.052
-720.821	-186.034	-0.282	0.004
-719.806	-200.000	-0.012	0.168
-718.791	800.000	0.028	-0.113
-717.777	-200.000	-0.004	0.107
-716.762	492.605	-0.036	-0.082
-715.748	406.292	-0.142	0.302
-714.733	251.034	-0.097	-0.165
-713.718	200.174	0.127	0.196
-712.704	-145.227	0.352	0.032
-711.689	-98.235	0.434	0.112
-710.675	-200.000	-0.080	0.412
-709.660	-78.875	-0.318	-0.109
-708.645	254.191	-0.233	-0.400
-707.631	-138.068	0.508	-0.057
-706.616	-200.000	-0.032	-0.167
-705.602	15.124	0.053	-0.042
-704.587	-104.049	0.139	-0.033
-703.572	6.198	0.242	-0.180
-702.558	338.412	0.071	-0.138
-701.543	433.254	-0.037	-0.080
-700.529	-50.501	-0.320	-0.152
-699.514	-32.585	-0.082	-0.046
-698.499	-58.256	-0.004	-0.002
-697.485	-85.675	0.412	-0.129
-696.470	-13.649	-0.289	-0.188
-695.456	153.998	-0.319	-0.440
-694.441	-200.000	-0.028	-0.261
-693.426	-75.841	0.317	0.113
-692.412	231.952	-0.076	0.125
-691.397	8.973	0.146	0.111
-690.383	-200.000	-0.045	-0.217
-689.368	680.740	-0.032	-0.085
-688.354	-74.225	0.168	-0.061
-687.339	31.238	0.028	-0.024
-686.324	-128.775	0.254	0.036
-685.310	2.764	-0.243	-0.177
-684.295	-200.000	0.054	0.359
-683.281	-114.143	-0.425	0.082
-682.266	-23.718	-0.267	-0.160
-681.251	322.622	-0.207	-0.395
-680.237	22.331	-0.224	0.183
-679.222	147.589	-0.218	0.295
-678.208	145.756	-0.087	0.117
-677.193	800.000	0.012	0.052
-676.178	0.912	-0.108	0.078
-675.164	-86.347	0.220	-0.068
-674.149	-133.525	-0.341	0.043
-673.135	-73.729	0.154	-0.056
-672.120	152.678	-0.071	0.097
-671.105	-200.000	0.010	-0.187
-670.091	391.032	0.072	0.150
-669.076	-137.552	0.264	0.030
-668.062	800.000	-0.035	0.136
-667.047	-200.000	-0.023	-0.176
-666.032	-16.622	0.075	0.048
-665.018	138.933	0.127	-0.167
-664.003	-200.000	-0.013	-0.350
-662.989	-14.086	-0.132	0.086
-661.974	281.948	-0.092	-0.166
-660.959	-47.716	0.120	0.058
-659.945	-121.572	-0.382	-0.064
-658.930	-39.683	0.406	-0.213
-657.916	800.000	-0.106	0.343
-656.901	-182.010	0.124	-0.002
-655.886	-165.398	0.162	0.007
-654.872	-60.072	0.137	0.059
-653.857	7.100	-0.115	0.086
-652.843	-200.000	-0.020	-0.117
-651.828	-200.000	0.001	0.129
-650.814	-67.750	-0.172	-0.067
-649.799	536.058	-0.073	-0.174
-648.784	-200.000	-0.017	-0.367
-647.770	-18.191	-0.049	0.031
-646.755	-131.894	0.150	0.020
-645.741	-118.121	-0.125	-0.022
-644.726	-126.548	-0.211	-0.031
-643.711	137.599	0.176	0.231
-642.697	800.000	0.018	0.053
-641.682	-188.696	-0.119	-0.001
-640.668	-174.222	-0.159	0.005
-639.653	-200.000	0.040	-0.284
-638.638	-200.000	-0.015	-0.102
-637.624	800.000	-0.115	-0.397
-636.609	-200.000	-0.009	-0.261
-635.595	72.968	0.179	-0.187
-634.580	-30.625	0.080	-0.045
-633.565	800.000	-0.064	-0.200
-632.551	-113.650	-0.217	-0.042
-631.536	-116.254	0.102	0.019
-630.522	-64.058	-0.196	0.080
-629.507	-81.567	0.120	-0.040
-628.492	-200.000	0.019	0.099
-627.478	-34.009	0.177	0.097
-626.463	59.198	-0.133	0.131
-625.449	800.000	0.118	-0.504
-624.434	75.844	-0.143	0.151
-623.419	42.698	0.133	-0.121
-622.405	-132.236	-0.093	0.012
-621.390	-200.000	-0.013	-0.318
-620.376	-200.000	0.005	-0.136
-619.361	-37.562	0.135	0.072
-618.346	21.398	0.044	0.036
-617.332	-67.422	-0.256	-0.101
-616.317	162.492	0.118	-0.166
-615.303	2.687	-0.274	0.199
-614.288	-200.000	0.075	0.393
-613.273	-1.354	-0.053	-0.037
-612.259	36.410	-0.214	-0.189
-611.244	-108.749	0.247	-0.053
-610.230	800.000	0.045	-0.196
-609.215	142.098	-0.069	-0.092
-608.201	-4.744	-0.173	-0.120
-607.186	-53.020	-0.358	-0.165
-606.171	800.000	-0.073	0.210
-605.157	58.092	-0.213	0.209
-604.142	31.386	-0.156	0.134
-603.128	800.000	-0.070	-0.217
-602.113	800.000	0.014	-0.042
-601.098	-57.748	-0.241	0.106
-600.084	800.000	0.035	-0.127
-599.069	48.367	-0.221	-0.207
-598.055	-132.852	-0.116	-0.015
-597.040	-19.567	-0.242	0.150
-596.025	800.000	0.032	-0.089
-595.011	153.198	0.178	0.243
-593.996	-70.708	-0.114	0.043
-592.982	800.000	-0.056	-0.219
-591.967	-200.000	0.075	0.441
-590.952	-200.000	0.051	0.293
-589.938	-200.000	-0.012	0.094
-588.923	-200.000	-0.025	-0.200
-587.909	-33.857	0.079	0.043
-586.894	-94.731	0.102	-0.028
-585.879	-47.898	-0.267	0.129
-584.865	139.580	-0.158	0.208
-583.850	120.199	0.159	-0.197
-582.836	60.921	0.045	0.045
-581.821	-113.127	-0.151	-0.030
-580.806	72.188	0.084	-0.087
-579.792	-116.602	-0.281	0.052
-578.777	-116.224	-0.259	-0.048
-577.763	800.000	0.036	0.111
-576.748	-139.998	-0.301	-0.032
-575.733	58.930	0.220	-0.217
-574.719	-49.557	-0.127	0.061
-573.704	-156.545	-0.198	-0.012
-572.690	453.726	-0.042	0.093
-571.675	800.000	-0.042	-0.119
-570.661	-9.578	-0.413	-0.275
-569.646	45.844	-0.087	0.081
-568.631	-200.000	-0.070	-0.377
-567.617	-34.437	-0.166	0.091
-566.602	154.239	0.081	0.112
-565.588	-170.834	-0.360	0.012
-564.573	185.875	-0.075	0.112
-563.558	40.173	-0.220	-0.198
-562.544	516.973	-0.121	-0.282
-561.529	-41.236	-0.186	-0.096
-560.515	4.156	-0.079	0.057
-559.500	-138.590	-0.099	0.011
-558.485	800.000	0.029	0.095
-557.471	215.764	0.141	0.224
-556.456	-54.149	0.221	0.101
-555.442	324.611	0.156	-0.298
-554.427	318.109	-0.199	0.376
-553.412	-200.000	0.061	0.401
-552.398	-84.468	-0.193	0.061
-551.383	-200.000	0.008	-0.081
-550.369	295.711	-0.033	0.060
-549.354	-29.111	0.229	0.131
-548.339	310.502	0.198	0.370
-547.325	46.796	-0.239	0.222
-546.310	-200.000	-0.012	0.273
-545.296	-23.155	-0.178	-0.107
-544.281	68.147	-0.090	-0.092
-543.266	795.100	-0.040	-0.109
-542.252	-200.000	-0.003	-0.299
-541.237	800.000	0.099	-0.316
-540.223	-77.505	-0.069	0.024
-539.208	-200.000	0.039	-0.187
-538.193	-200.000	0.075	0.386
-537.179	95.632	0.131	0.150
-536.164	800.000	-0.063	-0.199
-535.150	-72.547	0.215	-0.079
-534.135	-200.000	0.040	0.188
-533.121	121.512	0.151	-0.188
-532.106	-41.535	-0.072	0.037
-531.091	-200.000	0.042	-0.224
-530.077	800.000	-0.078	-0.295
-529.062	-109.434	0.262	0.055
-528.048	-174.827	-0.354	0.010
-527.033	-143.603	-0.122	-0.012
-526.018	327.926	0.116	0.223
-525.004	322.122	-0.046	0.087
-523.989	-109.919	-0.153	-0.032
-522.975	320.516	0.184	-0.349
-521.960	-174.667	0.158	0.004
-520.945	-190.698	0.082	-0.001
-519.931	-200.000	0.045	0.245
-518.916	-200.000	0.026	0.215
-517.902	-161.612	0.107	-0.005
-516.887	7.812	0.136	0.102
-515.872	220.560	0.140	-0.224
-514.858	360.169	-0.091	-0.182
-513.843	-169.100	0.087	-0.003
-512.829	-146.330	0.104	0.009
-511.814	-119.737	0.270	-0.046
-510.799	800.000	0.074	-0.227
-509.785	-52.050	0.126	-0.058
-508.770	-119.376	0.099	0.017
-507.756	-200.000	0.005	-0.109
-506.741	-61.515	0.182	0.076
-505.726	101.768	-0.061	-0.070
-504.712	-200.000	0.025	-0.159
-503.697	253.799	0.042	-0.071
-502.683	-131.200	0.265	-0.035
-501.668	20.610	-0.193	0.155
-500.653	117.061	-0.064	-0.078
-499.639	800.000	-0.049	-0.216
-498.624	-26.053	0.371	-0.218
-497.610	303.638	0.136	-0.251
-496.595	-200.000	0.010	-0.325
-495.581	-102.960	-0.318	-0.075
-494.566	-19.223	0.174	0.108
-493.551	-68.811	0.364	0.140
-492.537	563.177	-0.091	0.219
-491.522	-8.528	-0.159	0.107
-490.508	-160.813	0.157	-0.008
-489.493	441.606	0.034	0.074
-488.478	-137.050	0.212	0.024
-487.464	-192.165	0.391	0.004
-486.449	372.676	-0.144	-0.292
-485.435	219.861	-0.244	-0.390
-484.420	516.890	0.104	-0.242
-483.405	-125.229	-0.088	0.013
-482.391	-68.842	0.131	0.050
-481.376	93.935	-0.181	-0.204
-480.362	-200.000	0.331	0.000
-479.347	800.000	-0.125	-0.347
-478.332	-200.000	0.007	-0.153
-477.318	328.006	0.062	0.118
-476.303	17.597	-0.182	0.144
-475.289	315.469	0.119	-0.224
-474.274	-96.158	-0.352	0.093
-473.259	410.324	0.065	-0.138
-472.245	48.766	0.075	-0.070
-471.230	800.000	0.049	-0.195
-470.216	-200.000	-0.002	-0.088
-469.201	742.610	0.032	-0.086
-468.186	-38.749	-0.298	-0.157
-467.172	-200.000	0.042	0.253
-466.157	35.994	0.268	0.235
-465.143	-162.588	-0.084	-0.004
-464.128	-200.000	0.012	0.113
-463.113	-200.000	0.024	0.205
-462.099	130.520	0.051	0.065
-461.084	124.641	-0.160	0.200
-460.070	-70.113	-0.152	-0.058
-459.055	435.251	0.049	-0.105
-458.040	-200.000	-0.012	0.155
-457.026	-8.770	0.103	0.069
-456.011	638.132	0.051	0.128
-454.997	58.187	0.222	0.216
-453.982	-200.000	0.001	0.126
-452.968	-21.482	-0.254	0.154
-451.953	362.234	-0.122	0.243
-450.938	-95.848	-0.335	-0.089
-449.924	800.000	-0.072	-0.207
-448.909	178.639	-0.077	0.113
-447.895	-62.466	-0.387	0.160
-446.880	-112.342	-0.138	-0.028
-445.865	-61.314	-0.116	0.049
-444.851	-200.000	-0.009	-0.184
-443.836	-5.769	0.034	0.023
-442.822	531.116	-0.097	-0.229
-441.807	800.000	-0.047	0.171
-440.792	-200.000	-0.059	0.405
-439.778	-111.902	0.196	-0.039
-438.763	64.160	0.157	0.157
-437.749	-134.445	0.143	0.017
-436.734	800.000	-0.048	0.140
-435.719	-162.877	0.389	-0.019
-434.705	38.773	-0.007	-0.007
-433.690	120.875	0.100	-0.124
-432.676	-174.726	0.369	0.010
-431.661	-200.000	0.025	-0.193
-430.646	800.000	0.110	-0.377
-429.632	174.240	0.192	0.276
-428.617	-200.000	0.004	-0.022
-427.603	119.119	-0.123	0.152
-426.588	-200.000	-0.005	0.214
-425.573	35.854	-0.105	-0.091
-424.559	99.582	-0.179	-0.206
-423.544	-93.167	0.042	-0.012
-422.530	142.081	-0.042	0.056
-421.515	-200.000	0.009	-0.094
-420.500	-158.780	0.396	-0.023
-419.486	-21.760	0.270	0.163
-418.471	266.634	0.099	0.172
-417.457	-109.242	-0.207	-0.044
-416.442	-200.000	0.210	0.000
-415.428	-200.000	0.018	0.142
-414.413	-46.025	-0.216	0.106
-413.398	259.214	-0.060	0.103
-412.384	293.350	0.061	0.110
-411.369	218.855	-0.124	-0.196
-410.355	170.428	0.086	0.122
-409.340	-200.000	0.020	0.211
-408.325	132.222	-0.089	-0.114
-407.311	-37.661	0.111	-0.059
-406.296	-73.907	0.256	0.092
-405.282	-200.000	-0.054	0.244
-404.267	-159.834	0.098	-0.005
-403.252	-20.798	-0.274	-0.167
-402.238	-12.842	-0.269	-0.174
-401.223	232.220	-0.008	-0.013
-400.209	-200.000	-0.044	0.207
-399.194	-200.000	0.063	0.290
-398.179	95.873	-0.117	-0.133
-397.165	-131.850	0.114	-0.015
-396.150	-200.000	-0.005	0.257
-395.136	-54.501	0.312	-0.140
-394.121	-80.873	-0.095	-0.031
-393.106	3.198	0.181	-0.130
-392.092	-140.927	-0.323	0.033
-391.077	48.427	-0.358	0.333
-390.063	800.000	-0.169	0.485
-389.048	-200.000	0.058	0.280
-388.033	800.000	0.016	-0.053
-387.019	240.975	-0.149	-0.246
-386.004	-15.258	-0.366	-0.232
-384.990	-122.642	-0.071	0.011
-383.975	-44.733	-0.330	-0.164
-382.960	39.217	0.155	0.137
-381.946	81.944	0.144	-0.154
-380.931	282.143	0.149	0.265
-379.917	-200.000	0.033	0.167
-378.902	-149.771	0.141	-0.011
-377.888	168.155	-0.147	-0.208
-376.873	105.357	0.285	-0.334
-375.858	-63.774	0.074	0.030
-374.844	-200.000	0.004	0.249
-373.829	-200.000	-0.020	0.275
-372.815	81.477	-0.208	-0.223
-371.800	-200.000	0.030	0.216
-370.785	-38.250	-0.087	-0.046
-369.771	-200.000	0.011	0.136
-368.756	83.349	-0.045	0.049
-367.742	200.280	0.190	-0.289
-366.727	28.633	-0.145	-0.122
-365.712	800.000	-0.058	-0.235
-364.698	-200.000	0.059	0.289
-363.683	44.130	-0.122	-0.111
-362.669	193.862	0.178	0.267
-361.654	-152.479	-0.315	0.022
-360.639	-112.960	-0.072	-0.014
-359.625	46.715	0.016	-0.015
-358.610	-71.682	0.211	-0.078
-357.596	271.556	0.015	0.026
-356.581	-165.274	-0.062	0.003
-355.566	-200.000	-0.033	0.154
-354.552	800.000	-0.042	0.121
-353.537	-167.554	-0.248	0.010
-352.523	267.242	0.046	-0.080
-351.508	39.856	-0.148	-0.132
-350.493	263.002	0.213	-0.366
-349.479	-184.091	0.250	-0.004
-348.464	137.693	0.130	-0.169
-347.450	-76.556	0.299	0.104
-346.435	-41.754	-0.335	-0.170
-345.420	800.000	-0.078	0.299
-344.406	-44.252	-0.272	0.135
-343.391	484.900	-0.046	-0.103
-342.377	573.490	-0.042	0.102
-341.362	367.693	-0.058	0.117
-340.348	-200.000	-0.049	0.362
-339.333	223.206	0.186	0.298
-338.318	-200.000	-0.040	-0.409
-337.304	-200.000	0.007	-0.104
-336.289	162.911	0.223	0.310
-335.275	-122.322	0.073	0.012
-334.260	15.487	-0.099	0.077
-333.245	-98.569	-0.323	0.082
-332.231	-101.731	0.302	0.072
-331.216	590.186	0.069	-0.168
-330.202	4.084	0.111	-0.080
-329.187	-50.356	0.445	-0.208
-328.172	-127.931	0.207	-0.029
-327.158	800.000	-0.046	0.168
-326.143	93.230	0.070	-0.079
-325.129	-142.440	-0.044	-0.004
-324.114	-147.677	-0.187	-0.016
-323.099	180.510	0.190	-0.277
-322.085	-200.000	-0.014	-0.105
-321.070	194.964	0.195	-0.292
-320.056	800.000	-0.057	-0.156
-319.041	90.639	0.182	-0.202
-318.026	-30.257	-0.409	0.230
-317.012	-42.078	-0.097	-0.049
-315.997	-200.000	-0.061	0.297
-314.983	613.176	-0.076	0.188
-313.968	-36.920	0.340	0.180
-312.953	-26.900	-0.323	-0.187
-311.939	-141.043	-0.189	0.019
-310.924	-200.000	0.005	0.058
-309.910	-67.035	-0.104	-0.041
-308.895	-14.174	-0.021	0.014
-307.880	766.808	-0.050	0.133
-306.866	-135.868	0.198	-0.023
-305.851	215.753	-0.093	0.145
-304.837	800.000	0.102	0.367
-303.822	-121.865	0.111	-0.018
-302.807	-200.000	-0.016	-0.080
-301.793	-116.014	-0.248	0.046
-300.778	28.884	-0.095	-0.079
-299.764	110.749	0.288	0.343
-298.749	800.000	-0.126	-0.346
-297.735	-89.922	-0.108	-0.031
-296.720	260.897	-0.024	-0.041
-295.705	800.000	-0.052	-0.214
-294.691	800.000	-0.081	-0.257
-293.676	-51.661	0.080	0.037
-292.662	214.600	0.143	0.224
-291.647	114.863	0.049	-0.060
-290.632	-200.000	-0.099	-0.492
-289.618	-78.576	0.126	0.043
-288.603	-200.000	-0.014	-0.100
-287.589	-88.965	-0.339	-0.099
-286.574	247.796	0.099	-0.165
-285.559	-200.000	-0.096	0.445
-284.545	-200.000	-0.070	0.327
-283.530	800.000	0.084	-0.338
-282.516	-143.289	0.058	0.006
-281.501	-153.494	0.351	-0.024
-280.486	75.367	0.072	0.075
-279.472	23.768	-0.053	0.043
-278.457	-200.000	0.003	-0.109
-277.443	-200.000	-0.022	0.415
-276.428	-200.000	0.011	0.337
-275.413	-57.856	-0.185	-0.080
-274.399	-15.743	0.120	0.076
-273.384	-134.132	-0.271	-0.033
-272.370	-200.000	-0.045	-0.352
-271.355	-175.870	0.108	0.003
-270.340	800.000	0.066	0.226
-269.326	22.645	-0.073	0.059
-268.311	-121.973	0.526	0.085
-267.297	-120.938	0.283	0.047
-266.282	-94.752	0.179	-0.048
-265.267	92.898	-0.190	-0.212
-264.253	197.163	-0.121	-0.182
-263.238	78.275	-0.329	-0.347
-262.224	28.791	0.302	0.253
-261.209	-39.291	-0.545	0.283
-260.195	-141.443	0.384	-0.038
-259.180	64.949	0.250	0.250
-258.165	-200.000	-0.020	-0.162
-257.151	3.552	0.218	0.157
-256.136	674.956	-0.076	0.194
-255.122	-200.000	0.009	0.284
-254.107	471.539	-0.022	0.050
-253.092	-80.362	0.406	-0.134
-252.078	295.613	0.135	0.244
-251.063	-136.877	0.090	-0.010
-250.049	-200.000	-0.023	-0.108
-249.034	37.396	0.050	-0.044
-248.019	-200.000	-0.003	-0.093
-247.005	12.393	-0.426	0.324
-245.990	82.320	0.133	-0.142
-244.976	-41.204	-0.145	0.074
-243.961	-27.784	0.110	-0.063
-242.946	641.356	-0.022	0.057
-241.932	-200.000	0.013	0.159
-240.917	800.000	0.063	-0.185
-239.903	299.652	-0.158	0.286
-238.888	179.014	-0.243	0.351
-237.873	290.757	0.019	0.033
-236.859	-123.754	-0.124	-0.019
-235.844	491.907	-0.105	-0.238
-234.830	331.257	0.025	-0.048
-233.815	-123.665	-0.476	0.074
-232.800	30.496	-0.286	0.241
-231.786	69.493	0.428	0.435
-230.771	-44.978	0.269	-0.132
-229.757	-99.285	-0.275	-0.068
-228.742	800.000	0.064	-0.211
-227.727	118.383	-0.254	-0.309
-226.713	-200.000	0.042	-0.200
-225.698	21.066	-0.098	-0.079
-224.684	-107.996	-0.114	0.024
-223.669	456.928	0.131	0.287
-222.655	658.350	0.108	-0.275
-221.640	42.707	0.195	0.175
-220.625	800.000	-0.046	0.162
-219.611	84.753	-0.288	0.311
-218.596	-63.621	0.181	0.073
-217.582	-200.000	0.051	0.306
-216.567	247.417	0.110	0.183
-215.552	-41.342	-0.123	0.062
-214.538	-38.015	0.271	-0.142
-213.523	385.459	-0.042	0.085
-212.509	-200.000	0.029	0.168
-211.494	32.465	0.042	-0.035
-210.479	-3.498	-0.283	0.194
-209.465	103.784	0.053	-0.061
-208.450	-200.000	0.053	-0.244
-207.436	285.470	0.158	-0.281
-206.421	26.574	-0.170	-0.141
-205.406	-38.054	0.291	-0.152
-204.392	-97.944	-0.078	-0.020
-203.377	-200.000	0.085	0.372
-202.363	-200.000	0.014	0.221
-201.348	-38.897	0.355	0.184
-200.333	279.050	0.152	-0.267
-199.319	-200.000	-0.006	-0.087
-198.304	-175.994	-0.141	-0.004
-197.290	-156.184	-0.239	0.015
-196.275	800.000	0.056	-0.161
-195.260	407.557	-0.073	-0.151
-194.246	113.001	-0.168	-0.200
-193.231	195.450	0.072	0.108
-192.217	-145.068	-0.354	0.032
-191.202	-200.000	0.011	-0.127
-190.187	91.526	0.169	-0.187
-189.173	-168.808	-0.236	0.009
-188.158	-200.000	0.006	0.099
-187.144	298.179	0.091	-0.164
-186.129	-173.496	0.489	-0.015
-185.114	271.281	0.081	-0.140
-184.100	163.631	-0.076	0.106
-183.085	-18.457	0.339	-0.208
-182.071	116.458	-0.077	0.093
-181.056	800.000	0.052	0.152
-180.042	-66.749	-0.157	-0.061
-179.027	-32.037	0.427	0.235
-178.012	-159.681	-0.148	0.008
-176.998	-14.906	0.326	-0.206
-175.983	-200.000	-0.015	-0.466
-174.969	800.000	0.046	0.131
-173.954	-7.770	0.076	0.051
-172.939	156.936	-0.246	0.335
-171.925	-200.000	-0.003	0.016
-170.910	-88.455	-0.183	0.054
-169.896	-200.000	0.018	0.096
-168.881	126.588	-0.135	0.168
-167.866	-57.421	0.115	-0.050
-166.852	-102.846	0.074	-0.017
-165.837	-50.304	0.326	0.152
-164.823	-89.289	0.178	0.052
-163.808	788.000	-0.102	-0.277
-162.793	-66.272	0.162	0.063
-161.779	-3.654	0.170	-0.116
-160.764	-181.551	0.239	-0.005
-159.750	-70.815	0.078	-0.029
-158.735	34.400	-0.133	0.114
-157.720	-51.736	0.233	-0.107
-156.706	4.426	0.158	0.114
-155.691	-200.000	0.021	-0.311
-154.677	0.258	0.153	0.108
-153.662	-107.495	0.073	-0.016
-152.647	-164.931	0.185	-0.008
-151.633	800.000	0.060	-0.187
-150.618	-105.992	-0.030	0.007
-149.604	454.071	-0.107	0.233
-148.589	-200.000	-0.018	0.373
-147.574	-200.000	-0.018	0.139
-146.560	485.567	-0.046	-0.104
-145.545	-8.895	0.277	0.182
-144.531	-200.000	-0.017	-0.239
-143.516	21.705	0.126	-0.101
-142.502	800.000	-0.097	0.282
-141.487	-200.000	-0.041	0.247
-140.472	29.893	-0.182	0.152
-139.458	-126.729	-0.212	-0.031
-138.443	97.639	-0.190	-0.214
-137.429	800.000	0.127	0.415
-136.414	31.156	0.068	-0.057
-135.399	-172.650	0.082	0.003
-134.385	145.449	0.161	-0.212
-133.370	-17.438	-0.248	0.153
-132.356	646.801	-0.042	-0.105
-131.341	-24.130	0.131	0.077
-130.326	3.323	-0.117	0.084
-129.312	119.055	0.198	0.241
-128.297	-19.381	0.122	0.074
-127.283	178.342	0.147	-0.211
-126.268	-45.520	-0.237	0.115
-125.253	-166.055	-0.439	-0.018
-124.239	539.704	0.127	0.297
-123.224	-200.000	-0.015	-0.067
