DTS Sentinel unit serial number:	SN413079Multiplexer serial number:	ORYXHardware model number:	OX4-SRSoftware version number:	ORYX F/W v4.00 Oryx Data Collector v3.7.2.0data status	okinstallation	princeton_trtdifferential loss correction	single-endedforward channel	channel 3reverse channel	N/Adate	2019/09/11time	02:50:10forward acquisition time	60.00reverse acquisition time	0.00gamma	496.2192k internal	0.2331k external	0.2331temperature offset calibration	0.9911default loss term (dB/km)	0.3790temperature slope calibration	1.0000multiplexer offset coefficient	1.0000multiplexer slope coefficient	1.0000fibre end	0.00T internal ref (°C)	29.25T ext. ref 1 (°C)	-0.29T ext. ref 2 (°C)	23.51length (m)	temperature (°C)	Stokes	anti-Stokes-747.200	148.483	0.301	-0.410
-746.185	-156.529	-0.396	0.025
-745.171	60.931	-0.081	-0.081
-744.156	800.000	0.027	-0.106
-743.142	-94.003	0.166	-0.046
-742.127	312.636	0.140	-0.265
-741.112	-50.169	-0.445	-0.212
-740.098	138.380	0.064	0.084
-739.083	800.000	0.094	0.287
-738.069	4.525	-0.100	-0.074
-737.054	800.000	0.028	-0.102
-736.039	-2.642	-0.107	0.076
-735.025	-160.664	0.211	0.011
-734.010	34.858	-0.183	-0.161
-732.996	-64.512	0.446	-0.182
-731.981	-79.840	-0.277	0.094
-730.966	130.888	-0.209	0.270
-729.952	-31.910	0.149	-0.084
-728.937	14.289	-0.304	-0.238
-727.923	-136.885	-0.149	-0.017
-726.908	800.000	0.058	0.163
-725.894	-112.586	-0.252	-0.051
-724.879	291.871	-0.105	-0.192
-723.864	-200.000	0.000	-0.064
-722.850	124.390	-0.089	-0.113
-721.835	-74.222	0.044	0.016
-720.821	-30.891	-0.036	-0.020
-719.806	-83.306	0.132	0.042
-718.791	-200.000	0.026	-0.318
-717.777	281.479	0.141	-0.253
-716.762	-40.069	-0.243	0.127
-715.748	77.727	0.074	0.079
-714.733	-136.427	0.203	-0.024
-713.718	-96.304	-0.207	-0.055
-712.704	800.000	-0.079	-0.281
-711.689	-150.341	-0.208	-0.016
-710.675	-140.928	-0.084	-0.009
-709.660	-148.940	0.509	0.041
-708.645	29.668	0.323	-0.276
-707.631	-200.000	-0.016	-0.292
-706.616	-95.469	-0.251	-0.068
-705.602	72.529	0.157	-0.165
-704.587	344.694	-0.150	0.296
-703.572	110.441	0.140	0.168
-702.558	57.101	-0.338	-0.332
-701.543	4.045	0.335	0.246
-700.529	80.498	-0.348	-0.377
-699.514	-200.000	0.042	-0.284
-698.499	-200.000	-0.036	-0.269
-697.485	-29.775	-0.103	0.059
-696.470	-200.000	0.009	-0.204
-695.456	800.000	0.116	0.425
-694.441	209.571	-0.126	0.198
-693.426	467.827	-0.030	-0.067
-692.412	15.687	-0.303	-0.239
-691.397	-139.254	0.345	-0.037
-690.383	800.000	0.036	0.121
-689.368	-46.314	-0.316	0.156
-688.354	240.196	0.085	-0.142
-687.339	143.309	-0.201	-0.268
-686.324	-4.752	-0.208	0.144
-685.310	215.335	-0.126	-0.201
-684.295	-56.768	-0.290	-0.129
-683.281	-29.738	0.135	0.077
-682.266	-127.098	0.163	-0.024
-681.251	-160.783	0.291	0.015
-680.237	-164.283	0.055	0.003
-679.222	147.363	0.086	-0.117
-678.208	800.000	-0.089	-0.262
-677.193	340.258	0.190	-0.373
-676.178	-94.704	-0.167	0.046
-675.164	-200.000	0.032	-0.282
-674.149	75.938	-0.157	-0.167
-673.135	-55.810	0.164	0.074
-672.120	-135.559	-0.255	0.030
-671.105	-55.138	-0.251	0.113
-670.091	-200.000	-0.009	0.200
-669.076	-200.000	0.006	-0.160
-668.062	-80.985	-0.447	-0.149
-667.047	-200.000	-0.002	-0.218
-666.032	-200.000	0.029	-0.166
-665.018	20.819	-0.143	-0.116
-664.003	23.124	-0.269	0.221
-662.989	-200.000	0.021	0.180
-661.974	-200.000	-0.029	-0.203
-660.959	604.685	-0.050	0.125
-659.945	673.640	0.028	-0.072
-658.930	-126.976	0.099	-0.015
-657.916	-96.579	-0.106	-0.028
-656.901	145.077	-0.073	-0.098
-655.886	672.631	-0.107	-0.279
-654.872	-200.000	0.081	-0.516
-653.857	-111.823	0.078	0.016
-652.843	159.870	0.131	-0.183
-651.828	-113.885	0.154	0.030
-650.814	-108.612	0.229	0.049
-649.799	800.000	0.032	0.093
-648.784	37.754	-0.159	0.141
-647.770	456.524	-0.154	-0.343
-646.755	-200.000	-0.020	-0.237
-645.741	63.045	0.171	0.172
-644.726	464.084	0.018	0.041
-643.711	26.103	0.121	0.101
-642.697	166.897	0.117	0.167
-641.682	-12.993	0.216	-0.141
-640.668	-84.098	-0.160	-0.051
-639.653	52.653	-0.185	-0.177
-638.638	63.009	-0.145	-0.146
-637.624	259.838	-0.057	0.099
-636.609	27.859	-0.280	0.236
-635.595	-63.382	0.029	0.012
-634.580	263.113	0.187	0.326
-633.565	-200.000	-0.030	-0.195
-632.551	778.745	0.172	0.470
-631.536	-4.628	-0.087	0.060
-630.522	60.790	0.139	-0.138
-629.507	-83.112	0.036	-0.012
-628.492	-155.914	-0.290	-0.019
-627.478	458.159	0.159	0.355
-626.463	209.937	-0.041	0.065
-625.449	800.000	-0.046	0.130
-624.434	-200.000	0.050	-0.304
-623.419	26.663	-0.249	-0.209
-622.405	26.014	0.165	-0.138
-621.390	37.335	-0.272	-0.241
-620.376	-65.729	0.104	-0.042
-619.361	-111.039	-0.253	-0.052
-618.346	-16.418	-0.124	-0.079
-617.332	800.000	-0.177	0.514
-616.317	14.700	-0.314	-0.246
-615.303	-22.761	-0.225	0.136
-614.288	800.000	-0.042	0.132
-613.273	-107.789	0.043	0.009
-612.259	589.167	-0.047	0.116
-611.244	73.629	-0.207	-0.217
-610.230	46.655	0.153	0.142
-609.215	-68.005	0.194	-0.076
-608.201	-48.808	0.280	-0.134
-607.186	-48.607	0.288	-0.139
-606.171	210.028	-0.290	-0.456
-605.157	-69.758	0.083	0.032
-604.142	77.922	0.107	0.114
-603.128	787.650	-0.077	0.210
-602.113	124.437	0.141	-0.177
-601.098	-200.000	0.029	-0.155
-600.084	-200.000	0.024	-0.355
-599.069	-62.459	0.226	-0.094
-598.055	-123.301	-0.243	-0.039
-597.040	-200.000	-0.036	0.232
-596.025	-149.458	0.248	-0.020
-595.011	65.044	-0.112	-0.114
-593.996	800.000	0.042	0.128
-592.982	-200.000	-0.077	-0.387
-591.967	80.130	-0.065	-0.070
-590.952	619.987	0.032	-0.080
-589.938	-167.524	-0.079	0.003
-588.923	-136.780	-0.112	-0.013
-587.909	-40.423	0.122	0.064
-586.894	-200.000	-0.022	-0.117
-585.879	-17.649	-0.197	-0.124
-584.865	429.254	-0.049	-0.106
-583.850	-14.980	0.239	-0.153
-582.836	-200.000	0.011	0.364
-581.821	-38.090	-0.280	0.149
-580.806	-7.181	-0.265	-0.180
-579.792	-133.672	-0.079	0.010
-578.777	800.000	0.065	-0.184
-577.763	513.463	0.129	-0.300
-576.748	606.276	-0.114	-0.284
-575.733	-98.092	0.359	-0.092
-574.719	-200.000	-0.015	-0.381
-573.704	293.219	-0.096	0.176
-572.690	-32.576	0.268	-0.149
-571.675	-85.548	-0.066	-0.021
-570.661	97.104	0.302	-0.346
-569.646	-200.000	0.031	0.321
-568.631	35.778	0.320	-0.281
-567.617	408.808	-0.063	0.132
-566.602	159.547	0.064	-0.089
-565.588	800.000	0.011	0.031
-564.573	3.972	0.229	-0.167
-563.558	-44.261	-0.242	-0.121
-562.544	-8.313	-0.184	0.123
-561.529	210.960	0.082	0.129
-560.515	-200.000	-0.007	0.226
-559.500	-200.000	-0.078	0.640
-558.485	61.820	-0.170	0.169
-557.471	1.731	0.200	-0.144
-556.456	-200.000	-0.022	-0.510
-555.442	114.783	-0.096	-0.116
-554.427	-200.000	-0.018	0.340
-553.412	469.292	0.101	0.228
-552.398	-20.771	-0.289	-0.177
-551.383	59.985	-0.039	-0.038
-550.369	-95.290	-0.127	-0.034
-549.354	-200.000	-0.017	0.093
-548.339	-149.186	0.252	-0.020
-547.325	-28.150	-0.144	0.083
-546.310	115.240	0.149	-0.181
-545.296	-86.636	-0.084	0.026
-544.281	-200.000	-0.002	-0.406
-543.266	134.337	-0.239	-0.309
-542.252	-81.952	0.232	-0.076
-541.237	-7.721	0.368	-0.249
-540.223	-75.020	0.233	0.083
-539.208	-64.824	-0.342	-0.138
-538.193	775.720	-0.102	0.278
-537.179	-42.937	0.336	-0.170
-536.164	-94.644	0.139	0.038
-535.150	265.138	-0.061	0.106
-534.135	5.510	0.167	-0.123
-533.121	290.410	0.124	-0.224
-532.106	2.706	-0.256	0.186
-531.091	18.886	0.284	-0.227
-530.077	-53.195	0.117	0.054
-529.062	-74.219	-0.347	-0.125
-528.048	800.000	0.081	0.236
-527.033	96.219	0.096	0.110
-526.018	67.846	-0.121	0.123
-525.004	73.332	0.106	0.110
-523.989	17.352	-0.075	0.059
-522.975	-76.750	-0.270	-0.094
-521.960	430.925	0.136	0.294
-520.945	17.413	0.115	0.091
-519.931	-200.000	-0.000	0.109
-518.916	-20.984	-0.177	-0.108
-517.902	129.050	-0.156	-0.199
-516.887	477.341	-0.064	-0.145
-515.872	-79.409	-0.285	-0.096
-514.858	-122.027	0.120	0.020
-513.843	12.948	0.302	0.233
-512.829	800.000	0.131	0.396
-511.814	-200.000	-0.019	0.220
-510.799	334.344	0.052	0.101
-509.785	-17.039	0.042	0.026
-508.770	-7.328	0.365	-0.247
-507.756	-200.000	0.048	-0.337
-506.741	69.850	-0.173	0.178
-505.726	-200.000	-0.010	-0.108
-504.712	-191.825	0.276	0.003
-503.697	581.634	-0.076	-0.185
-502.683	-165.656	-0.174	-0.008
-501.668	-200.000	0.018	0.094
-500.653	101.117	0.114	-0.132
-499.639	-131.763	0.332	-0.043
-498.624	-61.644	0.229	-0.096
-497.610	-179.729	0.263	0.006
-496.595	-62.559	-0.087	0.036
-495.581	605.090	-0.040	0.098
-494.566	36.516	-0.070	0.062
-493.551	-79.038	0.145	0.049
-492.537	38.180	-0.106	0.094
-491.522	-90.105	-0.387	-0.112
-490.508	351.813	0.056	-0.110
-489.493	208.515	0.030	-0.046
-488.478	-105.189	-0.232	0.053
-487.464	72.253	-0.272	0.282
-486.449	-117.800	0.322	0.058
-485.435	51.770	-0.093	-0.089
-484.420	731.653	-0.065	-0.173
-483.405	-162.907	0.157	0.008
-482.391	-200.000	0.049	-0.283
-481.376	2.704	0.233	0.168
-480.362	337.453	0.140	-0.271
-479.347	-31.253	0.181	-0.102
-478.332	-13.324	-0.442	-0.286
-477.318	155.921	-0.217	-0.298
-476.303	-147.894	-0.489	-0.041
-475.289	374.969	0.080	-0.163
-474.274	-132.526	-0.334	-0.043
-473.259	75.931	0.224	-0.236
-472.245	-82.940	0.246	0.079
-471.230	-76.670	0.244	-0.085
-470.216	800.000	-0.039	0.153
-469.201	-9.034	-0.274	0.182
-468.186	-96.287	0.328	0.086
-467.172	51.553	0.140	-0.132
-466.157	206.253	0.127	0.197
-465.143	130.810	-0.165	0.211
-464.128	472.310	-0.145	0.326
-463.113	-149.553	0.164	0.013
-462.099	-105.568	-0.068	-0.015
-461.084	-99.237	0.298	-0.075
-460.070	-200.000	0.045	-0.239
-459.055	-200.000	0.042	-0.292
-458.040	-17.633	-0.118	0.074
-457.026	-200.000	0.002	-0.152
-456.011	5.886	-0.121	0.089
-454.997	-119.352	-0.539	0.093
-453.982	261.295	-0.070	-0.121
-452.968	-200.000	0.022	0.162
-451.953	283.724	0.177	-0.317
-450.938	-130.763	-0.197	-0.026
-449.924	-108.240	-0.133	-0.029
-448.909	-200.000	0.024	-0.147
-447.895	-111.916	-0.391	0.078
-446.880	-58.958	0.118	0.051
-445.865	-96.904	-0.201	0.053
-444.851	-73.685	-0.200	-0.072
-443.836	-3.424	0.236	0.163
-442.822	217.982	0.128	0.203
-441.807	258.620	-0.216	-0.370
-440.792	-16.594	0.215	-0.135
-439.778	-200.000	-0.001	0.371
-438.763	800.000	0.092	-0.280
-437.749	800.000	0.069	0.194
-436.734	-77.933	-0.194	-0.066
-435.719	-46.656	0.095	0.046
-434.705	800.000	-0.063	0.240
-433.690	-105.604	0.111	-0.025
-432.676	-49.983	-0.146	-0.069
-431.661	171.622	0.103	0.148
-430.646	179.666	0.118	-0.172
-429.632	116.368	0.198	0.242
-428.617	-200.000	-0.039	-0.183
-427.603	-67.335	0.154	0.060
-426.588	-200.000	0.035	-0.199
-425.573	-200.000	-0.005	0.255
-424.559	-37.286	-0.082	0.044
-423.544	313.328	-0.180	-0.337
-422.530	553.244	-0.062	0.148
-421.515	-122.626	0.194	-0.031
-420.500	800.000	-0.058	-0.171
-419.486	265.564	0.138	0.240
-418.471	-120.654	-0.107	0.018
-417.457	178.983	0.030	-0.043
-416.442	-200.000	-0.032	-0.300
-415.428	-61.992	-0.357	-0.148
-414.413	-200.000	-0.038	-0.257
-413.398	-28.740	-0.306	-0.175
-412.384	-61.051	0.185	0.078
-411.369	654.662	0.119	0.304
-410.355	-78.722	0.315	-0.107
-409.340	-200.000	0.032	0.251
-408.325	-200.000	-0.007	0.153
-407.311	-200.000	-0.047	-0.208
-406.296	-26.161	0.305	0.178
-405.282	-200.000	0.025	0.480
-404.267	51.202	0.305	0.287
-403.252	-68.993	0.041	0.016
-402.238	-41.073	0.074	0.038
-401.223	-144.836	0.343	-0.031
-400.209	63.340	-0.049	0.049
-399.194	-200.000	-0.049	-0.501
-398.179	24.232	-0.345	-0.283
-397.165	184.748	0.191	-0.281
-396.150	-200.000	0.009	0.162
-395.136	19.531	-0.196	0.156
-394.121	38.811	-0.084	0.075
-393.106	-69.900	-0.299	0.113
-392.092	766.928	-0.122	0.330
-391.077	-200.000	0.026	-0.135
-390.063	223.322	-0.108	0.174
-389.048	58.864	-0.259	-0.253
-388.033	11.735	-0.248	0.189
-387.019	-22.824	0.238	0.143
-386.004	-200.000	0.044	0.216
-384.990	-139.196	-0.203	-0.022
-383.975	96.063	-0.310	0.352
-382.960	-200.000	0.010	-0.148
-381.946	132.922	0.061	-0.078
-380.931	-108.863	-0.269	-0.057
-379.917	400.815	0.071	0.148
-378.902	159.306	0.167	-0.230
-377.888	-200.000	0.010	-0.097
-376.873	800.000	0.056	0.230
-375.858	800.000	0.020	0.082
-374.844	89.471	-0.141	0.156
-373.829	60.813	-0.098	-0.096
-372.815	252.577	-0.025	-0.042
-371.800	-4.384	0.263	-0.180
-370.785	-200.000	0.048	-0.443
-369.771	-45.426	0.136	0.067
-368.756	-200.000	-0.029	0.139
-367.742	-200.000	-0.053	0.346
-366.727	-166.663	0.284	-0.012
-365.712	105.367	0.148	0.173
-364.698	-19.397	-0.229	0.141
-363.683	-107.476	0.090	-0.020
-362.669	800.000	-0.063	0.223
-361.654	-200.000	0.013	0.000
-360.639	800.000	0.032	0.109
-359.625	-62.667	-0.140	-0.058
-358.610	107.979	0.183	0.217
-357.596	-114.018	-0.293	0.056
-356.581	800.000	-0.060	0.259
-355.566	-10.200	-0.286	0.188
-354.552	-200.000	-0.069	0.396
-353.537	34.001	0.060	0.052
-352.523	-35.791	0.408	-0.219
-351.508	-5.767	-0.054	-0.037
-350.493	66.970	-0.117	-0.118
-349.479	-11.891	-0.129	-0.084
-348.464	234.707	-0.198	-0.323
-347.450	330.817	0.032	0.062
-346.435	-24.731	0.107	0.063
-345.420	27.148	-0.181	-0.151
-344.406	-132.413	0.325	-0.041
-343.391	-1.453	0.238	0.166
-342.377	-200.000	-0.023	0.305
-341.362	-72.066	0.255	-0.094
-340.348	534.096	-0.081	0.189
-339.333	-200.000	0.052	0.331
-338.318	-97.250	-0.328	-0.085
-337.304	800.000	-0.062	-0.202
-336.289	-109.819	-0.166	0.035
-335.275	-157.888	0.276	0.016
-334.260	76.704	0.169	-0.178
-333.245	-138.815	0.057	-0.006
-332.231	97.418	0.132	-0.150
-331.216	-174.217	0.169	-0.005
-330.202	-200.000	0.021	0.119
-329.187	326.381	-0.099	-0.188
-328.172	35.235	0.260	0.226
-327.158	-96.195	-0.175	0.046
-326.143	154.953	-0.171	-0.232
-325.129	800.000	-0.090	-0.286
-324.114	104.682	-0.029	0.033
-323.099	-72.683	0.280	0.102
-322.085	-45.500	-0.262	-0.129
-321.070	-147.959	0.111	-0.009
-320.056	-7.597	-0.177	-0.118
-319.041	-27.932	0.184	0.105
-318.026	384.314	0.082	0.167
-317.012	-153.448	0.108	-0.007
-315.997	20.194	0.184	-0.147
-314.983	409.133	-0.049	-0.103
-313.968	-109.380	0.679	-0.142
-312.953	178.873	-0.118	-0.171
-311.939	375.280	-0.127	0.257
-310.924	20.236	0.198	-0.158
-309.910	-200.000	0.051	-0.455
-308.895	15.750	-0.196	-0.153
-307.880	-87.115	-0.080	0.024
-306.866	93.464	0.078	-0.088
-305.851	692.363	-0.121	0.313
-304.837	106.402	-0.151	0.177
-303.822	-109.674	0.100	-0.021
-302.807	-12.348	-0.100	-0.065
-301.793	-200.000	-0.014	0.071
-300.778	181.745	0.125	0.182
-299.764	-193.523	0.483	-0.004
-298.749	-124.877	-0.266	0.041
-297.735	800.000	-0.065	0.196
-296.720	376.248	-0.041	0.082
-295.705	800.000	-0.009	-0.029
-294.691	-79.183	-0.175	-0.059
-293.676	406.243	-0.103	-0.214
-292.662	2.800	-0.170	-0.122
-291.647	-200.000	-0.026	0.136
-290.632	145.678	-0.164	0.217
-289.618	177.991	-0.200	-0.289
-288.603	176.089	0.139	-0.199
-287.589	114.587	-0.017	-0.021
-286.574	-96.394	-0.265	0.069
-285.559	209.273	0.058	0.090
-284.545	24.229	0.096	-0.078
-283.530	-91.847	0.156	0.044
-282.516	-70.098	0.210	-0.079
-281.501	460.357	-0.063	0.139
-280.486	101.556	-0.136	0.157
-279.472	-6.218	-0.297	0.200
-278.457	-134.827	-0.391	0.047
-277.443	23.875	-0.120	0.098
-276.428	-200.000	-0.013	-0.064
-275.413	-200.000	0.038	0.207
-274.399	800.000	0.053	-0.218
-273.384	52.299	-0.124	0.117
-272.370	95.285	0.126	0.142
-271.355	-1.703	-0.327	-0.227
-270.340	-200.000	0.020	-0.158
-269.326	-103.925	-0.213	0.049
-268.311	118.692	0.071	0.087
-267.297	66.169	-0.312	0.313
-266.282	-200.000	-0.007	0.163
-265.267	-200.000	-0.017	-0.183
-264.253	-37.442	-0.174	0.092
-263.238	-34.145	-0.108	-0.059
-262.224	96.865	-0.261	-0.295
-261.209	317.949	-0.131	-0.245
-260.195	-200.000	-0.002	0.064
-259.180	-145.672	-0.014	0.001
-258.165	138.093	-0.130	0.168
-257.151	800.000	-0.050	-0.183
-256.136	-115.644	-0.153	0.028
-255.122	-47.442	-0.103	-0.049
-254.107	52.983	0.262	-0.248
-253.092	-200.000	0.027	0.275
-252.078	295.695	0.188	0.339
-251.063	-200.000	0.013	0.409
-250.049	-80.527	0.104	-0.034
-249.034	800.000	0.052	0.142
-248.019	-8.054	0.212	0.141
-247.005	627.770	0.142	-0.354
-245.990	-146.870	-0.182	0.015
-244.976	-200.000	0.066	0.332
-243.961	-18.516	0.240	-0.148
-242.946	-90.204	0.267	0.077
-241.932	-45.845	0.288	0.140
-240.917	22.344	-0.125	0.101
-239.903	-190.011	0.056	0.001
-238.888	46.909	0.225	0.207
-237.873	77.258	-0.436	0.458
-236.859	-57.641	-0.022	-0.009
-235.844	-132.593	-0.291	0.037
-234.830	-60.719	-0.089	0.037
-233.815	586.057	-0.058	-0.140
-232.800	188.877	-0.167	-0.246
-231.786	206.699	0.119	0.182
-230.771	336.898	-0.120	-0.230
-229.757	-107.022	0.358	-0.078
-228.742	-200.000	-0.016	-0.331
-227.727	-200.000	-0.002	-0.228
-226.713	-145.714	0.323	-0.028
-225.698	-87.021	0.090	-0.027
-224.684	-111.666	0.064	-0.013
-223.669	155.073	-0.142	-0.193
-222.655	-59.714	0.166	-0.070
-221.640	-200.000	0.022	0.284
-220.625	-16.321	-0.218	0.136
-219.611	-138.829	-0.319	-0.034
-218.596	-53.746	0.271	0.122
-217.582	-200.000	0.030	0.153
-216.567	-200.000	0.003	-0.077
-215.552	180.191	0.132	-0.191
-214.538	800.000	-0.069	0.206
-213.523	-200.000	-0.022	0.160
-212.509	-200.000	0.004	0.419
-211.494	-97.207	0.233	0.060
-210.479	-77.684	-0.111	0.038
-209.465	69.923	0.095	0.097
-208.450	800.000	0.051	-0.146
-207.436	240.264	0.136	0.224
-206.421	78.255	-0.037	0.039
-205.406	-200.000	0.044	0.385
-204.392	-124.952	0.361	-0.055
-203.377	78.351	-0.180	0.190
-202.363	-0.881	-0.200	-0.140
-201.348	123.969	-0.078	0.096
-200.333	208.478	-0.090	0.139
-199.319	-200.000	0.009	-0.428
-198.304	-200.000	0.005	-0.232
-197.290	-24.594	0.243	-0.143
-196.275	-200.000	0.022	-0.132
-195.260	85.136	-0.275	0.298
-194.246	-89.045	0.092	0.027
-193.231	-133.677	-0.403	0.050
-192.217	-200.000	0.011	-0.329
-191.202	-99.392	0.477	-0.118
-190.187	333.535	-0.038	-0.073
-189.173	-27.859	-0.111	-0.063
-188.158	449.522	0.151	0.327
-187.144	22.950	-0.061	0.049
-186.129	126.202	0.034	0.042
-185.114	800.000	0.118	0.480
-184.100	-140.024	0.290	-0.030
-183.085	-200.000	-0.038	0.224
-182.071	229.915	-0.076	0.121
-181.056	52.950	-0.089	-0.084
-180.042	-63.852	0.400	-0.161
-179.027	-90.886	-0.233	0.066
-178.012	-27.258	0.324	0.186
-176.998	92.342	0.100	0.111
-175.983	-17.842	0.215	-0.133
-174.969	357.090	0.068	-0.133
-173.954	60.897	0.035	0.034
-172.939	146.062	0.392	0.518
-171.925	39.851	0.060	-0.053
-170.910	579.618	-0.034	-0.082
-169.896	-200.000	-0.072	0.310
-168.881	-129.311	-0.051	0.007
-167.866	118.068	0.125	-0.151
-166.852	632.348	0.105	-0.263
-165.837	-200.000	-0.031	-0.284
-164.823	463.705	0.120	-0.264
-163.808	188.061	-0.126	-0.186
-162.793	-200.000	-0.013	-0.068
-161.779	-34.270	-0.304	-0.164
-160.764	33.203	0.174	-0.149
-159.750	77.987	0.089	0.093
-158.735	296.109	-0.148	0.267
-157.720	410.570	-0.081	0.169
-156.706	142.884	0.016	0.021
-155.691	-148.222	0.207	0.017
-154.677	-147.985	-0.221	-0.018
-153.662	73.100	0.071	0.073
-152.647	-128.404	-0.309	0.043
-151.633	-200.000	-0.045	-0.293
-150.618	-102.977	0.200	0.047
-149.604	-32.007	0.275	0.151
-148.589	-50.287	-0.275	0.128
-147.574	-200.000	0.012	0.056
-146.560	126.551	0.011	0.013
-145.545	-58.924	0.139	0.059
-144.531	82.352	0.066	0.070
-143.516	55.042	0.173	0.164
-142.502	-13.071	0.220	0.141
-141.487	18.487	-0.078	0.061
-140.472	80.015	0.291	-0.307
-139.458	82.614	0.158	-0.168
-138.443	55.814	-0.128	-0.122
-137.429	-15.354	-0.321	0.202
-136.414	-200.000	0.014	-0.103
-135.399	16.473	-0.270	-0.210
-134.385	-200.000	0.006	0.206
-133.370	-15.673	0.268	-0.168
-132.356	-45.412	-0.275	0.134
-131.341	-134.413	0.340	0.041
-130.326	25.819	0.270	-0.221
-129.312	112.465	0.027	-0.032
-128.297	800.000	-0.094	-0.316
-127.283	13.700	0.225	-0.172
-126.268	546.161	-0.039	0.092
-125.253	-96.743	0.146	0.038
-124.239	-16.197	-0.324	0.202
-123.224	-200.000	-0.029	0.349
-122.210	800.000	-0.043	0.182
-121.195	-3.983	0.228	-0.155
