DTS Sentinel unit serial number:	SN413079Multiplexer serial number:	ORYXHardware model number:	OX4-SRSoftware version number:	ORYX F/W v4.00 Oryx Data Collector v3.7.2.0data status	okinstallation	princeton_trtdifferential loss correction	single-endedforward channel	channel 3reverse channel	N/Adate	2019/09/11time	10:42:11forward acquisition time	60.00reverse acquisition time	0.00gamma	496.2192k internal	0.2296k external	0.2296temperature offset calibration	0.9940default loss term (dB/km)	0.3790temperature slope calibration	1.0000multiplexer offset coefficient	1.0000multiplexer slope coefficient	1.0000fibre end	0.00T internal ref (°C)	36.70T ext. ref 1 (°C)	0.16T ext. ref 2 (°C)	33.81length (m)	temperature (°C)	Stokes	anti-Stokes-747.200	114.828	-0.212	0.264
-746.185	-200.000	0.009	0.359
-745.171	76.023	0.238	-0.257
-744.156	-23.203	-0.283	0.174
-743.142	1.581	-0.131	-0.097
-742.127	1.270	-0.156	0.114
-741.112	386.129	-0.058	0.123
-740.098	800.000	-0.032	0.124
-739.083	800.000	-0.024	-0.087
-738.069	-38.822	-0.179	0.097
-737.054	212.169	0.155	-0.250
-736.039	455.214	-0.126	0.285
-735.025	-145.933	-0.163	-0.015
-734.010	44.036	-0.207	0.193
-732.996	-82.785	-0.244	-0.081
-731.981	-13.987	-0.139	-0.092
-730.966	800.000	-0.117	0.401
-729.952	-48.447	-0.244	-0.120
-728.937	-72.828	0.248	-0.093
-727.923	15.462	0.108	0.087
-726.908	800.000	0.045	0.133
-725.894	-83.760	-0.125	-0.041
-724.879	-134.720	-0.399	0.049
-723.864	800.000	-0.131	-0.544
-722.850	54.560	-0.069	0.068
-721.835	-200.000	0.005	0.110
-720.821	-200.000	-0.016	-0.077
-719.806	-169.760	-0.258	-0.010
-718.791	-136.677	-0.167	0.020
-717.777	-200.000	-0.009	-0.086
-716.762	-200.000	-0.009	0.057
-715.748	-130.730	0.222	-0.030
-714.733	-200.000	0.008	-0.066
-713.718	-200.000	-0.000	-0.084
-712.704	-96.750	-0.369	0.099
-711.689	-93.292	0.156	0.044
-710.675	-200.000	0.018	-0.551
-709.660	-86.075	-0.396	-0.125
-708.645	-60.497	0.206	-0.089
-707.631	-130.605	-0.180	-0.025
-706.616	238.029	0.079	-0.133
-705.602	-200.000	0.040	-0.310
-704.587	48.940	0.096	-0.092
-703.572	-48.902	-0.111	-0.054
-702.558	-200.000	0.038	0.416
-701.543	-78.566	-0.378	0.132
-700.529	-113.785	0.101	-0.020
-699.514	800.000	-0.083	0.244
-698.499	-124.211	-0.225	0.036
-697.485	99.841	0.188	0.222
-696.470	198.836	0.143	0.223
-695.456	-200.000	-0.018	-0.113
-694.441	-119.753	0.179	-0.032
-693.426	-200.000	-0.028	0.143
-692.412	114.072	0.111	-0.138
-691.397	259.425	0.092	0.161
-690.383	258.578	0.118	-0.207
-689.368	-174.975	-0.145	0.004
-688.354	800.000	-0.073	0.212
-687.339	-130.381	-0.248	0.034
-686.324	-200.000	0.042	-0.337
-685.310	-200.000	-0.038	-0.267
-684.295	-191.432	-0.298	-0.003
-683.281	-27.986	0.152	-0.090
-682.266	-25.670	-0.273	-0.164
-681.251	6.849	-0.138	0.105
-680.237	-200.000	0.052	-0.329
-679.222	680.310	0.101	-0.268
-678.208	-147.305	0.517	0.045
-677.193	464.022	-0.089	0.204
-676.178	5.678	0.049	-0.037
-675.164	570.867	0.010	-0.024
-674.149	695.883	0.086	0.231
-673.135	96.107	-0.067	-0.078
-672.120	1.297	-0.361	-0.264
-671.105	122.742	0.237	-0.303
-670.091	800.000	0.094	-0.349
-669.076	-37.157	-0.332	0.181
-668.062	359.123	0.051	-0.103
-667.047	192.339	0.046	-0.070
-666.032	58.998	-0.208	0.209
-665.018	-82.539	-0.235	0.077
-664.003	-134.049	-0.093	0.012
-662.989	-200.000	0.017	0.440
-661.974	-133.309	0.254	-0.033
-660.959	-200.000	0.055	-0.360
-659.945	-200.000	0.029	0.162
-658.930	800.000	-0.046	0.162
-657.916	-200.000	-0.055	-0.266
-656.901	-162.619	-0.279	-0.014
-655.886	-105.968	0.461	-0.106
-654.872	536.613	-0.127	-0.307
-653.857	-200.000	-0.015	-0.106
-652.843	800.000	-0.101	-0.381
-651.828	-98.175	0.100	-0.026
-650.814	-200.000	-0.030	-0.179
-649.799	-43.966	-0.320	-0.164
-648.784	-24.682	0.123	0.075
-647.770	800.000	-0.124	-0.386
-646.755	-121.607	-0.186	0.031
-645.741	108.675	-0.187	-0.227
-644.726	-200.000	0.025	0.461
-643.711	-200.000	-0.032	-0.214
-642.697	-200.000	-0.007	-0.264
-641.682	208.636	-0.196	-0.313
-640.668	-164.068	-0.091	0.004
-639.653	-145.521	-0.191	0.017
-638.638	-126.946	-0.347	0.052
-637.624	-36.638	-0.235	0.129
-636.609	-200.000	0.002	0.051
-635.595	100.192	-0.043	0.051
-634.580	-108.577	0.340	0.074
-633.565	800.000	-0.046	-0.149
-632.551	346.584	0.093	-0.186
-631.536	-21.402	-0.243	0.151
-630.522	800.000	-0.040	-0.141
-629.507	98.947	-0.138	0.162
-628.492	800.000	0.076	0.304
-627.478	286.838	0.084	0.154
-626.463	188.890	-0.177	0.270
-625.449	-65.849	-0.167	0.068
-624.434	-12.907	-0.087	-0.057
-623.419	50.114	0.162	0.156
-622.405	-147.122	-0.176	-0.015
-621.390	-33.100	-0.356	0.201
-620.376	186.066	-0.046	0.069
-619.361	413.947	0.039	0.085
-618.346	-37.199	-0.197	0.107
-617.332	-36.460	0.342	-0.187
-616.317	134.415	-0.046	-0.060
-615.303	-100.350	-0.294	-0.074
-614.288	-40.140	0.105	0.056
-613.273	-38.732	0.128	0.069
-612.259	587.871	-0.116	-0.290
-611.244	-21.381	0.226	-0.140
-610.230	55.677	-0.086	0.085
-609.215	-92.880	0.196	-0.056
-608.201	-75.995	0.169	-0.061
-607.186	79.851	-0.053	-0.058
-606.171	400.643	-0.126	0.270
-605.157	271.148	-0.081	0.145
-604.142	-100.699	-0.176	-0.044
-603.128	91.001	-0.148	-0.168
-602.113	-41.206	-0.112	-0.059
-601.098	-123.993	0.145	0.023
-600.084	-120.013	0.141	-0.025
-599.069	5.502	0.219	-0.164
-598.055	129.337	0.113	-0.146
-597.040	-48.390	-0.157	-0.077
-596.025	-40.634	-0.217	0.114
-595.011	-126.672	0.114	-0.017
-593.996	269.137	0.147	-0.263
-592.982	134.254	-0.162	-0.213
-591.967	-200.000	-0.036	0.406
-590.952	413.330	-0.021	-0.046
-589.938	253.667	0.147	0.256
-588.923	69.232	-0.056	-0.059
-587.909	158.782	-0.111	0.156
-586.894	-200.000	-0.009	0.207
-585.879	-49.821	-0.205	0.099
-584.865	-14.020	-0.127	0.083
-583.850	780.889	0.085	-0.237
-582.836	-200.000	0.006	0.317
-581.821	150.117	0.133	0.183
-580.806	799.082	0.068	-0.191
-579.792	-63.665	0.263	0.109
-578.777	-3.522	0.153	-0.108
-577.763	-72.128	0.305	0.115
-576.748	0.139	0.176	0.127
-575.733	-10.536	-0.133	-0.089
-574.719	-200.000	-0.054	0.252
-573.704	41.174	-0.062	-0.057
-572.690	800.000	-0.070	0.207
-571.675	89.469	-0.083	-0.094
-570.661	496.136	0.139	0.325
-569.646	800.000	0.070	-0.269
-568.631	-25.431	-0.229	0.137
-567.617	127.832	-0.274	-0.354
-566.602	-200.000	0.029	0.298
-565.588	800.000	0.047	0.164
-564.573	800.000	0.089	0.299
-563.558	515.563	-0.151	0.358
-562.544	-200.000	-0.013	0.123
-561.529	654.091	0.106	-0.276
-560.515	-200.000	0.010	-0.188
-559.500	-200.000	-0.002	0.013
-558.485	-200.000	-0.055	-0.399
-557.471	22.034	0.105	0.087
-556.456	-200.000	-0.019	-0.105
-555.442	-200.000	0.016	-0.171
-554.427	-74.011	-0.284	-0.104
-553.412	-51.254	-0.321	0.152
-552.398	800.000	0.049	-0.166
-551.383	-200.000	0.011	-0.256
-550.369	-127.673	-0.110	0.016
-549.354	521.345	-0.121	-0.288
-548.339	-162.249	0.295	-0.015
-547.325	-200.000	0.004	0.026
-546.310	-40.555	0.215	0.113
-545.296	321.607	-0.063	-0.122
-544.281	-14.525	-0.337	-0.219
-543.266	7.337	-0.067	-0.051
-542.252	-200.000	-0.012	0.076
-541.237	105.851	0.153	-0.183
-540.223	-9.391	-0.016	-0.011
-539.208	53.911	-0.118	-0.115
-538.193	-31.400	-0.198	0.113
-537.179	8.401	0.145	0.110
-536.164	-200.000	0.024	0.128
-535.150	33.916	0.398	0.351
-534.135	800.000	0.049	-0.141
-533.121	-102.903	-0.313	-0.075
-532.106	-45.009	-0.077	-0.039
-531.091	-200.000	0.031	-0.602
-530.077	192.607	-0.127	-0.195
-529.062	800.000	0.112	0.329
-528.048	-62.475	-0.102	0.043
-527.033	-139.205	-0.330	0.036
-526.018	68.046	-0.026	0.027
-525.004	90.284	-0.106	0.120
-523.989	800.000	-0.050	0.166
-522.975	-18.188	-0.205	-0.130
-521.960	-124.722	0.550	-0.086
-520.945	-13.129	0.376	0.248
-519.931	-120.736	-0.473	-0.081
-518.916	310.054	-0.141	-0.266
-517.902	-115.074	-0.311	-0.060
-516.887	-192.706	0.241	-0.002
-515.872	72.481	0.185	-0.196
-514.858	800.000	-0.046	-0.182
-513.843	800.000	-0.021	0.062
-512.829	-63.189	-0.582	-0.243
-511.814	-200.000	0.017	-0.115
-510.799	-62.169	-0.132	-0.056
-509.785	149.048	0.211	-0.289
-508.770	-200.000	-0.006	0.082
-507.756	-139.480	-0.365	-0.040
-506.741	376.710	0.070	0.145
-505.726	800.000	0.097	-0.291
-504.712	151.896	0.118	-0.162
-503.697	-158.410	0.438	0.026
-502.683	-200.000	0.014	-0.404
-501.668	37.033	0.097	-0.087
-500.653	75.871	0.333	0.356
-499.639	107.972	-0.081	-0.098
-498.624	-12.483	0.216	-0.143
-497.610	3.378	0.161	-0.119
-496.595	237.804	0.118	-0.198
-495.581	-56.614	-0.113	0.051
-494.566	-200.000	-0.035	-0.220
-493.551	142.315	-0.083	0.112
-492.537	768.037	0.043	-0.119
-491.522	-43.379	0.383	0.196
-490.508	219.469	0.080	-0.129
-489.493	-121.468	-0.117	0.020
-488.478	-87.539	-0.224	-0.069
-487.464	-56.605	-0.274	-0.123
-486.449	-105.485	-0.242	-0.056
-485.435	126.638	0.116	0.149
-484.420	-200.000	0.027	-0.254
-483.405	-200.000	0.045	-0.328
-482.391	-88.896	-0.383	0.115
-481.376	-200.000	0.021	0.116
-480.362	-33.986	0.348	0.194
-479.347	-36.247	-0.227	0.124
-478.332	-32.417	-0.266	-0.150
-477.318	64.003	-0.105	-0.107
-476.303	11.978	-0.082	0.064
-475.289	244.346	0.273	0.463
-474.274	800.000	0.054	-0.210
-473.259	-200.000	-0.043	-0.363
-472.245	-63.066	0.079	-0.033
-471.230	-58.808	-0.423	0.185
-470.216	6.369	-0.108	0.081
-469.201	-200.000	-0.007	0.131
-468.186	578.323	0.127	0.314
-467.172	-200.000	0.071	0.329
-466.157	388.452	-0.194	-0.405
-465.143	449.514	-0.055	0.123
-464.128	20.935	-0.284	0.233
-463.113	-73.469	0.306	0.113
-462.099	-46.062	0.105	-0.052
-461.084	-101.284	-0.308	-0.076
-460.070	-64.776	-0.178	0.073
-459.055	-136.810	-0.205	-0.024
-458.040	138.277	-0.058	0.077
-457.026	49.355	-0.067	0.064
-456.011	564.384	0.022	-0.054
-454.997	-200.000	-0.000	0.002
-453.982	12.355	0.107	-0.083
-452.968	5.290	0.189	-0.141
-451.953	-141.169	-0.286	0.030
-450.938	-30.726	-0.183	-0.105
-449.924	-95.335	0.227	0.062
-448.909	-117.601	0.231	-0.042
-447.895	-41.411	-0.095	-0.049
-446.880	-89.225	0.182	-0.054
-445.865	9.463	0.095	-0.073
-444.851	102.488	-0.175	-0.206
-443.836	54.126	-0.381	-0.370
-442.822	-117.855	-0.198	-0.036
-441.807	179.764	0.041	0.061
-440.792	-200.000	-0.028	-0.130
-439.778	559.339	0.119	0.291
-438.763	-67.470	-0.304	-0.120
-437.749	800.000	0.068	0.278
-436.734	800.000	-0.115	0.411
-435.719	-89.512	-0.146	0.043
-434.705	-197.960	0.304	0.002
-433.690	-200.000	-0.003	0.212
-432.676	144.528	0.228	0.308
-431.661	318.412	-0.117	0.223
-430.646	-139.369	0.172	0.019
-429.632	-10.390	0.084	-0.056
-428.617	-8.451	0.429	0.291
-427.603	110.949	-0.130	-0.158
-426.588	588.456	0.048	-0.120
-425.573	1.403	-0.157	0.114
-424.559	-143.725	0.049	-0.005
-423.544	87.511	-0.075	-0.084
-422.530	-200.000	-0.025	0.152
-421.515	-11.107	0.297	-0.198
-420.500	-22.278	0.323	0.198
-419.486	-200.000	0.073	-0.410
-418.471	112.002	0.116	0.142
-417.457	-101.613	-0.090	0.022
-416.442	128.288	0.125	-0.160
-415.428	658.824	-0.041	0.107
-414.413	-31.898	-0.368	-0.208
-413.398	800.000	-0.125	0.458
-412.384	111.861	0.109	-0.133
-411.369	800.000	0.016	-0.069
-410.355	-59.321	0.064	-0.028
-409.340	-113.608	0.194	-0.038
-408.325	-140.942	-0.266	0.028
-407.311	67.004	0.131	-0.134
-406.296	347.579	-0.257	-0.510
-405.282	-50.751	0.142	-0.067
-404.267	-200.000	0.038	0.230
-403.252	216.144	0.115	-0.184
-402.238	158.068	0.124	0.173
-401.223	-42.493	0.151	-0.078
-400.209	-195.288	-0.348	-0.003
-399.194	-31.187	0.249	0.142
-398.179	60.222	-0.240	-0.239
-397.165	197.444	-0.272	-0.418
-396.150	-200.000	-0.019	-0.089
-395.136	-9.734	-0.152	0.102
-394.121	533.487	-0.087	-0.208
-393.106	800.000	-0.060	0.200
-392.092	-83.411	0.167	0.054
-391.077	170.263	0.247	-0.356
-390.063	-132.758	-0.198	-0.025
-389.048	426.407	0.153	0.333
-388.033	-200.000	0.026	-0.305
-387.019	-200.000	-0.011	-0.139
-386.004	-24.884	0.146	-0.087
-384.990	-200.000	-0.003	-0.198
-383.975	775.736	-0.080	0.221
-382.960	-48.208	0.155	-0.075
-381.946	-169.600	-0.157	-0.006
-380.931	800.000	-0.063	-0.245
-379.917	34.526	0.200	-0.176
-378.902	-135.658	-0.207	0.025
-377.888	800.000	0.050	0.209
-376.873	62.069	-0.153	-0.153
-375.858	96.667	0.096	-0.111
-374.844	95.775	0.073	0.084
-373.829	222.215	0.115	0.186
-372.815	762.569	-0.086	-0.234
-371.800	1.046	0.141	0.102
-370.785	-56.932	0.110	0.049
-369.771	45.913	-0.091	-0.085
-368.756	800.000	0.086	0.252
-367.742	-200.000	-0.007	-0.126
-366.727	-93.461	0.181	-0.050
-365.712	-49.010	0.265	0.128
-364.698	800.000	0.097	0.322
-363.683	-176.219	0.266	0.007
-362.669	-200.000	-0.035	0.165
-361.654	120.958	-0.045	-0.056
-360.639	-10.483	0.232	0.155
-359.625	-200.000	0.008	-0.309
-358.610	-200.000	-0.019	0.294
-357.596	-75.417	-0.299	-0.107
-356.581	-46.770	0.147	-0.073
-355.566	-45.534	0.200	0.100
-354.552	-146.317	-0.418	-0.037
-353.537	122.250	0.179	0.225
-352.523	397.570	-0.056	0.118
-351.508	-110.683	-0.168	-0.035
-350.493	193.952	0.046	-0.070
-349.479	800.000	-0.110	-0.425
-348.464	254.621	-0.111	-0.190
-347.450	800.000	0.101	0.422
-346.435	491.825	0.085	-0.197
-345.420	86.279	0.247	0.274
-344.406	-90.542	-0.245	0.071
-343.391	800.000	-0.110	-0.370
-342.377	-88.802	-0.058	-0.017
-341.362	65.153	-0.179	-0.182
-340.348	99.848	-0.176	0.205
-339.333	800.000	0.045	0.171
-338.318	-130.881	0.172	-0.023
-337.304	227.240	-0.061	0.100
-336.289	-23.922	-0.019	0.011
-335.275	-122.145	0.391	-0.064
-334.260	800.000	-0.092	0.302
-333.245	-46.856	0.057	0.028
-332.231	52.937	0.207	0.199
-331.216	-43.048	-0.179	-0.091
-330.202	-47.012	-0.049	0.024
-329.187	-59.453	-0.037	0.016
-328.172	-0.548	0.118	-0.084
-327.158	-200.000	0.030	0.216
-326.143	-125.105	0.192	0.030
-325.129	241.000	0.148	0.248
-324.114	-65.815	-0.192	0.077
-323.099	-114.085	-0.290	-0.056
-322.085	237.904	-0.095	0.158
-321.070	99.222	0.114	-0.133
-320.056	394.309	-0.117	-0.244
-319.041	-41.990	0.133	-0.069
-318.026	44.503	0.223	0.205
-317.012	212.088	0.018	-0.028
-315.997	357.301	0.145	0.290
-314.983	800.000	-0.072	0.239
-313.968	251.151	-0.140	-0.240
-312.953	-134.236	0.297	0.037
-311.939	-130.793	-0.206	-0.028
-310.924	90.070	-0.121	-0.136
-309.910	44.793	-0.091	-0.084
-308.895	-75.888	-0.029	-0.010
-307.880	2.439	0.121	0.088
-306.866	-39.758	-0.052	-0.027
-305.851	-75.099	-0.187	0.067
-304.837	-63.612	0.278	-0.114
-303.822	-200.000	-0.001	0.081
-302.807	-16.347	-0.160	-0.102
-301.793	-25.807	0.262	-0.155
-300.778	38.257	-0.130	0.116
-299.764	-200.000	-0.012	-0.242
-298.749	-5.409	-0.284	0.196
-297.735	-200.000	-0.025	0.112
-296.720	712.540	-0.212	0.564
-295.705	320.358	-0.139	0.265
-294.691	673.501	0.080	0.208
-293.676	-32.686	0.188	0.105
-292.662	173.813	0.178	0.257
-291.647	219.203	-0.028	-0.045
-290.632	31.923	0.223	0.193
-289.618	800.000	-0.020	-0.065
-288.603	800.000	-0.044	0.142
-287.589	-157.266	-0.261	0.016
-286.574	92.630	-0.182	0.206
-285.559	-123.576	0.084	0.013
-284.545	450.526	0.022	0.049
-283.530	-200.000	-0.048	0.381
-282.516	-70.801	0.137	-0.052
-281.501	-5.061	-0.171	-0.118
-280.486	-143.692	-0.361	-0.034
-279.472	800.000	-0.165	0.590
-278.457	-200.000	0.005	0.036
-277.443	-200.000	0.020	-0.273
-276.428	3.790	-0.112	-0.082
-275.413	62.059	-0.080	0.080
-274.399	-73.336	0.290	-0.106
-273.384	-130.975	0.294	-0.039
-272.370	-200.000	-0.007	0.124
-271.355	-23.565	0.167	0.100
-270.340	41.342	0.061	-0.056
-269.326	-200.000	0.008	-0.121
-268.311	339.343	-0.092	0.180
-267.297	800.000	-0.041	0.150
-266.282	232.909	-0.091	-0.149
-265.267	137.653	-0.147	-0.193
-264.253	-12.880	0.386	0.252
-263.238	85.452	0.104	-0.115
-262.224	-145.991	0.368	-0.033
-261.209	-16.368	0.042	-0.027
-260.195	-55.564	0.117	0.053
-259.180	800.000	0.117	-0.346
-258.165	-200.000	0.041	0.284
-257.151	-176.368	0.227	0.006
-256.136	-186.274	0.351	0.005
-255.122	-200.000	0.021	0.147
-254.107	-36.955	0.121	0.065
-253.092	-112.729	0.060	0.012
-252.078	-94.937	0.228	0.062
-251.063	800.000	-0.012	0.049
-250.049	-16.689	0.298	-0.189
-249.034	-71.794	0.345	-0.129
-248.019	110.476	-0.105	-0.127
-247.005	-147.975	0.128	-0.011
-245.990	800.000	0.013	-0.043
-244.976	800.000	0.070	-0.273
-243.961	290.591	0.127	-0.231
-242.946	35.670	-0.179	-0.158
-241.932	800.000	0.048	-0.140
-240.917	8.410	0.200	-0.151
-239.903	411.302	-0.081	-0.173
-238.888	-200.000	-0.007	0.041
-237.873	-200.000	-0.071	-0.427
-236.859	-38.239	0.154	-0.082
-235.844	535.611	0.059	0.141
-234.830	269.840	0.092	0.161
-233.815	200.343	-0.092	-0.142
-232.800	-8.326	0.147	-0.099
-231.786	-200.000	0.023	0.157
-230.771	105.450	0.156	0.185
-229.757	800.000	-0.041	-0.113
-228.742	-200.000	-0.065	0.334
-227.727	-195.567	0.068	0.000
-226.713	0.472	0.115	-0.082
-225.698	-13.188	-0.450	-0.293
-224.684	-12.848	-0.218	0.142
-223.669	-200.000	-0.038	0.342
-222.655	57.570	-0.136	0.133
-221.640	398.484	-0.033	-0.069
-220.625	800.000	0.074	-0.288
-219.611	8.136	-0.109	-0.082
-218.596	-121.552	-0.147	-0.024
-217.582	800.000	-0.064	-0.233
-216.567	96.374	0.177	0.203
-215.552	-135.248	0.313	0.038
-214.538	75.905	0.209	-0.221
-213.523	-94.473	0.245	-0.067
-212.509	-200.000	0.003	0.045
-211.494	-147.263	0.263	-0.022
-210.479	-200.000	-0.000	0.187
-209.465	800.000	-0.030	0.102
-208.450	-200.000	-0.005	-0.348
-207.436	82.370	0.266	-0.289
-206.421	-61.746	-0.040	-0.017
-205.406	-200.000	-0.029	0.207
-204.392	-200.000	0.024	0.111
-203.377	-95.071	-0.116	-0.031
-202.363	-81.866	-0.461	0.151
-201.348	-200.000	-0.007	-0.166
-200.333	800.000	0.066	-0.217
-199.319	-200.000	-0.011	-0.294
-198.304	-82.717	0.294	-0.095
-197.290	555.647	0.138	0.331
-196.275	75.762	-0.071	-0.075
-195.260	276.002	0.077	-0.137
-194.246	-71.085	-0.515	0.194
-193.231	45.024	-0.154	-0.142
-192.217	-126.647	0.259	0.038
-191.202	-200.000	-0.039	0.462
-190.187	-96.973	0.125	0.033
-189.173	-3.397	-0.050	0.034
-188.158	-81.690	0.064	-0.021
-187.144	-18.557	-0.064	0.040
-186.129	-200.000	0.013	0.217
-185.114	800.000	0.045	0.136
-184.100	91.760	-0.163	0.183
-183.085	-200.000	-0.022	-0.109
-182.071	89.525	0.129	-0.144
-181.056	22.929	0.232	-0.190
-180.042	2.086	0.485	0.350
-179.027	441.298	-0.158	0.345
-178.012	-195.273	0.081	-0.001
-176.998	-88.649	-0.173	0.051
-175.983	-11.124	0.140	-0.092
-174.969	436.627	0.024	-0.052
-173.954	-200.000	0.016	-0.495
-172.939	-53.683	0.244	0.111
-171.925	372.163	-0.085	-0.172
-170.910	-35.297	-0.232	-0.126
-169.896	23.816	0.251	0.207
-168.881	-151.324	-0.115	-0.009
-167.866	-85.891	-0.104	-0.032
-166.852	-200.000	-0.020	-0.153
-165.837	123.812	0.204	-0.255
-164.823	-14.075	-0.268	-0.173
-163.808	44.766	-0.162	-0.149
-162.793	-16.240	-0.179	0.114
-161.779	-9.324	-0.124	0.083
-160.764	-200.000	-0.034	-0.150
-159.750	-200.000	0.068	0.302
-158.735	348.403	-0.050	0.098
-157.720	800.000	-0.077	0.236
-156.706	-113.351	0.138	0.027
-155.691	-21.972	-0.089	-0.054
-154.677	800.000	0.154	0.437
-153.662	11.036	0.213	0.163
-152.647	90.061	0.088	-0.098
-151.633	-200.000	0.014	0.275
-150.618	-75.508	-0.374	-0.133
-149.604	658.770	-0.069	0.176
-148.589	0.594	-0.273	0.195
-147.574	-200.000	0.020	0.160
-146.560	-11.957	-0.030	0.020
-145.545	-109.914	-0.148	0.031
-144.531	-200.000	0.043	-0.248
-143.516	-137.035	0.183	-0.021
-142.502	-56.154	0.034	0.015
-141.487	72.182	0.086	0.090
-140.472	-21.220	-0.191	-0.117
-139.458	-199.160	-0.358	0.002
-138.443	-13.608	-0.156	-0.101
-137.429	-122.176	-0.264	-0.043
-136.414	-200.000	0.008	0.250
-135.399	-120.954	0.378	0.063
-134.385	-15.024	-0.303	0.193
-133.370	-1.986	0.062	0.044
-132.356	337.476	0.027	0.052
-131.341	681.140	-0.106	0.274
-130.326	-132.578	-0.099	-0.013
-129.312	45.159	0.344	-0.316
-128.297	-200.000	-0.008	0.046
-127.283	-74.643	-0.225	0.081
-126.268	289.408	-0.180	0.326
-125.253	-115.193	0.355	-0.067
-124.239	-102.048	0.157	0.038
-123.224	-200.000	0.000	0.084
-122.210	800.000	-0.125	-0.433
