DTS Sentinel unit serial number:	SN413079Multiplexer serial number:	ORYXHardware model number:	OX4-SRSoftware version number:	ORYX F/W v4.00 Oryx Data Collector v3.7.2.0data status	okinstallation	princeton_trtdifferential loss correction	single-endedforward channel	channel 3reverse channel	N/Adate	2019/09/12time	01:18:11forward acquisition time	60.00reverse acquisition time	0.00gamma	496.2192k internal	0.2320k external	0.2320temperature offset calibration	1.0069default loss term (dB/km)	0.3790temperature slope calibration	1.0000multiplexer offset coefficient	1.0000multiplexer slope coefficient	1.0000fibre end	0.00T internal ref (°C)	33.00T ext. ref 1 (°C)	2.09T ext. ref 2 (°C)	27.93length (m)	temperature (°C)	Stokes	anti-Stokes-747.200	150.419	0.241	0.331
-746.185	800.000	0.049	0.198
-745.171	-200.000	-0.048	0.308
-744.156	-50.999	-0.385	0.183
-743.142	-200.000	-0.016	-0.124
-742.127	-112.449	-0.418	0.084
-741.112	184.045	0.037	-0.055
-740.098	-70.653	-0.097	-0.037
-739.083	800.000	-0.025	0.099
-738.069	800.000	-0.024	-0.072
-737.054	556.538	-0.146	-0.356
-736.039	10.455	-0.430	-0.331
-735.025	141.166	-0.099	-0.132
-734.010	-70.716	-0.357	-0.136
-732.996	46.256	-0.141	-0.132
-731.981	137.613	0.051	-0.068
-730.966	-200.000	0.007	0.253
-729.952	260.111	0.202	-0.354
-728.937	8.838	-0.360	-0.274
-727.923	800.000	-0.046	-0.196
-726.908	-91.892	-0.178	-0.051
-725.894	-107.012	-0.396	0.088
-724.879	131.466	0.064	-0.083
-723.864	-200.000	-0.009	-0.269
-722.850	-7.815	-0.131	-0.089
-721.835	800.000	-0.048	0.183
-720.821	-200.000	0.031	-0.155
-719.806	242.126	0.065	0.110
-718.791	-171.087	0.098	-0.003
-717.777	55.690	-0.110	0.108
-716.762	-200.000	-0.011	0.257
-715.748	32.098	0.150	-0.131
-714.733	37.517	-0.330	0.296
-713.718	-200.000	-0.005	-0.224
-712.704	-90.675	-0.136	-0.040
-711.689	-53.271	0.110	0.051
-710.675	800.000	-0.081	0.251
-709.660	-124.157	0.338	-0.054
-708.645	99.555	-0.333	-0.389
-707.631	-37.009	-0.498	-0.269
-706.616	-200.000	0.160	-0.001
-705.602	-188.704	0.172	-0.002
-704.587	-72.542	-0.042	-0.016
-703.572	-200.000	-0.021	0.245
-702.558	124.201	-0.128	0.162
-701.543	168.653	0.075	-0.108
-700.529	800.000	0.124	-0.371
-699.514	204.855	-0.179	-0.280
-698.499	-200.000	-0.051	-0.425
-697.485	71.209	0.148	-0.155
-696.470	119.737	-0.161	0.201
-695.456	800.000	-0.044	0.192
-694.441	581.276	0.070	0.173
-693.426	236.773	-0.095	-0.159
-692.412	-30.243	-0.202	0.116
-691.397	-70.113	0.148	0.057
-690.383	800.000	-0.036	0.132
-689.368	-200.000	-0.029	0.180
-688.354	800.000	-0.023	-0.070
-687.339	133.433	0.213	-0.278
-686.324	72.511	-0.170	0.179
-685.310	170.279	-0.167	0.242
-684.295	516.470	0.150	-0.353
-683.281	800.000	-0.066	-0.245
-682.266	-106.916	0.208	0.047
-681.251	-93.657	0.283	-0.079
-680.237	286.998	0.045	-0.082
-679.222	189.941	-0.135	-0.204
-678.208	800.000	0.019	0.069
-677.193	-200.000	0.023	-0.112
-676.178	9.882	0.159	-0.122
-675.164	395.135	-0.059	0.124
-674.149	-200.000	-0.082	0.380
-673.135	201.222	-0.082	-0.127
-672.120	800.000	-0.011	-0.042
-671.105	-42.165	0.184	0.095
-670.091	574.721	-0.158	0.389
-669.076	-200.000	0.034	0.181
-668.062	800.000	-0.106	-0.297
-667.047	-200.000	0.041	-0.217
-666.032	-112.274	-0.224	-0.045
-665.018	100.845	-0.155	0.181
-664.003	-103.811	-0.294	-0.069
-662.989	-113.007	-0.291	-0.058
-661.974	-200.000	0.090	0.455
-660.959	-200.000	0.003	0.207
-659.945	137.851	0.090	-0.119
-658.930	-49.489	0.096	0.046
-657.916	-112.352	0.256	0.052
-656.901	-142.311	-0.166	0.017
-655.886	-82.466	-0.197	0.064
-654.872	-200.000	0.008	-0.054
-653.857	-72.541	-0.200	-0.074
-652.843	-36.438	-0.283	-0.153
-651.828	-10.104	0.186	-0.124
-650.814	7.644	-0.260	-0.196
-649.799	54.187	0.281	-0.272
-648.784	-8.564	0.086	0.058
-647.770	179.343	-0.064	0.095
-646.755	90.362	-0.143	0.161
-645.741	112.714	-0.093	-0.114
-644.726	-14.968	-0.246	0.159
-643.711	306.469	0.070	0.131
-642.697	800.000	-0.095	0.280
-641.682	579.820	-0.130	-0.321
-640.668	-200.000	-0.185	-0.001
-639.653	-200.000	-0.017	-0.095
-638.638	501.501	0.078	-0.182
-637.624	408.471	-0.132	0.281
-636.609	-96.390	-0.207	0.055
-635.595	-200.000	-0.033	0.279
-634.580	110.526	-0.119	0.145
-633.565	800.000	0.055	0.190
-632.551	127.639	-0.302	0.387
-631.536	800.000	-0.034	0.126
-630.522	-69.187	-0.129	-0.050
-629.507	-59.153	-0.248	-0.108
-628.492	-200.000	0.048	0.271
-627.478	239.715	-0.214	-0.359
-626.463	-200.000	0.012	-0.247
-625.449	222.996	0.129	-0.209
-624.434	-200.000	0.034	0.468
-623.419	-54.461	0.078	-0.036
-622.405	-35.213	0.378	-0.207
-621.390	-46.253	0.258	0.128
-620.376	195.965	-0.121	-0.186
-619.361	-148.226	0.368	-0.031
-618.346	259.879	-0.117	0.204
-617.332	-200.000	-0.015	-0.527
-616.317	-200.000	0.000	-0.302
-615.303	341.810	-0.050	-0.097
-614.288	5.433	-0.162	0.120
-613.273	-133.435	-0.274	0.035
-612.259	800.000	0.072	-0.215
-611.244	101.735	0.098	0.115
-610.230	17.365	0.421	0.337
-609.215	418.714	-0.062	-0.133
-608.201	176.570	-0.049	0.071
-607.186	102.218	0.170	-0.200
-606.171	569.024	0.062	0.152
-605.157	-47.280	0.111	-0.054
-604.142	-89.891	0.114	0.033
-603.128	-200.000	0.015	0.187
-602.113	357.547	0.054	0.107
-601.098	485.442	0.131	0.299
-600.084	800.000	-0.079	-0.311
-599.069	-70.848	-0.109	-0.041
-598.055	-62.538	-0.124	0.052
-597.040	90.112	-0.190	0.214
-596.025	235.248	0.282	0.469
-595.011	147.855	0.041	0.056
-593.996	99.336	0.267	-0.310
-592.982	-2.958	-0.281	-0.197
-591.967	153.028	-0.032	-0.044
-590.952	34.656	-0.248	-0.218
-589.938	800.000	0.026	-0.106
-588.923	-200.000	-0.015	-0.148
-587.909	232.728	0.100	-0.166
-586.894	102.206	-0.084	-0.099
-585.879	238.340	-0.136	-0.226
-584.865	-200.000	-0.004	0.028
-583.850	-200.000	0.026	0.197
-582.836	604.843	0.063	-0.157
-581.821	-5.171	0.245	-0.169
-580.806	-200.000	0.023	0.357
-579.792	-200.000	-0.024	0.544
-578.777	-57.591	-0.141	0.062
-577.763	281.629	-0.116	0.210
-576.748	77.794	-0.137	-0.146
-575.733	-124.983	-0.313	0.048
-574.719	-81.981	-0.023	0.008
-573.704	-126.321	0.110	0.016
-572.690	-2.313	0.094	-0.066
-571.675	40.218	0.226	0.204
-570.661	184.150	0.170	0.252
-569.646	-46.023	-0.184	0.091
-568.631	-129.476	0.089	-0.012
-567.617	729.283	-0.062	-0.166
-566.602	-97.212	-0.090	-0.024
-565.588	-160.330	-0.021	0.001
-564.573	-146.810	0.357	0.031
-563.558	-9.275	0.056	-0.037
-562.544	-107.473	0.027	0.006
-561.529	344.566	-0.096	-0.189
-560.515	-101.313	-0.281	-0.069
-559.500	800.000	0.086	-0.327
-558.485	-60.000	0.195	0.084
-557.471	-200.000	-0.018	-0.089
-556.456	344.777	-0.105	0.207
-555.442	-200.000	-0.059	-0.414
-554.427	232.963	-0.087	0.143
-553.412	616.559	-0.234	-0.588
-552.398	-93.387	0.263	-0.073
-551.383	-170.961	0.136	-0.005
-550.369	-123.957	-0.392	0.062
-549.354	-116.788	0.200	-0.037
-548.339	-200.000	0.001	0.146
-547.325	236.031	0.094	-0.156
-546.310	-17.912	-0.104	-0.066
-545.296	93.632	0.148	-0.168
-544.281	-40.626	0.211	-0.110
-543.266	-107.277	-0.445	0.098
-542.252	-76.702	-0.347	-0.122
-541.237	-139.760	-0.304	-0.032
-540.223	-38.294	0.129	0.069
-539.208	140.130	-0.130	-0.172
-538.193	350.974	-0.174	-0.346
-537.179	137.653	0.147	-0.193
-536.164	539.314	0.084	0.200
-535.150	-131.746	-0.363	-0.048
-534.135	-140.128	0.383	-0.040
-533.121	-13.287	0.219	-0.142
-532.106	-152.820	-0.210	0.015
-531.091	-200.000	-0.033	0.266
-530.077	800.000	0.058	-0.194
-529.062	-200.000	-0.031	0.253
-528.048	-62.136	-0.279	-0.117
-527.033	-33.949	-0.340	0.188
-526.018	-106.248	0.163	-0.037
-525.004	-111.662	0.188	0.038
-523.989	212.464	0.088	0.139
-522.975	186.836	-0.118	-0.176
-521.960	22.563	0.173	0.142
-520.945	-2.505	-0.157	-0.110
-519.931	-168.076	0.219	-0.009
-518.916	-165.646	0.005	0.000
-517.902	-200.000	-0.001	-0.067
-516.887	-200.000	0.050	0.256
-515.872	-200.000	-0.003	0.101
-514.858	-200.000	-0.047	-0.253
-513.843	-135.322	-0.313	0.037
-512.829	-114.517	0.308	0.059
-511.814	-98.211	-0.275	0.071
-510.799	800.000	-0.052	-0.180
-509.785	-150.266	0.158	0.012
-508.770	4.056	-0.090	-0.066
-507.756	186.118	-0.025	0.037
-506.741	800.000	0.065	0.260
-505.726	-3.108	-0.138	0.097
-504.712	9.156	-0.222	0.168
-503.697	-178.696	0.119	0.003
-502.683	164.722	0.099	0.140
-501.668	179.281	0.110	-0.161
-500.653	800.000	-0.030	-0.131
-499.639	17.934	-0.193	-0.154
-498.624	211.041	0.090	-0.142
-497.610	-142.121	-0.196	-0.020
-496.595	-104.092	-0.371	0.087
-495.581	-57.779	0.232	-0.102
-494.566	-151.479	-0.173	0.013
-493.551	-57.774	0.063	0.028
-492.537	303.319	-0.026	-0.048
-491.522	-122.203	-0.013	-0.002
-490.508	426.363	-0.138	-0.297
-489.493	95.583	-0.310	0.354
-488.478	50.515	0.113	-0.107
-487.464	-101.771	0.224	0.054
-486.449	9.372	0.152	0.115
-485.435	-200.000	-0.037	0.343
-484.420	-200.000	0.040	-0.273
-483.405	167.011	0.191	0.272
-482.391	301.359	-0.125	0.231
-481.376	16.470	-0.209	0.165
-480.362	-24.567	-0.343	0.205
-479.347	19.899	0.179	0.145
-478.332	104.799	-0.101	0.119
-477.318	-184.417	0.195	0.003
-476.303	89.510	-0.199	0.222
-475.289	100.160	-0.138	0.160
-474.274	514.021	0.090	-0.211
-473.259	87.910	-0.310	-0.344
-472.245	-100.133	0.090	0.023
-471.230	-200.000	-0.018	-0.099
-470.216	-140.976	0.063	0.006
-469.201	211.456	-0.122	0.193
-468.186	-34.400	0.221	-0.121
-467.172	250.640	0.044	-0.075
-466.157	-113.789	-0.228	-0.044
-465.143	-200.000	-0.001	-0.087
-464.128	-200.000	-0.001	0.070
-463.113	-200.000	-0.099	-0.470
-462.099	800.000	0.099	-0.308
-461.084	-200.000	0.007	0.033
-460.070	108.407	0.079	-0.094
-459.055	417.256	0.061	-0.131
-458.040	-93.255	-0.200	-0.055
-457.026	53.882	0.147	-0.141
-456.011	-121.533	0.405	-0.067
-454.997	601.777	-0.114	-0.283
-453.982	-8.861	-0.160	0.107
-452.968	-14.454	0.264	-0.170
-451.953	31.631	0.284	-0.244
-450.938	-200.000	-0.017	-0.208
-449.924	135.795	0.073	-0.095
-448.909	280.736	0.180	0.322
-447.895	-200.000	-0.007	-0.081
-446.880	87.175	0.133	0.147
-445.865	-85.236	-0.304	-0.095
-444.851	-26.559	-0.376	-0.220
-443.836	22.024	0.053	-0.043
-442.822	172.588	-0.068	-0.097
-441.807	75.532	0.129	0.136
-440.792	186.484	-0.150	-0.223
-439.778	800.000	-0.084	0.287
-438.763	-200.000	0.010	0.164
-437.749	-39.177	-0.247	-0.130
-436.734	-200.000	0.089	-0.449
-435.719	16.109	-0.202	-0.159
-434.705	-145.643	-0.335	0.030
-433.690	-31.699	-0.240	0.134
-432.676	800.000	-0.029	-0.127
-431.661	-200.000	-0.016	0.307
-430.646	-52.298	-0.227	-0.105
-429.632	64.258	0.231	-0.232
-428.617	-63.084	-0.331	-0.136
-427.603	97.481	0.096	0.110
-426.588	-96.292	-0.110	0.029
-425.573	142.885	0.043	0.057
-424.559	397.929	-0.157	-0.328
-423.544	800.000	0.111	0.316
-422.530	800.000	0.072	-0.205
-421.515	-200.000	0.021	-0.132
-420.500	800.000	-0.024	-0.073
-419.486	-116.263	-0.128	0.024
-418.471	-141.449	0.265	-0.027
-417.457	-138.036	0.223	0.025
-416.442	52.940	0.155	0.148
-415.428	-89.414	-0.166	-0.049
-414.413	65.094	-0.185	-0.186
-413.398	-1.847	0.162	0.114
-412.384	-200.000	0.006	-0.325
-411.369	225.362	-0.133	-0.215
-410.355	-163.752	0.176	0.008
-409.340	73.006	0.051	-0.053
-408.325	795.252	-0.028	0.076
-407.311	-46.279	0.392	-0.192
-406.296	-53.471	-0.180	0.082
-405.282	33.072	-0.403	-0.349
-404.267	800.000	0.115	0.360
-403.252	82.272	0.119	0.129
-402.238	200.619	-0.170	-0.261
-401.223	236.118	0.118	0.194
-400.209	95.917	-0.087	0.099
-399.194	82.550	0.247	-0.268
-398.179	-34.372	0.101	-0.055
-397.165	-77.921	0.280	0.096
-396.150	-136.759	0.063	-0.007
-395.136	-200.000	-0.001	-0.141
-394.121	-9.057	0.307	0.205
-393.106	-75.919	0.057	-0.020
-392.092	735.787	-0.013	0.035
-391.077	-172.114	-0.113	0.004
-390.063	-200.000	0.015	-0.088
-389.048	385.776	0.214	0.440
-388.033	46.946	-0.174	0.161
-387.019	-80.064	0.095	0.032
-386.004	486.612	0.079	0.179
-384.990	-89.014	0.297	0.088
-383.975	-71.897	-0.009	-0.003
-382.960	-61.725	-0.074	-0.031
-381.946	615.412	0.040	0.099
-380.931	-200.000	0.058	-0.280
-379.917	760.944	0.033	0.088
-378.902	-200.000	0.019	0.315
-377.888	-56.403	0.381	0.168
-376.873	-6.789	0.285	-0.194
-375.858	-200.000	-0.004	-0.070
-374.844	16.755	-0.217	0.171
-373.829	-111.940	-0.232	0.047
-372.815	308.301	0.173	0.321
-371.800	-200.000	0.007	0.130
-370.785	-176.694	0.289	0.007
-369.771	-200.000	0.035	-0.231
-368.756	-43.249	0.139	-0.070
-367.742	35.117	0.066	0.058
-366.727	473.915	-0.020	0.044
-365.712	19.388	0.143	-0.115
-364.698	-17.792	0.078	0.049
-363.683	60.306	0.071	0.070
-362.669	80.090	0.085	0.091
-361.654	83.557	0.304	0.330
-360.639	298.895	0.106	-0.194
-359.625	793.666	-0.093	-0.254
-358.610	-200.000	0.011	0.078
-357.596	27.590	-0.225	0.189
-356.581	-57.667	-0.280	0.122
-355.566	284.001	-0.172	0.308
-354.552	800.000	0.087	-0.274
-353.537	-39.254	0.216	-0.113
-352.523	-71.471	-0.182	0.068
-351.508	601.535	0.194	0.480
-350.493	-71.215	-0.349	0.131
-349.479	791.969	0.106	-0.289
-348.464	-200.000	-0.053	0.350
-347.450	128.325	-0.045	0.057
-346.435	-200.000	0.018	-0.240
-345.420	86.344	0.298	0.327
-344.406	788.000	-0.065	-0.177
-343.391	42.088	-0.173	-0.156
-342.377	-62.999	0.115	-0.047
-341.362	-128.890	-0.214	-0.030
-340.348	-35.506	0.270	0.146
-339.333	-200.000	-0.050	0.238
-338.318	-200.000	0.013	-0.505
-337.304	-50.480	-0.300	0.141
-336.289	73.872	0.068	0.071
-335.275	157.217	-0.151	0.207
-334.260	-144.951	0.089	0.008
-333.245	-107.363	0.044	-0.010
-332.231	-90.045	-0.262	-0.076
-331.216	-134.568	-0.136	0.017
-330.202	54.283	0.088	0.085
-329.187	650.563	-0.022	0.057
-328.172	119.318	0.171	0.211
-327.158	205.014	0.104	0.161
-326.143	87.003	-0.195	-0.214
-325.129	-45.222	0.361	0.178
-324.114	-200.000	0.021	0.155
-323.099	-92.209	0.300	0.084
-322.085	-200.000	0.033	0.178
-321.070	800.000	0.031	0.098
-320.056	-199.398	-0.325	-0.002
-319.041	-200.000	-0.010	-0.116
-318.026	113.684	0.238	0.288
-317.012	181.836	0.366	0.536
-315.997	19.140	-0.155	-0.124
-314.983	59.221	0.076	-0.074
-313.968	-91.325	-0.122	0.035
-312.953	280.688	-0.104	0.185
-311.939	-102.338	-0.187	0.045
-310.924	532.507	0.066	0.156
-309.910	-102.027	0.044	-0.010
-308.895	800.000	-0.099	-0.340
-307.880	800.000	0.110	0.344
-306.866	71.747	-0.177	0.183
-305.851	800.000	0.074	-0.226
-304.837	-200.000	0.039	-0.276
-303.822	20.134	0.235	0.188
-302.807	-69.184	-0.182	0.069
-301.793	20.712	0.326	0.262
-300.778	51.495	-0.163	-0.154
-299.764	323.120	-0.031	0.059
-298.749	8.453	-0.172	0.129
-297.735	132.341	-0.083	0.107
-296.720	-200.000	-0.065	0.418
-295.705	800.000	0.088	-0.249
-294.691	-92.918	0.084	-0.023
-293.676	-85.257	0.169	-0.052
-292.662	-97.695	-0.066	0.017
-291.647	25.305	-0.098	0.081
-290.632	-19.055	0.079	-0.049
-289.618	101.765	-0.175	0.203
-288.603	-105.776	0.163	-0.037
-287.589	176.883	0.200	0.288
-286.574	-158.950	0.149	0.008
-285.559	-25.084	-0.077	0.045
-284.545	800.000	-0.037	-0.162
-283.530	800.000	-0.092	-0.391
-282.516	-89.941	-0.198	0.057
-281.501	-100.243	0.449	0.111
-280.486	-200.000	-0.003	0.247
-279.472	800.000	0.078	-0.245
-278.457	169.511	0.105	0.149
-277.443	746.075	-0.032	-0.086
-276.428	-11.725	-0.191	-0.124
-275.413	-164.480	0.347	0.016
-274.399	777.244	-0.066	-0.179
-273.384	-71.700	0.097	-0.036
-272.370	-79.315	-0.218	-0.073
-271.355	-200.000	-0.013	-0.199
-270.340	800.000	0.022	0.087
-269.326	11.229	-0.118	-0.090
-268.311	-90.613	-0.161	-0.046
-267.297	-86.443	0.210	-0.064
-266.282	-164.299	0.386	0.018
-265.267	251.902	-0.074	0.126
-264.253	114.121	-0.125	-0.151
-263.238	-28.630	0.171	-0.097
-262.224	-200.000	0.002	-0.057
-261.209	-4.365	0.160	0.110
-260.195	-139.938	-0.149	-0.016
-259.180	-200.000	-0.019	-0.147
-258.165	13.716	-0.171	-0.131
-257.151	38.574	-0.045	-0.040
-256.136	-16.727	-0.121	-0.076
-255.122	-117.754	0.310	0.055
-254.107	-27.132	-0.289	0.167
-253.092	800.000	0.107	-0.397
-252.078	-140.083	-0.196	-0.020
-251.063	-31.926	-0.133	-0.074
-250.049	-82.096	0.162	-0.052
-249.034	800.000	0.084	-0.281
-248.019	38.155	0.050	0.044
-247.005	800.000	0.085	0.318
-245.990	177.634	-0.090	0.130
-244.976	-43.040	-0.243	-0.122
-243.961	228.548	0.140	0.226
-242.946	512.296	0.034	0.078
-241.932	800.000	-0.065	-0.246
-240.917	-200.000	0.119	-0.549
-239.903	-124.162	0.055	-0.009
-238.888	-7.735	0.108	-0.073
-237.873	800.000	-0.090	0.255
-236.859	-200.000	-0.064	0.279
-235.844	65.996	0.112	0.112
-234.830	257.556	0.134	0.229
-233.815	-200.000	0.013	0.255
-232.800	-144.280	-0.380	-0.035
-231.786	105.505	0.091	0.107
-230.771	-93.794	-0.110	-0.030
-229.757	34.164	-0.042	-0.036
-228.742	34.238	-0.277	-0.239
-227.727	-7.492	0.147	0.099
-226.713	-164.852	0.416	0.018
-225.698	-58.327	-0.147	0.063
-224.684	6.948	-0.050	0.037
-223.669	-44.842	-0.121	0.060
-222.655	378.572	0.077	0.156
-221.640	149.874	0.023	-0.030
-220.625	10.350	-0.168	-0.127
-219.611	-175.810	0.305	-0.008
-218.596	-200.000	-0.011	0.092
-217.582	131.199	0.220	-0.280
-216.567	-200.000	-0.029	-0.365
-215.552	-200.000	0.029	0.130
-214.538	769.033	0.026	0.070
-213.523	-200.000	-0.001	-0.126
-212.509	-95.239	-0.146	0.039
-211.494	-85.558	-0.312	-0.096
-210.479	449.441	0.055	0.121
-209.465	-114.751	-0.089	0.017
-208.450	-33.298	0.369	-0.202
-207.436	-165.166	0.215	0.009
-206.421	613.515	-0.059	0.145
-205.406	-200.000	0.007	0.127
-204.392	69.518	0.159	0.162
-203.377	-200.000	-0.006	0.057
-202.363	800.000	0.044	-0.189
-201.348	-18.481	-0.153	0.095
-200.333	669.746	-0.118	0.302
-199.319	-178.608	-0.056	-0.001
-198.304	-118.708	0.214	0.037
-197.290	-200.000	0.033	-0.290
-196.275	-96.477	-0.173	-0.045
-195.260	-0.232	0.161	-0.113
-194.246	-103.252	-0.225	-0.053
-193.231	-200.000	-0.032	-0.384
-192.217	-104.266	0.221	-0.051
-191.202	164.811	0.010	-0.014
-190.187	-144.165	-0.267	-0.025
-189.173	-129.643	0.366	-0.050
-188.158	-53.197	-0.171	-0.078
-187.144	487.818	-0.032	0.071
-186.129	319.689	-0.073	-0.137
-185.114	-200.000	-0.016	-0.164
-184.100	2.138	0.186	0.133
-183.085	-78.368	0.342	0.116
-182.071	-200.000	-0.090	0.392
-181.056	398.582	-0.074	-0.153
-180.042	-200.000	-0.021	0.093
-179.027	415.164	0.124	-0.262
-178.012	-71.505	0.291	0.108
-176.998	38.000	0.187	-0.164
-175.983	-50.171	-0.101	-0.047
-174.969	-92.816	0.392	0.108
-173.954	-151.739	-0.387	0.028
-172.939	-200.000	0.053	-0.337
-171.925	-200.000	0.010	0.077
-170.910	-165.165	0.378	0.017
-169.896	80.858	-0.295	-0.314
-168.881	-182.584	0.275	-0.005
-167.866	205.999	-0.088	-0.135
-166.852	-176.951	-0.271	-0.007
-165.837	800.000	-0.069	-0.288
-164.823	800.000	-0.040	-0.122
-163.808	204.576	0.056	-0.086
-162.793	-146.323	0.172	-0.015
-161.779	-131.376	-0.196	-0.026
-160.764	-112.111	-0.253	0.050
-159.750	-100.001	-0.421	0.104
-158.735	-120.530	0.157	0.026
-157.720	402.962	0.110	0.229
-156.706	-100.516	-0.220	0.054
-155.691	170.610	-0.263	-0.372
-154.677	107.893	-0.192	0.225
-153.662	800.000	0.101	0.433
-152.647	-56.174	0.085	-0.037
-151.633	-200.000	0.107	0.468
-150.618	-103.703	-0.196	-0.045
-149.604	-57.894	-0.380	-0.164
-148.589	-83.441	-0.183	-0.058
-147.574	-200.000	0.024	0.135
-146.560	724.517	-0.164	-0.432
-145.545	800.000	-0.124	0.407
-144.531	12.046	0.080	0.061
-143.516	-200.000	-0.020	0.243
-142.502	-63.753	-0.097	-0.039
-141.487	241.343	0.166	-0.273
-140.472	-74.402	0.359	-0.128
-139.458	-109.132	-0.241	0.051
-138.443	30.831	-0.151	0.128
-137.429	158.780	0.109	0.149
-136.414	174.811	0.237	0.338
-135.399	800.000	0.137	-0.463
-134.385	96.714	0.096	-0.108
-133.370	800.000	0.098	0.338
-132.356	800.000	0.061	0.178
-131.341	-120.026	-0.283	0.048
-130.326	123.014	0.145	-0.180
-129.312	-200.000	-0.026	-0.146
-128.297	-10.848	0.228	0.148
-127.283	-91.190	-0.193	0.055
-126.268	-41.593	-0.264	0.134
-125.253	426.621	-0.018	0.039
-124.239	-77.992	0.169	-0.058
-123.224	3.217	0.149	-0.107
-122.210	513.144	0.084	0.193
