DTS Sentinel unit serial number:	SN413079Multiplexer serial number:	ORYXHardware model number:	OX4-SRSoftware version number:	ORYX F/W v4.00 Oryx Data Collector v3.7.2.0data status	okinstallation	princeton_trtdifferential loss correction	single-endedforward channel	channel 3reverse channel	N/Adate	2019/09/12time	01:26:11forward acquisition time	60.00reverse acquisition time	0.00gamma	496.2192k internal	0.2320k external	0.2320temperature offset calibration	1.0075default loss term (dB/km)	0.3790temperature slope calibration	1.0000multiplexer offset coefficient	1.0000multiplexer slope coefficient	1.0000fibre end	0.00T internal ref (°C)	32.95T ext. ref 1 (°C)	2.11T ext. ref 2 (°C)	27.91length (m)	temperature (°C)	Stokes	anti-Stokes-747.200	-61.627	-0.164	0.069
-746.185	-200.000	-0.003	0.104
-745.171	800.000	0.053	0.205
-744.156	30.777	-0.125	0.108
-743.142	80.641	0.164	-0.179
-742.127	602.400	0.073	0.184
-741.112	-60.612	-0.224	-0.096
-740.098	158.966	-0.085	0.119
-739.083	-26.272	0.109	-0.065
-738.069	800.000	-0.109	0.391
-737.054	-2.140	-0.160	-0.114
-736.039	-80.378	-0.269	-0.091
-735.025	-200.000	-0.022	-0.164
-734.010	-200.000	0.007	-0.155
-732.996	162.494	-0.112	-0.158
-731.981	-12.548	-0.124	-0.082
-730.966	343.892	-0.112	-0.221
-729.952	-200.000	0.015	-0.322
-728.937	50.042	-0.277	0.265
-727.923	-128.057	-0.304	-0.044
-726.908	612.527	0.089	-0.226
-725.894	-56.057	-0.087	0.039
-724.879	-200.000	-0.094	0.498
-723.864	-200.000	0.030	0.273
-722.850	-200.000	0.051	-0.267
-721.835	-79.733	0.214	0.073
-720.821	-127.386	-0.138	0.020
-719.806	19.937	-0.025	-0.021
-718.791	3.335	0.255	-0.187
-717.777	414.321	-0.119	-0.255
-716.762	-141.212	-0.367	-0.038
-715.748	-99.528	-0.238	-0.060
-714.733	-54.671	0.134	-0.061
-713.718	139.339	-0.170	0.226
-712.704	29.002	0.007	0.006
-711.689	17.523	0.040	0.032
-710.675	-102.196	-0.149	-0.036
-709.660	-59.302	-0.180	0.078
-708.645	-200.000	0.054	-0.454
-707.631	-81.565	-0.215	0.072
-706.616	-200.000	-0.031	0.310
-705.602	159.750	0.143	0.201
-704.587	174.560	-0.050	0.073
-703.572	-200.000	-0.002	0.320
-702.558	104.655	-0.059	0.070
-701.543	101.441	0.067	0.079
-700.529	-16.941	-0.264	0.168
-699.514	-200.000	0.009	-0.046
-698.499	529.880	0.037	-0.088
-697.485	-138.558	-0.268	-0.030
-696.470	-200.000	-0.044	-0.205
-695.456	-34.697	-0.326	-0.180
-694.441	150.645	-0.087	0.119
-693.426	43.201	-0.030	-0.027
-692.412	235.025	-0.148	-0.246
-691.397	17.379	-0.316	-0.253
-690.383	3.498	0.154	-0.113
-689.368	800.000	-0.061	0.197
-688.354	800.000	0.115	-0.323
-687.339	419.964	0.096	-0.207
-686.324	-76.224	0.090	-0.032
-685.310	-47.329	0.070	0.035
-684.295	51.756	-0.157	0.150
-683.281	-58.447	-0.198	0.087
-682.266	31.780	-0.322	0.280
-681.251	-72.632	0.152	0.057
-680.237	37.349	0.035	0.032
-679.222	-93.203	0.095	-0.027
-678.208	-58.600	-0.130	0.057
-677.193	-200.000	-0.059	-0.324
-676.178	284.377	-0.112	0.204
-675.164	25.905	0.260	-0.219
-674.149	200.238	-0.080	0.125
-673.135	-114.260	-0.436	0.085
-672.120	-84.039	0.261	0.083
-671.105	800.000	0.095	-0.307
-670.091	52.094	0.048	-0.046
-669.076	-200.000	-0.040	-0.488
-668.062	-200.000	0.088	0.000
-667.047	107.786	-0.161	0.193
-666.032	800.000	0.053	0.234
-665.018	-39.044	-0.171	0.090
-664.003	-61.237	-0.475	-0.202
-662.989	117.928	0.104	-0.129
-661.974	-62.999	-0.189	0.079
-660.959	-123.279	-0.216	-0.035
-659.945	65.205	-0.174	-0.177
-658.930	-128.538	-0.187	-0.027
-657.916	-200.000	0.013	0.179
-656.901	506.110	-0.065	-0.152
-655.886	-80.800	0.362	-0.121
-654.872	67.803	-0.020	0.021
-653.857	-28.831	0.377	0.219
-652.843	-23.683	-0.390	-0.236
-651.828	32.779	0.140	-0.122
-650.814	-74.979	-0.478	0.172
-649.799	196.203	0.029	0.045
-648.784	-131.068	-0.269	-0.036
-647.770	352.734	0.163	0.325
-646.755	451.992	0.199	-0.444
-645.741	800.000	0.111	0.312
-644.726	-110.616	0.054	0.011
-643.711	-47.156	0.180	-0.088
-642.697	510.575	0.103	-0.242
-641.682	175.382	-0.056	-0.082
-640.668	22.700	-0.175	-0.144
-639.653	-200.000	-0.063	-0.313
-638.638	-151.735	-0.224	-0.017
-637.624	-200.000	0.063	0.408
-636.609	-42.288	0.114	-0.059
-635.595	-99.013	0.123	0.031
-634.580	-200.000	-0.008	-0.305
-633.565	481.646	-0.104	-0.238
-632.551	-31.647	-0.393	-0.222
-631.536	31.617	-0.071	0.062
-630.522	-69.434	-0.255	0.098
-629.507	565.969	-0.171	-0.417
-628.492	-99.352	0.136	-0.035
-627.478	258.320	0.145	0.251
-626.463	193.490	0.178	0.271
-625.449	800.000	-0.030	-0.085
-624.434	-139.653	-0.091	0.010
-623.419	800.000	0.116	-0.449
-622.405	26.514	-0.210	-0.177
-621.390	-135.220	-0.271	0.033
-620.376	175.483	-0.133	-0.194
-619.361	777.413	-0.046	0.128
-618.346	-166.401	0.078	-0.003
-617.332	44.626	0.134	-0.124
-616.317	37.093	-0.123	-0.110
-615.303	-169.566	0.370	-0.014
-614.288	-40.007	0.129	-0.068
-613.273	-3.950	-0.228	-0.159
-612.259	-114.338	-0.188	-0.036
-611.244	800.000	-0.025	-0.108
-610.230	9.613	0.163	0.124
-609.215	539.559	-0.070	0.167
-608.201	46.576	0.224	-0.209
-607.186	-200.000	0.097	-0.476
-606.171	800.000	0.070	0.197
-605.157	-98.907	-0.072	0.019
-604.142	228.034	0.105	0.173
-603.128	-85.502	-0.477	0.149
-602.113	-31.451	-0.152	0.086
-601.098	231.193	-0.224	0.368
-600.084	-114.711	0.206	0.040
-599.069	-126.151	-0.104	-0.016
-598.055	10.425	0.223	-0.171
-597.040	-78.514	0.091	0.031
-596.025	-200.000	0.002	-0.023
-595.011	-48.073	0.144	-0.070
-593.996	800.000	-0.098	0.303
-592.982	188.301	0.067	-0.101
-591.967	-200.000	0.017	-0.130
-590.952	-93.267	-0.176	0.049
-589.938	-200.000	0.035	0.517
-588.923	435.473	-0.006	0.013
-587.909	-21.687	0.222	-0.136
-586.894	-80.625	-0.239	0.080
-585.879	87.111	0.256	-0.284
-584.865	-51.237	0.085	0.040
-583.850	15.245	-0.141	0.111
-582.836	800.000	0.073	-0.249
-581.821	800.000	-0.040	0.176
-580.806	-44.742	0.134	-0.067
-579.792	-200.000	0.011	-0.073
-578.777	65.141	0.112	0.114
-577.763	-18.230	-0.254	0.160
-576.748	-100.036	-0.241	-0.060
-575.733	-107.395	-0.047	-0.010
-574.719	-200.000	-0.012	-0.282
-573.704	-104.144	-0.196	-0.046
-572.690	-15.283	-0.152	0.097
-571.675	-15.875	0.047	0.030
-570.661	-200.000	0.022	-0.344
-569.646	-26.075	0.185	0.109
-568.631	42.985	-0.072	-0.066
-567.617	800.000	0.024	-0.098
-566.602	-72.451	-0.129	0.048
-565.588	96.885	-0.129	0.148
-564.573	46.356	-0.154	0.143
-563.558	-56.139	-0.205	0.092
-562.544	127.143	-0.165	0.210
-561.529	-200.000	-0.074	-0.366
-560.515	-138.171	-0.174	-0.019
-559.500	-73.757	0.378	-0.138
-558.485	-80.361	-0.193	0.065
-557.471	156.595	-0.050	-0.070
-556.456	-132.958	-0.308	-0.039
-555.442	207.121	-0.109	0.171
-554.427	-200.000	-0.029	0.312
-553.412	322.458	0.195	0.372
-552.398	-6.057	-0.112	0.077
-551.383	-44.498	0.238	0.120
-550.369	-64.597	0.243	-0.099
-549.354	-200.000	0.023	-0.144
-548.339	-200.000	0.018	-0.325
-547.325	356.459	-0.128	-0.256
-546.310	-47.849	0.304	-0.148
-545.296	-48.287	0.194	-0.094
-544.281	800.000	0.031	0.091
-543.266	-38.505	-0.307	-0.163
-542.252	800.000	0.038	-0.149
-541.237	-54.342	0.086	-0.039
-540.223	115.134	0.157	-0.192
-539.208	-38.249	-0.428	-0.227
-538.193	-15.544	0.158	0.101
-537.179	21.013	0.049	-0.040
-536.164	800.000	-0.150	-0.435
-535.150	43.654	-0.082	-0.076
-534.135	-70.436	-0.159	0.060
-533.121	-200.000	0.025	0.265
-532.106	-143.954	-0.134	-0.013
-531.091	161.552	-0.116	0.162
-530.077	-54.058	0.324	0.148
-529.062	800.000	-0.011	0.040
-528.048	-200.000	-0.040	0.271
-527.033	-14.030	-0.179	0.116
-526.018	-123.066	-0.229	-0.037
-525.004	21.303	0.130	-0.106
-523.989	136.419	0.150	-0.197
-522.975	-169.021	0.357	-0.013
-521.960	-140.139	-0.009	-0.001
-520.945	-66.805	-0.176	-0.070
-519.931	-54.344	-0.247	0.112
-518.916	-40.327	-0.376	0.196
-517.902	122.446	0.220	-0.275
-516.887	-200.000	0.043	-0.373
-515.872	1.761	-0.536	0.387
-514.858	85.316	0.278	-0.306
-513.843	128.446	0.064	0.082
-512.829	-200.000	0.028	-0.461
-511.814	-200.000	0.055	0.260
-510.799	-85.094	0.451	0.142
-509.785	43.007	0.080	0.073
-508.770	-102.409	-0.260	-0.062
-507.756	-200.000	0.071	0.312
-506.741	174.270	-0.076	-0.110
-505.726	-200.000	0.047	0.324
-504.712	34.608	-0.352	-0.308
-503.697	492.304	0.051	0.117
-502.683	216.694	0.114	0.181
-501.668	-200.000	-0.004	-0.205
-500.653	3.913	-0.100	-0.073
-499.639	-200.000	-0.016	0.306
-498.624	-200.000	0.027	0.194
-497.610	0.424	0.181	-0.130
-496.595	80.776	-0.158	0.170
-495.581	66.245	-0.168	-0.171
-494.566	175.799	-0.254	0.368
-493.551	-200.000	0.011	-0.345
-492.537	-65.078	-0.436	-0.176
-491.522	-119.278	0.245	0.043
-490.508	58.779	-0.071	-0.070
-489.493	207.907	-0.178	-0.279
-488.478	20.654	0.136	-0.110
-487.464	364.798	-0.093	0.188
-486.449	800.000	0.039	-0.125
-485.435	5.025	-0.175	-0.129
-484.420	-73.953	-0.083	-0.030
-483.405	23.606	0.247	0.204
-482.391	-200.000	-0.060	-0.341
-481.376	-119.180	-0.190	0.033
-480.362	402.184	0.220	0.463
-479.347	12.657	-0.254	-0.196
-478.332	133.181	-0.180	0.233
-477.318	-75.150	-0.180	-0.064
-476.303	-74.288	0.237	0.086
-475.289	-17.662	-0.282	-0.177
-474.274	537.481	0.073	0.174
-473.259	-3.903	-0.115	0.080
-472.245	-55.826	-0.189	0.084
-471.230	-200.000	-0.037	-0.255
-470.216	255.868	0.087	0.149
-469.201	44.902	-0.123	-0.114
-468.186	-7.914	0.185	0.125
-467.172	-173.116	0.378	-0.012
-466.157	800.000	-0.061	-0.213
-465.143	154.266	0.035	-0.048
-464.128	494.004	-0.165	0.380
-463.113	-76.296	-0.335	-0.118
-462.099	-200.000	0.114	-0.559
-461.084	800.000	0.103	-0.328
-460.070	-157.284	-0.321	0.019
-459.055	151.233	-0.003	-0.005
-458.040	-22.684	-0.235	0.142
-457.026	-91.670	0.214	-0.061
-456.011	-158.382	-0.174	-0.010
-454.997	-12.164	0.126	-0.082
-453.982	-7.813	-0.298	0.201
-452.968	480.901	0.143	-0.325
-451.953	-45.822	0.389	0.192
-450.938	-200.000	-0.008	0.158
-449.924	-45.937	-0.143	0.070
-448.909	-21.984	-0.181	0.110
-447.895	19.798	-0.014	0.011
-446.880	-77.291	-0.114	-0.040
-445.865	-27.463	-0.318	-0.185
-444.851	-27.063	0.376	-0.219
-443.836	304.554	-0.106	-0.197
-442.822	175.427	0.031	-0.045
-441.807	27.793	0.194	-0.163
-440.792	800.000	0.059	0.238
-439.778	-30.082	0.250	-0.142
-438.763	800.000	-0.040	0.130
-437.749	-50.297	-0.375	-0.177
-436.734	254.995	0.043	-0.074
-435.719	57.636	-0.261	0.255
-434.705	-200.000	0.031	-0.302
-433.690	4.082	0.070	0.051
-432.676	244.809	-0.085	0.143
-431.661	-200.000	0.028	0.235
-430.646	-56.906	-0.289	-0.128
-429.632	95.919	0.249	0.284
-428.617	-86.652	0.083	-0.025
-427.603	800.000	0.080	-0.257
-426.588	294.107	-0.172	0.314
-425.573	-103.956	-0.318	-0.074
-424.559	-170.920	0.246	0.008
-423.544	54.172	0.111	-0.106
-422.530	225.571	-0.112	0.181
-421.515	94.371	-0.070	-0.079
-420.500	800.000	-0.097	0.306
-419.486	-86.900	0.233	0.071
-418.471	612.269	-0.027	0.067
-417.457	42.068	0.040	-0.036
-416.442	-22.499	0.337	-0.203
-415.428	-200.000	-0.037	-0.299
-414.413	800.000	-0.035	-0.110
-413.398	-153.465	0.075	0.005
-412.384	-99.325	0.237	0.060
-411.369	-63.099	0.247	0.102
-410.355	-151.079	0.325	-0.024
-409.340	171.444	-0.118	0.170
-408.325	-183.658	0.162	0.003
-407.311	115.618	0.298	0.364
-406.296	117.667	-0.105	-0.129
-405.282	-11.365	0.231	-0.152
-404.267	-57.407	-0.133	0.058
-403.252	-90.235	-0.341	0.099
-402.238	166.713	0.062	-0.088
-401.223	128.524	-0.085	0.109
-400.209	57.867	-0.332	-0.324
-399.194	-0.761	-0.126	-0.089
-398.179	-87.667	0.241	0.073
-397.165	-31.884	-0.129	-0.072
-396.150	168.425	0.046	-0.066
-395.136	-200.000	0.000	0.085
-394.121	-112.248	0.203	-0.041
-393.106	-84.826	0.247	-0.077
-392.092	-30.120	0.155	0.088
-391.077	66.428	0.053	-0.054
-390.063	800.000	-0.044	0.171
-389.048	-3.201	0.064	0.045
-388.033	-200.000	0.003	0.488
-387.019	129.704	-0.128	0.164
-386.004	311.611	0.222	0.416
-384.990	-200.000	0.037	0.241
-383.975	-23.037	-0.156	-0.094
-382.960	-77.898	-0.170	0.058
-381.946	178.973	-0.211	0.307
-380.931	468.669	-0.020	0.045
-379.917	296.909	-0.032	0.058
-378.902	-101.277	0.130	-0.032
-377.888	800.000	0.070	-0.262
-376.873	-80.946	-0.323	0.107
-375.858	10.253	0.137	0.104
-374.844	-200.000	-0.013	-0.510
-373.829	-64.248	-0.241	-0.098
-372.815	-200.000	0.008	0.044
-371.800	-75.129	-0.077	-0.027
-370.785	-200.000	-0.044	0.245
-369.771	-195.827	0.243	0.002
-368.756	-120.979	-0.295	0.049
-367.742	-31.524	-0.073	0.041
-366.727	196.116	0.119	-0.180
-365.712	378.796	-0.185	-0.377
-364.698	6.593	-0.100	0.074
-363.683	-27.756	0.233	-0.135
-362.669	-200.000	-0.042	-0.202
-361.654	-200.000	-0.020	-0.139
-360.639	-198.242	-0.079	-0.000
-359.625	-200.000	-0.019	-0.431
-358.610	800.000	-0.049	-0.171
-357.596	87.993	0.087	-0.096
-356.581	596.264	-0.084	0.208
-355.566	118.921	-0.114	0.140
-354.552	121.069	-0.016	-0.020
-353.537	78.818	-0.032	-0.034
-352.523	-96.200	-0.263	0.069
-351.508	67.560	0.325	-0.330
-350.493	782.151	0.090	0.245
-349.479	-110.837	-0.325	-0.067
-348.464	383.272	0.172	0.352
-347.450	-153.606	0.088	0.006
-346.435	490.750	0.108	-0.247
-345.420	800.000	-0.106	-0.403
-344.406	-92.056	0.208	-0.058
-343.391	279.106	-0.172	-0.305
-342.377	800.000	-0.039	-0.130
-341.362	49.576	0.335	0.314
-340.348	-71.760	0.337	0.125
-339.333	364.374	0.093	0.187
-338.318	-57.429	0.187	0.082
-337.304	-110.479	0.131	0.027
-336.289	-200.000	0.021	-0.097
-335.275	45.243	-0.011	0.010
-334.260	-70.072	0.183	-0.069
-333.245	-200.000	0.001	-0.071
-332.231	-200.000	0.009	-0.115
-331.216	-168.900	0.233	0.009
-330.202	537.149	0.079	0.188
-329.187	-167.345	0.106	0.004
-328.172	-200.000	0.023	-0.115
-327.158	-31.480	0.297	-0.166
-326.143	329.886	0.108	0.208
-325.129	-86.256	0.259	-0.079
-324.114	-111.378	0.148	0.030
-323.099	431.531	0.082	0.176
-322.085	233.045	0.163	-0.266
-321.070	328.316	0.124	0.237
-320.056	-73.510	-0.204	0.074
-319.041	-54.508	-0.154	0.069
-318.026	102.620	-0.073	0.085
-317.012	-51.263	0.282	0.131
-315.997	-200.000	0.038	0.213
-314.983	800.000	-0.019	0.074
-313.968	337.800	0.084	0.163
-312.953	249.612	-0.263	-0.443
-311.939	-200.000	-0.019	-0.153
-310.924	-141.353	0.178	-0.018
-309.910	55.471	0.100	0.096
-308.895	34.429	0.305	-0.265
-307.880	800.000	-0.132	0.427
-306.866	-149.097	0.135	0.011
-305.851	-128.190	-0.187	-0.027
-304.837	6.996	-0.071	0.053
-303.822	-10.086	-0.134	0.089
-302.807	-200.000	0.033	0.212
-301.793	-200.000	0.029	-0.219
-300.778	29.583	-0.294	-0.248
-299.764	274.489	0.106	-0.186
-298.749	251.817	0.194	0.328
-297.735	-127.103	-0.057	0.008
-296.720	-71.354	-0.209	-0.078
-295.705	99.980	-0.101	-0.116
-294.691	208.692	-0.076	0.119
-293.676	12.571	0.082	0.063
-292.662	-43.377	-0.247	-0.124
-291.647	800.000	-0.033	-0.097
-290.632	-60.848	-0.094	-0.039
-289.618	-39.804	0.154	0.080
-288.603	-200.000	0.032	0.184
-287.589	-64.343	-0.221	0.089
-286.574	78.631	-0.272	0.289
-285.559	-200.000	-0.022	-0.160
-284.545	476.032	0.081	-0.182
-283.530	800.000	0.113	-0.359
-282.516	14.643	0.175	0.136
-281.501	393.997	-0.094	0.194
-280.486	-15.633	0.118	0.075
-279.472	-200.000	0.026	0.134
-278.457	800.000	0.084	0.237
-277.443	487.813	0.077	-0.174
-276.428	-159.522	-0.219	-0.012
-275.413	539.853	0.065	0.154
-274.399	-35.054	-0.319	-0.173
-273.384	252.877	-0.077	-0.131
-272.370	0.901	-0.137	0.097
-271.355	-19.919	-0.194	-0.119
-270.340	800.000	0.072	0.224
-269.326	693.428	0.148	0.385
-268.311	-116.986	-0.366	-0.066
-267.297	-200.000	0.019	0.153
-266.282	213.121	-0.090	0.142
-265.267	-141.256	0.356	-0.036
-264.253	-92.865	-0.194	-0.054
-263.238	-47.630	-0.243	0.117
-262.224	-149.038	-0.172	-0.014
-261.209	-0.265	0.120	0.084
-260.195	81.028	-0.201	-0.215
-259.180	76.853	0.064	-0.067
-258.165	-64.123	0.274	-0.111
-257.151	-200.000	-0.059	0.311
-256.136	333.500	0.176	0.337
-255.122	270.751	-0.062	0.108
-254.107	-21.036	-0.153	-0.093
-253.092	194.854	0.074	-0.111
-252.078	-0.663	-0.084	-0.059
-251.063	800.000	0.049	-0.136
-250.049	-200.000	0.186	0.000
-249.034	-135.520	0.320	0.038
-248.019	-95.426	0.254	-0.068
-247.005	800.000	0.021	-0.073
-245.990	-58.095	0.083	-0.036
-244.976	-76.323	-0.300	-0.105
-243.961	240.090	0.119	-0.196
-242.946	800.000	-0.064	-0.263
-241.932	123.829	0.067	0.083
-240.917	-200.000	0.012	0.070
-239.903	-49.772	-0.148	-0.070
-238.888	-200.000	0.004	0.241
-237.873	-33.410	-0.116	0.063
-236.859	800.000	0.029	-0.109
-235.844	372.103	-0.148	-0.299
-234.830	-97.801	-0.261	0.067
-233.815	468.231	0.218	0.484
-232.800	31.293	-0.236	0.201
-231.786	765.216	-0.169	0.455
-230.771	-50.754	0.419	0.195
-229.757	-67.674	0.149	0.058
-228.742	180.758	0.192	-0.280
-227.727	-200.000	0.001	0.060
-226.713	-151.030	0.354	0.026
-225.698	-200.000	0.076	-0.380
-224.684	-47.484	-0.331	0.160
-223.669	-28.207	0.129	-0.074
-222.655	-174.545	-0.188	0.005
-221.640	-90.178	-0.256	-0.074
-220.625	-158.720	-0.251	-0.014
-219.611	-200.000	0.012	-0.058
-218.596	553.950	-0.075	-0.179
-217.582	800.000	-0.186	0.594
-216.567	-67.107	0.285	-0.111
-215.552	-200.000	0.042	0.213
-214.538	-124.229	-0.262	0.041
-213.523	187.467	0.156	-0.230
-212.509	178.790	0.102	0.147
-211.494	800.000	-0.092	0.287
-210.479	17.824	0.154	-0.121
-209.465	230.060	-0.029	0.047
-208.450	94.221	0.265	0.298
-207.436	-102.844	0.346	0.082
-206.421	-90.234	-0.124	0.036
-205.406	401.243	0.191	0.398
-204.392	-150.329	-0.253	0.019
-203.377	-200.000	-0.084	0.449
-202.363	443.985	0.101	0.219
-201.348	800.000	0.062	0.182
-200.333	800.000	0.026	-0.092
-199.319	141.540	0.066	0.087
-198.304	800.000	-0.083	-0.336
-197.290	56.870	0.211	-0.203
-196.275	-53.144	0.262	-0.119
-195.260	800.000	0.015	-0.051
-194.246	-137.426	0.118	-0.013
-193.231	-96.540	-0.237	-0.062
-192.217	223.322	0.063	0.100
-191.202	-200.000	-0.038	-0.249
-190.187	-74.164	0.467	0.167
-189.173	-200.000	0.036	-0.199
-188.158	-200.000	-0.023	0.203
-187.144	-30.097	-0.178	-0.100
-186.129	-91.297	0.163	-0.046
-185.114	-82.362	-0.162	-0.052
-184.100	35.841	0.123	-0.107
-183.085	15.312	0.147	-0.114
-182.071	-63.050	0.087	0.036
-181.056	800.000	-0.052	0.213
-180.042	32.152	0.198	-0.169
-179.027	-44.723	-0.170	-0.084
-178.012	229.059	-0.147	0.237
-176.998	-169.482	0.146	0.005
-175.983	-120.139	0.245	0.041
-174.969	-117.211	0.235	0.042
-173.954	-200.000	0.005	0.078
-172.939	160.904	0.186	0.257
-171.925	-20.132	0.298	-0.182
-170.910	-200.000	0.024	-0.130
-169.896	-112.721	0.057	0.011
-168.881	179.269	-0.061	-0.088
-167.866	-200.000	-0.002	-0.218
-166.852	-65.996	-0.336	0.133
-165.837	-36.582	-0.332	-0.177
-164.823	69.578	0.229	-0.233
-163.808	-200.000	0.003	-0.063
-162.793	-200.000	-0.012	0.278
-161.779	-200.000	0.031	0.274
-160.764	-138.789	0.331	-0.036
-159.750	225.015	-0.062	-0.099
-158.735	-200.000	0.066	-0.410
-157.720	661.653	-0.128	-0.326
-156.706	152.401	-0.080	0.108
-155.691	785.823	0.055	-0.149
-154.677	-200.000	-0.039	0.323
-153.662	624.860	0.120	0.298
-152.647	-200.000	0.023	0.381
-151.633	-64.194	0.222	0.089
-150.618	19.920	0.264	-0.210
-149.604	38.407	-0.095	-0.084
-148.589	-34.947	0.270	0.146
-147.574	800.000	0.038	0.143
-146.560	800.000	0.072	0.290
-145.545	112.658	0.181	0.217
-144.531	-82.798	0.169	0.054
-143.516	108.294	-0.258	-0.304
-142.502	-200.000	-0.014	0.313
-141.487	422.298	0.081	0.171
-140.472	-200.000	-0.059	0.330
-139.458	53.816	-0.136	0.129
-138.443	-200.000	0.018	-0.299
-137.429	-165.990	0.120	-0.005
-136.414	-200.000	-0.042	-0.208
-135.399	-200.000	-0.002	0.010
-134.385	-18.481	0.119	0.074
-133.370	62.097	-0.192	-0.189
-132.356	-77.295	-0.172	-0.059
-131.341	61.665	-0.075	-0.074
-130.326	67.118	0.319	0.321
-129.312	508.685	0.014	0.033
-128.297	-74.337	0.200	-0.071
-127.283	151.553	-0.103	0.138
-126.268	-112.626	0.299	0.059
-125.253	-2.466	-0.318	0.220
-124.239	450.705	-0.133	0.290
-123.224	216.231	0.264	-0.414
-122.210	-135.703	-0.389	0.046
-121.195	104.346	0.416	-0.483
