DTS Sentinel unit serial number:	SN413079Multiplexer serial number:	ORYXHardware model number:	OX4-SRSoftware version number:	ORYX F/W v4.00 Oryx Data Collector v3.7.2.0data status	okinstallation	princeton_trtdifferential loss correction	single-endedforward channel	channel 3reverse channel	N/Adate	2019/09/11time	23:26:11forward acquisition time	60.00reverse acquisition time	0.00gamma	496.2192k internal	0.2317k external	0.2317temperature offset calibration	1.0055default loss term (dB/km)	0.3790temperature slope calibration	1.0000multiplexer offset coefficient	1.0000multiplexer slope coefficient	1.0000fibre end	0.00T internal ref (°C)	34.28T ext. ref 1 (°C)	1.88T ext. ref 2 (°C)	28.76length (m)	temperature (°C)	Stokes	anti-Stokes-747.200	-200.000	0.053	0.426
-746.185	182.461	-0.230	0.343
-745.171	-200.000	-0.027	-0.637
-744.156	-84.128	-0.256	0.082
-743.142	-200.000	0.035	0.232
-742.127	-9.166	-0.146	0.099
-741.112	752.126	0.057	0.155
-740.098	-135.919	-0.084	0.010
-739.083	38.203	0.226	-0.204
-738.069	368.434	0.163	0.334
-737.054	42.436	0.241	0.222
-736.039	-70.739	-0.333	0.127
-735.025	33.520	0.231	-0.203
-734.010	173.183	-0.149	-0.218
-732.996	-145.650	0.188	-0.017
-731.981	-20.285	-0.177	0.111
-730.966	478.495	-0.162	0.371
-729.952	-61.549	0.199	-0.085
-728.937	-67.931	-0.217	0.086
-727.923	-101.738	0.332	0.081
-726.908	561.742	-0.095	-0.232
-725.894	800.000	-0.094	-0.270
-724.879	25.273	-0.282	-0.237
-723.864	719.218	-0.172	0.463
-722.850	29.137	-0.031	0.026
-721.835	-55.801	0.223	-0.101
-720.821	-2.468	0.080	0.057
-719.806	-148.901	-0.298	0.024
-718.791	110.289	0.122	0.148
-717.777	21.127	-0.154	-0.127
-716.762	-154.439	-0.345	-0.023
-715.748	59.612	-0.226	0.226
-714.733	-200.000	0.032	-0.281
-713.718	14.145	0.134	-0.106
-712.704	80.728	0.205	0.224
-711.689	195.211	-0.224	-0.344
-710.675	155.884	0.102	-0.142
-709.660	-200.000	-0.038	0.250
-708.645	35.260	0.361	0.320
-707.631	3.505	-0.302	-0.223
-706.616	800.000	-0.029	-0.090
-705.602	173.763	-0.165	0.241
-704.587	77.135	0.106	0.114
-703.572	8.115	-0.038	0.029
-702.558	-200.000	0.031	0.263
-701.543	-106.425	-0.305	-0.069
-700.529	-93.371	0.097	0.027
-699.514	215.958	0.314	-0.504
-698.499	67.421	-0.032	0.033
-697.485	768.034	0.061	0.167
-696.470	5.588	0.139	-0.103
-695.456	-200.000	0.006	-0.121
-694.441	589.629	0.048	-0.119
-693.426	88.733	-0.021	-0.024
-692.412	321.636	0.083	0.159
-691.397	-200.000	-0.011	-0.117
-690.383	-106.596	-0.413	-0.093
-689.368	-200.000	0.012	0.294
-688.354	306.782	-0.067	-0.126
-687.339	51.975	0.181	-0.174
-686.324	-184.533	0.112	0.002
-685.310	800.000	-0.033	0.112
-684.295	26.084	0.058	0.049
-683.281	-143.146	-0.061	-0.006
-682.266	-76.151	-0.143	-0.051
-681.251	-200.000	0.000	-0.033
-680.237	-54.511	-0.153	0.070
-679.222	-65.215	0.323	-0.131
-678.208	-106.124	-0.323	-0.073
-677.193	-154.252	-0.129	0.009
-676.178	-14.669	-0.190	-0.123
-675.164	205.523	0.218	-0.343
-674.149	800.000	0.034	0.109
-673.135	800.000	0.021	-0.070
-672.120	544.660	0.068	0.164
-671.105	-157.470	-0.354	-0.021
-670.091	59.872	-0.156	0.155
-669.076	65.639	0.124	-0.126
-668.062	55.534	-0.105	-0.103
-667.047	-200.000	0.023	0.124
-666.032	231.117	0.067	-0.110
-665.018	-163.819	0.420	-0.020
-664.003	-200.000	-0.016	0.216
-662.989	-200.000	0.050	-0.289
-661.974	65.813	0.278	0.284
-660.959	15.890	-0.183	-0.145
-659.945	552.597	-0.034	-0.083
-658.930	-92.450	0.361	0.103
-657.916	-200.000	-0.001	0.262
-656.901	-28.007	0.284	-0.166
-655.886	-44.851	0.069	-0.035
-654.872	176.420	0.077	0.113
-653.857	1.128	-0.091	-0.066
-652.843	116.028	-0.026	-0.032
-651.828	-200.000	-0.059	0.279
-650.814	800.000	-0.028	-0.094
-649.799	-70.340	0.137	-0.052
-648.784	-150.373	-0.291	0.023
-647.770	-77.714	0.100	-0.035
-646.755	428.302	0.087	0.191
-645.741	109.887	-0.237	-0.287
-644.726	41.740	0.082	0.075
-643.711	-21.632	0.163	0.100
-642.697	-38.550	-0.066	-0.035
-641.682	800.000	0.027	0.085
-640.668	-16.408	0.096	-0.062
-639.653	-21.134	-0.228	0.141
-638.638	800.000	0.052	0.222
-637.624	-7.427	0.161	-0.110
-636.609	270.886	-0.122	0.217
-635.595	-102.878	0.164	0.039
-634.580	-44.866	0.131	-0.066
-633.565	150.776	-0.085	0.117
-632.551	-69.062	0.235	-0.091
-631.536	800.000	-0.039	-0.127
-630.522	-55.303	-0.378	-0.171
-629.507	-116.955	0.110	0.020
-628.492	-200.000	0.013	0.224
-627.478	105.936	0.067	0.080
-626.463	-20.954	-0.403	-0.249
-625.449	-200.000	0.016	0.368
-624.434	-94.999	0.378	-0.103
-623.419	469.011	0.171	0.387
-622.405	-162.941	-0.184	-0.009
-621.390	800.000	0.098	-0.286
-620.376	78.279	-0.087	-0.094
-619.361	237.083	0.225	0.375
-618.346	264.529	0.096	-0.168
-617.332	800.000	0.042	0.169
-616.317	-200.000	-0.010	0.143
-615.303	-200.000	0.020	0.114
-614.288	-142.990	0.277	0.027
-613.273	-200.000	-0.001	-0.284
-612.259	-95.309	0.278	-0.075
-611.244	800.000	-0.105	-0.312
-610.230	-200.000	0.140	0.000
-609.215	1.744	0.333	-0.242
-608.201	530.426	-0.089	-0.212
-607.186	107.792	-0.045	0.054
-606.171	-84.210	0.413	-0.132
-605.157	-80.084	-0.236	0.080
-604.142	-22.140	-0.100	0.061
-603.128	235.679	-0.147	-0.244
-602.113	166.334	0.089	-0.127
-601.098	225.325	-0.031	0.051
-600.084	112.915	-0.074	0.091
-599.069	-29.421	0.250	0.144
-598.055	72.045	0.172	0.180
-597.040	153.873	-0.072	0.099
-596.025	86.411	0.135	-0.150
-595.011	-121.013	0.323	0.055
-593.996	-200.000	-0.008	-0.045
-592.982	-69.886	-0.288	-0.111
-591.967	-65.967	0.168	-0.067
-590.952	-96.426	0.123	0.033
-589.938	365.794	0.077	-0.157
-588.923	-200.000	-0.012	-0.286
-587.909	-133.400	0.299	0.038
-586.894	-55.672	-0.043	0.019
-585.879	270.373	0.122	0.216
-584.865	-200.000	-0.024	0.121
-583.850	269.872	-0.126	0.223
-582.836	-77.658	-0.166	-0.058
-581.821	601.431	-0.106	0.266
-580.806	83.938	-0.083	-0.091
-579.792	-65.173	0.233	-0.094
-578.777	311.381	0.201	0.379
-577.763	7.039	-0.106	0.080
-576.748	-111.975	-0.361	0.073
-575.733	-60.031	-0.178	-0.077
-574.719	-200.000	0.024	0.208
-573.704	-200.000	-0.006	-0.120
-572.690	27.442	0.087	0.074
-571.675	388.236	-0.100	-0.208
-570.661	268.682	0.132	0.234
-569.646	101.972	0.266	-0.312
-568.631	-121.664	-0.363	0.060
-567.617	-94.660	-0.226	-0.062
-566.602	-40.308	-0.266	-0.139
-565.588	67.683	-0.207	0.213
-564.573	800.000	-0.064	0.237
-563.558	657.961	-0.097	-0.250
-562.544	-88.903	0.337	0.100
-561.529	100.359	-0.089	-0.103
-560.515	74.044	-0.208	-0.219
-559.500	-200.000	0.054	-0.404
-558.485	-66.275	-0.219	0.088
-557.471	-15.052	-0.153	0.099
-556.456	76.840	0.158	-0.169
-555.442	4.503	-0.219	0.162
-554.427	-126.175	-0.281	-0.042
-553.412	348.858	-0.204	-0.405
-552.398	800.000	0.074	-0.214
-551.383	800.000	0.010	0.044
-550.369	-200.000	-0.004	0.306
-549.354	570.477	-0.060	0.147
-548.339	74.339	0.013	0.014
-547.325	-200.000	0.011	0.095
-546.310	-87.482	0.160	-0.049
-545.296	-75.904	0.369	0.131
-544.281	1.102	0.167	0.121
-543.266	-16.309	-0.051	-0.032
-542.252	-200.000	-0.020	0.260
-541.237	689.143	0.037	-0.097
-540.223	-200.000	0.004	-0.087
-539.208	-90.586	-0.191	0.055
-538.193	191.449	-0.106	0.161
-537.179	69.661	0.197	0.204
-536.164	454.814	-0.155	-0.344
-535.150	-56.092	-0.167	-0.075
-534.135	169.324	-0.112	0.160
-533.121	-32.939	0.200	0.112
-532.106	-70.625	0.336	-0.127
-531.091	-117.310	-0.171	-0.031
-530.077	18.810	0.284	-0.228
-529.062	800.000	-0.084	-0.325
-528.048	-46.856	0.100	-0.049
-527.033	-200.000	0.048	-0.238
-526.018	-121.146	0.348	-0.059
-525.004	-18.095	-0.075	-0.047
-523.989	-72.162	-0.015	-0.006
-522.975	-2.639	0.098	-0.069
-521.960	503.978	-0.053	-0.123
-520.945	-9.810	0.159	0.106
-519.931	-111.914	-0.129	-0.026
-518.916	-200.000	0.011	-0.319
-517.902	800.000	0.107	-0.339
-516.887	-49.640	-0.094	0.045
-515.872	33.844	0.015	0.013
-514.858	800.000	-0.059	-0.178
-513.843	-106.867	-0.110	-0.025
-512.829	-63.182	-0.130	0.054
-511.814	113.097	0.151	-0.184
-510.799	-200.000	0.003	0.083
-509.785	185.268	-0.179	0.267
-508.770	-24.604	0.094	0.056
-507.756	66.499	-0.097	-0.099
-506.741	-84.798	-0.171	0.054
-505.726	-21.187	-0.247	0.152
-504.712	-200.000	0.000	-0.404
-503.697	32.754	-0.143	-0.124
-502.683	-15.548	-0.176	0.113
-501.668	-7.709	0.208	0.141
-500.653	-200.000	-0.012	0.124
-499.639	-200.000	-0.005	0.119
-498.624	-200.000	-0.032	0.156
-497.610	-200.000	0.078	0.472
-496.595	-100.178	-0.058	0.014
-495.581	-200.000	0.022	0.181
-494.566	205.939	-0.043	-0.067
-493.551	-58.524	0.467	-0.203
-492.537	168.495	-0.016	0.023
-491.522	33.643	0.067	0.058
-490.508	73.648	-0.316	0.332
-489.493	-200.000	-0.035	0.155
-488.478	-200.000	0.030	-0.213
-487.464	171.919	0.026	-0.037
-486.449	-200.000	-0.027	0.443
-485.435	-42.994	-0.284	-0.144
-484.420	115.179	0.276	-0.338
-483.405	-200.000	0.046	-0.391
-482.391	139.461	0.024	-0.031
-481.376	800.000	0.033	0.136
-480.362	-27.967	0.121	-0.070
-479.347	116.438	-0.300	-0.368
-478.332	-71.004	-0.188	0.071
-477.318	425.551	-0.187	0.403
-476.303	-168.542	-0.251	-0.010
-475.289	678.043	-0.015	-0.038
-474.274	35.020	-0.186	0.163
-473.259	789.810	-0.007	-0.020
-472.245	656.106	0.121	0.311
-471.230	-117.969	-0.053	-0.009
-470.216	-78.574	0.139	-0.048
-469.201	-99.547	-0.268	-0.067
-468.186	-16.495	0.216	-0.137
-467.172	-0.964	-0.141	-0.100
-466.157	221.657	0.075	-0.120
-465.143	-22.628	-0.333	0.201
-464.128	-70.350	0.266	-0.101
-463.113	261.099	0.194	-0.337
-462.099	800.000	-0.071	0.248
-461.084	-23.786	-0.291	-0.174
-460.070	800.000	-0.121	0.350
-459.055	85.254	-0.156	-0.172
-458.040	1.755	0.211	-0.152
-457.026	32.187	-0.298	-0.258
-456.011	-36.975	0.218	0.117
-454.997	-53.821	0.238	-0.109
-453.982	27.058	0.078	0.065
-452.968	286.673	-0.242	-0.437
-451.953	800.000	-0.071	-0.211
-450.938	297.474	-0.165	0.303
-449.924	-114.820	-0.071	0.014
-448.909	-154.703	0.416	-0.028
-447.895	-90.019	-0.031	-0.009
-446.880	800.000	-0.034	0.108
-445.865	72.145	-0.171	0.178
-444.851	667.488	0.128	0.332
-443.836	-152.501	0.172	0.012
-442.822	13.676	0.164	0.127
-441.807	-97.906	-0.103	0.027
-440.792	154.661	0.183	0.252
-439.778	-113.294	-0.157	0.031
-438.763	29.202	0.118	0.100
-437.749	379.338	0.030	-0.060
-436.734	93.811	0.133	-0.151
-435.719	-15.051	0.082	-0.053
-434.705	30.957	-0.137	0.118
-433.690	-200.000	-0.011	0.198
-432.676	525.479	0.055	0.130
-431.661	782.961	0.109	0.297
-430.646	800.000	0.038	0.144
-429.632	-200.000	0.040	-0.279
-428.617	442.126	-0.081	0.177
-427.603	-90.290	-0.284	-0.082
-426.588	-129.006	-0.277	-0.039
-425.573	-25.309	0.398	0.236
-424.559	-17.630	0.231	-0.145
-423.544	25.268	-0.222	-0.184
-422.530	-158.923	-0.069	-0.004
-421.515	264.326	-0.088	-0.153
-420.500	-144.076	-0.414	0.039
-419.486	382.079	-0.129	0.266
-418.471	-159.298	-0.263	-0.015
-417.457	-200.000	0.017	-0.203
-416.442	800.000	-0.074	-0.250
-415.428	-159.192	-0.443	0.025
-414.413	426.523	-0.103	0.221
-413.398	69.520	0.422	0.435
-412.384	139.382	0.114	-0.150
-411.369	-200.000	-0.035	0.278
-410.355	800.000	-0.055	-0.162
-409.340	-55.755	0.422	0.189
-408.325	1.142	0.093	0.067
-407.311	800.000	0.047	0.156
-406.296	-3.146	0.197	-0.137
-405.282	800.000	-0.038	-0.143
-404.267	-200.000	-0.034	-0.180
-403.252	-27.919	-0.197	0.114
-402.238	277.450	-0.145	-0.258
-401.223	116.445	-0.085	0.104
-400.209	161.814	0.205	-0.287
-399.194	-122.134	-0.065	-0.011
-398.179	-200.000	-0.020	-0.277
-397.165	-60.213	-0.198	-0.084
-396.150	-48.371	0.068	-0.033
-395.136	184.878	-0.042	-0.062
-394.121	-24.657	-0.045	-0.026
-393.106	244.770	0.145	-0.243
-392.092	-130.430	-0.212	-0.029
-391.077	-147.736	-0.159	-0.013
-390.063	683.933	-0.055	-0.143
-389.048	45.046	-0.132	-0.121
-388.033	683.039	0.040	-0.105
-387.019	-200.000	0.000	-0.009
-386.004	-21.575	-0.273	-0.166
-384.990	96.069	-0.034	-0.039
-383.975	-27.081	-0.124	0.072
-382.960	12.819	-0.124	-0.096
-381.946	-200.000	0.022	-0.187
-380.931	-21.757	-0.368	0.223
-379.917	800.000	0.063	0.272
-378.902	86.877	-0.367	-0.404
-377.888	71.716	0.176	-0.182
-376.873	-97.273	0.266	-0.069
-375.858	429.507	-0.055	0.118
-374.844	10.874	0.319	-0.243
-373.829	-133.475	0.166	-0.021
-372.815	114.592	-0.233	-0.283
-371.800	800.000	-0.057	0.212
-370.785	-200.000	0.004	0.022
-369.771	800.000	0.071	-0.209
-368.756	123.341	0.232	-0.291
-367.742	-123.903	0.202	-0.032
-366.727	69.246	-0.219	-0.225
-365.712	581.609	-0.100	-0.246
-364.698	-63.691	0.130	0.053
-363.683	-174.757	-0.124	-0.003
-362.669	656.391	0.068	-0.174
-361.654	-100.115	0.176	0.044
-360.639	17.534	0.182	-0.144
-359.625	-200.000	-0.048	-0.385
-358.610	7.949	-0.021	-0.016
-357.596	-115.763	-0.100	-0.019
-356.581	80.752	-0.217	0.234
-355.566	-72.687	0.223	0.082
-354.552	0.195	-0.147	0.105
-353.537	-99.590	-0.408	0.102
-352.523	146.950	-0.240	0.322
-351.508	281.524	0.177	-0.316
-350.493	-129.737	0.194	-0.027
-349.479	-200.000	0.023	0.188
-348.464	-200.000	-0.016	0.185
-347.450	93.387	0.152	-0.171
-346.435	233.096	-0.185	0.303
-345.420	21.371	-0.057	-0.046
-344.406	183.371	-0.141	0.208
-343.391	-200.000	-0.009	0.104
-342.377	-120.408	-0.294	-0.050
-341.362	-200.000	0.008	0.046
-340.348	-133.036	-0.224	0.028
-339.333	203.434	-0.109	-0.168
-338.318	22.728	0.397	-0.324
-337.304	-200.000	-0.003	-0.223
-336.289	-152.554	0.173	0.012
-335.275	-109.367	0.198	0.042
-334.260	-78.694	0.244	-0.083
-333.245	771.118	0.118	-0.319
-332.231	-58.003	0.416	-0.181
-331.216	266.652	0.263	0.458
-330.202	282.454	0.230	0.410
-329.187	249.787	-0.099	-0.167
-328.172	800.000	0.052	0.161
-327.158	-200.000	0.022	0.140
-326.143	-8.192	0.074	-0.050
-325.129	282.175	-0.041	-0.074
-324.114	-112.709	0.292	0.058
-323.099	-114.183	-0.073	0.014
-322.085	75.359	0.097	0.102
-321.070	-200.000	0.004	0.022
-320.056	193.182	0.126	-0.190
-319.041	270.741	-0.150	-0.263
-318.026	-14.177	-0.308	-0.198
-317.012	-136.407	0.200	0.023
-315.997	209.537	-0.137	-0.215
-314.983	800.000	-0.065	0.191
-313.968	292.126	-0.041	-0.074
-312.953	-69.706	-0.211	0.080
-311.939	100.072	0.131	0.151
-310.924	-76.449	0.241	-0.084
-309.910	329.866	-0.073	-0.139
-308.895	800.000	0.093	0.297
-307.880	8.558	-0.247	0.185
-306.866	-44.573	0.362	-0.180
-305.851	-68.148	-0.233	0.090
-304.837	199.925	-0.099	0.151
-303.822	-22.337	-0.259	0.156
-302.807	67.660	-0.131	0.133
-301.793	-87.028	-0.137	-0.042
-300.778	800.000	0.109	0.401
-299.764	208.441	-0.048	0.075
-298.749	6.423	-0.173	-0.128
-297.735	70.730	0.207	-0.214
-296.720	-112.578	0.163	0.032
-295.705	-156.664	-0.085	0.005
-294.691	-200.000	0.014	-0.157
-293.676	-200.000	0.010	0.085
-292.662	-200.000	0.023	0.208
-291.647	-100.647	-0.280	0.069
-290.632	99.227	-0.317	-0.364
-289.618	-200.000	-0.023	0.143
-288.603	-70.713	-0.130	0.049
-287.589	-106.137	0.098	0.022
-286.574	224.674	-0.086	0.138
-285.559	-63.457	0.213	0.087
-284.545	24.783	-0.255	0.210
-283.530	-98.043	0.073	0.019
-282.516	-166.714	0.413	-0.017
-281.501	221.856	-0.155	0.248
-280.486	23.281	-0.159	0.130
-279.472	-99.575	-0.159	0.040
-278.457	332.002	-0.093	0.178
-277.443	-171.470	0.333	0.011
-276.428	27.132	0.166	-0.139
-275.413	172.863	-0.011	0.016
-274.399	71.206	0.078	-0.080
-273.384	55.433	0.063	-0.061
-272.370	584.942	-0.070	0.172
-271.355	-121.414	-0.160	-0.027
-270.340	76.438	0.128	0.135
-269.326	-55.466	0.104	-0.047
-268.311	338.920	0.093	0.180
-267.297	-127.645	-0.260	0.037
-266.282	22.654	0.157	0.127
-265.267	-61.877	-0.292	0.121
-264.253	-77.098	-0.144	-0.050
-263.238	129.046	-0.083	-0.105
-262.224	11.620	0.171	-0.130
-261.209	-149.020	-0.257	0.021
-260.195	118.449	0.080	-0.098
-259.180	-21.024	0.328	-0.199
-258.165	-179.485	0.188	-0.004
-257.151	367.555	0.134	-0.270
-256.136	-40.715	0.108	0.056
-255.122	29.960	0.205	-0.174
-254.107	800.000	0.015	0.042
-253.092	54.438	-0.121	-0.116
-252.078	-6.796	0.392	0.264
-251.063	105.889	0.168	0.197
-250.049	-200.000	0.077	-0.350
-249.034	91.490	-0.184	-0.205
-248.019	125.513	0.066	0.082
-247.005	303.459	-0.051	-0.094
-245.990	267.675	0.070	-0.121
-244.976	-113.398	0.122	-0.024
-243.961	222.656	-0.104	-0.167
-242.946	92.871	0.242	0.272
-241.932	-113.388	-0.300	-0.059
-240.917	-200.000	0.025	-0.256
-239.903	14.545	-0.100	0.077
-238.888	-200.000	0.035	0.216
-237.873	8.135	0.120	0.090
-236.859	153.893	0.054	0.073
-235.844	-197.413	-0.248	0.002
-234.830	-65.268	0.144	0.058
-233.815	-158.805	0.195	-0.011
-232.800	-90.936	-0.225	-0.064
-231.786	-200.000	0.007	0.160
-230.771	0.700	-0.078	0.056
-229.757	-134.821	-0.129	0.015
-228.742	32.239	-0.076	0.065
-227.727	-47.670	0.253	0.122
-226.713	-200.000	-0.028	-0.242
-225.698	368.225	-0.111	0.224
-224.684	-78.579	0.224	-0.076
-223.669	-177.149	0.447	-0.011
-222.655	-141.015	0.223	-0.023
-221.640	18.879	0.170	0.135
-220.625	800.000	-0.083	0.326
-219.611	758.965	-0.046	0.123
-218.596	-12.281	0.072	0.046
-217.582	-143.612	0.484	-0.046
-216.567	586.237	-0.108	-0.262
-215.552	-200.000	0.008	0.057
-214.538	675.392	0.087	0.225
-213.523	4.919	0.180	-0.131
-212.509	-200.000	0.019	0.130
-211.494	-110.437	0.216	0.045
-210.479	-81.500	0.265	0.086
-209.465	-200.000	-0.006	-0.077
-208.450	-21.758	0.038	0.023
-207.436	261.688	0.165	-0.284
-206.421	800.000	-0.027	-0.095
-205.406	800.000	0.095	-0.274
-204.392	-45.922	-0.319	-0.156
-203.377	10.044	-0.139	0.105
-202.363	3.532	0.114	-0.082
-201.348	800.000	0.141	0.396
-200.333	221.883	0.147	-0.235
-199.319	-200.000	-0.033	-0.316
-198.304	-133.818	0.230	0.028
-197.290	-33.638	-0.199	0.109
-196.275	-17.967	0.418	-0.260
-195.260	-144.098	-0.242	-0.022
-194.246	-200.000	0.004	-0.282
-193.231	180.868	-0.146	-0.213
-192.217	-72.997	0.288	0.105
-191.202	200.055	-0.071	-0.107
-190.187	-19.516	0.118	-0.073
-189.173	-200.000	-0.017	-0.123
-188.158	-200.000	-0.039	0.175
-187.144	214.571	-0.021	0.033
-186.129	220.093	-0.164	0.261
-185.114	800.000	-0.036	0.121
-184.100	-200.000	-0.016	-0.169
-183.085	97.341	-0.126	-0.144
-182.071	-7.393	-0.194	-0.130
-181.056	-200.000	0.008	-0.038
-180.042	800.000	-0.068	-0.265
-179.027	-77.790	0.186	-0.064
-178.012	-200.000	-0.016	0.290
-176.998	-79.973	-0.416	-0.138
-175.983	39.671	0.094	-0.084
-174.969	800.000	-0.099	0.281
-173.954	-200.000	0.005	0.249
-172.939	44.980	0.288	0.262
-171.925	464.342	-0.074	0.165
-170.910	368.717	-0.194	0.389
-169.896	65.246	-0.480	0.480
-168.881	221.524	-0.238	0.379
-167.866	554.925	0.094	-0.224
-166.852	-9.768	-0.126	0.083
-165.837	55.309	0.100	0.096
-164.823	-72.816	-0.240	0.088
-163.808	-200.000	0.000	0.185
-162.793	728.208	-0.151	-0.400
-161.779	-200.000	0.006	0.179
-160.764	-95.903	-0.257	-0.068
-159.750	-200.000	0.028	0.402
-158.735	331.437	-0.129	0.246
-157.720	311.162	0.056	-0.105
-156.706	200.517	0.070	0.107
-155.691	-139.868	-0.056	0.006
-154.677	-97.718	-0.125	0.032
-153.662	125.715	-0.143	-0.178
-152.647	-29.033	0.287	-0.163
-151.633	-157.622	0.135	-0.008
-150.618	-105.891	-0.115	-0.026
-149.604	-186.027	-0.221	-0.003
-148.589	38.891	-0.210	-0.186
-147.574	125.068	0.109	-0.136
-146.560	71.148	-0.150	0.153
-145.545	800.000	-0.053	0.171
-144.531	-99.070	-0.120	-0.030
-143.516	-200.000	-0.016	-0.139
-142.502	-82.340	0.420	0.135
-141.487	169.773	0.090	0.127
-140.472	-200.000	0.012	0.065
-139.458	-127.682	-0.152	0.022
-138.443	-200.000	-0.007	-0.208
-137.429	244.213	-0.116	-0.192
-136.414	-200.000	0.002	0.499
-135.399	-118.932	-0.225	-0.039
-134.385	-66.751	0.246	-0.096
-133.370	-200.000	-0.042	-0.190
-132.356	-200.000	-0.021	0.292
-131.341	-37.449	-0.297	0.157
-130.326	38.153	-0.060	-0.053
-129.312	800.000	0.058	-0.183
-128.297	-9.130	-0.293	-0.194
-127.283	-14.220	-0.196	0.125
-126.268	-195.981	-0.263	0.002
-125.253	-64.647	0.089	0.036
-124.239	-26.932	0.170	0.098
-123.224	-22.750	0.069	-0.041
-122.210	67.841	0.304	-0.307
-121.195	184.644	-0.156	0.228
