DTS Sentinel unit serial number:	SN413079Multiplexer serial number:	ORYXHardware model number:	OX4-SRSoftware version number:	ORYX F/W v4.00 Oryx Data Collector v3.7.2.0data status	okinstallation	princeton_trtdifferential loss correction	single-endedforward channel	channel 1reverse channel	N/Adate	2019/09/15time	23:18:35forward acquisition time	60.00reverse acquisition time	0.00gamma	496.2192k internal	0.2331k external	0.2331temperature offset calibration	0.9971default loss term (dB/km)	0.3790temperature slope calibration	1.0000multiplexer offset coefficient	1.0000multiplexer slope coefficient	1.0000fibre end	0.00T internal ref (°C)	28.31T ext. ref 1 (°C)	9.09T ext. ref 2 (°C)	22.06length (m)	temperature (°C)	Stokes	anti-Stokes-747.200	-39.194	-0.224	0.118
-746.185	-127.126	-0.080	-0.012
-745.171	31.201	0.269	0.232
-744.156	-88.472	-0.518	0.156
-743.142	800.000	0.072	-0.258
-742.127	-200.000	0.009	0.300
-741.112	328.420	0.081	0.157
-740.098	-200.000	-0.009	0.423
-739.083	-179.699	-0.279	0.006
-738.069	-21.999	-0.403	0.246
-737.054	-50.725	0.045	-0.021
-736.039	-26.958	-0.235	0.138
-735.025	480.927	0.075	-0.170
-734.010	-200.000	-0.009	-0.334
-732.996	6.569	-0.250	-0.187
-731.981	577.449	0.022	-0.054
-730.966	-183.518	0.136	0.002
-729.952	112.447	-0.245	-0.298
-728.937	800.000	0.121	-0.388
-727.923	-46.585	-0.130	-0.064
-726.908	144.999	-0.173	-0.233
-725.894	132.826	0.110	-0.143
-724.879	-5.457	-0.191	-0.132
-723.864	-68.831	-0.303	0.118
-722.850	-48.209	0.014	-0.007
-721.835	-200.000	0.007	0.068
-720.821	295.674	-0.128	-0.236
-719.806	-107.713	-0.159	-0.035
-718.791	-166.187	-0.265	0.011
-717.777	-200.000	0.059	0.441
-716.762	135.095	0.109	-0.143
-715.748	-4.248	0.098	0.068
-714.733	60.131	0.141	0.141
-713.718	800.000	-0.081	0.260
-712.704	-30.161	-0.194	-0.111
-711.689	175.224	0.083	0.121
-710.675	67.737	-0.071	0.072
-709.660	120.449	-0.058	0.072
-708.645	-200.000	0.016	0.163
-707.631	-200.000	-0.010	-0.058
-706.616	288.092	0.019	-0.034
-705.602	165.474	-0.350	-0.497
-704.587	-136.188	-0.370	0.043
-703.572	28.534	0.361	-0.307
-702.558	-200.000	0.014	0.260
-701.543	-200.000	-0.043	0.266
-700.529	234.472	-0.134	0.223
-699.514	-24.198	-0.208	-0.124
-698.499	-35.514	0.124	-0.068
-697.485	-84.106	-0.183	0.058
-696.470	146.479	-0.179	0.241
-695.456	-45.893	-0.211	-0.105
-694.441	-90.596	-0.198	-0.058
-693.426	-18.125	-0.297	0.187
-692.412	2.675	0.308	0.225
-691.397	-200.000	-0.022	-0.244
-690.383	-83.336	0.293	-0.094
-689.368	-3.238	0.099	0.069
-688.354	800.000	-0.071	-0.211
-687.339	-113.027	-0.143	-0.028
-686.324	15.850	0.122	-0.097
-685.310	-147.185	-0.155	-0.013
-684.295	338.505	-0.046	-0.090
-683.281	-200.000	-0.000	-0.291
-682.266	176.847	-0.053	-0.077
-681.251	-59.911	-0.009	-0.004
-680.237	-95.363	-0.257	0.069
-679.222	-200.000	0.061	0.271
-678.208	31.848	0.058	-0.050
-677.193	800.000	-0.062	-0.230
-676.178	-17.718	0.076	-0.048
-675.164	-200.000	-0.014	0.200
-674.149	49.742	-0.022	-0.021
-673.135	-184.834	-0.042	0.001
-672.120	49.005	-0.217	0.204
-671.105	-200.000	-0.007	-0.144
-670.091	-50.138	-0.319	-0.152
-669.076	-25.351	0.043	0.025
-668.062	235.380	0.157	0.260
-667.047	99.511	-0.157	0.183
-666.032	-125.353	0.202	-0.031
-665.018	-142.239	0.089	-0.009
-664.003	-65.628	0.133	-0.053
-662.989	433.840	0.087	0.189
-661.974	800.000	0.092	-0.306
-660.959	-189.775	-0.189	0.002
-659.945	-123.952	0.118	-0.019
-658.930	70.310	-0.129	-0.133
-657.916	288.593	-0.138	-0.250
-656.901	1.749	0.310	-0.224
-655.886	149.759	0.197	-0.268
-654.872	800.000	0.159	0.488
-653.857	16.149	0.125	0.099
-652.843	22.315	0.115	0.094
-651.828	544.043	0.039	-0.093
-650.814	-39.318	-0.288	-0.152
-649.799	496.780	0.010	0.024
-648.784	-200.000	0.029	-0.219
-647.770	-200.000	0.012	-0.076
-646.755	-113.405	-0.289	-0.057
-645.741	-200.000	-0.054	0.251
-644.726	117.945	0.218	-0.270
-643.711	-200.000	-0.070	0.357
-642.697	79.163	0.302	-0.324
-641.682	75.843	0.142	0.151
-640.668	800.000	-0.006	-0.020
-639.653	-101.151	-0.157	-0.038
-638.638	800.000	0.045	-0.146
-637.624	-71.205	-0.201	-0.076
-636.609	800.000	0.034	0.135
-635.595	38.868	-0.229	0.205
-634.580	-80.160	0.400	0.134
-633.565	-95.256	0.187	0.050
-632.551	335.245	-0.163	0.316
-631.536	-153.323	-0.262	-0.018
-630.522	308.859	-0.058	-0.109
-629.507	-20.776	-0.118	0.072
-628.492	400.112	0.113	0.237
-627.478	800.000	0.098	0.315
-626.463	800.000	-0.099	-0.335
-625.449	-8.390	-0.271	-0.182
-624.434	9.482	-0.308	0.234
-623.419	800.000	0.046	0.159
-622.405	75.500	0.170	-0.179
-621.390	-162.243	-0.199	-0.010
-620.376	-32.596	-0.113	0.063
-619.361	-200.000	0.013	-0.110
-618.346	237.555	0.135	0.224
-617.332	313.451	0.034	0.064
-616.317	318.712	-0.043	-0.081
-615.303	-31.627	0.252	0.141
-614.288	-115.180	-0.291	0.055
-613.273	362.583	0.077	-0.156
-612.259	-200.000	-0.002	-0.024
-611.244	-189.538	0.141	-0.002
-610.230	-19.191	0.057	-0.035
-609.215	-122.175	-0.157	0.026
-608.201	800.000	-0.029	0.108
-607.186	-138.193	0.151	0.017
-606.171	-143.516	-0.267	-0.025
-605.157	-200.000	-0.006	-0.180
-604.142	64.761	0.158	-0.159
-603.128	721.044	-0.048	-0.129
-602.113	123.273	0.177	-0.222
-601.098	115.443	-0.245	-0.300
-600.084	135.780	0.095	0.124
-599.069	-200.000	-0.017	0.185
-598.055	63.015	-0.037	-0.037
-597.040	-3.616	0.137	0.095
-596.025	488.729	-0.053	0.122
-595.011	-85.259	-0.086	-0.027
-593.996	-64.466	0.278	0.113
-592.982	118.538	-0.059	-0.073
-591.967	-123.334	0.138	0.022
-590.952	163.842	-0.100	0.141
-589.938	-128.880	-0.332	0.047
-588.923	123.791	-0.097	0.122
-587.909	-141.145	-0.197	0.020
-586.894	-110.192	0.160	-0.033
-585.879	800.000	-0.084	0.335
-584.865	350.018	-0.196	0.386
-583.850	-41.161	-0.037	-0.019
-582.836	-123.918	0.267	-0.042
-581.821	-200.000	-0.008	0.128
-580.806	-56.561	-0.308	-0.137
-579.792	276.660	0.032	-0.056
-578.777	44.075	0.084	0.077
-577.763	37.821	0.270	-0.240
-576.748	81.106	-0.132	0.143
-575.733	-14.557	0.078	0.050
-574.719	30.676	0.150	0.128
-573.704	-62.980	0.101	0.042
-572.690	-166.201	-0.460	-0.019
-571.675	127.515	-0.140	-0.177
-570.661	59.264	-0.086	-0.084
-569.646	181.856	0.042	0.061
-568.631	202.920	-0.102	-0.158
-567.617	-148.547	-0.155	-0.013
-566.602	414.803	0.077	-0.165
-565.588	-63.978	-0.383	-0.157
-564.573	540.343	-0.125	-0.297
-563.558	59.765	-0.114	-0.112
-562.544	-200.000	0.007	-0.228
-561.529	-30.690	0.157	-0.089
-560.515	-47.232	-0.174	-0.085
-559.500	-121.371	0.252	0.042
-558.485	-98.361	-0.091	0.023
-557.471	800.000	0.063	-0.188
-556.456	-200.000	0.011	0.099
-555.442	-80.785	0.409	-0.136
-554.427	672.183	-0.132	0.341
-553.412	800.000	-0.060	-0.232
-552.398	629.619	-0.157	-0.396
-551.383	54.593	0.098	-0.094
-550.369	800.000	0.085	-0.301
-549.354	-11.324	0.046	0.030
-548.339	98.882	0.127	0.147
-547.325	136.742	-0.214	-0.279
-546.310	321.072	-0.042	-0.081
-545.296	-41.304	0.132	0.068
-544.281	321.688	-0.122	-0.231
-543.266	-27.792	-0.230	0.133
-542.252	-37.244	0.149	-0.080
-541.237	-78.172	0.072	-0.025
-540.223	800.000	-0.042	-0.120
-539.208	418.580	0.092	-0.196
-538.193	419.972	0.114	0.244
-537.179	97.827	0.313	0.360
-536.164	132.908	0.163	0.209
-535.150	-41.317	0.134	-0.069
-534.135	392.278	-0.044	-0.090
-533.121	145.817	0.092	0.124
-532.106	203.294	-0.056	-0.087
-531.091	573.912	0.125	-0.305
-530.077	-200.000	-0.042	0.190
-529.062	-158.387	-0.165	0.010
-528.048	82.175	0.223	-0.241
-527.033	220.754	-0.024	0.038
-526.018	-28.092	0.249	0.144
-525.004	96.716	0.122	-0.139
-523.989	114.676	0.190	0.231
-522.975	-111.745	-0.111	0.022
-521.960	90.041	0.212	-0.236
-520.945	-50.082	0.173	0.082
-519.931	-103.093	0.334	0.079
-518.916	-200.000	0.018	-0.171
-517.902	-200.000	0.022	-0.112
-516.887	-200.000	-0.034	0.205
-515.872	-119.243	0.171	0.030
-514.858	-150.255	-0.378	-0.029
-513.843	-60.891	-0.112	0.047
-512.829	-24.933	-0.334	0.198
-511.814	-7.154	-0.201	-0.136
-510.799	-200.000	0.032	0.202
-509.785	48.625	-0.296	0.276
-508.770	800.000	-0.016	-0.047
-507.756	496.761	0.093	-0.214
-506.741	800.000	-0.057	0.169
-505.726	800.000	0.007	-0.019
-504.712	98.766	-0.206	0.237
-503.697	50.714	0.119	-0.112
-502.683	149.146	0.103	-0.139
-501.668	-54.248	-0.245	-0.111
-500.653	20.670	0.211	0.170
-499.639	12.563	-0.148	-0.114
-498.624	-55.962	0.129	-0.057
-497.610	-24.311	0.038	0.022
-496.595	47.398	0.105	0.098
-495.581	323.608	-0.124	0.235
-494.566	68.581	0.177	-0.181
-493.551	-200.000	0.007	0.061
-492.537	121.617	0.149	-0.185
-491.522	23.430	0.155	0.127
-490.508	-142.963	0.261	0.025
-489.493	38.092	0.312	-0.277
-488.478	304.682	0.124	-0.229
-487.464	278.080	0.126	0.224
-486.449	513.258	-0.241	0.560
-485.435	-88.050	0.145	-0.044
-484.420	83.506	-0.141	-0.153
-483.405	800.000	-0.010	-0.033
-482.391	47.092	-0.323	0.300
-481.376	-94.998	0.111	0.030
-480.362	-200.000	0.016	-0.080
-479.347	-123.933	0.170	0.027
-478.332	-132.122	0.097	-0.013
-477.318	218.254	-0.213	-0.339
-476.303	-129.590	-0.042	0.006
-475.289	88.708	-0.127	-0.141
-474.274	22.378	-0.056	-0.046
-473.259	-111.159	-0.138	-0.028
-472.245	97.127	-0.212	0.243
-471.230	353.434	-0.063	0.125
-470.216	270.337	0.044	-0.077
-469.201	-51.236	-0.359	0.167
-468.186	800.000	0.109	0.341
-467.172	314.736	0.156	0.293
-466.157	695.537	0.067	-0.176
-465.143	210.814	-0.206	0.322
-464.128	41.214	-0.132	0.119
-463.113	-164.398	0.457	-0.021
-462.099	-103.753	0.162	0.038
-461.084	52.120	0.066	0.063
-460.070	-200.000	-0.007	0.039
-459.055	668.508	-0.025	0.063
-458.040	-200.000	-0.014	-0.081
-457.026	72.458	-0.131	0.135
-456.011	139.492	0.077	0.101
-454.997	43.046	0.289	-0.262
-453.982	-200.000	0.006	0.105
-452.968	32.367	-0.270	0.232
-451.953	22.562	-0.039	0.032
-450.938	64.838	-0.106	-0.107
-449.924	800.000	-0.061	0.202
-448.909	-22.692	-0.138	-0.083
-447.895	28.131	-0.182	-0.153
-446.880	800.000	0.024	0.100
-445.865	-85.061	0.185	0.058
-444.851	-120.123	-0.262	0.045
-443.836	-115.373	-0.351	-0.066
-442.822	214.390	-0.124	0.195
-441.807	-30.001	0.265	-0.150
-440.792	800.000	0.059	-0.213
-439.778	9.163	-0.166	0.124
-438.763	41.224	0.153	0.137
-437.749	466.080	0.101	-0.224
-436.734	800.000	-0.016	0.045
-435.719	-13.131	0.078	0.051
-434.705	-108.079	0.113	-0.024
-433.690	238.146	-0.149	-0.246
-432.676	-10.510	0.205	-0.135
-431.661	-177.430	0.417	0.010
-430.646	-189.446	0.371	0.004
-429.632	800.000	0.088	0.261
-428.617	179.853	-0.074	0.107
-427.603	-63.926	0.151	0.061
-426.588	-106.472	-0.428	-0.095
-425.573	800.000	-0.103	-0.304
-424.559	76.770	0.155	-0.164
-423.544	209.495	0.124	0.193
-422.530	79.368	-0.172	0.183
-421.515	651.860	-0.104	-0.265
-420.500	-93.847	-0.328	-0.090
-419.486	-137.916	0.255	-0.028
-418.471	-155.984	0.377	0.024
-417.457	6.636	-0.448	-0.331
-416.442	800.000	0.018	0.048
-415.428	-8.768	0.195	0.130
-414.413	96.338	-0.091	0.104
-413.398	11.200	-0.201	-0.153
-412.384	550.384	-0.075	-0.178
-411.369	-35.035	0.094	-0.051
-410.355	254.314	0.065	0.110
-409.340	-20.466	0.132	0.081
-408.325	-105.203	-0.324	0.073
-407.311	149.819	-0.063	0.085
-406.296	45.958	0.119	0.109
-405.282	273.694	-0.024	-0.042
-404.267	47.796	0.204	-0.189
-403.252	184.044	-0.265	-0.389
-402.238	676.643	0.106	-0.273
-401.223	-200.000	-0.023	0.313
-400.209	189.375	-0.250	0.372
-399.194	-76.451	0.244	0.085
-398.179	137.426	-0.039	-0.051
-397.165	-200.000	0.062	-0.293
-396.150	174.627	0.101	-0.145
-395.136	-200.000	-0.030	0.171
-394.121	94.552	0.304	-0.343
-393.106	113.030	-0.159	0.191
-392.092	-150.135	0.341	0.026
-391.077	178.225	-0.159	0.230
-390.063	115.030	0.072	0.088
-389.048	53.627	0.120	0.115
-388.033	-200.000	-0.024	0.242
-387.019	-3.510	-0.083	0.057
-386.004	800.000	-0.065	-0.229
-384.990	-74.745	-0.078	0.028
-383.975	-29.456	0.112	0.064
-382.960	-95.427	-0.155	-0.041
-381.946	-200.000	-0.009	-0.140
-380.931	-131.132	0.124	0.016
-379.917	683.157	0.015	0.038
-378.902	2.420	0.086	-0.062
-377.888	-97.934	-0.255	-0.065
-376.873	-200.000	-0.025	0.262
-375.858	-200.000	-0.008	0.375
-374.844	-200.000	-0.009	0.066
-373.829	-80.208	-0.447	-0.148
-372.815	-127.859	0.199	0.028
-371.800	-45.718	0.338	0.166
-370.785	-47.575	-0.310	0.149
-369.771	-174.892	0.144	-0.004
-368.756	45.686	0.177	-0.162
-367.742	-200.000	0.035	0.276
-366.727	91.956	-0.167	0.186
-365.712	-100.163	-0.089	-0.022
-364.698	65.392	0.069	-0.069
-363.683	-14.036	0.019	0.012
-362.669	397.473	-0.060	0.125
-361.654	91.138	-0.160	-0.178
-360.639	-18.273	0.160	0.099
-359.625	-117.449	0.194	0.035
-358.610	-15.899	-0.102	-0.065
-357.596	-130.184	-0.189	-0.026
-356.581	9.541	-0.167	0.125
-355.566	461.756	0.040	0.089
-354.552	-166.257	0.162	0.007
-353.537	800.000	-0.041	0.163
-352.523	-5.092	-0.240	-0.164
-351.508	179.000	-0.059	-0.085
-350.493	-101.653	0.163	0.039
-349.479	-75.120	-0.266	0.094
-348.464	95.678	0.073	-0.083
-347.450	143.172	-0.090	0.119
-346.435	128.367	-0.096	-0.121
-345.420	195.563	0.102	-0.154
-344.406	-73.513	-0.247	0.089
-343.391	-150.633	0.186	0.014
-342.377	-29.692	0.020	-0.012
-341.362	-47.871	-0.204	-0.098
-340.348	-105.976	-0.340	-0.076
-339.333	-93.044	0.170	-0.047
-338.318	-62.545	-0.234	0.096
-337.304	274.075	0.158	-0.276
-336.289	-109.459	0.435	-0.091
-335.275	18.406	0.167	-0.132
-334.260	-59.629	-0.220	-0.093
-333.245	43.262	-0.116	-0.105
-332.231	498.869	-0.122	-0.278
-331.216	-200.000	-0.063	-0.289
-330.202	94.206	0.234	-0.263
-329.187	126.376	0.078	0.098
-328.172	-40.457	-0.083	-0.043
-327.158	63.208	-0.135	0.134
-326.143	14.630	0.274	-0.212
-325.129	13.953	0.123	0.095
-324.114	17.222	-0.326	-0.256
-323.099	636.036	-0.078	-0.196
-322.085	-109.674	-0.156	-0.033
-321.070	-1.521	0.165	0.115
-320.056	800.000	-0.052	-0.210
-319.041	180.085	0.183	-0.266
-318.026	-66.916	-0.345	0.135
-317.012	-200.000	-0.100	0.580
-315.997	-45.700	0.147	-0.072
-314.983	-43.925	-0.223	-0.111
-313.968	22.997	0.108	-0.087
-312.953	800.000	0.030	0.114
-311.939	-46.887	0.469	0.227
-310.924	209.576	-0.097	0.151
-309.910	800.000	0.026	-0.090
-308.895	-200.000	-0.064	-0.330
-307.880	205.143	-0.136	0.209
-306.866	800.000	0.088	-0.374
-305.851	-200.000	0.010	-0.117
-304.837	800.000	0.087	-0.280
-303.822	-109.682	-0.603	-0.126
-302.807	-200.000	-0.028	-0.165
-301.793	-200.000	0.007	0.275
-300.778	-29.203	-0.122	0.069
-299.764	257.751	0.026	0.044
-298.749	217.503	0.074	0.117
-297.735	-59.044	-0.174	0.074
-296.720	-200.000	-0.004	0.115
-295.705	109.056	0.251	0.297
-294.691	400.102	0.102	0.211
-293.676	-136.064	0.209	0.024
-292.662	-53.089	0.085	0.038
-291.647	800.000	-0.049	-0.168
-290.632	64.360	0.140	0.139
-289.618	-15.852	0.117	0.074
-288.603	231.441	0.151	0.244
-287.589	-151.722	0.211	0.015
-286.574	800.000	-0.029	-0.081
-285.559	112.735	-0.176	0.211
-284.545	412.291	-0.053	0.112
-283.530	-82.918	-0.342	-0.109
-282.516	316.403	0.128	0.238
-281.501	-137.569	0.263	-0.029
-280.486	-61.125	-0.266	0.111
-279.472	-51.680	0.123	-0.057
-278.457	-200.000	0.063	-0.348
-277.443	800.000	-0.046	0.179
-276.428	-175.724	-0.402	0.011
-275.413	79.435	-0.339	0.359
-274.399	106.394	-0.148	-0.174
-273.384	-149.811	-0.229	0.018
-272.370	94.940	-0.294	-0.330
-271.355	800.000	-0.044	-0.121
-270.340	-65.250	-0.140	-0.056
-269.326	24.069	-0.169	-0.138
-268.311	-1.606	-0.054	-0.037
-267.297	-200.000	0.017	-0.229
-266.282	-200.000	0.021	0.400
-265.267	800.000	0.081	0.271
-264.253	-200.000	0.068	-0.317
-263.238	-200.000	-0.016	-0.076
-262.224	-30.558	0.414	-0.232
-261.209	-194.443	-0.347	-0.003
-260.195	800.000	0.069	-0.191
-259.180	49.963	-0.220	-0.205
-258.165	542.791	0.017	0.039
-257.151	98.930	0.228	0.260
-256.136	15.538	-0.038	-0.029
-255.122	214.294	-0.013	0.020
-254.107	-174.999	-0.291	-0.008
-253.092	-55.111	0.128	0.057
-252.078	239.110	-0.198	0.325
-251.063	-130.389	0.488	0.065
-250.049	33.649	-0.156	0.134
-249.034	800.000	-0.011	-0.031
-248.019	296.756	0.060	0.109
-247.005	676.486	0.056	0.145
-245.990	401.942	-0.044	0.091
-244.976	171.243	-0.188	-0.267
-243.961	-159.374	0.159	-0.009
-242.946	30.810	0.154	-0.130
-241.932	305.660	0.102	-0.187
-240.917	-39.066	-0.152	0.079
-239.903	225.464	0.146	-0.234
-238.888	417.597	0.145	-0.306
-237.873	-168.248	0.144	-0.005
-236.859	-135.449	0.392	-0.046
-235.844	-72.339	-0.254	-0.093
-234.830	-200.000	-0.031	0.164
-233.815	-200.000	0.033	0.244
-232.800	-200.000	-0.019	0.090
-231.786	-9.321	0.121	0.080
-230.771	-120.543	0.226	-0.038
-229.757	29.361	0.203	-0.170
-228.742	51.788	-0.262	0.245
-227.727	450.197	-0.048	-0.104
-226.713	-76.230	-0.198	0.069
-225.698	20.192	-0.242	0.192
-224.684	628.105	0.052	0.128
-223.669	-200.000	0.006	-0.065
-222.655	3.500	0.261	-0.188
-221.640	800.000	-0.017	0.058
-220.625	-97.655	0.354	0.090
-219.611	463.388	-0.133	-0.294
-218.596	25.586	-0.143	-0.117
-217.582	49.489	-0.144	-0.134
-216.567	429.535	0.131	-0.280
-215.552	365.750	-0.167	0.332
-214.538	280.570	-0.093	-0.164
-213.523	663.289	0.246	0.625
-212.509	-55.663	0.264	-0.117
-211.494	800.000	-0.082	-0.271
-210.479	800.000	-0.057	0.222
-209.465	-200.000	-0.012	-0.339
-208.450	-200.000	-0.008	-0.145
-207.436	-200.000	-0.019	0.091
-206.421	-200.000	0.019	0.108
-205.406	-11.928	-0.070	0.045
-204.392	-200.000	-0.012	0.569
-203.377	800.000	-0.010	0.028
-202.363	10.913	-0.145	-0.109
-201.348	-41.654	0.231	0.117
-200.333	800.000	-0.044	0.161
-199.319	-104.407	0.169	-0.038
-198.304	-150.658	-0.070	0.005
-197.290	800.000	-0.083	0.308
-196.275	8.908	0.162	-0.120
-195.260	-21.644	0.174	-0.104
-194.246	-72.722	-0.262	-0.095
-193.231	-151.827	0.773	0.056
-192.217	-200.000	0.001	0.021
-191.202	-58.266	-0.156	0.067
-190.187	-156.176	-0.209	-0.013
-189.173	-200.000	-0.010	-0.220
-188.158	-29.204	-0.069	0.039
-187.144	-51.726	0.194	-0.089
-186.129	-200.000	0.129	0.590
-185.114	214.749	0.158	0.246
-184.100	22.173	-0.168	-0.135
-183.085	-200.000	-0.025	-0.217
-182.071	252.598	-0.089	-0.150
-181.056	-200.000	-0.211	-0.000
-180.042	-42.511	-0.087	-0.043
-179.027	13.024	-0.147	-0.112
-178.012	39.748	-0.181	0.160
-176.998	-54.007	0.327	0.147
-175.983	327.814	-0.054	0.102
-174.969	-200.000	-0.003	-0.299
-173.954	-12.591	0.291	-0.187
-172.939	24.016	0.279	-0.227
-171.925	-25.904	0.114	-0.066
-170.910	53.357	0.149	-0.140
-169.896	800.000	0.068	-0.243
-168.881	161.621	0.023	0.031
-167.866	-159.472	0.137	0.008
-166.852	388.532	-0.048	0.098
-165.837	176.004	-0.072	-0.103
-164.823	-200.000	-0.012	0.128
-163.808	-37.951	0.102	0.053
-162.793	80.849	0.054	0.057
-161.779	-142.127	0.220	0.021
-160.764	73.679	0.059	-0.060
-159.750	77.954	-0.053	0.056
-158.735	-70.253	-0.255	0.095
-157.720	-200.000	-0.014	-0.108
-156.706	800.000	0.009	-0.036
-155.691	-48.411	0.085	-0.040
-154.677	328.356	-0.028	-0.053
-153.662	69.808	-0.134	-0.135
-152.647	-138.081	0.287	-0.031
-151.633	197.165	0.081	0.121
-150.618	-164.475	0.249	-0.011
-149.604	-125.166	0.219	0.033
-148.589	-122.684	0.228	-0.036
-147.574	800.000	0.118	-0.326
-146.560	-76.000	-0.163	-0.057
-145.545	-200.000	-0.047	0.406
-144.531	-90.422	0.076	-0.022
-143.516	-78.483	-0.069	0.023
-142.502	-72.374	-0.262	-0.095
-141.487	-0.062	0.166	0.116
-140.472	31.364	-0.225	0.190
-139.458	-97.259	0.181	0.046
-138.443	651.889	0.014	-0.035
-137.429	-43.876	0.135	-0.067
-136.414	154.313	0.207	0.279
-135.399	4.660	-0.339	-0.245
-134.385	-20.654	-0.105	0.063
-133.370	-23.431	-0.202	-0.119
-132.356	800.000	0.044	0.176
-131.341	-5.362	0.100	0.068
-130.326	-9.678	0.235	0.154
-129.312	71.979	-0.030	-0.031
-128.297	233.559	-0.072	-0.117
-127.283	-36.341	0.090	-0.048
-126.268	-92.292	0.161	0.045
-125.253	-153.804	0.136	0.009
-124.239	138.839	0.282	-0.363
-123.224	-169.352	0.228	-0.008
-122.210	82.493	0.032	-0.034
-121.195	-200.000	0.014	0.133
-120.180	18.833	-0.049	0.039
