DTS Sentinel unit serial number:	SN413079Multiplexer serial number:	ORYXHardware model number:	OX4-SRSoftware version number:	ORYX F/W v4.00 Oryx Data Collector v3.7.2.0data status	okinstallation	princeton_trtdifferential loss correction	single-endedforward channel	channel 1reverse channel	N/Adate	2019/09/19time	10:46:35forward acquisition time	60.00reverse acquisition time	0.00gamma	496.2192k internal	0.2338k external	0.2338temperature offset calibration	1.0009default loss term (dB/km)	0.3790temperature slope calibration	1.0000multiplexer offset coefficient	1.0000multiplexer slope coefficient	1.0000fibre end	0.00T internal ref (°C)	24.67T ext. ref 1 (°C)	0.73T ext. ref 2 (°C)	20.07length (m)	temperature (°C)	Stokes	anti-Stokes-747.200	-200.000	0.114	-0.001
-746.185	73.414	-0.190	0.199
-745.171	157.278	-0.177	-0.246
-744.156	-200.000	-0.000	0.207
-743.142	73.704	0.079	-0.083
-742.127	36.346	-0.370	0.327
-741.112	223.704	0.066	0.107
-740.098	-200.000	0.001	0.545
-739.083	-200.000	0.053	0.403
-738.069	-200.000	0.033	0.335
-737.054	321.603	0.007	-0.014
-736.039	269.348	-0.203	0.357
-735.025	160.957	0.096	0.135
-734.010	79.943	-0.029	-0.031
-732.996	-1.980	0.353	-0.249
-731.981	-92.274	0.050	0.014
-730.966	-73.537	-0.294	0.107
-729.952	-121.724	-0.124	-0.021
-728.937	89.046	-0.145	0.162
-727.923	-92.640	0.129	-0.036
-726.908	79.277	-0.116	-0.125
-725.894	66.766	-0.228	-0.233
-724.879	-104.501	-0.386	0.089
-723.864	246.762	0.020	-0.034
-722.850	779.234	-0.013	-0.036
-721.835	-33.314	-0.206	0.114
-720.821	-165.759	0.337	-0.015
-719.806	-200.000	-0.043	-0.255
-718.791	-102.482	-0.104	-0.025
-717.777	128.665	-0.099	0.127
-716.762	-21.845	0.115	0.070
-715.748	-79.878	0.276	-0.093
-714.733	-118.513	-0.107	-0.019
-713.718	-200.000	-0.059	0.296
-712.704	-132.040	0.130	0.017
-711.689	354.480	0.009	0.018
-710.675	-200.000	-0.032	0.217
-709.660	-200.000	0.015	0.184
-708.645	24.471	-0.200	-0.165
-707.631	-131.757	-0.087	0.011
-706.616	-98.419	0.095	0.024
-705.602	-200.000	0.043	-0.341
-704.587	17.604	-0.156	-0.124
-703.572	274.963	-0.126	-0.224
-702.558	6.890	0.136	-0.101
-701.543	-200.000	-0.025	-0.501
-700.529	104.616	0.163	0.192
-699.514	343.904	0.038	-0.075
-698.499	-200.000	0.009	0.288
-697.485	-136.657	0.176	0.020
-696.470	-102.441	0.230	-0.055
-695.456	-29.613	0.293	-0.167
-694.441	42.376	0.256	-0.233
-693.426	-56.052	0.097	0.043
-692.412	-95.071	0.237	0.064
-691.397	800.000	0.051	0.151
-690.383	-77.894	0.229	-0.079
-689.368	-43.334	0.212	-0.107
-688.354	-200.000	-0.002	-0.195
-687.339	62.147	0.115	-0.115
-686.324	104.427	0.152	-0.180
-685.310	-47.463	0.063	0.031
-684.295	26.457	0.071	-0.059
-683.281	160.269	0.168	-0.234
-682.266	-109.416	0.156	-0.033
-681.251	55.631	0.093	-0.090
-680.237	525.476	-0.114	0.268
-679.222	-125.114	0.444	-0.068
-678.208	-25.520	-0.298	-0.176
-677.193	-116.431	-0.278	0.051
-676.178	-200.000	0.080	-0.445
-675.164	-148.378	-0.390	0.032
-674.149	-200.000	0.033	-0.164
-673.135	285.368	-0.105	0.190
-672.120	-57.911	0.397	-0.173
-671.105	-68.543	-0.165	-0.064
-670.091	800.000	0.035	0.100
-669.076	800.000	0.040	0.118
-668.062	800.000	0.059	-0.165
-667.047	-82.218	0.258	-0.084
-666.032	-87.284	0.218	0.066
-665.018	8.283	0.260	0.195
-664.003	-200.000	-0.035	-0.155
-662.989	-200.000	-0.087	-0.419
-661.974	210.361	0.130	-0.204
-660.959	114.019	0.121	-0.147
-659.945	-200.000	-0.004	0.382
-658.930	35.020	0.086	0.075
-657.916	-179.712	-0.265	0.006
-656.901	-46.396	-0.147	-0.072
-655.886	-172.397	0.427	0.014
-654.872	-106.341	0.168	0.038
-653.857	-42.527	0.191	0.098
-652.843	-59.927	-0.381	-0.163
-651.828	475.927	0.085	-0.191
-650.814	109.087	0.197	0.236
-649.799	-20.551	-0.213	0.131
-648.784	-200.000	-0.036	-0.358
-647.770	-16.066	-0.059	0.038
-646.755	-185.368	0.339	-0.005
-645.741	353.691	-0.080	0.158
-644.726	-24.143	-0.124	-0.074
-643.711	17.648	-0.172	0.137
-642.697	84.589	0.224	0.245
-641.682	259.510	-0.115	0.198
-640.668	-1.996	0.152	0.106
-639.653	-130.910	0.302	-0.040
-638.638	-28.589	0.050	-0.029
-637.624	-38.676	-0.083	-0.044
-636.609	-200.000	0.056	0.318
-635.595	-43.301	0.211	0.107
-634.580	269.992	0.074	0.129
-633.565	183.088	0.091	0.134
-632.551	201.789	-0.177	0.273
-631.536	-100.473	-0.262	-0.065
-630.522	-152.143	-0.243	0.018
-629.507	86.960	0.182	-0.200
-628.492	-143.384	0.276	-0.026
-627.478	-116.986	-0.314	-0.057
-626.463	14.563	-0.274	0.213
-625.449	196.697	-0.085	0.130
-624.434	137.319	-0.127	-0.166
-623.419	280.631	-0.081	0.144
-622.405	650.955	-0.123	-0.316
-621.390	-26.114	-0.178	0.104
-620.376	205.411	-0.134	0.208
-619.361	800.000	-0.113	0.325
-618.346	-160.664	0.137	0.007
-617.332	55.600	-0.133	-0.129
-616.317	270.745	0.034	0.061
-615.303	-102.903	-0.039	0.009
-614.288	0.295	-0.094	-0.067
-613.273	-80.062	0.250	-0.084
-612.259	-16.166	-0.281	0.178
-611.244	-103.068	-0.198	-0.047
-610.230	-27.788	-0.071	0.041
-609.215	-115.955	0.372	0.069
-608.201	-200.000	0.024	-0.137
-607.186	-130.314	0.111	0.015
-606.171	-149.289	-0.190	-0.015
-605.157	226.224	0.062	0.100
-604.142	800.000	-0.051	-0.201
-603.128	-154.313	-0.012	-0.001
-602.113	-187.227	0.382	0.005
-601.098	616.873	-0.186	0.467
-600.084	-23.846	0.219	0.131
-599.069	-81.988	0.181	-0.059
-598.055	211.334	0.173	-0.272
-597.040	198.688	0.256	-0.391
-596.025	-200.000	-0.065	0.392
-595.011	-67.784	-0.329	-0.129
-593.996	800.000	-0.106	-0.458
-592.982	-200.000	0.011	-0.050
-591.967	84.126	0.081	0.088
-590.952	-131.196	-0.096	0.013
-589.938	-200.000	-0.020	0.132
-588.923	13.435	-0.171	0.132
-587.909	643.831	0.117	-0.297
-586.894	-66.476	-0.433	0.172
-585.879	-200.000	0.016	-0.257
-584.865	60.982	-0.346	-0.342
-583.850	6.424	-0.014	0.011
-582.836	45.805	0.194	0.179
-581.821	800.000	0.075	-0.260
-580.806	591.130	0.051	0.125
-579.792	-23.635	-0.281	0.168
-578.777	-200.000	-0.012	0.164
-577.763	564.541	0.023	-0.055
-576.748	66.754	-0.241	-0.244
-575.733	-200.000	-0.051	0.511
-574.719	-54.623	0.364	-0.164
-573.704	425.061	0.145	-0.310
-572.690	-107.911	0.419	0.091
-571.675	132.485	-0.108	0.139
-570.661	219.033	-0.157	0.250
-569.646	-137.181	0.361	0.041
-568.631	28.812	0.145	0.122
-567.617	-31.848	0.196	0.110
-566.602	-200.000	-0.020	-0.353
-565.588	217.849	-0.168	-0.267
-564.573	800.000	0.033	-0.114
-563.558	-200.000	-0.022	-0.168
-562.544	800.000	0.041	-0.121
-561.529	190.400	0.237	-0.355
-560.515	-57.554	-0.360	0.157
-559.500	-200.000	0.036	0.306
-558.485	-25.898	0.277	0.163
-557.471	183.234	-0.195	0.286
-556.456	-166.616	0.138	0.006
-555.442	-93.480	-0.100	0.027
-554.427	-92.728	-0.394	-0.110
-553.412	800.000	0.091	0.338
-552.398	96.046	-0.274	-0.311
-551.383	-200.000	0.031	-0.238
-550.369	194.869	0.083	0.125
-549.354	-65.652	0.249	-0.100
-548.339	800.000	0.127	0.420
-547.325	7.912	-0.099	0.074
-546.310	800.000	-0.055	0.215
-545.296	-37.360	0.237	0.126
-544.281	-200.000	-0.008	-0.233
-543.266	-111.452	-0.238	0.048
-542.252	46.581	-0.256	0.237
-541.237	800.000	0.064	0.232
-540.223	-1.101	0.363	-0.255
-539.208	-200.000	0.022	-0.242
-538.193	72.081	0.010	-0.010
-537.179	-200.000	0.009	-0.084
-536.164	165.993	0.057	0.081
-535.150	41.506	0.060	0.054
-534.135	-61.397	-0.398	0.167
-533.121	-200.000	-0.061	0.328
-532.106	287.838	0.132	-0.237
-531.091	277.421	-0.236	0.418
-530.077	55.187	0.261	0.251
-529.062	-200.000	-0.004	0.283
-528.048	130.071	-0.032	-0.041
-527.033	800.000	0.063	-0.271
-526.018	107.641	0.038	0.045
-525.004	61.004	-0.425	-0.419
-523.989	50.992	0.251	-0.237
-522.975	62.755	0.066	0.065
-521.960	49.294	-0.185	-0.173
-520.945	-130.914	0.312	0.042
-519.931	800.000	-0.063	-0.228
-518.916	-22.878	0.509	-0.305
-517.902	-12.227	-0.258	-0.168
-516.887	-200.000	0.018	-0.186
-515.872	8.260	0.245	-0.183
-514.858	-155.313	-0.253	-0.016
-513.843	151.784	0.125	-0.170
-512.829	-104.956	-0.083	0.019
-511.814	150.068	-0.050	0.068
-510.799	292.318	-0.065	0.118
-509.785	42.187	-0.074	0.067
-508.770	-118.503	-0.277	-0.049
-507.756	284.399	0.132	-0.235
-506.741	-21.904	0.087	-0.053
-505.726	-80.162	-0.225	-0.075
-504.712	-52.041	0.227	0.105
-503.697	121.332	0.385	-0.477
-502.683	-119.194	0.081	0.014
-501.668	800.000	0.040	-0.165
-500.653	7.207	0.118	-0.087
-499.639	-43.272	-0.175	-0.088
-498.624	161.552	-0.141	-0.197
-497.610	44.157	0.175	0.159
-496.595	-200.000	0.030	0.298
-495.581	-200.000	-0.079	0.403
-494.566	-107.638	-0.370	-0.080
-493.551	800.000	0.043	0.129
-492.537	15.576	0.224	-0.175
-491.522	323.963	-0.093	0.177
-490.508	18.487	-0.101	-0.080
-489.493	-60.990	-0.078	-0.033
-488.478	-200.000	0.025	0.167
-487.464	-200.000	-0.062	0.349
-486.449	38.708	-0.073	0.065
-485.435	238.668	-0.144	0.238
-484.420	115.257	-0.118	0.143
-483.405	174.548	0.133	0.192
-482.391	389.297	-0.053	-0.109
-481.376	-200.000	0.050	-0.261
-480.362	3.059	0.084	0.061
-479.347	246.133	0.094	-0.158
-478.332	111.052	0.129	0.155
-477.318	-18.890	0.083	0.051
-476.303	-20.340	-0.299	0.183
-475.289	86.990	0.190	0.208
-474.274	4.189	0.109	0.079
-473.259	98.198	-0.121	0.138
-472.245	-28.892	-0.267	-0.152
-471.230	266.520	0.035	0.061
-470.216	-200.000	0.036	-0.183
-469.201	-87.496	-0.118	-0.036
-468.186	-5.428	0.348	-0.237
-467.172	5.450	0.105	-0.077
-466.157	-195.330	-0.339	0.003
-465.143	-30.710	0.065	0.037
-464.128	291.206	-0.041	0.074
-463.113	154.831	0.083	0.113
-462.099	149.399	-0.074	-0.099
-461.084	272.999	-0.106	0.185
-460.070	154.889	0.197	-0.269
-459.055	-200.000	0.012	-0.173
-458.040	193.542	-0.121	-0.182
-457.026	-13.030	0.144	-0.093
-456.011	-200.000	-0.047	-0.329
-454.997	-164.207	0.258	0.012
-453.982	-139.324	0.111	-0.012
-452.968	-157.326	0.157	-0.009
-451.953	512.754	-0.111	-0.256
-450.938	11.856	0.300	0.229
-449.924	-153.156	0.252	0.017
-448.909	239.195	-0.068	0.113
-447.895	-82.314	-0.229	-0.074
-446.880	-178.592	0.419	0.010
-445.865	-23.340	-0.060	-0.036
-444.851	527.692	-0.121	-0.282
-443.836	-200.000	0.021	0.096
-442.822	177.048	0.192	-0.278
-441.807	-47.394	0.189	-0.091
-440.792	116.178	0.063	0.076
-439.778	-148.312	-0.140	0.011
-438.763	-200.000	0.021	-0.112
-437.749	-119.932	-0.045	-0.008
-436.734	194.623	0.331	-0.498
-435.719	-98.175	-0.317	0.081
-434.705	-122.935	0.170	0.027
-433.690	-114.003	-0.024	-0.005
-432.676	-24.172	-0.429	0.254
-431.661	800.000	0.057	0.169
-430.646	0.147	0.108	-0.076
-429.632	-54.482	-0.163	0.073
-428.617	-200.000	0.003	-0.153
-427.603	-200.000	-0.002	0.132
-426.588	-14.136	0.189	-0.121
-425.573	-20.477	0.093	-0.057
-424.559	-200.000	-0.077	0.339
-423.544	-63.305	0.260	-0.106
-422.530	-46.189	-0.429	0.209
-421.515	-70.407	-0.086	-0.032
-420.500	603.410	0.093	-0.230
-419.486	205.708	0.058	0.089
-418.471	-86.263	0.359	0.109
-417.457	-149.037	0.104	-0.008
-416.442	800.000	-0.124	-0.379
-415.428	125.309	-0.142	0.177
-414.413	60.341	-0.345	0.338
-413.398	-135.610	0.175	-0.021
-412.384	-200.000	0.000	-0.425
-411.369	-176.224	-0.058	-0.001
-410.355	-39.694	0.208	0.108
-409.340	62.829	0.069	0.068
-408.325	-64.275	-0.244	0.099
-407.311	-167.331	-0.183	-0.007
-406.296	331.551	0.004	0.007
-405.282	-93.690	0.101	0.028
-404.267	271.030	0.151	0.263
-403.252	214.955	-0.095	-0.149
-402.238	-17.515	-0.267	-0.166
-401.223	800.000	0.053	0.179
-400.209	-27.747	0.038	-0.022
-399.194	26.481	0.170	-0.141
-398.179	156.073	0.121	-0.166
-397.165	18.262	-0.272	0.215
-396.150	800.000	0.106	-0.357
-395.136	284.948	0.150	-0.268
-394.121	72.600	-0.089	-0.092
-393.106	-200.000	0.034	0.290
-392.092	-200.000	0.054	0.000
-391.077	-2.303	0.146	-0.101
-390.063	122.701	0.121	0.150
-389.048	23.638	-0.117	-0.096
-388.033	-152.430	-0.120	-0.009
-387.019	800.000	0.112	-0.367
-386.004	-28.226	-0.055	-0.031
-384.990	-30.521	0.215	0.120
-383.975	57.388	0.058	0.056
-382.960	800.000	0.092	0.345
-381.946	-171.851	0.104	0.003
-380.931	-55.570	-0.153	-0.068
-379.917	-143.547	0.013	-0.001
-378.902	-162.472	-0.327	0.016
-377.888	-57.480	0.149	-0.065
-376.873	-69.506	-0.122	0.046
-375.858	-85.618	-0.303	0.093
-374.844	-184.938	-0.170	0.003
-373.829	406.889	0.087	0.181
-372.815	-200.000	-0.048	0.263
-371.800	-6.214	-0.162	0.109
-370.785	44.596	0.110	0.100
-369.771	578.610	0.069	-0.166
-368.756	97.727	-0.175	0.199
-367.742	800.000	0.072	0.232
-366.727	-200.000	-0.082	0.378
-365.712	2.444	0.065	-0.046
-364.698	248.245	-0.031	-0.051
-363.683	72.727	-0.128	-0.132
-362.669	-92.119	0.349	0.098
-361.654	-200.000	-0.039	0.231
-360.639	-91.071	-0.380	-0.108
-359.625	-200.000	-0.008	0.210
-358.610	135.817	-0.082	-0.105
-357.596	-15.206	0.286	-0.181
-356.581	-200.000	-0.026	-0.279
-355.566	-101.046	0.260	-0.063
-354.552	-200.000	-0.003	0.035
-353.537	800.000	-0.155	0.449
-352.523	88.234	0.257	0.282
-351.508	-6.290	0.243	-0.164
-350.493	118.690	-0.112	-0.137
-349.479	-92.009	-0.282	-0.079
-348.464	-84.714	0.254	-0.079
-347.450	-200.000	0.015	0.095
-346.435	387.646	0.131	0.267
-345.420	69.979	-0.057	-0.058
-344.406	180.680	0.117	0.170
-343.391	-200.000	-0.002	0.063
-342.377	232.175	-0.202	0.328
-341.362	800.000	0.121	0.363
-340.348	800.000	-0.044	0.154
-339.333	-139.779	-0.239	0.025
-338.318	44.933	0.121	-0.110
-337.304	237.217	-0.072	-0.118
-336.289	-200.000	-0.018	-0.368
-335.275	52.416	-0.160	0.151
-334.260	46.233	0.223	-0.204
-333.245	-115.186	-0.110	-0.021
-332.231	-31.265	-0.214	0.119
-331.216	331.684	0.109	0.207
-330.202	-59.953	0.118	0.050
-329.187	-200.000	-0.006	0.035
-328.172	20.797	0.150	0.120
-327.158	-39.549	-0.327	-0.169
-326.143	399.727	0.137	0.284
-325.129	58.949	-0.158	0.154
-324.114	43.854	-0.138	-0.125
-323.099	50.633	-0.041	0.039
-322.085	375.173	-0.241	0.485
-321.070	85.818	-0.123	0.133
-320.056	-200.000	-0.033	0.469
-319.041	310.346	-0.053	-0.098
-318.026	-91.686	0.228	0.064
-317.012	-4.884	-0.142	-0.096
-315.997	-64.486	-0.174	0.070
-314.983	800.000	0.026	-0.095
-313.968	800.000	-0.103	-0.324
-312.953	193.467	-0.092	-0.137
-311.939	-96.232	0.161	-0.042
-310.924	-32.387	0.179	0.098
-309.910	-76.993	0.249	0.086
-308.895	-1.359	-0.083	0.058
-307.880	-80.920	-0.360	0.118
-306.866	-33.126	-0.220	-0.120
-305.851	602.542	-0.046	-0.112
-304.837	-165.038	0.272	-0.012
-303.822	-93.272	-0.068	-0.019
-302.807	-1.293	0.060	-0.042
-301.793	-200.000	0.024	-0.195
-300.778	52.916	0.050	0.048
-299.764	-76.612	0.214	0.074
-298.749	-16.508	-0.279	0.175
-297.735	676.717	0.080	-0.205
-296.720	800.000	0.022	-0.069
-295.705	800.000	-0.093	0.342
-294.691	-59.247	0.301	-0.128
-293.676	-129.950	-0.302	0.041
-292.662	320.021	0.125	-0.233
-291.647	-89.884	-0.201	-0.058
-290.632	-200.000	0.094	-0.442
-289.618	-200.000	0.008	-0.145
-288.603	-200.000	-0.038	0.196
-287.589	-117.824	0.267	-0.047
-286.574	60.285	0.086	-0.084
-285.559	-30.800	-0.053	0.030
-284.545	34.249	-0.136	-0.117
-283.530	274.955	0.150	-0.262
-282.516	-35.252	0.166	-0.089
-281.501	-200.000	-0.014	0.083
-280.486	85.915	-0.280	-0.303
-279.472	-24.634	0.197	0.115
-278.457	-200.000	-0.028	0.434
-277.443	-137.497	-0.181	-0.020
-276.428	15.603	0.063	-0.049
-275.413	276.330	0.057	0.100
-274.399	-66.959	-0.239	0.093
-273.384	-13.869	0.068	-0.043
-272.370	382.434	-0.020	-0.040
-271.355	-200.000	0.003	-0.016
-270.340	369.122	0.113	-0.226
-269.326	117.726	-0.187	0.226
-268.311	556.659	-0.145	0.343
-267.297	22.307	0.207	0.166
-266.282	150.141	0.131	0.175
-265.267	705.661	-0.142	-0.370
-264.253	140.886	0.115	-0.150
-263.238	-200.000	-0.032	-0.204
-262.224	-80.390	0.421	0.138
-261.209	7.049	-0.085	0.063
-260.195	-79.468	-0.195	0.065
-259.180	30.920	-0.114	0.096
-258.165	-200.000	-0.018	0.148
-257.151	-200.000	0.002	-0.107
-256.136	21.153	-0.092	-0.073
-255.122	83.093	0.150	0.160
-254.107	-200.000	-0.008	-0.060
-253.092	-200.000	-0.099	0.509
-252.078	-123.914	-0.172	0.027
-251.063	325.693	-0.074	-0.139
-250.049	-200.000	-0.177	-0.000
-249.034	484.133	-0.154	-0.345
-248.019	33.583	0.180	-0.154
-247.005	-102.265	0.245	0.058
-245.990	-200.000	-0.015	-0.193
-244.976	-40.825	0.071	-0.036
-243.961	-118.095	0.403	0.071
-242.946	-200.000	0.038	0.253
-241.932	134.017	0.227	0.289
-240.917	-131.006	-0.262	0.034
-239.903	-2.988	0.077	-0.053
-238.888	-200.000	0.009	0.241
-237.873	80.858	-0.060	0.063
-236.859	-200.000	0.049	0.248
-235.844	-141.825	0.135	0.013
-234.830	-200.000	-0.014	-0.164
-233.815	800.000	-0.056	-0.222
-232.800	363.646	0.123	-0.244
-231.786	-200.000	-0.018	-0.230
-230.771	-200.000	0.060	0.283
-229.757	63.480	0.061	-0.061
-228.742	-111.099	-0.107	-0.022
-227.727	-200.000	0.016	0.178
-226.713	279.705	0.206	-0.362
-225.698	179.525	0.086	0.124
-224.684	-97.898	0.331	-0.084
-223.669	140.601	-0.100	-0.130
-222.655	133.736	-0.165	-0.210
-221.640	165.170	-0.127	-0.176
-220.625	605.125	0.030	0.074
-219.611	30.326	-0.277	-0.233
-218.596	65.225	-0.273	-0.272
-217.582	55.690	-0.070	-0.067
-216.567	169.286	0.168	-0.235
-215.552	-200.000	0.045	0.366
-214.538	80.142	0.218	0.230
-213.523	357.157	-0.108	0.211
-212.509	800.000	0.086	-0.261
-211.494	-200.000	0.005	0.155
-210.479	-67.543	0.063	-0.024
-209.465	800.000	0.052	0.147
-208.450	-54.865	0.399	-0.177
-207.436	-200.000	0.016	-0.216
-206.421	-200.000	-0.013	-0.323
-205.406	-200.000	-0.031	-0.221
-204.392	-26.218	0.189	0.109
-203.377	499.752	0.030	0.068
-202.363	-200.000	0.011	-0.290
-201.348	-200.000	0.021	-0.279
-200.333	632.837	-0.069	-0.172
-199.319	800.000	0.027	0.097
-198.304	4.077	0.043	-0.031
-197.290	-200.000	-0.008	-0.048
-196.275	-146.337	-0.611	-0.053
-195.260	-28.112	-0.117	-0.066
-194.246	80.618	-0.141	0.149
-193.231	601.776	-0.098	-0.240
-192.217	-108.823	-0.100	0.021
-191.202	-98.425	-0.233	0.059
-190.187	-8.309	-0.148	-0.098
-189.173	-136.119	0.136	0.016
-188.158	-200.000	-0.064	-0.343
-187.144	-200.000	0.023	-0.121
-186.129	-55.183	0.405	-0.179
-185.114	102.312	-0.050	0.057
-184.100	71.478	0.176	0.180
-183.085	-143.554	0.250	-0.023
-182.071	-94.227	0.216	-0.058
-181.056	88.213	0.160	-0.175
-180.042	28.029	-0.332	0.275
-179.027	-200.000	0.014	0.060
-178.012	-171.678	-0.229	0.007
-176.998	558.743	0.135	0.320
-175.983	151.960	0.189	0.253
-174.969	-24.624	-0.171	-0.100
-173.954	43.271	0.056	-0.050
-172.939	-200.000	-0.016	-0.118
-171.925	443.706	0.028	-0.060
-170.910	-200.000	0.016	0.120
-169.896	-1.066	-0.169	-0.117
-168.881	-24.984	0.419	-0.244
-167.866	81.095	-0.113	0.120
-166.852	-80.577	-0.352	0.115
-165.837	-29.169	0.407	-0.229
-164.823	25.431	-0.129	-0.105
-163.808	138.519	-0.034	-0.044
-162.793	-200.000	-0.015	-0.092
-161.779	12.108	0.071	-0.053
-160.764	39.617	-0.234	-0.206
-159.750	-168.900	-0.121	0.004
-158.735	184.052	0.054	0.079
-157.720	-200.000	0.055	0.282
-156.706	800.000	0.088	0.253
-155.691	-37.839	-0.416	-0.217
-154.677	800.000	-0.031	-0.085
-153.662	-200.000	-0.011	0.142
-152.647	236.411	0.040	0.064
-151.633	294.420	0.071	-0.127
-150.618	-126.759	0.134	0.019
-149.604	-200.000	0.004	0.273
-148.589	58.439	-0.130	-0.125
-147.574	-98.209	0.133	0.034
-146.560	-200.000	0.027	0.153
-145.545	-0.297	-0.349	0.243
-144.531	39.210	0.084	-0.073
-143.516	-110.549	0.251	0.051
-142.502	-160.853	-0.251	-0.013
-141.487	-57.093	-0.117	-0.051
-140.472	465.589	-0.155	-0.341
-139.458	-49.819	-0.156	-0.072
-138.443	264.978	0.200	0.342
-137.429	-200.000	0.001	0.231
-136.414	-61.679	0.258	-0.106
-135.399	308.721	0.020	0.036
-134.385	189.393	0.018	0.026
-133.370	-23.223	-0.408	-0.240
-132.356	-165.052	-0.219	-0.010
-131.341	-144.702	0.401	0.036
-130.326	-200.000	0.025	0.200
-129.312	-200.000	-0.040	0.180
-128.297	-200.000	0.021	0.310
-127.283	17.278	0.083	-0.064
-126.268	800.000	0.035	-0.118
-125.253	-131.198	0.143	-0.019
-124.239	800.000	-0.184	-0.501
-123.224	270.001	0.084	-0.145
-122.210	-31.301	0.141	-0.078
-121.195	-50.111	-0.161	-0.074
-120.180	800.000	0.080	0.321
