DTS Sentinel unit serial number:	SN413079Multiplexer serial number:	ORYXHardware model number:	OX4-SRSoftware version number:	ORYX F/W v4.00 Oryx Data Collector v3.7.2.0data status	okinstallation	princeton_trtdifferential loss correction	single-endedforward channel	channel 1reverse channel	N/Adate	2019/09/13time	00:30:35forward acquisition time	60.00reverse acquisition time	0.00gamma	496.2192k internal	0.2329k external	0.2329temperature offset calibration	1.0143default loss term (dB/km)	0.3790temperature slope calibration	1.0000multiplexer offset coefficient	1.0000multiplexer slope coefficient	1.0000fibre end	0.00T internal ref (°C)	28.37T ext. ref 1 (°C)	3.71T ext. ref 2 (°C)	22.97length (m)	temperature (°C)	Stokes	anti-Stokes-747.200	-200.000	0.011	0.097
-746.185	-134.639	0.296	-0.036
-745.171	30.251	0.093	-0.080
-744.156	-87.299	-0.524	0.160
-743.142	75.214	-0.242	-0.257
-742.127	-200.000	-0.021	0.551
-741.112	64.415	-0.315	-0.320
-740.098	339.266	-0.088	-0.173
-739.083	-139.275	-0.187	-0.020
-738.069	-29.448	-0.081	0.047
-737.054	132.105	-0.112	0.146
-736.039	105.876	0.064	-0.076
-735.025	595.339	0.117	-0.292
-734.010	-73.413	0.308	-0.113
-732.996	15.792	-0.370	0.293
-731.981	-200.000	0.003	-0.181
-730.966	-200.000	-0.016	0.259
-729.952	17.233	-0.219	-0.175
-728.937	-154.242	-0.315	0.021
-727.923	-200.000	0.001	0.148
-726.908	-86.427	-0.276	-0.085
-725.894	800.000	0.028	-0.098
-724.879	295.078	-0.112	0.207
-723.864	210.628	0.140	0.222
-722.850	800.000	-0.043	0.176
-721.835	-97.782	-0.194	0.051
-720.821	332.384	-0.032	-0.062
-719.806	-200.000	-0.013	0.068
-718.791	170.517	-0.200	-0.288
-717.777	-200.000	-0.037	-0.266
-716.762	-152.473	-0.168	-0.012
-715.748	-138.613	-0.374	0.041
-714.733	-0.642	-0.092	-0.066
-713.718	-200.000	0.028	-0.167
-712.704	-41.613	-0.188	-0.097
-711.689	187.623	0.046	-0.069
-710.675	402.693	0.081	0.172
-709.660	-133.703	0.371	0.047
-708.645	119.556	0.158	0.197
-707.631	-200.000	0.016	-0.086
-706.616	-200.000	-0.003	-0.079
-705.602	-200.000	0.028	0.178
-704.587	-8.225	0.380	-0.257
-703.572	-174.996	0.036	-0.001
-702.558	-41.244	0.049	-0.025
-701.543	-64.893	0.128	-0.052
-700.529	-200.000	-0.040	0.197
-699.514	-200.000	-0.079	-0.624
-698.499	-103.633	-0.150	0.035
-697.485	-134.664	0.152	0.019
-696.470	-60.192	-0.260	-0.111
-695.456	800.000	-0.171	-0.626
-694.441	-200.000	0.010	-0.163
-693.426	373.653	0.004	0.007
-692.412	108.054	-0.119	0.142
-691.397	45.812	0.216	-0.201
-690.383	-200.000	-0.011	0.064
-689.368	-141.347	-0.162	0.016
-688.354	-11.205	-0.171	0.113
-687.339	70.829	0.130	0.135
-686.324	-163.317	-0.192	0.009
-685.310	72.551	0.041	-0.043
-684.295	-77.962	-0.409	0.142
-683.281	800.000	-0.086	0.264
-682.266	-200.000	0.012	-0.450
-681.251	-67.090	-0.085	-0.034
-680.237	-63.735	0.305	0.125
-679.222	-200.000	0.026	0.366
-678.208	800.000	-0.053	0.159
-677.193	-67.312	-0.115	0.046
-676.178	-87.575	-0.142	-0.043
-675.164	-42.957	-0.300	0.153
-674.149	-200.000	0.000	-0.140
-673.135	304.700	-0.136	0.254
-672.120	800.000	-0.017	-0.071
-671.105	82.472	-0.043	-0.047
-670.091	114.454	-0.028	-0.034
-669.076	-200.000	-0.027	0.160
-668.062	-149.525	-0.478	0.038
-667.047	-200.000	0.063	0.371
-666.032	-25.048	-0.239	-0.143
-665.018	-35.171	0.156	0.085
-664.003	-200.000	-0.018	0.286
-662.989	800.000	-0.032	-0.113
-661.974	-200.000	0.033	0.246
-660.959	244.492	0.085	-0.143
-659.945	30.523	-0.302	0.260
-658.930	-17.928	0.288	0.181
-657.916	19.736	-0.064	0.052
-656.901	54.378	0.120	-0.116
-655.886	800.000	-0.077	0.236
-654.872	250.150	-0.099	-0.169
-653.857	27.461	-0.187	0.158
-652.843	-2.324	-0.209	0.147
-651.828	-186.891	-0.055	0.001
-650.814	-8.185	-0.163	-0.110
-649.799	-24.800	0.099	-0.059
-648.784	-44.151	0.246	-0.124
-647.770	12.214	-0.120	0.092
-646.755	426.144	-0.038	-0.083
-645.741	-68.359	0.323	0.126
-644.726	-22.216	0.070	0.043
-643.711	265.850	0.032	-0.057
-642.697	-25.791	-0.043	0.025
-641.682	-200.000	0.039	-0.192
-640.668	62.019	0.197	-0.197
-639.653	-39.130	0.210	0.111
-638.638	-83.302	-0.135	0.044
-637.624	800.000	0.047	-0.167
-636.609	800.000	-0.102	-0.332
-635.595	-122.055	-0.119	-0.020
-634.580	-34.149	-0.124	-0.068
-633.565	526.067	0.129	-0.305
-632.551	-163.913	-0.139	-0.007
-631.536	163.733	-0.078	-0.110
-630.522	-156.113	-0.300	-0.019
-629.507	-200.000	-0.020	0.172
-628.492	800.000	-0.059	0.170
-627.478	747.942	-0.078	-0.210
-626.463	295.841	0.091	-0.168
-625.449	220.102	-0.049	0.078
-624.434	-89.135	0.280	0.083
-623.419	224.811	0.047	0.077
-622.405	-30.255	0.083	-0.047
-621.390	-130.154	0.221	-0.030
-620.376	30.058	-0.114	0.097
-619.361	800.000	-0.078	-0.233
-618.346	97.321	-0.215	-0.247
-617.332	800.000	0.092	-0.346
-616.317	-6.780	0.152	-0.104
-615.303	110.703	-0.197	-0.237
-614.288	-15.098	-0.237	0.152
-613.273	-109.940	-0.057	0.012
-612.259	800.000	-0.030	0.093
-611.244	-82.774	0.244	-0.079
-610.230	-69.616	0.350	-0.134
-609.215	-101.858	-0.359	-0.087
-608.201	21.089	0.397	-0.322
-607.186	7.220	-0.287	-0.215
-606.171	43.903	0.104	-0.096
-605.157	-200.000	0.005	-0.033
-604.142	333.806	-0.125	-0.242
-603.128	-9.510	0.045	-0.030
-602.113	-18.395	0.254	-0.159
-601.098	224.286	-0.016	0.025
-600.084	-200.000	0.007	0.115
-599.069	-97.702	0.424	-0.110
-598.055	216.803	0.116	0.185
-597.040	705.940	0.042	-0.111
-596.025	-200.000	0.001	0.019
-595.011	-200.000	-0.006	0.212
-593.996	-91.999	-0.554	0.157
-592.982	81.078	-0.071	0.076
-591.967	111.308	-0.090	0.109
-590.952	182.868	-0.145	0.214
-589.938	-200.000	0.029	0.160
-588.923	-200.000	-0.049	-0.380
-587.909	-200.000	0.004	0.143
-586.894	800.000	0.018	0.072
-585.879	-49.598	-0.231	-0.110
-584.865	-31.145	-0.182	0.103
-583.850	800.000	0.012	0.045
-582.836	-38.549	-0.302	-0.160
-581.821	38.354	0.046	-0.041
-580.806	-109.307	-0.285	0.061
-579.792	-18.444	-0.041	0.026
-578.777	-152.528	0.199	0.014
-577.763	-178.679	0.085	0.002
-576.748	70.245	0.267	0.276
-575.733	9.005	0.080	-0.060
-574.719	9.162	-0.201	0.152
-573.704	81.695	-0.279	0.302
-572.690	800.000	-0.126	-0.363
-571.675	-200.000	0.008	-0.074
-570.661	172.685	0.170	0.244
-569.646	31.230	-0.251	0.216
-568.631	-200.000	-0.009	-0.094
-567.617	-84.128	0.056	-0.018
-566.602	-14.724	-0.171	0.110
-565.588	-14.206	-0.217	0.140
-564.573	519.770	0.055	-0.129
-563.558	-1.327	0.294	-0.208
-562.544	206.337	0.028	0.044
-561.529	-136.767	0.141	0.016
-560.515	182.563	0.109	-0.161
-559.500	800.000	-0.121	-0.380
-558.485	-41.828	0.137	0.070
-557.471	800.000	-0.123	0.339
-556.456	74.261	0.259	0.272
-555.442	-110.444	-0.100	0.021
-554.427	582.794	0.133	-0.326
-553.412	284.066	-0.066	-0.119
-552.398	283.029	0.099	-0.177
-551.383	-7.051	0.104	-0.071
-550.369	275.915	-0.075	0.133
-549.354	87.087	-0.086	0.095
-548.339	-200.000	-0.009	-0.043
-547.325	-200.000	0.009	0.070
-546.310	-48.528	-0.073	-0.035
-545.296	-94.142	0.087	0.024
-544.281	800.000	-0.136	-0.388
-543.266	124.509	-0.180	-0.226
-542.252	307.849	0.074	-0.139
-541.237	-1.842	-0.070	-0.049
-540.223	800.000	-0.032	-0.092
-539.208	800.000	0.093	0.283
-538.193	-76.924	-0.302	-0.106
-537.179	-10.233	0.050	0.033
-536.164	-107.991	0.358	0.078
-535.150	-56.615	0.359	-0.159
-534.135	52.160	-0.074	-0.070
-533.121	-200.000	-0.007	0.130
-532.106	-53.345	-0.157	0.072
-531.091	263.956	0.110	-0.191
-530.077	-200.000	0.062	0.295
-529.062	800.000	0.092	0.294
-528.048	-200.000	-0.003	0.075
-527.033	-40.481	0.179	-0.093
-526.018	-133.941	-0.205	0.025
-525.004	61.615	0.066	-0.066
-523.989	226.035	0.061	0.098
-522.975	-39.189	0.243	-0.128
-521.960	205.125	-0.134	-0.208
-520.945	-200.000	0.020	0.249
-519.931	-38.598	0.146	-0.077
-518.916	188.537	0.046	-0.068
-517.902	235.865	-0.092	0.151
-516.887	38.849	0.122	-0.108
-515.872	-40.493	-0.061	-0.032
-514.858	74.922	-0.177	-0.186
-513.843	-154.537	-0.445	0.030
-512.829	-200.000	0.005	-0.165
-511.814	800.000	0.069	0.286
-510.799	-120.042	0.152	-0.026
-509.785	-34.088	-0.124	-0.068
-508.770	-177.047	-0.153	-0.004
-507.756	-158.210	0.084	0.005
-506.741	197.327	0.063	0.097
-505.726	-200.000	-0.048	0.240
-504.712	-200.000	0.040	0.195
-503.697	87.137	-0.083	-0.091
-502.683	-200.000	0.013	-0.296
-501.668	-200.000	-0.018	-0.112
-500.653	-200.000	0.060	-0.306
-499.639	-4.971	0.151	0.103
-498.624	164.128	-0.140	0.196
-497.610	-200.000	-0.043	-0.214
-496.595	-98.620	-0.229	0.058
-495.581	-84.528	-0.155	-0.049
-494.566	-200.000	-0.031	0.225
-493.551	372.875	0.135	0.275
-492.537	31.133	0.109	-0.093
-491.522	-142.136	-0.251	0.025
-490.508	-34.712	0.189	0.103
-489.493	800.000	-0.081	0.260
-488.478	-200.000	-0.241	0.001
-487.464	-11.777	0.333	0.218
-486.449	311.422	-0.055	-0.103
-485.435	-44.203	0.072	-0.036
-484.420	73.145	-0.184	0.192
-483.405	-200.000	-0.055	0.314
-482.391	-45.689	-0.442	0.218
-481.376	-200.000	0.041	-0.259
-480.362	-200.000	0.008	0.326
-479.347	-38.490	0.082	-0.043
-478.332	-12.923	0.091	-0.059
-477.318	-18.243	0.529	-0.330
-476.303	-129.936	0.251	-0.034
-475.289	-145.527	0.217	-0.019
-474.274	65.673	0.096	-0.097
-473.259	521.286	0.067	-0.156
-472.245	267.854	0.125	0.218
-471.230	124.210	-0.057	0.071
-470.216	90.062	-0.171	-0.191
-469.201	-83.753	-0.099	-0.032
-468.186	-128.094	-0.114	-0.016
-467.172	-29.184	-0.096	-0.055
-466.157	-200.000	0.027	0.232
-465.143	-85.572	-0.145	-0.045
-464.128	70.955	-0.045	0.046
-463.113	455.179	0.104	-0.229
-462.099	-17.401	-0.190	-0.119
-461.084	623.595	-0.126	-0.316
-460.070	86.256	0.105	0.115
-459.055	-200.000	0.003	0.122
-458.040	38.475	0.201	-0.178
-457.026	300.160	0.120	0.220
-456.011	261.523	-0.115	0.198
-454.997	-200.000	-0.002	-0.055
-453.982	-40.752	-0.164	-0.085
-452.968	-200.000	0.005	0.077
-451.953	780.560	-0.060	-0.164
-450.938	-57.831	-0.226	0.098
-449.924	-200.000	-0.016	-0.290
-448.909	140.560	-0.050	0.065
-447.895	28.795	-0.329	-0.277
-446.880	-6.189	-0.191	-0.130
-445.865	624.324	0.059	0.147
-444.851	98.616	-0.304	0.349
-443.836	-111.603	-0.145	-0.029
-442.822	-28.002	-0.417	0.240
-441.807	-27.218	-0.195	0.113
-440.792	26.806	-0.313	-0.261
-439.778	800.000	0.087	-0.278
-438.763	-140.859	0.283	0.029
-437.749	257.680	-0.167	-0.287
-436.734	-161.569	-0.349	0.018
-435.719	-200.000	-0.055	0.441
-434.705	143.749	-0.186	-0.247
-433.690	205.069	0.030	-0.046
-432.676	-38.694	0.414	0.217
-431.661	51.658	-0.260	0.247
-430.646	-200.000	0.031	0.155
-429.632	-73.635	0.425	-0.154
-428.617	13.660	0.332	-0.256
-427.603	-6.999	0.172	-0.116
-426.588	-46.546	0.112	0.055
-425.573	-81.724	0.098	0.032
-424.559	-200.000	0.001	-0.010
-423.544	304.900	0.060	0.111
-422.530	-114.143	0.212	0.041
-421.515	800.000	-0.048	-0.188
-420.500	126.613	0.112	0.142
-419.486	-200.000	0.011	0.206
-418.471	442.472	-0.123	-0.268
-417.457	-200.000	0.006	0.119
-416.442	-44.706	-0.277	0.138
-415.428	-91.624	0.112	-0.032
-414.413	-108.101	-0.181	-0.039
-413.398	-12.153	-0.171	-0.111
-412.384	-170.012	-0.269	0.010
-411.369	-44.929	-0.251	-0.124
-410.355	-147.565	-0.127	-0.011
-409.340	-200.000	0.011	-0.195
-408.325	544.226	-0.139	0.330
-407.311	-200.000	0.021	0.125
-406.296	-13.582	-0.340	-0.219
-405.282	-200.000	0.025	0.271
-404.267	-4.738	-0.084	0.058
-403.252	-197.870	-0.244	-0.001
-402.238	374.925	0.234	-0.474
-401.223	-200.000	0.002	-0.154
-400.209	-45.907	0.123	-0.061
-399.194	-196.599	0.285	-0.002
-398.179	-151.077	0.286	-0.021
-397.165	285.594	0.087	0.157
-396.150	-45.244	-0.186	0.092
-395.136	-174.532	0.030	-0.001
-394.121	-200.000	0.012	-0.177
-393.106	-200.000	-0.097	-0.462
-392.092	141.097	0.140	-0.183
-391.077	-181.254	0.248	-0.005
-390.063	800.000	0.120	0.332
-389.048	517.566	0.060	0.138
-388.033	-115.879	0.215	0.040
-387.019	-47.504	-0.146	0.071
-386.004	-200.000	0.024	0.246
-384.990	-14.422	-0.238	0.152
-383.975	83.367	-0.004	-0.005
-382.960	-200.000	0.024	-0.135
-381.946	-61.223	-0.351	0.147
-380.931	730.523	0.099	-0.262
-379.917	-60.870	0.269	0.113
-378.902	-46.421	0.060	-0.029
-377.888	-200.000	0.051	-0.335
-376.873	-38.999	-0.128	-0.067
-375.858	-160.900	0.088	0.005
-374.844	35.056	0.162	-0.141
-373.829	-101.201	0.154	0.037
-372.815	-57.476	0.185	-0.081
-371.800	-200.000	0.033	-0.235
-370.785	800.000	-0.072	0.221
-369.771	391.881	0.171	0.353
-368.756	-200.000	-0.013	0.241
-367.742	29.524	0.225	-0.190
-366.727	-115.480	-0.495	0.092
-365.712	135.939	0.185	-0.239
-364.698	57.967	0.130	-0.126
-363.683	381.427	-0.032	0.065
-362.669	-7.501	0.347	0.233
-361.654	800.000	0.038	-0.121
-360.639	633.662	-0.072	-0.182
-359.625	-144.581	-0.463	0.042
-358.610	800.000	-0.059	0.177
-357.596	-150.982	-0.075	-0.006
-356.581	-147.009	0.272	-0.023
-355.566	-103.957	-0.088	-0.020
-354.552	341.046	0.106	-0.205
-353.537	538.038	-0.046	-0.109
-352.523	52.496	-0.190	-0.180
-351.508	-61.214	-0.198	0.083
-350.493	188.106	0.105	0.156
-349.479	-200.000	-0.064	0.345
-348.464	238.980	0.109	-0.180
-347.450	-89.355	0.060	0.018
-346.435	800.000	-0.086	-0.289
-345.420	297.491	0.168	-0.306
-344.406	-37.056	-0.167	-0.089
-343.391	219.088	0.056	0.089
-342.377	13.148	-0.042	0.033
-341.362	539.122	0.010	-0.023
-340.348	57.882	0.299	-0.291
-339.333	282.980	0.141	0.251
-338.318	150.222	-0.108	-0.145
-337.304	-31.239	0.033	0.018
-336.289	-120.208	0.189	0.032
-335.275	-140.983	-0.140	0.014
-334.260	-112.820	-0.404	-0.079
-333.245	67.760	-0.229	-0.232
-332.231	-59.921	-0.371	-0.157
-331.216	92.275	-0.112	0.126
-330.202	21.767	0.153	0.123
-329.187	-200.000	0.031	-0.230
-328.172	-72.674	0.348	0.127
-327.158	86.166	0.156	-0.171
-326.143	79.099	0.113	0.119
-325.129	-115.707	-0.106	0.020
-324.114	232.577	-0.152	0.247
-323.099	350.260	0.072	-0.142
-322.085	-42.559	0.345	-0.174
-321.070	703.167	-0.045	-0.118
-320.056	28.545	0.152	0.128
-319.041	-66.458	-0.056	0.022
-318.026	-137.435	0.128	-0.014
-317.012	800.000	-0.077	-0.264
-315.997	800.000	0.061	0.241
-314.983	167.326	0.262	0.369
-313.968	34.620	-0.180	0.156
-312.953	-0.815	0.284	0.199
-311.939	-92.318	-0.127	0.035
-310.924	-60.022	0.339	-0.143
-309.910	-21.601	-0.096	0.058
-308.895	800.000	0.107	-0.366
-307.880	-37.524	-0.418	0.221
-306.866	72.956	0.105	-0.108
-305.851	-200.000	-0.014	0.100
-304.837	-200.000	0.011	0.504
-303.822	300.697	0.085	-0.156
-302.807	21.186	-0.037	0.030
-301.793	800.000	0.075	-0.205
-300.778	800.000	-0.017	-0.071
-299.764	-114.928	0.071	0.013
-298.749	800.000	0.091	-0.268
-297.735	471.873	0.153	-0.341
-296.720	-107.865	0.411	0.089
-295.705	800.000	0.084	0.286
-294.691	-200.000	0.060	-0.321
-293.676	29.191	0.106	0.089
-292.662	800.000	0.026	0.085
-291.647	33.751	-0.284	-0.245
-290.632	269.285	0.083	0.144
-289.618	-51.197	-0.049	-0.023
-288.603	303.254	0.222	0.407
-287.589	-113.162	-0.044	-0.009
-286.574	-91.398	-0.091	0.026
-285.559	-200.000	-0.188	-0.001
-284.545	-6.321	0.320	-0.216
-283.530	-24.941	-0.209	-0.123
-282.516	-118.435	-0.307	-0.054
-281.501	19.988	-0.248	0.198
-280.486	800.000	0.112	0.356
-279.472	800.000	-0.099	0.274
-278.457	800.000	0.040	-0.120
-277.443	-99.507	-0.173	0.043
-276.428	-143.167	0.094	0.009
-275.413	-27.050	-0.015	-0.008
-274.399	272.624	-0.208	0.363
-273.384	-8.718	0.353	0.234
-272.370	800.000	-0.055	-0.153
-271.355	64.483	0.231	0.230
-270.340	143.400	-0.198	0.261
-269.326	-200.000	0.019	0.099
-268.311	81.549	0.033	0.036
-267.297	-15.053	0.131	-0.083
-266.282	-91.144	0.228	-0.065
-265.267	-24.824	0.106	-0.062
-264.253	66.873	0.149	0.150
-263.238	77.663	-0.099	-0.105
-262.224	27.104	-0.131	0.109
-261.209	-117.358	0.124	0.022
-260.195	800.000	0.044	0.154
-259.180	-80.498	-0.354	0.117
-258.165	94.073	0.290	0.325
-257.151	121.778	0.316	-0.390
-256.136	119.649	0.041	-0.050
-255.122	55.196	-0.195	-0.186
-254.107	-20.396	-0.264	-0.161
-253.092	727.294	-0.197	-0.520
-252.078	-161.475	0.250	-0.013
-251.063	14.200	0.300	0.231
-250.049	-200.000	0.017	0.084
-249.034	192.751	0.125	-0.186
-248.019	15.146	-0.098	-0.076
-247.005	292.102	0.128	-0.231
-245.990	-200.000	-0.009	0.096
-244.976	-33.078	-0.225	-0.123
-243.961	143.141	0.130	-0.171
-242.946	-30.848	0.140	-0.078
-241.932	800.000	0.048	-0.203
-240.917	244.711	-0.088	0.146
-239.903	800.000	0.077	0.325
-238.888	-84.603	0.354	-0.110
-237.873	-108.880	-0.333	-0.070
-236.859	-25.081	0.115	0.068
-235.844	203.232	0.147	-0.224
-234.830	-35.864	0.235	-0.125
-233.815	36.765	0.103	-0.090
-232.800	-145.262	-0.269	0.024
-231.786	-200.000	0.035	0.224
-230.771	-60.499	-0.205	0.086
-229.757	186.067	-0.199	0.292
-228.742	-200.000	0.062	-0.303
-227.727	-17.489	-0.263	0.163
-226.713	-91.740	0.205	-0.057
-225.698	-20.868	0.169	-0.102
-224.684	144.589	-0.045	0.059
-223.669	-85.385	0.130	-0.040
-222.655	27.104	-0.156	-0.129
-221.640	-37.572	0.127	0.067
-220.625	87.087	-0.196	0.214
-219.611	-161.844	0.220	0.011
-218.596	46.587	0.038	-0.035
-217.582	81.358	-0.181	-0.193
-216.567	800.000	-0.049	-0.205
-215.552	800.000	0.083	0.316
-214.538	-200.000	-0.027	0.253
-213.523	118.334	0.090	0.110
-212.509	-200.000	0.012	-0.134
-211.494	11.864	0.097	-0.074
-210.479	-54.948	0.395	-0.176
-209.465	407.187	-0.076	0.158
-208.450	297.055	0.214	0.388
-207.436	-16.453	-0.213	0.133
-206.421	15.732	-0.039	-0.030
-205.406	-41.429	-0.199	0.101
-204.392	16.596	-0.193	0.151
-203.377	241.499	-0.105	-0.172
-202.363	407.327	-0.100	-0.209
-201.348	66.773	-0.133	-0.134
-200.333	800.000	0.092	0.378
-199.319	112.147	-0.261	0.311
-198.304	42.043	-0.140	0.126
-197.290	124.293	0.090	-0.112
-196.275	-114.115	0.053	-0.010
-195.260	-74.810	-0.106	-0.037
-194.246	-200.000	0.036	0.217
-193.231	161.950	-0.105	-0.144
-192.217	-75.203	-0.268	-0.094
-191.202	800.000	0.051	0.171
-190.187	-120.521	-0.388	0.065
-189.173	-200.000	0.019	-0.104
-188.158	-178.888	0.138	-0.003
-187.144	-9.162	0.122	-0.081
-186.129	800.000	-0.037	0.105
-185.114	-200.000	-0.021	0.287
-184.100	-75.057	0.181	0.064
-183.085	103.764	0.039	-0.045
-182.071	348.742	-0.051	-0.099
-181.056	-200.000	-0.006	-0.175
-180.042	-200.000	-0.055	0.246
-179.027	-72.751	0.247	-0.090
-178.012	-176.846	0.130	-0.003
-176.998	-121.650	-0.310	0.051
-175.983	20.657	0.105	0.084
-174.969	605.511	0.085	-0.209
-173.954	-74.853	0.430	0.152
-172.939	109.976	-0.152	0.180
-171.925	-200.000	0.003	0.208
-170.910	-200.000	-0.044	-0.375
-169.896	255.919	-0.188	0.317
-168.881	800.000	0.050	-0.146
-167.866	-200.000	0.020	0.127
-166.852	-20.113	-0.250	-0.152
-165.837	-1.750	0.220	-0.152
-164.823	-48.723	-0.307	0.145
-163.808	446.249	-0.049	0.106
-162.793	-27.360	0.120	-0.069
-161.779	271.341	-0.136	0.236
-160.764	94.851	0.179	0.200
-159.750	33.484	-0.067	-0.058
-158.735	-200.000	0.048	0.399
-157.720	-4.768	-0.243	-0.165
-156.706	-200.000	0.004	0.275
-155.691	28.247	0.251	-0.208
-154.677	-200.000	-0.035	0.384
-153.662	800.000	0.095	0.345
-152.647	-57.402	-0.162	-0.070
-151.633	260.930	0.146	0.249
-150.618	629.021	0.098	-0.244
-149.604	-2.003	0.352	-0.244
-148.589	482.926	0.020	0.044
-147.574	583.835	-0.156	0.376
-146.560	157.327	-0.164	0.223
-145.545	-12.289	0.527	0.339
-144.531	102.008	-0.065	-0.075
-143.516	-12.531	0.243	-0.156
-142.502	224.093	0.135	-0.214
-141.487	395.917	0.102	-0.209
-140.472	-39.902	-0.154	-0.079
-139.458	-186.860	-0.348	0.005
-138.443	-200.000	0.010	-0.230
-137.429	153.684	0.173	0.233
-136.414	-200.000	0.010	-0.384
-135.399	800.000	0.038	-0.146
-134.385	-52.207	0.084	-0.038
-133.370	-200.000	0.017	0.137
-132.356	-139.475	-0.084	-0.009
-131.341	-200.000	0.002	-0.071
-130.326	-35.085	0.177	0.095
-129.312	25.059	-0.283	0.231
-128.297	-200.000	0.024	-0.122
-127.283	800.000	-0.031	0.125
-126.268	-200.000	-0.026	0.216
-125.253	249.440	0.150	0.250
-124.239	-107.577	0.341	-0.073
-123.224	678.348	0.028	-0.073
-122.210	64.782	-0.106	-0.105
-121.195	-152.626	-0.218	0.015
