DTS Sentinel unit serial number:	SN413079Multiplexer serial number:	ORYXHardware model number:	OX4-SRSoftware version number:	ORYX F/W v4.00 Oryx Data Collector v3.7.2.0data status	okinstallation	princeton_trtdifferential loss correction	single-endedforward channel	channel 1reverse channel	N/Adate	2019/09/14time	19:26:35forward acquisition time	60.00reverse acquisition time	0.00gamma	496.2192k internal	0.2312k external	0.2312temperature offset calibration	1.0022default loss term (dB/km)	0.3790temperature slope calibration	1.0000multiplexer offset coefficient	1.0000multiplexer slope coefficient	1.0000fibre end	0.00T internal ref (°C)	34.87T ext. ref 1 (°C)	4.87T ext. ref 2 (°C)	28.98length (m)	temperature (°C)	Stokes	anti-Stokes-747.200	800.000	-0.016	-0.072
-746.185	-72.705	0.176	0.066
-745.171	-200.000	0.053	0.326
-744.156	-200.000	-0.032	0.335
-743.142	257.524	0.062	0.108
-742.127	93.395	-0.156	-0.179
-741.112	365.638	-0.121	-0.247
-740.098	800.000	-0.050	0.195
-739.083	-200.000	0.047	-0.294
-738.069	438.607	0.039	-0.087
-737.054	-175.142	0.379	0.011
-736.039	314.348	-0.128	-0.244
-735.025	151.784	-0.031	0.043
-734.010	-97.611	-0.451	-0.119
-732.996	-29.525	-0.235	0.136
-731.981	800.000	-0.052	-0.171
-730.966	-4.915	-0.098	0.068
-729.952	-74.398	-0.232	-0.085
-728.937	-200.000	-0.095	-0.638
-727.923	-152.144	0.108	-0.008
-726.908	280.334	-0.159	0.289
-725.894	-161.688	-0.213	-0.011
-724.879	718.075	-0.060	-0.163
-723.864	-64.477	-0.332	0.137
-722.850	-200.000	-0.001	0.158
-721.835	251.755	0.118	0.203
-720.821	-38.390	-0.180	0.097
-719.806	435.745	0.135	0.297
-718.791	-104.272	-0.520	0.122
-717.777	74.511	-0.332	-0.354
-716.762	-22.183	-0.133	0.082
-715.748	-200.000	-0.094	-0.487
-714.733	6.215	0.367	0.276
-713.718	292.995	0.051	0.094
-712.704	-33.569	-0.376	0.211
-711.689	-167.218	-0.450	-0.018
-710.675	-200.000	0.018	0.177
-709.660	-200.000	-0.025	-0.217
-708.645	-120.144	-0.197	-0.034
-707.631	61.170	-0.213	0.214
-706.616	-68.666	0.052	0.020
-705.602	-130.097	-0.118	-0.016
-704.587	-200.000	0.017	0.122
-703.572	184.558	-0.089	0.134
-702.558	-189.979	-0.115	0.001
-701.543	-200.000	0.034	-0.266
-700.529	599.831	-0.102	-0.256
-699.514	-44.959	-0.211	0.107
-698.499	-200.000	-0.063	-0.301
-697.485	-11.156	-0.149	-0.100
-696.470	-60.953	-0.394	-0.169
-695.456	648.286	0.088	-0.229
-694.441	42.902	0.208	-0.192
-693.426	329.437	-0.095	0.184
-692.412	800.000	-0.062	-0.232
-691.397	-200.000	-0.004	0.271
-690.383	-153.349	-0.145	0.010
-689.368	139.373	-0.286	-0.381
-688.354	-84.789	-0.187	0.059
-687.339	-98.123	-0.480	-0.125
-686.324	473.209	-0.195	-0.444
-685.310	-39.525	-0.276	0.146
-684.295	800.000	-0.064	0.256
-683.281	140.283	-0.113	-0.151
-682.266	409.236	-0.178	0.381
-681.251	77.746	0.014	0.015
-680.237	66.644	0.177	-0.183
-679.222	-32.703	0.039	-0.022
-678.208	-54.138	-0.172	0.079
-677.193	-107.657	-0.357	-0.079
-676.178	322.548	0.088	0.170
-675.164	-200.000	-0.015	-0.336
-674.149	280.368	0.040	0.072
-673.135	29.104	-0.194	0.167
-672.120	692.617	-0.058	0.154
-671.105	374.413	-0.050	0.103
-670.091	496.348	0.134	-0.313
-669.076	419.385	-0.095	-0.207
-668.062	-200.000	-0.013	-0.509
-667.047	-16.633	0.118	-0.076
-666.032	800.000	0.042	0.142
-665.018	9.503	-0.269	-0.206
-664.003	-59.967	-0.195	0.084
-662.989	-74.600	0.372	0.136
-661.974	-200.000	-0.025	-0.263
-660.959	800.000	-0.044	0.145
-659.945	16.854	-0.195	0.156
-658.930	365.762	-0.095	0.194
-657.916	-200.000	-0.001	0.161
-656.901	-200.000	-0.057	0.263
-655.886	800.000	-0.052	-0.216
-654.872	-150.392	-0.287	0.022
-653.857	16.854	-0.128	-0.103
-652.843	-127.587	-0.233	0.034
-651.828	-0.372	-0.350	-0.251
-650.814	800.000	0.018	-0.073
-649.799	-5.320	0.134	-0.093
-648.784	-111.148	0.280	0.058
-647.770	-76.508	0.340	-0.121
-646.755	800.000	-0.051	-0.212
-645.741	28.037	0.164	-0.140
-644.726	-68.920	-0.249	-0.097
-643.711	-41.514	-0.290	0.151
-642.697	-200.000	-0.095	0.477
-641.682	131.171	-0.285	-0.369
-640.668	-149.179	0.056	-0.005
-639.653	-153.652	-0.268	0.019
-638.638	749.606	-0.036	-0.098
-637.624	50.820	0.158	-0.151
-636.609	-200.000	0.009	-0.256
-635.595	-111.055	-0.166	-0.034
-634.580	800.000	-0.021	0.080
-633.565	-34.932	0.100	-0.055
-632.551	-200.000	0.009	-0.225
-631.536	-144.566	0.118	-0.011
-630.522	48.542	0.050	-0.047
-629.507	220.285	0.112	-0.181
-628.492	800.000	0.002	0.005
-627.478	48.786	0.146	-0.138
-626.463	-30.238	-0.248	-0.142
-625.449	113.512	-0.131	-0.160
-624.434	144.077	-0.246	0.332
-623.419	402.132	-0.050	-0.106
-622.405	109.489	0.087	0.105
-621.390	1.894	-0.251	-0.183
-620.376	-80.887	-0.178	-0.060
-619.361	436.477	0.059	0.130
-618.346	-58.791	0.083	-0.036
-617.332	-132.893	0.131	0.017
-616.317	800.000	-0.094	-0.304
-615.303	445.133	-0.124	-0.275
-614.288	-103.563	0.172	-0.041
-613.273	-16.206	0.175	-0.112
-612.259	-200.000	-0.041	-0.279
-611.244	-107.734	0.269	0.059
-610.230	-9.485	-0.178	0.120
-609.215	105.564	-0.131	0.157
-608.201	-200.000	-0.042	0.284
-607.186	-200.000	-0.013	0.166
-606.171	-200.000	-0.006	0.124
-605.157	800.000	-0.128	-0.371
-604.142	-124.382	0.147	0.023
-603.128	800.000	-0.043	-0.183
-602.113	800.000	-0.087	0.246
-601.098	-22.922	0.332	-0.202
-600.084	296.956	0.023	0.043
-599.069	-190.890	0.157	-0.002
-598.055	-200.000	-0.011	0.059
-597.040	154.346	-0.107	0.148
-596.025	-200.000	-0.031	0.168
-595.011	-14.912	0.071	-0.046
-593.996	-136.984	0.047	0.005
-592.982	558.056	0.075	-0.183
-591.967	-123.094	0.210	-0.034
-590.952	-65.242	-0.113	-0.046
-589.938	800.000	0.037	-0.119
-588.923	-65.594	0.273	-0.111
-587.909	-71.331	-0.347	0.131
-586.894	213.652	-0.097	0.155
-585.879	-50.128	0.133	-0.064
-584.865	800.000	-0.050	-0.150
-583.850	91.142	-0.187	-0.212
-582.836	-12.464	-0.077	0.050
-581.821	-200.000	-0.002	0.394
-580.806	-86.448	-0.151	-0.047
-579.792	493.385	0.154	0.356
-578.777	-49.789	0.143	-0.068
-577.763	800.000	-0.022	-0.096
-576.748	800.000	-0.025	-0.092
-575.733	51.057	0.225	-0.215
-574.719	15.034	-0.198	0.156
-573.704	-200.000	0.002	-0.184
-572.690	-200.000	-0.020	0.169
-571.675	15.873	0.102	-0.081
-570.661	-200.000	-0.005	-0.333
-569.646	285.872	0.189	0.343
-568.631	35.656	-0.293	-0.260
-567.617	-5.090	0.177	-0.122
-566.602	-48.224	-0.250	0.121
-565.588	533.689	-0.048	0.114
-564.573	-11.881	-0.022	-0.014
-563.558	640.099	0.071	0.182
-562.544	75.047	0.138	-0.147
-561.529	352.588	0.068	0.135
-560.515	-24.194	-0.348	-0.209
-559.500	-200.000	-0.032	-0.274
-558.485	-48.561	-0.065	-0.032
-557.471	-173.582	-0.243	0.007
-556.456	800.000	-0.076	0.226
-555.442	-173.294	-0.404	-0.012
-554.427	43.021	-0.110	0.101
-553.412	129.195	-0.043	0.055
-552.398	249.619	-0.048	-0.082
-551.383	-34.729	-0.232	-0.128
-550.369	538.080	0.021	0.051
-549.354	110.211	0.288	-0.348
-548.339	112.476	0.181	0.220
-547.325	-85.659	0.314	0.098
-546.310	233.630	-0.092	-0.152
-545.296	-9.192	0.271	-0.182
-544.281	-127.266	-0.329	-0.048
-543.266	-200.000	-0.001	-0.326
-542.252	-146.112	0.067	-0.006
-541.237	-57.934	-0.164	0.072
-540.223	50.349	-0.030	-0.029
-539.208	88.636	-0.072	0.081
-538.193	-200.000	0.033	-0.380
-537.179	0.123	-0.100	-0.072
-536.164	-32.999	-0.085	-0.048
-535.150	229.461	0.187	-0.307
-534.135	66.018	0.187	-0.191
-533.121	-167.089	-0.248	-0.010
-532.106	159.551	0.092	-0.129
-531.091	68.320	0.203	0.209
-530.077	-200.000	-0.010	0.143
-529.062	-127.702	-0.170	-0.025
-528.048	68.954	-0.124	-0.129
-527.033	-147.454	-0.165	0.014
-526.018	332.101	0.107	0.207
-525.004	278.055	-0.078	-0.140
-523.989	-177.031	-0.483	-0.012
-522.975	-120.904	0.134	-0.023
-521.960	800.000	0.115	-0.440
-520.945	173.560	-0.158	-0.229
-519.931	473.919	0.092	0.210
-518.916	102.622	-0.194	-0.228
-517.902	-35.441	0.195	0.106
-516.887	65.139	0.037	-0.037
-515.872	185.141	-0.139	0.207
-514.858	-103.512	0.219	0.052
-513.843	-146.229	-0.360	-0.032
-512.829	800.000	0.104	-0.344
-511.814	-41.471	0.156	-0.081
-510.799	-200.000	0.043	-0.322
-509.785	-134.070	-0.304	0.038
-508.770	109.187	-0.031	0.038
-507.756	-131.174	0.596	-0.080
-506.741	316.750	-0.112	-0.212
-505.726	-200.000	-0.022	-0.371
-504.712	33.879	-0.139	0.121
-503.697	12.372	-0.165	-0.128
-502.683	189.528	-0.110	-0.166
-501.668	-59.770	-0.048	-0.021
-500.653	108.453	0.109	-0.130
-499.639	-43.842	0.124	0.063
-498.624	22.378	0.078	0.064
-497.610	-95.279	-0.196	0.053
-496.595	339.319	-0.098	0.192
-495.581	-103.827	-0.315	0.074
-494.566	-200.000	0.041	0.180
-493.551	60.358	0.235	0.234
-492.537	-107.320	0.311	-0.069
-491.522	-149.071	-0.135	-0.011
-490.508	446.642	-0.054	-0.119
-489.493	2.866	0.159	0.116
-488.478	800.000	-0.140	-0.450
-487.464	-23.105	-0.257	-0.155
-486.449	698.439	0.069	-0.182
-485.435	323.436	0.289	-0.554
-484.420	-65.381	0.322	-0.130
-483.405	185.434	0.146	0.218
-482.391	297.448	0.084	0.155
-481.376	-87.347	-0.068	-0.021
-480.362	-200.000	-0.061	0.371
-479.347	26.462	0.509	0.428
-478.332	266.042	-0.206	-0.361
-477.318	51.688	-0.083	0.079
-476.303	800.000	-0.070	0.257
-475.289	-110.483	0.249	0.052
-474.274	25.634	0.218	0.183
-473.259	800.000	-0.037	-0.131
-472.245	-46.174	-0.234	0.116
-471.230	116.523	0.098	0.121
-470.216	-70.590	-0.207	-0.079
-469.201	-101.576	-0.166	-0.041
-468.186	677.754	-0.058	0.150
-467.172	46.189	0.127	0.118
-466.157	-93.584	-0.427	-0.118
-465.143	24.983	-0.144	-0.120
-464.128	196.511	-0.086	0.132
-463.113	23.306	-0.072	0.059
-462.099	93.369	0.138	0.157
-461.084	-157.467	0.214	0.013
-460.070	-200.000	0.004	0.038
-459.055	-200.000	-0.008	0.273
-458.040	78.458	0.244	-0.261
-457.026	-200.000	-0.009	0.047
-456.011	800.000	0.096	-0.370
-454.997	174.105	0.127	-0.183
-453.982	-200.000	0.620	-0.002
-452.968	-78.104	-0.218	-0.075
-451.953	800.000	0.050	0.152
-450.938	-90.977	0.228	0.066
-449.924	-123.552	-0.356	0.057
-448.909	558.979	-0.073	-0.177
-447.895	113.501	0.267	0.325
-446.880	-200.000	-0.003	0.117
-445.865	-57.046	0.168	-0.074
-444.851	-133.367	0.419	-0.053
-443.836	800.000	-0.055	0.203
-442.822	17.489	0.033	0.026
-441.807	-116.396	-0.132	-0.025
-440.792	-39.354	-0.292	0.154
-439.778	19.721	-0.325	-0.263
-438.763	39.660	-0.245	0.220
-437.749	791.318	-0.035	0.098
-436.734	-133.760	-0.140	-0.018
-435.719	553.758	0.050	-0.120
-434.705	56.257	-0.237	-0.231
-433.690	330.504	-0.204	-0.394
-432.676	-30.641	0.300	0.170
-431.661	-101.556	0.353	-0.086
-430.646	-136.921	-0.122	-0.014
-429.632	290.929	0.152	-0.277
-428.617	101.562	0.063	0.074
-427.603	295.379	-0.071	-0.131
-426.588	-61.072	-0.299	-0.126
-425.573	-109.891	0.406	-0.085
-424.559	-200.000	0.008	-0.252
-423.544	9.702	-0.288	0.218
-422.530	800.000	-0.043	0.148
-421.515	-25.322	-0.287	0.170
-420.500	800.000	-0.028	-0.108
-419.486	-200.000	-0.031	0.274
-418.471	800.000	-0.032	0.116
-417.457	800.000	0.031	0.096
-416.442	-123.566	-0.307	-0.049
-415.428	-40.936	0.146	-0.076
-414.413	157.237	0.207	0.287
-413.398	376.171	0.206	0.421
-412.384	-35.740	0.302	0.164
-411.369	-101.431	-0.155	0.038
-410.355	-39.361	-0.104	0.055
-409.340	800.000	0.048	-0.144
-408.325	32.556	-0.096	0.083
-407.311	70.087	0.186	-0.192
-406.296	-118.723	0.096	0.017
-405.282	14.355	-0.167	0.131
-404.267	73.525	0.337	0.353
-403.252	-200.000	0.022	0.182
-402.238	-58.942	0.119	-0.052
-401.223	-67.959	-0.059	0.023
-400.209	-160.825	0.042	0.002
-399.194	148.497	-0.038	0.051
-398.179	-124.859	-0.195	0.030
-397.165	-200.000	0.044	0.203
-396.150	-72.869	0.055	0.020
-395.136	-200.000	0.020	0.266
-394.121	288.385	0.109	0.198
-393.106	-65.308	-0.191	-0.077
-392.092	386.624	-0.049	-0.101
-391.077	-11.372	-0.105	-0.069
-390.063	142.170	0.195	-0.259
-389.048	-72.340	-0.160	-0.059
-388.033	70.448	-0.164	-0.170
-387.019	87.138	0.095	-0.105
-386.004	396.752	0.031	0.065
-384.990	270.020	0.087	0.153
-383.975	11.568	0.138	-0.106
-382.960	-200.000	-0.462	-0.002
-381.946	-116.300	0.095	-0.018
-380.931	452.366	-0.124	-0.273
-379.917	800.000	-0.106	-0.429
-378.902	-84.433	-0.052	-0.017
-377.888	800.000	0.096	-0.332
-376.873	451.725	0.115	-0.254
-375.858	-123.559	0.383	-0.061
-374.844	-145.010	-0.282	0.026
-373.829	512.580	-0.048	0.113
-372.815	19.830	0.182	-0.146
-371.800	-152.358	0.290	0.021
-370.785	166.345	0.034	0.048
-369.771	-80.899	-0.271	-0.090
-368.756	289.007	-0.038	0.068
-367.742	-200.000	-0.027	-0.203
-366.727	20.308	-0.307	-0.248
-365.712	-31.889	-0.034	-0.019
-364.698	-139.950	0.138	-0.015
-363.683	-64.059	-0.116	-0.047
-362.669	-85.857	-0.228	-0.071
-361.654	-92.821	0.327	0.092
-360.639	-17.433	-0.182	0.114
-359.625	67.725	0.273	-0.278
-358.610	536.499	0.122	0.290
-357.596	128.620	-0.035	-0.045
-356.581	-18.285	-0.189	-0.118
-355.566	-200.000	0.044	0.244
-354.552	722.056	-0.075	0.198
-353.537	-63.584	-0.078	-0.032
-352.523	-200.000	-0.001	-0.008
-351.508	-25.861	0.165	-0.097
-350.493	49.366	-0.116	0.109
-349.479	-200.000	0.082	-0.459
-348.464	-11.882	-0.159	-0.104
-347.450	302.643	0.122	-0.226
-346.435	-118.982	-0.105	0.018
-345.420	-200.000	0.024	-0.207
-344.406	53.847	-0.206	0.198
-343.391	-101.083	-0.326	-0.080
-342.377	-200.000	-0.033	-0.163
-341.362	-49.043	-0.346	0.166
-340.348	-78.353	-0.118	0.040
-339.333	-200.000	-0.020	0.158
-338.318	800.000	-0.018	0.064
-337.304	-15.065	-0.130	-0.083
-336.289	-200.000	-0.008	0.162
-335.275	-200.000	-0.028	0.178
-334.260	-111.081	-0.110	-0.022
-333.245	226.029	0.065	-0.106
-332.231	800.000	0.013	0.036
-331.216	137.829	0.091	-0.119
-330.202	-200.000	-0.012	-0.106
-329.187	559.287	-0.063	-0.151
-328.172	-104.492	0.122	-0.028
-327.158	283.455	-0.035	0.062
-326.143	800.000	-0.047	-0.188
-325.129	16.294	0.025	0.020
-324.114	150.215	0.030	-0.040
-323.099	95.141	-0.182	-0.207
-322.085	-200.000	-0.014	0.193
-321.070	-200.000	-0.045	-0.375
-320.056	-200.000	-0.003	-0.114
-319.041	-42.883	-0.181	0.092
-318.026	172.788	-0.056	-0.081
-317.012	53.924	0.398	0.381
-315.997	-166.951	-0.434	-0.018
-314.983	38.652	-0.198	0.176
-313.968	54.456	-0.199	0.191
-312.953	415.467	-0.052	-0.110
-311.939	671.750	0.167	0.432
-310.924	-36.800	-0.070	0.038
-309.910	-121.922	0.326	-0.053
-308.895	800.000	-0.139	0.552
-307.880	-134.339	-0.220	-0.027
-306.866	-200.000	0.058	-0.489
-305.851	-200.000	0.045	-0.310
-304.837	163.223	0.087	-0.122
-303.822	161.989	0.125	-0.174
-302.807	-67.511	-0.268	0.105
-301.793	800.000	0.089	0.315
-300.778	-4.262	-0.201	0.139
-299.764	-102.532	-0.220	-0.052
-298.749	32.346	0.121	0.104
-297.735	-200.000	-0.008	-0.099
-296.720	356.853	-0.109	0.217
-295.705	270.866	0.116	0.204
-294.691	199.360	0.070	0.108
-293.676	-124.448	0.052	0.008
-292.662	687.948	-0.107	0.278
-291.647	-200.000	0.102	0.463
-290.632	87.939	-0.026	0.029
-289.618	800.000	0.038	-0.121
-288.603	-154.706	-0.080	0.005
-287.589	-156.275	0.080	0.005
-286.574	-28.131	-0.208	0.120
-285.559	85.053	0.141	-0.154
-284.545	107.556	-0.286	-0.339
-283.530	800.000	0.124	-0.356
-282.516	-200.000	-0.034	0.415
-281.501	800.000	0.075	0.255
-280.486	-6.413	0.135	-0.092
-279.472	800.000	0.099	-0.349
-278.457	-200.000	0.002	-0.343
-277.443	-106.072	0.202	-0.045
-276.428	158.392	0.024	-0.033
-275.413	9.834	-0.372	0.281
-274.399	-160.940	0.229	0.012
-273.384	-166.523	0.070	0.003
-272.370	87.815	0.191	0.211
-271.355	-79.788	-0.207	0.070
-270.340	83.229	-0.134	-0.145
-269.326	-34.076	-0.124	0.068
-268.311	97.927	-0.197	0.226
-267.297	-52.590	0.329	-0.151
-266.282	-75.980	-0.315	0.111
-265.267	800.000	-0.023	0.094
-264.253	800.000	-0.019	0.057
-263.238	338.727	0.069	-0.134
-262.224	800.000	0.087	0.327
-261.209	800.000	0.119	0.359
-260.195	-38.558	0.357	0.188
-259.180	168.535	-0.188	-0.267
-258.165	-200.000	0.050	-0.366
-257.151	103.734	0.222	-0.260
-256.136	5.469	0.238	0.175
-255.122	228.568	0.031	-0.050
-254.107	800.000	-0.074	0.212
-253.092	-129.261	-0.064	0.009
-252.078	-200.000	-0.025	0.157
-251.063	-200.000	-0.017	0.163
-250.049	-156.510	-0.117	0.007
-249.034	202.141	0.188	-0.289
-248.019	-124.897	-0.284	-0.043
-247.005	0.537	-0.150	-0.106
-245.990	-11.175	0.056	-0.037
-244.976	-15.413	0.323	-0.205
-243.961	-168.899	-0.031	0.001
-242.946	-200.000	-0.031	0.257
-241.932	-50.116	-0.102	-0.048
-240.917	373.651	0.146	-0.296
-239.903	-200.000	-0.009	-0.114
-238.888	41.676	0.120	-0.108
-237.873	800.000	-0.076	-0.218
-236.859	124.472	-0.285	0.357
-235.844	-200.000	0.061	-0.280
-234.830	406.274	0.026	-0.055
-233.815	-22.066	0.223	0.135
-232.800	-200.000	-0.005	-0.192
-231.786	-80.660	0.231	0.076
-230.771	-79.902	0.126	0.042
-229.757	-56.246	-0.176	-0.078
-228.742	-8.424	0.175	-0.117
-227.727	-35.898	-0.030	0.016
-226.713	-158.415	-0.068	0.004
-225.698	44.940	-0.213	0.195
-224.684	-52.175	-0.133	0.061
-223.669	67.376	-0.213	0.216
-222.655	97.206	0.103	0.118
-221.640	11.570	-0.122	-0.093
-220.625	800.000	-0.102	-0.411
-219.611	800.000	0.070	-0.235
-218.596	-183.565	-0.170	0.003
-217.582	800.000	-0.127	0.408
-216.567	222.441	-0.099	0.158
-215.552	-41.004	0.238	0.122
-214.538	-12.970	0.116	0.075
-213.523	16.562	0.216	0.169
-212.509	21.526	-0.266	0.215
-211.494	-114.717	0.307	-0.058
-210.479	-12.210	0.132	0.086
-209.465	-135.373	0.218	0.026
-208.450	800.000	-0.039	-0.114
-207.436	96.023	0.073	0.083
-206.421	-112.439	0.277	0.055
-205.406	-4.831	0.265	0.182
-204.392	-182.920	-0.212	-0.004
-203.377	-25.980	0.092	0.054
-202.363	-200.000	-0.010	-0.291
-201.348	800.000	0.064	0.240
-200.333	199.648	0.030	-0.046
-199.319	-45.670	-0.159	-0.078
-198.304	-11.249	0.189	0.124
-197.290	26.701	0.141	0.117
-196.275	55.760	0.210	-0.202
-195.260	-200.000	0.012	0.212
-194.246	79.448	0.326	0.347
-193.231	-46.836	0.137	-0.067
-192.217	-95.707	-0.253	0.067
-191.202	328.649	0.237	0.452
-190.187	242.946	0.106	0.176
-189.173	800.000	0.130	0.390
-188.158	705.649	0.211	0.552
-187.144	-3.048	0.149	0.103
-186.129	-14.376	-0.366	-0.234
-185.114	-89.963	0.347	0.100
-184.100	-9.060	0.074	-0.049
-183.085	-81.427	0.271	0.089
-182.071	29.900	0.038	0.032
-181.056	-200.000	-0.026	0.129
-180.042	-200.000	0.050	-0.395
-179.027	-145.203	-0.253	-0.023
-178.012	405.403	0.211	0.441
-176.998	380.768	0.046	0.093
-175.983	173.279	0.018	0.026
-174.969	-200.000	-0.047	0.273
-173.954	-142.511	0.263	0.026
-172.939	112.387	-0.230	0.276
-171.925	-49.396	0.364	0.172
-170.910	-78.373	-0.391	-0.133
-169.896	-200.000	0.056	0.281
-168.881	96.607	-0.264	0.300
-167.866	800.000	-0.100	0.406
-166.852	-4.656	0.164	0.112
-165.837	800.000	-0.050	0.211
-164.823	-49.680	0.248	0.117
-163.808	139.919	-0.197	0.257
-162.793	-112.106	0.272	0.054
-161.779	93.648	-0.153	-0.171
-160.764	-56.529	-0.400	-0.176
-159.750	62.943	0.279	0.277
-158.735	-22.963	0.079	0.047
-157.720	-200.000	0.024	-0.246
-156.706	-200.000	-0.006	-0.211
-155.691	-137.180	0.288	0.033
-154.677	-200.000	0.005	-0.026
-153.662	-40.233	0.294	-0.152
-152.647	-184.597	-0.230	0.004
-151.633	-200.000	-0.010	0.130
-150.618	800.000	0.083	-0.306
-149.604	220.756	0.287	-0.456
-148.589	73.105	0.169	-0.176
-147.574	-141.439	0.327	0.033
-146.560	277.428	0.208	-0.367
-145.545	-13.928	-0.509	-0.326
-144.531	-98.989	0.289	-0.073
-143.516	196.277	-0.095	0.143
-142.502	133.379	0.156	0.199
-141.487	-200.000	-0.006	0.065
-140.472	800.000	-0.029	-0.108
-139.458	-30.226	-0.102	-0.057
-138.443	-200.000	0.013	-0.354
-137.429	139.840	-0.021	0.027
-136.414	117.453	0.179	0.218
-135.399	-45.978	0.086	0.042
-134.385	14.997	0.161	-0.125
-133.370	10.367	0.144	0.109
-132.356	71.987	0.246	0.254
-131.341	23.413	-0.138	-0.112
-130.326	198.548	0.075	0.113
-129.312	240.254	-0.133	0.219
-128.297	-111.328	-0.217	-0.044
-127.283	115.660	0.122	-0.148
-126.268	-68.854	-0.210	0.080
-125.253	-111.407	-0.155	-0.031
-124.239	296.473	0.114	-0.207
-123.224	-200.000	-0.037	-0.310
-122.210	-128.811	-0.276	-0.038
