DTS Sentinel unit serial number:	SN413079Multiplexer serial number:	ORYXHardware model number:	OX4-SRSoftware version number:	ORYX F/W v4.00 Oryx Data Collector v3.7.2.0data status	okinstallation	princeton_trtdifferential loss correction	single-endedforward channel	channel 1reverse channel	N/Adate	2019/09/13time	06:06:35forward acquisition time	60.00reverse acquisition time	0.00gamma	496.2192k internal	0.2335k external	0.2335temperature offset calibration	1.0158default loss term (dB/km)	0.3790temperature slope calibration	1.0000multiplexer offset coefficient	1.0000multiplexer slope coefficient	1.0000fibre end	0.00T internal ref (°C)	26.12T ext. ref 1 (°C)	4.07T ext. ref 2 (°C)	20.93length (m)	temperature (°C)	Stokes	anti-Stokes-747.200	800.000	-0.088	0.359
-746.185	57.599	-0.038	0.037
-745.171	-200.000	0.008	0.210
-744.156	-7.149	-0.095	-0.065
-743.142	-200.000	0.031	0.291
-742.127	-69.010	0.331	0.128
-741.112	49.052	-0.192	-0.182
-740.098	-80.171	-0.322	0.108
-739.083	-46.146	0.085	0.042
-738.069	-200.000	0.004	0.131
-737.054	-200.000	-0.026	0.396
-736.039	-27.439	-0.123	0.072
-735.025	-72.449	0.084	0.031
-734.010	236.461	-0.126	-0.209
-732.996	-200.000	-0.004	-0.141
-731.981	218.934	0.079	0.127
-730.966	149.926	0.140	-0.190
-729.952	170.132	0.105	-0.150
-728.937	-39.409	-0.118	-0.062
-727.923	-64.540	0.242	-0.099
-726.908	89.585	-0.064	-0.072
-725.894	-34.277	0.127	0.070
-724.879	7.088	-0.069	0.052
-723.864	800.000	-0.076	-0.261
-722.850	453.326	0.014	0.031
-721.835	-76.995	-0.069	0.024
-720.821	800.000	-0.058	0.222
-719.806	-98.309	-0.111	0.029
-718.791	-53.031	-0.395	0.182
-717.777	82.990	-0.191	-0.208
-716.762	133.018	-0.067	-0.087
-715.748	-200.000	-0.011	0.205
-714.733	99.154	-0.110	0.128
-713.718	237.723	-0.130	0.216
-712.704	154.000	0.059	-0.081
-711.689	52.675	-0.195	-0.187
-710.675	-123.073	-0.253	0.041
-709.660	-200.000	0.035	-0.178
-708.645	-112.536	-0.167	0.033
-707.631	800.000	-0.066	0.268
-706.616	392.718	-0.138	0.287
-705.602	-141.230	-0.250	0.026
-704.587	-79.802	-0.264	0.089
-703.572	-148.297	-0.199	-0.016
-702.558	-49.743	-0.028	0.013
-701.543	-155.196	0.244	-0.016
-700.529	-194.954	-0.279	-0.002
-699.514	-13.153	-0.344	-0.224
-698.499	-200.000	-0.028	-0.162
-697.485	-61.506	-0.029	0.012
-696.470	364.167	-0.034	-0.069
-695.456	800.000	0.048	-0.169
-694.441	-200.000	0.006	-0.127
-693.426	800.000	-0.037	0.120
-692.412	800.000	0.081	-0.225
-691.397	-129.161	-0.125	0.018
-690.383	176.566	-0.136	-0.198
-689.368	85.652	-0.131	-0.144
-688.354	800.000	0.122	-0.409
-687.339	63.915	0.081	0.081
-686.324	18.455	-0.252	-0.201
-685.310	-191.184	-0.025	-0.000
-684.295	800.000	0.132	0.500
-683.281	296.877	0.047	0.086
-682.266	-5.542	-0.019	0.013
-681.251	-200.000	0.064	-0.439
-680.237	13.486	0.117	-0.091
-679.222	-16.393	-0.097	0.062
-678.208	81.040	-0.069	0.074
-677.193	183.859	-0.286	0.424
-676.178	-175.115	0.147	-0.004
-675.164	-72.669	0.104	0.038
-674.149	-17.132	0.128	-0.081
-673.135	290.660	0.102	-0.186
-672.120	-21.461	-0.302	0.185
-671.105	548.998	-0.052	0.125
-670.091	59.090	-0.231	-0.228
-669.076	-200.000	0.044	-0.311
-668.062	-43.580	-0.099	0.050
-667.047	-200.000	-0.004	-0.087
-666.032	-85.320	0.083	0.026
-665.018	-6.523	-0.195	0.133
-664.003	44.477	0.096	-0.088
-662.989	47.526	-0.204	-0.191
-661.974	38.873	-0.240	-0.214
-660.959	156.826	-0.136	0.188
-659.945	247.266	0.038	-0.064
-658.930	-200.000	0.007	0.430
-657.916	-111.842	-0.244	0.049
-656.901	-200.000	-0.039	0.272
-655.886	-9.661	0.201	-0.134
-654.872	35.379	0.195	0.171
-653.857	800.000	-0.065	-0.248
-652.843	-39.172	-0.377	-0.199
-651.828	557.073	-0.143	0.344
-650.814	147.189	-0.095	0.128
-649.799	777.749	-0.089	0.243
-648.784	106.409	-0.314	-0.373
-647.770	77.524	0.105	0.112
-646.755	-200.000	0.037	-0.312
-645.741	30.303	0.116	-0.099
-644.726	53.074	-0.133	0.127
-643.711	46.190	-0.151	-0.140
-642.697	13.533	0.058	-0.045
-641.682	-138.589	0.271	-0.030
-640.668	231.718	0.025	-0.042
-639.653	624.112	-0.093	-0.234
-638.638	800.000	-0.044	0.163
-637.624	-200.000	-0.050	0.425
-636.609	-184.455	0.262	-0.004
-635.595	455.296	-0.087	0.193
-634.580	-200.000	0.015	0.116
-633.565	-200.000	-0.045	0.215
-632.551	-200.000	0.007	-0.152
-631.536	-30.849	0.105	-0.060
-630.522	-200.000	-0.006	0.170
-629.507	-73.395	0.028	-0.010
-628.492	-37.393	0.225	0.120
-627.478	87.465	0.055	-0.060
-626.463	762.458	-0.088	-0.238
-625.449	-3.622	-0.163	0.113
-624.434	-140.840	-0.141	-0.015
-623.419	93.264	0.075	0.085
-622.405	-200.000	-0.005	0.069
-621.390	-29.498	-0.342	-0.196
-620.376	-200.000	0.232	-0.001
-619.361	159.960	0.244	-0.341
-618.346	-101.384	-0.106	-0.026
-617.332	302.050	-0.074	0.136
-616.317	73.806	-0.153	0.160
-615.303	99.572	-0.094	0.109
-614.288	-200.000	-0.066	0.377
-613.273	233.928	-0.080	0.132
-612.259	-200.000	0.009	0.154
-611.244	800.000	0.063	-0.242
-610.230	41.044	0.078	-0.071
-609.215	589.110	-0.050	-0.122
-608.201	613.158	-0.053	-0.133
-607.186	553.029	-0.042	-0.101
-606.171	224.017	-0.091	0.147
-605.157	148.890	-0.161	0.217
-604.142	33.820	-0.106	0.093
-603.128	-200.000	-0.055	-0.490
-602.113	-52.623	-0.352	-0.162
-601.098	786.625	0.112	-0.308
-600.084	-62.348	0.175	0.073
-599.069	443.806	0.105	0.230
-598.055	800.000	-0.058	-0.175
-597.040	800.000	0.063	-0.206
-596.025	77.405	-0.144	-0.153
-595.011	211.120	-0.069	0.108
-593.996	-200.000	-0.042	0.196
-592.982	83.338	-0.148	0.161
-591.967	-147.505	0.301	-0.025
-590.952	153.656	0.172	-0.235
-589.938	-120.674	-0.226	-0.038
-588.923	-135.134	0.153	0.018
-587.909	238.674	0.123	-0.205
-586.894	-88.127	0.227	-0.068
-585.879	-113.342	-0.178	0.035
-584.865	-75.332	0.262	-0.093
-583.850	-200.000	-0.067	-0.350
-582.836	479.370	0.092	-0.209
-581.821	393.227	0.179	0.372
-580.806	-85.029	-0.121	-0.038
-579.792	-56.270	0.327	-0.145
-578.777	127.711	-0.188	0.239
-577.763	135.694	0.097	0.126
-576.748	-200.000	-0.076	0.401
-575.733	479.074	0.075	0.170
-574.719	288.906	-0.064	-0.115
-573.704	-92.521	-0.294	-0.082
-572.690	-122.189	-0.050	-0.008
-571.675	-200.000	-0.094	0.497
-570.661	-48.179	0.147	0.071
-569.646	-86.990	0.099	0.030
-568.631	-200.000	-0.015	0.292
-567.617	48.658	-0.140	-0.131
-566.602	-200.000	-0.355	-0.001
-565.588	-42.477	0.159	0.081
-564.573	800.000	-0.081	-0.265
-563.558	-200.000	-0.018	0.181
-562.544	591.718	0.085	-0.209
-561.529	-149.615	0.270	0.021
-560.515	248.200	0.131	0.222
-559.500	-200.000	0.005	-0.028
-558.485	-23.062	-0.076	-0.046
-557.471	-200.000	0.013	-0.361
-556.456	-17.524	-0.340	-0.213
-555.442	52.667	0.110	0.104
-554.427	-80.704	0.104	-0.034
-553.412	85.572	0.214	-0.234
-552.398	-13.693	-0.239	0.154
-551.383	800.000	0.060	0.171
-550.369	117.184	0.233	-0.285
-549.354	145.038	-0.062	0.083
-548.339	-200.000	-0.002	0.033
-547.325	198.343	-0.137	0.209
-546.310	-40.080	-0.152	0.079
-545.296	-20.907	-0.236	-0.144
-544.281	65.955	0.221	-0.223
-543.266	307.870	0.291	-0.542
-542.252	-145.838	0.068	-0.006
-541.237	376.261	-0.105	-0.213
-540.223	-106.802	0.198	0.044
-539.208	83.498	-0.113	-0.123
-538.193	-72.743	-0.408	0.150
-537.179	89.277	0.165	-0.183
-536.164	-97.848	-0.179	0.046
-535.150	-200.000	-0.001	0.111
-534.135	744.907	-0.123	-0.331
-533.121	327.111	-0.032	0.061
-532.106	800.000	-0.117	-0.442
-531.091	56.193	-0.277	0.268
-530.077	800.000	-0.064	0.263
-529.062	-60.323	-0.186	0.079
-528.048	-44.332	0.249	-0.124
-527.033	90.161	-0.072	0.080
-526.018	10.942	-0.222	-0.169
-525.004	428.622	-0.051	-0.109
-523.989	13.856	-0.151	-0.117
-522.975	123.660	0.063	-0.078
-521.960	185.061	0.098	0.145
-520.945	800.000	0.074	-0.314
-519.931	69.690	-0.145	0.149
-518.916	-136.611	-0.054	0.006
-517.902	-200.000	-0.014	-0.286
-516.887	-200.000	0.006	-0.401
-515.872	-102.896	-0.010	-0.002
-514.858	-200.000	0.008	-0.109
-513.843	116.777	0.213	0.260
-512.829	-62.281	-0.120	0.050
-511.814	-200.000	0.006	-0.178
-510.799	606.045	0.027	-0.067
-509.785	-146.136	0.104	0.009
-508.770	800.000	-0.084	0.272
-507.756	-173.570	-0.226	-0.007
-506.741	-142.554	0.159	-0.016
-505.726	-81.750	0.146	-0.048
-504.712	-200.000	0.010	0.081
-503.697	-53.486	-0.388	0.177
-502.683	-91.430	-0.289	-0.082
-501.668	73.451	0.076	0.079
-500.653	56.716	-0.029	-0.028
-499.639	524.010	-0.102	-0.239
-498.624	-75.659	-0.119	-0.042
-497.610	-200.000	-0.029	0.255
-496.595	-182.679	0.125	0.002
-495.581	-31.373	-0.201	0.113
-494.566	-162.704	0.089	0.004
-493.551	58.146	0.233	-0.227
-492.537	-39.093	-0.261	-0.137
-491.522	-41.778	-0.073	0.037
-490.508	55.654	-0.141	0.136
-489.493	-35.852	0.160	0.086
-488.478	20.543	0.317	0.255
-487.464	402.561	0.183	0.382
-486.449	800.000	-0.070	0.213
-485.435	216.614	-0.061	0.097
-484.420	-5.617	0.238	-0.162
-483.405	569.899	-0.043	-0.104
-482.391	-200.000	-0.004	0.179
-481.376	121.516	0.195	-0.242
-480.362	-200.000	-0.064	-0.290
-479.347	558.176	0.175	-0.420
-478.332	-143.006	0.336	-0.032
-477.318	-6.253	0.137	-0.093
-476.303	122.408	0.194	0.240
-475.289	-155.026	0.406	-0.026
-474.274	-200.000	-0.018	-0.212
-473.259	800.000	-0.096	-0.322
-472.245	-97.215	0.050	-0.013
-471.230	256.089	0.085	0.145
-470.216	-200.000	-0.015	-0.168
-469.201	-200.000	0.010	0.191
-468.186	625.579	-0.032	0.081
-467.172	-146.396	0.185	0.016
-466.157	-200.000	-0.013	0.125
-465.143	-186.073	-0.392	-0.006
-464.128	-200.000	-0.010	-0.226
-463.113	-67.375	0.165	0.064
-462.099	-44.797	0.178	-0.088
-461.084	103.775	-0.160	0.186
-460.070	800.000	-0.059	-0.207
-459.055	4.878	-0.077	0.056
-458.040	-200.000	0.003	0.114
-457.026	98.988	0.332	0.381
-456.011	209.854	0.177	-0.275
-454.997	57.431	-0.036	-0.035
-453.982	-200.000	0.010	0.361
-452.968	49.150	-0.157	0.146
-451.953	-5.382	-0.106	0.072
-450.938	16.712	-0.250	-0.196
-449.924	226.375	-0.294	-0.474
-448.909	-48.187	-0.294	-0.141
-447.895	-200.000	-0.010	0.105
-446.880	60.979	0.139	0.137
-445.865	-174.462	0.332	-0.009
-444.851	800.000	0.028	0.114
-443.836	465.956	0.193	0.429
-442.822	146.664	-0.084	0.112
-441.807	-137.697	-0.167	0.019
-440.792	20.116	0.198	-0.159
-439.778	800.000	0.064	-0.260
-438.763	-155.902	0.481	-0.030
-437.749	-172.685	0.289	-0.009
-436.734	27.664	0.033	-0.028
-435.719	-200.000	-0.008	-0.116
-434.705	113.216	-0.216	0.260
-433.690	-38.324	0.204	-0.107
-432.676	442.064	-0.058	0.127
-431.661	-45.776	-0.343	-0.168
-430.646	-44.449	-0.324	0.161
-429.632	-22.578	-0.161	0.097
-428.617	277.307	0.068	0.119
-427.603	-24.342	0.215	0.127
-426.588	-157.419	-0.135	-0.008
-425.573	136.891	-0.077	0.100
-424.559	-151.203	-0.271	-0.020
-423.544	-150.577	0.060	-0.005
-422.530	19.078	-0.209	-0.166
-421.515	-73.368	0.219	0.079
-420.500	263.758	-0.014	-0.024
-419.486	800.000	-0.002	0.010
-418.471	85.121	0.090	0.098
-417.457	59.716	-0.249	0.243
-416.442	-121.480	-0.137	0.023
-415.428	-8.863	-0.091	-0.060
-414.413	138.674	0.202	-0.263
-413.398	102.282	0.236	-0.274
-412.384	189.056	0.162	-0.241
-411.369	194.097	-0.185	-0.279
-410.355	-73.969	-0.402	-0.145
-409.340	174.133	-0.161	0.231
-408.325	-63.546	0.266	-0.108
-407.311	-138.899	-0.062	-0.007
-406.296	-136.868	0.308	-0.035
-405.282	535.971	0.017	-0.039
-404.267	376.023	0.093	0.188
-403.252	-62.866	-0.196	0.080
-402.238	492.390	-0.003	-0.007
-401.223	-29.249	-0.145	-0.082
-400.209	450.625	-0.018	0.040
-399.194	-128.991	-0.189	-0.026
-398.179	318.381	-0.089	-0.168
-397.165	800.000	-0.045	-0.137
-396.150	75.951	0.004	-0.004
-395.136	249.886	0.018	0.030
-394.121	-200.000	-0.029	-0.408
-393.106	-82.138	0.187	0.060
-392.092	-7.248	0.403	-0.270
-391.077	229.356	0.118	0.191
-390.063	383.902	-0.078	-0.158
-389.048	202.204	-0.114	-0.175
-388.033	247.754	-0.067	0.112
-387.019	92.879	0.051	0.057
-386.004	-130.367	0.276	-0.037
-384.990	23.282	0.217	-0.177
-383.975	800.000	0.060	0.189
-382.960	-93.839	0.096	0.026
-381.946	-66.338	0.073	-0.029
-380.931	421.294	0.119	-0.253
-379.917	-52.148	0.244	0.112
-378.902	-177.509	0.235	0.006
-377.888	-110.735	-0.186	-0.038
-376.873	-200.000	0.013	0.091
-375.858	278.774	-0.214	0.377
-374.844	-121.576	-0.140	-0.023
-373.829	-89.067	-0.136	0.040
-372.815	-200.000	0.011	0.113
-371.800	-121.925	-0.332	0.054
-370.785	800.000	-0.205	-0.607
-369.771	37.241	0.064	-0.056
-368.756	326.904	-0.113	0.215
-367.742	-41.273	0.502	-0.256
-366.727	-56.364	0.228	0.100
-365.712	-103.334	-0.091	-0.021
-364.698	281.245	-0.057	0.101
-363.683	-200.000	-0.009	-0.303
-362.669	634.850	0.110	0.276
-361.654	18.429	-0.121	-0.096
-360.639	-200.000	0.036	0.217
-359.625	62.541	0.182	-0.180
-358.610	-200.000	-0.050	0.222
-357.596	1.915	0.447	-0.319
-356.581	375.331	-0.039	0.078
-355.566	800.000	0.090	-0.306
-354.552	-110.755	-0.034	-0.007
-353.537	83.095	-0.211	-0.227
-352.523	590.337	0.136	0.332
-351.508	33.901	-0.232	0.200
-350.493	800.000	0.082	-0.261
-349.479	16.646	-0.189	-0.148
-348.464	127.662	0.157	0.198
-347.450	665.862	-0.084	-0.214
-346.435	5.572	0.073	-0.054
-345.420	144.645	0.097	0.128
-344.406	-49.328	-0.232	-0.110
-343.391	-140.148	-0.089	-0.009
-342.377	47.226	0.033	0.031
-341.362	-40.678	-0.084	0.043
-340.348	-200.000	-0.022	-0.102
-339.333	151.532	0.109	0.147
-338.318	800.000	-0.127	-0.470
-337.304	-142.948	0.214	-0.021
-336.289	-200.000	0.022	-0.231
-335.275	-2.899	-0.027	0.018
-334.260	-109.375	0.100	-0.021
-333.245	320.774	0.122	0.229
-332.231	-200.000	0.019	0.193
-331.216	-1.449	-0.105	0.073
-330.202	118.032	-0.123	0.149
-329.187	-84.469	-0.457	0.143
-328.172	169.802	0.187	-0.264
-327.158	9.900	0.254	-0.190
-326.143	-200.000	-0.000	0.070
-325.129	-32.504	-0.317	0.175
-324.114	426.298	0.104	0.221
-323.099	773.005	-0.053	0.144
-322.085	-200.000	0.010	-0.118
-321.070	-200.000	-0.020	0.226
-320.056	172.263	-0.050	-0.071
-319.041	79.392	0.210	0.223
-318.026	800.000	-0.056	-0.191
-317.012	-105.065	0.295	0.067
-315.997	22.091	0.035	-0.028
-314.983	-114.683	-0.141	0.027
-313.968	-4.407	-0.174	-0.119
-312.953	-27.610	-0.281	0.161
-311.939	-12.301	-0.246	-0.159
-310.924	24.979	-0.167	0.137
-309.910	-104.388	-0.223	0.051
-308.895	-45.495	0.259	0.127
-307.880	800.000	-0.044	0.160
-306.866	-94.542	-0.301	-0.081
-305.851	-135.366	0.257	-0.030
-304.837	70.481	0.355	-0.363
-303.822	800.000	-0.076	-0.280
-302.807	225.832	-0.067	0.107
-301.793	14.654	0.114	0.088
-300.778	-82.883	0.193	0.061
-299.764	288.086	0.178	0.319
-298.749	-5.847	0.162	-0.110
-297.735	18.683	0.286	-0.226
-296.720	-200.000	0.078	0.437
-295.705	800.000	0.064	-0.257
-294.691	-95.914	-0.497	-0.131
-293.676	-200.000	-0.057	0.273
-292.662	-23.612	0.138	0.082
-291.647	-157.068	-0.261	-0.016
-290.632	-97.678	0.257	0.066
-289.618	6.911	0.094	0.069
-288.603	269.996	0.086	-0.149
-287.589	-98.715	-0.207	-0.052
-286.574	800.000	-0.028	-0.086
-285.559	246.919	0.045	-0.075
-284.545	800.000	-0.046	-0.149
-283.530	-5.702	0.181	0.122
-282.516	11.844	-0.326	0.247
-281.501	-161.449	0.164	0.008
-280.486	-138.396	0.244	-0.026
-279.472	176.951	0.069	0.098
-278.457	20.733	0.175	-0.139
-277.443	-200.000	-0.048	0.238
-276.428	-43.560	-0.026	-0.013
-275.413	-200.000	0.027	0.382
-274.399	-62.739	-0.401	-0.164
-273.384	30.455	0.218	0.184
-272.370	128.187	-0.118	0.148
-271.355	133.368	0.145	0.185
-270.340	92.909	0.037	0.041
-269.326	-92.369	-0.039	0.011
-268.311	63.632	-0.273	-0.270
-267.297	553.726	0.055	-0.130
-266.282	361.924	-0.161	-0.318
-265.267	-71.353	0.168	0.062
-264.253	-200.000	0.001	0.035
-263.238	-200.000	-0.040	-0.227
-262.224	-142.549	0.127	0.012
-261.209	-95.926	0.219	0.058
-260.195	263.051	0.222	0.380
-259.180	-200.000	-0.044	0.293
-258.165	-67.731	-0.058	-0.022
-257.151	-200.000	0.046	-0.312
-256.136	-18.683	0.210	-0.129
-255.122	311.519	-0.214	0.395
-254.107	73.616	0.189	0.195
-253.092	-200.000	-0.032	-0.167
-252.078	61.835	-0.285	0.280
-251.063	-8.263	-0.096	-0.063
-250.049	-114.043	0.094	0.018
-249.034	130.584	-0.256	0.324
-248.019	222.314	-0.109	0.172
-247.005	-68.768	-0.061	-0.023
-245.990	2.750	0.411	0.293
-244.976	135.798	-0.276	0.354
-243.961	99.482	0.156	-0.178
-242.946	510.507	-0.062	-0.141
-241.932	188.665	-0.112	-0.165
-240.917	13.072	-0.112	-0.085
-239.903	800.000	-0.098	0.301
-238.888	232.814	-0.133	0.216
-237.873	218.987	0.009	-0.015
-236.859	-115.027	0.185	-0.035
-235.844	-12.448	0.401	0.258
-234.830	-101.108	0.131	0.032
-233.815	39.321	0.268	-0.236
-232.800	-39.038	0.051	-0.026
-231.786	208.036	-0.046	-0.070
-230.771	-116.674	0.234	0.042
-229.757	-107.780	0.298	0.064
-228.742	-152.023	-0.276	0.020
-227.727	219.391	-0.055	0.086
-226.713	-200.000	0.033	0.448
-225.698	478.123	-0.110	0.245
-224.684	-30.406	-0.298	-0.166
-223.669	800.000	-0.125	-0.347
-222.655	-91.010	-0.253	0.072
-221.640	-7.294	0.142	0.094
-220.625	20.204	-0.391	-0.311
-219.611	239.882	0.082	-0.135
-218.596	800.000	-0.065	-0.233
-217.582	272.221	0.043	-0.075
-216.567	52.309	0.227	0.213
-215.552	178.972	0.196	-0.282
-214.538	184.859	-0.197	0.287
-213.523	-42.696	0.346	0.173
-212.509	392.808	0.150	0.308
-211.494	1.221	-0.042	-0.030
-210.479	-200.000	-0.030	-0.248
-209.465	-67.303	0.304	-0.118
-208.450	-9.206	-0.214	-0.141
-207.436	800.000	0.075	0.205
-206.421	-12.410	0.287	0.185
-205.406	-102.526	-0.361	0.085
-204.392	-146.318	-0.176	0.015
-203.377	-17.530	-0.210	-0.130
-202.363	-85.520	0.265	-0.081
-201.348	-200.000	-0.009	0.109
-200.333	-200.000	-0.011	-0.203
-199.319	31.094	-0.056	0.047
-198.304	-0.841	0.095	0.066
-197.290	91.407	-0.046	-0.051
-196.275	-200.000	0.030	-0.292
-195.260	-66.523	-0.189	0.074
-194.246	800.000	-0.047	-0.173
-193.231	800.000	0.068	-0.249
-192.217	-72.511	-0.274	-0.099
-191.202	-32.429	0.207	0.114
-190.187	187.351	-0.188	-0.276
-189.173	800.000	-0.032	0.117
-188.158	273.781	0.070	-0.122
-187.144	150.465	-0.137	0.183
-186.129	-46.018	0.075	0.036
-185.114	-27.339	-0.146	0.084
-184.100	-18.530	0.266	0.163
-183.085	-119.140	0.146	0.025
-182.071	80.448	-0.098	0.103
-181.056	151.781	-0.019	-0.026
-180.042	-50.660	-0.097	0.045
-179.027	96.290	0.187	-0.211
-178.012	-135.183	0.118	-0.014
-176.998	-62.243	-0.374	0.153
-175.983	800.000	0.061	0.243
-174.969	148.563	-0.046	-0.061
-173.954	195.705	-0.146	0.219
-172.939	688.691	0.015	0.038
-171.925	-95.783	-0.093	-0.024
-170.910	-200.000	-0.006	0.168
-169.896	155.506	0.112	0.152
-168.881	-200.000	-0.089	-0.436
-167.866	536.517	0.109	-0.255
-166.852	-49.308	-0.190	0.089
-165.837	-83.969	-0.703	0.220
-164.823	72.399	0.090	0.092
-163.808	16.811	0.187	-0.146
-162.793	-92.315	-0.123	-0.034
-161.779	-37.155	0.255	0.134
-160.764	53.532	-0.287	0.271
-159.750	-91.285	0.050	-0.014
-158.735	800.000	0.055	0.226
-157.720	-77.670	0.036	0.012
-156.706	-200.000	0.027	-0.154
-155.691	28.709	0.130	-0.108
-154.677	-200.000	-0.031	0.213
-153.662	10.673	0.121	0.091
-152.647	36.415	0.228	0.197
-151.633	-133.335	0.169	-0.021
-150.618	-117.287	-0.488	-0.087
-149.604	213.082	-0.206	0.320
-148.589	32.761	0.180	0.153
-147.574	-111.474	0.194	-0.039
-146.560	-53.559	0.195	-0.087
-145.545	800.000	0.088	0.300
-144.531	-4.008	0.213	0.145
-143.516	426.780	-0.144	-0.306
-142.502	-149.846	-0.022	-0.002
-141.487	-10.584	0.275	-0.179
-140.472	32.317	-0.025	-0.022
-139.458	20.642	-0.091	0.072
-138.443	331.493	0.053	-0.101
-137.429	-19.006	-0.209	0.127
-136.414	290.994	-0.275	0.491
-135.399	800.000	0.097	-0.316
-134.385	-39.859	-0.050	-0.025
-133.370	123.689	0.121	0.149
-132.356	-95.895	-0.036	0.009
-131.341	44.628	0.082	-0.074
-130.326	69.056	0.155	-0.156
-129.312	-9.860	-0.182	-0.119
-128.297	-43.923	-0.129	-0.063
-127.283	247.887	0.133	0.221
-126.268	181.913	0.074	-0.106
-125.253	35.414	0.144	0.124
-124.239	540.897	0.026	-0.061
-123.224	18.028	-0.174	0.136
-122.210	513.000	0.091	0.207
-121.195	136.182	0.059	0.075
-120.180	-147.646	-0.075	-0.006
