DTS Sentinel unit serial number:	SN413079Multiplexer serial number:	ORYXHardware model number:	OX4-SRSoftware version number:	ORYX F/W v4.00 Oryx Data Collector v3.7.2.0data status	okinstallation	princeton_trtdifferential loss correction	single-endedforward channel	channel 1reverse channel	N/Adate	2019/09/12time	19:51:34forward acquisition time	15.00reverse acquisition time	0.00gamma	496.2192k internal	0.2322k external	0.2322temperature offset calibration	1.0139default loss term (dB/km)	0.3790temperature slope calibration	1.0000multiplexer offset coefficient	1.0000multiplexer slope coefficient	1.0000fibre end	0.00T internal ref (°C)	31.87T ext. ref 1 (°C)	3.45T ext. ref 2 (°C)	26.53length (m)	temperature (°C)	Stokes	anti-Stokes-747.200	-8.656	-0.555	0.376
-746.185	-57.242	0.198	0.088
-745.171	-4.563	0.151	0.105
-744.156	-147.209	0.380	0.033
-743.142	-52.507	-0.620	0.290
-742.127	800.000	-0.139	0.543
-741.112	-105.750	-0.205	-0.047
-740.098	37.037	0.265	0.237
-739.083	6.651	0.297	0.223
-738.069	-61.262	0.834	-0.355
-737.054	800.000	0.047	-0.191
-736.039	800.000	0.078	0.296
-735.025	800.000	-0.134	-0.557
-734.010	-82.371	0.668	-0.219
-732.996	-73.368	0.686	-0.253
-731.981	176.054	-0.106	0.156
-730.966	-200.000	0.062	-1.131
-729.952	11.347	-0.524	-0.405
-728.937	-95.914	-0.450	0.121
-727.923	-200.000	-0.057	-0.750
-726.908	-81.887	-0.855	0.282
-725.894	365.019	-0.054	0.109
-724.879	800.000	-0.036	-0.158
-723.864	-30.401	0.025	0.014
-722.850	396.035	0.088	-0.185
-721.835	-99.766	-0.445	-0.113
-720.821	41.495	-0.488	-0.446
-719.806	694.001	0.126	-0.334
-718.791	-200.000	-0.049	-0.467
-717.777	-173.587	-0.461	-0.014
-716.762	-4.730	0.172	-0.120
-715.748	114.866	0.382	0.470
-714.733	28.055	-0.989	-0.842
-713.718	-111.187	0.417	-0.086
-712.704	-49.149	-0.304	0.146
-711.689	16.959	-0.430	0.344
-710.675	221.998	-0.332	0.539
-709.660	-200.000	0.054	0.332
-708.645	-200.000	-0.009	0.267
-707.631	-53.713	0.386	0.178
-706.616	-128.757	0.262	-0.037
-705.602	-143.295	-0.397	0.038
-704.587	250.640	0.528	0.905
-703.572	800.000	0.343	-1.211
-702.558	-44.184	0.640	-0.324
-701.543	-53.897	0.467	0.215
-700.529	800.000	-0.204	0.616
-699.514	-124.891	-0.790	-0.123
-698.499	-200.000	-0.076	0.563
-697.485	-5.586	-0.419	-0.290
-696.470	-99.300	-0.910	0.231
-695.456	800.000	-0.068	-0.199
-694.441	800.000	0.216	-0.631
-693.426	800.000	-0.050	-0.196
-692.412	213.136	0.222	0.353
-691.397	-98.888	0.586	0.150
-690.383	-110.584	-0.390	-0.081
-689.368	-67.059	-0.986	-0.392
-688.354	97.617	0.572	-0.663
-687.339	425.674	-0.371	-0.806
-686.324	-200.000	-0.059	0.741
-685.310	222.237	0.128	0.208
-684.295	208.731	-0.522	-0.824
-683.281	-96.934	-0.333	-0.088
-682.266	-54.354	0.262	0.120
-681.251	498.417	-0.075	-0.174
-680.237	-130.871	-0.400	0.054
-679.222	237.460	-0.173	-0.288
-678.208	4.555	-0.189	-0.140
-677.193	-200.000	-0.012	0.560
-676.178	11.748	0.269	-0.208
-675.164	33.451	0.261	0.229
-674.149	-200.000	-0.063	-0.454
-673.135	41.240	0.575	-0.523
-672.120	800.000	-0.116	0.384
-671.105	-75.682	0.379	-0.136
-670.091	4.087	0.515	0.380
-669.076	-200.000	0.078	-0.640
-668.062	-200.000	0.033	0.238
-667.047	-30.123	0.329	-0.189
-666.032	-200.000	-0.132	-0.671
-665.018	-10.271	0.225	-0.151
-664.003	800.000	0.194	0.730
-662.989	3.477	-0.627	0.460
-661.974	-165.339	-0.514	-0.023
-660.959	6.150	-0.659	-0.492
-659.945	-200.000	0.148	-0.732
-658.930	167.794	0.300	0.430
-657.916	-200.000	0.080	0.652
-656.901	-86.480	-0.213	0.066
-655.886	-200.000	-0.029	0.476
-654.872	752.113	-0.148	0.402
-653.857	285.739	-0.105	0.191
-652.843	-200.000	0.116	0.762
-651.828	14.170	-0.211	-0.166
-650.814	-45.139	0.532	-0.266
-649.799	-5.209	-0.549	-0.380
-648.784	338.593	0.448	0.879
-647.770	189.775	0.499	-0.753
-646.755	-129.095	-0.225	-0.032
-645.741	145.339	-0.247	-0.333
-644.726	-43.705	-0.426	-0.216
-643.711	200.370	0.095	-0.146
-642.697	-89.676	0.907	-0.267
-641.682	18.597	0.550	0.443
-640.668	-4.034	-0.137	0.095
-639.653	474.687	-0.272	-0.618
-638.638	-200.000	0.048	-0.990
-637.624	517.863	0.061	-0.144
-636.609	800.000	-0.108	-0.402
-635.595	726.161	0.286	0.767
-634.580	-200.000	-0.001	0.113
-633.565	-0.857	0.525	-0.374
-632.551	-57.354	0.691	0.305
-631.536	749.887	0.073	0.197
-630.522	-200.000	-0.065	-0.432
-629.507	-200.000	0.065	0.288
-628.492	-165.981	0.159	0.007
-627.478	131.708	-0.146	-0.189
-626.463	-43.827	0.451	0.228
-625.449	-45.654	-0.727	0.361
-624.434	800.000	0.168	0.614
-623.419	116.006	0.272	-0.335
-622.405	413.726	-0.111	0.237
-621.390	121.962	0.532	-0.668
-620.376	313.589	0.231	-0.437
-619.361	697.062	-0.280	0.738
-618.346	182.573	-0.398	-0.590
-617.332	-5.308	0.603	-0.417
-616.317	-200.000	0.036	0.231
-615.303	-182.534	0.578	0.011
-614.288	-200.000	-0.070	-0.697
-613.273	49.586	-0.391	-0.370
-612.259	-76.548	0.523	-0.184
-611.244	31.281	0.298	0.257
-610.230	-55.132	-0.595	-0.269
-609.215	14.961	-0.805	-0.633
-608.201	800.000	-0.267	-0.743
-607.186	-78.656	-0.397	-0.136
-606.171	576.194	-0.042	-0.104
-605.157	-7.566	-0.456	-0.310
-604.142	-138.426	-0.028	-0.003
-603.128	-49.311	-0.105	-0.050
-602.113	23.660	0.089	-0.073
-601.098	800.000	-0.221	0.628
-600.084	44.330	0.631	-0.581
-599.069	54.628	0.061	-0.059
-598.055	-200.000	0.156	0.708
-597.040	-51.959	-0.499	-0.233
-596.025	-5.634	-0.484	-0.333
-595.011	63.787	0.195	0.196
-593.996	-24.425	-0.366	0.219
-592.982	251.412	0.370	-0.632
-591.967	500.282	0.109	-0.251
-590.952	463.445	0.324	-0.728
-589.938	139.625	-0.178	0.235
-588.923	-200.000	0.039	0.651
-587.909	771.862	0.038	-0.103
-586.894	294.009	-0.262	0.480
-585.879	-39.615	-0.402	0.211
-584.865	-134.630	-0.372	0.046
-583.850	203.401	0.494	0.767
-582.836	-39.553	-0.184	0.097
-581.821	-200.000	0.152	-0.789
-580.806	-60.064	1.313	0.562
-579.792	-200.000	0.002	-0.436
-578.777	-104.690	-1.101	0.255
-577.763	156.230	0.394	0.545
-576.748	-132.319	-1.146	0.149
-575.733	-38.311	0.533	0.284
-574.719	-200.000	0.037	-0.366
-573.704	-200.000	0.031	-0.254
-572.690	10.391	-0.263	-0.201
-571.675	-164.091	-0.387	-0.018
-570.661	77.892	-0.116	-0.124
-569.646	6.768	0.232	0.173
-568.631	-200.000	-0.046	-0.572
-567.617	-200.000	0.036	0.190
-566.602	512.867	0.205	-0.479
-565.588	-200.000	-0.182	-0.001
-564.573	8.769	0.444	0.336
-563.558	800.000	-0.223	0.878
-562.544	175.072	0.193	0.280
-561.529	41.389	-0.456	0.413
-560.515	-200.000	0.029	0.198
-559.500	-15.487	0.800	-0.512
-558.485	780.827	0.197	0.541
-557.471	-10.638	0.157	-0.104
-556.456	187.590	-0.262	-0.392
-555.442	-141.183	0.476	-0.049
-554.427	0.060	0.285	0.204
-553.412	153.335	0.544	-0.747
-552.398	98.667	-0.134	0.155
-551.383	419.996	-0.070	0.151
-550.369	800.000	-0.079	0.248
-549.354	376.705	-0.173	0.354
-548.339	215.588	-0.250	-0.398
-547.325	-132.795	-0.713	-0.091
-546.310	-200.000	-0.183	-0.820
-545.296	25.263	0.494	-0.411
-544.281	121.864	0.159	-0.199
-543.266	122.462	-0.096	0.120
-542.252	430.193	-0.130	0.283
-541.237	3.948	-0.524	0.384
-540.223	233.381	-0.260	-0.428
-539.208	-78.505	0.488	-0.167
-538.193	-34.605	-0.547	-0.300
-537.179	-20.068	0.203	0.125
-536.164	-124.900	0.154	0.024
-535.150	-8.544	-0.679	-0.457
-534.135	-151.933	0.358	-0.026
-533.121	-120.251	-0.753	-0.129
-532.106	-79.189	0.232	-0.079
-531.091	137.265	-0.448	0.587
-530.077	-123.632	0.514	0.082
-529.062	-200.000	-0.085	0.427
-528.048	-149.372	-0.733	0.058
-527.033	-92.391	-0.622	-0.175
-526.018	-74.155	0.219	-0.080
-525.004	-73.641	-0.394	-0.144
-523.989	150.876	-0.420	-0.572
-522.975	-134.455	0.105	0.013
-521.960	35.155	0.603	0.530
-520.945	406.325	-0.134	0.283
-519.931	313.716	0.329	-0.619
-518.916	-200.000	0.071	-0.349
-517.902	-70.327	0.523	0.199
-516.887	-72.535	0.187	0.069
-515.872	-62.790	-0.512	-0.212
-514.858	207.949	0.423	0.661
-513.843	183.106	-0.225	-0.332
-512.829	800.000	-0.136	-0.466
-511.814	-15.511	0.088	-0.056
-510.799	235.483	-0.178	0.294
-509.785	-115.338	-0.576	-0.109
-508.770	109.098	-0.345	-0.413
-507.756	11.309	0.598	-0.459
-506.741	-116.987	-0.850	0.155
-505.726	-99.074	-0.621	-0.157
-504.712	-23.014	0.550	0.332
-503.697	145.983	0.467	-0.627
-502.683	-160.824	0.822	-0.043
-501.668	520.225	0.337	-0.792
-500.653	-200.000	-0.065	0.429
-499.639	322.885	0.225	-0.430
-498.624	-37.655	-0.912	0.486
-497.610	-29.025	-0.056	-0.032
-496.595	800.000	0.355	-1.079
-495.581	-40.012	-0.725	-0.378
-494.566	449.296	-0.063	0.140
-493.551	458.106	-0.266	0.591
-492.537	281.705	0.214	0.384
-491.522	649.172	0.069	0.178
-490.508	-200.000	-0.017	-0.338
-489.493	163.266	-0.329	-0.463
-488.478	277.103	0.255	0.454
-487.464	-137.243	-0.350	-0.040
-486.449	-136.555	-0.724	0.084
-485.435	-53.003	-0.583	0.268
-484.420	-92.789	-0.667	0.187
-483.405	-87.532	-0.954	-0.288
-482.391	-15.340	-0.307	-0.196
-481.376	-29.423	-0.171	-0.098
-480.362	-200.000	-0.067	-0.647
-479.347	415.041	-0.227	-0.483
-478.332	251.131	0.055	-0.094
-477.318	252.863	0.166	0.284
-476.303	-130.318	-0.441	-0.060
-475.289	-107.807	0.280	0.061
-474.274	-23.853	0.109	0.065
-473.259	-30.691	0.279	-0.158
-472.245	-47.104	0.235	0.115
-471.230	-200.000	-0.027	-0.457
-470.216	-134.464	-0.421	-0.052
-469.201	-200.000	-0.099	0.465
-468.186	800.000	0.081	0.298
-467.172	-200.000	-0.104	-0.610
-466.157	-200.000	0.009	-0.959
-465.143	-123.024	0.647	0.104
-464.128	506.066	-0.256	-0.593
-463.113	-50.330	-0.259	-0.122
-462.099	-107.176	0.705	-0.155
-461.084	-9.996	0.605	0.402
-460.070	800.000	-0.257	-0.843
-459.055	114.845	0.358	-0.436
-458.040	-122.743	1.035	0.167
-457.026	140.570	-0.200	-0.263
-456.011	-94.642	-0.391	-0.106
-454.997	-168.846	-1.280	-0.048
-453.982	-129.843	0.296	0.041
-452.968	304.126	0.427	-0.792
-451.953	-200.000	0.209	1.048
-450.938	-46.155	0.507	-0.249
-449.924	800.000	-0.176	0.714
-448.909	31.173	0.556	-0.477
-447.895	-200.000	-0.008	0.657
-446.880	221.728	-0.335	-0.538
-445.865	-119.114	-0.364	-0.064
-444.851	45.598	0.623	-0.574
-443.836	-49.096	-0.091	0.044
-442.822	32.445	-0.324	-0.279
-441.807	-200.000	0.073	0.590
-440.792	139.821	-0.680	0.894
-439.778	-133.600	-0.290	-0.036
-438.763	-147.773	0.992	-0.083
-437.749	800.000	0.046	0.186
-436.734	800.000	0.170	0.674
-435.719	50.625	-0.221	-0.209
-434.705	-197.927	0.198	-0.001
-433.690	-166.451	0.949	-0.040
-432.676	-158.487	-0.170	-0.010
-431.661	-106.705	-0.742	-0.165
-430.646	119.316	-0.367	-0.453
-429.632	-132.408	-0.430	-0.055
-428.617	-200.000	0.063	-0.322
-427.603	-168.089	1.061	0.041
-426.588	-200.000	0.091	-1.073
-425.573	-76.514	-0.179	-0.063
-424.559	46.396	0.363	0.336
-423.544	268.651	0.214	-0.375
-422.530	174.757	-0.284	0.410
-421.515	79.184	0.660	0.706
-420.500	621.387	0.079	-0.197
-419.486	-200.000	-0.007	-0.756
-418.471	69.852	0.379	0.390
-417.457	67.240	0.174	0.177
-416.442	-200.000	-0.001	-0.415
-415.428	-200.000	0.028	-0.686
-414.413	43.138	-0.943	0.858
-413.398	-28.680	0.679	-0.390
-412.384	-54.667	0.444	0.200
-411.369	68.963	0.319	-0.327
-410.355	107.156	0.791	0.937
-409.340	-68.570	-0.308	0.119
-408.325	-137.062	-0.238	0.027
-407.311	-107.342	0.399	0.088
-406.296	-149.861	0.613	0.048
-405.282	800.000	-0.199	-0.746
-404.267	-72.480	-0.404	-0.149
-403.252	-200.000	0.086	0.608
-402.238	-200.000	0.005	-0.550
-401.223	205.888	0.440	-0.682
-400.209	15.662	-0.168	0.131
-399.194	-67.682	-0.809	-0.316
-398.179	150.474	0.160	0.217
-397.165	-200.000	-0.184	-0.829
-396.150	752.550	-0.190	0.513
-395.136	7.616	0.323	-0.241
-394.121	-35.650	-0.175	-0.095
-393.106	-200.000	-0.085	0.728
-392.092	-200.000	-0.128	0.687
-391.077	-157.457	-0.371	0.022
-390.063	-122.878	0.255	0.041
-389.048	108.087	-0.226	0.269
-388.033	59.169	-0.316	-0.310
-387.019	-72.473	-0.300	-0.111
-386.004	41.410	-0.498	0.449
-384.990	-154.943	0.876	0.057
-383.975	-200.000	-0.090	0.447
-382.960	23.063	-0.156	0.127
-381.946	800.000	-0.127	0.389
-380.931	284.895	0.347	0.622
-379.917	-200.000	0.079	0.382
-378.902	45.029	1.098	1.007
-377.888	128.649	0.335	-0.425
-376.873	-118.168	0.505	-0.090
-375.858	-38.597	-0.321	0.169
-374.844	26.351	-0.601	0.500
-373.829	800.000	-0.192	-0.715
-372.815	-200.000	-0.098	-0.585
-371.800	-200.000	-0.050	0.698
-370.785	800.000	0.072	0.310
-369.771	-130.507	0.430	0.058
-368.756	77.391	0.837	-0.886
-367.742	-104.733	0.740	0.169
-366.727	-142.155	-0.319	-0.032
-365.712	-126.731	-0.252	0.037
-364.698	-200.000	-0.114	0.852
-363.683	-69.984	-0.166	-0.063
-362.669	800.000	0.253	0.897
-361.654	60.168	0.337	0.332
-360.639	-182.744	-0.552	0.010
-359.625	67.826	0.076	0.077
-358.610	-16.286	-0.394	0.249
-357.596	-161.875	0.581	0.029
-356.581	506.105	-0.435	1.004
-355.566	5.141	0.194	-0.142
-354.552	120.993	0.399	0.494
-353.537	-102.769	-0.621	-0.147
-352.523	139.901	0.086	-0.113
-351.508	87.609	-0.195	0.215
-350.493	-97.508	-1.493	-0.386
-349.479	-88.423	-0.226	-0.067
-348.464	800.000	0.140	0.565
-347.450	-98.032	0.389	0.100
-346.435	441.677	-0.074	0.162
-345.420	7.640	-0.289	-0.215
-344.406	-94.094	0.909	0.248
-343.391	-104.597	-0.553	0.127
-342.377	-144.870	1.049	0.096
-341.362	117.862	-0.567	0.695
-340.348	20.144	0.440	-0.353
-339.333	-129.149	-0.778	0.108
-338.318	-111.133	-0.419	0.085
-337.304	-127.013	-0.693	0.101
-336.289	190.541	0.121	-0.180
-335.275	800.000	0.192	0.767
-334.260	-200.000	0.022	-0.668
-333.245	-200.000	-0.058	0.589
-332.231	-151.248	-0.475	-0.035
-331.216	-200.000	0.098	0.519
-330.202	-200.000	0.006	0.270
-329.187	-101.602	0.834	-0.201
-328.172	686.174	0.074	0.192
-327.158	34.823	-0.098	-0.085
-326.143	-125.837	0.069	0.010
-325.129	-166.950	0.553	-0.023
-324.114	-82.757	-0.628	-0.202
-323.099	164.422	0.063	0.089
-322.085	-33.279	-0.593	0.326
-321.070	214.902	0.388	0.611
-320.056	-40.419	-0.438	0.226
-319.041	8.960	0.145	0.109
-318.026	588.162	0.089	0.217
-317.012	-164.935	0.968	-0.043
-315.997	-45.400	-0.689	-0.339
-314.983	-6.560	-0.390	0.264
-313.968	35.932	0.583	0.509
-312.953	231.921	0.144	0.235
-311.939	159.395	0.285	-0.394
-310.924	-61.839	-0.207	0.086
-309.910	44.349	0.369	-0.337
-308.895	11.739	0.451	-0.344
-307.880	-71.442	-0.323	0.120
-306.866	27.928	0.558	-0.467
-305.851	98.153	-0.160	-0.183
-304.837	187.454	0.299	-0.442
-303.822	-200.000	-0.040	0.289
-302.807	-28.010	-0.421	0.242
-301.793	-159.457	0.709	-0.039
-300.778	-200.000	0.068	-0.605
-299.764	170.461	-0.528	-0.751
-298.749	-101.776	-0.490	-0.118
-297.735	800.000	-0.229	-0.955
-296.720	82.471	-0.369	-0.398
-295.705	23.012	0.241	0.197
-294.691	-123.686	-0.367	-0.058
-293.676	35.531	-0.457	0.398
-292.662	800.000	0.187	0.555
-291.647	-200.000	0.053	-0.331
-290.632	276.791	0.080	0.142
-289.618	-95.638	-0.499	-0.133
-288.603	-200.000	-0.040	0.416
-287.589	176.557	-0.330	0.475
-286.574	-88.214	0.625	0.186
-285.559	731.250	0.092	-0.244
-284.545	28.652	0.170	-0.143
-283.530	-114.609	0.828	0.157
-282.516	205.951	-0.284	-0.439
-281.501	330.433	-0.083	-0.158
-280.486	-200.000	-0.044	-0.674
-279.472	136.364	-0.767	0.993
-278.457	712.625	0.314	0.826
-277.443	-149.431	0.176	-0.014
-276.428	-35.630	0.724	0.389
-275.413	800.000	0.079	-0.291
-274.399	203.862	0.187	-0.287
-273.384	133.212	0.328	-0.420
-272.370	-14.283	-0.464	-0.296
-271.355	-30.324	-0.195	-0.110
-270.340	-99.427	-0.790	0.197
-269.326	-174.493	0.315	0.009
-268.311	-67.539	-0.488	0.190
-267.297	-20.001	0.087	0.053
-266.282	-27.907	-0.791	-0.454
-265.267	66.641	0.140	-0.141
-264.253	-98.198	0.316	-0.081
-263.238	-103.644	0.935	-0.217
-262.224	18.198	-0.365	0.288
-261.209	12.573	-0.419	0.321
-260.195	352.278	0.116	0.228
-259.180	-200.000	-0.029	0.300
-258.165	-178.655	-0.518	-0.012
-257.151	424.403	0.179	-0.381
-256.136	104.301	0.206	-0.240
-255.122	-69.881	0.372	-0.141
-254.107	314.274	0.188	-0.351
-253.092	-80.848	-0.985	-0.324
-252.078	143.073	0.288	0.379
-251.063	-7.136	-0.518	0.348
-250.049	-1.394	0.023	0.016
-249.034	-46.258	0.372	-0.181
-248.019	-41.527	-0.412	0.210
-247.005	154.653	-0.430	-0.586
-245.990	-50.305	0.831	-0.389
-244.976	-200.000	0.028	-0.358
-243.961	-82.088	0.375	-0.121
-242.946	-200.000	-0.003	-0.108
-241.932	-49.047	0.621	0.294
-240.917	-100.094	-0.430	0.106
-239.903	217.511	-0.399	-0.629
-238.888	-38.136	0.356	0.187
-237.873	-22.516	0.299	-0.179
-236.859	528.907	-0.270	0.630
-235.844	796.709	-0.169	-0.460
-234.830	13.472	-0.320	-0.246
-233.815	54.560	-0.581	0.555
-232.800	-19.642	-0.100	-0.061
-231.786	60.409	-0.284	-0.279
-230.771	43.533	-0.271	-0.246
-229.757	-158.209	0.862	0.050
-228.742	-162.363	0.309	0.015
-227.727	-35.030	-0.099	0.053
-226.713	166.531	0.404	0.567
-225.698	-82.117	0.245	0.079
-224.684	-98.853	-0.773	0.195
-223.669	-130.543	0.317	0.042
-222.655	4.061	-0.513	0.371
-221.640	-90.342	0.569	-0.163
-220.625	120.410	-0.151	-0.186
-219.611	-200.000	-0.055	0.894
-218.596	19.924	-0.257	0.205
-217.582	-15.622	0.115	-0.072
-216.567	-91.107	0.477	0.135
-215.552	-170.219	0.558	0.019
-214.538	1.761	0.161	0.115
-213.523	-89.215	0.708	0.207
-212.509	-200.000	0.134	-1.176
-211.494	-200.000	-0.064	-0.313
-210.479	-68.276	0.781	-0.300
-209.465	-200.000	-0.036	0.464
-208.450	40.820	-0.118	-0.105
-207.436	242.839	0.174	0.288
-206.421	-200.000	0.001	-0.406
-205.406	800.000	-0.171	0.511
-204.392	800.000	0.008	-0.033
-203.377	3.905	-0.208	0.150
-202.363	-200.000	0.087	1.121
-201.348	6.113	-0.172	0.126
-200.333	311.699	-0.261	0.483
-199.319	800.000	-0.091	-0.251
-198.304	217.223	0.639	-1.006
-197.290	56.212	0.954	0.916
-196.275	-180.961	-0.628	-0.013
-195.260	-68.753	-0.826	0.316
-194.246	75.506	0.799	-0.834
-193.231	243.661	-0.274	-0.454
-192.217	-51.483	0.546	-0.252
-191.202	-84.817	0.283	-0.088
-190.187	800.000	0.116	-0.392
-189.173	39.700	-0.899	0.797
-188.158	107.006	-0.261	0.307
-187.144	280.305	0.325	0.575
-186.129	25.168	0.519	0.426
-185.114	-103.318	-0.606	0.141
-184.100	130.993	-0.331	0.419
-183.085	-63.764	0.396	0.160
-182.071	-93.403	-0.525	0.144
-181.056	65.308	0.593	-0.592
-180.042	280.135	0.298	0.526
-179.027	154.175	0.311	0.421
-178.012	5.847	0.175	-0.128
-176.998	800.000	-0.032	0.127
-175.983	527.882	0.188	0.439
-174.969	-200.000	0.045	-0.257
-173.954	-73.437	-0.464	0.168
-172.939	-60.111	-0.294	-0.124
-171.925	-96.958	-0.733	0.190
-170.910	-126.746	-0.070	0.010
-169.896	-2.144	0.727	0.504
-168.881	800.000	0.118	0.412
-167.866	-51.226	-0.743	0.344
-166.852	248.318	-0.128	0.215
-165.837	800.000	0.147	-0.513
-164.823	-200.000	-0.007	-0.300
-163.808	-44.040	0.691	-0.343
-162.793	800.000	0.206	-0.566
-161.779	-164.233	-0.403	-0.018
-160.764	-22.433	-0.581	0.347
-159.750	-57.084	-0.509	-0.221
-158.735	318.892	0.092	0.172
-157.720	97.746	-0.260	0.295
-156.706	-66.914	0.371	0.145
-155.691	76.854	0.244	-0.256
-154.677	116.861	-0.518	0.628
-153.662	-80.648	0.293	0.096
-152.647	782.758	-0.129	0.349
-151.633	186.654	0.176	0.259
-150.618	-78.502	-0.277	0.093
-149.604	225.391	0.363	0.580
-148.589	800.000	0.064	-0.261
-147.574	-151.177	-0.175	-0.013
-146.560	23.574	-0.473	-0.384
-145.545	-166.528	-1.029	0.042
-144.531	800.000	0.239	0.789
-143.516	-25.888	0.246	-0.143
-142.502	38.391	0.695	0.611
-141.487	-200.000	-0.246	-1.426
-140.472	800.000	0.144	0.505
-139.458	800.000	-0.068	0.208
-138.443	10.248	0.206	-0.154
-137.429	60.021	0.329	-0.321
-136.414	800.000	0.330	0.907
-135.399	-143.321	0.746	0.071
-134.385	-49.523	0.422	-0.198
-133.370	434.522	-0.310	-0.665
-132.356	-113.800	0.456	-0.088
-131.341	-200.000	0.204	1.159
-130.326	-200.000	0.028	1.112
-129.312	147.644	0.264	-0.351
-128.297	-158.100	-0.831	0.048
-127.283	515.652	0.250	-0.575
-126.268	47.528	-0.287	-0.264
-125.253	23.471	-0.105	0.085
-124.239	-162.748	-0.436	0.021
-123.224	17.121	0.226	0.177
-122.210	26.050	1.041	0.856
-121.195	464.524	-0.181	0.400
-120.180	-50.200	-0.222	0.104
