DTS Sentinel unit serial number:	SN413079Multiplexer serial number:	ORYXHardware model number:	OX4-SRSoftware version number:	ORYX F/W v4.00 Oryx Data Collector v3.7.2.0data status	okinstallation	princeton_trtdifferential loss correction	single-endedforward channel	channel 1reverse channel	N/Adate	2019/09/19time	02:50:35forward acquisition time	60.00reverse acquisition time	0.00gamma	496.2192k internal	0.2344k external	0.2344temperature offset calibration	1.0020default loss term (dB/km)	0.3790temperature slope calibration	1.0000multiplexer offset coefficient	1.0000multiplexer slope coefficient	1.0000fibre end	0.00T internal ref (°C)	20.87T ext. ref 1 (°C)	0.67T ext. ref 2 (°C)	14.72length (m)	temperature (°C)	Stokes	anti-Stokes-747.200	-32.126	0.211	0.118
-746.185	-79.971	-0.425	0.143
-745.171	-183.965	0.168	0.003
-744.156	190.458	-0.156	0.235
-743.142	-200.000	-0.087	-0.409
-742.127	-200.000	-0.057	0.399
-741.112	-200.000	0.016	-0.186
-740.098	81.383	-0.095	0.103
-739.083	-43.895	-0.389	0.196
-738.069	95.540	-0.296	0.338
-737.054	-32.632	0.266	-0.148
-736.039	525.415	-0.080	-0.189
-735.025	-200.000	-0.017	0.199
-734.010	-10.216	0.026	0.018
-732.996	-146.310	-0.235	-0.021
-731.981	-200.000	-0.055	0.290
-730.966	-169.068	-0.323	0.012
-729.952	-128.415	-0.262	0.037
-728.937	-200.000	-0.004	0.041
-727.923	-82.893	-0.194	0.063
-726.908	-173.469	-0.029	0.001
-725.894	-24.957	0.281	-0.167
-724.879	182.058	-0.062	-0.092
-723.864	-121.100	-0.431	-0.072
-722.850	235.568	0.055	0.091
-721.835	-134.208	-0.190	0.023
-720.821	-200.000	-0.005	-0.165
-719.806	153.001	-0.066	0.090
-718.791	20.733	0.208	0.168
-717.777	283.451	0.096	-0.172
-716.762	-145.955	-0.211	-0.019
-715.748	9.753	-0.206	-0.156
-714.733	-136.729	-0.169	0.019
-713.718	-200.000	0.003	0.112
-712.704	297.499	0.055	-0.100
-711.689	-98.883	-0.064	-0.016
-710.675	122.264	0.119	-0.149
-709.660	-44.282	0.163	0.082
-708.645	546.874	0.064	0.154
-707.631	-200.000	0.029	-0.137
-706.616	-200.000	0.008	0.196
-705.602	4.248	0.016	0.012
-704.587	-7.702	0.118	-0.079
-703.572	-190.063	0.238	0.003
-702.558	-11.950	-0.272	-0.178
-701.543	-169.898	0.166	-0.006
-700.529	297.194	-0.120	0.220
-699.514	-200.000	0.028	-0.135
-698.499	465.169	-0.081	-0.181
-697.485	359.316	-0.073	0.145
-696.470	-200.000	-0.017	-0.180
-695.456	800.000	0.103	-0.376
-694.441	800.000	0.057	-0.158
-693.426	160.669	-0.093	-0.130
-692.412	-82.693	-0.098	-0.032
-691.397	139.819	0.059	0.077
-690.383	-111.113	0.073	0.015
-689.368	-200.000	-0.030	-0.191
-688.354	33.387	-0.328	0.285
-687.339	160.323	0.199	-0.278
-686.324	191.158	-0.116	-0.174
-685.310	-120.424	-0.273	0.046
-684.295	342.449	-0.077	-0.150
-683.281	125.674	-0.241	-0.304
-682.266	402.282	-0.139	-0.292
-681.251	-200.000	-0.006	0.353
-680.237	322.115	-0.089	0.170
-679.222	19.457	-0.053	-0.042
-678.208	358.515	0.037	0.073
-677.193	-175.590	0.132	-0.004
-676.178	46.714	0.196	-0.182
-675.164	-200.000	0.028	0.190
-674.149	-66.252	-0.017	-0.007
-673.135	-112.216	0.088	-0.018
-672.120	-56.632	-0.131	0.058
-671.105	247.222	0.113	-0.191
-670.091	40.450	0.154	-0.139
-669.076	-200.000	0.024	-0.178
-668.062	-200.000	-0.003	-0.032
-667.047	236.541	-0.116	0.191
-666.032	422.462	0.087	0.186
-665.018	-136.655	0.100	0.012
-664.003	510.854	-0.120	0.278
-662.989	800.000	-0.056	-0.198
-661.974	373.950	-0.031	-0.063
-660.959	-144.266	0.490	-0.046
-659.945	18.411	-0.045	0.035
-658.930	-143.373	-0.084	-0.008
-657.916	59.183	0.217	0.213
-656.901	109.548	0.192	-0.230
-655.886	431.414	-0.122	0.263
-654.872	-117.241	0.263	-0.048
-653.857	-200.000	0.025	-0.592
-652.843	800.000	-0.091	0.257
-651.828	-200.000	-0.046	0.540
-650.814	1.538	0.169	-0.121
-649.799	511.019	-0.071	0.164
-648.784	-113.776	-0.210	0.041
-647.770	446.621	-0.041	-0.090
-646.755	170.064	-0.160	0.228
-645.741	-200.000	0.011	0.080
-644.726	430.527	-0.122	-0.263
-643.711	105.893	-0.089	-0.105
-642.697	-200.000	-0.003	-0.188
-641.682	196.908	0.031	-0.048
-640.668	-83.159	-0.105	0.034
-639.653	366.815	0.148	-0.298
-638.638	73.619	0.125	0.131
-637.624	-0.738	-0.422	0.298
-636.609	800.000	-0.010	-0.036
-635.595	658.272	-0.141	0.362
-634.580	21.146	-0.269	0.218
-633.565	800.000	0.086	0.328
-632.551	-128.172	-0.259	-0.037
-631.536	-150.971	0.278	0.021
-630.522	-33.944	0.086	0.047
-629.507	35.381	0.389	0.340
-628.492	800.000	-0.056	0.176
-627.478	160.516	0.126	0.175
-626.463	-164.342	0.244	0.011
-625.449	-120.035	0.051	0.009
-624.434	-114.680	0.209	0.040
-623.419	-118.353	0.146	0.026
-622.405	-167.397	0.067	-0.003
-621.390	-56.077	-0.013	0.006
-620.376	-14.474	0.092	-0.059
-619.361	-5.095	-0.098	0.067
-618.346	-145.670	0.130	-0.012
-617.332	-200.000	-0.034	0.259
-616.317	-80.160	-0.148	-0.049
-615.303	-200.000	-0.006	0.037
-614.288	9.742	-0.149	-0.112
-613.273	-8.585	0.133	-0.089
-612.259	26.688	-0.135	0.112
-611.244	-149.102	-0.348	-0.028
-610.230	-153.833	-0.130	0.009
-609.215	-90.415	0.102	0.030
-608.201	-87.064	-0.195	-0.059
-607.186	-61.387	0.104	-0.043
-606.171	-139.577	-0.111	-0.012
-605.157	203.736	-0.113	0.174
-604.142	42.773	-0.103	-0.093
-603.128	364.413	0.033	-0.066
-602.113	-72.561	0.146	-0.054
-601.098	-38.542	0.085	-0.045
-600.084	525.394	-0.063	0.148
-599.069	-156.350	0.079	0.005
-598.055	107.007	-0.118	-0.139
-597.040	-200.000	0.012	-0.279
-596.025	-14.359	0.067	-0.043
-595.011	-200.000	-0.002	0.095
-593.996	800.000	0.070	-0.235
-592.982	-200.000	0.045	0.255
-591.967	-200.000	0.002	0.062
-590.952	124.332	0.240	-0.300
-589.938	182.588	0.248	0.365
-588.923	-115.182	-0.254	0.048
-587.909	-7.011	-0.243	0.164
-586.894	31.373	0.145	-0.124
-585.879	-112.851	-0.021	-0.004
-584.865	-79.457	0.227	0.076
-583.850	-171.222	-0.227	-0.008
-582.836	188.135	0.151	0.225
-581.821	-200.000	0.025	-0.127
-580.806	176.670	-0.193	-0.280
-579.792	-118.884	0.224	0.039
-578.777	-129.184	-0.123	-0.017
-577.763	-40.408	0.351	0.181
-576.748	4.881	0.067	0.049
-575.733	-123.089	-0.115	-0.018
-574.719	-70.979	-0.142	-0.053
-573.704	-38.468	0.274	-0.144
-572.690	25.332	-0.156	0.129
-571.675	-200.000	0.009	0.110
-570.661	-30.611	0.073	-0.041
-569.646	-56.197	-0.302	-0.134
-568.631	-139.324	0.272	0.029
-567.617	0.288	0.193	-0.137
-566.602	381.227	0.123	0.252
-565.588	-200.000	0.047	0.435
-564.573	506.768	0.219	0.504
-563.558	-105.045	-0.339	-0.077
-562.544	-200.000	0.041	-0.423
-561.529	-48.448	-0.274	-0.131
-560.515	-113.049	0.104	-0.020
-559.500	-139.848	0.086	0.009
-558.485	-91.974	-0.309	0.087
-557.471	694.003	0.130	-0.339
-556.456	-41.691	-0.125	-0.064
-555.442	-185.782	0.131	-0.002
-554.427	-200.000	-0.005	0.107
-553.412	-97.190	-0.215	-0.056
-552.398	-31.758	0.197	-0.110
-551.383	240.962	-0.045	0.075
-550.369	607.474	0.137	-0.339
-549.354	-8.195	0.144	0.096
-548.339	-59.275	-0.303	0.129
-547.325	-27.994	-0.259	-0.149
-546.310	250.314	0.137	-0.230
-545.296	-101.626	0.167	0.040
-544.281	-100.852	0.274	-0.067
-543.266	104.345	0.175	0.205
-542.252	-77.303	-0.136	0.047
-541.237	171.281	-0.031	0.045
-540.223	407.905	0.102	0.214
-539.208	98.550	-0.215	-0.246
-538.193	248.536	0.096	-0.161
-537.179	-29.774	-0.184	-0.104
-536.164	-172.213	-0.252	-0.008
-535.150	-200.000	0.042	0.000
-534.135	613.120	-0.080	-0.198
-533.121	800.000	0.046	-0.158
-532.106	-87.557	0.139	0.042
-531.091	504.039	0.058	-0.132
-530.077	-73.614	-0.211	0.076
-529.062	-200.000	0.028	0.284
-528.048	66.862	0.305	-0.309
-527.033	-3.162	-0.432	-0.299
-526.018	-200.000	0.034	-0.200
-525.004	-3.928	-0.119	-0.082
-523.989	188.400	0.091	0.135
-522.975	-139.909	0.164	-0.017
-521.960	17.585	0.203	-0.161
-520.945	50.171	-0.128	-0.120
-519.931	40.127	-0.140	0.125
-518.916	-40.610	-0.209	0.108
-517.902	-58.068	-0.236	-0.102
-516.887	589.269	-0.080	-0.197
-515.872	-38.616	0.170	-0.089
-514.858	96.983	-0.239	0.272
-513.843	-200.000	0.058	-0.679
-512.829	-200.000	-0.042	0.280
-511.814	-200.000	0.039	0.223
-510.799	799.899	0.092	-0.251
-509.785	-96.325	-0.156	0.041
-508.770	-14.267	0.099	-0.063
-507.756	23.590	-0.263	-0.215
-506.741	109.735	0.180	0.214
-505.726	-66.993	-0.180	0.070
-504.712	-200.000	-0.040	0.180
-503.697	-200.000	0.002	0.102
-502.683	118.986	0.040	0.049
-501.668	-119.316	0.323	0.056
-500.653	213.355	-0.103	0.161
-499.639	-200.000	0.073	0.389
-498.624	800.000	0.088	0.307
-497.610	-200.000	0.064	0.355
-496.595	427.042	0.030	0.064
-495.581	-118.536	-0.154	-0.027
-494.566	671.728	0.033	0.084
-493.551	-200.000	0.016	0.258
-492.537	23.026	-0.146	-0.119
-491.522	800.000	-0.079	0.284
-490.508	-200.000	-0.011	0.256
-489.493	528.966	0.149	-0.348
-488.478	-133.413	0.261	-0.033
-487.464	-168.968	0.252	0.009
-486.449	72.303	0.145	-0.149
-485.435	667.093	-0.139	0.356
-484.420	-200.000	-0.044	0.214
-483.405	423.009	-0.126	0.269
-482.391	-73.602	-0.210	0.076
-481.376	800.000	-0.005	-0.018
-480.362	-92.806	-0.245	0.068
-479.347	98.921	-0.208	-0.238
-478.332	51.730	-0.318	0.300
-477.318	-200.000	0.048	-0.372
-476.303	-69.576	-0.038	0.014
-475.289	-48.792	0.184	-0.087
-474.274	-52.074	0.373	-0.172
-473.259	-200.000	-0.023	-0.226
-472.245	-6.317	-0.058	0.039
-471.230	29.181	0.095	-0.080
-470.216	800.000	0.043	0.136
-469.201	-21.086	-0.461	0.279
-468.186	-15.126	0.184	0.117
-467.172	-81.681	-0.058	0.019
-466.157	230.716	0.221	-0.358
-465.143	-200.000	0.034	-0.225
-464.128	-200.000	0.063	0.302
-463.113	800.000	-0.048	-0.178
-462.099	-8.377	-0.448	-0.298
-461.084	318.324	0.125	-0.234
-460.070	46.634	0.087	-0.080
-459.055	-200.000	0.071	0.410
-458.040	-81.861	0.193	-0.063
-457.026	34.961	-0.198	0.171
-456.011	-200.000	-0.041	0.355
-454.997	-108.824	-0.048	0.010
-453.982	-43.090	0.076	-0.038
-452.968	-200.000	-0.003	0.049
-451.953	800.000	-0.069	0.243
-450.938	-200.000	0.001	-0.081
-449.924	-133.822	-0.569	-0.070
-448.909	-20.803	0.199	-0.121
-447.895	-47.103	-0.156	-0.075
-446.880	-86.390	-0.139	-0.042
-445.865	-15.134	0.032	0.020
-444.851	35.747	0.067	0.059
-443.836	-96.113	0.396	-0.104
-442.822	800.000	-0.057	0.244
-441.807	-81.385	0.169	-0.055
-440.792	-62.372	-0.067	0.028
-439.778	364.444	-0.108	0.215
-438.763	-135.454	-0.339	0.040
-437.749	124.538	0.154	-0.192
-436.734	800.000	-0.130	-0.364
-435.719	-112.730	-0.506	-0.100
-434.705	-38.455	0.215	0.112
-433.690	-81.658	0.502	-0.163
-432.676	-36.174	-0.104	-0.055
-431.661	174.201	0.217	0.310
-430.646	303.690	0.145	0.266
-429.632	-200.000	0.018	-0.096
-428.617	800.000	0.054	-0.214
-427.603	76.872	-0.157	0.165
-426.588	-12.933	-0.186	-0.120
-425.573	-6.396	0.134	-0.090
-424.559	800.000	0.089	0.317
-423.544	235.340	0.147	-0.241
-422.530	800.000	-0.119	0.446
-421.515	-182.162	0.520	0.010
-420.500	75.842	0.056	-0.058
-419.486	-200.000	-0.023	-0.313
-418.471	-200.000	-0.002	0.128
-417.457	-190.334	0.177	0.002
-416.442	-200.000	-0.001	0.023
-415.428	-200.000	-0.010	0.083
-414.413	153.977	-0.178	0.241
-413.398	752.082	-0.106	0.283
-412.384	-14.928	0.165	-0.105
-411.369	-115.714	-0.128	0.024
-410.355	18.148	0.192	0.151
-409.340	138.751	-0.167	0.217
-408.325	84.831	-0.148	0.160
-407.311	430.348	0.129	0.276
-406.296	4.300	0.139	-0.101
-405.282	-18.524	-0.203	-0.125
-404.267	30.845	0.234	0.198
-403.252	125.831	-0.116	0.145
-402.238	94.161	-0.101	0.113
-401.223	-111.536	-0.438	0.088
-400.209	-176.929	-0.226	0.006
-399.194	800.000	0.033	-0.094
-398.179	189.652	-0.177	0.263
-397.165	-17.260	-0.210	-0.131
-396.150	42.520	-0.241	-0.216
-395.136	607.159	0.144	-0.355
-394.121	-100.532	-0.165	0.040
-393.106	114.221	-0.118	-0.141
-392.092	520.230	-0.080	-0.186
-391.077	12.730	-0.110	-0.084
-390.063	478.743	0.101	-0.226
-389.048	-68.487	0.381	0.146
-388.033	251.410	0.061	0.103
-387.019	-102.913	-0.115	0.027
-386.004	742.102	-0.102	-0.271
-384.990	-200.000	0.006	-0.116
-383.975	-146.238	0.298	0.026
-382.960	331.641	0.157	-0.299
-381.946	-185.928	-0.132	0.002
-380.931	-53.529	0.122	0.055
-379.917	-200.000	0.046	0.403
-378.902	-15.210	0.116	0.073
-377.888	-200.000	-0.003	-0.178
-376.873	162.970	-0.054	-0.075
-375.858	6.907	0.165	0.122
-374.844	-200.000	-0.015	-0.078
-373.829	-200.000	-0.016	0.270
-372.815	-35.688	-0.076	-0.041
-371.800	17.633	-0.158	0.124
-370.785	-122.931	-0.137	-0.022
-369.771	9.337	-0.312	-0.233
-368.756	37.995	-0.228	-0.200
-367.742	183.322	0.205	0.298
-366.727	248.929	-0.103	0.172
-365.712	292.840	-0.026	0.047
-364.698	-140.716	0.104	-0.011
-363.683	-83.268	-0.616	-0.195
-362.669	800.000	-0.011	0.038
-361.654	-103.955	0.196	0.045
-360.639	-100.783	-0.062	-0.015
-359.625	29.740	0.243	0.204
-358.610	44.333	0.197	0.178
-357.596	-127.243	0.154	0.022
-356.581	-69.970	-0.200	-0.075
-355.566	-7.591	-0.208	0.139
-354.552	-123.023	0.329	-0.052
-353.537	72.382	-0.055	-0.057
-352.523	82.149	0.241	0.257
-351.508	-40.446	-0.119	-0.061
-350.493	-129.891	0.222	-0.030
-349.479	63.463	0.257	0.254
-348.464	-114.937	0.168	0.031
-347.450	-200.000	0.029	0.223
-346.435	84.686	-0.061	0.066
-345.420	-84.788	0.275	-0.085
-344.406	-102.817	0.488	-0.114
-343.391	-76.297	0.049	0.017
-342.377	37.511	0.114	-0.099
-341.362	56.435	-0.105	-0.101
-340.348	-139.925	0.160	-0.017
-339.333	305.339	-0.068	-0.125
-338.318	-200.000	0.004	0.044
-337.304	-142.828	-0.166	-0.016
-336.289	39.408	-0.152	-0.134
-335.275	-200.000	-0.022	-0.191
-334.260	-104.563	0.238	-0.054
-333.245	-50.283	-0.023	-0.011
-332.231	-102.440	-0.410	-0.097
-331.216	-13.836	0.126	-0.080
-330.202	-200.000	0.056	0.251
-329.187	-200.000	0.002	-0.093
-328.172	-69.994	0.192	0.072
-327.158	-200.000	-0.022	-0.447
-326.143	-4.226	0.137	0.093
-325.129	-120.792	-0.267	-0.044
-324.114	125.074	-0.078	0.097
-323.099	58.596	0.184	0.178
-322.085	7.883	-0.279	-0.206
-321.070	-53.675	0.068	0.031
-320.056	11.187	-0.206	0.155
-319.041	-65.866	-0.235	0.093
-318.026	-24.321	0.153	0.090
-317.012	51.174	-0.245	-0.229
-315.997	-40.181	-0.199	-0.102
-314.983	-146.254	-0.153	0.013
-313.968	530.106	-0.099	-0.230
-312.953	-59.086	-0.227	-0.097
-311.939	-1.032	0.260	0.181
-310.924	-200.000	-0.003	-0.122
-309.910	-200.000	-0.084	0.487
-308.895	220.798	0.104	-0.164
-307.880	800.000	0.046	-0.128
-306.866	-141.378	-0.250	0.025
-305.851	206.588	-0.047	-0.072
-304.837	-47.832	0.213	0.102
-303.822	-200.000	-0.034	-0.219
-302.807	9.124	-0.193	-0.143
-301.793	-200.000	0.026	-0.277
-300.778	206.172	-0.196	-0.301
-299.764	782.546	0.085	0.228
-298.749	-18.763	-0.179	0.110
-297.735	496.456	-0.056	-0.127
-296.720	-63.392	0.030	-0.012
-295.705	-104.075	0.331	-0.076
-294.691	-57.637	0.160	0.069
-293.676	57.002	-0.290	0.278
-292.662	392.984	-0.140	-0.287
-291.647	-0.226	0.072	0.050
-290.632	24.064	0.329	0.267
-289.618	190.738	-0.087	-0.128
-288.603	-200.000	0.203	0.001
-287.589	-109.688	0.229	0.047
-286.574	563.519	-0.046	0.110
-285.559	800.000	0.074	-0.233
-284.545	-105.097	-0.280	-0.063
-283.530	-152.619	-0.326	-0.023
-282.516	209.457	0.127	-0.196
-281.501	-200.000	0.019	-0.109
-280.486	209.162	0.117	-0.181
-279.472	-68.745	0.350	0.133
-278.457	-125.015	-0.274	0.041
-277.443	-200.000	-0.004	-0.152
-276.428	-200.000	0.061	-0.424
-275.413	7.710	-0.008	0.006
-274.399	-148.652	-0.447	-0.036
-273.384	-200.000	0.024	0.205
-272.370	-21.648	0.320	-0.192
-271.355	87.178	0.162	0.176
-270.340	-57.343	0.370	-0.160
-269.326	142.737	-0.154	0.201
-268.311	-36.288	0.116	0.062
-267.297	442.480	0.094	-0.202
-266.282	-33.512	0.182	0.099
-265.267	-16.150	-0.441	-0.275
-264.253	-112.145	0.359	-0.071
-263.238	-200.000	-0.070	0.440
-262.224	800.000	-0.027	0.088
-261.209	800.000	0.069	0.189
-260.195	166.780	0.091	-0.127
-259.180	641.766	-0.065	-0.162
-258.165	198.343	0.078	0.117
-257.151	-200.000	-0.004	0.137
-256.136	91.575	0.151	-0.167
-255.122	130.980	-0.228	-0.288
-254.107	151.161	-0.047	0.063
-253.092	341.483	0.139	-0.267
-252.078	58.320	0.037	0.035
-251.063	39.508	0.037	0.032
-250.049	13.479	0.172	0.131
-249.034	-58.695	-0.147	0.062
-248.019	107.775	0.198	0.232
-247.005	115.820	0.201	-0.241
-245.990	800.000	0.081	-0.278
-244.976	-118.203	0.189	0.033
-243.961	800.000	-0.115	-0.326
-242.946	-117.737	0.225	-0.040
-241.932	245.358	0.046	0.076
-240.917	800.000	0.061	-0.173
-239.903	-57.883	-0.195	0.084
-238.888	-27.254	0.033	0.019
-237.873	-21.028	0.373	-0.224
-236.859	242.865	-0.130	-0.213
-235.844	-89.592	0.347	0.100
-234.830	-91.988	0.229	0.064
-233.815	800.000	0.045	0.175
-232.800	-200.000	-0.009	0.288
-231.786	800.000	0.068	0.255
-230.771	215.012	-0.184	-0.286
-229.757	-176.088	0.264	-0.007
-228.742	123.861	0.105	-0.130
-227.727	-158.206	0.344	0.020
-226.713	-200.000	0.035	0.215
-225.698	-38.738	-0.191	0.099
-224.684	800.000	-0.213	-0.604
-223.669	-7.122	-0.149	-0.099
-222.655	-78.193	-0.210	0.071
-221.640	78.209	-0.216	0.227
-220.625	-85.846	0.340	0.103
-219.611	-104.951	-0.317	-0.071
-218.596	-133.321	-0.165	-0.020
-217.582	190.468	0.119	0.175
-216.567	163.484	0.017	0.023
-215.552	-72.380	0.290	-0.105
-214.538	-194.370	0.242	0.002
-213.523	-200.000	-0.059	-0.348
-212.509	-77.007	-0.294	-0.101
-211.494	51.390	-0.144	0.134
-210.479	-56.559	0.496	-0.215
-209.465	96.460	-0.126	0.141
-208.450	86.298	-0.177	0.191
-207.436	-49.279	-0.244	-0.114
-206.421	-200.000	-0.100	-0.478
-205.406	-8.090	0.179	-0.118
-204.392	48.501	-0.181	0.166
-203.377	-85.444	0.098	0.030
-202.363	114.987	0.129	0.155
-201.348	-37.358	-0.210	-0.110
-200.333	59.686	0.141	-0.136
-199.319	-89.072	-0.175	-0.051
-198.304	-200.000	0.006	0.227
-197.290	-106.328	0.318	-0.070
-196.275	800.000	-0.011	-0.032
-195.260	-54.101	-0.270	0.120
-194.246	96.351	-0.071	0.079
-193.231	14.839	-0.279	-0.214
-192.217	-98.450	0.323	-0.081
-191.202	211.977	-0.051	0.078
-190.187	-80.365	0.410	0.134
-189.173	-97.102	0.076	0.020
-188.158	325.760	0.119	-0.223
-187.144	537.770	0.109	-0.253
-186.129	800.000	-0.103	0.346
-185.114	312.250	0.057	0.105
-184.100	-200.000	-0.036	0.189
-183.085	19.443	-0.282	-0.222
-182.071	-52.603	-0.249	-0.113
-181.056	241.419	0.041	-0.068
-180.042	-69.748	-0.110	0.041
-179.027	59.308	0.142	-0.137
-178.012	-87.906	0.188	-0.055
-176.998	170.950	-0.187	0.263
-175.983	-178.226	-0.117	-0.003
-174.969	-200.000	0.066	0.300
-173.954	-200.000	-0.009	0.165
-172.939	324.908	-0.052	-0.098
-171.925	-74.598	-0.119	-0.042
-170.910	-200.000	-0.003	0.076
-169.896	1.638	0.141	0.099
-168.881	-200.000	-0.060	-0.323
-167.866	418.598	-0.113	0.237
-166.852	266.391	-0.175	-0.299
-165.837	-63.967	-0.372	-0.149
-164.823	-22.837	0.165	-0.098
-163.808	337.490	-0.061	-0.115
-162.793	226.438	-0.036	0.057
-161.779	12.485	0.048	-0.036
-160.764	-200.000	-0.008	0.372
-159.750	-131.627	0.212	0.027
-158.735	175.057	-0.151	-0.214
-157.720	-80.324	0.242	-0.079
-156.706	-155.588	0.153	0.010
-155.691	-120.194	0.107	-0.018
-154.677	-200.000	-0.001	-0.083
-153.662	-200.000	0.001	-0.173
-152.647	-48.247	-0.042	0.020
-151.633	308.728	-0.074	0.135
-150.618	155.531	-0.095	0.128
-149.604	-200.000	0.005	0.136
-148.589	66.941	-0.144	0.144
-147.574	-85.263	0.181	-0.055
-146.560	508.743	-0.102	-0.232
-145.545	106.749	0.100	0.116
-144.531	106.926	-0.007	-0.008
-143.516	188.181	0.171	-0.250
-142.502	323.771	0.064	-0.120
-141.487	-93.992	-0.331	0.089
-140.472	160.031	0.194	0.264
-139.458	-73.221	0.098	-0.035
-138.443	-200.000	0.010	0.110
-137.429	-56.572	-0.400	0.173
-136.414	559.641	-0.076	-0.179
-135.399	379.336	0.086	-0.171
-134.385	346.322	0.062	0.119
-133.370	-88.418	-0.168	0.049
-132.356	-48.440	0.071	-0.033
-131.341	-200.000	-0.000	0.116
-130.326	-200.000	0.001	0.077
-129.312	329.865	0.063	-0.119
-128.297	-19.271	0.057	0.035
-127.283	147.105	-0.075	0.098
-126.268	-104.187	0.224	0.051
-125.253	-41.899	-0.355	-0.178
-124.239	-200.000	0.001	-0.330
-123.224	-113.560	-0.169	0.032
-122.210	-15.321	-0.130	0.082
