DTS Sentinel unit serial number:	SN413079Multiplexer serial number:	ORYXHardware model number:	OX4-SRSoftware version number:	ORYX F/W v4.00 Oryx Data Collector v3.7.2.0data status	okinstallation	princeton_trtdifferential loss correction	single-endedforward channel	channel 1reverse channel	N/Adate	2019/09/11time	00:00:11forward acquisition time	60.00reverse acquisition time	0.00gamma	496.2192k internal	0.2331k external	0.2331temperature offset calibration	0.9936default loss term (dB/km)	0.3790temperature slope calibration	1.0000multiplexer offset coefficient	1.0000multiplexer slope coefficient	1.0000fibre end	0.00T internal ref (°C)	29.44T ext. ref 1 (°C)	-0.32T ext. ref 2 (°C)	23.02length (m)	temperature (°C)	Stokes	anti-Stokes-747.200	183.485	0.189	-0.281
-746.185	-105.507	-0.212	-0.048
-745.171	129.304	0.087	0.112
-744.156	13.065	-0.200	0.156
-743.142	300.481	-0.143	0.265
-742.127	647.100	-0.119	0.306
-741.112	-29.183	-0.215	0.124
-740.098	-38.139	-0.135	-0.072
-739.083	-130.295	0.172	-0.024
-738.069	-121.253	-0.404	-0.068
-737.054	18.636	-0.384	0.309
-736.039	-0.862	-0.175	-0.125
-735.025	-32.493	-0.225	-0.126
-734.010	-146.472	-0.332	-0.029
-732.996	-127.001	-0.181	0.027
-731.981	159.161	0.110	-0.154
-730.966	713.111	-0.143	-0.381
-729.952	-50.903	0.015	0.007
-728.937	296.807	0.096	0.176
-727.923	-200.000	-0.025	-0.133
-726.908	-20.654	-0.084	0.052
-725.894	-86.057	0.253	-0.079
-724.879	-128.939	-0.194	-0.027
-723.864	-25.002	0.100	-0.060
-722.850	-96.967	-0.206	-0.054
-721.835	-31.591	-0.215	0.122
-720.821	68.547	-0.237	-0.245
-719.806	122.579	-0.093	-0.117
-718.791	-96.703	-0.112	-0.030
-717.777	800.000	0.059	-0.171
-716.762	-104.040	0.136	0.032
-715.748	-112.211	-0.229	-0.046
-714.733	-14.708	0.148	0.095
-713.718	800.000	-0.032	-0.099
-712.704	800.000	-0.093	-0.294
-711.689	800.000	-0.096	0.412
-710.675	41.723	-0.328	-0.299
-709.660	800.000	0.116	-0.326
-708.645	-31.174	0.198	-0.112
-707.631	82.028	0.131	-0.143
-706.616	362.695	0.146	0.295
-705.602	68.138	-0.057	-0.059
-704.587	-116.204	0.350	-0.065
-703.572	184.950	-0.168	-0.251
-702.558	203.142	0.033	-0.051
-701.543	416.666	0.102	0.219
-700.529	-53.982	0.046	-0.021
-699.514	170.994	0.083	-0.120
-698.499	-14.602	-0.068	0.044
-697.485	-190.509	-0.090	0.001
-696.470	466.812	-0.090	-0.204
-695.456	124.093	0.125	0.158
-694.441	204.894	0.029	0.044
-693.426	166.020	0.036	-0.051
-692.412	-189.459	0.210	0.002
-691.397	123.555	-0.042	-0.053
-690.383	-145.732	0.103	-0.009
-689.368	133.711	0.110	0.144
-688.354	-67.824	-0.152	-0.060
-687.339	175.452	-0.150	0.218
-686.324	220.063	0.210	-0.338
-685.310	109.781	0.239	0.287
-684.295	-7.626	0.094	-0.064
-683.281	-200.000	-0.001	-0.090
-682.266	-139.644	-0.295	0.032
-681.251	488.585	0.166	0.380
-680.237	14.973	-0.381	0.299
-679.222	800.000	0.089	-0.276
-678.208	-200.000	-0.027	-0.185
-677.193	-92.920	-0.166	-0.046
-676.178	-94.257	-0.203	0.056
-675.164	13.504	0.187	-0.145
-674.149	-200.000	0.058	0.429
-673.135	800.000	0.034	-0.099
-672.120	512.019	-0.148	0.347
-671.105	800.000	0.098	0.322
-670.091	-200.000	-0.025	0.261
-669.076	0.163	0.037	0.026
-668.062	45.339	0.035	0.033
-667.047	-115.507	-0.271	-0.051
-666.032	-14.351	-0.049	-0.032
-665.018	469.658	-0.114	0.257
-664.003	-66.258	-0.249	-0.099
-662.989	800.000	-0.018	0.068
-661.974	-191.515	0.169	-0.002
-660.959	20.819	-0.049	0.040
-659.945	-7.344	-0.217	0.147
-658.930	335.626	0.083	0.161
-657.916	-117.189	-0.072	-0.013
-656.901	161.578	0.174	-0.243
-655.886	800.000	0.111	0.363
-654.872	-200.000	-0.053	-0.258
-653.857	174.243	-0.106	-0.153
-652.843	-100.545	-0.051	0.013
-651.828	693.475	0.069	-0.182
-650.814	-200.000	-0.002	0.034
-649.799	366.004	0.107	0.215
-648.784	396.775	0.087	-0.181
-647.770	-97.037	-0.083	-0.022
-646.755	-200.000	-0.021	-0.180
-645.741	800.000	0.063	0.269
-644.726	-73.987	-0.181	0.066
-643.711	-53.089	-0.209	0.096
-642.697	-200.000	0.008	0.179
-641.682	-200.000	-0.022	0.422
-640.668	-73.479	0.077	-0.028
-639.653	40.139	0.244	0.219
-638.638	177.258	-0.075	-0.109
-637.624	2.298	-0.075	0.054
-636.609	-140.589	0.226	-0.023
-635.595	-109.937	-0.174	-0.037
-634.580	195.661	-0.037	-0.057
-633.565	-27.777	-0.238	-0.138
-632.551	5.856	-0.084	-0.063
-631.536	-57.639	-0.231	-0.101
-630.522	800.000	-0.046	0.155
-629.507	-108.611	-0.333	-0.072
-628.492	-74.073	0.159	0.058
-627.478	-200.000	0.021	-0.380
-626.463	-200.000	-0.057	-0.275
-625.449	1.338	0.222	-0.160
-624.434	116.649	-0.128	-0.157
-623.419	382.352	-0.030	-0.062
-622.405	137.872	-0.080	-0.105
-621.390	67.531	0.120	-0.122
-620.376	295.230	0.077	-0.141
-619.361	800.000	-0.041	-0.176
-618.346	536.486	-0.083	-0.198
-617.332	-78.187	-0.167	0.058
-616.317	800.000	-0.083	0.304
-615.303	-93.263	-0.302	0.084
-614.288	-200.000	0.013	-0.180
-613.273	-145.319	0.230	-0.021
-612.259	-46.344	0.457	0.225
-611.244	-40.233	-0.237	-0.123
-610.230	71.398	0.273	-0.284
-609.215	-99.411	-0.266	0.067
-608.201	800.000	0.015	-0.043
-607.186	115.350	-0.078	0.096
-606.171	159.596	-0.015	-0.022
-605.157	800.000	0.081	-0.269
-604.142	697.782	-0.102	-0.268
-603.128	-29.328	-0.211	-0.121
-602.113	235.240	0.121	0.199
-601.098	-99.210	-0.337	0.085
-600.084	6.949	-0.259	0.193
-599.069	-32.002	-0.088	0.049
-598.055	-30.669	-0.139	0.079
-597.040	-172.195	-0.247	0.008
-596.025	800.000	0.047	0.158
-595.011	-102.222	0.140	0.034
-593.996	-15.767	0.053	-0.034
-592.982	-119.985	-0.181	-0.031
-591.967	-158.232	0.276	0.016
-590.952	75.998	0.075	0.079
-589.938	119.579	0.231	0.286
-588.923	-200.000	0.007	0.059
-587.909	38.164	0.176	0.156
-586.894	-200.000	-0.035	-0.399
-585.879	-93.418	-0.494	-0.137
-584.865	-75.410	0.185	-0.066
-583.850	312.618	-0.074	0.140
-582.836	-200.000	-0.008	0.091
-581.821	-93.165	-0.212	-0.059
-580.806	-200.000	-0.007	0.075
-579.792	800.000	0.062	0.238
-578.777	138.795	0.145	0.190
-577.763	-200.000	0.002	-0.473
-576.748	50.582	-0.190	-0.180
-575.733	641.852	0.029	0.073
-574.719	-109.598	-0.352	0.074
-573.704	-122.070	-0.067	-0.011
-572.690	352.522	0.161	-0.318
-571.675	-200.000	-0.010	0.113
-570.661	88.933	0.176	-0.196
-569.646	28.479	-0.142	0.120
-568.631	800.000	-0.051	0.152
-567.617	-91.113	0.232	-0.067
-566.602	800.000	0.075	0.320
-565.588	-169.611	-0.297	0.011
-564.573	-200.000	-0.006	0.423
-563.558	-176.887	0.548	-0.014
-562.544	-200.000	-0.035	-0.196
-561.529	130.260	0.028	-0.036
-560.515	197.880	-0.164	0.250
-559.500	52.056	0.123	0.117
-558.485	125.130	0.085	0.107
-557.471	2.825	-0.165	-0.120
-556.456	-75.561	-0.125	-0.045
-555.442	-86.817	-0.461	-0.141
-554.427	-157.563	0.110	-0.007
-553.412	-200.000	0.085	0.393
-552.398	540.544	0.043	0.103
-551.383	-200.000	0.027	-0.222
-550.369	264.961	0.070	-0.122
-549.354	-88.268	-0.103	-0.031
-548.339	-30.608	0.243	0.137
-547.325	800.000	0.049	-0.167
-546.310	-164.860	-0.117	-0.005
-545.296	-83.471	-0.424	0.136
-544.281	101.195	0.233	0.270
-543.266	673.667	-0.071	0.184
-542.252	451.962	-0.070	-0.153
-541.237	439.594	0.095	-0.206
-540.223	800.000	-0.036	0.103
-539.208	800.000	0.036	-0.104
-538.193	-172.003	-0.099	0.003
-537.179	-200.000	0.007	-0.167
-536.164	7.766	-0.071	-0.053
-535.150	40.582	0.105	-0.094
-534.135	55.373	0.162	0.157
-533.121	131.318	0.031	-0.040
-532.106	-74.498	-0.116	0.042
-531.091	-100.513	-0.268	-0.066
-530.077	84.367	0.238	0.260
-529.062	142.802	0.065	-0.087
-528.048	106.856	-0.186	-0.221
-527.033	-55.897	0.286	0.127
-526.018	-200.000	-0.001	-0.135
-525.004	-30.261	-0.045	0.026
-523.989	-120.976	-0.195	-0.033
-522.975	-200.000	-0.014	0.063
-521.960	-200.000	0.030	0.146
-520.945	800.000	0.086	-0.271
-519.931	-38.852	-0.205	-0.108
-518.916	11.520	0.092	-0.071
-517.902	7.213	0.338	0.252
-516.887	-4.434	-0.109	-0.075
-515.872	85.004	0.239	0.261
-514.858	549.512	-0.088	0.211
-513.843	287.591	-0.056	0.101
-512.829	455.239	-0.047	0.104
-511.814	-200.000	-0.007	-0.044
-510.799	-111.609	-0.045	0.009
-509.785	489.375	0.112	-0.256
-508.770	-85.356	-0.300	-0.093
-507.756	34.457	0.192	-0.167
-506.741	627.087	0.109	-0.275
-505.726	-200.000	-0.047	-0.219
-504.712	800.000	-0.027	0.095
-503.697	800.000	-0.029	-0.081
-502.683	-200.000	0.027	-0.135
-501.668	205.664	0.170	0.264
-500.653	800.000	-0.136	0.406
-499.639	301.459	-0.027	-0.050
-498.624	261.945	0.058	0.100
-497.610	-61.914	0.171	-0.071
-496.595	67.900	0.260	-0.265
-495.581	307.335	0.051	-0.095
-494.566	223.180	0.107	0.171
-493.551	-200.000	0.080	0.395
-492.537	-51.187	0.224	-0.104
-491.522	225.276	-0.121	-0.195
-490.508	75.232	-0.171	0.179
-489.493	-87.839	0.042	0.013
-488.478	279.481	0.047	-0.083
-487.464	11.338	0.293	-0.224
-486.449	-32.428	0.322	-0.179
-485.435	-200.000	0.036	-0.267
-484.420	110.781	-0.196	0.235
-483.405	148.286	-0.267	0.359
-482.391	-200.000	-0.002	-0.285
-481.376	376.575	-0.035	-0.071
-480.362	-161.360	-0.246	0.013
-479.347	100.243	-0.133	0.154
-478.332	-200.000	0.011	0.092
-477.318	-143.369	0.060	-0.006
-476.303	584.020	0.072	0.177
-475.289	133.981	0.255	0.329
-474.274	682.308	0.109	-0.283
-473.259	-200.000	0.013	-0.205
-472.245	800.000	-0.047	0.180
-471.230	-129.639	0.441	-0.061
-470.216	-200.000	0.051	0.237
-469.201	800.000	0.058	0.193
-468.186	389.442	-0.103	-0.213
-467.172	464.117	0.085	-0.189
-466.157	-195.289	0.232	0.002
-465.143	-78.888	0.373	-0.126
-464.128	-8.692	-0.167	0.112
-463.113	46.430	0.256	-0.236
-462.099	104.570	-0.256	-0.300
-461.084	-200.000	0.234	-0.001
-460.070	-76.091	-0.118	0.042
-459.055	70.533	-0.238	0.245
-458.040	-69.539	-0.242	-0.092
-457.026	-200.000	-0.008	-0.130
-456.011	38.467	0.133	-0.118
-454.997	-60.977	-0.064	0.027
-453.982	-124.427	0.396	-0.061
-452.968	65.261	0.132	0.133
-451.953	135.842	-0.145	-0.187
-450.938	-139.447	0.109	-0.012
-449.924	78.736	-0.100	0.107
-448.909	-200.000	-0.011	-0.317
-447.895	-143.121	0.272	0.026
-446.880	-22.561	0.048	-0.029
-445.865	-200.000	-0.005	0.063
-444.851	110.732	0.112	0.134
-443.836	654.824	-0.161	0.410
-442.822	-74.141	0.547	-0.197
-441.807	800.000	0.029	0.108
-440.792	-200.000	-0.039	-0.216
-439.778	106.200	0.103	-0.122
-438.763	202.260	-0.066	-0.102
-437.749	-32.592	0.106	-0.059
-436.734	-125.730	-0.264	0.040
-435.719	-6.937	-0.052	0.035
-434.705	114.777	-0.062	-0.075
-433.690	113.730	0.049	0.059
-432.676	-149.984	0.322	-0.025
-431.661	-53.704	0.069	-0.031
-430.646	146.840	-0.041	0.055
-429.632	14.987	-0.119	-0.093
-428.617	0.696	0.149	0.106
-427.603	-7.508	0.159	-0.107
-426.588	-79.998	-0.278	-0.093
-425.573	31.960	-0.161	-0.138
-424.559	35.581	-0.240	0.210
-423.544	-152.642	-0.197	-0.014
-422.530	-200.000	0.001	-0.066
-421.515	800.000	-0.058	-0.204
-420.500	800.000	-0.058	0.195
-419.486	-52.671	-0.142	-0.065
-418.471	75.866	0.136	-0.143
-417.457	-35.460	-0.135	-0.073
-416.442	-96.489	-0.213	-0.056
-415.428	104.834	-0.054	-0.063
-414.413	285.447	-0.118	-0.211
-413.398	-200.000	-0.048	0.322
-412.384	562.025	0.139	0.335
-411.369	-153.244	0.168	0.012
-410.355	-87.968	0.168	0.050
-409.340	68.054	-0.163	-0.166
-408.325	63.135	0.167	0.166
-407.311	49.856	-0.184	0.172
-406.296	-200.000	-0.043	0.210
-405.282	-75.671	0.234	-0.083
-404.267	-200.000	-0.020	0.265
-403.252	53.272	-0.323	0.307
-402.238	646.130	-0.060	0.153
-401.223	-42.562	0.156	-0.079
-400.209	-40.777	-0.315	-0.162
-399.194	266.543	-0.103	-0.179
-398.179	521.334	-0.040	-0.092
-397.165	98.449	0.022	-0.026
-396.150	-13.000	-0.127	0.082
-395.136	594.714	0.130	-0.320
-394.121	800.000	-0.152	-0.435
-393.106	-200.000	-0.044	0.218
-392.092	10.674	-0.220	-0.167
-391.077	-76.911	-0.273	-0.095
-390.063	101.718	0.125	0.144
-389.048	-15.669	0.189	-0.120
-388.033	-34.957	-0.224	0.121
-387.019	-21.148	-0.202	-0.122
-386.004	-200.000	-0.049	0.462
-384.990	-200.000	0.018	0.133
-383.975	519.304	0.061	-0.141
-382.960	-137.458	0.313	-0.035
-381.946	191.610	0.105	-0.157
-380.931	133.244	0.101	0.129
-379.917	-92.924	0.091	0.025
-378.902	-200.000	-0.003	-0.063
-377.888	171.956	-0.111	0.158
-376.873	-22.884	-0.207	0.124
-375.858	30.436	0.108	-0.091
-374.844	800.000	0.082	-0.257
-373.829	-145.188	0.278	0.025
-372.815	-170.783	-0.180	-0.006
-371.800	-196.351	-0.141	-0.001
-370.785	-86.624	-0.150	-0.045
-369.771	203.390	-0.046	0.070
-368.756	537.657	0.038	0.089
-367.742	253.161	0.031	-0.053
-366.727	-111.993	0.112	0.022
-365.712	-131.170	0.439	0.058
-364.698	-129.433	0.367	0.051
-363.683	-130.042	0.150	-0.020
-362.669	-3.130	0.119	0.082
-361.654	-23.197	0.247	-0.147
-360.639	-31.810	-0.387	0.215
-359.625	40.781	0.210	-0.187
-358.610	10.450	0.237	-0.179
-357.596	305.200	-0.078	0.143
-356.581	399.547	-0.121	0.252
-355.566	160.577	0.093	0.129
-354.552	-11.679	0.039	0.025
-353.537	-200.000	-0.032	0.320
-352.523	164.074	-0.241	-0.337
-351.508	-74.657	0.198	0.071
-350.493	-171.982	0.252	0.008
-349.479	191.387	0.114	0.171
-348.464	-43.844	0.303	0.151
-347.450	464.514	-0.093	-0.206
-346.435	748.600	0.052	0.140
-345.420	36.807	-0.245	-0.214
-344.406	-200.000	-0.003	0.052
-343.391	-200.000	-0.037	-0.245
-342.377	-200.000	-0.019	0.159
-341.362	163.249	0.214	0.298
-340.348	-200.000	0.013	-0.336
-339.333	798.874	-0.012	-0.033
-338.318	461.230	0.059	0.130
-337.304	-200.000	-0.125	-0.544
-336.289	-36.873	0.109	-0.058
-335.275	93.335	-0.112	0.125
-334.260	-7.274	-0.060	-0.040
-333.245	-144.698	0.421	0.038
-332.231	68.863	-0.099	0.101
-331.216	25.343	-0.082	0.068
-330.202	-64.614	0.150	-0.060
-329.187	-55.960	0.199	-0.088
-328.172	-200.000	-0.064	0.535
-327.158	61.317	-0.123	-0.121
-326.143	249.350	0.185	0.311
-325.129	-159.595	-0.096	-0.005
-324.114	-78.121	0.147	-0.050
-323.099	-40.221	0.482	0.248
-322.085	-200.000	0.002	-0.118
-321.070	-200.000	-0.036	-0.310
-320.056	-179.959	0.073	-0.002
-319.041	-79.734	0.151	-0.051
-318.026	240.079	-0.030	0.050
-317.012	-200.000	0.031	-0.231
-315.997	-123.909	-0.189	0.029
-314.983	113.939	-0.135	-0.162
-313.968	127.577	0.143	0.180
-312.953	-15.242	0.075	0.047
-311.939	52.891	0.144	-0.137
-310.924	56.453	0.175	-0.168
-309.910	800.000	0.059	-0.166
-308.895	800.000	-0.082	-0.238
-307.880	-200.000	0.010	0.377
-306.866	0.921	0.091	-0.065
-305.851	59.272	-0.090	0.088
-304.837	800.000	0.069	-0.240
-303.822	37.050	0.100	-0.088
-302.807	-200.000	0.005	-0.209
-301.793	768.382	0.054	0.145
-300.778	-153.681	0.219	0.015
-299.764	-77.592	-0.169	-0.058
-298.749	800.000	0.056	-0.167
-297.735	-200.000	0.053	-0.231
-296.720	-16.848	0.130	-0.081
-295.705	747.243	0.025	0.067
-294.691	157.918	-0.113	0.155
-293.676	800.000	0.087	-0.240
-292.662	-17.636	-0.279	-0.173
-291.647	-106.186	-0.233	0.052
-290.632	33.665	-0.271	-0.233
-289.618	-200.000	-0.007	-0.150
-288.603	22.722	0.050	0.040
-287.589	-152.265	0.103	0.007
-286.574	80.304	0.143	0.152
-285.559	-59.726	-0.180	-0.076
-284.545	-27.415	0.137	-0.079
-283.530	41.585	-0.175	-0.157
-282.516	23.922	-0.203	0.165
-281.501	-200.000	-0.015	0.121
-280.486	-80.095	-0.243	0.080
-279.472	154.474	0.074	0.101
-278.457	-94.326	0.046	0.013
-277.443	800.000	-0.039	-0.122
-276.428	-200.000	-0.007	-0.164
-275.413	221.763	0.126	-0.200
-274.399	-68.585	-0.168	0.064
-273.384	-152.640	-0.075	0.005
-272.370	-85.141	0.207	0.064
-271.355	82.071	-0.089	0.095
-270.340	405.310	-0.127	-0.264
-269.326	284.051	0.022	-0.040
-268.311	48.043	-0.114	0.106
-267.297	-200.000	0.031	0.223
-266.282	-60.413	-0.289	-0.121
-265.267	-67.403	0.149	-0.058
-264.253	-8.433	0.318	0.211
-263.238	600.182	-0.042	0.103
-262.224	-200.000	-0.026	-0.219
-261.209	-119.848	-0.077	0.013
-260.195	-61.765	-0.295	-0.122
-259.180	85.947	0.251	0.272
-258.165	125.052	0.121	0.151
-257.151	251.917	0.059	0.100
-256.136	-123.716	-0.106	0.017
-255.122	75.211	-0.265	-0.276
-254.107	-200.000	-0.014	0.062
-253.092	68.625	0.055	-0.056
-252.078	-141.392	0.207	-0.021
-251.063	155.550	0.094	0.128
-250.049	-163.655	-0.053	0.002
-249.034	800.000	0.083	-0.236
-248.019	197.360	-0.195	-0.294
-247.005	257.239	-0.014	-0.023
-245.990	-62.850	-0.427	-0.174
-244.976	800.000	0.044	-0.184
-243.961	800.000	-0.013	-0.046
-242.946	-109.768	0.162	0.034
-241.932	-42.099	0.212	-0.107
-240.917	-185.220	-0.256	-0.004
-239.903	-106.519	-0.042	-0.009
-238.888	5.158	0.225	0.163
-237.873	-200.000	-0.007	0.296
-236.859	800.000	-0.080	-0.283
-235.844	6.396	-0.120	-0.088
-234.830	-11.194	0.228	-0.148
-233.815	-35.123	-0.074	-0.040
-232.800	-86.923	-0.034	0.010
-231.786	-166.414	0.321	0.013
-230.771	-200.000	0.307	-0.001
-229.757	137.764	0.152	0.197
-228.742	-154.360	-0.146	-0.010
-227.727	460.712	0.059	-0.130
-226.713	370.364	-0.189	0.379
-225.698	-104.894	-0.122	-0.028
-224.684	324.531	-0.196	0.369
-223.669	-200.000	-0.017	-0.151
-222.655	-132.372	-0.220	-0.028
-221.640	19.505	-0.247	-0.196
-220.625	800.000	-0.043	0.172
-219.611	-50.506	0.259	0.121
-218.596	175.089	0.021	-0.030
-217.582	800.000	-0.017	0.067
-216.567	391.785	0.072	-0.147
-215.552	-150.315	0.145	-0.011
-214.538	16.093	-0.049	-0.038
-213.523	-113.587	0.042	0.008
-212.509	106.625	0.141	0.165
-211.494	-137.253	0.150	-0.017
-210.479	-92.010	0.239	0.067
-209.465	-35.695	0.314	0.168
-208.450	-89.864	-0.390	-0.112
-207.436	-200.000	-0.017	0.386
-206.421	180.633	0.146	-0.211
-205.406	-90.574	0.193	0.055
-204.392	547.633	-0.050	0.118
-203.377	-3.144	-0.179	0.123
-202.363	-52.632	-0.342	0.156
-201.348	-37.114	0.181	-0.095
-200.333	-200.000	-0.037	0.168
-199.319	-1.544	-0.222	0.155
-198.304	-35.783	-0.218	-0.116
-197.290	241.956	-0.100	-0.164
-196.275	-95.785	0.250	-0.066
-195.260	241.566	-0.155	-0.254
-194.246	741.771	-0.134	-0.355
-193.231	-73.672	0.169	0.061
-192.217	-200.000	0.027	-0.293
-191.202	213.616	-0.052	0.081
-190.187	-116.270	-0.161	0.029
-189.173	-90.156	-0.206	-0.059
-188.158	62.277	0.206	0.203
-187.144	-139.631	-0.207	-0.022
-186.129	-67.662	0.348	0.134
-185.114	-36.398	0.121	-0.064
-184.100	-200.000	-0.024	-0.182
-183.085	246.114	-0.147	0.244
-182.071	23.236	0.064	0.052
-181.056	-157.275	-0.410	-0.024
-180.042	-200.000	-0.030	0.137
-179.027	410.596	0.208	0.434
-178.012	114.452	-0.073	0.088
-176.998	-94.247	-0.326	-0.088
-175.983	688.078	-0.076	0.196
-174.969	-61.735	-0.040	-0.016
-173.954	-87.834	0.120	0.036
-172.939	-189.424	-0.188	0.002
-171.925	-200.000	0.024	0.189
-170.910	706.237	0.148	0.385
-169.896	-200.000	0.003	0.165
-168.881	-43.893	-0.013	-0.007
-167.866	19.660	-0.241	0.191
-166.852	119.364	0.030	0.036
-165.837	109.008	0.252	-0.296
-164.823	-160.587	-0.214	0.011
-163.808	99.322	-0.219	0.250
-162.793	361.465	0.126	0.249
-161.779	-156.863	-0.180	-0.011
-160.764	-180.962	-0.289	0.006
-159.750	-200.000	-0.018	0.223
-158.735	-200.000	-0.002	0.290
-157.720	132.106	0.225	0.285
-156.706	387.949	-0.048	0.097
-155.691	203.107	0.088	-0.134
-154.677	354.084	-0.143	-0.280
-153.662	800.000	0.126	-0.380
-152.647	-200.000	0.000	0.074
-151.633	85.665	-0.092	-0.099
-150.618	-68.051	0.422	0.162
-149.604	-200.000	0.021	-0.191
-148.589	337.497	-0.075	-0.144
-147.574	-89.995	-0.381	0.109
-146.560	-200.000	-0.042	-0.373
-145.545	377.034	0.082	0.164
-144.531	-95.821	0.072	0.019
-143.516	-69.298	0.333	0.126
-142.502	-200.000	0.028	0.287
-141.487	288.913	-0.088	0.157
-140.472	493.508	-0.106	0.238
-139.458	800.000	0.117	0.331
-138.443	227.347	-0.058	0.092
-137.429	51.243	-0.031	-0.029
-136.414	384.859	0.141	0.285
-135.399	-111.825	0.306	0.061
-134.385	502.673	0.136	-0.308
-133.370	138.980	-0.053	0.068
-132.356	-17.432	-0.293	-0.181
-131.341	-101.650	0.209	-0.050
-130.326	-147.794	0.203	-0.017
-129.312	395.118	-0.110	0.225
-128.297	165.540	-0.091	-0.126
-127.283	-200.000	0.021	-0.196
-126.268	-88.153	-0.167	0.049
-125.253	-102.882	-0.107	0.025
-124.239	-63.209	0.328	-0.133
-123.224	69.750	0.120	0.121
-122.210	-2.554	0.203	0.140
