DTS Sentinel unit serial number:	SN413079Multiplexer serial number:	ORYXHardware model number:	OX4-SRSoftware version number:	ORYX F/W v4.00 Oryx Data Collector v3.7.2.0data status	okinstallation	princeton_trtdifferential loss correction	single-endedforward channel	channel 1reverse channel	N/Adate	2019/09/12time	05:20:11forward acquisition time	60.00reverse acquisition time	0.00gamma	496.2192k internal	0.2322k external	0.2322temperature offset calibration	1.0053default loss term (dB/km)	0.3790temperature slope calibration	1.0000multiplexer offset coefficient	1.0000multiplexer slope coefficient	1.0000fibre end	0.00T internal ref (°C)	31.87T ext. ref 1 (°C)	1.63T ext. ref 2 (°C)	27.35length (m)	temperature (°C)	Stokes	anti-Stokes-747.200	257.203	-0.037	0.064
-746.185	96.271	-0.259	-0.299
-745.171	26.860	-0.096	-0.081
-744.156	-154.636	-0.402	0.027
-743.142	-108.238	-0.259	-0.056
-742.127	-69.186	-0.529	0.206
-741.112	-11.816	-0.241	0.160
-740.098	-84.095	-0.324	0.104
-739.083	35.797	0.335	0.298
-738.069	-200.000	0.008	0.266
-737.054	267.074	-0.032	0.057
-736.039	-200.000	0.015	-0.100
-735.025	89.475	0.274	0.309
-734.010	-87.690	0.393	-0.120
-732.996	-151.318	-0.135	-0.010
-731.981	26.445	-0.272	-0.230
-730.966	-200.000	0.004	-0.301
-729.952	-200.000	-0.000	-0.043
-728.937	-76.871	-0.461	-0.163
-727.923	-57.672	-0.229	0.101
-726.908	-51.394	-0.185	0.087
-725.894	-104.233	0.200	-0.047
-724.879	-200.000	0.009	0.106
-723.864	31.579	-0.352	-0.305
-722.850	6.562	-0.060	-0.045
-721.835	77.958	0.166	-0.178
-720.821	35.510	-0.068	0.060
-719.806	-200.000	0.003	-0.111
-718.791	-200.000	-0.001	0.134
-717.777	354.778	0.124	0.249
-716.762	-161.708	-0.211	0.011
-715.748	-167.334	-0.106	-0.004
-714.733	-81.054	-0.143	0.048
-713.718	85.096	-0.137	0.152
-712.704	3.967	-0.213	0.157
-711.689	346.087	-0.101	0.200
-710.675	7.718	0.400	-0.302
-709.660	-200.000	-0.451	0.001
-708.645	248.565	0.040	-0.069
-707.631	-92.165	-0.157	0.045
-706.616	-5.348	0.224	-0.156
-705.602	800.000	0.043	-0.164
-704.587	-57.093	0.202	-0.090
-703.572	-21.734	-0.130	0.080
-702.558	-90.950	-0.146	-0.042
-701.543	800.000	-0.053	-0.184
-700.529	-19.807	0.358	-0.223
-699.514	-86.139	-0.075	-0.023
-698.499	-200.000	0.013	0.266
-697.485	-128.217	-0.224	-0.032
-696.470	387.396	-0.131	-0.274
-695.456	586.949	0.120	-0.298
-694.441	7.069	-0.217	0.163
-693.426	-48.557	-0.160	0.078
-692.412	0.147	-0.437	0.314
-691.397	-20.015	-0.252	-0.157
-690.383	165.240	0.165	0.235
-689.368	66.868	-0.231	-0.238
-688.354	-77.163	-0.203	-0.071
-687.339	-38.735	-0.338	0.180
-686.324	503.523	-0.086	-0.200
-685.310	-200.000	-0.004	0.284
-684.295	-200.000	-0.069	0.389
-683.281	800.000	-0.117	-0.416
-682.266	185.977	-0.163	0.245
-681.251	-200.000	-0.068	0.315
-680.237	800.000	0.049	-0.181
-679.222	-200.000	0.031	0.390
-678.208	-127.463	-0.192	-0.028
-677.193	323.364	-0.093	-0.178
-676.178	-169.221	0.321	-0.012
-675.164	800.000	-0.077	0.240
-674.149	60.824	0.091	0.091
-673.135	-200.000	-0.007	0.033
-672.120	-133.551	-0.262	-0.033
-671.105	800.000	0.028	0.113
-670.091	226.484	0.116	-0.189
-669.076	-200.000	0.043	-0.227
-668.062	-134.760	-0.081	-0.010
-667.047	438.544	-0.098	-0.216
-666.032	72.414	-0.019	-0.020
-665.018	456.472	0.163	-0.365
-664.003	623.637	0.049	-0.124
-662.989	38.764	0.042	-0.038
-661.974	10.961	0.077	-0.060
-660.959	-200.000	-0.016	-0.113
-659.945	243.855	-0.118	-0.200
-658.930	28.468	0.340	-0.289
-657.916	9.603	0.227	-0.174
-656.901	319.930	0.062	0.119
-655.886	800.000	0.028	0.110
-654.872	-28.121	0.047	-0.027
-653.857	104.608	-0.062	-0.074
-652.843	-4.297	-0.284	0.198
-651.828	267.256	-0.159	-0.280
-650.814	-121.457	-0.152	0.025
-649.799	-156.201	-0.156	0.010
-648.784	163.364	-0.134	-0.190
-647.770	681.975	-0.012	-0.032
-646.755	294.518	-0.008	0.015
-645.741	-66.145	-0.318	-0.128
-644.726	204.811	0.053	-0.083
-643.711	143.200	-0.168	-0.225
-642.697	205.192	-0.118	0.184
-641.682	800.000	-0.081	0.259
-640.668	-28.667	-0.220	-0.128
-639.653	-77.914	0.125	-0.043
-638.638	166.522	0.154	0.220
-637.624	-93.188	-0.410	-0.115
-636.609	-24.573	-0.120	-0.072
-635.595	88.858	-0.051	0.057
-634.580	75.779	-0.121	0.129
-633.565	-200.000	-0.025	0.291
-632.551	-41.391	-0.273	-0.141
-631.536	-99.375	0.130	-0.033
-630.522	-63.236	-0.226	-0.094
-629.507	-126.367	-0.318	-0.048
-628.492	-200.000	-0.050	0.427
-627.478	-53.089	-0.167	-0.077
-626.463	159.318	0.110	0.154
-625.449	351.461	-0.050	0.099
-624.434	-157.676	0.220	-0.013
-623.419	488.622	-0.094	-0.216
-622.405	-25.912	0.410	-0.243
-621.390	-84.002	0.098	-0.031
-620.376	46.821	0.183	-0.171
-619.361	-200.000	-0.029	0.215
-618.346	-95.729	0.155	-0.042
-617.332	-200.000	0.009	0.259
-616.317	800.000	-0.039	-0.137
-615.303	44.155	0.166	-0.153
-614.288	33.686	0.286	0.250
-613.273	800.000	0.100	-0.315
-612.259	-78.760	-0.345	-0.118
-611.244	-200.000	0.012	0.288
-610.230	-189.593	-0.243	0.003
-609.215	-144.649	0.083	-0.008
-608.201	29.086	-0.205	-0.175
-607.186	800.000	-0.092	-0.261
-606.171	127.366	-0.119	0.152
-605.157	-200.000	-0.033	0.193
-604.142	800.000	-0.077	0.274
-603.128	367.413	-0.098	-0.198
-602.113	-89.862	0.260	-0.076
-601.098	279.883	-0.098	-0.176
-600.084	800.000	0.024	-0.100
-599.069	79.451	0.066	0.071
-598.055	131.247	0.140	-0.180
-597.040	-80.029	0.150	0.051
-596.025	-130.707	-0.103	-0.014
-595.011	202.189	0.074	0.114
-593.996	277.289	-0.191	0.341
-592.982	-149.234	0.301	-0.024
-591.967	563.311	-0.023	-0.055
-590.952	31.595	0.055	-0.047
-589.938	800.000	-0.034	-0.101
-588.923	-64.460	0.056	0.023
-587.909	-71.364	0.106	0.040
-586.894	59.985	0.404	-0.401
-585.879	-200.000	0.016	-0.265
-584.865	49.514	-0.246	0.233
-583.850	-200.000	0.020	0.242
-582.836	172.793	0.142	-0.205
-581.821	-53.958	0.229	0.105
-580.806	-118.465	0.336	-0.060
-579.792	-200.000	-0.026	0.381
-578.777	-95.296	0.185	0.050
-577.763	-33.598	-0.183	-0.101
-576.748	-95.247	0.235	0.063
-575.733	61.960	-0.200	0.200
-574.719	254.457	-0.121	0.207
-573.704	49.679	-0.015	-0.014
-572.690	-54.931	-0.166	0.075
-571.675	-91.337	0.065	0.019
-570.661	-41.380	-0.299	-0.154
-569.646	-152.113	-0.138	0.010
-568.631	-49.030	0.409	0.197
-567.617	512.243	0.211	-0.494
-566.602	-118.649	-0.296	0.052
-565.588	14.426	-0.095	0.074
-564.573	-138.567	0.398	0.044
-563.558	-11.793	0.315	0.207
-562.544	536.175	-0.111	-0.264
-561.529	614.350	0.071	-0.178
-560.515	425.897	-0.119	0.258
-559.500	-39.506	-0.043	0.022
-558.485	-74.855	0.097	0.035
-557.471	104.258	-0.211	-0.249
-556.456	-27.523	0.084	-0.049
-555.442	-72.845	-0.354	0.131
-554.427	-35.419	-0.186	-0.101
-553.412	13.821	0.176	-0.137
-552.398	29.731	-0.338	0.289
-551.383	-91.451	0.178	0.051
-550.369	-86.044	-0.312	-0.097
-549.354	-82.011	0.154	-0.050
-548.339	-22.743	0.102	-0.062
-547.325	800.000	0.056	-0.175
-546.310	479.977	0.042	0.095
-545.296	-7.714	-0.336	0.227
-544.281	800.000	-0.038	0.128
-543.266	87.041	0.054	0.060
-542.252	114.779	-0.082	0.101
-541.237	-200.000	0.009	-0.114
-540.223	-159.736	0.305	-0.017
-539.208	-53.302	0.441	0.203
-538.193	201.746	-0.007	0.011
-537.179	800.000	0.071	-0.299
-536.164	-91.518	-0.237	0.068
-535.150	243.385	0.148	0.248
-534.135	-108.623	-0.125	0.027
-533.121	-200.000	-0.026	-0.147
-532.106	-63.232	-0.091	0.037
-531.091	-12.207	0.095	0.062
-530.077	-11.292	-0.186	0.123
-529.062	14.177	-0.248	0.193
-528.048	800.000	-0.006	0.019
-527.033	-200.000	0.015	0.172
-526.018	800.000	0.072	0.224
-525.004	221.389	0.063	0.102
-523.989	148.815	-0.026	-0.035
-522.975	286.517	0.067	0.121
-521.960	-17.716	0.216	-0.136
-520.945	698.814	0.095	-0.250
-519.931	-200.000	0.016	-0.187
-518.916	364.469	-0.041	-0.082
-517.902	48.568	-0.224	-0.210
-516.887	-17.041	0.262	-0.165
-515.872	52.084	-0.113	0.108
-514.858	-136.204	-0.270	-0.032
-513.843	-98.492	-0.092	-0.024
-512.829	-200.000	-0.036	0.338
-511.814	70.393	-0.141	0.146
-510.799	259.889	-0.140	0.242
-509.785	-62.457	-0.113	0.047
-508.770	-68.753	0.296	-0.114
-507.756	71.894	-0.364	-0.379
-506.741	364.066	-0.047	-0.094
-505.726	107.888	-0.208	0.248
-504.712	-122.819	-0.291	0.047
-503.697	303.739	0.059	0.109
-502.683	-200.000	-0.024	0.236
-501.668	5.592	0.186	0.137
-500.653	-65.368	-0.253	-0.102
-499.639	-25.960	-0.344	0.203
-498.624	-24.663	0.200	0.119
-497.610	-73.202	-0.264	-0.097
-496.595	-200.000	0.006	-0.053
-495.581	-64.103	-0.108	-0.044
-494.566	-56.785	0.243	-0.108
-493.551	305.165	-0.243	0.452
-492.537	217.236	-0.221	-0.352
-491.522	193.313	-0.194	0.293
-490.508	-59.664	-0.126	0.054
-489.493	37.299	0.376	0.333
-488.478	-113.341	-0.406	0.080
-487.464	-200.000	0.027	0.224
-486.449	800.000	-0.051	-0.201
-485.435	-66.335	-0.060	0.024
-484.420	6.358	-0.060	0.044
-483.405	-83.168	-0.230	-0.074
-482.391	-117.643	0.370	0.067
-481.376	-54.533	0.242	-0.109
-480.362	-90.377	-0.244	-0.071
-479.347	-200.000	-0.001	0.035
-478.332	-4.894	-0.185	-0.128
-477.318	486.897	-0.085	-0.194
-476.303	216.920	0.159	-0.254
-475.289	731.218	0.095	0.255
-474.274	88.401	-0.063	0.070
-473.259	-44.562	-0.127	0.064
-472.245	-150.996	0.158	0.012
-471.230	-25.169	-0.060	-0.035
-470.216	-25.442	0.278	-0.164
-469.201	-89.778	-0.079	-0.023
-468.186	-200.000	0.030	-0.198
-467.172	-200.000	0.186	0.000
-466.157	276.605	-0.134	0.237
-465.143	16.257	-0.213	-0.168
-464.128	-51.692	0.284	-0.132
-463.113	63.985	0.141	-0.142
-462.099	-200.000	-0.039	0.230
-461.084	800.000	0.060	-0.219
-460.070	-79.966	0.093	-0.031
-459.055	372.920	-0.163	-0.330
-458.040	-89.777	0.375	-0.110
-457.026	-200.000	0.039	0.235
-456.011	-102.973	-0.145	-0.034
-454.997	800.000	0.043	0.160
-453.982	260.676	0.102	0.176
-452.968	124.652	0.061	-0.077
-451.953	-39.679	0.057	-0.030
-450.938	89.155	-0.127	0.141
-449.924	34.995	0.036	-0.032
-448.909	-200.000	-0.003	-0.160
-447.895	12.739	-0.050	0.039
-446.880	144.330	0.045	0.060
-445.865	295.379	0.253	0.463
-444.851	50.905	0.122	-0.116
-443.836	-94.496	0.148	0.040
-442.822	800.000	-0.044	-0.132
-441.807	800.000	-0.022	-0.061
-440.792	-74.282	0.272	0.098
-439.778	75.640	-0.021	0.022
-438.763	105.552	0.104	-0.123
-437.749	-200.000	0.012	0.165
-436.734	-92.999	0.121	-0.034
-435.719	-40.588	-0.404	-0.209
-434.705	696.520	-0.160	0.420
-433.690	800.000	0.031	0.119
-432.676	800.000	0.109	0.455
-431.661	-138.799	0.298	-0.032
-430.646	-200.000	-0.006	0.136
-429.632	-8.753	-0.266	-0.178
-428.617	703.842	0.085	-0.223
-427.603	-200.000	0.070	0.324
-426.588	-174.019	-0.200	-0.006
-425.573	368.403	-0.019	0.039
-424.559	102.386	0.173	-0.201
-423.544	170.306	-0.101	0.144
-422.530	-72.839	0.185	0.068
-421.515	-43.768	-0.219	-0.110
-420.500	-200.000	-0.009	-0.301
-419.486	800.000	-0.037	0.123
-418.471	-200.000	0.056	0.318
-417.457	7.662	0.150	-0.112
-416.442	-66.212	0.074	0.030
-415.428	-200.000	-0.021	0.279
-414.413	-131.957	0.207	-0.027
-413.398	-114.249	-0.126	0.024
-412.384	-118.669	0.248	-0.044
-411.369	278.397	0.124	0.221
-410.355	-61.710	-0.244	0.102
-409.340	-200.000	-0.133	-0.591
-408.325	-40.792	-0.321	-0.166
-407.311	2.102	-0.134	-0.096
-406.296	-200.000	0.022	-0.182
-405.282	-30.800	-0.353	-0.199
-404.267	65.403	-0.171	0.172
-403.252	790.876	0.126	-0.346
-402.238	474.928	0.065	-0.145
-401.223	41.239	0.033	-0.029
-400.209	242.821	0.081	0.136
-399.194	253.748	-0.055	-0.094
-398.179	-86.048	-0.119	0.037
-397.165	-101.483	0.335	-0.081
-396.150	-170.413	-0.228	-0.008
-395.136	-200.000	0.012	0.120
-394.121	800.000	-0.060	0.202
-393.106	800.000	0.008	0.029
-392.092	634.165	-0.035	0.089
-391.077	-80.617	0.279	-0.093
-390.063	96.821	-0.152	-0.174
-389.048	800.000	0.023	-0.072
-388.033	-156.729	0.298	-0.018
-387.019	-87.460	0.209	0.063
-386.004	-200.000	0.054	-0.355
-384.990	-200.000	0.158	-0.001
-383.975	-200.000	0.067	-0.313
-382.960	217.108	-0.125	0.199
-381.946	210.786	-0.316	0.494
-380.931	-173.699	0.085	-0.003
-379.917	157.718	-0.129	0.179
-378.902	800.000	0.022	-0.095
-377.888	-200.000	0.005	0.145
-376.873	-165.772	0.252	0.011
-375.858	-200.000	-0.030	-0.279
-374.844	675.182	0.034	0.089
-373.829	40.294	0.130	-0.117
-372.815	-200.000	-0.098	0.446
-371.800	164.601	0.144	-0.202
-370.785	-129.643	-0.274	0.038
-369.771	-25.229	-0.124	0.073
-368.756	-90.984	0.115	0.033
-367.742	44.651	0.182	0.166
-366.727	-94.388	0.331	-0.090
-365.712	299.772	-0.045	-0.082
-364.698	-200.000	-0.017	0.150
-363.683	-90.974	-0.148	-0.042
-362.669	1.042	0.249	0.178
-361.654	316.917	0.036	-0.068
-360.639	-156.593	0.163	0.010
-359.625	229.128	0.092	-0.149
-358.610	29.283	-0.195	-0.165
-357.596	800.000	0.083	-0.345
-356.581	42.356	0.171	-0.155
-355.566	-13.354	0.047	-0.030
-354.552	748.307	-0.121	0.325
-353.537	218.852	-0.141	-0.224
-352.523	43.356	0.063	-0.057
-351.508	800.000	-0.104	-0.301
-350.493	-68.436	0.335	-0.130
-349.479	-66.246	-0.555	-0.220
-348.464	800.000	-0.034	0.098
-347.450	-68.362	0.345	-0.133
-346.435	37.871	-0.154	0.136
-345.420	18.523	-0.105	0.083
-344.406	55.752	-0.026	0.025
-343.391	482.183	0.069	-0.155
-342.377	113.972	-0.092	0.112
-341.362	800.000	-0.102	-0.311
-340.348	-71.027	0.259	-0.097
-339.333	132.111	-0.149	0.190
-338.318	-136.948	0.502	-0.057
-337.304	-176.993	-0.210	0.005
-336.289	450.426	0.062	0.137
-335.275	-200.000	-0.009	-0.356
-334.260	800.000	0.159	-0.485
-333.245	28.910	-0.059	-0.050
-332.231	-141.056	0.430	-0.044
-331.216	-96.339	-0.332	-0.087
-330.202	776.465	0.046	0.124
-329.187	-36.165	-0.032	0.017
-328.172	-155.299	0.415	-0.027
-327.158	-68.522	0.292	-0.113
-326.143	-72.106	-0.136	-0.050
-325.129	136.546	0.043	-0.056
-324.114	-74.307	-0.062	-0.022
-323.099	321.795	0.089	0.169
-322.085	73.825	0.121	0.126
-321.070	-200.000	-0.002	0.061
-320.056	800.000	-0.051	-0.169
-319.041	34.641	0.393	0.341
-318.026	800.000	-0.056	-0.156
-317.012	45.538	0.235	-0.215
-315.997	68.063	-0.268	-0.272
-314.983	-56.818	-0.221	0.097
-313.968	-104.070	0.148	0.034
-312.953	-20.714	-0.187	-0.114
-311.939	-14.185	-0.063	-0.040
-310.924	44.352	-0.217	0.198
-309.910	210.935	-0.082	-0.127
-308.895	545.518	0.080	-0.189
-307.880	-18.643	0.173	0.107
-306.866	-65.715	-0.221	0.088
-305.851	338.895	-0.079	-0.153
-304.837	-72.558	0.092	0.034
-303.822	140.234	0.091	0.119
-302.807	-183.081	0.224	-0.004
-301.793	233.367	0.165	0.270
-300.778	-149.988	0.447	0.035
-299.764	54.671	0.104	-0.100
-298.749	162.613	0.057	-0.080
-297.735	-73.364	0.105	-0.038
-296.720	-97.734	0.239	-0.062
-295.705	423.750	-0.190	0.406
-294.691	-169.749	0.578	-0.021
-293.676	223.660	-0.143	-0.229
-292.662	356.287	0.139	-0.275
-291.647	-91.454	0.320	0.091
-290.632	-200.000	0.006	-0.285
-289.618	800.000	0.019	-0.071
-288.603	800.000	-0.054	0.158
-287.589	41.328	-0.275	-0.247
-286.574	37.626	0.090	-0.079
-285.559	-161.941	-0.308	0.015
-284.545	800.000	-0.061	0.249
-283.530	26.868	-0.149	-0.124
-282.516	800.000	-0.067	0.234
-281.501	800.000	0.048	0.199
-280.486	314.002	0.093	-0.174
-279.472	-200.000	0.029	0.215
-278.457	167.307	0.294	0.414
-277.443	56.016	0.190	-0.183
-276.428	-33.677	-0.496	0.271
-275.413	3.144	0.257	0.185
-274.399	-77.016	0.225	-0.078
-273.384	-73.185	0.076	-0.028
-272.370	-80.941	0.061	0.020
-271.355	-200.000	0.013	-0.087
-270.340	-200.000	0.066	-0.362
-269.326	-200.000	0.001	-0.132
-268.311	548.028	0.092	0.219
-267.297	49.008	-0.435	0.405
-266.282	338.840	0.102	-0.197
-265.267	62.817	0.145	-0.144
-264.253	152.608	0.104	0.141
-263.238	444.545	0.051	0.111
-262.224	-200.000	-0.037	0.227
-261.209	1.469	-0.120	-0.086
-260.195	100.018	-0.002	-0.003
-259.180	-200.000	-0.035	-0.316
-258.165	105.204	0.198	-0.232
-257.151	-7.212	-0.251	0.169
-256.136	800.000	-0.040	0.130
-255.122	-200.000	-0.010	0.110
-254.107	-200.000	0.056	0.385
-253.092	-200.000	0.026	0.230
-252.078	-133.716	0.154	-0.019
-251.063	-24.151	0.189	-0.112
-250.049	-200.000	0.018	0.122
-249.034	800.000	-0.088	-0.257
-248.019	187.052	0.144	-0.213
-247.005	-95.431	-0.220	0.059
-245.990	250.637	0.041	0.069
-244.976	-88.626	-0.406	0.120
-243.961	-59.248	-0.088	0.038
-242.946	-200.000	-0.017	-0.081
-241.932	-200.000	-0.099	-0.691
-240.917	-200.000	0.025	0.288
-239.903	786.474	0.049	0.133
-238.888	-200.000	-0.086	-0.478
-237.873	-52.975	-0.212	0.097
-236.859	123.028	-0.213	0.264
-235.844	20.562	-0.236	0.189
-234.830	-134.556	0.303	0.037
-233.815	465.114	-0.115	0.254
-232.800	18.097	-0.382	-0.301
-231.786	66.493	0.169	-0.170
-230.771	299.855	-0.168	-0.307
-229.757	57.852	-0.200	0.194
-228.742	12.743	0.142	0.109
-227.727	-28.284	0.278	-0.159
-226.713	-80.452	-0.109	-0.036
-225.698	-51.124	0.292	-0.135
-224.684	-47.609	0.048	0.023
-223.669	203.997	0.101	0.154
-222.655	745.165	-0.132	0.350
-221.640	-200.000	0.009	0.070
-220.625	3.191	-0.311	-0.224
-219.611	-200.000	0.014	-0.080
-218.596	-34.233	0.052	0.028
-217.582	-5.078	-0.225	-0.153
-216.567	30.048	-0.290	-0.245
-215.552	-200.000	-0.039	-0.331
-214.538	7.086	0.173	-0.127
-213.523	-26.408	-0.026	0.015
-212.509	-111.489	-0.462	0.093
-211.494	112.581	-0.072	-0.087
-210.479	-107.616	-0.159	0.034
-209.465	-139.835	-0.345	-0.036
-208.450	361.053	0.054	0.106
-207.436	-200.000	-0.001	0.142
-206.421	528.733	0.020	0.046
-205.406	-18.422	0.156	0.096
-204.392	764.272	-0.110	-0.294
-203.377	14.654	-0.117	-0.091
-202.363	-200.000	0.075	0.422
-201.348	-47.670	0.137	0.066
-200.333	77.767	-0.252	0.266
-199.319	180.115	0.155	0.224
-198.304	-200.000	0.016	-0.213
-197.290	-66.716	0.277	0.108
-196.275	235.637	0.091	0.149
-195.260	36.972	0.061	0.053
-194.246	800.000	-0.083	0.298
-193.231	578.446	-0.101	-0.245
-192.217	487.226	0.009	0.019
-191.202	-200.000	0.023	-0.273
-190.187	-134.772	-0.096	-0.012
-189.173	-200.000	0.005	0.268
-188.158	-200.000	-0.003	0.139
-187.144	229.930	0.124	-0.201
-186.129	-200.000	-0.010	-0.074
-185.114	210.175	0.067	0.103
-184.100	-37.213	-0.355	-0.188
-183.085	-123.770	-0.126	0.020
-182.071	40.653	-0.115	0.102
-181.056	349.349	0.095	-0.186
-180.042	-200.000	0.062	-0.272
-179.027	4.221	0.178	-0.129
-178.012	175.492	0.046	-0.066
-176.998	-20.410	0.212	0.129
-175.983	39.446	0.082	0.073
-174.969	97.283	0.103	0.117
-173.954	2.600	-0.082	-0.059
-172.939	-200.000	0.003	-0.092
-171.925	-106.467	-0.063	0.014
-170.910	800.000	0.142	0.454
-169.896	-167.828	-0.301	-0.012
-168.881	224.821	0.239	-0.382
-167.866	9.204	0.231	0.173
-166.852	654.540	-0.088	0.223
-165.837	-112.852	0.307	-0.060
-164.823	-200.000	-0.002	-0.105
-163.808	800.000	-0.017	0.071
-162.793	-200.000	-0.025	0.360
-161.779	62.970	-0.057	0.057
-160.764	123.640	-0.091	-0.113
-159.750	-54.956	0.111	-0.049
-158.735	-55.960	-0.286	0.126
-157.720	120.051	-0.130	-0.160
-156.706	151.664	-0.061	-0.082
-155.691	-200.000	-0.016	-0.153
-154.677	3.630	0.202	0.146
-153.662	-6.929	0.101	-0.068
-152.647	-200.000	0.004	-0.178
-151.633	-143.512	0.058	-0.005
-150.618	-56.482	-0.186	0.081
-149.604	356.876	0.094	0.184
-148.589	-196.647	0.148	-0.001
-147.574	-200.000	0.007	0.093
-146.560	407.436	0.048	0.100
-145.545	800.000	0.046	0.143
-144.531	-35.884	-0.080	0.042
-143.516	361.308	-0.080	0.158
-142.502	-200.000	-0.013	0.184
-141.487	-200.000	0.032	0.376
-140.472	-200.000	-0.003	-0.058
-139.458	-43.018	-0.097	0.049
-138.443	-200.000	0.011	0.142
-137.429	-53.522	-0.374	-0.169
-136.414	-62.336	0.476	0.195
-135.399	79.982	-0.063	-0.066
-134.385	-36.830	0.284	0.150
-133.370	-55.106	0.257	0.114
-132.356	60.946	-0.230	0.225
-131.341	30.403	-0.127	0.107
-130.326	-149.292	-0.088	-0.007
-129.312	-123.773	-0.263	-0.041
-128.297	128.878	0.113	-0.142
-127.283	800.000	0.122	0.355
-126.268	800.000	0.082	0.304
-125.253	215.635	-0.101	0.159
-124.239	-65.360	0.388	-0.154
-123.224	-19.473	-0.136	-0.083
-122.210	62.162	0.178	0.175
-121.195	629.452	-0.055	0.136
-120.180	-87.392	0.237	-0.071
