DTS Sentinel unit serial number:	SN413079Multiplexer serial number:	ORYXHardware model number:	OX4-SRSoftware version number:	ORYX F/W v4.00 Oryx Data Collector v3.7.2.0data status	okinstallation	princeton_trtdifferential loss correction	single-endedforward channel	channel 1reverse channel	N/Adate	2019/09/17time	04:58:35forward acquisition time	60.00reverse acquisition time	0.00gamma	496.2192k internal	0.2324k external	0.2324temperature offset calibration	0.9958default loss term (dB/km)	0.3790temperature slope calibration	1.0000multiplexer offset coefficient	1.0000multiplexer slope coefficient	1.0000fibre end	0.00T internal ref (°C)	29.50T ext. ref 1 (°C)	0.14T ext. ref 2 (°C)	23.94length (m)	temperature (°C)	Stokes	anti-Stokes-747.200	-200.000	0.082	-0.461
-746.185	-200.000	0.006	-0.055
-745.171	-57.055	0.321	-0.143
-744.156	108.438	-0.161	0.194
-743.142	-200.000	0.031	0.404
-742.127	655.587	-0.041	-0.106
-741.112	190.677	-0.105	0.159
-740.098	-200.000	0.080	0.560
-739.083	-200.000	0.012	0.304
-738.069	-52.862	-0.278	-0.129
-737.054	-155.123	-0.341	0.022
-736.039	224.979	-0.219	0.358
-735.025	85.628	0.194	-0.215
-734.010	137.806	-0.296	-0.392
-732.996	-144.637	-0.262	-0.024
-731.981	187.939	-0.018	0.026
-730.966	-177.894	0.335	-0.008
-729.952	-101.286	0.115	0.028
-728.937	-200.000	-0.064	-0.376
-727.923	-200.000	-0.004	-0.305
-726.908	-152.317	0.236	0.017
-725.894	18.175	-0.122	0.098
-724.879	-29.402	-0.073	0.042
-723.864	114.831	0.333	-0.410
-722.850	-142.555	0.200	-0.020
-721.835	-106.403	-0.181	0.041
-720.821	408.643	-0.075	-0.161
-719.806	-33.723	0.243	0.135
-718.791	63.036	-0.109	0.110
-717.777	-92.774	-0.270	-0.076
-716.762	-200.000	-0.017	-0.087
-715.748	-200.000	0.016	-0.186
-714.733	153.381	0.060	-0.083
-713.718	131.779	0.045	-0.058
-712.704	-200.000	0.050	-0.235
-711.689	-200.000	-0.033	0.389
-710.675	-77.287	-0.109	-0.038
-709.660	46.126	0.134	0.125
-708.645	-104.336	-0.155	-0.036
-707.631	800.000	0.134	0.436
-706.616	-142.112	0.392	-0.039
-705.602	-37.200	0.289	0.156
-704.587	-52.291	-0.608	-0.284
-703.572	45.575	0.024	-0.022
-702.558	-140.962	0.507	-0.052
-701.543	47.264	0.338	0.317
-700.529	19.166	0.221	-0.179
-699.514	-59.158	-0.174	-0.076
-698.499	-2.286	-0.070	0.050
-697.485	-200.000	-0.054	-0.345
-696.470	142.230	-0.012	0.016
-695.456	800.000	-0.085	-0.299
-694.441	101.226	0.094	-0.110
-693.426	-102.601	0.330	-0.079
-692.412	154.124	-0.082	0.113
-691.397	672.590	0.066	0.173
-690.383	800.000	-0.035	0.116
-689.368	399.175	-0.021	-0.044
-688.354	-200.000	0.002	-0.069
-687.339	79.653	-0.239	0.258
-686.324	-200.000	0.024	-0.196
-685.310	-31.715	-0.315	-0.178
-684.295	17.770	0.127	-0.102
-683.281	41.362	0.209	-0.190
-682.266	555.646	-0.123	-0.299
-681.251	-50.805	0.116	-0.055
-680.237	-200.000	-0.018	-0.221
-679.222	132.306	0.133	0.172
-678.208	-200.000	0.028	-0.178
-677.193	-141.294	-0.164	0.017
-676.178	-19.918	-0.055	-0.034
-675.164	-97.954	0.217	0.056
-674.149	29.610	-0.060	0.051
-673.135	431.436	0.025	-0.054
-672.120	-182.006	-0.113	0.002
-671.105	245.332	-0.210	0.355
-670.091	90.388	0.116	0.130
-669.076	-82.827	-0.188	0.061
-668.062	30.379	-0.288	0.248
-667.047	-161.030	0.296	0.016
-666.032	69.723	0.348	-0.361
-665.018	-200.000	-0.202	0.000
-664.003	-200.000	0.006	-0.112
-662.989	372.036	0.083	-0.169
-661.974	800.000	0.012	-0.041
-660.959	-200.000	-0.023	-0.134
-659.945	202.515	0.159	0.247
-658.930	-200.000	0.039	0.261
-657.916	800.000	-0.050	-0.171
-656.901	10.946	0.179	0.138
-655.886	68.103	0.058	0.060
-654.872	-200.000	-0.004	0.096
-653.857	800.000	0.047	-0.184
-652.843	-200.000	0.012	-0.151
-651.828	223.788	-0.045	-0.074
-650.814	-200.000	0.024	-0.312
-649.799	641.585	-0.064	0.163
-648.784	-66.116	-0.322	-0.129
-647.770	800.000	0.040	-0.149
-646.755	-99.767	-0.201	-0.051
-645.741	20.928	0.319	0.260
-644.726	-139.683	0.154	-0.016
-643.711	-200.000	-0.362	0.001
-642.697	122.314	0.107	-0.135
-641.682	-118.727	0.174	0.031
-640.668	566.546	-0.014	0.035
-639.653	-200.000	-0.035	0.548
-638.638	143.540	-0.110	-0.147
-637.624	-66.889	0.213	-0.085
-636.609	476.345	0.066	0.151
-635.595	-20.440	-0.173	0.107
-634.580	-163.078	-0.132	0.006
-633.565	-200.000	0.001	0.044
-632.551	794.708	-0.064	-0.178
-631.536	-38.920	-0.423	0.224
-630.522	540.417	-0.070	-0.167
-629.507	130.376	-0.080	0.103
-628.492	-83.012	0.368	-0.119
-627.478	345.259	0.103	0.204
-626.463	-200.000	-0.053	0.278
-625.449	243.421	-0.083	0.140
-624.434	-2.875	0.149	0.105
-623.419	700.462	-0.150	-0.398
-622.405	-114.789	-0.047	-0.009
-621.390	-111.139	-0.195	0.040
-620.376	800.000	0.059	-0.209
-619.361	60.956	0.112	0.112
-618.346	-109.525	-0.202	0.043
-617.332	-200.000	-0.051	0.266
-616.317	800.000	0.031	0.104
-615.303	-94.473	-0.187	-0.051
-614.288	22.358	-0.169	-0.139
-613.273	800.000	0.141	-0.419
-612.259	-69.462	0.417	0.160
-611.244	-200.000	0.030	-0.254
-610.230	-34.004	-0.248	-0.137
-609.215	128.107	-0.141	-0.181
-608.201	167.938	0.094	-0.135
-607.186	-200.000	-0.011	-0.207
-606.171	533.837	0.010	0.023
-605.157	48.391	0.214	0.201
-604.142	-46.472	-0.340	0.168
-603.128	-76.377	-0.120	0.042
-602.113	-17.796	-0.055	0.035
-601.098	-19.855	0.164	0.102
-600.084	-81.892	-0.202	0.067
-599.069	800.000	0.090	0.346
-598.055	26.512	0.147	-0.124
-597.040	-95.485	-0.303	0.082
-596.025	600.864	0.080	0.199
-595.011	97.854	0.199	0.229
-593.996	-200.000	-0.041	-0.217
-592.982	-147.461	-0.115	-0.010
-591.967	-25.794	-0.180	-0.106
-590.952	800.000	0.025	-0.071
-589.938	70.396	-0.202	-0.210
-588.923	681.715	0.061	0.158
-587.909	-67.076	0.327	-0.129
-586.894	-151.489	-0.254	-0.019
-585.879	-200.000	-0.049	0.217
-584.865	-139.526	0.239	-0.026
-583.850	379.194	0.113	0.233
-582.836	-11.747	0.173	-0.114
-581.821	288.991	-0.043	-0.078
-580.806	264.352	-0.047	-0.082
-579.792	511.480	-0.082	-0.191
-578.777	-14.980	-0.177	-0.114
-577.763	-61.614	0.189	0.080
-576.748	-200.000	0.035	-0.176
-575.733	-87.729	-0.157	0.047
-574.719	-200.000	-0.022	0.387
-573.704	237.811	0.115	-0.191
-572.690	-173.973	0.209	-0.006
-571.675	282.263	0.050	-0.090
-570.661	199.048	0.062	-0.096
-569.646	50.469	0.092	-0.087
-568.631	-91.567	-0.079	0.022
-567.617	-74.804	0.050	0.018
-566.602	-70.566	-0.327	-0.124
-565.588	-155.260	0.173	0.011
-564.573	-45.183	0.403	-0.201
-563.558	47.640	0.133	-0.124
-562.544	-139.180	0.187	0.020
-561.529	800.000	0.075	-0.265
-560.515	510.617	0.148	-0.344
-559.500	-200.000	-0.002	0.188
-558.485	800.000	0.044	-0.136
-557.471	164.624	-0.082	-0.116
-556.456	138.349	0.193	-0.253
-555.442	-79.062	-0.084	0.029
-554.427	-200.000	0.011	0.323
-553.412	-200.000	-0.022	0.265
-552.398	-22.049	0.160	-0.097
-551.383	-93.339	0.168	0.047
-550.369	-200.000	0.020	-0.114
-549.354	-155.860	-0.251	-0.016
-548.339	-136.570	0.256	0.030
-547.325	-149.001	0.344	0.028
-546.310	800.000	0.087	0.289
-545.296	80.517	-0.360	-0.388
-544.281	-200.000	0.053	0.277
-543.266	800.000	0.069	-0.232
-542.252	-200.000	-0.018	-0.240
-541.237	8.404	0.361	0.272
-540.223	119.415	0.132	-0.163
-539.208	-4.177	-0.085	0.059
-538.193	-154.853	0.107	0.007
-537.179	-115.371	-0.245	-0.046
-536.164	292.437	-0.138	-0.252
-535.150	-168.518	-0.319	0.012
-534.135	-135.169	-0.314	-0.038
-533.121	-114.541	-0.322	-0.062
-532.106	-57.360	0.194	-0.085
-531.091	-73.760	-0.167	0.061
-530.077	-169.646	0.255	0.009
-529.062	380.774	-0.059	-0.121
-528.048	462.889	0.074	-0.166
-527.033	-63.838	-0.248	0.102
-526.018	-80.375	0.335	-0.112
-525.004	310.995	0.172	0.323
-523.989	-72.695	-0.274	0.101
-522.975	-200.000	-0.047	-0.229
-521.960	-200.000	0.053	-0.239
-520.945	-200.000	-0.081	0.398
-519.931	-200.000	0.028	0.180
-518.916	319.290	0.125	0.238
-517.902	587.514	-0.034	0.084
-516.887	-135.943	0.429	0.050
-515.872	-200.000	0.004	0.142
-514.858	15.779	-0.107	-0.084
-513.843	-200.000	-0.033	0.185
-512.829	-200.000	-0.018	0.253
-511.814	704.465	0.039	-0.104
-510.799	-123.686	0.464	-0.074
-509.785	-91.798	0.133	-0.038
-508.770	-162.795	-0.282	-0.014
-507.756	800.000	0.062	-0.205
-506.741	-200.000	-0.006	0.238
-505.726	338.320	0.109	-0.212
-504.712	800.000	0.021	-0.091
-503.697	-139.163	0.069	-0.007
-502.683	-56.918	-0.165	0.073
-501.668	302.023	-0.102	-0.189
-500.653	-200.000	-0.008	-0.216
-499.639	-18.462	0.359	0.224
-498.624	800.000	-0.011	0.042
-497.610	-200.000	-0.079	-0.000
-496.595	78.399	-0.194	-0.207
-495.581	-20.654	-0.255	-0.157
-494.566	-200.000	0.037	0.205
-493.551	6.297	-0.244	-0.181
-492.537	-200.000	-0.005	0.197
-491.522	-84.913	0.180	-0.057
-490.508	4.520	0.069	0.050
-489.493	-111.542	-0.078	-0.016
-488.478	170.621	0.183	-0.262
-487.464	-70.651	0.212	0.080
-486.449	-72.645	-0.136	-0.050
-485.435	800.000	0.061	0.183
-484.420	98.298	0.099	-0.114
-483.405	157.668	-0.129	0.178
-482.391	-135.578	-0.436	-0.052
-481.376	636.783	0.117	-0.297
-480.362	51.855	-0.180	-0.171
-479.347	800.000	-0.042	0.117
-478.332	-40.774	0.085	-0.044
-477.318	71.443	0.338	-0.351
-476.303	-135.416	0.111	-0.013
-475.289	19.927	0.058	-0.047
-474.274	775.614	-0.137	0.375
-473.259	800.000	-0.045	0.159
-472.245	-75.616	-0.152	-0.054
-471.230	800.000	0.032	-0.112
-470.216	-160.824	0.059	-0.003
-469.201	-200.000	-0.005	0.448
-468.186	-200.000	-0.051	0.552
-467.172	216.477	0.092	-0.146
-466.157	-27.964	-0.234	0.136
-465.143	-200.000	-0.041	0.239
-464.128	165.310	0.028	0.039
-463.113	35.599	-0.138	-0.121
-462.099	800.000	0.038	-0.155
-461.084	80.279	0.398	0.427
-460.070	-48.490	0.214	-0.103
-459.055	-200.000	0.038	-0.397
-458.040	333.311	0.101	-0.196
-457.026	-145.429	0.391	-0.035
-456.011	11.148	0.289	-0.221
-454.997	-200.000	0.015	-0.203
-453.982	-75.964	-0.111	0.039
-452.968	800.000	-0.023	-0.079
-451.953	800.000	0.095	-0.413
-450.938	-70.831	0.382	0.144
-449.924	-152.577	0.235	0.017
-448.909	27.063	-0.301	0.252
-447.895	800.000	0.033	0.127
-446.880	-107.592	0.311	-0.068
-445.865	-9.054	0.442	0.295
-444.851	373.634	-0.060	-0.123
-443.836	746.880	-0.161	-0.433
-442.822	140.355	0.092	0.121
-441.807	800.000	0.011	0.034
-440.792	-200.000	-0.057	-0.354
-439.778	299.967	0.083	0.153
-438.763	202.818	-0.138	0.213
-437.749	-30.259	0.273	-0.154
-436.734	-200.000	-0.057	-0.322
-435.719	-200.000	0.007	0.126
-434.705	-193.784	-0.167	0.001
-433.690	54.273	-0.067	0.064
-432.676	-200.000	0.030	0.241
-431.661	-200.000	-0.019	0.097
-430.646	-160.617	0.130	0.007
-429.632	-13.671	0.110	-0.071
-428.617	-154.246	-0.144	0.010
-427.603	-59.912	0.272	-0.116
-426.588	-200.000	-0.015	0.151
-425.573	32.161	-0.161	0.139
-424.559	-29.549	-0.101	-0.058
-423.544	36.956	0.211	0.186
-422.530	-162.739	-0.099	-0.005
-421.515	-178.347	0.224	0.005
-420.500	278.992	0.116	0.206
-419.486	724.804	-0.035	0.092
-418.471	57.668	-0.185	0.180
-417.457	-200.000	-0.001	0.045
-416.442	469.793	-0.054	0.121
-415.428	187.025	0.118	0.176
-414.413	-172.378	0.222	-0.007
-413.398	17.397	0.078	0.062
-412.384	-90.310	-0.398	0.115
-411.369	-66.895	0.308	-0.121
-410.355	-129.752	-0.099	-0.014
-409.340	420.041	-0.014	0.030
-408.325	800.000	0.042	-0.150
-407.311	4.696	-0.180	0.132
-406.296	18.324	0.080	0.064
-405.282	17.387	-0.252	0.200
-404.267	-200.000	-0.018	-0.338
-403.252	-200.000	0.032	0.255
-402.238	265.895	-0.032	-0.056
-401.223	-200.000	-0.020	0.149
-400.209	4.055	-0.162	-0.118
-399.194	-200.000	-0.053	0.319
-398.179	317.154	0.217	-0.409
-397.165	-86.584	0.112	0.034
-396.150	-200.000	0.009	0.524
-395.136	-137.946	-0.145	-0.016
-394.121	256.305	-0.240	0.411
-393.106	-200.000	0.009	-0.325
-392.092	71.129	-0.176	-0.182
-391.077	23.070	-0.324	-0.265
-390.063	625.954	0.095	0.238
-389.048	-200.000	-0.020	-0.124
-388.033	-200.000	-0.010	0.235
-387.019	437.569	0.104	-0.226
-386.004	115.346	-0.114	-0.138
-384.990	145.575	-0.174	-0.232
-383.975	153.453	-0.369	-0.502
-382.960	-200.000	-0.039	-0.251
-381.946	-200.000	-0.002	0.322
-380.931	268.127	-0.122	0.212
-379.917	110.729	-0.224	0.269
-378.902	1.311	-0.099	-0.071
-377.888	511.646	-0.136	0.316
-376.873	161.451	0.180	0.250
-375.858	-2.439	-0.174	0.122
-374.844	348.141	0.127	-0.249
-373.829	-200.000	0.030	-0.146
-372.815	-60.142	-0.265	0.112
-371.800	251.880	0.045	-0.077
-370.785	-157.543	-0.172	0.010
-369.771	277.945	0.118	0.210
-368.756	-200.000	0.005	-0.250
-367.742	170.737	-0.126	-0.180
-366.727	-33.521	-0.217	0.119
-365.712	-200.000	-0.038	0.193
-364.698	-48.625	0.042	0.020
-363.683	-200.000	-0.301	0.000
-362.669	-29.189	-0.156	-0.089
-361.654	-200.000	0.019	0.237
-360.639	-88.353	-0.119	-0.035
-359.625	-125.731	0.061	-0.009
-358.610	-200.000	-0.030	0.222
-357.596	-200.000	0.052	-0.233
-356.581	-17.618	0.353	-0.221
-355.566	267.981	-0.057	-0.099
-354.552	103.225	-0.009	-0.010
-353.537	800.000	0.029	0.101
-352.523	81.304	0.216	-0.232
-351.508	-40.660	0.140	-0.072
-350.493	393.288	-0.085	-0.176
-349.479	800.000	-0.066	0.185
-348.464	-86.292	0.192	-0.059
-347.450	-65.325	-0.193	0.077
-346.435	-200.000	-0.037	0.183
-345.420	-83.752	0.360	0.114
-344.406	-125.527	0.101	-0.015
-343.391	-176.406	-0.101	-0.003
-342.377	275.390	0.054	-0.094
-341.362	592.589	0.084	0.207
-340.348	62.830	0.257	-0.255
-339.333	-24.204	0.141	0.084
-338.318	-200.000	0.015	0.181
-337.304	151.928	-0.152	0.205
-336.289	81.810	-0.148	-0.159
-335.275	800.000	-0.134	0.537
-334.260	800.000	-0.074	0.308
-333.245	-200.000	0.000	-0.230
-332.231	599.336	0.100	-0.246
-331.216	-86.249	0.290	0.089
-330.202	180.298	0.108	-0.158
-329.187	30.505	0.012	-0.010
-328.172	-200.000	0.039	0.214
-327.158	-200.000	-0.004	-0.051
-326.143	-140.080	0.111	0.012
-325.129	-44.699	-0.215	-0.107
-324.114	-200.000	-0.022	0.417
-323.099	-69.446	-0.197	-0.075
-322.085	800.000	-0.068	-0.223
-321.070	-127.835	0.152	0.022
-320.056	32.791	0.195	0.167
-319.041	-56.730	-0.077	-0.034
-318.026	800.000	0.069	0.244
-317.012	800.000	-0.024	-0.103
-315.997	-43.141	-0.276	0.139
-314.983	98.277	0.073	0.083
-313.968	-57.520	0.144	-0.063
-312.953	-66.169	-0.073	-0.029
-311.939	-200.000	-0.033	-0.285
-310.924	-200.000	-0.020	0.206
-309.910	-16.568	-0.218	0.137
-308.895	800.000	-0.111	-0.372
-307.880	-200.000	0.006	0.184
-306.866	-47.610	0.492	-0.237
-305.851	662.579	0.048	-0.122
-304.837	800.000	-0.069	-0.233
-303.822	-200.000	-0.005	0.109
-302.807	-44.632	-0.262	0.130
-301.793	377.308	0.039	-0.079
-300.778	59.695	0.031	0.030
-299.764	-200.000	-0.055	0.325
-298.749	225.194	-0.075	0.120
-297.735	215.995	0.098	-0.154
-296.720	127.143	-0.134	0.169
-295.705	472.939	0.232	-0.519
-294.691	353.255	0.175	-0.344
-293.676	-146.222	0.234	0.020
-292.662	-200.000	0.016	-0.129
-291.647	104.660	0.229	0.268
-290.632	-53.036	-0.242	-0.110
-289.618	168.207	-0.169	0.239
-288.603	104.893	0.178	-0.209
-287.589	-21.920	-0.027	-0.016
-286.574	-84.820	-0.244	-0.076
-285.559	90.300	0.130	-0.145
-284.545	237.964	0.089	0.146
-283.530	123.454	0.002	0.003
-282.516	103.384	0.156	-0.182
-281.501	-200.000	0.008	-0.125
-280.486	-171.611	0.075	-0.002
-279.472	-140.029	0.184	-0.019
-278.457	-50.536	0.194	-0.091
-277.443	-58.791	-0.328	-0.141
-276.428	-200.000	0.002	-0.100
-275.413	-78.961	0.145	0.049
-274.399	49.036	-0.126	0.117
-273.384	16.681	-0.104	-0.081
-272.370	800.000	0.010	0.034
-271.355	-37.586	0.215	-0.113
-270.340	473.208	-0.048	-0.107
-269.326	-200.000	0.015	-0.072
-268.311	24.702	-0.142	0.117
-267.297	-85.689	0.461	0.142
-266.282	-102.815	0.352	0.083
-265.267	800.000	-0.073	-0.279
-264.253	-200.000	-0.073	-0.348
-263.238	-108.061	0.077	-0.016
-262.224	-86.585	0.298	-0.090
-261.209	-58.632	-0.097	-0.042
-260.195	800.000	-0.111	-0.361
-259.180	537.982	0.175	-0.412
-258.165	169.769	0.030	-0.042
-257.151	-56.733	0.398	0.175
-256.136	-200.000	-0.009	0.292
-255.122	-200.000	-0.003	0.109
-254.107	-35.818	-0.241	-0.129
-253.092	465.769	-0.172	-0.381
-252.078	-124.887	0.246	0.038
-251.063	-93.153	-0.572	-0.158
-250.049	157.843	0.228	0.312
-249.034	-82.881	-0.318	-0.102
-248.019	-200.000	0.002	0.063
-247.005	269.843	-0.132	-0.230
-245.990	-200.000	0.038	-0.387
-244.976	217.475	-0.156	-0.245
-243.961	45.027	-0.224	-0.204
-242.946	-134.865	0.350	-0.042
-241.932	-200.000	-0.031	0.249
-240.917	-200.000	-0.037	0.264
-239.903	-200.000	-0.061	0.341
-238.888	-138.232	-0.197	0.022
-237.873	-58.609	-0.200	-0.086
-236.859	6.008	-0.132	0.097
-235.844	-99.967	-0.053	0.013
-234.830	-200.000	0.008	0.210
-233.815	159.127	-0.137	0.189
-232.800	-200.000	0.002	0.324
-231.786	-200.000	0.034	0.236
-230.771	-76.098	-0.212	0.074
-229.757	121.187	-0.026	-0.032
-228.742	-200.000	-0.005	-0.172
-227.727	96.400	-0.177	-0.200
-226.713	596.550	0.029	-0.070
-225.698	44.786	-0.231	-0.210
-224.684	20.158	-0.239	0.190
-223.669	35.988	0.092	-0.080
-222.655	-71.090	0.228	-0.085
-221.640	-115.895	-0.296	-0.055
-220.625	11.671	-0.239	0.181
-219.611	-135.777	0.201	0.024
-218.596	-20.586	0.106	-0.064
-217.582	158.650	-0.207	0.284
-216.567	30.816	-0.317	0.269
-215.552	-26.382	0.148	-0.086
-214.538	110.482	0.251	-0.298
-213.523	800.000	0.015	0.059
-212.509	-53.072	0.061	0.028
-211.494	-104.171	-0.443	-0.102
-210.479	-153.237	0.137	-0.009
-209.465	-22.559	-0.192	-0.115
-208.450	-79.082	-0.256	0.086
-207.436	96.241	-0.169	0.191
-206.421	-101.987	0.224	0.053
-205.406	79.630	0.315	-0.334
-204.392	-107.279	0.167	0.036
-203.377	-117.943	-0.095	-0.017
-202.363	-200.000	0.034	-0.386
-201.348	281.404	-0.110	-0.195
-200.333	369.858	-0.069	0.138
-199.319	-138.331	0.240	0.026
-198.304	150.863	0.030	0.041
-197.290	-9.052	0.182	0.120
-196.275	-200.000	0.100	0.499
-195.260	-126.413	-0.110	-0.016
-194.246	-166.277	0.138	-0.006
-193.231	-115.369	-0.144	-0.027
-192.217	-157.168	-0.336	-0.020
-191.202	-200.000	-0.006	-0.264
-190.187	-8.869	0.098	-0.065
-189.173	82.158	0.116	0.124
-188.158	598.374	-0.067	0.164
-187.144	66.227	-0.066	0.066
-186.129	800.000	-0.019	0.078
-185.114	-120.342	0.454	-0.076
-184.100	-2.667	0.561	0.388
-183.085	-58.629	0.116	-0.050
-182.071	154.528	-0.030	0.040
-181.056	248.171	0.029	0.048
-180.042	37.781	-0.177	0.155
-179.027	-200.000	0.007	-0.110
-178.012	-81.150	-0.190	-0.062
-176.998	-173.039	0.105	0.003
-175.983	-155.423	-0.265	0.017
-174.969	-200.000	0.043	0.221
-173.954	513.233	0.055	0.126
-172.939	337.904	0.120	0.230
-171.925	112.472	0.011	0.013
-170.910	613.054	-0.119	-0.295
-169.896	-8.734	-0.143	-0.095
-168.881	21.997	0.281	0.226
-167.866	-200.000	-0.021	0.091
-166.852	-64.191	-0.089	0.036
-165.837	-200.000	-0.083	0.471
-164.823	-91.223	-0.353	-0.100
-163.808	800.000	-0.034	-0.115
-162.793	-200.000	-0.012	-0.237
-161.779	-200.000	-0.001	-0.076
-160.764	420.789	0.099	-0.210
-159.750	-38.691	0.084	0.044
-158.735	366.705	0.116	-0.231
-157.720	-22.295	-0.239	0.143
-156.706	42.822	-0.227	0.204
-155.691	-117.227	0.235	-0.042
-154.677	246.506	-0.086	0.142
-153.662	-81.427	-0.372	-0.121
-152.647	-34.822	-0.257	0.139
-151.633	231.577	0.161	-0.261
-150.618	-200.000	-0.055	0.295
-149.604	-37.573	0.263	0.138
-148.589	22.342	-0.098	-0.079
-147.574	-54.768	0.182	0.081
-146.560	-200.000	-0.014	-0.111
-145.545	-54.469	0.350	-0.157
-144.531	-38.173	-0.097	-0.051
-143.516	548.495	-0.109	-0.257
-142.502	-107.826	0.242	-0.052
-141.487	45.730	-0.086	0.078
-140.472	-103.040	0.113	-0.026
-139.458	-62.735	0.180	0.073
-138.443	800.000	0.094	-0.295
-137.429	259.824	0.151	-0.256
-136.414	-184.367	0.244	-0.004
-135.399	396.399	0.132	-0.273
-134.385	-123.890	-0.128	0.020
-133.370	81.357	0.145	-0.155
-132.356	163.396	-0.037	-0.051
-131.341	194.033	0.179	-0.267
-130.326	800.000	0.012	-0.053
-129.312	800.000	0.026	0.086
-128.297	-6.645	0.137	-0.092
-127.283	-19.561	-0.085	0.052
-126.268	-2.345	0.485	0.335
-125.253	-55.157	-0.146	0.065
-124.239	-72.729	0.166	0.060
-123.224	686.050	-0.106	-0.274
