DTS Sentinel unit serial number:	SN413079Multiplexer serial number:	ORYXHardware model number:	OX4-SRSoftware version number:	ORYX F/W v4.00 Oryx Data Collector v3.7.2.0data status	okinstallation	princeton_trtdifferential loss correction	single-endedforward channel	channel 1reverse channel	N/Adate	2019/09/15time	15:54:35forward acquisition time	60.00reverse acquisition time	0.00gamma	496.2192k internal	0.2291k external	0.2291temperature offset calibration	0.9940default loss term (dB/km)	0.3790temperature slope calibration	1.0000multiplexer offset coefficient	1.0000multiplexer slope coefficient	1.0000fibre end	0.00T internal ref (°C)	42.41T ext. ref 1 (°C)	5.28T ext. ref 2 (°C)	40.15length (m)	temperature (°C)	Stokes	anti-Stokes-747.200	104.547	0.028	-0.034
-746.185	78.923	-0.155	-0.170
-745.171	-200.000	0.052	0.286
-744.156	126.829	-0.324	0.420
-743.142	-164.781	0.346	0.016
-742.127	57.086	-0.213	-0.212
-741.112	311.508	-0.045	0.086
-740.098	325.474	0.130	0.255
-739.083	115.052	-0.118	0.148
-738.069	-77.950	0.101	-0.036
-737.054	-200.000	0.012	-0.090
-736.039	-200.000	-0.034	-0.225
-735.025	-200.000	-0.002	0.015
-734.010	-200.000	0.001	0.024
-732.996	-200.000	0.046	-0.230
-731.981	-148.561	-0.139	0.012
-730.966	-3.627	-0.241	0.171
-729.952	-125.797	-0.383	0.059
-728.937	371.898	-0.151	0.313
-727.923	46.920	0.292	0.278
-726.908	-200.000	-0.034	-0.160
-725.894	-149.176	0.152	-0.012
-724.879	158.484	-0.199	-0.282
-723.864	-61.722	0.157	0.067
-722.850	217.771	-0.038	-0.062
-721.835	-11.400	-0.276	-0.186
-720.821	-152.918	-0.327	0.024
-719.806	-89.023	-0.157	-0.047
-718.791	271.985	-0.110	-0.199
-717.777	-148.622	-0.442	0.037
-716.762	7.487	-0.202	0.155
-715.748	104.318	0.260	-0.313
-714.733	-200.000	-0.040	-0.255
-713.718	-200.000	-0.016	0.448
-712.704	800.000	0.043	-0.162
-711.689	-156.903	-0.170	-0.011
-710.675	800.000	0.024	0.108
-709.660	21.204	-0.061	-0.051
-708.645	-65.321	-0.102	0.042
-707.631	800.000	0.044	-0.190
-706.616	-117.042	0.186	0.035
-705.602	74.420	-0.038	0.041
-704.587	-122.607	-0.242	-0.040
-703.572	258.525	-0.068	0.120
-702.558	135.195	0.147	0.195
-701.543	-50.977	-0.279	0.134
-700.529	523.501	-0.143	0.343
-699.514	209.547	-0.036	0.058
-698.499	-100.274	-0.197	0.050
-697.485	-200.000	0.024	0.181
-696.470	-200.000	0.015	0.072
-695.456	-200.000	0.005	0.199
-694.441	-200.000	-0.026	0.316
-693.426	138.652	-0.139	-0.186
-692.412	-200.000	0.016	-0.178
-691.397	-79.867	0.270	-0.093
-690.383	-123.329	-0.061	0.010
-689.368	31.555	-0.121	-0.106
-688.354	-200.000	-0.042	0.279
-687.339	-26.705	-0.372	0.222
-686.324	-77.595	0.249	0.088
-685.310	-58.541	0.097	0.043
-684.295	128.648	-0.195	0.253
-683.281	800.000	-0.029	0.111
-682.266	-50.694	0.080	-0.039
-681.251	-2.296	-0.291	0.208
-680.237	762.813	0.040	-0.111
-679.222	329.765	-0.052	-0.102
-678.208	723.780	0.021	-0.058
-677.193	-61.598	0.250	-0.107
-676.178	26.311	-0.039	-0.033
-675.164	-50.039	-0.272	-0.131
-674.149	-34.335	-0.246	0.138
-673.135	495.770	0.197	-0.462
-672.120	104.846	0.106	-0.128
-671.105	800.000	0.120	-0.362
-670.091	37.446	-0.102	-0.092
-669.076	-200.000	0.034	-0.153
-668.062	-200.000	0.007	-0.345
-667.047	-200.000	-0.026	-0.200
-666.032	-91.470	0.123	0.036
-665.018	800.000	-0.055	-0.155
-664.003	-14.491	-0.095	-0.062
-662.989	-200.000	-0.003	-0.294
-661.974	238.150	0.091	-0.155
-660.959	348.059	0.046	-0.092
-659.945	-26.700	-0.176	-0.105
-658.930	800.000	-0.058	0.235
-657.916	199.832	0.069	0.109
-656.901	28.849	-0.243	-0.210
-655.886	-7.890	-0.158	-0.109
-654.872	476.742	0.040	0.092
-653.857	8.645	-0.086	0.066
-652.843	-42.609	0.048	0.025
-651.828	-28.291	0.128	0.076
-650.814	-136.689	-0.194	-0.023
-649.799	687.253	-0.071	0.189
-648.784	-77.935	0.299	-0.105
-647.770	-31.490	0.209	-0.120
-646.755	133.420	0.223	0.295
-645.741	-200.000	-0.019	-0.254
-644.726	800.000	0.046	0.155
-643.711	-200.000	-0.013	0.172
-642.697	221.427	-0.056	-0.092
-641.682	-200.000	0.036	-0.315
-640.668	105.809	-0.212	0.255
-639.653	-116.478	-0.421	-0.079
-638.638	707.680	0.079	-0.213
-637.624	-200.000	-0.056	-0.252
-636.609	12.313	-0.099	0.078
-635.595	-200.000	-0.048	0.294
-634.580	19.417	-0.110	0.090
-633.565	7.520	0.152	-0.116
-632.551	519.206	-0.085	-0.203
-631.536	-126.900	0.266	0.040
-630.522	96.095	0.115	0.134
-629.507	-0.063	-0.032	-0.023
-628.492	44.327	-0.032	0.030
-627.478	-91.017	-0.414	-0.121
-626.463	205.111	-0.110	0.175
-625.449	156.209	0.075	-0.105
-624.434	-62.891	-0.235	-0.099
-623.419	64.213	-0.093	-0.096
-622.405	116.736	-0.204	0.256
-621.390	800.000	0.045	0.135
-620.376	45.902	0.235	0.221
-619.361	-135.659	0.181	-0.022
-618.346	-0.348	-0.084	0.061
-617.332	-43.865	-0.279	-0.143
-616.317	800.000	-0.071	0.267
-615.303	-135.174	0.288	-0.035
-614.288	768.170	-0.002	0.007
-613.273	30.640	-0.282	-0.246
-612.259	-51.312	-0.215	-0.102
-611.244	-136.375	-0.471	-0.056
-610.230	576.788	0.109	0.270
-609.215	497.198	-0.103	-0.242
-608.201	80.766	-0.175	-0.192
-607.186	-141.802	-0.124	-0.013
-606.171	-14.704	-0.044	0.029
-605.157	-105.964	-0.093	0.021
-604.142	-200.000	0.020	0.304
-603.128	91.281	-0.145	0.166
-602.113	-54.676	-0.424	-0.195
-601.098	95.020	0.097	-0.112
-600.084	174.116	-0.189	-0.278
-599.069	-200.000	-0.046	-0.296
-598.055	-187.326	0.305	0.004
-597.040	98.717	-0.180	-0.212
-596.025	-29.406	-0.244	0.142
-595.011	-92.858	0.407	-0.116
-593.996	-29.288	-0.330	-0.193
-592.982	8.918	0.155	-0.119
-591.967	800.000	0.061	-0.175
-590.952	-168.158	-0.103	0.004
-589.938	74.111	0.060	-0.064
-588.923	-147.786	-0.179	-0.015
-587.909	376.669	0.053	-0.109
-586.894	-174.423	-0.261	0.008
-585.879	575.199	-0.092	-0.229
-584.865	-200.000	-0.016	0.179
-583.850	-82.781	-0.205	0.068
-582.836	9.215	-0.120	0.092
-581.821	-200.000	-0.022	-0.231
-580.806	-19.943	-0.290	-0.182
-579.792	-101.638	-0.210	-0.052
-578.777	92.213	-0.203	0.233
-577.763	800.000	0.036	-0.139
-576.748	800.000	-0.032	-0.139
-575.733	467.993	-0.031	-0.072
-574.719	769.797	-0.123	0.342
-573.704	-18.240	-0.104	-0.066
-572.690	800.000	0.063	0.207
-571.675	-36.956	-0.165	0.090
-570.661	454.991	-0.041	0.093
-569.646	800.000	-0.062	-0.195
-568.631	-174.784	0.241	-0.007
-567.617	-8.057	-0.055	0.038
-566.602	-154.908	0.181	-0.012
-565.588	48.711	0.164	-0.156
-564.573	-135.044	-0.498	-0.061
-563.558	82.712	0.109	-0.120
-562.544	-43.252	-0.299	-0.154
-561.529	92.260	0.075	0.086
-560.515	331.185	0.077	0.151
-559.500	27.852	0.247	-0.211
-558.485	63.994	0.053	-0.054
-557.471	800.000	0.040	-0.155
-556.456	-137.953	0.101	0.011
-555.442	80.120	0.152	-0.167
-554.427	-200.000	-0.002	-0.140
-553.412	-200.000	0.022	-0.230
-552.398	800.000	0.022	-0.085
-551.383	-21.415	-0.247	-0.153
-550.369	-39.201	0.243	0.130
-549.354	-49.085	-0.180	0.087
-548.339	121.810	-0.049	0.062
-547.325	387.204	-0.088	0.185
-546.310	721.008	0.014	-0.038
-545.296	27.343	0.295	0.252
-544.281	44.898	-0.116	-0.109
-543.266	31.838	0.319	-0.279
-542.252	-18.870	-0.100	0.063
-541.237	-115.205	-0.192	0.037
-540.223	108.064	0.030	0.036
-539.208	-169.518	-0.027	-0.001
-538.193	149.271	0.115	0.158
-537.179	800.000	-0.060	0.207
-536.164	800.000	0.070	-0.216
-535.150	-71.780	0.249	0.094
-534.135	303.514	-0.077	0.145
-533.121	-94.472	0.206	-0.057
-532.106	-62.392	-0.215	-0.091
-531.091	-143.522	0.369	-0.036
-530.077	188.964	0.186	-0.283
-529.062	81.082	-0.089	-0.098
-528.048	21.024	-0.222	0.183
-527.033	-159.694	0.289	0.016
-526.018	-76.096	0.272	0.097
-525.004	-48.620	0.035	-0.017
-523.989	79.646	-0.186	-0.202
-522.975	-200.000	-0.011	0.277
-521.960	67.912	0.252	-0.262
-520.945	-200.000	-0.032	-0.330
-519.931	800.000	0.067	-0.199
-518.916	-41.771	0.279	-0.145
-517.902	-96.094	-0.246	-0.066
-516.887	5.677	0.164	-0.123
-515.872	-200.000	0.025	-0.114
-514.858	167.333	-0.126	-0.182
-513.843	-36.486	-0.037	-0.020
-512.829	313.471	0.095	0.181
-511.814	-54.235	-0.207	-0.095
-510.799	-200.000	-0.063	-0.327
-509.785	155.852	-0.218	-0.305
-508.770	-5.280	-0.300	0.209
-507.756	-45.284	-0.178	-0.089
-506.741	-46.750	-0.056	-0.028
-505.726	-61.008	0.218	-0.093
-504.712	193.494	0.071	-0.109
-503.697	-41.660	-0.171	0.089
-502.683	76.035	0.184	-0.197
-501.668	-200.000	-0.096	-0.609
-500.653	-115.248	0.035	-0.007
-499.639	-161.743	-0.220	-0.011
-498.624	-200.000	0.000	-0.005
-497.610	34.495	-0.284	0.251
-496.595	-131.090	0.329	0.044
-495.581	-174.859	0.210	0.006
-494.566	155.844	-0.201	0.281
-493.551	41.006	-0.149	0.137
-492.537	800.000	-0.066	0.267
-491.522	-200.000	0.000	-0.191
-490.508	-27.103	0.252	-0.149
-489.493	-99.628	-0.331	-0.084
-488.478	189.466	0.040	0.060
-487.464	-200.000	-0.220	-0.000
-486.449	181.742	0.051	0.077
-485.435	800.000	0.032	-0.133
-484.420	-123.820	0.304	-0.049
-483.405	19.046	-0.100	0.081
-482.391	-100.725	-0.236	-0.059
-481.376	172.185	-0.064	-0.093
-480.362	26.054	0.370	-0.313
-479.347	-70.777	-0.114	0.044
-478.332	293.176	0.222	0.411
-477.318	-76.334	0.358	-0.128
-476.303	800.000	0.075	-0.222
-475.289	243.987	-0.044	-0.074
-474.274	-74.227	-0.356	0.130
-473.259	-200.000	-0.027	-0.228
-472.245	52.617	-0.093	-0.090
-471.230	20.249	0.304	0.248
-470.216	-200.000	-0.023	0.121
-469.201	-18.655	0.227	0.144
-468.186	800.000	-0.040	-0.168
-467.172	-43.997	-0.252	-0.128
-466.157	-100.424	-0.156	-0.039
-465.143	800.000	-0.069	-0.249
-464.128	800.000	0.063	-0.236
-463.113	-10.554	-0.126	-0.084
-462.099	416.505	-0.085	-0.183
-461.084	655.020	-0.128	0.333
-460.070	68.660	0.108	0.112
-459.055	254.447	-0.084	-0.145
-458.040	349.121	-0.074	0.149
-457.026	-200.000	-0.036	0.207
-456.011	-200.000	-0.032	-0.363
-454.997	800.000	-0.065	-0.261
-453.982	144.116	0.243	0.328
-452.968	-200.000	0.008	0.205
-451.953	6.750	-0.035	0.027
-450.938	-111.929	0.119	-0.024
-449.924	-80.844	-0.224	0.075
-448.909	800.000	-0.046	0.147
-447.895	67.070	-0.187	-0.193
-446.880	-64.656	-0.188	-0.077
-445.865	-200.000	0.003	0.140
-444.851	-158.784	0.260	0.015
-443.836	-100.283	-0.284	-0.071
-442.822	-200.000	-0.011	-0.224
-441.807	96.644	0.026	0.031
-440.792	-17.419	-0.012	0.008
-439.778	-200.000	0.041	0.218
-438.763	-40.556	0.226	0.118
-437.749	669.945	0.049	-0.129
-436.734	494.577	-0.144	0.335
-435.719	146.662	-0.205	0.279
-434.705	-179.153	0.239	0.005
-433.690	-64.778	0.075	0.031
-432.676	384.132	-0.021	0.044
-431.661	28.674	-0.165	-0.142
-430.646	-200.000	-0.004	-0.133
-429.632	-160.256	0.264	0.014
-428.617	800.000	0.039	0.153
-427.603	-200.000	-0.156	-0.001
-426.588	-200.000	0.006	-0.145
-425.573	73.587	-0.097	-0.103
-424.559	444.443	-0.088	0.195
-423.544	-200.000	0.030	0.208
-422.530	77.867	0.158	0.170
-421.515	672.031	0.079	-0.206
-420.500	800.000	0.049	0.196
-419.486	800.000	-0.118	-0.335
-418.471	30.605	0.108	-0.093
-417.457	-24.630	0.169	0.102
-416.442	432.500	0.094	-0.206
-415.428	-148.412	-0.105	-0.009
-414.413	-178.986	0.081	0.002
-413.398	24.131	-0.076	-0.064
-412.384	37.488	0.304	-0.273
-411.369	54.449	0.109	-0.106
-410.355	110.366	-0.114	-0.138
-409.340	32.191	0.050	-0.044
-408.325	-200.000	-0.023	-0.278
-407.311	-71.919	0.288	-0.108
-406.296	-10.928	0.147	0.098
-405.282	800.000	-0.032	-0.140
-404.267	138.500	-0.158	-0.210
-403.252	-9.040	-0.211	-0.142
-402.238	-38.362	0.169	-0.090
-401.223	-200.000	0.011	0.155
-400.209	-200.000	-0.015	0.136
-399.194	800.000	-0.050	-0.206
-398.179	-50.756	0.174	0.083
-397.165	1.267	0.073	0.053
-396.150	-195.658	0.214	-0.002
-395.136	-95.372	0.367	-0.100
-394.121	-191.911	-0.353	0.003
-393.106	168.773	0.124	-0.179
-392.092	-145.763	0.086	0.008
-391.077	174.266	-0.164	0.240
-390.063	-14.504	-0.070	-0.045
-389.048	147.388	0.207	-0.281
-388.033	-200.000	-0.032	-0.179
-387.019	-74.561	0.400	0.145
-386.004	-200.000	0.004	-0.277
-384.990	576.797	-0.136	-0.336
-383.975	-36.558	-0.083	0.045
-382.960	132.693	-0.126	-0.165
-381.946	-67.104	0.507	-0.202
-380.931	217.528	0.044	0.071
-379.917	129.077	-0.283	-0.364
-378.902	-21.435	-0.363	0.224
-377.888	743.359	0.115	0.311
-376.873	-13.940	-0.138	-0.090
-375.858	800.000	-0.023	0.090
-374.844	-55.351	-0.066	-0.030
-373.829	800.000	0.076	-0.254
-372.815	173.271	0.123	-0.179
-371.800	-57.303	-0.415	0.184
-370.785	800.000	-0.064	0.243
-369.771	108.369	0.126	-0.151
-368.756	-129.622	0.151	-0.021
-367.742	-174.491	-0.152	-0.004
-366.727	-200.000	0.009	-0.250
-365.712	-123.834	0.360	-0.057
-364.698	-155.975	0.222	-0.014
-363.683	50.667	-0.390	-0.373
-362.669	571.156	-0.078	-0.192
-361.654	236.308	0.213	-0.355
-360.639	-183.045	-0.362	-0.006
-359.625	-168.078	-0.341	0.013
-358.610	300.682	-0.169	-0.315
-357.596	61.423	-0.117	-0.117
-356.581	-69.807	0.158	-0.061
-355.566	13.540	0.237	-0.186
-354.552	-39.228	-0.066	-0.035
-353.537	731.933	-0.079	-0.212
-352.523	90.169	0.113	0.128
-351.508	-94.135	-0.078	0.022
-350.493	130.128	0.066	0.086
-349.479	0.373	-0.042	0.030
-348.464	-15.081	-0.107	-0.069
-347.450	-76.494	-0.246	0.087
-346.435	-104.383	-0.071	0.017
-345.420	-134.504	0.256	-0.032
-344.406	148.737	0.114	0.155
-343.391	-33.425	-0.249	-0.139
-342.377	-200.000	-0.034	-0.341
-341.362	-70.077	-0.103	-0.039
-340.348	373.549	0.099	-0.204
-339.333	459.076	0.219	0.490
-338.318	520.352	0.145	0.343
-337.304	-200.000	0.006	-0.122
-336.289	60.893	0.135	-0.135
-335.275	5.469	-0.141	0.105
-334.260	-139.270	0.145	0.016
-333.245	169.647	0.112	-0.161
-332.231	-50.098	-0.253	0.121
-331.216	312.119	-0.214	0.405
-330.202	-123.835	0.242	0.038
-329.187	-89.381	0.204	0.060
-328.172	185.610	0.209	-0.312
-327.158	800.000	-0.017	0.047
-326.143	-117.575	0.255	-0.046
-325.129	7.108	0.265	0.199
-324.114	127.262	-0.064	0.081
-323.099	268.867	-0.050	0.088
-322.085	-78.611	-0.323	0.111
-321.070	-200.000	-0.023	-0.289
-320.056	-47.535	-0.273	-0.133
-319.041	-200.000	-0.033	-0.233
-318.026	-144.209	-0.137	-0.013
-317.012	62.144	-0.037	0.037
-315.997	-85.769	-0.112	-0.035
-314.983	205.468	0.171	0.268
-313.968	-101.501	-0.190	0.047
-312.953	800.000	0.053	0.216
-311.939	-23.554	-0.295	0.178
-310.924	-55.702	0.170	0.076
-309.910	-7.136	0.134	-0.091
-308.895	49.868	-0.037	-0.035
-307.880	-200.000	0.020	-0.139
-306.866	-87.125	-0.228	0.070
-305.851	-65.748	-0.206	0.083
-304.837	44.986	-0.158	0.147
-303.822	-200.000	0.040	0.208
-302.807	800.000	0.055	0.182
-301.793	-102.449	0.296	-0.071
-300.778	-98.341	0.107	0.028
-299.764	138.945	-0.088	0.116
-298.749	800.000	0.005	-0.015
-297.735	800.000	0.040	-0.121
-296.720	656.409	-0.059	-0.152
-295.705	79.662	-0.121	0.131
-294.691	-135.497	0.225	-0.027
-293.676	-67.248	0.106	-0.042
-292.662	-200.000	0.001	0.250
-291.647	-200.000	-0.118	-0.000
-290.632	178.770	0.025	0.037
-289.618	-63.393	0.145	-0.060
-288.603	800.000	-0.092	-0.320
-287.589	-7.927	0.054	-0.037
-286.574	-142.812	0.421	-0.041
-285.559	471.678	-0.179	0.404
-284.545	800.000	0.016	0.049
-283.530	-200.000	0.012	0.178
-282.516	-200.000	0.033	-0.181
-281.501	32.597	0.005	-0.004
-280.486	-200.000	-0.040	0.256
-279.472	42.748	0.103	-0.094
-278.457	641.889	0.079	0.202
-277.443	-55.822	-0.135	-0.061
-276.428	583.737	-0.125	0.309
-275.413	-200.000	-0.014	0.133
-274.399	-200.000	0.062	0.443
-273.384	-126.533	-0.200	-0.030
-272.370	114.405	0.199	0.244
-271.355	35.777	-0.219	0.194
-270.340	-191.475	0.094	0.001
-269.326	-52.403	-0.618	0.288
-268.311	-114.129	-0.224	-0.044
-267.297	-133.652	-0.147	-0.019
-266.282	-4.107	-0.147	-0.102
-265.267	-200.000	0.003	-0.069
-264.253	252.524	0.041	-0.070
-263.238	37.000	-0.206	-0.183
-262.224	-6.702	-0.104	-0.071
-261.209	-29.580	-0.172	0.099
-260.195	-113.757	0.159	-0.031
-259.180	2.556	-0.154	0.112
-258.165	-132.138	0.300	-0.039
-257.151	100.665	-0.135	0.158
-256.136	9.006	0.073	-0.055
-255.122	-77.947	0.200	0.069
-254.107	308.643	-0.062	-0.117
-253.092	-25.969	0.053	0.031
-252.078	32.137	-0.165	0.143
-251.063	9.436	0.270	0.205
-250.049	800.000	0.121	-0.377
-249.034	-128.988	0.269	-0.038
-248.019	-68.900	-0.138	0.053
-247.005	15.728	0.175	0.138
-245.990	49.517	-0.176	0.166
-244.976	-139.185	0.354	-0.038
-243.961	-170.241	0.446	0.016
-242.946	-106.584	-0.122	0.027
-241.932	431.252	0.047	-0.102
-240.917	-71.783	-0.032	-0.012
-239.903	192.142	-0.171	0.260
-238.888	-200.000	0.003	0.150
-237.873	-71.455	0.040	-0.015
-236.859	431.477	0.070	0.152
-235.844	88.444	-0.266	0.296
-234.830	24.813	0.220	-0.183
-233.815	-195.047	0.067	0.001
-232.800	-30.932	-0.103	0.058
-231.786	-122.903	-0.111	-0.018
-230.771	216.717	0.140	0.223
-229.757	800.000	-0.063	0.191
-228.742	219.452	0.115	-0.185
-227.727	7.444	0.101	-0.076
-226.713	232.614	0.146	0.240
-225.698	-0.638	-0.210	0.150
-224.684	800.000	-0.114	0.324
-223.669	38.279	0.314	0.280
-222.655	33.701	-0.053	-0.046
-221.640	77.345	-0.188	0.201
-220.625	149.984	0.049	0.066
-219.611	21.876	0.313	0.256
-218.596	-23.017	-0.095	0.057
-217.582	-115.086	0.049	-0.009
-216.567	364.899	0.159	-0.321
-215.552	-200.000	-0.006	0.031
-214.538	276.457	-0.133	0.237
-213.523	-35.275	0.218	0.119
-212.509	-94.346	0.031	-0.008
-211.494	-45.661	0.185	0.092
-210.479	-176.011	-0.216	-0.006
-209.465	42.379	-0.211	0.193
-208.450	-163.271	-0.135	-0.006
-207.436	305.115	0.160	0.298
-206.421	-86.470	-0.017	-0.005
-205.406	-114.508	0.090	-0.017
-204.392	125.427	-0.058	0.073
-203.377	52.847	0.019	0.018
-202.363	156.664	0.111	-0.154
-201.348	-63.645	-0.260	-0.107
-200.333	-200.000	-0.049	0.277
-199.319	-76.890	0.378	0.132
-198.304	8.212	-0.051	-0.038
-197.290	52.179	0.131	0.125
-196.275	-200.000	-0.012	0.119
-195.260	74.000	0.285	0.299
-194.246	259.958	0.068	-0.117
-193.231	-93.404	0.181	-0.050
-192.217	7.335	-0.172	0.128
-191.202	-200.000	0.010	-0.218
-190.187	-27.108	0.214	-0.125
-189.173	2.096	0.069	0.050
-188.158	210.916	0.130	0.205
-187.144	100.889	0.147	-0.171
-186.129	800.000	0.040	-0.160
-185.114	-200.000	0.010	0.305
-184.100	360.589	-0.105	0.212
-183.085	291.894	-0.057	0.105
-182.071	208.108	0.001	0.001
-181.056	-97.842	0.122	0.032
-180.042	177.104	-0.076	0.111
-179.027	-51.271	0.085	-0.040
-178.012	800.000	-0.122	0.518
-176.998	-200.000	-0.019	0.082
-175.983	-139.546	0.190	-0.020
-174.969	6.038	0.155	-0.115
-173.954	285.107	0.072	-0.130
-172.939	71.615	0.106	0.110
-171.925	5.114	0.143	-0.105
-170.910	-200.000	0.013	-0.194
-169.896	38.489	0.306	-0.273
-168.881	-200.000	0.031	0.168
-167.866	-200.000	-0.020	0.107
-166.852	29.171	-0.166	-0.141
-165.837	47.320	0.086	-0.081
-164.823	-183.364	0.243	-0.004
-163.808	-124.414	-0.160	-0.025
-162.793	279.510	0.198	-0.353
-161.779	15.957	0.300	0.236
-160.764	518.062	-0.083	0.195
-159.750	14.791	-0.342	0.268
-158.735	-200.000	-0.011	0.421
-157.720	-90.677	0.122	0.035
-156.706	173.238	0.238	0.344
-155.691	108.581	0.069	0.083
-154.677	-200.000	0.080	0.481
-153.662	195.929	0.112	-0.170
-152.647	800.000	0.073	0.265
-151.633	8.729	0.276	0.208
-150.618	-200.000	0.014	0.089
-149.604	-67.727	0.498	0.195
-148.589	-48.772	0.246	0.118
-147.574	-50.459	-0.286	-0.135
-146.560	120.770	0.248	0.308
-145.545	240.927	0.126	0.210
-144.531	800.000	0.097	-0.287
-143.516	29.569	-0.243	-0.207
-142.502	-47.884	-0.167	0.081
-141.487	20.653	0.395	-0.320
-140.472	124.666	-0.087	-0.110
-139.458	800.000	-0.042	-0.166
-138.443	168.966	-0.093	-0.133
-137.429	-125.449	-0.201	0.031
-136.414	-200.000	-0.030	0.150
-135.399	-149.670	0.396	0.031
-134.385	489.427	-0.077	0.177
-133.370	-91.496	-0.131	-0.037
-132.356	180.322	-0.128	-0.188
-131.341	-23.181	0.480	-0.289
-130.326	400.877	-0.076	-0.159
-129.312	60.733	0.021	-0.021
-128.297	-200.000	-0.040	0.373
-127.283	638.720	-0.060	0.153
-126.268	-76.436	-0.216	-0.076
-125.253	-200.000	-0.055	0.278
-124.239	800.000	-0.051	-0.199
-123.224	-84.357	0.300	0.095
-122.210	-70.288	0.190	-0.072
-121.195	-116.139	0.250	-0.046
