DTS Sentinel unit serial number:	SN413079Multiplexer serial number:	ORYXHardware model number:	OX4-SRSoftware version number:	ORYX F/W v4.00 Oryx Data Collector v3.7.2.0data status	okinstallation	princeton_trtdifferential loss correction	single-endedforward channel	channel 1reverse channel	N/Adate	2019/09/14time	15:50:35forward acquisition time	60.00reverse acquisition time	0.00gamma	496.2192k internal	0.2294k external	0.2294temperature offset calibration	1.0070default loss term (dB/km)	0.3790temperature slope calibration	1.0000multiplexer offset coefficient	1.0000multiplexer slope coefficient	1.0000fibre end	0.00T internal ref (°C)	38.72T ext. ref 1 (°C)	5.12T ext. ref 2 (°C)	33.75length (m)	temperature (°C)	Stokes	anti-Stokes-747.200	62.548	0.021	0.021
-746.185	-86.665	-0.107	-0.033
-745.171	800.000	0.023	-0.094
-744.156	-200.000	-0.033	0.216
-743.142	-200.000	0.007	0.105
-742.127	-64.844	0.171	-0.071
-741.112	-121.506	0.240	-0.041
-740.098	147.530	-0.054	-0.075
-739.083	134.571	-0.116	0.154
-738.069	-23.045	0.237	0.146
-737.054	800.000	-0.041	0.169
-736.039	620.562	-0.071	-0.182
-735.025	-77.664	-0.095	-0.034
-734.010	-200.000	-0.014	0.150
-732.996	800.000	-0.095	-0.364
-731.981	117.009	-0.107	-0.134
-730.966	800.000	-0.130	-0.437
-729.952	-200.000	-0.010	-0.415
-728.937	146.536	-0.090	-0.123
-727.923	149.306	-0.137	-0.189
-726.908	-200.000	-0.108	-0.000
-725.894	220.114	-0.144	0.236
-724.879	-200.000	-0.007	-0.444
-723.864	418.984	0.042	-0.093
-722.850	285.117	-0.154	-0.284
-721.835	-50.832	0.051	0.025
-720.821	-200.000	0.070	0.000
-719.806	145.051	-0.269	0.368
-718.791	-200.000	-0.306	0.001
-717.777	-85.466	0.370	-0.118
-716.762	-111.508	0.490	-0.102
-715.748	800.000	0.051	-0.190
-714.733	-200.000	-0.012	0.142
-713.718	69.572	0.159	-0.167
-712.704	800.000	0.049	0.217
-711.689	306.728	-0.018	-0.035
-710.675	-126.381	0.417	-0.064
-709.660	-93.617	0.496	-0.140
-708.645	-147.812	0.173	0.015
-707.631	-200.000	-0.006	-0.066
-706.616	116.128	0.112	-0.140
-705.602	-200.000	-0.018	-0.112
-704.587	-200.000	0.005	-0.117
-703.572	-13.614	-0.081	-0.053
-702.558	-6.436	-0.355	-0.247
-701.543	-117.412	0.089	0.016
-700.529	71.357	0.226	-0.239
-699.514	-134.534	-0.219	-0.027
-698.499	-92.279	-0.040	-0.012
-697.485	148.325	-0.200	-0.275
-696.470	800.000	-0.052	-0.174
-695.456	2.924	-0.224	0.166
-694.441	-141.336	-0.213	-0.022
-693.426	-124.858	0.139	-0.022
-692.412	-200.000	-0.099	0.452
-691.397	800.000	0.059	-0.229
-690.383	800.000	0.079	0.228
-689.368	-111.830	0.309	0.064
-688.354	-101.352	0.188	0.047
-687.339	-200.000	0.013	0.077
-686.324	-125.994	-0.266	0.041
-685.310	800.000	-0.063	-0.234
-684.295	-154.476	-0.155	0.011
-683.281	-200.000	0.006	-0.227
-682.266	345.416	-0.241	-0.484
-681.251	-200.000	0.003	-0.205
-680.237	-200.000	0.005	-0.027
-679.222	111.062	0.210	0.258
-678.208	-150.097	0.213	0.017
-677.193	57.894	-0.123	-0.123
-676.178	17.981	-0.289	-0.235
-675.164	668.285	0.049	-0.130
-674.149	-200.000	0.006	0.073
-673.135	474.601	0.092	-0.212
-672.120	196.957	0.081	0.126
-671.105	800.000	0.019	0.066
-670.091	75.977	-0.109	0.118
-669.076	-37.233	0.104	0.057
-668.062	18.197	-0.270	-0.220
-667.047	800.000	0.065	0.273
-666.032	538.135	0.024	-0.058
-665.018	38.776	-0.236	0.214
-664.003	-20.136	0.110	-0.069
-662.989	12.372	-0.286	0.224
-661.974	-26.394	0.165	0.099
-660.959	104.663	-0.160	0.192
-659.945	58.243	-0.193	0.192
-658.930	-51.417	0.152	-0.073
-657.916	-52.023	0.311	-0.147
-656.901	110.198	-0.271	0.331
-655.886	536.484	-0.108	-0.262
-654.872	-48.008	0.352	0.174
-653.857	-200.000	-0.005	-0.066
-652.843	800.000	0.018	-0.073
-651.828	-7.843	0.223	-0.153
-650.814	-95.474	0.423	-0.116
-649.799	246.226	0.074	-0.126
-648.784	63.166	0.204	0.208
-647.770	-200.000	-0.004	-0.022
-646.755	597.847	-0.189	-0.477
-645.741	-95.234	0.165	0.045
-644.726	-49.398	-0.108	0.052
-643.711	-24.661	0.081	0.049
-642.697	298.509	-0.088	0.165
-641.682	-174.220	0.043	-0.001
-640.668	-94.563	0.278	0.077
-639.653	800.000	0.044	-0.160
-638.638	37.598	-0.133	-0.121
-637.624	-200.000	-0.013	0.063
-636.609	103.452	-0.214	-0.256
-635.595	-200.000	-0.065	-0.436
-634.580	800.000	-0.188	-0.596
-633.565	-200.000	0.041	-0.572
-632.551	305.887	-0.142	0.269
-631.536	63.455	-0.353	0.361
-630.522	-60.467	-0.248	0.107
-629.507	286.078	-0.073	0.133
-628.492	-200.000	-0.019	0.517
-627.478	146.106	-0.076	0.104
-626.463	107.644	-0.061	0.074
-625.449	37.205	0.153	-0.138
-624.434	28.214	-0.178	0.153
-623.419	-136.836	0.212	0.025
-622.405	800.000	0.024	-0.084
-621.390	655.238	0.102	-0.267
-620.376	-59.352	0.133	0.058
-619.361	-200.000	-0.006	0.273
-618.346	151.767	0.138	-0.191
-617.332	-200.000	0.008	0.040
-616.317	36.183	0.058	0.052
-615.303	-200.000	0.023	-0.152
-614.288	-4.019	-0.332	0.234
-613.273	-145.108	0.088	-0.008
-612.259	-52.895	0.453	-0.212
-611.244	113.379	0.172	-0.213
-610.230	70.413	0.238	0.251
-609.215	179.244	-0.118	-0.175
-608.201	-16.019	0.538	-0.348
-607.186	66.551	-0.103	0.107
-606.171	-103.900	-0.311	0.074
-605.157	-90.200	0.170	0.050
-604.142	128.053	0.139	0.180
-603.128	-35.080	-0.264	-0.146
-602.113	-150.780	-0.383	0.030
-601.098	-8.551	0.047	0.032
-600.084	-49.422	0.076	-0.037
-599.069	4.604	-0.191	-0.143
-598.055	124.354	-0.199	-0.254
-597.040	-200.000	0.005	0.322
-596.025	-95.068	-0.295	-0.081
-595.011	215.731	-0.142	0.229
-593.996	-82.334	0.176	0.058
-592.982	-99.615	0.130	0.033
-591.967	-200.000	0.008	-0.056
-590.952	91.298	-0.098	0.111
-589.938	-101.103	-0.089	0.022
-588.923	-65.901	0.199	-0.081
-587.909	181.960	0.055	-0.083
-586.894	494.074	-0.111	-0.259
-585.879	-200.000	-0.048	-0.335
-584.865	462.161	-0.034	-0.076
-583.850	58.015	0.074	-0.074
-582.836	46.874	-0.094	-0.088
-581.821	-189.242	0.136	-0.002
-580.806	31.340	-0.293	-0.255
-579.792	107.789	0.033	-0.040
-578.777	-124.806	-0.118	0.018
-577.763	192.501	0.054	-0.083
-576.748	-40.342	-0.085	0.045
-575.733	800.000	-0.032	-0.136
-574.719	800.000	-0.065	0.205
-573.704	-92.581	0.130	-0.037
-572.690	-200.000	0.007	-0.090
-571.675	83.598	0.124	0.137
-570.661	-200.000	-0.027	-0.140
-569.646	-17.617	-0.173	0.110
-568.631	128.598	-0.148	-0.192
-567.617	-45.619	-0.189	0.095
-566.602	-110.542	0.308	0.065
-565.588	-200.000	0.037	-0.290
-564.573	614.038	0.034	0.087
-563.558	-200.000	0.017	0.242
-562.544	-93.968	-0.138	-0.039
-561.529	148.507	-0.094	-0.129
-560.515	143.778	-0.056	-0.076
-559.500	-90.704	0.213	0.063
-558.485	137.723	0.092	0.122
-557.471	347.022	-0.091	-0.182
-556.456	-20.323	0.160	0.100
-555.442	71.828	-0.117	0.123
-554.427	780.033	-0.035	0.097
-553.412	-42.094	-0.303	-0.157
-552.398	-78.773	0.155	-0.054
-551.383	181.031	0.114	0.170
-550.369	-82.296	-0.217	0.072
-549.354	-38.865	-0.033	-0.018
-548.339	-130.994	0.146	0.020
-547.325	11.858	0.165	-0.129
-546.310	-132.375	-0.097	-0.013
-545.296	556.158	-0.046	-0.112
-544.281	-83.066	-0.273	0.089
-543.266	-108.135	0.160	-0.035
-542.252	800.000	0.074	0.280
-541.237	115.351	-0.026	0.033
-540.223	800.000	0.041	0.122
-539.208	800.000	-0.093	-0.412
-538.193	800.000	-0.065	-0.207
-537.179	800.000	0.063	0.246
-536.164	-200.000	0.002	0.361
-535.150	800.000	-0.127	-0.400
-534.135	-117.435	-0.157	0.029
-533.121	-87.549	0.225	0.069
-532.106	191.485	0.171	0.261
-531.091	13.018	-0.127	0.100
-530.077	62.861	0.102	0.103
-529.062	-85.103	0.282	-0.089
-528.048	800.000	0.097	0.288
-527.033	399.087	-0.173	-0.368
-526.018	425.253	0.077	-0.168
-525.004	-64.545	0.235	0.097
-523.989	103.280	0.109	0.129
-522.975	21.308	0.107	-0.088
-521.960	-93.907	0.307	-0.086
-520.945	540.985	0.101	-0.244
-519.931	62.307	0.104	-0.105
-518.916	28.751	-0.260	0.223
-517.902	438.028	0.121	-0.267
-516.887	-200.000	0.006	-0.080
-515.872	73.027	-0.347	-0.368
-514.858	800.000	-0.069	-0.237
-513.843	-172.608	0.389	-0.012
-512.829	-200.000	-0.025	-0.115
-511.814	227.647	0.077	0.128
-510.799	412.422	0.038	-0.082
-509.785	30.347	0.051	-0.044
-508.770	75.549	-0.173	-0.186
-507.756	-200.000	0.000	0.040
-506.741	-22.888	0.095	0.058
-505.726	-43.655	-0.118	0.061
-504.712	369.659	0.119	0.245
-503.697	-66.438	-0.266	0.107
-502.683	-75.092	-0.264	-0.096
-501.668	433.201	-0.146	-0.322
-500.653	295.325	0.205	-0.381
-499.639	-77.813	-0.219	-0.077
-498.624	-200.000	-0.029	0.229
-497.610	-38.423	-0.096	0.051
-496.595	-200.000	-0.019	-0.248
-495.581	-75.123	-0.221	-0.080
-494.566	48.829	-0.162	0.154
-493.551	-194.946	0.297	-0.002
-492.537	-30.907	-0.102	-0.058
-491.522	-162.857	0.323	0.016
-490.508	56.235	0.193	0.189
-489.493	-135.630	-0.321	-0.039
-488.478	-72.028	-0.156	0.059
-487.464	-71.600	0.227	0.086
-486.449	-200.000	-0.050	-0.300
-485.435	-95.854	0.163	-0.044
-484.420	80.668	0.045	-0.049
-483.405	-200.000	-0.046	0.230
-482.391	342.884	-0.041	0.081
-481.376	655.505	0.081	-0.209
-480.362	-200.000	-0.031	-0.164
-479.347	97.190	-0.067	-0.078
-478.332	142.925	0.291	-0.392
-477.318	-80.663	-0.314	-0.106
-476.303	800.000	0.097	-0.332
-475.289	-45.492	0.190	0.095
-474.274	41.409	0.083	0.076
-473.259	-200.000	-0.050	-0.326
-472.245	-72.650	-0.205	0.076
-471.230	-135.277	-0.246	-0.030
-470.216	-78.427	0.158	-0.055
-469.201	391.773	-0.075	0.157
-468.186	-200.000	0.009	0.119
-467.172	-200.000	0.006	0.190
-466.157	121.231	-0.180	0.226
-465.143	-200.000	0.079	-0.412
-464.128	800.000	0.136	-0.387
-463.113	-40.377	0.212	0.112
-462.099	-200.000	0.015	0.489
-461.084	-200.000	-0.039	0.266
-460.070	-200.000	-0.010	0.109
-459.055	513.125	0.091	0.213
-458.040	-68.040	0.139	0.055
-457.026	250.118	-0.129	0.221
-456.011	66.621	-0.165	0.169
-454.997	-54.736	0.255	0.117
-453.982	240.997	-0.103	0.174
-452.968	-200.000	-0.028	-0.208
-451.953	660.525	-0.080	0.208
-450.938	90.671	0.111	-0.126
-449.924	4.618	0.233	-0.173
-448.909	-20.400	0.132	0.082
-447.895	22.048	0.132	0.109
-446.880	-130.466	0.393	-0.054
-445.865	-17.273	-0.375	-0.239
-444.851	800.000	-0.028	0.120
-443.836	-162.044	0.181	-0.009
-442.822	99.369	0.110	-0.129
-441.807	-141.947	0.150	-0.015
-440.792	-200.000	0.031	0.306
-439.778	-148.895	-0.191	0.016
-438.763	143.566	-0.086	0.116
-437.749	-112.090	-0.132	0.027
-436.734	-80.699	0.260	0.087
-435.719	-10.394	-0.385	-0.258
-434.705	176.940	-0.197	0.289
-433.690	-59.722	-0.047	0.020
-432.676	-200.000	0.037	0.231
-431.661	2.683	-0.382	0.280
-430.646	-38.012	-0.139	0.075
-429.632	-81.210	0.305	-0.102
-428.617	800.000	0.029	0.113
-427.603	-151.340	0.045	-0.003
-426.588	-14.017	-0.166	0.108
-425.573	681.674	0.103	0.270
-424.559	-38.164	-0.116	-0.062
-423.544	-71.655	0.154	-0.058
-422.530	-119.834	0.323	0.056
-421.515	230.733	-0.037	0.062
-420.500	-64.145	-0.195	0.080
-419.486	415.703	0.048	0.103
-418.471	-200.000	0.004	0.031
-417.457	-32.458	0.116	-0.066
-416.442	-27.198	-0.156	-0.092
-415.428	-200.000	0.008	-0.248
-414.413	-181.026	-0.393	-0.008
-413.398	257.142	0.108	0.187
-412.384	800.000	0.013	-0.041
-411.369	455.790	0.194	0.435
-410.355	43.946	-0.304	0.282
-409.340	418.983	0.043	-0.093
-408.325	-200.000	0.013	-0.172
-407.311	302.513	-0.058	-0.109
-406.296	-136.875	0.415	-0.048
-405.282	-200.000	-0.015	-0.092
-404.267	761.440	0.053	-0.144
-403.252	-60.945	0.236	0.101
-402.238	12.427	-0.482	0.375
-401.223	125.342	0.285	0.363
-400.209	-106.185	-0.246	0.056
-399.194	-64.521	0.302	0.124
-398.179	800.000	0.105	0.321
-397.165	140.547	-0.187	0.249
-396.150	267.846	0.127	-0.225
-395.136	108.510	-0.054	0.065
-394.121	-200.000	0.042	0.192
-393.106	52.055	-0.200	-0.192
-392.092	-200.000	0.052	0.347
-391.077	606.419	0.117	0.295
-390.063	-61.021	0.068	0.029
-389.048	46.773	0.131	-0.122
-388.033	-22.341	-0.103	0.063
-387.019	6.093	0.200	0.149
-386.004	-112.595	0.185	-0.037
-384.990	208.093	-0.127	0.201
-383.975	146.706	0.138	-0.187
-382.960	-108.113	0.136	-0.030
-381.946	-0.605	0.155	0.111
-380.931	97.810	-0.127	-0.148
-379.917	-74.290	0.085	-0.031
-378.902	89.402	-0.171	0.192
-377.888	800.000	-0.096	0.294
-376.873	-200.000	-0.007	0.147
-375.858	-139.032	0.101	0.011
-374.844	116.970	-0.057	0.070
-373.829	461.715	0.104	-0.234
-372.815	-77.787	0.400	0.139
-371.800	126.368	0.154	-0.196
-370.785	800.000	0.032	0.138
-369.771	-98.488	-0.497	0.128
-368.756	685.532	0.072	-0.190
-367.742	463.863	0.064	-0.143
-366.727	-167.144	-0.403	-0.016
-365.712	-125.659	0.214	-0.033
-364.698	57.567	-0.111	-0.109
-363.683	-200.000	-0.029	-0.282
-362.669	-200.000	-0.043	0.256
-361.654	-71.273	0.047	0.018
-360.639	-73.493	0.354	0.130
-359.625	169.383	-0.072	0.104
-358.610	-200.000	-0.008	0.248
-357.596	-64.784	0.024	0.010
-356.581	58.837	0.036	0.036
-355.566	-5.078	0.321	0.222
-354.552	-200.000	0.004	-0.197
-353.537	-1.197	0.080	0.057
-352.523	13.679	0.192	0.150
-351.508	800.000	-0.119	0.468
-350.493	82.312	0.152	0.166
-349.479	-200.000	0.002	-0.270
-348.464	800.000	-0.046	-0.150
-347.450	-200.000	0.020	-0.136
-346.435	22.380	0.051	0.042
-345.420	-82.427	-0.035	0.011
-344.406	358.691	0.293	0.589
-343.391	-27.993	0.294	-0.172
-342.377	-8.374	0.077	-0.052
-341.362	-138.735	-0.341	0.037
-340.348	-62.608	-0.204	0.085
-339.333	-143.510	-0.139	-0.013
-338.318	606.214	-0.149	0.374
-337.304	151.199	0.180	-0.246
-336.289	-200.000	0.037	-0.277
-335.275	800.000	-0.094	0.282
-334.260	82.740	-0.171	0.187
-333.245	1.252	0.257	-0.186
-332.231	-64.351	-0.192	0.078
-331.216	3.920	-0.011	0.008
-330.202	185.798	-0.214	-0.320
-329.187	-146.085	-0.537	-0.048
-328.172	551.505	0.204	-0.493
-327.158	-9.507	-0.238	-0.159
-326.143	-53.660	0.210	0.097
-325.129	-102.020	0.415	0.101
-324.114	800.000	0.152	0.461
-323.099	-54.762	-0.162	0.074
-322.085	-28.626	-0.166	-0.096
-321.070	190.957	0.139	-0.211
-320.056	-98.698	0.250	0.064
-319.041	-66.433	0.053	-0.021
-318.026	136.999	-0.106	-0.139
-317.012	56.081	0.304	0.297
-315.997	800.000	0.020	0.064
-314.983	77.084	0.118	-0.126
-313.968	16.964	0.092	-0.074
-312.953	-9.984	-0.366	-0.245
-311.939	800.000	0.118	0.436
-310.924	800.000	-0.093	-0.321
-309.910	800.000	0.118	0.449
-308.895	-131.936	0.301	0.039
-307.880	800.000	-0.066	-0.269
-306.866	800.000	-0.010	0.039
-305.851	499.194	0.131	0.303
-304.837	-93.985	0.446	-0.123
-303.822	209.046	-0.154	-0.242
-302.807	-99.411	-0.207	-0.053
-301.793	-94.118	0.077	-0.021
-300.778	-200.000	0.030	0.365
-299.764	8.474	-0.150	0.113
-298.749	-200.000	-0.017	0.186
-297.735	173.550	-0.131	-0.190
-296.720	99.752	-0.330	-0.384
-295.705	800.000	0.053	0.156
-294.691	-132.550	-0.220	0.028
-293.676	800.000	-0.091	-0.283
-292.662	-109.584	0.039	-0.008
-291.647	-43.541	-0.268	-0.136
-290.632	800.000	-0.066	0.259
-289.618	800.000	0.049	0.214
-288.603	800.000	-0.039	-0.151
-287.589	-39.162	-0.137	0.072
-286.574	800.000	-0.042	-0.166
-285.559	-130.509	-0.082	0.011
-284.545	323.802	0.045	0.086
-283.530	100.697	0.166	0.194
-282.516	87.018	0.114	0.126
-281.501	-174.645	0.135	-0.004
-280.486	-39.875	-0.101	0.053
-279.472	-83.634	0.228	0.073
-278.457	-46.310	-0.168	-0.083
-277.443	-138.903	-0.166	-0.018
-276.428	-84.394	0.088	0.028
-275.413	-92.613	0.311	0.087
-274.399	203.909	0.095	-0.148
-273.384	-191.670	-0.104	0.001
-272.370	117.256	0.098	0.121
-271.355	-58.587	0.179	0.078
-270.340	-200.000	0.056	0.258
-269.326	-180.554	0.280	-0.006
-268.311	-200.000	0.023	-0.371
-267.297	87.938	-0.048	-0.053
-266.282	-34.743	0.263	-0.144
-265.267	-18.719	-0.369	0.231
-264.253	254.877	0.134	-0.230
-263.238	800.000	-0.080	-0.225
-262.224	-127.767	-0.288	-0.042
-261.209	-159.712	0.351	0.019
-260.195	-134.959	0.215	-0.026
-259.180	-200.000	-0.008	0.251
-258.165	48.092	-0.269	0.252
-257.151	-182.586	0.211	0.004
-256.136	97.162	0.100	-0.115
-255.122	800.000	-0.047	0.144
-254.107	-62.319	-0.211	-0.088
-253.092	-98.493	-0.151	-0.039
-252.078	-41.221	-0.181	0.094
-251.063	-200.000	-0.006	0.032
-250.049	34.176	-0.330	0.289
-249.034	14.795	0.414	-0.325
-248.019	15.210	0.160	0.126
-247.005	103.642	-0.042	0.050
-245.990	-200.000	-0.036	-0.221
-244.976	661.800	-0.128	0.331
-243.961	31.684	-0.058	0.050
-242.946	722.435	0.026	0.069
-241.932	-200.000	-0.016	-0.076
-240.917	-200.000	-0.064	0.387
-239.903	-200.000	-0.050	-0.323
-238.888	103.740	-0.141	-0.166
-237.873	51.637	0.060	-0.057
-236.859	-117.261	-0.200	-0.036
-235.844	800.000	-0.111	-0.333
-234.830	-200.000	0.027	0.243
-233.815	39.028	-0.107	-0.096
-232.800	-182.156	0.111	0.002
-231.786	26.053	-0.130	-0.109
-230.771	-75.114	0.323	-0.116
-229.757	19.271	-0.086	-0.069
-228.742	-94.760	0.096	0.026
-227.727	-200.000	0.006	-0.106
-226.713	198.408	-0.195	-0.299
-225.698	24.169	-0.200	-0.166
-224.684	-49.681	-0.255	-0.122
-223.669	800.000	0.055	0.171
-222.655	-152.687	0.241	0.017
-221.640	-97.516	-0.155	0.040
-220.625	36.023	-0.099	0.087
-219.611	-166.937	0.251	0.010
-218.596	29.110	0.032	-0.027
-217.582	-42.422	0.139	0.071
-216.567	304.046	0.028	-0.052
-215.552	124.057	0.079	0.100
-214.538	704.137	-0.055	0.145
-213.523	-200.000	-0.009	0.294
-212.509	-44.486	0.039	-0.020
-211.494	480.258	0.120	0.273
-210.479	64.856	-0.240	-0.243
-209.465	-61.597	0.141	-0.059
-208.450	31.657	-0.150	-0.129
-207.436	-44.071	-0.351	-0.177
-206.421	-169.034	-0.095	0.004
-205.406	-30.537	-0.130	0.074
-204.392	-200.000	0.069	-0.483
-203.377	31.695	-0.216	0.186
-202.363	11.081	-0.157	-0.120
-201.348	-43.797	-0.230	-0.116
-200.333	800.000	0.030	-0.130
-199.319	249.394	0.097	-0.164
-198.304	-200.000	-0.024	0.169
-197.290	-73.140	-0.235	0.086
-196.275	-28.814	0.117	-0.067
-195.260	388.604	0.118	-0.244
-194.246	-30.591	0.103	-0.058
-193.231	349.931	-0.162	-0.320
-192.217	639.054	0.075	-0.191
-191.202	52.634	0.094	-0.090
-190.187	-200.000	-0.001	-0.059
-189.173	227.889	0.169	0.276
-188.158	554.915	-0.041	-0.098
-187.144	-16.750	0.275	0.174
-186.129	592.343	-0.152	0.375
-185.114	-130.571	-0.094	0.013
-184.100	-95.018	-0.454	-0.123
-183.085	16.690	0.186	-0.147
-182.071	-96.188	-0.259	0.069
-181.056	-148.252	0.334	-0.028
-180.042	800.000	-0.010	0.035
-179.027	-89.731	0.044	0.013
-178.012	-200.000	-0.040	-0.366
-176.998	223.834	-0.104	-0.168
-175.983	-55.790	-0.040	0.018
-174.969	247.732	0.154	-0.260
-173.954	75.478	0.039	-0.041
-172.939	-200.000	0.005	0.205
-171.925	736.302	-0.116	0.310
-170.910	-200.000	0.035	0.662
-169.896	-46.088	-0.065	-0.032
-168.881	-127.903	-0.312	0.045
-167.866	800.000	-0.068	-0.279
-166.852	348.058	0.157	-0.310
-165.837	601.902	0.149	-0.370
-164.823	-83.360	0.037	-0.012
-163.808	26.042	0.097	0.081
-162.793	-48.635	0.240	0.115
-161.779	594.949	0.140	-0.346
-160.764	153.535	-0.241	0.330
-159.750	-12.528	0.059	0.038
-158.735	32.385	-0.170	-0.147
-157.720	286.051	-0.064	-0.116
-156.706	94.549	0.041	-0.046
-155.691	-200.000	-0.030	0.153
-154.677	-96.308	0.170	-0.045
-153.662	-114.965	-0.301	0.057
-152.647	448.710	0.074	-0.164
-151.633	196.942	-0.014	-0.021
-150.618	-200.000	0.022	-0.338
-149.604	-85.673	0.559	-0.173
-148.589	-200.000	0.025	-0.252
-147.574	800.000	-0.016	-0.052
-146.560	-88.336	-0.276	-0.083
-145.545	13.918	-0.146	0.114
-144.531	163.958	0.039	-0.055
-143.516	286.599	-0.054	-0.097
-142.502	90.931	0.101	-0.113
-141.487	-23.540	0.070	0.042
-140.472	-191.626	0.218	-0.002
-139.458	-84.378	-0.307	0.097
-138.443	-33.331	0.051	0.028
-137.429	11.216	-0.343	-0.262
-136.414	-55.384	0.177	0.079
-135.399	-73.449	0.360	-0.131
-134.385	24.569	0.099	0.082
-133.370	180.988	-0.140	0.206
-132.356	153.577	-0.036	0.049
-131.341	409.422	-0.061	-0.129
-130.326	-25.470	-0.103	-0.061
-129.312	-47.628	0.285	-0.138
-128.297	-111.805	-0.347	0.070
-127.283	-200.000	0.043	-0.317
-126.268	800.000	0.073	-0.219
-125.253	-159.250	-0.103	0.006
-124.239	16.668	0.164	-0.129
-123.224	-77.960	-0.122	-0.042
-122.210	800.000	0.113	0.424
-121.195	-77.086	-0.106	0.037
-120.180	-109.760	0.023	-0.005
