DTS Sentinel unit serial number:	SN413079Multiplexer serial number:	ORYXHardware model number:	OX4-SRSoftware version number:	ORYX F/W v4.00 Oryx Data Collector v3.7.2.0data status	okinstallation	princeton_trtdifferential loss correction	single-endedforward channel	channel 1reverse channel	N/Adate	2019/09/15time	09:14:35forward acquisition time	60.00reverse acquisition time	0.00gamma	496.2192k internal	0.2313k external	0.2313temperature offset calibration	0.9986default loss term (dB/km)	0.3790temperature slope calibration	1.0000multiplexer offset coefficient	1.0000multiplexer slope coefficient	1.0000fibre end	0.00T internal ref (°C)	33.25T ext. ref 1 (°C)	4.97T ext. ref 2 (°C)	30.39length (m)	temperature (°C)	Stokes	anti-Stokes-747.200	-103.204	0.211	0.051
-746.185	-200.000	0.042	0.322
-745.171	-71.445	-0.180	-0.068
-744.156	-126.196	-0.264	0.040
-743.142	-200.000	0.063	0.404
-742.127	-3.404	-0.021	-0.015
-741.112	-118.786	0.134	-0.024
-740.098	-82.740	-0.460	0.151
-739.083	110.043	-0.071	-0.087
-738.069	419.492	0.099	0.214
-737.054	74.154	-0.021	-0.023
-736.039	-120.870	-0.229	-0.039
-735.025	544.925	-0.059	-0.144
-734.010	-200.000	0.014	-0.136
-732.996	-53.896	0.233	-0.108
-731.981	-200.000	0.035	-0.290
-730.966	-122.706	-0.063	0.010
-729.952	800.000	-0.051	0.160
-728.937	800.000	-0.031	0.093
-727.923	415.466	-0.106	-0.228
-726.908	4.159	0.222	0.165
-725.894	-108.743	-0.393	-0.085
-724.879	21.803	-0.194	-0.160
-723.864	-172.816	0.299	-0.009
-722.850	254.211	0.138	-0.239
-721.835	-200.000	0.016	-0.170
-720.821	116.662	-0.254	-0.316
-719.806	-200.000	0.032	-0.173
-718.791	-46.870	-0.054	0.027
-717.777	-195.883	-0.032	-0.000
-716.762	-174.286	0.149	0.004
-715.748	800.000	-0.123	-0.356
-714.733	45.530	-0.149	-0.140
-713.718	429.013	-0.160	-0.350
-712.704	-154.033	0.193	-0.013
-711.689	244.034	0.115	0.196
-710.675	-63.949	0.111	0.046
-709.660	370.969	0.118	0.243
-708.645	-200.000	-0.004	0.312
-707.631	239.877	0.172	-0.291
-706.616	-39.892	0.124	-0.066
-705.602	31.750	-0.325	-0.283
-704.587	-200.000	-0.010	-0.053
-703.572	-200.000	-0.036	0.192
-702.558	800.000	-0.066	-0.258
-701.543	800.000	-0.080	0.268
-700.529	-63.017	-0.352	0.147
-699.514	-156.225	0.125	0.008
-698.499	527.870	0.097	-0.231
-697.485	43.909	-0.180	0.167
-696.470	0.172	0.095	-0.068
-695.456	5.077	-0.364	-0.271
-694.441	180.973	-0.170	-0.253
-693.426	800.000	-0.103	-0.369
-692.412	345.317	-0.141	-0.280
-691.397	538.067	-0.108	0.259
-690.383	47.809	0.128	-0.121
-689.368	-2.111	0.158	0.112
-688.354	-152.636	-0.229	0.017
-687.339	23.097	-0.071	-0.059
-686.324	156.474	-0.051	-0.071
-685.310	484.965	-0.129	0.297
-684.295	232.960	0.053	-0.089
-683.281	-200.000	-0.048	-0.298
-682.266	42.118	-0.384	-0.352
-681.251	260.344	-0.111	0.194
-680.237	40.445	0.127	-0.116
-679.222	-46.422	0.068	-0.034
-678.208	321.969	-0.090	-0.173
-677.193	30.078	-0.249	-0.215
-676.178	-200.000	-0.050	0.224
-675.164	179.454	0.090	0.134
-674.149	-78.669	-0.244	-0.084
-673.135	429.715	0.042	-0.093
-672.120	-58.192	-0.557	-0.245
-671.105	-79.803	-0.016	0.005
-670.091	800.000	0.039	0.156
-669.076	-117.381	-0.226	-0.041
-668.062	-141.606	0.066	-0.007
-667.047	-80.701	0.121	0.041
-666.032	-200.000	-0.037	-0.494
-665.018	-200.000	-0.031	-0.279
-664.003	800.000	-0.085	0.344
-662.989	-88.301	-0.305	0.092
-661.974	-5.608	-0.269	0.186
-660.959	403.731	-0.071	0.151
-659.945	-135.410	-0.095	-0.012
-658.930	253.507	0.089	-0.153
-657.916	-200.000	0.025	-0.138
-656.901	-82.701	-0.062	0.020
-655.886	144.785	0.101	-0.136
-654.872	692.896	0.041	0.109
-653.857	800.000	-0.076	0.234
-652.843	-200.000	-0.007	-0.287
-651.828	-200.000	0.051	0.318
-650.814	328.843	-0.130	0.252
-649.799	590.772	0.102	-0.253
-648.784	96.888	-0.044	-0.051
-647.770	-200.000	-0.019	-0.120
-646.755	198.160	0.147	-0.227
-645.741	800.000	-0.058	-0.217
-644.726	24.127	-0.137	0.115
-643.711	-64.153	-0.366	-0.151
-642.697	800.000	-0.074	-0.251
-641.682	69.767	0.042	-0.044
-640.668	-163.574	-0.039	0.002
-639.653	600.665	0.085	-0.214
-638.638	294.922	0.167	-0.309
-637.624	-31.116	0.124	0.070
-636.609	263.990	-0.080	0.141
-635.595	-38.163	-0.126	0.068
-634.580	-15.688	-0.084	-0.054
-633.565	-200.000	-0.033	0.149
-632.551	-133.815	-0.231	-0.029
-631.536	-182.410	-0.202	0.004
-630.522	-18.180	0.129	-0.081
-629.507	-50.721	0.304	-0.144
-628.492	-25.442	-0.251	-0.150
-627.478	-30.128	-0.157	-0.090
-626.463	53.038	-0.073	-0.070
-625.449	48.786	0.122	0.115
-624.434	153.701	0.148	0.205
-623.419	-20.508	0.247	-0.153
-622.405	9.954	0.141	-0.108
-621.390	318.113	-0.115	-0.220
-620.376	-200.000	-0.015	0.288
-619.361	-12.967	-0.236	-0.155
-618.346	800.000	0.059	-0.196
-617.332	800.000	-0.038	0.114
-616.317	-5.315	-0.217	-0.150
-615.303	-164.460	0.324	-0.015
-614.288	-82.109	0.193	0.064
-613.273	123.594	-0.166	0.210
-612.259	-164.110	0.167	-0.008
-611.244	800.000	-0.061	-0.191
-610.230	-110.961	0.053	0.011
-609.215	91.431	0.022	-0.025
-608.201	800.000	-0.036	-0.121
-607.186	95.099	0.038	0.043
-606.171	316.832	0.207	0.395
-605.157	-9.121	-0.114	-0.077
-604.142	245.907	-0.161	-0.274
-603.128	13.997	-0.133	0.105
-602.113	-25.128	0.308	0.184
-601.098	-90.726	0.482	-0.140
-600.084	-200.000	0.039	0.286
-599.069	345.388	-0.168	0.333
-598.055	-38.629	0.021	-0.011
-597.040	-200.000	0.044	-0.248
-596.025	31.519	-0.114	-0.099
-595.011	111.379	-0.147	-0.178
-593.996	-24.164	0.120	0.072
-592.982	15.652	0.135	-0.107
-591.967	800.000	-0.044	0.146
-590.952	344.965	-0.154	0.304
-589.938	609.376	0.074	0.186
-588.923	-84.113	-0.495	0.158
-587.909	-200.000	-0.042	-0.388
-586.894	297.693	0.019	-0.035
-585.879	34.618	0.102	-0.089
-584.865	124.893	0.275	-0.350
-583.850	149.484	-0.231	0.315
-582.836	136.153	0.156	0.205
-581.821	2.827	-0.242	-0.177
-580.806	-166.745	-0.322	0.013
-579.792	-130.012	-0.230	-0.032
-578.777	-78.505	0.202	-0.070
-577.763	318.539	0.190	-0.363
-576.748	36.328	-0.260	-0.231
-575.733	73.168	-0.170	-0.179
-574.719	22.737	0.105	-0.086
-573.704	-200.000	-0.034	-0.219
-572.690	-44.200	0.140	-0.071
-571.675	216.002	-0.159	-0.254
-570.661	-200.000	0.029	0.243
-569.646	291.950	0.207	0.380
-568.631	480.562	0.056	-0.127
-567.617	-200.000	0.005	-0.219
-566.602	-200.000	-0.083	-0.398
-565.588	-200.000	-0.026	0.286
-564.573	490.615	0.089	0.205
-563.558	-200.000	-0.033	0.333
-562.544	-200.000	-0.050	0.247
-561.529	-200.000	-0.015	0.092
-560.515	-56.070	-0.207	-0.093
-559.500	-80.360	0.116	0.039
-558.485	179.338	0.066	-0.097
-557.471	-122.024	0.032	-0.005
-556.456	528.569	0.026	0.063
-555.442	-107.694	-0.085	0.019
-554.427	800.000	0.029	-0.114
-553.412	-200.000	0.014	-0.244
-552.398	-137.754	-0.365	0.041
-551.383	196.156	0.130	0.199
-550.369	-23.368	-0.159	-0.096
-549.354	-200.000	0.015	0.286
-548.339	800.000	-0.094	-0.328
-547.325	72.855	0.103	-0.108
-546.310	-200.000	0.012	-0.209
-545.296	-200.000	-0.017	0.136
-544.281	-52.756	0.089	0.041
-543.266	154.922	0.040	-0.055
-542.252	800.000	-0.056	-0.165
-541.237	800.000	0.056	-0.224
-540.223	135.976	0.071	0.093
-539.208	800.000	-0.080	-0.316
-538.193	100.002	0.026	-0.030
-537.179	605.694	0.045	-0.113
-536.164	61.918	0.314	0.315
-535.150	-28.246	0.188	0.109
-534.135	-140.138	0.100	-0.011
-533.121	208.630	0.113	0.178
-532.106	-63.777	-0.297	0.123
-531.091	800.000	-0.068	0.234
-530.077	489.500	0.024	0.055
-529.062	-200.000	0.032	-0.508
-528.048	-73.506	0.224	0.082
-527.033	-51.761	-0.213	0.100
-526.018	800.000	-0.041	-0.138
-525.004	-65.785	-0.138	0.056
-523.989	-93.085	-0.067	-0.019
-522.975	-200.000	0.011	0.295
-521.960	-200.000	-0.025	0.144
-520.945	274.987	-0.069	0.123
-519.931	187.640	-0.036	-0.054
-518.916	-137.316	0.199	0.023
-517.902	-63.572	-0.248	0.102
-516.887	70.755	-0.293	0.305
-515.872	-88.807	0.138	-0.041
-514.858	-79.493	0.203	0.069
-513.843	-34.098	0.177	-0.098
-512.829	-21.817	-0.299	0.183
-511.814	800.000	-0.019	-0.077
-510.799	-200.000	-0.026	0.168
-509.785	-62.776	0.107	-0.045
-508.770	283.422	-0.102	-0.184
-507.756	-107.367	-0.116	0.026
-506.741	82.740	-0.263	0.287
-505.726	-32.349	-0.202	0.113
-504.712	-32.703	0.102	-0.057
-503.697	-200.000	0.013	0.389
-502.683	22.605	0.212	0.174
-501.668	390.220	-0.092	-0.192
-500.653	800.000	0.084	0.299
-499.639	46.904	0.111	-0.104
-498.624	290.080	-0.055	0.101
-497.610	713.691	0.021	-0.055
-496.595	273.191	0.049	0.086
-495.581	-90.392	0.098	-0.029
-494.566	-31.713	-0.238	-0.134
-493.551	-121.797	-0.383	0.064
-492.537	220.237	-0.053	-0.086
-491.522	308.947	0.117	-0.219
-490.508	-100.179	-0.158	-0.040
-489.493	-197.830	-0.158	0.001
-488.478	350.959	-0.076	0.150
-487.464	323.351	0.229	-0.439
-486.449	-200.000	0.006	-0.369
-485.435	-194.941	0.356	-0.003
-484.420	20.539	0.283	0.230
-483.405	-200.000	0.004	0.340
-482.391	-200.000	0.024	-0.118
-481.376	-175.260	0.260	0.007
-480.362	-45.536	-0.275	0.137
-479.347	335.621	-0.081	0.158
-478.332	401.128	0.005	0.010
-477.318	-83.499	0.113	0.036
-476.303	-200.000	-0.011	-0.268
-475.289	439.618	-0.058	-0.127
-474.274	800.000	0.090	0.293
-473.259	-113.210	0.226	-0.045
-472.245	202.632	-0.033	0.050
-471.230	71.769	0.074	-0.078
-470.216	800.000	-0.032	-0.088
-469.201	-200.000	-0.014	-0.169
-468.186	670.338	-0.092	0.238
-467.172	544.412	-0.197	-0.472
-466.157	-2.208	-0.231	-0.163
-465.143	-153.228	-0.314	-0.022
-464.128	31.310	-0.192	0.166
-463.113	800.000	-0.077	0.326
-462.099	-74.904	0.114	-0.041
-461.084	-95.668	0.117	0.031
-460.070	1.134	-0.256	-0.184
-459.055	-112.823	0.181	-0.036
-458.040	-66.529	-0.249	0.099
-457.026	800.000	0.070	0.295
-456.011	-149.496	0.191	0.015
-454.997	-110.587	-0.088	-0.018
-453.982	106.641	0.070	0.083
-452.968	800.000	-0.113	0.315
-451.953	36.247	-0.108	0.095
-450.938	800.000	-0.004	-0.014
-449.924	-40.493	0.345	-0.180
-448.909	109.309	-0.082	-0.098
-447.895	555.621	0.127	0.306
-446.880	-58.580	-0.083	-0.036
-445.865	-139.729	0.296	-0.032
-444.851	-88.678	0.350	0.104
-443.836	54.106	0.156	-0.150
-442.822	-105.771	-0.222	0.050
-441.807	800.000	0.036	0.120
-440.792	184.531	-0.328	-0.487
-439.778	201.844	0.129	0.200
-438.763	-149.037	-0.369	-0.030
-437.749	34.552	0.312	0.273
-436.734	-200.000	-0.003	0.065
-435.719	467.535	0.009	-0.021
-434.705	-108.501	-0.500	-0.108
-433.690	-158.345	0.083	-0.005
-432.676	559.686	0.088	-0.213
-431.661	-200.000	0.013	-0.077
-430.646	-70.498	-0.217	-0.082
-429.632	800.000	0.074	0.282
-428.617	759.066	-0.094	-0.254
-427.603	-122.119	-0.274	0.045
-426.588	-47.695	-0.271	0.132
-425.573	800.000	-0.020	0.058
-424.559	800.000	-0.120	-0.395
-423.544	-102.808	-0.193	0.046
-422.530	-200.000	-0.038	0.186
-421.515	-121.897	0.206	-0.034
-420.500	-200.000	-0.039	0.258
-419.486	-71.818	-0.232	-0.086
-418.471	-123.685	0.221	-0.035
-417.457	800.000	-0.080	0.226
-416.442	-200.000	0.046	0.264
-415.428	-15.391	-0.098	0.063
-414.413	-200.000	-0.019	0.323
-413.398	-200.000	-0.077	-0.368
-412.384	94.166	0.148	0.168
-411.369	-200.000	0.009	-0.101
-410.355	-68.900	0.181	-0.070
-409.340	-8.734	-0.235	-0.158
-408.325	-13.960	-0.131	0.085
-407.311	457.393	0.137	-0.304
-406.296	-78.494	0.193	-0.066
-405.282	70.526	0.137	0.141
-404.267	-132.190	0.180	-0.023
-403.252	-131.622	-0.125	-0.016
-402.238	-200.000	0.024	-0.231
-401.223	171.508	-0.098	-0.141
-400.209	-200.000	-0.037	0.178
-399.194	-200.000	0.006	0.103
-398.179	0.364	-0.243	-0.173
-397.165	-24.121	-0.356	0.213
-396.150	560.949	-0.125	0.303
-395.136	800.000	0.078	0.283
-394.121	27.263	0.111	-0.093
-393.106	-194.968	0.163	0.001
-392.092	-125.925	0.335	-0.051
-391.077	226.792	0.036	-0.058
-390.063	-2.930	0.155	0.109
-389.048	-95.081	-0.195	0.053
-388.033	129.967	0.068	-0.087
-387.019	-112.981	-0.438	0.087
-386.004	83.894	0.164	-0.179
-384.990	-200.000	-0.024	0.118
-383.975	800.000	0.032	0.102
-382.960	-86.573	0.219	-0.067
-381.946	527.633	0.052	-0.122
-380.931	-200.000	0.005	0.034
-379.917	-94.350	0.184	0.050
-378.902	-6.610	-0.075	-0.051
-377.888	14.335	-0.108	0.085
-376.873	-118.695	0.295	-0.052
-375.858	784.686	-0.127	0.349
-374.844	5.041	0.211	0.155
-373.829	-16.800	-0.150	0.095
-372.815	-200.000	-0.080	0.448
-371.800	22.607	-0.045	0.037
-370.785	-200.000	-0.007	-0.273
-369.771	-78.777	-0.181	0.062
-368.756	800.000	0.060	0.261
-367.742	-162.912	0.072	0.003
-366.727	800.000	-0.079	0.287
-365.712	-200.000	0.012	0.285
-364.698	479.262	-0.095	-0.214
-363.683	86.189	-0.045	-0.049
-362.669	-2.897	0.200	0.140
-361.654	-200.000	0.046	0.236
-360.639	-101.118	0.156	0.038
-359.625	125.837	-0.069	-0.087
-358.610	800.000	0.047	0.199
-357.596	738.711	-0.078	0.209
-356.581	-100.280	0.269	-0.067
-355.566	-200.000	-0.038	0.248
-354.552	-200.000	-0.003	0.180
-353.537	-200.000	0.030	-0.259
-352.523	-200.000	-0.001	0.014
-351.508	24.439	0.326	-0.269
-350.493	800.000	0.041	0.118
-349.479	676.446	-0.029	0.074
-348.464	-17.968	-0.200	-0.125
-347.450	-160.561	0.193	-0.010
-346.435	-126.799	0.148	0.022
-345.420	126.290	-0.090	0.114
-344.406	-65.056	-0.181	0.073
-343.391	52.561	0.219	-0.209
-342.377	127.411	0.034	-0.043
-341.362	250.732	-0.028	0.048
-340.348	-54.860	-0.440	-0.198
-339.333	188.753	-0.009	0.014
-338.318	-89.598	0.183	-0.054
-337.304	420.717	0.117	-0.250
-336.289	-79.921	-0.146	0.049
-335.275	302.871	0.119	0.219
-334.260	684.611	-0.167	-0.435
-333.245	-105.645	-0.139	0.031
-332.231	-69.257	0.167	0.064
-331.216	-72.521	0.212	0.078
-330.202	-200.000	0.047	-0.243
-329.187	-94.785	-0.319	0.086
-328.172	800.000	0.086	-0.264
-327.158	658.824	-0.045	-0.116
-326.143	13.344	-0.231	-0.179
-325.129	-200.000	0.007	-0.116
-324.114	800.000	-0.096	0.407
-323.099	-100.791	0.111	0.027
-322.085	800.000	0.107	-0.380
-321.070	11.390	-0.110	-0.084
-320.056	338.165	-0.034	0.067
-319.041	82.074	0.080	0.086
-318.026	-57.047	-0.468	0.206
-317.012	339.688	-0.070	0.137
-315.997	-154.062	-0.078	-0.005
-314.983	-103.920	-0.078	-0.018
-313.968	800.000	-0.021	-0.079
-312.953	-47.632	0.195	0.095
-311.939	-200.000	-0.012	0.116
-310.924	-107.786	0.207	0.045
-309.910	-35.960	0.177	-0.096
-308.895	2.208	0.260	0.188
-307.880	-200.000	0.028	0.173
-306.866	-200.000	0.009	-0.043
-305.851	-124.453	-0.275	0.043
-304.837	-77.187	0.091	0.032
-303.822	-145.927	0.144	-0.013
-302.807	226.735	-0.112	0.181
-301.793	134.196	0.202	0.262
-300.778	-36.161	0.188	0.101
-299.764	-62.226	-0.268	0.111
-298.749	-200.000	-0.002	-0.041
-297.735	19.946	-0.150	-0.120
-296.720	380.917	0.052	0.106
-295.705	-15.563	-0.168	-0.107
-294.691	-200.000	0.068	0.327
-293.676	-57.490	-0.153	-0.067
-292.662	141.105	0.025	-0.032
-291.647	40.601	0.120	0.108
-290.632	-4.677	-0.234	0.161
-289.618	-200.000	0.024	0.173
-288.603	368.820	0.066	-0.132
-287.589	244.482	0.172	-0.288
-286.574	-200.000	-0.007	-0.131
-285.559	-33.687	0.251	0.138
-284.545	-200.000	0.058	0.399
-283.530	-26.995	0.190	-0.110
-282.516	-10.806	0.159	0.105
-281.501	350.513	-0.160	-0.315
-280.486	-59.067	0.225	0.097
-279.472	-200.000	0.032	0.285
-278.457	-183.830	0.057	0.001
-277.443	2.587	0.160	-0.115
-276.428	-103.199	0.124	-0.029
-275.413	-28.520	-0.331	0.190
-274.399	-75.618	0.391	-0.139
-273.384	162.957	0.106	0.148
-272.370	683.931	-0.023	0.061
-271.355	800.000	0.063	-0.199
-270.340	6.237	-0.336	-0.248
-269.326	800.000	-0.037	-0.144
-268.311	-200.000	0.021	-0.090
-267.297	-123.284	-0.225	-0.036
-266.282	-103.164	0.123	0.029
-265.267	253.019	-0.087	0.147
-264.253	67.250	-0.139	-0.141
-263.238	-85.354	0.137	-0.043
-262.224	-109.439	-0.243	0.051
-261.209	-200.000	-0.057	0.309
-260.195	90.899	0.189	0.211
-259.180	-86.132	0.266	0.082
-258.165	-176.498	-0.194	-0.005
-257.151	-200.000	0.012	0.079
-256.136	606.775	0.047	0.118
-255.122	640.501	-0.100	0.253
-254.107	-200.000	-0.010	0.053
-253.092	-200.000	0.041	-0.257
-252.078	-13.127	0.048	0.031
-251.063	-99.354	0.237	0.059
-250.049	-200.000	-0.029	0.332
-249.034	800.000	-0.029	-0.123
-248.019	27.280	-0.187	0.156
-247.005	163.889	-0.092	-0.129
-245.990	-117.954	0.227	-0.040
-244.976	-12.924	0.270	0.175
-243.961	800.000	0.092	-0.318
-242.946	-49.117	-0.419	-0.200
-241.932	800.000	-0.069	0.240
-240.917	-14.970	0.127	-0.081
-239.903	250.252	0.071	-0.120
-238.888	-113.283	-0.466	0.091
-237.873	23.097	-0.081	0.066
-236.859	217.129	-0.024	-0.038
-235.844	800.000	0.036	0.126
-234.830	-99.557	-0.269	-0.067
-233.815	-19.651	-0.271	0.167
-232.800	-157.901	-0.165	0.010
-231.786	20.711	-0.124	-0.100
-230.771	-96.371	0.169	0.045
-229.757	-54.666	-0.089	0.040
-228.742	-98.828	-0.134	-0.034
-227.727	174.552	-0.068	-0.097
-226.713	800.000	-0.053	-0.201
-225.698	-111.534	0.301	0.061
-224.684	800.000	-0.018	-0.064
-223.669	284.138	-0.064	-0.114
-222.655	114.610	0.111	0.135
-221.640	250.207	0.119	-0.200
-220.625	-123.496	0.264	0.042
-219.611	31.637	-0.151	-0.129
-218.596	-34.025	-0.196	-0.107
-217.582	-200.000	0.008	0.163
-216.567	-35.208	0.291	0.158
-215.552	252.869	-0.018	-0.031
-214.538	297.627	0.107	-0.196
-213.523	522.521	-0.075	-0.175
-212.509	-51.620	0.163	0.075
-211.494	160.038	0.226	0.313
-210.479	193.440	0.030	-0.045
-209.465	42.107	0.078	-0.070
-208.450	-5.854	0.173	-0.118
-207.436	8.625	-0.255	-0.191
-206.421	104.015	0.407	-0.475
-205.406	-200.000	0.007	0.083
-204.392	457.754	-0.106	-0.235
-203.377	-107.175	0.276	0.060
-202.363	-25.276	0.221	0.130
-201.348	-138.140	0.303	0.033
-200.333	161.162	0.090	-0.125
-199.319	-73.205	-0.155	-0.056
-198.304	-200.000	0.049	-0.312
-197.290	-200.000	-0.047	-0.223
-196.275	24.714	0.228	-0.188
-195.260	417.153	-0.063	0.134
-194.246	800.000	-0.055	-0.227
-193.231	-200.000	0.022	-0.514
-192.217	-80.466	0.120	-0.040
-191.202	-200.000	0.013	-0.258
-190.187	-200.000	-0.071	-0.322
-189.173	89.868	0.184	0.204
-188.158	116.312	0.232	0.282
-187.144	-188.773	0.213	0.003
-186.129	-200.000	-0.005	0.143
-185.114	-200.000	0.015	-0.097
-184.100	5.524	-0.076	0.056
-183.085	-162.754	0.246	-0.012
-182.071	-200.000	0.035	-0.240
-181.056	38.696	-0.243	-0.216
-180.042	173.296	0.147	-0.210
-179.027	-142.871	0.104	0.010
-178.012	141.207	0.149	-0.195
-176.998	-200.000	0.016	0.133
-175.983	114.304	-0.057	0.069
-174.969	800.000	-0.069	0.231
-173.954	-95.970	0.132	-0.035
-172.939	58.817	0.221	0.216
-171.925	-167.530	0.260	0.010
-170.910	-85.766	-0.196	0.060
-169.896	-168.252	-0.149	-0.006
-168.881	770.452	0.088	0.239
-167.866	-200.000	0.029	0.131
-166.852	571.902	-0.030	0.072
-165.837	318.947	0.095	-0.179
-164.823	-119.776	-0.250	0.043
-163.808	-45.392	-0.289	-0.142
-162.793	-2.568	-0.088	0.061
-161.779	-132.376	0.134	0.017
-160.764	-200.000	0.028	0.218
-159.750	389.149	-0.079	0.161
-158.735	4.290	0.065	-0.047
-157.720	-69.707	-0.025	0.010
-156.706	-200.000	-0.062	-0.402
-155.691	-200.000	0.017	-0.318
-154.677	126.909	-0.041	-0.051
-153.662	-200.000	-0.015	0.071
-152.647	-143.870	-0.456	0.043
-151.633	-78.959	0.115	0.039
-150.618	629.817	-0.098	0.244
-149.604	96.858	-0.033	-0.038
-148.589	-200.000	0.064	0.305
-147.574	-200.000	-0.018	0.107
-146.560	142.212	-0.089	-0.117
-145.545	800.000	-0.089	0.254
-144.531	-153.335	0.337	-0.023
-143.516	-200.000	0.011	0.406
-142.502	61.693	0.242	-0.239
-141.487	-78.548	-0.133	0.045
-140.472	33.663	-0.087	-0.075
-139.458	-200.000	0.028	-0.452
-138.443	-121.542	-0.265	0.044
-137.429	319.214	-0.089	-0.168
-136.414	-143.969	0.198	0.018
-135.399	173.232	-0.195	0.278
-134.385	-32.767	-0.358	-0.197
-133.370	-96.872	0.155	0.040
-132.356	800.000	-0.046	-0.165
-131.341	-172.024	-0.151	-0.005
-130.326	397.569	0.178	0.369
-129.312	-137.850	0.179	0.020
-128.297	-59.238	-0.337	0.144
-127.283	449.458	-0.034	-0.075
-126.268	186.026	-0.157	-0.232
-125.253	37.749	0.298	0.262
-124.239	800.000	0.043	0.176
-123.224	117.211	-0.184	-0.224
-122.210	-200.000	0.031	-0.180
