DTS Sentinel unit serial number:	SN413079Multiplexer serial number:	ORYXHardware model number:	OX4-SRSoftware version number:	ORYX F/W v4.00 Oryx Data Collector v3.7.2.0data status	okinstallation	princeton_trtdifferential loss correction	single-endedforward channel	channel 1reverse channel	N/Adate	2019/09/12time	21:54:35forward acquisition time	60.00reverse acquisition time	0.00gamma	496.2192k internal	0.2326k external	0.2326temperature offset calibration	1.0150default loss term (dB/km)	0.3790temperature slope calibration	1.0000multiplexer offset coefficient	1.0000multiplexer slope coefficient	1.0000fibre end	0.00T internal ref (°C)	30.14T ext. ref 1 (°C)	3.73T ext. ref 2 (°C)	24.73length (m)	temperature (°C)	Stokes	anti-Stokes-747.200	-200.000	0.053	-0.239
-746.185	4.707	0.160	-0.119
-745.171	16.805	0.144	-0.115
-744.156	-30.707	-0.094	0.054
-743.142	800.000	0.084	-0.367
-742.127	15.116	0.287	0.227
-741.112	61.188	0.083	-0.083
-740.098	-200.000	0.016	-0.084
-739.083	-76.549	-0.207	0.073
-738.069	-132.986	-0.477	0.061
-737.054	374.139	-0.167	0.343
-736.039	-41.952	-0.148	0.076
-735.025	-200.000	-0.002	0.040
-734.010	-46.061	-0.074	0.037
-732.996	-200.000	-0.048	-0.225
-731.981	43.730	-0.134	-0.124
-730.966	-95.062	0.145	-0.040
-729.952	39.742	-0.045	-0.041
-728.937	-97.463	-0.453	0.119
-727.923	-167.389	-0.280	0.011
-726.908	800.000	0.030	-0.088
-725.894	31.179	0.079	-0.069
-724.879	800.000	-0.053	-0.187
-723.864	18.358	-0.253	-0.204
-722.850	182.646	0.140	-0.208
-721.835	549.387	-0.097	-0.235
-720.821	129.201	0.070	0.089
-719.806	-200.000	-0.003	0.077
-718.791	373.626	-0.083	-0.169
-717.777	-15.822	-0.184	0.118
-716.762	495.204	0.164	-0.380
-715.748	643.881	0.104	0.267
-714.733	711.099	0.092	0.245
-713.718	-9.862	-0.214	-0.144
-712.704	-200.000	0.074	0.388
-711.689	4.783	-0.001	0.001
-710.675	800.000	-0.045	-0.140
-709.660	656.338	0.009	0.024
-708.645	38.262	-0.157	-0.141
-707.631	-200.000	-0.042	0.232
-706.616	109.861	-0.147	-0.178
-705.602	105.598	0.162	-0.193
-704.587	24.435	-0.147	0.122
-703.572	-162.452	-0.132	0.007
-702.558	800.000	0.112	-0.319
-701.543	401.927	0.156	0.330
-700.529	-95.273	-0.383	0.104
-699.514	-125.719	0.195	-0.030
-698.499	77.373	-0.095	0.102
-697.485	-22.386	-0.170	-0.103
-696.470	-200.000	0.027	-0.188
-695.456	-200.000	0.010	0.356
-694.441	-195.996	-0.054	0.000
-693.426	23.854	0.227	0.189
-692.412	156.005	-0.128	-0.178
-691.397	-105.970	-0.190	0.043
-690.383	-200.000	-0.047	-0.226
-689.368	-200.000	0.006	-0.110
-688.354	-39.424	-0.255	0.135
-687.339	77.986	-0.140	-0.151
-686.324	-200.000	-0.050	-0.418
-685.310	-49.640	-0.427	-0.204
-684.295	-35.147	0.086	0.047
-683.281	9.921	0.147	-0.113
-682.266	1.972	-0.319	-0.232
-681.251	-200.000	-0.020	-0.257
-680.237	-139.960	0.128	-0.014
-679.222	-160.817	-0.186	-0.010
-678.208	535.106	0.094	-0.224
-677.193	178.339	-0.230	-0.337
-676.178	27.356	0.326	0.276
-675.164	-54.068	0.050	-0.023
-674.149	646.403	-0.072	-0.185
-673.135	-128.119	-0.144	-0.021
-672.120	-67.977	-0.182	0.072
-671.105	-67.368	0.344	0.136
-670.091	133.783	-0.014	0.018
-669.076	-73.932	0.054	0.020
-668.062	-153.545	-0.469	0.033
-667.047	355.061	0.022	0.044
-666.032	734.196	0.091	-0.244
-665.018	-200.000	-0.021	-0.264
-664.003	641.054	0.086	0.221
-662.989	-200.000	-0.083	-0.499
-661.974	-200.000	0.054	-0.506
-660.959	28.413	-0.251	-0.213
-659.945	150.297	0.023	0.032
-658.930	-189.509	0.378	-0.004
-657.916	-19.141	0.255	-0.159
-656.901	-200.000	-0.068	0.311
-655.886	-17.547	0.089	0.056
-654.872	-138.574	-0.277	0.030
-653.857	-143.354	0.367	0.035
-652.843	-152.849	-0.253	0.018
-651.828	-103.301	0.115	-0.027
-650.814	-200.000	-0.001	-0.082
-649.799	-200.000	-0.006	-0.289
-648.784	-96.893	0.226	0.060
-647.770	800.000	0.089	0.271
-646.755	-155.445	0.275	0.018
-645.741	296.917	-0.142	-0.263
-644.726	127.256	0.245	0.312
-643.711	145.562	-0.159	0.214
-642.697	277.080	-0.079	0.141
-641.682	-79.579	-0.151	0.051
-640.668	-200.000	0.038	0.193
-639.653	-200.000	0.046	-0.232
-638.638	-200.000	-0.037	-0.215
-637.624	800.000	-0.083	0.353
-636.609	49.947	-0.197	-0.187
-635.595	-200.000	-0.019	-0.165
-634.580	800.000	0.086	0.241
-633.565	26.390	-0.109	0.091
-632.551	2.996	0.225	-0.164
-631.536	-137.125	-0.081	0.009
-630.522	800.000	-0.103	-0.417
-629.507	1.935	0.195	-0.141
-628.492	477.149	0.063	-0.143
-627.478	750.159	0.030	0.081
-626.463	775.171	0.050	0.136
-625.449	-200.000	-0.022	0.168
-624.434	109.442	0.156	0.187
-623.419	-35.770	0.194	-0.106
-622.405	800.000	0.161	-0.582
-621.390	-134.062	0.263	0.033
-620.376	11.212	0.055	-0.042
-619.361	315.571	-0.201	-0.381
-618.346	-116.951	0.107	-0.020
-617.332	-41.115	-0.117	-0.061
-616.317	-200.000	-0.028	0.215
-615.303	-200.000	-0.002	-0.074
-614.288	205.149	-0.045	-0.070
-613.273	800.000	0.037	-0.132
-612.259	-163.954	-0.204	0.010
-611.244	-98.927	-0.214	-0.054
-610.230	800.000	0.093	-0.302
-609.215	-47.523	0.084	0.041
-608.201	-200.000	0.002	0.019
-607.186	75.120	-0.299	0.316
-606.171	-25.305	0.206	0.122
-605.157	-24.010	0.242	0.145
-604.142	126.867	-0.162	0.206
-603.128	800.000	0.069	0.236
-602.113	200.735	-0.198	-0.305
-601.098	-52.184	0.387	-0.180
-600.084	-200.000	0.003	-0.229
-599.069	-70.519	-0.122	-0.046
-598.055	168.237	0.264	-0.377
-597.040	13.034	0.144	-0.112
-596.025	-129.901	-0.274	0.038
-595.011	-98.577	0.253	-0.065
-593.996	-21.292	-0.407	-0.249
-592.982	-83.255	-0.094	0.030
-591.967	-139.846	-0.061	-0.006
-590.952	53.516	0.116	0.111
-589.938	800.000	-0.015	0.045
-588.923	-49.549	-0.263	0.126
-587.909	93.936	-0.032	0.036
-586.894	101.497	-0.242	-0.283
-585.879	-200.000	-0.007	-0.072
-584.865	127.654	0.274	0.348
-583.850	-200.000	-0.031	0.155
-582.836	28.771	-0.059	0.050
-581.821	-14.917	0.090	0.058
-580.806	-109.687	0.104	-0.022
-579.792	52.754	0.188	-0.180
-578.777	441.427	0.130	-0.285
-577.763	-200.000	-0.067	-0.361
-576.748	-56.387	0.123	0.055
-575.733	-6.671	-0.099	-0.068
-574.719	800.000	0.038	0.127
-573.704	-154.677	0.263	-0.017
-572.690	-122.076	0.054	0.009
-571.675	-97.388	-0.170	-0.044
-570.661	11.371	-0.117	-0.090
-569.646	-49.122	0.140	0.067
-568.631	172.823	-0.149	-0.215
-567.617	21.729	0.238	0.194
-566.602	229.318	0.149	0.243
-565.588	132.990	0.178	-0.230
-564.573	180.325	0.123	0.181
-563.558	-63.270	0.079	0.032
-562.544	27.456	-0.410	0.345
-561.529	-200.000	-0.034	-0.294
-560.515	-131.236	0.123	-0.016
-559.500	46.046	-0.152	-0.141
-558.485	-141.576	0.129	0.013
-557.471	-47.917	-0.232	-0.112
-556.456	800.000	-0.069	0.203
-555.442	-110.488	0.194	-0.040
-554.427	68.818	-0.178	0.183
-553.412	35.982	-0.300	0.264
-552.398	-200.000	-0.041	-0.358
-551.383	94.482	0.171	0.195
-550.369	114.387	-0.145	-0.177
-549.354	-112.255	0.402	-0.081
-548.339	-19.879	0.161	0.100
-547.325	800.000	0.084	-0.323
-546.310	-24.626	0.138	0.082
-545.296	215.428	-0.167	0.265
-544.281	20.858	0.104	0.085
-543.266	-200.000	-0.000	0.118
-542.252	-200.000	-0.030	0.254
-541.237	-39.751	-0.170	-0.089
-540.223	0.246	-0.056	-0.040
-539.208	91.809	0.112	-0.126
-538.193	-120.755	0.164	-0.028
-537.179	800.000	0.045	0.169
-536.164	57.482	-0.064	0.062
-535.150	69.217	0.075	-0.078
-534.135	-135.095	-0.067	0.008
-533.121	-17.462	0.119	0.075
-532.106	92.683	-0.136	-0.154
-531.091	-52.206	0.044	0.021
-530.077	-200.000	0.140	0.616
-529.062	-200.000	-0.021	-0.394
-528.048	94.045	-0.226	-0.256
-527.033	-152.602	-0.150	0.011
-526.018	-185.157	-0.044	0.001
-525.004	616.937	0.066	-0.164
-523.989	608.172	0.042	-0.104
-522.975	28.005	-0.217	-0.183
-521.960	-200.000	-0.045	0.223
-520.945	-146.382	0.227	-0.020
-519.931	-49.716	0.178	0.085
-518.916	36.899	-0.207	0.183
-517.902	-200.000	-0.042	-0.468
-516.887	205.976	-0.193	0.300
-515.872	-158.015	-0.258	-0.015
-514.858	-3.377	0.223	-0.155
-513.843	12.801	0.192	-0.149
-512.829	30.311	-0.265	0.226
-511.814	-128.739	-0.162	-0.023
-510.799	302.142	-0.041	-0.076
-509.785	315.040	-0.023	0.044
-508.770	141.006	-0.263	-0.347
-507.756	800.000	0.018	0.055
-506.741	-62.469	0.299	0.124
-505.726	118.143	-0.026	0.032
-504.712	-116.677	0.386	-0.071
-503.697	24.504	0.311	-0.257
-502.683	497.750	0.084	0.193
-501.668	117.486	-0.130	-0.160
-500.653	-80.631	-0.170	0.057
-499.639	800.000	-0.056	-0.185
-498.624	-171.008	-0.285	0.010
-497.610	132.940	-0.108	-0.139
-496.595	-200.000	-0.006	0.134
-495.581	12.449	0.085	-0.066
-494.566	-26.043	-0.263	-0.155
-493.551	53.762	-0.025	-0.024
-492.537	785.806	0.035	-0.096
-491.522	-200.000	-0.006	0.150
-490.508	-81.351	0.153	-0.050
-489.493	621.891	-0.119	-0.299
-488.478	-41.258	-0.154	-0.079
-487.464	117.985	-0.136	0.167
-486.449	6.896	0.120	-0.089
-485.435	122.425	-0.134	-0.168
-484.420	-130.424	-0.301	-0.041
-483.405	-137.308	-0.112	-0.013
-482.391	-118.345	-0.041	-0.007
-481.376	20.837	-0.162	-0.131
-480.362	381.637	0.156	0.319
-479.347	241.711	0.087	-0.145
-478.332	-166.807	0.078	-0.003
-477.318	-102.468	0.224	0.053
-476.303	127.260	-0.144	0.183
-475.289	-86.291	0.203	-0.062
-474.274	698.824	-0.159	-0.418
-473.259	-15.997	-0.091	-0.058
-472.245	201.761	0.223	0.342
-471.230	15.300	-0.092	-0.072
-470.216	800.000	-0.025	0.081
-469.201	-200.000	0.002	0.252
-468.186	-121.689	0.186	-0.031
-467.172	-107.307	-0.442	-0.097
-466.157	-200.000	-0.018	0.178
-465.143	299.801	0.077	-0.141
-464.128	800.000	-0.062	0.234
-463.113	419.572	-0.031	0.065
-462.099	-200.000	0.029	0.128
-461.084	-104.163	0.433	-0.100
-460.070	-137.219	0.078	-0.009
-459.055	-35.469	-0.181	0.098
-458.040	589.987	0.111	0.272
-457.026	-104.586	-0.521	0.120
-456.011	16.344	0.415	0.327
-454.997	24.760	0.051	0.042
-453.982	-200.000	0.063	-0.399
-452.968	-40.021	0.202	-0.105
-451.953	39.615	-0.268	0.240
-450.938	800.000	-0.040	0.115
-449.924	66.275	-0.065	0.066
-448.909	-15.813	-0.429	-0.272
-447.895	196.582	-0.168	0.255
-446.880	-120.221	0.542	0.092
-445.865	-157.513	-0.178	-0.011
-444.851	-68.291	0.052	0.020
-443.836	60.081	-0.041	-0.040
-442.822	-105.933	0.303	0.068
-441.807	-48.966	-0.188	-0.090
-440.792	-3.166	-0.330	0.229
-439.778	5.468	-0.124	0.092
-438.763	-10.039	-0.030	-0.020
-437.749	-69.751	-0.343	0.131
-436.734	-78.956	0.186	-0.063
-435.719	-127.015	-0.032	-0.005
-434.705	-130.331	0.125	-0.017
-433.690	643.320	-0.093	-0.237
-432.676	-45.221	-0.139	-0.069
-431.661	-121.464	0.235	0.039
-430.646	-56.705	-0.198	-0.087
-429.632	333.068	0.095	0.183
-428.617	39.811	-0.108	0.096
-427.603	37.452	-0.064	0.057
-426.588	269.453	0.264	0.461
-425.573	-122.262	-0.296	-0.048
-424.559	-16.981	-0.348	-0.219
-423.544	800.000	0.058	0.237
-422.530	57.188	-0.410	0.399
-421.515	-71.635	0.175	-0.065
-420.500	-91.267	0.264	-0.075
-419.486	-200.000	0.009	0.169
-418.471	99.219	-0.132	-0.152
-417.457	-145.384	-0.137	-0.012
-416.442	-98.742	0.502	-0.127
-415.428	-2.056	-0.371	-0.260
-414.413	-200.000	0.004	0.192
-413.398	800.000	-0.021	0.059
-412.384	54.918	-0.381	-0.366
-411.369	-90.882	0.135	0.039
-410.355	-138.165	0.367	0.040
-409.340	-97.670	-0.136	-0.035
-408.325	232.576	-0.186	0.305
-407.311	331.582	0.069	-0.133
-406.296	428.798	0.070	0.150
-405.282	-32.885	-0.201	-0.111
-404.267	-189.617	0.241	0.003
-403.252	-75.148	-0.310	0.110
-402.238	8.837	-0.173	-0.130
-401.223	-29.447	-0.287	-0.163
-400.209	-151.482	0.311	-0.023
-399.194	-62.005	-0.236	0.098
-398.179	-60.450	0.125	0.053
-397.165	302.514	0.051	-0.094
-396.150	176.196	0.106	-0.153
-395.136	-66.102	-0.184	0.073
-394.121	215.031	0.076	-0.120
-393.106	559.669	0.025	-0.061
-392.092	114.563	-0.327	-0.396
-391.077	-200.000	0.023	0.132
-390.063	84.449	-0.054	-0.059
-389.048	121.082	-0.154	-0.190
-388.033	368.476	-0.135	0.272
-387.019	800.000	-0.045	0.179
-386.004	428.786	0.085	-0.183
-384.990	121.424	0.069	-0.086
-383.975	-105.223	-0.469	-0.106
-382.960	-200.000	-0.022	-0.317
-381.946	-200.000	-0.007	0.104
-380.931	-162.855	-0.168	-0.008
-379.917	193.216	-0.156	-0.234
-378.902	3.512	0.119	-0.087
-377.888	-131.680	-0.187	-0.024
-376.873	-200.000	-0.066	-0.320
-375.858	68.204	0.215	-0.219
-374.844	-125.740	0.406	-0.061
-373.829	-200.000	-0.010	0.052
-372.815	258.044	-0.175	-0.300
-371.800	800.000	0.060	0.250
-370.785	202.529	-0.243	-0.373
-369.771	293.121	-0.210	-0.380
-368.756	-85.935	0.490	0.151
-367.742	-200.000	-0.007	0.048
-366.727	502.534	0.239	0.548
-365.712	-84.612	0.294	0.092
-364.698	800.000	-0.031	0.103
-363.683	-200.000	0.015	-0.273
-362.669	249.722	0.091	0.153
-361.654	-200.000	0.015	-0.105
-360.639	800.000	-0.049	0.197
-359.625	-200.000	0.011	0.214
-358.610	-110.569	-0.130	-0.027
-357.596	-133.229	-0.111	-0.014
-356.581	-86.892	0.156	0.047
-355.566	-137.119	0.205	0.023
-354.552	-53.531	0.256	0.116
-353.537	667.206	0.042	-0.108
-352.523	70.465	0.290	0.298
-351.508	739.169	0.010	-0.028
-350.493	-200.000	-0.018	0.130
-349.479	-18.343	0.032	-0.020
-348.464	718.298	-0.026	-0.069
-347.450	-56.972	0.270	-0.118
-346.435	85.226	-0.218	-0.237
-345.420	-200.000	-0.056	0.524
-344.406	-200.000	0.053	-0.398
-343.391	80.566	0.079	0.085
-342.377	-200.000	0.013	0.073
-341.362	89.395	-0.065	-0.072
-340.348	81.589	-0.130	0.139
-339.333	-114.667	-0.104	0.020
-338.318	430.813	0.145	0.313
-337.304	100.335	-0.143	0.165
-336.289	-14.414	-0.183	0.117
-335.275	37.880	-0.169	-0.149
-334.260	-200.000	-0.026	-0.177
-333.245	-5.887	-0.192	-0.130
-332.231	189.026	0.179	-0.266
-331.216	-184.093	-0.291	-0.005
-330.202	396.316	0.154	-0.319
-329.187	-78.505	-0.222	0.075
-328.172	235.357	0.075	-0.122
-327.158	-42.908	-0.167	-0.084
-326.143	800.000	0.079	0.293
-325.129	-71.731	0.396	-0.147
-324.114	5.102	-0.085	0.062
-323.099	-85.300	0.034	-0.011
-322.085	800.000	0.045	0.180
-321.070	-61.560	-0.145	-0.060
-320.056	-33.676	-0.262	0.144
-319.041	399.608	0.151	0.313
-318.026	-44.185	0.169	0.084
-317.012	-56.271	-0.146	0.064
-315.997	-91.882	0.322	0.090
-314.983	37.211	0.068	0.060
-313.968	-165.492	0.452	-0.020
-312.953	-129.172	0.273	0.038
-311.939	370.201	0.200	0.401
-310.924	-200.000	-0.039	0.210
-309.910	-46.004	-0.215	-0.105
-308.895	85.071	-0.177	-0.193
-307.880	800.000	-0.130	-0.446
-306.866	782.287	-0.070	0.190
-305.851	46.706	0.048	0.045
-304.837	178.486	0.212	0.306
-303.822	-130.783	0.273	-0.036
-302.807	-200.000	0.008	0.066
-301.793	-97.883	0.186	0.048
-300.778	138.316	0.311	0.404
-299.764	3.841	0.111	-0.080
-298.749	-76.866	-0.252	0.087
-297.735	-76.520	0.131	-0.046
-296.720	304.594	-0.103	0.189
-295.705	94.539	-0.173	-0.195
-294.691	-35.862	0.299	-0.160
-293.676	40.552	-0.278	-0.248
-292.662	12.579	-0.193	-0.148
-291.647	-46.331	0.163	-0.079
-290.632	-77.644	0.321	-0.110
-289.618	335.224	0.045	0.086
-288.603	-108.306	0.279	0.060
-287.589	-200.000	-0.034	-0.502
-286.574	-23.000	-0.143	-0.085
-285.559	-200.000	-0.018	0.132
-284.545	-105.470	0.119	0.027
-283.530	-51.448	-0.240	-0.111
-282.516	-142.900	-0.201	-0.019
-281.501	-200.000	0.003	-0.279
-280.486	-92.472	0.351	-0.098
-279.472	58.805	-0.185	0.180
-278.457	-91.925	0.027	-0.007
-277.443	81.253	-0.235	0.252
-276.428	-143.240	-0.280	0.027
-275.413	213.517	-0.140	-0.218
-274.399	800.000	0.074	-0.319
-273.384	143.871	0.115	-0.152
-272.370	53.204	-0.189	-0.180
-271.355	800.000	-0.104	-0.292
-270.340	328.136	0.074	-0.141
-269.326	-96.216	-0.306	0.080
-268.311	-200.000	-0.018	0.312
-267.297	-85.427	-0.186	-0.057
-266.282	-16.404	-0.160	0.101
-265.267	-200.000	-0.044	0.282
-264.253	-22.977	0.295	0.176
-263.238	-132.364	-0.198	0.025
-262.224	27.959	-0.260	-0.217
-261.209	50.505	0.131	-0.122
-260.195	157.797	-0.119	0.163
-259.180	65.354	0.016	0.016
-258.165	-125.120	0.303	-0.046
-257.151	-104.449	0.292	0.067
-256.136	-200.000	-0.019	-0.183
-255.122	-15.338	0.137	0.087
-254.107	38.076	-0.203	-0.179
-253.092	185.730	-0.168	0.246
-252.078	308.246	0.035	-0.065
-251.063	-70.940	0.334	-0.124
-250.049	-15.724	0.373	-0.235
-249.034	355.776	-0.033	-0.065
-248.019	162.030	0.175	0.242
-247.005	800.000	-0.069	-0.249
-245.990	-93.440	0.416	-0.114
-244.976	-200.000	-0.013	0.200
-243.961	436.148	-0.034	-0.072
-242.946	-127.103	0.183	-0.027
-241.932	-200.000	0.002	0.136
-240.917	19.175	0.377	0.299
-239.903	405.085	-0.135	0.282
-238.888	-200.000	0.008	0.471
-237.873	-200.000	0.059	0.345
-236.859	177.885	0.062	-0.090
-235.844	129.591	0.135	0.170
-234.830	22.249	0.261	0.210
-233.815	-45.555	0.090	-0.044
-232.800	67.612	-0.331	0.334
-231.786	431.986	-0.106	0.227
-230.771	-45.273	-0.162	0.080
-229.757	81.519	-0.239	-0.256
-228.742	77.855	-0.104	0.110
-227.727	178.060	-0.207	0.298
-226.713	638.335	0.071	-0.178
-225.698	-125.704	0.311	0.047
-224.684	-128.404	0.109	0.015
-223.669	-101.595	-0.160	0.038
-222.655	125.138	0.162	0.201
-221.640	-200.000	-0.028	-0.154
-220.625	800.000	-0.023	0.070
-219.611	-200.000	-0.018	0.225
-218.596	-45.033	-0.083	-0.041
-217.582	14.725	0.107	-0.083
-216.567	102.257	0.041	0.047
-215.552	246.788	0.182	-0.303
-214.538	650.725	0.105	0.267
-213.523	-46.717	0.162	-0.078
-212.509	1.889	-0.143	-0.102
-211.494	-42.333	-0.060	-0.030
-210.479	-108.940	-0.183	0.039
-209.465	341.862	-0.061	-0.118
-208.450	800.000	0.011	-0.043
-207.436	-74.292	-0.145	-0.052
-206.421	52.197	0.140	-0.132
-205.406	-138.963	0.071	-0.008
-204.392	113.320	0.147	0.176
-203.377	-31.257	0.081	-0.045
-202.363	-200.000	-0.007	0.320
-201.348	-178.420	0.140	0.003
-200.333	50.323	0.166	0.154
-199.319	-120.903	-0.040	0.007
-198.304	-200.000	0.040	-0.224
-197.290	192.611	0.053	-0.079
-196.275	170.766	0.114	-0.162
-195.260	445.502	0.095	0.206
-194.246	-4.210	-0.108	0.074
-193.231	-64.397	-0.432	0.174
-192.217	-77.185	-0.124	0.043
-191.202	-200.000	0.061	-0.293
-190.187	30.738	-0.067	0.056
-189.173	-146.157	-0.216	0.019
-188.158	-200.000	0.014	0.171
-187.144	800.000	0.066	-0.238
-186.129	16.320	0.294	-0.229
-185.114	467.849	-0.105	-0.232
-184.100	72.967	-0.063	-0.064
-183.085	209.385	-0.168	-0.260
-182.071	443.152	0.085	-0.183
-181.056	589.796	0.050	-0.122
-180.042	58.028	-0.159	0.154
-179.027	-38.628	-0.161	-0.084
-178.012	-0.809	0.226	0.158
-176.998	-68.406	0.238	0.091
-175.983	-102.633	0.282	0.066
-174.969	-200.000	-0.010	-0.164
-173.954	-110.075	-0.193	0.040
-172.939	-36.209	0.146	-0.078
-171.925	-189.403	0.151	-0.002
-170.910	17.563	0.061	0.048
-169.896	800.000	-0.077	-0.320
-168.881	3.236	-0.061	0.044
-167.866	-82.440	-0.093	-0.030
-166.852	-200.000	0.041	0.231
-165.837	-19.491	-0.200	-0.122
-164.823	-94.556	-0.244	0.066
-163.808	59.142	-0.252	0.245
-162.793	-118.355	0.065	0.011
-161.779	-15.318	-0.179	0.113
-160.764	-57.783	0.458	0.198
-159.750	-57.614	-0.140	-0.061
-158.735	131.829	0.034	-0.043
-157.720	73.232	0.022	-0.023
-156.706	-200.000	0.078	0.341
-155.691	-149.516	-0.185	0.014
-154.677	499.544	0.177	0.402
-153.662	66.065	-0.087	-0.087
-152.647	-109.510	-0.281	-0.058
-151.633	94.540	0.225	0.252
-150.618	-98.577	-0.185	0.047
-149.604	30.875	0.336	-0.284
-148.589	-99.413	-0.405	0.100
-147.574	459.657	0.061	-0.134
-146.560	-101.867	-0.173	0.041
-145.545	175.797	-0.259	-0.370
-144.531	533.801	0.054	-0.125
-143.516	-65.931	-0.248	0.098
-142.502	800.000	0.045	0.164
-141.487	-50.806	0.167	0.077
-140.472	-144.754	-0.033	-0.003
-139.458	800.000	-0.042	0.139
-138.443	-3.567	-0.154	-0.105
-137.429	-200.000	0.021	0.198
-136.414	191.490	-0.072	-0.107
-135.399	159.095	-0.051	0.070
-134.385	199.776	0.106	0.160
-133.370	800.000	0.027	-0.099
-132.356	-35.353	-0.023	0.012
-131.341	89.764	-0.121	0.133
-130.326	144.602	0.125	-0.165
-129.312	-134.946	0.248	-0.030
-128.297	-101.049	-0.046	-0.011
-127.283	365.108	0.101	0.199
-126.268	800.000	-0.055	0.179
-125.253	-26.448	0.216	0.125
-124.239	132.278	-0.103	0.130
-123.224	-5.523	-0.381	0.257
-122.210	800.000	-0.049	0.154
-121.195	-200.000	-0.005	-0.030
