DTS Sentinel unit serial number:	SN413079Multiplexer serial number:	ORYXHardware model number:	OX4-SRSoftware version number:	ORYX F/W v4.00 Oryx Data Collector v3.7.2.0data status	okinstallation	princeton_trtdifferential loss correction	single-endedforward channel	channel 1reverse channel	N/Adate	2019/09/12time	22:50:35forward acquisition time	60.00reverse acquisition time	0.00gamma	496.2192k internal	0.2327k external	0.2327temperature offset calibration	1.0146default loss term (dB/km)	0.3790temperature slope calibration	1.0000multiplexer offset coefficient	1.0000multiplexer slope coefficient	1.0000fibre end	0.00T internal ref (°C)	29.44T ext. ref 1 (°C)	3.73T ext. ref 2 (°C)	24.00length (m)	temperature (°C)	Stokes	anti-Stokes-747.200	99.572	0.116	0.136
-746.185	800.000	0.081	0.313
-745.171	164.572	0.098	-0.139
-744.156	103.575	-0.141	-0.167
-743.142	-5.159	0.320	0.222
-742.127	16.647	-0.359	-0.286
-741.112	-200.000	-0.054	-0.375
-740.098	-132.902	0.300	0.039
-739.083	-135.220	0.129	0.016
-738.069	800.000	0.076	0.278
-737.054	231.636	0.103	-0.170
-736.039	800.000	0.100	-0.298
-735.025	200.999	0.082	-0.127
-734.010	260.676	-0.188	-0.327
-732.996	-114.172	-0.437	0.085
-731.981	-135.379	0.212	0.026
-730.966	628.803	0.094	-0.239
-729.952	-106.042	-0.112	-0.025
-728.937	-200.000	-0.007	-0.206
-727.923	-139.860	0.198	-0.021
-726.908	296.390	-0.153	0.282
-725.894	128.142	-0.117	0.150
-724.879	7.575	-0.116	-0.087
-723.864	-122.013	0.211	-0.035
-722.850	27.964	-0.067	0.057
-721.835	-57.178	-0.198	0.088
-720.821	-122.926	-0.200	0.032
-719.806	-30.129	0.075	0.043
-718.791	165.328	-0.042	-0.060
-717.777	-128.262	0.262	0.038
-716.762	800.000	-0.029	-0.110
-715.748	-16.133	-0.189	-0.121
-714.733	12.572	-0.183	-0.142
-713.718	52.605	-0.316	0.304
-712.704	-200.000	0.022	0.102
-711.689	138.919	0.132	0.175
-710.675	0.666	-0.232	0.167
-709.660	-200.000	-0.009	0.101
-708.645	800.000	-0.034	-0.117
-707.631	558.644	0.159	-0.386
-706.616	-200.000	0.064	-0.559
-705.602	-19.666	-0.068	-0.043
-704.587	-200.000	0.019	-0.259
-703.572	-89.476	-0.366	-0.108
-702.558	-104.907	-0.303	0.070
-701.543	2.275	-0.148	-0.108
-700.529	-90.697	-0.318	0.092
-699.514	-102.746	0.111	-0.027
-698.499	800.000	-0.120	-0.405
-697.485	301.212	-0.113	0.211
-696.470	562.142	0.079	-0.191
-695.456	-58.398	-0.169	0.074
-694.441	40.232	0.163	-0.147
-693.426	70.312	-0.042	-0.043
-692.412	-155.331	-0.340	0.022
-691.397	103.639	-0.062	-0.074
-690.383	16.218	-0.074	0.059
-689.368	800.000	0.057	-0.234
-688.354	-77.061	-0.159	0.056
-687.339	373.304	-0.194	-0.398
-686.324	800.000	0.022	-0.089
-685.310	-118.909	-0.068	0.012
-684.295	682.150	-0.062	-0.162
-683.281	168.147	-0.065	0.093
-682.266	120.169	-0.062	-0.078
-681.251	-106.403	-0.284	0.064
-680.237	-200.000	0.058	-0.295
-679.222	100.686	0.201	-0.235
-678.208	-200.000	0.070	0.435
-677.193	-200.000	-0.032	-0.229
-676.178	601.772	-0.051	0.129
-675.164	183.032	-0.098	0.145
-674.149	114.575	0.054	-0.066
-673.135	-43.027	-0.356	0.181
-672.120	800.000	-0.080	-0.226
-671.105	27.998	0.178	0.151
-670.091	-200.000	0.028	-0.217
-669.076	358.453	0.038	-0.077
-668.062	187.904	-0.278	-0.417
-667.047	94.930	-0.082	0.094
-666.032	593.089	-0.054	0.133
-665.018	-107.890	0.225	-0.049
-664.003	64.593	0.210	-0.213
-662.989	-128.570	-0.125	-0.018
-661.974	800.000	0.018	-0.071
-660.959	68.255	-0.132	-0.136
-659.945	-200.000	0.057	-0.288
-658.930	113.857	0.145	0.177
-657.916	-150.791	-0.204	0.016
-656.901	169.156	-0.138	0.198
-655.886	26.646	0.174	-0.146
-654.872	-200.000	-0.034	-0.247
-653.857	-156.801	0.141	0.009
-652.843	380.912	0.125	0.258
-651.828	-64.358	-0.235	0.096
-650.814	138.179	-0.181	-0.239
-649.799	240.602	-0.015	-0.026
-648.784	3.147	0.150	-0.109
-647.770	800.000	-0.018	-0.067
-646.755	-49.840	-0.286	-0.137
-645.741	-200.000	0.058	0.276
-644.726	-43.579	0.436	0.221
-643.711	345.156	-0.047	-0.092
-642.697	-77.634	-0.198	0.069
-641.682	545.736	-0.134	-0.321
-640.668	716.169	0.089	0.237
-639.653	226.131	0.193	-0.314
-638.638	-16.617	-0.092	-0.059
-637.624	189.859	-0.058	0.087
-636.609	533.527	0.047	-0.113
-635.595	-200.000	0.050	-0.327
-634.580	186.919	-0.143	-0.214
-633.565	-200.000	-0.022	-0.242
-632.551	60.716	-0.182	0.181
-631.536	800.000	-0.040	-0.149
-630.522	800.000	0.080	0.321
-629.507	321.979	0.118	0.226
-628.492	-15.592	-0.063	-0.041
-627.478	-75.090	-0.331	-0.119
-626.463	31.844	0.283	0.245
-625.449	-105.049	0.208	-0.048
-624.434	-94.724	-0.319	0.087
-623.419	270.663	-0.041	0.073
-622.405	260.702	0.101	0.175
-621.390	-139.658	-0.386	0.041
-620.376	620.017	-0.103	-0.261
-619.361	-62.075	0.098	-0.041
-618.346	-200.000	0.045	0.271
-617.332	94.437	-0.193	-0.220
-616.317	-64.878	-0.397	-0.161
-615.303	-200.000	0.002	-0.010
-614.288	-200.000	0.009	-0.272
-613.273	-65.016	0.152	-0.062
-612.259	-95.221	-0.204	0.055
-611.244	-122.673	-0.546	-0.089
-610.230	-78.218	-0.377	-0.130
-609.215	125.880	-0.056	-0.070
-608.201	-18.894	-0.159	-0.099
-607.186	-3.973	-0.248	-0.172
-606.171	-79.768	0.076	0.026
-605.157	53.076	-0.099	-0.095
-604.142	800.000	-0.092	-0.284
-603.128	-200.000	0.007	-0.111
-602.113	-60.227	-0.226	-0.097
-601.098	-62.001	0.393	-0.165
-600.084	-121.712	-0.129	-0.021
-599.069	-159.697	0.211	0.012
-598.055	-39.400	0.418	-0.220
-597.040	-200.000	-0.143	-0.000
-596.025	16.842	0.195	-0.155
-595.011	20.905	-0.202	-0.164
-593.996	-115.695	0.107	0.020
-592.982	1.168	0.104	0.075
-591.967	273.220	-0.076	-0.134
-590.952	219.975	-0.083	-0.133
-589.938	-153.116	0.261	0.018
-588.923	-200.000	-0.018	0.091
-587.909	-21.247	0.127	0.078
-586.894	800.000	-0.095	0.267
-585.879	-8.889	0.232	0.156
-584.865	72.839	-0.180	-0.188
-583.850	-42.458	-0.176	0.090
-582.836	-43.858	-0.322	-0.162
-581.821	800.000	-0.041	0.127
-580.806	800.000	-0.107	0.310
-579.792	-173.765	0.534	-0.016
-578.777	-109.801	-0.221	0.046
-577.763	-121.832	-0.207	0.034
-576.748	-200.000	-0.023	0.243
-575.733	265.529	-0.178	-0.311
-574.719	198.292	0.038	0.059
-573.704	222.603	-0.050	-0.081
-572.690	282.922	0.033	-0.060
-571.675	73.564	-0.052	-0.055
-570.661	91.644	0.125	0.140
-569.646	800.000	-0.050	0.208
-568.631	-121.898	0.228	-0.038
-567.617	-200.000	-0.018	0.193
-566.602	-95.643	-0.088	-0.023
-565.588	-200.000	-0.005	0.197
-564.573	-118.640	-0.339	0.060
-563.558	105.632	0.036	-0.042
-562.544	800.000	-0.057	0.182
-561.529	-200.000	0.054	0.315
-560.515	198.025	0.011	0.017
-559.500	206.519	0.187	-0.291
-558.485	75.389	0.243	-0.256
-557.471	139.140	0.184	0.243
-556.456	16.346	0.068	-0.054
-555.442	-149.158	-0.227	0.018
-554.427	-200.000	-0.041	0.251
-553.412	-200.000	-0.010	0.063
-552.398	21.998	-0.174	0.142
-551.383	-77.838	-0.107	-0.037
-550.369	-141.942	0.135	-0.014
-549.354	800.000	-0.038	-0.105
-548.339	-200.000	0.019	0.248
-547.325	800.000	-0.123	0.410
-546.310	538.471	0.055	-0.131
-545.296	800.000	0.031	-0.129
-544.281	-67.166	0.129	0.051
-543.266	-149.483	-0.065	0.005
-542.252	33.245	0.079	0.068
-541.237	291.436	0.129	-0.235
-540.223	800.000	-0.089	-0.297
-539.208	-117.218	-0.215	-0.039
-538.193	178.241	0.234	0.341
-537.179	459.681	0.100	-0.222
-536.164	-83.735	-0.200	-0.064
-535.150	106.118	-0.246	0.292
-534.135	800.000	-0.061	-0.190
-533.121	-156.930	0.106	0.007
-532.106	362.408	-0.108	0.217
-531.091	-80.479	-0.120	-0.040
-530.077	-144.998	0.287	-0.026
-529.062	-200.000	-0.003	-0.038
-528.048	-200.000	-0.025	-0.322
-527.033	800.000	-0.104	-0.328
-526.018	800.000	-0.017	0.066
-525.004	800.000	0.069	0.285
-523.989	800.000	0.076	-0.219
-522.975	-77.617	0.456	0.158
-521.960	-118.005	0.207	-0.037
-520.945	749.896	0.165	0.446
-519.931	-119.777	0.111	0.019
-518.916	-101.505	0.165	-0.040
-517.902	-124.296	-0.171	0.027
-516.887	288.982	-0.163	-0.295
-515.872	153.364	-0.144	0.197
-514.858	421.675	0.198	-0.425
-513.843	-80.279	0.310	-0.104
-512.829	-38.594	0.299	-0.158
-511.814	138.403	-0.083	-0.109
-510.799	800.000	0.019	-0.080
-509.785	99.624	0.119	0.138
-508.770	-60.039	0.275	0.117
-507.756	-200.000	-0.017	0.355
-506.741	30.233	0.137	0.117
-505.726	434.113	-0.137	-0.298
-504.712	-200.000	0.036	-0.161
-503.697	-6.781	0.246	-0.167
-502.683	-200.000	-0.011	-0.075
-501.668	238.202	0.081	0.135
-500.653	-200.000	-0.004	-0.204
-499.639	-40.830	0.097	-0.050
-498.624	213.442	-0.176	-0.277
-497.610	-24.534	-0.259	-0.154
-496.595	493.872	-0.072	-0.165
-495.581	-200.000	-0.060	-0.407
-494.566	-12.086	0.234	0.153
-493.551	-200.000	-0.010	0.088
-492.537	-6.443	-0.196	-0.133
-491.522	-77.268	-0.059	0.021
-490.508	-173.249	-0.113	-0.003
-489.493	-51.235	0.176	0.082
-488.478	65.347	0.256	0.258
-487.464	-64.308	0.233	0.095
-486.449	652.182	0.187	0.477
-485.435	-200.000	0.007	0.166
-484.420	-20.644	0.304	-0.186
-483.405	524.121	0.077	0.180
-482.391	-167.929	-0.159	0.006
-481.376	182.522	-0.092	0.135
-480.362	44.010	-0.062	-0.057
-479.347	800.000	-0.049	-0.173
-478.332	-193.852	-0.179	-0.002
-477.318	94.842	-0.193	0.219
-476.303	-177.558	-0.275	-0.007
-475.289	23.258	0.239	0.196
-474.274	800.000	-0.039	-0.130
-473.259	-49.888	0.099	0.047
-472.245	-200.000	-0.057	-0.343
-471.230	96.958	-0.128	0.146
-470.216	-56.139	0.116	0.051
-469.201	-55.106	-0.206	-0.092
-468.186	-125.150	-0.308	0.047
-467.172	-32.114	0.071	-0.039
-466.157	252.940	0.119	0.203
-465.143	-200.000	0.025	-0.211
-464.128	63.476	-0.273	-0.273
-463.113	67.830	-0.129	0.131
-462.099	-132.967	-0.547	0.069
-461.084	-61.840	0.062	-0.026
-460.070	33.604	-0.136	-0.118
-459.055	-98.220	-0.246	-0.063
-458.040	-200.000	-0.031	-0.217
-457.026	-67.288	-0.222	0.087
-456.011	-15.790	-0.412	-0.262
-454.997	-42.164	-0.124	-0.063
-453.982	-105.469	0.235	-0.053
-452.968	128.847	-0.125	0.159
-451.953	-64.752	0.097	0.039
-450.938	-200.000	0.041	-0.200
-449.924	-30.796	-0.155	-0.088
-448.909	83.308	0.083	0.090
-447.895	-200.000	0.044	0.360
-446.880	-53.803	-0.285	0.130
-445.865	41.092	-0.153	-0.138
-444.851	-80.191	-0.216	-0.072
-443.836	266.394	0.086	0.150
-442.822	18.528	0.149	-0.119
-441.807	-200.000	0.041	-0.228
-440.792	-181.342	0.402	-0.008
-439.778	76.159	0.169	-0.178
-438.763	-162.404	0.306	0.015
-437.749	-1.154	-0.181	-0.127
-436.734	-106.196	-0.335	-0.075
-435.719	-76.329	0.188	-0.066
-434.705	-88.137	0.200	0.060
-433.690	151.264	-0.118	-0.160
-432.676	97.521	-0.236	0.271
-431.661	66.192	0.223	0.225
-430.646	-114.399	-0.065	0.012
-429.632	-200.000	0.023	0.102
-428.617	541.297	0.164	0.390
-427.603	-200.000	-0.030	0.212
-426.588	800.000	-0.057	0.201
-425.573	435.561	-0.142	-0.308
-424.559	27.058	0.139	-0.116
-423.544	249.458	0.111	-0.187
-422.530	324.073	-0.081	0.153
-421.515	-200.000	0.005	-0.025
-420.500	-108.239	0.178	-0.038
-419.486	-200.000	-0.015	-0.083
-418.471	-98.330	-0.187	-0.048
-417.457	-22.601	0.190	0.114
-416.442	-200.000	0.004	-0.106
-415.428	659.136	0.056	0.144
-414.413	363.926	0.072	0.145
-413.398	800.000	0.078	-0.247
-412.384	6.122	-0.131	0.096
-411.369	-29.009	0.053	-0.030
-410.355	-58.166	-0.213	-0.092
-409.340	317.440	0.103	0.195
-408.325	-48.259	0.133	-0.064
-407.311	-200.000	0.004	0.047
-406.296	-200.000	0.049	0.225
-405.282	575.906	-0.138	0.336
-404.267	145.007	0.189	-0.252
-403.252	-61.085	-0.168	-0.070
-402.238	-160.566	0.226	0.012
-401.223	269.582	-0.106	-0.185
-400.209	27.508	-0.136	0.114
-399.194	247.490	0.016	0.027
-398.179	83.484	0.048	-0.052
-397.165	-200.000	0.048	-0.223
-396.150	-32.336	-0.310	-0.172
-395.136	23.907	-0.218	-0.178
-394.121	-108.448	0.237	-0.051
-393.106	-80.137	-0.132	0.044
-392.092	258.607	-0.171	0.293
-391.077	78.261	-0.034	0.036
-390.063	-200.000	0.011	0.292
-389.048	332.755	-0.093	-0.180
-388.033	-30.796	-0.161	0.090
-387.019	406.464	0.113	0.238
-386.004	800.000	-0.102	0.415
-384.990	298.167	-0.088	-0.160
-383.975	-84.734	-0.055	-0.017
-382.960	-200.000	0.007	-0.113
-381.946	265.041	0.125	-0.216
-380.931	-14.201	-0.312	0.200
-379.917	395.214	0.182	0.378
-378.902	123.492	-0.184	-0.229
-377.888	729.013	-0.132	-0.352
-376.873	-97.198	-0.267	0.069
-375.858	66.300	0.063	-0.063
-374.844	-32.273	0.323	0.180
-373.829	800.000	-0.077	0.216
-372.815	-120.574	0.281	0.047
-371.800	-200.000	0.111	-0.569
-370.785	563.384	0.117	0.281
-369.771	-96.075	0.321	-0.085
-368.756	-200.000	-0.008	0.115
-367.742	78.187	-0.123	-0.131
-366.727	342.866	-0.179	0.348
-365.712	-5.170	-0.357	0.244
-364.698	-97.620	-0.162	-0.042
-363.683	196.181	0.077	0.116
-362.669	446.353	0.095	-0.208
-361.654	-112.036	0.266	0.053
-360.639	800.000	-0.036	-0.149
-359.625	-12.781	-0.072	-0.047
-358.610	-67.753	-0.196	0.076
-357.596	800.000	0.049	-0.144
-356.581	-200.000	0.001	0.074
-355.566	110.600	0.031	-0.037
-354.552	197.293	-0.132	-0.200
-353.537	435.200	-0.052	-0.113
-352.523	800.000	0.121	0.439
-351.508	800.000	-0.099	0.375
-350.493	-84.079	-0.160	0.050
-349.479	-200.000	0.014	0.134
-348.464	663.462	-0.057	0.146
-347.450	-102.027	0.030	0.007
-346.435	-200.000	-0.022	-0.134
-345.420	800.000	0.063	0.206
-344.406	-200.000	0.064	0.287
-343.391	791.996	-0.041	-0.112
-342.377	-14.523	0.149	-0.095
-341.362	-200.000	-0.003	-0.052
-340.348	-133.647	-0.075	0.009
-339.333	-200.000	0.017	0.166
-338.318	-200.000	0.005	-0.195
-337.304	8.779	-0.119	-0.089
-336.289	-77.178	0.292	0.101
-335.275	800.000	0.048	-0.200
-334.260	-197.447	0.237	0.001
-333.245	800.000	-0.064	0.178
-332.231	-36.538	0.148	0.079
-331.216	-200.000	0.027	-0.267
-330.202	133.227	0.077	-0.099
-329.187	-7.996	0.288	0.193
-328.172	800.000	-0.089	0.289
-327.158	-200.000	-0.006	0.034
-326.143	317.012	0.055	0.103
-325.129	224.100	0.010	-0.016
-324.114	800.000	0.105	0.370
-323.099	800.000	-0.056	-0.196
-322.085	-77.532	0.195	0.067
-321.070	-139.352	0.265	0.028
-320.056	153.753	-0.100	0.136
-319.041	95.128	0.219	0.247
-318.026	93.099	-0.021	0.023
-317.012	426.890	0.092	-0.197
-315.997	-124.508	0.231	-0.036
-314.983	-33.855	0.189	0.103
-313.968	-101.858	-0.252	0.060
-312.953	-183.602	0.330	0.006
-311.939	-96.419	0.216	-0.057
-310.924	81.382	-0.081	-0.087
-309.910	271.984	-0.039	0.068
-308.895	81.502	-0.178	-0.191
-307.880	-68.202	-0.270	0.104
-306.866	653.425	0.019	-0.048
-305.851	14.508	-0.113	-0.088
-304.837	800.000	0.038	-0.113
-303.822	22.720	-0.201	-0.163
-302.807	261.237	-0.051	0.087
-301.793	-72.460	0.167	0.061
-300.778	-200.000	-0.028	0.267
-299.764	28.059	-0.129	-0.108
-298.749	-35.335	0.120	0.065
-297.735	-27.514	0.277	-0.160
-296.720	438.654	-0.034	0.073
-295.705	-200.000	0.050	-0.247
-294.691	-200.000	0.023	0.534
-293.676	-200.000	0.020	0.142
-292.662	-200.000	0.021	-0.198
-291.647	-72.573	-0.111	0.041
-290.632	-89.405	-0.367	0.107
-289.618	74.825	0.051	0.054
-288.603	-200.000	-0.002	-0.226
-287.589	-29.813	0.143	-0.081
-286.574	-40.518	-0.264	-0.136
-285.559	349.091	-0.036	0.071
-284.545	41.703	0.194	-0.174
-283.530	-168.972	0.065	-0.002
-282.516	-7.158	0.162	0.109
-281.501	-200.000	0.029	0.230
-280.486	19.968	-0.052	0.042
-279.472	-122.593	0.430	-0.069
-278.457	-41.141	-0.136	-0.070
-277.443	-200.000	0.031	-0.340
-276.428	800.000	0.034	0.142
-275.413	228.748	-0.089	-0.144
-274.399	450.961	0.085	0.186
-273.384	-110.063	-0.156	0.032
-272.370	-64.473	0.415	-0.167
-271.355	39.276	0.321	-0.285
-270.340	-9.713	0.152	0.100
-269.326	-133.876	0.147	-0.018
-268.311	-44.703	0.329	0.162
-267.297	143.058	0.072	-0.095
-266.282	-78.670	0.184	0.062
-265.267	800.000	0.089	0.263
-264.253	289.519	0.008	-0.014
-263.238	800.000	0.036	-0.149
-262.224	19.595	0.160	-0.127
-261.209	418.428	-0.197	-0.416
-260.195	454.430	-0.107	-0.234
-259.180	647.568	-0.064	0.162
-258.165	6.890	0.101	0.074
-257.151	800.000	-0.066	-0.250
-256.136	800.000	0.084	-0.240
-255.122	359.711	-0.063	0.125
-254.107	-121.713	-0.238	-0.039
-253.092	716.428	0.097	0.254
-252.078	-123.224	-0.122	-0.019
-251.063	187.711	0.148	-0.218
-250.049	-109.559	-0.375	0.078
-249.034	-200.000	0.018	0.092
-248.019	346.322	0.173	-0.336
-247.005	-35.664	0.029	-0.016
-245.990	800.000	-0.039	-0.154
-244.976	800.000	0.038	0.134
-243.961	-200.000	0.004	0.376
-242.946	23.069	-0.222	-0.180
-241.932	-84.089	0.157	-0.049
-240.917	-76.160	0.112	-0.039
-239.903	800.000	0.082	-0.295
-238.888	79.413	-0.222	0.235
-237.873	569.328	0.083	0.199
-236.859	47.508	0.053	-0.049
-235.844	-126.829	0.098	-0.014
-234.830	-7.115	-0.030	-0.020
-233.815	800.000	0.049	-0.152
-232.800	-200.000	-0.008	-0.062
-231.786	116.318	-0.160	-0.194
-230.771	4.629	0.180	0.131
-229.757	79.967	-0.215	0.228
-228.742	-108.264	0.345	-0.074
-227.727	-120.010	-0.292	-0.050
-226.713	-119.582	-0.128	-0.022
-225.698	800.000	-0.083	-0.283
-224.684	-142.209	0.161	0.016
-223.669	206.682	0.144	-0.222
-222.655	48.535	-0.094	0.087
-221.640	273.315	-0.190	0.331
-220.625	-200.000	-0.010	-0.122
-219.611	439.588	-0.133	0.287
-218.596	613.371	-0.056	-0.139
-217.582	-200.000	-0.044	0.307
-216.567	-29.268	0.027	-0.015
-215.552	800.000	-0.029	0.108
-214.538	-200.000	0.010	-0.174
-213.523	-108.057	0.099	0.021
-212.509	60.004	0.207	-0.202
-211.494	455.535	0.128	-0.280
-210.479	1.888	0.112	0.080
-209.465	-83.597	0.044	-0.014
-208.450	-116.948	0.232	-0.042
-207.436	-200.000	-0.032	-0.407
-206.421	169.694	0.042	-0.060
-205.406	138.508	0.116	0.150
-204.392	800.000	0.093	0.290
-203.377	-58.121	-0.354	0.152
-202.363	-200.000	-0.013	0.128
-201.348	3.912	0.385	-0.278
-200.333	-200.000	-0.039	0.241
-199.319	380.611	0.156	0.315
-198.304	348.817	-0.234	0.456
-197.290	-73.898	-0.485	0.174
-196.275	189.710	0.204	0.301
-195.260	-200.000	0.036	0.175
-194.246	2.684	-0.251	-0.179
-193.231	-200.000	0.011	0.064
-192.217	-200.000	0.010	-0.120
-191.202	75.624	-0.088	0.092
-190.187	-200.000	-0.003	-0.054
-189.173	28.951	0.303	-0.253
-188.158	259.013	0.198	0.338
-187.144	47.987	0.175	-0.161
-186.129	-200.000	-0.050	-0.278
-185.114	93.440	-0.349	0.390
-184.100	-200.000	0.004	-0.080
-183.085	-149.905	0.258	-0.020
-182.071	109.099	-0.073	0.086
-181.056	-126.231	-0.181	-0.027
-180.042	199.116	-0.155	-0.234
-179.027	358.952	0.155	0.305
-178.012	-154.944	0.110	-0.007
-176.998	-200.000	0.070	-0.315
-175.983	800.000	0.019	-0.061
-174.969	800.000	0.030	0.108
-173.954	173.651	-0.174	-0.248
-172.939	421.504	-0.135	-0.285
-171.925	40.152	0.076	-0.067
-170.910	34.734	0.256	-0.221
-169.896	-108.535	-0.229	0.048
-168.881	-93.143	0.269	0.074
-167.866	456.399	-0.096	0.211
-166.852	18.369	0.178	-0.140
-165.837	719.209	-0.144	0.377
-164.823	800.000	-0.082	-0.242
-163.808	-148.811	-0.207	-0.016
-162.793	-188.827	0.149	-0.002
-161.779	-4.874	-0.121	0.082
-160.764	-1.750	0.033	-0.023
-159.750	-200.000	0.027	0.335
-158.735	234.071	-0.050	0.081
-157.720	467.809	-0.064	0.142
-156.706	541.762	0.095	0.223
-155.691	-115.076	0.221	-0.041
-154.677	-192.977	-0.270	-0.002
-153.662	-119.691	0.188	-0.032
-152.647	-27.658	-0.360	-0.206
-151.633	-24.838	-0.067	0.039
-150.618	-200.000	0.020	-0.257
-149.604	-129.435	0.205	-0.028
-148.589	65.920	-0.110	-0.110
-147.574	-200.000	0.043	0.000
-146.560	522.327	-0.069	0.160
-145.545	-2.324	-0.162	0.112
-144.531	800.000	-0.054	-0.168
-143.516	-200.000	0.028	0.170
-142.502	-116.732	-0.228	0.041
-141.487	-5.870	-0.110	-0.074
-140.472	119.856	-0.077	-0.095
-139.458	315.126	-0.092	0.170
-138.443	238.060	0.153	0.250
-137.429	60.403	0.176	0.172
-136.414	-26.366	0.411	0.237
-135.399	-48.943	-0.179	0.084
-134.385	-28.045	0.165	-0.094
-133.370	800.000	-0.045	-0.139
-132.356	3.653	0.130	-0.093
-131.341	68.331	0.070	-0.071
-130.326	636.115	-0.027	-0.069
-129.312	14.905	0.279	0.215
-128.297	800.000	0.055	-0.199
-127.283	-193.304	-0.118	0.001
-126.268	-163.806	-0.338	0.016
-125.253	74.423	-0.056	0.058
-124.239	679.814	0.070	-0.181
-123.224	800.000	0.030	0.125
-122.210	-200.000	0.001	-0.156
