DTS Sentinel unit serial number:	SN413079Multiplexer serial number:	ORYXHardware model number:	OX4-SRSoftware version number:	ORYX F/W v4.00 Oryx Data Collector v3.7.2.0data status	okinstallation	princeton_trtdifferential loss correction	single-endedforward channel	channel 1reverse channel	N/Adate	2019/09/18time	13:02:35forward acquisition time	60.00reverse acquisition time	0.00gamma	496.2192k internal	0.2315k external	0.2315temperature offset calibration	0.9979default loss term (dB/km)	0.3790temperature slope calibration	1.0000multiplexer offset coefficient	1.0000multiplexer slope coefficient	1.0000fibre end	0.00T internal ref (°C)	33.50T ext. ref 1 (°C)	0.58T ext. ref 2 (°C)	31.74length (m)	temperature (°C)	Stokes	anti-Stokes-747.200	-35.802	0.156	0.086
-746.185	-28.081	0.132	-0.077
-745.171	61.881	0.122	0.123
-744.156	-200.000	0.009	0.288
-743.142	599.321	0.113	-0.283
-742.127	711.407	-0.192	0.514
-741.112	-132.938	-0.070	-0.009
-740.098	-200.000	0.022	0.186
-739.083	428.559	0.027	0.058
-738.069	213.814	-0.306	0.491
-737.054	14.017	-0.127	0.100
-736.039	90.542	-0.168	0.190
-735.025	373.307	-0.173	0.356
-734.010	131.150	0.048	0.062
-732.996	402.627	-0.062	-0.132
-731.981	-200.000	-0.045	0.256
-730.966	-26.354	-0.221	0.131
-729.952	3.668	-0.297	-0.219
-728.937	800.000	-0.021	-0.072
-727.923	-200.000	-0.007	0.105
-726.908	-81.501	-0.170	0.057
-725.894	-120.745	-0.361	-0.062
-724.879	3.793	0.243	0.180
-723.864	-69.480	0.044	-0.017
-722.850	-39.772	-0.276	0.146
-721.835	715.946	0.032	-0.086
-720.821	-97.717	-0.113	-0.030
-719.806	-56.980	0.238	-0.106
-718.791	-200.000	0.033	-0.229
-717.777	-113.741	-0.131	0.026
-716.762	-78.736	0.130	-0.045
-715.748	42.860	0.060	-0.055
-714.733	-200.000	0.019	0.110
-713.718	486.486	-0.055	-0.127
-712.704	-108.651	0.159	0.035
-711.689	-116.172	0.250	-0.047
-710.675	-18.978	-0.202	-0.127
-709.660	3.863	0.056	0.041
-708.645	-200.000	0.073	-0.358
-707.631	-47.882	-0.058	0.029
-706.616	-200.000	-0.053	-0.279
-705.602	-104.693	0.102	0.024
-704.587	19.346	0.233	0.189
-703.572	60.846	-0.238	-0.239
-702.558	436.087	0.050	-0.111
-701.543	-54.680	0.415	-0.190
-700.529	-146.821	-0.288	-0.025
-699.514	800.000	0.047	0.185
-698.499	800.000	0.073	-0.295
-697.485	800.000	-0.083	0.293
-696.470	800.000	-0.115	0.344
-695.456	800.000	0.033	0.095
-694.441	621.434	-0.025	0.064
-693.426	-93.345	-0.302	-0.085
-692.412	-200.000	-0.025	0.155
-691.397	800.000	-0.065	0.201
-690.383	-82.544	-0.077	-0.025
-689.368	77.365	0.186	0.200
-688.354	132.938	-0.091	-0.119
-687.339	27.630	0.245	0.209
-686.324	160.950	0.168	0.237
-685.310	-71.005	-0.323	0.123
-684.295	-72.062	0.402	-0.151
-683.281	85.463	0.308	-0.342
-682.266	300.593	0.042	-0.079
-681.251	-47.972	-0.216	-0.106
-680.237	151.914	0.164	-0.226
-679.222	-200.000	-0.010	-0.166
-678.208	136.129	-0.226	-0.298
-677.193	-143.090	0.180	-0.018
-676.178	231.712	0.135	0.224
-675.164	-200.000	-0.012	-0.169
-674.149	-188.248	-0.084	-0.001
-673.135	-55.222	0.146	-0.066
-672.120	-106.637	-0.220	-0.049
-671.105	-168.527	-0.106	0.004
-670.091	800.000	-0.062	0.230
-669.076	67.726	-0.207	-0.214
-668.062	788.128	0.134	-0.371
-667.047	800.000	-0.067	-0.272
-666.032	252.856	0.035	-0.061
-665.018	-200.000	0.015	-0.147
-664.003	127.570	-0.396	-0.507
-662.989	14.199	0.362	-0.285
-661.974	3.252	-0.264	0.194
-660.959	57.379	0.110	0.108
-659.945	-70.208	-0.121	0.046
-658.930	-108.471	0.210	0.046
-657.916	190.424	-0.193	0.292
-656.901	128.461	0.095	0.122
-655.886	225.528	0.017	-0.028
-654.872	-66.828	0.070	-0.028
-653.857	-200.000	-0.006	0.053
-652.843	-43.770	0.280	-0.142
-651.828	-28.276	-0.195	0.114
-650.814	-200.000	0.029	0.163
-649.799	571.064	-0.128	-0.316
-648.784	-200.000	-0.013	0.183
-647.770	277.335	-0.133	-0.238
-646.755	130.154	0.164	-0.212
-645.741	527.578	-0.041	0.098
-644.726	-200.000	-0.047	0.218
-643.711	207.532	0.218	-0.343
-642.697	-70.244	-0.286	-0.110
-641.682	190.262	0.185	-0.281
-640.668	-85.773	0.217	-0.068
-639.653	55.337	-0.027	0.026
-638.638	120.770	-0.252	0.316
-637.624	-25.046	0.167	-0.100
-636.609	336.002	0.042	0.083
-635.595	-42.465	0.343	-0.176
-634.580	7.453	-0.177	0.133
-633.565	41.834	-0.100	0.091
-632.551	388.993	0.078	-0.162
-631.536	800.000	-0.033	-0.118
-630.522	-59.285	0.461	0.200
-629.507	-125.140	0.182	0.028
-628.492	-200.000	-0.020	-0.091
-627.478	39.170	-0.232	-0.209
-626.463	238.070	0.070	0.117
-625.449	-67.112	0.236	-0.094
-624.434	-138.420	-0.428	0.048
-623.419	-200.000	0.007	0.104
-622.405	-200.000	-0.016	-0.177
-621.390	-121.854	-0.432	-0.072
-620.376	800.000	0.104	0.440
-619.361	331.903	-0.058	0.113
-618.346	-41.617	-0.109	-0.057
-617.332	-34.409	-0.167	0.092
-616.317	101.108	-0.246	-0.289
-615.303	385.924	0.092	0.191
-614.288	-39.814	-0.203	0.107
-613.273	800.000	-0.033	0.141
-612.259	-37.503	0.261	-0.141
-611.244	-21.502	-0.119	-0.073
-610.230	-200.000	-0.197	-0.001
-609.215	77.183	0.091	0.098
-608.201	45.148	-0.025	-0.023
-607.186	-16.230	0.018	0.011
-606.171	-200.000	-0.209	0.001
-605.157	343.162	0.120	0.236
-604.142	800.000	0.056	-0.166
-603.128	407.159	-0.125	0.266
-602.113	1.823	0.067	-0.049
-601.098	-89.610	-0.233	0.069
-600.084	800.000	0.065	-0.195
-599.069	-39.106	0.111	0.059
-598.055	98.672	0.085	-0.098
-597.040	-93.755	-0.161	0.045
-596.025	-90.497	-0.236	0.069
-595.011	136.615	-0.181	-0.238
-593.996	33.209	0.087	0.076
-592.982	-200.000	0.045	-0.235
-591.967	-200.000	0.003	-0.235
-590.952	-153.167	0.201	0.014
-589.938	48.821	-0.123	0.116
-588.923	-10.293	-0.073	0.048
-587.909	103.144	0.257	0.304
-586.894	-6.408	0.226	0.155
-585.879	271.834	0.112	0.198
-584.865	35.513	-0.284	-0.251
-583.850	223.869	0.168	0.273
-582.836	-200.000	0.023	0.112
-581.821	-11.188	-0.123	0.082
-580.806	-200.000	0.033	-0.217
-579.792	-29.941	-0.285	0.163
-578.777	236.110	0.207	-0.345
-577.763	269.977	0.101	-0.179
-576.748	-200.000	-0.015	0.198
-575.733	-21.850	0.163	0.100
-574.719	107.900	0.068	0.082
-573.704	7.512	-0.193	0.146
-572.690	-154.829	0.122	0.008
-571.675	-44.435	-0.074	-0.037
-570.661	10.569	0.303	-0.232
-569.646	101.804	0.057	-0.067
-568.631	29.243	0.093	-0.080
-567.617	360.167	0.092	-0.186
-566.602	-200.000	-0.014	0.131
-565.588	493.078	0.098	0.226
-564.573	800.000	-0.096	0.322
-563.558	278.148	0.146	0.261
-562.544	-127.741	0.459	0.067
-561.529	780.239	-0.108	-0.298
-560.515	-47.606	-0.150	0.073
-559.500	8.334	0.370	-0.279
-558.485	23.321	-0.238	-0.196
-557.471	800.000	0.011	0.044
-556.456	800.000	-0.058	0.223
-555.442	119.822	0.076	0.094
-554.427	185.424	-0.109	-0.163
-553.412	800.000	0.058	0.230
-552.398	715.999	0.044	-0.119
-551.383	185.401	0.062	-0.092
-550.369	232.262	0.132	-0.218
-549.354	80.190	-0.101	0.109
-548.339	26.644	0.253	0.213
-547.325	6.887	-0.200	-0.149
-546.310	-200.000	0.124	0.000
-545.296	94.126	0.250	0.285
-544.281	-39.843	0.120	-0.063
-543.266	57.575	-0.023	-0.023
-542.252	-28.883	-0.546	0.315
-541.237	609.260	-0.075	-0.188
-540.223	-177.253	0.475	0.012
-539.208	371.055	-0.047	0.096
-538.193	-42.904	-0.046	0.024
-537.179	35.837	-0.075	0.066
-536.164	-200.000	-0.022	0.201
-535.150	-74.020	0.275	-0.100
-534.135	33.721	-0.102	-0.089
-533.121	26.594	-0.235	-0.198
-532.106	405.090	0.024	-0.052
-531.091	148.501	0.247	-0.335
-530.077	21.510	-0.195	-0.159
-529.062	119.166	0.094	-0.117
-528.048	-113.823	0.112	0.022
-527.033	100.167	-0.156	-0.181
-526.018	53.328	0.168	0.162
-525.004	800.000	0.059	-0.188
-523.989	-144.860	-0.164	0.015
-522.975	-26.981	0.145	0.085
-521.960	108.537	0.129	0.155
-520.945	-84.933	-0.169	-0.053
-519.931	-148.565	0.266	-0.022
-518.916	800.000	0.114	0.488
-517.902	106.195	-0.046	-0.055
-516.887	11.093	-0.276	-0.212
-515.872	228.881	0.024	-0.039
-514.858	-200.000	-0.013	-0.169
-513.843	800.000	-0.153	-0.600
-512.829	30.491	0.066	-0.057
-511.814	50.353	0.025	-0.024
-510.799	-179.982	0.232	-0.005
-509.785	-145.180	-0.202	0.018
-508.770	14.707	-0.212	-0.166
-507.756	-165.133	-0.068	-0.003
-506.741	-86.543	-0.185	-0.057
-505.726	-112.953	-0.157	0.031
-504.712	-50.887	-0.215	0.101
-503.697	6.914	0.129	0.096
-502.683	154.742	-0.166	-0.229
-501.668	649.057	-0.130	0.333
-500.653	193.568	-0.106	0.161
-499.639	643.528	0.035	0.090
-498.624	-19.392	-0.325	-0.202
-497.610	-152.093	-0.269	-0.020
-496.595	-200.000	0.006	-0.068
-495.581	63.237	-0.134	-0.135
-494.566	-138.906	0.172	-0.019
-493.551	221.554	-0.029	0.047
-492.537	78.807	0.094	0.101
-491.522	-200.000	-0.025	0.280
-490.508	-45.513	-0.032	-0.016
-489.493	-173.479	-0.104	-0.003
-488.478	58.648	-0.336	-0.331
-487.464	800.000	-0.069	-0.214
-486.449	-81.884	-0.228	0.075
-485.435	56.893	0.248	0.243
-484.420	245.646	0.170	0.287
-483.405	-200.000	-0.069	0.343
-482.391	-148.560	0.245	-0.020
-481.376	786.436	0.108	0.297
-480.362	104.442	-0.238	0.281
-479.347	53.979	0.062	0.060
-478.332	-28.933	0.194	-0.112
-477.318	441.499	0.142	0.312
-476.303	-60.772	0.128	0.054
-475.289	-200.000	0.003	0.070
-474.274	-45.381	-0.217	0.108
-473.259	-27.039	-0.112	-0.066
-472.245	82.589	-0.183	0.199
-471.230	-113.557	0.268	-0.053
-470.216	-52.074	-0.196	-0.091
-469.201	-43.578	-0.134	-0.068
-468.186	466.896	-0.107	0.241
-467.172	-200.000	0.035	-0.337
-466.157	-200.000	-0.003	-0.112
-465.143	800.000	0.065	-0.239
-464.128	456.038	-0.123	-0.273
-463.113	75.276	-0.094	-0.100
-462.099	-200.000	0.073	-0.690
-461.084	-200.000	-0.003	-0.047
-460.070	800.000	-0.015	0.043
-459.055	-200.000	-0.020	0.212
-458.040	-127.098	-0.110	-0.016
-457.026	-109.993	0.010	-0.002
-456.011	800.000	0.026	0.075
-454.997	-53.107	-0.330	0.152
-453.982	-200.000	0.002	0.071
-452.968	-110.720	-0.424	0.088
-451.953	389.157	-0.224	0.466
-450.938	800.000	-0.036	-0.149
-449.924	-35.776	0.134	-0.073
-448.909	109.981	-0.136	0.163
-447.895	-147.970	-0.145	-0.012
-446.880	43.909	0.139	0.127
-445.865	-32.654	0.203	0.113
-444.851	800.000	0.054	0.153
-443.836	28.975	-0.110	0.093
-442.822	187.694	-0.153	0.229
-441.807	-41.344	-0.200	-0.103
-440.792	-200.000	-0.062	-0.405
-439.778	800.000	0.018	0.055
-438.763	145.768	-0.158	-0.213
-437.749	800.000	0.044	-0.145
-436.734	119.851	0.150	0.186
-435.719	-51.685	-0.337	-0.157
-434.705	144.341	0.094	0.126
-433.690	-80.234	-0.264	0.089
-432.676	110.220	0.157	-0.188
-431.661	-200.000	-0.057	0.253
-430.646	-100.804	-0.226	-0.056
-429.632	21.116	0.233	-0.190
-428.617	-11.871	-0.098	-0.065
-427.603	-97.144	-0.564	-0.148
-426.588	800.000	-0.050	-0.209
-425.573	-200.000	0.020	0.097
-424.559	-31.986	0.203	-0.114
-423.544	596.253	-0.071	0.176
-422.530	11.291	0.228	0.174
-421.515	-128.734	-0.089	-0.013
-420.500	80.659	-0.081	0.087
-419.486	616.496	-0.120	0.302
-418.471	58.681	-0.203	-0.199
-417.457	157.652	-0.224	-0.311
-416.442	-15.230	0.014	0.009
-415.428	800.000	-0.050	-0.164
-414.413	72.107	-0.073	-0.076
-413.398	-76.399	-0.528	-0.186
-412.384	-143.085	0.075	0.007
-411.369	800.000	-0.073	0.298
-410.355	800.000	-0.120	-0.428
-409.340	-62.823	0.301	0.125
-408.325	56.558	-0.130	-0.126
-407.311	-149.908	-0.122	-0.010
-406.296	130.916	-0.105	-0.135
-405.282	-124.541	0.308	-0.048
-404.267	-200.000	0.027	-0.209
-403.252	-63.460	0.109	-0.045
-402.238	19.378	0.125	-0.100
-401.223	93.231	-0.090	0.102
-400.209	7.219	0.047	-0.035
-399.194	213.384	0.246	-0.389
-398.179	-124.499	0.189	-0.029
-397.165	-77.268	-0.299	-0.104
-396.150	211.375	-0.139	0.219
-395.136	-36.497	0.128	0.069
-394.121	-200.000	-0.013	-0.060
-393.106	-200.000	-0.018	-0.112
-392.092	-62.812	-0.131	-0.054
-391.077	-200.000	-0.033	0.213
-390.063	-130.472	0.263	-0.035
-389.048	39.863	-0.092	-0.082
-388.033	-123.848	-0.286	-0.045
-387.019	-54.237	-0.441	0.200
-386.004	-93.360	-0.318	-0.088
-384.990	137.347	0.148	-0.194
-383.975	-29.803	-0.056	-0.032
-382.960	629.797	0.134	0.338
-381.946	-115.625	-0.344	0.065
-380.931	124.619	-0.180	0.226
-379.917	51.659	0.146	0.138
-378.902	-200.000	0.052	-0.234
-377.888	76.849	0.297	-0.314
-376.873	-49.137	0.148	0.071
-375.858	127.672	0.152	-0.193
-374.844	-74.183	0.083	0.030
-373.829	-110.165	-0.135	-0.028
-372.815	-34.695	0.198	-0.108
-371.800	-25.352	0.009	0.006
-370.785	82.040	0.119	0.129
-369.771	-200.000	0.024	0.382
-368.756	573.830	0.135	0.329
-367.742	30.256	0.145	0.124
-366.727	109.734	0.088	-0.105
-365.712	-200.000	0.030	0.383
-364.698	-127.463	0.256	-0.037
-363.683	-19.803	0.415	0.256
-362.669	-200.000	-0.021	0.211
-361.654	-98.588	0.207	-0.053
-360.639	402.942	-0.029	0.060
-359.625	-12.772	0.191	-0.124
-358.610	-200.000	-0.015	-0.092
-357.596	-65.644	0.075	-0.030
-356.581	190.357	0.282	-0.422
-355.566	190.699	-0.128	-0.192
-354.552	362.415	0.152	0.305
-353.537	-98.328	0.121	0.031
-352.523	-129.366	-0.352	0.049
-351.508	2.262	0.149	-0.107
-350.493	-200.000	-0.017	-0.271
-349.479	-107.480	0.124	-0.027
-348.464	-2.569	-0.179	0.125
-347.450	161.149	0.115	0.160
-346.435	-200.000	0.005	-0.067
-345.420	800.000	-0.055	-0.176
-344.406	-59.529	-0.041	-0.017
-343.391	-89.870	0.165	0.048
-342.377	366.137	-0.031	0.062
-341.362	-99.413	0.272	-0.068
-340.348	405.890	0.032	-0.068
-339.333	397.529	-0.158	0.329
-338.318	83.364	-0.066	-0.071
-337.304	213.220	-0.098	0.154
-336.289	-105.415	0.264	-0.060
-335.275	-85.794	-0.083	0.026
-334.260	-58.433	0.234	-0.102
-333.245	-91.861	-0.066	0.019
-332.231	-98.633	-0.205	0.052
-331.216	-200.000	0.001	-0.192
-330.202	2.701	-0.257	0.186
-329.187	145.895	-0.261	-0.349
-328.172	-200.000	-0.083	0.573
-327.158	-200.000	-0.046	0.295
-326.143	-200.000	0.016	0.188
-325.129	63.274	0.303	-0.303
-324.114	-200.000	-0.068	-0.335
-323.099	98.588	-0.031	0.036
-322.085	-22.071	0.020	-0.012
-321.070	84.392	0.203	-0.222
-320.056	422.611	0.090	0.193
-319.041	37.401	0.228	0.201
-318.026	-174.989	-0.183	-0.005
-317.012	410.723	0.066	-0.139
-315.997	-46.522	0.011	0.005
-314.983	442.367	0.104	-0.227
-313.968	-156.646	0.210	-0.013
-312.953	51.418	0.083	0.079
-311.939	310.584	0.040	-0.075
-310.924	283.526	0.046	0.082
-309.910	-105.541	0.496	-0.112
-308.895	63.799	-0.206	-0.206
-307.880	4.635	0.075	-0.055
-306.866	303.060	-0.175	-0.322
-305.851	-1.918	-0.333	-0.233
-304.837	-154.136	0.157	-0.011
-303.822	-200.000	-0.025	0.385
-302.807	50.791	-0.189	0.178
-301.793	-9.882	-0.061	-0.041
-300.778	75.246	0.162	0.170
-299.764	7.825	0.344	0.257
-298.749	233.784	0.049	0.081
-297.735	68.356	-0.068	-0.069
-296.720	27.881	-0.175	0.147
-295.705	-200.000	0.049	-0.272
-294.691	165.954	-0.073	0.103
-293.676	90.579	-0.187	0.208
-292.662	-175.830	0.118	-0.003
-291.647	200.806	-0.265	-0.405
-290.632	-156.394	-0.414	0.026
-289.618	-84.579	0.116	-0.036
-288.603	-42.571	-0.175	0.089
-287.589	44.706	0.330	0.302
-286.574	800.000	0.040	0.146
-285.559	439.975	-0.059	-0.128
-284.545	-42.809	0.278	-0.141
-283.530	164.114	-0.017	-0.024
-282.516	-200.000	-0.016	0.081
-281.501	398.019	-0.117	0.243
-280.486	41.296	-0.068	-0.061
-279.472	505.298	0.105	-0.241
-278.457	214.226	-0.244	-0.384
-277.443	159.209	-0.231	-0.320
-276.428	-45.174	-0.061	-0.030
-275.413	-11.384	0.212	0.139
-274.399	-85.906	0.112	0.035
-273.384	154.331	-0.069	-0.094
-272.370	-176.263	0.090	0.002
-271.355	2.974	0.162	0.117
-270.340	241.726	0.079	-0.132
-269.326	800.000	0.090	-0.290
-268.311	62.757	-0.275	-0.274
-267.297	83.189	0.181	-0.196
-266.282	-200.000	-0.249	-0.000
-265.267	-53.690	0.351	-0.160
-264.253	332.053	-0.149	0.286
-263.238	76.052	-0.078	0.082
-262.224	800.000	0.089	-0.256
-261.209	66.623	0.152	-0.154
-260.195	270.761	-0.038	-0.066
-259.180	-80.600	-0.224	0.074
-258.165	114.087	0.127	0.154
-257.151	155.358	0.068	-0.093
-256.136	-141.828	0.048	-0.005
-255.122	196.241	0.186	-0.282
-254.107	219.263	-0.086	-0.137
-253.092	108.443	0.168	-0.200
-252.078	-78.164	0.277	0.095
-251.063	-200.000	-0.015	0.115
-250.049	158.923	-0.110	0.152
-249.034	-200.000	-0.285	0.000
-248.019	-102.901	-0.086	-0.020
-247.005	263.728	0.064	0.111
-245.990	800.000	-0.109	0.366
-244.976	-9.922	-0.130	-0.086
-243.961	800.000	-0.082	0.270
-242.946	-186.602	-0.354	0.005
-241.932	-100.596	0.136	0.033
-240.917	36.128	0.098	0.085
-239.903	-67.795	0.093	0.036
-238.888	-39.217	-0.272	0.142
-237.873	216.063	-0.054	-0.085
-236.859	38.215	0.138	0.122
-235.844	-154.171	0.380	-0.026
-234.830	-92.531	-0.264	0.074
-233.815	-45.147	0.159	-0.078
-232.800	102.006	0.197	-0.228
-231.786	800.000	0.098	0.294
-230.771	259.477	0.144	0.246
-229.757	27.425	0.174	-0.145
-228.742	408.227	-0.135	0.283
-227.727	-137.027	-0.223	0.025
-226.713	-200.000	-0.119	0.000
-225.698	-127.798	-0.238	-0.034
-224.684	-65.380	0.192	-0.076
-223.669	800.000	-0.110	0.314
-222.655	529.711	0.026	0.060
-221.640	65.874	-0.153	0.154
-220.625	-7.176	-0.246	-0.166
-219.611	-22.726	0.073	0.044
-218.596	-110.311	-0.249	0.051
-217.582	-200.000	0.020	-0.268
-216.567	-63.900	0.281	-0.114
-215.552	-200.000	0.002	-0.156
-214.538	-112.112	-0.216	-0.043
-213.523	217.702	-0.041	-0.065
-212.509	-163.366	0.161	-0.008
-211.494	147.790	-0.081	0.108
-210.479	-147.465	-0.226	0.019
-209.465	-200.000	-0.013	-0.182
-208.450	-119.243	0.347	0.060
-207.436	-49.785	-0.321	-0.151
-206.421	53.052	0.242	0.230
-205.406	-200.000	-0.024	0.359
-204.392	800.000	-0.091	-0.373
-203.377	0.120	-0.141	0.099
-202.363	348.039	-0.085	0.167
-201.348	-99.868	0.055	-0.014
-200.333	-85.127	0.202	-0.063
-199.319	-18.988	0.129	0.079
-198.304	670.923	0.132	0.339
-197.290	-200.000	0.049	0.363
-196.275	71.305	-0.023	0.023
-195.260	25.074	0.229	-0.189
-194.246	-55.417	0.093	-0.041
-193.231	316.204	-0.094	0.177
-192.217	127.387	0.160	-0.201
-191.202	-200.000	0.073	0.354
-190.187	73.067	0.186	-0.193
-189.173	-200.000	-0.025	-0.204
-188.158	639.642	0.063	0.159
-187.144	17.936	0.265	0.209
-186.129	84.962	0.275	0.299
-185.114	-104.462	0.314	0.072
-184.100	-185.016	-0.091	0.001
-183.085	-36.196	0.148	-0.079
-182.071	98.861	0.099	-0.114
-181.056	54.565	-0.058	0.055
-180.042	402.996	-0.107	0.224
-179.027	-200.000	0.035	-0.163
-178.012	85.636	0.146	-0.159
-176.998	72.860	0.108	-0.112
-175.983	-200.000	0.510	-0.001
-174.969	300.131	-0.135	0.247
-173.954	-14.767	0.197	-0.125
-172.939	800.000	0.010	0.039
-171.925	15.801	0.145	-0.113
-170.910	-85.276	-0.393	-0.122
-169.896	56.429	0.190	0.183
-168.881	-138.734	0.238	-0.026
-167.866	-162.940	-0.134	0.006
-166.852	-28.949	-0.109	0.062
-165.837	70.859	0.061	-0.062
-164.823	155.573	-0.208	0.283
-163.808	-97.017	0.102	-0.026
-162.793	800.000	0.047	0.160
-161.779	800.000	-0.025	-0.081
-160.764	-28.386	0.249	-0.142
-159.750	-106.303	-0.272	-0.060
-158.735	298.222	-0.148	0.270
-157.720	-70.448	0.378	0.142
-156.706	800.000	-0.081	-0.303
-155.691	-200.000	0.009	0.253
-154.677	800.000	-0.026	0.092
-153.662	-67.950	-0.160	-0.062
-152.647	524.611	-0.176	-0.410
-151.633	-36.689	0.339	-0.180
-150.618	-114.774	-0.114	0.022
-149.604	-68.181	0.246	0.095
-148.589	-200.000	0.053	-0.306
-147.574	573.257	-0.073	-0.175
-146.560	136.063	-0.105	0.135
-145.545	134.996	0.178	-0.229
-144.531	-200.000	0.029	-0.179
-143.516	23.680	0.190	0.155
-142.502	800.000	0.116	0.448
-141.487	210.326	-0.204	-0.317
-140.472	-90.116	0.493	0.142
-139.458	-200.000	0.034	0.240
-138.443	336.023	0.129	-0.248
-137.429	-61.223	-0.299	0.125
-136.414	-200.000	0.024	0.459
-135.399	62.762	0.061	0.060
-134.385	-73.396	-0.343	0.124
-133.370	-200.000	-0.006	0.161
-132.356	281.608	-0.115	-0.204
-131.341	-132.340	-0.041	-0.005
-130.326	41.441	0.184	0.165
-129.312	-155.413	-0.103	0.007
-128.297	451.975	-0.099	0.215
-127.283	15.350	0.067	-0.052
-126.268	362.432	0.185	-0.366
-125.253	-117.185	0.447	-0.080
-124.239	-87.660	-0.079	-0.023
-123.224	800.000	0.050	-0.213
-122.210	-31.819	0.266	-0.147
-121.195	-5.549	-0.354	0.240
-120.180	-200.000	0.024	0.213
