DTS Sentinel unit serial number:	SN413079Multiplexer serial number:	ORYXHardware model number:	OX4-SRSoftware version number:	ORYX F/W v4.00 Oryx Data Collector v3.7.2.0data status	okinstallation	princeton_trtdifferential loss correction	single-endedforward channel	channel 1reverse channel	N/Adate	2019/09/12time	15:36:11forward acquisition time	60.00reverse acquisition time	0.00gamma	496.2192k internal	0.2294k external	0.2294temperature offset calibration	1.0070default loss term (dB/km)	0.3790temperature slope calibration	1.0000multiplexer offset coefficient	1.0000multiplexer slope coefficient	1.0000fibre end	0.00T internal ref (°C)	40.36T ext. ref 1 (°C)	2.43T ext. ref 2 (°C)	33.22length (m)	temperature (°C)	Stokes	anti-Stokes-747.200	-103.023	0.184	0.045
-746.185	-200.000	0.095	0.430
-745.171	79.121	0.135	0.148
-744.156	-92.565	-0.305	0.088
-743.142	674.853	0.137	0.363
-742.127	-200.000	0.016	0.220
-741.112	-112.408	0.139	0.028
-740.098	-155.629	0.222	-0.015
-739.083	25.469	-0.087	-0.074
-738.069	-90.541	-0.310	0.092
-737.054	-31.664	-0.121	0.069
-736.039	-65.029	-0.138	-0.057
-735.025	-164.824	0.169	0.008
-734.010	624.347	-0.125	-0.323
-732.996	388.511	-0.155	0.328
-731.981	100.711	-0.172	0.205
-730.966	-70.749	-0.206	0.079
-729.952	-200.000	0.024	-0.281
-728.937	-95.515	-0.155	0.042
-727.923	71.761	-0.077	-0.082
-726.908	-80.497	-0.163	0.056
-725.894	241.690	-0.174	-0.296
-724.879	-103.477	-0.156	0.037
-723.864	-111.400	-0.262	-0.055
-722.850	-106.845	-0.183	-0.042
-721.835	-200.000	-0.061	-0.341
-720.821	99.080	-0.100	-0.118
-719.806	-200.000	-0.027	-0.277
-718.791	-63.550	-0.364	0.153
-717.777	44.114	-0.260	-0.244
-716.762	-25.822	-0.073	0.044
-715.748	-144.410	0.149	-0.014
-714.733	-200.000	-0.018	-0.340
-713.718	85.003	0.136	0.152
-712.704	466.709	-0.154	-0.352
-711.689	-76.871	0.240	-0.086
-710.675	336.511	-0.116	-0.230
-709.660	-200.000	-0.087	0.447
-708.645	-20.911	0.153	-0.096
-707.631	35.304	-0.074	0.066
-706.616	800.000	-0.115	-0.361
-705.602	220.489	-0.136	0.223
-704.587	73.079	-0.077	-0.082
-703.572	-135.146	0.404	-0.050
-702.558	44.796	0.080	0.076
-701.543	-89.224	-0.256	-0.077
-700.529	124.583	0.140	-0.180
-699.514	791.252	0.087	-0.245
-698.499	-30.327	0.259	-0.150
-697.485	800.000	0.086	-0.309
-696.470	20.374	-0.088	-0.073
-695.456	-200.000	-0.020	-0.269
-694.441	-89.743	-0.234	0.070
-693.426	282.365	0.160	0.293
-692.412	-200.000	0.050	-0.411
-691.397	55.699	-0.281	0.278
-690.383	-57.646	-0.058	0.026
-689.368	800.000	0.043	-0.179
-688.354	140.000	0.155	0.208
-687.339	-41.078	-0.161	-0.085
-686.324	-31.622	-0.277	-0.159
-685.310	216.381	-0.053	0.086
-684.295	-200.000	-0.011	0.143
-683.281	800.000	0.053	0.163
-682.266	72.900	-0.159	0.169
-681.251	-200.000	-0.017	-0.467
-680.237	257.048	-0.251	-0.440
-679.222	79.706	-0.097	0.106
-678.208	288.222	0.082	0.152
-677.193	800.000	-0.063	-0.192
-676.178	416.520	0.120	-0.261
-675.164	-1.471	-0.073	0.053
-674.149	-10.298	-0.107	0.073
-673.135	-163.190	-0.083	-0.004
-672.120	-102.092	0.319	0.078
-671.105	-71.940	-0.201	-0.076
-670.091	-47.777	0.252	0.125
-669.076	408.930	0.135	-0.292
-668.062	800.000	-0.073	0.267
-667.047	115.188	-0.114	0.142
-666.032	-84.687	0.176	-0.056
-665.018	-140.517	0.119	-0.013
-664.003	16.497	0.276	-0.222
-662.989	-166.301	0.486	0.021
-661.974	-16.602	-0.081	-0.053
-660.959	405.597	0.238	-0.511
-659.945	426.357	-0.044	-0.097
-658.930	-116.989	0.288	-0.054
-657.916	56.723	0.054	0.053
-656.901	381.139	-0.122	-0.256
-655.886	800.000	-0.077	0.227
-654.872	-56.905	-0.103	-0.046
-653.857	177.671	-0.251	-0.372
-652.843	404.924	-0.008	-0.017
-651.828	-113.778	-0.153	0.030
-650.814	-22.802	-0.201	0.124
-649.799	-100.754	-0.366	-0.092
-648.784	7.434	-0.166	-0.126
-647.770	360.797	-0.110	0.224
-646.755	-104.727	-0.194	0.045
-645.741	33.525	-0.250	-0.221
-644.726	12.278	-0.218	-0.171
-643.711	343.637	0.095	-0.190
-642.697	-88.874	-0.142	0.043
-641.682	775.065	0.084	0.232
-640.668	-21.266	0.159	0.099
-639.653	-68.884	-0.248	-0.098
-638.638	271.109	-0.173	-0.311
-637.624	-200.000	0.019	0.196
-636.609	16.742	-0.080	-0.064
-635.595	462.250	0.115	0.261
-634.580	-8.959	0.058	-0.040
-633.565	-200.000	-0.032	-0.324
-632.551	161.867	0.110	0.156
-631.536	27.162	-0.077	-0.066
-630.522	109.216	0.165	0.201
-629.507	-105.451	0.421	-0.097
-628.492	-77.749	-0.170	-0.060
-627.478	-115.031	0.036	0.007
-626.463	17.841	-0.182	0.147
-625.449	800.000	0.051	-0.220
-624.434	244.915	-0.118	0.201
-623.419	137.996	-0.035	0.046
-622.405	156.709	-0.174	-0.244
-621.390	29.130	0.198	-0.171
-620.376	-72.385	0.236	0.089
-619.361	7.559	0.259	0.197
-618.346	171.381	-0.095	-0.139
-617.332	-59.347	-0.148	-0.065
-616.317	105.878	0.147	0.176
-615.303	81.933	-0.298	0.328
-614.288	-90.130	-0.075	-0.022
-613.273	-27.291	0.024	0.014
-612.259	404.264	0.058	-0.124
-611.244	-13.553	-0.319	0.210
-610.230	-20.643	-0.382	0.239
-609.215	381.384	-0.094	0.197
-608.201	-200.000	-0.080	-0.409
-607.186	-107.454	0.283	0.063
-606.171	22.661	-0.052	-0.043
-605.157	208.217	0.072	-0.115
-604.142	297.111	-0.111	0.208
-603.128	-200.000	0.031	-0.181
-602.113	-38.436	-0.165	-0.089
-601.098	139.055	-0.100	0.133
-600.084	-120.182	0.125	0.022
-599.069	264.464	-0.098	-0.174
-598.055	-53.311	-0.088	0.041
-597.040	-8.434	-0.171	0.117
-596.025	91.222	0.227	-0.259
-595.011	335.162	0.060	0.117
-593.996	38.276	0.156	0.141
-592.982	-200.000	0.038	0.278
-591.967	-90.410	-0.264	0.078
-590.952	-200.000	-0.005	0.147
-589.938	-47.030	-0.123	0.061
-588.923	-65.608	-0.130	0.053
-587.909	-161.543	-0.062	0.003
-586.894	800.000	0.037	0.124
-585.879	-200.000	0.022	-0.123
-584.865	800.000	0.043	0.154
-583.850	800.000	0.033	0.121
-582.836	-62.188	0.143	-0.060
-581.821	-96.779	0.190	0.051
-580.806	-200.000	0.061	-0.345
-579.792	659.701	-0.060	-0.158
-578.777	-200.000	0.019	-0.135
-577.763	800.000	0.052	-0.149
-576.748	-3.960	-0.146	-0.103
-575.733	-200.000	-0.016	0.305
-574.719	800.000	-0.049	0.202
-573.704	430.399	0.073	-0.160
-572.690	-67.919	0.071	-0.028
-571.675	329.400	-0.123	0.241
-570.661	24.102	-0.151	0.127
-569.646	-122.013	0.108	-0.018
-568.631	-122.785	-0.429	0.070
-567.617	649.467	0.014	-0.037
-566.602	-77.625	0.112	0.039
-565.588	178.424	0.119	0.177
-564.573	10.098	0.189	0.146
-563.558	-200.000	0.009	-0.210
-562.544	-108.166	0.430	0.094
-561.529	380.444	0.140	-0.291
-560.515	800.000	0.030	-0.104
-559.500	-200.000	-0.031	0.237
-558.485	-112.641	0.140	0.028
-557.471	-84.706	-0.119	-0.038
-556.456	800.000	0.019	-0.055
-555.442	-93.260	-0.063	0.018
-554.427	800.000	-0.051	-0.206
-553.412	-200.000	0.030	0.222
-552.398	800.000	0.023	-0.088
-551.383	800.000	-0.051	-0.162
-550.369	-128.059	0.399	0.058
-549.354	-100.602	-0.067	-0.017
-548.339	-97.030	0.266	0.071
-547.325	-200.000	-0.005	-0.307
-546.310	-58.427	-0.129	0.057
-545.296	22.462	0.206	0.171
-544.281	-68.318	-0.258	0.102
-543.266	83.591	-0.212	0.235
-542.252	-200.000	-0.064	-0.384
-541.237	800.000	0.053	-0.218
-540.223	-72.579	0.250	-0.094
-539.208	67.305	-0.187	0.194
-538.193	-200.000	0.010	-0.115
-537.179	504.620	0.056	0.132
-536.164	800.000	-0.061	0.238
-535.150	-74.554	-0.014	-0.005
-534.135	14.066	-0.218	0.172
-533.121	222.565	0.101	0.165
-532.106	279.595	-0.154	-0.279
-531.091	31.438	0.173	-0.151
-530.077	289.076	0.178	-0.328
-529.062	-200.000	0.039	-0.256
-528.048	-140.736	0.010	-0.001
-527.033	16.642	-0.022	-0.018
-526.018	34.376	-0.385	-0.341
-525.004	-113.921	0.177	0.035
-523.989	132.618	-0.112	-0.146
-522.975	116.784	0.169	-0.211
-521.960	-93.321	0.061	0.017
-520.945	255.575	-0.177	0.308
-519.931	546.086	-0.072	-0.174
-518.916	-200.000	0.012	-0.126
-517.902	290.562	-0.084	0.155
-516.887	211.198	-0.114	-0.182
-515.872	-37.259	0.226	-0.122
-514.858	0.730	-0.108	-0.078
-513.843	-103.507	0.133	-0.032
-512.829	-14.646	0.036	0.024
-511.814	34.067	0.122	0.107
-510.799	-58.221	-0.167	-0.074
-509.785	-75.589	0.508	-0.183
-508.770	800.000	-0.085	0.248
-507.756	-90.436	-0.347	-0.102
-506.741	293.988	0.199	-0.369
-505.726	112.626	0.214	-0.263
-504.712	30.993	-0.083	-0.072
-503.697	363.641	0.184	0.374
-502.683	-150.104	-0.133	-0.010
-501.668	448.290	-0.088	0.196
-500.653	-200.000	0.022	-0.248
-499.639	-173.131	-0.118	-0.004
-498.624	-45.591	-0.198	-0.099
-497.610	-17.363	-0.214	-0.136
-496.595	-138.818	0.169	0.019
-495.581	124.741	0.085	0.109
-494.566	-77.475	-0.378	-0.133
-493.551	-157.775	0.316	0.019
-492.537	-194.205	-0.256	-0.002
-491.522	1.946	0.048	-0.035
-490.508	118.193	0.188	0.235
-489.493	-39.745	0.148	0.078
-488.478	221.691	-0.076	0.124
-487.464	-80.289	-0.061	-0.021
-486.449	-200.000	0.028	0.248
-485.435	-61.351	-0.157	-0.067
-484.420	-25.373	0.141	0.084
-483.405	800.000	-0.036	-0.111
-482.391	-105.111	-0.061	0.014
-481.376	-23.695	-0.324	-0.197
-480.362	-26.125	-0.130	-0.078
-479.347	-99.506	-0.282	0.072
-478.332	0.619	-0.281	0.203
-477.318	35.622	0.038	-0.034
-476.303	-200.000	0.034	0.284
-475.289	-106.944	0.199	-0.045
-474.274	-30.431	0.149	0.085
-473.259	-47.397	-0.147	-0.073
-472.245	-11.966	0.041	-0.027
-471.230	-200.000	-0.030	0.167
-470.216	126.586	0.122	-0.156
-469.201	-140.316	-0.330	-0.035
-468.186	166.073	-0.140	0.201
-467.172	-77.907	-0.055	-0.019
-466.157	101.016	0.131	0.154
-465.143	205.387	0.218	-0.342
-464.128	-200.000	0.037	-0.401
-463.113	-100.702	0.242	-0.060
-462.099	-200.000	-0.043	0.270
-461.084	185.992	-0.087	-0.131
-460.070	-9.215	-0.111	-0.075
-459.055	121.854	0.086	-0.109
-458.040	800.000	0.110	0.322
-457.026	264.370	0.075	0.132
-456.011	528.212	-0.089	-0.212
-454.997	61.393	-0.134	-0.135
-453.982	130.302	0.129	-0.167
-452.968	-32.042	0.287	0.162
-451.953	800.000	-0.134	0.386
-450.938	800.000	0.028	0.090
-449.924	-110.823	-0.224	0.047
-448.909	800.000	-0.107	-0.346
-447.895	-108.719	0.354	0.077
-446.880	-174.117	-0.426	-0.013
-445.865	146.969	0.105	-0.143
-444.851	-127.537	0.160	-0.023
-443.836	56.963	-0.149	0.147
-442.822	116.840	0.173	0.215
-441.807	-200.000	0.013	0.095
-440.792	-200.000	-0.010	0.087
-439.778	-27.652	-0.085	0.050
-438.763	15.201	-0.095	-0.075
-437.749	430.874	-0.093	0.204
-436.734	-200.000	0.030	-0.143
-435.719	-87.913	0.276	0.084
-434.705	31.811	0.085	0.074
-433.690	147.622	-0.093	-0.127
-432.676	-70.335	0.151	-0.058
-431.661	-28.424	0.067	-0.039
-430.646	-151.535	-0.177	0.013
-429.632	-37.494	0.157	0.084
-428.617	295.354	-0.125	-0.231
-427.603	-86.702	-0.118	0.036
-426.588	-200.000	-0.066	0.508
-425.573	100.686	-0.077	0.090
-424.559	800.000	-0.008	-0.031
-423.544	-0.683	0.445	-0.319
-422.530	-116.954	0.054	0.010
-421.515	-103.426	0.098	-0.023
-420.500	-200.000	0.026	0.160
-419.486	-97.233	-0.225	-0.059
-418.471	-52.523	-0.109	0.051
-417.457	-124.116	-0.079	-0.013
-416.442	371.418	-0.086	0.176
-415.428	-140.086	0.605	-0.064
-414.413	800.000	-0.043	-0.146
-413.398	396.703	0.168	0.354
-412.384	800.000	0.101	0.337
-411.369	157.075	-0.191	-0.266
-410.355	80.588	0.183	0.199
-409.340	-77.141	-0.105	-0.037
-408.325	-42.458	0.316	0.163
-407.311	35.362	0.251	-0.223
-406.296	-34.747	-0.324	-0.179
-405.282	-42.724	0.174	0.089
-404.267	440.143	0.077	-0.170
-403.252	-43.139	0.060	-0.031
-402.238	-98.945	0.249	-0.064
-401.223	-124.158	-0.228	0.036
-400.209	692.157	0.111	-0.295
-399.194	-200.000	0.018	-0.097
-398.179	-75.223	0.217	-0.078
-397.165	-102.688	-0.334	-0.080
-396.150	517.546	-0.093	-0.220
-395.136	-33.976	-0.148	-0.082
-394.121	-29.683	-0.252	0.145
-393.106	694.849	0.091	-0.240
-392.092	141.435	-0.058	-0.077
-391.077	-29.450	0.385	0.222
-390.063	-99.945	0.175	0.044
-389.048	-151.506	0.431	-0.032
-388.033	-200.000	-0.001	-0.125
-387.019	800.000	0.076	-0.228
-386.004	-38.378	-0.447	-0.239
-384.990	65.420	-0.109	0.112
-383.975	-94.479	-0.234	0.064
-382.960	-66.976	0.147	-0.059
-381.946	130.068	0.108	-0.140
-380.931	-200.000	-0.004	0.099
-379.917	-2.620	-0.078	0.055
-378.902	-48.032	0.117	-0.057
-377.888	43.130	0.106	-0.098
-376.873	-54.500	-0.195	0.089
-375.858	-200.000	-0.001	0.066
-374.844	-200.000	0.009	-0.041
-373.829	222.679	0.082	0.133
-372.815	-32.829	-0.286	-0.160
-371.800	5.113	0.166	0.123
-370.785	-110.774	0.338	-0.070
-369.771	800.000	0.017	0.073
-368.756	-200.000	0.003	0.155
-367.742	-111.086	0.116	-0.024
-366.727	-200.000	0.007	0.062
-365.712	40.046	-0.183	0.166
-364.698	-127.692	-0.030	-0.004
-363.683	-115.410	0.116	-0.022
-362.669	58.992	0.091	0.090
-361.654	-39.961	0.117	0.061
-360.639	-113.061	-0.277	0.055
-359.625	32.449	-0.117	-0.102
-358.610	19.542	0.187	0.151
-357.596	-149.175	0.263	-0.021
-356.581	49.003	-0.231	0.218
-355.566	-200.000	-0.018	-0.133
-354.552	365.804	0.011	0.022
-353.537	198.398	-0.075	0.116
-352.523	103.515	0.294	-0.347
-351.508	-98.429	0.094	0.024
-350.493	224.094	0.157	0.256
-349.479	243.759	-0.200	-0.337
-348.464	-67.562	0.160	0.063
-347.450	372.700	0.209	0.427
-346.435	-200.000	0.009	0.345
-345.420	-17.646	-0.069	0.044
-344.406	-83.521	-0.167	0.054
-343.391	-146.872	-0.237	0.021
-342.377	-98.255	-0.221	-0.057
-341.362	800.000	0.020	-0.057
-340.348	-58.570	0.022	0.010
-339.333	32.553	0.070	-0.061
-338.318	66.119	-0.209	-0.214
-337.304	14.760	-0.030	0.023
-336.289	-50.677	-0.383	0.182
-335.275	-92.188	-0.264	-0.075
-334.260	397.578	-0.048	-0.101
-333.245	-134.844	-0.266	-0.032
-332.231	-143.573	-0.219	-0.021
-331.216	-133.877	-0.313	0.039
-330.202	-162.590	0.290	0.014
-329.187	-50.155	0.303	-0.144
-328.172	800.000	-0.021	-0.090
-327.158	-36.533	0.083	0.045
-326.143	-200.000	-0.059	0.276
-325.129	117.232	-0.141	-0.174
-324.114	35.965	-0.211	0.187
-323.099	-45.484	-0.080	0.040
-322.085	155.329	-0.004	0.006
-321.070	-180.170	0.267	0.006
-320.056	106.332	-0.058	0.069
-319.041	114.945	-0.099	-0.121
-318.026	-106.847	0.398	-0.089
-317.012	721.434	0.047	0.125
-315.997	35.989	-0.324	0.287
-314.983	-38.354	-0.152	-0.081
-313.968	459.271	0.150	-0.335
-312.953	93.781	-0.185	-0.211
-311.939	-111.381	0.311	-0.064
-310.924	-19.142	0.168	0.105
-309.910	0.563	0.082	0.059
-308.895	-200.000	0.012	-0.374
-307.880	-200.000	0.029	-0.247
-306.866	220.606	0.033	0.054
-305.851	-4.567	-0.216	0.150
-304.837	36.516	-0.051	0.045
-303.822	50.918	0.230	0.219
-302.807	-123.433	-0.306	0.049
-301.793	-200.000	0.008	-0.141
-300.778	658.793	0.154	0.398
-299.764	149.625	-0.163	0.221
-298.749	-149.231	0.170	0.014
-297.735	-200.000	0.036	-0.321
-296.720	-46.487	-0.160	0.079
-295.705	-55.322	0.243	0.110
-294.691	-200.000	-0.035	0.162
-293.676	279.962	-0.240	0.432
-292.662	-100.426	0.212	0.053
-291.647	-200.000	0.008	-0.123
-290.632	-125.372	-0.142	-0.022
-289.618	-64.300	0.156	-0.064
-288.603	-59.086	0.068	-0.030
-287.589	-123.653	0.210	0.033
-286.574	-89.391	0.328	-0.097
-285.559	31.247	-0.121	0.104
-284.545	130.033	-0.043	-0.055
-283.530	-37.710	0.260	0.139
-282.516	63.431	-0.102	0.102
-281.501	-18.358	-0.225	-0.142
-280.486	-19.465	-0.261	0.162
-279.472	26.656	0.213	0.179
-278.457	45.459	0.173	0.160
-277.443	-200.000	0.002	0.071
-276.428	-175.851	0.079	0.002
-275.413	-128.600	-0.195	-0.028
-274.399	-84.047	-0.305	0.097
-273.384	213.374	0.177	0.281
-272.370	1.882	0.163	-0.118
-271.355	-200.000	0.005	-0.131
-270.340	-118.557	-0.155	0.027
-269.326	-64.405	0.484	-0.197
-268.311	23.636	-0.164	-0.136
-267.297	54.794	0.154	0.149
-266.282	15.746	-0.087	0.069
-265.267	174.664	-0.119	-0.173
-264.253	-115.167	0.250	-0.048
-263.238	800.000	-0.140	-0.408
-262.224	83.540	-0.100	0.109
-261.209	-15.424	-0.168	0.107
-260.195	-200.000	0.035	-0.241
-259.180	-200.000	0.001	0.242
-258.165	11.226	0.100	-0.077
-257.151	-104.018	0.079	-0.018
-256.136	-200.000	0.015	0.404
-255.122	537.560	-0.073	0.174
-254.107	69.726	0.187	-0.193
-253.092	44.547	0.201	0.185
-252.078	28.307	0.146	-0.124
-251.063	148.915	-0.104	-0.142
-250.049	-23.409	-0.200	-0.121
-249.034	458.672	0.087	-0.195
-248.019	-200.000	0.031	-0.160
-247.005	54.841	-0.058	-0.056
-245.990	-28.335	0.199	-0.115
-244.976	-162.432	-0.335	-0.017
-243.961	250.408	0.055	0.094
-242.946	-200.000	-0.006	-0.159
-241.932	-113.717	-0.284	-0.055
-240.917	42.288	0.053	0.048
-239.903	550.694	0.104	0.251
-238.888	-46.808	-0.112	0.055
-237.873	294.292	-0.132	-0.242
-236.859	-5.544	-0.098	0.067
-235.844	-180.422	-0.170	-0.004
-234.830	-114.706	0.173	0.033
-233.815	607.918	-0.108	-0.270
-232.800	800.000	-0.031	-0.115
-231.786	-96.692	-0.104	0.027
-230.771	-130.469	0.143	0.019
-229.757	-200.000	0.018	0.212
-228.742	-101.315	-0.115	0.028
-227.727	-144.552	-0.202	-0.019
-226.713	-200.000	-0.006	-0.392
-225.698	-158.546	0.169	-0.010
-224.684	475.074	-0.110	-0.249
-223.669	800.000	0.129	0.360
-222.655	800.000	0.129	0.392
-221.640	-65.683	-0.130	0.052
-220.625	-165.702	0.126	0.005
-219.611	-190.580	-0.273	-0.003
-218.596	464.641	-0.101	-0.226
-217.582	83.006	-0.129	-0.140
-216.567	398.873	-0.114	0.240
-215.552	486.009	0.085	-0.195
-214.538	800.000	0.002	-0.006
-213.523	-183.752	-0.402	0.007
-212.509	245.400	-0.159	-0.268
-211.494	-133.532	0.120	0.015
-210.479	20.299	-0.107	-0.086
-209.465	128.100	-0.150	0.191
-208.450	307.717	0.081	-0.151
-207.436	-84.076	0.176	0.056
-206.421	-200.000	0.042	-0.365
-205.406	800.000	0.092	-0.266
-204.392	-179.597	-0.151	-0.003
-203.377	50.747	0.051	0.048
-202.363	-91.141	0.228	0.066
-201.348	390.087	-0.117	0.244
-200.333	-110.990	0.146	-0.030
-199.319	50.090	0.187	-0.176
-198.304	637.392	0.082	0.209
-197.290	-12.192	0.454	0.297
-196.275	8.139	-0.140	-0.105
-195.260	-200.000	-0.027	-0.131
-194.246	341.433	0.035	-0.068
-193.231	-29.759	0.301	0.172
-192.217	605.270	-0.063	-0.157
-191.202	99.211	-0.220	-0.255
-190.187	-200.000	0.025	0.331
-189.173	303.333	-0.349	0.647
-188.158	-104.824	-0.114	-0.026
-187.144	168.919	0.189	0.269
-186.129	-96.275	0.367	0.097
-185.114	-51.160	0.267	0.125
-184.100	33.660	-0.171	0.149
-183.085	-200.000	-0.013	0.114
-182.071	105.513	0.230	-0.272
-181.056	-200.000	-0.023	-0.246
-180.042	159.584	0.183	0.255
-179.027	-4.230	-0.146	-0.101
-178.012	-23.587	-0.236	-0.141
-176.998	130.911	0.181	0.233
-175.983	-200.000	0.005	0.223
-174.969	-113.930	-0.067	0.013
-173.954	-86.610	-0.487	-0.149
-172.939	215.454	0.099	-0.158
-171.925	-200.000	0.030	-0.278
-170.910	-147.885	0.105	-0.009
-169.896	-200.000	-0.047	-0.244
-168.881	-93.812	0.309	-0.085
-167.866	-200.000	0.026	0.312
-166.852	118.534	-0.031	0.038
-165.837	-131.134	0.190	-0.025
-164.823	-42.156	-0.103	-0.053
-163.808	-200.000	0.046	0.220
-162.793	-165.291	0.229	-0.010
-161.779	-111.425	0.157	0.032
-160.764	-200.000	0.030	0.171
-159.750	47.865	0.208	-0.194
-158.735	233.009	0.064	0.105
-157.720	162.421	-0.208	-0.292
-156.706	800.000	-0.065	0.272
-155.691	800.000	-0.017	-0.059
-154.677	287.358	-0.092	-0.167
-153.662	253.046	-0.076	-0.129
-152.647	-143.691	0.213	-0.020
-151.633	-143.149	0.283	0.027
-150.618	-200.000	-0.041	0.331
-149.604	120.369	0.233	-0.288
-148.589	-176.788	0.247	0.006
-147.574	-60.279	0.290	-0.123
-146.560	-19.458	0.502	-0.311
-145.545	-200.000	0.111	0.525
-144.531	23.347	-0.179	0.147
-143.516	405.059	-0.099	-0.209
-142.502	-16.085	-0.363	0.230
-141.487	-87.736	0.453	0.136
-140.472	-127.009	-0.111	0.016
-139.458	-41.124	0.343	-0.177
-138.443	-200.000	0.011	0.176
-137.429	148.037	-0.087	0.118
-136.414	-161.001	0.314	-0.016
-135.399	-200.000	0.014	0.228
-134.385	-113.228	-0.498	-0.098
-133.370	329.779	-0.045	0.086
-132.356	52.896	0.272	-0.259
-131.341	-171.491	-0.214	0.007
-130.326	-15.584	0.181	-0.115
-129.312	800.000	-0.090	0.292
-128.297	663.324	0.184	0.474
-127.283	-130.628	0.017	-0.002
-126.268	800.000	-0.099	-0.286
-125.253	6.397	0.063	0.047
-124.239	203.501	0.223	0.345
-123.224	-200.000	-0.036	-0.242
-122.210	136.176	0.090	-0.117
