DTS Sentinel unit serial number:	SN413079Multiplexer serial number:	ORYXHardware model number:	OX4-SRSoftware version number:	ORYX F/W v4.00 Oryx Data Collector v3.7.2.0data status	okinstallation	princeton_trtdifferential loss correction	single-endedforward channel	channel 1reverse channel	N/Adate	2019/09/11time	16:24:11forward acquisition time	60.00reverse acquisition time	0.00gamma	496.2192k internal	0.2290k external	0.2290temperature offset calibration	0.9991default loss term (dB/km)	0.3790temperature slope calibration	1.0000multiplexer offset coefficient	1.0000multiplexer slope coefficient	1.0000fibre end	0.00T internal ref (°C)	43.53T ext. ref 1 (°C)	1.08T ext. ref 2 (°C)	38.65length (m)	temperature (°C)	Stokes	anti-Stokes-747.200	-151.107	0.396	0.030
-746.185	105.586	0.332	0.402
-745.171	-185.485	0.306	0.005
-744.156	800.000	0.032	-0.114
-743.142	21.221	0.070	0.058
-742.127	67.128	0.304	0.318
-741.112	428.603	-0.080	0.178
-740.098	50.005	0.135	0.131
-739.083	421.975	-0.091	-0.201
-738.069	189.574	0.070	0.107
-737.054	-111.510	-0.190	-0.040
-736.039	-157.433	-0.106	0.007
-735.025	-101.959	0.048	0.012
-734.010	-40.584	-0.280	-0.149
-732.996	167.090	-0.113	-0.164
-731.981	-115.081	-0.311	0.060
-730.966	-200.000	-0.010	0.070
-729.952	-70.707	-0.200	0.077
-728.937	-182.123	-0.013	-0.000
-727.923	-15.155	0.156	-0.102
-726.908	25.079	-0.084	-0.072
-725.894	164.616	0.054	-0.078
-724.879	-112.552	-0.223	0.045
-723.864	-21.021	-0.145	0.091
-722.850	-104.240	-0.142	0.034
-721.835	-18.254	-0.137	0.088
-720.821	-3.591	-0.180	-0.128
-719.806	241.663	0.060	0.103
-718.791	-200.000	-0.030	0.256
-717.777	-200.000	0.044	0.322
-716.762	581.770	-0.028	-0.069
-715.748	395.604	-0.206	0.441
-714.733	-129.918	-0.054	0.008
-713.718	-200.000	-0.048	0.252
-712.704	-26.052	0.076	0.046
-711.689	159.386	-0.080	-0.114
-710.675	455.276	0.030	-0.067
-709.660	-130.182	-0.375	0.052
-708.645	-200.000	-0.008	0.217
-707.631	12.540	-0.085	0.067
-706.616	-97.714	-0.298	-0.079
-705.602	800.000	0.085	-0.374
-704.587	-200.000	-0.025	-0.177
-703.572	-22.248	0.225	-0.139
-702.558	-200.000	0.013	-0.077
-701.543	61.167	0.139	-0.141
-700.529	357.257	0.130	-0.265
-699.514	404.775	0.078	-0.168
-698.499	87.429	0.055	-0.063
-697.485	-24.626	0.255	0.155
-696.470	-152.367	0.015	0.001
-695.456	-200.000	-0.012	-0.153
-694.441	315.164	-0.309	0.596
-693.426	-195.438	0.396	-0.003
-692.412	69.326	0.304	-0.319
-691.397	-127.166	-0.165	-0.025
-690.383	45.919	-0.207	-0.196
-689.368	62.316	-0.143	-0.145
-688.354	18.627	-0.306	-0.251
-687.339	0.735	-0.075	-0.055
-686.324	800.000	-0.086	0.340
-685.310	8.525	0.234	0.180
-684.295	468.997	-0.089	0.205
-683.281	-200.000	-0.043	-0.235
-682.266	119.548	-0.186	-0.236
-681.251	-200.000	0.028	0.200
-680.237	-44.362	-0.158	0.081
-679.222	52.860	0.238	0.232
-678.208	124.521	-0.128	-0.164
-677.193	32.556	0.106	-0.093
-676.178	316.766	-0.101	0.195
-675.164	-160.149	0.249	-0.014
-674.149	78.864	0.068	0.074
-673.135	-200.000	-0.001	-0.152
-672.120	51.107	-0.220	0.213
-671.105	525.933	0.043	-0.103
-670.091	183.698	0.111	0.168
-669.076	12.903	-0.012	0.009
-668.062	800.000	0.089	0.260
-667.047	800.000	0.055	-0.196
-666.032	189.331	0.116	-0.178
-665.018	800.000	0.076	-0.313
-664.003	800.000	-0.028	-0.101
-662.989	-33.434	0.299	-0.169
-661.974	799.297	0.107	0.302
-660.959	-154.088	-0.207	0.014
-659.945	198.442	0.190	0.296
-658.930	92.343	0.132	-0.151
-657.916	-112.084	-0.336	-0.069
-656.901	211.875	0.266	-0.428
-655.886	300.898	-0.319	0.602
-654.872	-65.254	-0.136	0.056
-653.857	-18.631	0.120	-0.076
-652.843	-23.397	0.035	-0.021
-651.828	-71.076	-0.264	0.101
-650.814	75.183	0.132	-0.142
-649.799	143.625	0.161	-0.219
-648.784	9.172	-0.096	-0.074
-647.770	0.917	-0.128	-0.094
-646.755	-200.000	0.017	-0.126
-645.741	312.612	-0.169	-0.324
-644.726	183.998	-0.188	-0.284
-643.711	85.633	0.144	0.161
-642.697	699.048	0.071	0.189
-641.682	-3.249	-0.314	-0.223
-640.668	11.133	-0.061	-0.048
-639.653	50.126	0.092	-0.089
-638.638	800.000	0.118	-0.441
-637.624	-48.178	0.296	-0.146
-636.609	-22.749	0.107	0.066
-635.595	-48.092	-0.372	0.183
-634.580	9.346	0.222	0.171
-633.565	-111.841	0.229	0.047
-632.551	13.526	-0.085	0.067
-631.536	25.377	-0.064	-0.054
-630.522	84.768	-0.242	-0.270
-629.507	-192.683	-0.257	0.002
-628.492	-200.000	-0.023	-0.260
-627.478	-152.200	-0.264	0.019
-626.463	-27.090	0.184	0.110
-625.449	800.000	0.098	0.432
-624.434	800.000	0.089	-0.329
-623.419	-74.874	0.067	0.025
-622.405	51.112	0.295	0.285
-621.390	-200.000	0.003	0.015
-620.376	451.370	-0.138	0.311
-619.361	-35.117	0.166	-0.092
-618.346	-200.000	-0.015	-0.105
-617.332	-200.000	0.006	0.352
-616.317	800.000	0.036	-0.107
-615.303	51.412	-0.347	-0.336
-614.288	800.000	-0.038	0.153
-613.273	-64.649	0.147	0.061
-612.259	25.317	0.191	0.162
-611.244	-50.030	0.285	-0.138
-610.230	14.407	0.075	0.060
-609.215	182.278	-0.054	0.081
-608.201	-139.530	0.126	-0.014
-607.186	413.038	-0.047	-0.102
-606.171	102.824	-0.122	-0.146
-605.157	-89.814	-0.201	0.060
-604.142	-200.000	-0.014	0.064
-603.128	28.859	0.124	-0.107
-602.113	-200.000	0.015	-0.262
-601.098	-79.449	0.032	0.011
-600.084	531.938	-0.051	-0.124
-599.069	-200.000	0.052	0.255
-598.055	-90.598	-0.173	-0.051
-597.040	71.785	-0.167	-0.177
-596.025	75.602	-0.097	0.104
-595.011	-4.285	-0.187	0.132
-593.996	740.370	0.068	-0.187
-592.982	-128.671	0.288	-0.041
-591.967	800.000	-0.139	0.535
-590.952	369.768	0.169	-0.348
-589.938	122.262	-0.125	-0.159
-588.923	73.935	0.184	-0.196
-587.909	72.854	-0.226	0.240
-586.894	800.000	-0.042	-0.188
-585.879	10.268	-0.033	-0.026
-584.865	245.534	0.158	-0.271
-583.850	685.847	0.141	-0.376
-582.836	380.768	-0.023	0.047
-581.821	141.860	-0.172	-0.233
-580.806	-89.336	-0.169	0.051
-579.792	162.759	0.142	0.203
-578.777	58.268	0.090	0.090
-577.763	-13.117	0.251	-0.166
-576.748	-115.590	-0.388	0.074
-575.733	42.100	-0.176	-0.163
-574.719	-200.000	0.004	0.317
-573.704	800.000	0.040	0.151
-572.690	199.952	-0.126	-0.197
-571.675	-113.512	-0.240	-0.048
-570.661	800.000	0.091	-0.285
-569.646	197.237	0.364	-0.565
-568.631	127.217	0.326	-0.420
-567.617	-129.199	0.260	0.037
-566.602	-200.000	0.017	0.177
-565.588	-200.000	-0.003	-0.327
-564.573	99.687	0.166	-0.196
-563.558	800.000	0.069	-0.260
-562.544	-200.000	0.018	0.275
-561.529	800.000	-0.095	-0.328
-560.515	260.124	0.034	-0.060
-559.500	-53.280	0.117	0.054
-558.485	-80.373	0.364	-0.124
-557.471	1.385	0.266	-0.194
-556.456	104.333	-0.167	0.199
-555.442	487.917	0.109	0.253
-554.427	126.122	0.150	-0.192
-553.412	-72.180	-0.056	-0.021
-552.398	800.000	0.068	-0.198
-551.383	591.900	0.125	-0.315
-550.369	-200.000	0.023	-0.314
-549.354	-200.000	0.041	-0.294
-548.339	-200.000	-0.033	-0.336
-547.325	-55.337	0.182	0.083
-546.310	-200.000	-0.061	0.392
-545.296	341.150	-0.128	0.253
-544.281	481.907	0.087	-0.201
-543.266	-85.522	0.110	0.035
-542.252	-70.631	-0.070	0.027
-541.237	-87.559	-0.328	-0.101
-540.223	130.952	0.215	0.280
-539.208	800.000	-0.131	0.393
-538.193	-200.000	-0.027	0.424
-537.179	-97.594	-0.147	-0.039
-536.164	-200.000	0.013	-0.406
-535.150	-194.867	0.242	0.002
-534.135	87.648	-0.045	0.050
-533.121	192.619	0.168	-0.258
-532.106	800.000	0.076	0.265
-531.091	-200.000	-0.056	0.388
-530.077	-200.000	-0.034	-0.190
-529.062	26.451	-0.048	-0.041
-528.048	-200.000	-0.005	-0.416
-527.033	8.340	-0.153	-0.117
-526.018	-177.497	0.133	0.003
-525.004	-88.062	0.161	-0.049
-523.989	-200.000	-0.017	0.224
-522.975	134.794	0.024	0.032
-521.960	800.000	0.097	-0.282
-520.945	-133.436	0.352	0.045
-519.931	-200.000	0.020	-0.272
-518.916	-167.860	-0.074	0.003
-517.902	-200.000	-0.015	0.122
-516.887	274.431	0.049	-0.088
-515.872	-68.676	-0.269	0.106
-514.858	-5.582	0.245	-0.171
-513.843	225.984	-0.072	0.119
-512.829	66.455	-0.109	0.112
-511.814	800.000	-0.082	-0.347
-510.799	-91.115	-0.370	0.108
-509.785	-51.938	-0.185	-0.087
-508.770	610.532	-0.109	0.278
-507.756	132.713	0.160	-0.210
-506.741	-152.359	-0.169	-0.012
-505.726	-130.088	0.360	0.050
-504.712	-23.886	-0.187	0.113
-503.697	308.019	0.133	0.252
-502.683	-163.830	-0.241	-0.011
-501.668	520.922	0.060	-0.144
-500.653	303.786	-0.090	0.170
-499.639	-200.000	0.010	-0.166
-498.624	-168.157	0.014	0.001
-497.610	469.877	0.035	0.079
-496.595	-200.000	0.007	0.173
-495.581	-40.503	0.125	-0.066
-494.566	-51.005	0.196	-0.094
-493.551	-200.000	-0.004	-0.245
-492.537	-114.559	-0.186	0.036
-491.522	-60.875	-0.099	0.043
-490.508	-41.667	-0.254	-0.132
-489.493	78.330	-0.203	0.220
-488.478	800.000	0.059	-0.234
-487.464	-76.841	-0.333	0.118
-486.449	686.174	-0.196	0.519
-485.435	-110.223	-0.117	0.025
-484.420	625.603	0.064	-0.164
-483.405	-200.000	-0.021	-0.131
-482.391	-57.375	-0.285	0.127
-481.376	-114.420	0.049	0.010
-480.362	-80.838	-0.138	-0.046
-479.347	800.000	0.064	-0.218
-478.332	232.573	-0.044	0.073
-477.318	-95.950	-0.090	-0.024
-476.303	800.000	0.049	-0.165
-475.289	112.378	-0.106	-0.130
-474.274	-82.108	-0.361	0.119
-473.259	800.000	0.049	-0.160
-472.245	-200.000	-0.009	0.126
-471.230	-148.212	-0.504	0.042
-470.216	-99.003	-0.226	0.058
-469.201	-140.720	0.316	-0.033
-468.186	-105.733	0.245	-0.056
-467.172	800.000	0.142	0.481
-466.157	-200.000	0.018	-0.112
-465.143	653.852	0.029	0.077
-464.128	-65.447	-0.488	0.199
-463.113	800.000	-0.044	-0.138
-462.099	-21.504	0.074	0.046
-461.084	-200.000	0.022	0.276
-460.070	800.000	-0.076	-0.253
-459.055	-6.348	0.139	0.096
-458.040	-3.829	0.059	-0.042
-457.026	332.450	-0.123	0.241
-456.011	109.370	0.251	-0.305
-454.997	-44.435	0.074	0.038
-453.982	-117.432	0.164	0.030
-452.968	410.955	0.048	0.103
-451.953	-109.580	0.221	-0.047
-450.938	-65.794	-0.147	0.060
-449.924	34.466	0.290	-0.256
-448.909	-106.420	0.066	0.015
-447.895	110.407	0.215	0.262
-446.880	800.000	0.039	0.165
-445.865	800.000	0.084	0.247
-444.851	-60.675	-0.440	-0.189
-443.836	161.012	-0.040	-0.057
-442.822	29.450	0.089	-0.077
-441.807	166.022	-0.178	-0.255
-440.792	-200.000	-0.035	-0.202
-439.778	-200.000	-0.006	0.176
-438.763	44.076	0.090	-0.084
-437.749	800.000	0.051	-0.155
-436.734	-79.407	0.118	-0.040
-435.719	-200.000	0.026	-0.248
-434.705	364.451	0.072	-0.146
-433.690	-3.011	0.105	-0.074
-432.676	-116.974	-0.208	-0.038
-431.661	-194.004	0.209	0.002
-430.646	800.000	-0.020	-0.086
-429.632	-198.969	-0.184	0.001
-428.617	-38.610	0.325	-0.174
-427.603	117.371	-0.067	0.083
-426.588	-200.000	0.004	0.049
-425.573	47.620	0.107	0.101
-424.559	-57.258	-0.243	0.108
-423.544	16.841	0.095	0.076
-422.530	387.353	0.236	-0.493
-421.515	-92.604	-0.154	-0.044
-420.500	-74.788	-0.114	-0.041
-419.486	216.934	0.348	-0.560
-418.471	-123.270	-0.059	0.010
-417.457	241.348	0.113	0.190
-416.442	-175.141	-0.208	0.006
-415.428	-96.146	-0.256	0.069
-414.413	-17.158	-0.246	-0.157
-413.398	225.644	0.082	0.134
-412.384	182.283	-0.128	0.190
-411.369	315.227	0.074	0.142
-410.355	800.000	0.077	0.232
-409.340	-52.482	0.397	0.186
-408.325	-200.000	0.011	0.102
-407.311	-200.000	-0.012	-0.125
-406.296	-146.092	0.154	0.014
-405.282	138.092	-0.226	0.299
-404.267	-98.789	-0.141	0.036
-403.252	-200.000	-0.001	0.241
-402.238	-24.088	0.297	-0.180
-401.223	800.000	-0.056	-0.163
-400.209	105.661	0.020	0.023
-399.194	201.073	-0.082	0.127
-398.179	800.000	0.066	0.254
-397.165	596.428	0.075	0.187
-396.150	-200.000	-0.082	0.400
-395.136	-58.074	0.245	-0.108
-394.121	30.800	-0.049	-0.043
-393.106	800.000	0.062	0.188
-392.092	-24.593	0.216	0.130
-391.077	-144.533	0.355	0.033
-390.063	81.602	-0.080	0.087
-389.048	636.928	-0.052	-0.134
-388.033	-116.558	0.093	0.017
-387.019	800.000	0.065	-0.261
-386.004	-30.999	0.081	0.046
-384.990	157.078	0.122	0.171
-383.975	168.403	0.207	-0.297
-382.960	-200.000	-0.001	-0.110
-381.946	-2.051	-0.168	0.119
-380.931	-147.588	0.150	0.013
-379.917	-126.736	0.027	0.004
-378.902	15.128	0.184	-0.145
-377.888	318.516	0.098	0.188
-376.873	-119.625	0.098	-0.017
-375.858	233.369	0.143	0.237
-374.844	189.637	0.268	-0.406
-373.829	376.698	-0.171	-0.353
-372.815	800.000	0.010	-0.031
-371.800	-152.387	-0.080	0.006
-370.785	5.746	-0.122	0.091
-369.771	-54.060	0.119	0.054
-368.756	-40.200	-0.201	0.105
-367.742	-51.649	0.157	0.074
-366.727	84.959	-0.140	0.155
-365.712	-103.300	-0.264	0.063
-364.698	800.000	-0.074	0.271
-363.683	141.657	0.039	-0.052
-362.669	-42.581	-0.094	-0.048
-361.654	-137.840	-0.047	-0.005
-360.639	-89.376	0.229	-0.068
-359.625	-200.000	-0.020	-0.138
-358.610	120.333	0.142	-0.178
-357.596	-200.000	-0.003	0.196
-356.581	-68.114	-0.325	0.128
-355.566	800.000	0.059	0.166
-354.552	-156.688	0.219	-0.014
-353.537	603.413	-0.058	-0.145
-352.523	-77.469	-0.440	-0.154
-351.508	-200.000	0.002	0.102
-350.493	139.301	-0.126	0.167
-349.479	50.628	0.168	0.160
-348.464	-69.126	-0.193	-0.075
-347.450	68.675	0.217	-0.225
-346.435	-29.965	-0.232	-0.133
-345.420	-91.993	-0.249	-0.071
-344.406	-200.000	0.016	0.326
-343.391	246.525	-0.117	-0.199
-342.377	32.160	-0.503	0.438
-341.362	-79.616	0.430	-0.146
-340.348	16.383	0.274	-0.218
-339.333	-184.380	0.213	-0.004
-338.318	116.903	-0.071	-0.088
-337.304	484.806	-0.106	0.243
-336.289	200.081	0.115	0.178
-335.275	-72.795	0.143	0.053
-334.260	-155.696	-0.290	-0.019
-333.245	45.682	-0.224	0.208
-332.231	123.301	-0.155	-0.196
-331.216	-200.000	0.030	-0.213
-330.202	281.465	-0.138	-0.249
-329.187	-127.725	-0.354	-0.052
-328.172	-200.000	-0.048	0.426
-327.158	-158.759	0.147	0.008
-326.143	351.512	0.126	0.252
-325.129	-91.802	-0.341	-0.098
-324.114	-200.000	0.012	0.100
-323.099	342.269	0.119	0.234
-322.085	-106.533	0.249	0.056
-321.070	24.622	0.400	-0.334
-320.056	12.230	-0.046	-0.036
-319.041	129.298	-0.075	-0.097
-318.026	-38.391	-0.262	0.140
-317.012	21.718	-0.096	0.079
-315.997	-101.977	0.270	0.066
-314.983	800.000	0.144	0.422
-313.968	-92.794	0.124	0.035
-312.953	88.347	0.200	0.224
-311.939	63.418	0.126	-0.127
-310.924	-200.000	-0.010	-0.138
-309.910	-128.540	0.043	-0.006
-308.895	-200.000	0.033	-0.243
-307.880	-200.000	0.008	-0.347
-306.866	-200.000	-0.001	-0.289
-305.851	55.854	-0.093	0.090
-304.837	56.947	0.264	0.259
-303.822	82.966	-0.112	-0.122
-302.807	-22.705	-0.217	-0.132
-301.793	529.936	-0.076	0.180
-300.778	-135.597	-0.288	0.034
-299.764	-200.000	0.351	0.001
-298.749	-200.000	0.021	-0.203
-297.735	706.151	-0.155	0.412
-296.720	-21.513	-0.173	0.106
-295.705	-89.696	-0.169	0.050
-294.691	-200.000	-0.028	-0.155
-293.676	468.133	-0.109	-0.245
-292.662	-200.000	0.027	0.209
-291.647	-151.560	-0.221	-0.016
-290.632	-200.000	-0.030	-0.147
-289.618	-175.339	0.230	0.006
-288.603	-200.000	0.059	-0.487
-287.589	-4.904	0.240	0.167
-286.574	258.110	0.238	0.412
-285.559	9.885	0.245	0.187
-284.545	800.000	-0.058	-0.187
-283.530	33.973	0.229	-0.201
-282.516	-200.000	0.040	-0.233
-281.501	154.454	0.145	-0.201
-280.486	800.000	-0.030	-0.090
-279.472	-141.914	-0.271	0.027
-278.457	800.000	-0.129	0.397
-277.443	-39.835	0.192	-0.101
-276.428	-200.000	0.000	0.065
-275.413	478.077	-0.106	-0.241
-274.399	48.368	0.158	0.149
-273.384	3.277	-0.252	0.184
-272.370	340.555	-0.062	0.122
-271.355	191.193	-0.132	0.200
-270.340	45.605	0.117	-0.108
-269.326	-155.988	-0.137	0.009
-268.311	437.055	-0.045	0.098
-267.297	87.347	-0.318	-0.354
-266.282	-92.863	-0.254	0.071
-265.267	-55.783	0.074	0.033
-264.253	385.761	0.025	-0.052
-263.238	-50.082	-0.204	-0.097
-262.224	60.210	0.047	-0.047
-261.209	-94.554	0.356	0.097
-260.195	449.582	-0.063	-0.140
-259.180	438.739	-0.084	-0.185
-258.165	-51.221	0.089	0.042
-257.151	-81.397	-0.179	-0.059
-256.136	-87.658	-0.391	0.119
-255.122	526.201	-0.058	0.138
-254.107	255.275	-0.162	-0.279
-253.092	450.780	-0.134	0.298
-252.078	-83.651	-0.281	-0.090
-251.063	-56.411	-0.194	0.086
-250.049	800.000	-0.111	0.336
-249.034	-22.800	0.260	-0.158
-248.019	53.327	-0.179	-0.172
-247.005	-105.884	0.097	0.022
-245.990	-105.211	0.444	-0.102
-244.976	-100.580	-0.316	0.078
-243.961	2.441	0.078	-0.056
-242.946	-200.000	-0.025	-0.121
-241.932	800.000	0.053	-0.167
-240.917	-39.601	-0.068	-0.036
-239.903	-86.262	-0.090	0.028
-238.888	37.575	-0.260	0.232
-237.873	315.131	0.045	-0.085
-236.859	174.462	-0.092	0.133
-235.844	-62.988	-0.191	0.079
-234.830	740.606	0.154	0.415
-233.815	99.362	0.148	0.172
-232.800	-35.442	-0.257	-0.140
-231.786	43.630	-0.051	0.047
-230.771	681.482	0.133	-0.347
-229.757	-200.000	0.018	0.169
-228.742	-200.000	-0.068	0.634
-227.727	-200.000	0.006	0.052
-226.713	-136.041	0.134	-0.016
-225.698	-67.584	0.267	-0.105
-224.684	-105.291	0.439	0.100
-223.669	-96.195	0.037	-0.010
-222.655	-77.319	0.073	0.025
-221.640	-146.335	0.168	0.015
-220.625	-26.833	0.054	-0.032
-219.611	-200.000	-0.036	0.238
-218.596	264.445	0.108	0.189
-217.582	6.814	-0.299	0.223
-216.567	78.315	0.138	0.148
-215.552	112.602	0.153	0.186
-214.538	-98.582	0.187	-0.048
-213.523	-200.000	-0.010	-0.459
-212.509	-200.000	0.018	0.199
-211.494	-200.000	0.086	-0.614
-210.479	-200.000	0.002	-0.349
-209.465	-200.000	0.078	0.349
-208.450	-87.951	0.109	-0.033
-207.436	554.739	0.023	-0.055
-206.421	-137.154	0.293	-0.034
-205.406	60.352	0.286	0.284
-204.392	306.356	-0.070	0.131
-203.377	-72.619	-0.112	0.042
-202.363	800.000	-0.016	0.068
-201.348	118.324	-0.066	0.081
-200.333	113.522	0.019	-0.023
-199.319	19.308	-0.084	-0.068
-198.304	109.068	-0.307	0.368
-197.290	33.675	-0.139	0.121
-196.275	-47.280	0.083	-0.041
-195.260	-200.000	0.040	0.246
-194.246	114.678	0.103	0.126
-193.231	67.977	0.146	-0.149
-192.217	-92.239	-0.205	-0.058
-191.202	11.789	0.145	0.111
-190.187	800.000	0.019	0.075
-189.173	800.000	-0.033	-0.129
-188.158	206.699	0.207	0.323
-187.144	146.435	0.056	0.076
-186.129	208.493	-0.102	0.160
-185.114	-40.855	-0.100	0.052
-184.100	149.148	0.122	-0.165
-183.085	214.842	-0.046	0.072
-182.071	800.000	0.077	0.258
-181.056	44.731	0.146	-0.134
-180.042	-33.465	-0.421	-0.233
-179.027	29.756	0.100	0.086
-178.012	0.288	-0.116	-0.083
-176.998	95.167	-0.207	0.236
-175.983	57.326	-0.178	-0.174
-174.969	133.979	-0.163	-0.212
-173.954	800.000	0.036	-0.152
-172.939	-8.258	0.085	-0.057
-171.925	800.000	-0.042	-0.145
-170.910	125.956	0.094	0.118
-169.896	269.059	0.042	0.073
-168.881	756.743	-0.145	0.392
-167.866	-126.142	0.307	-0.046
-166.852	289.145	-0.143	-0.259
-165.837	-36.817	0.389	-0.209
-164.823	800.000	0.086	0.294
-163.808	85.178	-0.150	-0.165
-162.793	41.765	0.110	0.100
-161.779	-200.000	0.069	0.309
-160.764	-200.000	-0.013	0.190
-159.750	800.000	0.078	0.266
-158.735	-119.451	-0.084	0.015
-157.720	800.000	-0.040	0.121
-156.706	-200.000	-0.066	0.348
-155.691	46.655	-0.245	-0.228
-154.677	150.872	-0.237	0.322
-153.662	791.168	-0.125	-0.343
-152.647	377.230	-0.186	0.381
-151.633	-200.000	-0.000	-0.073
-150.618	-82.815	0.306	-0.099
-149.604	800.000	-0.025	0.094
-148.589	-180.486	0.296	0.006
-147.574	-56.808	0.254	-0.112
-146.560	221.452	0.159	-0.256
-145.545	-200.000	0.020	-0.219
-144.531	-72.181	0.096	0.036
-143.516	100.192	0.214	0.248
-142.502	800.000	0.126	-0.405
-141.487	7.634	-0.183	-0.137
-140.472	-200.000	-0.003	-0.246
-139.458	-200.000	-0.026	-0.262
-138.443	-121.819	0.411	0.068
-137.429	242.747	-0.190	0.318
-136.414	43.381	0.215	-0.197
-135.399	800.000	-0.075	-0.260
-134.385	-146.293	-0.223	-0.020
-133.370	-167.195	-0.160	0.007
-132.356	340.640	0.136	-0.265
-131.341	-34.247	-0.466	0.256
-130.326	26.442	0.156	-0.130
-129.312	229.886	-0.102	0.166
-128.297	14.642	-0.383	0.299
-127.283	-59.834	0.166	-0.071
-126.268	-88.127	0.175	0.053
-125.253	-3.697	-0.253	-0.176
-124.239	-114.925	0.275	0.052
-123.224	39.778	0.076	0.068
-122.210	-200.000	-0.009	-0.073
-121.195	-82.723	0.395	0.128
-120.180	-62.591	0.312	-0.130
