DTS Sentinel unit serial number:	SN413079Multiplexer serial number:	ORYXHardware model number:	OX4-SRSoftware version number:	ORYX F/W v4.00 Oryx Data Collector v3.7.2.0data status	okinstallation	princeton_trtdifferential loss correction	single-endedforward channel	channel 1reverse channel	N/Adate	2019/09/16time	04:26:35forward acquisition time	60.00reverse acquisition time	0.00gamma	496.2192k internal	0.2333k external	0.2333temperature offset calibration	0.9982default loss term (dB/km)	0.3790temperature slope calibration	1.0000multiplexer offset coefficient	1.0000multiplexer slope coefficient	1.0000fibre end	0.00T internal ref (°C)	27.31T ext. ref 1 (°C)	10.84T ext. ref 2 (°C)	21.35length (m)	temperature (°C)	Stokes	anti-Stokes-747.200	-200.000	0.006	-0.029
-746.185	-167.141	0.148	0.006
-745.171	-101.321	-0.111	0.027
-744.156	-200.000	0.004	0.033
-743.142	557.042	-0.115	-0.279
-742.127	195.736	-0.077	-0.117
-741.112	-64.677	0.282	0.115
-740.098	800.000	0.055	0.202
-739.083	323.182	0.142	0.273
-738.069	-110.346	-0.025	0.005
-737.054	40.522	0.169	0.153
-736.039	-121.161	0.147	-0.025
-735.025	15.279	0.345	0.272
-734.010	48.614	-0.139	-0.131
-732.996	-200.000	-0.015	-0.199
-731.981	83.471	0.080	0.087
-730.966	4.259	-0.131	-0.097
-729.952	473.139	-0.156	-0.354
-728.937	-49.018	0.135	0.065
-727.923	-153.184	0.220	-0.015
-726.908	98.227	0.228	0.264
-725.894	-54.857	0.353	-0.160
-724.879	506.473	-0.067	-0.157
-723.864	105.988	-0.337	-0.401
-722.850	-65.293	-0.076	0.031
-721.835	-95.325	-0.380	0.103
-720.821	125.191	0.137	-0.173
-719.806	359.598	-0.191	-0.383
-718.791	-166.474	0.129	-0.005
-717.777	-125.401	-0.200	0.031
-716.762	665.271	-0.071	0.185
-715.748	800.000	0.053	-0.206
-714.733	-64.763	-0.193	0.079
-713.718	24.745	0.100	0.083
-712.704	800.000	-0.103	-0.346
-711.689	-200.000	-0.061	0.467
-710.675	72.407	-0.094	-0.098
-709.660	348.804	-0.041	0.081
-708.645	20.540	0.121	0.098
-707.631	-76.972	-0.111	0.039
-706.616	-22.263	0.169	-0.103
-705.602	-40.333	-0.037	-0.019
-704.587	196.908	-0.079	-0.121
-703.572	-22.550	-0.184	-0.112
-702.558	244.195	0.149	-0.252
-701.543	162.441	0.099	-0.139
-700.529	-147.509	0.243	-0.021
-699.514	55.057	-0.166	0.161
-698.499	611.941	0.044	-0.111
-697.485	-69.512	-0.193	0.074
-696.470	-71.187	-0.249	0.094
-695.456	-123.344	-0.116	-0.019
-694.441	101.275	-0.115	-0.134
-693.426	-121.431	0.278	0.046
-692.412	464.025	-0.167	0.375
-691.397	-47.702	0.252	0.123
-690.383	190.865	-0.145	-0.219
-689.368	-200.000	-0.006	-0.166
-688.354	-166.736	0.516	0.021
-687.339	-87.897	0.200	-0.060
-686.324	187.573	-0.164	0.245
-685.310	-200.000	-0.031	-0.283
-684.295	-61.162	0.209	0.088
-683.281	-76.822	0.257	-0.090
-682.266	-200.000	0.013	0.140
-681.251	52.951	0.147	0.141
-680.237	800.000	-0.077	0.245
-679.222	-12.617	-0.231	-0.151
-678.208	62.932	-0.131	-0.131
-677.193	622.030	-0.105	-0.266
-676.178	18.570	0.350	-0.281
-675.164	800.000	0.107	0.344
-674.149	57.394	0.261	-0.256
-673.135	124.206	-0.025	0.031
-672.120	10.763	-0.222	-0.170
-671.105	123.780	-0.132	0.166
-670.091	20.063	0.282	0.228
-669.076	30.531	0.237	-0.203
-668.062	498.698	0.137	0.316
-667.047	156.264	0.189	-0.262
-666.032	107.274	-0.161	-0.192
-665.018	2.567	0.202	0.146
-664.003	11.245	-0.164	-0.126
-662.989	-200.000	-0.021	-0.363
-661.974	-200.000	-0.020	-0.273
-660.959	-200.000	0.029	0.195
-659.945	-200.000	-0.024	0.387
-658.930	-179.549	-0.216	0.005
-657.916	265.553	-0.081	-0.142
-656.901	800.000	-0.028	0.101
-655.886	-27.674	0.313	0.182
-654.872	-16.914	0.149	-0.094
-653.857	182.328	0.103	-0.152
-652.843	-200.000	0.028	-0.160
-651.828	-194.069	-0.191	-0.002
-650.814	-200.000	0.037	0.304
-649.799	301.698	-0.235	0.436
-648.784	800.000	-0.092	-0.344
-647.770	-133.619	-0.230	0.029
-646.755	-165.153	-0.270	0.012
-645.741	-178.036	-0.085	-0.002
-644.726	618.925	0.100	-0.252
-643.711	800.000	0.011	0.037
-642.697	-22.138	0.125	-0.076
-641.682	20.594	-0.221	0.179
-640.668	-69.163	-0.278	-0.107
-639.653	-200.000	-0.014	0.145
-638.638	251.676	-0.105	0.179
-637.624	-24.597	-0.246	-0.147
-636.609	-200.000	0.002	0.063
-635.595	33.342	-0.316	0.275
-634.580	-6.831	-0.236	0.160
-633.565	-14.793	-0.177	-0.114
-632.551	-200.000	-0.031	0.250
-631.536	-98.817	0.099	0.025
-630.522	154.301	-0.166	-0.228
-629.507	-83.119	0.213	-0.069
-628.492	447.209	0.114	-0.250
-627.478	52.253	0.230	-0.220
-626.463	237.578	-0.088	-0.146
-625.449	800.000	-0.156	0.511
-624.434	263.687	-0.247	-0.431
-623.419	800.000	0.092	-0.269
-622.405	267.069	-0.203	-0.356
-621.390	-93.219	0.226	0.063
-620.376	286.319	0.093	-0.167
-619.361	237.106	-0.043	-0.072
-618.346	-36.521	-0.275	-0.148
-617.332	-138.202	0.099	-0.011
-616.317	-200.000	-0.060	-0.280
-615.303	-9.661	-0.259	0.173
-614.288	-61.979	0.184	0.077
-613.273	-29.066	0.134	0.077
-612.259	-182.406	0.275	-0.005
-611.244	-111.781	-0.074	-0.015
-610.230	800.000	-0.089	-0.362
-609.215	-19.542	-0.055	-0.034
-608.201	91.907	0.121	0.136
-607.186	-200.000	0.046	0.285
-606.171	-37.811	0.199	0.106
-605.157	-44.258	-0.266	-0.134
-604.142	-84.814	0.193	-0.061
-603.128	323.196	-0.033	-0.062
-602.113	-200.000	-0.022	-0.242
-601.098	-137.101	-0.319	-0.036
-600.084	299.223	0.110	-0.203
-599.069	75.687	0.193	0.204
-598.055	57.472	-0.222	0.217
-597.040	-62.675	0.031	-0.013
-596.025	-10.645	-0.133	0.088
-595.011	431.576	0.017	0.038
-593.996	-88.554	-0.289	0.086
-592.982	800.000	0.068	0.250
-591.967	-89.294	-0.200	-0.059
-590.952	264.476	0.156	0.271
-589.938	109.673	0.092	0.111
-588.923	374.323	-0.098	0.199
-587.909	-173.345	-0.258	0.008
-586.894	-141.351	-0.317	-0.032
-585.879	36.638	0.104	-0.092
-584.865	-200.000	0.012	-0.168
-583.850	-49.353	0.055	-0.026
-582.836	-51.504	0.244	0.114
-581.821	-200.000	0.004	0.057
-580.806	145.075	0.191	-0.256
-579.792	-113.618	0.152	-0.030
-578.777	-117.093	-0.125	0.023
-577.763	-200.000	0.038	0.210
-576.748	58.322	-0.122	0.120
-575.733	-200.000	0.012	0.115
-574.719	208.650	-0.170	-0.266
-573.704	258.129	-0.159	0.274
-572.690	117.946	0.151	0.186
-571.675	-122.205	-0.188	-0.031
-570.661	800.000	0.102	0.326
-569.646	-69.745	-0.090	-0.034
-568.631	-71.217	-0.196	-0.074
-567.617	800.000	-0.096	-0.363
-566.602	351.840	0.111	-0.219
-565.588	-126.207	-0.393	-0.059
-564.573	-200.000	0.048	-0.345
-563.558	-200.000	-0.028	0.142
-562.544	-91.195	-0.154	0.044
-561.529	160.719	-0.157	0.219
-560.515	418.226	-0.147	0.314
-559.500	33.580	0.137	0.119
-558.485	-110.689	0.084	0.017
-557.471	596.069	-0.054	0.134
-556.456	-200.000	0.218	0.001
-555.442	800.000	0.114	-0.462
-554.427	89.962	-0.093	0.104
-553.412	14.926	-0.158	0.123
-552.398	359.081	-0.178	0.355
-551.383	-7.731	0.330	0.222
-550.369	40.682	0.176	0.158
-549.354	-54.215	-0.272	0.123
-548.339	-200.000	0.002	0.234
-547.325	-165.356	-0.057	0.002
-546.310	134.282	0.064	0.083
-545.296	4.792	-0.101	0.074
-544.281	800.000	0.047	-0.191
-543.266	461.063	0.115	0.256
-542.252	-200.000	0.011	-0.178
-541.237	-200.000	-0.049	-0.367
-540.223	91.368	-0.056	-0.063
-539.208	3.977	-0.071	0.051
-538.193	800.000	0.052	-0.190
-537.179	800.000	0.021	-0.087
-536.164	-15.194	-0.074	0.047
-535.150	11.111	-0.323	0.247
-534.135	61.900	-0.114	0.113
-533.121	-118.415	0.518	-0.092
-532.106	284.676	0.171	-0.308
-531.091	-200.000	-0.018	-0.107
-530.077	78.532	0.040	-0.043
-529.062	-51.791	0.105	-0.049
-528.048	-175.584	0.271	0.007
-527.033	19.080	-0.095	-0.076
-526.018	400.882	0.028	-0.060
-525.004	800.000	0.168	0.485
-523.989	-56.720	-0.194	0.085
-522.975	19.768	0.237	0.190
-521.960	104.168	0.124	-0.146
-520.945	-42.856	0.056	-0.028
-519.931	-200.000	0.001	0.147
-518.916	-26.594	0.049	0.028
-517.902	-42.033	0.186	0.095
-516.887	2.423	-0.113	0.082
-515.872	-34.324	-0.034	0.019
-514.858	162.410	-0.107	0.150
-513.843	-30.710	-0.374	0.211
-512.829	800.000	-0.096	0.329
-511.814	16.330	-0.098	0.077
-510.799	-42.980	-0.055	0.028
-509.785	68.020	-0.163	-0.166
-508.770	-32.685	0.230	0.128
-507.756	-115.031	-0.481	0.091
-506.741	191.126	-0.080	0.120
-505.726	-200.000	-0.011	-0.181
-504.712	-200.000	-0.010	0.157
-503.697	173.769	0.154	-0.222
-502.683	-109.446	-0.130	-0.027
-501.668	-200.000	0.020	0.087
-500.653	139.056	-0.209	-0.274
-499.639	800.000	-0.041	0.176
-498.624	-200.000	0.012	0.061
-497.610	238.162	-0.039	0.064
-496.595	-131.054	-0.211	-0.028
-495.581	83.151	0.097	-0.105
-494.566	-62.697	-0.170	-0.070
-493.551	144.887	-0.138	0.183
-492.537	-151.830	-0.349	0.026
-491.522	83.197	0.223	0.242
-490.508	16.933	0.006	-0.005
-489.493	-147.539	-0.238	0.020
-488.478	505.144	-0.179	0.413
-487.464	-117.908	0.285	-0.051
-486.449	-33.301	0.032	0.018
-485.435	169.175	-0.076	-0.108
-484.420	-200.000	0.003	-0.108
-483.405	800.000	-0.046	0.193
-482.391	76.844	-0.057	-0.060
-481.376	-200.000	0.015	0.136
-480.362	-200.000	0.010	-0.052
-479.347	148.319	0.197	-0.265
-478.332	90.913	-0.267	-0.298
-477.318	-200.000	0.025	-0.124
-476.303	669.635	-0.071	0.182
-475.289	220.217	0.031	-0.049
-474.274	-200.000	0.024	0.271
-473.259	206.829	0.166	-0.258
-472.245	509.729	0.148	-0.343
-471.230	179.652	-0.135	-0.197
-470.216	348.939	0.138	-0.271
-469.201	76.211	-0.112	0.118
-468.186	199.692	-0.133	0.203
-467.172	-200.000	0.033	0.183
-466.157	170.860	-0.220	-0.313
-465.143	144.739	0.021	0.028
-464.128	-200.000	-0.050	0.248
-463.113	-200.000	0.010	-0.228
-462.099	-124.012	-0.166	0.026
-461.084	-200.000	-0.025	-0.134
-460.070	318.776	-0.126	0.238
-459.055	38.174	0.236	-0.209
-458.040	-11.112	0.232	-0.152
-457.026	800.000	0.039	-0.128
-456.011	-145.473	0.284	0.025
-454.997	800.000	0.033	-0.132
-453.982	162.550	-0.206	0.288
-452.968	392.449	-0.032	-0.066
-451.953	37.895	-0.242	0.214
-450.938	-133.411	-0.308	-0.039
-449.924	-200.000	0.008	0.161
-448.909	279.024	0.093	0.166
-447.895	-200.000	-0.014	0.166
-446.880	-72.869	-0.364	-0.133
-445.865	-35.504	0.170	0.092
-444.851	-200.000	-0.036	0.231
-443.836	191.478	-0.139	-0.209
-442.822	161.320	-0.128	0.177
-441.807	-75.077	0.211	0.075
-440.792	-41.824	0.193	-0.099
-439.778	-200.000	0.005	0.219
-438.763	235.100	0.168	0.275
-437.749	471.429	0.026	0.059
-436.734	60.427	-0.086	-0.084
-435.719	-200.000	0.014	-0.389
-434.705	-78.687	-0.213	-0.072
-433.690	800.000	0.051	0.167
-432.676	-110.369	0.193	-0.040
-431.661	-140.278	0.133	0.014
-430.646	-2.657	0.028	-0.019
-429.632	-130.590	-0.287	0.038
-428.617	-41.988	0.028	-0.014
-427.603	38.283	0.128	0.114
-426.588	800.000	0.068	-0.222
-425.573	94.710	-0.102	0.116
-424.559	-200.000	0.115	-0.537
-423.544	172.183	0.202	0.289
-422.530	-200.000	-0.063	-0.331
-421.515	-22.469	-0.315	0.189
-420.500	-200.000	0.021	0.246
-419.486	131.819	0.105	0.134
-418.471	-70.901	-0.222	0.083
-417.457	-62.276	0.399	-0.165
-416.442	-95.373	0.087	-0.023
-415.428	-200.000	0.027	-0.121
-414.413	8.473	-0.128	-0.096
-413.398	-200.000	-0.031	0.271
-412.384	-170.499	0.204	-0.007
-411.369	242.407	-0.199	-0.330
-410.355	-148.382	-0.256	0.021
-409.340	-92.815	-0.118	0.033
-408.325	-19.542	0.255	0.157
-407.311	-200.000	-0.011	0.172
-406.296	19.126	-0.153	0.122
-405.282	504.597	0.150	-0.344
-404.267	-200.000	0.049	-0.244
-403.252	18.795	0.265	-0.210
-402.238	39.132	0.283	-0.251
-401.223	-51.034	-0.211	0.098
-400.209	-200.000	0.002	0.123
-399.194	800.000	-0.030	-0.111
-398.179	-44.663	-0.178	-0.088
-397.165	-95.650	0.296	0.079
-396.150	-200.000	-0.011	-0.199
-395.136	14.336	0.128	0.099
-394.121	-128.210	-0.136	-0.019
-393.106	172.608	0.066	-0.094
-392.092	192.536	-0.202	-0.302
-391.077	-114.542	0.157	0.030
-390.063	272.205	-0.233	-0.408
-389.048	-151.367	0.072	0.005
-388.033	321.267	-0.077	-0.146
-387.019	152.650	-0.233	-0.316
-386.004	-143.729	0.204	0.019
-384.990	-72.935	0.342	0.125
-383.975	-22.683	0.149	0.090
-382.960	68.960	0.243	-0.248
-381.946	192.906	0.101	-0.151
-380.931	272.003	-0.130	0.228
-379.917	412.145	0.122	-0.256
-378.902	-134.213	-0.108	-0.013
-377.888	-146.744	0.215	0.018
-376.873	104.347	0.061	-0.071
-375.858	-200.000	0.023	-0.249
-374.844	770.283	0.010	0.028
-373.829	-135.433	-0.401	-0.047
-372.815	-34.082	0.219	-0.120
-371.800	-86.062	-0.231	-0.071
-370.785	-200.000	-0.005	-0.026
-369.771	-200.000	0.033	0.218
-368.756	-31.888	0.035	0.019
-367.742	-200.000	-0.033	0.164
-366.727	527.988	-0.110	-0.257
-365.712	27.840	0.180	-0.150
-364.698	258.748	-0.097	0.166
-363.683	61.860	-0.189	-0.187
-362.669	186.346	0.067	0.099
-361.654	-102.176	0.154	0.037
-360.639	-96.452	0.356	-0.093
-359.625	-134.793	-0.461	-0.055
-358.610	-80.532	-0.126	0.042
-357.596	459.075	-0.133	0.292
-356.581	-200.000	0.013	-0.155
-355.566	424.653	-0.090	-0.191
-354.552	-173.516	-0.389	-0.012
-353.537	-200.000	0.030	-0.140
-352.523	251.803	-0.114	0.192
-351.508	99.236	-0.044	0.051
-350.493	-96.930	0.228	0.059
-349.479	-17.354	-0.096	-0.060
-348.464	-105.150	0.396	0.090
-347.450	208.051	-0.115	-0.178
-346.435	109.070	-0.288	-0.341
-345.420	-136.205	0.474	0.055
-344.406	8.368	0.112	-0.083
-343.391	-200.000	-0.003	0.324
-342.377	-95.133	0.174	-0.046
-341.362	31.148	0.211	-0.179
-340.348	-142.907	-0.346	0.033
-339.333	340.970	0.072	0.140
-338.318	57.822	0.049	-0.047
-337.304	-66.049	-0.261	-0.103
-336.289	227.309	-0.044	0.072
-335.275	-8.082	-0.112	-0.074
-334.260	-200.000	0.012	-0.091
-333.245	431.451	-0.226	-0.484
-332.231	-72.005	0.173	0.064
-331.216	-120.063	0.053	0.009
-330.202	800.000	-0.060	0.206
-329.187	-83.108	0.359	0.114
-328.172	800.000	0.131	-0.408
-327.158	-200.000	0.005	0.345
-326.143	-200.000	-0.006	0.082
-325.129	152.111	0.167	-0.226
-324.114	800.000	-0.050	-0.141
-323.099	-63.289	-0.222	0.091
-322.085	476.851	0.033	0.074
-321.070	800.000	0.026	-0.076
-320.056	552.569	0.081	-0.193
-319.041	-191.041	0.149	0.002
-318.026	465.030	0.126	-0.278
-317.012	112.720	-0.172	-0.206
-315.997	-128.707	-0.260	-0.036
-314.983	-200.000	-0.072	0.389
-313.968	-102.218	-0.224	0.053
-312.953	51.499	0.097	0.091
-311.939	-82.150	0.296	0.096
-310.924	-38.218	-0.041	-0.021
-309.910	-84.225	-0.104	0.033
-308.895	40.176	-0.092	0.082
-307.880	-62.723	0.148	-0.061
-306.866	378.961	-0.177	-0.358
-305.851	800.000	-0.005	0.016
-304.837	-165.024	0.144	-0.006
-303.822	-48.119	0.247	0.118
-302.807	255.499	0.092	0.157
-301.793	72.962	-0.108	-0.112
-300.778	117.859	0.017	0.021
-299.764	261.332	-0.065	-0.111
-298.749	27.107	0.095	-0.079
-297.735	-57.721	-0.186	-0.081
-296.720	131.419	-0.060	-0.076
-295.705	-168.392	-0.042	0.002
-294.691	-84.630	-0.420	0.131
-293.676	209.903	-0.280	0.434
-292.662	-200.000	-0.063	0.336
-291.647	406.252	0.058	0.122
-290.632	107.655	0.277	0.325
-289.618	3.834	0.266	-0.192
-288.603	-59.551	0.115	0.049
-287.589	253.605	0.087	0.147
-286.574	-15.294	-0.128	-0.081
-285.559	-111.158	0.239	-0.048
-284.545	55.437	-0.018	-0.017
-283.530	800.000	-0.109	0.301
-282.516	-137.106	-0.022	0.002
-281.501	800.000	-0.108	-0.354
-280.486	78.595	0.076	0.080
-279.472	252.693	-0.114	0.192
-278.457	73.228	-0.196	0.202
-277.443	-98.417	-0.180	0.046
-276.428	69.234	-0.088	0.090
-275.413	-38.909	0.191	-0.099
-274.399	480.355	0.087	0.195
-273.384	234.535	0.086	-0.140
-272.370	800.000	0.024	0.092
-271.355	800.000	0.074	0.285
-270.340	15.983	0.206	0.160
-269.326	-200.000	0.016	-0.319
-268.311	-134.935	0.063	0.007
-267.297	-161.903	-0.237	0.012
-266.282	-104.144	0.329	-0.076
-265.267	-100.665	-0.202	0.049
-264.253	-44.965	0.185	0.091
-263.238	81.047	0.062	0.066
-262.224	-65.735	0.363	-0.144
-261.209	645.414	0.060	-0.151
-260.195	-45.107	-0.295	-0.145
-259.180	-200.000	0.001	0.196
-258.165	-14.960	-0.227	-0.144
-257.151	-154.425	0.511	0.034
-256.136	426.708	-0.080	-0.170
-255.122	49.156	0.209	-0.193
-254.107	-71.601	0.323	-0.119
-253.092	-200.000	-0.035	0.270
-252.078	800.000	-0.119	0.374
-251.063	30.116	-0.129	-0.108
-250.049	86.754	0.182	-0.198
-249.034	-200.000	0.036	0.170
-248.019	-55.563	0.401	-0.177
-247.005	-18.101	-0.187	-0.115
-245.990	539.853	-0.080	-0.187
-244.976	-29.303	0.272	0.153
-243.961	-79.115	0.469	0.157
-242.946	200.723	-0.074	0.112
-241.932	95.030	0.232	-0.260
-240.917	429.738	0.158	0.338
-239.903	6.747	-0.100	-0.073
-238.888	-12.876	0.182	0.117
-237.873	167.109	0.104	-0.145
-236.859	-159.624	-0.438	-0.024
-235.844	-47.880	0.100	-0.048
-234.830	61.450	-0.274	-0.268
-233.815	-99.844	0.296	-0.073
-232.800	615.083	0.074	-0.183
-231.786	235.722	0.140	0.228
-230.771	93.913	0.274	-0.306
-229.757	-173.674	0.330	0.010
-228.742	132.249	0.362	-0.460
-227.727	-167.551	-0.303	0.012
-226.713	-70.003	-0.194	0.073
-225.698	-200.000	-0.003	-0.035
-224.684	-36.356	0.167	0.089
-223.669	800.000	-0.048	-0.134
-222.655	105.198	-0.262	-0.305
-221.640	800.000	0.092	0.297
-220.625	-84.572	0.221	-0.069
-219.611	-16.983	0.149	-0.093
-218.596	-200.000	0.042	0.185
-217.582	-54.509	0.067	-0.030
-216.567	-200.000	0.006	-0.100
-215.552	-89.916	0.300	-0.086
-214.538	-142.489	0.182	0.018
-213.523	-71.629	-0.193	0.071
-212.509	382.178	-0.154	0.311
-211.494	-16.462	0.128	0.080
-210.479	21.637	-0.310	0.249
-209.465	727.648	0.061	0.161
-208.450	-45.459	0.075	0.036
-207.436	-200.000	0.013	-0.114
-206.421	-13.755	0.155	0.099
-205.406	381.318	-0.064	0.129
-204.392	20.343	-0.204	-0.162
-203.377	800.000	0.030	0.082
-202.363	-102.461	-0.214	-0.051
-201.348	4.333	0.032	0.023
-200.333	800.000	-0.028	0.111
-199.319	-200.000	-0.043	-0.245
-198.304	-163.705	0.312	-0.014
-197.290	-145.928	-0.156	-0.014
-196.275	-200.000	0.008	-0.104
-195.260	-43.362	0.102	0.051
-194.246	-75.709	0.336	0.117
-193.231	-59.763	0.196	-0.083
-192.217	13.169	-0.234	0.179
-191.202	-45.198	0.130	0.063
-190.187	800.000	0.073	-0.256
-189.173	96.448	-0.247	0.279
-188.158	-200.000	0.048	0.219
-187.144	-200.000	0.027	0.160
-186.129	14.982	-0.113	0.087
-185.114	4.318	-0.188	0.135
-184.100	-29.001	0.189	-0.107
-183.085	-200.000	0.014	0.191
-182.071	0.330	-0.369	-0.259
-181.056	377.076	-0.086	-0.172
-180.042	-123.143	-0.332	-0.052
-179.027	800.000	-0.044	-0.164
-178.012	-200.000	-0.043	-0.379
-176.998	38.749	0.216	-0.190
-175.983	35.751	0.158	0.136
-174.969	800.000	-0.063	-0.262
-173.954	50.489	0.267	0.248
-172.939	-0.623	0.088	0.062
-171.925	181.685	0.065	-0.094
-170.910	385.776	-0.062	0.127
-169.896	282.831	0.157	0.277
-168.881	197.732	-0.132	0.198
-167.866	-63.456	0.204	0.082
-166.852	800.000	-0.020	0.078
-165.837	31.354	0.122	-0.103
-164.823	-200.000	0.006	0.258
-163.808	-183.927	0.213	0.004
-162.793	536.657	0.106	0.246
-161.779	-66.652	0.069	-0.027
-160.764	-42.334	-0.234	0.117
-159.750	74.890	0.086	0.089
-158.735	32.602	0.353	-0.300
-157.720	-142.066	0.155	-0.015
-156.706	-111.560	-0.214	-0.043
-155.691	232.756	0.321	0.519
-154.677	-13.685	-0.168	0.107
-153.662	-81.123	0.265	-0.086
-152.647	-102.421	0.029	0.007
-151.633	-200.000	-0.011	-0.372
-150.618	800.000	0.131	0.478
-149.604	-93.808	0.355	-0.096
-148.589	800.000	-0.098	-0.314
-147.574	-41.174	-0.194	0.098
-146.560	-51.543	0.198	0.091
-145.545	-200.000	-0.023	-0.241
-144.531	124.361	-0.263	0.324
-143.516	-46.655	-0.131	-0.063
-142.502	58.286	0.236	0.227
-141.487	141.760	0.082	0.107
-140.472	188.943	0.127	-0.187
-139.458	409.707	0.048	-0.100
-138.443	720.484	0.045	0.116
-137.429	-200.000	-0.036	0.221
-136.414	168.801	0.072	0.101
-135.399	147.314	-0.105	-0.139
-134.385	800.000	-0.091	0.286
-133.370	-125.677	-0.101	-0.015
-132.356	58.022	0.075	-0.072
-131.341	-200.000	0.014	-0.193
-130.326	28.960	0.258	0.215
-129.312	-200.000	0.001	-0.101
-128.297	-200.000	-0.017	0.240
-127.283	-200.000	-0.004	0.392
-126.268	224.874	0.116	-0.184
-125.253	-72.742	0.322	-0.116
-124.239	-200.000	0.044	-0.347
-123.224	199.680	0.164	0.247
-122.210	-200.000	0.019	-0.099
-121.195	-200.000	0.035	-0.170
-120.180	-200.000	0.015	0.659
