DTS Sentinel unit serial number:	SN413079Multiplexer serial number:	ORYXHardware model number:	OX4-SRSoftware version number:	ORYX F/W v4.00 Oryx Data Collector v3.7.2.0data status	okinstallation	princeton_trtdifferential loss correction	single-endedforward channel	channel 1reverse channel	N/Adate	2019/09/10time	16:32:11forward acquisition time	60.00reverse acquisition time	0.00gamma	496.2192k internal	0.2299k external	0.2299temperature offset calibration	0.9926default loss term (dB/km)	0.3790temperature slope calibration	1.0000multiplexer offset coefficient	1.0000multiplexer slope coefficient	1.0000fibre end	0.00T internal ref (°C)	38.00T ext. ref 1 (°C)	-0.28T ext. ref 2 (°C)	30.10length (m)	temperature (°C)	Stokes	anti-Stokes-747.200	-102.336	-0.251	-0.061
-746.185	-200.000	-0.032	0.242
-745.171	-50.609	0.279	0.134
-744.156	174.949	0.200	0.296
-743.142	-117.386	-0.353	0.065
-742.127	800.000	-0.116	0.338
-741.112	625.685	0.049	-0.125
-740.098	88.386	-0.245	-0.277
-739.083	64.729	0.075	0.077
-738.069	536.753	-0.069	-0.168
-737.054	-50.413	-0.117	0.056
-736.039	83.884	-0.010	0.012
-735.025	276.021	-0.097	0.175
-734.010	-133.132	-0.151	-0.019
-732.996	-69.260	0.074	0.029
-731.981	-200.000	0.051	-0.416
-730.966	-200.000	0.036	-0.321
-729.952	-67.350	-0.151	-0.060
-728.937	-200.000	0.008	0.076
-727.923	631.939	-0.082	-0.212
-726.908	133.911	-0.170	-0.225
-725.894	-81.257	-0.276	-0.093
-724.879	-109.169	-0.140	-0.030
-723.864	-159.936	-0.312	-0.017
-722.850	93.472	0.215	-0.248
-721.835	-82.650	-0.520	0.172
-720.821	102.747	-0.091	-0.109
-719.806	-115.565	-0.557	0.107
-718.791	-79.119	-0.283	0.098
-717.777	61.216	-0.213	0.216
-716.762	-90.226	-0.273	-0.081
-715.748	341.005	-0.119	-0.237
-714.733	37.396	0.116	0.105
-713.718	-10.541	-0.126	-0.085
-712.704	430.014	0.159	-0.351
-711.689	-2.923	0.232	-0.165
-710.675	-67.705	-0.103	-0.041
-709.660	-73.092	-0.278	-0.104
-708.645	-116.181	0.063	-0.012
-707.631	-192.528	0.373	0.004
-706.616	36.343	-0.050	0.045
-705.602	366.323	-0.091	-0.187
-704.587	-24.953	0.154	0.093
-703.572	41.044	-0.289	-0.265
-702.558	-123.910	-0.165	-0.027
-701.543	-77.819	-0.515	-0.181
-700.529	55.126	-0.110	-0.108
-699.514	-141.724	0.490	-0.050
-698.499	81.179	0.086	-0.095
-697.485	72.742	-0.078	0.082
-696.470	-37.671	0.110	-0.060
-695.456	-200.000	-0.003	-0.190
-694.441	-158.154	0.251	-0.015
-693.426	-200.000	0.008	0.180
-692.412	-200.000	0.082	-0.388
-691.397	224.110	0.041	0.067
-690.383	-200.000	-0.018	-0.413
-689.368	-119.663	-0.089	-0.016
-688.354	134.758	-0.179	0.237
-687.339	0.264	0.313	0.227
-686.324	-200.000	0.029	0.256
-685.310	5.448	-0.357	0.268
-684.295	160.614	-0.100	0.142
-683.281	-44.957	-0.468	-0.237
-682.266	800.000	-0.045	-0.142
-681.251	-170.100	0.374	-0.014
-680.237	-169.541	0.179	-0.007
-679.222	-90.365	-0.141	-0.042
-678.208	800.000	-0.063	0.182
-677.193	46.612	-0.254	-0.240
-676.178	14.104	0.129	-0.102
-675.164	30.322	-0.080	-0.070
-674.149	-37.494	-0.106	0.057
-673.135	-28.340	-0.125	-0.074
-672.120	-200.000	0.035	-0.182
-671.105	-40.763	-0.145	0.077
-670.091	-2.686	0.400	-0.285
-669.076	8.937	-0.254	-0.195
-668.062	52.459	-0.348	0.338
-667.047	22.177	0.041	0.034
-666.032	-200.000	0.004	-0.089
-665.018	800.000	-0.067	-0.246
-664.003	363.598	-0.042	0.086
-662.989	-200.000	-0.021	-0.200
-661.974	-200.000	-0.016	-0.254
-660.959	755.915	-0.077	0.213
-659.945	-35.730	-0.087	0.048
-658.930	-200.000	0.003	0.227
-657.916	249.504	0.281	-0.484
-656.901	800.000	0.079	-0.233
-655.886	-52.288	-0.231	0.109
-654.872	-200.000	-0.066	-0.364
-653.857	-189.470	-0.197	-0.002
-652.843	163.452	0.077	0.109
-651.828	-32.129	0.375	0.213
-650.814	-51.014	-0.163	0.078
-649.799	123.999	-0.214	-0.273
-648.784	44.029	0.213	-0.198
-647.770	-106.131	-0.204	0.046
-646.755	-64.882	0.243	-0.100
-645.741	699.640	-0.046	0.124
-644.726	-91.408	0.168	0.049
-643.711	150.044	0.255	-0.351
-642.697	-125.840	-0.214	0.033
-641.682	-200.000	-0.040	0.184
-640.668	-107.723	-0.333	0.074
-639.653	291.017	0.144	0.266
-638.638	-200.000	-0.035	0.433
-637.624	-150.948	-0.138	0.011
-636.609	-146.141	-0.216	-0.019
-635.595	55.166	0.053	0.052
-634.580	484.561	0.020	0.046
-633.565	-200.000	0.050	-0.316
-632.551	268.934	0.094	-0.167
-631.536	-45.110	-0.031	0.015
-630.522	-76.383	-0.420	-0.150
-629.507	-10.298	0.253	0.170
-628.492	-200.000	0.035	-0.277
-627.478	137.015	-0.104	0.138
-626.463	84.496	0.152	-0.169
-625.449	117.682	-0.111	-0.138
-624.434	-200.000	0.039	-0.183
-623.419	-153.297	-0.209	-0.015
-622.405	-57.746	0.310	0.138
-621.390	-69.053	-0.144	-0.056
-620.376	-128.043	-0.162	0.024
-619.361	-43.389	0.281	-0.144
-618.346	11.575	0.227	0.177
-617.332	-166.374	-0.194	-0.008
-616.317	-131.570	0.283	-0.038
-615.303	-58.216	0.103	-0.045
-614.288	800.000	0.050	-0.142
-613.273	-200.000	0.010	0.393
-612.259	-153.208	-0.264	-0.019
-611.244	-82.625	-0.205	0.067
-610.230	11.381	-0.222	-0.172
-609.215	-200.000	-0.028	0.269
-608.201	-200.000	0.042	0.189
-607.186	49.527	0.106	-0.101
-606.171	800.000	-0.039	0.143
-605.157	-74.048	-0.296	0.109
-604.142	-187.116	-0.211	0.003
-603.128	-83.325	-0.141	-0.046
-602.113	269.740	0.254	0.453
-601.098	134.449	-0.076	0.099
-600.084	-200.000	-0.037	-0.193
-599.069	-109.008	-0.228	0.049
-598.055	-10.037	0.107	-0.072
-597.040	231.038	0.116	-0.193
-596.025	-156.953	-0.524	-0.033
-595.011	-200.000	-0.040	0.409
-593.996	800.000	0.052	0.177
-592.982	-169.765	-0.106	0.004
-591.967	-178.887	0.160	0.004
-590.952	517.240	0.129	-0.307
-589.938	17.902	-0.150	-0.121
-588.923	25.199	0.478	-0.403
-587.909	-200.000	0.049	-0.261
-586.894	184.094	0.128	-0.192
-585.879	-200.000	0.037	0.230
-584.865	-39.848	0.080	0.042
-583.850	-79.811	0.204	0.070
-582.836	-200.000	-0.002	0.270
-581.821	3.794	-0.107	-0.079
-580.806	169.776	-0.101	-0.146
-579.792	-200.000	-0.054	-0.380
-578.777	-136.452	-0.029	0.003
-577.763	-200.000	-0.024	-0.287
-576.748	-48.051	0.170	0.083
-575.733	-78.390	-0.155	0.054
-574.719	-200.000	0.009	-0.185
-573.704	800.000	0.082	0.349
-572.690	800.000	-0.122	0.349
-571.675	69.782	0.125	0.131
-570.661	-100.582	-0.065	-0.016
-569.646	-61.380	0.217	-0.093
-568.631	-26.594	0.239	0.142
-567.617	758.411	0.075	-0.206
-566.602	-59.289	-0.032	0.014
-565.588	365.955	0.182	-0.372
-564.573	800.000	-0.080	-0.228
-563.558	48.209	0.032	0.030
-562.544	-200.000	-0.008	-0.138
-561.529	800.000	-0.022	0.096
-560.515	-200.000	-0.099	-0.448
-559.500	-58.563	-0.169	-0.074
-558.485	9.527	0.089	0.069
-557.471	299.326	-0.247	0.460
-556.456	243.541	-0.119	0.203
-555.442	350.676	-0.051	0.101
-554.427	26.308	-0.182	-0.154
-553.412	-73.629	-0.370	0.136
-552.398	42.825	0.101	0.093
-551.383	-200.000	-0.046	0.254
-550.369	-75.971	0.215	0.077
-549.354	-122.250	-0.148	-0.025
-548.339	675.714	0.083	-0.217
-547.325	-200.000	-0.039	0.394
-546.310	-107.755	0.168	-0.037
-545.296	-4.742	0.096	0.067
-544.281	-70.038	0.321	-0.124
-543.266	-93.640	0.037	-0.010
-542.252	-80.427	0.331	0.112
-541.237	207.744	0.066	-0.105
-540.223	-173.235	0.385	0.012
-539.208	216.582	0.092	-0.149
-538.193	-51.277	0.311	-0.147
-537.179	260.813	0.093	-0.163
-536.164	-82.241	-0.233	0.077
-535.150	-200.000	-0.025	-0.130
-534.135	48.011	-0.156	0.148
-533.121	138.307	0.075	0.100
-532.106	-21.268	0.162	-0.100
-531.091	-128.683	-0.283	-0.040
-530.077	-162.957	-0.271	-0.013
-529.062	-165.974	0.318	0.014
-528.048	103.163	0.284	-0.336
-527.033	-79.621	0.090	-0.031
-526.018	150.604	-0.161	0.221
-525.004	-22.706	0.207	0.127
-523.989	-148.114	-0.249	-0.021
-522.975	-200.000	-0.061	-0.309
-521.960	-77.172	-0.409	-0.144
-520.945	-83.769	0.255	-0.082
-519.931	-87.048	-0.164	-0.051
-518.916	-6.407	0.087	-0.060
-517.902	-21.755	0.142	0.087
-516.887	800.000	0.022	-0.076
-515.872	-157.851	-0.175	-0.010
-514.858	-87.821	0.487	-0.148
-513.843	-31.104	0.299	-0.170
-512.829	302.096	0.121	-0.226
-511.814	120.888	0.069	-0.087
-510.799	800.000	-0.040	-0.125
-509.785	-129.649	0.034	-0.005
-508.770	71.922	-0.075	0.078
-507.756	412.887	0.033	0.071
-506.741	30.071	0.384	0.331
-505.726	436.917	0.051	0.113
-504.712	102.761	0.176	-0.208
-503.697	-13.821	-0.096	-0.063
-502.683	-115.950	-0.287	-0.054
-501.668	454.846	-0.092	0.206
-500.653	257.648	-0.065	0.113
-499.639	-24.727	0.209	0.126
-498.624	-200.000	-0.072	0.369
-497.610	574.215	0.069	-0.171
-496.595	186.080	0.195	-0.293
-495.581	-7.960	-0.202	-0.137
-494.566	-200.000	0.019	0.096
-493.551	-109.951	0.253	-0.054
-492.537	800.000	-0.125	-0.416
-491.522	-115.324	-0.268	0.051
-490.508	-200.000	0.005	-0.235
-489.493	591.684	-0.039	0.098
-488.478	800.000	0.063	0.221
-487.464	-159.118	0.374	-0.021
-486.449	-137.486	-0.214	0.024
-485.435	556.804	0.032	0.078
-484.420	140.779	0.177	0.236
-483.405	800.000	-0.059	0.212
-482.391	-200.000	0.001	0.339
-481.376	127.725	0.093	0.119
-480.362	-96.988	0.443	0.117
-479.347	391.702	0.022	-0.046
-478.332	583.334	0.119	-0.294
-477.318	0.113	-0.180	-0.130
-476.303	-114.268	-0.174	-0.034
-475.289	-138.649	0.312	-0.035
-474.274	-156.442	0.150	0.009
-473.259	225.529	0.120	0.197
-472.245	56.268	0.276	-0.270
-471.230	-35.419	0.298	0.163
-470.216	-49.032	0.317	-0.153
-469.201	27.073	-0.139	-0.118
-468.186	-200.000	-0.072	-0.544
-467.172	-89.583	-0.256	0.076
-466.157	-200.000	-0.015	-0.261
-465.143	74.545	-0.122	-0.130
-464.128	-147.890	-0.310	0.026
-463.113	-12.444	0.340	-0.224
-462.099	-200.000	0.013	-0.059
-461.084	444.355	0.047	0.104
-460.070	-170.758	0.308	-0.011
-459.055	-68.132	0.259	-0.102
-458.040	194.351	-0.088	0.135
-457.026	-37.908	0.290	0.156
-456.011	-76.071	-0.055	-0.020
-454.997	800.000	-0.067	0.256
-453.982	-62.840	0.392	0.164
-452.968	-200.000	-0.025	-0.216
-451.953	-60.867	-0.158	-0.067
-450.938	-55.150	0.282	-0.128
-449.924	71.101	0.201	0.210
-448.909	-134.528	-0.517	0.064
-447.895	-61.954	-0.217	-0.092
-446.880	-61.427	-0.107	-0.046
-445.865	8.712	0.026	0.020
-444.851	-200.000	0.025	0.289
-443.836	375.798	-0.050	0.102
-442.822	-121.979	-0.439	0.073
-441.807	9.818	-0.182	-0.139
-440.792	-125.209	-0.078	0.012
-439.778	-135.670	0.064	-0.008
-438.763	195.080	-0.206	0.315
-437.749	-200.000	0.019	0.366
-436.734	-158.124	0.111	0.007
-435.719	296.094	-0.064	0.118
-434.705	-13.364	0.171	-0.112
-433.690	-135.098	-0.474	0.058
-432.676	-154.070	-0.152	0.010
-431.661	-77.355	0.103	0.036
-430.646	-21.827	-0.129	0.079
-429.632	-200.000	0.001	0.021
-428.617	-200.000	0.016	-0.168
-427.603	-94.287	-0.310	-0.085
-426.588	800.000	0.048	0.199
-425.573	-109.796	0.358	0.076
-424.559	19.980	0.230	0.187
-423.544	447.126	-0.052	0.115
-422.530	-9.940	-0.254	-0.170
-421.515	-70.809	-0.402	-0.153
-420.500	-47.700	-0.188	-0.092
-419.486	-105.189	-0.139	-0.032
-418.471	-25.364	0.149	-0.089
-417.457	2.649	0.203	-0.148
-416.442	-81.417	-0.251	-0.083
-415.428	0.474	0.432	-0.311
-414.413	0.224	-0.213	-0.153
-413.398	148.645	0.051	-0.069
-412.384	-94.477	-0.190	-0.052
-411.369	-200.000	0.037	-0.220
-410.355	273.337	0.185	-0.329
-409.340	576.355	-0.182	0.449
-408.325	-150.358	0.112	-0.009
-407.311	48.868	-0.201	-0.190
-406.296	-95.653	0.220	-0.059
-405.282	34.577	-0.054	-0.047
-404.267	495.954	0.059	-0.137
-403.252	800.000	-0.037	0.153
-402.238	0.901	-0.249	-0.180
-401.223	-30.993	-0.318	0.181
-400.209	-81.501	-0.206	-0.068
-399.194	-52.827	-0.206	0.095
-398.179	168.554	0.048	0.068
-397.165	-10.899	0.150	-0.100
-396.150	-99.054	-0.256	-0.065
-395.136	-127.730	-0.451	-0.066
-394.121	-55.462	-0.362	0.163
-393.106	9.642	0.252	0.192
-392.092	-26.989	-0.137	-0.080
-391.077	-149.386	-0.254	-0.020
-390.063	-81.351	0.191	-0.063
-389.048	-54.731	-0.241	0.109
-388.033	48.192	0.235	0.222
-387.019	-133.186	-0.255	0.032
-386.004	19.729	0.113	0.091
-384.990	709.519	-0.060	0.160
-383.975	-152.232	0.439	0.032
-382.960	41.181	-0.388	-0.353
-381.946	120.233	0.123	0.153
-380.931	800.000	-0.030	-0.103
-379.917	800.000	0.056	-0.227
-378.902	-98.952	0.026	-0.007
-377.888	778.429	0.080	0.219
-376.873	-142.165	0.177	-0.018
-375.858	-57.738	0.057	-0.025
-374.844	-105.780	0.232	-0.053
-373.829	183.423	-0.201	0.298
-372.815	72.345	0.331	0.347
-371.800	-200.000	-0.053	0.334
-370.785	800.000	-0.090	0.276
-369.771	-1.322	-0.198	0.141
-368.756	-130.735	-0.243	-0.033
-367.742	1.204	-0.302	0.218
-366.727	63.785	0.075	-0.076
-365.712	-13.788	0.347	-0.226
-364.698	-50.456	-0.076	0.036
-363.683	425.644	-0.119	0.258
-362.669	20.863	0.226	-0.184
-361.654	42.120	0.162	0.148
-360.639	52.991	-0.051	0.049
-359.625	188.118	-0.098	0.147
-358.610	86.748	-0.070	-0.077
-357.596	-200.000	0.015	-0.332
-356.581	152.201	0.323	-0.442
-355.566	91.291	-0.129	-0.145
-354.552	91.813	0.179	0.203
-353.537	46.969	0.087	0.081
-352.523	570.106	-0.133	0.324
-351.508	154.117	0.277	0.382
-350.493	-15.936	0.105	0.067
-349.479	800.000	0.034	0.122
-348.464	364.538	0.048	-0.097
-347.450	-80.338	0.150	0.050
-346.435	-42.457	0.295	0.151
-345.420	-23.503	-0.040	0.024
-344.406	198.144	-0.127	0.195
-343.391	-71.539	0.293	0.110
-342.377	-46.224	-0.117	0.058
-341.362	-200.000	0.018	0.166
-340.348	576.745	-0.142	0.349
-339.333	-200.000	0.035	-0.345
-338.318	486.492	-0.061	-0.139
-337.304	800.000	-0.073	0.255
-336.289	-49.048	-0.071	-0.034
-335.275	628.169	0.043	-0.109
-334.260	-4.142	0.179	-0.125
-333.245	-67.789	-0.369	-0.145
-332.231	-74.685	-0.246	-0.089
-331.216	45.988	-0.094	0.088
-330.202	89.334	-0.278	0.311
-329.187	-93.151	-0.250	0.070
-328.172	53.008	-0.195	-0.187
-327.158	-200.000	-0.003	0.030
-326.143	-101.501	-0.084	-0.021
-325.129	252.270	-0.070	-0.119
-324.114	-73.800	-0.198	-0.072
-323.099	-115.535	-0.192	-0.036
-322.085	800.000	-0.068	-0.218
-321.070	-102.462	0.089	-0.021
-320.056	-87.289	0.188	-0.057
-319.041	800.000	0.093	0.299
-318.026	-200.000	0.067	0.409
-317.012	7.963	-0.074	0.056
-315.997	-63.861	0.087	0.036
-314.983	1.195	0.142	0.103
-313.968	32.955	-0.138	-0.120
-312.953	800.000	0.107	-0.435
-311.939	800.000	0.051	-0.204
-310.924	-117.576	-0.207	0.037
-309.910	-118.123	0.423	0.076
-308.895	-200.000	-0.001	-0.184
-307.880	4.505	-0.077	0.057
-306.866	-200.000	-0.047	0.231
-305.851	-129.364	0.184	0.026
-304.837	49.254	-0.144	-0.136
-303.822	30.827	0.262	0.225
-302.807	-158.759	0.383	0.022
-301.793	-104.385	0.200	0.046
-300.778	-55.752	-0.142	0.064
-299.764	625.464	-0.035	-0.090
-298.749	-107.803	0.355	-0.078
-297.735	-68.892	-0.419	0.162
-296.720	-144.257	-0.059	0.006
-295.705	60.128	0.248	-0.246
-294.691	585.138	-0.050	0.123
-293.676	800.000	-0.015	0.053
-292.662	-79.029	-0.317	-0.108
-291.647	-27.327	0.191	-0.111
-290.632	-106.509	0.190	-0.043
-289.618	-98.068	0.134	0.035
-288.603	61.232	0.099	-0.098
-287.589	361.617	0.009	0.019
-286.574	5.932	0.235	0.174
-285.559	-52.841	0.199	-0.092
-284.545	-1.715	-0.162	0.115
-283.530	33.089	-0.429	0.373
-282.516	-139.384	-0.190	-0.020
-281.501	36.367	-0.166	0.146
-280.486	317.705	0.038	0.073
-279.472	-16.180	-0.076	-0.048
-278.457	31.798	-0.048	-0.042
-277.443	-87.630	0.266	-0.080
-276.428	73.550	-0.207	-0.217
-275.413	-40.612	0.141	-0.073
-274.399	-94.771	0.282	-0.077
-273.384	-200.000	0.010	0.069
-272.370	-86.918	0.145	-0.044
-271.355	-124.442	0.330	0.051
-270.340	683.041	0.060	-0.157
-269.326	-91.874	-0.175	-0.050
-268.311	-45.527	0.375	-0.186
-267.297	191.200	-0.154	-0.232
-266.282	528.031	-0.156	-0.368
-265.267	15.192	0.176	-0.138
-264.253	-185.726	-0.279	0.004
-263.238	-200.000	-0.020	0.215
-262.224	61.805	0.230	0.230
-261.209	-143.538	-0.112	0.011
-260.195	106.256	0.125	0.148
-259.180	800.000	0.082	0.259
-258.165	134.537	-0.218	-0.283
-257.151	-60.782	-0.274	0.116
-256.136	-156.266	0.140	0.009
-255.122	-130.583	0.249	-0.034
-254.107	443.075	-0.142	-0.311
-253.092	-146.453	-0.034	0.003
-252.078	800.000	-0.079	-0.245
-251.063	-82.341	-0.160	-0.052
-250.049	130.820	0.118	0.152
-249.034	-8.099	-0.121	-0.082
-248.019	146.620	-0.124	-0.167
-247.005	-58.315	0.171	0.075
-245.990	-4.917	0.233	-0.161
-244.976	800.000	0.073	-0.231
-243.961	275.574	0.141	0.250
-242.946	376.421	0.083	0.170
-241.932	-115.060	0.045	0.009
-240.917	162.310	-0.092	-0.128
-239.903	557.499	0.033	-0.080
-238.888	-200.000	0.020	0.264
-237.873	-83.314	0.164	0.053
-236.859	-200.000	-0.150	0.665
-235.844	-82.667	0.250	0.081
-234.830	149.587	-0.204	-0.277
-233.815	223.798	0.214	0.346
-232.800	-136.129	0.395	-0.046
-231.786	-76.811	-0.300	-0.105
-230.771	800.000	-0.030	-0.129
-229.757	35.234	-0.088	-0.078
-228.742	282.759	-0.187	-0.335
-227.727	-140.192	-0.416	0.044
-226.713	257.589	-0.100	-0.173
-225.698	112.964	-0.118	-0.143
-224.684	460.753	0.049	-0.109
-223.669	-124.556	0.316	-0.049
-222.655	109.602	-0.208	0.250
-221.640	31.652	0.121	-0.104
-220.625	800.000	0.007	0.023
-219.611	-200.000	0.009	-0.201
-218.596	86.411	-0.055	0.061
-217.582	732.322	-0.076	-0.202
-216.567	-140.621	-0.262	0.027
-215.552	-59.114	0.220	-0.095
-214.538	-107.509	-0.298	0.065
-213.523	-117.711	-0.372	-0.067
-212.509	527.114	-0.107	0.252
-211.494	-32.103	-0.134	0.075
-210.479	-85.231	-0.256	-0.080
-209.465	-200.000	-0.013	0.131
-208.450	97.686	0.070	-0.080
-207.436	8.235	-0.138	0.104
-206.421	82.831	0.127	0.138
-205.406	800.000	-0.047	-0.162
-204.392	-28.988	-0.232	-0.133
-203.377	26.743	-0.169	-0.141
-202.363	-200.000	0.017	0.547
-201.348	-200.000	-0.004	-0.072
-200.333	-95.239	-0.484	0.130
-199.319	-56.735	-0.222	-0.098
-198.304	-165.376	-0.115	0.005
-197.290	221.124	0.209	0.335
-196.275	54.925	-0.086	-0.083
-195.260	-200.000	0.063	0.637
-194.246	-122.055	0.218	-0.036
-193.231	67.503	0.054	-0.055
-192.217	-200.000	0.099	-0.439
-191.202	73.753	0.061	-0.064
-190.187	800.000	-0.067	-0.252
-189.173	33.540	0.209	-0.181
-188.158	322.590	-0.044	0.083
-187.144	-116.652	-0.440	-0.081
-186.129	142.362	0.106	-0.140
-185.114	103.411	0.040	0.047
-184.100	-93.560	-0.177	-0.049
-183.085	-23.359	-0.088	-0.053
-182.071	-161.552	-0.041	-0.002
-181.056	121.922	-0.239	0.297
-180.042	800.000	-0.029	-0.120
-179.027	329.648	0.047	-0.090
-178.012	-93.532	-0.046	0.013
-176.998	461.749	0.036	0.080
-175.983	67.154	-0.080	-0.081
-174.969	-115.286	0.044	-0.008
-173.954	138.007	0.280	-0.366
-172.939	-69.282	-0.120	0.046
-171.925	800.000	0.035	0.120
-170.910	-191.260	-0.178	0.002
-169.896	170.355	0.182	0.259
-168.881	800.000	-0.042	0.183
-167.866	163.151	0.307	0.430
-166.852	103.260	0.174	-0.204
-165.837	305.924	0.176	-0.327
-164.823	82.231	-0.035	-0.038
-163.808	-81.676	0.236	0.077
-162.793	-70.880	-0.277	-0.104
-161.779	-200.000	0.008	-0.106
-160.764	-200.000	-0.095	0.453
-159.750	97.721	0.178	0.204
-158.735	-200.000	-0.042	-0.264
-157.720	224.403	-0.117	-0.189
-156.706	-200.000	-0.010	0.407
-155.691	-71.383	0.192	-0.072
-154.677	281.445	0.087	-0.156
-153.662	-109.787	-0.125	-0.026
-152.647	-114.343	0.399	-0.077
-151.633	-200.000	0.036	0.211
-150.618	-200.000	0.003	-0.037
-149.604	5.221	-0.025	0.019
-148.589	-18.678	-0.122	0.076
-147.574	28.238	-0.152	-0.128
-146.560	-113.389	-0.101	0.020
-145.545	-48.074	0.241	-0.116
-144.531	-103.233	-0.365	0.086
-143.516	-118.685	0.436	0.077
-142.502	-200.000	0.009	0.057
-141.487	-44.088	-0.148	0.074
-140.472	-200.000	-0.012	-0.300
-139.458	800.000	-0.050	0.158
-138.443	-122.184	0.162	-0.026
-137.429	74.764	-0.046	0.048
-136.414	800.000	-0.043	-0.127
-135.399	-109.543	0.315	0.066
-134.385	263.497	-0.111	-0.192
-133.370	3.159	0.048	0.035
-132.356	-152.738	-0.212	0.015
-131.341	-200.000	-0.026	0.287
-130.326	800.000	0.032	-0.111
-129.312	461.038	0.046	0.101
-128.297	800.000	-0.079	0.333
-127.283	71.053	0.035	0.037
-126.268	-200.000	0.030	0.378
-125.253	-98.066	0.122	0.031
-124.239	110.901	0.097	0.116
-123.224	486.293	0.048	-0.108
-122.210	66.730	0.365	0.370
-121.195	49.792	0.039	0.037
