DTS Sentinel unit serial number:	SN413079Multiplexer serial number:	ORYXHardware model number:	OX4-SRSoftware version number:	ORYX F/W v4.00 Oryx Data Collector v3.7.2.0data status	okinstallation	princeton_trtdifferential loss correction	single-endedforward channel	channel 1reverse channel	N/Adate	2019/09/17time	12:46:35forward acquisition time	60.00reverse acquisition time	0.00gamma	496.2192k internal	0.2315k external	0.2315temperature offset calibration	0.9970default loss term (dB/km)	0.3790temperature slope calibration	1.0000multiplexer offset coefficient	1.0000multiplexer slope coefficient	1.0000fibre end	0.00T internal ref (°C)	32.64T ext. ref 1 (°C)	0.42T ext. ref 2 (°C)	30.80length (m)	temperature (°C)	Stokes	anti-Stokes-747.200	205.539	-0.090	0.141
-746.185	-29.299	0.125	-0.072
-745.171	37.681	0.349	0.314
-744.156	-63.737	-0.169	0.070
-743.142	-89.578	-0.147	0.044
-742.127	148.820	0.255	0.350
-741.112	-173.226	-0.297	0.009
-740.098	81.101	-0.242	0.265
-739.083	-200.000	0.002	-0.016
-738.069	-73.213	0.292	0.108
-737.054	208.240	-0.074	-0.117
-736.039	-200.000	0.065	0.297
-735.025	-34.309	0.142	0.079
-734.010	573.147	-0.147	-0.362
-732.996	-200.000	0.004	0.057
-731.981	-86.406	-0.130	-0.041
-730.966	131.020	-0.142	0.185
-729.952	-178.139	-0.210	0.005
-728.937	800.000	-0.016	-0.051
-727.923	-15.355	0.171	-0.110
-726.908	271.407	0.037	0.066
-725.894	800.000	-0.040	0.150
-724.879	-57.351	0.072	0.032
-723.864	465.514	-0.081	-0.184
-722.850	-132.580	-0.035	0.005
-721.835	-2.598	0.069	-0.049
-720.821	-102.489	-0.228	0.055
-719.806	-145.358	-0.336	-0.031
-718.791	174.182	0.169	-0.248
-717.777	663.277	0.079	-0.207
-716.762	114.114	0.203	0.250
-715.748	800.000	-0.084	0.319
-714.733	-98.083	0.202	-0.053
-713.718	-200.000	-0.038	-0.189
-712.704	30.654	0.278	-0.241
-711.689	160.704	0.188	-0.266
-710.675	-15.695	-0.120	0.077
-709.660	800.000	-0.097	-0.359
-708.645	-139.430	0.196	0.021
-707.631	210.535	0.027	-0.043
-706.616	-200.000	0.021	0.205
-705.602	306.028	0.108	0.204
-704.587	-44.526	0.086	0.044
-703.572	-71.023	0.089	-0.034
-702.558	-27.762	-0.333	0.196
-701.543	-14.977	-0.116	-0.075
-700.529	-200.000	0.017	0.158
-699.514	101.769	-0.165	-0.194
-698.499	-58.057	-0.486	-0.215
-697.485	-53.795	0.089	-0.041
-696.470	53.556	0.051	0.049
-695.456	-15.715	-0.421	-0.271
-694.441	112.489	0.211	0.259
-693.426	3.393	0.204	0.150
-692.412	18.568	0.199	0.161
-691.397	21.619	-0.153	-0.126
-690.383	2.880	-0.292	-0.214
-689.368	497.333	0.129	-0.301
-688.354	-200.000	-0.068	-0.417
-687.339	800.000	0.069	-0.300
-686.324	457.523	-0.057	0.128
-685.310	-200.000	-0.040	0.220
-684.295	100.210	-0.262	0.307
-683.281	43.574	-0.074	-0.068
-682.266	-26.504	0.259	0.154
-681.251	-68.009	0.427	0.168
-680.237	-84.848	-0.480	0.152
-679.222	651.448	0.126	0.326
-678.208	610.981	0.090	0.227
-677.193	-200.000	-0.019	-0.192
-676.178	-85.523	-0.176	-0.055
-675.164	-62.426	0.323	-0.136
-674.149	800.000	0.077	0.221
-673.135	-36.323	-0.107	-0.058
-672.120	43.186	0.065	-0.060
-671.105	133.208	-0.015	-0.020
-670.091	39.230	0.231	-0.209
-669.076	800.000	0.040	-0.114
-668.062	800.000	0.045	-0.140
-667.047	159.044	0.127	-0.179
-666.032	11.604	-0.179	-0.138
-665.018	-55.852	0.121	0.055
-664.003	35.099	-0.406	-0.359
-662.989	-157.961	0.444	-0.026
-661.974	44.776	-0.126	-0.117
-660.959	-97.179	0.255	-0.067
-659.945	-200.000	-0.015	-0.344
-658.930	692.169	0.098	-0.258
-657.916	-58.220	-0.057	-0.025
-656.901	168.278	-0.177	0.254
-655.886	-162.562	0.224	0.011
-654.872	-26.793	-0.502	-0.296
-653.857	4.972	0.114	0.085
-652.843	-12.053	0.183	-0.121
-651.828	-29.514	0.305	-0.176
-650.814	-12.602	0.220	-0.145
-649.799	-200.000	0.009	-0.071
-648.784	-200.000	-0.008	-0.074
-647.770	240.124	0.110	-0.186
-646.755	-200.000	0.057	-0.301
-645.741	180.353	-0.147	-0.217
-644.726	-200.000	-0.030	-0.138
-643.711	-154.645	0.256	-0.017
-642.697	226.550	0.168	-0.275
-641.682	-32.214	-0.221	0.124
-640.668	-73.873	-0.310	-0.114
-639.653	-130.275	0.110	-0.015
-638.638	-183.782	0.266	0.005
-637.624	800.000	-0.087	0.363
-636.609	81.651	-0.044	0.048
-635.595	-56.665	0.153	0.069
-634.580	149.190	-0.101	-0.137
-633.565	195.384	0.104	0.160
-632.551	-200.000	0.016	-0.250
-631.536	-108.733	-0.376	-0.081
-630.522	270.232	-0.030	0.054
-629.507	-146.849	-0.459	0.040
-628.492	30.816	-0.203	-0.176
-627.478	-15.611	0.097	0.062
-626.463	-200.000	-0.046	-0.312
-625.449	-114.422	0.297	-0.058
-624.434	36.569	-0.103	-0.092
-623.419	-120.658	-0.061	-0.010
-622.405	88.576	-0.094	0.105
-621.390	-42.676	-0.052	0.027
-620.376	-200.000	0.015	-0.190
-619.361	-183.851	-0.226	-0.004
-618.346	11.019	-0.053	0.041
-617.332	195.530	0.192	-0.294
-616.317	58.787	0.329	-0.326
-615.303	773.446	-0.063	0.172
-614.288	70.056	0.067	0.070
-613.273	47.145	-0.045	0.042
-612.259	517.868	-0.095	0.225
-611.244	66.099	0.108	0.111
-610.230	-56.488	-0.121	0.054
-609.215	-83.792	0.191	0.061
-608.201	372.894	-0.102	0.209
-607.186	80.549	0.074	0.080
-606.171	-4.695	-0.232	-0.161
-605.157	69.390	-0.084	0.087
-604.142	37.612	-0.241	0.216
-603.128	6.635	-0.249	0.186
-602.113	360.270	0.071	-0.143
-601.098	-81.562	0.434	-0.144
-600.084	1.892	0.151	0.110
-599.069	22.894	0.144	0.119
-598.055	721.060	-0.142	0.380
-597.040	-149.456	0.158	0.013
-596.025	-22.033	-0.122	-0.075
-595.011	10.315	-0.203	0.156
-593.996	-8.273	0.137	0.093
-592.982	5.184	-0.177	-0.132
-591.967	-123.693	-0.041	0.006
-590.952	70.486	-0.218	-0.227
-589.938	800.000	-0.190	0.576
-588.923	-179.265	0.086	-0.002
-587.909	-200.000	0.284	-0.001
-586.894	-200.000	0.031	0.591
-585.879	291.394	-0.198	0.364
-584.865	58.524	0.104	0.103
-583.850	-41.180	0.246	-0.128
-582.836	-200.000	0.067	0.337
-581.821	800.000	0.013	0.045
-580.806	-157.078	0.420	-0.026
-579.792	-200.000	0.030	-0.245
-578.777	564.260	-0.016	-0.040
-577.763	-121.164	0.063	-0.011
-576.748	-34.284	-0.257	-0.142
-575.733	-27.256	0.190	-0.111
-574.719	-109.233	-0.097	-0.021
-573.704	-76.180	-0.430	0.153
-572.690	-52.206	0.447	0.209
-571.675	-42.918	-0.061	0.031
-570.661	18.968	-0.320	0.258
-569.646	52.186	-0.148	-0.142
-568.631	-86.651	0.115	-0.035
-567.617	104.196	0.154	0.183
-566.602	-200.000	0.036	-0.379
-565.588	-200.000	-0.007	-0.050
-564.573	-200.000	0.023	-0.119
-563.558	-28.127	0.261	-0.152
-562.544	-55.887	-0.317	-0.142
-561.529	137.787	0.130	0.171
-560.515	-86.093	-0.498	0.155
-559.500	192.365	0.131	0.199
-558.485	83.310	-0.110	-0.121
-557.471	-130.096	0.203	0.028
-556.456	-101.296	-0.191	0.047
-555.442	800.000	-0.040	-0.125
-554.427	316.611	-0.141	0.267
-553.412	-67.891	-0.109	0.043
-552.398	-30.424	0.130	0.074
-551.383	-200.000	0.032	0.175
-550.369	-200.000	0.015	-0.086
-549.354	-88.161	0.218	0.066
-548.339	383.299	0.085	0.176
-547.325	-51.546	-0.085	-0.040
-546.310	-155.502	-0.073	0.005
-545.296	-89.590	-0.255	-0.075
-544.281	-200.000	-0.018	-0.182
-543.266	117.357	0.127	-0.157
-542.252	-200.000	0.001	0.029
-541.237	-62.739	0.355	0.148
-540.223	-200.000	-0.032	-0.352
-539.208	206.944	0.169	-0.266
-538.193	99.026	-0.025	0.029
-537.179	42.665	-0.063	0.057
-536.164	769.663	0.072	-0.198
-535.150	260.273	0.100	-0.174
-534.135	523.439	0.082	-0.193
-533.121	368.095	-0.081	-0.165
-532.106	317.413	-0.165	-0.314
-531.091	66.318	-0.243	0.249
-530.077	42.305	-0.133	-0.122
-529.062	319.135	0.059	-0.112
-528.048	66.075	-0.107	0.109
-527.033	-200.000	-0.043	0.310
-526.018	169.407	-0.253	-0.363
-525.004	-200.000	0.046	-0.346
-523.989	-200.000	0.016	-0.421
-522.975	-85.269	0.177	0.056
-521.960	-200.000	0.057	-0.300
-520.945	-200.000	0.011	-0.176
-519.931	-39.525	-0.040	0.021
-518.916	-50.588	-0.252	0.119
-517.902	152.700	0.129	0.178
-516.887	69.363	0.166	-0.172
-515.872	-65.379	-0.087	0.035
-514.858	-50.350	-0.297	0.141
-513.843	38.688	0.059	0.053
-512.829	800.000	0.078	-0.308
-511.814	-91.787	-0.185	-0.053
-510.799	73.958	-0.099	-0.104
-509.785	-13.548	-0.113	-0.074
-508.770	800.000	0.026	-0.099
-507.756	-186.680	-0.303	-0.004
-506.741	86.974	0.117	0.130
-505.726	-72.551	-0.226	0.084
-504.712	-154.057	0.171	0.012
-503.697	-125.019	-0.453	0.070
-502.683	-200.000	0.027	-0.143
-501.668	673.078	0.131	0.340
-500.653	-77.687	0.318	0.110
-499.639	800.000	0.038	0.154
-498.624	-200.000	-0.008	0.157
-497.610	-18.426	0.065	0.041
-496.595	-89.264	0.245	0.073
-495.581	-142.325	0.343	0.034
-494.566	-200.000	0.003	-0.055
-493.551	18.514	0.211	0.169
-492.537	-56.603	0.274	0.122
-491.522	-123.665	-0.416	0.066
-490.508	83.134	0.146	0.159
-489.493	134.838	-0.135	0.176
-488.478	444.284	0.106	-0.232
-487.464	-106.625	0.138	0.031
-486.449	33.937	-0.115	-0.101
-485.435	6.349	-0.236	-0.176
-484.420	800.000	-0.139	-0.434
-483.405	219.685	0.078	-0.125
-482.391	-200.000	0.022	-0.197
-481.376	88.299	0.112	-0.125
-480.362	4.206	0.210	0.154
-479.347	-68.360	-0.228	-0.089
-478.332	-95.274	0.274	0.074
-477.318	-133.590	0.086	-0.011
-476.303	76.416	-0.073	-0.077
-475.289	-100.487	-0.122	-0.030
-474.274	800.000	0.108	-0.363
-473.259	676.826	0.043	-0.113
-472.245	141.356	0.199	-0.265
-471.230	-62.444	0.285	0.119
-470.216	-150.309	0.192	-0.015
-469.201	-80.394	0.104	0.035
-468.186	346.912	0.034	0.067
-467.172	153.920	0.151	-0.207
-466.157	-30.398	-0.102	-0.058
-465.143	-34.869	-0.267	0.146
-464.128	-120.448	-0.216	0.037
-463.113	20.235	0.162	0.131
-462.099	-200.000	0.009	0.246
-461.084	-46.956	-0.178	-0.087
-460.070	-161.611	0.092	0.005
-459.055	-123.822	0.423	-0.067
-458.040	800.000	0.081	-0.273
-457.026	-87.937	0.172	-0.052
-456.011	-54.920	-0.159	-0.072
-454.997	-131.699	0.362	0.048
-453.982	136.398	0.129	0.168
-452.968	-102.767	-0.384	-0.092
-451.953	306.313	0.094	-0.175
-450.938	800.000	-0.113	0.487
-449.924	-59.295	-0.256	0.110
-448.909	61.835	0.154	-0.154
-447.895	-146.941	-0.208	0.018
-446.880	407.689	0.075	-0.159
-445.865	67.661	-0.131	-0.134
-444.851	15.748	0.244	-0.192
-443.836	-124.058	-0.242	-0.038
-442.822	39.872	-0.178	0.160
-441.807	32.811	-0.255	0.221
-440.792	800.000	0.062	0.243
-439.778	-50.174	-0.103	-0.049
-438.763	-175.990	0.240	-0.006
-437.749	-196.073	-0.228	0.002
-436.734	800.000	-0.053	0.171
-435.719	-119.945	0.008	-0.001
-434.705	606.455	-0.122	-0.303
-433.690	-114.060	-0.255	-0.049
-432.676	-70.813	-0.205	0.077
-431.661	800.000	-0.122	0.391
-430.646	59.894	-0.075	0.074
-429.632	-93.436	0.179	0.050
-428.617	-51.285	0.191	0.089
-427.603	-80.387	0.215	0.072
-426.588	-181.431	-0.348	0.007
-425.573	-74.888	-0.567	-0.204
-424.559	800.000	0.069	-0.257
-423.544	-200.000	0.016	0.372
-422.530	-180.599	-0.432	-0.009
-421.515	800.000	-0.043	-0.176
-420.500	295.079	0.122	-0.224
-419.486	-200.000	0.044	0.232
-418.471	-111.678	0.330	0.067
-417.457	-200.000	-0.014	0.311
-416.442	-8.577	0.165	-0.111
-415.428	-200.000	0.011	0.118
-414.413	198.805	-0.081	0.124
-413.398	-49.332	0.191	-0.091
-412.384	-200.000	0.051	-0.520
-411.369	41.353	0.130	-0.117
-410.355	63.947	-0.238	-0.240
-409.340	800.000	-0.086	-0.303
-408.325	-50.859	-0.119	0.056
-407.311	-176.881	0.269	0.007
-406.296	60.235	-0.284	0.281
-405.282	124.611	-0.228	0.287
-404.267	-26.123	-0.397	-0.233
-403.252	-122.634	-0.225	-0.037
-402.238	-167.195	0.040	-0.002
-401.223	-200.000	-0.054	-0.458
-400.209	-65.084	-0.154	-0.062
-399.194	403.995	0.131	0.276
-398.179	-142.317	0.215	-0.021
-397.165	124.808	-0.222	0.280
-396.150	-115.949	0.105	0.020
-395.136	-19.786	-0.110	-0.068
-394.121	-80.353	-0.262	0.088
-393.106	-46.149	-0.311	0.153
-392.092	800.000	-0.049	0.190
-391.077	145.563	-0.136	0.182
-390.063	31.240	-0.038	0.033
-389.048	50.200	-0.096	-0.091
-388.033	-81.917	-0.255	-0.083
-387.019	-80.006	0.355	0.119
-386.004	-101.763	0.086	-0.021
-384.990	-59.007	-0.253	-0.109
-383.975	54.328	0.107	-0.102
-382.960	133.226	0.213	0.275
-381.946	522.628	-0.134	0.315
-380.931	18.376	0.269	-0.215
-379.917	-200.000	0.083	-0.389
-378.902	-25.503	-0.090	0.053
-377.888	800.000	-0.017	0.058
-376.873	-18.231	-0.170	-0.106
-375.858	122.239	0.351	0.438
-374.844	-34.319	0.080	-0.044
-373.829	-50.765	-0.205	-0.096
-372.815	-73.234	0.273	0.100
-371.800	491.715	0.049	0.113
-370.785	308.757	0.054	0.101
-369.771	-126.859	-0.403	-0.059
-368.756	673.594	0.108	0.280
-367.742	-200.000	-0.074	-0.359
-366.727	-33.539	-0.411	-0.227
-365.712	800.000	0.048	-0.143
-364.698	453.385	-0.076	-0.167
-363.683	-160.834	-0.276	0.015
-362.669	54.911	0.110	0.106
-361.654	31.113	0.162	-0.139
-360.639	-16.174	0.052	-0.033
-359.625	-76.147	-0.032	0.011
-358.610	114.774	0.132	0.161
-357.596	-21.343	-0.204	0.124
-356.581	2.848	0.311	0.225
-355.566	-9.198	0.273	0.182
-354.552	756.282	0.067	0.180
-353.537	-19.351	0.096	-0.059
-352.523	-173.962	-0.595	0.017
-351.508	-200.000	-0.029	0.138
-350.493	-8.150	-0.352	-0.237
-349.479	591.923	-0.019	0.046
-348.464	-65.669	-0.053	0.021
-347.450	-22.207	-0.210	0.127
-346.435	-20.838	0.215	0.131
-345.420	-7.539	-0.116	0.078
-344.406	-200.000	-0.015	0.175
-343.391	-52.749	-0.089	0.041
-342.377	3.436	-0.128	-0.093
-341.362	800.000	-0.076	0.215
-340.348	144.417	0.285	0.380
-339.333	62.219	0.133	-0.132
-338.318	800.000	0.090	-0.271
-337.304	-71.630	0.059	0.022
-336.289	-200.000	-0.003	-0.053
-335.275	-89.546	-0.017	0.005
-334.260	-66.418	0.119	0.047
-333.245	35.553	0.286	0.251
-332.231	-200.000	0.059	0.363
-331.216	-154.724	0.515	-0.034
-330.202	-134.349	0.135	0.017
-329.187	283.767	-0.092	-0.165
-328.172	-110.086	-0.293	-0.061
-327.158	-20.598	-0.198	0.121
-326.143	88.565	-0.030	-0.033
-325.129	-200.000	-0.016	-0.088
-324.114	-6.073	0.322	-0.219
-323.099	-54.049	-0.256	-0.116
-322.085	-143.782	-0.442	-0.042
-321.070	228.674	0.111	-0.180
-320.056	-200.000	-0.011	0.089
-319.041	33.871	-0.197	0.171
-318.026	278.868	0.049	0.087
-317.012	38.134	0.112	0.099
-315.997	32.731	0.321	-0.277
-314.983	-105.497	0.214	0.049
-313.968	-60.581	-0.378	-0.160
-312.953	110.297	0.259	0.310
-311.939	-44.985	0.054	0.027
-310.924	800.000	0.036	0.118
-309.910	-6.270	0.135	0.092
-308.895	208.807	0.038	0.060
-307.880	9.756	-0.446	0.337
-306.866	-42.232	-0.099	-0.050
-305.851	-200.000	-0.026	0.320
-304.837	588.521	0.115	0.283
-303.822	210.316	-0.088	-0.138
-302.807	-200.000	0.046	-0.245
-301.793	-200.000	-0.005	-0.022
-300.778	-25.264	-0.292	-0.172
-299.764	-95.049	-0.226	-0.061
-298.749	800.000	0.055	-0.156
-297.735	-7.549	-0.011	-0.007
-296.720	800.000	-0.071	0.283
-295.705	-200.000	0.023	-0.243
-294.691	75.645	0.103	-0.108
-293.676	-16.479	-0.023	0.015
-292.662	-24.390	0.287	-0.170
-291.647	-39.997	-0.165	-0.085
-290.632	-11.077	0.192	-0.126
-289.618	139.265	0.162	0.212
-288.603	27.529	-0.202	-0.169
-287.589	277.667	0.119	0.211
-286.574	-200.000	-0.009	0.208
-285.559	-200.000	-0.020	-0.183
-284.545	-117.130	0.223	-0.040
-283.530	-90.014	-0.187	0.054
-282.516	800.000	0.061	-0.181
-281.501	-133.804	0.067	0.008
-280.486	0.591	0.155	-0.111
-279.472	-81.212	0.104	-0.034
-278.457	-102.687	-0.301	-0.071
-277.443	-144.532	-0.208	0.019
-276.428	-200.000	-0.061	0.274
-275.413	800.000	-0.065	0.197
-274.399	-200.000	-0.037	0.281
-273.384	124.296	0.131	0.164
-272.370	-29.811	0.377	-0.214
-271.355	-200.000	-0.044	0.261
-270.340	-50.296	0.085	-0.040
-269.326	376.342	0.095	-0.192
-268.311	262.567	-0.085	0.146
-267.297	196.492	-0.226	0.342
-266.282	134.481	0.275	0.355
-265.267	87.199	0.193	-0.212
-264.253	342.671	-0.153	-0.297
-263.238	-18.589	0.177	0.110
-262.224	78.070	0.102	-0.108
-261.209	-23.791	-0.296	0.176
-260.195	88.195	0.273	-0.302
-259.180	24.175	0.112	0.092
-258.165	-140.961	0.096	0.010
-257.151	800.000	0.115	-0.350
-256.136	-100.482	0.122	0.030
-255.122	-54.324	0.226	0.102
-254.107	-88.960	-0.154	0.045
-253.092	-28.776	0.164	-0.094
-252.078	800.000	0.107	-0.298
-251.063	-162.688	0.200	0.010
-250.049	-96.476	0.351	0.092
-249.034	800.000	0.011	-0.047
-248.019	-100.454	0.322	0.079
-247.005	72.231	0.269	-0.278
-245.990	83.633	-0.307	0.332
-244.976	341.322	-0.072	0.140
-243.961	472.836	-0.036	-0.081
-242.946	-119.588	0.210	0.036
-241.932	-200.000	-0.085	-0.440
-240.917	-168.502	0.016	-0.001
-239.903	-200.000	0.042	0.206
-238.888	176.486	-0.106	-0.153
-237.873	330.710	0.089	-0.170
-236.859	-111.254	0.333	0.068
-235.844	-85.718	-0.241	0.074
-234.830	249.260	0.120	-0.203
-233.815	-39.897	-0.176	-0.091
-232.800	252.032	-0.141	-0.238
-231.786	535.502	0.021	-0.050
-230.771	-200.000	0.024	-0.389
-229.757	327.542	0.019	0.036
-228.742	16.939	-0.178	0.140
-227.727	-25.084	-0.190	0.112
-226.713	554.082	-0.088	0.211
-225.698	98.760	0.070	0.080
-224.684	-200.000	-0.017	0.355
-223.669	-200.000	0.007	0.142
-222.655	84.062	-0.122	-0.132
-221.640	-200.000	0.007	0.187
-220.625	800.000	0.069	-0.195
-219.611	190.576	0.117	-0.175
-218.596	125.348	-0.132	-0.165
-217.582	-62.461	-0.334	0.138
-216.567	479.031	0.151	0.339
-215.552	-31.489	0.111	-0.062
-214.538	21.032	0.099	-0.080
-213.523	68.705	-0.297	0.302
-212.509	35.761	-0.187	0.163
-211.494	-143.874	0.201	0.019
-210.479	61.986	0.294	-0.291
-209.465	72.615	-0.089	-0.092
-208.450	-200.000	-0.065	-0.295
-207.436	473.693	0.095	0.212
-206.421	54.035	0.138	0.132
-205.406	-200.000	0.011	-0.167
-204.392	-20.460	-0.274	0.167
-203.377	800.000	-0.025	-0.079
-202.363	-200.000	0.006	-0.159
-201.348	-172.321	0.374	-0.012
-200.333	98.700	-0.079	0.091
-199.319	126.741	-0.093	0.117
-198.304	611.853	0.086	-0.213
-197.290	-45.247	0.224	-0.110
-196.275	800.000	0.102	-0.378
-195.260	-200.000	-0.013	-0.126
-194.246	-80.251	0.099	0.033
-193.231	-5.763	0.167	0.113
-192.217	800.000	0.044	0.134
-191.202	-200.000	0.024	-0.268
-190.187	76.148	0.135	0.142
-189.173	484.065	0.112	0.252
-188.158	63.750	0.086	-0.086
-187.144	-59.494	-0.049	0.021
-186.129	-43.702	0.506	-0.253
-185.114	-184.027	-0.196	-0.003
-184.100	-56.767	-0.059	-0.026
-183.085	159.597	0.190	0.262
-182.071	130.968	-0.091	0.115
-181.056	800.000	0.066	-0.262
-180.042	-200.000	-0.530	-0.001
-179.027	87.889	0.112	0.124
-178.012	800.000	-0.024	0.073
-176.998	-103.836	-0.409	0.095
-175.983	-26.727	-0.300	0.174
-174.969	-133.793	0.240	0.030
-173.954	800.000	-0.051	0.214
-172.939	-36.003	0.126	-0.067
-171.925	-200.000	-0.005	-0.035
-170.910	312.892	0.101	-0.189
-169.896	263.034	0.058	-0.099
-168.881	-200.000	-0.023	-0.392
-167.866	-31.072	-0.224	0.125
-166.852	800.000	0.106	0.299
-165.837	43.116	0.047	0.043
-164.823	800.000	0.081	0.233
-163.808	-200.000	0.039	0.240
-162.793	-54.955	0.155	0.069
-161.779	216.162	0.208	0.327
-160.764	532.559	-0.138	-0.323
-159.750	-138.033	-0.136	-0.015
-158.735	-200.000	-0.011	-0.211
-157.720	193.127	0.341	-0.511
-156.706	-134.771	0.139	0.017
-155.691	-168.986	-0.149	-0.006
-154.677	-72.888	0.181	0.066
-153.662	95.383	0.201	0.227
-152.647	152.952	0.088	0.119
-151.633	165.874	-0.188	-0.264
-150.618	-200.000	-0.002	-0.083
-149.604	-86.557	0.182	0.055
-148.589	162.729	-0.129	-0.179
-147.574	12.817	0.193	-0.148
-146.560	-90.563	0.410	-0.117
-145.545	31.047	-0.269	-0.228
-144.531	-98.629	-0.149	0.038
-143.516	-22.912	-0.076	0.046
-142.502	533.895	-0.102	0.238
-141.487	800.000	-0.034	-0.132
-140.472	-3.367	-0.156	-0.108
-139.458	-29.777	-0.075	0.042
-138.443	-11.004	0.292	-0.191
-137.429	-200.000	0.055	0.271
-136.414	-200.000	-0.051	0.333
-135.399	272.510	-0.148	0.259
-134.385	800.000	-0.060	-0.182
-133.370	800.000	-0.037	-0.117
-132.356	-81.626	0.143	-0.047
-131.341	-57.784	-0.250	-0.108
-130.326	112.059	-0.291	-0.348
-129.312	161.588	0.094	0.129
-128.297	-86.256	-0.442	-0.135
-127.283	-86.860	0.240	-0.073
-126.268	230.094	-0.056	-0.091
-125.253	800.000	-0.065	-0.216
-124.239	101.867	0.307	-0.354
-123.224	104.991	-0.026	0.030
-122.210	-200.000	0.016	-0.095
-121.195	104.770	-0.260	0.303
-120.180	-200.000	-0.000	0.144
