DTS Sentinel unit serial number:	SN413079Multiplexer serial number:	ORYXHardware model number:	OX4-SRSoftware version number:	ORYX F/W v4.00 Oryx Data Collector v3.7.2.0data status	okinstallation	princeton_trtdifferential loss correction	single-endedforward channel	channel 1reverse channel	N/Adate	2019/09/12time	12:52:11forward acquisition time	60.00reverse acquisition time	0.00gamma	496.2192k internal	0.2291k external	0.2291temperature offset calibration	1.0044default loss term (dB/km)	0.3790temperature slope calibration	1.0000multiplexer offset coefficient	1.0000multiplexer slope coefficient	1.0000fibre end	0.00T internal ref (°C)	40.73T ext. ref 1 (°C)	2.06T ext. ref 2 (°C)	37.67length (m)	temperature (°C)	Stokes	anti-Stokes-747.200	-200.000	0.021	0.170
-746.185	12.432	0.170	0.134
-745.171	93.063	-0.109	-0.126
-744.156	434.189	0.165	0.367
-743.142	-52.943	-0.144	0.068
-742.127	-48.308	-0.221	0.109
-741.112	-2.797	-0.160	-0.115
-740.098	253.438	0.073	0.128
-739.083	-185.406	-0.365	0.006
-738.069	-132.750	0.238	0.031
-737.054	104.992	0.303	-0.366
-736.039	-21.559	0.240	0.150
-735.025	-115.056	0.252	0.049
-734.010	800.000	-0.159	0.482
-732.996	715.835	-0.108	-0.295
-731.981	-200.000	0.030	-0.329
-730.966	800.000	0.093	-0.363
-729.952	-166.567	-0.153	-0.007
-728.937	-200.000	0.014	-0.138
-727.923	800.000	0.087	-0.311
-726.908	-200.000	-0.012	0.080
-725.894	26.694	0.032	-0.027
-724.879	-41.077	-0.321	0.170
-723.864	800.000	0.049	0.188
-722.850	-200.000	-0.028	-0.306
-721.835	-200.000	0.014	-0.294
-720.821	800.000	0.030	-0.087
-719.806	-200.000	-0.006	-0.429
-718.791	-151.948	-0.384	-0.029
-717.777	-200.000	-0.028	-0.170
-716.762	184.159	0.019	0.029
-715.748	-29.167	0.114	0.067
-714.733	322.487	-0.088	0.171
-713.718	51.801	0.155	-0.150
-712.704	655.765	0.062	0.162
-711.689	-60.998	0.018	0.008
-710.675	719.035	-0.099	-0.270
-709.660	-200.000	-0.058	-0.389
-708.645	800.000	0.091	-0.296
-707.631	6.190	0.047	0.036
-706.616	339.096	0.076	0.151
-705.602	-200.000	0.008	-0.210
-704.587	377.558	-0.099	-0.208
-703.572	-36.962	0.138	0.076
-702.558	-200.000	0.021	-0.277
-701.543	800.000	-0.079	0.274
-700.529	-200.000	-0.003	0.132
-699.514	-28.865	0.248	-0.146
-698.499	-22.531	-0.277	-0.171
-697.485	-112.440	0.310	-0.063
-696.470	-200.000	0.005	0.571
-695.456	-53.528	-0.260	-0.121
-694.441	-200.000	-0.020	-0.095
-693.426	800.000	0.034	-0.123
-692.412	751.344	0.100	-0.277
-691.397	800.000	0.021	0.084
-690.383	800.000	-0.055	0.158
-689.368	-149.373	-0.564	0.046
-688.354	-41.017	0.134	0.071
-687.339	800.000	-0.025	0.077
-686.324	386.221	0.046	-0.097
-685.310	-29.889	0.269	-0.157
-684.295	46.089	0.522	0.493
-683.281	-57.655	-0.214	-0.096
-682.266	22.194	0.186	0.155
-681.251	207.911	-0.286	-0.456
-680.237	-2.357	-0.107	0.077
-679.222	-200.000	0.018	0.130
-678.208	215.992	0.078	-0.126
-677.193	-136.516	-0.187	0.022
-676.178	-143.091	0.049	0.005
-675.164	-200.000	-0.158	-0.000
-674.149	800.000	0.083	-0.274
-673.135	80.130	0.063	0.069
-672.120	25.829	0.166	0.142
-671.105	488.656	-0.073	-0.170
-670.091	-48.371	0.286	-0.141
-669.076	-31.603	-0.051	-0.029
-668.062	-200.000	0.019	-0.124
-667.047	141.288	0.230	0.310
-666.032	-127.661	0.131	-0.019
-665.018	54.415	-0.164	-0.161
-664.003	368.209	0.077	0.159
-662.989	-37.907	0.072	0.039
-661.974	-58.476	-0.420	-0.186
-660.959	-84.104	-0.253	-0.082
-659.945	-200.000	0.054	-0.267
-658.930	-58.068	-0.173	-0.077
-657.916	-34.667	-0.109	-0.061
-656.901	41.396	-0.260	-0.240
-655.886	800.000	-0.047	0.175
-654.872	172.578	0.127	0.187
-653.857	-114.639	0.145	0.028
-652.843	-147.158	0.123	0.011
-651.828	-200.000	0.071	-0.344
-650.814	-142.857	-0.404	-0.040
-649.799	585.351	0.062	-0.157
-648.784	25.707	-0.346	0.294
-647.770	16.275	-0.305	0.246
-646.755	-106.750	0.225	0.051
-645.741	540.081	0.076	0.185
-644.726	-129.520	0.313	0.044
-643.711	118.728	0.043	-0.054
-642.697	800.000	0.036	0.104
-641.682	-104.445	0.264	0.062
-640.668	-200.000	0.004	-0.363
-639.653	67.300	-0.288	-0.300
-638.638	-161.163	0.131	-0.007
-637.624	144.883	-0.192	0.261
-636.609	-13.763	-0.252	0.166
-635.595	569.204	0.133	0.329
-634.580	401.782	-0.169	0.362
-633.565	44.782	-0.221	0.208
-632.551	-167.045	-0.171	-0.007
-631.536	-0.813	-0.175	-0.126
-630.522	-136.078	0.187	0.022
-629.507	707.458	0.100	0.270
-628.492	508.154	-0.099	-0.234
-627.478	-147.340	0.081	-0.007
-626.463	508.885	-0.088	0.209
-625.449	324.953	0.052	-0.102
-624.434	-73.335	-0.082	-0.031
-623.419	437.486	-0.034	-0.075
-622.405	-65.744	-0.170	-0.069
-621.390	244.965	-0.077	0.132
-620.376	-146.009	-0.060	0.005
-619.361	-21.425	-0.128	-0.080
-618.346	-108.069	-0.158	-0.035
-617.332	-103.557	-0.197	-0.047
-616.317	-200.000	0.052	-0.264
-615.303	-0.069	0.190	-0.138
-614.288	-200.000	-0.016	0.125
-613.273	800.000	-0.093	-0.352
-612.259	152.008	0.170	0.236
-611.244	22.435	0.251	0.209
-610.230	800.000	-0.100	0.295
-609.215	309.559	0.023	0.045
-608.201	-133.645	-0.318	-0.040
-607.186	-128.405	0.466	0.067
-606.171	-28.315	0.273	0.160
-605.157	307.175	0.080	0.151
-604.142	11.148	-0.215	0.167
-603.128	-200.000	0.011	0.355
-602.113	-114.964	0.108	0.021
-601.098	209.687	0.224	0.358
-600.084	-146.773	0.357	-0.031
-599.069	326.560	0.230	0.449
-598.055	-118.966	-0.297	-0.053
-597.040	9.799	0.185	-0.143
-596.025	6.896	0.100	0.076
-595.011	-59.202	0.437	0.192
-593.996	279.774	0.112	0.204
-592.982	-119.567	0.254	-0.045
-591.967	800.000	-0.045	0.138
-590.952	78.768	0.325	-0.354
-589.938	448.606	0.040	-0.090
-588.923	-37.473	0.133	0.072
-587.909	-200.000	0.029	-0.133
-586.894	-9.007	-0.030	-0.020
-585.879	303.300	0.027	-0.050
-584.865	-77.690	-0.221	-0.078
-583.850	254.575	-0.090	-0.157
-582.836	800.000	-0.074	-0.279
-581.821	-200.000	-0.007	-0.190
-580.806	-200.000	-0.239	0.000
-579.792	664.907	-0.086	0.226
-578.777	115.675	0.163	0.202
-577.763	605.658	-0.029	-0.073
-576.748	198.456	-0.181	-0.281
-575.733	-36.822	-0.247	-0.135
-574.719	328.017	-0.127	0.248
-573.704	335.632	0.110	0.216
-572.690	293.698	0.058	-0.108
-571.675	-200.000	0.004	0.224
-570.661	250.585	-0.090	0.155
-569.646	-81.535	0.218	0.073
-568.631	166.460	0.179	0.259
-567.617	-151.987	-0.160	-0.012
-566.602	-165.408	0.311	-0.014
-565.588	-46.790	0.153	-0.076
-564.573	-62.271	-0.183	0.078
-563.558	105.536	0.107	-0.128
-562.544	-131.968	-0.345	0.046
-561.529	800.000	-0.026	0.114
-560.515	669.063	0.117	0.307
-559.500	-1.203	-0.025	0.018
-558.485	214.633	-0.024	-0.039
-557.471	231.471	-0.150	-0.251
-556.456	160.767	0.210	-0.299
-555.442	-42.959	0.307	0.158
-554.427	-151.185	0.344	0.026
-553.412	-88.699	0.429	-0.130
-552.398	-35.106	-0.256	-0.142
-551.383	-49.879	0.221	0.107
-550.369	-149.301	-0.228	0.018
-549.354	8.054	-0.127	0.097
-548.339	32.328	-0.072	0.063
-547.325	-126.184	-0.344	-0.052
-546.310	800.000	-0.098	-0.386
-545.296	721.980	0.026	-0.071
-544.281	-10.740	0.078	0.052
-543.266	-175.897	-0.472	0.013
-542.252	40.680	-0.102	-0.093
-541.237	-80.479	0.151	-0.051
-540.223	-200.000	0.064	0.387
-539.208	800.000	0.014	-0.040
-538.193	49.146	-0.214	0.204
-537.179	364.226	0.150	0.307
-536.164	-173.226	0.209	0.006
-535.150	-200.000	0.040	0.330
-534.135	-128.287	0.274	-0.040
-533.121	-200.000	0.007	-0.176
-532.106	-147.742	0.048	-0.004
-531.091	115.152	-0.086	-0.107
-530.077	-11.836	-0.250	0.167
-529.062	-77.318	-0.206	0.073
-528.048	236.152	0.137	-0.231
-527.033	552.749	-0.142	-0.346
-526.018	347.272	0.056	-0.113
-525.004	-200.000	0.020	-0.170
-523.989	-126.096	-0.157	0.024
-522.975	2.766	0.160	0.118
-521.960	-123.133	0.156	-0.025
-520.945	-84.235	-0.244	0.079
-519.931	-156.296	-0.271	-0.017
-518.916	18.063	-0.439	0.356
-517.902	-12.863	0.304	-0.201
-516.887	800.000	-0.085	0.247
-515.872	-200.000	0.013	0.107
-514.858	4.911	-0.287	-0.214
-513.843	-200.000	-0.028	-0.420
-512.829	800.000	0.111	-0.410
-511.814	73.311	-0.030	0.032
-510.799	274.392	-0.185	-0.333
-509.785	-200.000	0.024	-0.297
-508.770	-44.007	0.180	-0.092
-507.756	-184.399	-0.131	0.002
-506.741	800.000	-0.025	0.096
-505.726	-59.616	-0.289	0.126
-504.712	-30.181	-0.215	-0.124
-503.697	-132.497	-0.437	-0.057
-502.683	-141.830	0.214	-0.022
-501.668	-200.000	-0.029	-0.179
-500.653	-74.188	-0.081	-0.030
-499.639	148.298	0.213	-0.291
-498.624	491.246	0.037	0.085
-497.610	-125.209	-0.135	0.021
-496.595	-200.000	-0.096	0.465
-495.581	-80.666	0.446	-0.150
-494.566	386.979	0.040	-0.083
-493.551	800.000	0.069	-0.229
-492.537	-124.459	0.025	0.004
-491.522	18.552	-0.265	0.215
-490.508	-11.589	-0.308	-0.205
-489.493	-159.296	0.254	-0.014
-488.478	-105.707	-0.161	0.037
-487.464	538.775	-0.089	0.215
-486.449	21.217	-0.240	0.197
-485.435	30.344	-0.041	-0.035
-484.420	-200.000	0.010	-0.284
-483.405	692.540	0.111	-0.295
-482.391	-198.624	-0.152	-0.001
-481.376	87.941	-0.103	-0.116
-480.362	384.348	0.087	-0.181
-479.347	-200.000	0.015	0.272
-478.332	202.151	0.105	-0.164
-477.318	-120.864	0.115	0.020
-476.303	-39.158	-0.257	0.137
-475.289	-200.000	-0.017	0.098
-474.274	183.542	-0.085	0.127
-473.259	800.000	-0.033	0.096
-472.245	-200.000	0.015	-0.168
-471.230	330.322	-0.149	0.291
-470.216	-142.722	0.285	0.028
-469.201	-105.453	-0.348	-0.080
-468.186	800.000	0.082	0.238
-467.172	-7.741	-0.300	-0.205
-466.157	-200.000	0.087	-0.536
-465.143	153.063	-0.271	-0.376
-464.128	-87.367	0.375	0.115
-463.113	-165.475	0.172	-0.008
-462.099	-102.293	-0.204	-0.050
-461.084	-191.299	0.310	0.003
-460.070	-109.448	0.181	0.039
-459.055	264.098	0.049	-0.087
-458.040	-50.817	-0.133	-0.063
-457.026	85.951	-0.171	0.190
-456.011	-22.598	0.299	-0.183
-454.997	23.214	-0.134	0.112
-453.982	-200.000	0.016	-0.305
-452.968	585.179	-0.042	0.104
-451.953	-200.000	0.021	-0.182
-450.938	536.249	0.190	-0.456
-449.924	-82.163	0.153	-0.050
-448.909	-2.832	-0.343	-0.243
-447.895	-178.212	0.161	-0.004
-446.880	209.888	0.104	0.165
-445.865	97.658	0.138	-0.161
-444.851	-30.057	0.231	-0.133
-443.836	-81.556	0.315	-0.105
-442.822	34.392	-0.031	-0.028
-441.807	-121.529	0.165	0.028
-440.792	-86.022	0.282	-0.088
-439.778	-200.000	0.021	0.166
-438.763	194.311	0.096	0.148
-437.749	800.000	-0.038	0.132
-436.734	-41.828	0.129	-0.067
-435.719	-200.000	0.010	0.074
-434.705	-76.521	0.302	-0.107
-433.690	345.204	-0.149	0.297
-432.676	-195.036	-0.372	-0.003
-431.661	-132.130	-0.363	-0.048
-430.646	92.214	-0.187	-0.213
-429.632	-66.856	-0.184	0.073
-428.617	-55.085	-0.265	0.121
-427.603	-43.387	0.322	0.164
-426.588	800.000	-0.088	0.261
-425.573	-128.328	0.153	0.022
-424.559	139.714	-0.172	-0.229
-423.544	214.462	0.110	-0.176
-422.530	-19.817	-0.217	-0.135
-421.515	-76.795	-0.289	-0.102
-420.500	-23.497	0.438	0.266
-419.486	-24.242	-0.160	-0.097
-418.471	800.000	-0.130	-0.545
-417.457	-73.871	-0.111	0.041
-416.442	-200.000	0.012	0.284
-415.428	-200.000	-0.019	-0.185
-414.413	424.924	0.088	-0.192
-413.398	-100.393	0.417	0.104
-412.384	443.509	0.137	0.303
-411.369	-200.000	0.027	0.223
-410.355	502.695	0.090	0.211
-409.340	-73.948	0.355	-0.130
-408.325	68.930	0.280	0.290
-407.311	-91.796	-0.207	0.059
-406.296	-35.928	0.229	0.125
-405.282	800.000	-0.092	0.342
-404.267	-151.973	-0.015	-0.001
-403.252	-52.148	-0.192	-0.090
-402.238	-200.000	0.041	-0.250
-401.223	800.000	0.039	-0.150
-400.209	155.248	-0.120	-0.167
-399.194	-137.215	0.215	-0.025
-398.179	101.768	0.097	-0.114
-397.165	-144.372	0.073	0.007
-396.150	-109.631	0.097	-0.021
-395.136	-200.000	0.074	0.417
-394.121	152.662	0.133	0.184
-393.106	-200.000	0.029	-0.209
-392.092	542.571	-0.133	0.319
-391.077	-40.303	-0.135	0.071
-390.063	-13.925	-0.037	0.024
-389.048	227.954	-0.256	0.421
-388.033	-54.723	-0.176	0.080
-387.019	-200.000	0.037	0.289
-386.004	-116.375	-0.201	0.038
-384.990	99.164	0.179	0.209
-383.975	-200.000	0.016	0.278
-382.960	-200.000	-0.066	-0.298
-381.946	-115.108	0.150	-0.029
-380.931	-84.673	0.328	-0.104
-379.917	-89.489	-0.066	-0.020
-378.902	-151.819	-0.040	0.003
-377.888	-72.498	-0.188	0.070
-376.873	-200.000	0.051	0.235
-375.858	-161.203	0.117	0.006
-374.844	-56.117	-0.393	-0.176
-373.829	136.111	0.106	0.140
-372.815	183.969	-0.174	0.259
-371.800	300.037	-0.125	-0.233
-370.785	-200.000	0.030	0.133
-369.771	-142.121	-0.227	0.023
-368.756	168.580	0.110	-0.158
-367.742	800.000	-0.017	-0.064
-366.727	-119.158	-0.312	0.055
-365.712	139.736	-0.156	-0.207
-364.698	152.189	0.217	-0.298
-363.683	-70.942	-0.258	0.098
-362.669	-200.000	-0.035	-0.187
-361.654	-39.162	0.150	-0.079
-360.639	66.112	0.144	-0.148
-359.625	800.000	-0.041	-0.141
-358.610	71.997	-0.114	0.119
-357.596	25.792	-0.236	0.198
-356.581	-40.082	-0.159	0.084
-355.566	61.824	-0.178	0.179
-354.552	-16.141	0.226	-0.145
-353.537	-58.786	0.196	-0.086
-352.523	-17.480	-0.049	0.031
-351.508	61.048	-0.229	0.229
-350.493	800.000	-0.140	0.600
-349.479	495.919	0.036	-0.084
-348.464	800.000	0.050	-0.179
-347.450	-125.269	-0.307	-0.047
-346.435	-96.715	0.499	-0.132
-345.420	800.000	0.019	-0.077
-344.406	-137.426	0.076	0.009
-343.391	259.578	0.125	-0.218
-342.377	-200.000	-0.006	-0.054
-341.362	-41.918	0.332	-0.171
-340.348	-200.000	0.007	0.123
-339.333	-200.000	-0.007	0.137
-338.318	-140.967	-0.045	0.005
-337.304	-200.000	0.063	0.287
-336.289	48.745	-0.039	-0.037
-335.275	800.000	0.084	0.316
-334.260	60.880	0.273	-0.273
-333.245	-17.904	-0.165	-0.104
-332.231	-76.371	0.385	-0.137
-331.216	-152.566	0.129	0.009
-330.202	27.825	0.158	0.134
-329.187	-45.938	-0.135	-0.067
-328.172	-76.424	-0.250	-0.089
-327.158	800.000	-0.053	0.209
-326.143	271.671	0.093	-0.165
-325.129	-200.000	-0.045	0.211
-324.114	-200.000	-0.023	-0.315
-323.099	227.433	-0.130	0.213
-322.085	-1.650	-0.217	0.154
-321.070	9.513	-0.278	0.212
-320.056	-116.877	-0.220	-0.041
-319.041	-171.954	-0.323	-0.011
-318.026	-114.861	0.212	-0.041
-317.012	31.910	-0.166	-0.144
-315.997	389.223	-0.034	0.071
-314.983	-200.000	-0.018	0.209
-313.968	-161.587	0.021	0.001
-312.953	-42.132	0.089	-0.046
-311.939	11.740	-0.144	0.111
-310.924	-129.973	0.277	0.038
-309.910	-85.604	-0.147	-0.046
-308.895	-117.351	0.098	0.018
-307.880	-35.047	-0.095	-0.052
-306.866	-200.000	0.035	-0.379
-305.851	181.987	-0.235	0.348
-304.837	-67.079	0.092	0.036
-303.822	-110.200	-0.221	0.046
-302.807	-178.673	0.170	-0.004
-301.793	-200.000	0.007	-0.360
-300.778	-147.750	-0.168	0.014
-299.764	-128.683	-0.355	-0.050
-298.749	-200.000	-0.027	-0.279
-297.735	-7.833	0.110	-0.074
-296.720	1.404	-0.109	-0.079
-295.705	161.740	-0.059	0.083
-294.691	-200.000	0.007	-0.153
-293.676	188.170	0.261	-0.392
-292.662	59.610	-0.149	-0.148
-291.647	-107.561	-0.195	0.043
-290.632	150.367	0.235	-0.320
-289.618	704.159	0.061	-0.162
-288.603	18.616	0.389	0.313
-287.589	-200.000	-0.055	0.368
-286.574	-108.186	-0.129	0.028
-285.559	-23.185	-0.312	0.189
-284.545	243.109	0.090	-0.152
-283.530	-200.000	0.001	-0.268
-282.516	-74.268	0.199	-0.072
-281.501	-200.000	0.001	0.079
-280.486	-50.816	-0.175	0.083
-279.472	22.609	0.111	0.091
-278.457	-199.729	-0.272	-0.001
-277.443	509.361	0.111	0.260
-276.428	-162.932	-0.412	0.020
-275.413	-189.590	-0.245	0.003
-274.399	-148.346	0.026	0.002
-273.384	-15.993	0.204	0.131
-272.370	10.971	-0.076	0.058
-271.355	191.796	-0.074	-0.112
-270.340	19.638	-0.140	0.113
-269.326	93.354	-0.243	-0.276
-268.311	-200.000	0.029	0.194
-267.297	-48.095	0.149	-0.073
-266.282	342.387	-0.146	-0.287
-265.267	-200.000	0.013	-0.091
-264.253	-200.000	-0.010	0.302
-263.238	116.170	0.171	-0.210
-262.224	-152.484	0.272	-0.020
-261.209	-43.157	-0.152	-0.077
-260.195	57.858	0.260	-0.256
-259.180	553.702	0.065	-0.157
-258.165	-101.136	0.259	0.064
-257.151	163.094	0.083	0.117
-256.136	95.597	0.077	0.088
-255.122	466.810	-0.044	0.098
-254.107	-23.316	0.198	-0.120
-253.092	110.887	-0.124	-0.150
-252.078	-86.916	-0.127	-0.039
-251.063	800.000	-0.013	-0.050
-250.049	23.963	0.113	-0.093
-249.034	397.774	0.043	-0.091
-248.019	-36.665	0.132	-0.071
-247.005	253.845	0.154	-0.264
-245.990	-8.481	-0.154	0.104
-244.976	284.405	-0.127	0.229
-243.961	-22.120	0.215	-0.131
-242.946	3.689	0.076	0.056
-241.932	-200.000	0.048	0.326
-240.917	800.000	-0.110	0.473
-239.903	-66.764	-0.170	0.068
-238.888	-76.255	-0.169	-0.060
-237.873	-54.410	0.195	-0.089
-236.859	86.859	-0.183	0.203
-235.844	-28.902	-0.149	-0.086
-234.830	134.387	0.254	-0.331
-233.815	-200.000	-0.039	0.194
-232.800	46.377	0.245	0.228
-231.786	800.000	-0.114	-0.375
-230.771	528.849	-0.071	-0.168
-229.757	-99.862	0.546	-0.137
-228.742	-150.417	-0.350	-0.027
-227.727	5.853	0.135	0.100
-226.713	800.000	0.083	0.321
-225.698	-2.232	0.271	0.191
-224.684	800.000	-0.064	-0.203
-223.669	-61.768	-0.060	0.025
-222.655	532.504	-0.034	0.081
-221.640	-49.741	-0.083	0.040
-220.625	-200.000	-0.069	-0.340
-219.611	-188.831	0.359	0.004
-218.596	6.703	0.170	-0.127
-217.582	-127.092	-0.273	0.040
-216.567	91.075	0.103	0.116
-215.552	-200.000	0.013	0.204
-214.538	46.488	-0.112	-0.104
-213.523	723.435	0.133	-0.355
-212.509	-33.480	0.142	0.078
-211.494	72.764	0.180	0.188
-210.479	-116.371	0.154	-0.029
-209.465	800.000	0.062	-0.179
-208.450	-85.315	0.294	0.092
-207.436	-97.995	0.335	0.087
-206.421	29.943	0.246	-0.210
-205.406	-119.783	-0.426	-0.074
-204.392	-200.000	-0.009	-0.052
-203.377	135.361	-0.051	0.067
-202.363	54.305	0.160	0.154
-201.348	-54.828	0.310	0.140
-200.333	-14.389	0.100	-0.065
-199.319	94.735	-0.237	0.270
-198.304	800.000	0.097	0.291
-197.290	464.835	-0.141	-0.316
-196.275	-200.000	-0.020	0.102
-195.260	-63.447	0.124	-0.051
-194.246	-200.000	-0.002	-0.183
-193.231	20.360	-0.132	-0.107
-192.217	-200.000	-0.087	-0.404
-191.202	-117.175	-0.234	-0.043
-190.187	-200.000	0.020	0.175
-189.173	-89.943	0.210	0.061
-188.158	-150.002	0.054	0.004
-187.144	71.173	-0.111	-0.116
-186.129	301.070	-0.158	0.293
-185.114	67.515	-0.203	-0.207
-184.100	111.337	0.117	-0.142
-183.085	-200.000	-0.021	0.118
-182.071	285.622	0.144	-0.260
-181.056	-38.086	-0.230	0.122
-180.042	-158.261	0.346	0.020
-179.027	-146.949	-0.368	-0.032
-178.012	-200.000	-0.023	-0.228
-176.998	-34.566	-0.357	-0.196
-175.983	800.000	0.083	0.233
-174.969	-200.000	-0.002	-0.180
-173.954	-170.166	-0.335	0.012
-172.939	-200.000	-0.022	-0.132
-171.925	13.991	0.184	-0.143
-170.910	16.101	0.154	-0.121
-169.896	629.569	-0.171	-0.432
-168.881	-200.000	0.026	-0.197
-167.866	-200.000	0.080	0.508
-166.852	76.658	0.112	0.119
-165.837	-51.677	0.145	-0.068
-164.823	-109.802	0.232	0.049
-163.808	90.301	-0.223	0.250
-162.793	-79.087	-0.132	-0.045
-161.779	-200.000	0.067	0.613
-160.764	37.943	0.147	-0.131
-159.750	-172.105	0.143	0.005
-158.735	75.877	0.275	0.291
-157.720	-200.000	-0.012	-0.425
-156.706	17.681	-0.148	-0.118
-155.691	-57.276	-0.095	-0.042
-154.677	97.913	-0.154	0.177
-153.662	-100.733	0.244	-0.060
-152.647	20.543	-0.046	-0.037
-151.633	-200.000	0.009	0.109
-150.618	-80.324	0.159	-0.053
-149.604	800.000	-0.079	0.228
-148.589	114.533	0.218	0.266
-147.574	93.772	-0.156	-0.177
-146.560	140.397	0.217	0.287
-145.545	-59.115	0.088	-0.038
-144.531	89.712	0.202	-0.226
-143.516	-18.959	0.244	0.152
-142.502	-55.968	0.143	0.064
-141.487	-71.634	-0.359	0.134
-140.472	-62.933	-0.170	-0.070
-139.458	-116.815	0.085	0.016
-138.443	-200.000	0.002	-0.082
-137.429	800.000	-0.060	0.208
-136.414	219.827	-0.094	0.150
-135.399	-132.530	-0.128	-0.016
-134.385	-26.981	0.202	0.118
-133.370	-200.000	-0.013	0.213
-132.356	-81.461	0.127	0.042
-131.341	40.267	-0.233	0.209
-130.326	-146.160	0.243	-0.021
-129.312	493.401	0.145	0.333
-128.297	-200.000	0.024	0.239
-127.283	47.736	0.160	0.150
-126.268	71.752	-0.245	-0.254
-125.253	81.528	-0.131	-0.142
-124.239	800.000	0.026	-0.110
-123.224	-69.958	0.114	0.043
-122.210	195.701	0.056	0.085
