DTS Sentinel unit serial number:	SN413079Multiplexer serial number:	ORYXHardware model number:	OX4-SRSoftware version number:	ORYX F/W v4.00 Oryx Data Collector v3.7.2.0data status	okinstallation	princeton_trtdifferential loss correction	single-endedforward channel	channel 1reverse channel	N/Adate	2019/09/16time	03:10:35forward acquisition time	60.00reverse acquisition time	0.00gamma	496.2192k internal	0.2330k external	0.2330temperature offset calibration	0.9980default loss term (dB/km)	0.3790temperature slope calibration	1.0000multiplexer offset coefficient	1.0000multiplexer slope coefficient	1.0000fibre end	0.00T internal ref (°C)	27.75T ext. ref 1 (°C)	10.47T ext. ref 2 (°C)	22.09length (m)	temperature (°C)	Stokes	anti-Stokes-747.200	24.265	0.184	0.153
-746.185	-88.000	-0.257	-0.078
-745.171	-95.453	-0.278	-0.075
-744.156	134.844	-0.085	0.112
-743.142	-56.400	0.190	-0.085
-742.127	10.067	-0.257	0.197
-741.112	142.856	0.031	-0.041
-740.098	-76.025	-0.316	-0.112
-739.083	301.927	0.031	0.057
-738.069	49.979	0.282	0.268
-737.054	20.119	-0.104	-0.085
-736.039	-125.053	-0.177	-0.027
-735.025	-200.000	0.032	0.141
-734.010	-132.163	-0.320	-0.042
-732.996	-101.983	-0.458	0.111
-731.981	94.463	0.268	-0.306
-730.966	-74.613	-0.201	-0.073
-729.952	-9.009	-0.083	-0.056
-728.937	-54.171	-0.313	-0.143
-727.923	347.733	-0.115	-0.229
-726.908	197.589	0.079	-0.121
-725.894	-72.716	-0.330	-0.122
-724.879	-66.543	-0.337	-0.134
-723.864	-200.000	-0.014	0.266
-722.850	-63.957	-0.166	-0.068
-721.835	-2.214	-0.088	-0.062
-720.821	59.344	0.284	0.282
-719.806	800.000	-0.071	0.200
-718.791	-90.025	0.209	-0.061
-717.777	35.453	-0.190	-0.167
-716.762	-125.373	-0.279	-0.043
-715.748	-200.000	-0.022	0.155
-714.733	-176.818	0.066	0.002
-713.718	296.314	0.140	-0.258
-712.704	23.889	-0.092	0.077
-711.689	-1.035	-0.227	-0.162
-710.675	-3.033	0.280	0.196
-709.660	-49.918	0.300	-0.143
-708.645	-19.643	-0.101	0.063
-707.631	44.530	-0.241	-0.223
-706.616	274.930	-0.093	0.165
-705.602	140.668	-0.209	-0.278
-704.587	-200.000	0.019	-0.109
-703.572	800.000	-0.082	-0.277
-702.558	-200.000	0.009	0.053
-701.543	-69.165	0.276	-0.107
-700.529	-137.825	0.084	0.009
-699.514	269.183	0.064	0.113
-698.499	800.000	-0.109	0.314
-697.485	-200.000	0.010	0.332
-696.470	-200.000	-0.028	-0.150
-695.456	800.000	-0.086	-0.351
-694.441	-35.044	-0.445	-0.244
-693.426	800.000	0.063	0.255
-692.412	-77.179	0.355	0.124
-691.397	147.633	-0.096	-0.130
-690.383	13.391	-0.061	0.047
-689.368	530.630	-0.141	-0.335
-688.354	-200.000	0.047	-0.323
-687.339	255.301	0.113	-0.195
-686.324	-128.046	-0.362	0.052
-685.310	230.724	-0.105	-0.172
-684.295	-0.534	0.141	0.101
-683.281	222.091	-0.086	0.139
-682.266	-84.620	0.126	0.040
-681.251	-92.260	-0.257	0.073
-680.237	-200.000	-0.041	0.184
-679.222	-200.000	0.000	-0.088
-678.208	153.082	0.128	-0.176
-677.193	47.292	0.058	-0.055
-676.178	-21.390	-0.087	0.053
-675.164	-115.673	-0.267	0.050
-674.149	-0.924	-0.085	-0.061
-673.135	274.927	-0.091	0.163
-672.120	45.990	0.133	0.124
-671.105	126.016	-0.126	-0.160
-670.091	-47.890	0.325	-0.158
-669.076	-92.860	-0.359	0.101
-668.062	-141.868	-0.252	0.025
-667.047	242.993	0.186	0.314
-666.032	-200.000	-0.032	0.467
-665.018	-26.963	-0.365	0.214
-664.003	-125.385	0.105	-0.016
-662.989	-200.000	-0.008	-0.178
-661.974	-200.000	-0.022	-0.140
-660.959	-200.000	0.021	-0.209
-659.945	33.241	0.125	-0.109
-658.930	-200.000	0.015	0.218
-657.916	110.177	0.126	0.151
-656.901	720.715	0.009	-0.024
-655.886	287.144	0.022	0.040
-654.872	-200.000	0.055	-0.263
-653.857	213.355	0.146	-0.231
-652.843	-28.713	-0.363	0.210
-651.828	208.320	-0.239	0.374
-650.814	34.722	0.108	-0.095
-649.799	-200.000	0.020	-0.396
-648.784	-176.021	-0.164	0.004
-647.770	-78.329	-0.207	0.071
-646.755	-123.957	-0.284	-0.045
-645.741	-200.000	0.079	-0.445
-644.726	96.273	-0.097	-0.111
-643.711	162.623	0.182	0.256
-642.697	-200.000	-0.013	-0.198
-641.682	-200.000	0.114	-0.001
-640.668	800.000	0.069	0.243
-639.653	-186.624	-0.161	0.002
-638.638	-136.765	0.275	-0.032
-637.624	11.031	0.218	-0.167
-636.609	519.245	-0.025	0.059
-635.595	-50.478	0.210	0.099
-634.580	-120.564	-0.173	0.029
-633.565	-86.885	0.287	-0.088
-632.551	-42.315	-0.201	0.103
-631.536	-200.000	0.076	-0.335
-630.522	-200.000	0.033	-0.272
-629.507	80.417	-0.119	-0.129
-628.492	-25.454	0.227	-0.134
-627.478	153.986	-0.233	0.321
-626.463	155.361	0.061	0.085
-625.449	-127.541	-0.148	-0.021
-624.434	800.000	0.085	0.355
-623.419	-97.204	0.095	-0.025
-622.405	800.000	-0.108	-0.465
-621.390	-200.000	0.008	-0.074
-620.376	24.841	0.080	-0.066
-619.361	27.688	-0.236	0.199
-618.346	785.178	-0.066	-0.183
-617.332	-39.366	0.022	0.012
-616.317	-42.481	-0.286	0.146
-615.303	207.180	-0.211	-0.330
-614.288	63.077	-0.092	-0.092
-613.273	-0.990	-0.264	-0.187
-612.259	25.428	-0.146	-0.122
-611.244	156.890	0.239	-0.331
-610.230	226.476	-0.066	-0.108
-609.215	-63.083	-0.147	-0.061
-608.201	231.211	-0.311	-0.510
-607.186	280.087	0.212	-0.378
-606.171	-67.548	0.169	-0.066
-605.157	-41.940	-0.147	0.076
-604.142	800.000	0.010	0.031
-603.128	-67.445	-0.314	0.123
-602.113	-200.000	0.000	0.182
-601.098	-200.000	0.014	-0.178
-600.084	-53.573	0.265	-0.121
-599.069	246.329	-0.177	0.299
-598.055	-49.357	0.247	0.118
-597.040	55.827	-0.267	-0.259
-596.025	-17.937	0.162	-0.102
-595.011	800.000	-0.032	-0.126
-593.996	-73.907	0.192	0.070
-592.982	38.971	0.041	-0.037
-591.967	-167.528	0.185	-0.007
-590.952	-94.012	-0.047	0.013
-589.938	-180.529	-0.074	0.002
-588.923	171.938	-0.068	0.098
-587.909	501.699	0.180	-0.416
-586.894	118.191	-0.195	0.241
-585.879	71.219	-0.047	-0.049
-584.865	-145.965	-0.064	0.006
-583.850	210.185	-0.213	-0.334
-582.836	-84.309	-0.026	0.008
-581.821	57.309	0.148	-0.144
-580.806	-54.177	-0.162	0.074
-579.792	56.504	-0.275	0.267
-578.777	-200.000	-0.013	-0.060
-577.763	800.000	-0.069	0.202
-576.748	-153.505	0.357	0.025
-575.733	-137.349	-0.254	0.029
-574.719	103.315	0.244	-0.286
-573.704	363.468	0.121	0.243
-572.690	-200.000	0.041	-0.366
-571.675	-200.000	0.014	-0.065
-570.661	-200.000	0.034	0.266
-569.646	63.386	-0.136	0.136
-568.631	127.001	0.142	-0.180
-567.617	-200.000	0.035	-0.272
-566.602	-34.819	0.165	-0.090
-565.588	-47.304	-0.276	-0.134
-564.573	272.067	-0.034	0.059
-563.558	-126.404	-0.317	-0.047
-562.544	-7.989	-0.215	0.145
-561.529	-127.885	0.296	0.043
-560.515	-5.956	0.314	0.215
-559.500	-200.000	0.012	-0.124
-558.485	-59.356	0.023	-0.010
-557.471	-70.877	-0.185	-0.070
-556.456	-6.863	0.252	0.171
-555.442	171.372	-0.069	-0.100
-554.427	-56.880	-0.196	-0.086
-553.412	-200.000	0.051	-0.224
-552.398	134.470	0.046	-0.060
-551.383	202.373	-0.117	-0.181
-550.369	520.509	0.048	0.112
-549.354	800.000	0.049	-0.182
-548.339	800.000	-0.032	-0.091
-547.325	62.165	0.125	0.125
-546.310	-192.249	0.292	-0.003
-545.296	702.944	-0.176	-0.464
-544.281	244.053	-0.188	-0.315
-543.266	-140.169	0.094	0.010
-542.252	458.045	-0.101	0.224
-541.237	0.834	0.218	-0.156
-540.223	-124.736	-0.141	-0.022
-539.208	-200.000	-0.020	0.103
-538.193	374.444	-0.047	-0.096
-537.179	187.252	0.205	0.305
-536.164	-28.904	0.080	-0.046
-535.150	800.000	0.019	0.074
-534.135	384.641	-0.053	0.108
-533.121	-200.000	-0.040	0.401
-532.106	130.284	0.148	-0.190
-531.091	-200.000	-0.014	-0.306
-530.077	-200.000	0.049	0.331
-529.062	-185.490	0.373	0.006
-528.048	56.795	0.046	0.045
-527.033	291.814	0.058	0.105
-526.018	2.480	-0.264	-0.191
-525.004	112.760	-0.147	0.178
-523.989	-200.000	0.001	0.226
-522.975	-200.000	0.017	0.193
-521.960	-182.494	0.060	0.001
-520.945	49.605	0.171	-0.161
-519.931	-200.000	0.061	0.307
-518.916	66.170	-0.270	0.273
-517.902	36.881	0.137	-0.120
-516.887	-53.393	-0.198	0.090
-515.872	-200.000	0.012	0.305
-514.858	89.510	0.256	-0.285
-513.843	194.931	0.323	-0.490
-512.829	-61.640	0.157	-0.066
-511.814	59.573	-0.088	0.086
-510.799	-92.340	-0.181	0.051
-509.785	-200.000	0.064	-0.360
-508.770	-39.621	-0.117	0.061
-507.756	800.000	-0.061	-0.196
-506.741	-200.000	0.023	-0.109
-505.726	221.091	0.052	-0.084
-504.712	-187.625	-0.244	-0.003
-503.697	75.381	0.109	0.115
-502.683	-123.769	-0.102	0.016
-501.668	663.236	0.051	0.132
-500.653	132.036	-0.067	-0.086
-499.639	800.000	0.096	0.318
-498.624	-124.293	0.271	-0.042
-497.610	-24.320	0.182	-0.108
-496.595	800.000	0.051	0.204
-495.581	-107.367	0.204	-0.045
-494.566	144.485	-0.094	-0.125
-493.551	245.324	-0.071	0.118
-492.537	84.651	-0.167	-0.183
-491.522	-51.121	0.190	-0.089
-490.508	266.274	0.176	0.306
-489.493	569.187	-0.088	0.213
-488.478	-200.000	0.066	0.364
-487.464	800.000	-0.040	-0.112
-486.449	336.361	0.046	0.089
-485.435	-84.903	0.358	-0.112
-484.420	-34.898	0.267	0.145
-483.405	800.000	0.075	-0.226
-482.391	-177.841	-0.182	0.004
-481.376	267.935	-0.126	-0.220
-480.362	748.280	0.023	0.063
-479.347	379.958	0.150	0.306
-478.332	-200.000	0.040	0.209
-477.318	-111.364	0.159	-0.032
-476.303	-72.956	-0.149	0.054
-475.289	256.010	0.049	0.084
-474.274	385.371	0.060	0.122
-473.259	217.206	-0.026	0.042
-472.245	-200.000	0.069	0.302
-471.230	-22.118	-0.223	0.135
-470.216	800.000	0.036	0.101
-469.201	42.680	-0.045	-0.041
-468.186	-200.000	0.057	-0.255
-467.172	335.003	0.071	0.137
-466.157	-76.541	-0.088	0.031
-465.143	800.000	0.029	-0.115
-464.128	-159.083	-0.138	0.008
-463.113	-165.244	-0.272	0.012
-462.099	-161.616	0.194	-0.010
-461.084	-12.102	0.157	0.102
-460.070	-54.150	-0.248	-0.112
-459.055	-200.000	-0.002	0.103
-458.040	-85.747	-0.165	-0.051
-457.026	34.872	-0.216	0.188
-456.011	319.402	-0.131	0.248
-454.997	10.523	-0.081	0.062
-453.982	79.530	0.150	-0.160
-452.968	800.000	-0.026	-0.080
-451.953	371.900	0.042	0.085
-450.938	-3.966	-0.061	-0.042
-449.924	800.000	-0.044	-0.149
-448.909	97.726	-0.104	-0.119
-447.895	-108.793	-0.169	-0.036
-446.880	320.144	0.062	-0.117
-445.865	157.442	-0.149	0.205
-444.851	800.000	-0.037	0.157
-443.836	333.081	0.048	0.093
-442.822	60.703	0.018	0.017
-441.807	31.773	0.137	-0.117
-440.792	-182.317	0.388	0.007
-439.778	-117.744	0.188	-0.034
-438.763	-48.406	-0.152	-0.073
-437.749	607.084	0.167	0.415
-436.734	89.764	0.079	-0.088
-435.719	50.791	-0.289	-0.272
-434.705	-85.065	0.449	-0.140
-433.690	-21.453	0.327	-0.199
-432.676	-200.000	-0.002	-0.101
-431.661	177.193	-0.258	0.373
-430.646	620.309	0.048	-0.120
-429.632	800.000	0.060	0.257
-428.617	-200.000	-0.030	0.136
-427.603	-66.181	-0.195	0.077
-426.588	-32.719	-0.101	-0.056
-425.573	512.618	-0.158	0.366
-424.559	457.094	0.090	-0.200
-423.544	-115.208	0.143	-0.027
-422.530	70.973	-0.147	-0.151
-421.515	-115.440	-0.143	-0.027
-420.500	234.961	0.140	0.230
-419.486	394.596	-0.151	0.313
-418.471	800.000	-0.056	-0.230
-417.457	190.831	0.058	-0.086
-416.442	-200.000	-0.015	-0.213
-415.428	135.308	0.065	0.084
-414.413	8.867	-0.179	0.134
-413.398	-10.746	0.193	-0.127
-412.384	-200.000	-0.022	0.436
-411.369	8.937	-0.056	-0.042
-410.355	110.201	0.168	-0.200
-409.340	-92.728	0.145	-0.040
-408.325	172.973	0.108	0.155
-407.311	-8.225	0.099	0.066
-406.296	800.000	0.104	-0.364
-405.282	306.337	0.194	-0.359
-404.267	-13.526	-0.269	0.173
-403.252	800.000	0.081	0.314
-402.238	216.714	0.076	-0.120
-401.223	545.902	0.125	0.297
-400.209	-160.472	-0.267	-0.014
-399.194	115.100	0.145	0.176
-398.179	719.334	-0.190	-0.502
-397.165	-200.000	0.026	0.147
-396.150	-200.000	0.023	0.106
-395.136	-178.468	-0.514	-0.012
-394.121	-4.825	0.320	-0.219
-393.106	800.000	0.022	-0.085
-392.092	165.056	0.233	0.326
-391.077	800.000	0.045	-0.192
-390.063	800.000	-0.072	-0.262
-389.048	-152.207	0.253	-0.018
-388.033	-146.690	-0.194	0.017
-387.019	-121.842	0.233	0.038
-386.004	-33.866	-0.329	-0.180
-384.990	-77.655	-0.232	0.080
-383.975	-71.061	-0.449	0.167
-382.960	-45.300	0.179	0.088
-381.946	-54.768	-0.247	0.111
-380.931	800.000	0.025	-0.084
-379.917	49.649	0.218	0.204
-378.902	-36.193	0.220	0.118
-377.888	-63.892	0.249	0.101
-376.873	800.000	-0.075	0.253
-375.858	225.012	0.003	0.005
-374.844	20.577	0.314	0.252
-373.829	-79.741	-0.172	-0.058
-372.815	429.095	0.044	-0.095
-371.800	81.940	0.128	-0.138
-370.785	-88.844	0.092	0.027
-369.771	354.223	-0.059	0.116
-368.756	-200.000	0.011	-0.116
-367.742	-182.509	0.117	0.002
-366.727	-200.000	0.007	0.155
-365.712	1.962	0.152	0.109
-364.698	800.000	0.079	0.315
-363.683	351.301	0.063	0.124
-362.669	323.433	0.110	-0.209
-361.654	-200.000	0.039	0.244
-360.639	-122.557	0.277	-0.045
-359.625	-122.876	0.147	-0.024
-358.610	-56.654	-0.260	0.114
-357.596	-79.822	-0.169	-0.056
-356.581	283.551	-0.167	-0.298
-355.566	-200.000	0.030	-0.188
-354.552	-140.188	0.132	0.014
-353.537	139.351	-0.075	0.098
-352.523	800.000	-0.047	0.130
-351.508	91.707	0.065	-0.073
-350.493	249.872	-0.066	-0.111
-349.479	187.120	-0.297	0.440
-348.464	96.019	0.098	-0.111
-347.450	800.000	-0.064	-0.212
-346.435	-16.085	-0.107	0.067
-345.420	-200.000	0.248	0.000
-344.406	45.761	-0.143	-0.131
-343.391	159.246	-0.082	0.113
-342.377	-200.000	-0.013	-0.148
-341.362	747.502	-0.073	-0.195
-340.348	-162.591	0.226	0.011
-339.333	-88.249	-0.214	-0.063
-338.318	-16.750	-0.223	0.140
-337.304	89.842	0.277	0.306
-336.289	-200.000	-0.027	-0.177
-335.275	-66.668	0.084	0.033
-334.260	326.718	0.109	0.208
-333.245	332.656	0.118	0.225
-332.231	322.490	0.034	0.065
-331.216	157.675	0.077	0.106
-330.202	-33.012	-0.131	0.072
-329.187	209.251	-0.170	0.264
-328.172	-28.029	0.173	-0.099
-327.158	-29.122	0.132	0.075
-326.143	-200.000	-0.046	0.387
-325.129	-71.757	-0.581	0.215
-324.114	-158.208	-0.165	0.010
-323.099	-200.000	-0.005	0.163
-322.085	-50.612	-0.101	-0.047
-321.070	10.245	-0.078	-0.059
-320.056	-74.659	-0.112	-0.040
-319.041	221.938	-0.136	-0.217
-318.026	653.679	-0.063	-0.160
-317.012	135.049	-0.110	-0.142
-315.997	-200.000	-0.052	-0.259
-314.983	87.999	-0.067	0.074
-313.968	127.269	0.135	0.169
-312.953	-148.436	0.288	-0.023
-311.939	-200.000	0.001	-0.159
-310.924	-120.873	0.088	0.015
-309.910	69.381	0.112	0.114
-308.895	105.967	-0.171	0.200
-307.880	129.795	0.202	-0.256
-306.866	49.729	0.089	-0.083
-305.851	-48.359	0.115	-0.055
-304.837	-200.000	0.042	-0.262
-303.822	-191.395	0.197	0.002
-302.807	-6.051	0.398	0.269
-301.793	-170.820	-0.257	-0.009
-300.778	-61.878	0.207	-0.086
-299.764	800.000	-0.044	0.178
-298.749	-103.983	0.209	0.048
-297.735	-200.000	-0.006	0.048
-296.720	-200.000	-0.057	-0.292
-295.705	266.128	-0.058	0.101
-294.691	-29.412	0.429	0.243
-293.676	-18.774	-0.218	-0.134
-292.662	-76.288	0.458	-0.160
-291.647	800.000	0.096	-0.349
-290.632	-200.000	-0.010	0.047
-289.618	235.618	0.104	-0.170
-288.603	-91.365	0.262	0.074
-287.589	346.507	0.127	-0.247
-286.574	-200.000	0.025	-0.161
-285.559	-200.000	0.008	-0.300
-284.545	-53.902	-0.106	0.048
-283.530	13.432	0.139	-0.107
-282.516	-12.106	0.125	0.081
-281.501	-135.092	0.048	-0.006
-280.486	277.835	-0.177	-0.312
-279.472	-75.027	-0.392	0.139
-278.457	-42.028	-0.152	-0.077
-277.443	152.129	0.196	0.264
-276.428	-200.000	0.025	0.236
-275.413	784.761	0.010	0.028
-274.399	-200.000	-0.009	-0.407
-273.384	-144.540	-0.116	-0.011
-272.370	-140.764	0.062	-0.006
-271.355	-200.000	-0.018	-0.324
-270.340	-200.000	0.038	0.286
-269.326	78.042	-0.074	-0.078
-268.311	-200.000	0.071	0.327
-267.297	-102.476	0.250	-0.059
-266.282	79.055	-0.162	0.171
-265.267	-200.000	0.002	-0.074
-264.253	534.548	-0.035	-0.083
-263.238	-117.221	0.056	0.010
-262.224	800.000	-0.073	-0.244
-261.209	-200.000	-0.006	-0.176
-260.195	-103.476	0.125	0.029
-259.180	-200.000	0.009	-0.169
-258.165	243.958	0.122	0.202
-257.151	-17.078	0.079	-0.049
-256.136	64.076	-0.236	-0.235
-255.122	374.273	-0.094	0.189
-254.107	71.874	0.108	-0.111
-253.092	210.306	-0.192	-0.298
-252.078	-105.016	-0.439	-0.099
-251.063	-200.000	-0.024	-0.306
-250.049	800.000	-0.136	0.374
-249.034	-105.179	0.258	-0.058
-248.019	-200.000	-0.001	0.208
-247.005	-12.896	-0.203	-0.131
-245.990	-22.615	0.273	-0.163
-244.976	160.530	-0.226	-0.311
-243.961	-9.436	-0.281	-0.185
-242.946	-38.196	0.172	-0.090
-241.932	-143.082	0.046	-0.004
-240.917	431.902	0.154	0.330
-239.903	800.000	-0.012	-0.043
-238.888	-121.506	0.189	0.031
-237.873	-49.266	-0.035	-0.017
-236.859	-36.055	-0.171	0.091
-235.844	800.000	0.024	0.071
-234.830	581.994	-0.053	0.129
-233.815	-80.601	-0.177	-0.058
-232.800	-200.000	-0.065	0.288
-231.786	12.231	-0.284	-0.216
-230.771	-148.380	0.201	-0.016
-229.757	-46.366	-0.320	-0.155
-228.742	-136.471	-0.123	-0.014
-227.727	100.705	0.033	0.038
-226.713	-200.000	0.039	-0.297
-225.698	185.590	-0.097	0.142
-224.684	-80.009	-0.296	-0.098
-223.669	-52.913	-0.365	-0.166
-222.655	-34.871	0.362	0.195
-221.640	-200.000	0.015	-0.065
-220.625	534.858	0.113	-0.265
-219.611	-200.000	0.004	-0.141
-218.596	285.634	-0.128	0.228
-217.582	800.000	-0.039	-0.147
-216.567	34.142	-0.103	-0.088
-215.552	612.229	0.073	-0.181
-214.538	18.953	-0.230	0.181
-213.523	68.641	-0.069	0.070
-212.509	-200.000	0.005	0.147
-211.494	211.204	0.201	0.312
-210.479	-78.573	0.139	-0.047
-209.465	-104.031	-0.131	0.030
-208.450	437.679	0.143	-0.307
-207.436	-37.961	0.121	0.063
-206.421	800.000	-0.064	0.207
-205.406	76.220	0.084	-0.088
-204.392	-200.000	-0.010	-0.047
-203.377	-149.499	-0.246	0.019
-202.363	800.000	0.018	-0.062
-201.348	288.664	0.182	0.325
-200.333	-86.911	-0.415	0.125
-199.319	-50.910	-0.450	0.208
-198.304	4.996	0.089	0.065
-197.290	7.911	-0.248	0.183
-196.275	-29.290	-0.240	-0.135
-195.260	-53.340	-0.244	0.110
-194.246	615.838	-0.081	0.199
-193.231	-33.935	-0.190	-0.103
-192.217	-168.125	0.235	-0.009
-191.202	39.559	0.289	0.255
-190.187	457.126	-0.089	-0.196
-189.173	800.000	-0.040	-0.161
-188.158	256.106	-0.111	-0.188
-187.144	793.341	0.095	-0.259
-186.129	800.000	0.078	0.327
-185.114	-64.191	0.113	0.045
-184.100	-44.730	-0.142	0.070
-183.085	120.811	0.390	0.477
-182.071	227.640	-0.208	0.333
-181.056	48.806	-0.055	-0.051
-180.042	216.476	-0.084	0.131
-179.027	-198.325	-0.218	0.001
-178.012	191.618	-0.087	0.130
-176.998	800.000	0.044	0.182
-175.983	749.826	0.044	-0.118
-174.969	653.411	-0.105	-0.265
-173.954	111.392	0.061	-0.072
-172.939	-17.038	-0.175	0.109
-171.925	-59.475	0.253	0.107
-170.910	402.299	0.055	-0.114
-169.896	-133.150	0.525	0.065
-168.881	-121.284	-0.188	0.031
-167.866	130.299	0.224	0.283
-166.852	197.096	-0.114	0.171
-165.837	-200.000	-0.066	0.320
-164.823	800.000	0.093	-0.320
-163.808	145.814	-0.201	-0.266
-162.793	666.886	-0.014	-0.037
-161.779	36.126	0.109	0.094
-160.764	800.000	-0.070	0.287
-159.750	-200.000	-0.090	-0.480
-158.735	1.495	0.439	0.311
-157.720	225.737	-0.056	0.089
-156.706	341.129	-0.151	0.290
-155.691	91.099	0.085	-0.094
-154.677	-175.039	0.273	0.007
-153.662	-200.000	-0.017	0.313
-152.647	800.000	0.079	0.225
-151.633	-73.323	-0.291	0.105
-150.618	38.765	-0.044	-0.039
-149.604	281.537	-0.191	-0.336
-148.589	-139.339	0.445	-0.047
-147.574	-7.348	-0.147	-0.098
-146.560	-187.445	-0.266	-0.004
-145.545	-50.462	-0.263	-0.122
-144.531	-200.000	0.062	0.282
-143.516	114.846	0.178	0.214
-142.502	-41.743	0.154	0.078
-141.487	306.740	-0.119	-0.218
-140.472	-113.993	0.277	0.053
-139.458	-155.227	0.324	-0.021
-138.443	3.146	0.152	-0.108
-137.429	-50.815	-0.264	-0.122
-136.414	-64.974	0.040	-0.016
-135.399	-97.837	-0.148	-0.038
-134.385	-200.000	0.029	0.250
-133.370	-184.922	-0.255	-0.004
-132.356	-117.309	0.097	-0.017
-131.341	-27.195	0.086	0.049
-130.326	-171.441	-0.338	-0.011
-129.312	-86.466	0.146	-0.044
-128.297	-200.000	-0.005	0.041
-127.283	-3.140	-0.124	-0.085
-126.268	23.028	0.164	0.132
-125.253	-159.386	0.387	0.021
-124.239	276.796	0.056	-0.097
-123.224	-12.349	0.017	0.011
-122.210	-118.543	0.135	-0.023
-121.195	-200.000	0.016	-0.255
