DTS Sentinel unit serial number:	SN413079Multiplexer serial number:	ORYXHardware model number:	OX4-SRSoftware version number:	ORYX F/W v4.00 Oryx Data Collector v3.7.2.0data status	okinstallation	princeton_trtdifferential loss correction	single-endedforward channel	channel 1reverse channel	N/Adate	2019/09/14time	19:54:35forward acquisition time	60.00reverse acquisition time	0.00gamma	496.2192k internal	0.2314k external	0.2314temperature offset calibration	1.0028default loss term (dB/km)	0.3790temperature slope calibration	1.0000multiplexer offset coefficient	1.0000multiplexer slope coefficient	1.0000fibre end	0.00T internal ref (°C)	34.19T ext. ref 1 (°C)	4.87T ext. ref 2 (°C)	28.44length (m)	temperature (°C)	Stokes	anti-Stokes-747.200	258.323	0.155	0.270
-746.185	19.057	-0.197	0.160
-745.171	800.000	-0.035	0.129
-744.156	190.941	0.159	0.243
-743.142	-200.000	-0.029	0.183
-742.127	-200.000	0.014	0.391
-741.112	105.224	0.018	-0.021
-740.098	-200.000	-0.000	0.207
-739.083	90.702	0.206	0.233
-738.069	800.000	-0.077	0.288
-737.054	-76.080	0.082	0.029
-736.039	-72.217	-0.317	-0.119
-735.025	-36.122	0.074	0.040
-734.010	-10.323	-0.313	-0.210
-732.996	-200.000	0.016	-0.370
-731.981	-92.634	0.381	0.108
-730.966	-200.000	-0.001	0.107
-729.952	356.614	0.146	-0.295
-728.937	800.000	-0.039	0.147
-727.923	-23.265	0.390	0.237
-726.908	185.981	-0.071	-0.107
-725.894	82.012	0.302	-0.331
-724.879	-62.164	-0.365	-0.154
-723.864	29.170	-0.148	0.127
-722.850	-3.586	0.010	-0.007
-721.835	-35.056	0.098	-0.054
-720.821	209.826	-0.144	-0.229
-719.806	-73.167	-0.164	-0.061
-718.791	-109.664	0.020	-0.004
-717.777	-113.217	-0.117	0.023
-716.762	64.844	-0.217	-0.222
-715.748	61.287	-0.297	0.299
-714.733	457.499	-0.088	0.198
-713.718	-80.912	-0.296	-0.099
-712.704	21.182	-0.090	0.074
-711.689	-200.000	-0.041	-0.239
-710.675	16.188	0.140	0.112
-709.660	-200.000	-0.019	-0.122
-708.645	-200.000	0.041	0.194
-707.631	36.978	0.185	-0.166
-706.616	85.915	0.019	-0.021
-705.602	497.081	-0.137	-0.320
-704.587	320.637	0.090	0.173
-703.572	-200.000	0.033	-0.280
-702.558	-173.253	0.225	-0.007
-701.543	-182.186	-0.255	0.005
-700.529	383.556	-0.087	-0.182
-699.514	800.000	0.070	-0.200
-698.499	26.306	0.089	0.075
-697.485	800.000	0.078	0.273
-696.470	800.000	0.067	-0.194
-695.456	800.000	0.035	0.157
-694.441	198.214	0.154	-0.238
-693.426	19.053	-0.145	-0.118
-692.412	386.324	-0.103	-0.215
-691.397	-115.811	-0.440	-0.083
-690.383	-81.819	0.276	0.092
-689.368	-200.000	-0.016	0.235
-688.354	-22.496	-0.306	0.187
-687.339	356.548	-0.081	0.163
-686.324	125.706	-0.159	0.203
-685.310	234.183	0.048	-0.080
-684.295	32.439	-0.192	-0.168
-683.281	327.189	0.164	-0.317
-682.266	225.686	-0.074	0.121
-681.251	-49.404	0.180	-0.087
-680.237	-200.000	0.006	0.243
-679.222	689.428	-0.136	-0.359
-678.208	438.359	-0.123	-0.272
-677.193	312.310	-0.160	-0.303
-676.178	-200.000	0.044	-0.227
-675.164	19.043	0.230	-0.186
-674.149	177.584	-0.105	-0.155
-673.135	-122.473	0.034	-0.006
-672.120	235.763	0.218	0.364
-671.105	-46.631	-0.113	0.056
-670.091	91.562	-0.281	-0.319
-669.076	800.000	-0.099	-0.391
-668.062	-81.532	0.457	0.152
-667.047	127.696	0.055	0.070
-666.032	-200.000	0.025	0.266
-665.018	-200.000	-0.017	0.217
-664.003	280.940	0.247	-0.446
-662.989	76.779	-0.108	-0.115
-661.974	-92.669	-0.068	-0.019
-660.959	144.155	0.076	0.103
-659.945	424.185	0.099	-0.216
-658.930	-79.269	0.122	-0.042
-657.916	559.175	0.160	0.390
-656.901	-72.120	0.115	0.043
-655.886	27.216	-0.335	0.284
-654.872	343.799	0.146	0.289
-653.857	-19.801	-0.296	0.185
-652.843	-47.462	-0.315	0.155
-651.828	-176.022	0.521	-0.014
-650.814	-15.704	-0.071	0.046
-649.799	-200.000	0.003	-0.058
-648.784	308.156	-0.109	-0.205
-647.770	-156.906	0.075	0.005
-646.755	800.000	-0.092	-0.359
-645.741	-171.064	-0.096	0.003
-644.726	-200.000	0.002	0.273
-643.711	259.141	-0.057	-0.099
-642.697	548.591	-0.100	-0.241
-641.682	126.858	-0.156	-0.200
-640.668	127.726	-0.247	-0.317
-639.653	-2.937	0.143	-0.101
-638.638	14.145	-0.100	0.078
-637.624	11.340	-0.300	0.232
-636.609	99.883	-0.091	-0.106
-635.595	-95.326	-0.510	0.138
-634.580	-31.549	-0.188	-0.106
-633.565	48.508	0.051	-0.048
-632.551	-200.000	-0.072	-0.438
-631.536	-99.315	0.344	-0.088
-630.522	-123.686	0.193	0.031
-629.507	-102.726	0.117	-0.028
-628.492	84.617	-0.115	-0.128
-627.478	-41.501	0.116	0.060
-626.463	-200.000	0.000	0.384
-625.449	-44.954	0.084	0.042
-624.434	28.555	0.108	-0.092
-623.419	-176.970	-0.069	-0.002
-622.405	-200.000	-0.064	0.326
-621.390	800.000	0.023	-0.067
-620.376	387.771	0.169	0.354
-619.361	-200.000	0.011	0.059
-618.346	159.038	-0.030	0.043
-617.332	506.330	-0.091	-0.213
-616.317	110.074	0.080	0.097
-615.303	-200.000	0.029	0.257
-614.288	6.096	-0.225	0.168
-613.273	800.000	-0.018	0.065
-612.259	-102.359	0.154	-0.037
-611.244	-155.431	-0.146	0.010
-610.230	800.000	-0.034	0.145
-609.215	339.673	0.100	-0.197
-608.201	386.554	0.167	0.347
-607.186	-8.739	0.207	0.140
-606.171	20.076	-0.172	0.140
-605.157	526.351	-0.082	0.195
-604.142	-100.093	-0.096	-0.024
-603.128	635.032	0.092	-0.236
-602.113	-200.000	-0.011	-0.137
-601.098	189.880	0.119	0.179
-600.084	134.279	-0.094	0.123
-599.069	-200.000	0.013	-0.128
-598.055	-200.000	-0.020	-0.118
-597.040	800.000	-0.076	0.219
-596.025	-196.777	0.122	-0.001
-595.011	248.653	-0.111	0.189
-593.996	-100.691	0.127	-0.032
-592.982	-70.530	0.158	0.060
-591.967	800.000	0.035	0.114
-590.952	-75.345	-0.514	-0.185
-589.938	18.677	-0.324	0.262
-588.923	-108.975	-0.318	0.068
-587.909	-200.000	-0.009	-0.207
-586.894	5.189	-0.158	0.117
-585.879	-42.855	0.214	0.110
-584.865	-200.000	0.008	0.097
-583.850	-14.068	-0.104	0.067
-582.836	-67.159	-0.394	-0.156
-581.821	-105.807	-0.531	-0.121
-580.806	67.656	-0.139	-0.143
-579.792	-85.349	0.120	0.038
-578.777	77.843	0.036	0.038
-577.763	800.000	0.025	-0.107
-576.748	800.000	-0.030	0.119
-575.733	-5.565	0.272	0.188
-574.719	-117.126	-0.493	-0.090
-573.704	-200.000	-0.014	0.127
-572.690	-122.183	0.354	0.058
-571.675	-46.792	-0.163	-0.080
-570.661	-163.756	0.201	0.010
-569.646	-115.211	0.295	0.056
-568.631	48.266	-0.225	-0.212
-567.617	-65.449	0.173	0.070
-566.602	106.808	0.147	0.175
-565.588	174.773	0.032	0.047
-564.573	25.851	-0.062	-0.052
-563.558	89.974	0.291	-0.327
-562.544	-200.000	0.051	0.350
-561.529	-200.000	0.032	0.330
-560.515	-132.209	-0.138	0.018
-559.500	-88.247	-0.130	0.039
-558.485	198.365	0.076	-0.118
-557.471	-7.889	-0.232	-0.157
-556.456	-111.144	-0.047	-0.010
-555.442	-48.798	-0.087	0.042
-554.427	800.000	0.020	-0.089
-553.412	-64.963	-0.114	0.047
-552.398	27.983	-0.311	0.264
-551.383	93.641	0.136	0.155
-550.369	134.226	0.156	-0.204
-549.354	509.147	-0.013	0.031
-548.339	-140.977	-0.273	-0.028
-547.325	-200.000	-0.008	0.108
-546.310	-200.000	0.011	-0.126
-545.296	-178.709	-0.242	-0.006
-544.281	-200.000	-0.018	-0.242
-543.266	7.369	0.182	0.137
-542.252	-134.013	0.252	0.031
-541.237	-18.435	0.067	0.042
-540.223	-129.233	0.226	0.032
-539.208	-105.763	0.093	0.021
-538.193	-137.236	0.228	0.026
-537.179	-31.138	0.464	-0.263
-536.164	800.000	0.081	-0.351
-535.150	-151.273	-0.074	-0.006
-534.135	-13.065	-0.251	-0.164
-533.121	-200.000	-0.022	-0.326
-532.106	-200.000	-0.009	0.144
-531.091	-117.508	-0.273	-0.050
-530.077	-82.087	0.149	-0.049
-529.062	-61.451	-0.087	0.037
-528.048	75.717	0.131	0.139
-527.033	15.781	-0.107	-0.085
-526.018	-11.628	-0.062	0.041
-525.004	50.723	-0.195	-0.185
-523.989	-200.000	-0.035	-0.191
-522.975	-200.000	0.017	0.105
-521.960	302.551	-0.058	0.108
-520.945	122.510	0.055	0.069
-519.931	12.227	0.308	0.239
-518.916	107.185	0.350	0.417
-517.902	10.143	-0.077	0.059
-516.887	-109.990	0.128	-0.027
-515.872	-200.000	0.025	-0.465
-514.858	83.410	0.194	0.212
-513.843	-155.779	0.319	0.020
-512.829	83.622	0.128	-0.141
-511.814	-200.000	-0.003	0.051
-510.799	-24.430	0.239	0.143
-509.785	-200.000	0.011	-0.277
-508.770	-200.000	-0.001	-0.027
-507.756	66.555	0.061	0.062
-506.741	-200.000	0.009	-0.057
-505.726	-118.376	-0.141	0.025
-504.712	-200.000	0.020	-0.347
-503.697	-80.529	0.296	-0.099
-502.683	116.063	0.114	-0.140
-501.668	-170.076	-0.067	0.002
-500.653	800.000	-0.037	0.155
-499.639	693.436	-0.108	0.284
-498.624	-200.000	0.052	-0.269
-497.610	-134.639	-0.108	0.013
-496.595	328.049	-0.115	-0.222
-495.581	-200.000	0.026	0.313
-494.566	193.034	0.048	-0.073
-493.551	362.811	-0.075	0.151
-492.537	394.889	0.180	0.378
-491.522	-59.634	0.285	0.123
-490.508	218.359	0.154	-0.247
-489.493	-80.128	-0.178	0.060
-488.478	0.083	-0.274	-0.196
-487.464	-47.138	-0.101	0.049
-486.449	-20.633	0.160	0.099
-485.435	800.000	0.021	0.082
-484.420	421.144	-0.158	0.340
-483.405	-150.226	0.049	-0.004
-482.391	800.000	0.055	0.164
-481.376	-150.892	0.240	-0.018
-480.362	33.996	-0.330	-0.288
-479.347	34.919	-0.230	-0.202
-478.332	44.950	-0.209	-0.193
-477.318	-28.652	-0.096	-0.055
-476.303	-53.746	0.183	-0.084
-475.289	-40.541	0.046	0.024
-474.274	325.829	-0.222	-0.427
-473.259	79.564	-0.104	-0.111
-472.245	344.313	-0.067	-0.131
-471.230	-68.828	-0.233	-0.090
-470.216	177.487	-0.121	-0.176
-469.201	-153.055	-0.190	0.013
-468.186	-200.000	0.022	-0.140
-467.172	-23.301	-0.078	0.047
-466.157	187.075	0.111	-0.167
-465.143	-200.000	-0.011	0.060
-464.128	324.197	0.032	-0.061
-463.113	-24.569	-0.284	-0.169
-462.099	-6.831	-0.166	-0.113
-461.084	800.000	0.064	0.262
-460.070	114.977	-0.226	0.276
-459.055	221.984	-0.217	-0.350
-458.040	800.000	0.065	0.226
-457.026	423.376	0.184	-0.396
-456.011	395.752	0.087	-0.182
-454.997	-200.000	0.025	-0.167
-453.982	193.885	-0.062	-0.094
-452.968	-200.000	0.020	0.210
-451.953	-57.678	0.336	-0.147
-450.938	-130.085	-0.330	-0.045
-449.924	-45.194	-0.183	-0.091
-448.909	-34.303	0.117	-0.064
-447.895	205.864	-0.092	0.143
-446.880	220.927	0.117	-0.188
-445.865	-57.027	-0.169	-0.075
-444.851	10.273	0.137	-0.104
-443.836	800.000	0.095	0.277
-442.822	800.000	-0.041	-0.148
-441.807	-200.000	-0.040	0.388
-440.792	202.672	0.042	-0.065
-439.778	-200.000	-0.015	0.363
-438.763	-31.931	-0.139	-0.078
-437.749	800.000	-0.014	0.052
-436.734	-200.000	-0.007	0.086
-435.719	-142.744	-0.159	0.016
-434.705	28.517	0.249	-0.211
-433.690	-154.070	0.256	0.017
-432.676	46.661	-0.223	0.208
-431.661	180.222	-0.097	-0.143
-430.646	376.826	0.090	0.185
-429.632	402.278	-0.151	-0.318
-428.617	432.409	-0.061	0.133
-427.603	499.256	-0.106	-0.244
-426.588	-109.156	0.176	-0.037
-425.573	-4.048	-0.204	-0.142
-424.559	69.408	-0.157	-0.162
-423.544	-118.331	-0.280	-0.050
-422.530	-200.000	-0.025	-0.161
-421.515	239.377	-0.093	-0.154
-420.500	-54.896	-0.105	0.047
-419.486	144.884	-0.145	-0.194
-418.471	-200.000	0.058	0.346
-417.457	99.144	0.182	0.210
-416.442	442.500	0.097	0.212
-415.428	800.000	-0.088	0.252
-414.413	79.971	0.258	0.278
-413.398	-61.513	-0.092	0.039
-412.384	27.798	-0.226	-0.190
-411.369	-39.668	-0.104	0.055
-410.355	-200.000	0.019	-0.097
-409.340	-200.000	-0.022	0.176
-408.325	52.074	0.138	-0.132
-407.311	-200.000	-0.025	-0.237
-406.296	-200.000	-0.059	0.300
-405.282	-68.879	-0.147	0.057
-404.267	477.622	-0.065	-0.146
-403.252	800.000	0.047	-0.188
-402.238	-44.186	-0.315	0.158
-401.223	33.563	-0.119	0.103
-400.209	509.090	-0.092	-0.214
-399.194	-59.786	-0.095	0.041
-398.179	-200.000	0.030	-0.265
-397.165	175.119	0.140	-0.202
-396.150	-200.000	-0.033	0.179
-395.136	-42.323	-0.176	-0.090
-394.121	20.601	0.246	0.199
-393.106	671.725	-0.075	0.195
-392.092	-124.806	-0.132	-0.020
-391.077	186.280	-0.043	0.064
-390.063	254.598	-0.092	0.158
-389.048	498.048	-0.110	0.253
-388.033	310.407	0.104	0.194
-387.019	-164.747	-0.226	-0.010
-386.004	-39.761	0.295	-0.154
-384.990	8.086	0.225	0.169
-383.975	-14.247	-0.264	-0.170
-382.960	-200.000	0.054	-0.352
-381.946	-160.104	0.125	-0.007
-380.931	5.124	0.195	-0.143
-379.917	25.897	0.107	-0.089
-378.902	-200.000	-0.006	-0.068
-377.888	-200.000	-0.051	0.279
-376.873	-179.025	0.102	0.002
-375.858	-136.288	-0.302	-0.035
-374.844	52.659	-0.133	-0.127
-373.829	-200.000	0.005	-0.172
-372.815	-97.763	0.074	0.019
-371.800	65.557	-0.084	0.085
-370.785	-152.882	0.413	0.029
-369.771	800.000	0.080	0.232
-368.756	800.000	0.064	0.189
-367.742	-50.629	0.142	0.067
-366.727	-30.782	0.274	-0.155
-365.712	-200.000	0.012	0.181
-364.698	562.747	0.073	0.177
-363.683	549.808	-0.179	-0.428
-362.669	555.797	0.067	-0.161
-361.654	-150.368	0.296	0.023
-360.639	800.000	0.014	-0.045
-359.625	-22.368	-0.235	0.142
-358.610	557.695	0.080	0.193
-357.596	-34.052	0.167	-0.092
-356.581	-200.000	-0.028	0.258
-355.566	-200.000	0.025	-0.221
-354.552	-194.070	0.243	0.002
-353.537	-90.130	-0.519	0.151
-352.523	211.268	0.088	-0.138
-351.508	213.463	0.035	0.056
-350.493	-179.486	-0.105	-0.002
-349.479	800.000	-0.064	0.224
-348.464	-2.967	0.262	-0.183
-347.450	-23.629	0.294	-0.176
-346.435	111.812	-0.149	0.180
-345.420	-70.529	0.222	0.084
-344.406	-92.698	-0.237	0.066
-343.391	-200.000	-0.052	0.230
-342.377	-10.260	-0.106	0.070
-341.362	338.710	-0.082	-0.159
-340.348	-14.259	0.146	-0.094
-339.333	159.578	-0.082	-0.114
-338.318	-200.000	-0.003	0.307
-337.304	-200.000	0.004	0.269
-336.289	-104.809	0.057	0.013
-335.275	-200.000	-0.020	-0.205
-334.260	84.338	0.143	0.156
-333.245	-38.892	0.226	0.119
-332.231	800.000	0.128	-0.399
-331.216	-114.302	-0.268	0.052
-330.202	-57.167	0.342	0.150
-329.187	-88.681	0.144	-0.043
-328.172	539.113	-0.056	-0.133
-327.158	-42.099	-0.244	0.125
-326.143	102.543	-0.108	0.126
-325.129	-38.533	-0.206	-0.108
-324.114	326.090	-0.125	0.238
-323.099	230.660	-0.056	-0.091
-322.085	609.754	0.053	-0.132
-321.070	71.191	0.133	-0.138
-320.056	-67.583	0.167	0.065
-319.041	-168.079	0.233	-0.009
-318.026	-200.000	-0.037	-0.422
-317.012	-62.170	0.199	-0.083
-315.997	203.544	-0.085	0.132
-314.983	-140.606	0.214	-0.022
-313.968	254.002	-0.108	0.184
-312.953	-200.000	0.020	-0.311
-311.939	-200.000	0.049	-0.266
-310.924	-38.113	-0.277	0.147
-309.910	71.111	0.114	0.118
-308.895	-33.447	0.196	0.108
-307.880	-200.000	0.008	0.143
-306.866	800.000	-0.052	-0.171
-305.851	772.110	-0.114	-0.310
-304.837	58.285	-0.127	-0.124
-303.822	-36.120	0.411	0.221
-302.807	-135.489	-0.182	-0.022
-301.793	322.923	-0.052	0.099
-300.778	-200.000	-0.021	0.108
-299.764	-200.000	0.036	0.177
-298.749	800.000	0.056	0.171
-297.735	-200.000	-0.021	0.389
-296.720	-200.000	0.001	0.142
-295.705	137.997	-0.206	0.269
-294.691	-200.000	-0.037	0.315
-293.676	94.538	-0.069	0.078
-292.662	-55.230	-0.217	-0.097
-291.647	53.424	0.304	0.291
-290.632	800.000	0.035	-0.111
-289.618	800.000	0.013	0.039
-288.603	89.801	0.152	0.169
-287.589	-135.306	0.164	0.020
-286.574	398.092	0.131	0.273
-285.559	52.755	-0.192	-0.183
-284.545	137.698	0.057	-0.074
-283.530	366.583	-0.042	0.085
-282.516	-59.171	-0.246	-0.106
-281.501	29.251	0.118	-0.099
-280.486	-200.000	-0.040	0.240
-279.472	-200.000	0.046	0.274
-278.457	-200.000	-0.045	-0.229
-277.443	451.728	-0.069	-0.153
-276.428	800.000	-0.078	0.293
-275.413	-54.782	0.094	-0.042
-274.399	-104.384	-0.204	0.047
-273.384	-200.000	-0.007	-0.378
-272.370	59.055	-0.140	-0.137
-271.355	341.781	0.020	0.039
-270.340	-35.546	0.282	-0.152
-269.326	-129.518	-0.110	-0.015
-268.311	40.885	-0.251	-0.225
-267.297	258.998	0.043	0.074
-266.282	-62.451	0.047	-0.019
-265.267	32.295	-0.263	-0.226
-264.253	-159.973	0.128	-0.007
-263.238	-75.147	-0.156	-0.056
-262.224	-98.459	-0.155	-0.039
-261.209	122.118	-0.183	0.227
-260.195	7.079	0.062	0.046
-259.180	-99.623	0.118	-0.029
-258.165	-48.518	-0.295	0.141
-257.151	-64.727	0.244	0.098
-256.136	-45.262	-0.252	-0.124
-255.122	800.000	-0.040	-0.146
-254.107	-200.000	0.073	0.370
-253.092	371.672	-0.108	0.218
-252.078	0.323	0.197	0.140
-251.063	511.604	0.068	-0.158
-250.049	-166.040	-0.246	0.010
-249.034	-148.573	-0.299	0.024
-248.019	-131.524	-0.093	0.012
-247.005	-123.779	0.177	-0.028
-245.990	4.839	-0.104	-0.076
-244.976	-85.496	0.327	-0.101
-243.961	306.972	0.115	0.213
-242.946	66.479	-0.092	-0.093
-241.932	-166.061	0.267	0.011
-240.917	4.027	-0.042	-0.031
-239.903	-41.221	0.305	0.156
-238.888	-174.696	-0.303	0.009
-237.873	-136.145	0.033	0.004
-236.859	281.966	-0.065	-0.116
-235.844	-108.634	0.299	-0.064
-234.830	105.451	0.189	0.222
-233.815	-136.591	0.053	-0.006
-232.800	-126.131	0.127	-0.019
-231.786	-6.745	0.154	-0.104
-230.771	392.186	0.120	0.248
-229.757	-18.106	0.197	0.122
-228.742	-127.661	-0.255	0.037
-227.727	101.124	-0.136	0.158
-226.713	-200.000	-0.029	-0.157
-225.698	394.771	-0.033	0.069
-224.684	425.842	-0.145	0.309
-223.669	-160.967	0.549	0.029
-222.655	-71.847	-0.148	-0.055
-221.640	218.711	0.119	-0.189
-220.625	-46.056	0.189	0.093
-219.611	587.173	0.092	-0.225
-218.596	134.599	-0.187	0.242
-217.582	22.265	-0.074	-0.060
-216.567	240.729	0.178	0.295
-215.552	715.800	0.015	0.040
-214.538	89.812	0.103	-0.114
-213.523	6.328	-0.208	0.154
-212.509	186.261	0.146	0.215
-211.494	-120.797	0.116	-0.019
-210.479	203.354	-0.044	-0.067
-209.465	-89.351	0.173	-0.050
-208.450	-200.000	0.012	-0.208
-207.436	-92.633	0.115	0.032
-206.421	-2.567	-0.188	-0.130
-205.406	625.490	-0.045	0.112
-204.392	-200.000	-0.204	0.000
-203.377	758.384	-0.138	-0.371
-202.363	138.954	0.151	0.197
-201.348	-115.188	0.179	0.034
-200.333	294.991	0.113	0.205
-199.319	65.688	0.076	0.077
-198.304	454.020	0.103	0.227
-197.290	-138.775	-0.103	-0.011
-196.275	-101.057	-0.093	0.023
-195.260	209.381	0.179	0.279
-194.246	-53.315	0.066	-0.030
-193.231	230.009	0.120	0.194
-192.217	29.495	0.095	0.080
-191.202	-5.747	-0.185	0.125
-190.187	40.204	0.206	-0.183
-189.173	-200.000	0.002	-0.180
-188.158	-138.280	-0.182	0.020
-187.144	73.382	0.147	0.153
-186.129	-32.382	0.203	0.112
-185.114	49.923	-0.259	-0.242
-184.100	-90.857	-0.216	0.062
-183.085	-200.000	0.016	-0.251
-182.071	800.000	0.031	0.089
-181.056	-81.061	0.364	0.119
-180.042	15.824	0.365	-0.285
-179.027	800.000	-0.102	-0.416
-178.012	-200.000	0.024	-0.346
-176.998	-200.000	-0.019	-0.113
-175.983	47.936	-0.094	0.087
-174.969	800.000	0.117	-0.376
-173.954	384.440	-0.050	-0.103
-172.939	-200.000	-0.016	0.230
-171.925	-200.000	0.050	-0.239
-170.910	-80.187	0.310	0.103
-169.896	157.560	0.189	-0.259
-168.881	800.000	-0.032	0.095
-167.866	-200.000	0.015	-0.234
-166.852	-57.490	-0.129	0.056
-165.837	335.274	-0.082	-0.157
-164.823	22.206	0.102	-0.083
-163.808	800.000	0.071	-0.210
-162.793	40.121	0.077	-0.068
-161.779	800.000	-0.130	-0.379
-160.764	800.000	-0.059	-0.175
-159.750	-75.652	0.430	0.151
-158.735	121.320	0.061	-0.076
-157.720	390.673	0.162	-0.332
-156.706	-98.835	0.098	0.025
-155.691	-200.000	0.015	0.256
-154.677	-18.668	0.125	-0.077
-153.662	-99.301	-0.167	-0.042
-152.647	-52.159	0.314	0.144
-151.633	-28.843	-0.404	0.230
-150.618	116.257	0.261	-0.317
-149.604	29.056	0.220	0.184
-148.589	-143.423	0.215	0.020
-147.574	349.827	0.172	-0.337
-146.560	-9.242	0.252	-0.167
-145.545	-200.000	-0.025	-0.381
-144.531	105.305	-0.173	0.202
-143.516	-143.113	0.145	0.014
-142.502	-123.425	0.086	-0.014
-141.487	268.691	0.063	0.110
-140.472	-141.403	0.099	-0.010
-139.458	-38.630	-0.273	0.143
-138.443	-93.561	0.243	-0.066
-137.429	-179.573	0.072	-0.002
-136.414	-200.000	0.029	-0.174
-135.399	-200.000	0.003	-0.167
-134.385	-135.744	0.160	0.019
-133.370	-141.717	0.287	-0.029
-132.356	-99.209	-0.218	0.055
-131.341	-200.000	-0.011	0.110
-130.326	174.267	0.198	-0.283
-129.312	241.039	0.034	0.057
-128.297	159.333	-0.077	-0.106
-127.283	363.819	-0.094	-0.186
-126.268	223.709	-0.062	0.099
-125.253	800.000	-0.050	-0.159
-124.239	800.000	0.036	0.134
-123.224	-124.215	0.202	-0.031
-122.210	7.707	0.095	0.071
-121.195	629.562	0.140	-0.350
