DTS Sentinel unit serial number:	SN413079Multiplexer serial number:	ORYXHardware model number:	OX4-SRSoftware version number:	ORYX F/W v4.00 Oryx Data Collector v3.7.2.0data status	okinstallation	princeton_trtdifferential loss correction	single-endedforward channel	channel 1reverse channel	N/Adate	2019/09/12time	08:56:11forward acquisition time	60.00reverse acquisition time	0.00gamma	496.2192k internal	0.2309k external	0.2309temperature offset calibration	1.0047default loss term (dB/km)	0.3790temperature slope calibration	1.0000multiplexer offset coefficient	1.0000multiplexer slope coefficient	1.0000fibre end	0.00T internal ref (°C)	34.12T ext. ref 1 (°C)	1.74T ext. ref 2 (°C)	31.00length (m)	temperature (°C)	Stokes	anti-Stokes-747.200	-136.471	0.029	0.003
-746.185	86.336	0.238	0.266
-745.171	-77.283	0.168	0.059
-744.156	-135.876	-0.293	-0.035
-743.142	85.641	-0.016	0.017
-742.127	-78.181	0.082	-0.029
-741.112	-118.976	0.105	0.019
-740.098	-200.000	-0.025	0.413
-739.083	34.046	0.246	0.218
-738.069	18.576	0.031	0.025
-737.054	59.263	0.197	0.197
-736.039	-79.914	-0.129	-0.044
-735.025	544.330	0.125	0.303
-734.010	-43.073	0.280	-0.144
-732.996	57.418	0.223	-0.221
-731.981	171.697	-0.035	0.051
-730.966	-200.000	-0.039	-0.190
-729.952	-71.896	0.290	-0.109
-728.937	390.028	-0.128	0.269
-727.923	800.000	0.005	-0.023
-726.908	168.859	-0.098	0.142
-725.894	-44.814	-0.137	-0.069
-724.879	-140.546	-0.455	0.048
-723.864	195.208	-0.082	-0.126
-722.850	-73.459	-0.190	-0.070
-721.835	-200.000	0.001	-0.077
-720.821	-200.000	0.009	-0.060
-719.806	63.310	-0.079	-0.081
-718.791	-95.530	-0.082	0.022
-717.777	-200.000	0.061	-0.374
-716.762	-200.000	0.044	0.386
-715.748	-200.000	0.057	0.345
-714.733	117.655	0.155	-0.194
-713.718	255.327	-0.086	0.149
-712.704	-0.808	0.167	-0.120
-711.689	800.000	0.065	-0.273
-710.675	-75.943	0.148	-0.053
-709.660	-20.697	-0.216	0.135
-708.645	93.261	-0.218	0.250
-707.631	800.000	-0.031	0.098
-706.616	270.278	-0.058	0.103
-705.602	-28.189	0.306	0.179
-704.587	-106.468	-0.263	0.060
-703.572	-117.543	0.182	-0.033
-702.558	137.255	0.186	0.247
-701.543	-161.028	-0.220	0.012
-700.529	-5.497	0.287	-0.200
-699.514	800.000	0.071	0.230
-698.499	14.875	-0.125	-0.099
-697.485	298.366	0.109	0.202
-696.470	-25.906	-0.089	0.053
-695.456	579.798	-0.041	0.101
-694.441	-17.944	0.133	-0.085
-693.426	-200.000	-0.029	0.194
-692.412	800.000	-0.064	-0.236
-691.397	552.585	-0.095	-0.232
-690.383	-43.678	-0.242	0.124
-689.368	-164.683	-0.178	0.008
-688.354	-97.237	-0.059	-0.016
-687.339	222.191	0.068	0.111
-686.324	-143.544	-0.264	0.026
-685.310	67.291	-0.171	0.176
-684.295	-20.372	-0.329	0.205
-683.281	800.000	-0.077	-0.214
-682.266	800.000	-0.031	-0.132
-681.251	181.460	0.075	0.111
-680.237	-74.060	0.303	-0.111
-679.222	-54.185	-0.211	0.097
-678.208	76.600	-0.105	-0.113
-677.193	-57.019	-0.429	0.192
-676.178	8.963	0.048	0.036
-675.164	600.633	-0.026	-0.066
-674.149	800.000	0.074	0.246
-673.135	-5.087	0.184	0.128
-672.120	555.384	0.079	0.192
-671.105	-54.928	-0.252	-0.115
-670.091	-84.375	0.310	-0.099
-669.076	355.030	-0.109	-0.219
-668.062	-48.789	-0.090	0.044
-667.047	-108.743	-0.097	-0.021
-666.032	139.224	-0.131	-0.175
-665.018	256.773	0.232	-0.404
-664.003	-200.000	-0.013	-0.254
-662.989	161.267	-0.246	0.348
-661.974	88.750	0.296	-0.333
-660.959	-9.329	-0.131	-0.089
-659.945	43.775	-0.162	-0.150
-658.930	82.577	0.099	0.109
-657.916	45.234	0.131	0.123
-656.901	-125.055	-0.113	0.018
-655.886	-200.000	0.025	0.188
-654.872	-200.000	-0.050	0.347
-653.857	800.000	-0.025	-0.077
-652.843	-200.000	-0.075	-0.374
-651.828	-200.000	-0.013	0.332
-650.814	463.604	0.146	-0.331
-649.799	-56.196	-0.191	0.086
-648.784	-63.976	0.127	0.053
-647.770	-171.659	0.444	0.015
-646.755	-62.971	0.090	0.038
-645.741	-65.531	-0.192	0.078
-644.726	-200.000	-0.006	-0.132
-643.711	-140.219	-0.144	-0.015
-642.697	9.917	-0.274	-0.210
-641.682	800.000	0.058	-0.186
-640.668	59.608	-0.193	-0.192
-639.653	-37.352	0.198	-0.107
-638.638	231.540	-0.068	-0.113
-637.624	518.778	-0.063	-0.150
-636.609	35.263	0.317	0.282
-635.595	-133.922	-0.137	0.017
-634.580	-200.000	-0.002	-0.157
-633.565	-19.899	0.149	-0.093
-632.551	10.387	0.132	-0.102
-631.536	-50.926	-0.117	-0.056
-630.522	-200.000	0.032	-0.219
-629.507	-102.855	0.112	-0.027
-628.492	28.363	0.220	0.188
-627.478	800.000	-0.045	0.193
-626.463	61.916	0.113	-0.114
-625.449	50.665	-0.248	-0.237
-624.434	-131.472	0.099	0.013
-623.419	-200.000	-0.029	-0.140
-622.405	527.000	-0.093	0.221
-621.390	89.950	-0.095	0.108
-620.376	4.605	0.142	0.105
-619.361	33.711	0.018	-0.015
-618.346	-25.529	-0.318	0.190
-617.332	-200.000	0.031	-0.204
-616.317	509.768	-0.083	0.195
-615.303	-200.000	-0.008	0.087
-614.288	479.489	0.083	0.191
-613.273	-200.000	-0.011	0.335
-612.259	100.881	0.108	-0.126
-611.244	-134.307	-0.230	0.029
-610.230	-147.574	-0.326	-0.028
-609.215	-35.846	0.104	-0.057
-608.201	60.741	-0.248	0.248
-607.186	-200.000	0.012	0.144
-606.171	6.533	-0.556	-0.417
-605.157	640.920	0.114	-0.294
-604.142	125.481	0.108	0.137
-603.128	-175.427	0.168	-0.005
-602.113	-71.556	-0.217	-0.082
-601.098	59.284	0.069	-0.069
-600.084	77.624	-0.107	-0.115
-599.069	-200.000	-0.041	-0.224
-598.055	162.303	-0.065	0.092
-597.040	0.502	-0.276	0.199
-596.025	15.460	0.181	-0.143
-595.011	-166.593	-0.194	0.008
-593.996	479.961	-0.064	0.146
-592.982	-56.368	-0.299	-0.134
-591.967	-41.817	0.445	-0.230
-590.952	317.029	-0.094	-0.180
-589.938	800.000	-0.054	0.201
-588.923	261.279	0.122	0.213
-587.909	-72.978	-0.199	-0.074
-586.894	181.710	-0.185	-0.274
-585.879	-200.000	0.030	-0.218
-584.865	123.674	0.223	0.283
-583.850	-87.793	0.149	-0.045
-582.836	51.113	-0.286	0.274
-581.821	122.568	0.208	-0.263
-580.806	284.707	0.059	0.108
-579.792	171.738	-0.122	0.178
-578.777	251.700	-0.148	-0.254
-577.763	-147.749	0.084	0.007
-576.748	-30.687	-0.259	0.148
-575.733	80.818	-0.029	0.031
-574.719	-200.000	-0.021	0.170
-573.704	517.752	0.082	-0.195
-572.690	-200.000	0.002	0.304
-571.675	234.555	-0.239	-0.397
-570.661	224.585	0.090	-0.147
-569.646	163.244	0.072	0.102
-568.631	274.818	-0.084	-0.150
-567.617	-172.674	0.233	0.007
-566.602	-145.056	-0.317	-0.029
-565.588	-200.000	0.075	-0.383
-564.573	-85.341	-0.246	0.077
-563.558	113.278	-0.249	0.305
-562.544	-179.434	-0.061	-0.001
-561.529	-57.654	-0.322	-0.142
-560.515	-27.086	0.146	0.086
-559.500	696.165	0.066	0.176
-558.485	-118.701	0.324	-0.058
-557.471	85.753	-0.131	0.145
-556.456	-200.000	-0.006	-0.041
-555.442	22.026	-0.339	-0.279
-554.427	-200.000	-0.017	-0.116
-553.412	494.470	-0.113	0.261
-552.398	118.914	0.306	-0.381
-551.383	-150.189	-0.076	-0.006
-550.369	154.226	0.062	0.085
-549.354	-200.000	-0.044	-0.267
-548.339	152.217	-0.264	-0.364
-547.325	82.729	-0.064	0.070
-546.310	-14.003	0.099	0.065
-545.296	220.402	0.135	0.217
-544.281	-200.000	-0.031	0.174
-543.266	44.627	0.066	0.061
-542.252	-200.000	0.020	-0.152
-541.237	245.158	-0.111	-0.189
-540.223	342.065	-0.135	-0.265
-539.208	-59.134	0.161	0.070
-538.193	0.964	0.130	0.094
-537.179	-113.694	-0.223	-0.044
-536.164	-6.019	-0.058	-0.040
-535.150	-154.255	0.155	-0.011
-534.135	470.278	-0.073	-0.166
-533.121	312.433	0.019	0.036
-532.106	393.964	0.059	-0.124
-531.091	-200.000	-0.020	0.117
-530.077	73.984	0.311	0.328
-529.062	-200.000	-0.051	0.415
-528.048	-126.008	-0.087	0.013
-527.033	70.838	-0.287	-0.299
-526.018	-0.414	0.184	0.131
-525.004	34.348	0.193	0.170
-523.989	44.973	-0.127	0.117
-522.975	-158.639	0.287	0.017
-521.960	82.321	-0.256	-0.279
-520.945	-100.929	-0.028	-0.007
-519.931	-130.991	0.222	-0.030
-518.916	-19.546	-0.222	-0.138
-517.902	-85.459	-0.559	-0.176
-516.887	86.065	-0.176	-0.195
-515.872	-9.985	-0.042	0.028
-514.858	-2.186	-0.145	0.103
-513.843	15.417	-0.151	0.119
-512.829	-125.754	0.014	-0.002
-511.814	47.942	-0.274	0.258
-510.799	-16.614	0.112	0.072
-509.785	800.000	-0.090	-0.302
-508.770	-182.572	-0.297	0.005
-507.756	-200.000	0.036	0.162
-506.741	361.635	0.260	0.524
-505.726	763.118	0.161	0.440
-504.712	-185.509	0.341	-0.005
-503.697	663.123	-0.142	0.368
-502.683	426.554	0.043	-0.094
-501.668	140.971	-0.224	-0.297
-500.653	136.121	0.054	-0.071
-499.639	529.407	0.092	-0.218
-498.624	-200.000	-0.028	0.184
-497.610	-65.565	0.126	0.051
-496.595	800.000	-0.055	0.171
-495.581	800.000	0.096	0.313
-494.566	800.000	-0.024	0.094
-493.551	800.000	-0.069	0.284
-492.537	-78.539	0.299	0.103
-491.522	179.178	0.273	-0.401
-490.508	800.000	-0.072	-0.308
-489.493	170.456	0.284	0.409
-488.478	-200.000	0.004	-0.144
-487.464	-200.000	-0.003	0.106
-486.449	800.000	0.051	0.201
-485.435	-17.267	-0.118	0.075
-484.420	800.000	-0.038	0.120
-483.405	-23.571	0.340	-0.205
-482.391	-132.727	0.373	-0.048
-481.376	-59.602	0.240	0.104
-480.362	139.060	0.086	0.114
-479.347	-200.000	0.034	0.203
-478.332	-89.889	0.172	-0.051
-477.318	-128.221	0.341	0.049
-476.303	-68.949	0.096	0.037
-475.289	86.100	0.087	0.096
-474.274	105.693	-0.088	-0.105
-473.259	-200.000	-0.005	-0.125
-472.245	-168.187	-0.247	0.010
-471.230	0.056	-0.315	0.226
-470.216	-4.296	-0.113	-0.079
-469.201	43.914	-0.123	-0.113
-468.186	-30.347	-0.225	-0.128
-467.172	-50.954	0.093	-0.044
-466.157	-200.000	-0.032	-0.301
-465.143	390.460	0.063	-0.132
-464.128	-88.417	0.314	0.094
-463.113	570.133	-0.086	-0.211
-462.099	115.632	0.245	-0.301
-461.084	-56.266	-0.300	0.134
-460.070	800.000	-0.031	-0.118
-459.055	800.000	-0.041	0.166
-458.040	53.445	-0.177	-0.170
-457.026	-28.499	-0.091	-0.053
-456.011	135.291	-0.202	0.263
-454.997	56.445	0.170	0.166
-453.982	-86.360	0.269	-0.083
-452.968	-1.739	0.154	-0.109
-451.953	800.000	-0.031	0.094
-450.938	-200.000	0.018	0.114
-449.924	-161.784	-0.110	0.006
-448.909	-200.000	0.004	-0.333
-447.895	23.506	0.140	0.115
-446.880	76.491	-0.094	-0.100
-445.865	409.715	0.116	-0.247
-444.851	-146.327	-0.189	-0.017
-443.836	437.002	0.125	-0.273
-442.822	-50.381	0.325	0.154
-441.807	21.326	-0.245	-0.200
-440.792	-129.552	0.174	0.024
-439.778	629.349	-0.075	-0.189
-438.763	-192.894	-0.232	-0.002
-437.749	-200.000	-0.015	-0.116
-436.734	639.008	0.101	-0.257
-435.719	-88.372	0.337	-0.101
-434.705	-38.695	0.152	-0.080
-433.690	-47.918	-0.251	0.122
-432.676	-49.910	-0.175	0.083
-431.661	16.746	0.364	-0.289
-430.646	127.458	0.132	-0.168
-429.632	371.971	-0.180	-0.367
-428.617	-162.166	0.056	0.003
-427.603	-117.272	-0.377	-0.069
-426.588	-200.000	-0.079	0.371
-425.573	-156.538	0.359	0.022
-424.559	176.681	0.038	-0.056
-423.544	800.000	0.094	0.296
-422.530	65.376	0.359	0.365
-421.515	27.873	0.437	-0.369
-420.500	-200.000	-0.019	-0.135
-419.486	-17.154	0.172	-0.109
-418.471	6.067	-0.161	-0.120
-417.457	-74.732	-0.383	-0.138
-416.442	-200.000	-0.056	-0.288
-415.428	51.250	0.022	-0.021
-414.413	56.215	-0.146	-0.142
-413.398	800.000	0.082	0.284
-412.384	-107.506	-0.288	0.063
-411.369	-96.866	0.131	0.035
-410.355	163.394	-0.022	0.031
-409.340	45.351	0.201	0.186
-408.325	517.841	0.062	-0.145
-407.311	-200.000	-0.007	-0.044
-406.296	-103.914	-0.234	0.055
-405.282	217.456	-0.146	-0.233
-404.267	56.147	0.282	-0.274
-403.252	-191.240	-0.277	-0.003
-402.238	129.769	0.220	-0.282
-401.223	240.749	-0.057	0.096
-400.209	-62.947	-0.277	-0.115
-399.194	-106.401	-0.154	0.034
-398.179	-200.000	-0.003	-0.048
-397.165	196.350	0.129	0.197
-396.150	-32.093	-0.336	-0.188
-395.136	-158.058	-0.420	0.025
-394.121	-200.000	-0.046	-0.236
-393.106	800.000	-0.143	-0.436
-392.092	141.588	0.189	-0.251
-391.077	-200.000	0.024	0.247
-390.063	-106.580	0.124	0.028
-389.048	29.161	-0.393	-0.334
-388.033	647.104	0.022	0.058
-387.019	-122.798	0.198	0.032
-386.004	-54.717	-0.307	-0.139
-384.990	-12.694	-0.128	-0.083
-383.975	293.693	-0.157	0.286
-382.960	680.366	0.093	0.241
-381.946	36.098	-0.206	-0.181
-380.931	-179.546	0.225	-0.005
-379.917	-77.362	-0.168	0.058
-378.902	-200.000	-0.032	0.140
-377.888	637.725	0.077	-0.196
-376.873	-158.186	0.140	-0.008
-375.858	-167.707	-0.113	-0.004
-374.844	-54.355	0.195	-0.088
-373.829	800.000	0.048	0.150
-372.815	533.624	0.060	0.141
-371.800	55.534	-0.104	-0.101
-370.785	-110.329	0.053	-0.011
-369.771	-70.754	-0.247	0.094
-368.756	92.478	-0.107	-0.121
-367.742	-26.751	0.261	0.153
-366.727	-200.000	0.082	0.371
-365.712	11.077	-0.272	-0.208
-364.698	-46.835	0.249	-0.122
-363.683	-109.958	-0.152	-0.032
-362.669	-98.225	-0.110	-0.028
-361.654	-17.609	-0.217	-0.136
-360.639	-151.570	0.391	-0.029
-359.625	-200.000	0.019	-0.103
-358.610	128.800	0.235	-0.300
-357.596	510.864	0.050	-0.117
-356.581	138.861	-0.049	-0.065
-355.566	-200.000	0.001	-0.074
-354.552	133.037	-0.113	0.146
-353.537	430.241	0.076	-0.164
-352.523	96.304	-0.175	0.200
-351.508	648.506	0.028	0.072
-350.493	-163.594	-0.098	-0.005
-349.479	458.023	0.074	-0.166
-348.464	-200.000	0.014	0.131
-347.450	94.233	-0.284	-0.323
-346.435	-200.000	0.047	0.270
-345.420	17.605	0.088	0.070
-344.406	142.207	-0.163	0.216
-343.391	189.921	-0.063	-0.095
-342.377	327.016	0.069	-0.132
-341.362	800.000	0.048	0.176
-340.348	-1.124	-0.132	0.094
-339.333	-139.550	0.467	-0.050
-338.318	115.030	0.132	-0.161
-337.304	800.000	0.057	-0.211
-336.289	-87.541	0.240	0.072
-335.275	-200.000	-0.029	0.335
-334.260	-101.298	0.359	0.088
-333.245	-50.519	-0.086	0.041
-332.231	800.000	-0.115	0.383
-331.216	0.690	0.111	-0.080
-330.202	122.391	-0.132	0.165
-329.187	800.000	0.035	-0.099
-328.172	-53.170	-0.598	-0.275
-327.158	-64.850	-0.032	-0.013
-326.143	-83.237	0.089	0.028
-325.129	-200.000	-0.011	-0.058
-324.114	-200.000	0.010	-0.059
-323.099	489.541	-0.129	-0.296
-322.085	800.000	0.128	-0.394
-321.070	-126.606	0.394	-0.058
-320.056	-44.580	-0.180	-0.090
-319.041	68.760	-0.152	0.156
-318.026	243.316	0.065	0.109
-317.012	-37.475	-0.047	0.025
-315.997	-200.000	-0.020	-0.099
-314.983	0.192	0.307	0.219
-313.968	67.671	-0.232	-0.237
-312.953	-147.570	0.275	0.023
-311.939	-137.813	0.457	0.051
-310.924	-200.000	0.008	0.127
-309.910	38.253	-0.101	0.089
-308.895	17.513	-0.173	0.137
-307.880	-144.985	-0.249	0.023
-306.866	-119.619	-0.388	-0.067
-305.851	-200.000	-0.035	0.214
-304.837	-121.418	0.150	0.025
-303.822	46.514	-0.115	0.107
-302.807	-89.707	0.219	0.064
-301.793	800.000	0.078	-0.242
-300.778	-123.415	0.015	0.002
-299.764	-68.650	0.307	-0.119
-298.749	-200.000	-0.001	0.259
-297.735	800.000	0.043	-0.160
-296.720	99.262	-0.160	-0.184
-295.705	-45.977	-0.254	0.125
-294.691	5.557	-0.083	0.061
-293.676	-24.156	0.341	-0.203
-292.662	-98.775	0.334	0.085
-291.647	97.943	0.176	0.202
-290.632	23.536	0.195	0.160
-289.618	-88.473	-0.215	0.064
-288.603	-200.000	0.084	-0.371
-287.589	22.598	-0.071	-0.058
-286.574	181.607	-0.210	-0.309
-285.559	-200.000	0.018	-0.081
-284.545	-200.000	0.010	0.095
-283.530	604.670	-0.185	0.460
-282.516	-14.217	-0.135	-0.087
-281.501	46.756	0.234	0.217
-280.486	-76.360	-0.097	-0.034
-279.472	-200.000	-0.027	0.232
-278.457	-200.000	0.002	0.236
-277.443	800.000	-0.070	0.216
-276.428	61.564	0.264	-0.262
-275.413	-95.193	0.338	0.091
-274.399	-4.139	-0.076	0.053
-273.384	349.471	-0.198	-0.389
-272.370	96.557	-0.287	0.328
-271.355	800.000	0.022	0.082
-270.340	-200.000	0.040	0.177
-269.326	225.397	-0.034	-0.054
-268.311	10.431	-0.285	0.216
-267.297	-7.917	-0.121	-0.081
-266.282	-16.656	-0.241	-0.152
-265.267	-145.933	-0.073	-0.006
-264.253	567.140	0.099	0.239
-263.238	556.033	-0.109	-0.263
-262.224	-14.946	-0.325	-0.208
-261.209	292.806	-0.246	-0.446
-260.195	800.000	0.074	0.257
-259.180	-200.000	-0.004	0.475
-258.165	119.430	-0.071	0.087
-257.151	143.378	0.184	-0.245
-256.136	-109.446	0.139	-0.029
-255.122	-51.840	-0.196	-0.091
-254.107	-157.322	0.503	0.030
-253.092	-99.292	-0.557	0.140
-252.078	-200.000	-0.014	-0.082
-251.063	-33.657	0.278	-0.153
-250.049	436.631	0.094	0.204
-249.034	90.492	-0.124	-0.138
-248.019	120.475	-0.115	-0.142
-247.005	-200.000	0.023	0.125
-245.990	346.976	-0.142	-0.278
-244.976	-107.896	0.345	0.075
-243.961	41.324	-0.148	0.133
-242.946	-142.922	0.214	-0.021
-241.932	-110.616	0.221	-0.045
-240.917	-68.658	-0.137	0.053
-239.903	-105.896	0.154	0.035
-238.888	-55.095	0.259	-0.116
-237.873	-2.451	0.339	-0.237
-236.859	-200.000	0.008	0.035
-235.844	-109.208	0.258	-0.055
-234.830	1.027	0.102	-0.073
-233.815	4.281	-0.133	0.097
-232.800	77.172	-0.305	0.323
-231.786	248.658	0.067	0.113
-230.771	-200.000	0.017	0.201
-229.757	800.000	0.026	0.088
-228.742	176.703	0.055	-0.079
-227.727	-48.684	0.209	-0.100
-226.713	615.677	-0.179	0.447
-225.698	98.429	0.141	0.162
-224.684	278.130	-0.088	0.155
-223.669	-160.105	-0.209	-0.011
-222.655	-103.348	-0.259	-0.061
-221.640	139.713	0.189	0.248
-220.625	-200.000	0.012	0.066
-219.611	209.160	0.139	0.217
-218.596	-200.000	-0.041	0.296
-217.582	195.848	0.114	0.172
-216.567	264.912	-0.188	0.326
-215.552	50.473	0.206	0.194
-214.538	-200.000	-0.035	-0.313
-213.523	59.739	-0.064	0.063
-212.509	188.594	0.249	0.371
-211.494	-74.723	-0.283	-0.101
-210.479	11.758	0.185	0.141
-209.465	-107.901	0.192	-0.042
-208.450	1.102	0.549	0.392
-207.436	202.377	-0.224	0.345
-206.421	800.000	0.034	-0.097
-205.406	368.182	-0.236	-0.475
-204.392	134.112	-0.146	-0.188
-203.377	76.185	-0.116	0.122
-202.363	114.498	0.105	0.127
-201.348	287.381	-0.095	0.171
-200.333	-110.085	-0.301	0.062
-199.319	800.000	-0.037	-0.144
-198.304	-21.139	0.154	0.094
-197.290	-52.876	0.145	-0.067
-196.275	-9.430	-0.137	-0.091
-195.260	146.791	-0.079	0.106
-194.246	-128.870	-0.065	-0.009
-193.231	619.716	0.104	-0.261
-192.217	-169.217	0.362	0.013
-191.202	-8.267	-0.086	0.058
-190.187	784.679	0.045	-0.123
-189.173	528.548	0.167	0.392
-188.158	313.465	0.086	0.161
-187.144	73.845	0.064	0.067
-186.129	-106.277	-0.205	-0.046
-185.114	-70.178	0.356	0.134
-184.100	130.796	0.137	-0.175
-183.085	-12.847	0.246	-0.159
-182.071	34.764	-0.081	-0.071
-181.056	800.000	0.055	0.158
-180.042	106.544	-0.113	0.133
-179.027	-41.016	0.241	-0.124
-178.012	44.763	0.404	0.369
-176.998	325.880	0.029	0.055
-175.983	800.000	-0.040	-0.112
-174.969	-200.000	-0.010	0.088
-173.954	199.311	0.073	0.112
-172.939	-20.841	0.112	-0.068
-171.925	-200.000	-0.033	-0.211
-170.910	-134.260	-0.200	0.024
-169.896	-200.000	0.026	-0.191
-168.881	-200.000	0.039	0.418
-167.866	254.587	0.163	0.277
-166.852	83.865	0.203	0.221
-165.837	-151.696	0.176	0.013
-164.823	226.322	0.091	0.147
-163.808	800.000	0.087	-0.359
-162.793	-100.355	-0.280	-0.069
-161.779	-200.000	-0.016	-0.223
-160.764	-200.000	0.007	0.099
-159.750	-159.347	-0.208	0.012
-158.735	-118.296	-0.128	0.023
-157.720	53.984	-0.315	-0.301
-156.706	-19.881	0.204	-0.125
-155.691	-32.186	0.148	0.082
-154.677	12.294	0.189	-0.144
-153.662	-111.503	-0.363	0.073
-152.647	9.529	0.140	0.105
-151.633	442.822	0.133	0.290
-150.618	800.000	0.068	0.213
-149.604	-200.000	-0.015	-0.108
-148.589	135.630	0.249	0.322
-147.574	-200.000	-0.039	0.322
-146.560	142.088	0.118	-0.155
-145.545	39.799	0.100	0.089
-144.531	-170.516	-0.091	-0.003
-143.516	800.000	-0.017	-0.073
-142.502	-95.071	0.167	-0.045
-141.487	800.000	0.052	-0.165
-140.472	-200.000	-0.010	-0.112
-139.458	206.519	-0.034	0.052
-138.443	212.733	-0.130	0.204
-137.429	110.485	0.318	0.379
-136.414	172.730	0.211	-0.301
-135.399	104.469	0.115	0.135
-134.385	417.221	0.064	-0.136
-133.370	800.000	-0.079	0.239
-132.356	158.649	0.050	0.069
-131.341	435.533	0.106	0.230
-130.326	-151.313	0.050	0.004
-129.312	66.334	-0.177	0.178
-128.297	136.958	0.079	-0.102
-127.283	-113.195	-0.145	-0.028
-126.268	-100.768	0.187	-0.046
-125.253	57.484	0.283	0.274
-124.239	326.893	-0.122	-0.232
-123.224	-200.000	0.019	0.131
-122.210	800.000	0.035	0.140
-121.195	-63.415	0.124	0.050
-120.180	113.363	-0.150	-0.181
