DTS Sentinel unit serial number:	SN413079Multiplexer serial number:	ORYXHardware model number:	OX4-SRSoftware version number:	ORYX F/W v4.00 Oryx Data Collector v3.7.2.0data status	okinstallation	princeton_trtdifferential loss correction	single-endedforward channel	channel 1reverse channel	N/Adate	2019/09/14time	12:54:35forward acquisition time	60.00reverse acquisition time	0.00gamma	496.2192k internal	0.2294k external	0.2294temperature offset calibration	1.0089default loss term (dB/km)	0.3790temperature slope calibration	1.0000multiplexer offset coefficient	1.0000multiplexer slope coefficient	1.0000fibre end	0.00T internal ref (°C)	38.00T ext. ref 1 (°C)	4.86T ext. ref 2 (°C)	34.11length (m)	temperature (°C)	Stokes	anti-Stokes-747.200	1.245	0.246	-0.181
-746.185	145.511	-0.211	0.289
-745.171	-200.000	0.032	-0.248
-744.156	-131.000	-0.092	-0.013
-743.142	234.322	0.030	-0.050
-742.127	183.028	0.135	0.204
-741.112	218.919	0.158	0.258
-740.098	800.000	0.127	0.490
-739.083	104.319	0.125	-0.150
-738.069	-58.141	-0.444	0.198
-737.054	93.015	0.013	0.015
-736.039	102.329	-0.039	0.047
-735.025	-56.924	0.106	-0.048
-734.010	380.802	0.013	-0.027
-732.996	76.826	-0.416	-0.452
-731.981	21.127	0.265	-0.220
-730.966	-200.000	0.026	0.172
-729.952	-200.000	0.066	-0.427
-728.937	-94.922	-0.272	0.075
-727.923	249.603	0.057	-0.098
-726.908	45.250	-0.232	-0.218
-725.894	83.234	-0.059	0.065
-724.879	129.519	-0.233	-0.305
-723.864	-152.058	-0.140	0.010
-722.850	132.443	-0.160	-0.210
-721.835	-200.000	0.004	-0.106
-720.821	34.311	-0.233	0.208
-719.806	-200.000	-0.008	-0.126
-718.791	0.508	-0.233	0.170
-717.777	-194.643	-0.237	0.002
-716.762	282.618	-0.110	-0.201
-715.748	-119.973	-0.433	-0.076
-714.733	-200.000	0.030	-0.233
-713.718	-96.385	-0.227	-0.061
-712.704	307.377	0.162	0.309
-711.689	800.000	0.024	-0.089
-710.675	-200.000	0.007	0.113
-709.660	800.000	-0.097	-0.327
-708.645	20.922	-0.152	-0.126
-707.631	-48.879	-0.315	-0.154
-706.616	126.096	0.062	-0.080
-705.602	68.792	-0.025	-0.026
-704.587	800.000	-0.039	-0.136
-703.572	-68.157	-0.318	-0.126
-702.558	195.146	0.114	0.176
-701.543	55.443	0.202	0.200
-700.529	-53.255	0.139	-0.065
-699.514	800.000	-0.031	-0.089
-698.499	182.318	-0.066	-0.100
-697.485	-92.101	-0.180	0.052
-696.470	237.846	0.090	-0.152
-695.456	-200.000	-0.025	0.191
-694.441	-115.098	-0.303	-0.059
-693.426	256.855	-0.143	0.251
-692.412	205.160	0.180	0.285
-691.397	-200.000	-0.039	-0.189
-690.383	-200.000	-0.037	0.000
-689.368	207.674	0.133	-0.212
-688.354	800.000	0.051	0.177
-687.339	-200.000	0.016	0.119
-686.324	-4.273	0.112	-0.079
-685.310	287.660	-0.089	0.164
-684.295	-120.081	-0.285	-0.050
-683.281	-200.000	0.033	-0.274
-682.266	23.133	0.107	0.090
-681.251	309.131	-0.148	-0.282
-680.237	-51.441	-0.086	0.041
-679.222	-26.659	0.247	0.147
-678.208	-200.000	-0.305	0.001
-677.193	-124.586	-0.090	0.014
-676.178	800.000	-0.106	-0.311
-675.164	579.686	0.018	0.044
-674.149	-95.669	0.122	0.033
-673.135	-80.130	-0.025	-0.009
-672.120	-49.816	0.234	-0.113
-671.105	8.168	-0.244	0.187
-670.091	557.428	0.089	0.219
-669.076	800.000	-0.094	-0.309
-668.062	-164.499	-0.428	-0.020
-667.047	-131.293	0.110	-0.015
-666.032	76.999	0.006	-0.006
-665.018	195.893	0.162	0.251
-664.003	-200.000	0.047	-0.292
-662.989	427.845	-0.044	0.097
-661.974	-122.126	-0.309	0.052
-660.959	-113.978	-0.131	0.026
-659.945	257.066	-0.168	-0.294
-658.930	-30.740	-0.351	-0.202
-657.916	570.836	-0.073	0.180
-656.901	205.352	0.169	-0.268
-655.886	11.760	0.195	0.153
-654.872	718.983	0.064	0.173
-653.857	131.935	-0.108	0.142
-652.843	-200.000	-0.011	-0.056
-651.828	587.327	-0.084	-0.210
-650.814	77.531	0.036	-0.039
-649.799	-67.861	-0.095	-0.038
-648.784	-79.909	0.140	0.048
-647.770	107.441	0.172	-0.209
-646.755	-200.000	0.029	-0.270
-645.741	-82.119	0.167	-0.056
-644.726	-111.398	-0.145	-0.030
-643.711	246.469	-0.093	-0.160
-642.697	-200.000	0.004	-0.044
-641.682	-140.398	-0.065	-0.007
-640.668	132.551	0.113	0.148
-639.653	-43.043	-0.067	0.035
-638.638	-33.700	-0.190	-0.107
-637.624	196.930	0.022	0.034
-636.609	0.232	0.173	0.126
-635.595	-148.228	0.298	-0.025
-634.580	-64.848	0.295	-0.122
-633.565	-132.831	-0.148	0.019
-632.551	-11.834	0.376	0.251
-631.536	-200.000	-0.034	-0.183
-630.522	702.012	0.060	0.160
-629.507	-121.873	0.140	0.024
-628.492	186.027	0.068	-0.103
-627.478	-71.176	-0.139	-0.053
-626.463	-200.000	-0.013	-0.104
-625.449	-183.221	-0.441	0.008
-624.434	-123.767	0.113	-0.018
-623.419	800.000	-0.081	-0.340
-622.405	800.000	-0.134	-0.426
-621.390	-200.000	-0.034	-0.164
-620.376	135.179	-0.144	0.190
-619.361	-200.000	-0.038	-0.208
-618.346	800.000	0.036	0.155
-617.332	-200.000	0.023	0.129
-616.317	800.000	-0.035	-0.101
-615.303	49.507	-0.292	-0.279
-614.288	461.687	0.081	0.184
-613.273	164.065	0.127	0.182
-612.259	-158.843	-0.075	-0.004
-611.244	-200.000	-0.017	-0.140
-610.230	71.372	0.290	-0.307
-609.215	143.554	0.073	-0.099
-608.201	104.449	0.229	0.274
-607.186	-130.937	-0.237	0.032
-606.171	-168.855	-0.120	0.005
-605.157	263.667	0.262	0.463
-604.142	-200.000	0.059	0.304
-603.128	-167.828	-0.110	-0.004
-602.113	147.792	0.089	-0.123
-601.098	-86.349	0.251	0.079
-600.084	-109.834	0.334	-0.071
-599.069	258.556	-0.164	0.288
-598.055	266.330	-0.082	-0.145
-597.040	-76.949	-0.057	0.020
-596.025	85.051	-0.190	-0.212
-595.011	31.540	-0.102	-0.089
-593.996	-116.704	0.395	0.074
-592.982	-130.236	-0.145	-0.020
-591.967	-200.000	0.063	0.467
-590.952	-0.266	-0.205	0.148
-589.938	-51.100	-0.073	-0.035
-588.923	518.832	-0.113	0.269
-587.909	-200.000	-0.033	-0.361
-586.894	539.811	-0.087	-0.210
-585.879	800.000	0.033	-0.102
-584.865	22.641	-0.198	-0.165
-583.850	-140.257	-0.273	0.029
-582.836	800.000	0.080	0.300
-581.821	263.274	0.063	-0.111
-580.806	-200.000	-0.004	0.231
-579.792	-59.622	0.089	-0.039
-578.777	519.159	-0.120	0.286
-577.763	800.000	-0.043	0.177
-576.748	297.771	0.019	-0.036
-575.733	-0.052	-0.147	0.107
-574.719	-200.000	-0.055	0.400
-573.704	393.531	-0.029	0.062
-572.690	-121.582	-0.218	-0.037
-571.675	-200.000	0.008	0.275
-570.661	54.130	-0.073	0.071
-569.646	-75.813	0.198	0.071
-568.631	-68.142	-0.208	-0.082
-567.617	20.030	-0.323	-0.264
-566.602	30.680	-0.120	-0.104
-565.588	-200.000	-0.004	-0.033
-564.573	-26.047	0.235	0.140
-563.558	203.467	-0.042	-0.065
-562.544	-200.000	0.044	-0.237
-561.529	155.771	-0.128	-0.179
-560.515	-105.446	-0.241	-0.056
-559.500	423.674	-0.139	0.304
-558.485	-84.840	-0.184	-0.059
-557.471	-200.000	0.029	0.247
-556.456	22.130	-0.296	-0.246
-555.442	-57.185	-0.335	-0.150
-554.427	273.357	0.114	0.205
-553.412	86.960	-0.103	-0.115
-552.398	-200.000	0.025	-0.325
-551.383	800.000	-0.051	0.222
-550.369	46.003	0.041	-0.039
-549.354	211.818	-0.097	-0.155
-548.339	82.094	0.142	0.156
-547.325	1.527	0.320	-0.234
-546.310	-78.597	0.235	0.082
-545.296	-63.087	-0.155	0.065
-544.281	800.000	0.132	0.406
-543.266	-189.411	-0.111	0.001
-542.252	95.996	0.254	-0.294
-541.237	674.296	0.072	-0.189
-540.223	204.347	-0.101	0.159
-539.208	-92.273	-0.092	0.026
-538.193	-151.208	0.251	0.019
-537.179	-81.582	-0.260	-0.087
-536.164	237.028	0.253	-0.425
-535.150	-155.204	-0.253	0.017
-534.135	-87.733	0.083	-0.026
-533.121	-200.000	0.001	-0.076
-532.106	-125.499	-0.205	-0.032
-531.091	328.360	-0.106	-0.206
-530.077	233.972	0.229	-0.382
-529.062	372.322	0.080	-0.165
-528.048	54.787	-0.129	-0.126
-527.033	-22.547	0.058	-0.036
-526.018	-141.375	-0.199	-0.020
-525.004	-183.617	0.221	0.004
-523.989	-27.230	-0.090	-0.053
-522.975	-2.845	-0.163	-0.116
-521.960	36.449	-0.304	-0.272
-520.945	-200.000	0.005	0.038
-519.931	-19.667	0.210	-0.131
-518.916	800.000	-0.060	-0.176
-517.902	115.792	0.014	-0.018
-516.887	-176.346	-0.265	-0.007
-515.872	-75.393	-0.642	-0.232
-514.858	-137.840	-0.156	-0.018
-513.843	2.769	0.113	-0.083
-512.829	-35.506	0.197	-0.108
-511.814	170.203	0.155	0.225
-510.799	-64.670	0.180	-0.074
-509.785	-200.000	-0.017	-0.110
-508.770	-113.213	0.190	-0.038
-507.756	-21.460	0.139	0.086
-506.741	-7.260	0.254	0.175
-505.726	-141.990	0.154	-0.016
-504.712	640.185	-0.090	0.233
-503.697	125.788	0.139	0.178
-502.683	59.510	0.217	-0.217
-501.668	-186.126	-0.028	-0.000
-500.653	37.808	-0.094	-0.084
-499.639	92.649	0.097	0.111
-498.624	35.282	-0.096	0.085
-497.610	-128.065	-0.185	-0.027
-496.595	194.012	0.217	0.333
-495.581	-200.000	-0.032	0.157
-494.566	233.183	0.031	0.051
-493.551	800.000	0.083	0.283
-492.537	629.077	-0.118	0.302
-491.522	-126.673	0.063	0.009
-490.508	-90.295	-0.195	0.057
-489.493	-47.055	0.041	0.020
-488.478	-200.000	0.011	0.048
-487.464	94.488	0.100	-0.115
-486.449	164.832	-0.145	0.207
-485.435	-171.879	0.343	0.011
-484.420	-200.000	-0.093	0.416
-483.405	-124.257	0.074	-0.012
-482.391	-71.642	0.090	-0.034
-481.376	800.000	-0.061	-0.224
-480.362	53.206	0.121	-0.117
-479.347	-15.589	-0.288	-0.186
-478.332	449.311	0.174	0.388
-477.318	-64.048	0.303	-0.125
-476.303	-11.879	0.125	-0.083
-475.289	800.000	0.070	0.250
-474.274	-200.000	-0.057	-0.321
-473.259	-40.545	-0.227	-0.119
-472.245	-9.753	0.162	-0.109
-471.230	489.556	0.120	0.278
-470.216	-0.082	0.333	0.240
-469.201	-200.000	0.005	-0.130
-468.186	-117.756	0.320	0.058
-467.172	-200.000	-0.020	0.293
-466.157	-63.797	0.246	0.102
-465.143	-32.710	0.118	-0.067
-464.128	-71.424	0.266	-0.101
-463.113	-200.000	0.013	-0.249
-462.099	-59.386	0.031	0.013
-461.084	19.052	0.343	0.278
-460.070	-181.205	-0.171	-0.003
-459.055	800.000	-0.029	0.088
-458.040	-64.737	0.119	-0.049
-457.026	-19.481	-0.258	-0.161
-456.011	13.539	0.300	0.235
-454.997	-200.000	-0.011	-0.063
-453.982	203.443	-0.216	-0.338
-452.968	-126.627	0.206	-0.031
-451.953	-115.585	-0.410	0.078
-450.938	-185.701	-0.271	-0.004
-449.924	-57.338	0.138	0.061
-448.909	-26.180	-0.350	-0.208
-447.895	140.364	-0.263	-0.350
-446.880	-200.000	0.013	-0.182
-445.865	-48.632	0.137	0.067
-444.851	133.905	-0.035	0.045
-443.836	-200.000	-0.050	-0.377
-442.822	800.000	0.059	0.215
-441.807	216.551	-0.029	-0.046
-440.792	168.740	0.038	-0.054
-439.778	-35.546	-0.286	-0.157
-438.763	98.862	-0.147	-0.172
-437.749	-87.778	0.147	-0.045
-436.734	8.070	-0.100	0.076
-435.719	-84.421	0.274	0.088
-434.705	476.843	-0.082	-0.187
-433.690	128.574	-0.252	0.325
-432.676	441.483	0.064	0.142
-431.661	-0.067	-0.230	-0.166
-430.646	143.236	0.089	-0.120
-429.632	-173.462	-0.205	-0.006
-428.617	800.000	-0.119	-0.338
-427.603	57.287	0.187	-0.185
-426.588	-166.524	0.068	0.003
-425.573	431.743	0.099	0.217
-424.559	-71.986	-0.078	0.029
-423.544	286.585	-0.180	0.328
-422.530	-111.247	-0.080	-0.017
-421.515	200.071	0.107	0.166
-420.500	800.000	-0.088	0.369
-419.486	-91.413	0.396	-0.114
-418.471	-83.708	0.423	0.136
-417.457	98.522	-0.238	-0.277
-416.442	-144.272	0.358	-0.034
-415.428	251.191	-0.093	0.159
-414.413	-200.000	0.037	0.179
-413.398	88.200	-0.148	0.165
-412.384	-177.153	-0.107	0.003
-411.369	-143.721	-0.126	0.012
-410.355	-13.870	0.143	-0.093
-409.340	118.775	-0.027	-0.034
-408.325	-200.000	-0.013	-0.150
-407.311	253.070	-0.062	0.106
-406.296	81.696	0.081	-0.088
-405.282	234.118	0.162	-0.269
-404.267	50.242	-0.247	-0.236
-403.252	-81.584	-0.135	0.045
-402.238	-79.431	-0.243	0.083
-401.223	446.451	0.017	-0.037
-400.209	-200.000	0.006	0.212
-399.194	-200.000	0.006	0.027
-398.179	-79.966	-0.110	0.037
-397.165	-108.478	-0.074	0.016
-396.150	-200.000	-0.002	-0.102
-395.136	-53.106	-0.371	-0.172
-394.121	512.577	0.107	0.251
-393.106	166.608	-0.083	-0.119
-392.092	-200.000	-0.075	-0.000
-391.077	11.120	-0.170	-0.131
-390.063	-200.000	0.061	0.441
-389.048	-77.476	-0.340	-0.119
-388.033	-144.663	-0.301	0.028
-387.019	-200.000	-0.026	-0.136
-386.004	-86.659	-0.099	0.030
-384.990	-96.048	0.134	-0.036
-383.975	53.965	-0.192	-0.186
-382.960	-62.411	0.048	-0.020
-381.946	37.760	-0.098	-0.087
-380.931	-200.000	-0.041	-0.190
-379.917	-28.141	0.199	0.116
-378.902	31.196	0.186	0.161
-377.888	-143.265	-0.030	-0.003
-376.873	-200.000	0.052	0.233
-375.858	-200.000	0.012	0.140
-374.844	-3.225	-0.196	0.137
-373.829	49.458	0.217	-0.205
-372.815	155.019	0.068	0.094
-371.800	-200.000	-0.008	-0.243
-370.785	393.911	-0.103	0.216
-369.771	1.473	-0.086	-0.063
-368.756	-85.148	0.284	0.090
-367.742	84.622	-0.267	0.295
-366.727	-200.000	-0.001	0.017
-365.712	-82.670	-0.141	-0.046
-364.698	-39.104	0.193	0.102
-363.683	-200.000	0.054	-0.357
-362.669	800.000	-0.116	-0.338
-361.654	355.363	0.147	-0.294
-360.639	800.000	0.083	0.235
-359.625	-94.416	-0.175	0.048
-358.610	75.737	0.104	0.110
-357.596	-117.382	0.265	0.048
-356.581	643.632	0.081	-0.208
-355.566	-107.940	0.326	0.071
-354.552	-86.343	-0.096	-0.030
-353.537	-95.148	-0.237	0.064
-352.523	-13.664	0.045	-0.029
-351.508	284.157	0.173	0.314
-350.493	127.164	-0.161	0.206
-349.479	50.644	-0.384	0.366
-348.464	-86.185	-0.209	0.065
-347.450	-200.000	0.030	0.169
-346.435	71.603	0.194	-0.203
-345.420	-161.409	0.094	-0.005
-344.406	13.912	0.303	-0.237
-343.391	-200.000	-0.037	0.407
-342.377	-29.727	0.239	0.137
-341.362	800.000	-0.052	0.201
-340.348	540.354	0.119	-0.285
-339.333	564.631	0.098	-0.238
-338.318	-116.775	0.197	0.036
-337.304	-85.815	0.295	-0.092
-336.289	-49.940	0.240	-0.115
-335.275	-200.000	0.002	-0.164
-334.260	92.201	-0.134	-0.152
-333.245	119.489	-0.135	-0.168
-332.231	-38.083	-0.150	-0.080
-331.216	800.000	-0.093	0.353
-330.202	-200.000	0.007	-0.087
-329.187	800.000	-0.122	-0.346
-328.172	265.945	0.085	0.150
-327.158	-200.000	0.034	0.226
-326.143	800.000	-0.077	-0.246
-325.129	289.373	-0.158	-0.288
-324.114	-200.000	0.032	0.234
-323.099	547.397	0.109	0.263
-322.085	-42.870	-0.129	-0.066
-321.070	-200.000	0.035	-0.203
-320.056	-107.250	-0.158	0.035
-319.041	36.839	-0.191	0.170
-318.026	800.000	-0.043	0.120
-317.012	800.000	-0.010	0.046
-315.997	-167.618	0.138	-0.006
-314.983	-62.759	0.215	0.090
-313.968	250.542	0.041	0.069
-312.953	184.974	0.073	-0.110
-311.939	800.000	-0.043	0.134
-310.924	395.253	-0.116	-0.243
-309.910	329.655	0.088	0.170
-308.895	73.915	0.135	0.142
-307.880	92.587	0.176	0.199
-306.866	86.375	-0.051	0.056
-305.851	-52.984	-0.138	0.064
-304.837	19.221	-0.083	0.067
-303.822	-166.988	0.214	-0.009
-302.807	-200.000	-0.025	0.450
-301.793	99.732	-0.141	0.164
-300.778	-200.000	-0.047	0.468
-299.764	369.122	-0.120	0.245
-298.749	226.804	-0.193	-0.315
-297.735	124.497	-0.164	0.207
-296.720	-87.680	-0.115	-0.035
-295.705	4.314	0.150	0.111
-294.691	218.560	0.118	0.189
-293.676	-113.154	-0.215	0.043
-292.662	-200.000	0.036	0.196
-291.647	800.000	-0.090	-0.292
-290.632	-68.712	0.205	0.080
-289.618	-89.812	0.274	0.081
-288.603	-63.316	-0.081	-0.033
-287.589	-200.000	0.010	-0.072
-286.574	501.113	0.057	0.133
-285.559	244.659	0.092	-0.156
-284.545	-200.000	-0.011	-0.262
-283.530	-36.725	0.230	-0.124
-282.516	-18.519	0.479	-0.300
-281.501	101.979	0.096	0.112
-280.486	-86.201	0.200	0.062
-279.472	-48.379	0.035	-0.017
-278.457	446.492	0.099	0.219
-277.443	162.090	0.020	-0.028
-276.428	286.247	0.084	0.152
-275.413	-68.301	0.161	0.063
-274.399	-200.000	0.005	0.284
-273.384	30.853	0.180	0.155
-272.370	-123.954	-0.245	-0.039
-271.355	56.405	-0.285	-0.278
-270.340	-135.216	-0.066	-0.008
-269.326	609.966	-0.045	0.114
-268.311	-69.161	0.095	0.037
-267.297	22.982	-0.094	0.077
-266.282	-63.891	0.167	-0.069
-265.267	-143.482	-0.256	-0.025
-264.253	800.000	-0.036	0.126
-263.238	17.626	-0.180	-0.143
-262.224	-93.537	0.232	0.064
-261.209	35.000	-0.082	0.072
-260.195	-200.000	-0.011	-0.176
-259.180	-101.941	-0.348	-0.084
-258.165	310.952	-0.094	0.176
-257.151	-90.657	0.118	0.034
-256.136	-200.000	0.002	0.227
-255.122	-200.000	-0.373	0.001
-254.107	-5.379	0.128	-0.089
-253.092	-200.000	0.046	-0.247
-252.078	-21.015	0.290	0.178
-251.063	22.196	-0.094	0.077
-250.049	-45.173	-0.209	0.104
-249.034	800.000	0.029	-0.113
-248.019	62.926	0.118	-0.118
-247.005	235.821	0.146	-0.242
-245.990	81.519	0.345	0.374
-244.976	471.191	0.051	0.115
-243.961	800.000	0.044	-0.134
-242.946	342.340	0.059	0.115
-241.932	-200.000	-0.017	0.141
-240.917	-200.000	-0.003	-0.196
-239.903	7.383	0.245	-0.183
-238.888	75.619	-0.112	0.119
-237.873	-200.000	-0.057	-0.419
-236.859	218.504	0.182	-0.291
-235.844	-181.537	0.135	-0.003
-234.830	-186.342	-0.399	0.006
-233.815	176.189	-0.045	0.066
-232.800	-98.382	-0.306	0.079
-231.786	94.319	0.075	-0.086
-230.771	241.394	-0.023	-0.039
-229.757	-78.909	-0.043	-0.015
-228.742	-200.000	-0.040	0.199
-227.727	-73.648	-0.156	-0.057
-226.713	84.958	0.297	0.326
-225.698	-62.397	0.212	-0.088
-224.684	182.712	0.164	-0.242
-223.669	800.000	0.072	-0.293
-222.655	800.000	-0.027	-0.116
-221.640	-77.154	0.191	0.067
-220.625	-60.319	-0.058	0.025
-219.611	398.725	-0.071	-0.150
-218.596	-55.774	0.182	0.082
-217.582	-94.852	-0.189	0.051
-216.567	237.024	0.134	-0.223
-215.552	-59.073	0.165	-0.071
-214.538	58.519	0.089	0.087
-213.523	529.594	-0.085	0.202
-212.509	-158.376	0.263	0.015
-211.494	-200.000	0.058	-0.370
-210.479	-88.237	-0.209	0.063
-209.465	-200.000	0.168	-0.000
-208.450	112.101	-0.038	0.046
-207.436	131.854	0.158	-0.204
-206.421	800.000	0.043	-0.183
-205.406	647.710	0.032	-0.081
-204.392	82.258	-0.237	0.258
-203.377	-57.319	-0.337	0.148
-202.363	36.136	-0.187	0.165
-201.348	-200.000	0.051	0.391
-200.333	-79.637	-0.390	0.132
-199.319	112.607	-0.160	0.193
-198.304	-162.662	0.194	-0.010
-197.290	211.707	0.047	-0.075
-196.275	-96.732	0.263	0.069
-195.260	2.453	-0.068	0.049
-194.246	800.000	-0.049	0.153
-193.231	-54.546	0.132	0.060
-192.217	-1.552	0.218	-0.154
-191.202	-200.000	-0.021	-0.092
-190.187	-43.687	0.197	0.099
-189.173	-81.845	0.379	0.124
-188.158	-33.491	-0.159	0.088
-187.144	-149.482	-0.095	-0.008
-186.129	-200.000	-0.013	-0.085
-185.114	241.951	-0.055	-0.093
-184.100	-78.698	-0.352	0.120
-183.085	-125.878	-0.077	0.012
-182.071	-89.008	-0.159	0.047
-181.056	-182.788	-0.500	-0.009
-180.042	120.319	0.041	0.051
-179.027	179.925	0.220	-0.322
-178.012	-200.000	-0.273	-0.000
-176.998	593.498	-0.107	0.264
-175.983	-75.530	-0.095	-0.034
-174.969	-132.220	0.266	-0.034
-173.954	27.695	-0.045	-0.038
-172.939	-66.362	-0.192	-0.076
-171.925	-200.000	-0.037	0.192
-170.910	-97.522	-0.253	-0.066
-169.896	-38.864	-0.227	0.120
-168.881	85.804	0.131	-0.145
-167.866	-108.703	-0.096	-0.021
-166.852	-200.000	0.005	-0.256
-165.837	140.795	0.139	-0.183
-164.823	108.322	0.113	0.135
-163.808	87.276	0.125	-0.139
-162.793	273.742	0.094	0.166
-161.779	-200.000	0.010	0.281
-160.764	157.146	0.073	-0.102
-159.750	800.000	0.118	-0.376
-158.735	169.364	-0.190	0.272
-157.720	-19.406	-0.111	0.069
-156.706	800.000	0.098	-0.299
-155.691	-108.482	0.347	-0.075
-154.677	-38.527	-0.192	-0.101
-153.662	-200.000	0.030	-0.168
-152.647	494.887	0.106	-0.242
-151.633	524.601	0.118	-0.277
-150.618	574.136	0.098	-0.240
-149.604	-106.150	-0.182	-0.041
-148.589	-40.942	0.102	0.052
-147.574	56.253	0.044	-0.043
-146.560	521.542	0.085	0.199
-145.545	417.900	-0.039	0.083
-144.531	102.511	-0.073	-0.085
-143.516	-75.421	0.214	0.076
-142.502	-63.466	-0.300	0.123
-141.487	57.878	-0.135	0.132
-140.472	-200.000	0.006	-0.053
-139.458	-15.861	-0.142	-0.091
-138.443	78.122	-0.078	-0.083
-137.429	-200.000	0.030	0.261
-136.414	800.000	0.061	-0.235
-135.399	-124.599	-0.213	0.033
-134.385	-200.000	0.031	-0.142
-133.370	458.621	0.030	0.066
-132.356	-110.862	-0.051	0.010
-131.341	-86.021	-0.107	-0.033
-130.326	-151.089	-0.142	-0.011
-129.312	166.818	-0.086	0.122
-128.297	-36.998	0.205	0.110
-127.283	-142.597	0.169	-0.017
-126.268	-91.297	-0.189	0.054
-125.253	225.058	0.058	0.094
-124.239	-125.659	-0.457	0.069
-123.224	136.117	-0.102	-0.132
-122.210	800.000	0.085	-0.277
