DTS Sentinel unit serial number:	SN413079Multiplexer serial number:	ORYXHardware model number:	OX4-SRSoftware version number:	ORYX F/W v4.00 Oryx Data Collector v3.7.2.0data status	okinstallation	princeton_trtdifferential loss correction	single-endedforward channel	channel 1reverse channel	N/Adate	2019/09/16time	15:34:35forward acquisition time	60.00reverse acquisition time	0.00gamma	496.2192k internal	0.2292k external	0.2292temperature offset calibration	0.9950default loss term (dB/km)	0.3790temperature slope calibration	1.0000multiplexer offset coefficient	1.0000multiplexer slope coefficient	1.0000fibre end	0.00T internal ref (°C)	41.17T ext. ref 1 (°C)	14.70T ext. ref 2 (°C)	36.90length (m)	temperature (°C)	Stokes	anti-Stokes-747.200	4.566	0.267	-0.201
-746.185	-103.101	0.152	-0.037
-745.171	-95.642	0.151	0.041
-744.156	-200.000	0.020	0.148
-743.142	382.630	-0.046	0.097
-742.127	-87.569	-0.293	0.091
-741.112	75.378	0.095	-0.103
-740.098	416.828	-0.048	-0.104
-739.083	148.922	0.120	-0.165
-738.069	21.845	-0.078	-0.065
-737.054	42.603	0.067	-0.062
-736.039	-143.505	0.223	0.022
-735.025	-113.376	0.038	0.008
-734.010	246.365	0.040	0.069
-732.996	12.140	0.135	-0.107
-731.981	-200.000	0.000	0.204
-730.966	-79.668	0.306	0.105
-729.952	-1.825	-0.112	-0.081
-728.937	31.476	-0.125	-0.110
-727.923	390.433	0.113	-0.240
-726.908	-200.000	0.047	-0.399
-725.894	-116.466	-0.337	-0.064
-724.879	224.669	0.181	-0.299
-723.864	800.000	-0.095	0.329
-722.850	-112.478	-0.071	0.015
-721.835	213.626	-0.132	-0.213
-720.821	-200.000	-0.004	-0.074
-719.806	657.079	0.160	-0.421
-718.791	-200.000	0.032	-0.300
-717.777	-25.846	-0.119	-0.072
-716.762	-46.392	0.363	-0.182
-715.748	597.002	0.062	0.158
-714.733	-137.718	-0.404	-0.046
-713.718	299.825	0.114	-0.215
-712.704	800.000	-0.084	-0.297
-711.689	-34.100	-0.119	0.067
-710.675	16.581	-0.097	0.079
-709.660	-97.401	0.349	-0.093
-708.645	-147.554	-0.346	-0.030
-707.631	99.301	0.132	0.156
-706.616	76.036	0.066	-0.071
-705.602	-200.000	-0.017	0.383
-704.587	800.000	0.039	0.132
-703.572	412.816	-0.132	0.287
-702.558	-43.132	0.137	-0.071
-701.543	429.147	0.041	0.091
-700.529	800.000	-0.032	0.136
-699.514	-35.819	0.181	0.100
-698.499	92.099	-0.139	0.160
-697.485	-59.900	0.287	0.126
-696.470	800.000	0.071	-0.298
-695.456	-104.891	-0.439	-0.103
-694.441	-145.360	-0.284	0.026
-693.426	-95.302	0.450	0.124
-692.412	-11.179	-0.343	0.231
-691.397	30.913	-0.164	-0.144
-690.383	165.602	-0.112	-0.161
-689.368	-200.000	0.039	-0.217
-688.354	800.000	-0.033	-0.098
-687.339	243.301	-0.060	-0.103
-686.324	323.294	-0.083	0.162
-685.310	-200.000	0.017	0.239
-684.295	22.252	-0.171	0.143
-683.281	-126.199	0.188	-0.029
-682.266	-101.653	0.105	0.026
-681.251	69.665	-0.162	0.171
-680.237	482.009	-0.153	-0.355
-679.222	136.284	-0.202	0.269
-678.208	242.865	0.005	-0.008
-677.193	-37.023	0.023	0.013
-676.178	43.069	0.072	0.067
-675.164	160.488	0.135	0.192
-674.149	-116.365	-0.623	-0.118
-673.135	-0.760	0.100	0.073
-672.120	800.000	-0.034	-0.120
-671.105	800.000	0.040	0.163
-670.091	-11.793	-0.098	0.066
-669.076	-107.434	-0.349	0.078
-668.062	130.460	0.324	0.424
-667.047	80.243	0.252	-0.277
-666.032	800.000	0.035	-0.134
-665.018	348.590	-0.166	-0.334
-664.003	-43.691	0.125	0.064
-662.989	358.985	-0.130	0.264
-661.974	69.914	0.084	0.089
-660.959	101.867	-0.094	0.112
-659.945	800.000	0.112	-0.436
-658.930	52.715	-0.161	0.157
-657.916	800.000	-0.120	0.479
-656.901	-102.517	0.229	0.056
-655.886	557.001	-0.086	0.212
-654.872	15.918	0.054	-0.043
-653.857	-94.959	0.202	-0.056
-652.843	800.000	0.010	-0.030
-651.828	-30.360	-0.158	-0.092
-650.814	-200.000	0.031	0.345
-649.799	56.121	0.087	-0.086
-648.784	-77.378	0.287	-0.102
-647.770	-152.379	-0.108	0.008
-646.755	-89.987	0.185	0.055
-645.741	635.221	0.032	-0.083
-644.726	286.562	-0.163	0.300
-643.711	158.136	0.130	0.184
-642.697	800.000	-0.096	-0.270
-641.682	800.000	-0.102	-0.410
-640.668	800.000	0.089	-0.277
-639.653	281.990	-0.074	0.136
-638.638	800.000	-0.010	-0.041
-637.624	-200.000	-0.003	0.094
-636.609	-124.685	0.074	-0.012
-635.595	-59.204	0.200	0.088
-634.580	-50.394	0.355	0.171
-633.565	229.241	-0.216	-0.360
-632.551	220.448	0.015	-0.025
-631.536	-99.525	0.192	-0.049
-630.522	-200.000	0.026	0.180
-629.507	-182.549	0.281	0.005
-628.492	124.578	-0.115	-0.148
-627.478	-5.330	-0.103	-0.072
-626.463	-198.497	-0.064	0.000
-625.449	800.000	-0.068	-0.197
-624.434	14.209	0.076	0.060
-623.419	-83.455	0.250	0.082
-622.405	-136.019	0.204	-0.024
-621.390	3.379	0.155	-0.115
-620.376	713.949	0.011	0.029
-619.361	27.248	0.230	0.197
-618.346	680.862	-0.061	-0.161
-617.332	130.471	-0.124	0.162
-616.317	199.303	-0.276	0.431
-615.303	800.000	-0.032	-0.140
-614.288	74.926	-0.334	-0.358
-613.273	800.000	0.061	-0.193
-612.259	108.263	-0.245	-0.298
-611.244	69.068	-0.306	0.320
-610.230	-120.495	-0.304	-0.053
-609.215	-200.000	-0.022	-0.156
-608.201	159.408	0.194	0.274
-607.186	84.295	0.124	0.139
-606.171	-200.000	-0.002	0.066
-605.157	-114.592	0.042	0.008
-604.142	-41.365	-0.175	-0.092
-603.128	-200.000	0.063	-0.364
-602.113	-200.000	0.010	-0.176
-601.098	-150.271	0.206	0.016
-600.084	-5.048	-0.289	-0.203
-599.069	-87.041	-0.202	-0.063
-598.055	47.041	-0.190	0.180
-597.040	6.436	0.303	0.229
-596.025	-13.355	0.247	0.163
-595.011	253.558	-0.047	-0.082
-593.996	-200.000	-0.039	0.319
-592.982	-99.614	-0.135	0.034
-591.967	-112.508	-0.172	0.035
-590.952	538.305	0.094	-0.228
-589.938	-84.551	0.191	0.061
-588.923	69.971	-0.061	-0.064
-587.909	800.000	-0.105	0.374
-586.894	-161.575	-0.078	0.004
-585.879	75.754	-0.190	0.204
-584.865	56.895	0.080	-0.080
-583.850	235.669	-0.118	-0.198
-582.836	0.937	0.134	-0.098
-581.821	800.000	0.030	-0.114
-580.806	128.339	-0.137	0.177
-579.792	-200.000	-0.004	-0.078
-578.777	311.161	0.132	-0.251
-577.763	227.598	-0.273	-0.451
-576.748	-126.324	-0.162	0.025
-575.733	-141.807	0.202	0.021
-574.719	441.167	0.061	-0.135
-573.704	86.504	-0.082	0.092
-572.690	-138.408	0.080	-0.009
-571.675	761.623	-0.104	-0.288
-570.661	216.256	0.096	-0.156
-569.646	20.979	0.283	0.233
-568.631	-47.656	0.142	0.070
-567.617	101.996	0.111	0.131
-566.602	-200.000	-0.011	-0.157
-565.588	11.981	-0.088	0.069
-564.573	62.091	0.166	-0.168
-563.558	-102.903	-0.163	-0.039
-562.544	-200.000	0.012	-0.254
-561.529	254.556	0.073	-0.127
-560.515	393.011	0.054	-0.114
-559.500	507.797	0.097	-0.229
-558.485	10.885	-0.335	-0.260
-557.471	-110.314	0.175	-0.037
-556.456	149.120	0.238	-0.327
-555.442	-177.566	0.267	-0.007
-554.427	-200.000	0.012	0.097
-553.412	-13.538	0.176	-0.116
-552.398	-75.075	0.219	-0.080
-551.383	800.000	0.037	0.159
-550.369	-57.191	-0.297	0.133
-549.354	-96.203	0.230	0.062
-548.339	-200.000	0.008	-0.061
-547.325	11.574	0.373	-0.290
-546.310	-132.834	-0.232	0.030
-545.296	-51.169	-0.224	-0.107
-544.281	71.214	0.089	0.093
-543.266	-163.110	-0.165	0.008
-542.252	123.652	-0.208	-0.265
-541.237	657.613	-0.099	0.258
-540.223	-99.290	0.343	-0.088
-539.208	-200.000	0.048	-0.524
-538.193	6.835	0.130	-0.098
-537.179	-200.000	0.011	0.169
-536.164	-42.173	-0.218	-0.113
-535.150	118.282	0.083	-0.104
-534.135	-200.000	-0.028	0.362
-533.121	-48.036	0.338	0.166
-532.106	81.382	-0.014	0.015
-531.091	-119.776	-0.152	0.027
-530.077	-15.594	0.131	0.085
-529.062	75.058	0.208	-0.222
-528.048	204.228	-0.044	0.070
-527.033	-76.320	0.235	-0.084
-526.018	800.000	0.031	0.110
-525.004	367.000	-0.074	0.152
-523.989	23.391	0.186	-0.155
-522.975	800.000	-0.059	-0.204
-521.960	247.284	0.290	-0.497
-520.945	683.017	0.078	-0.206
-519.931	43.238	0.070	-0.065
-518.916	34.544	-0.032	0.028
-517.902	16.221	-0.206	-0.164
-516.887	-200.000	0.007	0.030
-515.872	800.000	-0.172	0.511
-514.858	800.000	-0.079	-0.232
-513.843	745.280	-0.092	-0.252
-512.829	-41.620	0.198	0.103
-511.814	55.756	0.313	-0.308
-510.799	47.948	-0.185	0.175
-509.785	-104.772	-0.190	-0.044
-508.770	-122.728	0.279	-0.046
-507.756	675.368	0.088	0.233
-506.741	96.529	-0.213	0.247
-505.726	800.000	0.046	0.161
-504.712	615.732	-0.034	0.087
-503.697	-10.526	-0.256	0.172
-502.683	-69.274	-0.213	-0.083
-501.668	-124.015	0.190	0.030
-500.653	-141.247	0.178	0.018
-499.639	-51.142	-0.334	0.159
-498.624	155.734	0.136	-0.189
-497.610	-74.940	0.240	0.087
-496.595	184.901	0.024	0.036
-495.581	-13.424	-0.232	0.152
-494.566	547.784	0.045	-0.109
-493.551	-146.260	-0.061	-0.005
-492.537	246.514	0.072	-0.124
-491.522	-200.000	-0.020	-0.187
-490.508	-60.375	-0.279	0.120
-489.493	-200.000	-0.008	-0.165
-488.478	122.286	0.179	-0.226
-487.464	-11.127	-0.199	0.133
-486.449	-103.259	0.212	0.051
-485.435	440.546	0.090	0.199
-484.420	-200.000	-0.079	-0.354
-483.405	-200.000	-0.028	0.191
-482.391	-4.284	-0.228	0.160
-481.376	-47.631	0.153	-0.075
-480.362	800.000	0.019	-0.077
-479.347	-17.064	0.123	-0.079
-478.332	175.535	0.108	-0.159
-477.318	246.340	-0.067	-0.114
-476.303	644.087	-0.077	-0.199
-475.289	39.324	-0.091	0.082
-474.274	-200.000	-0.008	0.158
-473.259	171.716	-0.055	0.080
-472.245	-2.888	-0.183	-0.130
-471.230	171.636	-0.090	0.131
-470.216	-200.000	-0.019	-0.215
-469.201	-17.544	-0.177	0.112
-468.186	-132.393	-0.388	-0.051
-467.172	224.353	0.164	0.268
-466.157	93.584	0.123	0.141
-465.143	-200.000	-0.006	-0.382
-464.128	82.572	-0.275	0.302
-463.113	496.362	-0.052	0.121
-462.099	-143.025	-0.068	-0.007
-461.084	-200.000	0.017	0.183
-460.070	103.364	0.014	-0.017
-459.055	22.101	-0.293	-0.242
-458.040	-200.000	0.030	0.221
-457.026	-3.005	0.181	0.128
-456.011	800.000	0.028	-0.120
-454.997	-146.753	-0.329	-0.029
-453.982	-160.044	0.249	0.014
-452.968	-200.000	0.006	-0.196
-451.953	198.172	-0.190	0.295
-450.938	105.763	0.044	0.052
-449.924	191.114	-0.119	0.181
-448.909	-200.000	0.012	0.096
-447.895	125.321	-0.100	0.128
-446.880	243.628	-0.116	0.197
-445.865	-90.872	0.083	-0.024
-444.851	-14.671	0.267	0.174
-443.836	355.236	-0.050	-0.101
-442.822	800.000	-0.060	0.205
-441.807	-50.251	0.413	-0.197
-440.792	139.395	0.026	-0.035
-439.778	594.477	-0.031	-0.076
-438.763	-200.000	0.004	-0.458
-437.749	-200.000	-0.028	0.253
-436.734	-69.261	-0.270	-0.105
-435.719	-92.798	-0.139	-0.039
-434.705	402.591	-0.043	0.091
-433.690	-65.869	0.190	-0.077
-432.676	259.143	0.070	-0.123
-431.661	21.300	0.205	-0.168
-430.646	-200.000	-0.015	0.085
-429.632	-114.778	-0.419	0.081
-428.617	-145.502	-0.240	-0.022
-427.603	-13.564	-0.327	0.214
-426.588	220.955	0.181	0.294
-425.573	-200.000	0.016	0.212
-424.559	51.913	0.257	0.248
-423.544	103.809	0.355	-0.422
-422.530	800.000	-0.060	-0.224
-421.515	-159.130	0.191	0.011
-420.500	70.974	-0.240	-0.252
-419.486	-200.000	0.060	-0.296
-418.471	56.828	0.106	0.104
-417.457	564.568	0.071	-0.175
-416.442	247.910	-0.083	-0.142
-415.428	-101.374	-0.416	0.102
-414.413	-200.000	0.043	0.262
-413.398	-200.000	0.029	0.149
-412.384	-99.311	-0.255	0.065
-411.369	254.241	-0.126	0.217
-410.355	-132.805	-0.341	0.044
-409.340	-32.392	0.211	-0.119
-408.325	114.511	0.065	-0.080
-407.311	-10.897	-0.107	-0.071
-406.296	-200.000	0.011	-0.102
-405.282	573.001	-0.085	0.209
-404.267	-62.503	0.448	0.188
-403.252	-165.976	0.050	-0.002
-402.238	-142.650	-0.245	-0.024
-401.223	-61.434	-0.158	-0.067
-400.209	800.000	-0.044	-0.179
-399.194	-158.678	0.150	-0.009
-398.179	59.786	-0.123	-0.123
-397.165	6.482	-0.196	0.147
-396.150	-0.249	0.111	0.079
-395.136	-29.485	-0.126	0.073
-394.121	557.473	0.131	0.318
-393.106	-165.395	0.270	0.012
-392.092	-124.100	0.146	0.023
-391.077	-26.760	0.225	0.133
-390.063	-52.661	0.294	0.137
-389.048	168.244	0.306	0.440
-388.033	470.651	-0.040	-0.090
-387.019	161.436	-0.231	0.326
-386.004	-171.048	0.336	-0.012
-384.990	348.340	-0.073	-0.145
-383.975	-200.000	0.054	0.374
-382.960	-149.019	0.078	0.006
-381.946	-200.000	-0.077	0.367
-380.931	-200.000	-0.015	0.145
-379.917	-132.461	-0.361	-0.047
-378.902	-108.334	-0.189	0.041
-377.888	454.425	0.057	0.127
-376.873	-200.000	-0.030	-0.245
-375.858	-200.000	0.030	0.196
-374.844	-110.339	-0.390	0.082
-373.829	-107.715	-0.218	0.048
-372.815	-74.074	0.189	0.069
-371.800	-98.891	0.253	0.065
-370.785	35.416	0.085	-0.075
-369.771	-124.170	0.062	0.010
-368.756	-49.495	-0.481	-0.231
-367.742	-147.909	-0.132	-0.011
-366.727	51.490	-0.189	0.181
-365.712	-104.749	0.252	-0.058
-364.698	-50.216	0.156	-0.075
-363.683	800.000	0.087	0.288
-362.669	800.000	-0.026	-0.090
-361.654	285.774	-0.186	-0.339
-360.639	-85.881	-0.296	0.092
-359.625	181.815	-0.164	0.243
-358.610	97.634	-0.151	0.175
-357.596	-40.698	-0.102	-0.053
-356.581	-46.482	-0.166	0.082
-355.566	158.222	0.240	0.336
-354.552	15.762	0.074	0.058
-353.537	-64.854	0.134	-0.055
-352.523	-12.707	-0.185	0.122
-351.508	-8.105	-0.274	0.186
-350.493	800.000	-0.078	0.310
-349.479	33.663	0.068	-0.060
-348.464	-173.698	-0.052	0.002
-347.450	-120.685	0.286	0.049
-346.435	-173.271	-0.114	-0.003
-345.420	187.304	0.102	0.153
-344.406	-114.440	0.121	0.024
-343.391	-118.798	0.208	-0.037
-342.377	-5.092	-0.182	-0.126
-341.362	-38.737	-0.363	0.193
-340.348	151.979	0.252	0.346
-339.333	-10.818	-0.167	0.111
-338.318	-200.000	-0.018	-0.090
-337.304	-200.000	0.003	-0.129
-336.289	-140.665	-0.300	0.031
-335.275	-50.613	0.137	0.065
-334.260	47.892	0.057	0.054
-333.245	-108.634	0.173	0.037
-332.231	49.543	0.226	-0.214
-331.216	-100.436	0.184	-0.046
-330.202	-162.906	0.129	-0.006
-329.187	272.888	-0.072	-0.128
-328.172	-141.564	-0.446	0.045
-327.158	388.933	-0.067	0.140
-326.143	-200.000	-0.042	0.355
-325.129	-48.875	0.370	-0.179
-324.114	62.529	0.328	-0.330
-323.099	-139.085	0.156	0.017
-322.085	32.741	0.065	-0.057
-321.070	-200.000	-0.046	-0.329
-320.056	-185.629	0.103	-0.002
-319.041	-76.737	-0.212	-0.075
-318.026	-200.000	-0.047	-0.283
-317.012	508.703	-0.054	-0.126
-315.997	800.000	-0.043	0.171
-314.983	210.746	0.116	0.183
-313.968	104.976	-0.147	0.174
-312.953	-200.000	0.032	0.304
-311.939	-200.000	-0.004	0.054
-310.924	-13.604	0.070	0.046
-309.910	-200.000	0.007	0.068
-308.895	-34.365	-0.388	0.214
-307.880	-122.097	0.018	-0.003
-306.866	-200.000	-0.010	-0.168
-305.851	-49.509	-0.287	0.137
-304.837	-200.000	-0.056	0.280
-303.822	-125.594	0.221	-0.034
-302.807	-61.500	-0.329	-0.139
-301.793	-152.189	-0.296	-0.022
-300.778	-12.255	-0.338	-0.222
-299.764	497.998	0.072	-0.168
-298.749	-200.000	-0.003	0.043
-297.735	-62.206	-0.082	0.034
-296.720	74.270	0.192	0.202
-295.705	55.491	-0.035	-0.034
-294.691	75.501	-0.133	-0.141
-293.676	-155.968	0.185	0.012
-292.662	-200.000	-0.018	-0.225
-291.647	144.012	-0.184	0.247
-290.632	153.990	-0.088	-0.121
-289.618	-45.556	0.186	0.092
-288.603	53.228	-0.067	-0.065
-287.589	800.000	0.025	0.074
-286.574	-121.150	0.068	-0.011
-285.559	33.666	0.234	-0.205
-284.545	254.004	0.171	0.293
-283.530	627.037	-0.046	0.116
-282.516	-176.457	-0.095	-0.002
-281.501	-200.000	0.012	-0.238
-280.486	24.505	0.065	0.054
-279.472	-87.727	0.126	-0.038
-278.457	800.000	0.016	0.053
-277.443	81.509	-0.068	-0.074
-276.428	-86.229	0.246	0.076
-275.413	-33.048	0.165	0.092
-274.399	-85.795	-0.021	-0.007
-273.384	800.000	0.051	0.152
-272.370	800.000	-0.062	-0.176
-271.355	-167.834	0.103	-0.004
-270.340	800.000	0.064	0.249
-269.326	265.602	-0.152	0.267
-268.311	117.610	0.065	-0.081
-267.297	-135.397	0.093	-0.011
-266.282	-41.775	0.162	-0.084
-265.267	339.311	-0.206	-0.403
-264.253	212.200	-0.062	0.098
-263.238	-200.000	0.031	0.319
-262.224	685.853	-0.094	0.246
-261.209	-109.477	-0.378	-0.080
-260.195	-59.808	-0.184	-0.079
-259.180	-36.193	0.310	-0.168
-258.165	217.014	0.054	-0.086
-257.151	-14.438	0.102	-0.066
-256.136	800.000	0.059	0.198
-255.122	-200.000	-0.023	0.114
-254.107	-200.000	-0.047	-0.230
-253.092	215.138	0.119	-0.190
-252.078	21.861	0.276	0.226
-251.063	800.000	0.063	0.177
-250.049	87.659	0.231	0.256
-249.034	-14.098	-0.044	0.029
-248.019	-75.495	0.162	-0.058
-247.005	-97.361	0.191	0.050
-245.990	-60.770	-0.121	-0.051
-244.976	-19.483	-0.073	-0.045
-243.961	-62.468	-0.158	0.066
-242.946	-200.000	0.055	0.287
-241.932	452.075	0.023	0.052
-240.917	210.635	0.080	-0.126
-239.903	70.230	-0.158	0.164
-238.888	46.632	-0.020	0.019
-237.873	404.822	0.130	-0.275
-236.859	800.000	-0.051	0.159
-235.844	-200.000	-0.021	-0.376
-234.830	-145.213	-0.185	-0.017
-233.815	40.500	-0.093	0.084
-232.800	103.047	0.179	-0.210
-231.786	800.000	0.099	-0.376
-230.771	12.303	0.144	0.111
-229.757	-13.033	0.097	0.064
-228.742	-70.150	0.155	-0.059
-227.727	-53.779	-0.251	0.115
-226.713	-45.236	0.132	-0.066
-225.698	-134.194	0.134	-0.017
-224.684	-73.794	0.244	-0.089
-223.669	40.352	0.151	-0.136
-222.655	-53.620	-0.324	-0.148
-221.640	786.550	0.082	0.227
-220.625	126.586	0.029	-0.037
-219.611	447.973	-0.067	-0.148
-218.596	-64.689	-0.346	-0.141
-217.582	40.009	-0.194	-0.175
-216.567	800.000	0.051	-0.178
-215.552	-55.921	0.206	0.092
-214.538	-130.148	-0.069	-0.009
-213.523	-175.320	0.101	-0.003
-212.509	800.000	0.021	0.071
-211.494	25.227	0.220	0.183
-210.479	502.607	0.082	-0.189
-209.465	-200.000	0.082	-0.507
-208.450	800.000	0.031	0.100
-207.436	-109.352	0.283	0.060
-206.421	-200.000	0.053	-0.393
-205.406	264.307	0.119	0.208
-204.392	-124.032	0.247	0.039
-203.377	190.107	-0.087	-0.131
-202.363	111.619	0.174	-0.211
-201.348	-59.889	0.219	0.094
-200.333	128.831	-0.129	-0.165
-199.319	125.649	0.093	0.117
-198.304	-85.157	0.208	0.065
-197.290	-200.000	-0.296	0.000
-196.275	232.109	0.116	0.190
-195.260	-57.540	0.044	0.019
-194.246	800.000	-0.029	-0.082
-193.231	-125.539	0.083	0.013
-192.217	800.000	-0.060	0.183
-191.202	-126.851	-0.527	-0.078
-190.187	-29.667	-0.369	-0.211
-189.173	-83.693	-0.173	-0.055
-188.158	-10.717	0.322	-0.213
-187.144	303.937	0.025	0.046
-186.129	800.000	-0.045	0.178
-185.114	-106.974	-0.244	-0.054
-184.100	800.000	-0.070	-0.198
-183.085	-161.603	-0.097	-0.005
-182.071	541.775	-0.116	-0.278
-181.056	-44.785	-0.102	0.051
-180.042	-200.000	0.036	0.306
-179.027	25.878	0.023	0.019
-178.012	145.226	0.283	-0.380
-176.998	-200.000	0.066	-0.344
-175.983	47.293	0.346	0.323
-174.969	241.647	0.123	0.206
-173.954	-105.632	-0.171	0.039
-172.939	-96.453	-0.332	-0.088
-171.925	75.929	0.092	-0.097
-170.910	16.643	-0.358	0.283
-169.896	248.812	0.092	-0.156
-168.881	-18.770	-0.206	-0.128
-167.866	-200.000	-0.040	0.181
-166.852	-80.603	-0.154	0.051
-165.837	539.162	0.041	0.097
-164.823	-155.977	-0.221	-0.014
-163.808	786.543	-0.124	0.341
-162.793	-200.000	-0.044	-0.315
-161.779	404.444	-0.042	0.088
-160.764	127.933	0.087	0.110
-159.750	800.000	0.050	0.189
-158.735	60.527	0.062	-0.061
-157.720	-200.000	-0.008	0.218
-156.706	-136.407	0.247	0.029
-155.691	-200.000	0.028	-0.283
-154.677	800.000	0.080	0.336
-153.662	-92.781	0.108	-0.030
-152.647	129.653	-0.214	-0.274
-151.633	-200.000	0.053	0.253
-150.618	800.000	0.075	-0.236
-149.604	51.749	0.091	0.086
-148.589	37.469	-0.253	0.225
-147.574	49.175	-0.197	-0.186
-146.560	-72.021	-0.262	-0.097
-145.545	227.376	0.079	-0.129
-144.531	-49.798	-0.110	-0.052
-143.516	-13.840	-0.158	0.102
-142.502	285.859	0.186	0.335
-141.487	731.714	-0.046	-0.122
-140.472	712.195	-0.024	0.063
-139.458	337.888	-0.109	-0.212
-138.443	-111.061	0.269	-0.055
-137.429	-75.473	0.146	-0.052
-136.414	-82.937	0.207	0.067
-135.399	800.000	-0.083	-0.314
-134.385	143.179	0.203	-0.270
-133.370	-36.121	0.039	0.021
-132.356	561.680	0.077	-0.186
-131.341	650.132	0.101	-0.257
-130.326	-200.000	0.008	0.111
-129.312	613.768	0.090	0.226
-128.297	185.202	-0.193	0.286
-127.283	800.000	-0.077	0.313
-126.268	35.877	-0.087	0.077
-125.253	40.556	-0.211	-0.190
-124.239	59.432	-0.403	0.397
-123.224	-24.346	-0.203	0.121
-122.210	-200.000	-0.019	-0.442
-121.195	41.621	-0.259	0.234
