DTS Sentinel unit serial number:	SN413079Multiplexer serial number:	ORYXHardware model number:	OX4-SRSoftware version number:	ORYX F/W v4.00 Oryx Data Collector v3.7.2.0data status	okinstallation	princeton_trtdifferential loss correction	single-endedforward channel	channel 1reverse channel	N/Adate	2019/09/15time	02:34:35forward acquisition time	60.00reverse acquisition time	0.00gamma	496.2192k internal	0.2323k external	0.2323temperature offset calibration	0.9983default loss term (dB/km)	0.3790temperature slope calibration	1.0000multiplexer offset coefficient	1.0000multiplexer slope coefficient	1.0000fibre end	0.00T internal ref (°C)	31.50T ext. ref 1 (°C)	4.57T ext. ref 2 (°C)	25.85length (m)	temperature (°C)	Stokes	anti-Stokes-747.200	-111.857	0.324	-0.066
-746.185	0.761	0.287	0.208
-745.171	-200.000	-0.058	0.301
-744.156	-84.415	-0.217	0.069
-743.142	-200.000	0.017	-0.095
-742.127	-200.000	0.048	0.329
-741.112	24.277	0.154	-0.128
-740.098	637.360	-0.077	0.198
-739.083	-26.566	-0.218	0.129
-738.069	-107.507	-0.223	0.049
-737.054	96.908	-0.203	-0.235
-736.039	412.110	-0.032	0.069
-735.025	800.000	-0.054	-0.172
-734.010	544.040	-0.114	-0.274
-732.996	15.079	-0.160	-0.127
-731.981	60.302	0.170	-0.169
-730.966	76.339	-0.182	-0.194
-729.952	590.721	-0.140	-0.349
-728.937	-56.113	-0.055	0.025
-727.923	800.000	0.069	0.229
-726.908	-113.957	-0.086	-0.017
-725.894	-200.000	0.039	-0.603
-724.879	731.867	0.029	0.080
-723.864	-117.738	0.443	-0.080
-722.850	95.254	0.084	0.096
-721.835	70.222	-0.133	0.138
-720.821	-91.579	-0.201	-0.058
-719.806	-84.981	-0.359	-0.114
-718.791	133.989	0.308	-0.402
-717.777	528.312	0.102	-0.242
-716.762	-84.811	-0.107	-0.034
-715.748	140.458	-0.244	-0.325
-714.733	-200.000	0.018	-0.404
-713.718	41.199	-0.320	-0.292
-712.704	-18.516	0.124	0.078
-711.689	372.395	0.044	-0.091
-710.675	419.855	0.104	0.225
-709.660	55.428	-0.159	-0.156
-708.645	-63.396	0.167	0.069
-707.631	-91.064	0.376	0.109
-706.616	800.000	-0.039	-0.123
-705.602	-109.366	-0.286	0.061
-704.587	276.464	-0.018	-0.031
-703.572	-200.000	0.045	-0.290
-702.558	166.685	-0.092	0.132
-701.543	-190.601	-0.147	0.002
-700.529	-87.455	0.312	-0.095
-699.514	-22.674	-0.162	0.099
-698.499	-72.380	-0.062	-0.023
-697.485	-200.000	0.029	0.130
-696.470	-106.616	0.130	0.029
-695.456	-101.821	-0.115	-0.028
-694.441	366.094	0.050	0.101
-693.426	158.152	0.226	-0.316
-692.412	-66.177	-0.326	-0.131
-691.397	-98.040	0.139	0.036
-690.383	-17.294	0.262	0.166
-689.368	290.959	0.092	-0.169
-688.354	32.188	0.051	-0.044
-687.339	-58.703	-0.160	-0.070
-686.324	460.815	0.178	-0.399
-685.310	736.779	0.039	-0.105
-684.295	455.466	-0.032	0.072
-683.281	-200.000	-0.022	-0.228
-682.266	190.090	0.115	0.175
-681.251	18.869	0.214	0.173
-680.237	-11.389	-0.170	-0.113
-679.222	-106.671	-0.420	0.094
-678.208	-43.137	0.174	0.089
-677.193	-135.863	-0.108	-0.013
-676.178	800.000	0.101	-0.321
-675.164	144.250	0.200	-0.269
-674.149	22.399	-0.278	0.229
-673.135	800.000	0.040	-0.173
-672.120	244.501	-0.046	-0.077
-671.105	-200.000	-0.045	-0.296
-670.091	-114.100	-0.206	0.040
-669.076	437.109	-0.057	-0.124
-668.062	262.831	0.105	-0.184
-667.047	-200.000	0.005	-0.263
-666.032	226.248	0.390	-0.636
-665.018	30.842	-0.139	-0.120
-664.003	-124.848	-0.068	-0.011
-662.989	147.018	-0.181	-0.245
-661.974	245.201	-0.056	-0.095
-660.959	-23.137	-0.079	0.048
-659.945	-200.000	-0.068	-0.370
-658.930	-200.000	-0.003	-0.244
-657.916	52.814	-0.183	0.176
-656.901	304.412	-0.034	-0.063
-655.886	800.000	0.077	0.313
-654.872	482.084	-0.198	-0.454
-653.857	-13.280	-0.209	-0.136
-652.843	-44.017	0.060	0.030
-651.828	-174.879	0.099	0.003
-650.814	-95.809	0.174	-0.047
-649.799	800.000	0.043	-0.187
-648.784	-138.285	0.046	0.005
-647.770	-12.145	-0.381	-0.251
-646.755	-200.000	-0.049	-0.273
-645.741	-200.000	-0.116	0.640
-644.726	91.457	-0.236	0.266
-643.711	376.575	-0.053	0.109
-642.697	-132.057	-0.397	-0.052
-641.682	330.053	-0.078	0.152
-640.668	-164.068	-0.125	-0.006
-639.653	37.525	0.170	-0.152
-638.638	79.463	0.152	-0.163
-637.624	54.424	0.045	-0.044
-636.609	-93.343	0.213	0.059
-635.595	36.097	-0.177	-0.156
-634.580	33.117	-0.127	-0.111
-633.565	-153.210	-0.238	0.017
-632.551	5.290	0.023	-0.017
-631.536	-60.593	0.105	-0.045
-630.522	22.507	-0.153	-0.126
-629.507	183.464	-0.042	-0.063
-628.492	-200.000	-0.021	-0.233
-627.478	-200.000	0.031	0.141
-626.463	800.000	-0.062	-0.226
-625.449	-121.961	-0.402	-0.066
-624.434	4.005	-0.260	-0.191
-623.419	-112.248	-0.185	-0.037
-622.405	-200.000	-0.028	0.245
-621.390	-29.806	0.170	0.097
-620.376	257.001	0.113	-0.195
-619.361	103.843	0.170	0.201
-618.346	19.689	-0.196	0.158
-617.332	-200.000	-0.118	-0.000
-616.317	-200.000	-0.027	0.212
-615.303	-82.342	-0.073	0.024
-614.288	-66.153	-0.201	-0.080
-613.273	342.736	-0.138	0.271
-612.259	-121.599	0.023	-0.004
-611.244	-164.388	0.110	-0.005
-610.230	-200.000	0.013	0.092
-609.215	59.000	0.267	-0.264
-608.201	139.616	0.036	-0.047
-607.186	-88.973	0.103	0.031
-606.171	-39.222	-0.192	-0.101
-605.157	-117.231	-0.250	0.046
-604.142	185.431	0.088	0.131
-603.128	-76.232	-0.041	0.015
-602.113	-200.000	-0.063	-0.390
-601.098	80.281	0.026	0.028
-600.084	-82.698	-0.162	-0.053
-599.069	27.254	0.102	0.086
-598.055	-78.049	0.131	-0.045
-597.040	-150.045	0.258	-0.020
-596.025	-59.464	-0.232	-0.100
-595.011	-200.000	0.006	0.110
-593.996	624.581	0.008	-0.019
-592.982	47.941	0.045	0.042
-591.967	-119.316	-0.392	0.069
-590.952	-178.791	-0.304	0.007
-589.938	308.918	-0.117	0.220
-588.923	-144.384	0.486	-0.045
-587.909	211.092	0.077	0.122
-586.894	-77.467	-0.135	-0.047
-585.879	-200.000	0.023	0.117
-584.865	105.022	0.048	0.057
-583.850	-58.140	-0.319	-0.140
-582.836	800.000	-0.071	0.227
-581.821	94.080	-0.118	-0.135
-580.806	-192.853	-0.194	0.002
-579.792	-180.674	-0.113	0.002
-578.777	-200.000	-0.028	-0.153
-577.763	-200.000	0.076	-0.372
-576.748	-162.388	0.131	-0.007
-575.733	-151.712	0.126	0.009
-574.719	-34.174	0.061	0.034
-573.704	202.514	-0.046	0.071
-572.690	400.494	0.051	-0.108
-571.675	-59.590	0.076	-0.033
-570.661	-100.441	-0.386	0.096
-569.646	-149.754	0.330	-0.026
-568.631	-76.221	-0.115	0.041
-567.617	-6.352	-0.203	-0.139
-566.602	800.000	0.009	-0.036
-565.588	-48.451	-0.110	-0.053
-564.573	-97.511	0.210	-0.055
-563.558	1.971	0.190	0.137
-562.544	98.749	0.181	-0.209
-561.529	195.251	-0.075	-0.114
-560.515	-200.000	-0.001	0.007
-559.500	39.797	0.053	-0.047
-558.485	-140.397	-0.224	0.023
-557.471	-49.978	-0.159	0.076
-556.456	-98.022	0.197	0.051
-555.442	-78.288	0.404	0.139
-554.427	71.816	-0.280	0.291
-553.412	800.000	0.048	-0.151
-552.398	-98.456	0.142	-0.036
-551.383	248.545	0.144	-0.244
-550.369	800.000	-0.026	0.094
-549.354	-130.120	0.142	0.019
-548.339	-67.612	-0.188	0.074
-547.325	-200.000	0.060	-0.443
-546.310	-189.589	0.409	0.005
-545.296	800.000	0.043	-0.188
-544.281	119.326	0.084	-0.104
-543.266	800.000	0.018	0.057
-542.252	-67.291	0.143	0.057
-541.237	-19.039	0.060	-0.037
-540.223	-56.500	-0.185	0.082
-539.208	666.914	0.030	0.078
-538.193	-80.567	-0.106	-0.035
-537.179	394.654	0.149	0.311
-536.164	130.585	0.200	0.257
-535.150	800.000	0.051	-0.162
-534.135	100.660	0.071	-0.083
-533.121	800.000	-0.069	0.247
-532.106	49.950	-0.189	0.179
-531.091	240.434	0.202	0.337
-530.077	191.660	0.137	0.206
-529.062	-200.000	0.034	0.256
-528.048	96.003	-0.132	0.152
-527.033	-200.000	-0.023	0.168
-526.018	-18.825	0.019	0.012
-525.004	69.911	0.188	-0.194
-523.989	800.000	0.031	0.095
-522.975	800.000	-0.081	0.325
-521.960	79.675	-0.120	-0.129
-520.945	117.144	0.033	0.040
-519.931	-200.000	-0.011	-0.110
-518.916	-200.000	-0.027	-0.234
-517.902	800.000	0.103	-0.382
-516.887	-15.503	0.161	-0.103
-515.872	104.341	-0.052	0.061
-514.858	-84.809	0.211	0.066
-513.843	800.000	-0.038	0.145
-512.829	99.174	0.124	0.143
-511.814	-35.276	-0.168	0.091
-510.799	-45.795	-0.286	0.141
-509.785	-73.819	-0.195	-0.071
-508.770	481.991	-0.085	0.194
-507.756	-85.080	-0.123	0.038
-506.741	-76.357	0.200	0.070
-505.726	-56.942	-0.203	0.090
-504.712	242.242	-0.093	-0.156
-503.697	697.719	0.052	-0.138
-502.683	79.004	0.122	-0.131
-501.668	-200.000	0.031	-0.158
-500.653	-46.747	-0.077	0.038
-499.639	-28.285	0.247	-0.143
-498.624	84.758	-0.096	0.105
-497.610	-165.156	-0.309	-0.014
-496.595	-200.000	0.045	-0.423
-495.581	-200.000	0.011	0.108
-494.566	-3.405	0.324	-0.225
-493.551	565.214	-0.066	-0.159
-492.537	-141.993	0.038	0.004
-491.522	226.361	0.053	0.086
-490.508	-83.166	-0.060	-0.019
-489.493	152.106	0.079	-0.108
-488.478	-40.587	0.174	-0.090
-487.464	-25.629	-0.490	0.289
-486.449	-131.388	0.092	0.012
-485.435	-100.981	-0.105	-0.026
-484.420	79.574	-0.183	0.196
-483.405	-103.432	0.196	-0.046
-482.391	92.172	0.158	-0.178
-481.376	82.107	0.116	-0.126
-480.362	-24.876	0.209	-0.124
-479.347	800.000	0.121	-0.344
-478.332	-113.170	-0.257	0.051
-477.318	454.121	-0.068	0.150
-476.303	72.606	0.143	0.149
-475.289	-200.000	-0.028	-0.256
-474.274	-200.000	0.062	0.303
-473.259	228.040	0.153	-0.249
-472.245	-200.000	-0.001	0.049
-471.230	646.271	0.126	-0.322
-470.216	800.000	-0.050	-0.169
-469.201	-200.000	0.007	-0.288
-468.186	11.077	0.294	-0.225
-467.172	19.987	0.296	-0.239
-466.157	800.000	0.077	0.222
-465.143	768.497	-0.066	-0.180
-464.128	417.028	0.170	-0.362
-463.113	166.669	0.145	-0.205
-462.099	-36.881	0.128	0.068
-461.084	-200.000	0.031	0.166
-460.070	-0.193	-0.114	-0.081
-459.055	353.486	-0.140	0.278
-458.040	-44.377	-0.335	0.167
-457.026	190.264	-0.063	0.094
-456.011	-200.000	-0.040	-0.211
-454.997	60.691	-0.149	0.147
-453.982	22.171	-0.090	0.074
-452.968	800.000	-0.063	-0.245
-451.953	389.335	0.025	-0.052
-450.938	75.088	0.175	-0.184
-449.924	-51.380	-0.462	0.216
-448.909	-200.000	-0.018	0.147
-447.895	-13.851	-0.315	-0.204
-446.880	-154.923	-0.027	0.002
-445.865	485.970	0.072	0.163
-444.851	-85.899	-0.147	0.046
-443.836	120.989	0.128	0.158
-442.822	-45.695	0.246	-0.121
-441.807	-2.296	-0.298	0.209
-440.792	-37.166	0.206	0.110
-439.778	800.000	0.072	0.277
-438.763	25.017	-0.074	-0.062
-437.749	-30.103	0.062	-0.035
-436.734	800.000	0.108	-0.418
-435.719	-200.000	-0.031	0.208
-434.705	-116.915	0.278	0.051
-433.690	800.000	0.022	-0.068
-432.676	293.606	-0.203	0.370
-431.661	337.302	-0.069	0.134
-430.646	-110.456	-0.031	0.006
-429.632	47.460	-0.109	0.101
-428.617	-108.552	-0.493	0.106
-427.603	800.000	0.062	0.263
-426.588	-52.497	-0.098	-0.045
-425.573	-138.245	-0.114	0.013
-424.559	-83.389	-0.033	-0.011
-423.544	91.835	0.175	0.196
-422.530	-102.920	-0.234	-0.056
-421.515	202.474	-0.197	-0.303
-420.500	-200.000	0.020	-0.159
-419.486	-200.000	-0.013	-0.309
-418.471	-143.529	0.176	0.017
-417.457	-191.261	0.214	0.002
-416.442	41.252	0.090	0.081
-415.428	750.014	-0.095	0.257
-414.413	-38.097	0.337	-0.178
-413.398	-200.000	0.011	-0.160
-412.384	-82.101	-0.249	0.081
-411.369	-134.299	-0.227	0.028
-410.355	109.443	0.035	-0.042
-409.340	800.000	-0.023	0.097
-408.325	-151.586	-0.167	0.012
-407.311	-135.504	0.237	0.028
-406.296	-66.938	0.106	-0.042
-405.282	755.707	0.102	0.276
-404.267	-131.933	0.280	0.036
-403.252	-17.269	-0.114	-0.072
-402.238	6.245	-0.230	-0.170
-401.223	-200.000	-0.002	-0.025
-400.209	100.239	0.024	0.028
-399.194	-0.971	0.174	0.123
-398.179	800.000	0.057	0.176
-397.165	800.000	-0.095	0.284
-396.150	109.471	-0.049	-0.058
-395.136	1.023	-0.096	-0.069
-394.121	-131.984	0.169	-0.022
-393.106	332.579	-0.104	0.200
-392.092	433.375	0.111	0.239
-391.077	-200.000	0.059	-0.342
-390.063	-157.769	-0.146	-0.009
-389.048	-93.167	0.265	0.073
-388.033	-200.000	-0.033	0.353
-387.019	800.000	0.065	0.275
-386.004	283.239	-0.124	-0.222
-384.990	800.000	-0.048	0.135
-383.975	363.935	-0.077	0.154
-382.960	-34.855	-0.126	0.069
-381.946	-200.000	0.026	-0.147
-380.931	-84.150	-0.131	-0.041
-379.917	-28.581	-0.091	-0.052
-378.902	194.553	0.143	0.215
-377.888	41.164	0.023	-0.021
-376.873	800.000	0.089	-0.369
-375.858	-63.072	-0.202	-0.083
-374.844	-101.344	-0.211	-0.051
-373.829	-106.364	0.385	-0.086
-372.815	800.000	0.064	0.200
-371.800	200.605	0.186	0.285
-370.785	-200.000	0.023	0.225
-369.771	-37.237	0.165	-0.088
-368.756	-17.734	-0.254	-0.158
-367.742	800.000	0.060	-0.258
-366.727	-64.403	-0.103	0.042
-365.712	234.424	0.166	0.273
-364.698	-156.362	-0.111	0.007
-363.683	-200.000	-0.020	0.106
-362.669	-26.429	0.330	-0.193
-361.654	-200.000	-0.011	-0.396
-360.639	800.000	-0.071	0.275
-359.625	39.291	-0.213	0.190
-358.610	800.000	0.043	-0.175
-357.596	155.439	-0.026	-0.035
-356.581	-200.000	-0.036	0.164
-355.566	457.675	0.100	-0.220
-354.552	92.530	0.251	0.281
-353.537	-161.729	-0.167	-0.008
-352.523	800.000	-0.008	0.027
-351.508	43.753	-0.294	0.267
-350.493	682.953	-0.106	-0.275
-349.479	-65.651	0.284	-0.113
-348.464	-83.152	0.051	-0.016
-347.450	-65.463	-0.124	0.050
-346.435	-11.385	0.209	-0.137
-345.420	-200.000	-0.016	0.234
-344.406	800.000	0.033	0.144
-343.391	-116.725	0.359	-0.066
-342.377	800.000	0.021	0.090
-341.362	114.744	-0.159	-0.193
-340.348	-53.411	-0.247	-0.112
-339.333	374.763	-0.037	0.074
-338.318	81.276	0.091	-0.098
-337.304	695.721	0.031	0.081
-336.289	-39.894	0.341	-0.177
-335.275	157.696	-0.172	-0.236
-334.260	348.475	-0.048	-0.094
-333.245	46.884	0.279	0.258
-332.231	-61.923	-0.426	-0.177
-331.216	-77.695	-0.212	-0.073
-330.202	-200.000	0.001	-0.316
-329.187	-106.493	0.261	-0.058
-328.172	-200.000	0.013	-0.199
-327.158	-200.000	-0.008	0.081
-326.143	44.035	0.134	-0.122
-325.129	100.508	-0.074	-0.085
-324.114	348.475	0.089	-0.174
-323.099	800.000	-0.073	0.202
-322.085	65.397	0.144	0.144
-321.070	800.000	0.033	-0.098
-320.056	72.995	0.109	0.113
-319.041	-42.833	-0.428	-0.216
-318.026	-56.705	-0.087	-0.038
-317.012	-22.708	0.152	0.091
-315.997	-32.598	0.277	-0.153
-314.983	43.741	0.241	0.219
-313.968	55.820	0.138	-0.132
-312.953	-200.000	0.057	0.268
-311.939	-96.110	0.235	-0.062
-310.924	-61.307	0.472	0.198
-309.910	-141.256	0.058	-0.006
-308.895	-200.000	-0.066	0.302
-307.880	73.676	0.147	0.153
-306.866	-200.000	-0.024	0.314
-305.851	78.774	-0.224	0.238
-304.837	800.000	-0.097	0.322
-303.822	-61.496	-0.305	-0.127
-302.807	-47.582	-0.219	-0.106
-301.793	-52.405	0.273	0.125
-300.778	-200.000	0.024	0.424
-299.764	451.920	-0.031	-0.067
-298.749	296.564	0.166	0.302
-297.735	336.293	-0.059	0.114
-296.720	-200.000	0.002	-0.103
-295.705	368.737	0.076	-0.152
-294.691	744.000	0.067	-0.179
-293.676	-61.529	0.179	-0.074
-292.662	141.177	0.268	-0.352
-291.647	-200.000	0.046	-0.225
-290.632	2.916	-0.253	-0.182
-289.618	-47.106	0.339	0.164
-288.603	290.651	0.093	0.167
-287.589	-121.240	0.221	-0.037
-286.574	800.000	0.023	-0.070
-285.559	-147.244	0.040	0.003
-284.545	-200.000	0.023	0.184
-283.530	-200.000	0.026	-0.259
-282.516	165.381	-0.091	0.127
-281.501	276.786	0.114	0.201
-280.486	127.222	-0.205	-0.258
-279.472	99.932	-0.122	0.140
-278.457	1.054	-0.435	0.309
-277.443	-200.000	0.021	-0.181
-276.428	-115.647	-0.106	0.020
-275.413	293.435	-0.082	0.149
-274.399	-200.000	0.040	-0.183
-273.384	-2.399	0.088	0.061
-272.370	-136.658	-0.159	-0.018
-271.355	-50.291	-0.267	0.125
-270.340	-134.406	-0.095	0.012
-269.326	-154.883	-0.421	0.028
-268.311	171.495	-0.020	-0.029
-267.297	70.241	0.249	0.254
-266.282	-200.000	0.048	0.237
-265.267	220.226	-0.111	-0.176
-264.253	-200.000	-0.020	-0.131
-263.238	-18.897	-0.424	-0.261
-262.224	-200.000	-0.001	-0.067
-261.209	51.419	0.314	0.295
-260.195	52.030	0.102	0.097
-259.180	-17.942	0.193	0.120
-258.165	-63.049	0.091	-0.037
-257.151	23.026	0.174	0.141
-256.136	-200.000	-0.016	0.287
-255.122	41.682	-0.068	-0.061
-254.107	-34.593	-0.263	-0.143
-253.092	-200.000	0.046	-0.210
-252.078	30.926	0.209	-0.177
-251.063	-86.001	-0.277	0.085
-250.049	-87.897	0.082	-0.024
-249.034	-200.000	0.029	0.145
-248.019	125.358	0.125	0.156
-247.005	266.950	-0.185	0.320
-245.990	-200.000	0.033	0.283
-244.976	-41.949	-0.136	-0.069
-243.961	153.854	0.316	0.429
-242.946	-200.000	-0.025	0.163
-241.932	705.316	0.072	0.187
-240.917	-57.294	0.253	-0.110
-239.903	29.083	-0.295	0.248
-238.888	-53.937	-0.305	-0.138
-237.873	-192.905	0.150	-0.001
-236.859	-132.945	-0.107	0.013
-235.844	114.730	0.099	-0.119
-234.830	800.000	0.077	-0.255
-233.815	-33.066	-0.082	0.045
-232.800	800.000	0.119	0.377
-231.786	-200.000	0.047	0.706
-230.771	-95.857	0.194	-0.051
-229.757	-142.220	0.155	-0.015
-228.742	-114.751	-0.444	0.084
-227.727	90.715	-0.215	-0.239
-226.713	-94.298	0.202	-0.055
-225.698	-59.000	0.258	0.110
-224.684	-88.143	-0.147	0.044
-223.669	800.000	0.065	-0.267
-222.655	-50.650	0.180	-0.084
-221.640	-200.000	-0.014	0.179
-220.625	800.000	-0.096	-0.302
-219.611	581.390	0.159	-0.386
-218.596	-10.320	0.160	-0.105
-217.582	-200.000	-0.025	-0.160
-216.567	28.591	-0.384	0.321
-215.552	333.608	0.072	-0.138
-214.538	20.230	-0.127	-0.101
-213.523	44.621	0.133	-0.121
-212.509	-167.312	0.109	-0.004
-211.494	343.008	0.160	-0.310
-210.479	60.037	0.213	-0.208
-209.465	-36.551	0.369	-0.197
-208.450	-95.075	-0.207	-0.055
-207.436	-75.315	-0.392	-0.138
-206.421	-18.364	-0.105	0.065
-205.406	18.242	-0.156	0.123
-204.392	-57.511	-0.091	0.039
-203.377	-200.000	0.038	-0.232
-202.363	683.543	0.141	-0.365
-201.348	-171.533	0.398	0.013
-200.333	-200.000	-0.004	0.231
-199.319	800.000	0.017	-0.062
-198.304	636.755	-0.055	0.138
-197.290	-36.660	0.212	0.112
-196.275	-54.734	-0.252	0.113
-195.260	-95.921	-0.195	0.051
-194.246	7.753	-0.243	-0.180
-193.231	-103.769	-0.204	0.047
-192.217	-136.114	0.155	0.018
-191.202	-200.000	-0.002	-0.115
-190.187	-109.422	0.091	0.019
-189.173	-200.000	0.001	-0.253
-188.158	800.000	0.144	0.564
-187.144	800.000	-0.104	0.292
-186.129	-94.745	0.084	-0.023
-185.114	400.692	-0.061	0.127
-184.100	140.199	-0.076	-0.100
-183.085	-200.000	-0.041	-0.317
-182.071	-33.513	0.233	-0.127
-181.056	55.074	-0.050	-0.048
-180.042	800.000	0.040	0.141
-179.027	800.000	0.052	0.168
-178.012	-200.000	0.025	0.217
-176.998	-81.287	0.108	-0.035
-175.983	-145.627	-0.241	0.021
-174.969	-200.000	-0.003	-0.189
-173.954	-88.236	0.251	-0.074
-172.939	259.118	0.203	-0.345
-171.925	449.225	0.098	-0.213
-170.910	-86.255	-0.249	-0.076
-169.896	-12.054	0.221	-0.143
-168.881	-182.360	0.187	-0.003
-167.866	146.451	-0.183	-0.242
-166.852	800.000	0.076	-0.296
-165.837	-39.322	-0.145	0.075
-164.823	723.663	-0.094	-0.248
-163.808	-121.993	-0.098	-0.016
-162.793	-138.869	0.319	0.034
-161.779	-135.195	0.308	-0.037
-160.764	65.542	-0.069	-0.069
-159.750	-114.243	0.057	-0.011
-158.735	-130.696	-0.246	-0.033
-157.720	588.581	-0.031	-0.076
-156.706	52.912	0.092	-0.086
-155.691	800.000	-0.070	0.293
-154.677	128.701	-0.114	0.143
-153.662	5.713	-0.222	-0.162
-152.647	241.068	-0.129	-0.213
-151.633	21.467	0.205	0.165
-150.618	231.471	-0.044	0.071
-149.604	468.616	-0.099	0.220
-148.589	-145.723	0.149	-0.013
-147.574	-100.592	-0.200	-0.049
-146.560	-38.161	0.145	0.076
-145.545	-200.000	-0.019	-0.116
-144.531	18.180	-0.279	-0.220
-143.516	201.147	-0.189	-0.287
-142.502	449.558	-0.069	0.150
-141.487	53.695	-0.265	-0.251
-140.472	566.470	-0.160	0.382
-139.458	-87.698	0.210	0.062
-138.443	800.000	0.122	-0.364
-137.429	144.175	-0.157	-0.206
-136.414	757.306	0.124	0.331
-135.399	-200.000	0.004	0.040
-134.385	583.618	0.150	-0.363
-133.370	800.000	0.063	0.176
-132.356	-200.000	0.079	0.394
-131.341	-200.000	0.032	-0.429
-130.326	-122.836	-0.450	-0.072
-129.312	800.000	-0.035	-0.120
-128.297	4.569	0.303	0.219
-127.283	-200.000	-0.017	0.156
-126.268	-200.000	-0.010	-0.091
-125.253	562.117	-0.146	-0.347
-124.239	587.760	-0.016	-0.039
-123.224	298.403	-0.100	-0.182
-122.210	-9.992	-0.178	0.116
