DTS Sentinel unit serial number:	SN413079Multiplexer serial number:	ORYXHardware model number:	OX4-SRSoftware version number:	ORYX F/W v4.00 Oryx Data Collector v3.7.2.0data status	okinstallation	princeton_trtdifferential loss correction	single-endedforward channel	channel 1reverse channel	N/Adate	2019/09/14time	18:06:35forward acquisition time	60.00reverse acquisition time	0.00gamma	496.2192k internal	0.2300k external	0.2300temperature offset calibration	1.0044default loss term (dB/km)	0.3790temperature slope calibration	1.0000multiplexer offset coefficient	1.0000multiplexer slope coefficient	1.0000fibre end	0.00T internal ref (°C)	37.23T ext. ref 1 (°C)	4.95T ext. ref 2 (°C)	31.62length (m)	temperature (°C)	Stokes	anti-Stokes-747.200	541.625	-0.024	-0.059
-746.185	471.173	-0.113	-0.260
-745.171	354.939	0.105	-0.213
-744.156	78.730	0.139	0.152
-743.142	-200.000	-0.002	0.108
-742.127	-58.769	-0.174	0.077
-741.112	-58.246	0.306	0.136
-740.098	62.242	-0.171	0.174
-739.083	627.719	0.054	-0.140
-738.069	24.449	0.191	0.161
-737.054	91.466	-0.201	-0.231
-736.039	-85.788	-0.191	-0.060
-735.025	800.000	0.031	0.124
-734.010	-37.982	0.106	-0.057
-732.996	84.920	-0.181	-0.203
-731.981	-200.000	0.034	0.205
-730.966	51.394	0.256	0.248
-729.952	800.000	0.081	-0.316
-728.937	198.007	0.131	-0.204
-727.923	210.421	-0.102	-0.162
-726.908	-200.000	-0.082	-0.374
-725.894	144.154	-0.060	0.081
-724.879	37.269	-0.173	0.156
-723.864	782.374	0.084	0.236
-722.850	186.884	0.206	-0.313
-721.835	-154.136	-0.406	0.028
-720.821	69.133	-0.297	-0.311
-719.806	-156.749	-0.236	-0.015
-718.791	800.000	0.061	0.183
-717.777	40.361	-0.028	-0.025
-716.762	-200.000	-0.018	0.093
-715.748	-140.594	-0.243	-0.026
-714.733	-104.830	-0.286	-0.067
-713.718	56.496	0.141	0.139
-712.704	200.357	0.072	-0.113
-711.689	-91.861	0.306	-0.088
-710.675	28.642	-0.121	-0.105
-709.660	531.050	-0.036	-0.088
-708.645	800.000	-0.057	-0.250
-707.631	33.978	-0.223	0.198
-706.616	-96.523	-0.206	-0.055
-705.602	-200.000	0.023	-0.346
-704.587	43.142	0.155	-0.144
-703.572	-119.124	-0.146	-0.026
-702.558	-36.444	-0.245	-0.134
-701.543	-56.892	-0.233	-0.105
-700.529	800.000	0.044	-0.131
-699.514	170.272	-0.127	-0.185
-698.499	738.885	-0.006	-0.016
-697.485	784.790	-0.068	0.189
-696.470	-107.144	0.196	0.044
-695.456	800.000	0.077	-0.230
-694.441	-200.000	-0.004	-0.040
-693.426	-77.743	0.195	-0.069
-692.412	320.993	0.226	-0.437
-691.397	93.698	0.110	0.127
-690.383	-74.459	-0.190	0.070
-689.368	47.667	0.096	0.092
-688.354	215.580	-0.080	0.129
-687.339	800.000	-0.045	-0.174
-686.324	-200.000	0.005	-0.273
-685.310	342.795	0.144	0.286
-684.295	-200.000	0.017	-0.226
-683.281	-111.563	-0.165	-0.034
-682.266	26.916	0.333	-0.284
-681.251	-119.960	0.309	0.054
-680.237	-142.028	-0.498	0.050
-679.222	1.203	0.244	-0.178
-678.208	106.503	0.231	-0.279
-677.193	361.898	-0.088	0.179
-676.178	800.000	0.014	0.051
-675.164	303.168	0.083	0.155
-674.149	800.000	-0.052	-0.186
-673.135	13.091	-0.215	-0.170
-672.120	-39.052	-0.062	-0.033
-671.105	-154.549	-0.330	0.022
-670.091	-96.977	-0.158	0.042
-669.076	178.942	0.175	-0.261
-668.062	-93.141	0.168	-0.048
-667.047	800.000	-0.051	0.198
-666.032	-86.007	-0.223	-0.070
-665.018	4.207	-0.429	-0.319
-664.003	-182.525	0.183	0.003
-662.989	601.522	0.051	-0.129
-661.974	270.221	-0.095	-0.170
-660.959	-59.684	0.117	0.051
-659.945	800.000	-0.057	-0.224
-658.930	-200.000	0.009	-0.368
-657.916	800.000	0.024	0.076
-656.901	584.885	-0.127	-0.318
-655.886	31.909	0.171	-0.150
-654.872	-122.074	0.110	-0.018
-653.857	-98.305	-0.309	0.080
-652.843	-200.000	-0.254	-0.001
-651.828	-200.000	-0.013	0.336
-650.814	19.181	0.329	0.269
-649.799	731.373	-0.153	-0.416
-648.784	-143.391	-0.252	-0.025
-647.770	344.520	0.072	-0.143
-646.755	-200.000	-0.067	-0.344
-645.741	800.000	0.105	-0.425
-644.726	36.811	-0.135	-0.121
-643.711	500.024	0.098	-0.230
-642.697	521.052	0.117	0.280
-641.682	251.282	-0.123	0.213
-640.668	-200.000	-0.151	-0.001
-639.653	-151.647	-0.226	-0.017
-638.638	283.788	-0.129	-0.235
-637.624	-86.070	-0.362	-0.113
-636.609	-200.000	-0.024	0.200
-635.595	7.296	-0.312	0.237
-634.580	75.575	0.031	0.034
-633.565	195.433	0.264	-0.408
-632.551	476.755	0.086	0.197
-631.536	178.589	-0.120	-0.178
-630.522	-78.849	0.237	0.082
-629.507	-101.217	-0.230	0.057
-628.492	69.981	-0.235	0.246
-627.478	274.807	-0.142	0.255
-626.463	-200.000	0.030	-0.146
-625.449	-5.184	0.049	-0.034
-624.434	-112.419	-0.152	0.031
-623.419	-195.697	0.323	0.002
-622.405	83.351	0.061	-0.067
-621.390	800.000	0.100	-0.368
-620.376	-200.000	0.013	-0.452
-619.361	-200.000	-0.012	0.335
-618.346	187.985	0.124	-0.188
-617.332	344.651	-0.077	0.154
-616.317	310.217	0.027	-0.051
-615.303	800.000	0.039	0.152
-614.288	-200.000	0.023	-0.204
-613.273	-143.024	-0.009	0.001
-612.259	157.582	-0.054	-0.076
-611.244	67.201	0.088	0.091
-610.230	380.289	-0.041	-0.085
-609.215	448.935	0.031	0.069
-608.201	-93.117	-0.222	0.063
-607.186	34.356	-0.330	0.292
-606.171	-200.000	0.001	-0.066
-605.157	800.000	0.107	-0.343
-604.142	4.457	-0.131	-0.098
-603.128	-79.069	0.237	-0.082
-602.113	-139.327	-0.157	-0.017
-601.098	124.206	-0.184	0.235
-600.084	89.791	-0.181	-0.205
-599.069	800.000	-0.053	-0.191
-598.055	-141.817	0.129	0.013
-597.040	-155.123	0.266	0.018
-596.025	-52.615	0.006	0.003
-595.011	-66.528	0.267	-0.107
-593.996	-35.293	-0.071	0.039
-592.982	-200.000	0.061	0.352
-591.967	-200.000	0.013	-0.078
-590.952	117.688	-0.320	-0.400
-589.938	22.738	0.063	0.052
-588.923	47.046	-0.213	0.201
-587.909	37.525	0.194	-0.175
-586.894	800.000	-0.023	-0.092
-585.879	-200.000	0.071	-0.473
-584.865	-106.927	-0.271	0.061
-583.850	800.000	0.036	-0.111
-582.836	-13.306	-0.356	-0.234
-581.821	-106.250	-0.177	0.040
-580.806	-15.036	-0.079	0.051
-579.792	800.000	0.079	0.225
-578.777	-58.193	-0.082	0.036
-577.763	-99.714	-0.247	-0.063
-576.748	-200.000	0.005	0.101
-575.733	-96.387	-0.100	-0.027
-574.719	-200.000	-0.068	-0.333
-573.704	-116.474	0.133	-0.025
-572.690	41.335	-0.253	0.232
-571.675	-200.000	0.006	0.069
-570.661	-200.000	0.022	0.198
-569.646	149.600	-0.039	0.054
-568.631	532.562	0.010	0.025
-567.617	-37.757	0.317	0.171
-566.602	-125.123	0.207	-0.032
-565.588	-200.000	0.016	-0.282
-564.573	-35.996	-0.325	0.178
-563.558	89.697	0.145	-0.164
-562.544	69.541	-0.157	-0.164
-561.529	-30.348	-0.249	0.143
-560.515	800.000	-0.144	-0.434
-559.500	78.448	-0.124	-0.135
-558.485	-131.046	-0.204	0.028
-557.471	4.042	-0.374	0.277
-556.456	-200.000	-0.005	0.141
-555.442	196.330	-0.037	0.056
-554.427	359.302	-0.108	0.219
-553.412	5.592	-0.139	0.104
-552.398	-76.845	0.293	0.104
-551.383	275.818	-0.142	-0.255
-550.369	800.000	-0.053	-0.162
-549.354	-115.557	0.162	0.031
-548.339	800.000	-0.054	-0.173
-547.325	-58.700	-0.311	-0.136
-546.310	-82.198	0.232	-0.077
-545.296	-200.000	-0.008	-0.124
-544.281	-200.000	-0.373	0.000
-543.266	40.511	-0.260	0.237
-542.252	287.609	0.087	0.159
-541.237	800.000	-0.056	0.214
-540.223	-120.819	-0.430	0.073
-539.208	249.515	-0.062	0.107
-538.193	-7.085	-0.064	-0.044
-537.179	15.432	0.162	-0.129
-536.164	-120.470	-0.152	0.026
-535.150	54.977	-0.139	-0.136
-534.135	-200.000	-0.057	-0.533
-533.121	800.000	-0.024	-0.072
-532.106	93.460	0.281	-0.322
-531.091	-200.000	0.036	0.207
-530.077	117.114	-0.107	-0.133
-529.062	284.786	-0.092	0.168
-528.048	-115.846	-0.251	-0.047
-527.033	800.000	0.026	-0.077
-526.018	291.261	-0.056	-0.102
-525.004	-101.117	-0.130	-0.032
-523.989	-29.734	0.032	-0.019
-522.975	-36.587	-0.275	0.149
-521.960	800.000	-0.027	0.090
-520.945	20.351	-0.106	-0.086
-519.931	-92.253	-0.145	0.041
-518.916	-112.451	0.436	-0.088
-517.902	-47.946	-0.335	0.164
-516.887	-200.000	0.004	-0.029
-515.872	207.829	-0.027	-0.042
-514.858	269.698	-0.102	0.181
-513.843	-40.997	0.071	0.037
-512.829	-122.761	0.145	0.024
-511.814	-200.000	-0.022	0.145
-510.799	800.000	0.008	0.034
-509.785	-200.000	0.015	-0.097
-508.770	-200.000	0.004	0.057
-507.756	-65.873	-0.215	-0.087
-506.741	-86.956	0.204	0.063
-505.726	-200.000	0.007	-0.187
-504.712	-61.090	0.150	-0.064
-503.697	800.000	0.074	0.217
-502.683	89.078	-0.060	-0.068
-501.668	103.786	-0.175	-0.208
-500.653	-200.000	-0.032	0.168
-499.639	800.000	-0.053	0.179
-498.624	-200.000	0.010	0.083
-497.610	13.153	-0.305	-0.239
-496.595	-7.995	0.124	0.085
-495.581	-72.947	0.117	-0.044
-494.566	-53.115	-0.127	0.059
-493.551	-49.109	0.227	-0.110
-492.537	-26.313	0.137	0.081
-491.522	-112.811	-0.227	0.046
-490.508	240.709	0.068	0.114
-489.493	17.590	0.182	-0.146
-488.478	-42.238	0.220	-0.114
-487.464	800.000	-0.036	0.161
-486.449	3.791	-0.152	0.112
-485.435	-162.896	-0.208	0.010
-484.420	-142.238	-0.172	-0.017
-483.405	422.073	0.091	-0.197
-482.391	-200.000	-0.089	-0.431
-481.376	800.000	-0.069	-0.301
-480.362	-200.000	0.000	-0.112
-479.347	-86.358	-0.320	-0.099
-478.332	408.417	0.095	-0.203
-477.318	372.272	-0.159	0.325
-476.303	74.321	0.065	0.069
-475.289	69.015	-0.110	-0.114
-474.274	285.071	0.028	-0.051
-473.259	800.000	0.040	0.151
-472.245	406.008	-0.166	-0.354
-471.230	-200.000	-0.013	0.076
-470.216	-200.000	0.027	0.135
-469.201	-77.261	0.110	0.038
-468.186	25.861	0.090	-0.076
-467.172	-89.290	0.153	0.045
-466.157	-200.000	-0.022	0.178
-465.143	-49.217	0.155	-0.075
-464.128	-200.000	-0.249	0.001
-463.113	42.163	0.058	0.053
-462.099	-109.652	-0.228	0.049
-461.084	-200.000	-0.031	0.227
-460.070	62.924	0.128	0.129
-459.055	42.881	-0.233	0.215
-458.040	35.138	-0.389	0.344
-457.026	800.000	-0.003	0.009
-456.011	-86.960	-0.537	-0.165
-454.997	-200.000	-0.005	0.194
-453.982	658.438	-0.121	-0.313
-452.968	94.053	0.137	-0.156
-451.953	-179.210	0.258	-0.006
-450.938	300.828	0.022	-0.042
-449.924	580.231	-0.140	-0.346
-448.909	800.000	0.048	-0.162
-447.895	-200.000	0.030	0.220
-446.880	-161.695	0.214	-0.011
-445.865	30.873	0.159	0.137
-444.851	-137.059	-0.139	-0.016
-443.836	152.627	-0.088	0.121
-442.822	137.120	-0.231	-0.304
-441.807	-103.238	-0.165	0.039
-440.792	-28.612	-0.150	0.087
-439.778	51.138	-0.141	0.135
-438.763	341.036	-0.091	0.180
-437.749	348.615	0.065	-0.128
-436.734	-99.447	-0.121	0.031
-435.719	-147.176	0.207	-0.018
-434.705	800.000	0.039	0.128
-433.690	33.105	0.157	-0.137
-432.676	-105.055	-0.352	-0.081
-431.661	286.319	0.112	0.203
-430.646	6.357	0.183	0.137
-429.632	800.000	-0.033	-0.126
-428.617	538.350	0.152	-0.364
-427.603	800.000	-0.079	-0.348
-426.588	-105.458	0.234	0.054
-425.573	-200.000	-0.009	0.056
-424.559	800.000	-0.029	0.110
-423.544	662.529	0.117	0.303
-422.530	1.025	-0.186	-0.135
-421.515	78.134	0.130	-0.140
-420.500	800.000	0.085	-0.240
-419.486	212.223	0.027	-0.044
-418.471	266.943	-0.051	0.090
-417.457	-97.982	0.185	0.048
-416.442	470.029	-0.039	0.088
-415.428	7.312	-0.225	-0.169
-414.413	107.638	0.096	0.115
-413.398	800.000	0.168	0.542
-412.384	800.000	-0.140	0.397
-411.369	60.568	0.092	0.092
-410.355	-69.965	0.190	-0.073
-409.340	481.218	0.034	-0.077
-408.325	-88.135	0.252	-0.076
-407.311	800.000	0.106	0.416
-406.296	800.000	0.056	-0.180
-405.282	-2.037	-0.161	-0.114
-404.267	-143.701	-0.182	-0.017
-403.252	-24.732	-0.028	0.017
-402.238	-101.919	0.227	0.055
-401.223	251.582	0.141	-0.242
-400.209	124.832	0.210	-0.266
-399.194	132.136	-0.177	0.230
-398.179	-26.451	-0.142	0.084
-397.165	-137.014	0.146	-0.017
-396.150	189.079	0.121	0.182
-395.136	180.755	-0.131	0.193
-394.121	-54.200	-0.096	0.044
-393.106	-55.298	-0.184	-0.083
-392.092	-98.418	0.165	-0.042
-391.077	-37.425	-0.115	0.062
-390.063	800.000	-0.098	-0.284
-389.048	131.435	-0.116	-0.150
-388.033	174.832	0.073	0.107
-387.019	-200.000	0.002	-0.293
-386.004	800.000	0.048	-0.173
-384.990	-111.768	0.166	0.034
-383.975	55.832	-0.195	0.190
-382.960	427.281	0.101	-0.220
-381.946	-4.502	-0.063	0.044
-380.931	-2.997	0.223	0.157
-379.917	-129.106	-0.046	0.007
-378.902	592.220	0.072	0.178
-377.888	256.837	-0.155	-0.267
-376.873	800.000	0.055	-0.187
-375.858	553.532	-0.092	-0.223
-374.844	766.939	-0.042	0.113
-373.829	205.284	-0.083	-0.129
-372.815	-146.310	-0.287	-0.025
-371.800	359.205	-0.164	0.330
-370.785	-74.432	-0.214	-0.078
-369.771	71.429	-0.032	-0.034
-368.756	-118.278	-0.145	-0.026
-367.742	-121.826	0.241	0.040
-366.727	800.000	-0.029	0.098
-365.712	-200.000	0.037	0.278
-364.698	435.343	0.092	-0.201
-363.683	195.590	0.047	-0.072
-362.669	45.092	-0.332	-0.307
-361.654	-200.000	0.030	0.313
-360.639	81.328	-0.108	0.117
-359.625	-200.000	0.053	0.284
-358.610	32.753	-0.055	-0.048
-357.596	10.660	0.084	-0.064
-356.581	128.393	-0.249	0.318
-355.566	-65.567	0.199	-0.080
-354.552	259.552	-0.098	-0.170
-353.537	312.623	0.117	-0.220
-352.523	-120.265	0.319	0.055
-351.508	-74.908	0.267	-0.096
-350.493	339.199	-0.152	-0.298
-349.479	-173.040	-0.268	0.008
-348.464	-112.614	0.076	0.015
-347.450	-88.529	0.246	0.074
-346.435	-82.457	0.113	-0.037
-345.420	-9.310	0.080	0.053
-344.406	-46.841	-0.080	0.039
-343.391	-23.735	0.124	0.074
-342.377	-8.804	0.119	-0.080
-341.362	427.891	0.079	0.171
-340.348	84.202	-0.131	-0.143
-339.333	-28.947	-0.014	0.008
-338.318	138.462	-0.148	0.196
-337.304	-200.000	-0.003	0.132
-336.289	552.013	0.070	0.169
-335.275	-40.508	0.258	-0.135
-334.260	-109.731	-0.056	-0.012
-333.245	306.557	0.182	-0.340
-332.231	800.000	0.062	0.233
-331.216	788.228	0.144	0.396
-330.202	-16.440	0.274	-0.174
-329.187	388.673	-0.078	-0.162
-328.172	-200.000	0.023	0.225
-327.158	51.629	-0.077	0.073
-326.143	-200.000	-0.012	-0.135
-325.129	460.552	0.078	-0.175
-324.114	346.365	-0.124	0.244
-323.099	27.231	0.046	0.039
-322.085	-55.128	-0.065	0.029
-321.070	-78.354	0.166	0.057
-320.056	-200.000	-0.007	0.211
-319.041	-24.325	0.266	0.159
-318.026	-52.729	-0.144	-0.067
-317.012	-73.759	-0.243	0.089
-315.997	800.000	-0.020	0.076
-314.983	559.586	-0.153	0.371
-313.968	246.483	0.044	0.074
-312.953	-78.461	0.248	0.085
-311.939	-26.507	-0.143	-0.084
-310.924	-102.450	-0.439	0.105
-309.910	77.708	0.223	0.238
-308.895	-47.925	0.108	-0.052
-307.880	-170.387	-0.182	-0.006
-306.866	388.313	0.103	0.213
-305.851	-47.547	0.182	0.089
-304.837	101.714	-0.130	0.152
-303.822	-26.968	-0.091	-0.053
-302.807	-169.961	0.128	0.005
-301.793	71.106	-0.066	0.069
-300.778	190.093	0.067	0.101
-299.764	-200.000	-0.032	0.269
-298.749	-127.074	0.223	-0.033
-297.735	800.000	-0.103	-0.334
-296.720	-103.359	-0.113	0.027
-295.705	-86.360	0.217	0.067
-294.691	-84.736	0.073	-0.023
-293.676	75.306	-0.129	-0.136
-292.662	-183.065	-0.151	-0.003
-291.647	-172.801	0.214	0.007
-290.632	-112.502	0.252	0.050
-289.618	-161.473	0.213	-0.011
-288.603	120.256	0.140	0.175
-287.589	-111.869	-0.319	0.065
-286.574	30.099	-0.149	0.127
-285.559	-86.465	0.104	0.032
-284.545	-76.435	-0.090	-0.032
-283.530	-200.000	-0.038	-0.225
-282.516	315.372	0.059	0.111
-281.501	103.576	0.101	0.119
-280.486	13.618	0.062	-0.049
-279.472	610.340	-0.050	-0.126
-278.457	800.000	-0.088	-0.263
-277.443	-200.000	0.023	-0.237
-276.428	71.024	0.202	-0.210
-275.413	-200.000	-0.026	0.201
-274.399	217.167	0.036	0.057
-273.384	-87.398	0.381	0.116
-272.370	-152.533	-0.085	-0.006
-271.355	36.341	-0.119	0.105
-270.340	-101.797	-0.202	-0.049
-269.326	180.384	0.129	0.190
-268.311	800.000	-0.001	0.003
-267.297	-42.341	0.064	-0.033
-266.282	800.000	-0.020	-0.061
-265.267	128.161	-0.215	-0.273
-264.253	167.522	-0.131	0.187
-263.238	242.241	0.127	0.213
-262.224	800.000	0.077	-0.265
-261.209	-95.357	0.253	0.068
-260.195	-9.493	-0.169	-0.113
-259.180	17.485	-0.148	-0.118
-258.165	250.291	-0.075	-0.127
-257.151	219.524	0.036	0.057
-256.136	-200.000	0.043	0.317
-255.122	6.141	-0.305	0.226
-254.107	-102.560	0.175	-0.042
-253.092	-89.890	0.055	0.016
-252.078	-200.000	-0.003	0.122
-251.063	-200.000	-0.007	-0.221
-250.049	-13.125	0.272	0.177
-249.034	-23.779	-0.133	-0.080
-248.019	-137.042	0.100	0.011
-247.005	-135.786	0.321	0.038
-245.990	467.244	-0.151	0.338
-244.976	-107.497	0.184	0.040
-243.961	-59.525	0.230	0.099
-242.946	573.430	-0.056	0.137
-241.932	392.690	0.041	-0.085
-240.917	-69.954	-0.130	0.049
-239.903	16.142	-0.213	-0.168
-238.888	-195.367	0.079	0.001
-237.873	800.000	0.061	-0.187
-236.859	-69.605	-0.042	0.016
-235.844	40.259	0.319	0.287
-234.830	-26.475	0.238	-0.140
-233.815	-14.933	-0.279	0.179
-232.800	-200.000	0.075	-0.382
-231.786	245.860	0.191	-0.321
-230.771	65.679	-0.216	-0.219
-229.757	-133.582	0.482	-0.060
-228.742	-200.000	0.027	-0.141
-227.727	-100.173	-0.037	-0.009
-226.713	162.982	-0.055	-0.077
-225.698	231.030	0.198	-0.325
-224.684	-200.000	-0.022	0.137
-223.669	764.261	0.072	0.194
-222.655	336.647	0.116	0.226
-221.640	-198.928	0.216	0.001
-220.625	800.000	0.092	-0.359
-219.611	-6.170	0.072	-0.049
-218.596	-90.231	0.354	0.103
-217.582	442.900	0.031	-0.067
-216.567	503.708	0.064	0.149
-215.552	2.005	-0.161	0.116
-214.538	61.058	0.286	0.283
-213.523	-194.880	0.309	-0.002
-212.509	-65.779	-0.095	0.038
-211.494	-42.434	-0.081	0.041
-210.479	215.873	-0.026	0.042
-209.465	-111.324	0.312	0.064
-208.450	-130.206	-0.198	0.027
-207.436	73.082	0.140	0.146
-206.421	482.065	0.126	0.286
-205.406	800.000	0.059	0.187
-204.392	424.804	0.169	0.363
-203.377	222.400	0.185	0.298
-202.363	667.060	0.068	-0.175
-201.348	-96.101	-0.199	0.053
-200.333	49.563	-0.319	0.300
-199.319	-34.849	0.451	0.246
-198.304	-117.526	0.261	-0.047
-197.290	-200.000	-0.002	-0.261
-196.275	-47.789	0.541	0.262
-195.260	-66.107	0.101	0.040
-194.246	104.499	0.180	0.212
-193.231	71.342	-0.167	-0.173
-192.217	46.629	0.127	0.118
-191.202	-140.193	0.098	-0.010
-190.187	115.647	0.081	0.099
-189.173	-63.521	0.213	0.087
-188.158	-6.782	0.080	0.054
-187.144	-80.804	0.147	0.049
-186.129	-141.291	0.189	-0.019
-185.114	-13.372	-0.134	-0.087
-184.100	-71.273	0.147	-0.055
-183.085	-200.000	0.049	0.366
-182.071	-161.361	0.184	-0.010
-181.056	328.168	0.047	-0.091
-180.042	94.416	-0.088	-0.099
-179.027	-74.641	-0.233	-0.084
-178.012	90.020	0.097	0.109
-176.998	800.000	0.077	-0.326
-175.983	-47.492	0.248	-0.120
-174.969	-13.548	0.099	-0.064
-173.954	101.353	-0.176	0.204
-172.939	-5.243	-0.208	-0.142
-171.925	326.323	0.187	-0.357
-170.910	-31.593	-0.112	-0.063
-169.896	156.741	-0.069	-0.096
-168.881	65.180	0.100	0.101
-167.866	-56.954	0.082	0.036
-166.852	-200.000	-0.001	0.152
-165.837	-195.086	-0.491	-0.004
-164.823	-137.525	0.226	0.025
-163.808	346.587	-0.108	-0.213
-162.793	158.184	-0.311	-0.430
-161.779	-200.000	0.048	-0.416
-160.764	199.600	-0.034	-0.052
-159.750	506.806	0.073	-0.168
-158.735	800.000	0.074	0.317
-157.720	-52.043	0.550	0.255
-156.706	-200.000	0.022	-0.129
-155.691	186.476	0.059	0.088
-154.677	-44.495	0.138	0.069
-153.662	-156.884	-0.286	0.018
-152.647	86.171	0.144	0.158
-151.633	-145.808	0.427	0.038
-150.618	-144.298	-0.118	0.011
-149.604	131.910	0.099	-0.127
-148.589	-200.000	-0.002	0.011
-147.574	-0.135	0.237	-0.168
-146.560	800.000	0.029	0.089
-145.545	-78.554	-0.492	0.168
-144.531	62.593	-0.054	-0.054
-143.516	202.883	0.066	0.102
-142.502	142.440	-0.028	-0.037
-141.487	800.000	-0.059	-0.168
-140.472	-200.000	-0.018	-0.259
-139.458	-75.533	-0.250	0.089
-138.443	-200.000	0.004	-0.394
-137.429	58.958	0.055	-0.054
-136.414	800.000	0.074	-0.242
-135.399	485.239	-0.074	0.167
-134.385	800.000	0.014	-0.051
-133.370	252.747	-0.143	0.244
-132.356	-198.004	-0.199	0.001
-131.341	800.000	-0.028	-0.094
-130.326	-200.000	-0.001	0.060
-129.312	-200.000	0.052	0.254
-128.297	-200.000	-0.021	0.145
-127.283	-147.964	0.084	0.007
-126.268	103.708	0.154	0.180
-125.253	-200.000	-0.001	0.012
-124.239	53.076	0.065	0.062
-123.224	-94.800	0.415	-0.112
-122.210	-154.643	-0.033	0.002
-121.195	-200.000	-0.059	0.483
-120.180	-56.003	0.398	0.176
