DTS Sentinel unit serial number:	SN413079Multiplexer serial number:	ORYXHardware model number:	OX4-SRSoftware version number:	ORYX F/W v4.00 Oryx Data Collector v3.7.2.0data status	okinstallation	princeton_trtdifferential loss correction	single-endedforward channel	channel 1reverse channel	N/Adate	2019/09/14time	16:06:35forward acquisition time	60.00reverse acquisition time	0.00gamma	496.2192k internal	0.2295k external	0.2295temperature offset calibration	1.0067default loss term (dB/km)	0.3790temperature slope calibration	1.0000multiplexer offset coefficient	1.0000multiplexer slope coefficient	1.0000fibre end	0.00T internal ref (°C)	38.39T ext. ref 1 (°C)	5.10T ext. ref 2 (°C)	33.02length (m)	temperature (°C)	Stokes	anti-Stokes-747.200	-68.250	0.230	0.091
-746.185	800.000	0.043	0.175
-745.171	239.202	0.084	0.143
-744.156	-200.000	0.018	0.283
-743.142	163.541	-0.081	-0.117
-742.127	269.440	-0.148	-0.265
-741.112	79.132	0.230	-0.252
-740.098	24.504	-0.103	0.087
-739.083	-46.702	0.131	-0.066
-738.069	-200.000	0.028	0.266
-737.054	148.213	-0.041	0.056
-736.039	178.397	-0.257	-0.383
-735.025	259.753	0.187	-0.330
-734.010	-200.000	0.018	-0.318
-732.996	800.000	-0.123	-0.385
-731.981	-151.609	-0.149	0.011
-730.966	-13.644	-0.093	-0.062
-729.952	-83.907	-0.245	-0.080
-728.937	-14.758	-0.198	0.130
-727.923	-135.905	-0.455	-0.055
-726.908	-73.396	-0.536	-0.200
-725.894	-44.869	-0.337	0.171
-724.879	-153.201	-0.258	0.018
-723.864	-200.000	-0.028	0.215
-722.850	-55.581	0.220	0.101
-721.835	-13.848	-0.100	-0.066
-720.821	-200.000	-0.434	-0.001
-719.806	149.303	0.008	0.012
-718.791	800.000	0.050	-0.199
-717.777	-6.510	0.269	-0.187
-716.762	800.000	-0.110	-0.385
-715.748	800.000	0.073	-0.225
-714.733	35.439	0.340	-0.304
-713.718	-200.000	-0.036	0.295
-712.704	-35.918	0.338	0.187
-711.689	-84.155	0.272	0.088
-710.675	-5.452	-0.403	0.282
-709.660	501.335	-0.067	-0.158
-708.645	19.956	0.244	-0.201
-707.631	-123.228	0.277	-0.045
-706.616	-200.000	-0.012	-0.106
-705.602	-48.907	0.268	0.131
-704.587	291.115	0.184	0.341
-703.572	155.517	-0.145	0.204
-702.558	-138.475	-0.370	0.042
-701.543	-200.000	0.046	-0.223
-700.529	-54.619	0.209	0.097
-699.514	181.559	0.079	-0.119
-698.499	21.913	0.160	-0.133
-697.485	-80.186	0.261	0.089
-696.470	-200.000	-0.009	-0.056
-695.456	-137.224	0.091	-0.011
-694.441	355.904	-0.042	-0.085
-693.426	9.001	0.335	0.258
-692.412	-133.160	0.076	-0.010
-691.397	-46.399	0.086	0.043
-690.383	-103.074	-0.372	0.090
-689.368	447.165	-0.058	0.131
-688.354	124.931	0.040	0.052
-687.339	173.031	0.074	0.109
-686.324	-200.000	0.048	0.220
-685.310	-99.804	-0.234	0.060
-684.295	-102.068	0.120	0.030
-683.281	-78.575	0.176	0.061
-682.266	-32.193	0.078	0.045
-681.251	-76.465	-0.072	0.026
-680.237	-200.000	-0.013	0.424
-679.222	14.051	-0.166	0.132
-678.208	-5.383	0.052	-0.036
-677.193	16.173	0.187	-0.150
-676.178	-21.334	-0.207	0.129
-675.164	303.347	0.134	-0.253
-674.149	-152.789	-0.119	0.009
-673.135	94.079	-0.275	0.318
-672.120	-200.000	-0.028	-0.338
-671.105	-92.609	-0.163	-0.047
-670.091	800.000	0.055	-0.163
-669.076	-200.000	0.022	0.297
-668.062	219.364	-0.157	0.255
-667.047	45.061	0.069	0.065
-666.032	800.000	-0.073	-0.229
-665.018	-47.340	-0.307	-0.152
-664.003	-50.317	-0.126	0.061
-662.989	-200.000	0.028	0.156
-661.974	112.852	0.269	-0.333
-660.959	-81.365	0.303	-0.102
-659.945	16.585	0.290	-0.234
-658.930	145.071	-0.083	-0.113
-657.916	98.088	-0.130	0.153
-656.901	-157.929	-0.323	-0.019
-655.886	34.950	0.196	-0.175
-654.872	282.485	0.041	-0.074
-653.857	-107.696	0.076	-0.017
-652.843	-108.722	0.111	0.024
-651.828	-200.000	0.017	-0.093
-650.814	122.114	-0.217	-0.277
-649.799	5.856	0.210	0.158
-648.784	71.381	0.213	-0.225
-647.770	-194.664	-0.171	0.001
-646.755	-61.973	-0.329	-0.140
-645.741	243.036	0.080	0.136
-644.726	-128.987	-0.059	-0.008
-643.711	716.813	0.033	-0.089
-642.697	-127.830	-0.332	-0.049
-641.682	800.000	-0.094	-0.366
-640.668	44.643	-0.268	-0.251
-639.653	-41.633	0.195	0.102
-638.638	32.819	0.134	0.118
-637.624	-200.000	0.020	0.222
-636.609	-124.257	0.598	-0.095
-635.595	-132.599	-0.139	0.018
-634.580	-200.000	-0.006	-0.223
-633.565	28.908	-0.186	0.161
-632.551	-101.416	-0.333	-0.083
-631.536	-139.438	0.308	0.034
-630.522	63.548	-0.113	-0.116
-629.507	-200.000	-0.040	0.308
-628.492	-41.110	0.161	0.085
-627.478	-49.251	0.251	-0.122
-626.463	-39.966	0.226	0.120
-625.449	334.163	-0.028	0.055
-624.434	-24.846	0.062	0.037
-623.419	7.507	-0.115	-0.087
-622.405	427.406	-0.068	-0.149
-621.390	-200.000	0.032	-0.166
-620.376	-200.000	0.027	-0.244
-619.361	73.996	-0.214	-0.229
-618.346	-134.845	0.357	0.044
-617.332	-23.716	0.360	0.219
-616.317	-64.737	-0.285	0.117
-615.303	-22.660	-0.262	0.161
-614.288	-47.643	0.311	-0.154
-613.273	-92.911	0.119	0.034
-612.259	84.883	-0.177	-0.197
-611.244	74.111	-0.067	-0.071
-610.230	124.377	-0.317	0.405
-609.215	-182.633	0.410	0.008
-608.201	-84.222	0.303	-0.098
-607.186	-200.000	0.078	0.386
-606.171	-139.520	0.247	0.027
-605.157	-77.236	-0.181	0.064
-604.142	514.288	-0.066	-0.158
-603.128	263.140	0.043	-0.075
-602.113	615.008	-0.119	0.303
-601.098	-200.000	-0.029	0.215
-600.084	-172.088	-0.042	-0.001
-599.069	-45.844	-0.111	0.056
-598.055	800.000	0.018	0.075
-597.040	13.348	-0.012	-0.010
-596.025	-145.756	-0.134	0.012
-595.011	-200.000	0.003	-0.034
-593.996	-81.936	-0.179	0.059
-592.982	-116.699	-0.155	0.029
-591.967	131.969	-0.082	-0.107
-590.952	-200.000	-0.071	-0.419
-589.938	-43.161	-0.291	0.150
-588.923	26.758	0.213	0.181
-587.909	-97.413	-0.461	-0.122
-586.894	-37.904	0.201	0.109
-585.879	-156.544	0.173	0.011
-584.865	-200.000	-0.034	0.307
-583.850	-131.133	0.252	0.034
-582.836	-200.000	0.008	0.142
-581.821	-200.000	-0.014	-0.317
-580.806	-121.936	0.096	-0.016
-579.792	-130.483	0.049	0.007
-578.777	410.274	-0.070	0.151
-577.763	472.071	-0.089	-0.203
-576.748	74.857	0.063	-0.067
-575.733	8.577	0.260	0.199
-574.719	-11.050	0.153	0.103
-573.704	-200.000	0.012	0.233
-572.690	116.284	-0.076	0.094
-571.675	368.472	-0.161	-0.330
-570.661	-200.000	-0.050	0.363
-569.646	39.354	0.294	-0.267
-568.631	168.206	0.075	-0.108
-567.617	72.046	-0.174	-0.184
-566.602	487.019	-0.094	-0.217
-565.588	-125.444	-0.178	0.028
-564.573	-72.389	-0.024	-0.009
-563.558	-97.117	-0.417	0.111
-562.544	-55.298	0.209	-0.095
-561.529	-71.585	0.190	-0.072
-560.515	-109.837	0.207	-0.044
-559.500	-66.616	-0.313	0.126
-558.485	277.572	0.121	0.218
-557.471	14.611	0.181	-0.144
-556.456	55.983	0.187	0.184
-555.442	136.825	-0.175	0.231
-554.427	-107.857	-0.355	0.079
-553.412	-153.842	-0.208	-0.014
-552.398	-200.000	0.026	0.268
-551.383	-72.174	-0.183	0.069
-550.369	-115.321	-0.183	-0.035
-549.354	-200.000	0.011	0.129
-548.339	148.603	0.217	-0.298
-547.325	-200.000	-0.000	-0.518
-546.310	-96.825	-0.197	0.052
-545.296	15.039	-0.106	-0.085
-544.281	-92.267	-0.293	0.084
-543.266	-45.528	0.036	-0.018
-542.252	800.000	-0.139	-0.465
-541.237	293.298	-0.252	-0.466
-540.223	-200.000	-0.023	-0.237
-539.208	79.902	0.304	-0.331
-538.193	-104.238	0.121	-0.028
-537.179	146.125	-0.190	-0.258
-536.164	407.564	-0.078	-0.168
-535.150	441.575	-0.093	-0.207
-534.135	-200.000	0.003	0.205
-533.121	-70.029	0.206	-0.079
-532.106	-120.223	0.103	-0.018
-531.091	-98.592	0.304	-0.079
-530.077	755.086	-0.068	0.188
-529.062	73.662	-0.033	0.036
-528.048	-2.311	-0.329	0.234
-527.033	34.880	-0.009	-0.008
-526.018	616.286	0.093	-0.236
-525.004	800.000	0.055	-0.166
-523.989	-62.086	-0.213	0.090
-522.975	364.936	0.027	0.054
-521.960	-85.184	-0.222	0.070
-520.945	488.429	-0.145	0.335
-519.931	-30.630	-0.238	-0.137
-518.916	63.305	-0.149	0.151
-517.902	52.253	0.244	0.235
-516.887	224.769	-0.171	-0.281
-515.872	-60.264	0.218	-0.094
-514.858	-200.000	-0.077	0.344
-513.843	-123.568	-0.339	-0.055
-512.829	436.988	0.067	-0.148
-511.814	-21.037	-0.085	-0.052
-510.799	-130.431	-0.091	0.012
-509.785	-5.303	-0.134	0.093
-508.770	-200.000	-0.004	-0.122
-507.756	-97.374	-0.050	0.013
-506.741	761.395	0.117	0.322
-505.726	301.893	0.143	0.268
-504.712	-59.387	0.124	-0.054
-503.697	-63.910	-0.526	-0.218
-502.683	21.787	-0.173	-0.143
-501.668	-153.685	-0.094	0.007
-500.653	-129.496	-0.157	-0.022
-499.639	-148.006	0.032	0.003
-498.624	-131.891	-0.017	0.002
-497.610	-15.632	0.114	-0.074
-496.595	261.850	-0.114	-0.200
-495.581	-66.675	0.264	0.106
-494.566	-200.000	-0.012	-0.248
-493.551	-200.000	-0.580	0.001
-492.537	486.704	0.088	-0.204
-491.522	-200.000	-0.048	-0.247
-490.508	-200.000	0.019	-0.104
-489.493	800.000	-0.066	0.265
-488.478	-71.560	0.142	0.054
-487.464	-105.566	-0.386	-0.089
-486.449	-200.000	0.031	0.207
-485.435	-200.000	0.003	-0.180
-484.420	-200.000	-0.001	-0.251
-483.405	-141.608	0.414	-0.042
-482.391	-200.000	0.021	0.160
-481.376	800.000	0.074	0.327
-480.362	58.194	0.133	0.132
-479.347	34.155	-0.169	-0.149
-478.332	-68.281	-0.477	0.188
-477.318	158.484	-0.182	0.255
-476.303	-200.000	-0.042	-0.245
-475.289	-28.221	0.413	0.242
-474.274	800.000	0.036	-0.108
-473.259	34.193	-0.188	0.165
-472.245	-200.000	-0.019	0.212
-471.230	156.830	0.086	-0.121
-470.216	-124.439	0.159	0.025
-469.201	-193.822	-0.265	0.002
-468.186	481.564	0.039	0.090
-467.172	76.189	-0.309	-0.331
-466.157	-118.853	0.027	-0.005
-465.143	-97.121	0.251	0.066
-464.128	800.000	-0.065	-0.283
-463.113	52.531	0.334	-0.323
-462.099	83.907	0.076	-0.084
-461.084	323.315	-0.130	-0.251
-460.070	108.937	0.225	-0.272
-459.055	-132.660	0.311	0.040
-458.040	-70.086	0.133	0.051
-457.026	-150.579	0.111	-0.009
-456.011	147.028	0.005	-0.007
-454.997	-83.282	-0.170	-0.055
-453.982	318.449	0.188	-0.359
-452.968	-66.388	0.100	0.040
-451.953	257.481	0.098	0.170
-450.938	-200.000	0.068	0.444
-449.924	800.000	-0.043	0.181
-448.909	16.900	0.321	-0.257
-447.895	800.000	0.124	0.375
-446.880	0.584	0.129	-0.093
-445.865	-127.041	0.028	-0.004
-444.851	421.867	0.043	0.092
-443.836	-200.000	0.056	0.267
-442.822	22.569	-0.254	-0.210
-441.807	-200.000	0.006	-0.289
-440.792	-24.827	-0.338	-0.203
-439.778	116.156	0.031	-0.038
-438.763	331.576	-0.061	-0.119
-437.749	17.142	-0.032	-0.025
-436.734	170.418	-0.040	0.058
-435.719	378.803	0.080	0.165
-434.705	-83.086	-0.296	0.096
-433.690	-128.752	0.127	-0.018
-432.676	-200.000	0.040	0.225
-431.661	-38.513	-0.109	-0.058
-430.646	800.000	0.047	-0.186
-429.632	675.063	-0.099	0.260
-428.617	117.529	0.159	-0.197
-427.603	-157.639	-0.197	-0.012
-426.588	297.048	0.069	0.129
-425.573	-100.745	0.134	-0.033
-424.559	90.249	0.250	0.282
-423.544	800.000	0.047	0.194
-422.530	255.327	-0.035	-0.061
-421.515	-87.873	-0.062	-0.019
-420.500	-69.477	-0.268	-0.104
-419.486	-34.278	-0.193	0.107
-418.471	491.037	0.059	-0.137
-417.457	-19.418	-0.097	0.060
-416.442	-200.000	-0.013	-0.195
-415.428	-30.833	0.159	-0.091
-414.413	800.000	-0.084	0.266
-413.398	194.465	-0.136	0.208
-412.384	-76.446	-0.230	0.082
-411.369	-100.313	0.239	0.060
-410.355	800.000	-0.124	-0.412
-409.340	189.674	0.166	0.252
-408.325	-63.945	-0.166	-0.068
-407.311	200.496	-0.049	0.076
-406.296	-120.593	0.445	-0.076
-405.282	800.000	0.064	0.223
-404.267	-167.605	-0.041	0.002
-403.252	-46.074	0.096	-0.048
-402.238	-89.357	0.193	-0.057
-401.223	-119.988	0.231	0.040
-400.209	200.389	-0.235	0.364
-399.194	11.539	-0.207	-0.160
-398.179	-22.765	-0.057	-0.035
-397.165	15.530	0.208	-0.165
-396.150	-200.000	-0.037	-0.239
-395.136	-106.189	0.475	0.107
-394.121	-200.000	0.004	-0.091
-393.106	800.000	-0.084	0.243
-392.092	62.742	-0.128	-0.129
-391.077	800.000	0.059	-0.179
-390.063	2.760	0.266	-0.195
-389.048	354.707	0.299	-0.599
-388.033	-200.000	-0.030	0.208
-387.019	-200.000	0.019	0.123
-386.004	-26.731	0.226	-0.133
-384.990	30.670	-0.139	0.120
-383.975	-20.512	0.102	0.063
-382.960	-200.000	0.040	-0.196
-381.946	-137.529	0.065	-0.007
-380.931	-200.000	-0.010	-0.075
-379.917	-109.783	0.087	0.018
-378.902	-147.655	0.132	-0.011
-377.888	-200.000	-0.069	0.343
-376.873	22.774	0.311	0.257
-375.858	800.000	-0.017	0.051
-374.844	-51.742	0.157	0.074
-373.829	170.641	-0.115	0.166
-372.815	-94.359	-0.201	-0.055
-371.800	198.086	0.144	-0.221
-370.785	-82.172	0.127	-0.042
-369.771	-200.000	0.025	-0.270
-368.756	800.000	-0.037	0.158
-367.742	800.000	0.119	0.469
-366.727	-200.000	0.036	0.268
-365.712	152.024	0.082	0.113
-364.698	69.618	-0.043	0.045
-363.683	-139.283	-0.075	-0.008
-362.669	-63.697	-0.182	0.075
-361.654	-17.807	0.235	-0.149
-360.639	7.745	0.553	0.417
-359.625	-200.000	0.021	0.219
-358.610	-95.008	0.088	0.024
-357.596	-112.321	-0.095	-0.019
-356.581	-124.260	0.126	-0.020
-355.566	-48.517	0.230	0.111
-354.552	-47.593	-0.275	-0.134
-353.537	-42.025	-0.101	-0.052
-352.523	-8.673	-0.302	-0.204
-351.508	-19.900	-0.200	-0.124
-350.493	-15.231	0.110	0.071
-349.479	-104.485	-0.175	-0.041
-348.464	-200.000	0.016	0.246
-347.450	-117.277	-0.177	-0.032
-346.435	800.000	0.129	0.463
-345.420	-16.602	-0.214	-0.137
-344.406	78.186	0.231	0.248
-343.391	78.895	0.320	0.345
-342.377	-170.469	-0.333	0.012
-341.362	-1.738	-0.085	0.060
-340.348	-200.000	0.018	0.097
-339.333	800.000	0.025	0.104
-338.318	-200.000	-0.123	0.000
-337.304	93.150	-0.187	0.213
-336.289	285.150	-0.069	0.124
-335.275	-200.000	0.032	0.203
-334.260	-200.000	0.051	0.468
-333.245	196.818	-0.113	-0.173
-332.231	337.419	-0.081	-0.159
-331.216	-120.135	-0.169	-0.029
-330.202	82.130	0.257	-0.281
-329.187	-19.599	0.042	-0.026
-328.172	800.000	0.012	-0.041
-327.158	169.356	0.233	-0.334
-326.143	-174.191	-0.252	0.007
-325.129	90.070	0.122	0.137
-324.114	-129.213	0.088	0.012
-323.099	-39.445	0.063	0.033
-322.085	-15.258	-0.142	0.091
-321.070	-7.479	0.129	-0.088
-320.056	231.603	0.034	-0.057
-319.041	800.000	-0.013	0.047
-318.026	-91.224	0.073	0.021
-317.012	-83.836	0.488	-0.156
-315.997	18.697	-0.209	0.168
-314.983	45.799	0.186	0.173
-313.968	-200.000	0.017	0.138
-312.953	-200.000	0.013	0.156
-311.939	-115.353	0.172	0.033
-310.924	-70.034	0.197	0.076
-309.910	-28.580	0.283	0.164
-308.895	26.842	-0.132	0.111
-307.880	428.353	-0.036	0.078
-306.866	-85.306	-0.144	-0.045
-305.851	51.148	0.124	-0.118
-304.837	-200.000	-0.002	-0.181
-303.822	458.711	-0.176	0.392
-302.807	-19.808	0.180	0.112
-301.793	-62.057	-0.155	0.065
-300.778	573.783	0.026	0.063
-299.764	-165.639	-0.367	0.016
-298.749	798.407	-0.108	-0.300
-297.735	-161.009	-0.234	-0.012
-296.720	-200.000	0.005	-0.045
-295.705	58.004	0.086	0.085
-294.691	0.851	-0.192	0.138
-293.676	-200.000	0.007	-0.076
-292.662	-103.238	0.340	0.081
-291.647	79.166	0.054	-0.059
-290.632	-114.498	0.229	0.044
-289.618	102.658	-0.092	0.109
-288.603	-71.459	0.136	0.051
-287.589	210.038	-0.126	-0.198
-286.574	236.823	-0.041	-0.067
-285.559	-120.036	0.164	0.028
-284.545	457.332	0.229	0.510
-283.530	-66.066	-0.029	-0.011
-282.516	-80.836	0.160	-0.053
-281.501	-86.759	0.101	0.031
-280.486	-65.978	0.025	-0.010
-279.472	9.221	-0.120	-0.091
-278.457	250.418	-0.039	0.067
-277.443	-14.408	-0.165	0.107
-276.428	148.444	0.135	0.182
-275.413	-193.078	0.136	-0.001
-274.399	-114.668	-0.144	-0.028
-273.384	662.489	-0.016	-0.041
-272.370	-200.000	0.008	0.239
-271.355	170.266	0.179	0.257
-270.340	-200.000	-0.103	-0.470
-269.326	-42.205	0.232	0.119
-268.311	-83.438	0.411	-0.132
-267.297	-155.608	-0.256	-0.016
-266.282	6.924	-0.189	-0.141
-265.267	-200.000	0.072	0.516
-264.253	666.966	0.149	0.387
-263.238	58.462	-0.234	-0.230
-262.224	-183.190	0.153	0.003
-261.209	-200.000	0.015	-0.072
-260.195	-6.309	-0.156	-0.107
-259.180	64.608	0.232	-0.235
-258.165	145.297	-0.251	-0.337
-257.151	-178.632	-0.059	-0.001
-256.136	-174.894	-0.404	-0.011
-255.122	-200.000	0.003	-0.049
-254.107	-155.253	-0.089	0.006
-253.092	54.212	-0.206	-0.199
-252.078	39.337	0.241	-0.216
-251.063	-200.000	-0.053	0.285
-250.049	445.918	-0.079	-0.173
-249.034	-200.000	0.029	-0.359
-248.019	12.185	-0.279	-0.216
-247.005	179.903	0.136	-0.200
-245.990	-99.033	-0.078	-0.020
-244.976	367.031	0.052	0.105
-243.961	-23.919	0.155	-0.093
-242.946	150.137	0.118	0.161
-241.932	-103.385	-0.052	-0.012
-240.917	-185.087	-0.087	-0.001
-239.903	86.286	0.215	-0.237
-238.888	442.400	0.199	0.436
-237.873	137.027	0.077	0.101
-236.859	412.965	0.009	0.020
-235.844	-47.752	-0.141	-0.068
-234.830	54.710	0.073	0.071
-233.815	-101.975	0.175	-0.042
-232.800	-200.000	-0.001	-0.193
-231.786	449.449	0.123	0.271
-230.771	-200.000	0.061	0.295
-229.757	-48.596	-0.345	-0.166
-228.742	-200.000	0.044	0.221
-227.727	-200.000	-0.001	-0.018
-226.713	800.000	-0.049	-0.207
-225.698	800.000	0.057	0.231
-224.684	-23.697	-0.237	-0.142
-223.669	-81.184	-0.128	-0.042
-222.655	-18.490	0.127	-0.079
-221.640	379.735	0.015	0.030
-220.625	800.000	0.035	0.124
-219.611	131.631	-0.148	-0.191
-218.596	-200.000	-0.030	-0.217
-217.582	161.182	-0.172	0.241
-216.567	127.606	-0.178	-0.226
-215.552	-200.000	0.043	-0.279
-214.538	363.123	-0.099	-0.199
-213.523	364.762	-0.075	-0.151
-212.509	320.071	-0.230	0.437
-211.494	-200.000	-0.006	-0.191
-210.479	-200.000	-0.019	-0.231
-209.465	178.770	-0.183	0.268
-208.450	20.311	0.109	0.088
-207.436	428.723	-0.149	-0.322
-206.421	-194.857	0.206	0.002
-205.406	188.406	-0.208	-0.311
-204.392	-46.220	-0.170	0.084
-203.377	562.246	-0.035	-0.084
-202.363	504.589	-0.160	-0.370
-201.348	106.301	0.009	-0.011
-200.333	454.059	0.060	-0.133
-199.319	-130.687	-0.210	0.028
-198.304	89.234	0.167	0.186
-197.290	142.340	-0.063	-0.084
-196.275	-54.857	0.260	-0.117
-195.260	-200.000	-0.006	0.144
-194.246	35.840	-0.066	-0.058
-193.231	-172.456	-0.314	0.010
-192.217	-72.240	0.128	0.047
-191.202	800.000	0.021	0.078
-190.187	176.987	0.123	0.178
-189.173	95.782	0.223	-0.254
-188.158	-129.772	0.129	0.018
-187.144	-12.796	0.272	0.177
-186.129	-60.496	-0.228	0.097
-185.114	-200.000	0.007	0.274
-184.100	109.988	-0.101	-0.121
-183.085	-42.943	0.183	0.093
-182.071	-60.016	-0.290	-0.124
-181.056	-200.000	-0.034	-0.164
-180.042	39.994	0.259	0.233
-179.027	800.000	0.064	-0.224
-178.012	1.879	-0.156	0.112
-176.998	108.000	0.160	-0.190
-175.983	490.799	-0.133	0.305
-174.969	95.628	0.068	-0.077
-173.954	-107.461	-0.135	0.029
-172.939	-151.760	0.358	0.026
-171.925	126.927	0.137	0.174
-170.910	-200.000	-0.056	0.301
-169.896	76.889	0.044	-0.046
-168.881	-27.857	-0.155	0.090
-167.866	-99.113	-0.259	-0.065
-166.852	-76.040	0.335	0.118
-165.837	73.804	-0.158	0.166
-164.823	-152.982	0.038	0.003
-163.808	-9.128	0.152	0.102
-162.793	-57.724	-0.107	0.047
-161.779	800.000	-0.118	-0.346
-160.764	800.000	0.091	-0.360
-159.750	-42.179	-0.102	0.052
-158.735	148.415	0.113	-0.152
-157.720	-48.638	-0.091	-0.044
-156.706	-200.000	-0.030	-0.136
-155.691	-57.000	0.257	-0.113
-154.677	-200.000	-0.057	0.316
-153.662	-39.932	0.181	-0.094
-152.647	25.421	-0.234	-0.194
-151.633	800.000	0.141	-0.431
-150.618	405.814	0.018	-0.037
-149.604	143.631	-0.061	-0.081
-148.589	-43.472	-0.282	0.142
-147.574	99.306	0.127	0.147
-146.560	43.450	0.065	0.060
-145.545	-111.347	-0.103	0.021
-144.531	-58.260	0.090	0.039
-143.516	800.000	0.022	0.068
-142.502	185.103	0.113	-0.168
-141.487	-200.000	-0.017	0.260
-140.472	533.461	0.140	0.330
-139.458	-120.662	0.230	-0.039
-138.443	-116.730	0.175	-0.032
-137.429	-200.000	0.035	0.205
-136.414	32.562	-0.145	-0.125
-135.399	24.404	0.245	-0.202
-134.385	-200.000	-0.007	0.057
-133.370	16.293	0.163	0.128
-132.356	800.000	-0.115	0.346
-131.341	223.718	0.194	0.312
-130.326	-200.000	-0.035	0.244
-129.312	422.315	-0.098	0.210
-128.297	800.000	0.058	0.250
-127.283	-200.000	-0.013	-0.304
-126.268	283.117	-0.049	-0.088
-125.253	-112.609	0.322	0.064
-124.239	-8.244	-0.082	-0.055
-123.224	80.141	0.212	0.227
-122.210	800.000	0.058	0.236
-121.195	-56.792	-0.145	0.064
