DTS Sentinel unit serial number:	SN413079Multiplexer serial number:	ORYXHardware model number:	OX4-SRSoftware version number:	ORYX F/W v4.00 Oryx Data Collector v3.7.2.0data status	okinstallation	princeton_trtdifferential loss correction	single-endedforward channel	channel 1reverse channel	N/Adate	2019/09/14time	08:14:35forward acquisition time	60.00reverse acquisition time	0.00gamma	496.2192k internal	0.2329k external	0.2329temperature offset calibration	1.0069default loss term (dB/km)	0.3790temperature slope calibration	1.0000multiplexer offset coefficient	1.0000multiplexer slope coefficient	1.0000fibre end	0.00T internal ref (°C)	27.59T ext. ref 1 (°C)	3.58T ext. ref 2 (°C)	26.21length (m)	temperature (°C)	Stokes	anti-Stokes-747.200	565.637	-0.131	-0.320
-746.185	99.127	0.083	0.096
-745.171	800.000	0.103	-0.330
-744.156	-68.044	-0.390	0.153
-743.142	29.500	0.127	0.108
-742.127	-127.144	0.263	-0.039
-741.112	-6.641	0.205	0.141
-740.098	800.000	0.121	0.445
-739.083	-9.870	-0.149	0.100
-738.069	-1.544	0.199	-0.141
-737.054	-200.000	-0.001	-0.144
-736.039	-53.957	-0.233	0.107
-735.025	28.148	0.253	0.215
-734.010	213.174	0.062	-0.098
-732.996	82.787	0.107	-0.117
-731.981	-44.051	-0.514	-0.260
-730.966	-200.000	0.040	-0.513
-729.952	100.043	0.118	-0.138
-728.937	-114.042	0.105	0.020
-727.923	25.797	-0.042	-0.035
-726.908	197.203	-0.056	0.086
-725.894	-200.000	-0.031	0.272
-724.879	-200.000	0.033	-0.171
-723.864	-200.000	0.003	0.102
-722.850	127.979	0.115	0.148
-721.835	41.776	-0.164	-0.150
-720.821	-119.258	-0.274	-0.048
-719.806	-131.898	-0.118	0.015
-718.791	215.674	0.193	-0.308
-717.777	73.781	0.160	-0.168
-716.762	-28.134	0.254	0.148
-715.748	664.039	0.087	-0.226
-714.733	226.250	-0.157	-0.256
-713.718	27.406	-0.267	-0.226
-712.704	25.747	0.134	0.112
-711.689	-200.000	-0.051	-0.409
-710.675	800.000	-0.072	-0.225
-709.660	-122.878	-0.132	-0.021
-708.645	33.223	0.161	0.141
-707.631	-129.243	0.477	-0.067
-706.616	57.203	0.162	0.159
-705.602	-38.714	0.355	0.189
-704.587	103.907	-0.078	-0.092
-703.572	-36.276	0.267	0.145
-702.558	-90.541	-0.360	-0.105
-701.543	-200.000	-0.052	-0.266
-700.529	19.302	0.078	-0.063
-699.514	-200.000	0.007	-0.060
-698.499	10.249	0.256	-0.196
-697.485	-200.000	-0.000	0.265
-696.470	-32.365	-0.068	-0.038
-695.456	-9.420	-0.134	0.090
-694.441	-200.000	-0.011	-0.128
-693.426	-79.848	0.087	0.029
-692.412	144.870	-0.167	0.225
-691.397	-117.427	0.294	0.053
-690.383	-80.292	0.215	0.072
-689.368	-83.186	0.254	-0.082
-688.354	-200.000	-0.033	-0.207
-687.339	-200.000	0.037	-0.332
-686.324	101.949	0.195	-0.229
-685.310	800.000	-0.096	0.326
-684.295	158.470	-0.114	-0.159
-683.281	-106.170	-0.130	0.029
-682.266	-200.000	0.001	-0.013
-681.251	-50.509	-0.215	-0.102
-680.237	121.572	-0.093	-0.117
-679.222	-2.887	-0.143	-0.100
-678.208	-124.154	0.337	0.053
-677.193	-13.528	0.080	-0.052
-676.178	-200.000	0.019	-0.208
-675.164	184.285	0.138	-0.206
-674.149	-126.100	-0.160	0.024
-673.135	800.000	0.033	-0.118
-672.120	186.082	0.227	-0.339
-671.105	-78.746	0.337	0.116
-670.091	-160.093	-0.112	-0.006
-669.076	-200.000	-0.038	-0.299
-668.062	800.000	-0.069	-0.231
-667.047	-200.000	0.025	-0.252
-666.032	-52.309	-0.161	0.075
-665.018	-88.799	0.160	0.048
-664.003	-154.071	0.187	0.013
-662.989	-77.493	0.174	-0.061
-661.974	-189.198	-0.103	-0.001
-660.959	-97.242	-0.141	-0.037
-659.945	-135.466	0.091	-0.011
-658.930	-200.000	-0.024	0.255
-657.916	-200.000	-0.048	-0.442
-656.901	-54.732	0.136	-0.062
-655.886	34.631	-0.075	0.066
-654.872	63.700	-0.418	-0.421
-653.857	-29.303	0.282	-0.162
-652.843	-62.141	-0.213	-0.089
-651.828	-200.000	0.007	0.076
-650.814	134.095	0.165	0.215
-649.799	258.928	-0.035	-0.061
-648.784	-38.739	-0.053	0.028
-647.770	-200.000	-0.037	-0.449
-646.755	-200.000	0.025	-0.247
-645.741	20.095	-0.032	0.026
-644.726	-101.276	-0.402	0.098
-643.711	-0.133	-0.013	0.009
-642.697	146.195	-0.137	0.185
-641.682	-200.000	-0.040	0.214
-640.668	212.816	-0.192	0.305
-639.653	-156.926	-0.452	-0.028
-638.638	-200.000	-0.050	0.263
-637.624	273.602	0.050	-0.090
-636.609	179.781	0.038	0.056
-635.595	-200.000	0.001	0.254
-634.580	-200.000	-0.043	0.315
-633.565	-123.177	-0.236	-0.038
-632.551	14.188	-0.151	0.118
-631.536	-116.622	0.266	-0.049
-630.522	67.960	-0.104	0.106
-629.507	-151.411	0.221	-0.017
-628.492	-200.000	-0.032	-0.142
-627.478	60.158	0.060	0.059
-626.463	97.656	-0.297	-0.342
-625.449	-63.012	0.163	0.068
-624.434	-200.000	0.016	0.124
-623.419	370.060	0.182	-0.370
-622.405	-66.734	0.148	-0.059
-621.390	161.573	-0.182	0.256
-620.376	-200.000	-0.019	-0.339
-619.361	99.512	-0.096	0.111
-618.346	567.545	-0.169	0.410
-617.332	480.599	-0.060	0.137
-616.317	800.000	0.081	-0.260
-615.303	-59.804	0.117	0.050
-614.288	-126.327	-0.069	0.010
-613.273	254.421	0.108	0.186
-612.259	-200.000	0.000	0.167
-611.244	14.690	0.205	-0.160
-610.230	-200.000	0.041	0.258
-609.215	50.425	0.177	-0.168
-608.201	337.098	0.078	0.151
-607.186	-67.343	-0.498	0.196
-606.171	224.344	-0.084	0.136
-605.157	458.504	0.088	0.196
-604.142	-137.092	-0.269	0.031
-603.128	50.512	-0.041	-0.039
-602.113	-36.457	0.159	0.086
-601.098	184.907	-0.072	0.107
-600.084	-43.109	-0.089	0.045
-599.069	-71.281	-0.209	0.078
-598.055	800.000	-0.014	0.058
-597.040	-200.000	0.006	-0.127
-596.025	108.678	0.157	-0.188
-595.011	-61.963	-0.499	0.209
-593.996	-200.000	0.001	0.115
-592.982	-200.000	-0.023	-0.227
-591.967	61.219	0.136	0.135
-590.952	26.429	-0.164	-0.137
-589.938	-134.615	-0.119	-0.015
-588.923	334.285	0.067	-0.130
-587.909	-69.399	-0.347	-0.133
-586.894	179.460	-0.266	-0.390
-585.879	-113.038	0.218	0.043
-584.865	306.709	-0.138	-0.257
-583.850	47.593	0.011	0.010
-582.836	100.271	0.209	-0.243
-581.821	-200.000	-0.003	0.172
-580.806	71.734	-0.070	0.072
-579.792	-26.962	0.369	0.216
-578.777	66.072	-0.100	-0.102
-577.763	-152.084	-0.265	0.019
-576.748	-73.382	0.194	0.071
-575.733	-55.755	0.076	-0.034
-574.719	77.735	-0.103	0.110
-573.704	43.698	0.169	-0.155
-572.690	-87.097	0.193	-0.059
-571.675	228.127	0.054	-0.088
-570.661	-200.000	-0.000	-0.021
-569.646	-200.000	0.022	-0.315
-568.631	-200.000	0.036	-0.181
-567.617	800.000	0.107	-0.370
-566.602	-62.171	-0.492	-0.205
-565.588	-73.077	-0.158	0.058
-564.573	800.000	-0.033	-0.116
-563.558	-142.142	-0.061	-0.006
-562.544	125.569	0.060	0.075
-561.529	102.210	-0.151	-0.176
-560.515	104.510	-0.082	0.096
-559.500	800.000	-0.016	0.067
-558.485	315.926	0.078	-0.147
-557.471	51.650	0.087	0.083
-556.456	519.990	-0.082	-0.192
-555.442	-91.028	0.217	0.062
-554.427	632.905	-0.054	-0.137
-553.412	800.000	-0.048	0.157
-552.398	142.117	-0.126	-0.167
-551.383	298.626	-0.034	0.063
-550.369	48.682	-0.228	0.213
-549.354	-200.000	0.039	-0.252
-548.339	-118.389	0.190	-0.034
-547.325	-136.624	-0.147	0.017
-546.310	-135.457	0.155	0.019
-545.296	85.513	-0.095	-0.105
-544.281	-102.681	-0.223	0.053
-543.266	203.910	-0.084	-0.130
-542.252	80.418	-0.179	0.193
-541.237	-60.517	-0.136	0.058
-540.223	-101.763	-0.171	-0.041
-539.208	-86.957	0.165	-0.050
-538.193	592.059	-0.096	-0.238
-537.179	-96.562	0.218	-0.057
-536.164	-76.554	-0.261	0.092
-535.150	-123.554	0.141	0.022
-534.135	82.844	0.100	-0.109
-533.121	-176.506	0.162	0.004
-532.106	800.000	-0.034	-0.127
-531.091	-25.917	-0.433	-0.255
-530.077	163.545	0.188	0.264
-529.062	-140.690	0.072	-0.007
-528.048	38.581	0.161	0.143
-527.033	290.065	-0.047	0.085
-526.018	372.417	-0.067	0.136
-525.004	-78.591	0.286	0.098
-523.989	-108.591	0.257	0.055
-522.975	573.558	0.135	-0.328
-521.960	765.083	-0.060	0.164
-520.945	-200.000	0.003	-0.127
-519.931	339.122	-0.072	-0.139
-518.916	-82.139	-0.172	0.056
-517.902	-200.000	-0.055	-0.299
-516.887	352.587	-0.167	-0.331
-515.872	-200.000	0.003	-0.193
-514.858	12.441	0.113	-0.087
-513.843	800.000	-0.052	-0.210
-512.829	3.219	-0.123	0.089
-511.814	434.975	-0.004	0.008
-510.799	-200.000	0.048	0.318
-509.785	-92.607	0.302	-0.084
-508.770	-92.329	-0.137	0.039
-507.756	-200.000	-0.007	-0.054
-506.741	-200.000	0.012	-0.086
-505.726	77.717	0.069	-0.073
-504.712	-44.005	-0.159	0.080
-503.697	61.822	0.133	0.132
-502.683	104.574	-0.089	-0.104
-501.668	68.003	-0.074	-0.076
-500.653	-65.993	0.235	-0.093
-499.639	-59.212	0.158	-0.068
-498.624	-150.665	0.335	-0.026
-497.610	67.386	0.207	-0.211
-496.595	2.626	-0.108	0.078
-495.581	-172.997	-0.180	-0.006
-494.566	310.366	-0.129	0.240
-493.551	46.223	-0.132	-0.122
-492.537	-200.000	-0.140	0.000
-491.522	-120.423	-0.105	0.018
-490.508	-23.100	-0.328	0.197
-489.493	677.049	0.067	-0.175
-488.478	133.848	-0.156	0.201
-487.464	-109.577	0.354	0.074
-486.449	-200.000	0.005	-0.183
-485.435	-200.000	-0.033	0.203
-484.420	-119.246	0.547	-0.095
-483.405	-200.000	0.037	-0.230
-482.391	-79.402	0.129	0.043
-481.376	-80.580	-0.350	-0.116
-480.362	64.873	0.115	-0.116
-479.347	78.761	0.112	-0.120
-478.332	-180.175	0.232	-0.005
-477.318	-53.410	-0.408	0.186
-476.303	-31.957	0.143	-0.080
-475.289	-19.728	0.185	0.114
-474.274	357.688	-0.109	-0.216
-473.259	96.336	0.200	-0.228
-472.245	-200.000	0.010	-0.187
-471.230	-152.396	-0.444	-0.032
-470.216	-66.361	0.225	-0.089
-469.201	800.000	-0.020	-0.067
-468.186	7.704	-0.319	0.238
-467.172	170.478	-0.100	0.143
-466.157	-116.532	-0.121	-0.022
-465.143	0.637	0.079	0.057
-464.128	600.963	-0.051	-0.126
-463.113	-82.003	-0.163	0.053
-462.099	382.014	-0.069	-0.142
-461.084	-9.483	-0.352	-0.234
-460.070	-34.083	0.202	-0.111
-459.055	-200.000	0.062	-0.305
-458.040	154.133	0.336	0.460
-457.026	84.637	-0.126	-0.137
-456.011	-5.501	-0.186	0.127
-454.997	-75.226	0.157	0.056
-453.982	108.571	0.217	-0.258
-452.968	-1.567	-0.324	0.228
-451.953	285.663	0.013	-0.023
-450.938	-110.441	-0.332	0.069
-449.924	-82.219	0.397	0.129
-448.909	-112.209	0.167	-0.033
-447.895	-37.106	0.177	-0.094
-446.880	-63.517	-0.290	0.119
-445.865	800.000	0.024	0.071
-444.851	-15.767	-0.121	0.077
-443.836	227.975	-0.090	0.146
-442.822	-47.242	-0.086	0.042
-441.807	-174.211	0.411	0.012
-440.792	-62.965	0.198	0.081
-439.778	111.610	0.027	0.033
-438.763	135.607	0.162	0.210
-437.749	36.983	0.157	0.139
-436.734	441.164	-0.062	-0.134
-435.719	23.964	-0.092	0.075
-434.705	-200.000	-0.076	0.351
-433.690	59.442	0.324	-0.318
-432.676	301.619	-0.108	0.198
-431.661	2.028	0.191	-0.137
-430.646	-200.000	-0.010	0.147
-429.632	26.869	-0.254	0.212
-428.617	-200.000	-0.187	-0.001
-427.603	-150.159	-0.204	-0.016
-426.588	170.766	0.343	-0.489
-425.573	203.262	-0.043	0.066
-424.559	55.735	-0.298	0.287
-423.544	33.734	-0.108	-0.093
-422.530	-71.802	-0.154	0.057
-421.515	103.943	-0.098	0.114
-420.500	50.580	0.048	-0.045
-419.486	-200.000	0.015	-0.342
-418.471	158.921	-0.043	-0.060
-417.457	125.030	0.115	-0.145
-416.442	-88.832	0.164	-0.048
-415.428	-123.960	-0.271	-0.042
-414.413	87.440	0.171	0.188
-413.398	-135.435	-0.375	0.045
-412.384	-144.074	0.335	0.031
-411.369	145.380	0.101	0.134
-410.355	221.981	-0.130	0.207
-409.340	127.600	-0.177	0.223
-408.325	-98.513	0.386	-0.098
-407.311	-28.070	-0.105	-0.060
-406.296	165.206	0.081	0.113
-405.282	-47.463	-0.125	-0.060
-404.267	-149.966	-0.137	0.011
-403.252	-200.000	-0.019	-0.091
-402.238	68.606	0.217	0.221
-401.223	186.587	-0.077	0.114
-400.209	800.000	0.014	-0.053
-399.194	-143.531	-0.302	-0.029
-398.179	-200.000	0.012	0.062
-397.165	-200.000	-0.015	-0.359
-396.150	101.568	0.090	0.104
-395.136	30.317	-0.188	0.160
-394.121	324.322	-0.182	0.346
-393.106	164.302	-0.177	0.248
-392.092	-47.577	-0.251	0.121
-391.077	-14.158	-0.152	0.098
-390.063	-175.171	0.277	-0.008
-389.048	-200.000	-0.042	-0.478
-388.033	-42.593	0.119	-0.060
-387.019	455.569	0.095	0.208
-386.004	-62.947	0.040	0.016
-384.990	800.000	-0.089	-0.253
-383.975	-99.467	0.284	0.071
-382.960	-200.000	0.003	-0.479
-381.946	-80.086	0.138	0.046
-380.931	-200.000	0.054	0.398
-379.917	-118.281	0.254	0.045
-378.902	-95.705	0.097	0.026
-377.888	-200.000	0.011	0.412
-376.873	-11.025	-0.223	-0.146
-375.858	-87.942	-0.205	-0.061
-374.844	-124.182	0.372	0.058
-373.829	187.825	0.165	-0.245
-372.815	-45.310	-0.258	-0.127
-371.800	747.089	0.037	0.099
-370.785	504.974	-0.145	0.332
-369.771	62.684	0.088	0.087
-368.756	95.901	-0.124	-0.141
-367.742	45.552	0.108	0.099
-366.727	-24.630	-0.249	-0.147
-365.712	400.068	0.149	0.311
-364.698	-200.000	-0.026	-0.209
-363.683	65.781	0.143	0.144
-362.669	-200.000	0.062	-0.345
-361.654	1.341	0.128	0.091
-360.639	-146.186	0.170	0.015
-359.625	100.623	-0.151	0.174
-358.610	-200.000	0.012	0.230
-357.596	104.984	0.007	0.009
-356.581	-40.261	-0.101	0.052
-355.566	-132.389	0.174	-0.022
-354.552	-200.000	-0.016	0.192
-353.537	-85.290	-0.119	-0.037
-352.523	-200.000	-0.025	0.118
-351.508	123.277	-0.086	-0.107
-350.493	174.416	-0.046	0.066
-349.479	-20.353	-0.172	0.105
-348.464	-98.205	0.320	0.082
-347.450	211.328	0.099	0.155
-346.435	-137.962	0.282	0.031
-345.420	-98.639	-0.066	-0.017
-344.406	65.328	-0.150	0.151
-343.391	418.973	0.199	0.421
-342.377	-46.129	0.068	0.033
-341.362	-200.000	0.261	-0.000
-340.348	451.325	0.042	0.091
-339.333	-200.000	0.005	0.098
-338.318	-52.071	0.156	-0.072
-337.304	-149.308	0.323	0.025
-336.289	69.851	-0.067	0.068
-335.275	-200.000	-0.010	0.081
-334.260	-29.970	0.199	-0.112
-333.245	33.476	0.078	-0.067
-332.231	-16.734	0.278	-0.174
-331.216	800.000	-0.109	0.469
-330.202	65.515	-0.175	-0.175
-329.187	612.450	0.012	0.031
-328.172	348.958	-0.221	0.433
-327.158	-117.528	-0.374	-0.067
-326.143	51.370	-0.177	-0.166
-325.129	-38.306	0.175	-0.092
-324.114	-200.000	0.010	-0.052
-323.099	178.038	0.226	-0.326
-322.085	609.537	0.052	-0.129
-321.070	-200.000	0.074	-0.330
-320.056	-47.565	-0.110	0.053
-319.041	182.068	0.179	-0.261
-318.026	-200.000	0.016	0.300
-317.012	-164.548	0.248	-0.011
-315.997	-19.099	-0.290	-0.178
-314.983	-18.315	0.506	0.313
-313.968	75.292	-0.232	-0.242
-312.953	-124.948	-0.029	0.004
-311.939	163.882	0.083	-0.115
-310.924	217.869	0.160	-0.252
-309.910	-96.592	-0.245	0.064
-308.895	752.134	0.088	-0.235
-307.880	-122.733	0.204	0.033
-306.866	146.727	0.068	0.091
-305.851	-200.000	-0.069	-0.306
-304.837	-145.299	0.151	-0.014
-303.822	-175.901	0.417	0.011
-302.807	-90.218	0.172	0.050
-301.793	-27.379	-0.100	0.057
-300.778	-109.335	0.043	-0.009
-299.764	30.612	-0.230	-0.195
-298.749	-104.813	0.066	-0.015
-297.735	229.158	0.063	-0.102
-296.720	114.146	-0.270	-0.325
-295.705	420.432	-0.118	0.251
-294.691	160.486	-0.049	0.067
-293.676	71.474	0.297	0.305
-292.662	769.095	-0.052	0.141
-291.647	-11.233	-0.215	-0.140
-290.632	674.679	-0.179	0.459
-289.618	-21.659	-0.111	0.067
-288.603	-55.599	-0.282	0.125
-287.589	-90.536	0.125	0.036
-286.574	-160.662	-0.355	0.019
-285.559	-140.689	0.133	-0.014
-284.545	-75.851	-0.430	0.151
-283.530	41.891	-0.057	-0.051
-282.516	800.000	-0.026	0.110
-281.501	-78.792	0.163	0.055
-280.486	800.000	0.046	0.163
-279.472	-124.979	-0.073	-0.011
-278.457	24.274	0.162	-0.133
-277.443	550.843	-0.137	-0.325
-276.428	-48.214	-0.305	-0.145
-275.413	-200.000	-0.099	0.433
-274.399	-200.000	-0.041	-0.401
-273.384	78.598	0.054	-0.058
-272.370	-104.724	-0.270	0.062
-271.355	106.791	0.244	0.286
-270.340	-19.751	-0.262	-0.160
-269.326	-200.000	-0.008	-0.071
-268.311	54.945	0.097	0.092
-267.297	-48.023	0.050	0.024
-266.282	800.000	0.079	-0.260
-265.267	-200.000	0.028	0.185
-264.253	678.892	0.107	-0.275
-263.238	-32.402	-0.092	-0.051
-262.224	572.725	-0.124	-0.300
-261.209	522.852	0.092	0.214
-260.195	361.804	0.109	-0.217
-259.180	7.427	0.260	-0.192
-258.165	-156.302	0.172	0.011
-257.151	-107.986	0.165	0.035
-256.136	77.775	0.091	0.096
-255.122	164.131	-0.156	0.217
-254.107	-129.549	0.190	0.026
-253.092	165.442	0.125	-0.175
-252.078	-56.041	0.098	0.043
-251.063	-82.569	-0.100	-0.032
-250.049	3.324	0.191	0.137
-249.034	-120.026	0.293	0.050
-248.019	134.115	0.143	-0.183
-247.005	800.000	-0.064	0.209
-245.990	3.724	0.157	-0.113
-244.976	189.445	0.159	0.236
-243.961	-130.793	-0.148	-0.020
-242.946	-200.000	-0.001	0.023
-241.932	-200.000	-0.014	0.296
-240.917	-60.275	-0.130	-0.055
-239.903	-67.003	0.174	-0.068
-238.888	-61.706	-0.185	0.077
-237.873	-39.740	-0.208	0.107
-236.859	-80.859	0.373	0.122
-235.844	231.733	-0.110	0.177
-234.830	-30.995	0.311	0.173
-233.815	-200.000	-0.037	0.270
-232.800	-64.332	0.217	-0.087
-231.786	205.124	-0.054	-0.083
-230.771	-200.000	-0.003	-0.110
-229.757	87.170	0.092	0.100
-228.742	204.122	0.020	-0.031
-227.727	100.333	-0.131	-0.150
-226.713	800.000	0.089	-0.245
-225.698	68.308	0.094	-0.095
-224.684	369.385	0.137	-0.274
-223.669	274.904	0.098	0.171
-222.655	-68.539	0.184	0.071
-221.640	400.212	-0.110	-0.228
-220.625	137.214	0.094	-0.121
-219.611	149.789	0.302	-0.404
-218.596	-122.584	0.138	0.022
-217.582	800.000	-0.104	0.380
-216.567	58.579	0.166	-0.161
-215.552	-153.092	0.191	-0.013
-214.538	-60.614	-0.168	-0.070
-213.523	235.870	-0.179	0.292
-212.509	244.788	0.103	0.171
-211.494	800.000	-0.070	-0.232
-210.479	-135.226	-0.238	0.028
-209.465	44.122	-0.169	-0.153
-208.450	-200.000	0.007	0.117
-207.436	800.000	0.055	0.206
-206.421	-53.088	0.115	-0.052
-205.406	280.608	0.082	0.145
-204.392	800.000	-0.050	-0.204
-203.377	151.588	0.238	0.319
-202.363	-48.924	-0.159	0.075
-201.348	-52.263	0.122	-0.056
-200.333	220.107	0.161	-0.255
-199.319	62.283	0.182	0.179
-198.304	400.453	0.035	-0.072
-197.290	136.717	-0.174	-0.224
-196.275	179.178	0.078	0.112
-195.260	-110.602	0.083	-0.017
-194.246	-148.928	-0.242	-0.019
-193.231	4.102	-0.321	-0.232
-192.217	-55.603	-0.322	-0.142
-191.202	-140.792	0.130	-0.013
-190.187	-28.720	-0.079	-0.045
-189.173	166.739	0.119	-0.166
-188.158	66.246	-0.145	-0.145
-187.144	-33.922	0.175	-0.095
-186.129	-170.777	0.148	-0.005
-185.114	-200.000	-0.006	0.067
-184.100	89.017	-0.159	0.175
-183.085	204.410	0.011	0.016
-182.071	-121.241	0.140	0.023
-181.056	-78.630	-0.393	0.132
-180.042	601.141	-0.054	-0.133
-179.027	-11.740	0.116	-0.075
-178.012	-200.000	-0.002	0.134
-176.998	-200.000	-0.017	-0.122
-175.983	-54.164	0.127	-0.057
-174.969	-32.459	-0.129	-0.071
-173.954	800.000	0.022	0.059
-172.939	53.007	0.031	-0.029
-171.925	71.987	0.089	-0.092
-170.910	356.903	-0.103	-0.202
-169.896	800.000	-0.068	0.261
-168.881	-37.813	-0.046	-0.024
-167.866	800.000	-0.033	0.119
-166.852	345.991	0.116	-0.225
-165.837	-39.359	0.075	-0.039
-164.823	218.754	0.066	-0.103
-163.808	-10.596	-0.075	-0.049
-162.793	-200.000	-0.006	0.063
-161.779	184.430	-0.097	-0.142
-160.764	800.000	0.014	-0.047
-159.750	-13.430	-0.255	-0.163
-158.735	800.000	0.073	0.204
-157.720	401.629	-0.055	0.114
-156.706	328.206	0.041	0.078
-155.691	-89.118	0.116	-0.034
-154.677	-27.359	0.318	0.182
-153.662	-200.000	0.028	0.253
-152.647	-70.211	-0.350	0.131
-151.633	-67.713	0.407	0.157
-150.618	-22.905	-0.168	0.100
-149.604	-72.784	-0.255	-0.092
-148.589	109.442	0.023	0.027
-147.574	669.260	-0.058	-0.148
-146.560	-88.998	0.350	-0.102
-145.545	800.000	0.099	-0.338
-144.531	800.000	-0.059	0.249
-143.516	-141.084	-0.206	-0.021
-142.502	-24.383	-0.038	-0.022
-141.487	800.000	-0.052	0.208
-140.472	-67.792	0.120	-0.046
-139.458	-6.596	0.158	0.106
-138.443	800.000	-0.046	0.186
-137.429	489.897	0.058	0.132
-136.414	800.000	-0.135	-0.374
-135.399	211.401	-0.096	0.149
-134.385	-108.952	-0.068	0.014
-133.370	324.493	-0.037	0.069
-132.356	-157.440	-0.217	-0.013
-131.341	-9.371	0.255	-0.167
-130.326	-56.869	0.373	-0.162
-129.312	-200.000	0.035	-0.275
-128.297	493.472	0.086	0.193
-127.283	27.866	0.287	0.238
-126.268	-92.404	-0.286	-0.079
-125.253	-192.605	0.214	0.002
-124.239	-200.000	-0.008	-0.132
-123.224	201.821	-0.126	0.191
-122.210	703.576	0.045	0.117
-121.195	800.000	0.037	-0.153
