DTS Sentinel unit serial number:	SN413079Multiplexer serial number:	ORYXHardware model number:	OX4-SRSoftware version number:	ORYX F/W v4.00 Oryx Data Collector v3.7.2.0data status	okinstallation	princeton_trtdifferential loss correction	single-endedforward channel	channel 1reverse channel	N/Adate	2019/09/16time	10:34:35forward acquisition time	60.00reverse acquisition time	0.00gamma	496.2192k internal	0.2305k external	0.2305temperature offset calibration	0.9962default loss term (dB/km)	0.3790temperature slope calibration	1.0000multiplexer offset coefficient	1.0000multiplexer slope coefficient	1.0000fibre end	0.00T internal ref (°C)	35.53T ext. ref 1 (°C)	12.59T ext. ref 2 (°C)	33.70length (m)	temperature (°C)	Stokes	anti-Stokes-747.200	-45.442	0.112	0.057
-746.185	-200.000	-0.060	0.370
-745.171	-200.000	0.009	-0.088
-744.156	1.979	0.144	0.106
-743.142	131.828	-0.044	-0.057
-742.127	800.000	0.158	0.443
-741.112	66.785	0.304	0.315
-740.098	38.496	0.088	-0.079
-739.083	-200.000	-0.034	-0.238
-738.069	-200.000	-0.038	0.377
-737.054	-39.654	-0.407	0.217
-736.039	128.243	0.100	0.130
-735.025	-17.683	0.193	0.123
-734.010	-63.997	-0.143	-0.059
-732.996	-84.506	0.217	-0.070
-731.981	-111.083	-0.024	0.005
-730.966	-62.908	0.166	0.070
-729.952	-200.000	0.001	-0.153
-728.937	-88.694	0.154	0.046
-727.923	800.000	-0.086	-0.358
-726.908	351.407	-0.186	0.374
-725.894	-200.000	-0.005	-0.060
-724.879	385.116	-0.135	-0.284
-723.864	46.212	-0.281	0.265
-722.850	0.577	-0.065	-0.047
-721.835	-200.000	-0.032	0.211
-720.821	-200.000	0.012	-0.078
-719.806	133.448	-0.248	-0.326
-718.791	-200.000	-0.036	-0.289
-717.777	800.000	0.059	0.226
-716.762	250.877	0.157	-0.272
-715.748	-23.310	0.188	-0.115
-714.733	-24.591	0.226	-0.137
-713.718	32.785	-0.225	-0.198
-712.704	753.725	-0.115	0.317
-711.689	57.407	-0.248	-0.246
-710.675	-34.071	0.342	-0.191
-709.660	-123.315	-0.309	-0.050
-708.645	-105.926	0.296	-0.068
-707.631	-128.421	-0.198	0.029
-706.616	120.748	0.070	0.088
-705.602	-34.368	-0.188	-0.105
-704.587	211.746	-0.088	0.141
-703.572	-118.797	0.216	-0.039
-702.558	49.147	-0.192	0.183
-701.543	172.395	0.116	0.169
-700.529	-200.000	0.037	0.183
-699.514	-125.159	-0.117	0.018
-698.499	16.741	-0.210	0.169
-697.485	-59.962	-0.028	0.012
-696.470	22.961	0.214	0.178
-695.456	2.882	-0.238	0.175
-694.441	800.000	-0.149	-0.482
-693.426	-200.000	0.011	-0.304
-692.412	163.338	0.355	-0.507
-691.397	371.987	0.059	-0.122
-690.383	-174.388	-0.245	0.007
-689.368	735.979	-0.079	-0.215
-688.354	-61.369	0.029	0.012
-687.339	173.205	0.108	0.158
-686.324	442.835	0.125	0.279
-685.310	169.444	-0.223	-0.324
-684.295	800.000	-0.073	0.206
-683.281	-200.000	-0.021	0.134
-682.266	-200.000	-0.007	-0.086
-681.251	-120.659	-0.178	-0.031
-680.237	384.291	-0.166	-0.348
-679.222	621.756	-0.134	-0.342
-678.208	-179.876	-0.216	-0.005
-677.193	800.000	0.151	-0.433
-676.178	-200.000	-0.047	0.216
-675.164	29.103	-0.107	0.092
-674.149	92.901	-0.283	0.324
-673.135	104.890	0.060	0.072
-672.120	515.201	-0.073	0.173
-671.105	-200.000	0.038	0.248
-670.091	20.325	0.172	-0.141
-669.076	-94.247	-0.244	-0.068
-668.062	-115.679	-0.144	-0.027
-667.047	34.331	0.074	0.065
-666.032	210.392	0.076	0.121
-665.018	-200.000	-0.007	-0.084
-664.003	-200.000	0.027	0.194
-662.989	-129.483	0.391	-0.055
-661.974	-141.237	0.165	0.017
-660.959	-78.090	-0.069	-0.024
-659.945	222.017	-0.159	0.260
-658.930	723.880	0.006	0.017
-657.916	-129.449	0.130	-0.018
-656.901	-200.000	-0.049	-0.247
-655.886	15.457	-0.095	-0.075
-654.872	-45.151	-0.158	0.080
-653.857	450.172	-0.011	-0.025
-652.843	71.135	0.158	0.166
-651.828	-155.122	0.238	0.016
-650.814	-200.000	0.007	0.290
-649.799	-10.764	-0.232	-0.155
-648.784	-58.055	0.244	0.108
-647.770	-200.000	-0.001	0.030
-646.755	-137.605	-0.185	-0.021
-645.741	444.049	-0.051	0.114
-644.726	295.444	-0.090	-0.166
-643.711	217.063	0.081	-0.131
-642.697	-59.911	0.020	0.009
-641.682	10.843	-0.284	-0.220
-640.668	168.404	0.074	-0.106
-639.653	-97.197	0.198	0.052
-638.638	339.929	0.041	0.081
-637.624	775.163	-0.034	-0.095
-636.609	162.031	0.089	0.127
-635.595	226.932	-0.070	0.116
-634.580	61.994	-0.153	0.154
-633.565	800.000	-0.063	0.180
-632.551	85.735	0.158	0.177
-631.536	-200.000	0.032	-0.515
-630.522	227.529	0.117	-0.192
-629.507	-74.483	-0.331	0.121
-628.492	-58.851	0.298	0.130
-627.478	-84.199	0.142	0.046
-626.463	-104.238	0.072	-0.017
-625.449	800.000	0.048	0.145
-624.434	800.000	0.027	0.098
-623.419	696.367	0.085	-0.226
-622.405	-200.000	-0.018	0.130
-621.390	-113.067	0.187	-0.037
-620.376	800.000	-0.091	0.290
-619.361	51.920	-0.341	-0.329
-618.346	69.360	-0.122	-0.128
-617.332	-85.049	0.140	-0.044
-616.317	380.057	0.130	-0.271
-615.303	162.173	0.189	0.268
-614.288	141.145	0.109	0.146
-613.273	800.000	0.139	-0.492
-612.259	737.599	0.074	-0.200
-611.244	151.336	0.087	0.120
-610.230	-121.676	-0.386	-0.065
-609.215	-200.000	0.006	0.132
-608.201	-200.000	-0.012	-0.215
-607.186	-131.592	0.243	-0.032
-606.171	168.533	-0.145	0.209
-605.157	266.408	0.200	0.354
-604.142	142.415	-0.080	0.108
-603.128	-106.325	-0.219	-0.050
-602.113	-69.670	-0.407	0.157
-601.098	-116.057	0.256	-0.048
-600.084	197.956	0.200	-0.309
-599.069	-146.059	-0.030	0.003
-598.055	683.452	-0.129	-0.340
-597.040	405.068	-0.208	-0.445
-596.025	120.221	-0.154	0.193
-595.011	-200.000	0.010	-0.059
-593.996	-200.000	0.037	0.339
-592.982	126.301	0.126	-0.161
-591.967	-62.665	0.204	0.085
-590.952	35.320	0.153	-0.135
-589.938	800.000	0.073	0.263
-588.923	235.224	-0.050	-0.083
-587.909	-39.149	0.316	0.168
-586.894	75.711	-0.319	-0.341
-585.879	800.000	0.040	0.139
-584.865	-88.160	-0.249	0.075
-583.850	-200.000	-0.028	-0.192
-582.836	-200.000	-0.070	-0.362
-581.821	-135.899	0.039	-0.005
-580.806	-40.569	0.344	-0.180
-579.792	-200.000	-0.021	-0.188
-578.777	16.382	-0.366	0.292
-577.763	154.719	0.127	-0.177
-576.748	-29.360	0.132	0.076
-575.733	-30.398	-0.297	0.170
-574.719	-200.000	0.039	-0.413
-573.704	-200.000	-0.030	-0.322
-572.690	59.907	0.131	0.131
-571.675	-52.455	0.092	-0.043
-570.661	503.537	0.053	-0.125
-569.646	-134.491	0.376	0.046
-568.631	-89.184	-0.481	0.143
-567.617	177.464	0.290	-0.427
-566.602	800.000	0.102	-0.447
-565.588	800.000	-0.066	-0.195
-564.573	-157.414	0.405	0.025
-563.558	-135.579	-0.141	0.017
-562.544	800.000	-0.042	0.170
-561.529	-92.375	0.219	-0.062
-560.515	143.399	-0.029	-0.039
-559.500	-104.449	0.477	-0.111
-558.485	800.000	0.090	0.280
-557.471	-85.950	-0.174	-0.054
-556.456	-78.241	0.184	0.064
-555.442	71.406	0.164	0.172
-554.427	-10.573	-0.068	-0.046
-553.412	-64.988	-0.294	-0.120
-552.398	-200.000	0.032	0.293
-551.383	197.892	0.106	-0.163
-550.369	79.659	0.163	0.177
-549.354	302.898	-0.078	-0.145
-548.339	261.742	-0.042	-0.073
-547.325	283.026	0.124	0.226
-546.310	800.000	0.077	-0.245
-545.296	800.000	-0.064	0.228
-544.281	-29.866	-0.116	0.067
-543.266	-21.374	0.114	0.070
-542.252	-148.042	-0.483	-0.040
-541.237	-125.812	-0.237	-0.036
-540.223	-200.000	0.073	0.354
-539.208	-154.968	-0.173	-0.012
-538.193	1.873	0.265	-0.193
-537.179	24.514	0.227	-0.189
-536.164	-200.000	0.032	-0.150
-535.150	800.000	-0.091	-0.286
-534.135	800.000	0.074	-0.209
-533.121	88.254	-0.189	0.212
-532.106	-200.000	0.032	0.280
-531.091	-152.563	-0.140	0.010
-530.077	-200.000	-0.001	-0.033
-529.062	-200.000	0.000	-0.187
-528.048	31.887	-0.109	0.095
-527.033	-200.000	0.006	-0.201
-526.018	-65.420	-0.179	0.072
-525.004	0.108	-0.302	0.217
-523.989	-35.114	0.265	0.146
-522.975	96.913	-0.148	-0.171
-521.960	-76.452	0.015	-0.005
-520.945	800.000	0.069	-0.241
-519.931	46.060	-0.156	0.146
-518.916	-51.651	0.277	-0.130
-517.902	-67.997	0.230	0.091
-516.887	-37.068	-0.076	-0.041
-515.872	89.002	-0.035	-0.040
-514.858	478.116	-0.101	0.231
-513.843	-200.000	0.048	0.247
-512.829	349.230	-0.174	0.346
-511.814	44.073	0.016	0.015
-510.799	-99.477	0.195	0.050
-509.785	15.272	0.048	0.038
-508.770	144.765	-0.112	0.152
-507.756	-200.000	0.056	-0.285
-506.741	-200.000	-0.001	0.156
-505.726	-62.490	0.274	0.115
-504.712	800.000	0.087	-0.246
-503.697	379.583	0.115	0.238
-502.683	-59.454	0.294	-0.127
-501.668	-27.051	0.509	-0.300
-500.653	-9.524	-0.131	0.088
-499.639	6.550	0.164	-0.123
-498.624	62.097	0.083	0.083
-497.610	425.667	0.155	0.336
-496.595	-76.211	-0.319	-0.113
-495.581	-200.000	-0.014	-0.375
-494.566	-200.000	0.068	-0.310
-493.551	434.087	0.070	0.153
-492.537	-200.000	0.045	0.251
-491.522	11.280	-0.099	-0.076
-490.508	-200.000	0.045	0.276
-489.493	-38.432	-0.078	-0.042
-488.478	80.640	-0.170	0.185
-487.464	-5.998	-0.268	0.185
-486.449	-200.000	-0.015	-0.275
-485.435	345.474	0.163	-0.323
-484.420	800.000	0.030	-0.097
-483.405	167.811	-0.104	-0.149
-482.391	137.921	0.058	-0.077
-481.376	640.519	-0.096	0.247
-480.362	91.822	-0.063	0.071
-479.347	251.214	-0.099	-0.170
-478.332	127.818	0.128	-0.163
-477.318	-161.549	-0.333	0.017
-476.303	527.567	-0.119	-0.282
-475.289	-151.761	0.245	0.018
-474.274	592.893	0.111	-0.277
-473.259	-36.934	-0.294	-0.159
-472.245	24.437	-0.113	0.094
-471.230	-171.827	-0.215	-0.007
-470.216	429.636	-0.062	0.134
-469.201	181.865	-0.284	-0.421
-468.186	-200.000	0.007	-0.183
-467.172	-200.000	-0.038	0.333
-466.157	681.054	-0.047	-0.123
-465.143	-171.135	-0.219	0.007
-464.128	304.969	0.116	-0.218
-463.113	-102.580	0.346	-0.083
-462.099	-86.222	-0.310	0.096
-461.084	-99.402	0.434	0.110
-460.070	-154.941	-0.164	0.011
-459.055	205.004	0.089	0.139
-458.040	-200.000	0.018	0.123
-457.026	-119.243	0.215	-0.038
-456.011	-200.000	-0.032	-0.430
-454.997	153.956	-0.025	0.035
-453.982	131.587	0.128	-0.165
-452.968	-31.570	-0.277	-0.156
-451.953	-114.693	-0.413	0.080
-450.938	-29.828	-0.140	-0.080
-449.924	-30.197	-0.118	-0.068
-448.909	-77.431	0.203	-0.071
-447.895	27.193	-0.124	0.104
-446.880	115.189	-0.111	0.136
-445.865	-200.000	-0.188	-0.000
-444.851	-200.000	0.016	0.155
-443.836	8.871	-0.290	-0.220
-442.822	-28.874	0.050	0.029
-441.807	-200.000	0.090	0.465
-440.792	-98.313	-0.155	-0.040
-439.778	-200.000	0.053	0.302
-438.763	-139.141	-0.268	0.029
-437.749	-143.718	0.290	0.028
-436.734	-200.000	-0.048	-0.270
-435.719	702.597	-0.067	-0.178
-434.705	-200.000	-0.023	0.130
-433.690	119.467	-0.285	0.355
-432.676	319.609	0.101	0.192
-431.661	800.000	0.072	-0.295
-430.646	800.000	-0.077	-0.334
-429.632	1.147	0.272	-0.196
-428.617	12.824	0.085	0.066
-427.603	-106.804	-0.142	-0.032
-426.588	-56.310	-0.297	0.133
-425.573	-200.000	0.005	-0.297
-424.559	-86.295	-0.158	-0.049
-423.544	-200.000	0.032	-0.252
-422.530	800.000	-0.065	0.192
-421.515	-21.489	0.172	-0.106
-420.500	220.772	0.118	0.190
-419.486	36.335	0.134	0.119
-418.471	-200.000	0.044	-0.332
-417.457	-9.203	0.079	0.053
-416.442	800.000	0.100	0.287
-415.428	-35.200	-0.247	0.135
-414.413	232.601	0.057	-0.093
-413.398	-157.175	0.237	0.014
-412.384	383.397	-0.065	-0.135
-411.369	31.695	-0.318	-0.275
-410.355	89.458	0.042	0.047
-409.340	-103.038	-0.332	-0.079
-408.325	99.359	0.136	0.158
-407.311	300.014	0.139	0.257
-406.296	800.000	-0.103	-0.337
-405.282	120.075	0.239	0.298
-404.267	-200.000	0.006	0.146
-403.252	-112.898	-0.312	0.062
-402.238	-158.461	-0.221	-0.013
-401.223	16.033	0.137	0.108
-400.209	-50.014	-0.292	0.139
-399.194	512.443	-0.079	0.185
-398.179	-200.000	-0.002	0.327
-397.165	69.137	0.060	0.062
-396.150	800.000	-0.035	-0.123
-395.136	-200.000	-0.025	0.127
-394.121	-128.958	-0.049	0.007
-393.106	-200.000	0.021	-0.401
-392.092	-116.129	0.175	-0.033
-391.077	-200.000	0.018	-0.130
-390.063	-200.000	0.028	0.220
-389.048	-17.802	-0.161	-0.102
-388.033	-116.659	0.156	0.029
-387.019	-200.000	0.143	0.000
-386.004	197.672	-0.114	-0.175
-384.990	-1.784	0.044	-0.031
-383.975	800.000	0.126	-0.496
-382.960	705.439	-0.153	0.406
-381.946	-200.000	0.006	0.667
-380.931	-79.021	-0.284	0.097
-379.917	-115.640	-0.054	0.010
-378.902	70.785	0.176	0.183
-377.888	-69.105	0.105	-0.041
-376.873	800.000	-0.067	-0.212
-375.858	800.000	0.031	-0.113
-374.844	403.708	0.079	0.167
-373.829	-1.815	0.243	-0.171
-372.815	-200.000	-0.030	0.156
-371.800	469.003	0.096	-0.217
-370.785	-200.000	-0.045	-0.323
-369.771	234.916	0.221	0.366
-368.756	-118.244	0.193	0.034
-367.742	181.765	-0.101	0.149
-366.727	96.101	0.109	-0.125
-365.712	-52.070	-0.167	-0.078
-364.698	-37.433	0.072	0.039
-363.683	-31.609	-0.168	-0.094
-362.669	773.257	0.044	-0.120
-361.654	-144.992	-0.274	-0.025
-360.639	-70.867	-0.043	0.016
-359.625	-157.680	0.048	0.003
-358.610	-200.000	0.078	0.362
-357.596	-2.001	-0.189	-0.133
-356.581	800.000	0.057	-0.186
-355.566	-119.628	0.360	-0.062
-354.552	-200.000	0.056	-0.307
-353.537	49.331	-0.372	0.351
-352.523	-43.018	0.210	-0.107
-351.508	251.105	-0.100	-0.171
-350.493	-200.000	0.034	-0.343
-349.479	46.791	0.229	0.213
-348.464	-144.501	0.335	0.031
-347.450	-200.000	0.054	-0.311
-346.435	-101.907	-0.399	0.097
-345.420	461.464	-0.108	0.240
-344.406	579.483	0.160	0.392
-343.391	-40.226	0.333	-0.174
-342.377	228.977	-0.129	-0.211
-341.362	53.366	-0.086	-0.082
-340.348	800.000	0.092	0.276
-339.333	-74.213	0.198	-0.072
-338.318	-141.592	0.265	-0.027
-337.304	-200.000	-0.041	0.204
-336.289	-200.000	-0.045	-0.225
-335.275	-131.131	0.135	0.018
-334.260	800.000	-0.041	-0.127
-333.245	-50.142	0.184	0.087
-332.231	413.529	-0.129	-0.274
-331.216	237.152	-0.154	0.255
-330.202	-200.000	-0.030	0.308
-329.187	-200.000	-0.007	0.060
-328.172	800.000	-0.124	-0.369
-327.158	-114.893	-0.438	0.084
-326.143	-26.380	-0.075	-0.044
-325.129	-200.000	-0.031	0.193
-324.114	800.000	-0.048	0.163
-323.099	-200.000	-0.075	0.385
-322.085	-120.611	0.545	-0.093
-321.070	416.241	0.050	-0.107
-320.056	800.000	-0.098	0.271
-319.041	4.360	-0.216	0.158
-318.026	-69.162	0.146	0.056
-317.012	-75.884	-0.281	0.100
-315.997	-76.583	-0.248	-0.087
-314.983	800.000	0.092	-0.259
-313.968	-200.000	0.059	0.270
-312.953	800.000	0.023	-0.079
-311.939	800.000	0.027	-0.092
-310.924	-1.327	-0.319	0.226
-309.910	-200.000	0.031	0.482
-308.895	-200.000	-0.057	0.449
-307.880	79.601	0.054	0.058
-306.866	-33.923	-0.171	0.094
-305.851	316.089	-0.164	0.310
-304.837	-53.464	-0.041	0.019
-303.822	-200.000	-0.025	0.256
-302.807	48.763	0.216	-0.203
-301.793	16.407	0.130	-0.102
-300.778	342.983	-0.021	0.041
-299.764	324.234	0.111	-0.211
-298.749	25.664	0.273	0.227
-297.735	800.000	0.053	-0.211
-296.720	-73.832	-0.260	-0.094
-295.705	173.258	-0.070	-0.101
-294.691	-90.963	-0.176	0.051
-293.676	-103.960	-0.274	-0.064
-292.662	380.699	0.068	-0.140
-291.647	800.000	0.058	0.205
-290.632	509.081	0.090	0.208
-289.618	207.165	0.123	0.192
-288.603	218.105	-0.113	0.180
-287.589	-35.088	0.129	0.071
-286.574	-200.000	0.007	-0.246
-285.559	-98.696	-0.137	-0.035
-284.545	-200.000	-0.030	0.192
-283.530	369.846	-0.150	0.303
-282.516	32.850	-0.372	0.322
-281.501	-45.146	-0.205	-0.102
-280.486	689.305	-0.101	-0.265
-279.472	-174.495	-0.216	-0.006
-278.457	-80.743	0.362	-0.120
-277.443	-138.537	0.075	0.008
-276.428	-157.035	0.275	0.017
-275.413	-36.125	0.290	0.157
-274.399	-42.454	0.194	0.099
-273.384	-200.000	-0.006	0.221
-272.370	291.092	0.098	0.178
-271.355	-7.885	-0.139	0.094
-270.340	254.451	-0.026	0.044
-269.326	29.051	0.120	-0.102
-268.311	42.151	0.118	-0.107
-267.297	-109.942	-0.336	-0.070
-266.282	-80.734	-0.223	0.074
-265.267	159.838	0.202	0.281
-264.253	-80.000	0.364	-0.122
-263.238	17.728	0.012	-0.010
-262.224	184.043	-0.220	-0.326
-261.209	132.770	-0.061	0.079
-260.195	-200.000	0.063	-0.385
-259.180	-200.000	-0.007	-0.116
-258.165	533.723	-0.053	-0.124
-257.151	-200.000	0.010	0.341
-256.136	2.146	0.279	0.201
-255.122	-200.000	-0.015	-0.333
-254.107	85.017	0.058	-0.064
-253.092	-200.000	0.044	-0.213
-252.078	800.000	0.234	-0.714
-251.063	800.000	-0.040	0.159
-250.049	22.863	-0.135	0.110
-249.034	110.456	-0.124	0.148
-248.019	92.799	0.225	0.253
-247.005	81.517	0.351	-0.379
-245.990	212.154	0.168	0.264
-244.976	-200.000	0.025	0.108
-243.961	230.578	-0.063	0.103
-242.946	-1.113	0.107	0.075
-241.932	-200.000	0.029	0.233
-240.917	-200.000	0.012	0.229
-239.903	104.910	-0.195	0.230
-238.888	-200.000	0.037	-0.246
-237.873	-57.827	0.044	0.019
-236.859	-200.000	-0.030	-0.330
-235.844	649.761	0.074	-0.189
-234.830	-121.321	-0.222	-0.037
-233.815	310.105	-0.054	-0.101
-232.800	7.214	-0.356	-0.265
-231.786	-78.630	-0.092	0.031
-230.771	111.214	0.040	0.049
-229.757	-70.825	0.153	-0.058
-228.742	-11.875	-0.273	0.179
-227.727	-176.228	-0.350	-0.009
-226.713	-72.250	0.301	-0.111
-225.698	-4.176	-0.179	-0.124
-224.684	35.449	-0.261	-0.228
-223.669	6.708	0.086	0.064
-222.655	110.680	-0.140	-0.168
-221.640	114.597	-0.067	0.081
-220.625	505.193	0.122	0.283
-219.611	82.470	-0.111	0.120
-218.596	-41.420	0.382	-0.196
-217.582	9.861	0.173	-0.131
-216.567	651.375	0.074	0.188
-215.552	-176.134	-0.055	-0.001
-214.538	-141.471	0.172	-0.017
-213.523	800.000	-0.065	-0.280
-212.509	-131.904	0.296	-0.039
-211.494	-142.325	-0.170	-0.017
-210.479	-8.318	-0.277	0.186
-209.465	7.305	0.245	0.182
-208.450	690.231	0.053	-0.139
-207.436	-73.728	0.194	0.070
-206.421	15.075	0.091	-0.071
-205.406	-102.205	-0.156	-0.037
-204.392	334.301	-0.153	-0.295
-203.377	90.775	0.033	0.037
-202.363	11.182	-0.249	-0.190
-201.348	-200.000	0.001	0.319
-200.333	-200.000	0.003	0.225
-199.319	86.958	0.296	0.326
-198.304	760.032	0.032	-0.087
-197.290	383.618	-0.072	-0.148
-196.275	317.494	0.128	-0.242
-195.260	44.525	-0.080	-0.074
-194.246	186.377	0.313	0.464
-193.231	273.289	0.152	0.267
-192.217	-200.000	-0.073	-0.345
-191.202	-81.845	-0.466	-0.152
-190.187	413.146	0.177	0.375
-189.173	151.295	0.077	0.104
-188.158	800.000	0.088	0.328
-187.144	-101.307	-0.164	0.040
-186.129	47.276	-0.128	0.118
-185.114	12.472	0.249	0.191
-184.100	144.842	0.104	-0.139
-183.085	800.000	0.037	-0.153
-182.071	37.833	0.125	0.110
-181.056	659.531	-0.034	-0.088
-180.042	240.239	0.227	0.377
-179.027	-200.000	0.040	-0.186
-178.012	-3.211	-0.135	0.094
-176.998	-200.000	-0.037	-0.368
-175.983	-101.949	-0.167	0.040
-174.969	-134.636	0.322	0.039
-173.954	-39.015	0.084	-0.044
-172.939	163.265	-0.123	-0.173
-171.925	-107.889	0.144	0.031
-170.910	66.734	0.244	-0.247
-169.896	-114.816	-0.196	0.037
-168.881	272.167	0.050	-0.088
-167.866	-166.959	-0.263	0.011
-166.852	-200.000	0.011	0.123
-165.837	-77.889	-0.163	0.056
-164.823	-134.400	0.208	-0.025
-163.808	67.931	-0.089	0.091
-162.793	68.303	-0.124	-0.127
-161.779	-155.663	0.161	0.010
-160.764	248.696	-0.176	-0.297
-159.750	24.000	-0.181	-0.149
-158.735	274.233	-0.212	0.373
-157.720	-123.585	-0.121	0.019
-156.706	-74.240	-0.466	0.168
-155.691	-32.346	0.035	-0.019
-154.677	116.262	0.121	0.147
-153.662	11.058	0.251	0.191
-152.647	-60.290	0.225	0.095
-151.633	-151.116	0.193	0.014
-150.618	-137.277	0.163	0.018
-149.604	-138.239	0.168	0.018
-148.589	-200.000	-0.026	0.251
-147.574	-116.165	-0.102	-0.019
-146.560	-200.000	-0.007	0.159
-145.545	342.712	-0.022	0.043
-144.531	-200.000	0.021	-0.094
-143.516	69.696	0.193	0.198
-142.502	442.687	-0.123	-0.268
-141.487	299.731	-0.187	-0.343
-140.472	-200.000	0.019	-0.144
-139.458	-78.679	-0.186	0.063
-138.443	800.000	0.054	0.180
-137.429	419.887	0.039	0.083
-136.414	-152.007	0.345	-0.025
-135.399	147.100	0.289	0.386
-134.385	-59.350	0.203	-0.087
-133.370	29.277	-0.040	-0.034
-132.356	-200.000	0.008	0.174
-131.341	-37.072	0.222	0.118
-130.326	283.541	-0.101	-0.181
-129.312	18.923	-0.211	-0.168
-128.297	509.520	0.183	0.423
-127.283	82.706	0.222	-0.240
-126.268	-200.000	-0.008	-0.048
-125.253	-92.693	-0.043	-0.012
-124.239	54.557	-0.151	0.145
-123.224	700.108	-0.023	-0.061
-122.210	-200.000	-0.005	-0.066
-121.195	-200.000	-0.005	0.053
