DTS Sentinel unit serial number:	SN413079Multiplexer serial number:	ORYXHardware model number:	OX4-SRSoftware version number:	ORYX F/W v4.00 Oryx Data Collector v3.7.2.0data status	okinstallation	princeton_trtdifferential loss correction	single-endedforward channel	channel 1reverse channel	N/Adate	2019/09/17time	06:50:35forward acquisition time	60.00reverse acquisition time	0.00gamma	496.2192k internal	0.2329k external	0.2329temperature offset calibration	0.9968default loss term (dB/km)	0.3790temperature slope calibration	1.0000multiplexer offset coefficient	1.0000multiplexer slope coefficient	1.0000fibre end	0.00T internal ref (°C)	27.73T ext. ref 1 (°C)	0.13T ext. ref 2 (°C)	21.04length (m)	temperature (°C)	Stokes	anti-Stokes-747.200	-200.000	0.011	-0.263
-746.185	-33.004	-0.232	-0.129
-745.171	-27.509	0.258	-0.151
-744.156	206.517	0.068	-0.107
-743.142	-133.962	-0.155	0.019
-742.127	528.655	-0.158	0.376
-741.112	-80.465	-0.079	-0.027
-740.098	55.181	-0.297	0.289
-739.083	-200.000	0.010	-0.260
-738.069	-5.829	-0.272	-0.187
-737.054	-112.914	-0.215	0.043
-736.039	217.627	-0.225	-0.361
-735.025	-200.000	0.035	0.254
-734.010	800.000	0.076	-0.288
-732.996	-18.872	-0.163	0.102
-731.981	800.000	0.032	0.107
-730.966	49.966	-0.092	0.087
-729.952	800.000	0.034	-0.099
-728.937	71.752	0.228	-0.239
-727.923	-200.000	0.014	-0.308
-726.908	-44.179	0.267	-0.135
-725.894	-8.306	-0.172	0.117
-724.879	199.615	0.113	0.175
-723.864	142.473	-0.025	-0.034
-722.850	601.563	-0.036	-0.089
-721.835	-200.000	-0.020	0.526
-720.821	800.000	-0.024	0.084
-719.806	242.158	0.108	-0.183
-718.791	-65.554	-0.215	-0.087
-717.777	172.029	0.111	0.160
-716.762	169.947	-0.082	-0.117
-715.748	-98.193	0.263	-0.068
-714.733	85.989	-0.090	0.100
-713.718	-200.000	0.049	0.281
-712.704	-97.541	-0.310	-0.081
-711.689	-155.404	0.244	0.016
-710.675	-137.095	-0.185	0.021
-709.660	-15.207	-0.106	-0.068
-708.645	90.366	0.159	0.179
-707.631	132.086	-0.144	-0.187
-706.616	67.220	0.058	0.060
-705.602	-109.950	-0.102	0.022
-704.587	-0.749	-0.135	-0.096
-703.572	157.642	-0.147	0.204
-702.558	-78.992	0.167	-0.057
-701.543	68.074	0.231	-0.238
-700.529	-200.000	0.040	-0.242
-699.514	384.552	0.109	-0.225
-698.499	706.644	0.069	0.183
-697.485	214.853	-0.110	0.175
-696.470	800.000	0.011	0.040
-695.456	800.000	-0.097	0.306
-694.441	-116.244	-0.167	0.031
-693.426	10.713	0.083	-0.064
-692.412	-77.882	-0.227	-0.079
-691.397	128.166	-0.149	-0.191
-690.383	9.816	-0.225	-0.172
-689.368	-200.000	0.041	-0.208
-688.354	-200.000	-0.025	-0.264
-687.339	-109.018	-0.266	-0.057
-686.324	800.000	-0.033	0.125
-685.310	-81.520	0.206	0.068
-684.295	231.985	-0.065	0.106
-683.281	-124.918	0.057	0.009
-682.266	-167.340	-0.262	0.011
-681.251	192.922	0.073	-0.110
-680.237	88.313	0.192	0.214
-679.222	-79.315	0.387	-0.132
-678.208	-140.915	-0.400	0.041
-677.193	-137.462	-0.183	0.021
-676.178	765.092	0.044	-0.120
-675.164	-168.790	-0.282	-0.011
-674.149	83.453	-0.074	0.081
-673.135	36.103	0.119	-0.105
-672.120	52.787	-0.205	-0.196
-671.105	667.133	-0.137	-0.356
-670.091	-101.177	-0.589	0.145
-669.076	-46.599	0.122	-0.060
-668.062	13.204	-0.033	-0.025
-667.047	46.393	0.041	0.038
-666.032	-134.075	0.231	0.029
-665.018	-40.160	-0.227	-0.118
-664.003	-106.379	0.394	-0.088
-662.989	135.744	0.085	-0.111
-661.974	-200.000	-0.104	-0.463
-660.959	272.300	-0.097	0.171
-659.945	305.685	-0.114	-0.213
-658.930	273.774	0.074	0.131
-657.916	-17.914	-0.311	-0.196
-656.901	800.000	0.032	-0.132
-655.886	515.887	-0.117	0.275
-654.872	23.605	-0.148	-0.122
-653.857	-200.000	-0.016	-0.139
-652.843	-63.882	-0.207	0.085
-651.828	108.736	0.199	-0.239
-650.814	636.663	0.075	0.191
-649.799	6.438	0.086	-0.064
-648.784	-123.395	-0.162	-0.026
-647.770	-57.290	0.250	0.110
-646.755	-108.985	-0.195	0.042
-645.741	347.505	0.101	-0.200
-644.726	708.119	0.166	-0.440
-643.711	-34.408	0.261	0.143
-642.697	-168.317	-0.277	-0.011
-641.682	-0.738	0.331	0.235
-640.668	-97.084	0.190	-0.050
-639.653	-61.228	-0.010	-0.004
-638.638	-200.000	-0.003	0.019
-637.624	80.698	0.174	0.188
-636.609	-200.000	0.001	0.183
-635.595	228.190	-0.098	-0.160
-634.580	800.000	0.078	-0.224
-633.565	-0.024	-0.014	0.010
-632.551	-200.000	0.034	-0.377
-631.536	800.000	0.037	0.104
-630.522	800.000	-0.125	0.376
-629.507	369.444	0.089	0.180
-628.492	-177.358	-0.378	0.009
-627.478	322.737	-0.104	-0.198
-626.463	-31.214	0.159	-0.090
-625.449	93.250	-0.116	-0.132
-624.434	800.000	-0.058	0.248
-623.419	800.000	-0.071	0.204
-622.405	-31.733	-0.158	0.089
-621.390	10.197	0.119	-0.091
-620.376	-200.000	0.008	0.294
-619.361	170.242	-0.263	0.378
-618.346	-156.925	-0.232	0.014
-617.332	-200.000	-0.055	-0.267
-616.317	266.251	-0.157	0.275
-615.303	189.407	-0.161	0.241
-614.288	688.146	-0.107	0.280
-613.273	227.344	0.162	-0.263
-612.259	115.688	0.251	-0.308
-611.244	9.679	0.173	-0.132
-610.230	800.000	-0.033	-0.107
-609.215	506.260	0.032	-0.074
-608.201	540.380	0.086	0.205
-607.186	12.580	0.191	-0.147
-606.171	21.779	-0.092	-0.075
-605.157	800.000	-0.012	-0.037
-604.142	-99.783	0.193	0.048
-603.128	-184.980	-0.184	-0.003
-602.113	-200.000	0.038	-0.355
-601.098	-86.882	0.197	0.060
-600.084	531.969	0.058	0.137
-599.069	-102.004	-0.288	-0.070
-598.055	9.550	-0.291	0.221
-597.040	-132.856	-0.076	-0.010
-596.025	-16.183	-0.216	0.138
-595.011	128.655	-0.084	0.107
-593.996	-200.000	0.038	-0.308
-592.982	-116.721	-0.172	-0.032
-591.967	293.371	-0.074	0.135
-590.952	103.157	-0.252	0.296
-589.938	-130.728	0.174	0.023
-588.923	606.434	-0.058	-0.144
-587.909	71.104	-0.161	0.167
-586.894	779.805	-0.109	-0.299
-585.879	-14.850	-0.035	0.023
-584.865	83.089	-0.131	0.143
-583.850	79.922	0.165	-0.178
-582.836	800.000	-0.042	0.142
-581.821	-145.851	0.331	-0.029
-580.806	103.762	-0.191	0.225
-579.792	321.115	-0.142	-0.270
-578.777	-200.000	0.001	0.026
-577.763	-101.354	0.311	0.076
-576.748	-28.453	0.085	0.049
-575.733	716.135	0.069	0.184
-574.719	-103.424	0.148	0.035
-573.704	103.724	0.133	-0.157
-572.690	-163.713	-0.106	-0.005
-571.675	-200.000	0.039	0.193
-570.661	449.278	0.089	0.196
-569.646	-200.000	-0.009	-0.068
-568.631	-200.000	0.034	-0.253
-567.617	-114.341	0.196	-0.038
-566.602	-30.386	0.291	-0.165
-565.588	138.943	-0.054	-0.071
-564.573	214.220	0.142	-0.225
-563.558	172.206	-0.166	-0.238
-562.544	11.033	0.355	0.272
-561.529	15.424	-0.163	0.128
-560.515	362.900	-0.080	-0.161
-559.500	96.289	0.112	-0.128
-558.485	-200.000	0.051	-0.225
-557.471	-200.000	-0.017	0.129
-556.456	701.587	-0.051	0.134
-555.442	-181.715	-0.193	-0.004
-554.427	-49.777	-0.213	0.101
-553.412	-47.022	-0.157	0.076
-552.398	-18.877	-0.110	0.068
-551.383	109.705	0.083	-0.099
-550.369	287.367	-0.223	-0.404
-549.354	-130.940	-0.067	-0.009
-548.339	156.295	-0.137	0.189
-547.325	95.839	-0.099	-0.113
-546.310	-200.000	0.004	-0.235
-545.296	233.404	0.095	0.155
-544.281	-113.216	0.039	0.008
-543.266	-132.122	0.318	0.041
-542.252	7.376	-0.114	-0.085
-541.237	200.304	-0.084	-0.129
-540.223	-142.206	-0.083	-0.008
-539.208	800.000	-0.061	-0.196
-538.193	800.000	0.085	0.249
-537.179	481.695	-0.107	-0.242
-536.164	-200.000	0.053	-0.326
-535.150	15.777	0.093	0.073
-534.135	53.840	0.209	0.201
-533.121	58.557	0.121	0.118
-532.106	-153.005	-0.258	0.018
-531.091	-165.826	0.138	-0.006
-530.077	504.575	-0.012	0.027
-529.062	-200.000	0.012	0.070
-528.048	-45.895	-0.425	0.210
-527.033	639.081	0.080	-0.204
-526.018	-107.614	-0.204	-0.045
-525.004	-156.998	0.384	0.023
-523.989	97.056	-0.206	0.236
-522.975	175.220	0.164	-0.238
-521.960	-149.332	0.137	0.011
-520.945	-200.000	0.006	-0.061
-519.931	-105.878	0.333	0.075
-518.916	28.014	0.211	-0.178
-517.902	-116.346	0.125	0.023
-516.887	-103.007	-0.194	0.046
-515.872	-200.000	0.018	0.118
-514.858	366.412	0.105	0.212
-513.843	-85.426	-0.259	-0.081
-512.829	800.000	-0.140	0.485
-511.814	0.471	0.037	0.026
-510.799	-140.079	0.161	-0.017
-509.785	318.213	-0.136	-0.258
-508.770	-200.000	-0.005	0.127
-507.756	-134.957	0.201	0.024
-506.741	47.236	0.190	0.177
-505.726	-105.413	-0.286	0.065
-504.712	-84.358	0.206	0.065
-503.697	-200.000	0.005	-0.279
-502.683	64.261	0.139	0.140
-501.668	362.958	-0.050	0.100
-500.653	-200.000	-0.041	-0.235
-499.639	8.797	-0.090	0.068
-498.624	800.000	0.110	0.368
-497.610	201.239	0.044	-0.067
-496.595	-200.000	0.018	-0.167
-495.581	-200.000	0.021	0.253
-494.566	-134.552	0.141	-0.017
-493.551	-200.000	0.030	-0.181
-492.537	51.070	0.095	-0.090
-491.522	800.000	0.075	0.295
-490.508	77.918	0.243	0.258
-489.493	-72.242	0.226	0.084
-488.478	104.219	0.031	0.036
-487.464	-137.943	-0.236	-0.026
-486.449	527.615	-0.013	0.031
-485.435	-10.046	0.308	0.204
-484.420	251.743	0.040	0.068
-483.405	-58.073	-0.443	0.192
-482.391	-200.000	0.010	-0.400
-481.376	98.961	-0.235	-0.270
-480.362	-108.573	0.103	-0.022
-479.347	436.792	-0.083	-0.180
-478.332	800.000	-0.017	0.068
-477.318	800.000	0.047	-0.186
-476.303	800.000	0.026	-0.091
-475.289	-67.296	-0.478	0.187
-474.274	-200.000	0.016	0.128
-473.259	-101.789	-0.187	0.045
-472.245	260.937	-0.087	0.150
-471.230	417.475	-0.174	0.370
-470.216	-124.162	0.240	-0.037
-469.201	-106.382	0.490	-0.109
-468.186	594.379	0.043	-0.107
-467.172	23.262	0.173	-0.142
-466.157	581.555	-0.129	-0.315
-465.143	-86.993	0.401	-0.122
-464.128	168.687	-0.079	0.112
-463.113	108.071	0.150	0.179
-462.099	800.000	0.062	0.259
-461.084	366.081	0.254	-0.510
-460.070	121.341	-0.102	0.126
-459.055	800.000	-0.063	0.201
-458.040	-33.085	0.236	-0.130
-457.026	87.538	-0.171	-0.188
-456.011	800.000	-0.135	-0.403
-454.997	65.239	-0.149	0.150
-453.982	128.714	0.176	-0.223
-452.968	800.000	-0.012	-0.039
-451.953	-69.276	0.409	-0.157
-450.938	-63.004	-0.143	-0.059
-449.924	-200.000	0.003	-0.179
-448.909	75.731	-0.151	-0.159
-447.895	-200.000	0.018	0.181
-446.880	800.000	-0.078	0.262
-445.865	-158.829	-0.256	-0.015
-444.851	-38.128	0.171	-0.090
-443.836	364.659	0.063	-0.126
-442.822	277.820	-0.036	-0.063
-441.807	-98.111	-0.169	0.043
-440.792	800.000	-0.023	-0.085
-439.778	-30.274	-0.334	-0.189
-438.763	-97.121	-0.199	-0.052
-437.749	642.841	0.089	0.225
-436.734	636.525	0.080	0.201
-435.719	-90.417	-0.156	0.045
-434.705	-11.442	-0.142	-0.093
-433.690	800.000	-0.030	0.112
-432.676	143.453	0.086	-0.113
-431.661	8.783	0.193	-0.145
-430.646	615.424	0.025	0.063
-429.632	-200.000	0.002	0.042
-428.617	800.000	-0.074	-0.217
-427.603	800.000	0.011	0.045
-426.588	23.033	-0.112	0.092
-425.573	-132.751	0.119	0.015
-424.559	-200.000	-0.052	0.268
-423.544	285.239	-0.119	-0.214
-422.530	-5.438	-0.219	0.149
-421.515	-137.564	0.183	-0.020
-420.500	-4.666	-0.172	-0.118
-419.486	-127.504	0.282	-0.041
-418.471	-200.000	-0.011	-0.333
-417.457	306.412	-0.052	-0.096
-416.442	-126.814	0.157	-0.023
-415.428	800.000	-0.040	-0.161
-414.413	-117.795	0.199	0.036
-413.398	18.225	0.088	0.069
-412.384	190.586	0.050	-0.075
-411.369	715.465	0.070	-0.186
-410.355	-11.292	-0.186	0.122
-409.340	-32.021	-0.057	-0.031
-408.325	122.524	0.032	0.040
-407.311	800.000	-0.090	-0.290
-406.296	-158.213	0.416	-0.024
-405.282	-103.455	0.128	-0.030
-404.267	800.000	-0.058	-0.242
-403.252	194.575	-0.046	0.069
-402.238	-200.000	-0.036	0.192
-401.223	-200.000	-0.001	0.054
-400.209	190.594	0.202	-0.301
-399.194	800.000	0.067	-0.248
-398.179	-39.739	-0.292	-0.152
-397.165	14.877	0.282	-0.219
-396.150	-200.000	-0.013	-0.173
-395.136	-146.590	0.358	0.031
-394.121	-172.377	0.143	-0.005
-393.106	65.498	0.084	0.085
-392.092	-31.231	-0.188	0.105
-391.077	258.160	0.068	0.115
-390.063	162.767	-0.135	-0.188
-389.048	-30.686	-0.168	-0.095
-388.033	107.916	0.164	-0.194
-387.019	-124.634	-0.331	0.051
-386.004	125.394	-0.069	-0.086
-384.990	85.227	0.080	-0.087
-383.975	800.000	0.043	0.143
-382.960	-53.270	0.118	-0.054
-381.946	800.000	-0.049	0.211
-380.931	800.000	0.081	0.225
-379.917	-62.889	-0.105	0.043
-378.902	676.574	-0.052	0.134
-377.888	298.218	0.143	0.261
-376.873	73.221	-0.116	-0.120
-375.858	147.897	0.073	0.098
-374.844	-200.000	0.002	-0.307
-373.829	800.000	0.074	0.263
-372.815	526.884	-0.128	0.299
-371.800	-200.000	-0.018	0.121
-370.785	800.000	0.038	0.109
-369.771	-121.124	0.299	0.050
-368.756	327.623	0.161	-0.307
-367.742	-164.264	-0.483	0.022
-366.727	-114.872	-0.263	0.050
-365.712	-78.219	0.193	0.066
-364.698	485.766	-0.106	0.239
-363.683	-200.000	0.009	0.192
-362.669	-200.000	-0.054	0.394
-361.654	-31.250	-0.280	0.157
-360.639	-135.982	-0.102	0.012
-359.625	-200.000	-0.051	0.234
-358.610	365.300	-0.102	-0.205
-357.596	-55.720	-0.367	0.163
-356.581	-91.215	0.173	-0.049
-355.566	85.426	0.048	0.053
-354.552	181.114	0.101	0.148
-353.537	359.484	-0.124	0.246
-352.523	373.924	0.139	0.281
-351.508	-82.264	0.103	-0.033
-350.493	150.903	-0.207	0.280
-349.479	800.000	-0.057	0.200
-348.464	-200.000	-0.044	-0.388
-347.450	31.991	-0.159	-0.136
-346.435	-135.740	0.135	-0.016
-345.420	500.368	-0.055	-0.127
-344.406	-27.354	0.248	-0.143
-343.391	107.887	0.176	-0.208
-342.377	-200.000	-0.028	-0.247
-341.362	242.407	0.178	-0.295
-340.348	140.259	-0.225	0.294
-339.333	-64.849	0.198	0.079
-338.318	176.620	-0.154	-0.222
-337.304	-200.000	0.022	0.246
-336.289	-93.365	-0.109	0.030
-335.275	524.085	-0.044	-0.103
-334.260	-200.000	-0.010	-0.251
-333.245	300.050	0.067	-0.123
-332.231	-200.000	0.005	-0.139
-331.216	-200.000	-0.015	-0.269
-330.202	-27.456	0.218	-0.126
-329.187	-69.690	0.272	-0.103
-328.172	4.209	-0.365	-0.265
-327.158	-63.731	0.192	-0.078
-326.143	152.801	-0.138	0.187
-325.129	102.127	-0.181	0.210
-324.114	-13.455	-0.249	0.160
-323.099	-53.350	0.334	0.151
-322.085	-83.163	0.288	0.092
-321.070	800.000	0.114	0.385
-320.056	133.439	-0.141	0.181
-319.041	175.515	-0.094	-0.134
-318.026	-72.319	0.074	0.027
-317.012	-113.634	0.042	0.008
-315.997	-200.000	-0.044	-0.255
-314.983	-200.000	-0.019	0.193
-313.968	800.000	0.018	-0.050
-312.953	-82.454	-0.298	-0.096
-311.939	138.915	0.245	0.319
-310.924	636.794	0.069	0.174
-309.910	415.424	-0.135	-0.286
-308.895	-32.988	-0.221	-0.122
-307.880	-4.737	-0.099	-0.068
-306.866	274.198	0.168	-0.295
-305.851	-200.000	0.012	0.220
-304.837	-154.379	-0.343	-0.023
-303.822	800.000	-0.018	0.070
-302.807	60.264	0.220	-0.215
-301.793	67.263	0.126	0.127
-300.778	-102.242	0.326	-0.078
-299.764	-29.622	-0.253	0.143
-298.749	146.189	-0.276	0.366
-297.735	193.536	-0.158	-0.237
-296.720	-103.492	0.291	-0.068
-295.705	115.416	-0.137	-0.166
-294.691	131.333	0.105	-0.133
-293.676	-200.000	0.059	0.343
-292.662	302.084	0.034	-0.063
-291.647	335.770	-0.092	0.178
-290.632	-123.710	-0.099	0.015
-289.618	71.277	-0.179	0.184
-288.603	261.775	0.073	-0.126
-287.589	-200.000	0.016	-0.386
-286.574	-16.353	0.164	-0.103
-285.559	-40.138	0.112	0.058
-284.545	550.303	-0.087	-0.206
-283.530	232.633	-0.050	0.081
-282.516	543.714	0.079	-0.187
-281.501	-43.845	-0.108	0.054
-280.486	-153.364	-0.109	0.007
-279.472	800.000	-0.007	-0.021
-278.457	800.000	0.055	-0.228
-277.443	89.124	-0.299	0.329
-276.428	-42.821	0.261	-0.131
-275.413	355.397	-0.147	-0.289
-274.399	-200.000	0.012	-0.142
-273.384	-200.000	-0.017	0.198
-272.370	424.331	0.041	-0.087
-271.355	1.878	-0.111	-0.079
-270.340	-129.245	0.068	0.009
-269.326	98.782	-0.196	0.223
-268.311	-150.263	-0.106	-0.008
-267.297	-10.483	0.208	-0.136
-266.282	-200.000	0.002	0.324
-265.267	-36.087	-0.144	-0.077
-264.253	-105.932	0.417	0.093
-263.238	-78.852	-0.056	-0.019
-262.224	10.683	-0.346	-0.261
-261.209	-88.106	-0.369	-0.109
-260.195	-200.000	0.039	-0.447
-259.180	412.873	-0.125	-0.263
-258.165	-200.000	0.009	0.298
-257.151	-17.625	0.119	-0.074
-256.136	-200.000	0.058	-0.292
-255.122	800.000	-0.102	0.286
-254.107	-130.530	-0.193	-0.026
-253.092	72.786	0.200	-0.206
-252.078	145.485	0.091	-0.120
-251.063	-200.000	-0.029	0.125
-250.049	-22.714	0.296	-0.177
-249.034	-64.832	-0.271	-0.108
-248.019	63.865	0.119	-0.118
-247.005	-86.275	0.202	0.061
-245.990	69.231	0.152	-0.154
-244.976	-135.877	0.253	0.030
-243.961	273.824	0.028	-0.048
-242.946	-193.513	0.156	0.001
-241.932	58.242	-0.177	0.172
-240.917	106.346	0.225	0.263
-239.903	28.135	-0.454	0.378
-238.888	-200.000	0.002	-0.183
-237.873	-173.697	0.209	-0.006
-236.859	239.190	-0.155	0.254
-235.844	70.701	0.075	0.077
-234.830	519.556	-0.047	0.109
-233.815	800.000	0.064	-0.267
-232.800	-200.000	-0.014	-0.072
-231.786	-82.185	0.233	-0.075
-230.771	190.462	-0.107	-0.159
-229.757	0.789	0.195	-0.138
-228.742	-200.000	-0.010	0.437
-227.727	29.817	-0.042	-0.035
-226.713	-136.641	-0.213	0.024
-225.698	-49.902	0.102	0.048
-224.684	75.570	-0.176	-0.183
-223.669	-200.000	-0.071	-0.474
-222.655	-34.719	-0.176	-0.095
-221.640	800.000	0.069	0.271
-220.625	-56.283	0.096	-0.042
-219.611	-122.587	-0.144	0.023
-218.596	369.986	0.069	0.138
-217.582	-200.000	0.076	0.421
-216.567	303.589	-0.087	0.159
-215.552	-200.000	0.042	0.420
-214.538	-21.648	0.301	-0.181
-213.523	800.000	0.037	-0.148
-212.509	100.713	-0.146	-0.167
-211.494	-200.000	-0.020	-0.157
-210.479	82.166	-0.098	-0.105
-209.465	-73.947	-0.309	0.111
-208.450	142.792	0.169	-0.221
-207.436	54.526	-0.018	-0.017
-206.421	800.000	-0.033	0.095
-205.406	3.936	0.199	-0.144
-204.392	800.000	0.021	0.088
-203.377	-108.066	-0.456	0.097
-202.363	49.112	-0.297	0.275
-201.348	-25.564	0.127	0.074
-200.333	-97.643	0.245	0.063
-199.319	-200.000	-0.010	-0.108
-198.304	195.598	-0.193	0.290
-197.290	-116.243	0.298	-0.054
-196.275	-96.732	0.511	-0.132
-195.260	127.379	-0.020	0.025
-194.246	800.000	-0.092	0.353
-193.231	182.984	-0.096	0.139
-192.217	204.660	-0.115	0.176
-191.202	129.012	0.246	0.310
-190.187	95.410	-0.115	-0.129
-189.173	-200.000	0.033	-0.187
-188.158	91.563	0.323	-0.358
-187.144	-143.165	0.276	-0.026
-186.129	123.252	-0.180	0.222
-185.114	-200.000	0.001	0.111
-184.100	-123.483	-0.273	-0.043
-183.085	32.438	-0.208	0.177
-182.071	20.094	0.266	0.212
-181.056	71.858	0.133	0.137
-180.042	411.396	-0.176	0.368
-179.027	158.585	0.142	-0.194
-178.012	-13.568	-0.096	0.061
-176.998	-95.913	0.466	0.122
-175.983	-100.791	0.078	-0.019
-174.969	-156.716	0.121	0.007
-173.954	176.101	-0.175	-0.251
-172.939	592.078	-0.095	0.231
-171.925	347.488	0.211	-0.410
-170.910	175.750	-0.105	-0.149
-169.896	33.559	-0.040	-0.034
-168.881	-135.714	-0.293	-0.034
-167.866	-200.000	0.041	0.251
-166.852	53.484	-0.157	-0.149
-165.837	210.404	0.126	0.195
-164.823	-139.442	-0.262	0.028
-163.808	-200.000	0.010	0.240
-162.793	-200.000	0.052	0.241
-161.779	149.106	0.074	-0.098
-160.764	-73.755	-0.100	-0.036
-159.750	-38.905	0.065	-0.034
-158.735	198.946	-0.167	0.251
-157.720	-200.000	0.047	0.261
-156.706	-122.119	-0.160	-0.026
-155.691	-200.000	0.037	-0.273
-154.677	37.397	0.149	0.130
-153.662	800.000	-0.086	-0.295
-152.647	-200.000	0.007	-0.138
-151.633	-151.477	-0.248	0.018
-150.618	126.977	-0.321	-0.401
-149.604	-52.132	-0.335	-0.153
-148.589	800.000	0.032	-0.117
-147.574	-200.000	0.035	-0.248
-146.560	47.196	-0.229	-0.210
-145.545	800.000	0.069	0.289
-144.531	-200.000	-0.011	0.227
-143.516	-86.093	0.427	0.130
-142.502	800.000	-0.096	0.340
-141.487	-19.110	0.204	-0.125
-140.472	-123.142	0.047	0.007
-139.458	192.367	0.129	-0.192
-138.443	-200.000	0.058	-0.322
-137.429	-23.044	0.191	0.113
-136.414	-110.569	-0.208	0.042
-135.399	356.206	0.124	-0.243
-134.385	20.145	-0.242	-0.192
-133.370	-93.356	-0.165	-0.045
-132.356	-39.780	-0.375	0.193
-131.341	-200.000	0.016	0.305
-130.326	558.064	-0.127	0.302
-129.312	355.351	0.073	0.143
-128.297	454.970	-0.019	0.042
-127.283	-200.000	-0.018	0.179
-126.268	-132.329	-0.037	-0.005
-125.253	-200.000	-0.018	0.290
-124.239	800.000	-0.089	0.342
-123.224	800.000	0.085	0.242
-122.210	476.026	0.051	-0.113
