DTS Sentinel unit serial number:	SN413079Multiplexer serial number:	ORYXHardware model number:	OX4-SRSoftware version number:	ORYX F/W v4.00 Oryx Data Collector v3.7.2.0data status	okinstallation	princeton_trtdifferential loss correction	single-endedforward channel	channel 1reverse channel	N/Adate	2019/09/17time	09:14:35forward acquisition time	60.00reverse acquisition time	0.00gamma	496.2192k internal	0.2326k external	0.2326temperature offset calibration	0.9964default loss term (dB/km)	0.3790temperature slope calibration	1.0000multiplexer offset coefficient	1.0000multiplexer slope coefficient	1.0000fibre end	0.00T internal ref (°C)	28.44T ext. ref 1 (°C)	0.15T ext. ref 2 (°C)	25.44length (m)	temperature (°C)	Stokes	anti-Stokes-747.200	-110.015	0.118	0.025
-746.185	-5.607	-0.236	0.163
-745.171	19.548	-0.093	0.076
-744.156	169.411	-0.152	0.219
-743.142	-94.026	-0.259	0.072
-742.127	-70.741	-0.323	-0.123
-741.112	-178.162	0.370	0.009
-740.098	-200.000	-0.034	0.195
-739.083	-42.387	0.280	-0.144
-738.069	-200.000	0.024	0.337
-737.054	-24.137	0.279	0.168
-736.039	800.000	0.027	-0.076
-735.025	-161.037	0.263	-0.014
-734.010	-82.036	-0.212	0.070
-732.996	-200.000	-0.071	-0.377
-731.981	-200.000	-0.064	-0.326
-730.966	-179.852	0.085	0.002
-729.952	-139.998	0.260	-0.028
-728.937	-152.522	-0.188	0.014
-727.923	-5.953	-0.213	0.147
-726.908	22.824	0.184	-0.152
-725.894	-122.358	-0.398	0.065
-724.879	-200.000	0.058	-0.407
-723.864	-19.852	0.089	-0.055
-722.850	413.809	-0.092	0.196
-721.835	-70.696	-0.067	0.025
-720.821	-98.512	0.072	0.019
-719.806	800.000	0.067	-0.232
-718.791	-168.592	0.055	0.002
-717.777	126.003	-0.061	0.077
-716.762	130.243	0.135	-0.174
-715.748	-82.187	0.157	0.052
-714.733	-200.000	-0.002	0.188
-713.718	-19.109	0.396	-0.248
-712.704	-93.245	0.360	0.101
-711.689	49.566	0.291	-0.276
-710.675	60.419	-0.210	-0.209
-709.660	9.359	-0.047	0.036
-708.645	-200.000	-0.060	0.398
-707.631	-97.609	-0.153	-0.040
-706.616	184.396	0.072	0.107
-705.602	-160.524	-0.176	-0.010
-704.587	800.000	0.024	-0.077
-703.572	-200.000	-0.000	-0.315
-702.558	-96.409	-0.320	0.085
-701.543	-200.000	0.016	-0.325
-700.529	218.275	0.079	-0.127
-699.514	78.177	0.092	0.099
-698.499	-81.109	-0.242	-0.081
-697.485	-133.011	-0.360	0.046
-696.470	353.946	0.088	-0.175
-695.456	-86.934	-0.216	-0.066
-694.441	61.711	0.206	-0.206
-693.426	194.919	-0.109	-0.166
-692.412	169.592	-0.106	0.152
-691.397	-88.519	-0.080	-0.024
-690.383	296.716	0.119	-0.220
-689.368	60.519	-0.201	0.200
-688.354	-125.660	-0.374	-0.057
-687.339	121.603	-0.233	-0.292
-686.324	67.436	-0.153	-0.157
-685.310	-0.008	-0.084	-0.060
-684.295	-200.000	-0.034	-0.198
-683.281	141.720	0.266	-0.354
-682.266	-82.923	-0.221	-0.072
-681.251	800.000	-0.133	0.441
-680.237	800.000	0.103	-0.288
-679.222	594.901	0.087	-0.217
-678.208	-26.536	0.166	-0.098
-677.193	-146.454	0.267	-0.023
-676.178	-6.779	-0.092	0.063
-675.164	-98.104	0.102	0.026
-674.149	-47.623	-0.116	-0.056
-673.135	-38.943	0.253	-0.134
-672.120	-95.068	-0.223	-0.061
-671.105	-84.215	-0.199	-0.064
-670.091	-200.000	-0.018	0.341
-669.076	236.817	-0.242	0.402
-668.062	320.354	-0.068	-0.131
-667.047	-89.671	-0.090	0.027
-666.032	800.000	-0.054	-0.202
-665.018	138.688	-0.146	-0.193
-664.003	515.171	0.098	0.230
-662.989	-200.000	0.009	-0.181
-661.974	-168.981	-0.113	-0.004
-660.959	148.608	0.066	0.089
-659.945	-20.978	-0.292	-0.180
-658.930	-54.977	0.085	-0.039
-657.916	-87.885	-0.166	-0.050
-656.901	95.112	-0.164	-0.188
-655.886	352.194	-0.103	-0.204
-654.872	-88.754	0.154	0.046
-653.857	-62.571	-0.276	-0.115
-652.843	-3.253	0.256	0.179
-651.828	-75.295	0.109	-0.039
-650.814	219.963	-0.188	0.303
-649.799	-86.665	0.367	-0.113
-648.784	114.582	-0.141	-0.173
-647.770	-55.245	-0.286	0.129
-646.755	-58.255	-0.061	0.027
-645.741	-47.195	0.240	-0.118
-644.726	-32.433	-0.082	0.046
-643.711	109.593	-0.159	-0.191
-642.697	-48.802	0.193	0.093
-641.682	651.669	0.099	0.256
-640.668	-116.669	-0.173	0.032
-639.653	-200.000	0.007	0.059
-638.638	51.819	-0.167	-0.159
-637.624	-63.824	-0.091	0.037
-636.609	-148.158	0.105	-0.009
-635.595	-70.796	-0.319	0.121
-634.580	106.582	0.281	-0.334
-633.565	283.088	-0.155	-0.280
-632.551	58.411	-0.054	-0.053
-631.536	-11.485	-0.188	0.124
-630.522	-55.460	-0.074	0.033
-629.507	176.455	-0.130	-0.190
-628.492	-89.445	-0.101	0.030
-627.478	-68.063	0.359	-0.140
-626.463	-102.285	0.108	-0.026
-625.449	-58.294	-0.252	-0.110
-624.434	-200.000	0.051	0.258
-623.419	106.021	0.231	0.274
-622.405	710.142	-0.107	-0.283
-621.390	-38.475	-0.171	0.091
-620.376	109.163	-0.072	-0.087
-619.361	-48.869	-0.315	-0.152
-618.346	23.794	0.134	-0.111
-617.332	-89.504	0.084	-0.025
-616.317	-200.000	0.017	0.129
-615.303	-50.365	-0.051	0.024
-614.288	-139.193	-0.502	0.054
-613.273	-200.000	-0.058	0.257
-612.259	205.215	-0.072	0.111
-611.244	-200.000	-0.046	-0.311
-610.230	420.735	0.048	0.103
-609.215	245.744	-0.108	0.182
-608.201	651.125	-0.243	0.625
-607.186	143.432	-0.128	0.171
-606.171	-200.000	-0.003	-0.070
-605.157	-44.791	-0.182	0.091
-604.142	800.000	0.040	-0.137
-603.128	2.777	-0.231	-0.168
-602.113	229.183	-0.096	-0.156
-601.098	-200.000	0.019	0.229
-600.084	63.211	0.094	0.095
-599.069	-136.881	0.252	-0.029
-598.055	-111.137	0.266	-0.055
-597.040	-44.871	-0.167	-0.083
-596.025	-99.299	0.233	0.059
-595.011	800.000	-0.087	0.310
-593.996	-138.885	0.222	-0.024
-592.982	-200.000	0.199	0.000
-591.967	53.888	-0.279	-0.269
-590.952	-29.128	0.015	0.009
-589.938	197.832	0.113	-0.174
-588.923	800.000	-0.085	-0.334
-587.909	3.405	0.123	0.090
-586.894	-27.987	-0.118	0.069
-585.879	359.390	0.020	0.040
-584.865	71.381	0.063	-0.066
-583.850	-22.104	0.330	-0.201
-582.836	-200.000	-0.001	-0.215
-581.821	800.000	0.050	-0.170
-580.806	793.583	-0.064	0.175
-579.792	118.383	0.170	0.210
-578.777	-61.113	-0.250	0.106
-577.763	800.000	0.046	-0.142
-576.748	368.738	0.082	-0.165
-575.733	109.175	0.169	-0.202
-574.719	800.000	-0.109	0.467
-573.704	-7.116	0.099	-0.067
-572.690	800.000	-0.103	0.308
-571.675	592.505	-0.125	0.309
-570.661	-200.000	0.015	0.162
-569.646	-64.939	0.262	0.106
-568.631	-143.019	0.270	0.026
-567.617	-154.554	-0.158	0.011
-566.602	39.653	-0.265	0.238
-565.588	38.094	-0.134	0.120
-564.573	-200.000	0.014	-0.335
-563.558	-69.605	-0.326	-0.125
-562.544	171.333	-0.057	-0.082
-561.529	-93.222	0.176	0.049
-560.515	98.220	0.100	0.115
-559.500	-59.629	0.292	0.125
-558.485	-200.000	-0.015	-0.167
-557.471	-200.000	-0.022	-0.111
-556.456	-21.857	0.284	0.173
-555.442	68.154	-0.210	-0.216
-554.427	56.134	0.209	0.203
-553.412	142.999	-0.167	-0.222
-552.398	225.519	0.077	-0.126
-551.383	244.114	-0.163	0.274
-550.369	-47.111	-0.210	0.103
-549.354	55.611	0.316	0.307
-548.339	35.503	-0.179	0.158
-547.325	-61.875	0.130	-0.054
-546.310	-200.000	-0.031	-0.248
-545.296	162.169	0.130	0.182
-544.281	228.231	0.048	0.078
-543.266	326.428	0.081	-0.156
-542.252	800.000	-0.030	0.108
-541.237	-200.000	0.003	0.252
-540.223	800.000	0.057	0.173
-539.208	45.459	0.190	0.176
-538.193	34.290	-0.241	0.210
-537.179	40.001	-0.347	-0.312
-536.164	-60.445	-0.026	-0.011
-535.150	-138.229	0.355	0.039
-534.135	-200.000	-0.012	0.150
-533.121	-200.000	-0.007	-0.198
-532.106	-200.000	-0.017	0.088
-531.091	259.692	0.206	-0.356
-530.077	-191.097	0.239	-0.002
-529.062	-6.844	0.128	-0.087
-528.048	687.751	0.132	-0.345
-527.033	167.362	0.297	-0.423
-526.018	237.246	0.116	0.192
-525.004	800.000	0.068	-0.294
-523.989	-200.000	-0.001	0.024
-522.975	-156.003	-0.342	-0.022
-521.960	-119.812	0.391	-0.067
-520.945	-164.474	-0.105	0.005
-519.931	116.341	-0.220	-0.270
-518.916	-83.060	-0.142	-0.046
-517.902	-200.000	0.019	-0.286
-516.887	129.010	0.113	0.144
-515.872	-137.310	-0.305	-0.035
-514.858	-191.600	-0.223	-0.002
-513.843	484.918	-0.115	0.261
-512.829	109.872	0.067	0.080
-511.814	116.701	0.062	0.076
-510.799	-200.000	-0.003	0.206
-509.785	-110.267	0.212	0.044
-508.770	372.380	-0.134	-0.272
-507.756	-200.000	0.048	-0.210
-506.741	-35.672	-0.084	-0.046
-505.726	27.276	-0.105	-0.088
-504.712	-146.173	-0.253	-0.022
-503.697	54.853	-0.268	-0.258
-502.683	-54.437	0.179	-0.081
-501.668	260.221	-0.013	-0.023
-500.653	-77.361	-0.306	-0.106
-499.639	-144.112	0.132	0.012
-498.624	0.916	-0.084	0.060
-497.610	-104.469	-0.188	-0.043
-496.595	-118.318	0.089	-0.016
-495.581	-10.028	-0.282	0.187
-494.566	363.313	0.052	-0.105
-493.551	-148.870	0.390	-0.031
-492.537	434.132	0.060	0.130
-491.522	167.226	-0.108	0.154
-490.508	-200.000	0.023	-0.133
-489.493	27.327	0.125	0.105
-488.478	454.804	0.071	-0.158
-487.464	-200.000	-0.010	0.069
-486.449	85.872	-0.202	0.222
-485.435	44.733	0.109	-0.100
-484.420	91.597	-0.142	0.159
-483.405	-200.000	0.017	-0.128
-482.391	-34.948	0.082	0.045
-481.376	135.303	-0.134	0.175
-480.362	172.718	0.061	-0.088
-479.347	-200.000	0.037	-0.302
-478.332	-26.435	-0.126	-0.074
-477.318	-64.108	-0.366	0.149
-476.303	-140.796	-0.208	-0.021
-475.289	-200.000	0.018	-0.274
-474.274	800.000	0.056	-0.182
-473.259	-122.308	0.144	0.024
-472.245	-86.306	0.284	-0.087
-471.230	-200.000	0.015	-0.172
-470.216	197.636	-0.186	0.283
-469.201	38.096	-0.027	0.024
-468.186	36.321	-0.248	-0.218
-467.172	7.309	0.086	0.064
-466.157	255.328	-0.033	0.056
-465.143	55.538	-0.293	-0.283
-464.128	208.427	-0.109	0.170
-463.113	-200.000	-0.005	-0.246
-462.099	800.000	0.017	0.054
-461.084	288.813	0.091	-0.164
-460.070	-134.148	0.069	-0.008
-459.055	-35.393	-0.200	-0.109
-458.040	800.000	0.007	-0.022
-457.026	-75.504	0.155	-0.055
-456.011	-66.565	-0.529	-0.209
-454.997	77.660	-0.179	-0.191
-453.982	-93.363	0.316	0.088
-452.968	-43.911	-0.263	-0.132
-451.953	-135.372	-0.015	-0.002
-450.938	-116.286	0.297	-0.055
-449.924	55.809	0.061	-0.059
-448.909	-73.953	0.199	0.072
-447.895	33.828	0.205	0.178
-446.880	144.397	-0.171	-0.227
-445.865	-79.138	0.243	0.082
-444.851	-15.523	-0.178	0.113
-443.836	-29.996	-0.069	-0.039
-442.822	187.087	-0.059	0.088
-441.807	800.000	-0.050	0.176
-440.792	-200.000	0.015	-0.086
-439.778	-113.359	0.349	0.068
-438.763	158.835	0.256	0.354
-437.749	271.275	0.143	-0.251
-436.734	22.407	-0.155	-0.126
-435.719	-37.732	-0.210	-0.112
-434.705	67.083	-0.130	0.132
-433.690	416.566	-0.121	-0.258
-432.676	800.000	0.041	-0.173
-431.661	-87.706	-0.087	0.026
-430.646	-200.000	-0.013	-0.232
-429.632	310.664	0.101	0.189
-428.617	-200.000	0.015	-0.387
-427.603	-200.000	0.083	0.451
-426.588	236.165	0.197	0.325
-425.573	5.879	0.091	0.067
-424.559	198.417	0.032	0.049
-423.544	-131.576	0.090	0.012
-422.530	-78.501	0.119	0.041
-421.515	-54.486	-0.044	0.020
-420.500	43.572	0.051	-0.047
-419.486	15.106	-0.407	0.317
-418.471	57.237	-0.174	-0.169
-417.457	-200.000	0.017	-0.248
-416.442	141.862	0.166	-0.220
-415.428	752.019	0.101	-0.273
-414.413	116.949	0.055	0.067
-413.398	-120.514	-0.295	0.050
-412.384	800.000	-0.084	-0.312
-411.369	-200.000	0.002	-0.271
-410.355	6.357	0.048	0.035
-409.340	-200.000	0.002	-0.215
-408.325	193.639	-0.029	-0.044
-407.311	26.020	0.294	0.244
-406.296	164.874	-0.185	-0.260
-405.282	243.861	0.190	0.317
-404.267	260.940	0.086	0.148
-403.252	-81.463	0.311	-0.102
-402.238	91.441	-0.163	0.182
-401.223	800.000	0.071	0.294
-400.209	17.042	0.197	-0.155
-399.194	703.626	0.025	0.065
-398.179	-33.406	-0.168	0.093
-397.165	-200.000	-0.075	0.376
-396.150	420.688	-0.088	0.187
-395.136	74.593	-0.172	0.180
-394.121	800.000	0.150	0.436
-393.106	-114.619	-0.412	-0.078
-392.092	273.220	-0.099	0.175
-391.077	-200.000	0.010	0.058
-390.063	-39.810	-0.285	0.148
-389.048	800.000	0.109	-0.303
-388.033	-125.124	0.173	-0.026
-387.019	-200.000	-0.002	-0.281
-386.004	136.718	0.048	-0.063
-384.990	226.666	-0.237	0.382
-383.975	-55.869	-0.057	-0.026
-382.960	-200.000	-0.017	-0.290
-381.946	43.501	-0.131	-0.119
-380.931	-68.114	0.044	-0.017
-379.917	252.287	0.083	-0.140
-378.902	120.890	-0.207	-0.257
-377.888	541.649	-0.041	-0.097
-376.873	-70.925	0.241	0.090
-375.858	-200.000	0.004	0.025
-374.844	-60.242	0.352	-0.149
-373.829	-200.000	0.021	-0.095
-372.815	785.184	-0.055	0.150
-371.800	800.000	-0.050	-0.148
-370.785	133.352	-0.236	-0.304
-369.771	350.815	0.050	-0.097
-368.756	-200.000	0.015	-0.089
-367.742	75.110	-0.046	0.048
-366.727	-33.690	-0.149	0.082
-365.712	800.000	0.032	-0.100
-364.698	213.887	-0.092	0.144
-363.683	126.716	-0.157	-0.197
-362.669	-160.811	0.085	0.004
-361.654	-200.000	-0.015	0.141
-360.639	632.606	0.087	0.219
-359.625	28.504	-0.138	-0.116
-358.610	107.513	-0.045	-0.054
-357.596	136.573	0.181	-0.235
-356.581	-39.598	-0.338	-0.176
-355.566	-2.939	-0.129	-0.090
-354.552	-119.138	0.077	0.013
-353.537	-200.000	-0.057	0.254
-352.523	47.536	0.106	0.098
-351.508	17.822	-0.179	-0.142
-350.493	108.464	-0.158	0.188
-349.479	-72.046	0.216	-0.080
-348.464	28.805	-0.271	-0.228
-347.450	-65.422	0.444	0.177
-346.435	-50.543	-0.033	0.016
-345.420	-34.369	-0.371	0.202
-344.406	800.000	0.037	-0.154
-343.391	108.789	-0.153	0.181
-342.377	-159.579	-0.372	-0.020
-341.362	532.186	-0.086	0.201
-340.348	800.000	0.065	0.198
-339.333	800.000	0.043	0.187
-338.318	10.830	0.190	-0.144
-337.304	238.129	-0.051	0.083
-336.289	-200.000	-0.017	-0.171
-335.275	241.569	-0.099	-0.165
-334.260	347.075	0.079	0.155
-333.245	800.000	0.054	-0.194
-332.231	-38.297	0.058	-0.031
-331.216	-114.480	-0.378	0.072
-330.202	-200.000	0.005	-0.155
-329.187	317.710	0.187	-0.352
-328.172	177.220	0.079	-0.114
-327.158	268.860	-0.079	0.138
-326.143	490.731	-0.058	0.131
-325.129	-200.000	-0.015	0.160
-324.114	-146.834	-0.342	-0.029
-323.099	800.000	-0.086	0.299
-322.085	50.939	0.281	-0.264
-321.070	101.125	-0.142	0.164
-320.056	61.706	-0.245	0.242
-319.041	-200.000	0.000	0.037
-318.026	181.870	-0.166	0.243
-317.012	-200.000	-0.003	0.108
-315.997	83.362	-0.210	0.227
-314.983	7.998	-0.065	0.048
-313.968	-94.435	0.116	-0.031
-312.953	-200.000	0.018	-0.262
-311.939	513.366	0.043	-0.100
-310.924	-24.046	0.302	0.179
-309.910	-200.000	0.041	0.263
-308.895	-200.000	-0.026	0.289
-307.880	-200.000	-0.025	0.293
-306.866	-200.000	0.031	0.184
-305.851	-200.000	-0.070	0.369
-304.837	-40.571	0.078	0.040
-303.822	63.467	-0.235	0.234
-302.807	2.842	0.114	-0.082
-301.793	368.072	-0.097	-0.194
-300.778	-16.843	0.131	-0.082
-299.764	800.000	0.018	-0.062
-298.749	2.685	0.141	-0.101
-297.735	-200.000	0.003	-0.331
-296.720	-33.359	-0.330	-0.181
-295.705	-80.483	0.280	0.092
-294.691	24.011	0.293	0.239
-293.676	340.900	-0.061	-0.119
-292.662	-200.000	0.030	0.200
-291.647	124.171	-0.022	-0.027
-290.632	-200.000	0.004	-0.021
-289.618	800.000	-0.047	0.130
-288.603	713.949	0.140	0.367
-287.589	800.000	0.095	-0.272
-286.574	-47.410	-0.083	-0.040
-285.559	59.009	-0.096	-0.093
-284.545	298.317	0.096	0.176
-283.530	70.622	0.056	0.057
-282.516	53.651	0.149	0.141
-281.501	-200.000	-0.015	-0.230
-280.486	-72.634	-0.099	-0.036
-279.472	-94.207	0.399	-0.108
-278.457	-200.000	0.009	-0.127
-277.443	628.959	-0.051	0.129
-276.428	196.764	0.216	-0.327
-275.413	15.249	0.364	-0.282
-274.399	176.471	0.234	0.337
-273.384	-134.613	-0.177	-0.021
-272.370	467.791	-0.060	-0.132
-271.355	-12.378	0.417	-0.270
-270.340	279.583	0.169	-0.298
-269.326	-9.136	0.144	-0.096
-268.311	-85.629	-0.059	0.018
-267.297	546.764	0.113	0.267
-266.282	-132.824	0.358	-0.045
-265.267	497.275	0.091	-0.206
-264.253	-58.571	0.311	-0.134
-263.238	-124.228	0.138	0.021
-262.224	-48.556	-0.448	-0.213
-261.209	800.000	0.061	-0.255
-260.195	777.007	0.023	-0.063
-259.180	108.071	0.183	-0.216
-258.165	-200.000	0.043	-0.226
-257.151	45.871	-0.057	0.052
-256.136	-101.054	-0.413	0.100
-255.122	-200.000	0.004	-0.119
-254.107	-175.048	-0.257	-0.007
-253.092	4.506	-0.040	0.029
-252.078	71.885	0.112	0.115
-251.063	138.365	-0.171	-0.222
-250.049	78.759	-0.111	0.118
-249.034	740.121	-0.050	0.133
-248.019	-127.083	0.327	-0.048
-247.005	60.326	-0.107	0.105
-245.990	16.830	0.248	-0.194
-244.976	-200.000	0.020	0.236
-243.961	204.888	0.094	0.144
-242.946	-71.581	0.193	0.071
-241.932	800.000	-0.035	-0.143
-240.917	-44.782	-0.306	0.151
-239.903	800.000	-0.067	-0.221
-238.888	14.475	0.094	-0.073
-237.873	-72.031	0.253	0.093
-236.859	69.544	0.259	-0.264
-235.844	52.503	-0.162	-0.153
-234.830	350.888	-0.104	-0.204
-233.815	711.224	-0.065	0.169
-232.800	-169.996	-0.118	-0.004
-231.786	-200.000	0.011	-0.454
-230.771	69.362	-0.134	0.137
-229.757	14.410	0.247	0.191
-228.742	-109.441	0.166	0.035
-227.727	-124.094	0.234	0.036
-226.713	-200.000	0.032	0.243
-225.698	-200.000	0.012	0.249
-224.684	409.818	0.051	-0.107
-223.669	-200.000	-0.032	-0.196
-222.655	489.718	-0.012	-0.028
-221.640	675.577	0.074	-0.189
-220.625	-52.802	-0.222	0.101
-219.611	-151.807	0.280	-0.020
-218.596	-146.572	0.367	-0.031
-217.582	-150.575	0.090	-0.007
-216.567	-200.000	0.017	0.102
-215.552	689.123	0.146	0.378
-214.538	-105.837	-0.339	0.076
-213.523	-120.077	-0.157	0.026
-212.509	-200.000	0.015	-0.507
-211.494	-200.000	-0.075	-0.564
-210.479	800.000	-0.031	0.086
-209.465	295.293	-0.024	0.043
-208.450	175.176	0.064	0.091
-207.436	27.683	0.149	-0.124
-206.421	-200.000	-0.055	0.245
-205.406	-200.000	-0.024	-0.171
-204.392	800.000	-0.136	-0.388
-203.377	800.000	-0.086	0.363
-202.363	-200.000	-0.004	0.384
-201.348	-200.000	-0.011	0.110
-200.333	108.305	-0.072	-0.085
-199.319	650.042	0.078	-0.198
-198.304	-94.419	-0.371	-0.100
-197.290	800.000	0.093	0.302
-196.275	74.720	0.234	0.243
-195.260	-200.000	0.000	0.062
-194.246	-142.691	0.188	0.018
-193.231	-58.407	-0.113	0.048
-192.217	231.227	0.189	0.305
-191.202	30.050	-0.084	-0.071
-190.187	-128.438	0.065	-0.009
-189.173	800.000	0.027	0.092
-188.158	92.281	-0.125	0.139
-187.144	-75.050	0.436	0.154
-186.129	276.396	0.113	0.198
-185.114	227.567	-0.142	-0.227
-184.100	-136.723	0.248	-0.028
-183.085	374.030	-0.055	0.110
-182.071	51.768	0.269	0.253
-181.056	131.449	-0.105	0.133
-180.042	234.947	0.112	0.183
-179.027	-200.000	-0.032	0.251
-178.012	345.569	0.153	0.297
-176.998	800.000	-0.036	-0.132
-175.983	800.000	0.047	0.129
-174.969	-85.205	0.462	0.142
-173.954	800.000	-0.054	-0.171
-172.939	242.828	-0.081	-0.134
-171.925	184.701	-0.204	0.298
-170.910	-200.000	-0.001	0.373
-169.896	20.744	-0.044	0.036
-168.881	89.587	0.220	0.243
-167.866	116.775	-0.183	0.222
-166.852	-200.000	-0.021	-0.285
-165.837	-93.715	-0.212	-0.058
-164.823	639.831	0.018	-0.045
-163.808	241.542	0.116	-0.191
-162.793	220.087	0.108	-0.171
-161.779	-200.000	-0.051	-0.330
-160.764	112.460	0.133	-0.158
-159.750	-17.195	-0.182	0.113
-158.735	-21.872	-0.023	-0.014
-157.720	-200.000	0.047	0.400
-156.706	-200.000	0.076	0.383
-155.691	-200.000	-0.014	0.117
-154.677	-13.808	0.144	-0.092
-153.662	610.626	-0.109	-0.268
-152.647	-132.268	-0.211	0.027
-151.633	215.112	-0.056	0.087
-150.618	-11.602	-0.207	-0.134
-149.604	-106.807	0.282	-0.062
-148.589	0.641	-0.142	-0.100
-147.574	271.303	0.089	-0.154
-146.560	-200.000	0.016	-0.184
-145.545	-49.253	0.136	-0.064
-144.531	159.059	0.130	0.178
-143.516	-200.000	0.049	-0.224
-142.502	455.927	-0.142	0.310
-141.487	-157.072	0.233	0.014
-140.472	-53.793	-0.346	-0.156
-139.458	423.609	-0.112	-0.236
-138.443	31.494	0.177	0.150
-137.429	62.905	-0.150	0.148
-136.414	121.543	0.073	0.090
-135.399	-200.000	0.020	-0.115
-134.385	800.000	0.112	-0.346
-133.370	268.483	0.172	-0.298
-132.356	110.026	0.084	0.099
-131.341	-32.552	0.115	-0.063
-130.326	487.599	0.049	-0.109
-129.312	800.000	-0.079	-0.286
-128.297	-200.000	-0.006	0.133
-127.283	-200.000	-0.000	0.066
-126.268	-67.304	-0.127	0.049
-125.253	-154.576	0.362	0.024
-124.239	18.694	0.043	-0.034
-123.224	124.284	-0.192	0.237
-122.210	-131.015	-0.353	0.046
-121.195	800.000	-0.030	0.088
