DTS Sentinel unit serial number:	SN413079Multiplexer serial number:	ORYXHardware model number:	OX4-SRSoftware version number:	ORYX F/W v4.00 Oryx Data Collector v3.7.2.0data status	okinstallation	princeton_trtdifferential loss correction	single-endedforward channel	channel 1reverse channel	N/Adate	2019/09/16time	17:26:35forward acquisition time	60.00reverse acquisition time	0.00gamma	496.2192k internal	0.2297k external	0.2297temperature offset calibration	0.9962default loss term (dB/km)	0.3790temperature slope calibration	1.0000multiplexer offset coefficient	1.0000multiplexer slope coefficient	1.0000fibre end	0.00T internal ref (°C)	38.61T ext. ref 1 (°C)	15.44T ext. ref 2 (°C)	32.60length (m)	temperature (°C)	Stokes	anti-Stokes-747.200	187.082	-0.114	0.174
-746.185	-72.664	0.043	0.016
-745.171	121.900	0.089	0.114
-744.156	-101.675	-0.438	0.108
-743.142	-200.000	0.033	0.223
-742.127	17.296	-0.270	0.219
-741.112	577.335	-0.088	0.219
-740.098	-200.000	-0.033	-0.381
-739.083	272.818	0.164	0.296
-738.069	-200.000	-0.023	0.322
-737.054	-59.722	0.205	0.090
-736.039	51.880	-0.112	0.109
-735.025	147.376	0.231	0.317
-734.010	-74.642	-0.290	0.107
-732.996	120.135	-0.112	-0.142
-731.981	475.590	-0.085	-0.196
-730.966	800.000	-0.019	0.080
-729.952	580.680	0.038	0.096
-728.937	377.650	0.027	-0.056
-727.923	-160.626	0.138	-0.007
-726.908	800.000	-0.012	-0.053
-725.894	-86.842	0.156	-0.049
-724.879	309.305	-0.069	-0.132
-723.864	-200.000	0.077	-0.441
-722.850	800.000	-0.062	-0.196
-721.835	307.768	-0.124	-0.236
-720.821	800.000	-0.089	0.267
-719.806	-200.000	-0.043	-0.316
-718.791	-119.527	-0.478	-0.085
-717.777	-140.204	0.161	0.017
-716.762	105.596	-0.133	-0.161
-715.748	800.000	0.080	-0.252
-714.733	62.759	-0.203	-0.207
-713.718	800.000	-0.146	-0.500
-712.704	800.000	-0.040	0.149
-711.689	-65.182	0.190	-0.078
-710.675	138.215	0.086	0.115
-709.660	-89.571	0.206	-0.062
-708.645	-200.000	0.063	0.429
-707.631	-57.442	0.190	0.085
-706.616	-140.989	-0.304	0.032
-705.602	213.711	-0.195	-0.315
-704.587	-200.000	-0.015	-0.115
-703.572	-200.000	0.031	0.388
-702.558	453.294	-0.023	0.053
-701.543	-107.662	0.233	0.052
-700.529	800.000	0.040	-0.157
-699.514	-95.715	0.225	0.061
-698.499	-200.000	0.052	-0.295
-697.485	69.936	0.055	0.058
-696.470	-66.720	0.383	0.155
-695.456	-200.000	-0.028	0.281
-694.441	-100.709	0.146	0.037
-693.426	-127.080	-0.327	-0.049
-692.412	27.673	0.221	-0.190
-691.397	152.060	0.031	0.043
-690.383	-45.388	-0.213	0.108
-689.368	-2.318	0.151	-0.108
-688.354	176.131	0.095	-0.141
-687.339	143.562	-0.077	-0.105
-686.324	244.377	0.148	-0.254
-685.310	61.833	0.171	0.173
-684.295	57.330	0.040	-0.040
-683.281	800.000	0.150	-0.423
-682.266	800.000	0.104	-0.303
-681.251	-74.387	-0.354	-0.130
-680.237	420.981	0.112	0.245
-679.222	-200.000	-0.017	-0.171
-678.208	207.804	-0.103	-0.164
-677.193	800.000	-0.053	0.191
-676.178	-23.401	-0.182	-0.111
-675.164	-200.000	-0.023	-0.314
-674.149	-51.179	-0.357	0.170
-673.135	-2.397	-0.144	0.103
-672.120	690.660	0.106	-0.281
-671.105	-15.344	0.205	-0.133
-670.091	-161.317	0.289	-0.015
-669.076	-20.765	-0.189	-0.118
-668.062	607.938	0.064	-0.162
-667.047	238.652	-0.109	0.185
-666.032	-200.000	-0.064	-0.368
-665.018	-68.105	0.059	-0.023
-664.003	-200.000	0.038	-0.214
-662.989	-106.067	0.216	-0.049
-661.974	1.394	-0.207	-0.152
-660.959	305.724	-0.260	0.493
-659.945	-78.925	-0.228	0.079
-658.930	-118.696	0.118	0.021
-657.916	265.701	0.185	-0.329
-656.901	-88.619	-0.231	-0.070
-655.886	-74.279	-0.211	-0.078
-654.872	117.753	-0.236	0.296
-653.857	-87.845	0.464	0.142
-652.843	320.944	0.174	0.337
-651.828	58.164	-0.137	0.137
-650.814	800.000	-0.027	-0.119
-649.799	364.398	0.123	0.252
-648.784	326.371	0.069	0.135
-647.770	800.000	0.062	-0.278
-646.755	8.134	-0.124	0.095
-645.741	115.741	-0.102	0.127
-644.726	275.373	-0.287	-0.518
-643.711	-200.000	0.083	-0.378
-642.697	392.291	0.057	-0.120
-641.682	-200.000	-0.011	-0.142
-640.668	258.630	0.068	-0.118
-639.653	-145.654	-0.241	-0.022
-638.638	-171.113	-0.179	-0.006
-637.624	-87.074	-0.593	0.184
-636.609	336.347	-0.051	0.101
-635.595	-87.650	0.243	-0.075
-634.580	-200.000	0.016	0.077
-633.565	-200.000	0.027	0.270
-632.551	-57.058	-0.221	0.099
-631.536	135.178	-0.096	-0.127
-630.522	8.852	-0.158	-0.121
-629.507	48.003	-0.275	-0.262
-628.492	-115.090	-0.057	-0.011
-627.478	339.287	0.036	-0.071
-626.463	800.000	-0.028	0.088
-625.449	485.612	0.103	0.239
-624.434	119.322	-0.177	-0.223
-623.419	-182.663	-0.332	0.006
-622.405	-200.000	0.004	0.163
-621.390	-200.000	-0.025	0.405
-620.376	800.000	-0.033	0.098
-619.361	800.000	-0.014	-0.044
-618.346	-64.668	0.215	0.088
-617.332	-26.465	0.318	0.189
-616.317	-200.000	-0.010	-0.312
-615.303	-70.401	0.120	-0.046
-614.288	-141.865	0.233	-0.024
-613.273	-145.354	-0.220	-0.020
-612.259	73.206	0.178	-0.190
-611.244	113.101	0.068	-0.083
-610.230	13.582	-0.356	-0.281
-609.215	-68.168	-0.163	-0.064
-608.201	-93.130	-0.045	0.013
-607.186	707.011	0.031	-0.084
-606.171	-122.086	0.404	-0.067
-605.157	-72.819	-0.119	-0.044
-604.142	800.000	-0.040	0.149
-603.128	-16.971	-0.407	0.261
-602.113	-94.136	-0.182	0.051
-601.098	203.991	-0.156	0.245
-600.084	-100.052	-0.035	-0.009
-599.069	-133.831	-0.147	-0.019
-598.055	-200.000	0.023	0.210
-597.040	800.000	-0.034	0.124
-596.025	800.000	-0.082	0.295
-595.011	32.690	-0.170	0.150
-593.996	18.092	0.283	-0.229
-592.982	-200.000	0.014	-0.246
-591.967	-200.000	-0.009	-0.316
-590.952	-200.000	0.004	-0.355
-589.938	-91.130	-0.125	-0.036
-588.923	-72.315	-0.351	0.132
-587.909	-18.605	0.168	-0.106
-586.894	357.904	-0.066	0.133
-585.879	-182.136	0.206	-0.004
-584.865	273.876	-0.150	0.269
-583.850	-121.289	0.100	-0.017
-582.836	-200.000	0.006	0.030
-581.821	196.441	0.128	-0.198
-580.806	67.949	-0.233	-0.242
-579.792	176.098	-0.170	0.251
-578.777	9.882	0.268	-0.206
-577.763	66.431	0.082	0.085
-576.748	-200.000	0.037	0.176
-575.733	800.000	0.093	0.349
-574.719	800.000	0.049	0.164
-573.704	-166.837	-0.201	-0.008
-572.690	-13.921	0.285	0.187
-571.675	223.327	-0.109	-0.178
-570.661	88.382	0.076	-0.085
-569.646	-28.775	0.270	-0.158
-568.631	800.000	0.015	-0.052
-567.617	-86.461	0.064	-0.020
-566.602	219.623	-0.155	0.251
-565.588	96.754	-0.049	-0.057
-564.573	-154.505	-0.225	-0.015
-563.558	800.000	0.017	-0.068
-562.544	-120.882	-0.284	-0.049
-561.529	800.000	0.021	-0.086
-560.515	-200.000	0.020	0.260
-559.500	152.169	-0.178	-0.246
-558.485	-61.748	0.309	0.131
-557.471	-127.456	-0.179	-0.026
-556.456	-78.705	-0.235	0.081
-555.442	-200.000	-0.060	-0.349
-554.427	-104.320	-0.235	0.055
-553.412	-200.000	0.017	0.151
-552.398	800.000	-0.148	-0.479
-551.383	269.705	-0.054	0.096
-550.369	91.419	0.046	-0.052
-549.354	282.335	-0.021	0.038
-548.339	-85.379	0.158	0.050
-547.325	800.000	-0.034	0.117
-546.310	-200.000	-0.051	-0.279
-545.296	-200.000	0.008	-0.179
-544.281	113.251	0.126	0.155
-543.266	800.000	-0.125	0.500
-542.252	579.766	0.065	-0.160
-541.237	351.253	0.081	0.162
-540.223	-72.769	0.336	0.125
-539.208	-8.024	0.035	-0.024
-538.193	-200.000	0.037	-0.344
-537.179	59.695	-0.108	-0.108
-536.164	-200.000	0.011	0.128
-535.150	97.620	-0.343	0.399
-534.135	-200.000	0.011	-0.389
-533.121	-200.000	-0.032	-0.299
-532.106	113.847	0.031	-0.038
-531.091	-107.735	-0.304	-0.067
-530.077	523.738	0.091	0.217
-529.062	-93.431	-0.240	0.067
-528.048	16.805	-0.134	-0.108
-527.033	22.934	0.208	-0.173
-526.018	-144.191	-0.351	-0.033
-525.004	-98.446	-0.321	-0.083
-523.989	-125.723	-0.379	-0.058
-522.975	50.540	0.010	-0.010
-521.960	457.953	-0.215	-0.485
-520.945	392.848	0.113	-0.239
-519.931	48.654	0.087	0.083
-518.916	-17.378	0.161	0.102
-517.902	-138.384	0.122	-0.014
-516.887	-30.045	0.251	0.145
-515.872	106.144	0.207	-0.249
-514.858	800.000	-0.057	0.215
-513.843	259.772	0.087	-0.152
-512.829	-152.453	0.247	0.018
-511.814	255.609	0.075	0.130
-510.799	252.069	-0.126	0.218
-509.785	-122.907	-0.152	0.025
-508.770	800.000	0.051	0.146
-507.756	-162.435	-0.173	0.009
-506.741	391.129	-0.031	-0.065
-505.726	-25.454	-0.272	0.163
-504.712	-7.989	-0.080	0.055
-503.697	0.214	0.052	-0.038
-502.683	-52.501	-0.467	-0.219
-501.668	-200.000	-0.034	0.450
-500.653	166.260	-0.034	0.049
-499.639	-200.000	0.029	0.175
-498.624	127.967	-0.111	-0.143
-497.610	-200.000	0.006	-0.161
-496.595	800.000	0.058	-0.203
-495.581	-200.000	0.006	0.289
-494.566	14.250	-0.341	-0.269
-493.551	-177.915	0.446	-0.011
-492.537	-144.428	0.107	0.010
-491.522	-26.941	0.118	0.070
-490.508	-118.801	0.321	0.057
-489.493	-123.768	-0.256	0.041
-488.478	-35.295	0.127	0.070
-487.464	171.987	-0.158	-0.229
-486.449	-52.184	0.326	0.153
-485.435	632.345	-0.028	-0.071
-484.420	800.000	-0.049	0.202
-483.405	-31.653	0.521	0.296
-482.391	148.921	-0.040	0.054
-481.376	392.543	-0.052	-0.110
-480.362	-126.887	-0.169	-0.025
-479.347	-52.246	0.133	0.062
-478.332	-200.000	-0.038	0.462
-477.318	15.957	0.094	-0.075
-476.303	-12.985	-0.296	0.195
-475.289	800.000	0.056	0.199
-474.274	-108.315	-0.277	-0.060
-473.259	447.479	-0.077	0.172
-472.245	800.000	0.108	-0.450
-471.230	800.000	-0.098	0.426
-470.216	9.548	0.232	0.177
-469.201	800.000	-0.058	-0.178
-468.186	800.000	0.060	-0.259
-467.172	107.320	-0.047	0.056
-466.157	-81.635	-0.172	-0.057
-465.143	161.257	-0.134	0.190
-464.128	119.473	0.145	0.181
-463.113	-200.000	-0.036	-0.324
-462.099	800.000	-0.093	-0.329
-461.084	-3.629	-0.129	-0.090
-460.070	522.917	-0.066	0.157
-459.055	155.491	0.086	-0.120
-458.040	-140.830	-0.192	-0.020
-457.026	61.313	-0.112	-0.112
-456.011	-200.000	0.003	0.083
-454.997	22.029	0.180	-0.148
-453.982	-67.954	-0.220	0.087
-452.968	-31.539	0.173	-0.098
-451.953	-200.000	0.019	0.105
-450.938	-40.988	0.199	0.104
-449.924	368.930	0.066	0.135
-448.909	-191.981	0.132	-0.001
-447.895	229.971	-0.064	0.106
-446.880	192.716	0.172	-0.262
-445.865	120.751	-0.120	-0.151
-444.851	-70.414	0.216	0.083
-443.836	40.166	-0.031	-0.028
-442.822	559.337	0.046	0.111
-441.807	-13.992	0.084	-0.055
-440.792	47.273	-0.250	-0.235
-439.778	491.075	-0.034	-0.077
-438.763	800.000	-0.090	0.260
-437.749	5.433	0.037	-0.028
-436.734	-141.576	0.147	-0.015
-435.719	-91.427	0.194	0.056
-434.705	-48.575	0.113	0.055
-433.690	-200.000	0.032	-0.160
-432.676	-200.000	0.030	-0.301
-431.661	-200.000	0.426	-0.000
-430.646	35.008	-0.025	0.022
-429.632	589.387	-0.115	-0.286
-428.617	800.000	-0.027	-0.112
-427.603	188.775	-0.090	-0.135
-426.588	107.950	0.144	0.173
-425.573	343.696	-0.168	0.331
-424.559	392.594	-0.100	0.210
-423.544	673.901	-0.038	-0.100
-422.530	800.000	-0.069	-0.260
-421.515	738.795	-0.067	-0.182
-420.500	142.158	-0.136	0.181
-419.486	-200.000	0.014	0.284
-418.471	-200.000	-0.029	0.334
-417.457	-64.091	-0.122	0.050
-416.442	23.258	-0.071	-0.059
-415.428	-200.000	-0.032	0.635
-414.413	43.610	0.070	0.065
-413.398	800.000	0.096	-0.271
-412.384	575.700	-0.041	-0.102
-411.369	23.649	-0.169	-0.140
-410.355	-111.182	-0.250	-0.052
-409.340	-200.000	0.015	0.191
-408.325	73.012	0.123	0.130
-407.311	-138.309	-0.291	-0.032
-406.296	-6.489	0.110	0.075
-405.282	122.832	0.161	0.202
-404.267	167.883	-0.132	-0.190
-403.252	-146.317	0.267	0.024
-402.238	16.971	0.049	0.039
-401.223	-23.372	0.123	-0.074
-400.209	-200.000	-0.012	0.110
-399.194	40.011	0.130	0.117
-398.179	106.320	0.084	0.101
-397.165	-38.980	0.202	0.107
-396.150	-169.630	-0.119	0.004
-395.136	77.020	-0.207	-0.221
-394.121	44.917	-0.222	-0.206
-393.106	800.000	0.091	0.377
-392.092	-112.082	0.344	-0.070
-391.077	194.931	-0.028	0.043
-390.063	-73.725	0.171	0.063
-389.048	-107.496	0.190	0.042
-388.033	-103.380	0.523	-0.124
-387.019	-89.210	0.163	0.048
-386.004	140.192	0.177	0.235
-384.990	-17.221	0.119	-0.075
-383.975	-114.699	-0.210	-0.041
-382.960	46.345	-0.197	0.184
-381.946	-200.000	0.084	0.505
-380.931	-104.707	0.473	-0.110
-379.917	-23.455	0.274	0.165
-378.902	666.429	0.095	0.247
-377.888	-124.647	-0.122	-0.019
-376.873	-6.974	-0.059	0.040
-375.858	480.730	-0.100	0.228
-374.844	470.374	-0.068	0.155
-373.829	-87.548	0.228	0.069
-372.815	-38.055	-0.323	0.173
-371.800	15.056	-0.245	0.194
-370.785	-168.012	0.168	-0.007
-369.771	-76.569	-0.429	0.151
-368.756	22.505	0.208	-0.172
-367.742	35.693	-0.052	-0.046
-366.727	32.617	0.304	0.265
-365.712	-128.158	0.278	-0.040
-364.698	-73.966	0.085	0.031
-363.683	520.785	0.092	-0.217
-362.669	22.136	-0.169	0.139
-361.654	305.876	0.147	-0.275
-360.639	-91.167	0.450	-0.130
-359.625	370.241	-0.092	-0.187
-358.610	206.796	0.140	0.219
-357.596	335.110	0.003	0.005
-356.581	466.630	-0.101	-0.228
-355.566	510.227	0.060	0.139
-354.552	-105.184	-0.176	0.041
-353.537	-118.691	0.228	-0.041
-352.523	800.000	-0.047	-0.183
-351.508	-200.000	-0.012	0.090
-350.493	-32.689	-0.181	0.101
-349.479	800.000	-0.014	-0.062
-348.464	-161.380	0.236	0.012
-347.450	800.000	0.061	-0.224
-346.435	37.795	-0.112	0.100
-345.420	-73.885	0.121	-0.044
-344.406	-111.142	0.203	-0.042
-343.391	800.000	-0.037	0.149
-342.377	58.523	-0.150	-0.148
-341.362	394.430	-0.133	-0.279
-340.348	800.000	-0.083	-0.277
-339.333	800.000	-0.040	-0.146
-338.318	197.849	-0.097	-0.149
-337.304	8.905	0.217	-0.164
-336.289	-63.647	0.095	-0.039
-335.275	800.000	0.051	-0.148
-334.260	-200.000	0.035	0.389
-333.245	1.501	-0.240	-0.174
-332.231	800.000	-0.065	-0.252
-331.216	680.439	-0.068	0.178
-330.202	-123.746	0.238	-0.038
-329.187	800.000	0.107	-0.321
-328.172	184.786	0.232	0.345
-327.158	-165.924	0.068	-0.003
-326.143	274.745	0.078	0.138
-325.129	20.922	0.099	-0.080
-324.114	464.833	-0.067	0.152
-323.099	8.629	0.341	-0.258
-322.085	237.750	0.114	-0.190
-321.070	800.000	-0.108	-0.332
-320.056	11.923	-0.116	-0.089
-319.041	-200.000	0.021	0.147
-318.026	26.169	-0.265	0.223
-317.012	-16.994	0.235	-0.149
-315.997	-139.799	0.088	-0.009
-314.983	-169.218	-0.089	0.003
-313.968	-200.000	0.022	0.244
-312.953	561.782	-0.062	-0.150
-311.939	-200.000	0.018	0.411
-310.924	-80.692	0.148	0.050
-309.910	-89.369	-0.289	0.086
-308.895	170.581	0.135	-0.194
-307.880	50.045	-0.417	-0.395
-306.866	152.744	0.047	0.064
-305.851	-200.000	-0.005	-0.233
-304.837	-164.746	0.124	-0.006
-303.822	424.320	-0.037	0.079
-302.807	-200.000	0.003	0.386
-301.793	-18.008	-0.173	0.109
-300.778	483.145	-0.019	0.043
-299.764	273.113	0.086	-0.152
-298.749	122.560	-0.140	0.176
-297.735	-200.000	0.035	0.335
-296.720	411.298	0.065	0.139
-295.705	-171.242	-0.170	0.006
-294.691	-154.891	0.111	0.007
-293.676	96.685	-0.162	0.186
-292.662	-48.202	0.277	0.134
-291.647	800.000	-0.068	0.223
-290.632	-86.448	-0.140	-0.043
-289.618	800.000	-0.047	0.200
-288.603	167.933	-0.222	-0.317
-287.589	191.078	-0.108	-0.162
-286.574	412.913	0.085	0.182
-285.559	-136.750	0.067	-0.008
-284.545	800.000	-0.079	0.342
-283.530	-200.000	0.062	-0.389
-282.516	46.326	0.170	-0.158
-281.501	-180.246	-0.045	-0.001
-280.486	800.000	-0.045	-0.124
-279.472	0.653	-0.180	-0.129
-278.457	-163.590	0.283	0.013
-277.443	274.391	-0.086	-0.153
-276.428	632.331	-0.022	0.057
-275.413	-200.000	0.058	0.312
-274.399	-200.000	-0.015	0.119
-273.384	-37.025	0.447	0.240
-272.370	461.833	-0.257	0.574
-271.355	30.949	0.136	0.117
-270.340	478.286	0.013	-0.029
-269.326	800.000	0.053	0.210
-268.311	-81.477	-0.129	0.043
-267.297	-133.657	0.222	-0.028
-266.282	-105.476	-0.312	-0.071
-265.267	-200.000	-0.083	-0.373
-264.253	37.429	0.193	0.172
-263.238	-200.000	-0.001	0.118
-262.224	147.071	0.178	0.239
-261.209	800.000	-0.032	-0.096
-260.195	800.000	0.099	-0.346
-259.180	800.000	-0.058	0.227
-258.165	-133.044	0.047	0.006
-257.151	29.373	-0.218	-0.186
-256.136	40.807	-0.164	-0.148
-255.122	-45.407	-0.092	-0.046
-254.107	800.000	0.101	-0.410
-253.092	146.376	-0.190	-0.256
-252.078	-19.457	-0.218	0.135
-251.063	-200.000	-0.018	-0.210
-250.049	-65.242	-0.260	0.105
-249.034	-200.000	0.012	0.139
-248.019	-200.000	-0.005	0.052
-247.005	17.591	-0.163	-0.130
-245.990	338.789	-0.167	0.326
-244.976	-200.000	0.020	-0.307
-243.961	63.697	0.184	0.185
-242.946	-200.000	-0.019	-0.084
-241.932	55.768	0.352	-0.342
-240.917	-200.000	0.001	-0.198
-239.903	239.671	0.046	-0.077
-238.888	166.573	-0.035	-0.050
-237.873	-38.811	0.249	0.131
-236.859	-126.717	0.259	0.038
-235.844	800.000	-0.018	0.054
-234.830	-200.000	0.073	-0.373
-233.815	266.024	-0.093	0.163
-232.800	-200.000	0.009	-0.206
-231.786	316.304	-0.110	0.208
-230.771	-200.000	-0.019	0.085
-229.757	-11.260	-0.349	0.230
-228.742	-160.555	-0.171	-0.009
-227.727	-200.000	-0.045	-0.291
-226.713	78.206	-0.171	-0.183
-225.698	-11.772	0.189	0.124
-224.684	296.220	0.103	0.189
-223.669	800.000	0.045	-0.142
-222.655	146.534	-0.196	0.264
-221.640	42.267	0.117	-0.106
-220.625	43.223	0.117	-0.107
-219.611	-200.000	-0.030	-0.173
-218.596	-54.899	-0.100	0.045
-217.582	92.385	-0.053	0.059
-216.567	247.240	0.093	-0.158
-215.552	800.000	-0.096	-0.406
-214.538	-78.069	0.513	-0.177
-213.523	249.400	-0.276	-0.468
-212.509	487.644	0.062	-0.141
-211.494	-55.653	0.226	0.101
-210.479	143.841	-0.090	0.121
-209.465	800.000	-0.082	-0.307
-208.450	-8.134	0.109	-0.073
-207.436	-200.000	0.019	-0.166
-206.421	50.556	-0.064	0.060
-205.406	-200.000	0.008	0.280
-204.392	33.491	-0.299	0.260
-203.377	252.463	0.107	0.182
-202.363	-200.000	-0.039	0.227
-201.348	-70.942	0.073	-0.028
-200.333	222.271	-0.080	-0.129
-199.319	-200.000	0.030	-0.267
-198.304	800.000	-0.075	-0.300
-197.290	800.000	0.119	-0.352
-196.275	-103.157	0.342	-0.081
-195.260	26.952	0.274	0.230
-194.246	-200.000	0.015	0.205
-193.231	-200.000	-0.010	-0.104
-192.217	-5.695	0.032	-0.022
-191.202	-41.443	-0.260	-0.134
-190.187	-200.000	-0.002	-0.058
-189.173	61.380	0.262	-0.260
-188.158	8.156	0.079	-0.059
-187.144	-99.153	-0.130	-0.033
-186.129	800.000	0.035	0.126
-185.114	-170.065	-0.148	0.005
-184.100	-105.116	-0.136	-0.031
-183.085	32.546	-0.444	0.383
-182.071	216.293	0.144	-0.228
-181.056	606.987	-0.082	0.205
-180.042	-139.735	-0.286	-0.030
-179.027	-126.582	-0.261	-0.039
-178.012	-167.179	0.350	-0.014
-176.998	143.941	-0.200	0.267
-175.983	271.692	0.065	0.115
-174.969	132.177	-0.176	-0.226
-173.954	800.000	-0.033	0.126
-172.939	115.186	-0.070	-0.086
-171.925	136.715	-0.216	0.282
-170.910	57.070	0.135	0.131
-169.896	-7.368	0.369	-0.250
-168.881	800.000	0.088	-0.274
-167.866	-10.250	0.177	-0.118
-166.852	6.451	0.175	0.130
-165.837	-82.985	0.041	0.013
-164.823	800.000	-0.056	0.178
-163.808	-200.000	-0.030	-0.175
-162.793	114.841	0.074	-0.090
-161.779	-130.575	0.142	-0.019
-160.764	800.000	0.095	-0.349
-159.750	799.256	-0.079	-0.217
-158.735	-200.000	0.018	0.229
-157.720	-69.888	0.490	0.186
-156.706	57.295	0.414	0.403
-155.691	-104.835	0.444	0.102
-154.677	-25.777	0.361	0.212
-153.662	185.737	0.044	-0.065
-152.647	392.966	-0.047	-0.097
-151.633	-51.431	-0.156	0.073
-150.618	51.632	0.121	0.115
-149.604	-200.000	0.013	-0.457
-148.589	-61.733	-0.317	0.133
-147.574	800.000	0.061	0.170
-146.560	277.535	-0.061	0.109
-145.545	517.787	-0.016	-0.036
-144.531	800.000	-0.069	-0.274
-143.516	47.494	-0.179	-0.166
-142.502	95.155	0.136	0.154
-141.487	-200.000	-0.027	-0.178
-140.472	56.908	0.288	-0.280
-139.458	-47.617	0.109	0.053
-138.443	-52.337	0.163	-0.075
-137.429	-114.022	-0.260	0.050
-136.414	-200.000	0.037	0.186
-135.399	-98.779	-0.026	0.006
-134.385	17.789	-0.212	0.168
-133.370	157.065	0.173	0.238
-132.356	-107.231	0.113	0.025
-131.341	283.859	0.164	-0.294
-130.326	-16.598	0.397	-0.251
-129.312	-200.000	0.021	0.386
-128.297	-0.545	0.103	0.073
-127.283	-25.000	0.252	0.149
-126.268	18.533	0.167	0.133
-125.253	-200.000	-0.014	-0.253
-124.239	74.000	-0.218	0.228
-123.224	-200.000	0.010	0.201
-122.210	59.437	0.183	0.180
-121.195	-200.000	-0.024	0.507
