DTS Sentinel unit serial number:	SN413079Multiplexer serial number:	ORYXHardware model number:	OX4-SRSoftware version number:	ORYX F/W v4.00 Oryx Data Collector v3.7.2.0data status	okinstallation	princeton_trtdifferential loss correction	single-endedforward channel	channel 1reverse channel	N/Adate	2019/09/17time	13:58:35forward acquisition time	60.00reverse acquisition time	0.00gamma	496.2192k internal	0.2302k external	0.2302temperature offset calibration	0.9965default loss term (dB/km)	0.3790temperature slope calibration	1.0000multiplexer offset coefficient	1.0000multiplexer slope coefficient	1.0000fibre end	0.00T internal ref (°C)	35.52T ext. ref 1 (°C)	0.40T ext. ref 2 (°C)	32.46length (m)	temperature (°C)	Stokes	anti-Stokes-747.200	505.766	-0.104	-0.247
-746.185	-45.985	-0.110	-0.055
-745.171	17.021	0.166	-0.134
-744.156	29.789	-0.002	-0.002
-743.142	105.906	0.188	0.227
-742.127	192.162	0.151	0.232
-741.112	127.076	-0.168	0.217
-740.098	-32.910	-0.161	-0.091
-739.083	80.329	-0.257	0.282
-738.069	-200.000	0.077	0.349
-737.054	-29.633	-0.235	-0.137
-736.039	800.000	-0.057	0.211
-735.025	66.010	0.252	0.260
-734.010	-73.424	-0.347	-0.129
-732.996	243.876	-0.058	-0.098
-731.981	326.238	0.173	0.338
-730.966	-200.000	-0.007	-0.164
-729.952	-70.199	-0.258	-0.100
-728.937	800.000	-0.017	-0.060
-727.923	-173.239	0.464	-0.014
-726.908	136.597	-0.092	-0.122
-725.894	190.363	-0.183	0.280
-724.879	188.937	-0.212	-0.323
-723.864	-96.850	0.149	0.040
-722.850	-47.894	-0.271	0.133
-721.835	-106.319	0.324	-0.074
-720.821	-89.161	-0.356	-0.107
-719.806	84.600	-0.148	-0.165
-718.791	118.895	-0.132	0.167
-717.777	-115.180	0.310	-0.060
-716.762	-50.314	0.316	0.152
-715.748	-162.695	-0.190	0.010
-714.733	-200.000	-0.000	0.099
-713.718	-123.181	0.446	-0.073
-712.704	132.482	-0.291	0.382
-711.689	-19.714	-0.256	-0.161
-710.675	-72.928	-0.206	-0.077
-709.660	5.613	-0.098	0.074
-708.645	-200.000	0.005	0.173
-707.631	415.626	-0.121	0.261
-706.616	-149.637	-0.626	-0.050
-705.602	91.035	0.186	-0.212
-704.587	-85.736	-0.189	-0.060
-703.572	800.000	-0.129	-0.485
-702.558	49.672	-0.164	0.157
-701.543	-119.758	-0.080	0.014
-700.529	-21.433	-0.151	-0.094
-699.514	485.592	-0.090	-0.210
-698.499	-2.020	-0.114	-0.082
-697.485	241.536	0.033	0.055
-696.470	408.983	-0.061	0.132
-695.456	68.374	-0.122	-0.127
-694.441	-37.099	0.246	-0.134
-693.426	-23.335	-0.155	-0.094
-692.412	-34.572	0.046	0.025
-691.397	-103.735	0.301	-0.072
-690.383	101.419	-0.051	-0.060
-689.368	-103.142	0.149	-0.036
-688.354	-41.959	-0.376	-0.196
-687.339	-196.723	-0.109	0.001
-686.324	-152.764	0.233	0.017
-685.310	-26.963	0.245	-0.145
-684.295	800.000	0.041	-0.170
-683.281	-200.000	0.058	0.273
-682.266	-200.000	-0.018	0.176
-681.251	-123.606	0.168	0.027
-680.237	-140.732	-0.212	0.022
-679.222	585.029	0.053	-0.134
-678.208	-200.000	-0.001	-0.040
-677.193	-200.000	-0.022	0.120
-676.178	-137.562	0.082	0.009
-675.164	16.461	-0.197	-0.158
-674.149	-42.350	-0.227	0.118
-673.135	-200.000	0.012	-0.083
-672.120	-31.607	0.111	0.063
-671.105	3.083	-0.272	-0.201
-670.091	169.251	-0.034	-0.049
-669.076	800.000	-0.083	-0.250
-668.062	800.000	-0.106	0.332
-667.047	-200.000	0.084	0.435
-666.032	-200.000	0.054	0.260
-665.018	-198.298	0.203	-0.001
-664.003	-100.937	0.206	-0.051
-662.989	-200.000	0.003	-0.136
-661.974	6.461	0.219	0.165
-660.959	-8.318	-0.163	0.112
-659.945	16.129	-0.093	0.074
-658.930	586.152	-0.087	0.216
-657.916	56.996	0.214	-0.212
-656.901	-64.805	-0.345	-0.142
-655.886	-24.414	0.087	0.053
-654.872	-6.915	-0.162	0.112
-653.857	130.993	-0.193	0.251
-652.843	-4.258	0.162	-0.114
-651.828	66.704	0.075	0.078
-650.814	-200.000	0.007	0.244
-649.799	15.208	-0.231	0.184
-648.784	800.000	-0.031	0.124
-647.770	-23.883	-0.228	-0.139
-646.755	-5.692	-0.045	-0.032
-645.741	-51.466	0.336	0.159
-644.726	-200.000	-0.023	-0.426
-643.711	193.797	-0.088	0.135
-642.697	800.000	0.121	0.341
-641.682	318.866	0.096	-0.186
-640.668	-200.000	0.041	0.265
-639.653	125.641	0.175	-0.224
-638.638	288.986	-0.176	0.324
-637.624	-30.538	-0.216	-0.124
-636.609	185.563	-0.085	-0.127
-635.595	-200.000	-0.011	0.235
-634.580	51.114	0.241	-0.232
-633.565	-200.000	0.018	-0.235
-632.551	-26.552	0.177	-0.105
-631.536	-150.104	-0.062	-0.005
-630.522	199.293	-0.132	-0.206
-629.507	100.973	-0.164	-0.194
-628.492	-200.000	-0.027	-0.319
-627.478	351.600	-0.056	-0.113
-626.463	74.168	0.117	-0.124
-625.449	601.303	-0.177	-0.445
-624.434	355.450	0.131	-0.265
-623.419	135.556	-0.051	0.068
-622.405	586.579	0.087	0.216
-621.390	357.923	-0.154	-0.312
-620.376	-200.000	0.015	0.076
-619.361	800.000	0.044	-0.160
-618.346	-200.000	0.441	0.000
-617.332	-128.200	0.119	0.017
-616.317	186.068	-0.206	-0.311
-615.303	-200.000	0.042	0.283
-614.288	-103.542	-0.307	-0.073
-613.273	-23.296	0.206	0.126
-612.259	-122.283	0.148	0.025
-611.244	-94.608	0.313	-0.086
-610.230	-108.026	-0.197	-0.043
-609.215	-8.952	-0.221	-0.150
-608.201	166.825	-0.080	-0.115
-607.186	-200.000	0.012	-0.356
-606.171	-102.710	0.251	-0.061
-605.157	-200.000	0.006	-0.117
-604.142	413.422	0.145	0.313
-603.128	-77.517	0.307	-0.108
-602.113	81.296	0.217	-0.238
-601.098	129.587	-0.081	-0.105
-600.084	15.574	-0.209	-0.167
-599.069	-28.354	0.066	0.038
-598.055	-12.238	-0.121	-0.080
-597.040	88.154	0.177	0.198
-596.025	-151.638	-0.298	0.022
-595.011	85.504	-0.194	0.216
-593.996	374.112	0.032	-0.066
-592.982	-9.184	-0.122	0.083
-591.967	35.207	0.065	-0.057
-590.952	90.618	-0.274	-0.311
-589.938	-200.000	-0.006	0.194
-588.923	-84.626	-0.121	0.039
-587.909	-66.055	0.432	-0.175
-586.894	-200.000	0.029	0.166
-585.879	20.174	-0.191	-0.156
-584.865	-65.110	-0.176	-0.072
-583.850	-200.000	-0.040	0.233
-582.836	800.000	-0.063	-0.195
-581.821	-22.410	0.153	0.094
-580.806	-118.163	-0.343	0.062
-579.792	408.418	-0.146	0.312
-578.777	-147.051	-0.192	-0.017
-577.763	18.468	-0.098	-0.079
-576.748	800.000	0.059	-0.238
-575.733	800.000	-0.032	-0.097
-574.719	20.152	0.121	-0.099
-573.704	31.611	-0.352	0.306
-572.690	-172.658	0.178	0.006
-571.675	-57.207	-0.310	-0.138
-570.661	-200.000	0.028	-0.501
-569.646	800.000	-0.063	0.192
-568.631	-200.000	0.006	0.134
-567.617	-200.000	0.029	-0.223
-566.602	-50.306	0.410	0.196
-565.588	-94.095	-0.166	-0.046
-564.573	24.777	-0.157	-0.132
-563.558	800.000	-0.010	-0.034
-562.544	145.505	-0.122	0.165
-561.529	8.536	-0.024	-0.019
-560.515	-33.481	-0.396	-0.222
-559.500	-200.000	0.011	-0.275
-558.485	302.536	-0.051	-0.095
-557.471	514.576	0.036	-0.085
-556.456	-105.525	0.385	0.088
-555.442	-111.925	-0.296	0.060
-554.427	179.363	-0.222	0.329
-553.412	-96.791	0.225	0.060
-552.398	-200.000	0.062	0.364
-551.383	288.699	-0.115	-0.210
-550.369	-200.000	0.079	-0.429
-549.354	-129.002	-0.173	-0.025
-548.339	800.000	-0.046	-0.160
-547.325	-200.000	-0.030	0.199
-546.310	-200.000	0.043	0.306
-545.296	2.340	-0.148	-0.108
-544.281	21.469	0.085	0.070
-543.266	-189.769	0.451	-0.005
-542.252	-200.000	0.022	-0.272
-541.237	39.729	-0.096	0.087
-540.223	-200.000	-0.008	0.170
-539.208	-24.585	0.210	0.126
-538.193	-10.735	0.214	-0.143
-537.179	800.000	0.015	-0.057
-536.164	-14.368	0.236	-0.154
-535.150	-200.000	-0.002	0.028
-534.135	-85.930	-0.063	-0.020
-533.121	-200.000	-0.005	0.137
-532.106	800.000	0.025	-0.087
-531.091	0.851	-0.283	0.205
-530.077	162.680	0.139	0.197
-529.062	292.238	-0.019	0.035
-528.048	164.967	-0.173	-0.246
-527.033	-61.296	0.323	0.138
-526.018	-7.541	0.309	0.211
-525.004	-62.032	0.328	-0.138
-523.989	-5.179	-0.118	-0.082
-522.975	42.088	0.420	0.385
-521.960	-200.000	0.054	0.459
-520.945	174.733	-0.011	0.016
-519.931	-200.000	0.069	-0.362
-518.916	-127.819	0.446	0.065
-517.902	-171.376	0.140	-0.005
-516.887	337.509	-0.034	-0.067
-515.872	121.194	-0.258	0.324
-514.858	53.422	0.235	-0.227
-513.843	-55.460	-0.345	-0.156
-512.829	394.181	-0.151	-0.318
-511.814	-148.307	-0.220	-0.018
-510.799	-200.000	-0.015	0.220
-509.785	32.060	0.360	0.313
-508.770	162.709	-0.096	0.136
-507.756	189.849	-0.113	0.171
-506.741	-58.696	0.165	0.072
-505.726	199.748	0.246	0.382
-504.712	-132.849	-0.629	0.081
-503.697	-200.000	-0.021	-0.157
-502.683	-13.397	-0.235	-0.154
-501.668	-95.198	0.215	0.059
-500.653	217.126	-0.123	-0.198
-499.639	-55.163	-0.306	-0.139
-498.624	-181.065	0.331	-0.007
-497.610	-3.205	0.307	0.216
-496.595	-7.500	-0.138	-0.094
-495.581	-200.000	0.015	0.214
-494.566	43.875	0.281	0.260
-493.551	-85.850	-0.090	0.028
-492.537	-135.516	0.316	0.038
-491.522	-47.837	-0.163	0.080
-490.508	-200.000	-0.060	-0.459
-489.493	-200.000	0.021	-0.288
-488.478	124.743	-0.211	0.269
-487.464	-132.624	-0.310	-0.040
-486.449	-58.407	0.156	-0.068
-485.435	800.000	-0.118	-0.358
-484.420	288.048	0.181	0.330
-483.405	-147.334	0.285	0.024
-482.391	-148.849	0.297	-0.024
-481.376	-134.188	0.080	-0.010
-480.362	226.878	0.109	0.179
-479.347	24.362	-0.276	-0.230
-478.332	-200.000	0.040	0.227
-477.318	-200.000	-0.002	0.120
-476.303	-73.242	0.109	0.040
-475.289	-200.000	-0.016	-0.096
-474.274	-200.000	-0.011	-0.249
-473.259	-102.197	-0.104	-0.025
-472.245	76.871	-0.248	-0.266
-471.230	-18.232	0.175	0.111
-470.216	-37.472	0.295	0.159
-469.201	-150.216	-0.106	-0.008
-468.186	-99.600	0.108	-0.027
-467.172	-175.775	-0.104	-0.003
-466.157	235.268	-0.251	-0.418
-465.143	-139.655	-0.448	0.048
-464.128	-45.441	0.208	-0.104
-463.113	-133.195	0.413	-0.053
-462.099	800.000	-0.048	-0.177
-461.084	-200.000	0.011	0.191
-460.070	-36.238	-0.173	0.094
-459.055	-70.822	0.293	-0.111
-458.040	-81.708	-0.206	0.068
-457.026	800.000	0.133	0.440
-456.011	-158.864	0.220	0.013
-454.997	42.584	-0.121	0.111
-453.982	-80.074	0.133	-0.045
-452.968	529.713	0.122	-0.290
-451.953	-200.000	-0.026	0.203
-450.938	-200.000	0.005	-0.110
-449.924	167.587	-0.148	-0.212
-448.909	141.829	-0.225	-0.300
-447.895	-31.197	-0.014	-0.008
-446.880	-200.000	0.001	0.056
-445.865	800.000	-0.053	0.151
-444.851	311.360	-0.073	-0.137
-443.836	359.378	-0.165	-0.332
-442.822	138.142	-0.082	0.108
-441.807	-200.000	0.048	0.250
-440.792	-128.365	-0.175	0.025
-439.778	-88.476	0.224	-0.067
-438.763	3.166	-0.083	0.060
-437.749	-200.000	0.061	-0.322
-436.734	-127.506	-0.100	0.015
-435.719	215.887	-0.145	0.232
-434.705	-4.119	-0.102	0.071
-433.690	-107.179	0.415	0.092
-432.676	-77.524	0.205	-0.072
-431.661	52.001	0.159	0.152
-430.646	92.906	0.122	-0.139
-429.632	-166.435	0.204	-0.009
-428.617	-51.457	-0.223	-0.105
-427.603	-63.764	-0.104	0.043
-426.588	-87.213	0.263	0.080
-425.573	24.111	0.231	0.192
-424.559	-20.029	-0.090	-0.056
-423.544	-94.890	-0.279	0.076
-422.530	14.527	-0.089	0.070
-421.515	136.620	0.046	0.061
-420.500	-73.832	-0.184	0.067
-419.486	-44.462	-0.187	-0.094
-418.471	-84.201	0.410	-0.131
-417.457	59.946	0.192	-0.191
-416.442	-131.204	-0.091	-0.012
-415.428	-200.000	0.033	-0.213
-414.413	-37.204	-0.417	-0.224
-413.398	-121.864	0.283	0.047
-412.384	-174.939	-0.189	-0.005
-411.369	-101.859	0.170	-0.041
-410.355	47.967	-0.101	0.095
-409.340	-52.433	0.259	-0.121
-408.325	182.216	-0.202	0.299
-407.311	-200.000	-0.009	0.171
-406.296	-200.000	-0.069	-0.375
-405.282	-127.041	-0.229	0.034
-404.267	-94.275	0.270	-0.074
-403.252	-78.015	0.222	0.077
-402.238	-87.920	-0.533	0.161
-401.223	-6.717	-0.098	-0.067
-400.209	158.187	0.158	-0.220
-399.194	800.000	0.029	0.092
-398.179	618.187	0.041	-0.103
-397.165	-137.465	-0.359	-0.041
-396.150	132.235	0.085	-0.110
-395.136	800.000	-0.109	0.311
-394.121	41.309	-0.055	0.050
-393.106	737.859	0.015	0.042
-392.092	294.244	-0.096	0.177
-391.077	411.284	0.145	-0.310
-390.063	-200.000	0.012	0.062
-389.048	95.216	0.126	0.144
-388.033	322.875	-0.059	0.113
-387.019	800.000	-0.149	-0.424
-386.004	-34.208	-0.279	0.154
-384.990	271.271	0.090	-0.160
-383.975	74.078	0.143	-0.151
-382.960	-182.649	-0.374	-0.007
-381.946	-4.322	0.155	-0.108
-380.931	-130.488	-0.126	0.017
-379.917	-81.814	-0.284	-0.093
-378.902	-200.000	0.038	-0.197
-377.888	120.183	-0.081	-0.101
-376.873	156.755	0.150	0.208
-375.858	71.459	0.100	0.104
-374.844	800.000	0.075	0.286
-373.829	262.257	0.156	-0.273
-372.815	72.772	0.104	0.109
-371.800	-102.737	0.236	0.056
-370.785	-98.479	0.131	-0.034
-369.771	96.999	-0.076	-0.087
-368.756	120.139	-0.095	0.119
-367.742	-103.063	0.117	0.028
-366.727	-156.228	-0.120	0.008
-365.712	21.185	-0.077	-0.063
-364.698	326.194	-0.056	0.108
-363.683	-93.135	-0.068	0.019
-362.669	208.577	-0.074	0.116
-361.654	-200.000	0.037	0.296
-360.639	-200.000	0.012	-0.159
-359.625	366.493	0.086	-0.173
-358.610	-35.076	-0.440	0.241
-357.596	-200.000	0.028	-0.148
-356.581	-200.000	-0.083	-0.566
-355.566	57.670	0.227	-0.222
-354.552	-67.688	0.110	0.043
-353.537	64.277	-0.172	0.174
-352.523	89.629	0.063	-0.071
-351.508	-70.253	0.181	0.069
-350.493	-200.000	-0.014	0.130
-349.479	21.974	-0.075	-0.061
-348.464	800.000	-0.067	-0.198
-347.450	262.322	-0.280	0.488
-346.435	800.000	0.126	-0.544
-345.420	800.000	0.099	-0.345
-344.406	70.935	-0.147	-0.152
-343.391	47.166	-0.132	0.123
-342.377	800.000	0.031	0.093
-341.362	92.272	-0.155	0.175
-340.348	205.116	0.193	0.301
-339.333	-111.102	-0.145	0.030
-338.318	800.000	0.070	0.225
-337.304	-111.321	0.065	-0.013
-336.289	-114.709	0.163	0.031
-335.275	-153.727	0.095	-0.007
-334.260	-200.000	0.055	0.285
-333.245	67.912	0.184	0.188
-332.231	-170.162	0.176	0.006
-331.216	620.516	0.029	-0.074
-330.202	-8.186	0.156	0.105
-329.187	-200.000	-0.015	0.132
-328.172	-200.000	0.074	0.475
-327.158	197.981	0.193	0.296
-326.143	63.842	0.315	0.317
-325.129	734.796	-0.037	-0.098
-324.114	793.222	0.047	0.130
-323.099	-73.018	0.180	0.066
-322.085	-200.000	-0.048	-0.259
-321.070	-200.000	0.022	0.127
-320.056	-61.692	-0.317	0.133
-319.041	-68.327	0.037	0.014
-318.026	329.508	-0.248	-0.477
-317.012	-133.953	0.095	0.012
-315.997	335.767	-0.065	-0.125
-314.983	-200.000	0.013	0.214
-313.968	105.517	0.156	0.184
-312.953	13.852	0.157	0.122
-311.939	-44.565	0.089	0.045
-310.924	800.000	0.075	0.299
-309.910	1.610	-0.077	0.056
-308.895	94.675	0.084	-0.096
-307.880	800.000	-0.044	0.130
-306.866	166.429	0.064	0.091
-305.851	46.342	-0.246	-0.229
-304.837	255.264	0.133	-0.229
-303.822	-84.385	-0.180	-0.057
-302.807	150.454	0.121	-0.164
-301.793	-200.000	0.012	-0.239
-300.778	266.976	0.130	0.228
-299.764	-119.412	0.128	0.022
-298.749	234.959	0.129	-0.213
-297.735	43.073	-0.224	-0.205
-296.720	800.000	0.098	0.430
-295.705	-64.378	0.045	0.018
-294.691	-78.434	0.272	0.093
-293.676	14.077	-0.272	-0.212
-292.662	-200.000	0.027	0.259
-291.647	475.099	-0.088	-0.198
-290.632	-200.000	-0.015	0.138
-289.618	-109.327	0.095	0.020
-288.603	9.715	0.041	-0.031
-287.589	48.780	0.126	-0.119
-286.574	-184.766	-0.103	0.002
-285.559	687.344	-0.104	-0.272
-284.545	368.949	0.057	0.115
-283.530	-200.000	-0.044	0.561
-282.516	-46.702	0.107	0.052
-281.501	-9.413	-0.147	0.098
-280.486	-104.266	0.056	0.013
-279.472	-153.754	-0.432	0.030
-278.457	-200.000	0.073	-0.414
-277.443	-200.000	0.050	0.233
-276.428	-67.973	-0.191	0.075
-275.413	279.977	0.157	0.281
-274.399	-187.529	-0.101	0.001
-273.384	-200.000	-0.009	-0.111
-272.370	-33.841	0.321	-0.177
-271.355	97.559	-0.101	-0.116
-270.340	-42.162	-0.125	0.064
-269.326	-60.033	-0.379	0.162
-268.311	-200.000	0.020	0.138
-267.297	-164.691	-0.302	0.014
-266.282	123.650	0.077	-0.097
-265.267	58.555	-0.198	-0.194
-264.253	65.677	0.098	-0.099
-263.238	-124.543	-0.182	0.028
-262.224	-91.340	0.073	-0.021
-261.209	308.756	-0.174	0.324
-260.195	-164.043	-0.343	0.016
-259.180	301.958	0.067	-0.123
-258.165	-56.221	-0.323	0.144
-257.151	-58.029	-0.134	0.059
-256.136	304.125	0.067	-0.124
-255.122	800.000	0.025	-0.090
-254.107	25.872	-0.167	0.139
-253.092	-80.880	-0.364	0.121
-252.078	74.856	0.194	-0.204
-251.063	-91.970	-0.160	-0.045
-250.049	800.000	0.019	-0.082
-249.034	800.000	0.147	-0.450
-248.019	-200.000	-0.002	0.107
-247.005	316.827	0.185	-0.350
-245.990	81.146	0.299	0.323
-244.976	-83.224	-0.175	-0.056
-243.961	-87.235	-0.506	-0.153
-242.946	162.631	0.089	0.125
-241.932	251.187	-0.074	-0.125
-240.917	-200.000	-0.030	0.173
-239.903	-76.319	-0.097	0.034
-238.888	-200.000	-0.039	0.197
-237.873	-69.343	-0.158	-0.060
-236.859	-65.084	0.076	0.031
-235.844	800.000	-0.017	0.054
-234.830	-12.374	-0.101	-0.066
-233.815	-5.398	-0.326	0.224
-232.800	-132.820	0.145	-0.018
-231.786	62.095	0.170	-0.169
-230.771	-21.864	0.167	0.102
-229.757	153.741	0.081	-0.111
-228.742	800.000	0.061	-0.227
-227.727	-29.186	0.251	-0.143
-226.713	800.000	0.054	-0.224
-225.698	350.660	0.242	0.478
-224.684	-134.564	0.133	0.016
-223.669	-163.591	0.217	0.010
-222.655	82.863	0.066	-0.072
-221.640	-52.346	0.075	0.035
-220.625	-82.796	0.131	0.042
-219.611	96.966	-0.182	-0.208
-218.596	-123.155	0.149	0.024
-217.582	225.281	-0.202	0.327
-216.567	-122.833	-0.139	-0.022
-215.552	-46.536	0.152	0.074
-214.538	385.942	0.186	-0.383
-213.523	-51.330	-0.230	-0.107
-212.509	39.242	0.140	-0.125
-211.494	-64.893	-0.275	-0.111
-210.479	-138.428	-0.254	-0.028
-209.465	2.887	0.211	-0.153
-208.450	-138.665	-0.113	-0.012
-207.436	-104.650	-0.162	-0.037
-206.421	233.571	0.155	0.255
-205.406	-5.817	0.072	-0.049
-204.392	327.976	-0.064	-0.122
-203.377	21.458	0.240	0.194
-202.363	26.278	0.145	0.121
-201.348	18.991	0.220	-0.176
-200.333	800.000	-0.075	0.267
-199.319	17.904	0.299	-0.238
-198.304	114.736	-0.186	0.226
-197.290	-200.000	-0.056	0.480
-196.275	-200.000	0.042	0.187
-195.260	456.650	-0.014	0.032
-194.246	7.489	0.164	-0.122
-193.231	24.221	-0.089	-0.074
-192.217	-38.329	0.148	0.078
-191.202	20.663	-0.219	-0.177
-190.187	-200.000	0.017	0.175
-189.173	337.458	0.205	0.397
-188.158	-100.621	-0.296	-0.073
-187.144	-5.390	0.044	-0.030
-186.129	-129.092	-0.159	0.022
-185.114	109.419	-0.130	0.155
-184.100	800.000	0.070	-0.274
-183.085	-54.104	-0.217	-0.098
-182.071	-111.146	-0.176	-0.036
-181.056	333.447	-0.170	-0.328
-180.042	10.715	-0.033	0.025
-179.027	-153.028	0.138	0.010
-178.012	50.502	0.114	0.107
-176.998	57.711	0.307	0.300
-175.983	-200.000	0.047	0.345
-174.969	-83.871	-0.137	-0.044
-173.954	255.573	-0.194	0.332
-172.939	259.322	0.089	0.153
-171.925	771.288	-0.039	-0.107
-170.910	253.292	0.037	-0.062
-169.896	455.900	0.097	-0.214
-168.881	-200.000	0.005	0.198
-167.866	-73.838	0.258	-0.094
-166.852	98.315	0.073	-0.084
-165.837	-123.639	-0.135	0.021
-164.823	-33.517	0.235	0.130
-163.808	-200.000	0.018	0.187
-162.793	218.469	-0.071	-0.112
-161.779	106.314	-0.061	-0.072
-160.764	-109.773	-0.287	0.060
-159.750	-200.000	-0.034	0.337
-158.735	800.000	-0.077	-0.270
-157.720	274.885	-0.042	0.074
-156.706	18.353	0.134	0.107
-155.691	13.581	-0.117	0.091
-154.677	-33.289	0.338	0.187
-153.662	334.885	0.086	-0.165
-152.647	292.863	-0.085	-0.155
-151.633	-18.640	0.284	0.176
-150.618	800.000	0.122	-0.418
-149.604	165.375	-0.143	0.201
-148.589	-34.664	0.056	-0.030
-147.574	-200.000	0.008	-0.080
-146.560	-102.788	-0.073	0.017
-145.545	800.000	0.044	-0.142
-144.531	-136.577	0.368	-0.042
-143.516	-135.643	0.168	0.020
-142.502	-200.000	0.178	0.001
-141.487	185.254	-0.081	0.120
-140.472	226.514	-0.046	0.075
-139.458	-98.508	0.135	-0.034
-138.443	-168.536	0.301	0.011
-137.429	-104.360	-0.243	-0.056
-136.414	-158.448	0.266	0.015
-135.399	-200.000	-0.012	0.413
-134.385	792.245	-0.159	0.435
-133.370	800.000	-0.153	-0.478
-132.356	800.000	0.091	-0.272
-131.341	99.972	0.108	-0.124
-130.326	169.143	0.017	-0.023
-129.312	-111.075	-0.299	-0.061
-128.297	-25.735	-0.209	0.123
-127.283	365.314	-0.024	0.049
-126.268	-54.844	-0.155	0.070
-125.253	253.915	-0.065	0.111
-124.239	-99.937	0.305	0.076
-123.224	-0.740	0.189	-0.133
-122.210	163.945	0.118	-0.165
-121.195	134.036	0.358	0.461
