DTS Sentinel unit serial number:	SN413079Multiplexer serial number:	ORYXHardware model number:	OX4-SRSoftware version number:	ORYX F/W v4.00 Oryx Data Collector v3.7.2.0data status	okinstallation	princeton_trtdifferential loss correction	single-endedforward channel	channel 1reverse channel	N/Adate	2019/09/19time	09:42:35forward acquisition time	60.00reverse acquisition time	0.00gamma	496.2192k internal	0.2340k external	0.2340temperature offset calibration	1.0002default loss term (dB/km)	0.3790temperature slope calibration	1.0000multiplexer offset coefficient	1.0000multiplexer slope coefficient	1.0000fibre end	0.00T internal ref (°C)	23.19T ext. ref 1 (°C)	0.63T ext. ref 2 (°C)	19.47length (m)	temperature (°C)	Stokes	anti-Stokes-747.200	-21.278	0.180	0.111
-746.185	41.244	-0.161	0.146
-745.171	-148.716	-0.092	-0.008
-744.156	69.932	-0.253	0.262
-743.142	23.823	-0.348	0.287
-742.127	74.958	0.068	-0.072
-741.112	-133.664	0.215	0.027
-740.098	-73.478	-0.167	0.061
-739.083	-200.000	-0.002	-0.147
-738.069	-78.329	0.300	0.103
-737.054	671.404	-0.052	0.134
-736.039	-106.209	-0.046	-0.010
-735.025	114.004	0.338	0.411
-734.010	515.609	0.126	-0.295
-732.996	-144.846	0.020	-0.002
-731.981	-25.200	0.117	0.069
-730.966	-178.126	0.554	0.013
-729.952	67.769	-0.211	0.216
-728.937	-54.040	0.163	-0.074
-727.923	315.309	-0.065	-0.122
-726.908	-3.361	-0.124	0.087
-725.894	-139.659	-0.293	-0.031
-724.879	-166.236	-0.036	0.002
-723.864	-200.000	0.045	0.343
-722.850	-31.541	-0.311	-0.175
-721.835	-200.000	-0.016	-0.079
-720.821	-92.314	0.225	0.063
-719.806	-200.000	-0.004	0.070
-718.791	-32.318	-0.170	0.095
-717.777	-115.816	-0.199	0.037
-716.762	-129.191	-0.227	-0.032
-715.748	-26.765	0.199	-0.117
-714.733	489.003	-0.078	0.180
-713.718	-30.196	0.136	-0.078
-712.704	-200.000	0.025	-0.228
-711.689	305.773	0.072	-0.134
-710.675	-98.315	0.035	0.009
-709.660	137.335	0.171	0.224
-708.645	717.994	0.207	0.551
-707.631	132.861	0.067	0.087
-706.616	220.950	0.100	0.161
-705.602	-200.000	-0.036	0.343
-704.587	-78.646	0.108	0.037
-703.572	800.000	0.092	0.265
-702.558	-86.260	0.209	-0.065
-701.543	53.549	-0.139	-0.133
-700.529	18.417	-0.218	0.174
-699.514	396.760	-0.031	-0.064
-698.499	19.816	0.158	-0.127
-697.485	-14.136	-0.223	-0.144
-696.470	59.165	0.086	0.084
-695.456	-113.726	0.164	0.032
-694.441	800.000	0.045	-0.171
-693.426	800.000	0.040	0.164
-692.412	-93.110	-0.146	-0.041
-691.397	-46.879	-0.198	0.097
-690.383	-108.793	0.348	-0.075
-689.368	-97.893	-0.194	0.050
-688.354	62.525	0.100	-0.100
-687.339	431.315	0.120	0.261
-686.324	653.276	0.055	-0.141
-685.310	-200.000	0.106	-0.547
-684.295	-162.330	-0.199	-0.010
-683.281	-200.000	0.000	-0.063
-682.266	-119.879	0.193	-0.033
-681.251	135.828	-0.143	-0.187
-680.237	-200.000	-0.057	-0.307
-679.222	800.000	0.064	0.251
-678.208	227.893	-0.186	-0.303
-677.193	136.922	0.081	-0.106
-676.178	165.358	0.097	-0.137
-675.164	12.941	-0.113	0.087
-674.149	-60.117	-0.310	-0.132
-673.135	318.156	-0.098	-0.185
-672.120	-80.330	-0.123	-0.041
-671.105	-200.000	-0.005	-0.025
-670.091	46.263	0.108	0.100
-669.076	83.537	-0.204	0.223
-668.062	334.525	-0.140	0.272
-667.047	67.773	-0.098	0.100
-666.032	-200.000	-0.061	-0.306
-665.018	34.547	0.106	0.093
-664.003	95.909	0.317	0.362
-662.989	-58.852	0.148	0.064
-661.974	46.204	-0.032	0.029
-660.959	110.881	-0.166	-0.199
-659.945	-200.000	-0.008	-0.216
-658.930	800.000	0.091	0.308
-657.916	-62.288	0.071	-0.029
-656.901	313.949	-0.136	0.257
-655.886	-200.000	-0.010	0.161
-654.872	611.235	0.070	0.175
-653.857	-200.000	0.027	0.126
-652.843	-200.000	-0.020	-0.241
-651.828	-71.079	-0.350	-0.132
-650.814	-200.000	0.004	-0.079
-649.799	-21.372	-0.169	-0.103
-648.784	661.998	0.109	-0.280
-647.770	-200.000	0.017	-0.085
-646.755	-200.000	-0.019	0.105
-645.741	-200.000	-0.013	0.136
-644.726	135.749	0.061	0.079
-643.711	282.008	0.063	0.112
-642.697	395.856	-0.101	0.210
-641.682	-200.000	0.005	0.084
-640.668	800.000	-0.065	0.206
-639.653	364.269	-0.056	0.112
-638.638	800.000	0.018	0.054
-637.624	-53.458	0.063	0.029
-636.609	-200.000	-0.041	0.207
-635.595	-15.723	0.218	-0.139
-634.580	-167.884	-0.154	0.006
-633.565	305.463	-0.024	-0.045
-632.551	-49.048	0.211	-0.101
-631.536	134.702	-0.091	-0.118
-630.522	-200.000	0.023	-0.119
-629.507	-85.295	0.132	0.041
-628.492	136.712	0.146	-0.190
-627.478	-200.000	0.028	0.147
-626.463	307.556	-0.200	-0.372
-625.449	800.000	0.089	-0.266
-624.434	235.397	0.115	0.190
-623.419	-155.968	-0.185	-0.012
-622.405	-77.152	-0.157	-0.055
-621.390	646.841	0.150	-0.382
-620.376	-114.611	0.017	-0.003
-619.361	78.132	-0.233	0.248
-618.346	631.506	-0.080	0.201
-617.332	-46.079	-0.100	0.049
-616.317	19.812	0.185	-0.148
-615.303	35.680	-0.077	0.067
-614.288	-68.689	0.065	0.025
-613.273	-200.000	0.038	-0.241
-612.259	-25.917	0.212	-0.124
-611.244	-45.530	0.132	-0.065
-610.230	376.325	-0.065	-0.133
-609.215	-51.436	0.082	0.038
-608.201	-8.500	-0.132	-0.089
-607.186	-200.000	0.002	-0.313
-606.171	465.664	-0.131	-0.292
-605.157	-200.000	-0.015	0.210
-604.142	800.000	-0.090	0.264
-603.128	-58.615	-0.131	-0.057
-602.113	-200.000	0.002	-0.089
-601.098	-149.800	-0.403	0.032
-600.084	29.086	-0.060	-0.051
-599.069	412.045	-0.112	0.237
-598.055	-170.483	0.232	-0.008
-597.040	89.366	0.228	-0.253
-596.025	-148.137	-0.262	0.022
-595.011	39.095	0.303	-0.270
-593.996	-20.129	-0.266	-0.164
-592.982	-45.125	0.189	0.094
-591.967	-120.135	-0.294	0.050
-590.952	-8.844	-0.104	-0.070
-589.938	537.745	0.033	-0.078
-588.923	89.160	-0.126	0.140
-587.909	-79.805	-0.039	-0.013
-586.894	-119.783	0.238	0.041
-585.879	88.532	0.379	-0.420
-584.865	800.000	-0.109	-0.365
-583.850	723.035	0.109	-0.290
-582.836	128.525	-0.232	-0.294
-581.821	-19.993	0.069	-0.043
-580.806	53.868	-0.172	0.165
-579.792	-200.000	0.012	0.079
-578.777	-18.045	-0.148	-0.092
-577.763	-148.007	0.309	-0.026
-576.748	137.317	0.219	-0.285
-575.733	-200.000	-0.008	-0.141
-574.719	797.352	-0.048	0.133
-573.704	-116.744	-0.117	-0.021
-572.690	-200.000	-0.019	0.089
-571.675	-45.172	0.195	0.096
-570.661	56.503	0.064	0.062
-569.646	-61.207	-0.219	0.092
-568.631	800.000	0.015	0.064
-567.617	-60.053	0.213	0.091
-566.602	-193.813	-0.148	0.001
-565.588	9.501	0.190	0.143
-564.573	-200.000	-0.063	-0.276
-563.558	800.000	0.138	0.413
-562.544	-62.058	0.073	0.031
-561.529	-18.625	-0.205	0.127
-560.515	-9.044	-0.281	-0.187
-559.500	-124.657	0.372	-0.057
-558.485	-200.000	0.073	0.352
-557.471	-200.000	0.006	-0.242
-556.456	-24.991	0.107	-0.063
-555.442	206.864	0.084	0.130
-554.427	-143.774	-0.235	-0.022
-553.412	168.355	0.159	-0.225
-552.398	91.794	-0.100	-0.112
-551.383	-9.356	-0.256	-0.170
-550.369	-158.796	0.232	-0.013
-549.354	82.472	0.135	0.146
-548.339	21.931	-0.253	-0.205
-547.325	-10.351	0.355	-0.234
-546.310	-142.444	0.297	0.029
-545.296	-108.362	-0.249	-0.053
-544.281	-116.917	0.316	-0.057
-543.266	-200.000	-0.001	0.246
-542.252	-119.427	0.163	0.028
-541.237	800.000	0.075	0.229
-540.223	-39.779	-0.136	-0.071
-539.208	12.669	-0.128	0.099
-538.193	800.000	-0.069	0.205
-537.179	-59.141	-0.371	-0.159
-536.164	-200.000	-0.017	0.084
-535.150	-63.214	0.177	-0.073
-534.135	800.000	0.031	0.091
-533.121	-152.911	0.306	0.021
-532.106	143.531	-0.099	-0.131
-531.091	800.000	0.026	0.076
-530.077	525.093	0.198	-0.462
-529.062	13.891	-0.398	-0.308
-528.048	73.369	-0.200	0.208
-527.033	-53.485	-0.315	-0.143
-526.018	532.259	-0.062	-0.145
-525.004	-129.656	-0.158	0.022
-523.989	-90.752	-0.052	-0.015
-522.975	300.451	-0.149	0.273
-521.960	777.040	-0.045	-0.121
-520.945	-200.000	0.008	0.086
-519.931	-200.000	0.034	-0.221
-518.916	39.269	-0.110	-0.098
-517.902	-69.258	0.246	-0.094
-516.887	582.725	0.186	0.453
-515.872	-24.821	-0.110	-0.065
-514.858	-98.553	0.285	-0.072
-513.843	-58.240	0.083	-0.036
-512.829	86.715	-0.174	-0.191
-511.814	754.316	-0.043	0.115
-510.799	334.919	-0.142	0.274
-509.785	800.000	-0.030	-0.109
-508.770	-200.000	0.015	0.209
-507.756	-29.578	0.359	-0.204
-506.741	-136.640	0.280	-0.032
-505.726	28.083	-0.200	-0.168
-504.712	32.030	-0.022	0.019
-503.697	102.020	-0.253	0.293
-502.683	-20.094	0.295	0.181
-501.668	28.532	0.045	0.038
-500.653	-65.609	-0.164	0.065
-499.639	85.224	0.147	-0.160
-498.624	800.000	0.020	0.061
-497.610	-200.000	0.029	0.354
-496.595	212.056	-0.040	0.062
-495.581	185.128	-0.149	0.219
-494.566	-89.432	0.135	0.039
-493.551	45.641	-0.231	0.212
-492.537	-56.342	0.173	0.076
-491.522	190.678	-0.172	-0.256
-490.508	167.919	-0.165	0.233
-489.493	-116.611	-0.125	-0.023
-488.478	44.280	-0.326	-0.297
-487.464	-200.000	-0.185	0.001
-486.449	-200.000	-0.046	0.260
-485.435	800.000	0.022	0.095
-484.420	190.950	0.046	-0.068
-483.405	-200.000	-0.034	-0.263
-482.391	218.182	0.095	-0.151
-481.376	-47.636	-0.349	0.168
-480.362	800.000	0.022	-0.080
-479.347	67.504	-0.257	-0.260
-478.332	-34.589	-0.149	-0.081
-477.318	13.365	-0.439	-0.337
-476.303	-85.182	-0.436	0.135
-475.289	-156.723	0.185	0.011
-474.274	-37.752	-0.122	-0.065
-473.259	-99.491	-0.208	-0.052
-472.245	-119.895	-0.129	-0.022
-471.230	-3.382	0.196	-0.135
-470.216	-141.908	0.358	0.035
-469.201	29.763	-0.105	0.089
-468.186	-200.000	-0.055	-0.276
-467.172	439.915	-0.039	-0.084
-466.157	-143.298	0.336	-0.032
-465.143	-200.000	-0.010	-0.205
-464.128	-200.000	0.006	0.197
-463.113	800.000	-0.101	0.388
-462.099	-53.854	-0.175	-0.079
-461.084	253.693	-0.125	0.211
-460.070	223.590	-0.049	0.078
-459.055	-200.000	0.001	0.038
-458.040	83.046	-0.055	-0.059
-457.026	440.258	0.162	-0.351
-456.011	-200.000	-0.004	0.258
-454.997	800.000	-0.066	-0.235
-453.982	-200.000	0.100	0.000
-452.968	-36.458	0.226	0.121
-451.953	336.924	-0.078	0.150
-450.938	-5.962	0.105	0.072
-449.924	-86.318	0.241	-0.073
-448.909	84.679	-0.185	0.201
-447.895	-81.627	0.213	-0.069
-446.880	258.922	0.151	0.258
-445.865	-82.279	0.219	0.071
-444.851	11.748	0.244	-0.186
-443.836	119.128	-0.231	-0.283
-442.822	34.634	0.159	0.138
-441.807	406.498	-0.029	0.061
-440.792	-200.000	0.025	0.416
-439.778	-139.680	-0.472	-0.050
-438.763	58.980	-0.126	0.123
-437.749	36.395	-0.155	-0.136
-436.734	46.397	0.143	-0.131
-435.719	158.266	0.308	-0.423
-434.705	90.008	0.126	-0.140
-433.690	-21.741	-0.294	0.177
-432.676	-31.593	-0.081	-0.045
-431.661	193.666	-0.029	-0.043
-430.646	-28.590	0.101	0.058
-429.632	-200.000	-0.065	-0.644
-428.617	121.542	-0.155	-0.191
-427.603	-83.904	0.103	-0.033
-426.588	-200.000	-0.050	-0.431
-425.573	-134.343	0.184	0.022
-424.559	-23.803	0.302	0.179
-423.544	-154.894	-0.079	0.005
-422.530	250.969	0.046	0.077
-421.515	-200.000	-0.011	-0.080
-420.500	131.890	0.081	0.103
-419.486	-199.172	0.233	-0.001
-418.471	345.521	-0.059	0.114
-417.457	10.394	0.337	-0.254
-416.442	-56.875	-0.378	0.165
-415.428	72.026	0.193	0.199
-414.413	25.234	0.469	0.386
-413.398	-54.583	-0.101	0.045
-412.384	-66.741	-0.430	-0.169
-411.369	-200.000	-0.000	-0.154
-410.355	800.000	-0.066	0.231
-409.340	-200.000	-0.007	0.326
-408.325	-42.325	0.207	-0.105
-407.311	-153.152	-0.136	0.009
-406.296	-61.865	-0.219	0.091
-405.282	124.938	-0.091	0.114
-404.267	-19.066	-0.256	0.157
-403.252	-19.491	0.245	0.150
-402.238	-95.090	-0.273	-0.073
-401.223	18.825	0.100	0.079
-400.209	2.152	0.130	0.093
-399.194	800.000	-0.037	0.121
-398.179	800.000	-0.067	0.215
-397.165	-127.427	0.237	-0.034
-396.150	-89.369	0.136	0.040
-395.136	112.705	0.195	0.234
-394.121	800.000	-0.010	-0.036
-393.106	-179.932	0.040	0.001
-392.092	-41.018	0.219	-0.112
-391.077	-175.368	0.322	0.009
-390.063	502.491	0.092	-0.210
-389.048	448.385	-0.068	0.147
-388.033	506.407	0.105	-0.240
-387.019	18.788	-0.155	0.123
-386.004	154.914	0.274	0.372
-384.990	293.989	0.262	-0.473
-383.975	522.288	0.064	-0.149
-382.960	-116.198	-0.115	0.021
-381.946	160.464	-0.045	0.062
-380.931	10.116	-0.340	0.255
-379.917	-127.814	0.378	0.054
-378.902	-190.835	-0.394	0.004
-377.888	-24.403	-0.234	-0.138
-376.873	-200.000	-0.006	0.165
-375.858	-150.628	0.041	-0.003
-374.844	-62.847	-0.167	0.068
-373.829	-134.593	0.238	0.029
-372.815	-154.941	-0.018	0.001
-371.800	-92.233	-0.105	-0.029
-370.785	800.000	-0.056	0.242
-369.771	37.612	-0.219	-0.192
-368.756	40.396	0.082	-0.073
-367.742	-125.834	-0.154	0.023
-366.727	-134.306	-0.262	0.032
-365.712	191.606	-0.168	-0.250
-364.698	-29.805	0.192	0.108
-363.683	-100.867	-0.129	0.031
-362.669	-144.880	0.198	-0.018
-361.654	-200.000	0.037	0.232
-360.639	222.928	0.184	0.292
-359.625	18.619	0.343	-0.271
-358.610	-45.456	-0.247	0.121
-357.596	-179.421	-0.087	-0.002
-356.581	800.000	0.047	-0.141
-355.566	-99.956	-0.175	-0.043
-354.552	-3.120	0.246	-0.169
-353.537	-125.305	-0.238	0.036
-352.523	-200.000	-0.029	-0.209
-351.508	590.151	0.068	0.167
-350.493	8.523	-0.240	0.178
-349.479	136.921	-0.156	-0.201
-348.464	422.749	0.153	0.323
-347.450	-134.512	-0.332	0.040
-346.435	-56.216	0.219	0.096
-345.420	-58.929	0.077	-0.033
-344.406	800.000	-0.034	-0.110
-343.391	717.350	0.047	0.123
-342.377	800.000	-0.088	0.341
-341.362	-183.879	0.181	0.003
-340.348	800.000	0.169	-0.523
-339.333	-63.179	-0.422	0.172
-338.318	800.000	0.067	0.255
-337.304	-200.000	0.065	-0.298
-336.289	-200.000	-0.031	-0.228
-335.275	-200.000	-0.136	0.001
-334.260	1.379	0.196	0.139
-333.245	97.104	0.068	-0.077
-332.231	-200.000	0.030	0.380
-331.216	368.621	-0.013	-0.026
-330.202	74.373	0.130	0.135
-329.187	52.645	-0.190	0.179
-328.172	-118.204	0.344	-0.061
-327.158	-200.000	0.009	0.211
-326.143	-200.000	-0.036	0.256
-325.129	458.319	0.135	-0.297
-324.114	-200.000	0.038	0.215
-323.099	38.300	0.310	0.272
-322.085	176.083	0.074	0.105
-321.070	-83.687	-0.115	-0.036
-320.056	149.649	-0.064	-0.085
-319.041	-3.227	0.084	-0.058
-318.026	1.709	0.125	-0.089
-317.012	17.113	-0.182	-0.142
-315.997	197.095	0.122	0.184
-314.983	-94.611	-0.103	-0.028
-313.968	-164.415	-0.140	-0.006
-312.953	-39.728	0.143	0.074
-311.939	505.930	0.108	-0.246
-310.924	397.583	-0.022	0.046
-309.910	100.131	0.081	-0.092
-308.895	217.436	-0.054	-0.084
-307.880	-94.915	-0.186	0.050
-306.866	800.000	0.054	0.159
-305.851	-96.167	0.094	-0.025
-304.837	-200.000	-0.040	0.438
-303.822	-129.876	0.259	0.035
-302.807	581.448	-0.082	0.198
-301.793	38.060	0.395	0.346
-300.778	800.000	-0.002	-0.006
-299.764	-14.410	-0.203	0.129
-298.749	-136.777	-0.299	0.034
-297.735	-200.000	-0.002	0.026
-296.720	626.660	0.205	0.510
-295.705	109.299	0.265	-0.312
-294.691	35.380	0.256	0.221
-293.676	-107.763	-0.283	-0.061
-292.662	-200.000	-0.040	-0.246
-291.647	159.961	0.228	-0.313
-290.632	-72.008	0.118	0.043
-289.618	-151.707	0.353	-0.026
-288.603	-164.399	-0.161	-0.007
-287.589	96.525	-0.115	-0.130
-286.574	141.615	0.113	-0.147
-285.559	174.923	-0.279	0.398
-284.545	175.339	0.026	-0.037
-283.530	-119.967	-0.241	-0.041
-282.516	38.918	-0.241	0.212
-281.501	-71.117	0.169	0.063
-280.486	-84.704	0.212	-0.066
-279.472	3.501	-0.295	0.212
-278.457	-52.710	0.310	0.141
-277.443	143.832	0.124	-0.163
-276.428	-140.855	0.015	0.002
-275.413	167.360	-0.217	-0.304
-274.399	-172.005	-0.078	-0.002
-273.384	-26.679	-0.143	0.082
-272.370	250.931	0.040	0.067
-271.355	755.178	-0.025	0.067
-270.340	574.242	0.083	-0.199
-269.326	146.756	0.224	-0.296
-268.311	29.840	-0.271	0.227
-267.297	-200.000	0.015	-0.285
-266.282	-27.161	-0.212	0.121
-265.267	52.453	-0.330	-0.310
-264.253	228.216	-0.028	0.045
-263.238	358.521	0.064	-0.127
-262.224	-44.484	-0.251	0.124
-261.209	800.000	-0.147	0.536
-260.195	-200.000	-0.008	0.124
-259.180	-200.000	-0.068	-0.299
-258.165	-23.208	0.329	0.195
-257.151	139.541	0.184	-0.238
-256.136	-122.498	0.306	0.049
-255.122	87.737	0.109	-0.118
-254.107	119.343	-0.041	-0.050
-253.092	-54.743	-0.237	-0.105
-252.078	533.897	0.102	0.238
-251.063	419.177	0.085	-0.180
-250.049	-111.735	0.133	-0.027
-249.034	-35.417	0.293	0.157
-248.019	-56.340	-0.173	-0.075
-247.005	-135.380	-0.225	-0.026
-245.990	479.018	-0.074	0.165
-244.976	373.779	0.084	0.168
-243.961	-45.828	0.230	-0.112
-242.946	800.000	-0.185	-0.553
-241.932	125.819	-0.181	-0.225
-240.917	-200.000	-0.036	-0.201
-239.903	-1.566	-0.226	-0.157
-238.888	-21.478	-0.203	0.122
-237.873	642.241	0.095	0.238
-236.859	-38.040	-0.134	-0.070
-235.844	-36.054	0.030	-0.016
-234.830	-100.937	-0.152	-0.037
-233.815	-200.000	-0.012	-0.082
-232.800	230.592	0.060	-0.097
-231.786	-118.295	-0.058	0.010
-230.771	-69.084	-0.025	0.009
-229.757	-71.660	0.401	0.147
-228.742	52.813	0.075	-0.070
-227.727	-72.605	-0.125	-0.045
-226.713	198.771	0.237	-0.357
-225.698	600.941	0.034	-0.083
-224.684	800.000	-0.051	-0.173
-223.669	32.794	0.154	0.131
-222.655	-200.000	-0.037	0.290
-221.640	-200.000	0.013	-0.097
-220.625	636.456	0.013	0.032
-219.611	402.918	-0.052	0.108
-218.596	211.696	0.117	0.181
-217.582	27.533	-0.342	-0.283
-216.567	236.439	-0.120	-0.195
-215.552	-64.634	0.209	-0.083
-214.538	-103.548	-0.311	0.072
-213.523	449.054	-0.120	-0.259
-212.509	800.000	0.072	-0.205
-211.494	733.322	0.035	-0.093
-210.479	-200.000	-0.001	-0.216
-209.465	-9.106	0.086	-0.056
-208.450	-130.866	-0.210	-0.028
-207.436	74.082	0.114	0.118
-206.421	601.480	-0.029	-0.072
-205.406	262.533	0.099	-0.168
-204.392	117.247	0.141	-0.170
-203.377	-128.319	0.387	-0.054
-202.363	153.054	0.067	0.090
-201.348	6.650	-0.202	-0.147
-200.333	-200.000	0.045	0.491
-199.319	311.913	0.020	-0.037
-198.304	800.000	-0.061	-0.245
-197.290	202.044	0.104	0.157
-196.275	-171.152	-0.037	-0.001
-195.260	132.304	0.051	-0.064
-194.246	800.000	0.057	-0.224
-193.231	-200.000	-0.002	0.223
-192.217	308.489	-0.060	-0.111
-191.202	-200.000	0.002	0.078
-190.187	-200.000	-0.026	0.599
-189.173	-58.572	0.052	-0.022
-188.158	-11.516	-0.342	-0.220
-187.144	-200.000	-0.014	-0.094
-186.129	-51.298	-0.079	-0.036
-185.114	-200.000	-0.033	0.256
-184.100	-102.540	0.545	0.128
-183.085	-200.000	0.004	0.070
-182.071	30.821	-0.242	0.203
-181.056	-200.000	0.007	0.439
-180.042	116.824	0.050	-0.060
-179.027	-200.000	0.028	-0.342
-178.012	462.830	-0.057	0.124
-176.998	405.490	0.099	0.205
-175.983	97.209	0.047	0.053
-174.969	-14.317	0.188	-0.119
-173.954	-94.208	-0.215	0.058
-172.939	-200.000	-0.017	0.084
-171.925	-200.000	0.005	0.198
-170.910	-23.050	0.196	-0.116
-169.896	29.032	-0.157	-0.130
-168.881	57.472	-0.108	0.103
-167.866	-108.795	-0.204	-0.043
-166.852	373.185	-0.081	0.162
-165.837	-24.398	0.339	-0.198
-164.823	509.856	0.103	0.235
-163.808	800.000	-0.128	0.385
-162.793	315.271	0.056	-0.103
-161.779	-58.686	0.086	-0.036
-160.764	140.930	0.171	-0.221
-159.750	193.329	-0.040	0.059
-158.735	687.370	-0.063	-0.162
-157.720	-145.339	-0.058	0.005
-156.706	-101.766	0.090	0.021
-155.691	-200.000	-0.052	0.261
-154.677	39.150	0.310	0.271
-153.662	-37.031	-0.171	0.090
-152.647	17.804	0.253	-0.198
-151.633	-90.110	-0.417	0.119
-150.618	355.665	0.231	-0.450
-149.604	-69.557	-0.279	0.105
-148.589	120.794	0.081	0.099
-147.574	320.251	0.049	0.092
-146.560	800.000	-0.063	-0.200
-145.545	48.167	0.091	-0.083
-144.531	-101.615	0.224	0.053
-143.516	661.058	0.099	-0.249
-142.502	-91.917	-0.208	-0.058
-141.487	-184.942	-0.118	-0.002
-140.472	93.473	0.046	0.051
-139.458	-105.223	0.086	-0.019
-138.443	-200.000	0.008	0.241
-137.429	715.853	-0.116	0.300
-136.414	195.675	0.192	-0.285
-135.399	589.288	0.100	0.241
-134.385	32.815	0.085	0.072
-133.370	-68.963	-0.327	0.123
-132.356	-107.674	0.102	-0.022
-131.341	800.000	0.037	-0.156
-130.326	-109.520	0.131	-0.027
-129.312	800.000	-0.128	-0.364
-128.297	243.780	0.090	0.148
-127.283	800.000	0.102	-0.398
-126.268	34.720	0.181	-0.155
-125.253	-105.858	-0.052	0.011
-124.239	-12.625	0.143	-0.091
-123.224	53.111	-0.220	0.206
-122.210	800.000	-0.031	-0.129
-121.195	397.760	-0.105	-0.214
