DTS Sentinel unit serial number:	SN413079Multiplexer serial number:	ORYXHardware model number:	OX4-SRSoftware version number:	ORYX F/W v4.00 Oryx Data Collector v3.7.2.0data status	okinstallation	princeton_trtdifferential loss correction	single-endedforward channel	channel 1reverse channel	N/Adate	2019/09/13time	23:38:35forward acquisition time	60.00reverse acquisition time	0.00gamma	496.2192k internal	0.2337k external	0.2337temperature offset calibration	1.0081default loss term (dB/km)	0.3790temperature slope calibration	1.0000multiplexer offset coefficient	1.0000multiplexer slope coefficient	1.0000fibre end	0.00T internal ref (°C)	26.75T ext. ref 1 (°C)	3.17T ext. ref 2 (°C)	20.99length (m)	temperature (°C)	Stokes	anti-Stokes-747.200	134.818	-0.104	0.136
-746.185	6.385	-0.355	0.265
-745.171	-43.607	0.233	-0.118
-744.156	-68.829	-0.200	0.077
-743.142	800.000	0.014	-0.054
-742.127	-200.000	0.048	0.540
-741.112	21.539	-0.275	-0.224
-740.098	125.497	-0.111	0.140
-739.083	51.226	0.147	0.140
-738.069	127.954	-0.230	-0.293
-737.054	-100.173	0.139	-0.035
-736.039	-200.000	-0.085	-0.441
-735.025	160.134	0.143	-0.200
-734.010	-200.000	0.055	-0.308
-732.996	467.674	-0.175	-0.395
-731.981	47.863	-0.102	-0.096
-730.966	116.031	-0.046	0.056
-729.952	800.000	-0.085	0.248
-728.937	25.304	0.178	0.149
-727.923	-95.291	0.172	0.047
-726.908	-72.133	-0.230	0.086
-725.894	64.510	0.328	0.331
-724.879	-158.679	0.385	-0.022
-723.864	92.341	0.069	0.078
-722.850	-60.813	0.192	-0.082
-721.835	-200.000	-0.013	-0.255
-720.821	-200.000	-0.004	-0.187
-719.806	591.020	0.016	0.040
-718.791	696.713	0.150	0.394
-717.777	195.062	0.186	-0.283
-716.762	800.000	0.086	0.285
-715.748	0.754	-0.130	-0.093
-714.733	800.000	-0.068	0.290
-713.718	-120.757	-0.489	-0.083
-712.704	799.530	-0.136	-0.376
-711.689	-200.000	0.004	0.078
-710.675	40.769	-0.206	0.186
-709.660	-138.618	-0.191	-0.021
-708.645	-106.440	-0.128	-0.029
-707.631	-157.058	0.281	0.017
-706.616	-172.968	-0.185	0.006
-705.602	-58.121	-0.157	0.068
-704.587	243.976	0.156	0.262
-703.572	-178.847	0.329	-0.007
-702.558	74.709	-0.063	0.067
-701.543	-83.350	0.479	0.154
-700.529	-200.000	0.005	-0.148
-699.514	27.685	-0.099	0.084
-698.499	-200.000	0.030	-0.328
-697.485	148.149	-0.077	0.104
-696.470	11.609	0.160	0.123
-695.456	-200.000	0.008	0.088
-694.441	-200.000	-0.011	0.184
-693.426	-200.000	0.015	-0.167
-692.412	75.761	0.164	-0.173
-691.397	800.000	-0.114	0.465
-690.383	420.911	0.158	0.339
-689.368	-70.476	0.328	-0.125
-688.354	727.575	-0.042	0.111
-687.339	-7.100	-0.238	-0.162
-686.324	-42.601	-0.468	-0.239
-685.310	137.639	0.178	-0.233
-684.295	-117.919	0.032	0.006
-683.281	-68.833	-0.233	0.090
-682.266	119.782	-0.063	-0.078
-681.251	-64.318	-0.135	0.055
-680.237	29.180	0.271	-0.230
-679.222	-200.000	-0.011	-0.147
-678.208	126.847	-0.031	-0.040
-677.193	209.964	0.085	0.133
-676.178	50.563	0.078	0.074
-675.164	56.486	0.082	-0.080
-674.149	-53.108	-0.241	-0.111
-673.135	151.559	0.131	0.178
-672.120	195.150	0.154	-0.234
-671.105	47.663	0.026	-0.024
-670.091	494.883	-0.067	-0.155
-669.076	256.493	0.080	-0.138
-668.062	-51.915	0.192	0.089
-667.047	36.344	-0.089	-0.078
-666.032	-44.560	0.201	0.101
-665.018	250.018	-0.097	-0.164
-664.003	423.278	0.172	-0.370
-662.989	-89.373	0.419	0.124
-661.974	-200.000	0.025	0.177
-660.959	-92.408	-0.037	0.010
-659.945	3.891	0.056	-0.041
-658.930	-114.112	0.081	0.016
-657.916	-85.462	-0.389	-0.121
-656.901	4.110	0.486	0.356
-655.886	-139.162	0.177	0.019
-654.872	-169.806	0.150	-0.005
-653.857	-65.386	-0.229	0.092
-652.843	35.085	-0.134	-0.117
-651.828	444.682	-0.069	-0.151
-650.814	-106.285	-0.157	0.035
-649.799	-200.000	-0.028	-0.222
-648.784	-95.814	-0.298	0.080
-647.770	800.000	-0.022	0.074
-646.755	188.150	-0.076	0.113
-645.741	282.690	-0.051	-0.092
-644.726	41.596	-0.241	-0.219
-643.711	-70.978	-0.238	-0.090
-642.697	399.668	-0.108	-0.227
-641.682	-149.342	-0.182	-0.014
-640.668	800.000	-0.087	-0.367
-639.653	800.000	0.083	-0.252
-638.638	-81.903	0.283	0.092
-637.624	800.000	-0.106	-0.388
-636.609	-18.672	-0.120	-0.075
-635.595	38.167	-0.190	-0.169
-634.580	-200.000	0.020	-0.228
-633.565	42.776	-0.196	0.178
-632.551	800.000	-0.035	-0.115
-631.536	437.074	-0.134	0.293
-630.522	-116.026	0.442	0.082
-629.507	194.366	0.094	-0.142
-628.492	-0.259	-0.179	0.127
-627.478	-136.263	0.058	0.007
-626.463	-200.000	-0.007	0.353
-625.449	35.354	0.280	0.245
-624.434	-58.587	-0.284	-0.123
-623.419	-80.368	0.172	-0.057
-622.405	-200.000	-0.039	-0.437
-621.390	506.443	0.040	-0.094
-620.376	94.149	0.186	-0.211
-619.361	800.000	-0.103	-0.305
-618.346	800.000	0.083	-0.264
-617.332	52.461	-0.149	0.142
-616.317	200.426	-0.233	0.357
-615.303	410.998	0.139	-0.294
-614.288	-33.588	-0.048	0.026
-613.273	-200.000	-0.066	-0.349
-612.259	300.643	0.232	-0.428
-611.244	-58.618	-0.354	0.153
-610.230	159.200	0.163	0.226
-609.215	-200.000	-0.083	0.374
-608.201	-12.936	0.185	0.120
-607.186	-142.523	-0.375	0.037
-606.171	97.604	0.050	0.057
-605.157	-90.181	-0.288	0.084
-604.142	-120.778	-0.205	0.035
-603.128	-138.621	0.257	-0.028
-602.113	27.182	-0.074	-0.062
-601.098	-88.061	-0.095	0.028
-600.084	87.245	0.247	-0.272
-599.069	78.098	0.130	-0.138
-598.055	584.219	-0.025	0.062
-597.040	267.062	0.182	-0.317
-596.025	25.862	0.099	-0.082
-595.011	-89.460	-0.345	-0.101
-593.996	260.332	0.214	-0.370
-592.982	-200.000	-0.052	-0.307
-591.967	-200.000	0.039	-0.247
-590.952	-5.927	-0.047	0.032
-589.938	-33.271	-0.026	0.014
-588.923	49.228	-0.293	-0.274
-587.909	433.256	0.163	-0.354
-586.894	163.057	0.285	-0.400
-585.879	-141.961	0.287	-0.029
-584.865	-63.420	0.079	-0.033
-583.850	226.264	0.103	-0.166
-582.836	-200.000	-0.044	-0.197
-581.821	46.672	-0.130	0.120
-580.806	-146.919	-0.309	0.027
-579.792	-51.358	0.240	-0.112
-578.777	16.775	0.187	0.147
-577.763	406.578	-0.209	-0.439
-576.748	-74.805	-0.013	-0.005
-575.733	800.000	0.023	-0.093
-574.719	-46.652	-0.123	-0.060
-573.704	166.825	-0.103	0.146
-572.690	-4.292	0.282	0.195
-571.675	800.000	0.023	0.078
-570.661	-200.000	-0.010	0.066
-569.646	-96.041	-0.015	-0.004
-568.631	154.652	0.248	-0.340
-567.617	800.000	-0.058	-0.208
-566.602	-67.194	-0.122	-0.048
-565.588	-155.626	0.189	-0.012
-564.573	800.000	-0.029	0.084
-563.558	92.797	-0.149	0.167
-562.544	59.921	-0.078	-0.077
-561.529	225.644	0.140	-0.226
-560.515	-36.948	-0.076	0.040
-559.500	57.488	0.139	0.135
-558.485	-33.609	-0.054	-0.029
-557.471	48.115	0.086	0.080
-556.456	129.027	0.155	-0.197
-555.442	-79.066	0.172	0.058
-554.427	-116.252	-0.109	-0.020
-553.412	-200.000	-0.006	-0.164
-552.398	-23.569	0.236	-0.141
-551.383	-200.000	-0.024	0.192
-550.369	22.967	0.211	-0.173
-549.354	-116.445	-0.305	0.056
-548.339	-67.077	-0.076	-0.030
-547.325	161.111	-0.102	-0.143
-546.310	-74.538	0.193	0.069
-545.296	-200.000	0.038	-0.263
-544.281	-200.000	0.022	-0.263
-543.266	-61.207	0.102	-0.043
-542.252	-3.528	-0.142	-0.099
-541.237	-80.290	0.238	0.079
-540.223	81.703	-0.099	-0.107
-539.208	-200.000	0.010	0.053
-538.193	485.203	0.123	0.280
-537.179	-200.000	0.019	0.141
-536.164	59.687	-0.213	-0.209
-535.150	-60.813	-0.169	0.071
-534.135	-200.000	0.008	-0.102
-533.121	16.937	0.192	-0.152
-532.106	-200.000	-0.027	0.250
-531.091	2.762	0.231	-0.167
-530.077	-53.669	-0.136	0.062
-529.062	-200.000	-0.001	0.184
-528.048	-173.550	0.061	-0.002
-527.033	67.990	0.246	0.250
-526.018	-200.000	0.010	0.212
-525.004	7.743	-0.166	-0.124
-523.989	516.142	0.231	-0.537
-522.975	113.066	0.363	-0.437
-521.960	-171.899	-0.239	-0.008
-520.945	800.000	-0.054	0.198
-519.931	65.785	-0.137	-0.138
-518.916	88.015	0.095	0.105
-517.902	-200.000	-0.033	-0.143
-516.887	128.322	0.210	0.266
-515.872	329.008	-0.077	0.146
-514.858	-60.375	-0.069	-0.029
-513.843	73.872	0.011	0.011
-512.829	150.704	0.096	-0.130
-511.814	54.083	-0.051	0.049
-510.799	91.456	0.224	-0.250
-509.785	121.593	-0.157	0.194
-508.770	29.182	-0.208	-0.176
-507.756	-58.833	0.126	0.054
-506.741	-63.559	0.178	0.073
-505.726	347.972	0.078	-0.152
-504.712	-131.832	0.254	-0.033
-503.697	-159.913	0.386	0.021
-502.683	269.148	-0.085	-0.149
-501.668	-200.000	0.064	-0.456
-500.653	-65.489	0.281	0.112
-499.639	-113.491	0.101	-0.020
-498.624	800.000	-0.099	-0.272
-497.610	-49.227	0.006	0.003
-496.595	-6.541	-0.115	-0.078
-495.581	-147.177	0.192	0.016
-494.566	-200.000	-0.013	-0.083
-493.551	104.790	0.276	-0.323
-492.537	120.825	-0.070	0.087
-491.522	-41.023	-0.201	0.103
-490.508	472.783	0.069	0.155
-489.493	97.108	0.009	-0.011
-488.478	363.971	-0.132	0.265
-487.464	221.095	0.155	-0.247
-486.449	-140.093	0.222	0.023
-485.435	800.000	-0.041	0.154
-484.420	-173.298	-0.061	-0.002
-483.405	131.823	-0.278	-0.355
-482.391	800.000	-0.013	-0.058
-481.376	153.212	-0.210	0.285
-480.362	0.114	-0.074	0.052
-479.347	-200.000	0.020	-0.178
-478.332	170.924	0.086	0.123
-477.318	-8.053	-0.185	0.124
-476.303	-71.282	-0.157	0.059
-475.289	190.284	-0.107	-0.160
-474.274	2.038	-0.171	0.123
-473.259	-177.065	0.404	0.010
-472.245	44.223	-0.126	0.115
-471.230	159.677	0.091	0.126
-470.216	-55.747	0.070	0.031
-469.201	253.865	0.096	-0.163
-468.186	-123.408	-0.171	-0.027
-467.172	524.362	-0.129	-0.301
-466.157	769.555	-0.092	0.249
-465.143	180.587	-0.128	0.186
-464.128	-98.227	-0.201	-0.051
-463.113	-148.495	0.264	-0.021
-462.099	143.166	0.115	0.152
-461.084	-200.000	0.039	0.230
-460.070	-200.000	0.005	-0.033
-459.055	-64.500	0.184	0.074
-458.040	800.000	-0.079	-0.244
-457.026	-200.000	-0.012	0.119
-456.011	338.101	0.095	-0.183
-454.997	-79.245	0.488	-0.164
-453.982	-84.159	-0.132	-0.042
-452.968	800.000	0.164	0.616
-451.953	258.206	-0.185	0.317
-450.938	98.204	-0.075	0.086
-449.924	-128.036	0.183	-0.026
-448.909	-200.000	-0.002	-0.062
-447.895	800.000	0.041	0.144
-446.880	-200.000	0.027	0.158
-445.865	-118.761	0.377	0.066
-444.851	345.405	-0.088	0.172
-443.836	-165.329	0.165	-0.007
-442.822	-26.903	0.147	0.085
-441.807	78.365	-0.209	-0.221
-440.792	-37.958	-0.367	0.194
-439.778	-59.910	-0.125	0.053
-438.763	404.045	-0.018	0.038
-437.749	-106.508	-0.092	-0.020
-436.734	140.528	-0.185	0.243
-435.719	161.740	0.122	-0.170
-434.705	-200.000	-0.009	0.049
-433.690	-141.884	-0.136	0.013
-432.676	-87.385	0.324	0.097
-431.661	-72.847	0.247	0.090
-430.646	-17.704	-0.150	0.093
-429.632	-154.243	0.354	-0.024
-428.617	-200.000	-0.005	-0.165
-427.603	420.940	0.165	0.350
-426.588	-165.499	0.050	0.002
-425.573	-200.000	0.032	-0.220
-424.559	-83.553	0.347	-0.110
-423.544	191.946	0.196	0.292
-422.530	239.941	0.102	0.169
-421.515	-181.396	-0.248	0.005
-420.500	-200.000	0.046	-0.510
-419.486	800.000	-0.087	-0.247
-418.471	-200.000	-0.013	-0.190
-417.457	-136.888	-0.132	0.015
-416.442	-42.442	0.056	-0.028
-415.428	-83.229	-0.148	-0.047
-414.413	2.533	-0.221	0.159
-413.398	-200.000	0.025	-0.304
-412.384	476.616	0.051	-0.114
-411.369	258.712	-0.007	-0.012
-410.355	236.451	-0.030	-0.049
-409.340	-113.521	0.193	-0.038
-408.325	-200.000	0.014	0.174
-407.311	-84.700	-0.230	-0.072
-406.296	-200.000	-0.001	0.207
-405.282	800.000	0.019	0.054
-404.267	189.567	-0.089	-0.133
-403.252	800.000	-0.131	-0.507
-402.238	795.447	-0.018	-0.049
-401.223	-144.060	0.233	0.022
-400.209	800.000	0.074	0.209
-399.194	-200.000	-0.015	0.212
-398.179	-22.245	-0.291	0.175
-397.165	354.950	-0.146	0.288
-396.150	510.155	0.200	-0.461
-395.136	-74.594	0.181	0.064
-394.121	-20.459	0.183	0.112
-393.106	-94.518	0.233	0.063
-392.092	-200.000	-0.013	0.159
-391.077	-200.000	0.040	0.305
-390.063	800.000	0.066	-0.244
-389.048	-71.998	-0.143	0.053
-388.033	382.425	0.073	-0.149
-387.019	265.076	-0.102	-0.177
-386.004	580.353	0.087	-0.212
-384.990	-96.613	0.221	0.058
-383.975	-200.000	-0.033	0.271
-382.960	-86.956	-0.183	0.055
-381.946	-200.000	-0.003	0.254
-380.931	-18.703	0.067	0.042
-379.917	641.298	-0.114	0.286
-378.902	-51.488	0.126	0.058
-377.888	-59.091	-0.194	-0.083
-376.873	126.880	-0.238	0.298
-375.858	-36.193	0.218	0.116
-374.844	165.572	-0.209	-0.292
-373.829	-2.089	0.196	0.136
-372.815	-103.137	-0.313	-0.073
-371.800	196.916	0.042	0.063
-370.785	-186.038	0.250	-0.004
-369.771	62.262	-0.161	0.159
-368.756	186.507	0.197	-0.289
-367.742	-200.000	-0.047	-0.323
-366.727	101.803	-0.143	-0.166
-365.712	390.066	-0.189	0.388
-364.698	-19.145	-0.233	0.143
-363.683	-200.000	0.026	-0.289
-362.669	0.297	0.303	-0.214
-361.654	19.644	-0.220	0.175
-360.639	55.701	0.152	0.145
-359.625	82.221	-0.072	-0.077
-358.610	-200.000	-0.059	0.450
-357.596	-200.000	-0.022	-0.267
-356.581	-200.000	0.029	-0.138
-355.566	-92.028	-0.211	-0.059
-354.552	-107.053	-0.187	-0.041
-353.537	44.720	0.179	-0.163
-352.523	260.847	-0.103	0.177
-351.508	-144.823	0.055	-0.005
-350.493	394.630	-0.056	0.116
-349.479	-95.259	0.070	-0.019
-348.464	-12.137	0.020	-0.013
-347.450	-153.175	0.209	-0.014
-346.435	-8.175	0.034	0.023
-345.420	800.000	-0.073	0.229
-344.406	448.627	-0.086	-0.187
-343.391	116.084	0.012	0.015
-342.377	-200.000	-0.064	-0.388
-341.362	83.974	0.154	0.167
-340.348	-118.729	-0.299	0.052
-339.333	-92.564	0.319	0.088
-338.318	360.099	0.123	0.244
-337.304	-33.895	0.047	0.026
-336.289	800.000	0.012	-0.038
-335.275	-77.727	0.074	-0.025
-334.260	800.000	0.036	0.100
-333.245	607.122	-0.145	0.358
-332.231	800.000	-0.049	0.149
-331.216	-200.000	-0.012	0.293
-330.202	148.700	-0.199	0.266
-329.187	-32.889	0.165	-0.091
-328.172	-111.675	0.255	0.051
-327.158	116.831	-0.192	0.233
-326.143	87.681	0.124	0.136
-325.129	189.272	-0.171	-0.252
-324.114	385.314	-0.210	0.428
-323.099	-89.929	0.181	0.052
-322.085	310.622	-0.050	0.093
-321.070	-89.585	-0.284	0.082
-320.056	-119.908	-0.314	-0.053
-319.041	114.369	0.137	0.164
-318.026	37.190	0.125	0.109
-317.012	-127.337	0.093	-0.013
-315.997	-200.000	-0.002	0.125
-314.983	37.402	0.207	-0.181
-313.968	145.879	0.226	-0.299
-312.953	32.066	-0.188	-0.160
-311.939	84.708	0.166	0.179
-310.924	678.280	-0.049	-0.126
-309.910	800.000	0.054	0.172
-308.895	32.227	-0.171	0.146
-307.880	-200.000	0.023	0.199
-306.866	-67.559	0.202	-0.078
-305.851	714.609	-0.173	-0.452
-304.837	130.124	-0.114	0.144
-303.822	125.014	-0.108	0.134
-302.807	30.290	-0.211	0.178
-301.793	480.606	0.072	-0.162
-300.778	176.078	-0.110	-0.157
-299.764	-49.729	0.149	-0.070
-298.749	-200.000	0.064	-0.282
-297.735	-31.017	-0.148	0.082
-296.720	281.516	-0.207	0.366
-295.705	436.795	-0.106	0.227
-294.691	-120.039	0.442	0.075
-293.676	-104.368	-0.303	0.069
-292.662	97.475	-0.320	-0.362
-291.647	-42.003	0.251	0.127
-290.632	2.258	-0.127	0.091
-289.618	-200.000	0.041	0.280
-288.603	-34.086	-0.161	-0.087
-287.589	-174.928	0.105	-0.003
-286.574	800.000	-0.073	-0.246
-285.559	-13.617	-0.291	-0.186
-284.545	17.243	-0.115	-0.090
-283.530	-200.000	0.182	0.000
-282.516	112.460	0.037	0.044
-281.501	800.000	-0.079	0.291
-280.486	1.244	0.220	0.156
-279.472	504.744	-0.130	0.296
-278.457	-116.278	0.040	0.007
-277.443	26.144	0.305	-0.251
-276.428	78.490	-0.136	-0.144
-275.413	-184.489	0.042	-0.001
-274.399	179.869	-0.176	0.254
-273.384	800.000	-0.175	0.579
-272.370	-100.652	0.289	0.070
-271.355	-66.777	0.118	0.046
-270.340	37.705	0.335	-0.293
-269.326	-200.000	-0.022	-0.186
-268.311	56.741	-0.131	0.125
-267.297	-86.931	-0.300	0.090
-266.282	22.779	-0.247	0.199
-265.267	-11.259	-0.280	-0.181
-264.253	-57.686	-0.101	-0.043
-263.238	260.715	-0.126	0.215
-262.224	-200.000	0.013	0.349
-261.209	-47.461	-0.098	-0.047
-260.195	-74.711	-0.185	0.066
-259.180	-71.041	0.067	0.025
-258.165	-33.702	0.358	0.195
-257.151	-25.602	0.232	-0.135
-256.136	14.862	-0.229	0.176
-255.122	150.452	0.049	0.066
-254.107	-200.000	-0.004	0.174
-253.092	-40.722	-0.276	0.141
-252.078	-36.931	-0.279	-0.147
-251.063	-129.559	0.317	-0.043
-250.049	-66.823	0.193	-0.075
-249.034	-95.240	-0.293	-0.078
-248.019	800.000	0.143	-0.425
-247.005	302.388	-0.056	-0.102
-245.990	-200.000	-0.021	-0.258
-244.976	-200.000	0.010	0.065
-243.961	28.750	0.105	0.088
-242.946	-27.812	0.231	-0.132
-241.932	-93.788	-0.227	-0.062
-240.917	505.292	0.093	0.212
-239.903	-94.502	0.098	0.026
-238.888	588.992	-0.048	0.117
-237.873	113.092	0.057	-0.068
-236.859	-38.796	0.109	-0.057
-235.844	-16.379	0.033	0.020
-234.830	-200.000	-0.026	-0.132
-233.815	32.847	-0.026	-0.022
-232.800	-48.461	-0.220	-0.104
-231.786	-78.808	0.236	-0.079
-230.771	361.175	-0.117	0.231
-229.757	800.000	0.070	0.238
-228.742	-168.402	-0.234	-0.009
-227.727	-200.000	0.029	0.347
-226.713	800.000	0.071	0.285
-225.698	50.714	-0.092	0.086
-224.684	-5.013	-0.166	-0.113
-223.669	484.495	-0.066	-0.148
-222.655	800.000	0.054	0.214
-221.640	3.364	-0.214	-0.153
-220.625	800.000	-0.041	0.162
-219.611	-89.339	0.179	0.052
-218.596	30.774	0.115	-0.097
-217.582	131.245	-0.179	0.226
-216.567	-78.388	-0.279	-0.094
-215.552	-107.479	0.285	-0.061
-214.538	347.164	-0.077	-0.149
-213.523	13.502	0.132	0.101
-212.509	-200.000	-0.008	-0.217
-211.494	62.710	-0.280	0.275
-210.479	-26.917	-0.039	0.023
-209.465	50.996	0.338	0.315
-208.450	-52.331	0.148	0.067
-207.436	-200.000	-0.028	-0.223
-206.421	488.791	-0.068	-0.153
-205.406	800.000	-0.029	-0.122
-204.392	305.635	-0.224	-0.409
-203.377	139.580	0.104	-0.134
-202.363	127.656	-0.066	-0.083
-201.348	96.497	0.050	-0.056
-200.333	-99.705	0.196	-0.048
-199.319	17.450	0.159	-0.124
-198.304	106.041	-0.091	-0.106
-197.290	-154.987	-0.047	-0.003
-196.275	159.813	-0.048	0.065
-195.260	-12.665	0.219	0.141
-194.246	135.419	-0.206	0.263
-193.231	517.370	0.144	0.331
-192.217	-66.853	-0.147	-0.057
-191.202	162.364	0.130	0.179
-190.187	123.183	-0.143	-0.176
-189.173	84.849	-0.228	0.246
-188.158	800.000	0.140	0.429
-187.144	31.949	-0.011	-0.009
-186.129	-69.383	-0.229	0.086
-185.114	2.274	-0.338	0.240
-184.100	-116.190	0.286	0.052
-183.085	-200.000	0.043	-0.265
-182.071	4.316	-0.205	-0.147
-181.056	-200.000	-0.078	0.342
-180.042	-42.840	0.144	-0.072
-179.027	501.184	0.082	0.185
-178.012	674.753	0.096	0.246
-176.998	49.920	-0.068	0.063
-175.983	181.345	0.096	0.138
-174.969	-85.569	0.287	0.088
-173.954	32.326	-0.238	-0.202
-172.939	-153.277	-0.321	-0.022
-171.925	-15.234	0.086	-0.054
-170.910	-51.609	-0.104	0.048
-169.896	800.000	-0.022	0.061
-168.881	-59.514	0.365	0.154
-167.866	800.000	0.058	0.162
-166.852	-200.000	0.028	0.135
-165.837	-200.000	0.017	0.226
-164.823	800.000	0.096	-0.284
-163.808	7.501	-0.098	-0.072
-162.793	793.579	-0.046	-0.125
-161.779	641.687	0.091	-0.228
-160.764	104.093	0.138	0.159
-159.750	186.413	0.090	0.132
-158.735	-126.588	-0.106	0.015
-157.720	-19.901	-0.090	-0.054
-156.706	-72.253	-0.081	0.030
-155.691	156.792	-0.213	0.289
-154.677	-54.508	-0.377	-0.167
-153.662	800.000	0.060	-0.256
-152.647	293.292	0.165	0.295
-151.633	-88.468	0.371	-0.108
-150.618	-200.000	-0.049	0.280
-149.604	159.370	-0.040	0.054
-148.589	-200.000	-0.068	0.367
-147.574	-99.100	-0.348	0.087
-146.560	208.916	0.296	0.455
-145.545	305.971	0.207	-0.378
-144.531	800.000	-0.083	-0.255
-143.516	-200.000	-0.014	0.076
-142.502	-98.288	0.135	-0.034
-141.487	-200.000	-0.032	-0.335
-140.472	502.061	-0.093	0.212
-139.458	-200.000	-0.013	-0.293
-138.443	800.000	-0.154	0.453
-137.429	211.704	-0.205	0.317
-136.414	-190.347	-0.351	-0.004
-135.399	-119.209	-0.098	0.017
-134.385	35.401	-0.151	-0.130
-133.370	-21.427	0.158	0.095
-132.356	29.040	0.292	0.243
-131.341	92.236	0.006	0.007
-130.326	-21.275	0.200	-0.120
-129.312	2.461	-0.119	0.084
-128.297	-200.000	-0.017	0.181
-127.283	33.983	0.189	0.161
-126.268	-200.000	0.012	0.064
-125.253	105.130	0.187	-0.217
-124.239	-142.367	-0.195	0.019
-123.224	40.583	-0.210	0.185
-122.210	-6.933	0.152	-0.101
-121.195	272.747	0.224	0.387
-120.180	279.258	0.188	0.329
