DTS Sentinel unit serial number:	SN413079Multiplexer serial number:	ORYXHardware model number:	OX4-SRSoftware version number:	ORYX F/W v4.00 Oryx Data Collector v3.7.2.0data status	okinstallation	princeton_trtdifferential loss correction	single-endedforward channel	channel 1reverse channel	N/Adate	2019/09/15time	07:38:35forward acquisition time	60.00reverse acquisition time	0.00gamma	496.2192k internal	0.2325k external	0.2325temperature offset calibration	1.0004default loss term (dB/km)	0.3790temperature slope calibration	1.0000multiplexer offset coefficient	1.0000multiplexer slope coefficient	1.0000fibre end	0.00T internal ref (°C)	30.62T ext. ref 1 (°C)	4.99T ext. ref 2 (°C)	25.46length (m)	temperature (°C)	Stokes	anti-Stokes-747.200	-21.932	0.259	0.159
-746.185	79.728	0.120	-0.130
-745.171	-63.318	-0.145	-0.060
-744.156	-64.130	-0.194	-0.080
-743.142	612.382	-0.024	-0.061
-742.127	199.773	-0.215	0.333
-741.112	-104.780	-0.169	-0.039
-740.098	269.543	-0.140	0.247
-739.083	-66.397	0.118	0.047
-738.069	-170.249	-0.223	0.008
-737.054	800.000	-0.030	0.103
-736.039	-174.903	-0.574	0.016
-735.025	-200.000	0.051	0.313
-734.010	-47.667	0.234	0.115
-732.996	-12.872	0.080	-0.052
-731.981	800.000	-0.092	0.263
-730.966	208.676	-0.103	-0.163
-729.952	16.946	-0.127	0.101
-728.937	272.255	-0.196	0.349
-727.923	100.032	0.041	-0.048
-726.908	69.272	0.081	0.084
-725.894	-46.084	-0.132	-0.065
-724.879	786.907	-0.051	-0.142
-723.864	150.732	-0.039	-0.054
-722.850	61.858	-0.182	-0.183
-721.835	147.405	-0.080	-0.109
-720.821	273.470	-0.127	-0.226
-719.806	-24.761	0.383	-0.229
-718.791	209.700	0.023	0.036
-717.777	-200.000	-0.015	-0.240
-716.762	800.000	-0.041	-0.127
-715.748	34.392	0.105	0.092
-714.733	10.435	-0.101	-0.077
-713.718	179.063	0.124	-0.182
-712.704	-26.624	0.101	-0.059
-711.689	-13.462	-0.183	-0.119
-710.675	118.236	-0.350	-0.435
-709.660	-46.345	0.210	0.104
-708.645	-71.792	-0.238	-0.089
-707.631	-29.200	-0.149	0.086
-706.616	-24.800	0.188	0.113
-705.602	-128.720	-0.168	0.024
-704.587	800.000	0.096	-0.395
-703.572	-172.265	-0.357	-0.012
-702.558	-82.269	0.196	0.064
-701.543	-106.020	0.356	-0.081
-700.529	136.406	0.110	-0.145
-699.514	-91.382	-0.220	-0.063
-698.499	504.781	0.184	-0.429
-697.485	800.000	0.092	0.346
-696.470	-68.065	0.407	0.160
-695.456	348.171	0.100	-0.199
-694.441	-176.368	-0.217	-0.006
-693.426	800.000	-0.036	-0.137
-692.412	-129.666	0.046	-0.006
-691.397	-91.776	-0.258	0.074
-690.383	-200.000	0.093	0.424
-689.368	-200.000	-0.006	-0.126
-688.354	-154.200	0.088	-0.006
-687.339	-99.417	-0.293	-0.074
-686.324	309.599	-0.070	-0.132
-685.310	201.813	0.077	-0.120
-684.295	800.000	-0.080	0.293
-683.281	30.488	0.168	-0.144
-682.266	-200.000	0.030	0.207
-681.251	-200.000	0.062	0.338
-680.237	-165.010	0.118	0.005
-679.222	59.835	0.228	-0.227
-678.208	-42.112	0.121	-0.062
-677.193	-200.000	0.002	-0.143
-676.178	393.323	-0.223	-0.467
-675.164	-200.000	-0.029	-0.219
-674.149	-200.000	-0.010	-0.070
-673.135	134.907	0.225	-0.294
-672.120	687.727	-0.159	-0.418
-671.105	4.994	0.145	0.108
-670.091	-92.085	-0.391	-0.111
-669.076	655.961	-0.061	0.157
-668.062	-35.880	0.069	0.037
-667.047	24.479	-0.165	-0.137
-666.032	24.087	-0.165	0.137
-665.018	-200.000	-0.028	0.272
-664.003	265.128	-0.121	-0.212
-662.989	800.000	-0.079	0.277
-661.974	-91.319	-0.066	-0.019
-660.959	333.870	0.139	-0.271
-659.945	-76.403	-0.019	-0.007
-658.930	313.720	0.176	0.333
-657.916	54.921	0.147	0.142
-656.901	-200.000	-0.076	-0.363
-655.886	800.000	0.046	0.151
-654.872	-158.913	0.342	-0.020
-653.857	-161.014	0.217	-0.011
-652.843	37.333	0.194	-0.173
-651.828	172.594	-0.139	-0.201
-650.814	-178.581	0.214	0.005
-649.799	-53.724	-0.300	-0.138
-648.784	-200.000	-0.040	0.381
-647.770	410.526	0.122	0.260
-646.755	7.718	-0.119	-0.089
-645.741	110.164	-0.057	0.069
-644.726	143.036	0.064	0.086
-643.711	29.819	0.336	0.288
-642.697	-146.571	0.366	0.032
-641.682	-171.510	-0.339	-0.011
-640.668	-149.756	-0.168	0.013
-639.653	32.181	0.256	-0.222
-638.638	-64.930	-0.331	0.135
-637.624	49.557	-0.087	-0.082
-636.609	-60.729	-0.251	0.107
-635.595	-110.976	0.187	-0.039
-634.580	-78.873	0.318	0.109
-633.565	25.677	-0.082	0.068
-632.551	370.890	0.179	0.364
-631.536	46.727	0.045	-0.042
-630.522	-109.605	0.100	0.021
-629.507	22.815	0.264	0.218
-628.492	800.000	0.015	0.064
-627.478	145.848	0.151	0.204
-626.463	9.897	0.215	-0.164
-625.449	-200.000	-0.068	-0.423
-624.434	800.000	0.076	-0.291
-623.419	-47.151	-0.270	0.132
-622.405	-200.000	-0.002	-0.157
-621.390	-78.459	0.171	0.059
-620.376	-6.785	-0.109	-0.075
-619.361	-7.084	0.117	-0.079
-618.346	34.679	0.029	-0.025
-617.332	-35.847	-0.315	-0.171
-616.317	-77.160	0.201	0.070
-615.303	-57.155	0.125	0.055
-614.288	-200.000	-0.035	-0.363
-613.273	100.873	0.195	-0.228
-612.259	-80.100	0.138	0.047
-611.244	-66.247	-0.182	0.073
-610.230	75.961	0.154	0.164
-609.215	-200.000	-0.013	0.252
-608.201	-200.000	-0.021	0.228
-607.186	30.699	-0.166	0.143
-606.171	800.000	-0.120	-0.397
-605.157	-17.373	-0.345	0.218
-604.142	-157.833	0.443	-0.026
-603.128	-200.000	0.020	0.091
-602.113	-140.492	-0.385	0.040
-601.098	-103.107	0.198	-0.047
-600.084	-142.477	0.166	0.016
-599.069	-45.338	-0.544	-0.271
-598.055	-200.000	-0.046	-0.250
-597.040	115.470	0.055	0.068
-596.025	-83.749	-0.149	0.048
-595.011	-164.372	0.120	-0.006
-593.996	-200.000	-0.016	0.147
-592.982	800.000	0.058	0.189
-591.967	59.916	0.105	-0.104
-590.952	-120.348	-0.223	0.038
-589.938	-69.765	0.133	0.051
-588.923	-200.000	0.013	0.157
-587.909	-200.000	-0.012	-0.223
-586.894	-151.196	-0.140	0.011
-585.879	-0.939	0.192	-0.136
-584.865	800.000	0.095	-0.263
-583.850	103.104	-0.246	0.289
-582.836	145.970	0.170	-0.228
-581.821	-111.192	-0.388	-0.080
-580.806	-51.299	-0.119	0.056
-579.792	6.712	-0.227	-0.169
-578.777	-38.229	-0.085	0.045
-577.763	-34.660	0.095	-0.052
-576.748	93.261	-0.218	0.248
-575.733	-8.820	-0.075	0.051
-574.719	-161.085	-0.375	-0.020
-573.704	-4.203	-0.098	-0.068
-572.690	-53.797	0.076	0.035
-571.675	509.175	0.047	-0.109
-570.661	-200.000	0.011	-0.086
-569.646	800.000	0.047	-0.165
-568.631	800.000	-0.079	-0.265
-567.617	-138.927	-0.243	0.026
-566.602	-129.522	-0.364	-0.051
-565.588	9.922	-0.085	0.065
-564.573	310.496	-0.063	-0.118
-563.558	-44.789	0.178	0.089
-562.544	-89.580	-0.293	-0.086
-561.529	159.337	-0.266	0.371
-560.515	-5.011	-0.118	-0.081
-559.500	-59.880	-0.137	-0.059
-558.485	-200.000	-0.026	0.247
-557.471	-123.747	-0.162	0.026
-556.456	-45.056	-0.199	-0.099
-555.442	526.722	-0.098	-0.232
-554.427	122.690	-0.068	0.085
-553.412	-9.950	-0.258	0.172
-552.398	-117.355	-0.214	-0.039
-551.383	-200.000	0.019	-0.167
-550.369	82.156	0.029	-0.032
-549.354	-78.481	-0.186	0.064
-548.339	224.166	0.099	0.160
-547.325	162.550	-0.058	0.082
-546.310	-117.233	0.312	-0.057
-545.296	535.223	0.028	0.066
-544.281	544.292	-0.038	0.091
-543.266	-75.599	-0.053	0.019
-542.252	-28.545	0.192	0.111
-541.237	-69.564	-0.198	0.076
-540.223	-23.123	-0.111	0.067
-539.208	-14.478	0.130	0.084
-538.193	122.925	-0.148	-0.185
-537.179	-200.000	-0.008	0.136
-536.164	-27.761	0.072	0.042
-535.150	-126.868	0.161	0.024
-534.135	12.669	-0.137	-0.106
-533.121	-175.784	-0.401	0.011
-532.106	-109.051	-0.034	0.007
-531.091	-27.094	0.274	-0.160
-530.077	196.536	0.174	0.266
-529.062	16.623	0.148	-0.117
-528.048	20.418	0.171	0.138
-527.033	800.000	0.117	0.326
-526.018	-75.804	-0.197	-0.070
-525.004	-79.442	0.156	-0.053
-523.989	18.635	-0.243	0.195
-522.975	-58.070	0.191	0.083
-521.960	287.573	-0.103	-0.186
-520.945	-11.415	0.429	-0.283
-519.931	800.000	0.026	0.098
-518.916	-140.901	0.154	0.016
-517.902	-22.536	0.167	0.101
-516.887	-200.000	-0.023	-0.233
-515.872	56.195	-0.145	0.141
-514.858	-200.000	0.003	0.249
-513.843	-76.929	-0.054	0.019
-512.829	-168.057	-0.230	0.009
-511.814	93.560	-0.178	0.202
-510.799	800.000	-0.016	-0.070
-509.785	-200.000	-0.207	-0.000
-508.770	-200.000	0.042	0.226
-507.756	-93.180	0.174	-0.048
-506.741	-200.000	-0.026	0.288
-505.726	355.318	0.175	0.347
-504.712	-200.000	0.071	-0.339
-503.697	57.556	-0.241	-0.236
-502.683	800.000	0.040	-0.127
-501.668	216.306	-0.157	0.249
-500.653	-141.655	0.337	0.034
-499.639	-150.657	0.453	0.035
-498.624	-141.487	-0.283	-0.029
-497.610	-200.000	-0.011	-0.176
-496.595	-200.000	-0.072	-0.364
-495.581	-169.716	-0.209	0.008
-494.566	-55.268	-0.292	-0.131
-493.551	-94.734	0.196	0.053
-492.537	93.080	0.079	-0.089
-491.522	-200.000	0.092	-0.460
-490.508	-93.206	-0.009	-0.002
-489.493	-133.690	0.093	-0.012
-488.478	-200.000	-0.001	-0.124
-487.464	-125.315	-0.155	-0.024
-486.449	-73.191	-0.168	-0.062
-485.435	266.377	-0.116	-0.202
-484.420	-49.967	0.131	0.062
-483.405	-67.164	0.086	0.034
-482.391	145.844	0.047	-0.062
-481.376	16.148	0.260	-0.205
-480.362	-95.680	0.232	-0.062
-479.347	145.592	-0.106	-0.141
-478.332	-46.827	-0.218	-0.106
-477.318	800.000	-0.060	0.186
-476.303	-66.190	-0.168	0.067
-475.289	117.946	0.122	0.150
-474.274	-56.612	0.237	-0.105
-473.259	146.568	0.191	0.256
-472.245	594.403	0.035	-0.085
-471.230	-12.731	0.152	-0.099
-470.216	11.723	0.123	0.094
-469.201	44.621	-0.154	-0.142
-468.186	-200.000	0.050	0.300
-467.172	-200.000	0.026	0.136
-466.157	-77.228	-0.175	-0.061
-465.143	-200.000	-0.011	0.160
-464.128	-200.000	0.010	-0.049
-463.113	-129.109	-0.226	0.032
-462.099	-74.525	-0.123	-0.044
-461.084	103.180	0.080	-0.093
-460.070	90.915	-0.204	-0.229
-459.055	800.000	0.081	0.320
-458.040	-101.855	-0.156	-0.038
-457.026	-200.000	0.005	-0.162
-456.011	11.070	0.230	0.176
-454.997	-200.000	-0.006	0.112
-453.982	52.350	0.122	-0.116
-452.968	-72.292	-0.162	0.060
-451.953	-46.454	0.188	-0.092
-450.938	-200.000	-0.006	-0.161
-449.924	-44.737	0.258	0.128
-448.909	-200.000	-0.026	-0.559
-447.895	-64.802	-0.340	0.137
-446.880	612.993	-0.044	0.109
-445.865	45.983	-0.047	0.044
-444.851	800.000	0.079	0.342
-443.836	219.321	-0.079	-0.126
-442.822	-200.000	-0.048	-0.294
-441.807	-200.000	0.012	-0.102
-440.792	559.885	-0.015	0.037
-439.778	136.108	0.066	-0.085
-438.763	89.329	0.089	0.098
-437.749	241.956	0.241	-0.402
-436.734	-91.653	-0.222	0.063
-435.719	-200.000	0.006	0.146
-434.705	-200.000	0.010	0.068
-433.690	46.441	0.211	0.195
-432.676	47.738	-0.156	0.145
-431.661	1.887	-0.157	0.113
-430.646	-28.772	0.276	0.158
-429.632	-81.318	0.261	-0.086
-428.617	84.421	-0.105	-0.114
-427.603	-50.441	-0.101	0.048
-426.588	-200.000	-0.009	0.049
-425.573	299.910	-0.095	0.175
-424.559	-82.784	0.294	0.095
-423.544	-194.297	0.246	0.002
-422.530	427.705	0.091	-0.196
-421.515	800.000	0.045	0.152
-420.500	433.931	0.047	0.102
-419.486	-7.708	-0.137	0.092
-418.471	354.300	0.109	0.216
-417.457	-117.987	0.323	0.058
-416.442	-33.648	0.103	0.057
-415.428	558.951	0.117	-0.281
-414.413	57.207	0.170	-0.165
-413.398	-200.000	0.028	0.203
-412.384	-72.628	-0.072	0.026
-411.369	165.049	-0.094	0.132
-410.355	318.931	0.111	0.210
-409.340	-105.180	-0.088	-0.020
-408.325	409.479	-0.021	-0.045
-407.311	-46.876	-0.291	0.142
-406.296	-75.865	-0.078	0.027
-405.282	242.679	0.141	-0.236
-404.267	-32.971	-0.398	0.220
-403.252	197.885	0.017	-0.026
-402.238	0.087	-0.145	0.103
-401.223	554.383	0.117	0.280
-400.209	-152.490	-0.090	-0.006
-399.194	-68.060	-0.220	0.085
-398.179	64.897	0.100	0.100
-397.165	12.875	0.131	-0.101
-396.150	800.000	0.025	-0.083
-395.136	317.581	0.070	0.131
-394.121	16.524	0.124	0.098
-393.106	95.243	0.253	-0.287
-392.092	800.000	0.025	0.076
-391.077	-41.812	-0.119	0.061
-390.063	191.316	0.106	-0.159
-389.048	235.408	0.046	0.076
-388.033	800.000	0.096	-0.297
-387.019	375.080	0.096	0.195
-386.004	-200.000	-0.123	0.000
-384.990	353.562	-0.141	0.278
-383.975	-200.000	0.042	0.202
-382.960	800.000	-0.029	0.089
-381.946	195.757	0.191	0.289
-380.931	-56.379	-0.230	0.102
-379.917	410.198	0.059	0.124
-378.902	621.150	-0.089	0.221
-377.888	-5.551	0.112	0.076
-376.873	-53.313	-0.143	-0.065
-375.858	-146.068	-0.161	-0.014
-374.844	559.512	-0.075	0.179
-373.829	467.602	-0.074	0.166
-372.815	-48.502	0.147	0.070
-371.800	-200.000	-0.019	0.107
-370.785	175.116	-0.261	-0.376
-369.771	57.655	0.118	-0.115
-368.756	637.529	-0.147	0.372
-367.742	-200.000	-0.020	-0.128
-366.727	117.472	-0.112	0.137
-365.712	-50.290	-0.388	-0.182
-364.698	24.328	0.157	-0.129
-363.683	169.065	-0.079	0.112
-362.669	-158.688	0.287	0.016
-361.654	800.000	0.093	-0.320
-360.639	-66.433	-0.124	0.049
-359.625	-94.043	0.065	0.018
-358.610	248.135	-0.060	0.101
-357.596	182.532	0.110	0.161
-356.581	438.163	0.052	0.113
-355.566	-99.714	0.228	-0.057
-354.552	298.103	0.115	-0.210
-353.537	-68.659	-0.216	0.083
-352.523	800.000	0.041	-0.152
-351.508	117.637	0.053	-0.065
-350.493	0.732	0.128	0.091
-349.479	-57.256	0.301	-0.132
-348.464	-170.282	0.036	0.001
-347.450	-55.862	-0.162	-0.072
-346.435	800.000	-0.077	-0.304
-345.420	205.609	0.078	-0.121
-344.406	199.283	0.146	-0.223
-343.391	411.286	0.032	-0.068
-342.377	800.000	-0.065	-0.280
-341.362	80.620	0.105	-0.113
-340.348	-64.889	0.366	0.147
-339.333	-120.724	0.363	-0.061
-338.318	184.436	-0.122	0.180
-337.304	-107.227	0.232	-0.051
-336.289	33.153	-0.341	-0.293
-335.275	194.657	-0.073	0.110
-334.260	800.000	-0.107	-0.320
-333.245	20.266	0.046	-0.037
-332.231	121.671	-0.163	-0.201
-331.216	800.000	0.030	-0.124
-330.202	800.000	0.072	-0.214
-329.187	3.340	0.095	0.068
-328.172	-200.000	-0.022	0.124
-327.158	-118.134	0.279	-0.049
-326.143	-200.000	-0.018	0.202
-325.129	55.900	-0.164	0.158
-324.114	-77.051	-0.228	-0.079
-323.099	105.175	-0.195	0.228
-322.085	-200.000	0.002	-0.150
-321.070	-200.000	0.035	-0.220
-320.056	93.487	0.212	0.238
-319.041	541.307	0.097	-0.230
-318.026	-152.763	0.315	-0.022
-317.012	-200.000	0.003	-0.081
-315.997	157.918	0.244	-0.335
-314.983	-96.985	-0.094	-0.024
-313.968	148.111	0.085	-0.114
-312.953	-158.386	0.190	0.011
-311.939	-200.000	0.030	0.144
-310.924	800.000	-0.067	0.249
-309.910	-165.341	0.403	0.018
-308.895	-180.049	0.365	0.008
-307.880	96.946	-0.149	-0.169
-306.866	-200.000	0.039	0.255
-305.851	-171.969	-0.372	-0.012
-304.837	1.854	-0.254	-0.182
-303.822	42.465	0.230	-0.208
-302.807	-88.434	-0.260	-0.077
-301.793	554.703	-0.016	-0.039
-300.778	303.860	-0.130	-0.239
-299.764	-87.741	0.201	-0.060
-298.749	-135.646	0.103	-0.012
-297.735	127.511	0.139	0.175
-296.720	173.286	0.193	0.276
-295.705	800.000	0.077	-0.244
-294.691	214.591	-0.013	0.020
-293.676	-200.000	0.021	0.148
-292.662	-200.000	0.028	-0.180
-291.647	28.846	0.339	-0.285
-290.632	225.478	0.144	0.232
-289.618	-79.997	-0.338	0.112
-288.603	-45.951	0.242	0.118
-287.589	-200.000	-0.013	0.096
-286.574	7.799	0.166	-0.123
-285.559	21.161	0.147	-0.118
-284.545	-45.141	-0.453	0.223
-283.530	507.786	-0.123	-0.282
-282.516	800.000	0.108	-0.323
-281.501	-101.638	-0.100	-0.024
-280.486	223.179	0.199	0.319
-279.472	-5.298	-0.125	-0.085
-278.457	-29.651	-0.177	-0.100
-277.443	-46.999	-0.104	-0.050
-276.428	-13.399	-0.164	-0.106
-275.413	83.889	0.042	0.046
-274.399	177.781	0.166	-0.240
-273.384	22.615	-0.217	-0.176
-272.370	-115.597	-0.187	-0.035
-271.355	196.616	-0.115	-0.173
-270.340	164.998	0.179	0.250
-269.326	-200.000	0.023	0.241
-268.311	-70.128	-0.353	0.133
-267.297	800.000	-0.050	0.153
-266.282	684.500	0.066	-0.172
-265.267	43.175	0.097	-0.087
-264.253	800.000	0.037	-0.161
-263.238	-100.173	-0.096	0.024
-262.224	-200.000	0.039	-0.174
-261.209	679.872	-0.018	-0.046
-260.195	-111.316	0.402	0.081
-259.180	-78.433	0.346	-0.117
-258.165	-102.491	0.347	0.082
-257.151	-200.000	-0.019	0.245
-256.136	601.784	0.064	-0.157
-255.122	-51.781	0.150	0.069
-254.107	102.438	0.219	-0.253
-253.092	328.653	-0.116	0.220
-252.078	214.303	0.044	-0.069
-251.063	-153.708	0.038	0.003
-250.049	-200.000	0.034	-0.200
-249.034	-51.729	-0.110	-0.051
-248.019	-114.475	0.107	0.020
-247.005	25.307	-0.303	-0.249
-245.990	-4.094	-0.062	0.042
-244.976	-122.326	0.212	0.034
-243.961	-167.964	-0.369	-0.014
-242.946	-92.369	-0.079	-0.022
-241.932	100.570	-0.232	-0.267
-240.917	556.788	-0.150	-0.357
-239.903	-122.000	-0.038	0.006
-238.888	-110.710	-0.205	0.042
-237.873	-42.016	-0.145	-0.074
-236.859	-68.183	-0.139	-0.053
-235.844	-40.456	0.210	-0.108
-234.830	9.063	-0.187	-0.140
-233.815	-200.000	-0.061	-0.660
-232.800	37.057	-0.042	-0.037
-231.786	-200.000	-0.057	0.285
-230.771	-110.493	-0.200	-0.041
-229.757	254.043	-0.038	-0.063
-228.742	591.619	-0.058	-0.143
-227.727	-135.656	-0.147	-0.017
-226.713	-20.272	-0.353	-0.215
-225.698	101.765	-0.135	-0.156
-224.684	-20.207	-0.084	0.051
-223.669	-63.627	-0.440	0.178
-222.655	-200.000	0.004	-0.049
-221.640	-200.000	0.005	0.055
-220.625	0.906	-0.269	-0.190
-219.611	800.000	-0.076	-0.221
-218.596	86.576	-0.098	0.107
-217.582	65.333	0.145	-0.145
-216.567	-200.000	-0.009	0.057
-215.552	-104.796	0.099	0.022
-214.538	800.000	-0.038	0.161
-213.523	-136.268	-0.141	-0.016
-212.509	79.787	0.198	0.211
-211.494	800.000	0.061	-0.180
-210.479	-200.000	0.018	-0.099
-209.465	-124.289	0.152	0.023
-208.450	-144.949	-0.269	0.024
-207.436	-184.537	0.202	0.003
-206.421	-25.607	0.440	0.257
-205.406	-200.000	-0.035	0.390
-204.392	10.244	0.120	-0.091
-203.377	-9.702	0.052	-0.034
-202.363	-200.000	-0.048	0.325
-201.348	800.000	0.033	-0.106
-200.333	-167.637	0.104	0.004
-199.319	-200.000	-0.074	0.347
-198.304	227.233	0.063	0.101
-197.290	113.016	-0.022	-0.027
-196.275	-28.806	-0.153	0.087
-195.260	-200.000	0.034	-0.187
-194.246	800.000	0.060	0.220
-193.231	-200.000	-0.020	0.221
-192.217	70.482	-0.195	-0.199
-191.202	180.201	0.166	-0.240
-190.187	-48.234	-0.141	-0.067
-189.173	45.514	0.201	0.184
-188.158	-187.156	0.216	-0.003
-187.144	800.000	-0.063	-0.216
-186.129	-13.895	-0.457	0.291
-185.114	-121.009	-0.180	-0.030
-184.100	-75.364	0.112	0.039
-183.085	54.209	0.251	0.239
-182.071	-200.000	-0.018	-0.126
-181.056	-14.250	0.133	0.084
-180.042	45.336	0.084	0.077
-179.027	-147.765	-0.321	0.027
-178.012	-200.000	0.042	0.331
-176.998	-46.085	-0.212	0.103
-175.983	622.058	-0.136	0.339
-174.969	-42.944	0.173	0.087
-173.954	176.871	0.170	0.244
-172.939	-61.612	-0.276	0.114
-171.925	-200.000	-0.032	0.142
-170.910	-63.587	0.177	0.072
-169.896	-200.000	-0.004	0.222
-168.881	55.089	0.367	-0.350
-167.866	581.016	-0.028	0.067
-166.852	-69.460	0.069	-0.026
-165.837	148.154	0.060	-0.080
-164.823	-125.445	-0.265	-0.040
-163.808	91.229	0.231	0.256
-162.793	-200.000	0.006	-0.087
-161.779	-118.063	0.299	-0.053
-160.764	-45.831	0.120	-0.059
-159.750	-47.083	-0.096	0.046
-158.735	231.191	-0.064	-0.103
-157.720	-165.611	0.352	0.015
-156.706	-97.143	0.243	-0.063
-155.691	-59.257	0.097	0.041
-154.677	-200.000	-0.045	0.331
-153.662	-67.822	0.141	-0.054
-152.647	41.584	0.125	-0.112
-151.633	198.640	-0.094	-0.141
-150.618	800.000	0.061	0.206
-149.604	254.285	0.115	0.195
-148.589	-123.677	0.201	-0.031
-147.574	80.556	-0.212	-0.225
-146.560	335.765	0.039	0.074
-145.545	70.874	-0.159	0.163
-144.531	9.275	-0.256	0.191
-143.516	-21.711	0.342	0.205
-142.502	-140.916	0.138	-0.014
-141.487	-92.683	0.213	0.059
-140.472	-76.768	0.145	-0.050
-139.458	800.000	0.124	0.457
-138.443	302.741	0.060	0.109
-137.429	-121.674	0.344	0.056
-136.414	-49.815	0.295	-0.138
-135.399	-152.876	-0.163	-0.011
-134.385	70.127	-0.103	0.105
-133.370	-123.733	0.212	0.033
-132.356	-200.000	-0.011	0.075
-131.341	21.638	-0.225	-0.181
-130.326	-143.747	0.324	0.030
-129.312	-200.000	-0.087	0.422
-128.297	-200.000	0.017	0.176
-127.283	-146.956	-0.300	-0.025
-126.268	300.413	0.065	-0.119
-125.253	328.298	-0.118	-0.223
-124.239	-200.000	0.010	0.146
-123.224	234.345	0.039	0.064
-122.210	800.000	-0.038	-0.106
-121.195	-200.000	0.005	-0.052
