DTS Sentinel unit serial number:	SN413079Multiplexer serial number:	ORYXHardware model number:	OX4-SRSoftware version number:	ORYX F/W v4.00 Oryx Data Collector v3.7.2.0data status	okinstallation	princeton_trtdifferential loss correction	single-endedforward channel	channel 1reverse channel	N/Adate	2019/09/18time	04:50:35forward acquisition time	60.00reverse acquisition time	0.00gamma	496.2192k internal	0.2339k external	0.2339temperature offset calibration	0.9976default loss term (dB/km)	0.3790temperature slope calibration	1.0000multiplexer offset coefficient	1.0000multiplexer slope coefficient	1.0000fibre end	0.00T internal ref (°C)	23.44T ext. ref 1 (°C)	0.19T ext. ref 2 (°C)	17.95length (m)	temperature (°C)	Stokes	anti-Stokes-747.200	37.681	-0.225	-0.200
-746.185	-200.000	-0.031	0.216
-745.171	103.081	-0.233	0.274
-744.156	-36.222	0.214	0.116
-743.142	-82.678	-0.083	-0.027
-742.127	177.340	-0.056	0.081
-741.112	715.674	0.024	-0.064
-740.098	800.000	-0.105	0.298
-739.083	39.673	-0.039	0.035
-738.069	-122.482	-0.438	-0.071
-737.054	8.367	-0.116	0.088
-736.039	800.000	0.057	-0.216
-735.025	41.292	0.381	0.346
-734.010	-200.000	0.038	-0.404
-732.996	-42.672	-0.165	0.084
-731.981	-200.000	-0.039	-0.260
-730.966	261.789	0.105	-0.182
-729.952	116.916	-0.184	-0.226
-728.937	-200.000	-0.013	0.383
-727.923	-200.000	0.012	-0.126
-726.908	-200.000	-0.020	-0.096
-725.894	-64.729	0.296	0.120
-724.879	130.467	-0.098	0.126
-723.864	83.717	0.094	0.102
-722.850	-129.596	-0.127	0.018
-721.835	-200.000	-0.068	0.408
-720.821	140.122	-0.092	-0.121
-719.806	123.826	-0.133	-0.168
-718.791	41.232	0.084	0.077
-717.777	11.811	-0.273	-0.210
-716.762	-78.563	-0.357	0.122
-715.748	800.000	-0.055	0.159
-714.733	-200.000	0.003	-0.015
-713.718	-200.000	0.022	-0.192
-712.704	-122.893	-0.310	-0.050
-711.689	-200.000	0.007	0.307
-710.675	-3.649	-0.201	0.140
-709.660	117.887	0.179	0.221
-708.645	191.075	0.065	-0.098
-707.631	800.000	0.069	0.197
-706.616	-200.000	-0.003	0.036
-705.602	142.836	0.160	-0.213
-704.587	-24.121	-0.109	0.065
-703.572	800.000	0.075	0.220
-702.558	-106.345	0.211	-0.047
-701.543	67.865	0.043	0.044
-700.529	-200.000	-0.002	0.033
-699.514	65.440	-0.042	0.043
-698.499	800.000	-0.067	-0.289
-697.485	437.918	-0.070	0.153
-696.470	47.811	-0.243	-0.227
-695.456	1.624	-0.191	-0.138
-694.441	112.882	0.055	-0.066
-693.426	-11.235	-0.018	0.012
-692.412	22.544	-0.095	0.078
-691.397	-5.650	0.337	-0.231
-690.383	-69.134	-0.091	-0.035
-689.368	-101.425	-0.040	-0.010
-688.354	-200.000	-0.005	-0.226
-687.339	1.197	0.080	0.057
-686.324	-200.000	0.039	-0.301
-685.310	54.165	0.289	0.278
-684.295	123.918	0.066	0.082
-683.281	-137.875	-0.186	-0.021
-682.266	167.236	0.128	-0.181
-681.251	4.884	-0.207	-0.153
-680.237	-65.287	-0.112	-0.045
-679.222	-1.697	-0.087	0.061
-678.208	-21.932	-0.130	0.079
-677.193	-129.165	-0.126	0.018
-676.178	-100.386	0.086	-0.021
-675.164	-200.000	-0.010	-0.166
-674.149	208.043	-0.094	-0.147
-673.135	277.763	0.053	0.094
-672.120	-151.374	0.190	0.014
-671.105	-134.982	-0.194	0.023
-670.091	-108.368	-0.209	0.045
-669.076	-200.000	-0.020	0.147
-668.062	-134.297	0.173	-0.021
-667.047	-115.199	0.219	0.042
-666.032	22.075	0.089	-0.073
-665.018	-147.910	0.331	-0.028
-664.003	-101.903	0.301	-0.073
-662.989	621.271	0.115	-0.289
-661.974	43.202	-0.130	0.119
-660.959	181.833	-0.109	-0.160
-659.945	-71.559	-0.153	-0.057
-658.930	4.009	0.223	0.163
-657.916	96.962	0.078	0.089
-656.901	-46.157	-0.169	-0.083
-655.886	-69.708	-0.173	-0.066
-654.872	-200.000	-0.049	0.391
-653.857	17.191	0.104	-0.083
-652.843	110.128	-0.216	0.259
-651.828	800.000	-0.047	-0.168
-650.814	-121.512	0.129	-0.021
-649.799	-29.049	0.348	-0.199
-648.784	800.000	0.034	0.094
-647.770	143.276	0.195	-0.259
-646.755	510.710	-0.018	-0.041
-645.741	-200.000	0.024	0.231
-644.726	800.000	-0.067	0.275
-643.711	-43.272	0.056	-0.028
-642.697	-200.000	-0.010	-0.216
-641.682	50.691	-0.059	-0.056
-640.668	21.044	0.096	0.077
-639.653	-6.876	-0.089	0.060
-638.638	-59.919	0.262	-0.112
-637.624	103.261	0.111	0.130
-636.609	-135.635	-0.185	-0.022
-635.595	800.000	0.059	-0.209
-634.580	172.462	-0.178	0.256
-633.565	800.000	-0.081	0.253
-632.551	-200.000	0.044	-0.381
-631.536	-52.084	-0.137	0.064
-630.522	60.586	-0.141	0.140
-629.507	-11.509	-0.368	0.242
-628.492	251.691	-0.128	-0.218
-627.478	179.200	0.264	0.385
-626.463	438.538	-0.052	-0.112
-625.449	800.000	0.100	-0.393
-624.434	-200.000	-0.012	0.282
-623.419	-200.000	0.025	0.184
-622.405	800.000	0.035	0.100
-621.390	346.808	0.161	-0.317
-620.376	-33.489	0.088	-0.049
-619.361	-196.069	0.157	0.001
-618.346	-40.828	-0.178	-0.092
-617.332	-9.234	-0.143	-0.095
-616.317	-146.337	0.270	-0.024
-615.303	-125.475	0.484	0.074
-614.288	800.000	-0.088	-0.280
-613.273	800.000	0.075	-0.214
-612.259	33.146	-0.191	-0.165
-611.244	6.618	-0.449	-0.333
-610.230	221.682	0.072	0.115
-609.215	-155.921	0.165	0.010
-608.201	148.114	0.060	-0.080
-607.186	-2.650	0.203	0.142
-606.171	-200.000	-0.015	0.068
-605.157	374.007	-0.085	-0.172
-604.142	-200.000	0.047	-0.450
-603.128	-46.213	0.096	-0.047
-602.113	521.965	0.051	-0.119
-601.098	-133.574	0.307	0.038
-600.084	152.882	0.129	0.175
-599.069	349.772	0.093	0.183
-598.055	-56.461	-0.373	0.165
-597.040	741.211	0.037	0.100
-596.025	-200.000	-0.048	0.227
-595.011	281.688	-0.124	-0.222
-593.996	800.000	0.105	0.297
-592.982	-200.000	-0.020	0.301
-591.967	-131.306	0.353	0.047
-590.952	234.471	0.056	-0.093
-589.938	-82.963	0.245	0.079
-588.923	-55.157	-0.089	-0.040
-587.909	87.532	-0.095	-0.104
-586.894	-200.000	0.027	-0.330
-585.879	-39.270	0.197	-0.103
-584.865	-200.000	0.032	0.267
-583.850	-61.440	0.330	0.138
-582.836	-200.000	-0.003	-0.433
-581.821	-103.903	0.175	-0.041
-580.806	-200.000	0.015	-0.170
-579.792	488.179	0.024	-0.055
-578.777	-135.046	-0.132	-0.016
-577.763	-200.000	0.162	-0.000
-576.748	-200.000	-0.006	0.036
-575.733	89.211	-0.012	0.013
-574.719	-23.123	0.113	0.068
-573.704	428.732	-0.096	0.206
-572.690	-102.799	0.232	0.055
-571.675	-83.268	0.239	-0.077
-570.661	-49.521	0.140	-0.066
-569.646	-200.000	0.033	-0.285
-568.631	137.662	0.052	0.068
-567.617	800.000	-0.078	-0.296
-566.602	296.874	-0.245	-0.448
-565.588	-68.771	-0.182	0.070
-564.573	-156.435	0.238	-0.015
-563.558	-10.207	0.048	0.032
-562.544	-152.291	0.218	0.016
-561.529	-48.476	-0.199	0.096
-560.515	-200.000	-0.007	0.049
-559.500	206.494	0.127	0.197
-558.485	-76.420	-0.142	-0.050
-557.471	-137.136	-0.296	0.034
-556.456	-200.000	0.026	0.200
-555.442	-121.840	0.336	0.055
-554.427	155.568	-0.181	-0.248
-553.412	-78.469	-0.291	-0.099
-552.398	11.607	0.166	-0.127
-551.383	-104.089	-0.097	0.022
-550.369	92.440	0.148	-0.167
-549.354	-22.198	0.351	-0.212
-548.339	800.000	-0.011	0.041
-547.325	800.000	-0.080	-0.257
-546.310	61.122	-0.326	-0.323
-545.296	-200.000	-0.007	-0.224
-544.281	800.000	0.041	-0.121
-543.266	-29.941	-0.407	0.231
-542.252	-42.687	0.212	-0.107
-541.237	-42.544	0.198	0.101
-540.223	800.000	0.012	0.049
-539.208	-200.000	0.013	-0.145
-538.193	-80.381	0.132	0.044
-537.179	-200.000	0.015	0.182
-536.164	322.016	-0.060	-0.113
-535.150	800.000	0.074	0.298
-534.135	-106.598	0.169	-0.037
-533.121	-67.210	-0.317	-0.124
-532.106	147.577	-0.305	-0.409
-531.091	-186.535	0.295	-0.004
-530.077	270.682	0.108	-0.190
-529.062	-157.151	-0.133	-0.008
-528.048	800.000	-0.027	-0.098
-527.033	-200.000	-0.029	0.184
-526.018	800.000	0.030	0.117
-525.004	197.585	-0.092	-0.139
-523.989	-200.000	0.043	-0.226
-522.975	-3.848	0.090	0.062
-521.960	-200.000	0.007	-0.096
-520.945	377.650	0.050	0.101
-519.931	800.000	-0.074	0.205
-518.916	75.584	-0.204	0.214
-517.902	315.233	-0.133	0.250
-516.887	-156.387	0.186	0.012
-515.872	326.810	0.090	0.171
-514.858	352.197	-0.180	0.354
-513.843	256.109	-0.187	-0.319
-512.829	800.000	-0.030	0.094
-511.814	361.650	-0.078	-0.155
-510.799	35.513	-0.058	0.051
-509.785	-14.019	-0.100	-0.064
-508.770	-200.000	-0.030	0.190
-507.756	415.099	-0.018	-0.039
-506.741	144.034	0.105	-0.139
-505.726	127.098	-0.147	0.186
-504.712	205.717	0.068	-0.106
-503.697	-156.944	0.158	-0.010
-502.683	-200.000	-0.010	-0.111
-501.668	-200.000	0.028	0.251
-500.653	553.077	-0.178	-0.426
-499.639	-55.864	-0.364	0.161
-498.624	128.468	-0.231	0.293
-497.610	16.104	-0.286	-0.224
-496.595	-61.160	-0.431	-0.180
-495.581	186.026	0.208	-0.307
-494.566	58.481	-0.348	-0.339
-493.551	44.529	0.167	-0.153
-492.537	-109.779	0.349	-0.073
-491.522	526.478	0.109	0.256
-490.508	-155.975	-0.139	-0.009
-489.493	800.000	0.076	0.260
-488.478	-200.000	-0.006	0.209
-487.464	103.814	-0.203	0.236
-486.449	-148.334	-0.160	0.013
-485.435	475.398	0.063	0.141
-484.420	-44.783	-0.220	-0.109
-483.405	-1.335	0.161	-0.113
-482.391	-121.753	0.147	-0.024
-481.376	-200.000	0.024	0.148
-480.362	-13.451	-0.262	-0.169
-479.347	-29.169	0.109	-0.062
-478.332	800.000	-0.060	0.173
-477.318	139.557	0.229	0.299
-476.303	146.825	0.197	-0.262
-475.289	7.390	0.250	-0.185
-474.274	-200.000	-0.027	-0.250
-473.259	-166.780	0.176	-0.007
-472.245	-97.999	0.175	-0.045
-471.230	800.000	0.103	0.407
-470.216	481.811	0.090	0.203
-469.201	-74.971	0.204	-0.073
-468.186	126.244	0.062	-0.078
-467.172	94.010	-0.082	-0.093
-466.157	800.000	-0.025	-0.075
-465.143	-183.246	0.268	0.005
-464.128	-54.852	-0.277	0.124
-463.113	470.811	0.088	-0.196
-462.099	-200.000	0.004	-0.138
-461.084	330.880	0.029	0.056
-460.070	-200.000	0.029	-0.214
-459.055	304.716	-0.076	-0.141
-458.040	-37.796	0.052	-0.027
-457.026	142.180	0.093	0.122
-456.011	-200.000	0.019	0.112
-454.997	-133.905	-0.197	0.024
-453.982	190.474	0.111	-0.165
-452.968	16.904	-0.020	0.016
-451.953	52.102	-0.327	-0.309
-450.938	272.350	-0.079	0.139
-449.924	800.000	-0.095	-0.338
-448.909	-38.573	0.087	-0.046
-447.895	220.757	-0.078	-0.124
-446.880	-200.000	0.005	-0.210
-445.865	225.475	-0.036	-0.057
-444.851	328.858	-0.289	0.551
-443.836	-200.000	0.009	-0.075
-442.822	-123.589	0.089	-0.014
-441.807	-187.355	0.054	0.001
-440.792	-36.175	0.376	0.201
-439.778	358.350	0.153	0.302
-438.763	-200.000	-0.005	-0.054
-437.749	-200.000	0.018	0.182
-436.734	-151.053	-0.288	-0.021
-435.719	98.082	0.135	0.154
-434.705	7.112	0.253	0.187
-433.690	-200.000	-0.030	-0.263
-432.676	-200.000	-0.008	-0.202
-431.661	800.000	-0.011	0.047
-430.646	-140.576	-0.077	-0.008
-429.632	-137.776	-0.378	0.042
-428.617	-27.476	0.204	-0.118
-427.603	-117.638	-0.131	0.023
-426.588	-200.000	0.019	-0.268
-425.573	800.000	0.037	-0.148
-424.559	-63.112	0.202	-0.082
-423.544	-7.764	-0.312	0.209
-422.530	-23.381	-0.302	0.180
-421.515	10.363	0.171	0.129
-420.500	72.212	-0.139	-0.143
-419.486	-200.000	-0.020	-0.207
-418.471	-152.938	0.529	0.037
-417.457	-128.349	-0.229	-0.032
-416.442	-44.648	-0.309	0.153
-415.428	-200.000	0.056	-0.376
-414.413	102.725	-0.227	-0.263
-413.398	11.583	0.159	-0.121
-412.384	-132.923	-0.382	-0.048
-411.369	-200.000	0.029	-0.225
-410.355	-200.000	-0.044	0.242
-409.340	-83.187	0.139	0.044
-408.325	81.350	-0.147	0.157
-407.311	-45.399	0.211	-0.104
-406.296	-171.504	-0.286	0.009
-405.282	-10.867	-0.238	-0.155
-404.267	610.279	-0.149	0.368
-403.252	-155.892	0.130	-0.008
-402.238	271.875	-0.138	0.240
-401.223	378.256	-0.133	-0.269
-400.209	-148.235	-0.243	-0.020
-399.194	134.524	-0.168	-0.216
-398.179	800.000	0.098	-0.390
-397.165	-200.000	-0.006	-0.541
-396.150	-200.000	-0.034	-0.231
-395.136	800.000	0.034	-0.112
-394.121	-200.000	-0.058	0.305
-393.106	198.545	0.152	0.230
-392.092	214.844	-0.103	0.162
-391.077	-49.367	0.140	-0.066
-390.063	-200.000	0.093	0.423
-389.048	322.613	-0.020	0.037
-388.033	800.000	0.066	0.191
-387.019	800.000	0.061	0.236
-386.004	-61.945	0.243	0.101
-384.990	-200.000	-0.065	-0.283
-383.975	-120.839	0.272	0.045
-382.960	-148.900	-0.242	-0.019
-381.946	800.000	-0.096	0.320
-380.931	-146.579	0.226	0.019
-379.917	-154.436	-0.301	-0.020
-378.902	-115.722	-0.068	0.013
-377.888	250.651	0.053	0.089
-376.873	800.000	-0.071	0.245
-375.858	106.734	0.234	0.275
-374.844	53.757	0.270	-0.256
-373.829	46.856	0.191	0.176
-372.815	-18.998	-0.145	0.089
-371.800	237.317	0.122	-0.200
-370.785	7.308	-0.155	-0.114
-369.771	-144.302	0.230	0.021
-368.756	-99.854	0.391	0.097
-367.742	-57.392	-0.170	-0.074
-366.727	225.170	0.049	-0.078
-365.712	800.000	-0.019	0.073
-364.698	-200.000	-0.069	0.524
-363.683	-29.236	0.294	-0.166
-362.669	37.301	0.143	-0.125
-361.654	7.150	0.297	-0.219
-360.639	800.000	0.152	-0.427
-359.625	-75.321	-0.223	0.079
-358.610	-138.524	-0.117	0.013
-357.596	-111.899	-0.376	-0.075
-356.581	-118.499	0.120	0.021
-355.566	-130.581	0.162	0.022
-354.552	752.925	0.106	0.282
-353.537	87.985	0.158	-0.173
-352.523	196.208	0.037	0.056
-351.508	-37.529	0.232	0.122
-350.493	73.963	0.061	0.063
-349.479	-145.568	0.406	0.036
-348.464	-200.000	0.042	-0.273
-347.450	-68.885	-0.306	-0.117
-346.435	-33.026	-0.085	-0.047
-345.420	-200.000	-0.008	-0.119
-344.406	-71.355	0.232	-0.086
-343.391	215.356	-0.242	0.378
-342.377	38.690	0.049	-0.043
-341.362	9.438	-0.120	0.090
-340.348	78.358	-0.160	0.169
-339.333	-200.000	0.013	0.333
-338.318	21.706	0.059	-0.047
-337.304	68.762	0.272	-0.276
-336.289	-64.547	-0.157	-0.063
-335.275	-11.448	0.192	0.125
-334.260	-200.000	-0.039	0.200
-333.245	324.614	0.072	0.136
-332.231	800.000	-0.112	0.457
-331.216	97.846	0.099	-0.113
-330.202	-37.637	-0.164	-0.086
-329.187	-55.217	-0.430	0.191
-328.172	713.283	0.048	0.125
-327.158	-49.635	0.276	0.130
-326.143	-128.259	-0.162	0.023
-325.129	800.000	0.075	0.295
-324.114	-180.145	-0.528	-0.011
-323.099	800.000	-0.096	-0.342
-322.085	-75.543	-0.217	-0.076
-321.070	364.836	-0.050	0.100
-320.056	-13.288	-0.264	-0.169
-319.041	152.676	-0.041	0.055
-318.026	101.335	-0.239	-0.275
-317.012	463.235	-0.117	-0.258
-315.997	800.000	0.028	-0.080
-314.983	800.000	-0.016	-0.062
-313.968	-200.000	0.023	0.305
-312.953	94.203	0.186	-0.208
-311.939	-30.806	-0.198	-0.111
-310.924	-96.102	-0.182	-0.048
-309.910	-132.556	-0.304	-0.038
-308.895	-70.253	-0.183	0.069
-307.880	110.515	-0.141	0.167
-306.866	-200.000	0.003	-0.100
-305.851	-130.274	0.296	-0.040
-304.837	-100.940	-0.495	0.120
-303.822	-58.323	0.383	-0.164
-302.807	-73.839	-0.427	0.153
-301.793	-127.930	0.338	0.048
-300.778	5.208	-0.389	0.282
-299.764	800.000	0.069	0.216
-298.749	270.299	-0.053	0.091
-297.735	189.962	-0.084	0.125
-296.720	145.821	0.133	-0.176
-295.705	-85.911	-0.314	0.096
-294.691	-90.638	0.044	-0.013
-293.676	713.583	-0.107	0.280
-292.662	67.044	0.091	-0.092
-291.647	-51.706	0.083	-0.038
-290.632	800.000	-0.089	0.243
-289.618	-200.000	-0.062	0.473
-288.603	-200.000	0.320	-0.001
-287.589	-41.039	0.056	0.028
-286.574	-200.000	-0.097	0.459
-285.559	-132.873	-0.222	0.028
-284.545	-200.000	-0.010	0.115
-283.530	-200.000	-0.027	-0.156
-282.516	-90.592	-0.285	-0.081
-281.501	-92.424	0.136	-0.038
-280.486	-200.000	-0.012	0.459
-279.472	-200.000	-0.019	-0.103
-278.457	49.491	-0.221	0.205
-277.443	800.000	-0.047	0.189
-276.428	-52.784	-0.218	-0.099
-275.413	-102.388	0.219	0.052
-274.399	205.392	0.065	-0.100
-273.384	-114.539	0.559	-0.106
-272.370	-35.414	-0.270	-0.145
-271.355	-115.918	-0.181	0.033
-270.340	-179.844	-0.067	-0.001
-269.326	-200.000	0.014	0.243
-268.311	-200.000	-0.000	-0.062
-267.297	-50.889	0.196	-0.091
-266.282	12.173	0.051	0.039
-265.267	-103.882	-0.565	0.130
-264.253	-48.886	0.129	-0.061
-263.238	-136.700	0.297	-0.034
-262.224	9.484	0.049	0.036
-261.209	-200.000	0.039	0.242
-260.195	800.000	-0.110	-0.321
-259.180	41.495	0.196	0.175
-258.165	368.147	-0.076	-0.152
-257.151	154.597	0.181	-0.245
-256.136	167.159	0.178	0.248
-255.122	-89.984	-0.215	-0.062
-254.107	-143.903	-0.298	0.028
-253.092	231.689	0.219	0.353
-252.078	-94.808	0.107	-0.028
-251.063	-197.042	-0.307	-0.002
-250.049	-11.953	-0.195	-0.126
-249.034	8.465	0.145	-0.107
-248.019	48.621	0.207	0.191
-247.005	-114.068	-0.176	-0.034
-245.990	356.500	0.135	-0.265
-244.976	-88.543	0.213	-0.062
-243.961	-200.000	0.028	-0.269
-242.946	38.825	-0.095	-0.084
-241.932	-200.000	-0.038	0.226
-240.917	-12.793	0.081	-0.052
-239.903	5.300	0.175	-0.127
-238.888	615.057	-0.076	-0.187
-237.873	407.653	0.065	0.135
-236.859	-15.366	0.314	0.197
-235.844	-89.638	-0.140	0.040
-234.830	23.972	-0.200	0.162
-233.815	301.560	0.074	-0.135
-232.800	-115.397	0.338	0.063
-231.786	711.593	-0.086	-0.223
-230.771	320.073	0.114	0.214
-229.757	-200.000	0.024	0.389
-228.742	-151.723	0.279	0.020
-227.727	341.514	-0.094	-0.180
-226.713	-152.263	0.127	0.009
-225.698	-200.000	-0.016	-0.107
-224.684	-133.269	0.037	0.005
-223.669	-12.673	-0.337	-0.216
-222.655	-92.701	0.147	-0.041
-221.640	800.000	-0.050	-0.178
-220.625	-126.413	0.295	-0.043
-219.611	-200.000	-0.052	-0.258
-218.596	7.350	0.254	0.186
-217.582	120.990	0.034	-0.042
-216.567	203.774	0.135	-0.205
-215.552	-3.690	-0.236	-0.161
-214.538	-37.538	-0.174	-0.091
-213.523	-144.609	-0.300	0.027
-212.509	-119.308	-0.162	-0.028
-211.494	206.428	0.086	-0.131
-210.479	13.206	0.307	-0.234
-209.465	800.000	0.065	-0.183
-208.450	-25.056	0.168	0.098
-207.436	-79.375	-0.074	-0.025
-206.421	-96.276	-0.012	0.003
-205.406	593.500	0.160	-0.387
-204.392	332.853	-0.045	0.086
-203.377	57.505	-0.211	-0.202
-202.363	640.850	-0.087	0.219
-201.348	-71.149	0.242	0.089
-200.333	78.739	0.118	0.124
-199.319	800.000	0.047	0.140
-198.304	15.589	0.044	0.034
-197.290	-200.000	0.003	0.111
-196.275	218.235	-0.159	-0.249
-195.260	176.652	0.085	-0.121
-194.246	-61.835	0.175	-0.072
-193.231	-49.687	0.040	-0.019
-192.217	-200.000	0.003	-0.418
-191.202	-21.924	-0.075	-0.045
-190.187	143.207	-0.083	-0.109
-189.173	-82.703	-0.143	-0.046
-188.158	800.000	-0.093	0.290
-187.144	-68.144	-0.099	-0.038
-186.129	36.323	0.108	0.094
-185.114	-200.000	0.043	0.224
-184.100	800.000	-0.058	0.159
-183.085	265.530	-0.172	0.294
-182.071	-105.249	-0.336	0.075
-181.056	-200.000	0.028	0.239
-180.042	-145.723	-0.063	-0.006
-179.027	-166.094	0.119	0.005
-178.012	158.165	-0.099	0.134
-176.998	24.341	-0.063	0.051
-175.983	-91.062	-0.133	0.037
-174.969	53.150	-0.188	-0.176
-173.954	-22.476	0.073	0.044
-172.939	800.000	0.053	0.189
-171.925	559.875	0.050	0.118
-170.910	88.374	0.350	-0.381
-169.896	123.928	-0.056	-0.069
-168.881	-200.000	-0.027	-0.147
-167.866	213.861	-0.049	-0.076
-166.852	-22.508	0.158	-0.094
-165.837	-152.407	-0.103	0.007
-164.823	800.000	-0.080	0.229
-163.808	-19.892	0.157	-0.095
-162.793	-129.499	0.178	0.024
-161.779	19.942	0.137	0.108
-160.764	371.068	-0.204	-0.405
-159.750	358.020	0.079	-0.155
-158.735	-200.000	0.041	0.217
-157.720	-200.000	-0.016	0.235
-156.706	-79.739	-0.139	0.046
-155.691	29.345	0.078	0.065
-154.677	-9.851	-0.273	0.178
-153.662	-200.000	0.026	0.702
-152.647	256.266	0.224	0.377
-151.633	800.000	0.064	0.256
-150.618	199.358	0.126	-0.189
-149.604	-39.082	0.167	0.086
-148.589	34.160	0.171	0.146
-147.574	800.000	0.053	-0.149
-146.560	780.526	-0.100	-0.269
-145.545	-132.103	0.367	0.047
-144.531	-200.000	-0.022	-0.207
-143.516	-50.398	-0.137	-0.063
-142.502	297.394	-0.051	-0.092
-141.487	-200.000	-0.013	0.136
-140.472	-9.787	-0.258	0.168
-139.458	-200.000	0.016	-0.110
-138.443	800.000	-0.072	-0.206
-137.429	92.542	0.058	-0.064
-136.414	-98.052	-0.134	-0.034
-135.399	225.533	-0.161	0.256
-134.385	-36.067	0.228	0.121
-133.370	512.350	-0.132	0.301
-132.356	-104.687	0.262	0.059
-131.341	161.866	0.060	-0.083
-130.326	120.447	-0.058	0.070
-129.312	764.967	0.050	-0.132
-128.297	-51.671	0.405	0.185
-127.283	43.332	-0.084	-0.075
-126.268	176.214	-0.158	-0.225
-125.253	47.248	0.185	0.169
-124.239	2.123	0.211	0.149
-123.224	24.827	0.185	-0.150
-122.210	-14.061	0.182	0.115
