DTS Sentinel unit serial number:	SN413079Multiplexer serial number:	ORYXHardware model number:	OX4-SRSoftware version number:	ORYX F/W v4.00 Oryx Data Collector v3.7.2.0data status	okinstallation	princeton_trtdifferential loss correction	single-endedforward channel	channel 1reverse channel	N/Adate	2019/09/15time	09:54:35forward acquisition time	60.00reverse acquisition time	0.00gamma	496.2192k internal	0.2309k external	0.2309temperature offset calibration	0.9987default loss term (dB/km)	0.3790temperature slope calibration	1.0000multiplexer offset coefficient	1.0000multiplexer slope coefficient	1.0000fibre end	0.00T internal ref (°C)	34.06T ext. ref 1 (°C)	4.99T ext. ref 2 (°C)	29.85length (m)	temperature (°C)	Stokes	anti-Stokes-747.200	800.000	0.064	0.195
-746.185	-200.000	-0.017	0.338
-745.171	446.212	-0.090	-0.202
-744.156	-200.000	-0.278	0.001
-743.142	220.907	-0.120	-0.196
-742.127	-127.344	-0.120	-0.018
-741.112	-39.704	-0.275	-0.146
-740.098	-89.003	-0.422	0.127
-739.083	-141.452	-0.206	0.021
-738.069	-75.299	0.106	0.039
-737.054	15.316	0.488	0.389
-736.039	800.000	0.049	-0.185
-735.025	800.000	0.089	0.251
-734.010	14.980	0.031	0.025
-732.996	1.889	0.108	0.079
-731.981	800.000	-0.061	0.232
-730.966	0.280	0.173	0.125
-729.952	-9.956	-0.237	0.160
-728.937	-200.000	0.000	-0.018
-727.923	-159.378	0.025	0.001
-726.908	139.589	-0.106	-0.142
-725.894	83.951	-0.176	-0.195
-724.879	218.604	-0.066	-0.107
-723.864	-131.680	0.215	-0.029
-722.850	-132.267	0.141	0.019
-721.835	-200.000	-0.001	0.003
-720.821	-127.128	-0.337	-0.050
-719.806	-126.969	-0.214	-0.032
-718.791	211.876	0.055	-0.087
-717.777	-111.462	0.143	-0.030
-716.762	278.959	0.110	0.200
-715.748	167.655	-0.184	0.265
-714.733	252.570	-0.153	-0.264
-713.718	800.000	-0.080	-0.317
-712.704	63.848	-0.246	-0.251
-711.689	316.703	-0.045	0.086
-710.675	-100.994	-0.144	0.036
-709.660	285.627	-0.089	0.164
-708.645	30.945	-0.154	0.134
-707.631	800.000	-0.055	-0.174
-706.616	-121.085	0.017	-0.003
-705.602	800.000	0.094	-0.301
-704.587	-83.157	-0.048	0.016
-703.572	-5.676	-0.281	0.195
-702.558	800.000	-0.038	-0.118
-701.543	800.000	0.049	-0.161
-700.529	65.784	-0.071	0.073
-699.514	-160.874	0.121	-0.006
-698.499	800.000	0.075	0.262
-697.485	-84.872	0.246	-0.078
-696.470	-112.110	0.142	0.029
-695.456	-200.000	-0.012	-0.061
-694.441	263.840	0.111	-0.196
-693.426	-50.076	-0.196	-0.094
-692.412	800.000	-0.062	0.224
-691.397	21.313	0.098	-0.081
-690.383	-200.000	-0.039	-0.351
-689.368	-130.969	0.355	0.048
-688.354	-156.541	0.202	0.013
-687.339	-20.410	-0.311	0.194
-686.324	43.300	-0.249	-0.230
-685.310	-109.894	0.308	-0.065
-684.295	-200.000	-0.090	-0.407
-683.281	-43.167	-0.312	-0.160
-682.266	800.000	0.030	0.103
-681.251	78.562	-0.137	-0.148
-680.237	216.122	-0.018	0.030
-679.222	-193.500	-0.298	0.003
-678.208	-196.101	-0.171	-0.001
-677.193	615.919	0.065	-0.165
-676.178	-115.941	0.186	-0.035
-675.164	47.267	-0.135	-0.127
-674.149	-200.000	0.014	0.214
-673.135	82.387	0.148	-0.163
-672.120	-200.000	-0.016	-0.246
-671.105	-1.348	-0.032	-0.023
-670.091	800.000	0.087	0.264
-669.076	-22.577	-0.074	0.045
-668.062	-38.631	-0.213	0.114
-667.047	210.156	-0.147	0.234
-666.032	95.464	0.070	0.081
-665.018	-200.000	-0.011	-0.176
-664.003	120.098	0.040	-0.051
-662.989	20.179	-0.138	-0.113
-661.974	171.751	-0.081	0.118
-660.959	-80.078	0.232	-0.079
-659.945	-200.000	0.004	0.242
-658.930	-173.483	0.148	-0.005
-657.916	505.195	-0.063	-0.148
-656.901	49.502	0.066	-0.063
-655.886	800.000	-0.118	-0.415
-654.872	800.000	0.075	-0.245
-653.857	599.153	0.154	-0.387
-652.843	-102.851	-0.426	0.103
-651.828	-200.000	0.002	0.087
-650.814	-152.780	-0.142	0.010
-649.799	-200.000	-0.023	0.450
-648.784	800.000	0.108	0.384
-647.770	9.745	-0.295	0.226
-646.755	424.330	-0.090	-0.195
-645.741	-30.152	-0.097	0.056
-644.726	41.213	0.115	-0.105
-643.711	-138.667	0.148	-0.016
-642.697	236.977	-0.134	0.224
-641.682	70.754	-0.120	0.126
-640.668	-60.443	0.139	0.060
-639.653	-117.484	-0.438	-0.080
-638.638	-165.547	-0.052	-0.002
-637.624	226.231	-0.112	-0.185
-636.609	-12.781	0.192	-0.126
-635.595	-145.968	-0.456	0.041
-634.580	-111.799	0.058	-0.012
-633.565	-5.155	-0.094	0.066
-632.551	410.741	-0.037	0.079
-631.536	-94.933	-0.356	-0.098
-630.522	135.036	-0.135	0.177
-629.507	88.710	-0.059	-0.067
-628.492	-101.336	-0.417	0.103
-627.478	-86.544	0.289	-0.090
-626.463	800.000	0.155	0.479
-625.449	56.520	-0.249	0.245
-624.434	734.034	-0.079	0.214
-623.419	494.348	0.053	-0.123
-622.405	800.000	0.065	0.220
-621.390	-89.385	0.133	-0.040
-620.376	-110.936	-0.190	-0.039
-619.361	318.792	0.065	-0.124
-618.346	-200.000	-0.006	-0.134
-617.332	-200.000	0.040	0.306
-616.317	-200.000	0.016	-0.171
-615.303	800.000	-0.090	-0.283
-614.288	-200.000	0.002	-0.256
-613.273	-100.278	-0.148	0.037
-612.259	-5.307	0.006	0.004
-611.244	800.000	-0.034	-0.127
-610.230	-200.000	0.000	0.004
-609.215	-200.000	-0.011	-0.079
-608.201	-26.714	-0.104	-0.062
-607.186	266.191	0.229	-0.404
-606.171	-200.000	0.018	0.106
-605.157	181.000	0.081	0.121
-604.142	-4.140	0.012	0.009
-603.128	-200.000	-0.033	-0.170
-602.113	133.569	-0.044	-0.058
-601.098	197.812	-0.318	-0.490
-600.084	800.000	0.049	0.169
-599.069	-200.000	-0.024	0.202
-598.055	485.077	-0.030	-0.069
-597.040	-4.585	-0.318	0.222
-596.025	37.400	0.338	0.302
-595.011	-61.763	0.585	-0.247
-593.996	167.668	0.269	-0.386
-592.982	6.540	-0.060	0.045
-591.967	172.512	0.093	0.135
-590.952	800.000	0.014	0.049
-589.938	166.800	0.129	-0.185
-588.923	-46.278	-0.361	0.179
-587.909	-60.663	-0.462	-0.198
-586.894	86.356	0.119	0.132
-585.879	93.250	0.161	0.184
-584.865	-22.976	-0.319	0.194
-583.850	800.000	0.057	0.247
-582.836	-41.656	-0.071	-0.037
-581.821	189.647	0.249	0.376
-580.806	-134.568	-0.037	0.005
-579.792	23.231	0.234	-0.194
-578.777	-8.461	-0.170	-0.115
-577.763	46.513	0.254	-0.238
-576.748	-200.000	0.042	-0.222
-575.733	800.000	0.008	-0.024
-574.719	-200.000	0.006	-0.041
-573.704	-131.389	-0.153	-0.020
-572.690	120.399	0.295	0.370
-571.675	120.402	-0.220	0.276
-570.661	-26.071	0.202	-0.120
-569.646	-24.441	-0.119	-0.071
-568.631	800.000	-0.101	-0.397
-567.617	216.083	-0.110	-0.176
-566.602	-108.804	0.377	0.081
-565.588	-76.061	-0.072	-0.026
-564.573	-87.020	0.242	-0.074
-563.558	294.548	0.056	0.104
-562.544	75.819	0.211	0.225
-561.529	-112.044	-0.367	-0.075
-560.515	-54.993	0.365	0.166
-559.500	111.771	-0.105	0.128
-558.485	24.808	-0.182	0.152
-557.471	3.257	0.101	-0.074
-556.456	800.000	0.077	-0.282
-555.442	19.551	-0.181	-0.147
-554.427	-163.476	0.338	-0.016
-553.412	-200.000	-0.010	0.096
-552.398	678.336	-0.065	-0.170
-551.383	-200.000	-0.010	-0.246
-550.369	461.970	0.068	0.154
-549.354	227.335	-0.135	0.221
-548.339	149.243	-0.067	-0.092
-547.325	239.456	-0.104	-0.175
-546.310	5.026	0.327	0.243
-545.296	800.000	0.104	0.307
-544.281	-141.055	-0.394	-0.041
-543.266	-200.000	0.045	-0.212
-542.252	-200.000	-0.017	0.389
-541.237	-200.000	-0.032	0.189
-540.223	-200.000	-0.009	0.087
-539.208	800.000	-0.015	0.046
-538.193	399.787	0.046	-0.098
-537.179	208.412	-0.232	-0.366
-536.164	-133.232	-0.176	-0.022
-535.150	-70.134	0.181	-0.069
-534.135	178.988	0.171	-0.251
-533.121	76.266	0.222	-0.237
-532.106	354.656	-0.010	-0.019
-531.091	-106.491	0.387	0.087
-530.077	713.999	-0.052	0.138
-529.062	-75.240	0.226	0.081
-528.048	-1.939	0.176	-0.125
-527.033	150.050	-0.085	0.116
-526.018	37.247	0.148	0.132
-525.004	287.138	0.161	-0.293
-523.989	-45.370	0.249	-0.125
-522.975	-52.160	-0.172	-0.080
-521.960	79.582	0.100	-0.108
-520.945	-148.859	0.063	0.005
-519.931	-98.657	0.109	-0.028
-518.916	102.084	-0.152	-0.178
-517.902	-196.180	0.130	-0.001
-516.887	165.092	-0.141	0.201
-515.872	-71.455	-0.166	0.063
-514.858	-200.000	-0.005	0.375
-513.843	61.933	-0.061	0.062
-512.829	-200.000	-0.002	0.071
-511.814	-64.798	0.201	0.082
-510.799	185.466	-0.062	0.093
-509.785	233.211	-0.150	0.248
-508.770	-200.000	0.026	0.300
-507.756	49.687	-0.124	-0.118
-506.741	800.000	-0.142	-0.451
-505.726	-88.142	-0.647	-0.195
-504.712	252.985	0.182	-0.313
-503.697	800.000	0.058	-0.169
-502.683	-161.938	0.182	-0.009
-501.668	690.035	-0.191	-0.503
-500.653	-89.699	0.110	-0.033
-499.639	-200.000	0.003	-0.019
-498.624	381.498	-0.096	-0.199
-497.610	174.256	0.037	0.054
-496.595	-134.540	-0.233	0.029
-495.581	-139.238	0.313	0.034
-494.566	-91.443	-0.184	0.053
-493.551	-173.354	0.370	-0.011
-492.537	-200.000	0.007	-0.392
-491.522	-200.000	0.003	-0.399
-490.508	-200.000	-0.009	-0.341
-489.493	800.000	0.088	-0.280
-488.478	800.000	-0.032	-0.102
-487.464	-87.672	0.416	-0.126
-486.449	-101.883	0.078	-0.019
-485.435	57.700	-0.030	-0.029
-484.420	800.000	0.089	-0.342
-483.405	95.631	-0.175	-0.201
-482.391	210.017	0.090	-0.142
-481.376	67.111	0.147	-0.150
-480.362	222.761	0.065	-0.106
-479.347	-70.192	-0.069	0.026
-478.332	439.256	0.126	-0.277
-477.318	375.435	0.059	0.121
-476.303	24.356	-0.172	0.143
-475.289	-51.534	-0.498	0.234
-474.274	56.983	0.064	-0.063
-473.259	-14.243	0.228	0.148
-472.245	-200.000	-0.006	0.323
-471.230	101.951	-0.049	0.058
-470.216	272.619	-0.091	-0.162
-469.201	119.632	0.112	0.140
-468.186	-84.292	0.291	-0.093
-467.172	-109.749	-0.426	-0.090
-466.157	-82.448	-0.138	-0.045
-465.143	-200.000	-0.016	0.200
-464.128	-14.510	-0.218	-0.141
-463.113	-200.000	-0.009	0.359
-462.099	-79.958	-0.356	-0.120
-461.084	338.374	-0.127	0.249
-460.070	493.607	0.080	-0.184
-459.055	-70.324	0.292	0.111
-458.040	30.878	0.164	-0.141
-457.026	91.486	-0.348	-0.393
-456.011	-86.394	-0.333	0.103
-454.997	800.000	-0.049	-0.153
-453.982	458.855	0.145	0.324
-452.968	-200.000	-0.007	0.033
-451.953	83.530	0.212	-0.232
-450.938	-189.901	-0.155	0.002
-449.924	-85.405	0.092	0.029
-448.909	22.371	-0.114	-0.093
-447.895	-200.000	-0.046	-0.260
-446.880	-123.464	-0.188	-0.030
-445.865	800.000	-0.092	-0.259
-444.851	-171.752	-0.076	0.003
-443.836	33.542	-0.050	0.044
-442.822	-152.827	-0.315	-0.022
-441.807	-200.000	-0.012	0.201
-440.792	-200.000	-0.007	0.307
-439.778	800.000	-0.139	0.430
-438.763	-96.938	0.213	0.056
-437.749	-30.665	0.079	-0.045
-436.734	-74.612	0.207	0.075
-435.719	-52.378	-0.218	-0.101
-434.705	2.660	-0.152	0.111
-433.690	142.452	-0.157	0.210
-432.676	243.400	0.166	-0.279
-431.661	800.000	0.011	0.033
-430.646	102.944	-0.064	-0.075
-429.632	-148.171	-0.363	0.030
-428.617	-200.000	0.037	-0.279
-427.603	370.918	-0.085	0.174
-426.588	435.382	0.041	0.090
-425.573	-82.050	0.213	0.070
-424.559	-15.829	0.206	0.131
-423.544	269.473	0.062	-0.109
-422.530	147.945	0.110	-0.148
-421.515	13.655	0.161	0.126
-420.500	48.377	0.260	0.245
-419.486	238.481	0.252	0.420
-418.471	7.334	0.257	0.193
-417.457	800.000	0.059	0.184
-416.442	-200.000	0.037	0.291
-415.428	-200.000	0.026	0.117
-414.413	-116.140	-0.147	-0.027
-413.398	-71.701	-0.370	0.139
-412.384	82.738	0.147	-0.160
-411.369	-69.725	0.076	-0.029
-410.355	520.967	-0.019	-0.044
-409.340	13.412	0.173	-0.135
-408.325	-200.000	-0.070	0.487
-407.311	-5.181	-0.062	-0.043
-406.296	484.896	-0.064	-0.145
-405.282	-200.000	0.052	0.320
-404.267	-79.325	-0.057	0.019
-403.252	800.000	0.028	0.113
-402.238	-9.722	0.200	-0.134
-401.223	-200.000	-0.007	0.077
-400.209	367.017	0.052	-0.105
-399.194	94.363	0.292	0.333
-398.179	800.000	-0.069	-0.293
-397.165	365.455	0.148	-0.299
-396.150	-103.285	-0.328	0.078
-395.136	800.000	-0.065	-0.191
-394.121	-200.000	0.106	0.000
-393.106	-85.647	-0.192	-0.060
-392.092	85.950	-0.142	0.157
-391.077	-129.419	-0.342	-0.048
-390.063	-166.658	-0.143	-0.006
-389.048	-34.266	0.325	0.179
-388.033	51.167	0.077	0.073
-387.019	800.000	0.011	0.033
-386.004	-22.494	-0.166	0.100
-384.990	294.783	-0.074	-0.136
-383.975	-200.000	-0.003	0.095
-382.960	-80.699	0.182	-0.061
-381.946	-71.023	0.336	0.126
-380.931	-59.709	0.118	-0.051
-379.917	-181.153	-0.178	0.004
-378.902	-103.890	0.125	0.029
-377.888	733.864	-0.051	-0.136
-376.873	800.000	0.076	0.274
-375.858	-65.736	-0.366	0.147
-374.844	-200.000	-0.004	-0.040
-373.829	-200.000	0.012	-0.154
-372.815	236.543	0.166	-0.276
-371.800	-200.000	-0.010	-0.139
-370.785	-200.000	0.008	0.213
-369.771	-48.307	-0.130	-0.063
-368.756	-191.417	-0.155	0.002
-367.742	-41.230	-0.298	0.154
-366.727	-162.865	-0.148	-0.007
-365.712	-153.423	0.297	0.021
-364.698	-52.792	-0.063	-0.029
-363.683	-200.000	-0.002	0.442
-362.669	-151.961	0.158	0.012
-361.654	-80.113	-0.144	0.048
-360.639	3.468	0.081	-0.059
-359.625	143.033	0.178	-0.237
-358.610	-40.551	-0.020	0.011
-357.596	-200.000	0.005	-0.163
-356.581	226.688	-0.024	-0.039
-355.566	8.212	-0.167	0.126
-354.552	-106.879	0.333	0.074
-353.537	-119.350	0.152	-0.026
-352.523	-98.678	0.190	0.048
-351.508	-163.110	-0.210	-0.010
-350.493	-92.140	0.154	-0.044
-349.479	-54.060	-0.336	0.153
-348.464	-68.339	-0.218	-0.085
-347.450	179.737	-0.094	-0.138
-346.435	393.238	-0.080	0.167
-345.420	800.000	0.039	0.128
-344.406	800.000	-0.057	-0.216
-343.391	536.276	0.141	0.334
-342.377	-200.000	-0.066	0.413
-341.362	161.040	0.106	0.148
-340.348	-141.523	0.267	-0.027
-339.333	-90.910	0.162	-0.047
-338.318	385.829	-0.143	0.295
-337.304	-200.000	-0.056	0.320
-336.289	109.058	-0.132	0.158
-335.275	-89.599	0.292	0.086
-334.260	216.026	0.104	0.164
-333.245	-105.868	0.100	-0.023
-332.231	-113.949	0.171	0.033
-331.216	800.000	-0.082	-0.343
-330.202	30.784	0.121	-0.104
-329.187	-200.000	0.012	-0.067
-328.172	-87.537	-0.309	0.093
-327.158	-103.553	-0.230	-0.054
-326.143	-200.000	0.017	-0.225
-325.129	-200.000	0.028	0.223
-324.114	-47.319	-0.312	0.152
-323.099	-104.523	0.291	-0.067
-322.085	171.409	-0.064	-0.091
-321.070	339.880	-0.156	-0.304
-320.056	61.696	0.247	-0.245
-319.041	-200.000	0.012	0.088
-318.026	39.249	-0.202	0.181
-317.012	173.963	-0.077	-0.111
-315.997	-200.000	-0.004	0.059
-314.983	-84.369	0.368	-0.116
-313.968	-130.270	-0.027	0.004
-312.953	155.698	-0.098	-0.135
-311.939	94.633	0.200	0.227
-310.924	-25.231	0.277	0.164
-309.910	31.484	0.408	0.350
-308.895	-120.263	-0.233	-0.040
-307.880	-67.514	0.242	0.095
-306.866	800.000	0.031	-0.109
-305.851	557.929	-0.101	-0.244
-304.837	-66.751	-0.124	0.049
-303.822	216.826	0.149	0.237
-302.807	-200.000	-0.006	-0.205
-301.793	-200.000	0.016	0.135
-300.778	-200.000	-0.002	0.022
-299.764	800.000	0.028	-0.084
-298.749	-70.806	-0.031	-0.012
-297.735	-200.000	-0.060	0.277
-296.720	99.913	0.128	0.148
-295.705	211.751	-0.165	0.259
-294.691	-9.630	-0.129	0.086
-293.676	-151.504	0.181	-0.013
-292.662	214.799	-0.217	-0.343
-291.647	-200.000	0.005	-0.125
-290.632	125.658	0.127	0.161
-289.618	-200.000	-0.028	0.294
-288.603	-63.814	-0.153	0.063
-287.589	56.820	-0.118	0.114
-286.574	66.776	0.221	0.225
-285.559	247.616	-0.127	0.214
-284.545	-103.724	0.390	-0.091
-283.530	182.435	0.254	-0.373
-282.516	162.870	0.035	-0.050
-281.501	28.696	-0.325	-0.275
-280.486	-44.125	-0.117	0.059
-279.472	-32.937	-0.122	0.067
-278.457	-200.000	0.024	-0.372
-277.443	348.915	0.033	0.064
-276.428	-166.278	-0.243	0.010
-275.413	26.019	-0.167	-0.139
-274.399	319.952	0.033	-0.063
-273.384	-32.102	0.184	0.102
-272.370	800.000	-0.064	-0.188
-271.355	-192.782	0.368	0.003
-270.340	472.269	-0.110	0.247
-269.326	5.160	0.208	-0.153
-268.311	-103.938	0.209	0.049
-267.297	91.212	0.005	0.006
-266.282	-22.075	0.152	0.092
-265.267	415.080	-0.053	0.112
-264.253	-108.327	0.143	-0.031
-263.238	-200.000	0.046	0.210
-262.224	-39.314	0.172	-0.090
-261.209	-200.000	0.026	-0.158
-260.195	800.000	0.031	-0.104
-259.180	-51.921	0.149	0.069
-258.165	-36.300	-0.053	-0.029
-257.151	36.952	-0.304	-0.268
-256.136	-35.756	0.143	0.077
-255.122	292.925	-0.140	0.254
-254.107	284.224	0.066	-0.118
-253.092	151.206	0.088	-0.119
-252.078	129.612	0.072	-0.092
-251.063	252.247	-0.088	-0.149
-250.049	6.746	0.097	0.072
-249.034	4.237	0.203	0.148
-248.019	17.042	0.076	-0.060
-247.005	-39.693	-0.156	0.081
-245.990	420.843	0.069	0.147
-244.976	42.721	-0.113	-0.102
-243.961	169.115	0.054	-0.077
-242.946	-95.320	-0.072	-0.019
-241.932	36.803	-0.132	0.117
-240.917	-139.517	0.083	0.009
-239.903	652.348	-0.116	-0.295
-238.888	60.917	0.121	0.120
-237.873	-132.433	0.020	-0.003
-236.859	-58.485	-0.079	0.034
-235.844	-200.000	0.001	0.082
-234.830	248.250	-0.027	0.045
-233.815	4.646	0.069	-0.051
-232.800	-200.000	0.095	-0.536
-231.786	81.147	-0.120	-0.129
-230.771	-113.182	-0.089	-0.017
-229.757	-200.000	-0.001	0.034
-228.742	-68.890	-0.228	-0.088
-227.727	48.636	-0.266	-0.248
-226.713	229.505	-0.023	-0.038
-225.698	328.946	0.106	0.204
-224.684	800.000	0.123	-0.445
-223.669	-62.318	0.303	-0.126
-222.655	174.356	0.161	0.232
-221.640	64.641	0.024	-0.024
-220.625	-67.364	-0.067	0.026
-219.611	800.000	-0.081	-0.238
-218.596	-59.629	-0.154	0.066
-217.582	-109.546	0.122	-0.026
-216.567	-19.132	-0.116	0.072
-215.552	-0.098	0.214	0.152
-214.538	268.171	-0.087	-0.152
-213.523	-58.386	-0.051	-0.022
-212.509	-183.990	-0.254	0.004
-211.494	-42.997	0.268	0.135
-210.479	-14.095	-0.279	0.179
-209.465	-200.000	0.043	0.287
-208.450	-54.424	-0.142	0.064
-207.436	-66.152	-0.349	0.138
-206.421	89.572	0.088	-0.098
-205.406	23.875	0.150	-0.123
-204.392	319.871	0.119	-0.225
-203.377	-200.000	0.066	-0.423
-202.363	42.806	-0.157	-0.142
-201.348	-14.689	0.056	-0.036
-200.333	-61.180	-0.128	0.054
-199.319	-160.878	-0.263	0.014
-198.304	79.867	-0.132	0.141
-197.290	-108.732	0.168	0.036
-196.275	800.000	-0.052	0.185
-195.260	9.136	-0.126	0.095
-194.246	-38.482	0.324	-0.171
-193.231	-39.854	-0.357	-0.186
-192.217	-140.349	0.252	0.026
-191.202	-200.000	0.015	0.072
-190.187	-48.980	-0.037	-0.018
-189.173	217.061	-0.125	-0.198
-188.158	-44.682	-0.119	-0.059
-187.144	527.272	-0.077	0.180
-186.129	140.899	-0.103	0.135
-185.114	-65.047	0.053	0.021
-184.100	800.000	-0.037	-0.154
-183.085	57.099	-0.080	0.078
-182.071	-134.621	-0.060	0.007
-181.056	-94.737	0.028	0.008
-180.042	693.656	0.075	0.197
-179.027	-200.000	0.004	0.286
-178.012	-68.129	0.122	-0.047
-176.998	21.940	-0.080	0.065
-175.983	211.073	-0.097	-0.152
-174.969	-41.914	0.139	0.071
-173.954	313.502	-0.053	-0.099
-172.939	800.000	0.045	-0.153
-171.925	18.206	-0.126	-0.100
-170.910	59.523	0.106	0.103
-169.896	-78.379	-0.058	-0.020
-168.881	800.000	0.037	0.108
-167.866	-150.383	0.096	0.007
-166.852	-54.179	-0.203	0.091
-165.837	-200.000	-0.004	-0.045
-164.823	634.350	-0.027	-0.069
-163.808	116.843	0.142	0.173
-162.793	168.195	0.119	0.169
-161.779	76.764	0.202	-0.213
-160.764	-200.000	0.039	-0.242
-159.750	800.000	0.077	-0.255
-158.735	-200.000	-0.081	0.548
-157.720	194.252	-0.043	0.065
-156.706	-179.302	0.222	0.005
-155.691	13.232	-0.178	-0.137
-154.677	800.000	-0.047	-0.168
-153.662	147.400	-0.092	-0.124
-152.647	-97.186	0.156	-0.041
-151.633	756.589	0.102	-0.275
-150.618	800.000	-0.127	0.378
-149.604	537.957	0.019	0.046
-148.589	800.000	-0.103	-0.333
-147.574	-200.000	-0.030	0.271
-146.560	345.270	-0.128	-0.250
-145.545	-83.613	-0.172	0.055
-144.531	800.000	0.029	-0.093
-143.516	-21.122	0.068	0.041
-142.502	-180.215	0.084	0.002
-141.487	800.000	-0.053	-0.161
-140.472	-27.345	0.052	-0.030
-139.458	-91.671	0.089	-0.025
-138.443	750.256	-0.032	-0.085
-137.429	-15.558	0.219	-0.139
-136.414	0.944	-0.102	0.073
-135.399	-50.120	0.059	0.028
-134.385	-64.839	0.243	-0.098
-133.370	-43.568	-0.183	0.092
-132.356	-90.963	-0.364	-0.104
-131.341	-200.000	-0.024	-0.279
-130.326	-200.000	-0.001	-0.108
-129.312	290.153	-0.063	0.113
-128.297	-47.259	-0.119	-0.058
-127.283	-84.362	-0.250	0.078
-126.268	-200.000	0.016	0.115
-125.253	278.036	0.082	0.146
-124.239	-65.939	-0.340	-0.135
-123.224	63.138	-0.299	-0.297
-122.210	-200.000	0.035	-0.216
-121.195	-200.000	0.003	-0.114
