DTS Sentinel unit serial number:	SN413079Multiplexer serial number:	ORYXHardware model number:	OX4-SRSoftware version number:	ORYX F/W v4.00 Oryx Data Collector v3.7.2.0data status	okinstallation	princeton_trtdifferential loss correction	single-endedforward channel	channel 1reverse channel	N/Adate	2019/09/18time	01:54:35forward acquisition time	60.00reverse acquisition time	0.00gamma	496.2192k internal	0.2341k external	0.2341temperature offset calibration	0.9978default loss term (dB/km)	0.3790temperature slope calibration	1.0000multiplexer offset coefficient	1.0000multiplexer slope coefficient	1.0000fibre end	0.00T internal ref (°C)	22.95T ext. ref 1 (°C)	0.17T ext. ref 2 (°C)	16.66length (m)	temperature (°C)	Stokes	anti-Stokes-747.200	-64.023	-0.192	-0.078
-746.185	6.572	-0.229	0.170
-745.171	458.751	-0.059	0.132
-744.156	-77.131	-0.335	0.117
-743.142	800.000	-0.021	0.075
-742.127	-3.253	-0.348	-0.243
-741.112	-133.959	0.172	0.021
-740.098	197.781	0.043	0.066
-739.083	322.629	0.099	-0.189
-738.069	-53.491	0.246	0.113
-737.054	-86.652	0.317	-0.097
-736.039	-35.380	-0.084	-0.046
-735.025	-66.799	-0.205	-0.081
-734.010	0.222	-0.457	0.327
-732.996	-86.135	0.189	0.058
-731.981	120.749	-0.040	-0.049
-730.966	-200.000	0.023	-0.156
-729.952	-125.780	-0.346	0.052
-728.937	11.213	-0.377	-0.289
-727.923	800.000	-0.101	-0.374
-726.908	243.836	-0.102	-0.172
-725.894	97.869	-0.231	-0.266
-724.879	457.953	0.060	0.133
-723.864	335.436	-0.087	-0.169
-722.850	-1.550	0.074	0.052
-721.835	64.502	-0.085	0.086
-720.821	183.883	0.096	-0.142
-719.806	-200.000	-0.019	-0.220
-718.791	96.238	-0.094	-0.108
-717.777	-200.000	0.008	0.041
-716.762	-115.735	-0.257	0.048
-715.748	800.000	0.062	0.191
-714.733	-120.851	0.180	0.030
-713.718	800.000	-0.056	0.237
-712.704	157.791	0.133	-0.184
-711.689	-200.000	0.006	0.369
-710.675	-131.292	-0.137	-0.018
-709.660	-62.710	0.097	-0.040
-708.645	800.000	-0.013	0.038
-707.631	-101.837	-0.359	-0.087
-706.616	-90.855	-0.045	-0.013
-705.602	202.403	0.145	0.224
-704.587	293.355	0.074	-0.135
-703.572	800.000	-0.077	-0.300
-702.558	-74.257	0.328	-0.119
-701.543	320.893	0.011	-0.022
-700.529	-200.000	-0.005	-0.073
-699.514	800.000	-0.031	0.106
-698.499	-118.612	-0.047	0.008
-697.485	68.100	-0.125	0.128
-696.470	-5.366	-0.198	0.136
-695.456	13.089	-0.112	-0.087
-694.441	56.791	0.117	-0.114
-693.426	80.468	-0.108	0.116
-692.412	-33.963	0.161	-0.089
-691.397	-10.282	0.158	0.105
-690.383	325.027	-0.110	0.210
-689.368	-83.804	-0.308	-0.098
-688.354	-155.498	-0.536	0.035
-687.339	-32.132	0.046	-0.026
-686.324	220.290	-0.194	-0.312
-685.310	94.539	-0.174	-0.197
-684.295	-94.658	-0.221	0.060
-683.281	-55.745	0.053	-0.024
-682.266	-31.320	-0.149	-0.084
-681.251	800.000	0.095	0.378
-680.237	-141.780	-0.169	0.017
-679.222	800.000	0.020	0.087
-678.208	-161.750	0.157	-0.008
-677.193	-139.776	0.397	0.042
-676.178	800.000	0.054	-0.161
-675.164	330.996	0.130	0.251
-674.149	161.804	0.177	-0.248
-673.135	-91.242	-0.551	0.158
-672.120	-83.599	0.060	0.019
-671.105	147.625	0.033	-0.045
-670.091	800.000	-0.050	0.161
-669.076	-66.697	-0.091	-0.036
-668.062	-143.142	0.321	0.031
-667.047	-106.815	0.098	0.022
-666.032	-178.469	-0.334	0.008
-665.018	-143.920	0.170	-0.016
-664.003	-75.094	-0.442	-0.158
-662.989	-17.889	-0.215	0.135
-661.974	-137.707	0.431	0.048
-660.959	88.788	-0.093	-0.103
-659.945	-113.426	-0.082	-0.016
-658.930	800.000	-0.011	-0.040
-657.916	-200.000	0.039	0.312
-656.901	-200.000	-0.079	-0.346
-655.886	-90.738	0.294	-0.085
-654.872	-59.603	0.500	0.214
-653.857	800.000	-0.034	-0.145
-652.843	247.824	-0.068	0.115
-651.828	800.000	-0.011	-0.041
-650.814	-66.652	-0.319	-0.126
-649.799	169.297	0.024	-0.034
-648.784	84.933	-0.020	-0.021
-647.770	12.716	0.195	0.150
-646.755	-200.000	-0.040	0.232
-645.741	-43.203	-0.390	-0.197
-644.726	96.314	0.199	-0.228
-643.711	-115.030	0.179	0.034
-642.697	180.867	0.091	0.133
-641.682	-135.004	-0.303	-0.036
-640.668	800.000	-0.123	-0.387
-639.653	-117.875	-0.195	-0.035
-638.638	238.120	-0.114	0.189
-637.624	423.383	0.110	0.237
-636.609	-111.367	-0.407	0.083
-635.595	488.161	0.039	0.089
-634.580	-200.000	-0.019	-0.193
-633.565	430.277	0.060	0.130
-632.551	105.925	-0.075	0.088
-631.536	150.845	-0.052	-0.071
-630.522	-0.165	0.055	0.039
-629.507	-75.120	-0.253	0.090
-628.492	-119.989	-0.292	0.050
-627.478	-51.741	-0.179	-0.083
-626.463	-156.798	0.509	0.031
-625.449	749.038	0.064	0.173
-624.434	-200.000	-0.009	0.047
-623.419	-79.391	-0.079	0.027
-622.405	148.137	-0.155	0.209
-621.390	-200.000	-0.021	0.260
-620.376	-200.000	-0.016	-0.199
-619.361	553.986	0.055	-0.132
-618.346	-200.000	0.045	-0.323
-617.332	-200.000	0.013	-0.155
-616.317	-76.237	-0.227	-0.080
-615.303	147.652	-0.194	0.261
-614.288	17.655	-0.163	0.130
-613.273	197.065	0.236	-0.358
-612.259	144.624	-0.184	0.245
-611.244	12.772	-0.132	-0.102
-610.230	-200.000	0.024	0.291
-609.215	117.484	-0.041	-0.051
-608.201	-117.688	0.139	-0.025
-607.186	218.728	-0.046	0.073
-606.171	-135.594	-0.455	0.054
-605.157	263.649	0.159	-0.276
-604.142	-61.532	-0.155	0.065
-603.128	-173.265	-0.074	0.002
-602.113	-95.195	0.414	-0.111
-601.098	-30.130	-0.244	0.138
-600.084	687.060	0.093	-0.241
-599.069	-114.161	-0.179	-0.034
-598.055	800.000	0.143	0.496
-597.040	-121.804	-0.442	-0.073
-596.025	134.569	0.173	0.223
-595.011	800.000	0.027	0.099
-593.996	-14.947	0.067	-0.043
-592.982	68.292	0.105	-0.107
-591.967	800.000	-0.044	-0.157
-590.952	-37.057	-0.232	-0.124
-589.938	-108.220	-0.284	0.061
-588.923	-140.358	0.197	0.020
-587.909	-75.885	0.229	-0.081
-586.894	200.631	-0.262	-0.401
-585.879	-34.027	-0.323	-0.177
-584.865	78.495	-0.328	-0.349
-583.850	-200.000	-0.009	0.151
-582.836	104.854	-0.141	-0.165
-581.821	57.545	0.062	-0.061
-580.806	-61.582	0.303	0.127
-579.792	645.432	0.048	-0.123
-578.777	-22.024	0.117	0.071
-577.763	800.000	0.038	-0.105
-576.748	-200.000	-0.023	-0.135
-575.733	-200.000	-0.489	0.001
-574.719	40.866	-0.107	0.096
-573.704	-200.000	-0.036	-0.295
-572.690	32.635	-0.405	0.348
-571.675	272.015	0.141	0.247
-570.661	160.668	-0.155	0.216
-569.646	-34.076	-0.021	-0.012
-568.631	-200.000	-0.026	-0.139
-567.617	-8.033	0.143	-0.096
-566.602	-200.000	-0.006	-0.174
-565.588	-102.456	-0.279	-0.066
-564.573	-64.153	0.339	0.138
-563.558	90.078	-0.039	0.043
-562.544	-6.403	0.406	-0.276
-561.529	-146.725	-0.312	-0.027
-560.515	162.083	0.087	0.122
-559.500	15.625	0.095	-0.075
-558.485	537.807	-0.020	-0.047
-557.471	199.334	-0.191	0.292
-556.456	800.000	0.094	-0.408
-555.442	800.000	0.030	0.103
-554.427	244.496	0.173	-0.289
-553.412	404.657	0.101	-0.212
-552.398	260.181	0.263	0.452
-551.383	-189.337	-0.217	-0.003
-550.369	586.584	0.032	-0.077
-549.354	-46.662	0.283	0.138
-548.339	-200.000	0.010	-0.069
-547.325	-83.285	-0.474	-0.151
-546.310	92.506	-0.195	-0.219
-545.296	124.869	-0.164	-0.206
-544.281	-90.390	-0.254	-0.073
-543.266	-65.754	0.263	0.105
-542.252	-14.296	-0.293	0.188
-541.237	320.912	0.095	0.180
-540.223	800.000	0.045	0.147
-539.208	97.045	0.105	0.120
-538.193	63.957	0.146	-0.146
-537.179	-200.000	-0.117	-0.529
-536.164	-88.893	-0.175	0.052
-535.150	129.131	-0.073	0.092
-534.135	199.746	-0.295	0.450
-533.121	-200.000	0.012	-0.264
-532.106	-200.000	-0.009	0.397
-531.091	-114.850	0.412	0.078
-530.077	66.340	-0.175	0.177
-529.062	-164.919	0.344	-0.015
-528.048	277.440	0.030	0.054
-527.033	305.026	0.127	-0.234
-526.018	149.441	0.279	-0.376
-525.004	-44.717	-0.200	0.099
-523.989	438.379	-0.086	0.185
-522.975	-77.668	0.445	-0.153
-521.960	108.178	-0.237	0.281
-520.945	140.465	0.090	0.118
-519.931	-200.000	-0.020	0.143
-518.916	-117.755	-0.347	0.062
-517.902	-12.675	0.264	-0.171
-516.887	-200.000	-0.002	0.142
-515.872	372.675	-0.067	-0.135
-514.858	266.432	0.151	0.261
-513.843	-5.733	-0.054	0.037
-512.829	164.426	-0.233	0.326
-511.814	-95.587	-0.263	-0.070
-510.799	296.127	0.088	-0.160
-509.785	-200.000	0.051	-0.285
-508.770	-12.001	0.181	-0.118
-507.756	538.621	-0.125	-0.296
-506.741	772.508	-0.063	-0.170
-505.726	16.177	0.090	-0.070
-504.712	293.127	0.065	0.118
-503.697	-158.923	0.255	0.014
-502.683	-46.679	-0.252	-0.123
-501.668	-104.751	0.189	-0.043
-500.653	41.971	0.110	0.099
-499.639	243.484	0.115	0.192
-498.624	-55.615	-0.246	-0.109
-497.610	-129.162	0.121	-0.017
-496.595	800.000	0.056	-0.185
-495.581	-200.000	0.021	-0.099
-494.566	-200.000	-0.040	0.303
-493.551	-121.225	0.300	0.050
-492.537	-148.186	0.337	-0.028
-491.522	-200.000	-0.016	-0.208
-490.508	800.000	-0.044	-0.147
-489.493	-95.104	0.098	-0.026
-488.478	-200.000	0.002	-0.013
-487.464	-176.135	-0.171	0.004
-486.449	-146.861	-0.158	-0.014
-485.435	149.912	-0.064	0.086
-484.420	241.425	0.220	0.364
-483.405	52.026	-0.091	0.086
-482.391	77.147	-0.171	-0.180
-481.376	-200.000	-0.021	-0.116
-480.362	-200.000	-0.020	0.159
-479.347	-32.563	-0.132	0.073
-478.332	800.000	-0.075	0.320
-477.318	146.104	0.064	0.085
-476.303	-40.742	-0.310	-0.159
-475.289	46.371	-0.138	-0.127
-474.274	369.328	-0.099	-0.198
-473.259	55.582	-0.123	-0.118
-472.245	47.818	0.187	0.173
-471.230	-200.000	-0.025	0.244
-470.216	-106.786	0.253	-0.056
-469.201	766.564	-0.059	-0.159
-468.186	-85.886	0.197	-0.061
-467.172	120.850	0.323	-0.398
-466.157	800.000	0.129	0.387
-465.143	612.352	0.030	0.074
-464.128	-112.873	-0.193	0.038
-463.113	14.271	0.024	0.019
-462.099	238.861	-0.058	-0.095
-461.084	76.333	0.095	0.100
-460.070	191.612	0.138	-0.206
-459.055	-15.763	0.229	0.145
-458.040	-200.000	0.067	0.323
-457.026	8.639	-0.250	0.187
-456.011	-2.289	-0.077	0.054
-454.997	64.829	-0.119	-0.119
-453.982	-200.000	0.019	0.193
-452.968	800.000	-0.049	0.181
-451.953	-19.833	-0.429	-0.262
-450.938	-166.282	0.053	-0.002
-449.924	-97.819	-0.228	-0.058
-448.909	-200.000	0.023	0.223
-447.895	169.522	-0.159	-0.224
-446.880	357.969	-0.076	-0.151
-445.865	-98.749	0.164	-0.041
-444.851	-200.000	-0.002	0.163
-443.836	435.316	-0.064	-0.138
-442.822	104.836	-0.088	0.103
-441.807	-200.000	0.030	0.345
-440.792	45.226	-0.242	0.221
-439.778	800.000	-0.071	0.225
-438.763	-61.005	0.201	-0.084
-437.749	-200.000	-0.015	0.074
-436.734	-30.400	0.332	-0.186
-435.719	-200.000	0.010	-0.062
-434.705	-53.832	-0.242	-0.109
-433.690	-91.929	0.201	-0.056
-432.676	320.578	0.014	0.027
-431.661	-200.000	-0.015	-0.082
-430.646	35.227	-0.128	-0.111
-429.632	-70.873	0.204	0.076
-428.617	25.945	-0.365	-0.301
-427.603	800.000	0.065	-0.241
-426.588	74.525	0.166	-0.173
-425.573	-200.000	-0.052	-0.241
-424.559	370.505	-0.179	-0.359
-423.544	-92.303	0.163	0.046
-422.530	-38.674	0.223	-0.116
-421.515	218.200	-0.072	0.113
-420.500	100.131	-0.276	-0.316
-419.486	85.769	0.203	0.221
-418.471	-102.879	0.264	0.062
-417.457	731.564	0.066	0.175
-416.442	-200.000	0.036	0.224
-415.428	14.639	0.259	0.200
-414.413	-1.785	0.173	-0.121
-413.398	430.062	-0.021	-0.045
-412.384	55.255	0.234	-0.224
-411.369	18.298	-0.259	-0.205
-410.355	-200.000	-0.021	0.349
-409.340	-61.634	-0.425	-0.177
-408.325	-66.339	-0.271	-0.107
-407.311	-88.065	-0.160	-0.048
-406.296	-200.000	0.027	0.356
-405.282	-60.220	-0.180	-0.076
-404.267	-117.894	0.029	0.005
-403.252	-200.000	0.002	-0.110
-402.238	148.073	0.101	0.134
-401.223	-80.694	0.046	-0.015
-400.209	26.613	0.174	-0.144
-399.194	-185.557	-0.088	0.001
-398.179	749.593	0.092	0.244
-397.165	-200.000	0.027	0.194
-396.150	-137.746	0.286	0.032
-395.136	-28.979	0.245	0.139
-394.121	-52.739	-0.093	-0.042
-393.106	-14.676	-0.196	-0.125
-392.092	800.000	-0.104	0.347
-391.077	44.122	0.070	-0.064
-390.063	-168.765	-0.321	-0.012
-389.048	61.324	-0.122	-0.120
-388.033	310.849	-0.090	-0.166
-387.019	84.850	0.107	0.116
-386.004	46.954	-0.011	-0.010
-384.990	145.775	0.136	-0.180
-383.975	43.212	-0.102	0.092
-382.960	-93.572	0.284	-0.077
-381.946	-150.999	-0.098	0.007
-380.931	800.000	-0.012	-0.034
-379.917	552.714	-0.091	-0.215
-378.902	3.815	-0.201	-0.145
-377.888	62.202	0.222	-0.219
-376.873	-19.554	0.127	-0.078
-375.858	-82.341	-0.042	-0.013
-374.844	-115.338	0.116	0.022
-373.829	-200.000	0.007	0.046
-372.815	800.000	-0.052	-0.179
-371.800	208.993	-0.048	0.075
-370.785	70.465	0.047	-0.048
-369.771	-47.985	-0.118	0.056
-368.756	-131.849	0.059	0.008
-367.742	-122.603	-0.244	-0.039
-366.727	-57.330	-0.101	-0.044
-365.712	800.000	-0.084	0.339
-364.698	10.676	-0.337	-0.254
-363.683	9.075	0.215	0.160
-362.669	-170.909	-0.096	0.003
-361.654	-11.762	0.149	-0.097
-360.639	-200.000	0.040	-0.254
-359.625	-44.027	0.122	-0.061
-358.610	-68.496	-0.311	-0.119
-357.596	-200.000	-0.032	-0.205
-356.581	-10.253	-0.277	-0.182
-355.566	418.195	0.061	-0.129
-354.552	-111.984	0.050	0.010
-353.537	-200.000	0.017	0.092
-352.523	-177.227	0.267	-0.007
-351.508	13.372	0.178	0.136
-350.493	-52.278	0.079	-0.036
-349.479	-200.000	0.008	-0.488
-348.464	-135.113	-0.149	-0.018
-347.450	-200.000	0.007	0.311
-346.435	800.000	-0.080	0.247
-345.420	800.000	-0.058	0.180
-344.406	-200.000	-0.017	-0.213
-343.391	523.468	-0.029	-0.068
-342.377	-51.108	0.213	-0.098
-341.362	7.447	-0.165	-0.122
-340.348	-98.081	0.247	0.063
-339.333	-149.352	-0.225	-0.018
-338.318	-128.643	0.216	-0.030
-337.304	-200.000	-0.012	-0.126
-336.289	8.544	-0.086	-0.064
-335.275	155.372	0.028	-0.038
-334.260	-24.541	0.226	0.133
-333.245	-16.728	0.223	0.139
-332.231	93.806	0.161	-0.180
-331.216	8.920	0.206	-0.153
-330.202	800.000	-0.097	0.274
-329.187	23.228	-0.135	0.109
-328.172	-96.627	-0.408	0.106
-327.158	309.260	0.107	-0.198
-326.143	-200.000	-0.008	0.040
-325.129	65.873	0.375	0.375
-324.114	-200.000	-0.025	-0.339
-323.099	247.028	0.272	-0.453
-322.085	-200.000	0.032	0.244
-321.070	-200.000	0.042	0.302
-320.056	184.268	0.206	-0.300
-319.041	-200.000	0.013	0.138
-318.026	-200.000	0.030	-0.208
-317.012	275.074	0.048	0.084
-315.997	-200.000	-0.031	0.294
-314.983	-200.000	0.012	-0.152
-313.968	16.867	0.103	-0.081
-312.953	-164.753	-0.120	-0.005
-311.939	-54.508	-0.271	-0.121
-310.924	-15.749	-0.006	-0.004
-309.910	-200.000	0.018	0.396
-308.895	-200.000	-0.020	-0.101
-307.880	-133.630	-0.187	0.023
-306.866	-200.000	0.412	0.002
-305.851	18.893	-0.122	0.096
-304.837	64.351	-0.245	-0.243
-303.822	115.233	0.158	0.191
-302.807	44.473	0.242	-0.219
-301.793	304.431	-0.049	-0.090
-300.778	-94.883	0.261	0.070
-299.764	800.000	-0.037	0.105
-298.749	-200.000	-0.001	-0.198
-297.735	-158.990	0.186	0.010
-296.720	-200.000	-0.025	-0.388
-295.705	-126.609	0.203	-0.030
-294.691	-200.000	0.043	0.294
-293.676	-200.000	-0.030	0.193
-292.662	-9.745	0.168	-0.110
-291.647	652.634	-0.015	-0.038
-290.632	203.721	0.164	-0.250
-289.618	-166.127	-0.071	0.003
-288.603	-112.484	0.295	-0.058
-287.589	-200.000	-0.003	0.391
-286.574	-72.070	0.195	-0.071
-285.559	365.607	-0.199	-0.395
-284.545	48.397	-0.153	0.141
-283.530	-4.268	0.109	0.074
-282.516	693.396	-0.037	-0.094
-281.501	90.884	0.037	0.040
-280.486	-13.863	0.104	-0.066
-279.472	-189.124	-0.189	0.002
-278.457	-9.302	-0.222	0.146
-277.443	687.577	0.026	0.066
-276.428	198.441	0.156	0.235
-275.413	-45.414	0.181	0.088
-274.399	-67.754	0.307	0.118
-273.384	218.166	-0.371	-0.582
-272.370	-200.000	0.012	-0.215
-271.355	-124.168	0.347	-0.053
-270.340	450.042	-0.067	0.145
-269.326	-200.000	-0.004	0.186
-268.311	-111.744	0.323	0.064
-267.297	-168.229	0.164	-0.006
-266.282	-200.000	0.051	-0.326
-265.267	-200.000	0.042	-0.214
-264.253	-111.118	0.094	-0.019
-263.238	9.778	-0.205	0.153
-262.224	-200.000	-0.008	0.049
-261.209	243.600	0.129	0.214
-260.195	800.000	-0.069	0.245
-259.180	800.000	-0.064	0.262
-258.165	279.723	0.042	0.073
-257.151	-108.137	0.178	-0.038
-256.136	-2.623	-0.131	-0.090
-255.122	-52.451	-0.262	0.119
-254.107	800.000	0.063	-0.270
-253.092	-115.744	0.119	0.022
-252.078	-74.979	-0.173	-0.061
-251.063	202.640	0.078	0.118
-250.049	247.383	-0.150	0.249
-249.034	800.000	-0.063	0.184
-248.019	-200.000	-0.013	0.252
-247.005	800.000	0.062	-0.206
-245.990	7.083	0.138	0.101
-244.976	-108.673	0.122	0.026
-243.961	-200.000	-0.029	0.157
-242.946	-103.276	0.074	-0.017
-241.932	-94.306	0.226	-0.061
-240.917	-32.150	0.170	-0.093
-239.903	-66.597	0.085	0.033
-238.888	91.056	-0.075	-0.082
-237.873	-105.714	0.251	0.056
-236.859	-15.557	0.205	0.129
-235.844	738.428	0.123	0.324
-234.830	205.852	0.032	0.048
-233.815	-105.328	0.180	0.040
-232.800	120.160	0.151	-0.184
-231.786	245.404	0.193	0.318
-230.771	-200.000	0.003	0.276
-229.757	-121.796	-0.335	-0.054
-228.742	-175.050	-0.081	0.002
-227.727	54.138	-0.166	0.157
-226.713	160.812	0.210	0.288
-225.698	-124.363	-0.197	0.030
-224.684	-200.000	0.023	0.390
-223.669	800.000	-0.038	-0.145
-222.655	-200.000	-0.013	-0.086
-221.640	103.973	-0.100	0.115
-220.625	136.362	0.176	0.226
-219.611	145.296	0.092	0.121
-218.596	-42.891	0.445	0.222
-217.582	504.567	-0.281	0.638
-216.567	-200.000	0.018	0.083
-215.552	800.000	0.056	0.166
-214.538	-173.447	0.145	-0.004
-213.523	-90.779	0.076	0.021
-212.509	-156.727	0.345	0.021
-211.494	-119.831	0.228	0.038
-210.479	7.034	-0.084	0.061
-209.465	-200.000	0.001	0.086
-208.450	485.262	0.040	-0.089
-207.436	37.372	0.164	-0.142
-206.421	-66.856	0.341	0.132
-205.406	-39.438	-0.133	-0.069
-204.392	-45.306	0.106	0.052
-203.377	384.108	-0.055	0.111
-202.363	125.844	-0.123	0.152
-201.348	-200.000	0.000	0.158
-200.333	80.842	0.091	0.096
-199.319	145.429	-0.157	-0.206
-198.304	299.500	-0.039	-0.071
-197.290	-114.200	-0.177	0.034
-196.275	-114.733	-0.465	-0.087
-195.260	-83.942	0.244	-0.076
-194.246	-53.606	-0.268	-0.120
-193.231	416.454	0.163	0.340
-192.217	-135.581	-0.212	0.025
-191.202	-200.000	0.003	-0.102
-190.187	179.964	0.226	-0.325
-189.173	56.414	0.023	0.022
-188.158	359.466	-0.158	0.309
-187.144	14.581	-0.096	-0.074
-186.129	193.205	0.208	-0.308
-185.114	520.497	-0.059	0.135
-184.100	138.110	-0.035	-0.044
-183.085	-125.260	0.249	0.037
-182.071	-173.408	-0.130	0.004
-181.056	-127.787	-0.215	0.030
-180.042	265.537	-0.064	0.109
-179.027	-141.852	-0.313	0.031
-178.012	187.083	-0.212	-0.310
-176.998	187.654	-0.092	-0.134
-175.983	-70.929	-0.254	0.094
-174.969	-200.000	-0.043	0.217
-173.954	-96.577	-0.123	0.032
-172.939	800.000	-0.107	-0.326
-171.925	-200.000	0.046	-0.248
-170.910	-98.022	0.164	-0.041
-169.896	-47.725	0.398	-0.189
-168.881	-197.716	-0.369	-0.002
-167.866	-200.000	-0.032	0.370
-166.852	-200.000	-0.065	-0.393
-165.837	-131.627	0.190	-0.024
-164.823	173.087	0.066	-0.093
-163.808	209.730	0.069	0.107
-162.793	-200.000	0.001	0.153
-161.779	27.434	-0.214	-0.176
-160.764	282.016	-0.097	0.170
-159.750	6.448	0.164	-0.119
-158.735	-200.000	0.005	-0.141
-157.720	-200.000	-0.002	-0.171
-156.706	-7.103	0.050	0.033
-155.691	-58.866	0.221	-0.094
-154.677	102.039	0.077	-0.088
-153.662	449.043	-0.155	-0.335
-152.647	-200.000	-0.001	0.045
-151.633	26.216	-0.135	0.110
-150.618	148.790	-0.201	0.266
-149.604	-117.542	0.137	0.024
-148.589	800.000	0.031	-0.130
-147.574	506.184	-0.166	-0.377
-146.560	269.760	0.099	0.170
-145.545	144.913	0.141	0.185
-144.531	447.238	0.048	-0.102
-143.516	-195.082	-0.121	-0.001
-142.502	-200.000	0.017	0.152
-141.487	-170.230	0.365	-0.013
-140.472	-122.302	-0.111	-0.018
-139.458	168.419	-0.109	0.152
-138.443	-4.403	0.142	0.096
-137.429	-80.344	-0.160	-0.052
-136.414	661.106	-0.093	0.235
-135.399	-91.481	0.385	0.107
-134.385	414.263	-0.043	-0.090
-133.370	62.143	0.088	-0.086
-132.356	147.475	-0.167	0.221
-131.341	-70.009	0.068	0.026
-130.326	-142.619	0.153	-0.015
-129.312	-103.349	-0.326	0.075
-128.297	800.000	0.073	0.301
-127.283	-12.902	-0.062	-0.039
-126.268	-11.088	0.234	-0.151
-125.253	4.513	-0.182	0.130
-124.239	-68.632	-0.266	-0.101
-123.224	-129.387	0.301	0.041
-122.210	-85.414	0.133	0.041
