DTS Sentinel unit serial number:	SN413079Multiplexer serial number:	ORYXHardware model number:	OX4-SRSoftware version number:	ORYX F/W v4.00 Oryx Data Collector v3.7.2.0data status	okinstallation	princeton_trtdifferential loss correction	single-endedforward channel	channel 1reverse channel	N/Adate	2019/09/12time	21:42:35forward acquisition time	60.00reverse acquisition time	0.00gamma	496.2192k internal	0.2326k external	0.2326temperature offset calibration	1.0143default loss term (dB/km)	0.3790temperature slope calibration	1.0000multiplexer offset coefficient	1.0000multiplexer slope coefficient	1.0000fibre end	0.00T internal ref (°C)	30.28T ext. ref 1 (°C)	3.68T ext. ref 2 (°C)	24.93length (m)	temperature (°C)	Stokes	anti-Stokes-747.200	-200.000	0.141	0.001
-746.185	155.045	-0.249	0.345
-745.171	-144.631	0.088	0.008
-744.156	328.639	0.292	0.566
-743.142	69.158	-0.166	-0.172
-742.127	-200.000	0.037	0.314
-741.112	-86.314	0.293	0.091
-740.098	152.726	-0.268	0.369
-739.083	492.321	0.171	-0.395
-738.069	33.760	-0.296	-0.260
-737.054	-200.000	-0.082	-0.489
-736.039	130.905	-0.421	-0.545
-735.025	-31.867	0.400	0.226
-734.010	607.675	0.067	-0.169
-732.996	800.000	-0.092	-0.345
-731.981	-200.000	-0.042	0.321
-730.966	54.447	-0.188	0.183
-729.952	-200.000	-0.035	-0.255
-728.937	-109.815	-0.365	-0.077
-727.923	342.003	-0.107	0.211
-726.908	-65.626	-0.290	-0.117
-725.894	-200.000	0.008	-0.038
-724.879	800.000	0.164	-0.485
-723.864	687.522	-0.127	-0.336
-722.850	574.356	0.093	0.229
-721.835	-69.543	0.368	-0.142
-720.821	303.190	0.060	0.112
-719.806	67.682	-0.035	0.036
-718.791	-200.000	-0.007	-0.181
-717.777	26.605	0.070	-0.059
-716.762	-200.000	0.023	-0.288
-715.748	-110.940	-0.297	-0.062
-714.733	-200.000	0.008	0.078
-713.718	597.335	0.186	-0.465
-712.704	-200.000	0.025	-0.167
-711.689	-67.768	-0.210	0.083
-710.675	-94.718	-0.168	0.046
-709.660	800.000	-0.101	-0.369
-708.645	-102.595	0.097	-0.023
-707.631	-155.589	0.257	0.017
-706.616	-18.631	-0.055	-0.034
-705.602	-200.000	-0.010	0.239
-704.587	44.599	0.103	0.095
-703.572	800.000	-0.061	0.210
-702.558	55.517	0.209	0.204
-701.543	442.043	0.054	-0.119
-700.529	154.541	0.026	-0.036
-699.514	150.053	-0.014	-0.019
-698.499	8.038	-0.113	0.086
-697.485	-44.980	-0.164	-0.082
-696.470	-200.000	0.008	-0.071
-695.456	45.814	-0.273	-0.254
-694.441	-97.363	0.086	-0.023
-693.426	370.633	-0.193	-0.393
-692.412	-5.225	0.224	-0.155
-691.397	178.454	-0.116	-0.171
-690.383	-77.130	-0.136	-0.048
-689.368	-200.000	-0.022	-0.408
-688.354	800.000	-0.019	0.071
-687.339	800.000	-0.041	0.176
-686.324	-100.033	-0.160	-0.040
-685.310	-58.495	0.299	-0.131
-684.295	157.424	-0.129	0.180
-683.281	-200.000	-0.028	0.252
-682.266	-74.865	-0.546	-0.197
-681.251	-17.584	-0.084	-0.053
-680.237	800.000	-0.047	0.156
-679.222	-82.968	-0.308	0.100
-678.208	118.886	-0.200	-0.248
-677.193	-168.110	-0.132	-0.005
-676.178	-151.345	0.224	0.017
-675.164	-200.000	-0.008	0.073
-674.149	89.428	-0.077	-0.087
-673.135	-100.766	0.164	-0.041
-672.120	53.520	0.146	-0.140
-671.105	-90.418	0.096	-0.028
-670.091	-120.963	-0.144	0.024
-669.076	-200.000	0.028	0.222
-668.062	-200.000	-0.061	-0.278
-667.047	-59.193	-0.245	0.106
-666.032	-41.881	0.273	0.141
-665.018	-114.580	0.253	0.049
-664.003	-70.504	-0.364	-0.139
-662.989	-135.451	-0.650	-0.078
-661.974	-15.041	-0.100	-0.065
-660.959	231.204	0.057	-0.094
-659.945	800.000	-0.189	-0.594
-658.930	177.689	0.249	-0.364
-657.916	-39.499	-0.291	0.153
-656.901	-84.625	-0.433	-0.137
-655.886	-152.864	0.234	-0.017
-654.872	-58.737	0.206	-0.090
-653.857	113.974	-0.176	-0.215
-652.843	-52.391	0.180	-0.084
-651.828	41.913	-0.144	-0.131
-650.814	61.659	0.061	-0.061
-649.799	-147.388	0.125	-0.011
-648.784	800.000	0.033	-0.130
-647.770	107.892	-0.183	-0.219
-646.755	155.667	-0.083	0.115
-645.741	151.052	0.027	-0.037
-644.726	406.251	0.047	-0.101
-643.711	-166.422	-0.286	0.012
-642.697	-151.619	-0.298	-0.022
-641.682	800.000	0.076	0.244
-640.668	-200.000	0.035	-0.166
-639.653	-85.636	-0.189	-0.059
-638.638	-200.000	-0.022	-0.202
-637.624	-200.000	0.027	0.130
-636.609	146.650	0.149	0.201
-635.595	-177.962	0.123	-0.003
-634.580	122.678	0.064	0.080
-633.565	204.382	0.237	0.369
-632.551	-200.000	0.023	-0.209
-631.536	-77.617	-0.439	-0.153
-630.522	-106.727	0.242	0.054
-629.507	-87.197	-0.122	0.037
-628.492	-93.230	-0.106	0.030
-627.478	637.536	0.056	-0.144
-626.463	-104.190	-0.177	-0.041
-625.449	-119.642	-0.251	0.044
-624.434	105.768	0.301	0.357
-623.419	800.000	0.105	0.359
-622.405	-126.706	0.181	-0.027
-621.390	-162.271	0.149	0.007
-620.376	800.000	0.141	0.478
-619.361	15.961	-0.452	0.357
-618.346	-200.000	0.036	-0.228
-617.332	800.000	-0.097	-0.283
-616.317	-115.529	0.339	0.064
-615.303	-200.000	-0.039	0.521
-614.288	-72.602	0.274	0.101
-613.273	-193.405	0.134	-0.001
-612.259	-200.000	-0.005	-0.068
-611.244	602.948	-0.030	0.075
-610.230	15.928	0.165	-0.131
-609.215	397.191	0.109	-0.228
-608.201	1.962	-0.224	-0.162
-607.186	-3.585	0.219	0.153
-606.171	-50.138	0.087	-0.041
-605.157	172.107	-0.180	-0.259
-604.142	-107.253	0.231	-0.051
-603.128	-45.878	-0.504	-0.250
-602.113	-116.267	-0.087	-0.016
-601.098	-200.000	0.005	-0.074
-600.084	-155.376	-0.246	-0.016
-599.069	26.516	-0.098	-0.082
-598.055	343.454	0.007	0.014
-597.040	-5.244	-0.106	-0.073
-596.025	-200.000	-0.013	-0.385
-595.011	-200.000	0.079	0.000
-593.996	-81.393	0.159	-0.053
-592.982	-26.030	-0.139	0.082
-591.967	-14.664	-0.135	-0.087
-590.952	17.941	0.223	-0.178
-589.938	-15.159	0.333	-0.214
-588.923	-200.000	0.031	0.148
-587.909	800.000	0.011	0.036
-586.894	-133.667	0.375	0.047
-585.879	301.979	0.083	-0.153
-584.865	-151.466	-0.082	-0.006
-583.850	-200.000	0.021	0.139
-582.836	-75.074	-0.268	-0.096
-581.821	-200.000	-0.004	0.034
-580.806	-119.200	-0.114	-0.020
-579.792	460.295	-0.199	0.444
-578.777	79.160	-0.162	-0.174
-577.763	180.744	-0.158	0.233
-576.748	800.000	-0.018	0.079
-575.733	-200.000	-0.012	0.086
-574.719	196.514	-0.144	-0.219
-573.704	270.359	-0.151	0.265
-572.690	68.765	-0.165	0.169
-571.675	157.892	0.031	0.042
-570.661	800.000	0.032	0.109
-569.646	-5.215	0.112	0.077
-568.631	15.919	-0.264	-0.208
-567.617	108.865	0.190	0.228
-566.602	-200.000	0.012	0.157
-565.588	800.000	0.090	0.316
-564.573	800.000	-0.035	-0.122
-563.558	-79.673	0.121	0.041
-562.544	298.855	-0.162	-0.299
-561.529	-143.596	0.247	0.024
-560.515	-200.000	0.013	-0.116
-559.500	-200.000	-0.015	-0.326
-558.485	-200.000	-0.043	-0.331
-557.471	-0.153	-0.153	-0.109
-556.456	119.142	-0.024	-0.030
-555.442	201.903	0.078	-0.120
-554.427	-18.911	-0.059	0.037
-553.412	-65.589	-0.113	-0.046
-552.398	404.961	-0.184	-0.389
-551.383	800.000	0.034	-0.148
-550.369	454.175	-0.062	-0.138
-549.354	800.000	0.034	0.127
-548.339	226.238	0.103	0.168
-547.325	81.666	-0.091	0.099
-546.310	-200.000	-0.040	-0.234
-545.296	-200.000	0.027	-0.276
-544.281	509.533	-0.115	-0.267
-543.266	175.644	0.046	0.066
-542.252	333.870	0.088	-0.170
-541.237	-81.421	-0.203	-0.067
-540.223	800.000	0.084	0.244
-539.208	-200.000	0.021	0.141
-538.193	790.995	0.042	0.116
-537.179	310.721	-0.075	0.140
-536.164	774.746	0.069	0.188
-535.150	67.146	0.081	0.082
-534.135	-12.190	0.216	0.141
-533.121	-80.841	-0.170	-0.057
-532.106	203.925	0.124	0.193
-531.091	-200.000	-0.010	-0.121
-530.077	6.428	-0.148	0.110
-529.062	-200.000	0.042	-0.186
-528.048	-125.025	0.287	0.044
-527.033	182.539	0.189	0.279
-526.018	218.225	-0.145	-0.232
-525.004	-200.000	-0.027	-0.237
-523.989	800.000	0.055	0.161
-522.975	107.802	-0.195	0.232
-521.960	-59.197	0.084	-0.036
-520.945	141.225	0.166	-0.220
-519.931	800.000	0.038	-0.122
-518.916	800.000	-0.048	-0.162
-517.902	40.414	-0.279	-0.251
-516.887	-149.435	0.089	-0.007
-515.872	800.000	-0.004	0.014
-514.858	76.630	0.148	0.157
-513.843	-151.884	-0.152	-0.011
-512.829	47.700	-0.146	0.136
-511.814	-200.000	-0.024	0.264
-510.799	682.042	0.035	0.090
-509.785	-178.131	-0.026	0.001
-508.770	-16.406	0.106	-0.067
-507.756	-70.704	-0.068	0.026
-506.741	-39.337	-0.077	0.040
-505.726	178.490	0.115	0.168
-504.712	-14.957	0.086	-0.055
-503.697	-10.938	-0.112	-0.074
-502.683	-163.375	-0.335	0.016
-501.668	203.626	0.106	-0.163
-500.653	800.000	-0.058	0.229
-499.639	-144.991	0.212	-0.019
-498.624	-12.051	-0.197	-0.129
-497.610	-200.000	0.000	0.032
-496.595	-169.985	0.128	-0.005
-495.581	47.598	0.401	-0.374
-494.566	-200.000	0.061	-0.291
-493.551	-84.124	0.345	0.109
-492.537	290.804	-0.048	-0.088
-491.522	-124.071	-0.399	0.063
-490.508	-17.231	-0.224	-0.141
-489.493	-200.000	-0.015	0.113
-488.478	-51.634	-0.356	-0.166
-487.464	800.000	0.075	-0.244
-486.449	-170.563	0.156	0.005
-485.435	163.668	-0.179	0.252
-484.420	10.554	-0.181	-0.137
-483.405	-14.342	0.242	0.156
-482.391	800.000	-0.064	-0.178
-481.376	-10.780	-0.219	-0.144
-480.362	149.993	-0.125	0.170
-479.347	37.501	0.200	-0.177
-478.332	-69.101	0.007	-0.003
-477.318	196.317	-0.147	0.224
-476.303	320.989	0.088	0.166
-475.289	221.016	-0.145	0.232
-474.274	285.392	-0.065	-0.117
-473.259	-200.000	-0.040	0.270
-472.245	800.000	0.114	-0.362
-471.230	-92.031	-0.045	-0.013
-470.216	-12.888	-0.244	0.159
-469.201	-4.811	0.276	-0.190
-468.186	-63.950	0.356	0.145
-467.172	730.071	-0.045	0.121
-466.157	-142.741	0.088	-0.009
-465.143	-200.000	-0.029	-0.286
-464.128	-200.000	-0.025	0.219
-463.113	-132.711	0.135	0.017
-462.099	378.550	-0.225	0.459
-461.084	-99.602	-0.133	0.033
-460.070	-200.000	-0.014	-0.171
-459.055	156.631	-0.287	0.395
-458.040	-55.601	-0.264	0.118
-457.026	-5.956	-0.148	-0.101
-456.011	78.699	0.131	0.140
-454.997	-134.281	0.294	0.036
-453.982	168.610	0.161	0.228
-452.968	800.000	-0.081	-0.299
-451.953	244.841	-0.049	-0.083
-450.938	668.450	-0.095	0.244
-449.924	-80.962	-0.347	-0.115
-448.909	-200.000	-0.001	-0.078
-447.895	800.000	0.069	0.206
-446.880	55.615	-0.098	-0.095
-445.865	-33.861	-0.213	-0.117
-444.851	-82.120	0.214	0.070
-443.836	-200.000	-0.012	0.516
-442.822	14.061	-0.142	0.110
-441.807	27.013	0.127	0.106
-440.792	-79.763	0.107	0.036
-439.778	327.370	-0.138	0.264
-438.763	63.611	0.186	0.186
-437.749	-9.714	-0.107	-0.071
-436.734	471.952	-0.136	-0.306
-435.719	-200.000	0.016	-0.131
-434.705	193.151	0.139	0.209
-433.690	-56.531	0.025	0.011
-432.676	-117.395	0.141	-0.026
-431.661	-200.000	-0.031	-0.190
-430.646	59.488	0.152	0.149
-429.632	-176.725	-0.150	-0.004
-428.617	-87.167	-0.088	0.027
-427.603	-28.396	-0.162	0.093
-426.588	-112.940	0.020	0.004
-425.573	800.000	-0.015	0.054
-424.559	121.708	0.256	-0.318
-423.544	321.398	-0.103	-0.195
-422.530	137.675	0.089	0.116
-421.515	800.000	-0.066	-0.230
-420.500	-29.849	-0.084	0.048
-419.486	18.579	0.165	-0.131
-418.471	800.000	-0.182	-0.538
-417.457	-45.849	-0.118	-0.058
-416.442	-110.960	0.121	0.025
-415.428	-155.322	0.132	0.009
-414.413	9.469	-0.084	0.063
-413.398	800.000	0.073	-0.264
-412.384	498.853	-0.077	0.176
-411.369	-30.008	0.356	0.202
-410.355	74.609	-0.140	0.147
-409.340	-200.000	0.040	0.248
-408.325	800.000	-0.079	-0.228
-407.311	-105.224	-0.094	0.021
-406.296	-200.000	0.012	-0.167
-405.282	-31.169	0.264	0.148
-404.267	112.581	-0.086	-0.103
-403.252	235.862	-0.067	-0.111
-402.238	-200.000	-0.027	0.131
-401.223	662.593	0.031	-0.080
-400.209	-200.000	0.032	-0.316
-399.194	649.391	0.043	0.110
-398.179	72.972	-0.189	-0.196
-397.165	800.000	0.043	0.147
-396.150	440.534	0.013	-0.028
-395.136	-140.425	-0.222	-0.023
-394.121	800.000	-0.041	0.167
-393.106	-37.095	-0.098	0.052
-392.092	-16.578	-0.085	0.054
-391.077	136.168	0.123	0.160
-390.063	-94.484	0.162	-0.044
-389.048	800.000	-0.014	-0.051
-388.033	-102.370	-0.226	0.054
-387.019	-39.686	-0.446	-0.232
-386.004	1.896	-0.072	0.052
-384.990	314.650	-0.212	-0.396
-383.975	-5.243	0.103	0.071
-382.960	24.757	0.104	-0.085
-381.946	63.078	0.123	0.122
-380.931	-200.000	0.013	-0.135
-379.917	181.362	-0.098	0.143
-378.902	58.282	0.350	0.341
-377.888	-59.821	-0.303	0.129
-376.873	120.578	-0.205	0.253
-375.858	-150.468	0.129	0.010
-374.844	152.282	0.178	0.242
-373.829	-200.000	0.045	0.213
-372.815	315.548	-0.103	0.193
-371.800	497.511	0.064	-0.147
-370.785	7.624	0.212	-0.157
-369.771	-54.320	0.206	0.093
-368.756	-27.172	0.234	-0.136
-367.742	-109.262	-0.303	0.064
-366.727	484.860	0.013	0.030
-365.712	219.999	-0.102	0.162
-364.698	800.000	0.071	-0.218
-363.683	179.799	0.091	0.132
-362.669	-191.648	-0.160	-0.002
-361.654	800.000	-0.045	-0.174
-360.639	-105.000	0.204	0.047
-359.625	-130.681	0.406	0.054
-358.610	304.867	-0.140	-0.259
-357.596	-62.439	0.122	-0.050
-356.581	-149.326	-0.594	-0.047
-355.566	-80.735	0.184	-0.061
-354.552	80.906	0.042	-0.045
-353.537	-200.000	0.036	-0.337
-352.523	171.636	-0.085	0.122
-351.508	-200.000	0.015	-0.065
-350.493	-150.100	0.151	-0.012
-349.479	153.160	-0.145	0.198
-348.464	90.923	0.252	0.281
-347.450	-10.406	0.249	-0.164
-346.435	98.217	-0.198	-0.226
-345.420	87.638	-0.249	0.274
-344.406	144.118	-0.160	-0.212
-343.391	800.000	0.095	0.322
-342.377	-119.166	0.286	0.050
-341.362	52.147	-0.331	-0.314
-340.348	363.287	0.126	-0.252
-339.333	181.994	-0.171	-0.250
-338.318	800.000	-0.057	0.168
-337.304	-94.822	0.068	0.018
-336.289	44.301	0.204	-0.186
-335.275	-72.555	-0.256	0.094
-334.260	114.133	0.066	-0.080
-333.245	-53.574	0.061	-0.027
-332.231	-146.026	-0.100	0.009
-331.216	147.590	0.156	0.209
-330.202	164.797	0.139	0.194
-329.187	129.623	0.208	0.264
-328.172	-122.877	0.088	0.014
-327.158	184.358	-0.118	-0.173
-326.143	-97.976	-0.258	0.066
-325.129	800.000	0.046	-0.132
-324.114	36.543	-0.153	-0.134
-323.099	-200.000	0.043	0.321
-322.085	-48.185	-0.048	0.023
-321.070	-45.205	0.058	-0.029
-320.056	-123.045	0.005	0.001
-319.041	162.383	-0.003	-0.004
-318.026	255.153	-0.070	-0.118
-317.012	-94.479	0.201	0.054
-315.997	23.055	0.258	-0.210
-314.983	-132.892	0.327	-0.041
-313.968	-18.664	0.420	-0.260
-312.953	-92.832	-0.146	-0.040
-311.939	70.255	-0.062	-0.064
-310.924	463.791	0.088	0.194
-309.910	-65.468	0.350	-0.140
-308.895	5.151	-0.071	-0.052
-307.880	209.219	0.090	0.139
-306.866	534.325	-0.110	0.259
-305.851	-39.882	-0.260	-0.134
-304.837	403.290	-0.084	-0.175
-303.822	-125.986	0.281	0.042
-302.807	181.648	0.089	-0.130
-301.793	-134.083	0.118	0.014
-300.778	-85.050	0.131	0.041
-299.764	387.411	-0.125	0.256
-298.749	-117.324	0.181	-0.033
-297.735	102.362	0.196	0.227
-296.720	-148.410	0.248	-0.020
-295.705	161.362	0.062	0.086
-294.691	-88.449	0.197	-0.058
-293.676	-90.598	-0.118	-0.034
-292.662	281.976	0.170	0.301
-291.647	245.719	0.059	-0.098
-290.632	-200.000	0.014	0.233
-289.618	268.322	-0.177	-0.306
-288.603	-3.337	0.097	-0.067
-287.589	-73.600	-0.133	-0.048
-286.574	100.906	-0.050	0.058
-285.559	-79.731	0.189	0.063
-284.545	4.192	-0.109	0.079
-283.530	-200.000	-0.059	-0.293
-282.516	95.691	-0.213	-0.241
-281.501	800.000	-0.124	-0.341
-280.486	80.550	0.236	-0.252
-279.472	800.000	0.074	-0.269
-278.457	-76.046	0.104	0.036
-277.443	470.007	0.040	0.090
-276.428	-160.641	-0.301	-0.016
-275.413	-76.389	-0.106	-0.037
-274.399	-39.553	0.275	0.142
-273.384	485.837	-0.110	0.247
-272.370	800.000	0.151	-0.428
-271.355	25.210	-0.048	0.039
-270.340	-71.027	-0.278	-0.104
-269.326	-119.911	-0.186	0.032
-268.311	90.154	-0.134	0.148
-267.297	-39.534	0.129	0.067
-266.282	-53.139	-0.065	-0.030
-265.267	28.428	-0.230	-0.193
-264.253	-200.000	-0.028	-0.204
-263.238	219.662	-0.072	-0.114
-262.224	-159.562	-0.322	0.018
-261.209	27.549	-0.126	0.105
-260.195	-200.000	-0.055	-0.284
-259.180	786.892	0.119	0.322
-258.165	-200.000	-0.002	0.017
-257.151	-2.490	-0.228	0.158
-256.136	-121.605	0.200	-0.033
-255.122	-136.268	-0.387	0.045
-254.107	63.483	0.403	-0.400
-253.092	-163.906	0.152	0.007
-252.078	-200.000	-0.006	0.074
-251.063	71.261	-0.214	0.220
-250.049	-171.624	-0.150	-0.005
-249.034	-200.000	-0.016	-0.104
-248.019	-44.929	0.181	-0.089
-247.005	-200.000	0.001	-0.162
-245.990	92.676	-0.122	-0.136
-244.976	-99.152	0.173	-0.043
-243.961	10.292	-0.111	-0.083
-242.946	-200.000	-0.050	0.226
-241.932	3.849	-0.172	0.124
-240.917	182.837	0.151	-0.220
-239.903	800.000	0.028	0.079
-238.888	-40.590	0.119	-0.061
-237.873	-88.054	0.215	-0.064
-236.859	-109.738	-0.108	-0.022
-235.844	174.181	-0.216	0.308
-234.830	21.350	-0.263	-0.211
-233.815	-200.000	-0.045	-0.293
-232.800	-87.640	-0.171	0.051
-231.786	654.587	0.059	-0.151
-230.771	-159.560	0.156	-0.009
-229.757	122.655	0.258	0.319
-228.742	-48.951	-0.130	-0.061
-227.727	-200.000	-0.017	-0.277
-226.713	507.468	-0.046	-0.106
-225.698	-86.046	-0.349	0.107
-224.684	-200.000	0.012	-0.578
-223.669	477.021	0.068	-0.153
-222.655	-66.409	0.165	0.065
-221.640	-55.648	0.298	-0.132
-220.625	-68.206	-0.133	0.051
-219.611	-98.238	0.239	0.061
-218.596	-200.000	0.019	0.192
-217.582	-48.862	-0.260	-0.123
-216.567	139.729	-0.201	-0.261
-215.552	-115.020	0.126	-0.024
-214.538	419.883	-0.215	0.455
-213.523	61.555	0.236	0.232
-212.509	-200.000	-0.012	0.098
-211.494	254.536	-0.017	0.029
-210.479	35.847	0.245	0.212
-209.465	52.863	0.210	0.198
-208.450	-11.736	-0.218	-0.141
-207.436	-84.364	0.361	-0.113
-206.421	-200.000	0.039	0.303
-205.406	129.612	-0.059	-0.075
-204.392	-153.211	0.120	-0.008
-203.377	-200.000	0.034	0.227
-202.363	-200.000	-0.038	-0.181
-201.348	-7.720	0.248	0.166
-200.333	149.378	-0.072	0.097
-199.319	800.000	0.073	0.228
-198.304	-115.707	0.179	-0.033
-197.290	-200.000	-0.011	0.202
-196.275	536.169	-0.085	0.200
-195.260	-163.748	0.080	0.004
-194.246	-20.202	0.246	0.150
-193.231	800.000	0.057	0.167
-192.217	88.300	0.085	0.093
-191.202	-117.663	0.120	0.021
-190.187	506.335	0.086	-0.198
-189.173	-98.041	-0.227	-0.058
-188.158	-103.604	-0.207	0.048
-187.144	-67.582	0.458	0.177
-186.129	-104.566	0.062	0.014
-185.114	-64.914	-0.051	-0.020
-184.100	-0.737	-0.130	0.091
-183.085	25.677	-0.198	-0.163
-182.071	-29.601	-0.155	-0.087
-181.056	-200.000	-0.021	0.268
-180.042	-118.138	-0.237	0.042
-179.027	-65.004	0.182	-0.072
-178.012	800.000	-0.021	-0.060
-176.998	717.565	-0.108	0.282
-175.983	293.878	-0.188	-0.339
-174.969	-70.766	0.307	-0.114
-173.954	449.846	-0.163	0.356
-172.939	-61.614	-0.212	-0.088
-171.925	116.968	-0.158	0.191
-170.910	-200.000	0.017	-0.211
-169.896	150.468	0.295	-0.396
-168.881	-200.000	-0.008	-0.208
-167.866	-84.474	0.196	-0.061
-166.852	-36.405	-0.307	-0.163
-165.837	-31.846	0.106	0.059
-164.823	135.065	0.204	0.262
-163.808	374.737	0.074	0.149
-162.793	211.599	-0.200	0.310
-161.779	343.909	0.128	0.247
-160.764	90.631	0.172	-0.190
-159.750	800.000	0.067	-0.253
-158.735	-23.640	-0.176	-0.104
-157.720	-77.422	0.247	0.084
-156.706	-31.263	-0.151	0.084
-155.691	-200.000	0.062	0.277
-154.677	85.199	0.105	0.114
-153.662	-112.015	0.142	0.028
-152.647	-65.551	-0.207	0.082
-151.633	-200.000	0.266	-0.000
-150.618	-200.000	0.021	0.204
-149.604	800.000	-0.091	-0.266
-148.589	135.891	-0.095	0.121
-147.574	407.403	0.147	-0.306
-146.560	247.114	0.185	-0.307
-145.545	12.303	0.193	0.146
-144.531	-55.169	0.160	0.071
-143.516	499.569	-0.079	-0.180
-142.502	120.402	0.228	-0.279
-141.487	-163.402	-0.173	-0.008
-140.472	-23.878	0.125	0.074
-139.458	15.776	-0.130	0.101
-138.443	-135.379	0.114	0.013
-137.429	155.316	0.098	0.133
-136.414	-45.980	0.320	-0.156
-135.399	-15.610	-0.242	0.152
-134.385	-136.066	0.230	0.027
-133.370	-158.573	0.684	0.039
-132.356	800.000	-0.037	-0.112
-131.341	188.921	0.147	0.216
-130.326	-129.982	0.025	0.003
-129.312	44.652	-0.079	0.071
-128.297	-17.285	-0.064	-0.039
-127.283	800.000	-0.025	0.089
-126.268	88.971	-0.053	-0.058
-125.253	-109.565	0.274	0.057
-124.239	-200.000	-0.028	0.152
-123.224	-47.885	-0.275	0.131
-122.210	-86.270	0.175	-0.053
