DTS Sentinel unit serial number:	SN413079Multiplexer serial number:	ORYXHardware model number:	OX4-SRSoftware version number:	ORYX F/W v4.00 Oryx Data Collector v3.7.2.0data status	okinstallation	princeton_trtdifferential loss correction	single-endedforward channel	channel 1reverse channel	N/Adate	2019/09/19time	14:30:35forward acquisition time	60.00reverse acquisition time	0.00gamma	496.2192k internal	0.2321k external	0.2321temperature offset calibration	1.0017default loss term (dB/km)	0.3790temperature slope calibration	1.0000multiplexer offset coefficient	1.0000multiplexer slope coefficient	1.0000fibre end	0.00T internal ref (°C)	32.19T ext. ref 1 (°C)	1.07T ext. ref 2 (°C)	29.31length (m)	temperature (°C)	Stokes	anti-Stokes-747.200	800.000	0.055	-0.242
-746.185	69.413	-0.239	0.249
-745.171	264.706	0.057	-0.100
-744.156	-16.541	-0.262	-0.168
-743.142	-115.806	0.055	0.010
-742.127	-200.000	-0.004	-0.058
-741.112	123.181	-0.047	0.059
-740.098	151.045	-0.134	0.184
-739.083	-55.263	0.175	-0.079
-738.069	235.034	-0.247	0.412
-737.054	-200.000	-0.001	0.214
-736.039	-45.272	-0.221	0.111
-735.025	-200.000	0.004	-0.148
-734.010	-22.686	-0.095	0.058
-732.996	5.338	-0.078	-0.058
-731.981	126.233	-0.328	-0.419
-730.966	-48.848	0.312	0.151
-729.952	800.000	-0.071	-0.278
-728.937	-170.096	-0.151	-0.005
-727.923	135.276	-0.008	-0.010
-726.908	-200.000	0.042	0.280
-725.894	800.000	-0.046	-0.166
-724.879	800.000	0.103	-0.303
-723.864	-146.109	-0.306	0.027
-722.850	-102.792	0.259	0.062
-721.835	157.844	-0.158	-0.221
-720.821	52.350	-0.201	0.194
-719.806	-136.564	-0.104	-0.012
-718.791	-200.000	-0.020	0.227
-717.777	-142.016	0.151	-0.015
-716.762	-92.834	0.193	-0.054
-715.748	-79.400	-0.099	-0.034
-714.733	-85.071	0.436	-0.138
-713.718	-16.515	0.237	0.152
-712.704	418.453	0.214	0.463
-711.689	12.306	-0.063	-0.049
-710.675	-200.000	-0.035	0.362
-709.660	-13.226	-0.202	0.133
-708.645	-95.585	-0.235	0.063
-707.631	229.690	-0.177	-0.292
-706.616	82.378	0.150	-0.164
-705.602	-200.000	0.027	0.213
-704.587	72.329	0.065	0.068
-703.572	-24.882	-0.240	0.144
-702.558	204.837	-0.087	0.136
-701.543	-80.077	-0.146	0.050
-700.529	-59.594	0.202	-0.087
-699.514	800.000	0.126	-0.395
-698.499	-120.452	0.229	-0.039
-697.485	121.940	-0.100	0.127
-696.470	-23.539	0.216	0.131
-695.456	800.000	0.019	0.054
-694.441	-143.249	-0.356	-0.034
-693.426	-58.034	0.553	0.243
-692.412	763.117	0.130	0.355
-691.397	324.673	0.127	-0.245
-690.383	800.000	-0.021	-0.070
-689.368	800.000	0.088	-0.257
-688.354	-10.081	-0.344	-0.230
-687.339	9.053	-0.200	-0.152
-686.324	19.880	0.149	0.121
-685.310	426.683	-0.106	0.231
-684.295	-53.630	0.114	0.052
-683.281	162.555	-0.300	-0.425
-682.266	-200.000	-0.001	0.025
-681.251	-154.217	0.811	-0.055
-680.237	211.101	-0.195	0.309
-679.222	800.000	0.136	-0.490
-678.208	-200.000	0.003	-0.236
-677.193	-200.000	0.010	0.197
-676.178	-43.509	0.411	0.209
-675.164	-200.000	-0.018	-0.155
-674.149	263.051	0.154	-0.270
-673.135	-117.802	-0.213	-0.039
-672.120	116.711	-0.150	-0.186
-671.105	-156.263	0.214	-0.014
-670.091	-200.000	0.044	-0.275
-669.076	64.335	-0.168	-0.170
-668.062	-200.000	0.079	0.353
-667.047	-112.022	0.166	0.034
-666.032	-200.000	0.032	0.265
-665.018	221.419	0.110	0.178
-664.003	231.037	0.116	0.192
-662.989	-23.875	-0.357	0.215
-661.974	-200.000	-0.015	0.103
-660.959	-200.000	0.037	0.243
-659.945	800.000	0.025	-0.087
-658.930	689.531	0.080	-0.210
-657.916	241.271	-0.105	-0.177
-656.901	495.232	0.037	0.085
-655.886	252.962	-0.216	-0.371
-654.872	-179.920	0.043	-0.001
-653.857	76.679	-0.133	-0.142
-652.843	800.000	0.064	-0.244
-651.828	-171.633	-0.288	-0.010
-650.814	-43.425	0.355	0.181
-649.799	-98.772	0.297	0.076
-648.784	-14.446	-0.186	-0.121
-647.770	58.167	-0.152	-0.150
-646.755	-113.957	0.259	0.051
-645.741	-126.021	0.182	0.028
-644.726	-200.000	-0.014	-0.108
-643.711	-49.438	-0.234	0.112
-642.697	165.592	0.154	-0.219
-641.682	800.000	-0.088	0.305
-640.668	800.000	-0.046	-0.187
-639.653	-40.075	0.036	0.019
-638.638	259.749	-0.126	0.220
-637.624	-50.411	0.226	-0.107
-636.609	-80.951	-0.341	0.114
-635.595	11.820	-0.294	0.227
-634.580	211.449	0.117	0.185
-633.565	-200.000	-0.034	0.195
-632.551	800.000	-0.038	-0.118
-631.536	800.000	-0.027	-0.077
-630.522	176.554	-0.084	0.123
-629.507	198.262	0.099	0.152
-628.492	590.831	0.088	-0.219
-627.478	-114.818	0.166	-0.032
-626.463	-57.789	0.214	-0.094
-625.449	-200.000	0.003	-0.051
-624.434	-200.000	0.046	-0.241
-623.419	174.875	0.103	-0.149
-622.405	800.000	0.057	-0.192
-621.390	-200.000	-0.038	-0.207
-620.376	89.886	0.121	-0.135
-619.361	80.665	-0.112	0.121
-618.346	-113.983	0.202	-0.040
-617.332	-80.835	-0.216	-0.072
-616.317	-77.362	-0.216	-0.075
-615.303	-17.438	-0.146	0.092
-614.288	-109.067	-0.116	0.025
-613.273	-83.588	0.069	0.022
-612.259	-106.481	-0.508	0.114
-611.244	-116.246	0.429	-0.080
-610.230	-59.462	-0.487	0.210
-609.215	442.251	0.130	-0.285
-608.201	-200.000	0.018	-0.238
-607.186	-122.995	-0.372	-0.060
-606.171	-200.000	0.035	-0.246
-605.157	800.000	-0.050	-0.149
-604.142	800.000	-0.082	-0.279
-603.128	-173.277	-0.221	0.007
-602.113	-189.027	0.114	-0.001
-601.098	8.209	0.042	-0.031
-600.084	95.075	-0.114	-0.130
-599.069	-200.000	-0.030	0.216
-598.055	783.545	-0.076	0.210
-597.040	-37.224	0.223	0.120
-596.025	128.201	0.161	0.206
-595.011	-71.977	0.291	0.109
-593.996	209.027	0.185	0.291
-592.982	-198.301	0.397	0.002
-591.967	800.000	-0.116	-0.389
-590.952	-69.379	0.032	0.012
-589.938	81.236	0.085	0.092
-588.923	-65.528	-0.248	-0.100
-587.909	21.661	0.182	0.149
-586.894	-34.830	-0.180	0.099
-585.879	-200.000	-0.061	-0.295
-584.865	140.035	0.168	-0.222
-583.850	-64.210	-0.132	-0.054
-582.836	652.688	-0.040	-0.102
-581.821	800.000	-0.048	-0.154
-580.806	-86.117	-0.121	0.038
-579.792	800.000	-0.058	0.162
-578.777	-1.146	0.170	0.120
-577.763	-118.053	-0.367	-0.066
-576.748	-116.000	0.218	0.041
-575.733	584.746	0.113	0.280
-574.719	121.791	-0.123	0.154
-573.704	62.054	-0.183	0.183
-572.690	66.591	-0.277	-0.283
-571.675	-40.319	-0.212	-0.111
-570.661	20.977	0.082	-0.067
-569.646	-40.445	-0.149	0.078
-568.631	-200.000	0.005	0.273
-567.617	-200.000	0.045	0.439
-566.602	-43.072	-0.159	0.081
-565.588	-200.000	-0.039	0.192
-564.573	800.000	0.048	0.169
-563.558	-93.954	-0.258	0.071
-562.544	-123.195	-0.232	0.037
-561.529	17.479	-0.053	-0.043
-560.515	-200.000	0.018	0.387
-559.500	-200.000	-0.039	-0.265
-558.485	122.089	-0.207	0.260
-557.471	-180.099	0.302	-0.006
-556.456	217.491	-0.130	-0.208
-555.442	800.000	-0.034	-0.094
-554.427	215.972	-0.120	0.191
-553.412	-49.409	-0.331	-0.158
-552.398	1.708	-0.219	0.158
-551.383	81.535	-0.064	0.069
-550.369	-0.882	-0.097	-0.069
-549.354	-200.000	-0.016	-0.281
-548.339	-200.000	0.010	-0.108
-547.325	-35.383	0.132	0.072
-546.310	-168.024	0.169	0.007
-545.296	71.675	-0.186	-0.194
-544.281	-111.585	-0.153	-0.031
-543.266	-88.161	0.279	0.084
-542.252	-41.202	0.294	-0.152
-541.237	-35.981	0.280	0.152
-540.223	-16.244	-0.126	0.080
-539.208	-131.646	0.075	-0.010
-538.193	375.741	0.087	-0.177
-537.179	-78.962	0.122	0.042
-536.164	-42.053	-0.192	0.099
-535.150	-41.148	0.096	0.050
-534.135	-200.000	0.069	-0.366
-533.121	-71.080	0.302	0.114
-532.106	-6.714	0.078	0.053
-531.091	-200.000	0.050	0.363
-530.077	211.425	0.122	0.193
-529.062	800.000	0.094	0.285
-528.048	-137.819	-0.188	-0.021
-527.033	800.000	0.018	-0.055
-526.018	69.950	0.198	-0.205
-525.004	-60.973	-0.143	-0.061
-523.989	-200.000	0.002	-0.099
-522.975	-99.159	-0.242	-0.061
-521.960	-18.210	-0.166	0.104
-520.945	-49.715	0.017	-0.008
-519.931	-185.242	-0.445	0.007
-518.916	-88.761	0.146	-0.043
-517.902	17.371	-0.044	-0.035
-516.887	183.289	-0.091	-0.134
-515.872	229.256	0.148	-0.242
-514.858	546.070	-0.083	0.200
-513.843	-45.906	-0.237	0.117
-512.829	800.000	-0.078	0.308
-511.814	333.822	-0.053	0.103
-510.799	187.327	0.174	0.260
-509.785	-81.233	-0.218	-0.072
-508.770	541.734	0.041	0.098
-507.756	303.703	0.090	0.166
-506.741	800.000	0.093	-0.280
-505.726	-200.000	0.125	0.573
-504.712	-147.074	0.315	0.027
-503.697	-66.793	-0.357	-0.141
-502.683	800.000	-0.053	-0.228
-501.668	-150.572	0.265	0.020
-500.653	122.365	0.157	-0.196
-499.639	-122.631	-0.093	-0.015
-498.624	-100.148	-0.229	-0.057
-497.610	-61.520	-0.161	-0.068
-496.595	439.073	-0.091	0.200
-495.581	800.000	0.082	-0.268
-494.566	-200.000	0.005	-0.082
-493.551	210.473	-0.144	0.227
-492.537	73.067	-0.178	0.187
-491.522	414.778	-0.103	-0.219
-490.508	-158.875	0.075	0.004
-489.493	-71.768	-0.362	-0.135
-488.478	145.382	0.120	0.161
-487.464	55.719	0.081	0.079
-486.449	-49.712	0.231	-0.110
-485.435	253.784	-0.219	0.374
-484.420	-59.310	0.177	-0.076
-483.405	-107.325	0.132	0.029
-482.391	-38.867	0.195	-0.103
-481.376	800.000	0.060	-0.197
-480.362	49.440	-0.147	-0.138
-479.347	-51.145	-0.110	-0.052
-478.332	59.186	-0.137	-0.134
-477.318	-106.263	0.061	-0.014
-476.303	94.502	0.110	0.125
-475.289	106.530	0.144	0.171
-474.274	266.101	0.106	0.185
-473.259	196.139	-0.180	0.274
-472.245	-19.823	-0.171	-0.105
-471.230	-93.539	0.278	0.077
-470.216	-131.783	0.159	-0.021
-469.201	800.000	0.057	0.229
-468.186	52.818	0.251	0.240
-467.172	-178.110	0.054	0.001
-466.157	-79.602	0.073	-0.025
-465.143	-200.000	-0.002	-0.061
-464.128	-24.081	0.060	-0.036
-463.113	800.000	-0.095	-0.367
-462.099	-200.000	-0.006	0.056
-461.084	209.407	-0.018	-0.028
-460.070	800.000	-0.043	-0.127
-459.055	29.717	-0.194	0.165
-458.040	-124.249	0.310	-0.049
-457.026	597.999	0.101	0.251
-456.011	-44.723	0.089	0.044
-454.997	-200.000	-0.004	0.213
-453.982	-200.000	-0.009	-0.102
-452.968	-139.018	-0.094	-0.010
-451.953	-200.000	0.036	0.331
-450.938	-75.778	0.180	0.064
-449.924	-84.504	0.141	-0.045
-448.909	96.368	-0.171	-0.196
-447.895	-137.696	0.475	0.053
-446.880	-38.938	0.220	-0.116
-445.865	545.332	0.105	0.251
-444.851	-29.519	-0.118	0.067
-443.836	-200.000	0.017	-0.222
-442.822	92.880	-0.226	-0.255
-441.807	81.350	-0.023	0.025
-440.792	800.000	0.028	-0.093
-439.778	-97.823	-0.130	-0.034
-438.763	-53.028	-0.085	0.039
-437.749	-200.000	-0.021	-0.108
-436.734	-78.312	-0.166	0.057
-435.719	800.000	-0.089	0.256
-434.705	-200.000	0.021	-0.283
-433.690	192.265	-0.065	-0.098
-432.676	-200.000	-0.085	0.406
-431.661	200.839	-0.192	-0.295
-430.646	800.000	0.063	-0.196
-429.632	170.123	-0.195	-0.278
-428.617	-116.435	0.128	0.024
-427.603	-26.776	0.228	0.133
-426.588	-200.000	0.020	0.200
-425.573	-17.041	-0.171	0.108
-424.559	606.564	0.079	0.196
-423.544	32.613	0.138	-0.119
-422.530	282.932	-0.114	0.204
-421.515	38.309	0.191	-0.169
-420.500	-200.000	0.027	-0.401
-419.486	288.775	0.116	-0.211
-418.471	731.745	-0.081	-0.217
-417.457	85.910	-0.117	0.129
-416.442	401.941	-0.033	0.070
-415.428	299.247	-0.156	0.287
-414.413	-200.000	0.029	0.153
-413.398	-200.000	0.083	0.382
-412.384	8.870	0.144	0.108
-411.369	-139.646	-0.142	0.015
-410.355	342.943	0.102	-0.199
-409.340	-200.000	0.055	0.422
-408.325	-200.000	0.055	0.267
-407.311	-200.000	-0.085	0.461
-406.296	-200.000	-0.019	-0.295
-405.282	800.000	-0.119	-0.335
-404.267	-66.675	0.188	0.074
-403.252	800.000	-0.097	0.363
-402.238	-200.000	0.036	-0.232
-401.223	51.374	-0.090	-0.085
-400.209	-115.522	0.378	0.071
-399.194	-144.492	0.208	0.019
-398.179	-0.600	0.208	-0.147
-397.165	121.286	-0.170	0.211
-396.150	-57.677	-0.109	-0.048
-395.136	-29.287	0.198	-0.113
-394.121	-200.000	-0.035	-0.199
-393.106	-132.111	0.124	-0.016
-392.092	-93.287	0.164	-0.045
-391.077	-200.000	-0.004	0.030
-390.063	-159.430	0.255	-0.014
-389.048	-200.000	-0.007	-0.186
-388.033	91.522	0.094	-0.106
-387.019	-73.988	0.054	-0.020
-386.004	-200.000	0.025	-0.209
-384.990	-109.152	0.083	-0.018
-383.975	-0.871	0.071	-0.050
-382.960	-200.000	0.029	-0.145
-381.946	-11.300	-0.142	-0.093
-380.931	550.934	0.027	0.064
-379.917	245.205	0.188	0.315
-378.902	-25.455	-0.076	-0.045
-377.888	-54.377	-0.301	0.136
-376.873	-138.804	-0.244	0.027
-375.858	-33.939	0.202	-0.111
-374.844	7.477	0.156	-0.116
-373.829	-200.000	-0.034	-0.237
-372.815	-158.997	-0.211	-0.012
-371.800	81.730	0.043	0.046
-370.785	116.520	-0.050	0.061
-369.771	-200.000	0.001	-0.134
-368.756	95.961	-0.119	-0.136
-367.742	642.204	-0.125	0.318
-366.727	-200.000	-0.016	0.100
-365.712	-49.293	0.231	0.110
-364.698	-200.000	0.016	-0.097
-363.683	-146.913	-0.243	0.021
-362.669	-26.399	-0.044	-0.025
-361.654	-45.264	-0.324	-0.160
-360.639	48.161	0.101	-0.094
-359.625	29.064	-0.114	0.096
-358.610	627.604	0.052	-0.132
-357.596	229.932	-0.230	-0.374
-356.581	25.721	-0.338	0.280
-355.566	-162.736	0.254	-0.012
-354.552	123.109	0.110	-0.137
-353.537	-87.043	0.112	0.034
-352.523	800.000	-0.110	0.322
-351.508	-109.086	0.149	0.032
-350.493	-156.982	-0.302	0.018
-349.479	-50.947	-0.246	0.115
-348.464	527.395	0.104	0.244
-347.450	-90.685	-0.098	0.028
-346.435	-200.000	-0.015	0.090
-345.420	-200.000	-0.006	0.182
-344.406	800.000	0.046	-0.173
-343.391	652.938	-0.121	-0.309
-342.377	-200.000	0.016	-0.133
-341.362	72.081	0.114	-0.118
-340.348	-95.899	-0.097	0.026
-339.333	-93.990	0.119	-0.033
-338.318	41.914	-0.110	0.100
-337.304	-200.000	0.065	0.336
-336.289	-3.286	0.110	-0.077
-335.275	-11.883	0.203	0.133
-334.260	-147.218	-0.278	0.024
-333.245	103.656	0.139	-0.162
-332.231	-161.820	0.104	-0.005
-331.216	-200.000	0.044	-0.288
-330.202	21.480	-0.237	-0.191
-329.187	596.738	0.141	-0.347
-328.172	68.363	-0.035	0.036
-327.158	142.130	-0.110	-0.145
-326.143	-83.642	0.292	-0.093
-325.129	105.341	-0.096	-0.112
-324.114	-37.735	0.216	-0.115
-323.099	-200.000	0.007	-0.132
-322.085	-95.882	0.439	0.116
-321.070	-26.570	0.110	0.064
-320.056	800.000	-0.103	0.436
-319.041	94.498	0.099	0.112
-318.026	-91.049	-0.307	-0.088
-317.012	98.303	-0.268	-0.307
-315.997	421.241	-0.138	-0.295
-314.983	-200.000	-0.014	-0.114
-313.968	229.925	0.028	-0.046
-312.953	-28.940	0.253	0.145
-311.939	227.652	-0.155	0.250
-310.924	-115.509	-0.438	0.082
-309.910	800.000	0.086	-0.331
-308.895	800.000	-0.102	-0.310
-307.880	84.308	-0.128	0.139
-306.866	-72.369	0.156	0.057
-305.851	-200.000	-0.011	-0.421
-304.837	800.000	0.066	-0.195
-303.822	-200.000	-0.040	0.208
-302.807	335.111	-0.154	0.297
-301.793	-64.935	0.241	0.097
-300.778	-200.000	0.010	-0.161
-299.764	-68.262	-0.135	-0.052
-298.749	-100.711	-0.446	-0.109
-297.735	327.416	0.043	-0.081
-296.720	-123.405	-0.097	0.015
-295.705	800.000	0.134	-0.373
-294.691	-82.008	0.127	-0.041
-293.676	89.410	0.106	0.118
-292.662	-31.556	0.184	0.103
-291.647	-123.702	-0.157	-0.025
-290.632	800.000	-0.072	-0.272
-289.618	-200.000	-0.194	-0.000
-288.603	-138.734	0.181	-0.020
-287.589	18.207	0.258	0.204
-286.574	356.670	0.151	0.298
-285.559	29.977	-0.232	0.197
-284.545	-52.993	0.245	-0.112
-283.530	174.442	-0.157	0.225
-282.516	-6.762	-0.124	0.084
-281.501	134.469	-0.070	0.090
-280.486	-53.567	-0.111	0.050
-279.472	800.000	0.046	0.194
-278.457	800.000	0.054	0.211
-277.443	758.826	-0.037	0.099
-276.428	524.835	0.077	-0.179
-275.413	-200.000	0.033	-0.186
-274.399	-200.000	0.009	0.229
-273.384	800.000	0.075	-0.239
-272.370	288.536	0.083	-0.150
-271.355	-13.147	-0.310	-0.200
-270.340	257.568	0.254	0.434
-269.326	-13.722	-0.029	-0.019
-268.311	-100.491	-0.214	0.052
-267.297	157.746	0.111	0.152
-266.282	8.013	0.084	0.063
-265.267	-132.983	0.019	0.002
-264.253	25.978	-0.170	0.140
-263.238	670.372	0.098	-0.253
-262.224	-131.170	-0.182	-0.024
-261.209	-200.000	0.048	0.253
-260.195	-200.000	-0.050	-0.245
-259.180	-200.000	0.012	-0.182
-258.165	-8.772	0.358	-0.238
-257.151	800.000	-0.014	-0.055
-256.136	649.845	-0.228	-0.580
-255.122	800.000	0.110	-0.340
-254.107	14.933	0.185	-0.144
-253.092	-164.386	-0.133	0.006
-252.078	-68.597	-0.144	0.055
-251.063	-200.000	0.007	-0.115
-250.049	-33.500	-0.085	-0.047
-249.034	11.270	-0.200	0.152
-248.019	-18.648	-0.099	0.061
-247.005	-102.090	0.122	0.029
-245.990	-3.100	0.249	0.172
-244.976	107.468	0.379	0.447
-243.961	117.411	0.106	0.129
-242.946	-200.000	-0.389	-0.002
-241.932	35.987	0.215	-0.187
-240.917	432.188	0.042	0.090
-239.903	546.097	-0.106	0.251
-238.888	-200.000	0.293	-0.000
-237.873	-175.912	-0.171	-0.005
-236.859	276.312	0.024	-0.043
-235.844	-70.261	0.204	0.077
-234.830	435.311	0.027	-0.059
-233.815	-20.455	0.164	0.100
-232.800	-93.161	-0.337	0.093
-231.786	6.433	-0.207	0.152
-230.771	-115.097	0.152	-0.029
-229.757	85.648	-0.119	-0.130
-228.742	-200.000	-0.027	-0.254
-227.727	-71.224	0.148	-0.055
-226.713	28.163	-0.064	-0.054
-225.698	-200.000	0.058	-0.460
-224.684	-60.785	-0.214	0.090
-223.669	-6.219	0.192	0.130
-222.655	221.747	0.164	0.261
-221.640	-133.013	-0.432	0.054
-220.625	26.171	0.109	-0.090
-219.611	378.027	-0.062	-0.126
-218.596	-102.292	-0.167	-0.040
-217.582	800.000	0.073	0.216
-216.567	-70.690	0.186	0.070
-215.552	-200.000	-0.038	-0.268
-214.538	507.548	0.140	-0.321
-213.523	33.029	-0.144	-0.123
-212.509	21.721	0.236	0.190
-211.494	-200.000	0.220	0.001
-210.479	-4.040	0.170	-0.117
-209.465	47.317	0.184	0.170
-208.450	-56.870	0.270	0.118
-207.436	-67.786	-0.198	0.077
-206.421	-3.017	-0.150	0.104
-205.406	7.250	0.242	0.179
-204.392	-15.704	0.159	-0.101
-203.377	313.977	-0.099	-0.184
-202.363	-200.000	-0.023	-0.138
-201.348	-200.000	-0.013	0.067
-200.333	-200.000	0.036	-0.236
-199.319	-86.529	0.199	-0.060
-198.304	130.277	-0.032	0.040
-197.290	-200.000	-0.052	0.284
-196.275	-200.000	-0.025	0.126
-195.260	-26.108	-0.119	-0.069
-194.246	792.772	-0.081	-0.221
-193.231	800.000	-0.005	0.020
-192.217	-75.917	-0.009	0.003
-191.202	-56.336	0.235	0.103
-190.187	46.264	-0.208	-0.191
-189.173	-162.077	-0.165	-0.008
-188.158	-200.000	0.023	-0.229
-187.144	551.480	0.148	-0.352
-186.129	-107.535	-0.318	0.069
-185.114	-71.580	0.440	-0.163
-184.100	-102.063	0.075	-0.018
-183.085	660.220	-0.103	0.263
-182.071	397.528	-0.168	0.346
-181.056	-137.967	0.208	0.023
-180.042	45.064	0.254	-0.232
-179.027	-52.584	0.194	-0.089
-178.012	178.489	0.234	-0.338
-176.998	-200.000	-0.047	-0.253
-175.983	-200.000	-0.018	-0.169
-174.969	-111.387	0.644	-0.130
-173.954	-140.342	-0.311	-0.032
-172.939	143.520	-0.162	0.213
-171.925	-111.563	-0.105	-0.021
-170.910	-19.880	0.097	0.059
-169.896	-117.883	-0.076	-0.013
-168.881	319.387	-0.209	0.393
-167.866	238.562	0.054	0.088
-166.852	-200.000	-0.042	0.258
-165.837	-200.000	-0.005	0.309
-164.823	-166.236	0.243	-0.010
-163.808	-37.902	0.166	-0.087
-162.793	-13.177	-0.269	0.172
-161.779	-200.000	-0.013	0.173
-160.764	-146.262	-0.215	-0.019
-159.750	-82.328	0.127	0.041
-158.735	-85.197	-0.280	0.086
-157.720	800.000	-0.086	0.259
-156.706	307.057	-0.031	0.057
-155.691	77.895	0.220	-0.231
-154.677	-116.954	0.119	-0.021
-153.662	197.597	-0.193	0.292
-152.647	-108.489	-0.094	0.020
-151.633	10.090	0.165	-0.123
-150.618	-122.069	0.420	-0.068
-149.604	-20.093	0.301	0.183
-148.589	-100.541	0.063	0.015
-147.574	31.904	-0.031	-0.026
-146.560	-200.000	-0.012	-0.119
-145.545	-169.783	-0.153	0.005
-144.531	-108.890	0.304	-0.064
-143.516	79.201	0.157	-0.166
-142.502	-118.102	0.285	-0.050
-141.487	13.580	-0.152	0.116
-140.472	-173.505	0.112	0.003
-139.458	77.912	0.153	0.161
-138.443	163.603	0.091	0.127
-137.429	800.000	0.035	-0.104
-136.414	167.652	0.157	-0.220
-135.399	-32.035	0.034	-0.019
-134.385	366.251	0.101	0.202
-133.370	59.378	-0.051	0.050
-132.356	201.752	-0.053	-0.081
-131.341	-149.028	0.087	0.007
-130.326	211.405	-0.108	-0.168
-129.312	-100.593	0.315	0.077
-128.297	-18.017	0.170	-0.105
-127.283	-200.000	-0.019	-0.124
-126.268	-53.753	0.066	0.030
-125.253	-78.569	-0.267	-0.090
-124.239	144.020	0.073	0.095
-123.224	-24.377	0.245	0.144
-122.210	50.445	0.244	0.228
