DTS Sentinel unit serial number:	SN413079Multiplexer serial number:	ORYXHardware model number:	OX4-SRSoftware version number:	ORYX F/W v4.00 Oryx Data Collector v3.7.2.0data status	okinstallation	princeton_trtdifferential loss correction	single-endedforward channel	channel 1reverse channel	N/Adate	2019/09/14time	18:18:35forward acquisition time	60.00reverse acquisition time	0.00gamma	496.2192k internal	0.2301k external	0.2301temperature offset calibration	1.0039default loss term (dB/km)	0.3790temperature slope calibration	1.0000multiplexer offset coefficient	1.0000multiplexer slope coefficient	1.0000fibre end	0.00T internal ref (°C)	36.94T ext. ref 1 (°C)	4.97T ext. ref 2 (°C)	30.99length (m)	temperature (°C)	Stokes	anti-Stokes-747.200	800.000	-0.088	0.274
-746.185	800.000	0.080	0.252
-745.171	-200.000	0.026	-0.120
-744.156	800.000	0.026	0.102
-743.142	-174.052	0.305	0.009
-742.127	110.226	-0.374	0.458
-741.112	188.822	0.241	0.368
-740.098	-133.368	0.194	-0.025
-739.083	-23.345	-0.293	0.179
-738.069	800.000	0.093	0.282
-737.054	-15.065	0.398	-0.260
-736.039	800.000	-0.065	-0.208
-735.025	633.564	-0.063	0.163
-734.010	800.000	0.067	-0.255
-732.996	569.660	0.124	-0.307
-731.981	65.379	-0.112	0.115
-730.966	-84.311	0.153	-0.049
-729.952	-200.000	-0.050	-0.321
-728.937	-70.295	0.233	-0.090
-727.923	25.461	0.163	0.139
-726.908	-87.460	0.313	-0.096
-725.894	800.000	0.014	-0.042
-724.879	335.658	-0.207	-0.409
-723.864	800.000	-0.078	-0.328
-722.850	-1.747	-0.126	0.090
-721.835	-200.000	0.004	-0.369
-720.821	-45.342	-0.171	-0.086
-719.806	57.708	0.116	0.115
-718.791	415.057	-0.037	-0.080
-717.777	11.205	-0.103	-0.081
-716.762	62.767	0.187	-0.191
-715.748	21.989	-0.305	-0.253
-714.733	-200.000	-0.054	0.366
-713.718	-38.331	-0.112	0.061
-712.704	-138.805	-0.562	-0.062
-711.689	-112.593	-0.280	-0.057
-710.675	-26.135	-0.062	0.037
-709.660	120.536	-0.162	0.204
-708.645	81.679	-0.096	-0.106
-707.631	-63.113	0.270	-0.113
-706.616	-200.000	-0.041	0.198
-705.602	187.640	-0.033	-0.050
-704.587	494.308	-0.033	-0.076
-703.572	94.750	-0.191	-0.222
-702.558	-200.000	0.009	-0.371
-701.543	-200.000	0.026	-0.264
-700.529	-66.835	-0.160	-0.065
-699.514	-200.000	-0.023	0.332
-698.499	-200.000	-0.008	0.142
-697.485	800.000	-0.117	-0.356
-696.470	463.424	-0.133	0.301
-695.456	155.230	0.198	-0.277
-694.441	156.604	-0.079	0.111
-693.426	39.438	0.101	0.092
-692.412	-86.735	-0.111	0.035
-691.397	-40.166	-0.232	0.123
-690.383	-162.447	-0.258	0.013
-689.368	78.794	0.122	-0.133
-688.354	178.451	-0.069	0.103
-687.339	22.157	-0.114	0.094
-686.324	28.071	-0.167	-0.143
-685.310	-33.265	0.181	0.102
-684.295	464.953	-0.015	-0.033
-683.281	159.070	-0.183	-0.258
-682.266	-200.000	0.021	0.213
-681.251	-48.244	-0.329	0.162
-680.237	-9.790	-0.172	-0.116
-679.222	-68.734	0.168	0.066
-678.208	800.000	0.045	-0.182
-677.193	-62.119	0.212	-0.090
-676.178	800.000	-0.045	-0.195
-675.164	-200.000	0.042	-0.240
-674.149	-98.694	0.151	-0.039
-673.135	-97.182	-0.204	0.054
-672.120	734.702	0.065	-0.177
-671.105	-109.571	-0.415	-0.089
-670.091	-200.000	0.083	0.376
-669.076	800.000	0.029	0.100
-668.062	-36.614	-0.042	-0.023
-667.047	130.788	0.148	-0.194
-666.032	362.931	-0.173	-0.353
-665.018	209.010	0.135	0.215
-664.003	-129.653	-0.144	-0.020
-662.989	-11.820	-0.309	0.206
-661.974	800.000	0.059	0.211
-660.959	75.151	-0.157	-0.168
-659.945	-104.433	-0.264	0.062
-658.930	-94.812	-0.292	0.080
-657.916	89.658	-0.177	0.201
-656.901	800.000	-0.016	0.051
-655.886	2.911	0.162	0.119
-654.872	356.316	0.243	-0.492
-653.857	-200.000	0.009	-0.149
-652.843	-200.000	0.015	0.238
-651.828	-200.000	0.026	-0.193
-650.814	-112.042	-0.203	-0.042
-649.799	408.149	-0.042	-0.090
-648.784	236.806	-0.161	0.270
-647.770	-4.050	0.323	0.227
-646.755	13.453	0.211	0.166
-645.741	90.973	-0.072	-0.082
-644.726	486.138	-0.054	-0.126
-643.711	9.080	0.063	-0.049
-642.697	-136.193	0.154	-0.018
-641.682	181.303	0.112	0.167
-640.668	-200.000	-0.020	0.307
-639.653	-65.075	0.386	-0.158
-638.638	800.000	0.039	0.115
-637.624	378.461	0.064	0.132
-636.609	800.000	0.060	0.214
-635.595	761.581	-0.049	0.136
-634.580	-88.530	-0.196	0.059
-633.565	553.940	-0.165	-0.402
-632.551	-89.245	0.537	0.161
-631.536	-122.417	-0.321	0.053
-630.522	-200.000	-0.028	0.186
-629.507	66.791	-0.142	0.147
-628.492	800.000	0.087	0.370
-627.478	145.941	-0.228	-0.310
-626.463	800.000	-0.066	-0.223
-625.449	-76.654	-0.146	0.052
-624.434	800.000	-0.031	0.104
-623.419	-39.683	0.338	-0.179
-622.405	-1.459	0.169	0.121
-621.390	-75.256	-0.107	0.039
-620.376	-34.287	-0.114	0.064
-619.361	61.747	-0.214	0.216
-618.346	800.000	-0.055	-0.200
-617.332	-200.000	0.023	-0.198
-616.317	-95.947	0.246	0.067
-615.303	22.718	-0.247	-0.205
-614.288	284.981	-0.119	-0.217
-613.273	103.850	-0.237	0.282
-612.259	800.000	-0.026	0.082
-611.244	-137.136	-0.346	0.040
-610.230	-200.000	-0.058	0.264
-609.215	40.338	-0.138	0.126
-608.201	-160.705	0.303	-0.016
-607.186	-137.467	0.051	-0.006
-606.171	225.273	0.030	0.049
-605.157	-128.458	0.190	-0.027
-604.142	-200.000	-0.024	-0.216
-603.128	566.983	0.129	0.317
-602.113	131.568	0.063	0.082
-601.098	79.409	-0.100	-0.109
-600.084	-8.520	-0.088	0.060
-599.069	-41.520	0.274	-0.143
-598.055	250.854	0.090	-0.155
-597.040	23.182	-0.127	0.106
-596.025	100.244	0.012	-0.014
-595.011	429.289	0.013	-0.029
-593.996	800.000	-0.072	0.279
-592.982	85.524	-0.199	0.221
-591.967	-200.000	0.066	-0.338
-590.952	22.621	-0.086	-0.072
-589.938	108.266	-0.108	-0.131
-588.923	-32.283	0.190	0.108
-587.909	-170.289	-0.287	0.010
-586.894	-131.393	-0.222	0.030
-585.879	800.000	-0.026	0.108
-584.865	-84.469	-0.254	0.081
-583.850	-56.072	0.332	-0.150
-582.836	-99.987	-0.261	-0.066
-581.821	48.462	-0.141	-0.134
-580.806	190.133	-0.177	0.269
-579.792	-200.000	0.028	-0.273
-578.777	-80.682	-0.360	-0.121
-577.763	525.598	0.115	-0.274
-576.748	275.255	0.103	-0.185
-575.733	-200.000	0.008	-0.530
-574.719	38.196	0.094	-0.085
-573.704	-38.217	0.264	-0.142
-572.690	-200.000	0.000	-0.068
-571.675	106.820	0.128	-0.153
-570.661	-200.000	0.048	0.251
-569.646	-147.660	-0.185	-0.016
-568.631	56.443	0.025	-0.024
-567.617	172.527	0.061	0.089
-566.602	525.648	0.025	0.059
-565.588	-200.000	0.054	-0.255
-564.573	248.938	0.129	-0.221
-563.558	-44.675	-0.194	0.098
-562.544	-11.811	0.172	-0.114
-561.529	-200.000	0.000	-0.128
-560.515	145.715	0.178	-0.242
-559.500	146.239	-0.368	-0.500
-558.485	-65.232	0.122	0.050
-557.471	25.790	-0.074	0.062
-556.456	171.908	0.114	0.166
-555.442	140.528	0.108	-0.144
-554.427	-164.509	-0.321	-0.015
-553.412	-42.978	-0.443	-0.228
-552.398	-200.000	0.086	0.535
-551.383	800.000	0.011	-0.032
-550.369	800.000	-0.118	-0.387
-549.354	-116.538	0.148	-0.028
-548.339	-16.719	0.130	-0.083
-547.325	-122.067	0.080	0.013
-546.310	-200.000	0.004	-0.069
-545.296	258.116	-0.042	0.073
-544.281	-200.000	-0.011	0.219
-543.266	-13.784	0.097	-0.064
-542.252	-200.000	0.014	-0.217
-541.237	26.416	0.255	0.216
-540.223	53.641	-0.128	-0.124
-539.208	372.239	0.048	0.099
-538.193	553.238	-0.135	0.328
-537.179	800.000	0.067	0.189
-536.164	-200.000	0.032	0.255
-535.150	103.046	-0.092	0.109
-534.135	-134.948	-0.195	0.024
-533.121	122.550	0.134	0.170
-532.106	172.112	-0.144	-0.209
-531.091	-118.354	-0.131	-0.023
-530.077	-200.000	0.121	0.000
-529.062	7.514	0.082	-0.062
-528.048	133.111	-0.121	-0.158
-527.033	-200.000	0.032	-0.257
-526.018	800.000	-0.035	0.138
-525.004	228.929	0.265	-0.437
-523.989	-88.064	-0.106	0.032
-522.975	-135.981	-0.055	-0.007
-521.960	592.849	0.083	-0.208
-520.945	-200.000	-0.001	0.020
-519.931	127.051	-0.293	-0.376
-518.916	-200.000	0.022	0.232
-517.902	535.330	0.054	-0.128
-516.887	-95.854	-0.139	0.038
-515.872	-200.000	-0.015	0.115
-514.858	-102.986	0.328	0.079
-513.843	339.704	0.054	0.106
-512.829	130.192	-0.243	0.315
-511.814	239.925	0.140	0.235
-510.799	240.585	-0.022	0.038
-509.785	-200.000	0.022	-0.148
-508.770	-51.165	0.293	-0.139
-507.756	-101.471	0.169	-0.042
-506.741	-41.221	-0.186	0.097
-505.726	149.761	0.029	0.039
-504.712	414.033	0.086	-0.185
-503.697	-200.000	0.018	-0.218
-502.683	-111.226	-0.264	-0.054
-501.668	-71.950	-0.381	-0.143
-500.653	-28.708	-0.164	-0.095
-499.639	-14.638	0.095	0.062
-498.624	133.150	-0.166	0.216
-497.610	344.240	-0.046	-0.091
-496.595	250.859	-0.194	0.332
-495.581	-114.031	0.280	-0.055
-494.566	-97.486	-0.094	0.025
-493.551	-200.000	-0.004	0.086
-492.537	-200.000	0.025	0.307
-491.522	-59.614	0.435	0.188
-490.508	183.181	-0.221	0.329
-489.493	27.596	0.226	0.192
-488.478	-200.000	-0.039	-0.221
-487.464	800.000	0.006	-0.021
-486.449	-55.672	-0.346	-0.156
-485.435	800.000	0.118	-0.381
-484.420	-110.036	-0.203	0.043
-483.405	201.197	-0.084	0.131
-482.391	-0.181	-0.152	-0.109
-481.376	521.768	-0.017	-0.040
-480.362	323.412	0.030	-0.058
-479.347	-200.000	-0.023	0.168
-478.332	-107.736	0.202	-0.044
-477.318	455.146	0.068	0.152
-476.303	-200.000	-0.005	0.311
-475.289	-200.000	0.025	-0.280
-474.274	-200.000	-0.003	0.130
-473.259	-85.900	-0.229	0.071
-472.245	-117.512	-0.055	0.010
-471.230	370.758	0.136	0.278
-470.216	-80.896	0.114	-0.038
-469.201	102.234	0.328	0.387
-468.186	-144.751	-0.359	0.033
-467.172	211.949	0.083	-0.131
-466.157	-55.111	0.234	-0.106
-465.143	2.817	0.240	-0.176
-464.128	-200.000	-0.002	-0.166
-463.113	-66.758	0.306	-0.122
-462.099	800.000	0.090	-0.261
-461.084	-200.000	-0.057	-0.278
-460.070	293.294	0.079	0.145
-459.055	800.000	0.059	0.193
-458.040	-30.826	-0.207	0.118
-457.026	800.000	-0.132	-0.386
-456.011	64.959	0.263	-0.268
-454.997	-59.209	-0.154	-0.067
-453.982	-200.000	0.073	0.326
-452.968	180.994	0.056	-0.082
-451.953	-63.437	-0.100	0.042
-450.938	-200.000	0.000	-0.108
-449.924	-200.000	0.007	0.219
-448.909	182.712	-0.175	-0.261
-447.895	-85.105	-0.367	0.116
-446.880	5.935	-0.110	0.082
-445.865	114.257	-0.219	-0.269
-444.851	-200.000	-0.002	-0.144
-443.836	169.015	-0.148	-0.213
-442.822	-61.600	0.139	0.059
-441.807	736.097	0.011	-0.029
-440.792	743.446	-0.066	-0.180
-439.778	178.687	-0.048	0.071
-438.763	605.402	0.049	0.124
-437.749	39.954	0.214	0.193
-436.734	160.612	0.166	-0.233
-435.719	-126.325	-0.265	-0.040
-434.705	-150.836	0.275	-0.021
-433.690	-105.129	0.384	0.088
-432.676	-200.000	0.016	0.226
-431.661	-160.340	-0.361	-0.020
-430.646	161.292	0.044	0.062
-429.632	-188.339	-0.211	0.003
-428.617	-85.411	-0.367	0.115
-427.603	71.827	0.164	0.172
-426.588	245.197	-0.092	0.155
-425.573	55.763	-0.152	0.148
-424.559	-10.902	-0.056	-0.037
-423.544	69.953	0.114	-0.119
-422.530	-158.553	0.145	-0.008
-421.515	79.669	-0.302	-0.326
-420.500	-114.467	0.359	0.069
-419.486	800.000	0.049	-0.143
-418.471	-13.334	0.064	-0.042
-417.457	-200.000	-0.070	0.325
-416.442	-170.198	-0.227	0.008
-415.428	72.697	-0.092	-0.097
-414.413	800.000	0.091	0.356
-413.398	-102.731	0.324	-0.078
-412.384	-145.815	0.251	-0.023
-411.369	-150.491	0.063	-0.005
-410.355	800.000	0.038	-0.115
-409.340	-97.258	-0.030	-0.008
-408.325	-186.418	-0.056	0.001
-407.311	132.209	-0.130	-0.169
-406.296	-127.460	-0.183	-0.027
-405.282	305.186	-0.217	0.406
-404.267	180.548	0.264	0.389
-403.252	110.346	-0.040	0.048
-402.238	2.477	-0.233	-0.170
-401.223	320.897	-0.125	0.239
-400.209	77.098	-0.153	-0.163
-399.194	-159.346	-0.485	-0.027
-398.179	-101.024	0.443	-0.109
-397.165	800.000	-0.108	-0.359
-396.150	-200.000	0.012	-0.064
-395.136	-200.000	0.018	-0.089
-394.121	-200.000	0.037	0.188
-393.106	-200.000	-0.039	-0.188
-392.092	-200.000	0.025	-0.312
-391.077	-21.749	-0.296	0.181
-390.063	800.000	0.009	-0.033
-389.048	-130.806	0.077	0.010
-388.033	-23.416	-0.108	-0.065
-387.019	-200.000	-0.010	-0.319
-386.004	-200.000	-0.058	-0.266
-384.990	769.115	-0.078	0.214
-383.975	-61.109	-0.426	0.181
-382.960	478.834	0.053	0.122
-381.946	43.390	0.089	0.081
-380.931	-27.161	0.266	0.156
-379.917	-164.118	0.292	-0.014
-378.902	-200.000	0.003	-0.056
-377.888	-200.000	-0.028	0.483
-376.873	39.212	0.114	0.102
-375.858	22.921	0.105	0.087
-374.844	191.095	0.083	-0.126
-373.829	-51.776	0.093	0.044
-372.815	11.891	-0.129	0.100
-371.800	-200.000	-0.059	-0.268
-370.785	-31.252	-0.153	0.087
-369.771	-109.033	-0.157	0.034
-368.756	-88.175	0.209	-0.063
-367.742	-112.667	-0.155	0.031
-366.727	101.324	-0.139	-0.163
-365.712	-141.753	-0.361	0.036
-364.698	116.620	0.209	0.258
-363.683	-182.093	0.248	-0.005
-362.669	17.956	0.127	-0.102
-361.654	-118.776	0.215	-0.038
-360.639	345.325	0.089	0.175
-359.625	94.692	0.108	-0.124
-358.610	800.000	0.149	0.453
-357.596	-125.031	-0.346	0.053
-356.581	-200.000	0.020	-0.335
-355.566	800.000	0.123	-0.443
-354.552	-200.000	0.026	-0.393
-353.537	443.165	0.019	0.043
-352.523	97.259	-0.170	0.196
-351.508	133.990	-0.079	-0.102
-350.493	-131.756	-0.130	-0.017
-349.479	-15.012	0.165	-0.106
-348.464	333.612	-0.166	-0.322
-347.450	401.784	-0.030	0.063
-346.435	-200.000	-0.014	0.143
-345.420	-200.000	-0.020	-0.164
-344.406	-71.046	-0.130	-0.049
-343.391	-200.000	-0.032	-0.223
-342.377	-87.728	0.286	0.086
-341.362	167.434	-0.154	-0.220
-340.348	109.933	-0.165	0.199
-339.333	-159.033	0.202	0.011
-338.318	52.585	0.118	-0.113
-337.304	-143.450	-0.159	0.015
-336.289	-30.310	0.098	-0.056
-335.275	406.442	-0.122	0.258
-334.260	-167.881	0.346	-0.014
-333.245	155.856	0.063	-0.088
-332.231	-166.875	0.202	0.008
-331.216	800.000	0.010	0.039
-330.202	60.545	-0.200	-0.198
-329.187	-125.814	0.061	-0.009
-328.172	800.000	-0.027	-0.077
-327.158	546.649	0.086	0.206
-326.143	-91.310	0.341	-0.098
-325.129	120.609	-0.293	0.365
-324.114	-182.867	-0.116	0.002
-323.099	-111.354	0.330	0.067
-322.085	351.976	0.027	-0.054
-321.070	-200.000	0.010	-0.104
-320.056	24.206	0.149	0.123
-319.041	176.741	-0.013	0.020
-318.026	581.297	0.049	0.121
-317.012	-200.000	0.005	-0.091
-315.997	93.207	0.316	0.359
-314.983	-200.000	-0.009	0.061
-313.968	355.267	-0.039	0.077
-312.953	-23.539	-0.087	0.052
-311.939	800.000	0.060	-0.198
-310.924	-200.000	-0.012	0.340
-309.910	214.431	0.085	-0.136
-308.895	-121.976	-0.248	-0.041
-307.880	-147.486	0.105	0.009
-306.866	-92.857	-0.479	0.134
-305.851	800.000	-0.088	-0.260
-304.837	221.200	0.135	-0.217
-303.822	43.363	0.162	0.148
-302.807	241.080	-0.186	-0.312
-301.793	-92.410	-0.119	0.034
-300.778	97.191	0.099	0.114
-299.764	10.946	0.206	0.158
-298.749	-120.622	0.052	-0.009
-297.735	-26.583	-0.238	0.140
-296.720	-89.886	0.132	-0.039
-295.705	21.898	0.075	-0.062
-294.691	-200.000	-0.007	-0.293
-293.676	-85.466	-0.440	-0.137
-292.662	21.071	0.089	0.072
-291.647	800.000	0.068	-0.287
-290.632	91.291	-0.254	0.285
-289.618	-10.979	-0.350	0.232
-288.603	-106.893	0.234	0.052
-287.589	-47.063	-0.150	-0.073
-286.574	-74.303	0.305	0.110
-285.559	29.314	0.076	-0.064
-284.545	12.913	-0.096	0.074
-283.530	778.383	-0.061	-0.166
-282.516	283.178	-0.048	0.086
-281.501	-24.538	0.188	-0.112
-280.486	-113.267	0.318	-0.063
-279.472	240.706	0.193	-0.322
-278.457	-12.332	0.159	-0.104
-277.443	9.288	-0.126	-0.096
-276.428	-130.571	0.131	0.018
-275.413	-1.999	0.119	0.084
-274.399	143.629	-0.125	0.167
-273.384	-200.000	0.046	0.248
-272.370	-58.481	-0.284	0.123
-271.355	-69.231	-0.184	-0.071
-270.340	-74.701	0.278	-0.100
-269.326	-136.291	-0.078	0.009
-268.311	13.460	0.321	-0.249
-267.297	800.000	-0.069	0.224
-266.282	19.539	-0.075	-0.060
-265.267	76.070	0.166	-0.176
-264.253	-42.644	0.249	-0.127
-263.238	130.075	0.184	0.236
-262.224	-10.491	0.113	0.075
-261.209	221.970	0.144	-0.232
-260.195	800.000	0.058	0.174
-259.180	800.000	-0.035	0.118
-258.165	-61.958	-0.228	0.096
-257.151	103.027	0.223	0.261
-256.136	-102.165	-0.129	-0.031
-255.122	-200.000	-0.011	-0.057
-254.107	251.916	0.096	-0.164
-253.092	-200.000	0.028	0.145
-252.078	-122.514	0.070	0.011
-251.063	-1.253	-0.153	-0.108
-250.049	93.382	0.017	-0.020
-249.034	486.420	0.162	-0.369
-248.019	-200.000	-0.020	-0.124
-247.005	-154.390	0.157	0.011
-245.990	-127.007	-0.191	0.028
-244.976	384.724	0.006	0.013
-243.961	-22.153	-0.173	-0.105
-242.946	314.952	-0.160	-0.302
-241.932	152.950	-0.060	-0.082
-240.917	800.000	-0.091	0.384
-239.903	-66.778	0.202	-0.080
-238.888	74.798	-0.157	-0.166
-237.873	-175.816	0.159	-0.004
-236.859	41.454	0.126	0.114
-235.844	95.724	0.218	-0.249
-234.830	20.295	-0.075	0.061
-233.815	-67.733	0.055	-0.021
-232.800	-39.378	0.184	0.096
-231.786	-37.304	-0.467	0.250
-230.771	-93.759	0.238	-0.065
-229.757	-110.177	-0.093	0.019
-228.742	342.173	-0.051	-0.099
-227.727	-40.632	-0.037	0.019
-226.713	9.597	0.147	-0.111
-225.698	-89.424	0.087	-0.026
-224.684	5.388	0.036	0.026
-223.669	509.676	0.039	0.090
-222.655	800.000	-0.160	0.472
-221.640	-76.169	-0.106	-0.037
-220.625	-200.000	-0.040	0.189
-219.611	-200.000	-0.007	0.166
-218.596	-7.783	-0.135	-0.091
-217.582	74.238	-0.206	0.216
-216.567	-62.382	-0.151	0.063
-215.552	-88.484	0.296	-0.088
-214.538	57.088	0.277	0.270
-213.523	78.950	-0.100	0.107
-212.509	-200.000	-0.013	-0.241
-211.494	261.508	0.137	0.237
-210.479	-42.715	0.187	-0.095
-209.465	-3.640	0.145	0.101
-208.450	-101.462	-0.110	0.027
-207.436	800.000	-0.084	-0.292
-206.421	-200.000	0.023	0.178
-205.406	800.000	-0.050	-0.182
-204.392	-105.215	0.104	-0.024
-203.377	-69.979	0.253	0.096
-202.363	-57.145	0.139	0.061
-201.348	-121.922	-0.089	-0.015
-200.333	800.000	-0.065	-0.255
-199.319	-30.458	-0.355	-0.201
-198.304	-200.000	-0.029	-0.139
-197.290	-112.416	-0.176	-0.035
-196.275	315.418	0.085	0.159
-195.260	-200.000	0.021	0.499
-194.246	101.393	-0.042	-0.049
-193.231	327.041	0.183	0.350
-192.217	-13.673	-0.271	-0.175
-191.202	178.242	0.136	0.198
-190.187	448.650	-0.012	-0.025
-189.173	-111.904	-0.128	-0.026
-188.158	-87.190	-0.122	0.037
-187.144	230.684	-0.229	0.373
-186.129	522.147	-0.122	0.285
-185.114	-200.000	0.019	-0.118
-184.100	-22.793	0.120	0.072
-183.085	346.017	0.101	-0.198
-182.071	-200.000	-0.004	0.117
-181.056	-200.000	-0.018	0.217
-180.042	254.651	0.108	-0.184
-179.027	800.000	-0.040	-0.137
-178.012	-23.322	-0.029	-0.018
-176.998	110.447	-0.151	0.181
-175.983	527.454	0.111	-0.260
-174.969	-200.000	0.056	-0.283
-173.954	161.084	-0.132	0.184
-172.939	160.642	0.141	-0.196
-171.925	252.229	-0.088	-0.150
-170.910	208.359	-0.049	-0.077
-169.896	251.830	-0.047	0.080
-168.881	30.790	0.247	-0.211
-167.866	-110.876	0.278	-0.057
-166.852	-67.921	-0.081	-0.032
-165.837	83.133	0.231	0.251
-164.823	18.506	-0.299	0.238
-163.808	-200.000	-0.016	-0.254
-162.793	336.291	0.167	0.323
-161.779	-200.000	0.020	0.120
-160.764	-55.947	0.249	0.111
-159.750	97.224	-0.077	0.088
-158.735	332.632	-0.042	0.080
-157.720	15.259	0.145	0.114
-156.706	320.883	-0.092	0.174
-155.691	265.858	0.115	-0.200
-154.677	-200.000	0.024	-0.513
-153.662	-64.289	-0.133	-0.054
-152.647	5.196	-0.106	0.078
-151.633	-36.680	0.172	-0.092
-150.618	93.538	-0.075	0.085
-149.604	-200.000	0.004	-0.206
-148.589	-53.582	0.170	-0.077
-147.574	135.094	0.209	-0.271
-146.560	-200.000	0.052	-0.371
-145.545	209.249	0.132	0.206
-144.531	-148.804	0.294	-0.024
-143.516	759.898	0.114	-0.308
-142.502	-153.785	0.345	-0.024
-141.487	48.127	0.067	-0.063
-140.472	230.912	0.126	0.206
-139.458	602.367	-0.103	0.256
-138.443	-31.477	-0.028	-0.016
-137.429	704.071	0.170	-0.447
-136.414	83.586	-0.114	0.124
-135.399	-12.339	-0.079	-0.052
-134.385	-200.000	0.016	-0.184
-133.370	-79.918	-0.190	0.064
-132.356	-200.000	-0.049	0.354
-131.341	-200.000	0.018	0.355
-130.326	-63.474	-0.208	-0.085
-129.312	60.212	0.153	-0.150
-128.297	257.414	0.066	0.113
-127.283	56.391	-0.221	0.214
-126.268	-39.066	-0.336	0.176
-125.253	-200.000	0.069	0.333
-124.239	-47.859	0.165	0.079
-123.224	-200.000	-0.006	0.132
-122.210	-200.000	0.021	0.226
