DTS Sentinel unit serial number:	SN413079Multiplexer serial number:	ORYXHardware model number:	OX4-SRSoftware version number:	ORYX F/W v4.00 Oryx Data Collector v3.7.2.0data status	okinstallation	princeton_trtdifferential loss correction	single-endedforward channel	channel 1reverse channel	N/Adate	2019/09/19time	11:14:35forward acquisition time	60.00reverse acquisition time	0.00gamma	496.2192k internal	0.2339k external	0.2339temperature offset calibration	1.0012default loss term (dB/km)	0.3790temperature slope calibration	1.0000multiplexer offset coefficient	1.0000multiplexer slope coefficient	1.0000fibre end	0.00T internal ref (°C)	25.12T ext. ref 1 (°C)	0.76T ext. ref 2 (°C)	20.59length (m)	temperature (°C)	Stokes	anti-Stokes-747.200	273.952	-0.162	0.287
-746.185	182.248	0.374	0.553
-745.171	138.106	0.157	-0.207
-744.156	284.402	-0.020	0.036
-743.142	-158.486	0.103	0.006
-742.127	-142.112	0.160	0.016
-741.112	111.194	0.062	-0.074
-740.098	-200.000	-0.038	0.350
-739.083	800.000	0.110	-0.338
-738.069	-78.557	0.136	0.047
-737.054	-200.000	-0.024	0.416
-736.039	-144.406	-0.417	0.039
-735.025	491.767	-0.103	0.236
-734.010	-94.025	-0.314	-0.086
-732.996	226.596	0.023	0.037
-731.981	-200.000	-0.046	0.356
-730.966	5.072	-0.192	-0.142
-729.952	-70.864	-0.309	0.117
-728.937	-155.168	-0.198	-0.013
-727.923	-81.710	0.262	-0.086
-726.908	-147.260	-0.182	-0.016
-725.894	144.339	-0.099	-0.132
-724.879	-141.262	-0.289	0.029
-723.864	-53.471	-0.030	-0.014
-722.850	-200.000	-0.048	0.000
-721.835	146.271	-0.207	0.278
-720.821	-200.000	0.045	-0.219
-719.806	42.660	0.237	-0.216
-718.791	64.098	0.312	0.314
-717.777	7.136	0.342	-0.255
-716.762	-198.436	0.325	-0.002
-715.748	94.985	-0.220	-0.251
-714.733	-155.981	-0.225	0.014
-713.718	-200.000	0.018	-0.221
-712.704	226.475	0.119	-0.193
-711.689	-57.470	-0.318	-0.140
-710.675	-187.397	-0.436	-0.006
-709.660	800.000	-0.067	-0.275
-708.645	800.000	-0.054	-0.167
-707.631	-132.021	0.291	0.038
-706.616	244.888	-0.081	-0.136
-705.602	727.828	0.178	-0.477
-704.587	-200.000	-0.118	-0.537
-703.572	-134.292	0.413	-0.051
-702.558	-199.722	-0.362	0.002
-701.543	-93.421	-0.318	0.088
-700.529	57.585	0.087	-0.085
-699.514	86.122	0.031	0.034
-698.499	65.165	0.078	0.079
-697.485	-108.124	0.132	-0.029
-696.470	-200.000	-0.010	0.198
-695.456	-200.000	-0.027	-0.171
-694.441	187.720	0.184	-0.275
-693.426	-200.000	0.212	-0.000
-692.412	58.852	-0.247	-0.243
-691.397	373.694	-0.100	0.204
-690.383	-200.000	0.010	-0.144
-689.368	473.160	0.046	0.103
-688.354	-64.170	-0.196	0.080
-687.339	-143.915	0.298	-0.028
-686.324	-69.113	0.225	-0.087
-685.310	-169.445	-0.350	0.013
-684.295	316.390	-0.060	-0.113
-683.281	208.749	-0.236	-0.369
-682.266	33.106	0.136	-0.118
-681.251	800.000	0.103	-0.353
-680.237	310.107	0.108	-0.202
-679.222	-200.000	0.003	0.018
-678.208	81.813	-0.056	0.061
-677.193	-200.000	0.017	0.154
-676.178	-200.000	0.036	-0.365
-675.164	-43.238	-0.221	0.112
-674.149	8.510	-0.126	0.095
-673.135	50.683	-0.127	0.120
-672.120	124.810	0.260	-0.327
-671.105	493.662	0.065	0.149
-670.091	27.643	-0.290	0.244
-669.076	-142.429	-0.295	-0.029
-668.062	30.703	-0.175	-0.150
-667.047	623.060	-0.066	0.167
-666.032	-77.434	0.263	-0.091
-665.018	-200.000	0.001	-0.055
-664.003	-93.814	0.220	0.061
-662.989	-200.000	0.006	-0.036
-661.974	-200.000	-0.066	0.306
-660.959	727.920	-0.093	0.249
-659.945	622.566	-0.121	0.305
-658.930	537.577	-0.142	0.337
-657.916	800.000	0.083	0.324
-656.901	-191.144	0.210	-0.002
-655.886	689.760	-0.084	-0.220
-654.872	-200.000	0.012	-0.163
-653.857	49.237	0.085	-0.080
-652.843	-200.000	-0.022	0.167
-651.828	253.031	0.071	0.122
-650.814	-200.000	-0.053	0.301
-649.799	-200.000	0.038	-0.285
-648.784	-78.383	-0.026	-0.009
-647.770	-49.901	-0.214	-0.101
-646.755	-39.590	0.128	-0.067
-645.741	-46.965	0.106	-0.052
-644.726	-200.000	-0.005	0.053
-643.711	215.218	-0.205	-0.325
-642.697	-104.708	0.139	0.032
-641.682	-15.670	-0.216	-0.138
-640.668	533.106	-0.070	0.166
-639.653	-55.117	0.115	-0.052
-638.638	544.697	0.050	0.119
-637.624	-141.281	-0.198	-0.020
-636.609	48.155	-0.104	-0.097
-635.595	44.769	0.025	-0.023
-634.580	-200.000	0.008	0.163
-633.565	62.861	0.172	0.172
-632.551	-200.000	-0.001	-0.120
-631.536	410.004	-0.106	0.225
-630.522	499.849	0.055	0.126
-629.507	-9.905	0.168	0.112
-628.492	76.748	-0.149	0.157
-627.478	-3.603	0.298	0.207
-626.463	36.606	0.116	-0.102
-625.449	800.000	-0.116	-0.410
-624.434	-46.160	-0.360	0.177
-623.419	1.787	-0.075	0.054
-622.405	-26.664	0.238	-0.139
-621.390	-76.628	-0.172	-0.060
-620.376	55.911	0.187	0.181
-619.361	369.991	0.111	-0.224
-618.346	201.725	-0.168	-0.258
-617.332	695.360	-0.098	0.257
-616.317	-200.000	0.041	0.187
-615.303	460.279	-0.147	-0.327
-614.288	399.094	0.103	0.216
-613.273	81.230	0.134	0.144
-612.259	150.946	-0.227	0.308
-611.244	106.619	-0.097	0.115
-610.230	-200.000	0.005	-0.227
-609.215	129.812	0.200	-0.255
-608.201	-47.683	0.196	-0.095
-607.186	-151.988	-0.225	-0.016
-606.171	384.631	0.068	0.141
-605.157	-168.820	-0.271	-0.010
-604.142	241.961	0.013	-0.022
-603.128	-92.341	-0.163	-0.046
-602.113	46.816	-0.114	-0.106
-601.098	-1.427	0.424	-0.298
-600.084	74.846	-0.206	0.216
-599.069	30.372	-0.276	-0.235
-598.055	57.686	-0.055	-0.054
-597.040	-200.000	0.023	0.115
-596.025	-171.336	-0.268	0.009
-595.011	-121.823	0.079	-0.013
-593.996	-140.462	-0.122	0.013
-592.982	42.945	-0.070	0.063
-591.967	-111.009	0.134	-0.027
-590.952	81.594	-0.097	0.105
-589.938	321.414	-0.196	-0.372
-588.923	-71.361	0.393	0.147
-587.909	-99.996	0.029	-0.007
-586.894	800.000	-0.082	-0.270
-585.879	-6.849	-0.282	-0.191
-584.865	-168.396	0.250	0.010
-583.850	274.244	-0.095	-0.168
-582.836	-14.059	0.217	0.139
-581.821	-84.468	-0.340	-0.107
-580.806	241.854	0.194	0.324
-579.792	800.000	0.037	-0.155
-578.777	311.399	0.040	0.075
-577.763	118.189	-0.143	-0.176
-576.748	-100.931	0.099	-0.024
-575.733	-55.265	-0.143	-0.064
-574.719	-200.000	0.001	-0.134
-573.704	22.221	-0.060	-0.049
-572.690	-20.569	-0.255	-0.156
-571.675	-200.000	0.003	-0.097
-570.661	-31.001	0.050	-0.028
-569.646	24.436	0.281	0.231
-568.631	52.815	0.124	0.118
-567.617	-32.036	-0.055	-0.031
-566.602	-21.793	-0.237	-0.144
-565.588	-29.240	0.095	-0.054
-564.573	-200.000	-0.005	-0.243
-563.558	-177.718	0.305	-0.007
-562.544	800.000	0.035	0.131
-561.529	16.748	-0.255	0.201
-560.515	800.000	-0.068	0.197
-559.500	-200.000	-0.026	0.307
-558.485	-118.427	-0.033	-0.006
-557.471	-200.000	0.045	0.231
-556.456	446.607	-0.089	-0.194
-555.442	-35.364	0.239	0.130
-554.427	-200.000	0.027	0.149
-553.412	-200.000	-0.176	-0.000
-552.398	-200.000	0.020	0.107
-551.383	-67.029	-0.234	0.092
-550.369	800.000	-0.069	-0.275
-549.354	157.945	-0.202	0.278
-548.339	115.926	0.132	0.161
-547.325	3.748	0.037	0.027
-546.310	-100.487	0.632	0.156
-545.296	-175.841	-0.181	0.005
-544.281	430.719	-0.026	0.057
-543.266	242.517	0.137	-0.228
-542.252	479.349	0.099	-0.222
-541.237	-21.567	-0.194	0.118
-540.223	800.000	-0.047	-0.204
-539.208	-200.000	0.039	-0.421
-538.193	-200.000	-0.010	-0.293
-537.179	-47.772	0.168	-0.081
-536.164	-166.612	-0.199	-0.008
-535.150	-69.001	0.261	0.100
-534.135	-8.973	-0.048	-0.032
-533.121	-17.805	0.027	0.017
-532.106	-94.878	0.152	0.041
-531.091	-200.000	0.017	0.197
-530.077	20.430	-0.166	0.134
-529.062	-162.284	-0.175	-0.009
-528.048	-130.772	-0.423	0.056
-527.033	-73.039	0.402	0.147
-526.018	72.526	0.165	-0.172
-525.004	-50.022	0.094	-0.044
-523.989	-8.287	-0.062	0.041
-522.975	-138.545	0.090	0.010
-521.960	800.000	0.066	0.187
-520.945	367.835	-0.098	-0.197
-519.931	475.787	-0.149	-0.334
-518.916	6.572	0.057	-0.042
-517.902	764.091	0.056	0.152
-516.887	-120.429	-0.213	-0.036
-515.872	-200.000	-0.053	0.291
-514.858	-130.633	0.158	-0.021
-513.843	-200.000	-0.036	0.284
-512.829	133.410	-0.044	0.057
-511.814	800.000	-0.069	-0.208
-510.799	202.025	0.070	0.107
-509.785	229.418	0.061	-0.099
-508.770	40.276	-0.229	-0.205
-507.756	166.654	0.338	0.476
-506.741	53.764	-0.327	0.312
-505.726	-200.000	0.045	-0.264
-504.712	3.666	-0.273	0.198
-503.697	60.294	0.260	-0.256
-502.683	74.184	-0.248	0.259
-501.668	800.000	0.119	-0.436
-500.653	-11.369	-0.327	-0.214
-499.639	800.000	-0.025	0.107
-498.624	-139.452	0.309	-0.033
-497.610	800.000	0.071	0.233
-496.595	-111.352	0.105	-0.021
-495.581	800.000	0.114	-0.315
-494.566	112.315	0.209	-0.252
-493.551	-95.264	-0.406	-0.109
-492.537	-200.000	0.051	-0.227
-491.522	-92.597	0.184	0.051
-490.508	-200.000	-0.122	0.000
-489.493	-76.851	0.257	0.089
-488.478	-200.000	0.023	-0.152
-487.464	116.383	0.228	-0.278
-486.449	-24.176	0.042	-0.025
-485.435	-200.000	0.026	-0.180
-484.420	-200.000	0.056	-0.266
-483.405	118.158	-0.115	-0.141
-482.391	257.869	-0.100	-0.172
-481.376	119.672	0.135	0.166
-480.362	-41.593	0.035	-0.018
-479.347	-110.246	0.242	-0.050
-478.332	75.961	-0.320	-0.336
-477.318	-96.303	0.135	-0.036
-476.303	-41.086	0.109	0.056
-475.289	353.019	0.085	0.167
-474.274	527.163	-0.097	-0.226
-473.259	293.359	0.026	0.048
-472.245	-200.000	0.024	0.234
-471.230	-200.000	-0.011	0.161
-470.216	359.345	0.135	0.268
-469.201	800.000	0.077	0.217
-468.186	-45.244	0.370	0.182
-467.172	-200.000	0.035	-0.204
-466.157	800.000	-0.089	-0.260
-465.143	-113.126	0.081	0.016
-464.128	800.000	-0.063	0.243
-463.113	506.388	-0.132	0.303
-462.099	26.334	-0.072	0.060
-461.084	-88.124	0.378	0.112
-460.070	155.425	0.103	0.140
-459.055	-176.101	-0.156	0.004
-458.040	-160.579	0.271	-0.014
-457.026	-22.623	-0.082	0.049
-456.011	-200.000	0.064	0.345
-454.997	251.479	0.047	0.080
-453.982	21.753	-0.045	-0.036
-452.968	700.087	-0.053	-0.138
-451.953	-200.000	0.023	0.250
-450.938	-200.000	-0.043	0.255
-449.924	800.000	-0.044	0.141
-448.909	-200.000	-0.021	0.098
-447.895	-66.548	-0.457	-0.180
-446.880	-120.468	0.256	0.043
-445.865	-64.033	-0.219	0.089
-444.851	10.645	0.068	-0.052
-443.836	112.324	0.383	0.460
-442.822	-45.578	-0.098	0.048
-441.807	-27.166	0.298	0.172
-440.792	-30.818	-0.213	0.120
-439.778	800.000	0.132	0.413
-438.763	28.656	-0.300	-0.252
-437.749	-135.470	-0.118	-0.014
-436.734	800.000	0.110	-0.342
-435.719	36.736	0.260	-0.228
-434.705	-42.785	-0.192	0.097
-433.690	161.159	-0.115	0.160
-432.676	800.000	-0.061	-0.247
-431.661	281.661	-0.062	0.110
-430.646	-162.159	-0.160	0.008
-429.632	-125.159	-0.116	-0.018
-428.617	63.086	-0.147	-0.146
-427.603	38.717	-0.234	0.207
-426.588	-7.065	-0.070	0.047
-425.573	229.268	-0.158	-0.256
-424.559	-200.000	0.026	-0.114
-423.544	218.733	-0.120	0.189
-422.530	112.980	-0.170	0.204
-421.515	-200.000	-0.009	-0.099
-420.500	-200.000	0.001	0.132
-419.486	-167.593	0.397	0.016
-418.471	-200.000	0.009	-0.423
-417.457	134.223	-0.219	-0.281
-416.442	16.797	-0.244	-0.191
-415.428	-117.762	0.126	-0.022
-414.413	39.365	0.410	0.364
-413.398	-37.087	-0.189	0.100
-412.384	-13.765	-0.244	0.156
-411.369	53.835	-0.153	-0.145
-410.355	622.000	0.038	-0.094
-409.340	116.073	0.237	-0.287
-408.325	-200.000	-0.035	0.339
-407.311	23.936	-0.335	0.273
-406.296	36.435	-0.194	0.169
-405.282	109.751	0.037	0.044
-404.267	0.487	-0.142	0.101
-403.252	-140.385	0.231	0.024
-402.238	113.070	0.158	-0.190
-401.223	800.000	-0.084	0.264
-400.209	143.185	-0.189	0.249
-399.194	-59.441	0.210	-0.089
-398.179	10.024	0.208	-0.157
-397.165	-200.000	0.012	0.052
-396.150	-200.000	-0.031	0.175
-395.136	47.226	0.132	-0.121
-394.121	-36.717	0.192	0.102
-393.106	-93.449	0.501	0.137
-392.092	736.140	-0.067	-0.178
-391.077	14.985	0.245	-0.190
-390.063	-133.866	-0.168	0.021
-389.048	152.100	-0.248	-0.334
-388.033	-200.000	0.004	-0.266
-387.019	285.554	0.127	-0.227
-386.004	-200.000	0.015	-0.232
-384.990	85.936	-0.225	0.244
-383.975	-105.715	-0.361	0.081
-382.960	-200.000	0.043	0.192
-381.946	-200.000	0.043	-0.262
-380.931	-200.000	-0.099	0.000
-379.917	74.347	-0.180	0.187
-378.902	61.007	-0.355	-0.348
-377.888	88.732	-0.091	0.101
-376.873	-58.322	-0.342	0.147
-375.858	47.476	0.172	0.158
-374.844	-83.647	0.101	-0.032
-373.829	-12.109	-0.089	0.058
-372.815	285.066	0.175	-0.312
-371.800	526.622	0.143	-0.332
-370.785	800.000	-0.025	0.087
-369.771	603.114	0.148	-0.363
-368.756	-79.961	-0.112	-0.037
-367.742	-200.000	-0.054	0.253
-366.727	-200.000	0.019	-0.204
-365.712	622.674	0.028	0.070
-364.698	-200.000	0.008	0.335
-363.683	-153.104	0.226	-0.016
-362.669	309.424	0.077	-0.142
-361.654	-200.000	0.062	0.280
-360.639	-41.226	0.127	0.065
-359.625	-200.000	0.011	-0.463
-358.610	-108.787	-0.176	0.037
-357.596	-15.594	0.205	0.129
-356.581	-36.504	0.254	-0.135
-355.566	193.201	-0.098	0.147
-354.552	4.858	0.423	0.307
-353.537	-200.000	-0.005	-0.020
-352.523	340.758	0.121	-0.234
-351.508	43.854	0.126	0.114
-350.493	38.479	-0.040	0.035
-349.479	92.177	-0.135	0.150
-348.464	173.991	-0.189	-0.270
-347.450	-114.297	0.247	0.047
-346.435	-49.923	-0.080	0.038
-345.420	35.631	-0.079	0.069
-344.406	-200.000	0.022	-0.286
-343.391	800.000	0.062	0.188
-342.377	502.801	-0.131	0.299
-341.362	-40.238	0.208	-0.107
-340.348	235.860	-0.117	0.191
-339.333	276.669	-0.201	-0.353
-338.318	187.168	0.037	0.055
-337.304	-180.926	0.541	-0.011
-336.289	183.237	-0.178	0.259
-335.275	132.427	-0.063	0.081
-334.260	800.000	0.055	0.209
-333.245	95.184	-0.095	-0.107
-332.231	-126.531	-0.182	-0.027
-331.216	-113.529	-0.138	0.027
-330.202	800.000	-0.090	-0.318
-329.187	-47.917	-0.257	0.123
-328.172	166.539	-0.103	-0.144
-327.158	143.962	-0.065	0.086
-326.143	-175.518	-0.092	-0.002
-325.129	-68.066	-0.143	0.055
-324.114	125.787	-0.185	-0.230
-323.099	-200.000	0.009	-0.420
-322.085	-178.084	0.143	-0.003
-321.070	-200.000	0.014	-0.128
-320.056	142.944	-0.282	-0.370
-319.041	290.209	-0.208	-0.373
-318.026	-46.917	0.254	-0.123
-317.012	-158.368	-0.315	-0.018
-315.997	-200.000	-0.017	0.158
-314.983	129.438	0.183	-0.230
-313.968	-46.048	0.279	-0.136
-312.953	171.701	-0.080	-0.113
-311.939	281.580	0.074	-0.130
-310.924	-133.948	-0.184	0.022
-309.910	115.542	0.155	-0.186
-308.895	91.753	0.109	-0.121
-307.880	-29.280	0.277	-0.156
-306.866	-200.000	-0.070	0.364
-305.851	-25.752	0.136	-0.079
-304.837	-103.539	0.075	-0.017
-303.822	-35.681	-0.073	0.039
-302.807	-2.733	0.270	0.186
-301.793	432.265	-0.137	0.292
-300.778	-200.000	-0.039	-0.276
-299.764	800.000	0.016	-0.048
-298.749	-200.000	0.000	-0.009
-297.735	-16.811	0.144	-0.090
-296.720	-115.798	-0.212	-0.039
-295.705	224.763	0.054	-0.086
-294.691	-27.031	0.246	0.141
-293.676	41.580	0.326	0.291
-292.662	27.905	-0.133	0.110
-291.647	-180.097	-0.273	0.006
-290.632	-100.351	-0.342	0.084
-289.618	-200.000	-0.041	-0.238
-288.603	800.000	-0.096	-0.314
-287.589	-133.446	0.412	0.051
-286.574	15.147	-0.163	0.126
-285.559	-90.364	0.268	-0.077
-284.545	-127.007	-0.360	0.052
-283.530	91.976	-0.185	-0.205
-282.516	642.564	0.230	-0.579
-281.501	-14.956	-0.141	-0.089
-280.486	-56.355	0.150	0.066
-279.472	-41.206	-0.264	0.134
-278.457	35.196	0.241	-0.208
-277.443	115.268	-0.093	-0.112
-276.428	572.801	0.096	0.230
-275.413	-5.349	0.170	-0.115
-274.399	800.000	-0.075	-0.211
-273.384	201.265	0.297	0.450
-272.370	-87.841	-0.045	0.013
-271.355	-198.393	-0.248	0.001
-270.340	-148.212	-0.393	0.032
-269.326	-104.469	0.127	0.029
-268.311	113.640	0.071	-0.085
-267.297	53.693	-0.074	-0.070
-266.282	277.720	-0.039	0.068
-265.267	-43.748	0.390	-0.194
-264.253	-102.537	0.289	-0.068
-263.238	-183.905	-0.050	-0.001
-262.224	-200.000	-0.020	0.101
-261.209	-60.810	0.187	0.078
-260.195	800.000	0.076	0.207
-259.180	-37.018	0.256	0.135
-258.165	-88.376	-0.271	-0.080
-257.151	-43.102	0.091	0.045
-256.136	354.033	0.137	0.268
-255.122	-200.000	-0.057	0.258
-254.107	-113.648	0.265	-0.051
-253.092	-9.172	-0.111	0.073
-252.078	-13.137	-0.202	0.129
-251.063	291.105	0.268	0.479
-250.049	-165.117	-0.203	-0.009
-249.034	-6.738	-0.274	-0.183
-248.019	34.370	0.128	0.110
-247.005	16.854	-0.194	-0.151
-245.990	-200.000	-0.020	0.501
-244.976	62.192	-0.035	0.034
-243.961	-200.000	-0.023	0.113
-242.946	427.689	-0.113	0.240
-241.932	-36.535	-0.385	-0.204
-240.917	-109.376	0.390	-0.081
-239.903	-107.935	-0.112	0.024
-238.888	-33.304	-0.183	-0.100
-237.873	-32.576	-0.085	0.047
-236.859	-143.124	-0.026	-0.002
-235.844	800.000	-0.116	0.323
-234.830	800.000	0.039	0.152
-233.815	-200.000	-0.009	-0.074
-232.800	1.633	-0.285	-0.202
-231.786	-0.352	0.202	0.141
-230.771	-29.355	-0.145	-0.081
-229.757	-53.883	0.163	0.073
-228.742	250.591	-0.163	-0.272
-227.727	88.959	-0.161	0.177
-226.713	75.258	-0.189	-0.196
-225.698	-167.972	-0.446	-0.017
-224.684	149.883	0.072	0.096
-223.669	411.909	0.028	0.058
-222.655	278.364	0.134	-0.235
-221.640	-146.545	0.067	-0.006
-220.625	-49.742	-0.040	0.019
-219.611	-200.000	-0.013	0.288
-218.596	376.905	0.064	-0.128
-217.582	-68.261	0.376	0.144
-216.567	-200.000	0.043	-0.275
-215.552	-13.688	0.222	-0.141
-214.538	-26.730	-0.077	0.044
-213.523	-83.066	0.286	0.090
-212.509	112.963	-0.067	-0.079
-211.494	800.000	0.095	-0.265
-210.479	-200.000	-0.013	0.065
-209.465	800.000	0.030	-0.093
-208.450	315.605	-0.097	0.180
-207.436	-41.487	0.163	0.082
-206.421	-156.856	0.289	0.017
-205.406	92.678	0.152	-0.169
-204.392	-147.037	-0.276	-0.023
-203.377	166.315	0.055	0.076
-202.363	-200.000	0.010	0.242
-201.348	27.309	-0.251	-0.207
-200.333	362.500	-0.088	0.174
-199.319	-101.652	0.149	-0.035
-198.304	-4.793	0.185	-0.125
-197.290	419.343	0.052	0.109
-196.275	-200.000	-0.003	0.185
-195.260	93.329	-0.195	0.216
-194.246	159.139	0.014	-0.018
-193.231	-48.069	0.215	-0.102
-192.217	18.633	0.114	-0.089
-191.202	-179.487	-0.272	0.006
-190.187	-200.000	-0.048	-0.215
-189.173	-131.090	-0.088	-0.012
-188.158	-141.550	-0.073	0.007
-187.144	12.414	0.155	0.117
-186.129	-200.000	0.030	-0.340
-185.114	-80.625	-0.125	0.041
-184.100	88.978	0.040	0.044
-183.085	-200.000	-0.055	0.272
-182.071	-73.720	0.286	0.102
-181.056	144.350	-0.146	0.191
-180.042	135.354	-0.112	0.143
-179.027	-145.406	0.248	0.022
-178.012	60.158	-0.071	0.069
-176.998	-123.907	-0.323	-0.050
-175.983	-109.256	-0.288	0.060
-174.969	-129.849	0.165	-0.022
-173.954	147.824	0.100	0.132
-172.939	-200.000	-0.006	0.196
-171.925	-48.429	0.160	0.075
-170.910	-187.536	0.414	0.005
-169.896	-200.000	-0.000	0.126
-168.881	6.617	-0.046	-0.034
-167.866	57.538	0.356	-0.341
-166.852	-200.000	0.050	0.370
-165.837	223.382	0.197	0.311
-164.823	-154.547	-0.062	0.004
-163.808	-85.698	-0.107	0.033
-162.793	800.000	-0.104	0.342
-161.779	94.943	0.088	0.099
-160.764	-0.718	0.164	0.114
-159.750	-200.000	0.016	-0.101
-158.735	-129.245	-0.112	-0.015
-157.720	-70.161	0.216	0.081
-156.706	-146.056	0.121	-0.010
-155.691	747.915	-0.092	-0.242
-154.677	702.001	-0.070	0.181
-153.662	228.378	-0.060	-0.095
-152.647	-200.000	-0.091	-0.503
-151.633	-81.461	0.104	-0.034
-150.618	-200.000	-0.005	-0.246
-149.604	78.235	0.084	0.088
-148.589	-200.000	0.010	-0.117
-147.574	-12.459	-0.264	0.169
-146.560	-88.600	-0.316	0.092
-145.545	-200.000	-0.020	0.333
-144.531	-200.000	0.023	0.273
-143.516	-199.233	-0.439	0.002
-142.502	-135.308	0.364	-0.043
-141.487	-61.751	-0.111	-0.045
-140.472	-150.731	0.061	-0.005
-139.458	-63.965	0.426	-0.171
-138.443	-200.000	0.033	-0.204
-137.429	-15.386	0.150	0.094
-136.414	800.000	0.046	-0.186
-135.399	-200.000	0.026	-0.192
-134.385	200.919	-0.023	-0.035
-133.370	-62.240	0.335	-0.137
-132.356	-26.101	-0.206	0.119
-131.341	800.000	-0.032	-0.105
-130.326	-129.618	0.223	-0.030
-129.312	-200.000	0.028	-0.236
-128.297	-200.000	-0.032	0.235
-127.283	-163.188	-0.061	0.003
-126.268	-27.842	0.274	0.156
-125.253	153.673	-0.026	0.035
-124.239	-184.219	0.811	0.013
-123.224	-103.577	0.099	0.023
-122.210	123.392	0.275	0.338
