DTS Sentinel unit serial number:	SN413079Multiplexer serial number:	ORYXHardware model number:	OX4-SRSoftware version number:	ORYX F/W v4.00 Oryx Data Collector v3.7.2.0data status	okinstallation	princeton_trtdifferential loss correction	single-endedforward channel	channel 1reverse channel	N/Adate	2019/09/17time	15:38:35forward acquisition time	60.00reverse acquisition time	0.00gamma	496.2192k internal	0.2293k external	0.2293temperature offset calibration	0.9963default loss term (dB/km)	0.3790temperature slope calibration	1.0000multiplexer offset coefficient	1.0000multiplexer slope coefficient	1.0000fibre end	0.00T internal ref (°C)	38.62T ext. ref 1 (°C)	0.39T ext. ref 2 (°C)	36.04length (m)	temperature (°C)	Stokes	anti-Stokes-747.200	160.081	-0.067	-0.096
-746.185	-200.000	0.011	0.401
-745.171	400.028	-0.019	0.040
-744.156	74.670	-0.384	0.413
-743.142	-200.000	0.037	0.170
-742.127	37.138	-0.051	-0.047
-741.112	-18.619	0.156	-0.100
-740.098	262.333	0.153	0.272
-739.083	225.216	0.119	-0.197
-738.069	-105.701	-0.312	0.072
-737.054	-200.000	0.028	0.150
-736.039	131.925	-0.060	0.078
-735.025	-127.119	0.387	0.058
-734.010	9.634	-0.267	0.207
-732.996	468.257	-0.070	0.160
-731.981	-63.126	0.127	0.054
-730.966	-200.000	0.041	0.223
-729.952	-118.291	0.172	0.031
-728.937	9.201	-0.426	-0.329
-727.923	-200.000	-0.027	0.349
-726.908	116.121	-0.210	-0.262
-725.894	228.944	-0.123	-0.206
-724.879	-36.922	0.183	0.100
-723.864	800.000	0.076	0.241
-722.850	-76.625	-0.281	-0.101
-721.835	-200.000	-0.029	-0.566
-720.821	122.762	-0.116	-0.149
-719.806	160.034	0.101	0.143
-718.791	-95.536	-0.196	0.054
-717.777	-105.133	-0.400	0.093
-716.762	124.979	-0.164	0.211
-715.748	291.211	0.167	0.311
-714.733	-21.867	0.077	0.048
-713.718	-200.000	0.034	-0.289
-712.704	800.000	-0.053	-0.230
-711.689	-200.000	-0.019	-0.125
-710.675	-200.000	0.022	-0.151
-709.660	-102.448	-0.335	-0.082
-708.645	9.708	-0.107	-0.083
-707.631	-91.528	0.064	-0.019
-706.616	-180.446	0.065	-0.001
-705.602	50.972	0.050	-0.049
-704.587	64.808	-0.079	-0.082
-703.572	800.000	0.044	-0.194
-702.558	365.782	-0.077	0.159
-701.543	-200.000	0.023	-0.119
-700.529	-35.356	-0.204	-0.113
-699.514	800.000	0.029	0.127
-698.499	-24.143	0.091	0.055
-697.485	784.970	0.092	-0.257
-696.470	93.950	-0.160	-0.185
-695.456	128.299	0.077	0.100
-694.441	-12.048	0.256	0.171
-693.426	178.645	-0.073	0.109
-692.412	-67.093	-0.471	-0.190
-691.397	-200.000	-0.010	0.055
-690.383	205.555	-0.148	-0.235
-689.368	61.061	-0.238	-0.241
-688.354	45.583	0.073	-0.069
-687.339	153.068	0.164	0.229
-686.324	-154.239	-0.222	0.015
-685.310	-200.000	-0.012	0.205
-684.295	-35.790	-0.166	0.092
-683.281	-151.754	-0.123	-0.009
-682.266	-153.303	0.336	0.024
-681.251	26.929	0.156	-0.134
-680.237	36.351	-0.147	-0.133
-679.222	-123.318	0.105	0.017
-678.208	-200.000	0.010	0.203
-677.193	54.230	-0.067	0.066
-676.178	-200.000	0.010	-0.120
-675.164	169.864	0.039	-0.056
-674.149	14.691	-0.120	-0.096
-673.135	-74.930	-0.075	0.028
-672.120	-200.000	-0.031	-0.239
-671.105	-107.487	0.068	0.015
-670.091	-37.143	-0.307	-0.168
-669.076	49.504	-0.083	0.079
-668.062	-25.492	-0.112	-0.067
-667.047	11.486	-0.041	-0.032
-666.032	174.312	0.012	0.017
-665.018	63.324	0.235	0.241
-664.003	-149.024	0.279	-0.023
-662.989	63.026	-0.087	-0.089
-661.974	-3.103	-0.110	-0.078
-660.959	70.890	0.084	0.089
-659.945	-200.000	-0.004	-0.033
-658.930	7.133	0.322	-0.245
-657.916	800.000	-0.051	-0.158
-656.901	48.556	-0.321	-0.307
-655.886	-200.000	-0.001	0.206
-654.872	-73.380	0.316	0.118
-653.857	96.318	-0.171	-0.200
-652.843	49.088	-0.071	0.068
-651.828	-200.000	-0.220	0.001
-650.814	-200.000	-0.009	-0.060
-649.799	114.432	0.178	0.221
-648.784	595.410	-0.144	0.364
-647.770	800.000	0.010	0.031
-646.755	-179.330	-0.222	0.005
-645.741	240.656	-0.131	-0.223
-644.726	-200.000	-0.008	0.106
-643.711	-200.000	-0.040	-0.383
-642.697	-200.000	0.046	-0.362
-641.682	800.000	0.018	-0.064
-640.668	-200.000	0.025	0.195
-639.653	333.765	-0.106	0.208
-638.638	144.219	-0.042	-0.057
-637.624	493.839	0.103	-0.242
-636.609	77.879	-0.148	-0.160
-635.595	-200.000	0.117	0.000
-634.580	407.774	-0.140	0.302
-633.565	214.489	0.181	0.292
-632.551	215.839	-0.096	0.156
-631.536	422.064	0.088	-0.192
-630.522	-132.841	0.231	-0.030
-629.507	-23.275	-0.166	0.101
-628.492	-82.950	-0.164	-0.054
-627.478	203.583	0.036	-0.057
-626.463	-200.000	0.009	0.040
-625.449	-200.000	0.021	0.157
-624.434	54.014	0.101	0.099
-623.419	-200.000	-0.002	0.214
-622.405	-200.000	0.006	0.159
-621.390	-46.551	0.081	-0.041
-620.376	-200.000	0.022	0.339
-619.361	-66.118	-0.254	-0.103
-618.346	-200.000	0.043	0.249
-617.332	172.641	-0.055	-0.081
-616.317	-149.510	-0.247	-0.020
-615.303	-78.347	0.036	-0.013
-614.288	471.570	0.182	-0.416
-613.273	-191.614	0.033	-0.000
-612.259	-78.881	-0.081	-0.028
-611.244	61.723	-0.050	-0.051
-610.230	61.519	-0.077	-0.078
-609.215	800.000	-0.095	-0.303
-608.201	112.488	0.080	-0.098
-607.186	139.781	0.144	-0.192
-606.171	356.910	0.206	-0.419
-605.157	56.566	0.145	-0.143
-604.142	324.262	0.077	-0.150
-603.128	-48.408	-0.247	0.121
-602.113	-41.675	0.167	0.087
-601.098	-200.000	-0.010	0.254
-600.084	24.918	0.109	-0.092
-599.069	378.415	0.126	-0.263
-598.055	-200.000	0.013	0.114
-597.040	-200.000	-0.053	0.430
-596.025	249.380	-0.224	0.386
-595.011	435.648	0.154	0.341
-593.996	-3.858	-0.246	0.174
-592.982	-78.647	0.112	0.039
-591.967	-38.664	0.063	0.034
-590.952	-37.783	-0.419	-0.227
-589.938	-26.779	-0.271	0.161
-588.923	271.114	-0.124	0.223
-587.909	-51.510	0.066	-0.032
-586.894	-200.000	0.002	-0.145
-585.879	334.158	-0.065	0.128
-584.865	-50.744	0.429	-0.205
-583.850	800.000	-0.098	0.281
-582.836	226.118	-0.168	-0.276
-581.821	-9.727	-0.266	-0.180
-580.806	-86.009	-0.048	0.015
-579.792	-200.000	-0.002	0.050
-578.777	-53.937	0.363	0.168
-577.763	-0.567	0.170	-0.123
-576.748	-151.453	0.151	0.011
-575.733	12.288	0.086	-0.067
-574.719	-200.000	0.007	-0.176
-573.704	-200.000	-0.065	-0.484
-572.690	-119.997	0.206	-0.036
-571.675	22.173	0.039	0.032
-570.661	-97.824	0.119	-0.031
-569.646	-200.000	-0.021	-0.260
-568.631	-128.205	0.389	-0.056
-567.617	95.868	0.180	-0.209
-566.602	394.574	0.050	0.106
-565.588	-200.000	0.007	-0.048
-564.573	-163.436	-0.139	-0.007
-563.558	361.767	-0.134	-0.273
-562.544	-92.922	0.386	-0.109
-561.529	-104.351	0.284	-0.067
-560.515	441.195	0.138	0.306
-559.500	800.000	-0.096	-0.293
-558.485	-18.677	-0.433	-0.274
-557.471	159.665	0.159	0.225
-556.456	236.928	-0.061	-0.102
-555.442	236.525	-0.132	-0.222
-554.427	-200.000	0.069	-0.395
-553.412	128.388	-0.227	-0.294
-552.398	394.282	-0.009	-0.018
-551.383	-200.000	-0.002	-0.248
-550.369	228.213	0.088	0.146
-549.354	-200.000	-0.054	0.253
-548.339	160.430	-0.133	0.188
-547.325	97.796	0.123	-0.143
-546.310	-170.611	0.233	-0.008
-545.296	-64.424	-0.149	0.062
-544.281	-200.000	0.047	0.330
-543.266	-62.787	-0.338	0.142
-542.252	-200.000	0.059	0.438
-541.237	442.728	0.120	-0.268
-540.223	-91.726	-0.082	0.024
-539.208	-137.975	0.331	-0.037
-538.193	163.237	0.324	0.462
-537.179	800.000	-0.042	0.183
-536.164	800.000	0.070	-0.243
-535.150	222.995	-0.260	-0.425
-534.135	800.000	0.061	-0.249
-533.121	-189.588	-0.377	0.004
-532.106	-130.873	-0.150	-0.020
-531.091	-200.000	-0.075	0.362
-530.077	-200.000	0.045	0.260
-529.062	-17.516	-0.137	-0.087
-528.048	411.101	0.092	0.198
-527.033	698.414	0.129	-0.345
-526.018	44.972	0.141	0.131
-525.004	-73.624	-0.149	-0.055
-523.989	-74.178	-0.247	-0.091
-522.975	27.298	0.255	-0.217
-521.960	-0.095	-0.361	0.261
-520.945	-152.200	-0.355	0.026
-519.931	38.959	0.136	-0.123
-518.916	-200.000	-0.002	-0.151
-517.902	-122.978	0.201	0.033
-516.887	-200.000	-0.075	-0.515
-515.872	-50.327	0.056	0.027
-514.858	-200.000	0.016	0.090
-513.843	92.179	0.111	0.127
-512.829	126.270	-0.167	0.214
-511.814	-63.247	0.141	-0.059
-510.799	-61.498	0.178	-0.076
-509.785	-200.000	-0.065	-0.417
-508.770	61.460	-0.174	-0.176
-507.756	33.009	-0.157	0.138
-506.741	-136.314	0.120	0.014
-505.726	166.889	-0.139	0.201
-504.712	98.795	-0.110	0.129
-503.697	-60.976	-0.262	0.112
-502.683	-40.497	0.072	0.038
-501.668	-105.558	-0.107	-0.025
-500.653	187.295	0.195	-0.295
-499.639	-200.000	-0.021	0.134
-498.624	-32.217	-0.264	-0.149
-497.610	-200.000	-0.025	-0.294
-496.595	-200.000	0.006	0.171
-495.581	-18.146	-0.441	0.280
-494.566	-115.515	0.571	-0.109
-493.551	-65.874	-0.326	-0.132
-492.537	-200.000	-0.049	0.247
-491.522	-18.895	-0.307	-0.193
-490.508	340.851	0.059	-0.118
-489.493	-117.977	-0.153	-0.028
-488.478	-200.000	0.056	0.000
-487.464	-200.000	-0.013	0.093
-486.449	800.000	-0.024	0.077
-485.435	-57.373	-0.266	0.119
-484.420	800.000	-0.080	-0.305
-483.405	-49.749	-0.116	-0.056
-482.391	565.908	-0.081	-0.199
-481.376	-200.000	0.014	-0.338
-480.362	201.056	-0.038	0.059
-479.347	-200.000	0.018	0.227
-478.332	-119.447	-0.293	0.052
-477.318	-2.925	0.151	-0.107
-476.303	-5.889	0.367	-0.255
-475.289	323.388	0.182	-0.351
-474.274	-117.803	-0.168	-0.030
-473.259	367.398	-0.072	0.147
-472.245	-73.492	-0.083	0.031
-471.230	-200.000	-0.022	-0.278
-470.216	800.000	-0.059	0.253
-469.201	-82.221	0.333	-0.110
-468.186	-54.741	-0.042	-0.019
-467.172	-59.748	-0.245	0.106
-466.157	55.414	0.202	0.198
-465.143	24.465	-0.236	-0.198
-464.128	-66.873	0.232	0.093
-463.113	-200.000	0.024	-0.115
-462.099	-200.000	0.314	0.000
-461.084	-200.000	-0.003	-0.070
-460.070	199.222	0.087	0.135
-459.055	454.525	-0.090	-0.201
-458.040	165.965	-0.147	0.211
-457.026	-14.447	-0.281	-0.183
-456.011	20.080	-0.321	0.262
-454.997	145.249	-0.072	-0.097
-453.982	-98.669	0.033	-0.009
-452.968	-200.000	0.001	-0.224
-451.953	224.327	0.072	0.118
-450.938	-88.236	0.196	0.059
-449.924	401.891	0.105	0.222
-448.909	-49.882	0.148	-0.071
-447.895	-71.439	0.269	0.102
-446.880	-200.000	0.000	0.004
-445.865	216.217	0.059	0.095
-444.851	-137.767	-0.168	-0.019
-443.836	-83.187	0.429	0.139
-442.822	-118.759	0.164	0.029
-441.807	-77.580	-0.319	0.112
-440.792	90.493	0.176	-0.199
-439.778	732.273	-0.094	0.255
-438.763	800.000	-0.048	0.167
-437.749	565.294	0.022	0.055
-436.734	544.868	-0.052	0.127
-435.719	4.817	0.191	0.142
-434.705	165.307	-0.050	0.072
-433.690	79.587	-0.180	-0.195
-432.676	133.147	-0.181	-0.236
-431.661	80.691	0.113	0.123
-430.646	365.903	-0.075	-0.154
-429.632	436.041	-0.112	-0.247
-428.617	575.549	0.026	-0.065
-427.603	155.898	0.177	-0.246
-426.588	-200.000	-0.077	-0.579
-425.573	206.554	0.178	-0.279
-424.559	-200.000	0.010	0.222
-423.544	79.670	0.158	0.171
-422.530	-200.000	0.022	0.293
-421.515	221.409	0.064	-0.103
-420.500	-47.767	-0.173	-0.085
-419.486	-49.586	-0.308	-0.148
-418.471	-200.000	-0.014	-0.095
-417.457	211.555	0.370	0.589
-416.442	-118.052	-0.203	-0.037
-415.428	-103.041	-0.488	0.117
-414.413	-200.000	-0.042	-0.276
-413.398	563.899	-0.126	-0.308
-412.384	-85.157	0.200	-0.063
-411.369	800.000	-0.088	-0.257
-410.355	-200.000	0.017	0.104
-409.340	-133.219	0.129	0.016
-408.325	-180.133	0.263	0.006
-407.311	70.901	0.215	-0.225
-406.296	-113.942	-0.073	0.014
-405.282	800.000	-0.059	0.188
-404.267	245.213	0.158	0.268
-403.252	252.324	0.044	0.076
-402.238	-134.638	0.096	-0.012
-401.223	-31.976	-0.095	0.054
-400.209	224.150	-0.126	-0.205
-399.194	233.883	-0.118	0.196
-398.179	13.260	-0.173	-0.135
-397.165	-200.000	-0.019	-0.096
-396.150	213.271	0.055	0.088
-395.136	-185.916	-0.320	-0.005
-394.121	28.485	-0.242	-0.206
-393.106	544.403	-0.091	-0.220
-392.092	-162.532	-0.245	-0.012
-391.077	42.434	-0.022	0.020
-390.063	-81.186	-0.176	-0.059
-389.048	79.783	0.212	-0.230
-388.033	-200.000	-0.055	-0.291
-387.019	-41.601	-0.405	-0.210
-386.004	-141.141	-0.222	0.023
-384.990	226.028	0.087	-0.142
-383.975	-87.761	0.190	-0.058
-382.960	-22.531	-0.253	-0.154
-381.946	-70.815	0.095	0.036
-380.931	-144.054	-0.051	0.005
-379.917	-200.000	0.020	-0.139
-378.902	-200.000	-0.027	0.155
-377.888	44.148	-0.183	-0.169
-376.873	307.512	0.050	0.094
-375.858	-52.398	0.160	-0.075
-374.844	800.000	-0.080	0.269
-373.829	258.179	0.101	0.175
-372.815	-80.581	0.196	-0.066
-371.800	-58.079	0.204	-0.090
-370.785	-4.608	-0.214	-0.149
-369.771	-200.000	0.047	0.232
-368.756	235.924	-0.091	0.151
-367.742	-6.520	-0.191	0.131
-366.727	115.453	-0.201	0.247
-365.712	-153.543	-0.055	0.004
-364.698	-149.122	0.260	-0.021
-363.683	-99.980	-0.525	0.132
-362.669	-103.987	0.166	-0.039
-361.654	-2.954	0.301	0.212
-360.639	-65.615	0.182	0.073
-359.625	141.824	0.127	0.170
-358.610	-200.000	-0.011	0.158
-357.596	-116.732	0.323	-0.060
-356.581	-200.000	0.017	0.276
-355.566	-160.501	-0.105	-0.006
-354.552	54.976	0.051	0.050
-353.537	800.000	0.045	-0.142
-352.523	782.216	0.082	0.226
-351.508	158.818	0.253	0.354
-350.493	800.000	-0.008	0.028
-349.479	-106.305	0.114	0.026
-348.464	41.828	0.168	0.154
-347.450	-137.399	-0.129	0.015
-346.435	-200.000	0.048	0.270
-345.420	134.018	-0.072	0.094
-344.406	-200.000	0.005	-0.278
-343.391	680.805	0.118	-0.308
-342.377	-98.853	0.390	-0.100
-341.362	-200.000	0.037	0.206
-340.348	495.857	0.051	-0.117
-339.333	800.000	-0.129	0.443
-338.318	326.261	0.159	0.307
-337.304	-33.132	-0.222	-0.124
-336.289	-31.740	0.239	0.135
-335.275	541.269	-0.086	0.206
-334.260	-200.000	-0.015	0.420
-333.245	800.000	-0.099	-0.364
-332.231	307.994	0.086	-0.162
-331.216	-4.267	0.106	-0.074
-330.202	-62.867	0.458	-0.191
-329.187	-111.548	-0.240	0.049
-328.172	174.322	-0.142	-0.206
-327.158	-0.531	-0.215	0.153
-326.143	-200.000	-0.012	-0.381
-325.129	-3.132	0.149	-0.105
-324.114	-166.809	-0.207	0.009
-323.099	-69.531	0.248	-0.095
-322.085	-33.237	0.304	0.169
-321.070	-200.000	-0.025	-0.397
-320.056	176.533	-0.113	0.165
-319.041	291.661	-0.036	-0.067
-318.026	-200.000	-0.007	0.034
-317.012	429.434	-0.115	0.249
-315.997	633.113	-0.105	-0.268
-314.983	237.239	-0.167	0.279
-313.968	-83.123	-0.050	0.016
-312.953	-78.516	0.159	0.055
-311.939	-71.211	-0.273	-0.103
-310.924	22.555	0.248	-0.204
-309.910	-200.000	0.027	-0.143
-308.895	-129.315	-0.066	-0.009
-307.880	-147.141	-0.160	0.014
-306.866	-32.307	-0.297	0.167
-305.851	66.616	-0.038	0.039
-304.837	800.000	0.034	-0.134
-303.822	471.564	-0.122	0.275
-302.807	-84.417	0.027	-0.009
-301.793	301.661	0.054	0.100
-300.778	800.000	0.067	0.254
-299.764	39.000	0.208	0.187
-298.749	-200.000	-0.006	0.394
-297.735	-200.000	0.037	0.204
-296.720	-96.766	0.036	-0.009
-295.705	-170.532	0.422	-0.015
-294.691	-24.681	0.050	0.030
-293.676	169.092	0.084	-0.120
-292.662	-91.063	0.288	0.083
-291.647	-147.356	-0.093	-0.008
-290.632	800.000	0.082	0.360
-289.618	-147.653	-0.390	0.033
-288.603	-200.000	-0.008	-0.039
-287.589	-106.113	0.314	0.071
-286.574	11.900	0.442	0.341
-285.559	-82.198	-0.241	0.079
-284.545	800.000	0.026	0.078
-283.530	-149.376	-0.363	-0.029
-282.516	32.601	0.359	0.312
-281.501	57.307	0.079	0.078
-280.486	19.627	0.166	0.134
-279.472	-6.777	0.155	-0.106
-278.457	-12.324	-0.145	0.095
-277.443	250.877	-0.201	-0.344
-276.428	-200.000	-0.004	0.060
-275.413	71.101	-0.258	-0.268
-274.399	-161.622	-0.056	-0.003
-273.384	800.000	-0.046	0.184
-272.370	151.563	-0.116	0.159
-271.355	-60.395	0.249	-0.106
-270.340	-200.000	0.004	-0.211
-269.326	29.161	-0.076	0.064
-268.311	289.261	-0.054	0.099
-267.297	64.570	-0.162	-0.164
-266.282	28.887	0.222	-0.189
-265.267	100.908	0.106	-0.123
-264.253	-138.874	0.453	0.049
-263.238	99.292	-0.205	0.238
-262.224	-107.157	-0.193	-0.043
-261.209	-14.926	-0.160	-0.103
-260.195	-11.392	-0.090	-0.059
-259.180	-74.021	0.174	-0.063
-258.165	220.058	0.220	0.354
-257.151	-102.856	0.200	0.048
-256.136	2.408	-0.209	-0.152
-255.122	-56.188	0.134	0.060
-254.107	-200.000	0.020	0.311
-253.092	725.632	0.105	-0.280
-252.078	56.839	-0.004	-0.004
-251.063	22.557	0.162	0.133
-250.049	-61.819	0.178	0.075
-249.034	132.868	-0.237	-0.307
-248.019	57.290	-0.226	-0.221
-247.005	-200.000	-0.033	0.274
-245.990	-61.733	-0.223	-0.094
-244.976	107.589	-0.216	0.258
-243.961	163.695	-0.045	0.064
-242.946	752.700	0.073	-0.198
-241.932	-73.108	-0.242	-0.089
-240.917	-200.000	0.004	-0.199
-239.903	-145.059	-0.335	0.031
-238.888	-22.199	-0.295	0.180
-237.873	-117.806	-0.218	-0.039
-236.859	800.000	-0.030	-0.103
-235.844	-46.967	-0.193	-0.094
-234.830	-0.875	0.154	0.109
-233.815	-34.748	-0.188	-0.103
-232.800	37.517	-0.090	-0.080
-231.786	-200.000	0.011	-0.185
-230.771	72.101	-0.180	0.187
-229.757	-200.000	0.035	0.209
-228.742	329.135	0.146	0.281
-227.727	-200.000	-0.000	-0.085
-226.713	-200.000	-0.005	-0.299
-225.698	297.433	0.107	-0.198
-224.684	-140.390	0.113	-0.012
-223.669	-47.361	0.186	0.091
-222.655	-73.840	-0.122	0.045
-221.640	-57.683	0.316	0.139
-220.625	800.000	-0.067	0.209
-219.611	466.726	0.064	0.143
-218.596	-146.682	0.302	0.026
-217.582	3.843	0.113	-0.083
-216.567	168.941	0.095	-0.136
-215.552	408.010	-0.063	-0.134
-214.538	-24.176	0.079	0.047
-213.523	350.844	-0.011	-0.022
-212.509	-102.994	-0.147	0.035
-211.494	511.459	-0.037	-0.085
-210.479	-14.471	0.037	-0.024
-209.465	589.854	-0.056	-0.137
-208.450	800.000	-0.136	0.443
-207.436	-105.984	0.402	0.091
-206.421	-98.133	-0.156	0.040
-205.406	-156.332	0.279	0.017
-204.392	206.590	0.090	0.140
-203.377	56.573	-0.353	0.344
-202.363	-200.000	0.021	0.095
-201.348	-99.615	-0.295	0.074
-200.333	-166.011	0.234	-0.010
-199.319	-76.058	0.112	-0.040
-198.304	-73.626	0.310	0.113
-197.290	-81.913	-0.296	0.097
-196.275	-106.773	0.138	0.031
-195.260	-33.838	0.147	-0.081
-194.246	-46.312	0.100	-0.049
-193.231	-181.266	0.276	0.005
-192.217	46.735	-0.222	-0.206
-191.202	13.580	-0.114	-0.089
-190.187	800.000	-0.050	0.140
-189.173	-200.000	0.004	0.187
-188.158	-86.638	0.241	0.074
-187.144	800.000	-0.076	-0.304
-186.129	-200.000	-0.066	-0.347
-185.114	800.000	0.080	-0.309
-184.100	-127.579	-0.146	0.021
-183.085	-103.981	0.159	-0.037
-182.071	-46.457	-0.241	0.119
-181.056	17.395	0.194	-0.154
-180.042	-2.373	0.148	0.104
-179.027	146.382	-0.208	0.279
-178.012	-65.765	0.423	0.169
-176.998	-65.180	-0.158	-0.064
-175.983	-103.688	-0.232	0.054
-174.969	-89.236	-0.222	0.066
-173.954	-73.100	0.227	-0.083
-172.939	248.046	-0.148	0.250
-171.925	-79.239	-0.138	0.047
-170.910	159.334	-0.213	0.296
-169.896	301.487	-0.063	0.116
-168.881	-1.721	0.162	-0.114
-167.866	-154.802	0.329	0.022
-166.852	-135.986	0.131	0.015
-165.837	290.121	-0.117	-0.212
-164.823	436.321	0.141	-0.306
-163.808	-200.000	0.003	-0.050
-162.793	-200.000	-0.009	0.056
-161.779	635.735	-0.007	0.019
-160.764	-154.609	-0.028	0.002
-159.750	68.178	-0.143	0.146
-158.735	40.752	0.055	0.050
-157.720	43.268	0.075	-0.068
-156.706	-162.813	0.435	0.021
-155.691	-200.000	0.023	-0.140
-154.677	-200.000	0.020	-0.350
-153.662	71.288	0.250	-0.259
-152.647	308.364	0.096	0.179
-151.633	-160.282	-0.076	0.004
-150.618	202.350	-0.204	-0.314
-149.604	800.000	-0.071	-0.217
-148.589	-180.179	-0.248	-0.005
-147.574	-124.858	0.170	-0.026
-146.560	-200.000	0.002	0.464
-145.545	445.377	0.201	-0.441
-144.531	-200.000	-0.007	-0.218
-143.516	-200.000	-0.034	0.192
-142.502	299.548	0.120	0.221
-141.487	117.660	0.272	0.335
-140.472	-162.615	0.314	0.015
-139.458	800.000	-0.070	0.219
-138.443	-169.953	0.051	-0.002
-137.429	-200.000	-0.038	0.311
-136.414	-30.854	0.261	-0.148
-135.399	-83.998	0.415	-0.132
-134.385	135.373	-0.093	0.121
-133.370	-2.751	0.067	0.047
-132.356	-200.000	-0.001	0.048
-131.341	234.742	-0.057	0.094
-130.326	-200.000	-0.002	-0.303
-129.312	-33.137	0.260	0.144
-128.297	120.811	-0.005	-0.006
-127.283	-93.427	-0.191	0.053
-126.268	476.790	0.164	-0.370
-125.253	-27.953	0.209	-0.121
-124.239	-200.000	-0.009	0.081
-123.224	-96.570	0.164	0.043
-122.210	2.703	-0.111	0.081
