DTS Sentinel unit serial number:	SN413079Multiplexer serial number:	ORYXHardware model number:	OX4-SRSoftware version number:	ORYX F/W v4.00 Oryx Data Collector v3.7.2.0data status	okinstallation	princeton_trtdifferential loss correction	single-endedforward channel	channel 1reverse channel	N/Adate	2019/09/14time	20:34:35forward acquisition time	60.00reverse acquisition time	0.00gamma	496.2192k internal	0.2316k external	0.2316temperature offset calibration	1.0022default loss term (dB/km)	0.3790temperature slope calibration	1.0000multiplexer offset coefficient	1.0000multiplexer slope coefficient	1.0000fibre end	0.00T internal ref (°C)	33.48T ext. ref 1 (°C)	4.84T ext. ref 2 (°C)	28.07length (m)	temperature (°C)	Stokes	anti-Stokes-747.200	-200.000	-0.002	-0.574
-746.185	-39.920	-0.114	-0.060
-745.171	-200.000	0.009	0.095
-744.156	800.000	0.112	-0.371
-743.142	204.068	-0.180	0.283
-742.127	54.906	-0.264	0.258
-741.112	-200.000	0.011	0.231
-740.098	26.956	-0.038	0.032
-739.083	800.000	0.087	0.299
-738.069	311.907	-0.109	0.206
-737.054	-135.457	-0.167	0.020
-736.039	743.556	0.009	0.023
-735.025	-45.528	0.097	0.049
-734.010	60.829	0.176	0.177
-732.996	39.511	-0.175	-0.158
-731.981	-116.559	-0.259	-0.048
-730.966	128.243	-0.120	0.155
-729.952	-70.522	-0.284	0.109
-728.937	-200.000	-0.005	-0.050
-727.923	-50.248	-0.169	0.081
-726.908	73.032	-0.346	0.366
-725.894	339.122	-0.103	-0.203
-724.879	489.472	-0.100	-0.231
-723.864	173.756	0.128	-0.187
-722.850	60.238	0.164	0.164
-721.835	32.884	-0.274	-0.240
-720.821	-72.168	0.105	-0.040
-719.806	-88.035	0.079	0.024
-718.791	800.000	-0.048	0.193
-717.777	291.243	0.046	0.085
-716.762	-89.046	-0.395	0.118
-715.748	41.326	0.016	0.015
-714.733	14.453	0.101	-0.080
-713.718	-127.421	-0.399	-0.059
-712.704	70.269	-0.025	0.027
-711.689	-10.801	0.075	-0.050
-710.675	-74.235	-0.063	0.023
-709.660	-110.952	-0.486	0.101
-708.645	-200.000	-0.028	-0.263
-707.631	-61.322	-0.085	0.036
-706.616	-164.574	-0.330	-0.015
-705.602	119.946	-0.139	0.175
-704.587	6.421	0.140	-0.105
-703.572	-36.485	-0.371	-0.202
-702.558	-200.000	-0.005	0.083
-701.543	-64.744	-0.278	0.114
-700.529	-2.562	-0.208	-0.148
-699.514	109.574	-0.186	0.226
-698.499	-43.877	-0.359	-0.182
-697.485	800.000	0.033	-0.116
-696.470	-41.580	0.248	0.129
-695.456	-200.000	-0.009	0.082
-694.441	-138.835	-0.070	0.008
-693.426	219.581	-0.109	-0.177
-692.412	-200.000	-0.002	0.058
-691.397	122.412	-0.247	-0.312
-690.383	-147.820	0.095	0.008
-689.368	12.482	0.168	0.131
-688.354	-200.000	0.002	0.221
-687.339	112.881	-0.183	-0.224
-686.324	89.792	-0.120	0.135
-685.310	55.727	-0.285	-0.279
-684.295	800.000	0.075	-0.267
-683.281	-200.000	0.030	0.170
-682.266	8.629	0.218	0.166
-681.251	-200.000	0.031	-0.205
-680.237	-200.000	0.004	-0.376
-679.222	-99.046	0.180	-0.046
-678.208	-21.124	-0.093	-0.057
-677.193	-200.000	0.000	-0.111
-676.178	153.016	-0.083	0.115
-675.164	-114.616	0.369	-0.071
-674.149	168.814	0.139	-0.200
-673.135	206.279	0.167	0.263
-672.120	-200.000	-0.017	0.375
-671.105	-70.376	-0.095	0.037
-670.091	376.977	-0.033	-0.067
-669.076	129.968	0.059	0.076
-668.062	130.376	-0.282	0.365
-667.047	-200.000	0.007	-0.345
-666.032	-72.362	0.081	-0.030
-665.018	1.078	-0.291	-0.211
-664.003	97.686	0.088	0.102
-662.989	-10.810	0.278	0.186
-661.974	524.739	0.030	-0.072
-660.959	-149.621	-0.142	0.011
-659.945	-76.499	-0.255	-0.090
-658.930	13.458	-0.168	-0.131
-657.916	-102.934	0.343	0.082
-656.901	800.000	-0.028	0.110
-655.886	-170.315	-0.093	-0.003
-654.872	-77.716	-0.194	-0.068
-653.857	-152.628	-0.147	-0.011
-652.843	-52.555	0.160	-0.075
-651.828	70.335	0.070	-0.073
-650.814	103.156	-0.225	0.266
-649.799	-149.389	-0.337	-0.027
-648.784	307.578	-0.093	-0.175
-647.770	-185.677	0.214	0.003
-646.755	-105.916	-0.315	0.072
-645.741	148.352	-0.195	0.266
-644.726	-0.020	0.105	0.075
-643.711	278.928	-0.102	-0.184
-642.697	60.406	0.047	-0.047
-641.682	-159.190	-0.118	-0.007
-640.668	-90.756	0.319	-0.093
-639.653	603.189	-0.024	0.060
-638.638	-31.487	0.230	-0.130
-637.624	-132.922	0.437	-0.056
-636.609	233.899	-0.083	-0.138
-635.595	-200.000	-0.067	-0.370
-634.580	246.274	-0.048	0.081
-633.565	-93.762	-0.376	-0.105
-632.551	285.626	-0.132	-0.240
-631.536	-107.206	0.115	-0.026
-630.522	404.636	0.042	0.090
-629.507	-7.084	0.209	-0.143
-628.492	-102.804	-0.374	-0.090
-627.478	-126.263	-0.165	0.025
-626.463	-160.085	-0.092	-0.005
-625.449	11.320	-0.086	-0.066
-624.434	0.330	0.017	0.012
-623.419	241.419	0.105	0.176
-622.405	-44.370	-0.132	0.067
-621.390	-73.708	0.331	0.122
-620.376	-200.000	-0.006	-0.273
-619.361	223.254	0.085	0.139
-618.346	-40.161	-0.179	-0.094
-617.332	574.365	0.079	-0.195
-616.317	-200.000	0.015	0.153
-615.303	-200.000	0.013	-0.153
-614.288	-92.771	-0.429	-0.121
-613.273	-25.410	-0.147	-0.088
-612.259	-153.704	-0.246	-0.017
-611.244	-200.000	0.002	0.113
-610.230	800.000	0.115	-0.375
-609.215	57.661	-0.023	0.022
-608.201	38.786	-0.152	0.136
-607.186	417.516	0.173	-0.373
-606.171	122.127	-0.095	0.119
-605.157	-200.000	0.046	-0.272
-604.142	287.536	-0.013	-0.023
-603.128	-119.967	-0.041	-0.007
-602.113	-135.258	-0.086	0.010
-601.098	-34.868	-0.218	-0.120
-600.084	39.633	0.094	-0.085
-599.069	800.000	-0.048	0.145
-598.055	-27.447	0.104	0.061
-597.040	449.787	0.073	0.163
-596.025	52.599	-0.158	0.152
-595.011	-121.815	-0.045	0.008
-593.996	-38.961	0.128	0.068
-592.982	-127.700	-0.372	0.054
-591.967	-200.000	0.010	0.154
-590.952	13.872	0.096	0.075
-589.938	-129.030	-0.121	-0.017
-588.923	-40.883	0.126	-0.066
-587.909	49.780	-0.275	-0.261
-586.894	-110.349	-0.298	-0.062
-585.879	215.758	-0.152	0.244
-584.865	238.175	-0.030	0.051
-583.850	-79.481	-0.222	0.075
-582.836	-8.594	-0.237	-0.160
-581.821	129.305	-0.044	0.057
-580.806	-42.620	0.348	0.178
-579.792	31.996	-0.218	-0.189
-578.777	-200.000	-0.031	-0.285
-577.763	196.834	0.064	0.098
-576.748	-200.000	-0.014	0.107
-575.733	233.368	0.117	-0.194
-574.719	-200.000	-0.019	-0.323
-573.704	-13.579	0.123	-0.080
-572.690	93.562	0.142	0.162
-571.675	80.199	0.084	-0.091
-570.661	52.263	-0.128	-0.123
-569.646	38.326	-0.231	-0.207
-568.631	-32.982	0.480	0.268
-567.617	800.000	0.115	0.324
-566.602	800.000	-0.019	-0.059
-565.588	91.610	0.059	0.067
-564.573	75.278	0.196	-0.208
-563.558	-21.371	0.204	-0.125
-562.544	-156.927	-0.241	-0.015
-561.529	800.000	0.077	0.313
-560.515	1.185	-0.199	-0.143
-559.500	9.437	0.146	-0.111
-558.485	-200.000	0.008	0.333
-557.471	-173.912	0.305	-0.009
-556.456	40.731	0.103	-0.093
-555.442	102.368	0.010	0.012
-554.427	-32.094	0.068	-0.038
-553.412	37.665	0.172	-0.153
-552.398	55.264	-0.071	0.069
-551.383	210.276	-0.101	-0.160
-550.369	800.000	-0.046	-0.147
-549.354	339.420	0.216	0.424
-548.339	-200.000	-0.019	0.149
-547.325	-40.417	-0.197	-0.103
-546.310	231.432	-0.217	-0.357
-545.296	-11.729	0.176	0.116
-544.281	-130.808	-0.128	-0.017
-543.266	142.022	-0.138	-0.184
-542.252	-60.349	-0.016	-0.007
-541.237	800.000	-0.079	0.303
-540.223	-200.000	0.006	-0.057
-539.208	379.701	0.216	0.444
-538.193	-128.373	0.350	0.050
-537.179	113.124	0.270	-0.329
-536.164	3.237	0.143	-0.104
-535.150	27.394	0.239	-0.202
-534.135	192.318	-0.079	-0.119
-533.121	615.366	-0.063	-0.160
-532.106	-131.850	-0.239	0.031
-531.091	223.356	0.038	0.062
-530.077	58.037	0.079	-0.078
-529.062	8.418	0.170	-0.128
-528.048	-170.356	-0.139	0.005
-527.033	34.794	0.103	0.090
-526.018	-200.000	-0.069	0.441
-525.004	-64.985	0.254	-0.103
-523.989	427.631	-0.111	0.241
-522.975	-44.152	0.150	0.076
-521.960	0.557	-0.282	-0.203
-520.945	-73.459	0.283	-0.104
-519.931	-102.908	0.250	0.060
-518.916	-51.462	-0.275	0.129
-517.902	-200.000	-0.006	-0.140
-516.887	800.000	0.040	0.154
-515.872	-126.062	-0.080	-0.012
-514.858	-41.267	0.142	-0.073
-513.843	605.921	0.047	0.117
-512.829	-56.022	0.059	0.027
-511.814	61.891	0.225	0.225
-510.799	-176.656	0.063	-0.002
-509.785	-167.150	-0.134	0.005
-508.770	-87.213	0.191	0.058
-507.756	-200.000	0.035	0.206
-506.741	172.523	-0.032	0.046
-505.726	-95.627	-0.168	0.045
-504.712	79.491	-0.020	0.022
-503.697	131.526	0.185	0.239
-502.683	121.970	-0.087	0.109
-501.668	-170.222	0.122	-0.004
-500.653	514.426	-0.082	-0.193
-499.639	-58.868	-0.110	-0.048
-498.624	-200.000	0.056	-0.252
-497.610	-8.449	0.253	0.171
-496.595	75.815	0.065	-0.069
-495.581	109.414	0.084	-0.101
-494.566	800.000	-0.060	0.216
-493.551	182.714	0.085	-0.126
-492.537	800.000	0.051	-0.181
-491.522	18.705	-0.124	-0.100
-490.508	24.591	0.173	-0.144
-489.493	311.849	0.020	0.037
-488.478	-200.000	-0.026	-0.327
-487.464	-200.000	0.080	0.576
-486.449	348.345	0.160	0.316
-485.435	800.000	0.104	0.312
-484.420	-200.000	-0.014	-0.148
-483.405	548.528	-0.124	0.299
-482.391	333.687	0.201	0.390
-481.376	32.119	0.107	0.093
-480.362	307.965	0.116	-0.217
-479.347	63.899	0.060	0.060
-478.332	-159.525	0.142	0.008
-477.318	-110.540	0.235	-0.049
-476.303	-200.000	0.042	-0.376
-475.289	-124.223	0.041	-0.006
-474.274	800.000	-0.063	0.199
-473.259	-169.415	0.274	0.010
-472.245	376.483	0.049	-0.101
-471.230	-150.326	-0.179	-0.014
-470.216	25.011	-0.110	-0.091
-469.201	-200.000	-0.009	-0.119
-468.186	202.419	0.088	0.136
-467.172	-128.617	-0.205	0.029
-466.157	-80.938	0.028	-0.009
-465.143	173.088	0.094	-0.136
-464.128	-200.000	0.005	0.049
-463.113	-60.958	0.263	-0.112
-462.099	302.281	0.111	0.205
-461.084	-200.000	0.044	-0.324
-460.070	-172.577	-0.169	-0.005
-459.055	800.000	-0.046	-0.128
-458.040	-200.000	-0.025	0.128
-457.026	676.024	0.133	0.345
-456.011	-87.455	-0.102	0.031
-454.997	800.000	0.088	0.252
-453.982	800.000	-0.042	0.161
-452.968	-131.375	0.263	0.035
-451.953	-108.324	-0.110	-0.024
-450.938	-14.998	0.253	0.162
-449.924	-34.116	-0.228	0.125
-448.909	-163.315	0.044	-0.002
-447.895	-94.944	0.155	0.042
-446.880	-200.000	0.254	-0.001
-445.865	643.247	-0.065	0.166
-444.851	-200.000	0.000	-0.265
-443.836	291.366	-0.060	0.109
-442.822	-200.000	0.003	0.215
-441.807	-200.000	-0.004	0.197
-440.792	-200.000	-0.021	-0.108
-439.778	345.138	-0.066	-0.131
-438.763	-28.376	-0.249	0.144
-437.749	76.110	-0.086	0.092
-436.734	74.780	0.256	0.270
-435.719	-200.000	0.025	-0.127
-434.705	-100.767	0.214	-0.053
-433.690	79.738	0.163	0.175
-432.676	57.114	-0.178	-0.174
-431.661	800.000	-0.072	0.290
-430.646	-158.819	-0.437	-0.025
-429.632	-130.666	0.503	0.068
-428.617	51.680	-0.122	-0.117
-427.603	-109.217	0.170	-0.036
-426.588	-15.862	0.163	-0.104
-425.573	42.619	0.103	0.094
-424.559	-160.705	0.162	0.009
-423.544	36.442	-0.023	0.021
-422.530	-2.268	-0.180	0.126
-421.515	-200.000	-0.017	0.116
-420.500	800.000	-0.091	0.314
-419.486	800.000	0.164	0.486
-418.471	226.396	-0.201	-0.326
-417.457	-66.219	-0.155	-0.062
-416.442	399.333	0.148	-0.310
-415.428	-200.000	-0.014	-0.085
-414.413	800.000	-0.043	0.187
-413.398	-140.948	0.088	0.009
-412.384	-130.006	-0.031	0.004
-411.369	133.257	0.109	-0.140
-410.355	-51.470	0.481	-0.225
-409.340	-71.266	0.096	0.036
-408.325	138.177	-0.110	0.144
-407.311	60.083	-0.143	0.141
-406.296	800.000	-0.079	-0.234
-405.282	436.697	0.146	0.319
-404.267	-200.000	-0.018	-0.186
-403.252	-200.000	-0.038	-0.224
-402.238	133.558	-0.173	-0.224
-401.223	291.084	-0.186	-0.339
-400.209	26.650	0.149	-0.124
-399.194	-59.787	-0.316	-0.135
-398.179	-200.000	0.068	-0.341
-397.165	-200.000	0.035	0.282
-396.150	78.071	0.104	0.111
-395.136	-200.000	-0.018	-0.323
-394.121	18.114	0.145	-0.116
-393.106	9.300	0.172	-0.130
-392.092	-200.000	-0.017	-0.197
-391.077	-200.000	-0.028	-0.413
-390.063	96.316	0.100	0.114
-389.048	-49.864	-0.037	-0.018
-388.033	-32.043	-0.035	-0.020
-387.019	-68.010	-0.139	0.054
-386.004	-24.729	0.261	0.155
-384.990	98.663	-0.119	0.137
-383.975	800.000	-0.019	0.063
-382.960	-100.147	0.197	-0.049
-381.946	-76.244	-0.249	-0.088
-380.931	320.276	0.175	0.332
-379.917	800.000	0.020	0.065
-378.902	-107.980	0.394	0.086
-377.888	-200.000	-0.001	-0.207
-376.873	800.000	-0.088	-0.262
-375.858	33.239	-0.152	0.132
-374.844	-200.000	-0.012	0.119
-373.829	-200.000	0.013	-0.324
-372.815	-62.974	0.049	-0.020
-371.800	709.121	-0.061	0.160
-370.785	-98.344	0.254	-0.065
-369.771	174.989	0.218	0.315
-368.756	15.696	0.068	-0.053
-367.742	262.089	0.086	0.148
-366.727	-27.879	0.234	0.135
-365.712	200.374	-0.168	-0.258
-364.698	-89.661	-0.116	0.034
-363.683	77.768	-0.218	-0.232
-362.669	-200.000	-0.065	-0.354
-361.654	-53.458	-0.328	-0.150
-360.639	800.000	0.049	0.144
-359.625	-101.897	-0.174	0.042
-358.610	22.988	0.180	-0.147
-357.596	-200.000	0.020	0.161
-356.581	800.000	0.049	-0.211
-355.566	-200.000	0.022	-0.127
-354.552	800.000	0.049	0.196
-353.537	-94.849	-0.072	0.019
-352.523	-200.000	-0.029	0.141
-351.508	6.892	0.142	0.106
-350.493	74.755	-0.108	-0.114
-349.479	-180.682	-0.166	0.003
-348.464	-36.475	-0.262	-0.140
-347.450	-57.500	-0.237	-0.104
-346.435	-200.000	0.061	-0.303
-345.420	-47.222	-0.207	0.101
-344.406	-27.541	-0.289	0.167
-343.391	-85.059	-0.233	-0.073
-342.377	95.857	0.056	-0.064
-341.362	613.670	0.092	0.230
-340.348	407.144	-0.174	0.367
-339.333	800.000	-0.076	0.315
-338.318	-200.000	0.027	0.292
-337.304	705.895	0.089	0.235
-336.289	-79.707	-0.250	-0.084
-335.275	-99.855	-0.133	0.033
-334.260	224.366	0.193	-0.311
-333.245	-82.671	0.476	0.154
-332.231	-200.000	0.021	-0.244
-331.216	800.000	0.031	-0.091
-330.202	469.803	-0.132	0.296
-329.187	290.874	-0.072	-0.130
-328.172	-200.000	0.015	0.372
-327.158	-200.000	0.005	0.221
-326.143	-45.844	0.378	-0.186
-325.129	188.031	-0.132	-0.197
-324.114	-76.206	-0.221	0.078
-323.099	-128.318	0.379	0.054
-322.085	-84.297	-0.479	0.151
-321.070	-200.000	0.013	0.124
-320.056	169.735	-0.114	0.163
-319.041	-200.000	-0.004	0.439
-318.026	800.000	0.048	0.194
-317.012	1.714	-0.095	-0.068
-315.997	-200.000	0.040	-0.243
-314.983	-80.656	-0.141	0.047
-313.968	16.886	-0.170	-0.134
-312.953	800.000	-0.074	0.262
-311.939	800.000	0.032	0.122
-310.924	-162.573	-0.205	0.010
-309.910	204.128	-0.111	-0.171
-308.895	800.000	-0.051	-0.159
-307.880	800.000	-0.058	-0.166
-306.866	-200.000	0.032	-0.345
-305.851	-82.669	0.188	-0.061
-304.837	-71.459	-0.273	0.102
-303.822	44.775	0.034	-0.031
-302.807	345.428	0.149	-0.292
-301.793	-132.133	-0.076	-0.010
-300.778	57.984	0.086	-0.084
-299.764	-72.178	0.287	-0.106
-298.749	800.000	0.034	-0.136
-297.735	-169.837	0.166	0.006
-296.720	13.409	0.136	-0.105
-295.705	233.040	0.151	-0.247
-294.691	251.894	-0.078	-0.133
-293.676	-104.246	-0.067	-0.015
-292.662	545.665	0.104	-0.249
-291.647	40.638	0.071	-0.064
-290.632	245.683	-0.054	-0.090
-289.618	433.585	0.065	0.141
-288.603	345.096	0.092	0.180
-287.589	-200.000	0.017	0.266
-286.574	-123.166	-0.129	0.021
-285.559	254.608	-0.115	-0.197
-284.545	800.000	0.051	-0.205
-283.530	210.321	-0.196	-0.305
-282.516	18.984	-0.114	-0.091
-281.501	149.062	-0.100	0.134
-280.486	141.085	0.176	0.231
-279.472	444.966	0.106	-0.232
-278.457	-153.074	-0.227	-0.016
-277.443	-115.012	0.289	-0.055
-276.428	62.812	0.115	0.114
-275.413	-200.000	-0.021	0.122
-274.399	-73.268	-0.088	0.032
-273.384	-55.845	0.112	-0.050
-272.370	-106.567	0.289	-0.064
-271.355	800.000	-0.085	0.268
-270.340	209.603	-0.057	0.089
-269.326	31.058	-0.148	0.126
-268.311	75.988	0.285	0.300
-267.297	-36.523	-0.319	0.171
-266.282	-20.798	-0.169	0.103
-265.267	371.859	0.045	0.091
-264.253	-200.000	0.045	-0.247
-263.238	800.000	0.047	0.143
-262.224	-59.204	0.155	0.066
-261.209	90.605	-0.284	-0.316
-260.195	-33.227	-0.146	-0.080
-259.180	-102.109	-0.306	-0.073
-258.165	353.275	0.056	-0.110
-257.151	784.305	-0.089	-0.243
-256.136	155.747	-0.053	-0.073
-255.122	800.000	-0.131	-0.379
-254.107	-37.930	0.233	0.123
-253.092	-69.604	0.187	-0.071
-252.078	-56.756	-0.215	-0.094
-251.063	18.279	0.214	0.170
-250.049	480.674	0.031	0.070
-249.034	-35.264	0.110	0.059
-248.019	800.000	-0.047	0.198
-247.005	-67.916	-0.259	-0.101
-245.990	-127.808	0.237	-0.034
-244.976	-125.325	0.137	-0.021
-243.961	-186.606	0.265	-0.004
-242.946	-99.763	0.231	-0.058
-241.932	119.702	-0.062	-0.076
-240.917	-84.594	-0.115	-0.036
-239.903	-172.994	0.141	-0.004
-238.888	800.000	0.038	0.127
-237.873	-97.575	0.099	-0.026
-236.859	2.524	-0.220	0.158
-235.844	10.643	-0.202	-0.153
-234.830	-14.408	-0.405	-0.259
-233.815	328.903	-0.087	-0.167
-232.800	207.179	0.120	0.186
-231.786	158.546	0.102	-0.140
-230.771	-75.929	0.111	-0.039
-229.757	-90.046	-0.397	0.115
-228.742	-200.000	0.003	0.078
-227.727	-150.951	0.212	0.016
-226.713	-159.438	0.150	-0.008
-225.698	-19.380	-0.054	0.033
-224.684	38.894	-0.299	0.265
-223.669	800.000	-0.159	0.483
-222.655	-73.625	0.544	0.197
-221.640	-128.895	0.112	-0.016
-220.625	-57.120	0.332	0.145
-219.611	-200.000	-0.064	0.430
-218.596	-123.588	0.493	-0.078
-217.582	68.064	0.145	0.147
-216.567	800.000	-0.066	-0.263
-215.552	95.178	-0.151	-0.170
-214.538	-69.794	-0.286	0.108
-213.523	-200.000	0.027	-0.210
-212.509	182.457	0.115	0.168
-211.494	-114.703	0.329	-0.062
-210.479	90.193	0.207	-0.230
-209.465	79.656	0.294	-0.313
-208.450	-14.269	-0.256	0.163
-207.436	-25.620	-0.165	0.096
-206.421	-200.000	-0.051	-0.230
-205.406	63.992	0.203	-0.202
-204.392	44.239	-0.088	0.080
-203.377	136.850	0.066	0.085
-202.363	800.000	-0.034	0.136
-201.348	-35.101	-0.172	0.093
-200.333	-140.971	0.185	0.019
-199.319	321.377	-0.090	0.170
-198.304	-78.439	0.140	0.048
-197.290	-57.765	0.162	-0.070
-196.275	800.000	-0.044	0.147
-195.260	2.310	-0.073	0.052
-194.246	-130.049	0.219	-0.030
-193.231	48.948	-0.116	0.108
-192.217	77.001	0.151	-0.159
-191.202	-109.706	-0.112	0.023
-190.187	92.301	-0.175	-0.196
-189.173	-125.738	-0.229	0.034
-188.158	73.518	-0.206	0.214
-187.144	-132.207	-0.074	-0.010
-186.129	50.290	-0.069	-0.065
-185.114	-74.291	-0.335	0.120
-184.100	-30.333	0.024	-0.014
-183.085	258.770	-0.179	-0.305
-182.071	607.309	0.050	0.123
-181.056	-40.320	0.279	-0.144
-180.042	-14.184	-0.276	0.176
-179.027	-127.873	0.323	0.046
-178.012	215.703	-0.250	0.394
-176.998	-71.072	-0.173	0.064
-175.983	48.570	-0.159	-0.148
-174.969	231.985	-0.094	-0.152
-173.954	-77.734	-0.316	0.108
-172.939	-76.152	-0.138	-0.048
-171.925	114.677	0.031	0.038
-170.910	-121.389	0.110	0.018
-169.896	6.038	-0.038	0.028
-168.881	-200.000	-0.022	0.238
-167.866	-98.826	-0.137	-0.034
-166.852	83.507	-0.106	0.115
-165.837	-15.729	0.037	0.023
-164.823	-107.637	-0.095	-0.021
-163.808	188.161	-0.052	-0.077
-162.793	-200.000	0.012	0.106
-161.779	-87.768	-0.132	-0.039
-160.764	526.040	0.105	0.245
-159.750	-104.096	-0.229	0.053
-158.735	-104.641	-0.183	0.042
-157.720	-200.000	0.058	-0.500
-156.706	54.541	-0.194	-0.185
-155.691	344.870	-0.092	-0.180
-154.677	-36.475	-0.163	-0.087
-153.662	64.223	-0.300	0.299
-152.647	87.101	0.155	0.170
-151.633	118.300	0.111	-0.136
-150.618	64.281	0.121	0.121
-149.604	-200.000	0.002	0.093
-148.589	-200.000	0.048	0.211
-147.574	712.423	-0.108	-0.283
-146.560	12.503	0.220	-0.168
-145.545	425.843	-0.066	0.141
-144.531	-96.176	0.149	-0.039
-143.516	-135.147	0.290	0.034
-142.502	-137.586	0.092	0.010
-141.487	388.464	0.077	0.157
-140.472	-180.758	0.244	-0.005
-139.458	96.281	0.237	-0.268
-138.443	-119.639	0.414	-0.071
-137.429	-60.419	-0.257	0.108
-136.414	-200.000	0.023	0.250
-135.399	800.000	-0.065	-0.214
-134.385	196.664	0.219	-0.331
-133.370	-53.045	0.304	-0.138
-132.356	425.037	-0.040	0.085
-131.341	-62.049	0.181	0.075
-130.326	-200.000	0.004	0.288
-129.312	-200.000	-0.058	0.457
-128.297	-0.553	-0.335	0.235
-127.283	-53.135	-0.172	0.078
-126.268	-88.636	0.061	0.018
-125.253	-71.536	0.200	0.074
-124.239	-105.281	-0.213	0.048
-123.224	800.000	0.114	-0.311
-122.210	-6.756	0.272	-0.183
-121.195	-14.088	0.394	0.251
