DTS Sentinel unit serial number:	SN413079Multiplexer serial number:	ORYXHardware model number:	OX4-SRSoftware version number:	ORYX F/W v4.00 Oryx Data Collector v3.7.2.0data status	okinstallation	princeton_trtdifferential loss correction	single-endedforward channel	channel 1reverse channel	N/Adate	2019/09/14time	15:34:35forward acquisition time	60.00reverse acquisition time	0.00gamma	496.2192k internal	0.2294k external	0.2294temperature offset calibration	1.0075default loss term (dB/km)	0.3790temperature slope calibration	1.0000multiplexer offset coefficient	1.0000multiplexer slope coefficient	1.0000fibre end	0.00T internal ref (°C)	38.81T ext. ref 1 (°C)	5.15T ext. ref 2 (°C)	33.81length (m)	temperature (°C)	Stokes	anti-Stokes-747.200	800.000	0.045	-0.149
-746.185	-131.036	0.171	0.023
-745.171	-200.000	0.013	-0.179
-744.156	-99.401	0.222	0.057
-743.142	-200.000	0.016	-0.119
-742.127	800.000	0.018	-0.072
-741.112	-200.000	0.047	0.241
-740.098	-69.549	-0.151	0.059
-739.083	109.229	0.097	-0.119
-738.069	-44.377	0.266	0.136
-737.054	-129.358	0.141	0.020
-736.039	33.414	-0.283	-0.251
-735.025	-200.000	-0.005	-0.224
-734.010	-187.429	-0.244	-0.003
-732.996	44.420	0.078	-0.073
-731.981	-200.000	0.026	-0.183
-730.966	448.923	-0.229	0.515
-729.952	59.910	-0.219	0.221
-728.937	4.397	-0.194	0.145
-727.923	800.000	0.059	0.246
-726.908	-200.000	-0.019	-0.289
-725.894	-46.202	0.306	-0.154
-724.879	343.080	0.054	-0.109
-723.864	-97.671	-0.357	-0.095
-722.850	-74.943	0.295	-0.108
-721.835	-133.569	-0.450	0.058
-720.821	519.250	-0.018	-0.043
-719.806	-33.063	-0.222	-0.126
-718.791	800.000	-0.037	-0.140
-717.777	628.930	-0.138	0.356
-716.762	-35.876	-0.238	0.132
-715.748	-140.296	-0.552	-0.059
-714.733	-63.301	-0.199	-0.084
-713.718	-38.060	0.151	-0.082
-712.704	28.625	-0.128	0.111
-711.689	-200.000	-0.059	-0.337
-710.675	-77.890	-0.090	-0.032
-709.660	800.000	-0.079	-0.346
-708.645	-88.824	-0.166	-0.050
-707.631	-200.000	-0.001	0.018
-706.616	-27.705	0.136	-0.081
-705.602	-92.899	0.082	0.023
-704.587	800.000	-0.045	-0.174
-703.572	-0.267	-0.287	0.209
-702.558	405.088	0.186	-0.400
-701.543	-33.148	-0.251	0.142
-700.529	2.815	-0.125	0.092
-699.514	-55.671	0.220	-0.100
-698.499	256.922	-0.076	0.133
-697.485	18.157	0.262	-0.213
-696.470	397.702	0.023	0.049
-695.456	96.647	-0.140	0.163
-694.441	4.595	0.090	0.067
-693.426	420.311	-0.126	0.275
-692.412	-30.789	0.203	0.117
-691.397	-3.997	0.264	0.187
-690.383	-6.612	0.231	-0.160
-689.368	800.000	0.116	0.410
-688.354	88.651	-0.187	-0.212
-687.339	-9.776	-0.137	-0.093
-686.324	-143.104	0.157	-0.016
-685.310	-63.245	-0.251	0.105
-684.295	217.956	0.035	0.057
-683.281	800.000	0.046	-0.134
-682.266	64.777	0.106	-0.109
-681.251	-43.490	0.284	0.146
-680.237	-121.277	0.137	0.023
-679.222	70.728	-0.183	-0.194
-678.208	120.156	-0.136	0.172
-677.193	-138.188	-0.123	0.014
-676.178	-32.970	0.280	-0.158
-675.164	-200.000	-0.008	-0.133
-674.149	304.854	0.042	0.080
-673.135	80.925	0.205	0.225
-672.120	-200.000	0.029	-0.171
-671.105	-44.581	-0.203	-0.104
-670.091	-37.556	-0.111	-0.060
-669.076	-106.041	-0.314	0.072
-668.062	-200.000	0.006	0.059
-667.047	800.000	0.075	-0.285
-666.032	-14.494	-0.050	-0.033
-665.018	-200.000	0.038	0.267
-664.003	-120.511	-0.168	0.029
-662.989	800.000	-0.069	0.273
-661.974	-200.000	0.018	-0.216
-660.959	-152.499	0.064	-0.005
-659.945	194.285	0.144	0.222
-658.930	203.713	0.242	-0.381
-657.916	-100.825	-0.243	-0.061
-656.901	-158.448	-0.220	-0.013
-655.886	-200.000	0.021	-0.295
-654.872	-24.315	0.140	0.085
-653.857	-39.781	0.120	0.064
-652.843	-69.951	-0.334	0.130
-651.828	151.050	-0.132	0.182
-650.814	-88.177	-0.147	-0.045
-649.799	-27.963	-0.193	-0.114
-648.784	255.582	0.119	-0.207
-647.770	379.314	-0.063	0.131
-646.755	70.625	0.042	0.044
-645.741	129.860	-0.099	-0.129
-644.726	119.079	-0.087	0.110
-643.711	30.477	-0.254	-0.221
-642.697	-200.000	-0.036	0.234
-641.682	291.868	0.136	-0.252
-640.668	50.664	0.135	-0.130
-639.653	78.862	0.316	-0.344
-638.638	-89.091	-0.178	-0.054
-637.624	-4.528	-0.168	-0.118
-636.609	53.500	0.094	0.092
-635.595	245.820	0.245	0.420
-634.580	67.937	0.158	0.165
-633.565	66.454	0.149	-0.154
-632.551	800.000	-0.060	0.193
-631.536	-63.670	0.102	0.043
-630.522	-75.344	0.161	-0.058
-629.507	-150.526	0.149	-0.012
-628.492	-168.978	0.263	-0.010
-627.478	254.113	0.083	-0.145
-626.463	-174.767	0.194	0.006
-625.449	92.077	0.198	-0.227
-624.434	800.000	-0.045	-0.175
-623.419	-138.687	-0.166	-0.018
-622.405	-141.157	0.109	0.011
-621.390	166.793	0.091	-0.132
-620.376	-200.000	-0.012	0.153
-619.361	105.068	-0.043	-0.051
-618.346	7.367	-0.014	0.010
-617.332	234.399	0.051	-0.085
-616.317	-2.826	0.059	-0.042
-615.303	-200.000	0.288	0.000
-614.288	-54.412	-0.126	-0.058
-613.273	800.000	0.078	0.274
-612.259	381.615	0.057	-0.118
-611.244	199.217	0.076	-0.118
-610.230	111.550	0.009	-0.011
-609.215	800.000	0.025	-0.093
-608.201	-53.090	-0.291	0.136
-607.186	-161.561	-0.224	0.012
-606.171	-109.299	0.238	-0.051
-605.157	-168.709	-0.106	-0.004
-604.142	-64.045	-0.185	0.077
-603.128	800.000	0.043	0.171
-602.113	800.000	0.024	0.092
-601.098	-97.073	-0.356	-0.095
-600.084	-15.616	-0.201	-0.131
-599.069	-200.000	-0.084	0.417
-598.055	-65.935	-0.170	0.069
-597.040	-200.000	0.048	-0.269
-596.025	-200.000	0.034	-0.219
-595.011	-66.181	0.169	-0.069
-593.996	32.427	0.146	-0.128
-592.982	380.617	0.069	-0.143
-591.967	3.633	0.170	0.126
-590.952	-158.405	-0.352	0.021
-589.938	151.124	-0.074	0.102
-588.923	78.750	-0.013	-0.015
-587.909	-200.000	0.036	-0.333
-586.894	-27.769	0.222	0.131
-585.879	-84.378	0.094	0.030
-584.865	276.942	0.043	-0.078
-583.850	178.368	-0.127	0.189
-582.836	-200.000	0.036	-0.410
-581.821	-200.000	0.016	0.315
-580.806	29.836	-0.014	-0.013
-579.792	177.505	0.258	-0.382
-578.777	58.461	0.137	0.137
-577.763	-52.016	-0.341	0.161
-576.748	-126.224	-0.431	0.065
-575.733	-45.386	0.266	0.134
-574.719	800.000	-0.010	-0.034
-573.704	-179.689	-0.104	0.002
-572.690	268.350	-0.163	-0.290
-571.675	440.727	-0.093	0.208
-570.661	101.490	0.304	0.360
-569.646	83.000	-0.282	0.311
-568.631	-190.169	0.193	0.002
-567.617	-37.804	-0.135	-0.073
-566.602	432.701	0.140	0.309
-565.588	86.154	-0.120	-0.135
-564.573	645.360	-0.059	0.152
-563.558	-200.000	-0.010	-0.155
-562.544	-162.537	-0.100	0.005
-561.529	-72.132	-0.343	-0.129
-560.515	800.000	-0.052	-0.202
-559.500	-138.602	0.206	-0.023
-558.485	556.789	0.089	-0.218
-557.471	-40.348	-0.164	-0.086
-556.456	-62.153	-0.147	-0.062
-555.442	-200.000	-0.007	0.044
-554.427	54.907	-0.191	0.188
-553.412	428.515	0.058	-0.127
-552.398	173.221	-0.023	0.033
-551.383	390.013	0.064	0.135
-550.369	5.931	0.359	0.270
-549.354	-200.000	0.018	-0.161
-548.339	-200.000	-0.016	-0.158
-547.325	-200.000	-0.001	0.388
-546.310	-200.000	0.015	0.181
-545.296	47.747	0.117	0.111
-544.281	62.708	-0.295	-0.299
-543.266	-74.971	-0.285	-0.104
-542.252	-145.104	0.391	0.036
-541.237	153.024	-0.225	-0.312
-540.223	-49.447	-0.157	-0.076
-539.208	-55.373	-0.131	-0.059
-538.193	250.212	0.109	-0.187
-537.179	-99.224	-0.373	0.096
-536.164	465.242	0.124	0.281
-535.150	-165.182	-0.094	-0.004
-534.135	-112.998	-0.265	0.053
-533.121	712.523	-0.058	-0.157
-532.106	-113.175	-0.078	-0.016
-531.091	-38.231	0.336	0.181
-530.077	-200.000	-0.034	-0.273
-529.062	-200.000	-0.055	0.277
-528.048	800.000	-0.043	-0.161
-527.033	-200.000	0.050	-0.360
-526.018	19.716	0.217	0.177
-525.004	87.803	-0.234	0.263
-523.989	-180.729	0.277	0.006
-522.975	68.723	0.023	-0.024
-521.960	-66.850	0.225	0.090
-520.945	-25.488	0.313	0.188
-519.931	-67.878	-0.125	-0.050
-518.916	-26.285	-0.087	-0.052
-517.902	-200.000	0.018	0.115
-516.887	800.000	0.075	-0.246
-515.872	590.945	-0.029	-0.074
-514.858	-40.619	0.017	0.009
-513.843	800.000	0.074	0.322
-512.829	581.319	-0.087	-0.216
-511.814	-34.241	-0.234	-0.130
-510.799	-200.000	0.034	0.343
-509.785	-134.518	-0.339	-0.042
-508.770	-153.145	-0.135	0.010
-507.756	205.766	0.111	-0.175
-506.741	286.789	0.100	-0.182
-505.726	-62.884	-0.202	-0.085
-504.712	105.390	-0.130	0.155
-503.697	111.042	-0.099	0.120
-502.683	4.188	-0.195	-0.145
-501.668	-200.000	-0.024	0.246
-500.653	215.797	0.064	-0.103
-499.639	545.140	-0.114	0.277
-498.624	800.000	0.140	0.439
-497.610	-200.000	-0.003	0.015
-496.595	800.000	0.101	-0.371
-495.581	-158.769	0.340	0.020
-494.566	800.000	0.083	-0.255
-493.551	-147.653	0.097	0.008
-492.537	155.566	0.144	-0.201
-491.522	800.000	0.072	0.224
-490.508	98.266	0.116	0.136
-489.493	182.372	-0.023	0.034
-488.478	-200.000	-0.002	0.132
-487.464	-35.983	-0.130	0.071
-486.449	-134.356	-0.432	0.054
-485.435	189.368	0.084	-0.128
-484.420	-96.158	0.150	0.040
-483.405	-78.184	0.276	-0.096
-482.391	226.766	0.113	-0.186
-481.376	44.407	0.150	-0.139
-480.362	-90.509	0.391	0.115
-479.347	231.390	0.178	0.294
-478.332	-69.087	0.257	-0.100
-477.318	-123.955	0.254	-0.040
-476.303	759.985	0.102	-0.279
-475.289	-200.000	-0.002	-0.122
-474.274	130.784	0.191	0.247
-473.259	-200.000	-0.043	-0.288
-472.245	-200.000	0.023	-0.230
-471.230	-54.368	0.136	0.062
-470.216	-91.525	0.046	-0.013
-469.201	45.709	-0.066	-0.062
-468.186	743.825	0.013	0.035
-467.172	153.072	0.183	0.253
-466.157	800.000	0.078	-0.239
-465.143	800.000	0.063	0.231
-464.128	800.000	0.019	-0.065
-463.113	-107.307	0.046	0.010
-462.099	-98.846	-0.215	-0.055
-461.084	-182.103	-0.207	0.004
-460.070	-90.121	0.167	0.049
-459.055	697.925	0.124	-0.329
-458.040	-200.000	-0.017	0.155
-457.026	-25.548	-0.088	0.053
-456.011	-12.304	-0.300	-0.198
-454.997	800.000	0.039	0.153
-453.982	-200.000	-0.009	-0.163
-452.968	45.488	0.183	-0.171
-451.953	800.000	0.048	-0.212
-450.938	800.000	0.005	-0.020
-449.924	-131.150	-0.054	-0.007
-448.909	82.498	0.177	0.194
-447.895	-83.280	-0.322	0.105
-446.880	-153.700	-0.511	-0.036
-445.865	-200.000	-0.002	0.082
-444.851	-200.000	-0.021	-0.138
-443.836	-200.000	-0.043	-0.416
-442.822	738.438	-0.013	-0.036
-441.807	346.078	0.091	-0.180
-440.792	84.091	-0.147	0.163
-439.778	263.454	-0.190	-0.333
-438.763	-106.025	-0.089	0.020
-437.749	-200.000	-0.012	-0.087
-436.734	19.895	0.170	-0.139
-435.719	45.174	-0.119	0.111
-434.705	-200.000	-0.022	0.175
-433.690	291.074	0.067	0.124
-432.676	800.000	-0.039	-0.129
-431.661	-96.872	0.218	-0.058
-430.646	85.439	-0.109	-0.120
-429.632	-139.888	-0.148	-0.016
-428.617	264.120	-0.014	0.025
-427.603	29.917	0.201	-0.173
-426.588	-200.000	0.027	0.138
-425.573	-34.955	-0.408	0.225
-424.559	-200.000	-0.035	-0.198
-423.544	-149.960	0.110	0.009
-422.530	-104.914	0.118	0.027
-421.515	-200.000	-0.012	0.243
-420.500	-157.059	-0.042	-0.003
-419.486	-34.782	0.288	0.159
-418.471	-162.616	-0.169	0.008
-417.457	18.503	0.065	0.053
-416.442	-15.079	-0.183	-0.118
-415.428	-69.467	0.064	-0.025
-414.413	13.134	-0.175	-0.137
-413.398	215.293	0.158	-0.254
-412.384	-200.000	0.025	0.136
-411.369	-200.000	-0.006	-0.258
-410.355	-126.380	-0.148	0.022
-409.340	-149.410	0.110	-0.009
-408.325	464.513	-0.050	-0.113
-407.311	-151.761	-0.255	0.019
-406.296	-92.012	-0.323	0.092
-405.282	-46.824	-0.067	0.033
-404.267	-79.362	-0.086	0.029
-403.252	-100.992	0.420	-0.104
-402.238	7.792	0.063	0.048
-401.223	167.226	0.255	0.366
-400.209	-81.829	-0.210	-0.069
-399.194	-63.909	0.177	-0.073
-398.179	256.485	-0.151	0.261
-397.165	645.339	-0.084	-0.217
-396.150	507.447	0.043	0.102
-395.136	800.000	0.053	-0.171
-394.121	205.400	-0.018	-0.028
-393.106	-200.000	0.050	0.298
-392.092	-32.403	0.113	-0.064
-391.077	-200.000	-0.018	0.196
-390.063	101.097	0.113	-0.133
-389.048	800.000	-0.030	-0.125
-388.033	-200.000	-0.008	-0.122
-387.019	-114.944	0.252	-0.048
-386.004	5.820	-0.066	0.049
-384.990	-143.238	0.073	-0.007
-383.975	14.733	-0.286	-0.225
-382.960	-95.624	-0.215	-0.058
-381.946	724.355	-0.031	-0.083
-380.931	621.232	0.104	0.263
-379.917	104.127	-0.119	0.141
-378.902	345.624	-0.061	0.122
-377.888	-192.812	0.188	0.002
-376.873	302.423	-0.096	0.178
-375.858	-100.464	-0.071	-0.018
-374.844	-200.000	-0.058	-0.366
-373.829	800.000	0.062	0.201
-372.815	201.847	-0.157	-0.243
-371.800	464.632	0.141	0.317
-370.785	-55.692	-0.233	0.105
-369.771	194.520	-0.107	0.164
-368.756	-97.466	0.188	0.049
-367.742	-102.892	-0.341	0.082
-366.727	-77.787	-0.262	0.091
-365.712	-200.000	-0.001	0.120
-364.698	-145.059	0.359	-0.033
-363.683	-72.284	-0.060	0.022
-362.669	-102.212	0.177	0.043
-361.654	-80.351	-0.072	-0.024
-360.639	-121.557	0.229	-0.038
-359.625	308.761	0.038	-0.072
-358.610	199.054	-0.174	-0.268
-357.596	268.919	-0.159	-0.281
-356.581	-77.871	0.215	-0.075
-355.566	-200.000	0.021	0.096
-354.552	244.510	0.063	0.106
-353.537	679.776	0.098	-0.257
-352.523	26.373	-0.337	0.284
-351.508	-200.000	0.068	0.309
-350.493	-127.743	-0.116	-0.017
-349.479	-64.723	-0.438	0.179
-348.464	127.404	0.121	0.154
-347.450	-153.427	0.273	0.019
-346.435	239.346	0.076	-0.128
-345.420	-15.461	-0.109	-0.070
-344.406	-200.000	-0.022	-0.120
-343.391	800.000	-0.073	-0.227
-342.377	-65.563	-0.128	-0.052
-341.362	-34.784	0.191	0.105
-340.348	-115.301	-0.016	0.003
-339.333	800.000	0.091	0.275
-338.318	-194.828	0.200	-0.002
-337.304	-152.977	0.162	-0.011
-336.289	-200.000	0.043	-0.326
-335.275	222.671	-0.203	0.328
-334.260	-72.919	-0.172	0.063
-333.245	800.000	0.026	0.099
-332.231	800.000	0.027	0.097
-331.216	85.716	-0.160	0.177
-330.202	223.649	0.081	0.131
-329.187	-200.000	0.024	0.272
-328.172	-200.000	-0.025	-0.195
-327.158	259.681	-0.244	-0.424
-326.143	99.671	0.228	0.266
-325.129	34.091	-0.050	0.044
-324.114	6.775	0.167	-0.125
-323.099	-133.560	0.269	0.034
-322.085	3.710	-0.057	0.041
-321.070	-113.639	-0.324	-0.064
-320.056	9.667	0.088	0.067
-319.041	-200.000	0.004	0.152
-318.026	-25.125	0.141	-0.084
-317.012	-10.532	0.413	-0.275
-315.997	36.514	-0.133	-0.118
-314.983	495.486	0.096	0.221
-313.968	800.000	0.074	-0.228
-312.953	-200.000	0.027	-0.230
-311.939	-200.000	0.004	-0.154
-310.924	296.636	-0.154	0.285
-309.910	-200.000	0.048	-0.462
-308.895	61.641	-0.314	0.315
-307.880	154.186	-0.139	0.192
-306.866	-200.000	0.029	0.245
-305.851	800.000	-0.035	0.123
-304.837	212.904	-0.154	-0.244
-303.822	-200.000	-0.026	-0.117
-302.807	-90.937	-0.044	0.013
-301.793	49.053	-0.213	0.201
-300.778	126.730	-0.080	-0.102
-299.764	800.000	0.082	0.284
-298.749	-200.000	0.020	0.211
-297.735	-14.550	0.119	-0.077
-296.720	20.845	-0.141	-0.115
-295.705	75.857	0.020	-0.021
-294.691	-24.381	-0.157	0.094
-293.676	-103.164	0.151	0.036
-292.662	83.881	-0.160	-0.175
-291.647	-200.000	-0.003	-0.147
-290.632	-200.000	-0.005	-0.046
-289.618	-47.939	-0.057	-0.028
-288.603	-200.000	0.066	0.300
-287.589	446.950	0.139	0.307
-286.574	-46.784	-0.230	0.113
-285.559	-152.702	0.265	-0.019
-284.545	-159.106	-0.072	0.004
-283.530	196.210	-0.131	0.200
-282.516	-200.000	0.063	-0.362
-281.501	-83.101	0.185	-0.060
-280.486	64.612	-0.179	0.181
-279.472	484.343	0.171	0.391
-278.457	-200.000	-0.010	0.109
-277.443	-113.929	-0.307	0.060
-276.428	800.000	0.080	0.270
-275.413	-140.517	-0.127	-0.013
-274.399	79.209	-0.186	0.200
-273.384	-149.214	-0.249	0.020
-272.370	110.990	-0.055	-0.066
-271.355	800.000	-0.033	0.093
-270.340	228.639	-0.195	0.319
-269.326	-29.082	-0.192	-0.111
-268.311	360.039	0.163	-0.328
-267.297	-4.309	-0.125	0.087
-266.282	-200.000	0.031	0.162
-265.267	-113.401	0.489	-0.096
-264.253	-200.000	0.015	-0.235
-263.238	79.188	-0.071	-0.076
-262.224	-74.964	-0.354	-0.127
-261.209	108.788	-0.096	-0.115
-260.195	93.130	0.310	0.351
-259.180	-118.600	-0.495	0.088
-258.165	800.000	-0.047	-0.195
-257.151	73.601	-0.294	-0.309
-256.136	-78.694	0.255	-0.087
-255.122	-166.557	-0.201	-0.008
-254.107	-2.450	0.234	-0.164
-253.092	142.905	-0.167	-0.222
-252.078	3.959	0.235	-0.172
-251.063	90.309	0.040	-0.045
-250.049	-200.000	0.012	-0.249
-249.034	-154.275	0.245	-0.017
-248.019	38.617	-0.196	0.175
-247.005	-200.000	0.007	-0.255
-245.990	-200.000	0.059	-0.488
-244.976	-22.690	-0.098	-0.059
-243.961	570.916	0.096	-0.234
-242.946	61.933	0.151	0.151
-241.932	-54.324	0.206	0.094
-240.917	182.574	-0.154	0.228
-239.903	-37.993	-0.311	-0.166
-238.888	63.034	-0.029	0.029
-237.873	265.520	0.118	0.207
-236.859	35.647	0.124	0.109
-235.844	758.982	-0.051	0.139
-234.830	-200.000	0.007	0.038
-233.815	8.286	0.185	0.139
-232.800	113.093	0.128	0.155
-231.786	-40.893	-0.159	0.083
-230.771	113.400	0.139	0.169
-229.757	800.000	0.086	-0.267
-228.742	-164.450	0.359	0.016
-227.727	-118.743	0.093	0.016
-226.713	144.631	-0.098	-0.131
-225.698	800.000	0.090	-0.343
-224.684	800.000	0.047	-0.141
-223.669	800.000	-0.057	-0.207
-222.655	-78.238	0.110	0.038
-221.640	-200.000	-0.010	0.182
-220.625	-95.256	0.088	-0.024
-219.611	-26.926	-0.082	-0.048
-218.596	-200.000	0.052	0.264
-217.582	-200.000	0.095	0.514
-216.567	107.034	-0.217	0.258
-215.552	-128.774	0.227	0.032
-214.538	800.000	-0.051	0.222
-213.523	35.218	-0.142	0.125
-212.509	-117.339	-0.262	-0.048
-211.494	144.568	0.025	-0.034
-210.479	-94.834	0.330	-0.090
-209.465	187.239	0.129	-0.192
-208.450	17.613	0.281	-0.224
-207.436	153.967	0.094	0.129
-206.421	-200.000	-0.019	0.164
-205.406	208.473	0.061	-0.096
-204.392	18.162	0.215	-0.172
-203.377	28.260	0.061	-0.051
-202.363	76.043	-0.281	-0.297
-201.348	-153.575	0.392	-0.027
-200.333	99.208	0.370	0.428
-199.319	372.989	-0.087	-0.177
-198.304	136.599	0.191	0.250
-197.290	123.737	0.061	-0.077
-196.275	13.941	-0.116	0.090
-195.260	148.111	0.158	-0.214
-194.246	-200.000	-0.003	0.095
-193.231	50.817	-0.083	-0.079
-192.217	23.285	-0.353	0.290
-191.202	-200.000	0.010	0.164
-190.187	800.000	0.045	0.146
-189.173	-94.442	0.245	-0.067
-188.158	-200.000	-0.011	0.104
-187.144	11.292	0.165	0.126
-186.129	-25.757	-0.183	-0.108
-185.114	-17.787	-0.099	-0.062
-184.100	479.553	0.014	0.031
-183.085	-182.536	-0.206	-0.004
-182.071	47.857	-0.204	0.190
-181.056	0.923	0.498	0.357
-180.042	-160.424	-0.502	0.027
-179.027	672.448	0.066	-0.170
-178.012	156.160	0.103	-0.143
-176.998	-97.959	0.224	-0.058
-175.983	186.924	-0.054	-0.081
-174.969	40.483	-0.215	-0.194
-173.954	-81.859	-0.159	-0.052
-172.939	-94.036	-0.443	0.122
-171.925	-103.064	-0.285	0.068
-170.910	-144.045	-0.097	0.009
-169.896	207.370	-0.045	-0.069
-168.881	-118.799	0.334	-0.059
-167.866	-41.547	-0.123	0.063
-166.852	288.284	0.089	0.160
-165.837	149.472	-0.011	-0.015
-164.823	49.006	-0.044	-0.041
-163.808	800.000	-0.027	0.086
-162.793	800.000	-0.054	-0.182
-161.779	-63.123	0.284	0.117
-160.764	800.000	-0.106	0.380
-159.750	-200.000	0.220	-0.001
-158.735	800.000	-0.100	-0.287
-157.720	-26.039	-0.195	0.114
-156.706	-60.483	0.269	0.114
-155.691	-200.000	-0.005	-0.068
-154.677	-113.985	0.308	-0.060
-153.662	-101.447	0.174	-0.042
-152.647	48.483	-0.142	-0.133
-151.633	-196.009	-0.221	0.002
-150.618	800.000	-0.104	0.430
-149.604	72.674	0.109	0.114
-148.589	92.285	0.187	0.210
-147.574	-200.000	-0.014	-0.186
-146.560	-83.383	-0.206	-0.066
-145.545	526.045	-0.090	0.211
-144.531	32.592	-0.140	0.121
-143.516	-38.029	0.141	0.075
-142.502	26.894	-0.075	-0.063
-141.487	-189.867	0.256	-0.003
-140.472	-58.040	0.115	0.050
-139.458	-150.245	0.291	0.022
-138.443	166.875	-0.115	-0.162
-137.429	-49.875	0.130	0.061
-136.414	365.670	-0.042	-0.084
-135.399	-22.564	-0.170	-0.103
-134.385	-200.000	-0.002	-0.077
-133.370	800.000	-0.065	0.217
-132.356	-200.000	0.017	0.140
-131.341	-200.000	0.022	0.273
-130.326	-9.726	0.150	0.100
-129.312	800.000	-0.035	-0.113
-128.297	-200.000	0.077	0.539
-127.283	-11.070	0.285	0.188
-126.268	36.441	0.235	0.207
-125.253	-57.428	-0.042	0.018
-124.239	58.732	-0.281	0.275
-123.224	800.000	-0.100	-0.437
-122.210	-75.695	-0.185	0.066
-121.195	756.408	-0.067	0.182
