DTS Sentinel unit serial number:	SN413079Multiplexer serial number:	ORYXHardware model number:	OX4-SRSoftware version number:	ORYX F/W v4.00 Oryx Data Collector v3.7.2.0data status	okinstallation	princeton_trtdifferential loss correction	single-endedforward channel	channel 1reverse channel	N/Adate	2019/09/16time	05:50:35forward acquisition time	60.00reverse acquisition time	0.00gamma	496.2192k internal	0.2331k external	0.2331temperature offset calibration	0.9985default loss term (dB/km)	0.3790temperature slope calibration	1.0000multiplexer offset coefficient	1.0000multiplexer slope coefficient	1.0000fibre end	0.00T internal ref (°C)	27.37T ext. ref 1 (°C)	11.21T ext. ref 2 (°C)	22.21length (m)	temperature (°C)	Stokes	anti-Stokes-747.200	-200.000	-0.017	0.222
-746.185	-53.918	-0.170	0.078
-745.171	-30.783	0.216	0.123
-744.156	800.000	0.023	-0.088
-743.142	800.000	-0.054	0.154
-742.127	-200.000	0.044	0.233
-741.112	-54.045	0.166	-0.076
-740.098	-108.541	-0.242	-0.052
-739.083	164.230	0.101	-0.143
-738.069	-89.686	-0.328	-0.097
-737.054	6.421	0.069	-0.051
-736.039	-60.410	-0.145	-0.062
-735.025	-72.857	0.325	0.120
-734.010	-200.000	-0.008	-0.080
-732.996	-81.128	-0.196	-0.065
-731.981	-75.233	-0.203	0.073
-730.966	800.000	0.120	-0.394
-729.952	785.516	-0.086	-0.237
-728.937	-135.149	0.079	0.010
-727.923	190.349	0.135	-0.204
-726.908	117.812	-0.181	-0.224
-725.894	198.806	-0.250	-0.385
-724.879	-200.000	-0.020	0.125
-723.864	663.819	-0.137	-0.355
-722.850	800.000	-0.059	-0.210
-721.835	28.391	-0.084	0.071
-720.821	-48.604	0.207	-0.100
-719.806	-24.521	-0.309	0.185
-718.791	-94.790	0.111	-0.030
-717.777	800.000	0.056	-0.199
-716.762	390.431	-0.028	0.059
-715.748	-14.098	0.353	0.229
-714.733	476.766	-0.050	0.113
-713.718	134.838	-0.132	0.173
-712.704	211.711	0.152	0.241
-711.689	-200.000	-0.004	-0.290
-710.675	-61.144	-0.111	0.047
-709.660	8.125	0.200	-0.151
-708.645	800.000	0.062	0.201
-707.631	800.000	0.054	0.226
-706.616	800.000	-0.008	-0.034
-705.602	800.000	0.031	-0.090
-704.587	31.834	0.281	-0.243
-703.572	-0.743	-0.188	-0.134
-702.558	-46.293	-0.267	-0.132
-701.543	800.000	0.106	0.312
-700.529	800.000	0.074	-0.262
-699.514	87.069	0.063	0.070
-698.499	-133.041	0.529	0.067
-697.485	-200.000	-0.023	0.368
-696.470	-200.000	0.008	-0.318
-695.456	445.677	-0.022	0.049
-694.441	-200.000	-0.040	-0.229
-693.426	-128.950	-0.318	0.045
-692.412	800.000	-0.102	-0.305
-691.397	18.023	-0.252	-0.202
-690.383	-4.564	-0.202	-0.140
-689.368	-20.671	-0.046	-0.028
-688.354	-6.095	-0.180	-0.124
-687.339	549.547	-0.046	0.110
-686.324	139.811	-0.080	-0.106
-685.310	-200.000	-0.001	-0.093
-684.295	-39.388	-0.299	-0.158
-683.281	-50.393	-0.363	-0.172
-682.266	-25.738	-0.216	-0.128
-681.251	769.391	-0.136	-0.373
-680.237	384.186	-0.034	-0.070
-679.222	253.016	-0.206	0.353
-678.208	82.176	-0.107	-0.117
-677.193	800.000	0.061	0.248
-676.178	-7.146	0.072	-0.049
-675.164	-50.879	-0.379	-0.179
-674.149	-154.016	0.516	-0.035
-673.135	35.253	0.150	-0.132
-672.120	77.110	-0.111	0.119
-671.105	800.000	-0.026	0.087
-670.091	-92.401	0.253	0.071
-669.076	562.845	0.102	-0.249
-668.062	-86.516	-0.385	-0.119
-667.047	-68.951	-0.033	0.013
-666.032	-200.000	0.017	-0.400
-665.018	23.754	-0.306	-0.253
-664.003	-89.386	0.149	0.044
-662.989	-94.855	0.096	-0.026
-661.974	95.206	0.295	0.337
-660.959	183.725	0.124	-0.184
-659.945	-78.429	-0.266	-0.091
-658.930	-15.494	0.111	-0.071
-657.916	-80.932	-0.297	-0.099
-656.901	111.030	0.160	-0.193
-655.886	36.838	0.164	0.145
-654.872	43.727	-0.071	-0.065
-653.857	-40.058	0.374	0.196
-652.843	-91.545	-0.375	0.107
-651.828	-4.279	0.239	0.166
-650.814	21.961	-0.165	-0.135
-649.799	-86.573	-0.286	-0.088
-648.784	35.771	0.056	0.050
-647.770	259.752	0.043	0.075
-646.755	17.573	0.108	-0.086
-645.741	71.995	0.127	0.132
-644.726	159.558	-0.070	-0.097
-643.711	-200.000	-0.016	-0.260
-642.697	-53.341	0.087	-0.040
-641.682	-153.402	0.387	-0.027
-640.668	-79.607	0.199	-0.067
-639.653	-200.000	-0.001	-0.267
-638.638	-67.807	-0.086	0.034
-637.624	14.988	-0.125	0.098
-636.609	-200.000	-0.027	-0.265
-635.595	-200.000	-0.062	-0.288
-634.580	-102.139	0.386	-0.093
-633.565	-88.561	0.100	0.030
-632.551	82.775	-0.131	-0.143
-631.536	-200.000	0.009	0.159
-630.522	-112.620	-0.100	-0.020
-629.507	-142.108	-0.271	-0.027
-628.492	199.972	-0.130	-0.200
-627.478	-200.000	0.062	-0.394
-626.463	-73.624	-0.018	-0.007
-625.449	-62.689	-0.266	0.110
-624.434	-73.083	-0.387	0.142
-623.419	-43.165	-0.186	-0.095
-622.405	129.094	0.131	-0.167
-621.390	-200.000	0.031	-0.184
-620.376	609.878	-0.075	0.188
-619.361	-183.420	0.449	-0.008
-618.346	-122.184	-0.144	-0.024
-617.332	56.643	0.141	0.137
-616.317	47.457	-0.256	0.239
-615.303	800.000	0.056	0.244
-614.288	370.556	0.140	0.283
-613.273	-154.173	-0.095	-0.006
-612.259	77.178	0.090	0.096
-611.244	45.552	0.248	0.230
-610.230	255.658	0.035	0.060
-609.215	177.679	-0.229	-0.334
-608.201	-111.945	-0.173	-0.035
-607.186	-200.000	0.041	-0.283
-606.171	-117.042	0.275	-0.050
-605.157	-117.744	-0.080	-0.014
-604.142	343.676	-0.023	0.045
-603.128	607.337	0.084	-0.209
-602.113	76.868	0.104	-0.111
-601.098	-168.852	0.203	-0.008
-600.084	-200.000	0.020	-0.292
-599.069	800.000	-0.063	-0.207
-598.055	-74.068	0.123	-0.045
-597.040	-36.444	-0.270	-0.146
-596.025	-61.529	0.088	0.037
-595.011	-21.374	-0.321	-0.196
-593.996	-79.118	0.147	0.050
-592.982	-200.000	0.060	0.297
-591.967	249.643	0.259	0.439
-590.952	591.000	0.048	-0.118
-589.938	-141.778	-0.229	-0.023
-588.923	800.000	0.078	-0.220
-587.909	-200.000	-0.047	-0.228
-586.894	-200.000	0.016	-0.112
-585.879	-18.480	0.089	0.056
-584.865	201.434	0.110	-0.169
-583.850	286.549	0.108	0.195
-582.836	81.848	-0.012	0.013
-581.821	-94.799	0.092	-0.025
-580.806	-130.250	0.277	-0.038
-579.792	-200.000	-0.034	-0.264
-578.777	-175.316	-0.191	0.005
-577.763	550.365	-0.074	0.177
-576.748	-200.000	-0.025	-0.124
-575.733	124.664	-0.062	0.078
-574.719	800.000	0.065	0.279
-573.704	-36.260	-0.519	-0.280
-572.690	9.099	0.260	-0.197
-571.675	314.552	0.070	0.131
-570.661	-13.335	0.179	-0.116
-569.646	800.000	-0.046	0.196
-568.631	-200.000	-0.040	-0.202
-567.617	-200.000	0.023	0.252
-566.602	-200.000	-0.023	0.118
-565.588	-42.968	-0.121	-0.062
-564.573	-104.138	0.319	0.074
-563.558	-14.812	0.205	-0.131
-562.544	-110.939	-0.202	-0.041
-561.529	800.000	-0.026	-0.099
-560.515	95.305	0.141	0.161
-559.500	-200.000	-0.012	0.138
-558.485	39.868	-0.177	-0.159
-557.471	-200.000	0.004	0.020
-556.456	28.151	0.294	-0.248
-555.442	11.183	0.302	0.231
-554.427	800.000	-0.059	0.210
-553.412	800.000	-0.031	0.109
-552.398	800.000	0.073	-0.263
-551.383	-132.997	-0.325	0.041
-550.369	-108.187	-0.045	0.010
-549.354	-200.000	-0.004	-0.214
-548.339	-200.000	0.045	-0.260
-547.325	-200.000	0.015	-0.247
-546.310	-115.856	-0.079	0.015
-545.296	-200.000	-0.026	-0.172
-544.281	-84.562	0.417	0.131
-543.266	-177.182	0.007	0.000
-542.252	-73.217	0.198	0.072
-541.237	11.759	0.122	-0.093
-540.223	-85.577	-0.318	-0.099
-539.208	-105.389	-0.087	-0.020
-538.193	-101.826	-0.376	-0.091
-537.179	-200.000	0.001	-0.148
-536.164	-147.994	0.298	-0.025
-535.150	137.935	-0.157	0.205
-534.135	148.589	0.108	0.145
-533.121	-200.000	0.012	-0.142
-532.106	800.000	-0.047	-0.172
-531.091	280.711	0.019	0.034
-530.077	-154.612	0.142	-0.009
-529.062	-154.320	0.104	0.007
-528.048	-90.150	-0.120	-0.035
-527.033	369.361	0.118	-0.238
-526.018	-26.130	0.143	0.084
-525.004	-134.428	0.183	0.022
-523.989	-44.443	-0.338	0.169
-522.975	154.611	0.120	-0.165
-521.960	-49.985	0.266	-0.126
-520.945	354.803	-0.101	-0.201
-519.931	-86.072	-0.056	0.017
-518.916	-34.142	-0.034	-0.018
-517.902	-10.555	0.234	0.155
-516.887	-200.000	0.012	-0.206
-515.872	501.102	-0.106	0.244
-514.858	-110.374	0.132	0.027
-513.843	800.000	-0.057	-0.239
-512.829	378.996	-0.119	-0.244
-511.814	-107.464	-0.120	-0.026
-510.799	83.763	-0.192	0.209
-509.785	-200.000	-0.033	0.152
-508.770	-200.000	-0.023	-0.123
-507.756	104.039	0.181	-0.212
-506.741	800.000	0.116	0.378
-505.726	-159.413	-0.326	0.018
-504.712	92.244	-0.083	0.093
-503.697	26.088	-0.131	0.109
-502.683	30.581	-0.115	-0.098
-501.668	-132.343	0.121	0.016
-500.653	121.146	-0.171	-0.212
-499.639	-109.604	0.238	-0.050
-498.624	-156.754	0.142	-0.009
-497.610	19.592	0.144	-0.116
-496.595	-120.315	0.309	-0.053
-495.581	-18.719	-0.461	0.286
-494.566	324.553	-0.077	0.147
-493.551	-200.000	-0.011	0.112
-492.537	-18.187	-0.198	0.123
-491.522	-200.000	-0.125	-0.559
-490.508	255.921	-0.186	0.318
-489.493	73.715	0.111	-0.116
-488.478	-106.348	0.339	-0.076
-487.464	26.065	-0.194	0.161
-486.449	-85.376	-0.214	0.066
-485.435	301.604	0.080	-0.147
-484.420	134.054	-0.156	0.202
-483.405	-200.000	0.094	0.000
-482.391	-98.420	-0.341	-0.087
-481.376	100.282	0.210	-0.242
-480.362	154.421	0.038	0.052
-479.347	-49.745	-0.063	-0.030
-478.332	198.405	0.085	0.129
-477.318	-128.106	-0.230	0.033
-476.303	22.602	-0.197	-0.160
-475.289	328.160	0.040	0.076
-474.274	144.931	-0.208	0.276
-473.259	-113.672	0.217	0.042
-472.245	-200.000	0.024	0.106
-471.230	264.880	0.218	0.378
-470.216	-5.102	0.123	0.085
-469.201	-200.000	0.000	0.177
-468.186	-55.021	0.209	0.094
-467.172	139.709	0.276	0.362
-466.157	50.578	-0.210	-0.198
-465.143	-63.902	0.091	0.037
-464.128	271.243	0.031	-0.054
-463.113	731.929	0.126	-0.334
-462.099	-200.000	-0.192	-0.001
-461.084	-1.093	0.105	0.074
-460.070	-200.000	0.011	-0.066
-459.055	286.266	-0.177	-0.317
-458.040	-178.928	-0.158	-0.004
-457.026	661.467	-0.090	-0.232
-456.011	-62.366	0.227	-0.094
-454.997	-200.000	-0.050	0.304
-453.982	34.487	-0.269	0.234
-452.968	108.718	0.271	-0.322
-451.953	-139.980	-0.130	0.014
-450.938	-200.000	0.003	0.076
-449.924	-200.000	0.004	0.122
-448.909	29.086	0.151	0.128
-447.895	231.852	0.039	-0.063
-446.880	800.000	0.035	-0.104
-445.865	-110.333	-0.217	0.045
-444.851	-200.000	-0.008	-0.107
-443.836	213.115	-0.364	0.572
-442.822	42.487	-0.324	-0.293
-441.807	800.000	0.062	0.199
-440.792	82.933	-0.062	0.067
-439.778	51.647	-0.039	-0.036
-438.763	800.000	0.150	0.482
-437.749	9.982	-0.157	0.119
-436.734	-92.740	0.351	-0.098
-435.719	-7.759	-0.241	-0.162
-434.705	-200.000	0.014	0.315
-433.690	-17.908	0.047	-0.030
-432.676	-73.464	0.072	-0.026
-431.661	-68.428	0.108	0.042
-430.646	-44.651	0.276	0.137
-429.632	-40.685	0.275	-0.142
-428.617	-200.000	0.020	-0.165
-427.603	-184.227	-0.118	0.002
-426.588	-132.124	0.166	0.021
-425.573	126.756	0.204	-0.257
-424.559	-16.679	0.252	-0.159
-423.544	-200.000	0.003	0.316
-422.530	-17.270	-0.073	-0.045
-421.515	27.149	0.162	0.135
-420.500	623.950	-0.082	0.206
-419.486	-114.836	0.098	0.019
-418.471	109.349	-0.186	-0.221
-417.457	-181.751	0.179	0.003
-416.442	-23.025	-0.270	0.162
-415.428	-200.000	0.003	0.075
-414.413	-147.979	0.412	-0.034
-413.398	265.983	0.135	-0.234
-412.384	355.489	0.074	0.147
-411.369	-118.881	-0.250	-0.044
-410.355	638.350	-0.080	-0.201
-409.340	6.507	0.156	0.115
-408.325	-97.716	0.200	0.052
-407.311	21.722	0.225	-0.182
-406.296	-83.529	0.208	0.066
-405.282	-200.000	0.024	0.205
-404.267	4.396	0.538	-0.392
-403.252	-200.000	-0.017	-0.111
-402.238	800.000	-0.073	0.216
-401.223	800.000	-0.045	0.133
-400.209	219.260	-0.106	0.168
-399.194	-25.463	0.110	0.064
-398.179	150.668	-0.199	0.268
-397.165	369.289	0.156	0.313
-396.150	191.747	-0.114	0.171
-395.136	-32.335	-0.367	0.204
-394.121	37.798	0.292	-0.257
-393.106	-29.918	0.143	-0.081
-392.092	20.795	0.152	0.122
-391.077	-28.186	0.098	0.056
-390.063	-144.666	0.074	0.007
-389.048	-24.635	-0.133	-0.079
-388.033	-114.248	0.229	0.044
-387.019	-200.000	-0.086	-0.390
-386.004	800.000	-0.042	-0.176
-384.990	-153.823	0.246	-0.017
-383.975	235.564	-0.038	-0.062
-382.960	-200.000	0.007	0.048
-381.946	702.180	0.035	0.093
-380.931	-52.207	0.241	-0.111
-379.917	17.602	-0.124	-0.098
-378.902	-120.348	-0.184	-0.031
-377.888	-123.423	0.199	-0.031
-376.873	-79.867	0.300	-0.100
-375.858	157.501	0.173	-0.238
-374.844	469.367	0.055	0.123
-373.829	-99.581	-0.286	-0.071
-372.815	142.727	-0.160	-0.211
-371.800	33.965	0.073	0.063
-370.785	-71.182	0.211	-0.078
-369.771	-106.362	-0.277	-0.061
-368.756	800.000	-0.037	-0.122
-367.742	-41.117	0.066	-0.034
-366.727	396.031	-0.097	-0.201
-365.712	-175.253	-0.193	-0.005
-364.698	-26.866	-0.299	0.173
-363.683	-158.116	0.101	0.006
-362.669	-200.000	0.022	-0.138
-361.654	246.891	-0.124	0.207
-360.639	-116.245	0.583	-0.107
-359.625	-150.402	-0.353	-0.027
-358.610	98.984	-0.092	-0.105
-357.596	183.708	0.178	-0.261
-356.581	-200.000	0.059	-0.353
-355.566	-119.027	-0.370	0.064
-354.552	-92.716	0.204	-0.057
-353.537	-141.665	-0.030	0.003
-352.523	-126.043	0.161	0.024
-351.508	-200.000	0.017	-0.228
-350.493	-200.000	0.013	0.293
-349.479	-200.000	-0.021	-0.148
-348.464	-200.000	-0.060	-0.267
-347.450	800.000	0.048	0.140
-346.435	-78.161	0.247	0.084
-345.420	131.430	-0.097	-0.124
-344.406	270.632	-0.173	-0.301
-343.391	411.679	-0.134	-0.282
-342.377	139.795	-0.109	-0.142
-341.362	-167.850	0.269	-0.010
-340.348	87.083	0.130	-0.142
-339.333	153.761	0.127	0.172
-338.318	414.622	-0.084	-0.177
-337.304	-200.000	-0.073	0.322
-336.289	120.732	0.035	-0.043
-335.275	-200.000	-0.046	-0.218
-334.260	-78.865	0.306	-0.103
-333.245	273.935	0.042	0.073
-332.231	-200.000	0.033	0.269
-331.216	-41.861	-0.136	0.069
-330.202	644.032	0.046	0.116
-329.187	800.000	0.075	-0.222
-328.172	-200.000	-0.007	-0.076
-327.158	-139.447	0.241	0.026
-326.143	-159.406	-0.330	0.018
-325.129	568.076	-0.105	-0.251
-324.114	800.000	0.008	-0.021
-323.099	672.071	0.006	0.016
-322.085	-60.870	0.161	-0.068
-321.070	21.226	0.299	-0.240
-320.056	5.786	0.114	0.084
-319.041	-104.919	-0.264	-0.060
-318.026	800.000	0.128	0.430
-317.012	-57.062	0.056	-0.025
-315.997	300.349	0.040	-0.073
-314.983	-200.000	-0.335	0.001
-313.968	-72.695	-0.240	-0.088
-312.953	-184.814	-0.137	-0.002
-311.939	-144.575	-0.320	-0.029
-310.924	-200.000	-0.000	0.296
-309.910	800.000	-0.033	0.133
-308.895	194.539	-0.020	0.030
-307.880	-148.215	0.171	0.014
-306.866	326.243	0.094	0.177
-305.851	-14.459	0.225	-0.143
-304.837	-148.901	-0.409	0.033
-303.822	-140.887	0.159	0.016
-302.807	-44.263	-0.379	0.188
-301.793	156.973	-0.198	0.270
-300.778	-133.516	0.218	0.027
-299.764	-69.183	-0.153	-0.058
-298.749	800.000	-0.022	0.087
-297.735	58.103	0.387	-0.375
-296.720	13.890	0.093	-0.071
-295.705	-200.000	0.023	0.313
-294.691	105.417	-0.129	0.151
-293.676	-74.423	0.063	-0.022
-292.662	56.214	-0.102	0.098
-291.647	197.926	-0.192	-0.290
-290.632	307.833	0.074	-0.136
-289.618	-1.053	0.266	-0.186
-288.603	-147.509	-0.358	-0.030
-287.589	-138.725	0.076	0.008
-286.574	-200.000	0.012	0.105
-285.559	-200.000	-0.043	-0.256
-284.545	800.000	0.045	0.161
-283.530	-52.620	0.154	-0.070
-282.516	223.777	0.066	0.106
-281.501	698.219	-0.121	0.315
-280.486	281.725	0.079	0.139
-279.472	574.841	0.113	-0.272
-278.457	361.092	-0.036	0.070
-277.443	119.353	0.249	0.305
-276.428	182.360	-0.271	0.395
-275.413	800.000	0.075	0.314
-274.399	-51.490	-0.278	0.128
-273.384	-9.165	-0.301	-0.199
-272.370	-120.312	-0.071	-0.012
-271.355	-90.561	-0.048	-0.014
-270.340	413.989	-0.074	0.156
-269.326	113.586	0.178	0.214
-268.311	-200.000	-0.021	-0.108
-267.297	-200.000	-0.016	0.078
-266.282	-52.151	-0.156	-0.071
-265.267	-187.906	0.059	0.001
-264.253	-191.098	-0.502	-0.005
-263.238	-200.000	-0.050	-0.220
-262.224	-168.752	-0.232	0.009
-261.209	-200.000	0.007	0.040
-260.195	-39.273	0.061	0.032
-259.180	-200.000	-0.030	-0.242
-258.165	186.627	0.124	-0.182
-257.151	-67.183	-0.401	-0.156
-256.136	27.394	0.174	0.144
-255.122	67.288	0.101	-0.102
-254.107	-112.331	-0.112	0.022
-253.092	-200.000	0.018	-0.259
-252.078	-129.414	0.193	-0.027
-251.063	69.874	-0.081	-0.082
-250.049	32.855	-0.174	-0.148
-249.034	-119.963	0.187	0.032
-248.019	-200.000	-0.213	0.000
-247.005	-200.000	0.005	0.088
-245.990	642.098	0.106	0.268
-244.976	-30.355	0.302	0.169
-243.961	-124.315	0.218	0.034
-242.946	-80.755	-0.159	-0.052
-241.932	-39.525	-0.263	0.136
-240.917	-139.753	0.167	-0.017
-239.903	-130.465	0.165	0.022
-238.888	-200.000	0.022	0.173
-237.873	-188.646	-0.251	-0.003
-236.859	262.579	0.098	0.168
-235.844	-57.255	-0.166	-0.072
-234.830	120.808	0.087	-0.107
-233.815	-47.931	-0.344	0.164
-232.800	19.172	-0.327	0.259
-231.786	608.100	0.079	-0.195
-230.771	-200.000	-0.010	0.111
-229.757	-81.365	-0.189	0.061
-228.742	-94.184	-0.185	0.050
-227.727	354.201	0.145	0.285
-226.713	64.864	0.071	-0.071
-225.698	-53.542	0.210	-0.095
-224.684	-36.545	-0.242	-0.128
-223.669	94.136	0.051	-0.057
-222.655	258.467	-0.104	0.177
-221.640	737.618	-0.079	0.209
-220.625	-115.616	0.181	-0.034
-219.611	-200.000	-0.040	0.283
-218.596	800.000	-0.042	0.159
-217.582	800.000	0.076	-0.225
-216.567	-151.552	0.325	-0.024
-215.552	144.090	-0.220	0.290
-214.538	-200.000	-0.019	-0.157
-213.523	-147.607	0.088	0.007
-212.509	424.297	-0.121	0.256
-211.494	800.000	-0.090	-0.274
-210.479	152.958	-0.224	-0.302
-209.465	-12.023	0.447	0.289
-208.450	800.000	0.030	-0.101
-207.436	32.803	-0.083	-0.071
-206.421	-117.457	-0.403	0.072
-205.406	-114.904	0.286	-0.054
-204.392	-200.000	-0.007	-0.247
-203.377	-162.445	-0.111	0.005
-202.363	34.644	-0.124	0.107
-201.348	800.000	-0.088	0.248
-200.333	-111.766	0.136	-0.027
-199.319	-55.209	-0.367	-0.163
-198.304	-10.564	0.154	0.101
-197.290	-200.000	0.013	0.180
-196.275	-47.910	-0.250	-0.119
-195.260	-45.834	0.188	-0.092
-194.246	-73.495	-0.184	0.066
-193.231	800.000	-0.114	0.418
-192.217	-7.284	0.203	-0.135
-191.202	-200.000	0.017	0.235
-190.187	-126.955	0.110	-0.016
-189.173	454.445	0.041	0.090
-188.158	501.961	-0.023	0.052
-187.144	-42.163	0.175	0.088
-186.129	-200.000	-0.035	0.258
-185.114	67.508	0.250	-0.252
-184.100	-40.601	-0.070	0.036
-183.085	-66.944	-0.096	-0.037
-182.071	323.029	0.108	0.203
-181.056	66.630	-0.206	-0.207
-180.042	79.864	0.062	0.065
-179.027	475.108	-0.146	0.325
-178.012	575.278	-0.064	-0.154
-176.998	800.000	0.041	-0.143
-175.983	252.724	0.066	0.112
-174.969	95.133	-0.140	0.156
-173.954	-44.687	-0.303	0.149
-172.939	67.805	-0.092	0.093
-171.925	-200.000	-0.024	0.255
-170.910	246.797	-0.104	-0.172
-169.896	-200.000	-0.018	-0.097
-168.881	-200.000	0.010	0.056
-167.866	-164.805	0.208	-0.009
-166.852	474.401	-0.140	0.312
-165.837	-97.135	0.055	-0.014
-164.823	68.896	0.156	-0.158
-163.808	-200.000	-0.033	0.302
-162.793	-200.000	-0.021	-0.241
-161.779	800.000	0.084	-0.332
-160.764	-200.000	-0.021	0.130
-159.750	33.687	-0.203	0.174
-158.735	-2.152	0.106	0.073
-157.720	-200.000	-0.033	0.272
-156.706	800.000	-0.018	-0.069
-155.691	612.536	-0.063	0.154
-154.677	275.119	0.126	0.219
-153.662	-72.909	0.105	-0.038
-152.647	2.975	0.085	0.061
-151.633	5.767	-0.354	-0.258
-150.618	-200.000	0.032	-0.142
-149.604	615.275	0.050	0.124
-148.589	-142.445	0.075	-0.007
-147.574	-147.877	0.056	0.005
-146.560	590.223	0.076	0.183
-145.545	-24.143	0.101	0.060
-144.531	-200.000	-0.004	0.336
-143.516	363.147	-0.136	0.269
-142.502	-56.516	0.102	0.044
-141.487	-200.000	-0.007	-0.143
-140.472	32.319	-0.033	0.028
-139.458	800.000	-0.023	0.089
-138.443	92.717	-0.115	-0.128
-137.429	800.000	-0.056	0.159
-136.414	-113.268	0.219	0.042
-135.399	64.985	-0.079	0.078
-134.385	800.000	0.059	-0.164
-133.370	-200.000	0.034	-0.277
-132.356	-107.493	0.260	0.056
-131.341	-35.853	0.125	-0.066
-130.326	-200.000	0.023	0.183
-129.312	76.492	-0.269	0.280
-128.297	179.528	0.217	0.312
-127.283	229.920	-0.062	0.100
-126.268	763.798	-0.072	-0.192
-125.253	-200.000	0.018	0.219
-124.239	-200.000	0.004	-0.058
-123.224	-199.736	0.270	0.001
-122.210	-50.183	0.192	0.089
