DTS Sentinel unit serial number:	SN413079Multiplexer serial number:	ORYXHardware model number:	OX4-SRSoftware version number:	ORYX F/W v4.00 Oryx Data Collector v3.7.2.0data status	okinstallation	princeton_trtdifferential loss correction	single-endedforward channel	channel 1reverse channel	N/Adate	2019/09/17time	15:02:35forward acquisition time	60.00reverse acquisition time	0.00gamma	496.2192k internal	0.2295k external	0.2295temperature offset calibration	0.9971default loss term (dB/km)	0.3790temperature slope calibration	1.0000multiplexer offset coefficient	1.0000multiplexer slope coefficient	1.0000fibre end	0.00T internal ref (°C)	37.44T ext. ref 1 (°C)	0.40T ext. ref 2 (°C)	34.21length (m)	temperature (°C)	Stokes	anti-Stokes-747.200	142.248	0.247	0.335
-746.185	-197.877	-0.230	-0.001
-745.171	-167.344	0.031	0.001
-744.156	-170.078	-0.092	0.003
-743.142	92.100	-0.042	-0.049
-742.127	-34.208	-0.105	0.059
-741.112	39.378	0.067	-0.061
-740.098	-200.000	-0.006	0.111
-739.083	-110.127	0.076	-0.016
-738.069	432.881	-0.278	0.617
-737.054	370.240	-0.043	-0.088
-736.039	317.688	-0.163	0.316
-735.025	-32.716	0.090	-0.051
-734.010	-87.937	-0.147	-0.045
-732.996	8.812	-0.304	0.234
-731.981	85.244	0.191	-0.215
-730.966	-78.992	-0.257	0.089
-729.952	-68.025	-0.469	0.187
-728.937	143.966	-0.119	-0.162
-727.923	-143.243	-0.325	-0.032
-726.908	115.959	0.192	-0.240
-725.894	15.575	0.095	0.077
-724.879	-51.574	-0.226	-0.108
-723.864	-135.696	0.431	-0.052
-722.850	-41.791	-0.177	0.093
-721.835	-200.000	-0.016	-0.130
-720.821	800.000	0.051	-0.222
-719.806	-200.000	0.007	0.101
-718.791	-26.155	-0.107	-0.064
-717.777	-182.764	0.093	-0.002
-716.762	-145.683	-0.214	-0.020
-715.748	-200.000	-0.014	-0.257
-714.733	51.737	-0.292	0.284
-713.718	-149.487	0.089	0.007
-712.704	608.879	0.104	0.266
-711.689	270.471	0.068	-0.121
-710.675	-200.000	0.006	0.065
-709.660	80.024	0.034	-0.037
-708.645	800.000	-0.030	0.087
-707.631	83.498	0.277	-0.309
-706.616	99.512	0.106	0.125
-705.602	-51.546	0.245	-0.117
-704.587	598.779	-0.028	-0.072
-703.572	154.835	0.144	-0.202
-702.558	-41.312	0.285	-0.150
-701.543	138.592	-0.114	-0.153
-700.529	-78.217	0.146	-0.051
-699.514	-200.000	0.024	0.317
-698.499	-200.000	-0.009	0.265
-697.485	-72.949	-0.194	-0.073
-696.470	156.791	0.077	-0.108
-695.456	-86.966	0.225	0.070
-694.441	-65.417	0.241	0.099
-693.426	789.017	-0.092	0.258
-692.412	-200.000	0.001	0.087
-691.397	-75.555	-0.277	-0.100
-690.383	149.782	-0.091	-0.126
-689.368	163.563	0.081	-0.116
-688.354	-45.021	0.159	0.081
-687.339	-82.920	-0.277	0.091
-686.324	-59.105	-0.014	0.006
-685.310	-0.689	-0.281	0.203
-684.295	-200.000	-0.045	0.200
-683.281	-81.681	0.259	0.087
-682.266	800.000	-0.053	-0.203
-681.251	84.299	0.119	0.133
-680.237	800.000	-0.054	0.206
-679.222	800.000	-0.047	-0.193
-678.208	2.971	0.313	-0.232
-677.193	-200.000	0.010	-0.115
-676.178	-95.918	0.213	-0.058
-675.164	164.773	0.139	0.200
-674.149	-200.000	0.022	0.201
-673.135	57.636	-0.189	-0.188
-672.120	-145.966	0.190	-0.017
-671.105	231.688	-0.219	-0.367
-670.091	-39.018	-0.198	0.106
-669.076	-200.000	0.051	0.234
-668.062	22.374	0.137	-0.114
-667.047	221.844	0.081	-0.134
-666.032	800.000	0.030	-0.110
-665.018	-26.562	-0.370	-0.221
-664.003	15.652	-0.169	0.135
-662.989	800.000	0.075	-0.222
-661.974	-200.000	0.032	0.177
-660.959	-200.000	0.049	0.250
-659.945	-56.638	0.409	-0.185
-658.930	-200.000	0.031	0.301
-657.916	551.957	-0.047	-0.116
-656.901	-200.000	-0.094	0.434
-655.886	-200.000	-0.067	0.322
-654.872	-40.180	-0.174	-0.092
-653.857	-118.960	0.207	0.037
-652.843	-176.859	-0.291	-0.008
-651.828	413.770	-0.076	0.164
-650.814	-200.000	0.047	-0.236
-649.799	229.361	-0.150	-0.250
-648.784	-145.841	-0.309	0.028
-647.770	-55.083	-0.159	-0.073
-646.755	800.000	-0.086	0.242
-645.741	16.146	0.175	0.140
-644.726	-92.743	-0.068	-0.019
-643.711	359.266	0.094	-0.191
-642.697	29.348	0.130	0.112
-641.682	-131.300	0.094	0.013
-640.668	-200.000	-0.045	-0.259
-639.653	800.000	0.061	-0.228
-638.638	-81.899	0.181	-0.060
-637.624	141.737	-0.264	-0.355
-636.609	566.085	0.105	-0.260
-635.595	-123.312	0.118	-0.019
-634.580	205.449	-0.075	-0.119
-633.565	800.000	0.027	-0.081
-632.551	39.124	0.177	0.161
-631.536	697.730	0.030	-0.080
-630.522	-200.000	0.044	-0.334
-629.507	161.494	-0.187	-0.266
-628.492	-122.639	0.063	0.010
-627.478	549.965	-0.077	-0.188
-626.463	-42.906	-0.321	0.166
-625.449	-77.238	-0.114	-0.040
-624.434	800.000	-0.048	-0.143
-623.419	-66.574	0.030	-0.012
-622.405	800.000	-0.027	-0.090
-621.390	56.398	-0.069	-0.068
-620.376	315.949	0.104	0.200
-619.361	-200.000	0.003	0.028
-618.346	472.802	0.170	-0.390
-617.332	-62.602	-0.439	0.185
-616.317	-127.176	-0.229	0.034
-615.303	-200.000	0.018	-0.133
-614.288	800.000	0.077	0.301
-613.273	-107.142	-0.184	-0.041
-612.259	147.660	-0.226	0.309
-611.244	-161.007	-0.274	0.015
-610.230	-131.275	0.052	-0.007
-609.215	369.539	0.140	0.289
-608.201	-92.419	-0.219	-0.063
-607.186	800.000	0.041	-0.159
-606.171	-200.000	0.003	0.090
-605.157	-1.451	0.095	-0.068
-604.142	-200.000	-0.028	-0.204
-603.128	-41.983	0.142	0.074
-602.113	587.349	0.083	-0.209
-601.098	156.788	0.273	0.383
-600.084	-200.000	0.056	0.271
-599.069	800.000	0.069	0.212
-598.055	27.816	0.094	0.080
-597.040	-200.000	0.015	-0.137
-596.025	-200.000	-0.046	0.311
-595.011	329.658	-0.112	-0.219
-593.996	-115.974	-0.275	-0.052
-592.982	-200.000	-0.007	-0.165
-591.967	404.008	0.081	0.173
-590.952	197.988	-0.053	-0.083
-589.938	81.327	-0.192	0.211
-588.923	-171.257	-0.133	0.005
-587.909	-111.273	-0.287	-0.060
-586.894	177.569	0.173	0.256
-585.879	-197.210	-0.356	0.002
-584.865	-112.092	-0.250	-0.051
-583.850	53.393	0.198	-0.193
-582.836	-109.301	-0.156	-0.034
-581.821	800.000	-0.110	0.319
-580.806	204.702	0.143	0.225
-579.792	343.379	0.045	-0.089
-578.777	-10.205	-0.171	-0.115
-577.763	392.049	0.047	0.099
-576.748	17.519	-0.335	-0.270
-575.733	-40.038	0.326	0.173
-574.719	-32.789	0.110	-0.062
-573.704	-200.000	0.005	-0.180
-572.690	-114.805	0.119	-0.023
-571.675	-158.025	-0.252	-0.015
-570.661	800.000	0.044	-0.193
-569.646	-84.405	0.200	0.064
-568.631	-57.448	-0.157	-0.070
-567.617	26.664	0.194	-0.165
-566.602	800.000	0.027	0.107
-565.588	124.295	-0.154	0.196
-564.573	-93.699	-0.432	-0.121
-563.558	52.098	-0.211	0.204
-562.544	796.489	-0.065	-0.181
-561.529	163.960	-0.146	-0.209
-560.515	-9.050	0.162	-0.110
-559.500	71.350	-0.058	0.061
-558.485	-62.133	-0.217	-0.092
-557.471	-174.715	-0.209	-0.006
-556.456	-200.000	0.005	-0.031
-555.442	-134.316	0.133	0.017
-554.427	800.000	0.046	-0.188
-553.412	279.816	-0.130	-0.236
-552.398	22.230	0.519	-0.430
-551.383	46.476	-0.330	-0.310
-550.369	-98.537	-0.166	-0.043
-549.354	-197.462	-0.365	-0.002
-548.339	328.112	-0.036	-0.070
-547.325	-200.000	-0.007	-0.292
-546.310	-117.001	0.475	0.088
-545.296	-113.151	-0.266	0.053
-544.281	81.558	0.205	-0.225
-543.266	426.601	0.133	-0.290
-542.252	-110.655	0.331	0.069
-541.237	195.785	0.053	0.082
-540.223	-200.000	-0.029	-0.292
-539.208	-166.783	0.151	0.006
-538.193	464.299	-0.100	0.227
-537.179	-74.614	-0.145	0.053
-536.164	-105.386	-0.105	-0.024
-535.150	-37.844	-0.322	0.173
-534.135	98.354	-0.042	-0.049
-533.121	-144.982	-0.083	-0.008
-532.106	36.732	0.094	0.084
-531.091	250.964	-0.064	0.110
-530.077	-18.647	0.217	0.137
-529.062	95.123	0.065	0.075
-528.048	-200.000	0.013	0.147
-527.033	800.000	-0.033	0.124
-526.018	-77.835	0.406	-0.142
-525.004	-0.877	-0.075	0.054
-523.989	104.384	-0.332	-0.396
-522.975	-81.969	-0.129	-0.043
-521.960	-95.948	0.116	0.031
-520.945	-96.904	-0.183	-0.049
-519.931	184.142	0.212	0.317
-518.916	77.827	0.092	0.099
-517.902	-200.000	0.021	0.098
-516.887	245.079	-0.158	-0.269
-515.872	-44.306	-0.196	0.099
-514.858	7.942	-0.144	-0.109
-513.843	-200.000	-0.050	0.506
-512.829	387.061	0.113	-0.236
-511.814	351.960	-0.092	-0.185
-510.799	349.826	0.105	0.210
-509.785	-23.625	-0.148	0.090
-508.770	283.015	-0.139	-0.253
-507.756	-117.069	0.148	0.027
-506.741	-200.000	-0.043	0.330
-505.726	-106.666	0.310	0.070
-504.712	-34.024	0.110	-0.061
-503.697	-92.340	0.406	0.116
-502.683	-200.000	0.059	-0.437
-501.668	-9.146	0.100	-0.068
-500.653	113.339	-0.137	-0.168
-499.639	67.429	-0.048	-0.050
-498.624	93.182	-0.156	-0.178
-497.610	-80.447	-0.109	-0.037
-496.595	-200.000	-0.002	-0.182
-495.581	-200.000	-0.017	-0.124
-494.566	404.985	0.046	-0.097
-493.551	177.913	-0.128	0.190
-492.537	145.918	-0.167	-0.227
-491.522	-78.552	0.191	-0.066
-490.508	9.419	0.285	0.218
-489.493	-128.830	0.206	0.029
-488.478	-155.335	0.153	-0.010
-487.464	54.313	0.122	-0.119
-486.449	-200.000	-0.035	-0.247
-485.435	-109.277	0.130	0.028
-484.420	-169.013	0.175	0.007
-483.405	-163.901	-0.109	-0.005
-482.391	-140.382	-0.410	-0.043
-481.376	-150.381	0.325	-0.025
-480.362	-73.774	-0.060	0.022
-479.347	-200.000	-0.014	-0.458
-478.332	-144.646	0.133	0.012
-477.318	-200.000	-0.011	-0.120
-476.303	-200.000	-0.013	-0.222
-475.289	162.677	0.097	0.138
-474.274	-200.000	0.040	-0.186
-473.259	39.318	0.194	-0.175
-472.245	-200.000	0.010	-0.297
-471.230	-84.676	-0.091	-0.029
-470.216	8.226	0.085	0.064
-469.201	-200.000	-0.030	0.199
-468.186	-54.347	-0.189	0.087
-467.172	60.258	0.035	-0.035
-466.157	237.450	-0.181	-0.304
-465.143	-200.000	-0.014	-0.102
-464.128	-200.000	0.016	0.128
-463.113	86.857	0.041	0.046
-462.099	-97.622	-0.307	-0.081
-461.084	75.291	0.199	-0.212
-460.070	-102.723	0.005	0.001
-459.055	-200.000	0.008	0.367
-458.040	30.876	0.410	0.355
-457.026	-88.229	0.144	-0.043
-456.011	25.992	0.218	0.184
-454.997	76.791	0.159	0.171
-453.982	-200.000	0.011	-0.164
-452.968	65.422	0.079	0.081
-451.953	-79.570	-0.067	0.023
-450.938	372.250	-0.119	-0.245
-449.924	156.098	0.091	-0.126
-448.909	60.323	-0.272	0.272
-447.895	-200.000	0.004	0.128
-446.880	-0.534	-0.346	-0.248
-445.865	-115.437	0.604	-0.115
-444.851	-107.162	0.175	-0.039
-443.836	-141.149	-0.171	-0.018
-442.822	237.753	-0.097	0.163
-441.807	345.653	0.152	0.302
-440.792	-200.000	0.028	-0.260
-439.778	387.986	-0.174	-0.363
-438.763	430.024	-0.072	0.158
-437.749	-76.729	0.292	0.103
-436.734	204.804	-0.070	-0.110
-435.719	27.805	-0.135	-0.115
-434.705	800.000	0.076	-0.279
-433.690	123.179	0.181	0.229
-432.676	-200.000	-0.005	-0.198
-431.661	-57.375	-0.170	0.076
-430.646	-112.638	-0.224	0.045
-429.632	26.682	0.227	-0.192
-428.617	-76.808	0.151	-0.053
-427.603	-11.405	0.116	0.077
-426.588	61.499	0.106	-0.107
-425.573	321.352	-0.034	-0.064
-424.559	-48.730	-0.383	-0.186
-423.544	543.864	-0.042	0.101
-422.530	234.179	0.024	-0.039
-421.515	197.337	-0.118	0.182
-420.500	432.774	-0.153	0.334
-419.486	800.000	0.110	0.363
-418.471	-76.350	0.225	-0.080
-417.457	222.224	-0.103	0.168
-416.442	-138.566	-0.525	-0.058
-415.428	52.056	0.107	-0.103
-414.413	175.748	0.265	-0.388
-413.398	-42.954	0.212	0.108
-412.384	355.043	-0.134	0.269
-411.369	-61.782	0.084	0.035
-410.355	162.578	-0.039	-0.055
-409.340	800.000	-0.076	0.235
-408.325	343.718	-0.051	0.102
-407.311	-44.106	-0.274	0.139
-406.296	-76.497	-0.100	-0.036
-405.282	-4.993	0.251	-0.174
-404.267	-12.471	0.153	-0.101
-403.252	468.273	-0.033	-0.075
-402.238	-200.000	0.023	0.147
-401.223	-81.029	0.255	0.085
-400.209	-200.000	-0.018	0.105
-399.194	-39.969	0.155	-0.082
-398.179	-13.830	-0.121	-0.079
-397.165	542.306	-0.101	0.244
-396.150	520.452	0.124	0.294
-395.136	-200.000	0.036	-0.246
-394.121	800.000	0.051	0.169
-393.106	616.668	0.089	-0.226
-392.092	50.993	0.182	-0.174
-391.077	38.966	-0.214	0.193
-390.063	437.875	-0.242	0.532
-389.048	-6.158	0.207	0.142
-388.033	800.000	0.093	0.376
-387.019	121.850	-0.116	0.146
-386.004	464.192	0.197	0.445
-384.990	800.000	0.091	0.253
-383.975	800.000	-0.046	0.143
-382.960	-90.478	-0.075	-0.022
-381.946	800.000	-0.056	0.163
-380.931	131.217	-0.241	0.312
-379.917	800.000	-0.058	-0.179
-378.902	-200.000	0.008	0.061
-377.888	-200.000	0.008	0.156
-376.873	600.843	-0.058	-0.144
-375.858	-26.811	0.176	0.103
-374.844	335.734	-0.046	0.090
-373.829	800.000	0.087	-0.281
-372.815	49.376	-0.377	0.357
-371.800	-59.878	0.135	0.058
-370.785	-16.182	-0.319	-0.204
-369.771	173.024	-0.089	-0.129
-368.756	-91.371	0.255	0.073
-367.742	800.000	0.066	0.242
-366.727	-127.534	0.289	0.042
-365.712	-37.456	0.232	-0.125
-364.698	-200.000	-0.018	-0.212
-363.683	-200.000	0.000	0.031
-362.669	-51.189	0.278	0.131
-361.654	98.324	-0.202	0.234
-360.639	800.000	0.036	-0.109
-359.625	0.038	-0.010	0.007
-358.610	-146.111	-0.034	0.003
-357.596	800.000	0.035	-0.098
-356.581	-173.556	0.110	0.003
-355.566	-200.000	-0.028	0.327
-354.552	399.252	-0.028	0.060
-353.537	-139.580	-0.131	-0.014
-352.523	-128.490	-0.242	-0.035
-351.508	800.000	-0.023	0.079
-350.493	-30.856	0.118	0.067
-349.479	-200.000	-0.004	-0.071
-348.464	-37.311	-0.104	-0.056
-347.450	800.000	0.092	-0.319
-346.435	220.053	0.072	0.116
-345.420	-200.000	0.046	0.240
-344.406	28.106	-0.197	-0.167
-343.391	-200.000	-0.011	-0.123
-342.377	9.253	0.073	-0.056
-341.362	-200.000	-0.027	-0.157
-340.348	27.345	0.078	0.066
-339.333	-200.000	0.017	0.240
-338.318	-112.715	0.235	0.047
-337.304	181.490	0.170	0.251
-336.289	58.328	-0.092	0.091
-335.275	350.143	0.238	-0.473
-334.260	-32.948	-0.097	-0.054
-333.245	-114.867	-0.217	0.042
-332.231	98.626	-0.157	-0.183
-331.216	-144.738	-0.224	0.021
-330.202	-139.818	0.136	0.014
-329.187	-200.000	0.030	0.267
-328.172	66.974	-0.119	0.122
-327.158	-200.000	0.024	0.173
-326.143	-7.457	0.224	-0.153
-325.129	312.492	-0.084	0.158
-324.114	-68.996	-0.172	0.067
-323.099	156.240	0.062	-0.086
-322.085	800.000	-0.032	-0.100
-321.070	800.000	-0.058	-0.228
-320.056	-29.730	0.117	-0.067
-319.041	-48.957	-0.100	0.048
-318.026	-149.767	-0.172	0.014
-317.012	1.650	0.062	0.045
-315.997	384.820	0.062	-0.128
-314.983	-96.111	-0.257	-0.069
-313.968	-200.000	0.014	0.192
-312.953	-80.217	0.113	-0.038
-311.939	47.282	-0.224	-0.210
-310.924	-136.627	-0.190	-0.022
-309.910	800.000	0.085	0.337
-308.895	-26.250	-0.074	0.043
-307.880	51.296	-0.150	0.143
-306.866	-27.531	0.336	0.196
-305.851	188.803	0.167	0.252
-304.837	297.270	-0.087	-0.160
-303.822	-41.354	-0.342	0.177
-302.807	-200.000	-0.029	-0.202
-301.793	-200.000	-0.024	-0.286
-300.778	50.561	0.069	0.065
-299.764	283.264	0.184	0.332
-298.749	-147.026	-0.230	-0.020
-297.735	3.862	0.088	0.064
-296.720	800.000	0.058	0.244
-295.705	-82.443	-0.205	-0.067
-294.691	-70.425	-0.210	-0.080
-293.676	-25.176	-0.118	0.070
-292.662	-20.110	-0.055	-0.034
-291.647	-94.221	0.233	-0.064
-290.632	-47.358	-0.156	-0.076
-289.618	-200.000	-0.005	0.163
-288.603	-111.626	-0.193	-0.039
-287.589	-19.330	0.367	-0.228
-286.574	-39.018	0.095	0.050
-285.559	138.515	0.206	-0.272
-284.545	-200.000	0.029	0.179
-283.530	297.867	-0.143	-0.264
-282.516	249.359	0.030	-0.051
-281.501	-133.676	0.129	0.016
-280.486	-11.614	-0.340	0.224
-279.472	20.838	0.267	0.217
-278.457	-162.989	-0.338	-0.016
-277.443	800.000	-0.095	-0.275
-276.428	-200.000	-0.010	0.139
-275.413	800.000	-0.063	0.262
-274.399	-200.000	-0.004	0.197
-273.384	-200.000	0.015	-0.166
-272.370	109.951	-0.234	-0.282
-271.355	-91.816	0.300	-0.085
-270.340	-200.000	-0.078	0.351
-269.326	81.096	-0.090	-0.098
-268.311	542.405	0.135	0.322
-267.297	84.468	0.057	-0.062
-266.282	82.066	-0.200	-0.218
-265.267	-80.721	0.065	-0.022
-264.253	-200.000	-0.065	-0.360
-263.238	-56.906	-0.021	0.009
-262.224	440.398	0.072	0.158
-261.209	800.000	-0.053	-0.205
-260.195	-164.898	-0.018	-0.001
-259.180	800.000	0.089	-0.252
-258.165	605.633	0.073	0.184
-257.151	-119.759	-0.142	-0.025
-256.136	-84.050	0.145	0.046
-255.122	251.513	-0.090	-0.153
-254.107	-200.000	-0.017	-0.214
-253.092	-96.135	0.352	-0.094
-252.078	688.643	0.026	-0.068
-251.063	129.700	-0.137	0.175
-250.049	64.306	0.123	-0.124
-249.034	81.040	0.197	0.213
-248.019	-44.396	-0.382	0.192
-247.005	-68.721	0.302	0.117
-245.990	-200.000	-0.006	-0.247
-244.976	-200.000	-0.005	-0.076
-243.961	-74.655	0.055	0.020
-242.946	-200.000	-0.033	0.432
-241.932	-200.000	0.009	0.131
-240.917	800.000	-0.091	0.315
-239.903	731.775	0.161	0.432
-238.888	503.574	0.040	-0.093
-237.873	-56.390	-0.085	-0.038
-236.859	-200.000	-0.022	0.234
-235.844	19.653	-0.262	0.211
-234.830	-109.365	0.307	-0.065
-233.815	441.372	0.024	0.054
-232.800	297.413	-0.068	-0.125
-231.786	-107.368	0.173	0.038
-230.771	54.498	-0.057	0.055
-229.757	-200.000	0.032	0.147
-228.742	383.809	-0.123	0.254
-227.727	-23.427	0.132	0.080
-226.713	-19.300	0.219	0.136
-225.698	-87.235	0.135	0.041
-224.684	181.878	-0.272	-0.401
-223.669	167.837	0.247	-0.351
-222.655	495.045	-0.057	-0.132
-221.640	-122.622	-0.232	-0.038
-220.625	641.290	0.020	0.052
-219.611	-4.582	-0.250	0.173
-218.596	-30.715	0.210	-0.119
-217.582	-61.433	-0.120	-0.051
-216.567	137.279	-0.121	0.159
-215.552	-30.228	-0.087	0.049
-214.538	242.628	0.027	-0.045
-213.523	552.755	-0.032	-0.078
-212.509	-179.440	-0.253	-0.006
-211.494	-200.000	0.014	-0.134
-210.479	-200.000	-0.006	0.126
-209.465	47.821	-0.094	0.088
-208.450	-200.000	0.083	-0.484
-207.436	46.655	-0.106	0.098
-206.421	394.870	-0.027	-0.057
-205.406	303.057	0.103	0.191
-204.392	165.276	-0.017	0.024
-203.377	-36.757	-0.070	0.038
-202.363	-200.000	0.026	0.290
-201.348	129.379	0.193	-0.246
-200.333	-128.666	0.242	-0.034
-199.319	-87.157	0.331	-0.101
-198.304	800.000	-0.079	-0.275
-197.290	126.808	0.216	0.274
-196.275	-28.991	0.219	-0.126
-195.260	-150.334	0.174	-0.013
-194.246	-53.072	0.356	-0.164
-193.231	7.781	0.383	-0.287
-192.217	-87.018	0.225	0.069
-191.202	-108.630	-0.211	-0.045
-190.187	-200.000	-0.020	0.149
-189.173	-143.092	-0.253	-0.024
-188.158	800.000	0.026	-0.079
-187.144	-35.133	0.214	0.117
-186.129	25.273	-0.244	-0.203
-185.114	-119.684	0.432	-0.075
-184.100	-117.241	-0.232	0.042
-183.085	7.659	0.195	0.146
-182.071	227.956	-0.032	-0.053
-181.056	-128.467	-0.429	-0.061
-180.042	230.449	0.131	0.214
-179.027	-121.419	-0.075	0.013
-178.012	-29.039	-0.092	-0.053
-176.998	-55.119	-0.090	0.040
-175.983	324.279	-0.097	0.185
-174.969	-62.505	0.111	0.046
-173.954	113.830	0.149	-0.181
-172.939	112.874	-0.108	-0.130
-171.925	-50.707	0.188	0.088
-170.910	3.544	0.087	0.063
-169.896	147.481	-0.101	0.136
-168.881	-121.836	0.202	-0.033
-167.866	-200.000	0.044	-0.486
-166.852	-200.000	-0.014	0.104
-165.837	800.000	0.040	-0.163
-164.823	-113.199	0.392	0.077
-163.808	-142.356	-0.123	0.012
-162.793	-200.000	-0.031	-0.163
-161.779	-199.349	0.240	-0.001
-160.764	105.740	-0.149	0.176
-159.750	-125.503	-0.044	0.007
-158.735	800.000	-0.058	-0.217
-157.720	-113.951	-0.182	0.035
-156.706	42.932	-0.104	0.094
-155.691	-200.000	0.025	0.187
-154.677	10.528	-0.123	0.093
-153.662	83.147	0.434	0.472
-152.647	-145.715	-0.069	-0.006
-151.633	60.797	0.199	0.197
-150.618	77.413	0.223	0.237
-149.604	56.191	-0.155	0.150
-148.589	470.200	-0.068	-0.153
-147.574	-200.000	0.046	-0.220
-146.560	800.000	0.024	-0.079
-145.545	122.670	0.139	0.174
-144.531	800.000	0.046	0.157
-143.516	-67.959	-0.243	-0.095
-142.502	-105.954	0.265	0.060
-141.487	-186.536	-0.371	0.005
-140.472	259.309	-0.066	-0.113
-139.458	-176.117	-0.099	-0.003
-138.443	-89.597	0.145	-0.042
-137.429	-200.000	-0.038	-0.360
-136.414	4.013	-0.177	0.129
-135.399	213.090	0.013	-0.020
-134.385	473.416	-0.164	-0.368
-133.370	-200.000	0.040	-0.216
-132.356	-46.749	0.042	-0.020
-131.341	-200.000	0.026	0.118
-130.326	-69.151	0.114	-0.044
-129.312	128.196	-0.028	0.035
-128.297	75.327	-0.079	-0.083
-127.283	-13.283	-0.171	-0.111
-126.268	84.714	-0.246	-0.269
-125.253	-1.498	0.323	0.228
-124.239	-4.092	-0.153	0.106
-123.224	-26.494	-0.154	-0.090
-122.210	-200.000	-0.002	0.033
