DTS Sentinel unit serial number:	SN413079Multiplexer serial number:	ORYXHardware model number:	OX4-SRSoftware version number:	ORYX F/W v4.00 Oryx Data Collector v3.7.2.0data status	okinstallation	princeton_trtdifferential loss correction	single-endedforward channel	channel 1reverse channel	N/Adate	2019/09/17time	02:06:35forward acquisition time	60.00reverse acquisition time	0.00gamma	496.2192k internal	0.2324k external	0.2324temperature offset calibration	0.9956default loss term (dB/km)	0.3790temperature slope calibration	1.0000multiplexer offset coefficient	1.0000multiplexer slope coefficient	1.0000fibre end	0.00T internal ref (°C)	29.69T ext. ref 1 (°C)	0.12T ext. ref 2 (°C)	24.60length (m)	temperature (°C)	Stokes	anti-Stokes-747.200	226.017	-0.088	-0.144
-746.185	91.493	-0.085	0.097
-745.171	587.324	0.110	0.274
-744.156	-200.000	-0.056	0.330
-743.142	283.844	-0.082	-0.148
-742.127	-158.991	0.245	-0.014
-741.112	30.071	-0.179	0.154
-740.098	2.635	-0.073	-0.053
-739.083	-200.000	0.036	0.456
-738.069	-200.000	0.005	0.215
-737.054	-48.719	0.134	0.065
-736.039	-99.563	0.257	-0.065
-735.025	461.052	0.037	0.083
-734.010	347.762	0.092	0.184
-732.996	800.000	-0.011	-0.035
-731.981	2.700	0.235	0.172
-730.966	800.000	-0.016	-0.055
-729.952	-74.764	-0.335	-0.121
-728.937	-93.715	-0.411	0.114
-727.923	-94.935	0.125	-0.034
-726.908	-200.000	0.028	-0.240
-725.894	-60.137	-0.122	-0.053
-724.879	-103.875	-0.194	0.046
-723.864	-80.365	-0.188	0.063
-722.850	-200.000	0.029	-0.285
-721.835	115.922	0.068	0.084
-720.821	-90.798	0.122	-0.035
-719.806	-97.222	0.134	-0.035
-718.791	800.000	-0.028	-0.118
-717.777	-200.000	0.011	-0.175
-716.762	71.184	0.145	0.152
-715.748	359.234	0.054	0.109
-714.733	800.000	-0.114	0.373
-713.718	-48.812	-0.128	-0.062
-712.704	40.186	0.080	-0.073
-711.689	31.282	-0.181	-0.156
-710.675	32.321	0.190	0.166
-709.660	73.929	-0.053	-0.056
-708.645	77.259	0.057	-0.061
-707.631	800.000	-0.085	-0.276
-706.616	-51.001	-0.198	-0.093
-705.602	-130.967	0.175	-0.024
-704.587	-13.419	0.235	-0.153
-703.572	571.565	-0.049	-0.120
-702.558	-21.629	-0.233	-0.143
-701.543	-91.746	0.118	-0.034
-700.529	60.476	0.159	0.159
-699.514	-200.000	0.020	0.093
-698.499	122.312	-0.032	0.040
-697.485	-55.160	0.140	0.063
-696.470	800.000	-0.093	0.263
-695.456	-73.258	-0.051	0.019
-694.441	133.276	0.200	0.260
-693.426	-82.830	-0.267	0.087
-692.412	-49.861	-0.168	0.080
-691.397	-200.000	0.001	-0.083
-690.383	800.000	-0.085	-0.285
-689.368	118.201	0.059	0.073
-688.354	115.592	-0.105	-0.129
-687.339	24.711	-0.130	-0.108
-686.324	252.007	0.138	0.237
-685.310	-200.000	-0.018	-0.199
-684.295	91.312	0.084	0.095
-683.281	-33.361	-0.089	0.049
-682.266	183.455	-0.085	0.126
-681.251	39.092	-0.031	0.028
-680.237	-31.300	-0.187	-0.106
-679.222	-155.629	-0.394	-0.025
-678.208	800.000	-0.032	0.114
-677.193	228.517	0.088	-0.144
-676.178	472.226	0.079	0.179
-675.164	-100.847	-0.316	0.078
-674.149	-200.000	-0.068	-0.454
-673.135	-51.428	-0.131	-0.062
-672.120	130.867	-0.203	-0.263
-671.105	-11.187	0.294	-0.195
-670.091	-200.000	0.002	0.176
-669.076	12.449	0.219	0.170
-668.062	23.259	-0.080	0.066
-667.047	76.043	0.045	0.048
-666.032	31.091	0.140	0.121
-665.018	170.308	-0.129	-0.185
-664.003	-66.923	-0.236	0.094
-662.989	-41.206	-0.173	0.090
-661.974	-58.446	-0.254	0.111
-660.959	157.087	0.249	-0.346
-659.945	1.304	-0.040	-0.029
-658.930	-200.000	-0.014	0.219
-657.916	-200.000	0.032	0.215
-656.901	-26.221	0.167	-0.099
-655.886	800.000	-0.062	0.272
-654.872	-36.327	-0.174	-0.094
-653.857	-200.000	-0.055	0.429
-652.843	322.170	0.021	-0.040
-651.828	-2.849	-0.147	0.103
-650.814	534.061	0.108	0.258
-649.799	800.000	0.052	-0.149
-648.784	-41.107	0.171	-0.089
-647.770	-200.000	0.039	-0.186
-646.755	-19.219	0.072	-0.045
-645.741	-200.000	-0.038	-0.255
-644.726	-68.845	-0.159	-0.062
-643.711	284.162	-0.020	0.036
-642.697	305.684	-0.059	-0.110
-641.682	296.369	0.142	-0.261
-640.668	-200.000	-0.026	0.139
-639.653	-143.044	-0.222	0.022
-638.638	-34.892	-0.292	-0.160
-637.624	-18.797	-0.130	0.081
-636.609	-200.000	0.035	0.171
-635.595	153.885	0.046	-0.064
-634.580	-139.391	-0.213	0.023
-633.565	572.727	-0.139	0.342
-632.551	-134.328	-0.270	0.033
-631.536	189.379	-0.115	0.173
-630.522	-133.964	0.251	-0.031
-629.507	-86.300	-0.204	-0.063
-628.492	800.000	0.083	0.312
-627.478	21.564	-0.136	-0.111
-626.463	-200.000	0.014	-0.150
-625.449	-200.000	0.008	0.177
-624.434	-146.811	-0.224	-0.019
-623.419	-200.000	0.018	-0.198
-622.405	-38.402	0.086	-0.046
-621.390	-200.000	-0.007	0.113
-620.376	-71.901	0.064	0.024
-619.361	147.617	-0.100	-0.135
-618.346	149.654	0.078	-0.106
-617.332	609.165	-0.155	-0.390
-616.317	-89.627	-0.384	-0.113
-615.303	-134.589	-0.240	-0.029
-614.288	800.000	-0.080	-0.287
-613.273	239.782	-0.184	0.308
-612.259	-96.755	-0.366	0.097
-611.244	-200.000	0.021	-0.169
-610.230	-200.000	-0.029	-0.159
-609.215	-53.697	0.139	0.064
-608.201	501.846	0.047	0.110
-607.186	-158.377	-0.228	-0.013
-606.171	379.473	-0.118	-0.243
-605.157	-58.230	0.084	-0.037
-604.142	65.735	-0.198	0.201
-603.128	800.000	-0.064	-0.271
-602.113	27.957	0.250	-0.211
-601.098	288.401	0.143	-0.260
-600.084	-78.714	-0.236	-0.081
-599.069	-31.552	0.210	0.119
-598.055	86.911	-0.119	0.132
-597.040	-68.729	0.140	-0.054
-596.025	-5.724	-0.182	-0.125
-595.011	468.607	-0.059	0.133
-593.996	-142.222	0.026	-0.003
-592.982	48.080	-0.141	-0.133
-591.967	-79.956	0.229	-0.077
-590.952	43.736	-0.229	-0.210
-589.938	-108.379	0.262	-0.057
-588.923	216.106	-0.132	-0.211
-587.909	253.039	-0.125	-0.214
-586.894	-200.000	0.005	-0.176
-585.879	-133.795	-0.218	-0.027
-584.865	90.965	-0.251	0.282
-583.850	-4.592	-0.084	-0.058
-582.836	34.774	-0.306	-0.268
-581.821	56.199	0.104	-0.102
-580.806	631.939	-0.084	0.213
-579.792	763.356	-0.089	0.241
-578.777	36.235	0.052	0.046
-577.763	688.065	-0.043	0.112
-576.748	-9.295	0.172	0.115
-575.733	-150.553	0.141	-0.011
-574.719	275.954	0.129	0.230
-573.704	244.101	-0.090	-0.152
-572.690	26.953	-0.225	-0.189
-571.675	-200.000	-0.000	0.165
-570.661	-176.348	-0.328	0.009
-569.646	-46.303	-0.220	-0.108
-568.631	52.934	0.071	-0.068
-567.617	-183.726	0.127	-0.002
-566.602	115.141	0.219	-0.267
-565.588	-192.213	-0.166	-0.002
-564.573	-85.550	-0.325	-0.101
-563.558	-114.010	0.230	0.045
-562.544	-62.420	0.044	0.019
-561.529	-57.841	-0.222	0.097
-560.515	391.099	0.080	-0.167
-559.500	19.810	0.174	0.141
-558.485	-54.802	-0.073	0.033
-557.471	-64.303	0.228	-0.093
-556.456	-59.303	0.354	-0.153
-555.442	-129.117	0.026	0.004
-554.427	-139.165	-0.229	0.025
-553.412	-200.000	-0.016	0.070
-552.398	133.106	-0.307	-0.398
-551.383	800.000	0.070	-0.207
-550.369	283.279	-0.009	-0.016
-549.354	127.240	0.124	0.157
-548.339	-174.600	-0.267	-0.008
-547.325	-43.445	0.328	0.166
-546.310	-145.630	0.141	-0.013
-545.296	-34.074	0.151	-0.083
-544.281	127.026	0.159	0.202
-543.266	83.017	-0.237	0.258
-542.252	75.893	0.243	0.258
-541.237	800.000	-0.105	0.356
-540.223	-200.000	0.014	-0.071
-539.208	4.374	0.111	-0.082
-538.193	-38.529	-0.184	-0.097
-537.179	-138.616	0.082	-0.009
-536.164	170.776	0.029	0.042
-535.150	-69.266	0.057	-0.022
-534.135	-200.000	-0.000	-0.362
-533.121	-200.000	0.005	-0.296
-532.106	-200.000	0.004	0.170
-531.091	362.900	0.124	0.248
-530.077	-76.674	-0.305	0.107
-529.062	244.514	-0.093	-0.157
-528.048	443.467	0.176	0.386
-527.033	88.394	-0.116	-0.129
-526.018	259.795	0.212	-0.367
-525.004	51.529	0.169	0.161
-523.989	-26.997	-0.164	-0.096
-522.975	-47.206	-0.277	0.135
-521.960	154.262	-0.024	-0.033
-520.945	-163.721	0.387	-0.018
-519.931	-91.726	-0.344	-0.098
-518.916	25.819	-0.166	-0.138
-517.902	-118.542	0.035	-0.006
-516.887	67.573	-0.233	-0.238
-515.872	-200.000	0.024	-0.182
-514.858	-39.274	-0.170	-0.089
-513.843	212.710	-0.004	-0.007
-512.829	125.292	0.085	-0.107
-511.814	800.000	-0.033	0.119
-510.799	-57.018	0.151	-0.067
-509.785	-21.443	-0.162	-0.099
-508.770	-200.000	0.062	0.528
-507.756	-200.000	0.007	0.099
-506.741	-200.000	-0.019	0.641
-505.726	-113.054	0.118	0.023
-504.712	-90.033	0.058	-0.017
-503.697	-115.330	-0.353	-0.067
-502.683	302.437	0.091	-0.169
-501.668	25.443	-0.100	0.083
-500.653	30.699	-0.077	-0.066
-499.639	202.350	0.335	-0.516
-498.624	-200.000	0.048	0.217
-497.610	-53.006	-0.228	0.105
-496.595	-77.763	0.154	-0.053
-495.581	193.734	0.213	0.323
-494.566	41.589	0.057	0.052
-493.551	287.471	-0.093	-0.169
-492.537	39.695	0.131	0.118
-491.522	186.577	-0.237	0.353
-490.508	-123.715	-0.042	-0.007
-489.493	-135.486	-0.165	0.020
-488.478	634.171	-0.174	-0.442
-487.464	800.000	0.058	0.248
-486.449	-53.948	0.105	-0.048
-485.435	-66.782	0.096	0.038
-484.420	-63.147	-0.286	-0.118
-483.405	274.843	0.026	0.046
-482.391	391.022	-0.116	-0.242
-481.376	240.558	0.131	0.217
-480.362	-37.325	-0.018	-0.009
-479.347	27.060	-0.010	0.008
-478.332	800.000	-0.053	-0.204
-477.318	-200.000	0.031	-0.250
-476.303	-100.481	-0.107	0.026
-475.289	683.875	0.112	0.293
-474.274	582.311	-0.058	-0.143
-473.259	-108.474	0.214	-0.046
-472.245	366.081	0.170	0.343
-471.230	14.872	-0.106	-0.083
-470.216	800.000	0.088	0.312
-469.201	130.894	0.145	0.186
-468.186	59.547	-0.058	0.057
-467.172	-42.924	0.307	-0.156
-466.157	-200.000	-0.000	-0.015
-465.143	800.000	0.066	-0.215
-464.128	134.299	-0.168	-0.218
-463.113	800.000	-0.161	-0.536
-462.099	-200.000	-0.028	-0.126
-461.084	-26.585	0.238	0.139
-460.070	-68.329	0.205	-0.080
-459.055	-50.675	-0.272	-0.128
-458.040	-200.000	0.213	0.001
-457.026	327.169	0.106	-0.202
-456.011	-200.000	0.071	-0.344
-454.997	145.094	0.106	0.142
-453.982	-120.624	-0.472	0.080
-452.968	213.186	-0.052	-0.082
-451.953	215.108	-0.131	-0.207
-450.938	-110.622	0.139	0.029
-449.924	-95.248	-0.390	0.105
-448.909	-145.673	0.382	0.034
-447.895	397.463	-0.112	-0.234
-446.880	115.298	-0.109	-0.133
-445.865	175.448	0.167	0.242
-444.851	-80.991	-0.297	-0.098
-443.836	-72.064	-0.232	-0.086
-442.822	-200.000	-0.007	-0.100
-441.807	319.435	0.112	0.212
-440.792	-144.060	0.048	-0.005
-439.778	89.366	-0.097	-0.108
-438.763	205.917	0.087	0.136
-437.749	630.531	-0.087	-0.220
-436.734	-200.000	-0.002	-0.069
-435.719	-32.945	0.298	0.165
-434.705	10.583	0.137	-0.104
-433.690	800.000	0.077	-0.224
-432.676	578.354	0.088	0.215
-431.661	141.154	0.038	0.051
-430.646	-57.503	0.183	-0.080
-429.632	112.299	0.174	-0.210
-428.617	-200.000	-0.075	-0.411
-427.603	328.388	-0.038	-0.073
-426.588	-96.201	-0.160	-0.042
-425.573	-3.960	-0.258	-0.179
-424.559	800.000	-0.082	-0.240
-423.544	-48.322	-0.163	0.078
-422.530	81.000	-0.081	0.087
-421.515	565.848	-0.096	-0.231
-420.500	318.771	0.102	0.192
-419.486	63.627	0.170	-0.170
-418.471	-70.954	0.204	-0.077
-417.457	270.726	0.072	-0.127
-416.442	119.425	0.125	-0.155
-415.428	313.435	-0.060	0.113
-414.413	800.000	-0.065	0.206
-413.398	800.000	0.052	-0.220
-412.384	-189.041	-0.253	-0.003
-411.369	141.362	-0.185	-0.244
-410.355	-139.384	-0.199	0.021
-409.340	800.000	-0.027	-0.083
-408.325	59.005	0.166	0.163
-407.311	-42.150	0.051	-0.026
-406.296	-200.000	-0.041	-0.367
-405.282	-42.865	-0.271	-0.137
-404.267	800.000	0.019	0.072
-403.252	40.682	0.400	0.359
-402.238	-200.000	0.016	0.116
-401.223	86.013	-0.255	-0.280
-400.209	-200.000	-0.040	-0.195
-399.194	29.474	0.129	-0.109
-398.179	-95.356	-0.289	0.077
-397.165	-116.526	0.196	0.036
-396.150	55.107	0.136	-0.131
-395.136	-165.703	0.377	0.016
-394.121	-200.000	0.023	0.144
-393.106	-96.428	0.188	-0.049
-392.092	-98.923	0.346	0.087
-391.077	236.485	-0.105	0.174
-390.063	-200.000	-0.015	-0.127
-389.048	-76.241	0.203	-0.071
-388.033	229.095	0.102	0.166
-387.019	21.868	-0.227	0.184
-386.004	-200.000	-0.015	-0.269
-384.990	8.219	-0.334	0.250
-383.975	22.122	0.128	0.104
-382.960	-200.000	-0.026	0.263
-381.946	-200.000	0.049	0.267
-380.931	800.000	-0.044	-0.160
-379.917	166.229	-0.133	0.188
-378.902	-102.820	-0.264	0.062
-377.888	-137.526	0.167	0.019
-376.873	-9.348	-0.062	-0.041
-375.858	198.489	0.117	0.178
-374.844	800.000	-0.091	-0.276
-373.829	-38.430	0.192	0.101
-372.815	69.645	0.118	-0.121
-371.800	-111.470	0.247	-0.050
-370.785	800.000	0.038	-0.113
-369.771	-200.000	-0.028	-0.337
-368.756	-200.000	0.005	-0.281
-367.742	-200.000	0.041	-0.204
-366.727	-17.190	0.165	-0.103
-365.712	117.098	0.170	0.208
-364.698	124.932	-0.153	-0.192
-363.683	-133.252	0.229	0.029
-362.669	-35.970	0.225	0.121
-361.654	-200.000	0.122	0.539
-360.639	-200.000	0.112	0.515
-359.625	60.922	0.183	-0.180
-358.610	-54.132	-0.294	-0.133
-357.596	-1.550	-0.206	-0.144
-356.581	-55.056	-0.363	0.163
-355.566	-12.175	0.307	0.200
-354.552	-80.693	-0.190	-0.063
-353.537	-108.275	-0.347	0.074
-352.523	-29.301	0.304	-0.173
-351.508	800.000	0.136	0.407
-350.493	9.638	0.037	-0.028
-349.479	-164.177	-0.530	0.024
-348.464	800.000	-0.126	0.345
-347.450	796.704	-0.054	0.148
-346.435	-117.105	0.170	0.031
-345.420	-106.094	-0.123	-0.028
-344.406	-16.190	-0.106	0.067
-343.391	-200.000	-0.003	-0.117
-342.377	96.665	-0.111	0.126
-341.362	178.205	-0.059	-0.086
-340.348	-80.331	0.110	-0.036
-339.333	79.639	-0.059	0.063
-338.318	305.636	0.056	-0.104
-337.304	-45.783	-0.085	-0.041
-336.289	5.474	-0.113	0.083
-335.275	499.868	0.076	0.175
-334.260	138.480	0.175	0.228
-333.245	-8.246	0.263	0.176
-332.231	-139.486	0.320	0.034
-331.216	-200.000	-0.003	0.036
-330.202	-200.000	-0.035	-0.193
-329.187	-41.665	-0.321	0.164
-328.172	-109.595	-0.305	-0.064
-327.158	-187.248	0.447	0.006
-326.143	800.000	0.036	0.107
-325.129	-200.000	-0.021	-0.160
-324.114	-14.903	0.171	-0.109
-323.099	-78.476	0.039	-0.013
-322.085	49.139	-0.095	0.089
-321.070	-79.686	-0.222	-0.074
-320.056	115.386	0.127	0.154
-319.041	800.000	-0.022	0.091
-318.026	-20.090	-0.198	-0.121
-317.012	800.000	0.082	-0.238
-315.997	13.846	0.134	0.103
-314.983	-102.659	0.083	0.020
-313.968	85.613	0.186	-0.203
-312.953	-200.000	-0.047	0.371
-311.939	-56.661	0.444	0.195
-310.924	-59.674	0.226	-0.096
-309.910	-92.886	0.281	0.078
-308.895	32.539	-0.110	0.095
-307.880	7.417	-0.096	0.071
-306.866	53.663	-0.089	0.085
-305.851	223.431	0.046	-0.074
-304.837	-200.000	-0.028	0.185
-303.822	-108.121	-0.316	0.068
-302.807	576.636	0.111	-0.269
-301.793	-161.397	-0.158	-0.008
-300.778	-111.687	0.132	-0.027
-299.764	8.049	-0.181	-0.135
-298.749	-2.284	0.242	-0.169
-297.735	222.627	0.069	0.111
-296.720	-51.321	-0.146	-0.068
-295.705	800.000	0.074	0.210
-294.691	647.429	0.094	0.239
-293.676	-52.004	-0.147	0.068
-292.662	-173.583	0.143	0.004
-291.647	-200.000	-0.021	-0.369
-290.632	-109.003	-0.290	0.061
-289.618	-14.600	-0.230	-0.147
-288.603	207.073	0.031	0.049
-287.589	-47.837	-0.211	-0.101
-286.574	-200.000	0.020	0.147
-285.559	199.351	0.086	0.131
-284.545	-18.217	0.028	-0.018
-283.530	-200.000	0.002	0.118
-282.516	18.864	-0.120	0.095
-281.501	-148.883	-0.266	0.021
-280.486	-80.412	0.209	0.069
-279.472	-200.000	0.080	-0.392
-278.457	-200.000	0.005	0.189
-277.443	-94.649	0.102	0.028
-276.428	-125.558	0.345	-0.052
-275.413	800.000	-0.051	0.154
-274.399	-46.774	-0.066	-0.032
-273.384	-161.855	-0.276	0.014
-272.370	-71.021	0.200	0.075
-271.355	800.000	0.083	0.305
-270.340	-161.353	-0.137	-0.007
-269.326	-136.279	0.258	0.030
-268.311	251.614	-0.241	0.407
-267.297	-147.724	0.369	0.031
-266.282	-200.000	0.015	-0.086
-265.267	109.320	-0.112	0.133
-264.253	-126.540	-0.391	-0.058
-263.238	-81.279	-0.202	0.066
-262.224	73.863	-0.155	0.161
-261.209	52.330	-0.113	0.107
-260.195	-172.310	-0.275	0.009
-259.180	-22.471	-0.347	0.208
-258.165	-88.120	0.268	-0.080
-257.151	418.422	0.144	0.304
-256.136	5.817	-0.230	-0.168
-255.122	121.774	0.110	0.135
-254.107	195.085	0.129	0.194
-253.092	-200.000	0.002	0.011
-252.078	800.000	-0.069	0.241
-251.063	223.544	-0.074	-0.118
-250.049	421.372	0.062	-0.132
-249.034	800.000	-0.075	0.297
-248.019	-9.543	0.245	0.161
-247.005	682.874	0.114	0.293
-245.990	-124.037	0.326	-0.051
-244.976	90.890	-0.218	-0.242
-243.961	-200.000	-0.021	-0.333
-242.946	-125.595	0.382	0.057
-241.932	-200.000	-0.016	-0.337
-240.917	-20.950	-0.050	-0.030
-239.903	233.643	-0.237	0.387
-238.888	-51.933	-0.356	0.164
-237.873	283.227	0.046	0.082
-236.859	800.000	0.099	-0.324
-235.844	-200.000	-0.040	0.184
-234.830	-200.000	-0.017	0.104
-233.815	-54.351	-0.263	-0.118
-232.800	-112.021	0.111	-0.022
-231.786	144.316	-0.192	0.254
-230.771	107.735	-0.312	0.368
-229.757	676.643	-0.034	-0.086
-228.742	213.689	-0.066	-0.104
-227.727	271.548	-0.116	-0.202
-226.713	-57.159	0.294	0.128
-225.698	28.315	0.122	-0.102
-224.684	405.280	0.109	0.227
-223.669	-89.085	-0.056	0.016
-222.655	239.457	-0.107	0.176
-221.640	-189.374	0.338	-0.004
-220.625	-138.960	-0.063	0.007
-219.611	29.485	-0.241	0.203
-218.596	-5.205	-0.157	-0.107
-217.582	119.705	-0.185	0.227
-216.567	-41.152	0.450	0.230
-215.552	-109.290	0.236	-0.050
-214.538	-161.651	-0.045	0.002
-213.523	-200.000	0.017	-0.222
-212.509	-60.344	0.100	0.042
-211.494	-107.163	0.354	0.077
-210.479	-55.193	0.121	-0.054
-209.465	-92.423	-0.203	-0.056
-208.450	-9.802	0.102	0.067
-207.436	-41.690	0.135	-0.069
-206.421	1.422	-0.290	-0.206
-205.406	-139.090	0.167	0.018
-204.392	274.248	-0.072	-0.125
-203.377	-94.564	-0.242	0.065
-202.363	17.086	0.149	-0.117
-201.348	800.000	0.067	-0.211
-200.333	-179.915	-0.171	0.004
-199.319	-68.226	0.179	-0.069
-198.304	-200.000	0.007	0.284
-197.290	82.876	0.199	-0.213
-196.275	800.000	-0.030	-0.086
-195.260	261.292	0.102	-0.174
-194.246	-200.000	0.026	0.112
-193.231	-52.433	0.095	-0.044
-192.217	-46.760	-0.278	0.135
-191.202	644.600	0.103	0.259
-190.187	-144.029	0.136	-0.013
-189.173	-56.485	0.108	-0.047
-188.158	68.833	0.166	-0.168
-187.144	-45.543	0.190	0.093
-186.129	99.160	-0.098	0.112
-185.114	-200.000	0.043	0.318
-184.100	-27.461	0.311	0.179
-183.085	-114.895	0.187	-0.035
-182.071	130.688	0.126	-0.160
-181.056	800.000	0.096	-0.352
-180.042	111.402	0.051	-0.061
-179.027	151.532	-0.029	-0.038
-178.012	-200.000	0.013	-0.235
-176.998	800.000	-0.025	0.102
-175.983	-28.794	0.322	-0.183
-174.969	167.378	-0.085	0.120
-173.954	752.489	0.041	-0.109
-172.939	-101.109	-0.215	-0.052
-171.925	-200.000	-0.034	0.215
-170.910	-200.000	-0.008	-0.052
-169.896	-86.553	0.267	-0.081
-168.881	800.000	-0.106	0.401
-167.866	512.834	-0.085	0.195
-166.852	525.170	-0.141	0.327
-165.837	-112.428	0.164	0.032
-164.823	423.146	-0.034	0.072
-163.808	90.452	-0.161	-0.178
-162.793	373.788	0.108	0.217
-161.779	124.485	0.161	0.200
-160.764	169.677	0.131	0.185
-159.750	156.695	0.090	0.123
-158.735	659.108	0.131	-0.331
-157.720	-38.910	0.360	-0.187
-156.706	310.813	-0.100	0.186
-155.691	-78.845	0.378	-0.127
-154.677	-200.000	0.000	0.115
-153.662	80.668	0.187	0.199
-152.647	-200.000	-0.008	-0.172
-151.633	-116.353	0.252	-0.046
-150.618	-115.263	0.231	-0.043
-149.604	85.190	0.237	-0.256
-148.589	657.046	-0.113	-0.286
-147.574	51.757	-0.127	-0.119
-146.560	24.318	0.136	0.111
-145.545	800.000	0.061	0.236
-144.531	-200.000	-0.031	0.249
-143.516	313.390	-0.041	0.076
-142.502	-140.980	-0.356	-0.036
-141.487	-0.419	0.224	0.157
-140.472	150.974	-0.149	-0.200
-139.458	-161.903	-0.245	0.012
-138.443	80.110	-0.292	0.309
-137.429	-91.668	0.081	-0.023
-136.414	101.518	0.031	-0.036
-135.399	95.357	0.108	0.121
-134.385	-17.407	0.011	0.007
-133.370	800.000	-0.092	-0.337
-132.356	-105.504	0.071	-0.016
-131.341	75.942	-0.212	-0.221
-130.326	359.689	0.162	0.320
-129.312	-122.570	-0.235	0.038
-128.297	112.437	-0.146	-0.174
-127.283	-200.000	-0.001	-0.234
-126.268	-200.000	-0.016	-0.085
-125.253	-132.992	0.219	-0.027
-124.239	-200.000	-0.044	-0.225
-123.224	800.000	0.014	-0.042
-122.210	-200.000	0.021	0.132
-121.195	-114.258	0.200	0.038
