DTS Sentinel unit serial number:	SN413079Multiplexer serial number:	ORYXHardware model number:	OX4-SRSoftware version number:	ORYX F/W v4.00 Oryx Data Collector v3.7.2.0data status	okinstallation	princeton_trtdifferential loss correction	single-endedforward channel	channel 1reverse channel	N/Adate	2019/09/17time	12:38:35forward acquisition time	60.00reverse acquisition time	0.00gamma	496.2192k internal	0.2317k external	0.2317temperature offset calibration	0.9970default loss term (dB/km)	0.3790temperature slope calibration	1.0000multiplexer offset coefficient	1.0000multiplexer slope coefficient	1.0000fibre end	0.00T internal ref (°C)	32.25T ext. ref 1 (°C)	0.44T ext. ref 2 (°C)	29.95length (m)	temperature (°C)	Stokes	anti-Stokes-747.200	800.000	0.083	-0.320
-746.185	-142.842	-0.101	-0.010
-745.171	-158.649	0.370	0.022
-744.156	109.277	-0.130	0.157
-743.142	68.737	0.152	0.158
-742.127	160.551	-0.143	0.202
-741.112	-90.715	0.075	0.022
-740.098	800.000	0.026	0.077
-739.083	159.894	0.195	-0.275
-738.069	-60.340	0.129	0.056
-737.054	-200.000	-0.012	0.225
-736.039	-200.000	-0.029	0.134
-735.025	800.000	-0.060	-0.185
-734.010	-109.683	-0.211	0.045
-732.996	34.224	-0.225	-0.199
-731.981	-200.000	0.024	-0.270
-730.966	-59.289	0.132	-0.058
-729.952	-13.736	-0.284	-0.186
-728.937	-100.057	-0.090	0.023
-727.923	625.676	0.144	0.369
-726.908	-200.000	-0.021	-0.240
-725.894	800.000	-0.045	0.176
-724.879	-105.793	0.295	0.067
-723.864	188.949	-0.098	-0.149
-722.850	-85.054	0.115	0.036
-721.835	54.910	-0.188	-0.184
-720.821	-120.711	0.210	-0.036
-719.806	365.165	0.074	-0.151
-718.791	126.336	-0.155	-0.198
-717.777	169.482	-0.086	0.124
-716.762	-88.033	0.100	0.030
-715.748	11.890	-0.232	0.180
-714.733	91.821	-0.240	0.273
-713.718	-71.767	-0.143	-0.054
-712.704	63.652	-0.247	-0.250
-711.689	-200.000	-0.033	0.208
-710.675	220.156	-0.071	0.116
-709.660	-134.488	0.204	-0.025
-708.645	59.553	-0.018	0.018
-707.631	-200.000	-0.027	-0.288
-706.616	800.000	-0.066	-0.252
-705.602	-113.849	0.325	0.064
-704.587	-49.293	-0.315	-0.152
-703.572	-160.124	-0.119	-0.007
-702.558	-131.052	-0.295	-0.040
-701.543	-28.160	0.368	0.215
-700.529	327.457	0.081	0.158
-699.514	414.747	0.054	-0.116
-698.499	-171.885	0.171	-0.006
-697.485	373.756	0.120	-0.246
-696.470	-17.642	0.211	0.134
-695.456	-131.547	0.210	0.028
-694.441	64.628	0.102	0.104
-693.426	376.344	-0.093	-0.191
-692.412	-200.000	0.015	-0.216
-691.397	-21.188	0.224	0.138
-690.383	800.000	0.043	-0.161
-689.368	-200.000	-0.011	-0.144
-688.354	461.924	-0.081	-0.182
-687.339	-200.000	-0.009	-0.148
-686.324	-145.276	-0.201	0.018
-685.310	444.543	0.072	0.159
-684.295	30.172	-0.168	0.145
-683.281	-200.000	-0.022	0.328
-682.266	122.555	-0.086	0.109
-681.251	-200.000	0.006	0.045
-680.237	-200.000	-0.042	-0.450
-679.222	-28.651	0.079	-0.046
-678.208	126.845	0.029	-0.038
-677.193	-106.741	0.246	0.055
-676.178	-200.000	-0.011	-0.241
-675.164	-60.616	-0.199	-0.085
-674.149	-88.981	0.250	0.075
-673.135	-200.000	0.047	0.281
-672.120	33.202	0.198	-0.173
-671.105	-64.875	-0.126	0.051
-670.091	-8.634	-0.192	0.130
-669.076	-117.839	-0.365	-0.066
-668.062	62.827	-0.112	0.114
-667.047	-12.334	-0.143	0.094
-666.032	-200.000	0.018	-0.358
-665.018	-158.963	-0.257	0.015
-664.003	-128.093	-0.127	-0.018
-662.989	286.096	0.158	-0.288
-661.974	-200.000	0.028	-0.181
-660.959	-66.028	0.156	0.063
-659.945	800.000	-0.067	0.221
-658.930	-200.000	0.058	-0.257
-657.916	-173.686	0.030	-0.001
-656.901	33.347	-0.187	-0.164
-655.886	15.446	0.104	0.083
-654.872	186.131	-0.008	0.012
-653.857	-92.048	-0.187	-0.053
-652.843	34.243	-0.085	-0.074
-651.828	-52.150	-0.120	0.056
-650.814	2.047	0.115	0.083
-649.799	800.000	-0.038	0.140
-648.784	106.528	-0.235	-0.281
-647.770	119.575	0.058	0.072
-646.755	384.207	0.064	-0.133
-645.741	-22.097	0.082	-0.050
-644.726	800.000	0.005	-0.016
-643.711	-15.585	-0.046	-0.030
-642.697	122.463	-0.051	-0.064
-641.682	6.177	0.183	0.137
-640.668	25.680	-0.087	-0.073
-639.653	154.840	0.095	-0.132
-638.638	-200.000	0.001	0.142
-637.624	-47.708	0.343	-0.168
-636.609	-63.869	-0.193	0.080
-635.595	102.145	-0.234	0.275
-634.580	-200.000	0.005	-0.119
-633.565	117.716	0.148	0.183
-632.551	-73.564	-0.157	0.058
-631.536	711.703	-0.075	0.200
-630.522	277.049	-0.083	-0.149
-629.507	-200.000	-0.053	0.269
-628.492	-104.884	0.050	-0.012
-627.478	-200.000	0.014	-0.384
-626.463	-200.000	-0.022	-0.099
-625.449	-200.000	0.016	0.129
-624.434	407.849	0.060	-0.127
-623.419	422.244	0.127	-0.274
-622.405	139.819	0.035	-0.046
-621.390	409.205	0.065	0.138
-620.376	-200.000	0.096	-0.439
-619.361	7.850	0.288	-0.218
-618.346	-133.824	0.264	0.033
-617.332	-49.778	-0.124	0.059
-616.317	-76.999	-0.103	-0.036
-615.303	800.000	0.064	-0.193
-614.288	109.815	0.050	0.060
-613.273	23.488	-0.194	0.161
-612.259	800.000	-0.086	-0.304
-611.244	-30.689	0.159	0.091
-610.230	-200.000	-0.059	-0.265
-609.215	-58.469	-0.390	0.171
-608.201	14.038	-0.295	0.231
-607.186	-200.000	-0.033	0.186
-606.171	75.158	-0.057	0.061
-605.157	29.342	-0.156	-0.134
-604.142	38.875	-0.117	0.105
-603.128	-44.365	0.104	0.053
-602.113	283.031	0.107	-0.193
-601.098	-200.000	0.052	-0.271
-600.084	51.639	0.166	-0.159
-599.069	800.000	-0.108	0.340
-598.055	-90.750	0.196	-0.057
-597.040	-200.000	-0.019	-0.091
-596.025	247.860	0.018	-0.030
-595.011	-200.000	-0.026	-0.146
-593.996	189.522	-0.110	-0.167
-592.982	800.000	-0.084	-0.278
-591.967	65.925	0.275	0.281
-590.952	-79.852	0.176	-0.060
-589.938	-200.000	-0.024	0.115
-588.923	800.000	0.163	0.472
-587.909	-200.000	-0.013	-0.107
-586.894	-159.129	0.363	0.021
-585.879	-32.646	0.234	0.131
-584.865	800.000	-0.108	0.381
-583.850	147.897	0.054	0.074
-582.836	68.594	0.071	-0.073
-581.821	-200.000	-0.026	0.333
-580.806	34.129	0.148	-0.130
-579.792	107.935	0.090	-0.108
-578.777	-98.710	-0.152	-0.039
-577.763	59.626	-0.102	0.101
-576.748	676.463	-0.060	0.156
-575.733	800.000	0.026	0.115
-574.719	800.000	0.111	-0.340
-573.704	800.000	0.013	0.050
-572.690	53.118	-0.105	-0.101
-571.675	-200.000	0.046	0.473
-570.661	-200.000	-0.040	-0.248
-569.646	-168.766	0.036	0.001
-568.631	0.133	-0.156	0.112
-567.617	800.000	0.024	0.071
-566.602	-99.115	-0.223	0.057
-565.588	70.392	-0.278	-0.289
-564.573	-114.881	0.206	-0.039
-563.558	420.580	-0.110	-0.236
-562.544	-152.527	0.204	0.015
-561.529	-119.797	0.041	0.007
-560.515	92.632	0.290	-0.328
-559.500	-200.000	0.032	-0.210
-558.485	85.753	0.098	-0.108
-557.471	-200.000	0.002	0.315
-556.456	-117.396	0.446	0.081
-555.442	432.561	0.028	-0.060
-554.427	147.666	-0.044	0.059
-553.412	13.003	-0.333	-0.259
-552.398	-200.000	-0.005	0.259
-551.383	-54.813	-0.221	0.100
-550.369	-200.000	0.020	0.201
-549.354	-200.000	0.098	0.500
-548.339	-200.000	-0.010	0.104
-547.325	43.731	-0.191	0.176
-546.310	170.274	0.115	-0.165
-545.296	-115.931	0.171	0.032
-544.281	800.000	-0.057	0.216
-543.266	-200.000	0.001	-0.030
-542.252	359.158	0.134	0.268
-541.237	-200.000	0.079	0.461
-540.223	170.208	0.237	-0.340
-539.208	281.687	-0.072	-0.130
-538.193	-71.852	-0.341	-0.128
-537.179	-47.303	-0.262	-0.128
-536.164	-94.652	0.258	0.070
-535.150	-17.408	0.177	0.112
-534.135	800.000	-0.058	-0.238
-533.121	-17.947	-0.061	0.038
-532.106	-200.000	0.011	0.093
-531.091	-101.191	-0.287	0.070
-530.077	50.798	0.184	-0.175
-529.062	229.398	-0.070	-0.115
-528.048	-56.652	-0.198	0.088
-527.033	110.346	0.164	-0.198
-526.018	-35.466	0.030	0.016
-525.004	246.601	-0.171	-0.289
-523.989	800.000	-0.023	0.071
-522.975	174.753	0.157	-0.228
-521.960	-139.579	-0.201	-0.022
-520.945	800.000	0.002	0.007
-519.931	431.431	-0.076	-0.165
-518.916	-158.334	0.107	-0.006
-517.902	-40.669	-0.296	-0.154
-516.887	735.829	-0.119	0.320
-515.872	-96.342	0.264	-0.070
-514.858	427.420	0.177	-0.384
-513.843	515.216	-0.082	-0.191
-512.829	244.861	0.096	-0.162
-511.814	135.073	0.057	0.075
-510.799	-200.000	-0.039	-0.244
-509.785	-152.699	0.289	-0.021
-508.770	337.776	-0.048	0.093
-507.756	-200.000	-0.005	-0.274
-506.741	-66.066	0.323	0.129
-505.726	-12.879	0.477	-0.312
-504.712	556.774	-0.094	0.227
-503.697	216.852	-0.059	-0.095
-502.683	-200.000	-0.029	-0.231
-501.668	800.000	-0.090	0.306
-500.653	-77.175	0.182	-0.064
-499.639	46.727	-0.026	-0.025
-498.624	-200.000	0.004	-0.159
-497.610	5.511	0.179	-0.133
-496.595	-116.633	-0.274	0.050
-495.581	800.000	0.069	-0.239
-494.566	236.901	-0.179	-0.298
-493.551	-200.000	0.309	-0.001
-492.537	62.857	-0.113	-0.114
-491.522	74.432	-0.057	-0.060
-490.508	-127.310	0.117	-0.017
-489.493	-200.000	0.013	0.318
-488.478	84.090	0.049	0.054
-487.464	200.371	-0.206	0.318
-486.449	706.386	0.078	0.208
-485.435	-95.491	-0.314	-0.084
-484.420	60.931	0.101	-0.100
-483.405	800.000	-0.053	-0.155
-482.391	-174.484	0.460	0.013
-481.376	-200.000	0.019	-0.102
-480.362	-73.546	-0.203	0.074
-479.347	-119.592	-0.311	-0.054
-478.332	-200.000	-0.076	-0.517
-477.318	-76.381	-0.272	-0.096
-476.303	226.411	0.096	0.156
-475.289	159.160	-0.120	0.167
-474.274	-65.379	-0.308	0.124
-473.259	44.016	-0.139	-0.127
-472.245	160.358	-0.083	-0.117
-471.230	30.373	-0.193	-0.165
-470.216	-135.042	-0.139	0.017
-469.201	-200.000	-0.048	-0.511
-468.186	77.722	0.034	-0.036
-467.172	-117.521	0.107	-0.019
-466.157	-200.000	-0.012	0.271
-465.143	246.149	-0.187	0.316
-464.128	-69.141	0.197	-0.076
-463.113	-128.470	-0.238	0.034
-462.099	-200.000	-0.003	-0.303
-461.084	-26.514	-0.107	-0.063
-460.070	10.214	0.261	0.198
-459.055	-48.099	-0.089	0.043
-458.040	-48.476	0.296	-0.143
-457.026	-200.000	-0.042	0.221
-456.011	47.037	-0.105	-0.098
-454.997	-133.409	-0.132	-0.017
-453.982	-111.480	0.172	-0.035
-452.968	800.000	-0.029	0.111
-451.953	-42.816	0.302	0.154
-450.938	453.559	-0.075	-0.167
-449.924	138.266	0.115	0.151
-448.909	-93.904	-0.185	-0.051
-447.895	-52.383	0.151	0.070
-446.880	197.573	-0.231	-0.354
-445.865	206.061	-0.174	-0.271
-444.851	-200.000	0.012	0.075
-443.836	-200.000	-0.007	0.059
-442.822	-145.375	-0.261	0.024
-441.807	-86.464	0.065	0.020
-440.792	-10.289	-0.059	-0.039
-439.778	-141.225	0.354	-0.036
-438.763	-200.000	0.027	0.329
-437.749	198.328	0.086	0.132
-436.734	56.529	-0.183	-0.179
-435.719	173.411	0.158	0.228
-434.705	49.424	-0.122	0.115
-433.690	-200.000	0.011	-0.191
-432.676	-33.031	-0.140	-0.078
-431.661	-69.388	0.275	0.106
-430.646	-36.617	-0.146	0.079
-429.632	-55.411	-0.144	0.064
-428.617	-107.711	0.168	-0.037
-427.603	-198.212	0.257	0.001
-426.588	-11.737	0.242	-0.159
-425.573	-35.039	-0.096	-0.052
-424.559	-60.814	0.133	-0.056
-423.544	622.542	0.090	-0.226
-422.530	-200.000	-0.026	-0.425
-421.515	-103.369	-0.186	-0.044
-420.500	-200.000	0.006	0.439
-419.486	70.040	-0.403	-0.416
-418.471	-34.703	-0.347	0.190
-417.457	237.770	0.146	0.242
-416.442	-3.449	0.434	0.302
-415.428	800.000	-0.066	-0.255
-414.413	-200.000	0.023	-0.268
-413.398	-200.000	0.001	0.133
-412.384	-99.450	0.363	0.091
-411.369	-200.000	-0.019	0.239
-410.355	107.659	0.190	-0.226
-409.340	262.164	0.070	0.122
-408.325	250.983	-0.191	-0.324
-407.311	-155.900	-0.199	0.013
-406.296	-31.426	0.040	0.022
-405.282	-44.932	0.214	0.106
-404.267	102.350	0.112	-0.130
-403.252	-97.523	-0.292	-0.076
-402.238	340.301	-0.060	-0.118
-401.223	-200.000	-0.052	0.501
-400.209	489.892	0.116	0.265
-399.194	736.296	0.088	0.235
-398.179	800.000	-0.066	-0.203
-397.165	39.266	-0.225	0.201
-396.150	800.000	-0.067	-0.292
-395.136	-81.411	-0.149	0.049
-394.121	800.000	0.068	0.239
-393.106	9.789	-0.406	0.307
-392.092	518.354	-0.041	0.097
-391.077	423.282	-0.107	0.230
-390.063	141.898	0.095	0.125
-389.048	-18.126	0.163	0.102
-388.033	-93.640	0.089	0.025
-387.019	-66.734	0.139	-0.055
-386.004	-200.000	-0.028	-0.310
-384.990	-200.000	0.010	0.179
-383.975	-33.660	0.184	0.101
-382.960	181.111	0.038	0.056
-381.946	-200.000	-0.017	0.276
-380.931	-129.359	0.253	-0.035
-379.917	-94.140	-0.150	-0.041
-378.902	-168.274	0.066	0.003
-377.888	-200.000	0.024	-0.448
-376.873	-200.000	-0.022	-0.254
-375.858	63.665	-0.052	-0.052
-374.844	-20.068	-0.102	-0.063
-373.829	97.354	-0.086	0.099
-372.815	86.463	0.108	-0.119
-371.800	-103.583	0.303	0.071
-370.785	-79.376	-0.475	-0.160
-369.771	-110.163	0.072	0.015
-368.756	800.000	0.029	-0.122
-367.742	-200.000	-0.066	0.350
-366.727	49.466	-0.098	0.092
-365.712	-108.731	-0.080	0.017
-364.698	-27.075	-0.121	-0.070
-363.683	-122.199	-0.233	0.038
-362.669	88.298	0.053	0.059
-361.654	800.000	0.083	0.253
-360.639	800.000	-0.049	-0.153
-359.625	-200.000	-0.022	-0.202
-358.610	63.147	-0.060	0.060
-357.596	-100.135	-0.364	-0.090
-356.581	-58.373	-0.266	-0.115
-355.566	-48.871	-0.345	0.165
-354.552	22.721	0.064	-0.052
-353.537	800.000	-0.080	0.268
-352.523	-76.825	0.154	0.054
-351.508	-130.977	0.159	0.021
-350.493	119.331	-0.276	-0.341
-349.479	-166.434	-0.664	0.028
-348.464	96.569	0.082	0.094
-347.450	228.789	0.181	-0.294
-346.435	-147.070	0.069	-0.006
-345.420	-52.782	0.466	-0.214
-344.406	444.360	-0.063	0.137
-343.391	-103.543	-0.293	0.069
-342.377	174.985	-0.086	0.125
-341.362	-200.000	0.007	-0.162
-340.348	54.442	0.166	0.160
-339.333	-123.221	-0.276	-0.044
-338.318	-8.183	0.266	-0.179
-337.304	709.333	-0.059	0.155
-336.289	-23.294	0.017	-0.010
-335.275	87.782	-0.242	-0.267
-334.260	800.000	0.048	-0.156
-333.245	452.962	-0.135	-0.297
-332.231	614.116	0.034	0.084
-331.216	161.091	0.219	-0.306
-330.202	-200.000	0.010	0.305
-329.187	-12.027	0.134	0.087
-328.172	-85.956	0.191	0.059
-327.158	383.066	-0.008	-0.016
-326.143	189.918	0.082	0.122
-325.129	-200.000	0.002	0.061
-324.114	310.507	0.105	0.195
-323.099	170.913	0.179	-0.255
-322.085	-12.178	0.125	-0.082
-321.070	-87.408	-0.448	-0.135
-320.056	-66.809	-0.085	0.033
-319.041	154.348	-0.036	-0.049
-318.026	-124.806	0.172	0.026
-317.012	-172.485	-0.065	0.002
-315.997	79.907	-0.133	0.142
-314.983	561.270	-0.131	-0.316
-313.968	-98.191	-0.147	-0.038
-312.953	-110.557	-0.045	0.009
-311.939	263.519	0.063	0.109
-310.924	-142.990	-0.312	0.030
-309.910	-116.075	0.300	0.056
-308.895	86.677	-0.040	-0.044
-307.880	-30.111	0.181	0.103
-306.866	-112.634	0.165	0.033
-305.851	2.151	0.014	-0.010
-304.837	-51.216	0.092	0.043
-303.822	61.385	0.448	-0.443
-302.807	218.499	-0.016	0.025
-301.793	162.651	-0.165	0.230
-300.778	387.935	-0.011	-0.024
-299.764	58.725	0.051	-0.050
-298.749	-73.361	-0.065	-0.024
-297.735	-200.000	0.034	0.301
-296.720	-200.000	-0.042	0.185
-295.705	18.339	-0.175	0.139
-294.691	-135.655	0.241	0.028
-293.676	800.000	-0.038	-0.113
-292.662	-108.835	-0.226	-0.048
-291.647	247.091	-0.108	-0.182
-290.632	-200.000	-0.048	0.373
-289.618	-73.455	-0.314	0.114
-288.603	-36.714	-0.098	0.053
-287.589	3.981	-0.182	-0.132
-286.574	-200.000	0.003	-0.154
-285.559	-32.932	-0.282	0.156
-284.545	-167.556	0.543	-0.022
-283.530	237.581	0.051	0.084
-282.516	546.482	0.198	0.470
-281.501	-154.710	-0.213	-0.014
-280.486	-200.000	-0.053	0.409
-279.472	144.085	-0.077	-0.102
-278.457	-130.769	0.119	0.016
-277.443	-100.619	0.101	0.025
-276.428	-152.459	0.320	-0.023
-275.413	2.337	-0.075	-0.054
-274.399	800.000	-0.114	0.321
-273.384	-200.000	-0.024	0.125
-272.370	48.151	-0.241	-0.224
-271.355	-7.186	-0.290	-0.195
-270.340	-28.996	0.148	0.085
-269.326	17.942	-0.158	0.125
-268.311	-23.574	0.104	-0.062
-267.297	-28.212	-0.153	-0.088
-266.282	38.561	-0.049	-0.043
-265.267	-151.886	0.161	-0.012
-264.253	646.903	-0.123	-0.311
-263.238	-37.513	0.060	-0.032
-262.224	-113.546	0.202	-0.039
-261.209	-64.170	-0.296	-0.120
-260.195	-96.964	-0.071	-0.019
-259.180	800.000	0.016	-0.053
-258.165	15.898	0.097	0.076
-257.151	-57.871	-0.325	-0.141
-256.136	-4.913	0.188	-0.129
-255.122	-20.149	0.170	0.104
-254.107	-200.000	-0.249	-0.001
-253.092	49.233	0.177	-0.165
-252.078	217.280	-0.201	0.318
-251.063	688.250	-0.062	-0.160
-250.049	192.225	-0.252	-0.378
-249.034	225.349	0.185	0.297
-248.019	108.246	0.116	0.137
-247.005	23.411	-0.185	0.151
-245.990	-72.744	0.273	0.100
-244.976	-133.503	0.104	-0.013
-243.961	-124.584	-0.259	0.040
-242.946	-112.215	0.256	0.051
-241.932	293.557	-0.088	0.160
-240.917	-19.493	0.247	-0.152
-239.903	113.116	0.131	0.158
-238.888	166.258	-0.052	0.073
-237.873	-111.968	-0.205	0.041
-236.859	459.602	0.071	-0.157
-235.844	72.592	-0.065	0.068
-234.830	-23.034	0.182	-0.109
-233.815	-109.980	0.277	0.058
-232.800	-88.541	-0.135	-0.040
-231.786	800.000	0.038	-0.112
-230.771	784.369	-0.053	-0.143
-229.757	-136.205	0.125	0.015
-228.742	40.644	0.151	0.135
-227.727	19.094	-0.173	0.137
-226.713	-200.000	0.018	-0.134
-225.698	-130.806	0.182	0.024
-224.684	-156.377	-0.201	0.012
-223.669	-48.094	-0.155	-0.074
-222.655	-157.738	-0.133	-0.008
-221.640	-113.953	-0.221	0.043
-220.625	-51.423	-0.211	0.098
-219.611	-66.841	0.530	0.208
-218.596	-200.000	-0.032	0.247
-217.582	-139.433	0.306	0.032
-216.567	-102.663	0.314	-0.074
-215.552	-15.194	0.141	0.089
-214.538	40.884	0.092	-0.082
-213.523	-200.000	0.015	0.106
-212.509	-200.000	0.040	-0.473
-211.494	580.440	0.021	0.051
-210.479	1.595	-0.274	0.196
-209.465	-104.658	0.186	-0.042
-208.450	-200.000	-0.043	0.353
-207.436	-88.470	-0.239	-0.071
-206.421	145.490	0.276	0.366
-205.406	-91.146	-0.031	-0.009
-204.392	238.158	-0.142	-0.233
-203.377	-200.000	-0.031	0.148
-202.363	188.072	-0.233	0.345
-201.348	-71.043	-0.246	-0.092
-200.333	-200.000	-0.075	-0.357
-199.319	800.000	0.089	-0.340
-198.304	-73.970	0.237	-0.085
-197.290	-0.835	0.303	0.213
-196.275	5.749	-0.321	-0.235
-195.260	-200.000	-0.064	0.302
-194.246	43.779	0.222	0.201
-193.231	-200.000	-0.037	-0.174
-192.217	274.323	-0.079	0.138
-191.202	-62.708	-0.336	0.138
-190.187	221.739	0.150	-0.239
-189.173	800.000	0.075	0.230
-188.158	800.000	0.042	-0.129
-187.144	800.000	0.029	0.106
-186.129	-107.336	0.288	0.063
-185.114	-114.259	-0.163	-0.031
-184.100	-122.023	-0.324	-0.053
-183.085	116.493	-0.032	0.039
-182.071	-97.866	-0.176	0.045
-181.056	337.093	0.076	0.146
-180.042	-109.814	0.266	-0.055
-179.027	88.396	-0.054	0.060
-178.012	-200.000	-0.043	0.283
-176.998	-143.421	0.077	0.007
-175.983	73.441	0.164	0.170
-174.969	239.418	0.039	0.065
-173.954	43.045	-0.030	-0.027
-172.939	220.958	0.029	-0.046
-171.925	-93.994	0.255	-0.069
-170.910	800.000	0.031	0.119
-169.896	142.126	-0.142	0.186
-168.881	-50.569	0.181	0.084
-167.866	-122.650	-0.052	-0.008
-166.852	-7.687	0.297	0.199
-165.837	179.856	-0.030	-0.044
-164.823	46.359	0.261	-0.240
-163.808	366.068	-0.090	0.179
-162.793	58.364	0.177	0.172
-161.779	-139.377	0.046	0.005
-160.764	-22.310	-0.447	-0.268
-159.750	41.356	-0.203	-0.182
-158.735	-160.236	0.086	0.005
-157.720	-83.420	0.364	-0.115
-156.706	622.459	0.095	0.237
-155.691	-68.606	0.349	-0.134
-154.677	-41.298	0.315	-0.161
-153.662	-160.120	-0.282	0.015
-152.647	-12.820	-0.179	-0.115
-151.633	800.000	0.093	0.253
-150.618	-200.000	0.017	0.282
-149.604	800.000	-0.029	0.115
-148.589	-166.771	0.142	-0.006
-147.574	-200.000	0.025	-0.109
-146.560	-200.000	-0.078	0.349
-145.545	-26.310	0.140	0.081
-144.531	155.015	0.029	0.040
-143.516	-89.908	-0.052	0.015
-142.502	-200.000	0.012	0.354
-141.487	80.596	0.189	0.201
-140.472	32.734	-0.158	0.135
-139.458	-80.059	0.100	0.033
-138.443	800.000	-0.126	0.468
-137.429	37.716	0.220	0.193
-136.414	598.216	0.122	0.299
-135.399	12.146	-0.120	-0.091
-134.385	138.663	-0.064	-0.083
-133.370	31.268	0.134	0.114
-132.356	-11.736	0.290	-0.189
-131.341	-107.746	-0.220	-0.047
-130.326	-32.330	0.057	-0.031
-129.312	168.103	0.040	0.056
-128.297	281.424	0.064	0.113
-127.283	473.477	-0.068	-0.151
-126.268	-69.358	0.093	0.035
-125.253	517.338	-0.088	0.203
-124.239	-93.673	0.264	0.072
-123.224	241.997	0.092	0.151
-122.210	800.000	-0.105	-0.427
-121.195	-200.000	0.021	-0.385
