DTS Sentinel unit serial number:	SN413079Multiplexer serial number:	ORYXHardware model number:	OX4-SRSoftware version number:	ORYX F/W v4.00 Oryx Data Collector v3.7.2.0data status	okinstallation	princeton_trtdifferential loss correction	single-endedforward channel	channel 1reverse channel	N/Adate	2019/09/17time	17:10:35forward acquisition time	60.00reverse acquisition time	0.00gamma	496.2192k internal	0.2292k external	0.2292temperature offset calibration	0.9952default loss term (dB/km)	0.3790temperature slope calibration	1.0000multiplexer offset coefficient	1.0000multiplexer slope coefficient	1.0000fibre end	0.00T internal ref (°C)	42.81T ext. ref 1 (°C)	0.36T ext. ref 2 (°C)	38.98length (m)	temperature (°C)	Stokes	anti-Stokes-747.200	-38.379	-0.157	0.085
-746.185	-200.000	-0.002	0.184
-745.171	120.270	0.108	0.138
-744.156	283.641	-0.101	0.186
-743.142	800.000	0.101	0.317
-742.127	78.164	-0.084	-0.092
-741.112	-98.564	-0.150	0.039
-740.098	800.000	-0.085	0.307
-739.083	53.607	-0.143	-0.140
-738.069	-200.000	-0.024	0.516
-737.054	-200.000	-0.048	-0.240
-736.039	167.267	-0.206	-0.299
-735.025	67.639	0.130	0.136
-734.010	800.000	0.083	-0.282
-732.996	-200.000	-0.003	0.078
-731.981	800.000	0.098	0.399
-730.966	-58.207	0.145	-0.065
-729.952	5.364	-0.070	-0.053
-728.937	-155.238	-0.364	0.024
-727.923	-200.000	-0.016	0.085
-726.908	267.112	-0.186	-0.333
-725.894	81.816	-0.118	-0.130
-724.879	-4.071	-0.050	0.035
-723.864	-200.000	-0.062	-0.560
-722.850	-112.185	-0.130	0.027
-721.835	-37.699	-0.164	0.089
-720.821	467.908	0.040	-0.093
-719.806	-55.520	-0.127	-0.058
-718.791	68.058	-0.191	-0.200
-717.777	39.344	0.164	-0.150
-716.762	280.365	-0.262	-0.478
-715.748	-79.453	0.145	-0.050
-714.733	26.866	-0.280	0.240
-713.718	-74.812	0.190	0.070
-712.704	-52.708	-0.262	0.124
-711.689	-200.000	-0.004	-0.244
-710.675	42.773	0.180	-0.168
-709.660	211.802	-0.204	-0.329
-708.645	800.000	0.045	0.132
-707.631	-182.478	-0.223	-0.004
-706.616	181.898	-0.064	0.096
-705.602	800.000	-0.062	-0.240
-704.587	8.368	0.114	0.087
-703.572	67.456	-0.288	0.301
-702.558	-184.712	-0.456	-0.007
-701.543	-17.818	0.285	0.183
-700.529	120.520	0.055	-0.069
-699.514	325.576	-0.101	-0.197
-698.499	-153.642	-0.090	0.006
-697.485	590.732	-0.105	-0.265
-696.470	-161.529	0.097	-0.005
-695.456	139.095	-0.102	-0.137
-694.441	-28.110	-0.108	0.064
-693.426	-200.000	-0.002	0.131
-692.412	562.016	-0.126	0.312
-691.397	-32.665	-0.160	0.091
-690.383	574.856	-0.103	0.257
-689.368	-23.980	-0.141	0.086
-688.354	321.086	0.022	0.043
-687.339	-4.243	-0.196	0.138
-686.324	-122.918	-0.099	-0.016
-685.310	-128.756	0.257	0.037
-684.295	-71.141	-0.090	-0.034
-683.281	469.318	0.104	0.239
-682.266	-6.525	-0.302	-0.210
-681.251	230.375	-0.052	0.087
-680.237	-58.730	0.048	-0.021
-679.222	696.678	0.030	0.079
-678.208	-78.115	-0.233	-0.082
-677.193	543.617	-0.086	-0.210
-676.178	800.000	0.027	0.099
-675.164	-26.804	0.016	0.009
-674.149	44.266	-0.070	0.066
-673.135	-200.000	0.001	-0.083
-672.120	-129.709	-0.116	0.016
-671.105	378.609	0.219	0.457
-670.091	-200.000	0.037	-0.208
-669.076	-200.000	0.066	-0.345
-668.062	-43.145	-0.165	0.085
-667.047	83.678	-0.257	0.286
-666.032	-30.844	0.255	0.147
-665.018	-200.000	-0.001	-0.248
-664.003	-82.827	-0.129	-0.042
-662.989	800.000	0.058	-0.228
-661.974	8.922	0.064	-0.049
-660.959	-11.384	0.110	0.074
-659.945	-200.000	0.010	-0.362
-658.930	-170.410	0.281	0.010
-657.916	-125.834	0.138	-0.021
-656.901	-200.000	0.041	-0.329
-655.886	719.871	-0.128	-0.347
-654.872	179.876	0.207	-0.310
-653.857	-200.000	-0.002	-0.067
-652.843	800.000	-0.071	0.206
-651.828	-200.000	0.008	-0.245
-650.814	610.094	0.064	-0.162
-649.799	-32.029	0.084	0.048
-648.784	-200.000	-0.002	0.330
-647.770	-76.655	-0.211	0.075
-646.755	-45.511	-0.106	0.054
-645.741	800.000	-0.109	-0.328
-644.726	250.378	-0.151	0.261
-643.711	-85.772	0.185	0.058
-642.697	800.000	-0.081	-0.290
-641.682	800.000	-0.036	0.123
-640.668	429.346	-0.090	-0.199
-639.653	-47.971	-0.217	0.107
-638.638	-185.105	-0.124	-0.002
-637.624	-116.441	0.227	0.043
-636.609	163.837	-0.277	0.398
-635.595	-68.627	0.193	0.076
-634.580	-200.000	-0.085	-0.437
-633.565	-159.739	-0.197	0.011
-632.551	301.956	0.118	-0.222
-631.536	118.324	-0.036	-0.045
-630.522	2.621	0.043	0.032
-629.507	18.486	-0.134	-0.110
-628.492	-200.000	-0.057	-0.335
-627.478	-52.283	-0.297	-0.140
-626.463	29.619	0.263	-0.228
-625.449	220.165	-0.105	0.171
-624.434	-200.000	0.012	-0.239
-623.419	7.132	0.270	0.205
-622.405	389.780	-0.100	0.212
-621.390	800.000	0.016	-0.054
-620.376	-12.188	-0.119	-0.079
-619.361	20.313	0.409	-0.336
-618.346	-93.983	-0.245	0.069
-617.332	442.315	0.053	-0.119
-616.317	355.239	-0.034	-0.069
-615.303	290.348	0.134	0.248
-614.288	414.381	0.142	-0.308
-613.273	165.868	-0.044	0.063
-612.259	276.622	-0.098	0.177
-611.244	800.000	0.139	-0.410
-610.230	-81.671	-0.243	0.081
-609.215	-18.593	0.140	-0.089
-608.201	-200.000	0.044	-0.306
-607.186	-200.000	0.007	-0.240
-606.171	71.219	-0.152	-0.161
-605.157	-200.000	0.017	0.097
-604.142	-139.207	-0.262	0.029
-603.128	800.000	-0.039	0.150
-602.113	-70.299	0.190	0.073
-601.098	76.410	-0.100	-0.107
-600.084	-120.728	-0.226	0.039
-599.069	-136.780	-0.279	0.033
-598.055	-200.000	-0.042	0.252
-597.040	61.871	-0.258	0.262
-596.025	-86.527	0.121	-0.038
-595.011	547.537	-0.088	0.213
-593.996	-115.428	-0.100	0.019
-592.982	-200.000	0.065	0.306
-591.967	251.376	-0.155	0.269
-590.952	111.143	0.176	0.216
-589.938	195.519	-0.116	0.179
-588.923	-113.170	-0.104	0.021
-587.909	-200.000	0.005	-0.170
-586.894	-200.000	-0.039	-0.180
-585.879	-138.856	0.094	-0.010
-584.865	-200.000	-0.047	-0.224
-583.850	16.294	0.347	-0.279
-582.836	141.885	0.142	-0.191
-581.821	800.000	0.050	0.160
-580.806	39.719	0.371	0.338
-579.792	-181.750	-0.279	0.005
-578.777	200.765	0.079	-0.124
-577.763	-200.000	-0.021	0.120
-576.748	186.340	0.141	0.213
-575.733	800.000	-0.129	0.487
-574.719	-145.254	-0.203	0.019
-573.704	-49.201	0.133	0.064
-572.690	-18.887	-0.292	-0.185
-571.675	800.000	-0.044	-0.161
-570.661	403.525	0.082	-0.175
-569.646	-12.866	0.168	0.111
-568.631	-48.500	0.061	0.030
-567.617	-94.017	-0.201	-0.056
-566.602	-200.000	-0.045	0.218
-565.588	-62.025	0.174	0.074
-564.573	-114.892	-0.361	-0.070
-563.558	-128.127	-0.338	0.049
-562.544	-0.019	-0.170	0.123
-561.529	156.533	0.091	-0.128
-560.515	129.773	-0.248	0.323
-559.500	-36.084	-0.273	0.150
-558.485	137.535	-0.124	-0.165
-557.471	-52.030	0.331	-0.156
-556.456	-94.228	-0.197	0.055
-555.442	-114.691	0.272	0.053
-554.427	800.000	0.113	0.339
-553.412	388.499	-0.088	-0.185
-552.398	800.000	-0.095	-0.363
-551.383	-65.640	0.090	0.037
-550.369	-200.000	0.006	0.346
-549.354	245.319	0.092	0.157
-548.339	701.120	-0.041	-0.109
-547.325	800.000	0.063	-0.235
-546.310	114.308	-0.201	-0.248
-545.296	-10.189	0.228	0.154
-544.281	12.624	0.072	0.057
-543.266	-200.000	-0.030	0.245
-542.252	54.715	0.205	0.201
-541.237	-17.158	-0.157	-0.100
-540.223	-34.879	0.348	0.193
-539.208	800.000	-0.014	-0.050
-538.193	-28.243	-0.071	-0.042
-537.179	-63.900	0.164	0.068
-536.164	-118.137	0.123	-0.022
-535.150	-55.461	-0.241	0.110
-534.135	-53.063	-0.374	0.174
-533.121	608.565	-0.131	-0.331
-532.106	-200.000	-0.061	-0.277
-531.091	-128.598	-0.189	0.027
-530.077	155.340	-0.201	-0.280
-529.062	-37.695	0.238	-0.129
-528.048	38.978	-0.169	0.153
-527.033	-200.000	-0.026	-0.124
-526.018	66.889	-0.195	-0.201
-525.004	238.037	-0.099	-0.166
-523.989	-200.000	-0.022	-0.184
-522.975	-200.000	-0.001	-0.242
-521.960	83.726	0.197	0.218
-520.945	-22.871	0.172	-0.105
-519.931	299.911	0.136	-0.254
-518.916	-43.822	-0.169	0.086
-517.902	165.440	0.124	0.177
-516.887	272.242	-0.095	0.170
-515.872	124.715	-0.089	-0.114
-514.858	800.000	0.087	-0.361
-513.843	-124.019	-0.329	-0.052
-512.829	292.578	0.076	0.141
-511.814	-56.624	0.094	-0.042
-510.799	-9.432	0.162	0.110
-509.785	-99.528	-0.194	0.049
-508.770	-55.318	-0.312	0.142
-507.756	800.000	-0.036	-0.111
-506.741	111.962	0.240	0.293
-505.726	319.823	0.072	0.138
-504.712	-153.410	0.277	0.020
-503.697	357.640	0.131	0.266
-502.683	40.511	0.258	-0.236
-501.668	-109.133	0.026	-0.006
-500.653	-29.314	-0.033	0.019
-499.639	800.000	-0.050	0.152
-498.624	-80.864	-0.131	0.044
-497.610	-171.685	0.216	0.007
-496.595	-200.000	0.031	-0.347
-495.581	515.509	0.019	0.046
-494.566	101.582	0.127	0.150
-493.551	340.499	0.066	0.131
-492.537	-52.446	0.340	0.160
-491.522	-56.589	0.084	-0.038
-490.508	-137.086	0.159	-0.018
-489.493	-112.335	0.108	-0.022
-488.478	56.047	-0.275	-0.270
-487.464	-200.000	-0.037	-0.388
-486.449	6.107	-0.050	0.037
-485.435	800.000	0.018	0.055
-484.420	-200.000	0.017	0.149
-483.405	-38.420	0.147	-0.079
-482.391	286.530	0.123	0.225
-481.376	-200.000	-0.025	-0.200
-480.362	316.229	-0.093	-0.178
-479.347	-71.845	-0.197	0.074
-478.332	592.206	-0.026	0.066
-477.318	800.000	-0.038	-0.141
-476.303	-135.397	-0.138	-0.017
-475.289	83.711	-0.196	-0.217
-474.274	19.425	-0.092	0.075
-473.259	12.556	-0.022	0.017
-472.245	-200.000	-0.230	0.000
-471.230	130.566	0.137	0.177
-470.216	-91.424	0.267	-0.077
-469.201	-200.000	-0.006	-0.261
-468.186	57.401	0.300	0.297
-467.172	626.642	0.082	0.209
-466.157	-96.876	0.097	0.026
-465.143	-17.206	-0.230	-0.147
-464.128	125.210	-0.116	-0.148
-463.113	12.250	0.161	-0.125
-462.099	160.632	-0.061	0.086
-461.084	-95.558	0.161	0.044
-460.070	571.201	-0.089	-0.220
-459.055	615.840	0.032	0.081
-458.040	247.549	0.138	-0.235
-457.026	800.000	0.052	-0.186
-456.011	-62.396	-0.016	-0.007
-454.997	63.024	-0.122	0.124
-453.982	-101.701	0.159	0.039
-452.968	-41.705	-0.116	0.060
-451.953	800.000	0.110	0.410
-450.938	-131.203	0.102	0.014
-449.924	36.501	0.134	0.120
-448.909	-200.000	-0.013	-0.265
-447.895	-200.000	0.021	-0.182
-446.880	800.000	0.072	-0.230
-445.865	102.354	0.171	-0.202
-444.851	800.000	-0.063	-0.244
-443.836	-200.000	0.005	-0.046
-442.822	249.777	-0.143	0.246
-441.807	800.000	-0.032	0.133
-440.792	-116.613	-0.086	-0.016
-439.778	23.556	0.164	-0.136
-438.763	418.597	-0.092	-0.199
-437.749	386.412	-0.147	0.307
-436.734	-200.000	0.005	-0.065
-435.719	-54.932	0.042	-0.019
-434.705	-129.081	0.369	0.052
-433.690	800.000	0.047	0.158
-432.676	-75.258	-0.063	0.023
-431.661	800.000	-0.147	0.450
-430.646	-200.000	-0.046	0.260
-429.632	-37.696	0.113	0.061
-428.617	71.099	0.042	0.044
-427.603	487.891	0.184	-0.425
-426.588	800.000	-0.042	-0.156
-425.573	-200.000	0.001	-0.249
-424.559	245.604	-0.111	0.189
-423.544	612.095	-0.052	-0.131
-422.530	-131.544	0.336	-0.045
-421.515	317.972	-0.065	-0.124
-420.500	-72.888	-0.122	-0.045
-419.486	-200.000	-0.043	0.198
-418.471	-200.000	0.022	-0.254
-417.457	349.090	0.126	0.251
-416.442	25.784	0.234	-0.197
-415.428	-200.000	-0.049	-0.228
-414.413	-67.848	-0.309	0.122
-413.398	-59.615	0.114	0.049
-412.384	232.010	0.102	-0.169
-411.369	-48.424	-0.168	-0.082
-410.355	329.373	0.036	-0.071
-409.340	152.336	0.067	-0.093
-408.325	428.527	-0.156	0.340
-407.311	-200.000	0.005	0.140
-406.296	291.237	0.051	-0.094
-405.282	426.873	0.216	0.470
-404.267	74.285	-0.056	0.059
-403.252	87.697	0.116	0.130
-402.238	-200.000	0.013	0.134
-401.223	-124.220	0.195	-0.031
-400.209	666.422	0.125	-0.326
-399.194	21.482	0.310	-0.255
-398.179	-200.000	0.002	0.240
-397.165	21.517	-0.095	0.078
-396.150	665.616	-0.087	0.226
-395.136	-6.741	-0.127	0.087
-394.121	404.539	0.205	-0.435
-393.106	363.296	-0.078	-0.159
-392.092	110.029	0.168	-0.203
-391.077	154.024	0.144	0.199
-390.063	-110.726	0.172	-0.036
-389.048	-97.587	-0.158	0.041
-388.033	518.082	0.115	0.271
-387.019	-200.000	0.008	0.085
-386.004	76.250	0.143	-0.153
-384.990	29.060	-0.097	0.083
-383.975	41.225	0.131	-0.120
-382.960	-142.518	0.448	-0.044
-381.946	-14.229	0.120	0.078
-380.931	48.859	-0.333	0.315
-379.917	86.141	-0.213	0.236
-378.902	800.000	-0.051	-0.160
-377.888	-74.977	-0.066	0.024
-376.873	-116.700	-0.137	-0.025
-375.858	-200.000	0.005	-0.133
-374.844	-57.986	0.156	-0.069
-373.829	-96.120	0.250	-0.067
-372.815	40.058	-0.247	-0.224
-371.800	-76.743	-0.174	0.062
-370.785	542.753	-0.153	0.367
-369.771	-100.787	-0.268	0.067
-368.756	16.858	0.174	-0.139
-367.742	-200.000	0.036	-0.247
-366.727	469.900	-0.094	-0.213
-365.712	-142.400	-0.005	0.001
-364.698	-155.800	0.204	0.013
-363.683	-200.000	-0.046	-0.220
-362.669	-139.380	0.181	-0.020
-361.654	-200.000	-0.034	-0.285
-360.639	-16.262	0.319	0.204
-359.625	-39.807	-0.136	-0.072
-358.610	354.007	-0.060	-0.119
-357.596	-1.209	0.288	0.205
-356.581	302.733	0.043	-0.081
-355.566	800.000	-0.024	0.091
-354.552	-42.129	-0.122	-0.063
-353.537	-141.989	-0.383	0.039
-352.523	226.654	0.085	-0.138
-351.508	453.700	-0.065	0.145
-350.493	-200.000	-0.017	-0.189
-349.479	91.974	0.304	0.345
-348.464	-49.722	0.291	-0.140
-347.450	800.000	0.048	0.151
-346.435	23.766	0.047	-0.039
-345.420	-200.000	0.002	0.390
-344.406	71.698	0.188	-0.197
-343.391	489.064	0.049	-0.112
-342.377	-19.508	0.201	-0.126
-341.362	320.477	0.130	0.248
-340.348	-119.283	0.187	0.033
-339.333	372.328	0.083	-0.170
-338.318	288.595	0.050	-0.091
-337.304	-152.410	-0.376	0.027
-336.289	374.164	0.158	-0.325
-335.275	-73.955	0.132	-0.048
-334.260	800.000	-0.040	0.132
-333.245	448.911	0.074	-0.163
-332.231	-122.848	-0.439	0.071
-331.216	7.474	-0.315	-0.237
-330.202	-103.314	0.241	0.057
-329.187	4.666	-0.126	-0.093
-328.172	800.000	-0.025	0.077
-327.158	39.423	-0.191	-0.172
-326.143	800.000	0.068	-0.189
-325.129	-200.000	-0.004	0.286
-324.114	-97.526	0.072	-0.019
-323.099	800.000	0.058	-0.198
-322.085	659.602	-0.167	0.434
-321.070	-114.428	0.456	-0.088
-320.056	-200.000	0.022	-0.347
-319.041	800.000	0.035	0.146
-318.026	203.177	0.186	-0.289
-317.012	-175.300	0.223	0.006
-315.997	-131.395	-0.044	-0.006
-314.983	2.090	-0.052	0.038
-313.968	-141.543	-0.155	-0.016
-312.953	276.977	0.126	0.226
-311.939	800.000	0.089	0.258
-310.924	91.851	-0.230	-0.260
-309.910	11.808	-0.169	-0.131
-308.895	-181.706	-0.079	-0.002
-307.880	-42.691	0.124	-0.063
-306.866	483.753	0.134	-0.306
-305.851	800.000	0.056	-0.190
-304.837	208.002	-0.082	0.129
-303.822	-71.156	-0.144	0.055
-302.807	-174.936	0.281	-0.008
-301.793	398.986	-0.088	0.186
-300.778	-64.832	-0.102	-0.042
-299.764	136.430	-0.039	-0.052
-298.749	-91.737	-0.271	0.077
-297.735	-1.318	0.120	0.085
-296.720	-85.524	0.086	0.027
-295.705	340.723	-0.092	0.180
-294.691	-163.572	-0.167	0.008
-293.676	-200.000	0.052	0.341
-292.662	800.000	0.079	0.264
-291.647	800.000	-0.071	-0.210
-290.632	-200.000	-0.024	-0.123
-289.618	-166.714	0.204	-0.008
-288.603	212.707	0.210	-0.333
-287.589	105.318	-0.159	-0.188
-286.574	22.764	-0.141	-0.116
-285.559	146.816	0.057	-0.077
-284.545	-56.048	0.259	0.116
-283.530	39.927	-0.206	0.186
-282.516	1.486	-0.230	-0.167
-281.501	-1.314	-0.269	-0.191
-280.486	404.352	0.199	0.422
-279.472	40.827	-0.183	0.166
-278.457	-200.000	-0.018	0.114
-277.443	352.710	0.037	0.074
-276.428	740.872	0.130	0.351
-275.413	643.841	0.129	-0.329
-274.399	-200.000	0.019	0.169
-273.384	800.000	0.090	-0.372
-272.370	800.000	-0.111	-0.327
-271.355	478.083	-0.112	0.254
-270.340	27.848	0.140	0.118
-269.326	247.296	0.173	0.294
-268.311	-122.903	-0.237	-0.038
-267.297	800.000	-0.031	-0.127
-266.282	249.758	-0.084	-0.143
-265.267	36.058	-0.160	-0.142
-264.253	-200.000	0.080	-0.369
-263.238	-111.093	0.174	-0.036
-262.224	208.330	-0.144	-0.225
-261.209	-85.173	0.087	-0.027
-260.195	-200.000	0.054	-0.309
-259.180	-154.002	-0.138	0.009
-258.165	-114.523	-0.168	0.032
-257.151	101.218	-0.234	-0.273
-256.136	800.000	0.034	-0.119
-255.122	-32.820	0.283	0.158
-254.107	-184.009	-0.217	0.004
-253.092	102.631	-0.093	-0.109
-252.078	-104.497	-0.048	0.011
-251.063	100.707	-0.120	0.140
-250.049	390.126	0.093	0.194
-249.034	-47.765	-0.163	-0.079
-248.019	-200.000	0.031	-0.151
-247.005	-120.507	-0.057	-0.010
-245.990	-103.666	0.262	-0.062
-244.976	-35.439	0.108	-0.059
-243.961	-93.632	-0.274	0.076
-242.946	-163.364	-0.023	-0.001
-241.932	-64.490	-0.142	0.058
-240.917	-200.000	0.181	0.001
-239.903	-200.000	0.027	-0.129
-238.888	-41.688	-0.084	-0.044
-237.873	-200.000	-0.012	-0.147
-236.859	285.437	0.107	0.193
-235.844	535.966	0.057	-0.135
-234.830	471.859	0.058	0.131
-233.815	800.000	-0.067	-0.194
-232.800	-5.725	-0.435	-0.299
-231.786	190.392	0.050	0.075
-230.771	8.783	-0.319	0.241
-229.757	-142.051	0.267	0.027
-228.742	133.408	-0.093	0.120
-227.727	-200.000	-0.006	-0.323
-226.713	800.000	0.124	0.398
-225.698	-27.737	0.069	0.040
-224.684	210.177	0.178	-0.280
-223.669	-23.648	0.173	0.104
-222.655	210.843	-0.219	-0.345
-221.640	-200.000	-0.013	-0.075
-220.625	115.916	0.322	0.395
-219.611	168.413	-0.037	-0.052
-218.596	173.736	-0.086	-0.124
-217.582	428.234	0.140	0.304
-216.567	-200.000	0.007	-0.043
-215.552	21.233	-0.035	-0.029
-214.538	-126.700	-0.299	0.044
-213.523	-200.000	0.003	0.170
-212.509	74.374	0.155	-0.163
-211.494	-28.700	0.361	-0.208
-210.479	390.880	0.082	0.170
-209.465	-200.000	0.002	0.091
-208.450	16.267	-0.332	-0.263
-207.436	-200.000	0.012	0.140
-206.421	-83.122	0.145	-0.047
-205.406	26.993	0.184	-0.155
-204.392	-106.226	0.115	0.026
-203.377	499.498	-0.055	-0.127
-202.363	-114.328	0.217	0.042
-201.348	687.269	-0.115	-0.301
-200.333	-153.054	-0.113	0.008
-199.319	232.709	0.210	0.345
-198.304	697.829	0.084	0.221
-197.290	453.328	-0.169	0.375
-196.275	463.208	-0.113	0.252
-195.260	-126.755	0.133	-0.020
-194.246	177.130	0.130	0.190
-193.231	194.349	0.226	0.343
-192.217	521.704	0.024	-0.056
-191.202	130.255	-0.194	-0.248
-190.187	-124.379	-0.401	0.063
-189.173	28.705	-0.186	0.158
-188.158	800.000	0.062	-0.211
-187.144	105.499	0.165	0.195
-186.129	-94.298	0.218	0.060
-185.114	-152.778	-0.376	-0.027
-184.100	-2.200	-0.035	-0.025
-183.085	-150.404	0.398	-0.031
-182.071	4.280	0.150	-0.110
-181.056	-79.224	0.271	0.092
-180.042	-98.603	-0.188	-0.048
-179.027	25.439	-0.069	-0.058
-178.012	-83.712	-0.125	0.040
-176.998	-170.132	-0.236	-0.008
-175.983	-51.476	-0.343	0.160
-174.969	71.219	0.247	0.257
-173.954	-141.743	-0.600	-0.060
-172.939	800.000	-0.034	0.140
-171.925	72.161	0.169	0.176
-170.910	-200.000	0.053	0.330
-169.896	299.889	0.148	0.272
-168.881	-16.954	0.086	-0.054
-167.866	-103.459	-0.178	-0.042
-166.852	-83.896	-0.193	0.062
-165.837	-39.257	-0.103	-0.054
-164.823	-147.032	0.081	0.007
-163.808	-87.928	-0.170	0.051
-162.793	-200.000	-0.026	0.300
-161.779	20.749	0.264	0.214
-160.764	-39.984	-0.101	0.052
-159.750	345.138	0.099	0.194
-158.735	-130.178	-0.110	-0.015
-157.720	800.000	-0.050	-0.207
-156.706	326.991	-0.080	0.153
-155.691	213.772	0.017	-0.028
-154.677	-115.750	-0.324	-0.061
-153.662	795.869	0.059	0.163
-152.647	800.000	0.080	0.229
-151.633	9.719	0.207	0.157
-150.618	32.823	-0.246	-0.213
-149.604	-0.273	-0.157	0.112
-148.589	-68.780	-0.207	-0.080
-147.574	-58.463	-0.009	0.004
-146.560	176.102	-0.050	-0.072
-145.545	181.676	0.211	0.311
-144.531	-200.000	-0.008	0.073
-143.516	112.579	0.130	-0.158
-142.502	159.226	0.141	0.196
-141.487	281.715	0.041	-0.073
-140.472	-148.456	-0.115	-0.009
-139.458	413.084	0.068	-0.146
-138.443	-200.000	-0.014	-0.085
-137.429	41.889	0.226	-0.205
-136.414	-200.000	0.021	-0.203
-135.399	61.305	-0.127	-0.126
-134.385	-24.473	0.175	-0.104
-133.370	215.299	0.142	0.225
-132.356	-39.702	0.357	-0.186
-131.341	-35.675	0.085	-0.046
-130.326	-146.826	0.324	-0.028
-129.312	78.767	0.227	0.242
-128.297	-200.000	0.061	-0.280
-127.283	-200.000	0.095	-0.444
-126.268	-152.166	-0.173	0.013
-125.253	-127.313	0.450	0.066
-124.239	-94.703	-0.191	0.052
-123.224	-200.000	0.025	0.174
-122.210	269.396	0.061	-0.108
-121.195	-87.902	0.094	0.028
