DTS Sentinel unit serial number:	SN413079Multiplexer serial number:	ORYXHardware model number:	OX4-SRSoftware version number:	ORYX F/W v4.00 Oryx Data Collector v3.7.2.0data status	okinstallation	princeton_trtdifferential loss correction	single-endedforward channel	channel 1reverse channel	N/Adate	2019/09/18time	02:46:35forward acquisition time	60.00reverse acquisition time	0.00gamma	496.2192k internal	0.2341k external	0.2341temperature offset calibration	0.9982default loss term (dB/km)	0.3790temperature slope calibration	1.0000multiplexer offset coefficient	1.0000multiplexer slope coefficient	1.0000fibre end	0.00T internal ref (°C)	22.78T ext. ref 1 (°C)	0.17T ext. ref 2 (°C)	16.66length (m)	temperature (°C)	Stokes	anti-Stokes-747.200	-70.120	0.371	0.142
-746.185	-200.000	0.004	0.194
-745.171	598.952	0.108	0.268
-744.156	-61.893	0.207	0.087
-743.142	-53.539	-0.162	0.074
-742.127	-200.000	-0.009	-0.071
-741.112	800.000	-0.013	-0.049
-740.098	2.879	-0.248	0.181
-739.083	3.024	0.167	-0.122
-738.069	-200.000	-0.003	0.254
-737.054	-200.000	-0.015	-0.198
-736.039	-77.787	-0.093	-0.032
-735.025	-30.179	-0.065	-0.037
-734.010	-15.906	-0.170	0.108
-732.996	800.000	0.148	0.416
-731.981	-200.000	-0.015	-0.254
-730.966	240.955	0.054	0.091
-729.952	800.000	-0.063	-0.180
-728.937	800.000	-0.038	-0.120
-727.923	307.342	-0.049	0.092
-726.908	206.402	-0.152	-0.237
-725.894	-145.521	-0.248	-0.022
-724.879	-200.000	-0.023	-0.412
-723.864	370.789	-0.076	-0.155
-722.850	379.643	0.136	0.278
-721.835	715.691	0.079	-0.210
-720.821	-200.000	0.040	-0.288
-719.806	62.743	0.175	0.175
-718.791	402.746	-0.109	0.229
-717.777	-200.000	0.001	-0.186
-716.762	-106.289	-0.383	-0.086
-715.748	-127.690	-0.167	-0.024
-714.733	133.416	0.106	-0.137
-713.718	-200.000	-0.024	-0.207
-712.704	28.943	-0.265	-0.225
-711.689	249.832	-0.160	0.272
-710.675	-200.000	0.039	-0.220
-709.660	12.502	0.225	0.174
-708.645	71.645	0.246	0.256
-707.631	-189.896	-0.288	-0.003
-706.616	-81.035	-0.238	0.079
-705.602	-56.675	0.105	0.046
-704.587	-39.938	0.275	-0.144
-703.572	0.953	-0.282	-0.202
-702.558	800.000	0.034	0.132
-701.543	-200.000	0.039	0.254
-700.529	-200.000	0.053	0.412
-699.514	2.991	0.074	0.053
-698.499	-200.000	0.017	-0.281
-697.485	240.273	-0.090	-0.151
-696.470	123.908	-0.120	0.151
-695.456	88.308	-0.183	-0.203
-694.441	-72.571	0.062	-0.023
-693.426	8.788	-0.192	-0.145
-692.412	414.632	-0.151	-0.322
-691.397	-119.831	-0.057	0.010
-690.383	-104.327	-0.118	0.027
-689.368	-154.399	0.058	0.004
-688.354	-198.781	0.237	0.001
-687.339	-0.202	0.143	-0.102
-686.324	77.737	-0.054	-0.058
-685.310	105.936	-0.183	0.217
-684.295	117.640	0.020	0.025
-683.281	800.000	-0.028	0.102
-682.266	-54.968	-0.171	-0.077
-681.251	217.923	0.021	0.034
-680.237	-22.913	-0.152	0.091
-679.222	153.099	0.064	-0.088
-678.208	-106.473	0.327	-0.073
-677.193	59.324	-0.172	-0.169
-676.178	92.135	0.112	-0.127
-675.164	266.009	0.135	-0.236
-674.149	89.908	0.015	0.017
-673.135	22.598	-0.049	0.040
-672.120	-4.260	-0.280	-0.194
-671.105	-52.335	0.033	-0.015
-670.091	-172.015	0.320	0.010
-669.076	125.373	-0.072	-0.091
-668.062	277.791	0.088	0.157
-667.047	800.000	-0.045	0.195
-666.032	236.116	-0.100	-0.165
-665.018	-74.233	0.211	-0.076
-664.003	800.000	-0.029	0.114
-662.989	-168.560	0.129	0.005
-661.974	-182.358	0.097	-0.002
-660.959	-150.670	-0.129	0.010
-659.945	122.600	0.103	-0.128
-658.930	-95.240	0.055	-0.015
-657.916	800.000	-0.092	-0.307
-656.901	-48.469	0.323	-0.155
-655.886	-200.000	0.057	-0.323
-654.872	-200.000	0.051	-0.255
-653.857	-93.074	-0.212	-0.059
-652.843	-162.193	0.398	-0.020
-651.828	-132.371	-0.362	-0.047
-650.814	1.107	0.135	0.097
-649.799	107.711	-0.152	0.181
-648.784	-178.618	-0.130	0.003
-647.770	-200.000	0.025	0.152
-646.755	-34.471	0.186	0.102
-645.741	-200.000	-0.018	0.176
-644.726	11.677	0.155	-0.119
-643.711	-200.000	0.043	0.194
-642.697	-114.635	-0.085	0.016
-641.682	686.781	-0.030	-0.079
-640.668	-200.000	0.030	-0.452
-639.653	153.523	-0.117	-0.160
-638.638	143.227	-0.180	-0.239
-637.624	-107.017	-0.112	0.025
-636.609	-200.000	-0.029	-0.222
-635.595	800.000	0.039	-0.109
-634.580	-19.111	-0.119	-0.074
-633.565	-152.543	-0.050	-0.004
-632.551	41.485	-0.243	-0.220
-631.536	33.526	-0.109	-0.095
-630.522	-185.808	0.051	0.001
-629.507	-154.844	-0.239	-0.016
-628.492	800.000	0.144	-0.429
-627.478	-66.569	-0.236	-0.094
-626.463	-200.000	-0.007	0.066
-625.449	-31.899	0.078	0.044
-624.434	-51.066	-0.159	0.074
-623.419	262.522	0.052	0.090
-622.405	279.910	0.112	-0.199
-621.390	-20.879	-0.313	0.191
-620.376	76.804	-0.171	-0.181
-619.361	-200.000	0.021	0.187
-618.346	377.968	-0.161	-0.328
-617.332	36.276	0.314	-0.276
-616.317	304.283	0.187	0.346
-615.303	78.225	-0.170	0.180
-614.288	-124.322	-0.131	-0.020
-613.273	110.133	0.158	0.189
-612.259	-1.244	-0.404	0.285
-611.244	661.708	0.083	0.214
-610.230	-121.126	-0.127	0.021
-609.215	-29.700	0.229	0.130
-608.201	445.736	0.164	-0.359
-607.186	649.653	0.062	-0.157
-606.171	-20.005	-0.180	0.110
-605.157	115.188	-0.087	-0.106
-604.142	-115.193	0.351	-0.066
-603.128	23.415	-0.117	-0.096
-602.113	42.013	-0.338	0.306
-601.098	572.043	0.074	-0.181
-600.084	-14.726	-0.106	0.068
-599.069	13.573	0.239	0.185
-598.055	-34.389	-0.199	-0.108
-597.040	-200.000	-0.033	-0.251
-596.025	135.194	-0.040	-0.052
-595.011	20.376	0.030	0.024
-593.996	722.606	0.031	0.082
-592.982	-18.932	0.055	0.034
-591.967	-74.056	0.051	0.019
-590.952	-200.000	0.002	0.026
-589.938	800.000	0.018	0.053
-588.923	-118.009	0.243	0.043
-587.909	406.737	-0.169	0.355
-586.894	384.865	-0.055	-0.113
-585.879	-96.131	-0.180	0.048
-584.865	72.712	-0.228	0.237
-583.850	800.000	0.074	0.258
-582.836	613.111	0.089	-0.223
-581.821	-200.000	-0.180	-0.001
-580.806	-180.781	0.270	0.005
-579.792	-42.190	-0.292	0.149
-578.777	-26.154	0.077	-0.045
-577.763	55.459	0.079	0.076
-576.748	-89.288	-0.107	0.031
-575.733	-42.059	-0.149	-0.076
-574.719	-80.348	-0.271	0.090
-573.704	-122.755	0.331	0.053
-572.690	426.745	-0.033	0.070
-571.675	-181.047	-0.164	0.003
-570.661	-166.235	0.078	-0.003
-569.646	44.065	-0.189	0.173
-568.631	-200.000	0.028	-0.208
-567.617	-89.165	-0.111	0.033
-566.602	-200.000	-0.002	-0.025
-565.588	-200.000	-0.047	0.231
-564.573	-97.231	0.162	0.042
-563.558	239.663	0.164	-0.272
-562.544	55.097	0.278	0.267
-561.529	-37.217	0.126	0.067
-560.515	-200.000	0.055	0.288
-559.500	-200.000	0.021	-0.124
-558.485	-174.924	-0.175	0.005
-557.471	-162.194	-0.220	-0.011
-556.456	33.085	-0.171	0.147
-555.442	-163.588	0.060	-0.003
-554.427	172.075	0.116	0.166
-553.412	127.771	-0.126	-0.159
-552.398	-83.621	0.071	0.023
-551.383	-188.111	-0.407	-0.005
-550.369	-53.702	-0.344	-0.156
-549.354	83.866	-0.165	0.180
-548.339	800.000	0.022	0.087
-547.325	429.438	0.123	-0.265
-546.310	381.713	0.179	0.366
-545.296	-50.538	0.188	-0.088
-544.281	-37.183	-0.218	-0.116
-543.266	-185.064	0.153	0.002
-542.252	475.980	0.048	0.107
-541.237	-200.000	-0.028	-0.216
-540.223	-200.000	0.002	0.028
-539.208	-100.174	-0.143	0.035
-538.193	-121.377	-0.227	-0.038
-537.179	-132.430	-0.259	-0.033
-536.164	10.230	-0.198	-0.150
-535.150	-131.271	0.276	-0.036
-534.135	800.000	-0.014	-0.041
-533.121	-200.000	0.033	0.222
-532.106	49.642	-0.149	-0.140
-531.091	-94.054	0.343	0.094
-530.077	557.784	0.250	0.598
-529.062	152.049	0.203	-0.275
-528.048	416.122	-0.066	0.140
-527.033	-19.412	0.121	-0.075
-526.018	-11.174	0.103	-0.067
-525.004	800.000	-0.035	0.136
-523.989	-18.739	0.157	-0.097
-522.975	228.103	0.084	0.136
-521.960	-200.000	0.063	-0.324
-520.945	-120.824	0.208	-0.035
-519.931	-200.000	-0.050	-0.409
-518.916	423.309	-0.126	0.270
-517.902	-200.000	-0.011	0.102
-516.887	-64.613	0.143	0.057
-515.872	-200.000	-0.016	0.123
-514.858	37.700	-0.280	-0.247
-513.843	-44.514	-0.044	-0.022
-512.829	-19.918	0.313	0.192
-511.814	-160.180	0.261	0.014
-510.799	-9.142	-0.274	0.182
-509.785	-15.497	-0.155	-0.099
-508.770	190.850	-0.045	-0.067
-507.756	-91.686	0.123	0.035
-506.741	-78.720	-0.281	-0.095
-505.726	-200.000	0.095	0.574
-504.712	800.000	0.032	0.114
-503.697	751.580	0.044	0.119
-502.683	-73.483	0.278	-0.101
-501.668	-106.241	-0.284	-0.063
-500.653	-64.623	-0.460	-0.185
-499.639	-200.000	-0.048	-0.454
-498.624	-187.443	-0.079	0.001
-497.610	-60.430	-0.057	-0.024
-496.595	-127.568	0.183	0.026
-495.581	45.752	0.194	0.178
-494.566	-65.456	-0.141	-0.056
-493.551	-200.000	0.001	-0.531
-492.537	-200.000	-0.027	-0.178
-491.522	-200.000	0.043	0.249
-490.508	726.738	0.073	0.194
-489.493	-200.000	-0.019	-0.316
-488.478	27.611	0.023	-0.019
-487.464	31.721	0.041	-0.035
-486.449	4.098	-0.136	-0.099
-485.435	800.000	-0.081	-0.334
-484.420	106.326	-0.273	0.321
-483.405	153.709	0.086	-0.118
-482.391	4.648	-0.156	0.114
-481.376	240.005	0.182	-0.300
-480.362	-74.932	-0.257	0.091
-479.347	-200.000	-0.003	0.097
-478.332	-135.195	-0.045	-0.005
-477.318	-200.000	0.035	-0.276
-476.303	380.756	-0.162	0.329
-475.289	588.975	0.093	0.227
-474.274	51.893	0.136	0.129
-473.259	-23.890	-0.321	-0.190
-472.245	-48.373	-0.049	-0.024
-471.230	-200.000	-0.085	-0.390
-470.216	126.429	0.189	0.237
-469.201	267.889	0.089	-0.154
-468.186	61.220	-0.204	-0.201
-467.172	-200.000	-0.006	0.158
-466.157	-97.124	0.222	0.057
-465.143	-53.730	-0.142	-0.064
-464.128	-200.000	-0.012	0.255
-463.113	-200.000	0.046	-0.335
-462.099	-150.170	-0.284	-0.022
-461.084	358.184	0.024	-0.047
-460.070	-61.965	0.275	0.114
-459.055	333.566	-0.030	0.057
-458.040	800.000	0.029	0.090
-457.026	72.448	-0.262	0.271
-456.011	-78.061	-0.444	-0.152
-454.997	-67.685	-0.111	-0.043
-453.982	800.000	-0.094	-0.354
-452.968	-22.579	-0.321	-0.192
-451.953	800.000	-0.130	-0.434
-450.938	-16.493	0.165	0.104
-449.924	56.561	0.076	-0.073
-448.909	231.379	-0.063	-0.102
-447.895	-62.572	-0.253	-0.104
-446.880	800.000	0.064	-0.232
-445.865	800.000	-0.080	0.265
-444.851	337.280	-0.091	0.175
-443.836	144.884	0.282	0.374
-442.822	-85.376	-0.283	0.087
-441.807	-200.000	-0.067	-0.303
-440.792	-198.270	-0.159	-0.001
-439.778	171.511	0.152	0.216
-438.763	-200.000	0.028	0.125
-437.749	118.421	0.220	0.269
-436.734	-29.554	0.217	-0.123
-435.719	-130.152	-0.041	0.006
-434.705	136.977	0.013	0.017
-433.690	-131.092	0.201	0.027
-432.676	-200.000	0.001	0.422
-431.661	-3.578	0.174	0.119
-430.646	94.638	-0.223	-0.251
-429.632	-10.138	0.259	-0.171
-428.617	72.930	-0.243	-0.252
-427.603	-135.320	-0.331	0.039
-426.588	-99.478	0.301	0.075
-425.573	335.693	0.085	-0.163
-424.559	603.292	0.163	-0.402
-423.544	163.090	-0.256	0.356
-422.530	292.379	0.074	0.133
-421.515	126.417	0.064	0.080
-420.500	-55.383	-0.497	-0.221
-419.486	-97.211	0.290	-0.075
-418.471	107.233	0.066	0.077
-417.457	180.827	-0.079	0.115
-416.442	-200.000	0.066	-0.337
-415.428	-200.000	-0.021	-0.398
-414.413	-200.000	0.035	-0.227
-413.398	34.668	0.098	0.085
-412.384	-10.133	0.176	0.115
-411.369	-11.721	0.289	-0.188
-410.355	92.602	0.243	-0.272
-409.340	-54.867	0.211	0.094
-408.325	95.916	0.112	0.127
-407.311	-81.012	-0.315	-0.103
-406.296	-106.900	0.195	-0.043
-405.282	-69.022	-0.080	0.031
-404.267	59.019	0.053	-0.051
-403.252	116.002	0.145	-0.175
-402.238	61.880	0.262	0.258
-401.223	193.410	-0.085	0.126
-400.209	-200.000	-0.044	0.214
-399.194	-83.071	-0.094	0.030
-398.179	800.000	0.063	0.247
-397.165	800.000	-0.058	0.221
-396.150	-116.629	-0.241	0.044
-395.136	-171.036	0.503	-0.017
-394.121	-200.000	-0.021	-0.204
-393.106	126.588	-0.176	-0.220
-392.092	323.734	0.137	-0.259
-391.077	632.923	-0.047	0.118
-390.063	-200.000	-0.017	-0.189
-389.048	290.198	0.252	0.452
-388.033	-54.493	0.301	-0.135
-387.019	-106.982	0.120	-0.026
-386.004	-200.000	0.024	-0.109
-384.990	-10.123	0.133	0.087
-383.975	-103.843	0.171	0.039
-382.960	-200.000	-0.031	-0.409
-381.946	46.148	0.157	0.144
-380.931	-200.000	0.097	-0.554
-379.917	-36.058	-0.075	-0.040
-378.902	158.575	0.021	-0.029
-377.888	8.125	0.107	0.079
-376.873	680.663	-0.126	-0.324
-375.858	410.734	0.168	-0.351
-374.844	-188.387	-0.252	0.003
-373.829	-200.000	-0.018	-0.300
-372.815	12.966	0.149	0.114
-371.800	800.000	0.046	-0.191
-370.785	-67.176	0.085	0.033
-369.771	800.000	0.126	-0.455
-368.756	93.204	0.134	0.150
-367.742	-52.098	-0.226	0.104
-366.727	-95.980	0.179	-0.047
-365.712	-124.214	0.160	-0.025
-364.698	-200.000	0.015	-0.101
-363.683	-139.859	0.182	-0.019
-362.669	-200.000	0.025	0.118
-361.654	491.879	0.038	-0.086
-360.639	-200.000	0.016	-0.242
-359.625	144.141	-0.127	-0.168
-358.610	-118.211	0.113	0.020
-357.596	116.895	-0.080	0.097
-356.581	203.950	0.136	-0.208
-355.566	-178.143	0.069	0.002
-354.552	-27.711	0.193	0.110
-353.537	56.246	-0.040	-0.038
-352.523	-49.272	-0.258	0.122
-351.508	27.466	-0.172	-0.143
-350.493	550.960	-0.120	-0.283
-349.479	-88.709	-0.106	-0.031
-348.464	-180.163	-0.300	0.006
-347.450	-148.910	-0.136	0.011
-346.435	352.306	0.080	-0.156
-345.420	800.000	-0.026	0.083
-344.406	-154.468	0.108	-0.007
-343.391	-47.600	0.132	-0.063
-342.377	56.697	0.230	-0.221
-341.362	97.326	0.112	0.127
-340.348	148.324	0.109	0.145
-339.333	35.362	-0.200	-0.173
-338.318	-200.000	0.057	0.304
-337.304	29.629	-0.048	-0.040
-336.289	-185.416	0.127	-0.002
-335.275	497.824	-0.137	0.310
-334.260	175.564	0.169	-0.242
-333.245	53.962	0.110	-0.105
-332.231	-40.143	-0.149	0.076
-331.216	-114.309	0.310	-0.059
-330.202	800.000	-0.067	0.221
-329.187	-160.011	-0.213	-0.011
-328.172	-90.455	-0.237	-0.068
-327.158	800.000	-0.071	0.203
-326.143	-200.000	0.071	-0.343
-325.129	421.630	-0.124	0.263
-324.114	-77.912	0.286	-0.097
-323.099	-97.931	-0.051	0.013
-322.085	83.784	-0.144	0.155
-321.070	163.350	0.215	-0.298
-320.056	-182.802	0.318	0.006
-319.041	173.643	0.125	0.178
-318.026	120.281	0.076	-0.093
-317.012	-117.692	0.097	0.017
-315.997	239.529	0.064	0.105
-314.983	800.000	-0.116	0.396
-313.968	-93.596	0.379	0.103
-312.953	64.769	-0.301	0.300
-311.939	-18.657	0.169	0.104
-310.924	-144.705	-0.453	0.041
-309.910	-180.745	0.104	0.002
-308.895	-29.635	0.215	-0.121
-307.880	-200.000	0.038	-0.304
-306.866	-41.399	-0.143	-0.072
-305.851	208.076	0.079	-0.121
-304.837	-130.210	-0.290	0.039
-303.822	-200.000	-0.036	-0.339
-302.807	272.062	-0.082	-0.142
-301.793	181.595	0.047	-0.069
-300.778	-139.274	-0.255	0.027
-299.764	39.805	0.055	0.049
-298.749	-68.009	0.277	-0.106
-297.735	-200.000	0.004	0.081
-296.720	-35.677	-0.236	-0.126
-295.705	-200.000	0.062	-0.305
-294.691	3.962	-0.273	-0.197
-293.676	800.000	0.038	-0.158
-292.662	72.711	0.072	-0.074
-291.647	404.337	0.133	0.275
-290.632	-112.280	-0.261	0.051
-289.618	-77.473	-0.358	-0.122
-288.603	-28.790	0.142	0.081
-287.589	-65.284	-0.089	0.035
-286.574	-105.839	-0.314	0.070
-285.559	30.946	-0.239	-0.202
-284.545	-14.018	0.121	0.077
-283.530	-146.556	-0.052	-0.004
-282.516	-200.000	0.013	-0.187
-281.501	151.830	0.013	-0.018
-280.486	-37.088	-0.339	0.179
-279.472	212.601	0.061	0.094
-278.457	303.041	0.217	0.396
-277.443	-181.006	-0.316	0.006
-276.428	-97.302	-0.421	0.108
-275.413	800.000	-0.106	0.313
-274.399	244.635	0.209	0.346
-273.384	285.562	-0.040	-0.070
-272.370	-120.371	-0.052	0.009
-271.355	-3.851	-0.021	0.015
-270.340	-17.595	0.301	-0.186
-269.326	524.507	0.053	0.122
-268.311	-4.125	-0.163	0.111
-267.297	95.987	0.143	0.161
-266.282	-110.834	0.193	0.039
-265.267	712.924	-0.085	-0.223
-264.253	287.568	-0.105	0.187
-263.238	-1.450	-0.179	-0.124
-262.224	-134.371	0.241	-0.029
-261.209	-200.000	-0.031	0.198
-260.195	-106.672	-0.307	-0.067
-259.180	142.596	-0.074	-0.097
-258.165	-31.383	0.239	0.132
-257.151	408.395	-0.116	0.241
-256.136	-97.375	0.073	-0.019
-255.122	-200.000	-0.009	-0.148
-254.107	230.191	0.043	-0.069
-253.092	-158.547	-0.264	0.015
-252.078	-200.000	-0.026	-0.147
-251.063	-200.000	0.014	-0.077
-250.049	-170.719	0.201	0.007
-249.034	-98.329	0.187	-0.047
-248.019	-43.587	-0.230	0.114
-247.005	154.448	-0.115	0.156
-245.990	-58.410	0.262	0.112
-244.976	800.000	0.059	-0.244
-243.961	-200.000	-0.017	0.101
-242.946	22.060	0.401	-0.322
-241.932	-41.475	-0.032	0.016
-240.917	-31.378	0.053	0.029
-239.903	-200.000	0.032	-0.375
-238.888	-65.089	-0.099	-0.039
-237.873	-200.000	-0.047	0.205
-236.859	3.987	-0.222	0.159
-235.844	104.251	-0.308	0.356
-234.830	105.405	0.139	-0.161
-233.815	-116.937	0.193	0.035
-232.800	530.189	0.150	0.348
-231.786	-200.000	0.005	-0.022
-230.771	800.000	0.085	-0.279
-229.757	-14.515	0.302	0.191
-228.742	58.413	-0.275	0.265
-227.727	699.720	0.107	0.275
-226.713	-54.241	0.060	-0.027
-225.698	-43.136	-0.246	-0.122
-224.684	-128.993	0.294	-0.041
-223.669	-52.226	0.168	0.076
-222.655	-25.163	0.328	0.191
-221.640	-200.000	-0.041	0.243
-220.625	-200.000	0.038	0.204
-219.611	5.340	0.384	0.278
-218.596	393.924	0.070	-0.144
-217.582	-200.000	-0.019	-0.197
-216.567	15.215	0.368	0.283
-215.552	-65.548	-0.179	-0.070
-214.538	11.611	-0.054	0.041
-213.523	800.000	0.068	0.263
-212.509	-116.715	-0.240	-0.043
-211.494	28.542	-0.092	0.077
-210.479	50.530	0.165	-0.153
-209.465	-43.107	0.301	-0.150
-208.450	-107.396	-0.182	0.039
-207.436	124.562	0.294	0.363
-206.421	250.946	-0.137	-0.229
-205.406	94.011	-0.077	0.086
-204.392	230.664	-0.065	-0.104
-203.377	30.759	-0.285	-0.239
-202.363	68.049	0.132	0.132
-201.348	-200.000	0.014	0.084
-200.333	247.646	-0.210	0.348
-199.319	-21.509	0.110	0.066
-198.304	198.507	-0.125	-0.187
-197.290	158.870	0.151	0.206
-196.275	75.338	0.088	0.091
-195.260	330.728	-0.057	0.109
-194.246	-129.277	0.233	0.032
-193.231	88.869	-0.152	0.166
-192.217	-112.831	-0.398	0.077
-191.202	-63.712	-0.166	-0.067
-190.187	-147.948	0.163	-0.013
-189.173	190.391	-0.090	-0.133
-188.158	-64.242	0.166	0.067
-187.144	-31.272	0.174	0.096
-186.129	4.933	-0.097	0.070
-185.114	-200.000	0.022	0.212
-184.100	-43.564	0.161	0.079
-183.085	280.065	-0.109	-0.191
-182.071	455.305	-0.025	0.055
-181.056	-63.764	0.103	0.042
-180.042	142.278	0.305	0.397
-179.027	-200.000	0.020	0.110
-178.012	143.191	0.032	-0.042
-176.998	-18.955	0.141	-0.086
-175.983	37.782	0.260	0.226
-174.969	-73.781	-0.187	-0.067
-173.954	-80.204	-0.259	0.085
-172.939	800.000	-0.019	0.078
-171.925	-18.191	0.182	-0.112
-170.910	91.075	-0.192	0.211
-169.896	527.513	-0.120	-0.278
-168.881	526.369	0.130	-0.301
-167.866	75.941	0.059	-0.062
-166.852	-200.000	-0.027	-0.244
-165.837	-200.000	-0.022	-0.101
-164.823	-93.915	0.438	-0.118
-163.808	330.701	0.101	0.191
-162.793	-12.700	0.227	-0.145
-161.779	-142.370	0.120	0.012
-160.764	800.000	0.126	-0.353
-159.750	338.321	-0.167	0.319
-158.735	800.000	0.032	0.132
-157.720	38.623	0.145	0.127
-156.706	349.416	0.060	0.116
-155.691	-101.532	0.057	0.014
-154.677	-200.000	0.015	0.122
-153.662	-188.296	-0.157	0.002
-152.647	-172.963	-0.148	-0.004
-151.633	767.533	-0.077	0.204
-150.618	-79.563	0.276	0.091
-149.604	800.000	-0.028	0.088
-148.589	102.509	-0.182	0.208
-147.574	138.730	-0.059	0.076
-146.560	312.712	0.134	0.247
-145.545	-14.718	-0.161	0.101
-144.531	112.754	-0.175	0.208
-143.516	-200.000	0.002	0.071
-142.502	232.332	-0.059	0.095
-141.487	-200.000	-0.010	0.071
-140.472	800.000	0.033	-0.137
-139.458	-200.000	0.005	0.248
-138.443	46.487	-0.120	0.109
-137.429	-200.000	-0.067	0.392
-136.414	-153.408	0.175	-0.012
-135.399	231.145	0.134	-0.214
-134.385	-87.845	0.160	0.047
-133.370	8.659	0.133	-0.098
-132.356	20.162	-0.278	0.219
-131.341	-200.000	-0.028	0.289
-130.326	-39.244	0.174	-0.090
-129.312	-95.926	-0.214	0.056
-128.297	-200.000	0.010	0.058
-127.283	257.041	0.077	-0.129
-126.268	-85.437	-0.324	0.099
-125.253	-200.000	0.110	0.500
-124.239	380.609	-0.167	0.335
-123.224	-139.203	-0.252	0.027
-122.210	308.467	-0.150	-0.273
-121.195	800.000	-0.067	0.215
