DTS Sentinel unit serial number:	SN413079Multiplexer serial number:	ORYXHardware model number:	OX4-SRSoftware version number:	ORYX F/W v4.00 Oryx Data Collector v3.7.2.0data status	okinstallation	princeton_trtdifferential loss correction	single-endedforward channel	channel 1reverse channel	N/Adate	2019/09/13time	03:46:35forward acquisition time	60.00reverse acquisition time	0.00gamma	496.2192k internal	0.2332k external	0.2332temperature offset calibration	1.0163default loss term (dB/km)	0.3790temperature slope calibration	1.0000multiplexer offset coefficient	1.0000multiplexer slope coefficient	1.0000fibre end	0.00T internal ref (°C)	27.19T ext. ref 1 (°C)	4.06T ext. ref 2 (°C)	21.44length (m)	temperature (°C)	Stokes	anti-Stokes-747.200	41.593	0.154	-0.140
-746.185	800.000	-0.011	-0.035
-745.171	-200.000	-0.039	0.256
-744.156	-200.000	-0.050	0.252
-743.142	200.364	0.071	0.110
-742.127	-65.892	0.275	-0.110
-741.112	-200.000	0.043	-0.240
-740.098	800.000	-0.030	0.124
-739.083	490.306	0.129	-0.297
-738.069	-11.555	-0.201	0.133
-737.054	-59.002	0.248	0.108
-736.039	-17.302	0.146	0.093
-735.025	800.000	0.041	-0.136
-734.010	-65.550	-0.389	-0.157
-732.996	-21.018	0.288	-0.177
-731.981	-138.376	-0.229	0.025
-730.966	-104.603	-0.632	0.147
-729.952	129.401	-0.123	-0.158
-728.937	24.230	0.033	0.028
-727.923	-145.964	0.170	0.015
-726.908	3.440	0.150	-0.110
-725.894	-200.000	-0.029	-0.166
-724.879	-12.909	0.091	-0.060
-723.864	-200.000	0.066	-0.316
-722.850	-164.226	-0.518	-0.024
-721.835	-106.305	-0.216	0.049
-720.821	-182.102	0.160	0.003
-719.806	-158.585	-0.321	0.019
-718.791	171.507	-0.113	-0.164
-717.777	-100.116	-0.111	0.028
-716.762	-20.039	-0.234	0.145
-715.748	-35.859	0.254	-0.138
-714.733	162.223	0.057	0.080
-713.718	-200.000	0.006	0.144
-712.704	-109.406	0.083	-0.018
-711.689	236.625	0.058	-0.097
-710.675	-23.872	0.167	-0.101
-709.660	800.000	-0.036	0.101
-708.645	139.808	0.072	-0.095
-707.631	-200.000	0.060	-0.427
-706.616	18.848	-0.037	-0.030
-705.602	-82.203	0.179	0.058
-704.587	-200.000	0.000	0.083
-703.572	800.000	-0.074	0.227
-702.558	173.291	0.099	-0.143
-701.543	2.508	-0.499	0.363
-700.529	-22.816	0.118	-0.072
-699.514	204.575	0.026	-0.041
-698.499	-120.173	0.251	0.043
-697.485	132.860	-0.052	-0.067
-696.470	-103.737	0.318	-0.075
-695.456	-76.234	0.255	-0.090
-694.441	190.966	-0.060	-0.090
-693.426	23.168	0.225	0.185
-692.412	-42.431	-0.232	0.119
-691.397	-141.156	0.129	-0.013
-690.383	26.100	-0.186	0.156
-689.368	-141.382	0.042	0.004
-688.354	-200.000	-0.008	0.204
-687.339	26.925	-0.209	0.175
-686.324	-112.897	-0.238	-0.047
-685.310	162.493	0.024	-0.034
-684.295	-200.000	-0.102	0.457
-683.281	800.000	0.071	-0.272
-682.266	410.997	0.177	0.377
-681.251	-200.000	0.000	-0.072
-680.237	81.131	-0.107	-0.116
-679.222	-93.792	0.062	-0.017
-678.208	160.792	-0.104	0.145
-677.193	-200.000	0.042	0.287
-676.178	-101.970	0.324	-0.079
-675.164	-122.490	0.215	0.035
-674.149	155.648	0.162	-0.224
-673.135	-200.000	-0.021	-0.408
-672.120	-50.485	0.136	0.064
-671.105	576.312	0.002	-0.004
-670.091	445.247	0.063	-0.139
-669.076	21.861	-0.275	-0.225
-668.062	800.000	0.030	-0.089
-667.047	509.266	-0.063	-0.148
-666.032	-52.541	-0.232	0.108
-665.018	339.169	0.127	-0.249
-664.003	-99.576	0.134	0.034
-662.989	-200.000	-0.010	-0.282
-661.974	-200.000	-0.010	-0.086
-660.959	-61.037	-0.160	-0.068
-659.945	-162.108	0.267	-0.013
-658.930	-5.536	-0.123	0.085
-657.916	-85.088	0.153	-0.048
-656.901	8.467	-0.087	0.066
-655.886	-181.000	0.166	-0.003
-654.872	-200.000	-0.042	-0.191
-653.857	-72.245	0.299	-0.111
-652.843	-200.000	-0.027	-0.307
-651.828	-126.750	-0.172	-0.025
-650.814	-29.958	-0.562	-0.321
-649.799	-36.354	-0.169	0.091
-648.784	-200.000	0.007	0.284
-647.770	531.671	-0.058	0.137
-646.755	-81.352	0.175	-0.058
-645.741	-24.994	-0.058	0.034
-644.726	-200.000	0.004	0.038
-643.711	-19.009	-0.193	-0.120
-642.697	800.000	-0.108	-0.344
-641.682	7.804	0.292	-0.219
-640.668	97.606	-0.152	0.175
-639.653	45.386	0.008	-0.008
-638.638	-54.597	0.056	-0.025
-637.624	308.519	0.032	-0.060
-636.609	-33.513	-0.362	-0.200
-635.595	-77.228	-0.116	0.040
-634.580	-200.000	-0.072	0.326
-633.565	-200.000	0.005	-0.089
-632.551	42.018	-0.254	0.231
-631.536	-25.753	-0.059	0.035
-630.522	780.451	-0.044	0.121
-629.507	-82.835	-0.232	0.075
-628.492	-141.588	0.094	0.010
-627.478	39.782	0.098	0.088
-626.463	-200.000	0.004	0.286
-625.449	146.725	-0.202	-0.272
-624.434	-62.618	-0.200	-0.083
-623.419	-58.169	-0.185	-0.081
-622.405	800.000	-0.054	-0.167
-621.390	-43.617	-0.128	0.065
-620.376	186.819	0.205	-0.306
-619.361	-105.038	0.344	0.079
-618.346	-106.786	0.206	-0.046
-617.332	107.182	-0.147	-0.175
-616.317	-35.645	-0.102	-0.055
-615.303	-200.000	-0.007	-0.118
-614.288	34.320	0.085	-0.074
-613.273	800.000	0.136	0.433
-612.259	91.651	-0.100	-0.112
-611.244	-200.000	0.002	0.062
-610.230	-76.752	0.087	0.031
-609.215	-99.673	0.133	-0.033
-608.201	229.714	0.022	0.036
-607.186	-123.679	-0.285	0.045
-606.171	72.914	0.118	0.124
-605.157	144.167	-0.047	-0.063
-604.142	-99.442	-0.111	0.028
-603.128	149.902	0.057	-0.078
-602.113	800.000	-0.078	0.222
-601.098	354.848	-0.097	0.192
-600.084	-159.466	0.104	0.006
-599.069	-34.000	-0.134	-0.074
-598.055	289.291	-0.094	-0.170
-597.040	-72.063	0.058	0.021
-596.025	76.106	-0.168	0.178
-595.011	-50.480	-0.051	0.024
-593.996	-178.100	-0.089	0.002
-592.982	-56.043	0.136	-0.061
-591.967	-98.203	0.296	-0.076
-590.952	-118.376	-0.269	0.048
-589.938	50.012	-0.186	0.175
-588.923	-76.342	-0.136	-0.048
-587.909	-100.226	-0.206	0.051
-586.894	34.682	-0.222	0.194
-585.879	-200.000	0.056	0.349
-584.865	290.308	0.065	-0.118
-583.850	-74.714	-0.047	0.017
-582.836	-200.000	-0.013	-0.109
-581.821	187.375	0.115	-0.171
-580.806	-76.672	-0.295	0.103
-579.792	-121.416	0.219	0.036
-578.777	342.916	0.096	-0.188
-577.763	-51.817	-0.022	-0.010
-576.748	267.787	-0.161	-0.282
-575.733	-200.000	-0.011	-0.068
-574.719	-69.686	0.163	-0.062
-573.704	-172.311	-0.303	0.010
-572.690	-97.711	-0.135	-0.035
-571.675	-200.000	0.027	-0.190
-570.661	-200.000	-0.004	-0.287
-569.646	-47.674	0.230	-0.112
-568.631	-200.000	-0.004	-0.127
-567.617	235.138	0.054	-0.089
-566.602	268.706	-0.105	-0.183
-565.588	341.984	0.106	0.208
-564.573	-132.814	0.154	-0.020
-563.558	-78.753	-0.135	0.046
-562.544	-159.728	0.036	0.002
-561.529	800.000	-0.104	-0.361
-560.515	157.850	-0.059	0.081
-559.500	-108.660	-0.337	0.072
-558.485	-200.000	0.014	0.259
-557.471	-35.686	-0.105	-0.057
-556.456	-104.371	0.157	0.036
-555.442	-200.000	-0.007	-0.149
-554.427	800.000	-0.034	0.095
-553.412	-120.355	-0.134	-0.023
-552.398	-53.939	0.136	0.062
-551.383	-65.281	-0.232	-0.093
-550.369	-132.184	0.269	0.035
-549.354	92.726	-0.220	-0.248
-548.339	75.354	0.127	0.134
-547.325	-55.206	-0.160	-0.072
-546.310	709.086	-0.037	-0.098
-545.296	207.477	-0.010	0.015
-544.281	-17.296	-0.183	0.115
-543.266	530.575	-0.085	-0.200
-542.252	43.230	-0.092	0.084
-541.237	-54.788	0.092	0.041
-540.223	51.709	0.059	-0.056
-539.208	-114.722	-0.172	-0.033
-538.193	-25.762	0.025	0.015
-537.179	-85.192	0.163	-0.051
-536.164	-9.495	-0.267	-0.177
-535.150	-135.368	-0.275	0.033
-534.135	-23.293	-0.103	-0.062
-533.121	800.000	-0.089	-0.307
-532.106	4.982	0.117	-0.086
-531.091	149.765	0.089	-0.121
-530.077	54.068	-0.178	0.171
-529.062	215.434	0.103	-0.163
-528.048	-90.300	-0.394	0.114
-527.033	-99.893	0.238	0.059
-526.018	234.716	0.165	0.272
-525.004	-54.319	-0.143	0.065
-523.989	554.293	-0.077	0.184
-522.975	94.783	0.168	0.190
-521.960	-200.000	0.025	-0.188
-520.945	-8.419	0.170	0.114
-519.931	800.000	-0.028	0.103
-518.916	81.677	-0.164	0.177
-517.902	141.033	0.138	0.182
-516.887	389.637	-0.099	-0.204
-515.872	-5.910	0.096	-0.066
-514.858	-12.295	-0.118	-0.077
-513.843	-200.000	-0.030	0.153
-512.829	-82.975	0.140	0.045
-511.814	519.368	0.043	-0.101
-510.799	800.000	0.112	-0.359
-509.785	800.000	0.025	0.081
-508.770	-68.501	-0.113	-0.044
-507.756	800.000	-0.069	0.299
-506.741	-200.000	-0.010	-0.192
-505.726	151.192	0.271	0.368
-504.712	-2.917	0.232	0.161
-503.697	-60.510	0.121	-0.051
-502.683	-200.000	-0.035	0.277
-501.668	-200.000	-0.012	-0.063
-500.653	681.358	0.125	-0.325
-499.639	-200.000	-0.020	0.141
-498.624	42.676	-0.014	-0.013
-497.610	45.973	-0.205	-0.189
-496.595	-82.227	0.228	-0.074
-495.581	-5.656	-0.130	0.089
-494.566	30.103	0.142	0.121
-493.551	-17.592	0.174	-0.109
-492.537	7.191	-0.490	-0.364
-491.522	-200.000	-0.005	0.268
-490.508	-126.311	-0.334	0.050
-489.493	90.180	0.186	-0.208
-488.478	-4.974	0.070	-0.048
-487.464	67.938	-0.137	-0.140
-486.449	196.405	0.124	0.188
-485.435	-41.119	0.164	0.084
-484.420	-62.642	-0.253	0.105
-483.405	-137.873	0.360	-0.040
-482.391	800.000	-0.033	-0.110
-481.376	-200.000	0.032	-0.325
-480.362	-200.000	0.054	-0.249
-479.347	61.358	0.547	-0.541
-478.332	111.709	-0.066	0.080
-477.318	-56.252	0.208	0.092
-476.303	800.000	-0.072	-0.245
-475.289	-28.921	-0.093	0.053
-474.274	19.800	-0.069	-0.055
-473.259	-111.443	-0.117	0.024
-472.245	-149.425	0.263	0.021
-471.230	158.250	0.187	-0.259
-470.216	-200.000	0.035	-0.274
-469.201	71.506	0.207	0.214
-468.186	800.000	-0.106	0.333
-467.172	110.765	0.044	0.053
-466.157	619.737	-0.124	0.310
-465.143	23.967	-0.103	0.085
-464.128	800.000	-0.070	0.293
-463.113	233.460	0.031	-0.051
-462.099	-89.174	0.264	0.077
-461.084	800.000	0.066	0.218
-460.070	-64.444	-0.242	0.098
-459.055	-200.000	0.028	-0.162
-458.040	292.349	-0.187	-0.338
-457.026	-120.102	0.161	0.028
-456.011	-89.197	-0.054	0.016
-454.997	199.952	0.163	-0.249
-453.982	199.686	-0.101	-0.154
-452.968	52.239	-0.097	-0.092
-451.953	800.000	-0.065	-0.187
-450.938	33.744	0.088	-0.076
-449.924	800.000	0.050	-0.151
-448.909	89.515	-0.140	-0.156
-447.895	-128.805	0.084	0.012
-446.880	623.425	0.054	-0.134
-445.865	97.669	-0.097	0.111
-444.851	-98.799	-0.199	-0.050
-443.836	110.829	-0.335	0.401
-442.822	-111.679	0.208	-0.042
-441.807	-36.884	0.039	-0.021
-440.792	399.795	0.158	0.329
-439.778	-200.000	0.009	-0.238
-438.763	87.897	-0.077	0.085
-437.749	-31.990	-0.094	0.052
-436.734	14.368	0.040	0.031
-435.719	-200.000	0.014	0.092
-434.705	-130.007	0.064	0.009
-433.690	-93.994	0.132	0.036
-432.676	-164.251	-0.141	-0.006
-431.661	124.497	-0.043	-0.054
-430.646	-96.387	-0.306	-0.080
-429.632	543.040	0.074	0.174
-428.617	99.648	0.038	-0.044
-427.603	540.348	-0.071	-0.169
-426.588	-200.000	0.000	0.006
-425.573	-70.530	0.227	0.085
-424.559	45.761	0.213	0.196
-423.544	33.198	-0.071	-0.061
-422.530	-200.000	0.023	0.103
-421.515	3.220	0.251	0.182
-420.500	-200.000	0.027	-0.209
-419.486	-165.086	-0.114	-0.005
-418.471	-5.701	0.153	-0.104
-417.457	-96.724	-0.356	-0.093
-416.442	-200.000	0.009	-0.060
-415.428	75.617	0.064	0.067
-414.413	-160.218	-0.305	-0.016
-413.398	-24.884	-0.214	0.126
-412.384	800.000	0.028	-0.102
-411.369	63.513	-0.083	-0.083
-410.355	-55.840	0.314	-0.139
-409.340	75.425	0.183	0.192
-408.325	-63.298	-0.189	0.077
-407.311	-30.997	0.185	-0.104
-406.296	3.637	0.341	-0.247
-405.282	-24.036	0.032	-0.019
-404.267	-200.000	0.005	0.155
-403.252	-179.045	-0.245	-0.005
-402.238	800.000	0.068	-0.253
-401.223	800.000	-0.082	0.303
-400.209	-51.807	0.179	-0.083
-399.194	-93.105	-0.090	0.025
-398.179	71.739	-0.170	-0.176
-397.165	279.013	-0.089	0.157
-396.150	505.313	0.107	-0.247
-395.136	-1.454	0.187	0.131
-394.121	-24.619	-0.198	-0.117
-393.106	-31.260	0.145	0.081
-392.092	800.000	-0.095	-0.320
-391.077	81.396	0.128	-0.138
-390.063	86.317	-0.183	0.200
-389.048	-200.000	0.019	-0.380
-388.033	-25.066	0.218	0.128
-387.019	-61.500	-0.255	-0.106
-386.004	86.829	0.023	0.025
-384.990	124.473	0.088	-0.110
-383.975	-200.000	-0.041	-0.292
-382.960	800.000	0.056	-0.170
-381.946	-46.005	0.262	0.128
-380.931	-174.991	-0.331	-0.009
-379.917	-200.000	-0.003	-0.310
-378.902	-200.000	0.010	0.192
-377.888	181.139	0.134	-0.196
-376.873	295.001	-0.019	0.034
-375.858	800.000	0.059	-0.225
-374.844	-90.400	0.286	-0.082
-373.829	-200.000	-0.013	0.258
-372.815	-7.210	0.045	0.030
-371.800	-200.000	-0.012	0.275
-370.785	-29.748	-0.190	-0.107
-369.771	-76.245	-0.050	-0.018
-368.756	-126.307	0.045	-0.007
-367.742	-5.115	-0.147	0.100
-366.727	-200.000	0.020	0.167
-365.712	-90.417	-0.107	-0.031
-364.698	-106.456	-0.564	-0.125
-363.683	-152.360	0.198	0.014
-362.669	161.972	-0.117	0.162
-361.654	555.867	0.021	-0.051
-360.639	800.000	0.077	-0.239
-359.625	-200.000	0.067	-0.311
-358.610	800.000	0.086	-0.279
-357.596	-71.066	-0.242	-0.090
-356.581	532.143	-0.047	-0.111
-355.566	-76.796	-0.141	-0.049
-354.552	4.541	-0.073	0.053
-353.537	-71.518	-0.022	-0.008
-352.523	-200.000	-0.007	-0.186
-351.508	-82.866	-0.217	0.069
-350.493	440.387	0.163	0.353
-349.479	334.129	-0.167	0.320
-348.464	38.595	-0.168	0.148
-347.450	32.435	-0.270	0.231
-346.435	9.522	0.094	0.071
-345.420	159.058	-0.165	0.228
-344.406	13.790	-0.120	0.092
-343.391	-84.974	0.212	0.066
-342.377	-15.298	-0.287	0.182
-341.362	19.483	0.239	0.190
-340.348	-32.683	-0.269	0.148
-339.333	174.488	0.132	0.189
-338.318	327.730	-0.138	0.263
-337.304	-200.000	-0.055	-0.247
-336.289	-48.534	0.395	-0.188
-335.275	-190.774	-0.164	-0.002
-334.260	-200.000	0.035	-0.227
-333.245	93.665	0.259	0.290
-332.231	-42.229	0.116	0.059
-331.216	-200.000	0.008	0.118
-330.202	800.000	0.061	0.216
-329.187	-116.755	-0.099	-0.018
-328.172	-20.590	0.063	-0.038
-327.158	-102.993	-0.313	0.073
-326.143	800.000	0.016	-0.051
-325.129	800.000	0.082	0.245
-324.114	-3.358	-0.151	0.104
-323.099	-6.038	-0.171	-0.116
-322.085	-43.351	0.357	-0.178
-321.070	331.742	0.057	0.109
-320.056	116.412	-0.089	0.108
-319.041	-200.000	0.061	-0.388
-318.026	-37.573	0.260	0.137
-317.012	162.349	0.175	0.243
-315.997	102.005	-0.130	0.150
-314.983	-200.000	0.008	-0.055
-313.968	338.408	0.217	0.418
-312.953	253.980	-0.152	0.256
-311.939	54.674	-0.115	0.110
-310.924	-93.196	0.183	0.050
-309.910	345.161	0.075	0.146
-308.895	-200.000	0.021	-0.393
-307.880	-51.768	-0.144	0.066
-306.866	-115.394	-0.370	0.069
-305.851	-6.268	0.245	0.165
-304.837	-0.156	0.077	-0.054
-303.822	95.514	0.178	0.200
-302.807	-115.696	-0.031	0.006
-301.793	-200.000	-0.031	0.285
-300.778	-47.689	-0.581	-0.279
-299.764	-131.623	0.126	0.016
-298.749	-200.000	0.012	0.155
-297.735	364.053	-0.197	-0.392
-296.720	-200.000	-0.023	-0.370
-295.705	-17.807	-0.180	0.111
-294.691	-200.000	0.039	0.206
-293.676	-10.931	0.212	-0.138
-292.662	400.281	0.062	-0.127
-291.647	-200.000	-0.034	0.270
-290.632	26.547	0.230	0.190
-289.618	21.344	0.237	0.190
-288.603	-135.026	0.256	-0.030
-287.589	-0.861	0.180	0.126
-286.574	-200.000	0.063	-0.301
-285.559	96.137	0.149	-0.168
-284.545	203.242	-0.096	0.147
-283.530	137.211	0.224	0.289
-282.516	14.951	-0.105	0.081
-281.501	60.899	-0.193	-0.189
-280.486	800.000	0.097	0.307
-279.472	188.805	0.232	0.343
-278.457	413.994	0.084	-0.177
-277.443	207.020	0.099	-0.153
-276.428	-60.715	-0.168	0.070
-275.413	-200.000	-0.014	-0.314
-274.399	-43.814	-0.440	0.219
-273.384	346.383	0.174	-0.338
-272.370	-200.000	-0.003	0.048
-271.355	87.471	0.164	-0.179
-270.340	-81.985	-0.115	-0.037
-269.326	58.269	0.178	-0.172
-268.311	-151.370	-0.144	0.011
-267.297	129.099	0.129	0.162
-266.282	-20.610	0.121	0.073
-265.267	-16.106	0.172	-0.108
-264.253	-200.000	0.002	-0.029
-263.238	244.868	0.250	-0.416
-262.224	-15.352	-0.201	0.127
-261.209	-6.143	0.046	0.031
-260.195	-200.000	-0.004	0.044
-259.180	-84.384	-0.334	-0.104
-258.165	142.167	0.083	-0.109
-257.151	-200.000	0.017	-0.215
-256.136	-200.000	-0.015	-0.163
-255.122	-37.710	-0.245	0.129
-254.107	-27.700	-0.100	-0.057
-253.092	-200.000	0.007	-0.058
-252.078	426.640	-0.119	0.254
-251.063	-74.762	0.476	-0.169
-250.049	-125.580	0.331	0.050
-249.034	-32.277	0.153	0.084
-248.019	-200.000	0.024	-0.277
-247.005	-35.867	-0.260	0.139
-245.990	-82.709	0.290	0.092
-244.976	-123.834	0.080	0.012
-243.961	-83.286	-0.179	0.057
-242.946	-131.523	0.286	-0.037
-241.932	-116.522	-0.148	-0.027
-240.917	14.307	-0.192	-0.148
-239.903	800.000	-0.077	-0.218
-238.888	-200.000	-0.014	-0.210
-237.873	800.000	0.034	0.103
-236.859	63.377	-0.145	0.144
-235.844	-141.947	0.406	0.040
-234.830	190.935	-0.092	-0.137
-233.815	800.000	-0.070	0.273
-232.800	800.000	0.063	0.236
-231.786	370.073	-0.060	-0.120
-230.771	18.537	-0.171	0.135
-229.757	-8.578	-0.200	0.132
-228.742	500.723	-0.099	0.225
-227.727	-110.665	-0.195	0.040
-226.713	800.000	0.043	-0.118
-225.698	3.205	-0.108	-0.077
-224.684	-200.000	0.078	-0.350
-223.669	-152.122	0.092	0.007
-222.655	157.687	-0.126	-0.172
-221.640	428.002	0.034	-0.072
-220.625	92.918	-0.160	0.178
-219.611	-47.254	-0.307	0.147
-218.596	355.369	0.157	-0.307
-217.582	181.614	0.165	0.240
-216.567	-106.198	0.158	-0.035
-215.552	-103.996	-0.137	-0.032
-214.538	-37.128	-0.127	-0.067
-213.523	-40.538	0.159	-0.081
-212.509	-200.000	0.025	0.224
-211.494	-148.148	0.154	-0.013
-210.479	800.000	0.007	0.023
-209.465	13.880	-0.061	0.047
-208.450	205.302	-0.251	0.384
-207.436	-117.074	0.206	0.037
-206.421	-97.945	0.084	0.021
-205.406	-83.885	0.103	-0.032
-204.392	179.035	0.168	0.242
-203.377	800.000	0.045	0.156
-202.363	-1.407	-0.150	0.104
-201.348	181.773	-0.056	0.081
-200.333	2.520	0.237	-0.169
-199.319	-159.474	0.215	-0.012
-198.304	-75.102	0.187	0.066
-197.290	-108.960	-0.126	0.026
-196.275	-27.869	0.063	-0.036
-195.260	-12.481	0.100	0.064
-194.246	598.347	0.122	0.297
-193.231	-136.125	0.199	-0.023
-192.217	-200.000	0.041	-0.356
-191.202	-124.252	0.237	-0.036
-190.187	-40.783	-0.105	-0.054
-189.173	-137.665	-0.210	-0.023
-188.158	313.116	0.084	-0.155
-187.144	-200.000	0.010	0.112
-186.129	-68.846	0.223	0.085
-185.114	-153.487	0.281	0.019
-184.100	-135.159	0.241	0.028
-183.085	-102.712	0.085	-0.020
-182.071	-151.426	-0.438	-0.032
-181.056	139.771	0.068	-0.089
-180.042	332.175	0.118	0.225
-179.027	34.291	0.102	0.087
-178.012	-158.584	-0.199	0.011
-176.998	-138.240	0.262	-0.029
-175.983	61.542	0.224	0.219
-174.969	64.783	0.064	-0.064
-173.954	-80.095	0.413	-0.136
-172.939	-134.611	0.180	-0.022
-171.925	-113.234	0.421	-0.081
-170.910	-71.885	0.250	0.092
-169.896	43.922	-0.163	0.147
-168.881	-2.634	-0.061	0.042
-167.866	-10.416	-0.098	-0.064
-166.852	1.911	-0.218	0.155
-165.837	-58.089	0.242	0.104
-164.823	-200.000	-0.027	-0.230
-163.808	-151.766	-0.101	0.007
-162.793	-97.482	-0.181	0.046
-161.779	800.000	0.052	-0.189
-160.764	524.070	-0.075	-0.174
-159.750	-52.798	0.274	0.124
-158.735	60.729	0.165	0.161
-157.720	-200.000	-0.004	-0.050
-156.706	90.663	0.047	-0.051
-155.691	10.269	-0.091	-0.068
-154.677	-126.175	-0.490	0.072
-153.662	249.543	-0.037	0.061
-152.647	-147.390	-0.099	-0.008
-151.633	235.527	0.028	-0.045
-150.618	197.381	-0.120	-0.181
-149.604	-116.632	-0.166	0.030
-148.589	612.906	0.069	0.171
-147.574	-200.000	0.010	0.056
-146.560	-50.461	0.308	-0.143
-145.545	122.271	-0.213	-0.262
-144.531	339.136	-0.092	0.177
-143.516	-200.000	-0.005	0.103
-142.502	-200.000	0.003	-0.237
-141.487	800.000	-0.088	0.341
-140.472	127.036	-0.176	0.219
-139.458	-84.663	0.246	0.076
-138.443	-32.422	-0.180	0.099
-137.429	-33.177	-0.435	0.237
-136.414	-97.759	0.115	0.029
-135.399	195.146	0.118	0.176
-134.385	-147.759	-0.394	0.032
-133.370	-0.725	0.262	0.183
-132.356	55.380	-0.238	-0.226
-131.341	157.821	-0.154	-0.209
-130.326	265.863	0.077	0.132
-129.312	570.754	0.063	0.151
-128.297	116.898	-0.141	0.170
-127.283	278.491	-0.101	-0.176
-126.268	-42.688	0.160	0.080
-125.253	-124.831	-0.349	-0.053
-124.239	415.212	-0.144	0.302
-123.224	36.043	0.348	0.301
-122.210	-99.492	0.358	0.088
-121.195	-1.196	0.039	-0.027
-120.180	-200.000	-0.042	-0.206
