DTS Sentinel unit serial number:	SN413079Multiplexer serial number:	ORYXHardware model number:	OX4-SRSoftware version number:	ORYX F/W v4.00 Oryx Data Collector v3.7.2.0data status	okinstallation	princeton_trtdifferential loss correction	single-endedforward channel	channel 1reverse channel	N/Adate	2019/09/14time	04:54:35forward acquisition time	60.00reverse acquisition time	0.00gamma	496.2192k internal	0.2334k external	0.2334temperature offset calibration	1.0079default loss term (dB/km)	0.3790temperature slope calibration	1.0000multiplexer offset coefficient	1.0000multiplexer slope coefficient	1.0000fibre end	0.00T internal ref (°C)	26.86T ext. ref 1 (°C)	3.37T ext. ref 2 (°C)	21.98length (m)	temperature (°C)	Stokes	anti-Stokes-747.200	800.000	-0.075	0.291
-746.185	296.340	-0.191	0.351
-745.171	-200.000	0.012	-0.300
-744.156	-113.885	-0.211	-0.041
-743.142	-200.000	-0.020	-0.168
-742.127	-86.172	-0.380	0.118
-741.112	800.000	-0.073	0.316
-740.098	-125.008	-0.118	-0.018
-739.083	-84.893	-0.205	0.065
-738.069	448.945	-0.209	0.462
-737.054	86.661	0.207	0.230
-736.039	147.638	0.191	-0.259
-735.025	-1.477	0.248	0.176
-734.010	-70.514	-0.463	0.176
-732.996	-51.825	-0.154	-0.072
-731.981	-28.611	0.079	-0.046
-730.966	800.000	-0.133	-0.379
-729.952	-60.989	-0.126	0.053
-728.937	11.860	-0.239	-0.184
-727.923	-86.796	-0.203	0.062
-726.908	-146.097	-0.152	0.013
-725.894	-127.637	-0.158	0.023
-724.879	251.458	-0.150	-0.256
-723.864	325.259	0.091	0.174
-722.850	-200.000	-0.033	-0.195
-721.835	-0.921	0.071	-0.051
-720.821	-80.776	0.267	0.089
-719.806	-200.000	0.055	-0.252
-718.791	115.275	-0.296	-0.363
-717.777	-200.000	0.046	-0.325
-716.762	265.330	-0.070	0.122
-715.748	-14.997	-0.110	-0.071
-714.733	-200.000	0.059	-0.369
-713.718	159.905	0.024	-0.034
-712.704	800.000	0.031	-0.104
-711.689	57.446	0.104	0.102
-710.675	800.000	-0.092	0.289
-709.660	-22.911	-0.037	-0.022
-708.645	800.000	0.068	-0.251
-707.631	-200.000	-0.002	-0.131
-706.616	-48.975	0.160	-0.077
-705.602	-69.764	-0.167	-0.064
-704.587	63.750	0.114	-0.114
-703.572	-25.887	0.670	-0.396
-702.558	-200.000	-0.006	-0.224
-701.543	-200.000	-0.007	0.167
-700.529	244.620	0.111	-0.187
-699.514	-126.305	0.225	0.034
-698.499	800.000	0.105	0.329
-697.485	-200.000	0.047	-0.283
-696.470	800.000	0.016	-0.067
-695.456	342.900	-0.107	-0.209
-694.441	727.990	-0.042	0.112
-693.426	-54.235	0.092	-0.042
-692.412	114.535	0.172	-0.210
-691.397	-80.367	0.219	-0.074
-690.383	-150.894	0.018	-0.001
-689.368	107.922	0.087	-0.104
-688.354	-94.832	-0.286	-0.078
-687.339	-151.731	-0.371	0.027
-686.324	-135.896	0.207	0.024
-685.310	136.173	-0.157	-0.205
-684.295	-65.019	0.323	0.131
-683.281	-63.851	-0.099	-0.041
-682.266	-123.048	-0.054	0.009
-681.251	239.561	-0.042	0.071
-680.237	-88.660	0.177	-0.053
-679.222	-117.421	0.267	-0.048
-678.208	800.000	-0.035	0.133
-677.193	-80.340	0.258	-0.086
-676.178	109.332	-0.179	-0.215
-675.164	-34.839	0.435	0.238
-674.149	-136.045	-0.285	-0.034
-673.135	22.634	-0.069	-0.057
-672.120	36.499	-0.225	0.199
-671.105	-50.637	0.246	0.116
-670.091	30.370	-0.189	-0.162
-669.076	-39.743	-0.146	-0.076
-668.062	-75.113	-0.271	-0.097
-667.047	-89.628	-0.277	-0.081
-666.032	-48.642	-0.370	-0.178
-665.018	-200.000	0.056	-0.299
-664.003	-49.358	-0.268	-0.128
-662.989	-21.324	-0.438	0.268
-661.974	184.755	-0.132	0.196
-660.959	-45.575	-0.172	0.085
-659.945	-200.000	-0.036	0.356
-658.930	-92.434	0.206	-0.058
-657.916	-180.414	0.179	-0.004
-656.901	-200.000	0.061	-0.398
-655.886	118.092	-0.234	0.289
-654.872	1.520	0.194	-0.140
-653.857	800.000	0.058	-0.213
-652.843	199.769	-0.150	0.231
-651.828	10.624	-0.225	0.172
-650.814	699.415	0.088	0.231
-649.799	-125.997	-0.353	0.053
-648.784	-49.267	0.369	-0.176
-647.770	192.175	0.124	-0.188
-646.755	-100.145	-0.206	0.051
-645.741	-111.382	0.021	-0.004
-644.726	230.534	-0.127	-0.209
-643.711	800.000	-0.055	0.236
-642.697	-143.241	-0.308	-0.030
-641.682	-118.444	-0.126	-0.022
-640.668	-70.204	-0.081	-0.031
-639.653	23.485	0.203	0.168
-638.638	-200.000	0.024	0.163
-637.624	-26.903	0.162	-0.095
-636.609	-48.020	0.024	0.011
-635.595	-123.807	-0.160	-0.025
-634.580	-85.755	0.281	0.087
-633.565	205.051	-0.090	-0.140
-632.551	-169.274	0.485	-0.018
-631.536	-200.000	0.013	-0.188
-630.522	95.313	0.080	0.091
-629.507	85.593	-0.150	0.165
-628.492	127.648	-0.081	0.103
-627.478	-200.000	-0.011	0.333
-626.463	-123.404	-0.247	-0.039
-625.449	-58.422	-0.249	-0.108
-624.434	-200.000	0.046	-0.208
-623.419	14.288	0.127	0.099
-622.405	340.932	0.227	0.443
-621.390	31.657	0.114	0.098
-620.376	-48.016	0.146	0.071
-619.361	511.112	-0.163	-0.379
-618.346	370.772	0.024	0.048
-617.332	90.054	-0.091	-0.101
-616.317	342.567	-0.065	0.128
-615.303	-111.809	-0.164	-0.033
-614.288	-43.433	0.156	-0.079
-613.273	12.694	0.169	-0.130
-612.259	-200.000	-0.018	0.201
-611.244	-53.028	-0.240	-0.110
-610.230	645.758	-0.041	0.106
-609.215	-23.611	0.210	0.126
-608.201	800.000	-0.068	0.275
-607.186	750.471	0.160	0.432
-606.171	288.554	-0.062	0.113
-605.157	356.888	-0.169	-0.337
-604.142	-79.312	0.226	0.077
-603.128	478.036	-0.168	0.379
-602.113	451.225	-0.134	0.297
-601.098	-178.311	-0.084	-0.002
-600.084	-0.015	0.199	-0.141
-599.069	574.441	0.143	-0.349
-598.055	-56.825	-0.231	0.102
-597.040	114.595	0.081	0.099
-596.025	260.093	-0.032	-0.055
-595.011	-17.884	-0.152	-0.095
-593.996	85.176	0.197	-0.216
-592.982	380.086	0.046	0.095
-591.967	800.000	0.039	-0.124
-590.952	171.403	0.130	0.187
-589.938	-200.000	0.001	-0.090
-588.923	47.089	-0.228	0.212
-587.909	551.217	-0.086	0.206
-586.894	198.088	-0.147	-0.224
-585.879	395.850	0.074	-0.155
-584.865	800.000	-0.130	0.483
-583.850	-200.000	-0.016	0.093
-582.836	-56.881	0.093	-0.041
-581.821	-6.529	0.172	0.117
-580.806	-90.799	-0.104	-0.030
-579.792	14.389	-0.271	0.211
-578.777	-111.263	-0.106	-0.022
-577.763	-34.849	0.081	0.044
-576.748	3.036	0.018	-0.013
-575.733	800.000	0.048	-0.146
-574.719	-26.443	0.273	-0.160
-573.704	-28.927	-0.305	-0.175
-572.690	56.881	0.077	0.074
-571.675	37.016	0.132	-0.116
-570.661	110.914	0.305	-0.366
-569.646	-145.777	-0.104	0.009
-568.631	-179.807	0.089	0.002
-567.617	-57.638	0.146	-0.064
-566.602	286.110	0.084	0.152
-565.588	61.749	-0.187	0.186
-564.573	800.000	0.020	-0.056
-563.558	-161.795	-0.200	0.010
-562.544	170.909	-0.138	-0.197
-561.529	459.571	0.075	-0.167
-560.515	-138.183	0.087	-0.010
-559.500	492.923	-0.221	-0.505
-558.485	-116.312	-0.158	0.029
-557.471	-200.000	-0.150	-0.000
-556.456	118.105	0.087	-0.107
-555.442	313.889	0.136	0.256
-554.427	-126.966	-0.262	0.038
-553.412	-200.000	0.010	-0.075
-552.398	235.453	-0.124	0.204
-551.383	-113.786	0.236	0.046
-550.369	396.783	-0.062	-0.128
-549.354	714.689	0.115	-0.303
-548.339	25.994	0.047	-0.039
-547.325	388.821	-0.056	-0.115
-546.310	-200.000	-0.044	-0.384
-545.296	34.423	0.349	-0.304
-544.281	386.409	-0.174	0.357
-543.266	63.638	0.154	0.154
-542.252	-200.000	0.074	0.396
-541.237	-5.291	-0.142	-0.097
-540.223	291.791	-0.129	-0.234
-539.208	67.556	-0.254	0.259
-538.193	-200.000	0.007	-0.251
-537.179	170.758	0.113	0.162
-536.164	-200.000	-0.001	0.203
-535.150	72.993	0.102	-0.106
-534.135	800.000	0.072	-0.199
-533.121	800.000	-0.107	-0.340
-532.106	705.490	0.057	-0.151
-531.091	216.045	-0.070	0.112
-530.077	-71.316	0.362	-0.135
-529.062	14.841	-0.305	-0.238
-528.048	800.000	0.026	-0.102
-527.033	-200.000	-0.032	-0.149
-526.018	800.000	-0.069	0.237
-525.004	-7.422	-0.372	0.251
-523.989	395.936	0.093	-0.194
-522.975	104.897	0.185	-0.218
-521.960	-200.000	0.049	-0.282
-520.945	-59.203	-0.266	-0.114
-519.931	97.834	-0.096	-0.110
-518.916	-14.091	-0.152	0.098
-517.902	-120.176	-0.087	-0.015
-516.887	-166.228	-0.139	0.006
-515.872	379.711	-0.043	-0.087
-514.858	-4.181	0.351	-0.242
-513.843	607.108	-0.127	-0.316
-512.829	800.000	-0.072	-0.270
-511.814	207.448	-0.152	0.236
-510.799	703.346	-0.057	-0.150
-509.785	-193.143	-0.154	-0.001
-508.770	800.000	-0.050	-0.180
-507.756	-200.000	-0.007	-0.182
-506.741	51.917	-0.142	-0.134
-505.726	43.981	0.206	0.188
-504.712	-200.000	-0.038	-0.194
-503.697	800.000	-0.052	-0.191
-502.683	-56.267	-0.271	-0.120
-501.668	63.532	-0.063	0.063
-500.653	-161.687	-0.343	0.017
-499.639	98.626	-0.047	-0.054
-498.624	396.360	0.163	-0.338
-497.610	-111.936	0.411	0.082
-496.595	-200.000	0.035	0.193
-495.581	287.910	0.100	0.180
-494.566	-68.901	-0.342	-0.131
-493.551	261.440	-0.103	-0.177
-492.537	26.290	-0.024	-0.020
-491.522	-200.000	0.001	-0.390
-490.508	-89.483	0.043	0.013
-489.493	-200.000	-0.009	-0.112
-488.478	15.002	-0.177	0.138
-487.464	800.000	-0.043	0.146
-486.449	-42.590	-0.198	-0.101
-485.435	127.189	-0.065	0.082
-484.420	438.117	-0.064	-0.139
-483.405	-200.000	-0.024	-0.221
-482.391	-8.577	-0.214	-0.143
-481.376	800.000	-0.050	0.160
-480.362	-200.000	0.009	-0.284
-479.347	28.247	0.269	-0.226
-478.332	-200.000	-0.016	0.089
-477.318	-24.780	0.109	0.064
-476.303	-71.739	0.224	-0.083
-475.289	217.737	-0.098	0.155
-474.274	-200.000	0.016	-0.173
-473.259	-50.700	-0.297	-0.139
-472.245	-200.000	0.017	0.523
-471.230	199.573	0.078	-0.119
-470.216	99.083	-0.188	-0.216
-469.201	-131.862	0.469	-0.061
-468.186	-69.697	-0.361	-0.137
-467.172	-200.000	-0.065	-0.424
-466.157	-120.382	-0.196	-0.033
-465.143	231.462	0.148	-0.241
-464.128	-183.469	0.176	0.003
-463.113	198.695	-0.152	-0.232
-462.099	128.523	-0.236	0.299
-461.084	242.424	0.170	-0.283
-460.070	-94.648	0.178	-0.048
-459.055	221.097	-0.053	-0.084
-458.040	800.000	-0.066	-0.266
-457.026	-18.362	0.058	-0.036
-456.011	-116.969	0.289	0.052
-454.997	-27.527	-0.129	0.074
-453.982	-200.000	0.030	0.267
-452.968	-200.000	-0.046	-0.392
-451.953	-21.653	-0.257	-0.156
-450.938	206.170	0.192	-0.296
-449.924	153.135	0.112	0.153
-448.909	800.000	-0.044	-0.135
-447.895	-29.398	0.204	-0.116
-446.880	-144.958	-0.164	-0.015
-445.865	-112.145	-0.174	0.035
-444.851	-118.512	-0.153	-0.027
-443.836	800.000	-0.053	0.155
-442.822	30.355	0.074	0.062
-441.807	-51.750	-0.040	0.019
-440.792	-145.985	0.170	0.015
-439.778	800.000	-0.060	-0.233
-438.763	-119.570	0.247	0.042
-437.749	147.701	0.137	0.183
-436.734	-56.640	-0.205	0.090
-435.719	755.417	0.050	-0.135
-434.705	800.000	-0.007	-0.027
-433.690	800.000	-0.048	0.200
-432.676	183.443	0.101	0.148
-431.661	-46.399	-0.219	0.107
-430.646	-57.348	0.093	-0.041
-429.632	-165.070	-0.139	0.006
-428.617	-10.650	-0.270	0.177
-427.603	-200.000	0.010	0.313
-426.588	149.341	0.069	-0.093
-425.573	317.019	-0.069	-0.129
-424.559	219.545	0.159	0.252
-423.544	-200.000	0.014	-0.074
-422.530	309.250	-0.027	-0.050
-421.515	-72.641	0.224	-0.082
-420.500	267.389	-0.060	0.104
-419.486	506.653	0.063	0.145
-418.471	-64.618	0.158	-0.064
-417.457	218.562	0.150	-0.238
-416.442	133.075	0.044	0.057
-415.428	715.903	0.118	0.310
-414.413	-165.329	0.105	0.005
-413.398	-125.728	-0.087	0.013
-412.384	-28.646	0.293	0.168
-411.369	419.756	0.238	-0.506
-410.355	-200.000	-0.027	-0.126
-409.340	-143.600	-0.199	0.019
-408.325	112.788	-0.266	0.320
-407.311	800.000	-0.058	0.215
-406.296	800.000	0.020	0.080
-405.282	-28.765	-0.152	-0.086
-404.267	167.832	-0.211	-0.298
-403.252	-124.885	0.264	0.040
-402.238	238.745	0.068	0.112
-401.223	73.285	-0.148	-0.154
-400.209	10.220	-0.180	0.136
-399.194	-83.528	0.140	-0.044
-398.179	-132.656	0.200	-0.025
-397.165	-80.627	-0.377	0.125
-396.150	800.000	-0.034	0.102
-395.136	-200.000	0.031	-0.270
-394.121	3.499	0.145	-0.105
-393.106	800.000	-0.023	-0.071
-392.092	-5.662	-0.096	0.066
-391.077	37.411	-0.193	-0.170
-390.063	-200.000	0.009	-0.159
-389.048	-131.618	-0.143	0.019
-388.033	-98.241	-0.091	0.023
-387.019	-27.794	0.172	-0.099
-386.004	-173.887	0.176	0.005
-384.990	73.445	0.093	0.096
-383.975	-200.000	0.005	0.214
-382.960	14.960	0.260	-0.202
-381.946	108.341	-0.042	0.050
-380.931	46.383	0.213	0.196
-379.917	53.617	-0.142	-0.135
-378.902	19.508	0.229	-0.182
-377.888	-63.630	0.265	0.108
-376.873	-142.838	0.233	-0.022
-375.858	-153.436	-0.427	0.029
-374.844	-114.158	0.028	-0.005
-373.829	-200.000	-0.033	-0.154
-372.815	-163.988	0.182	-0.008
-371.800	281.614	0.024	0.043
-370.785	-130.704	-0.170	-0.023
-369.771	140.035	-0.083	-0.109
-368.756	-165.933	0.278	-0.012
-367.742	-67.025	0.277	0.108
-366.727	-147.572	-0.125	0.010
-365.712	-136.811	-0.526	-0.060
-364.698	117.929	-0.159	0.194
-363.683	-29.250	0.342	0.194
-362.669	17.450	-0.152	0.120
-361.654	-171.702	0.151	-0.005
-360.639	178.141	0.143	-0.206
-359.625	-95.718	-0.321	0.085
-358.610	-46.075	0.294	0.144
-357.596	537.807	-0.073	-0.171
-356.581	800.000	0.060	0.184
-355.566	-200.000	-0.022	0.109
-354.552	-89.773	-0.307	-0.089
-353.537	83.919	0.151	0.163
-352.523	49.630	-0.227	0.212
-351.508	168.251	0.240	0.338
-350.493	143.573	-0.043	0.056
-349.479	-183.932	0.177	0.003
-348.464	243.293	-0.058	0.097
-347.450	-200.000	0.070	0.311
-346.435	31.782	-0.184	0.157
-345.420	18.874	0.100	0.080
-344.406	203.204	0.066	0.102
-343.391	-151.985	0.050	-0.004
-342.377	363.731	0.116	-0.231
-341.362	-49.034	0.139	0.066
-340.348	800.000	-0.051	-0.200
-339.333	-99.104	-0.263	-0.066
-338.318	-61.293	0.135	-0.056
-337.304	43.404	0.096	0.087
-336.289	-200.000	-0.000	0.061
-335.275	-136.336	-0.171	0.020
-334.260	21.678	-0.237	-0.191
-333.245	247.286	0.146	-0.243
-332.231	-200.000	-0.024	0.136
-331.216	-200.000	-0.015	0.162
-330.202	800.000	-0.033	-0.126
-329.187	186.986	-0.120	-0.177
-328.172	-115.536	-0.142	-0.027
-327.158	-17.729	-0.098	-0.061
-326.143	198.701	-0.092	-0.139
-325.129	-181.180	-0.278	0.005
-324.114	-200.000	-0.000	-0.208
-323.099	-114.577	-0.253	0.048
-322.085	-158.267	-0.073	0.004
-321.070	-200.000	-0.010	0.123
-320.056	-22.867	0.127	0.076
-319.041	47.716	-0.033	-0.030
-318.026	-105.964	0.372	0.083
-317.012	318.175	0.073	0.136
-315.997	186.248	-0.061	0.090
-314.983	26.641	-0.239	0.198
-313.968	-134.812	-0.092	-0.011
-312.953	233.062	0.136	-0.222
-311.939	-33.634	0.105	-0.057
-310.924	23.034	0.029	0.024
-309.910	164.814	0.142	0.198
-308.895	-140.974	-0.096	0.010
-307.880	153.028	-0.108	-0.146
-306.866	-89.365	0.342	0.099
-305.851	800.000	-0.033	-0.138
-304.837	-200.000	-0.004	0.298
-303.822	-200.000	0.006	0.205
-302.807	-103.147	-0.166	0.039
-301.793	-16.184	-0.101	-0.063
-300.778	-200.000	0.009	0.299
-299.764	-200.000	0.082	0.440
-298.749	-66.861	-0.301	0.118
-297.735	-115.772	0.008	0.001
-296.720	-200.000	-0.022	0.108
-295.705	32.569	-0.128	-0.110
-294.691	55.759	-0.118	-0.113
-293.676	229.050	0.115	-0.185
-292.662	81.047	0.184	0.196
-291.647	436.944	0.028	-0.060
-290.632	-200.000	0.046	0.314
-289.618	64.957	0.235	-0.234
-288.603	800.000	0.044	-0.163
-287.589	-200.000	-0.047	0.265
-286.574	91.137	-0.147	-0.163
-285.559	-200.000	0.033	0.328
-284.545	-114.567	-0.283	0.054
-283.530	800.000	0.048	0.148
-282.516	-200.000	0.013	-0.227
-281.501	-21.106	-0.315	0.190
-280.486	-44.230	0.276	-0.137
-279.472	-160.491	0.108	0.006
-278.457	-148.146	0.347	0.028
-277.443	-200.000	-0.015	0.138
-276.428	800.000	0.077	0.290
-275.413	57.947	-0.218	0.210
-274.399	-115.693	-0.217	-0.040
-273.384	-200.000	-0.020	-0.229
-272.370	-105.237	0.191	-0.043
-271.355	317.628	0.126	0.236
-270.340	-136.318	-0.152	0.017
-269.326	141.796	0.025	-0.033
-268.311	-72.526	0.023	-0.008
-267.297	-170.649	0.206	0.007
-266.282	-171.334	0.203	-0.007
-265.267	-115.957	0.228	0.042
-264.253	-110.398	0.272	0.056
-263.238	41.802	-0.057	0.051
-262.224	29.721	-0.147	-0.124
-261.209	-200.000	0.002	-0.167
-260.195	20.646	0.283	0.226
-259.180	54.057	0.154	0.146
-258.165	212.056	0.067	-0.104
-257.151	-200.000	-0.000	0.234
-256.136	148.614	-0.111	0.148
-255.122	-157.351	-0.099	-0.006
-254.107	800.000	0.045	0.125
-253.092	-200.000	0.036	0.229
-252.078	-60.800	0.256	-0.107
-251.063	800.000	0.022	0.066
-250.049	-141.179	-0.067	-0.007
-249.034	34.663	-0.092	0.079
-248.019	116.917	-0.110	-0.133
-247.005	-43.179	0.087	-0.044
-245.990	13.321	-0.186	0.142
-244.976	-165.181	0.346	-0.015
-243.961	800.000	0.045	-0.136
-242.946	-200.000	-0.008	-0.191
-241.932	232.867	-0.218	-0.353
-240.917	-200.000	0.018	-0.243
-239.903	-157.934	0.234	0.014
-238.888	-32.857	0.178	-0.097
-237.873	-118.134	-0.194	0.034
-236.859	-31.323	0.237	0.131
-235.844	-19.711	-0.105	-0.064
-234.830	-63.680	-0.067	0.027
-233.815	460.685	-0.037	-0.081
-232.800	-182.786	-0.130	-0.002
-231.786	-5.777	-0.087	-0.058
-230.771	-92.100	0.360	0.100
-229.757	-200.000	0.044	0.421
-228.742	-37.209	0.372	0.196
-227.727	800.000	-0.074	0.314
-226.713	31.068	-0.133	0.113
-225.698	207.236	0.143	0.220
-224.684	-159.377	-0.080	-0.004
-223.669	800.000	0.099	0.309
-222.655	-74.862	0.305	0.108
-221.640	-200.000	-0.012	0.191
-220.625	126.852	0.178	0.222
-219.611	-200.000	-0.004	-0.065
-218.596	-54.213	-0.273	-0.122
-217.582	28.436	-0.137	0.114
-216.567	-42.319	0.106	0.053
-215.552	158.137	0.014	-0.019
-214.538	459.895	0.108	0.236
-213.523	368.645	0.093	-0.186
-212.509	25.224	-0.169	-0.138
-211.494	20.777	0.097	-0.077
-210.479	51.201	0.058	0.054
-209.465	-200.000	-0.043	-0.220
-208.450	800.000	0.090	-0.314
-207.436	149.930	-0.137	0.183
-206.421	15.232	-0.115	-0.089
-205.406	800.000	-0.030	-0.088
-204.392	45.054	-0.136	-0.123
-203.377	62.793	0.135	0.132
-202.363	-40.617	-0.341	0.174
-201.348	-11.207	0.083	-0.054
-200.333	-86.734	0.249	0.075
-199.319	22.513	-0.486	0.391
-198.304	-42.875	-0.364	0.182
-197.290	800.000	0.084	0.304
-196.275	-200.000	-0.045	-0.219
-195.260	-109.725	-0.255	-0.053
-194.246	-200.000	-0.006	0.047
-193.231	199.880	0.207	-0.313
-192.217	428.959	-0.052	0.111
-191.202	-126.812	0.086	-0.012
-190.187	96.021	0.058	0.065
-189.173	-28.521	0.074	0.042
-188.158	477.936	0.050	-0.112
-187.144	249.242	0.034	-0.057
-186.129	25.976	-0.090	-0.074
-185.114	-105.224	0.147	0.033
-184.100	294.425	0.036	-0.065
-183.085	-200.000	-0.007	-0.179
-182.071	20.588	0.119	0.095
-181.056	22.749	-0.133	-0.107
-180.042	7.656	0.329	0.242
-179.027	-140.829	0.140	0.014
-178.012	-26.398	0.183	-0.106
-176.998	-154.313	-0.115	-0.008
-175.983	-49.721	-0.489	-0.229
-174.969	-200.000	-0.003	-0.044
-173.954	9.680	0.071	0.053
-172.939	295.769	-0.118	0.212
-171.925	800.000	-0.048	0.164
-170.910	800.000	0.095	0.407
-169.896	-200.000	0.047	-0.273
-168.881	-5.398	0.292	0.197
-167.866	-200.000	-0.021	0.420
-166.852	-101.409	0.256	0.061
-165.837	-200.000	0.003	-0.099
-164.823	102.340	0.253	-0.291
-163.808	-74.426	0.147	-0.052
-162.793	244.753	0.236	-0.390
-161.779	-59.520	-0.099	0.042
-160.764	127.407	0.133	-0.166
-159.750	-110.949	-0.102	-0.021
-158.735	-97.317	-0.381	0.098
-157.720	-46.798	0.104	0.050
-156.706	-125.743	-0.119	-0.018
-155.691	-99.921	-0.228	0.056
-154.677	-169.676	-0.126	-0.004
-153.662	-37.524	0.285	0.149
-152.647	800.000	0.051	-0.173
-151.633	-64.277	0.321	0.129
-150.618	70.538	-0.271	0.275
-149.604	263.054	-0.104	-0.177
-148.589	287.062	-0.146	-0.259
-147.574	95.060	0.192	-0.214
-146.560	218.394	0.150	0.235
-145.545	-200.000	0.004	-0.192
-144.531	364.717	0.075	0.148
-143.516	123.910	0.088	-0.109
-142.502	-51.937	0.119	-0.054
-141.487	-200.000	0.030	-0.147
-140.472	-146.145	0.139	-0.012
-139.458	98.206	-0.111	-0.125
-138.443	68.389	-0.066	0.067
-137.429	49.275	0.194	-0.179
-136.414	-149.777	-0.229	0.018
-135.399	-111.499	0.191	0.038
-134.385	-95.682	0.065	-0.017
-133.370	-94.477	0.268	0.072
-132.356	188.199	0.128	-0.188
-131.341	361.956	0.121	0.238
-130.326	289.277	0.062	-0.111
-129.312	-4.584	-0.174	-0.118
-128.297	-112.271	0.280	0.055
-127.283	72.611	0.172	0.177
-126.268	-24.373	0.187	-0.110
-125.253	1.433	-0.375	-0.264
-124.239	332.232	-0.098	-0.186
-123.224	3.799	0.116	0.083
-122.210	800.000	-0.019	-0.079
