DTS Sentinel unit serial number:	SN413079Multiplexer serial number:	ORYXHardware model number:	OX4-SRSoftware version number:	ORYX F/W v4.00 Oryx Data Collector v3.7.2.0data status	okinstallation	princeton_trtdifferential loss correction	single-endedforward channel	channel 1reverse channel	N/Adate	2019/09/12time	14:12:11forward acquisition time	60.00reverse acquisition time	0.00gamma	496.2192k internal	0.2293k external	0.2293temperature offset calibration	1.0057default loss term (dB/km)	0.3790temperature slope calibration	1.0000multiplexer offset coefficient	1.0000multiplexer slope coefficient	1.0000fibre end	0.00T internal ref (°C)	40.31T ext. ref 1 (°C)	2.22T ext. ref 2 (°C)	35.74length (m)	temperature (°C)	Stokes	anti-Stokes-747.200	441.606	0.170	-0.381
-746.185	800.000	-0.068	0.285
-745.171	102.987	-0.130	-0.155
-744.156	79.271	0.268	0.294
-743.142	12.892	-0.274	0.217
-742.127	-200.000	-0.096	0.532
-741.112	-167.003	-0.294	0.012
-740.098	163.306	0.121	0.175
-739.083	51.707	-0.087	-0.085
-738.069	168.848	-0.195	0.284
-737.054	217.736	-0.137	-0.223
-736.039	83.932	-0.256	-0.286
-735.025	1.690	-0.144	-0.106
-734.010	-200.000	0.068	-0.337
-732.996	-200.000	0.033	-0.497
-731.981	-125.756	-0.502	0.078
-730.966	26.147	-0.015	0.012
-729.952	-200.000	-0.020	-0.093
-728.937	37.631	-0.285	0.258
-727.923	2.299	-0.294	0.217
-726.908	-186.379	-0.153	-0.002
-725.894	334.733	-0.149	-0.295
-724.879	-86.348	0.134	-0.042
-723.864	-89.650	-0.312	0.093
-722.850	339.495	0.145	-0.290
-721.835	-116.864	0.173	-0.032
-720.821	169.600	0.143	0.208
-719.806	129.422	0.145	0.190
-718.791	80.096	0.070	0.077
-717.777	-75.975	-0.360	-0.130
-716.762	-11.136	0.124	-0.084
-715.748	800.000	0.069	-0.203
-714.733	270.019	0.275	0.493
-713.718	-49.968	-0.211	0.102
-712.704	16.447	0.090	0.073
-711.689	800.000	-0.090	0.278
-710.675	-177.893	-0.347	-0.008
-709.660	-200.000	0.001	0.474
-708.645	364.797	-0.188	0.387
-707.631	-200.000	-0.000	0.031
-706.616	-45.965	-0.242	0.122
-705.602	90.683	-0.066	0.076
-704.587	-200.000	0.009	0.221
-703.572	635.086	-0.071	0.184
-702.558	-27.166	0.046	0.027
-701.543	-200.000	-0.001	0.089
-700.529	30.984	-0.064	0.056
-699.514	-37.567	-0.016	0.008
-698.499	186.939	0.171	-0.260
-697.485	-34.891	-0.161	0.090
-696.470	-35.139	0.236	-0.131
-695.456	21.594	-0.204	-0.169
-694.441	128.788	-0.057	-0.074
-693.426	-200.000	0.020	-0.289
-692.412	116.122	0.211	-0.264
-691.397	-32.158	0.089	0.051
-690.383	-49.813	0.084	0.041
-689.368	23.284	-0.067	-0.056
-688.354	51.692	0.217	-0.211
-687.339	144.442	-0.088	0.120
-686.324	551.065	0.096	0.235
-685.310	-91.242	0.138	0.040
-684.295	709.684	-0.056	-0.152
-683.281	156.925	-0.149	-0.210
-682.266	800.000	0.071	-0.205
-681.251	-200.000	-0.060	-0.306
-680.237	-31.431	0.263	-0.151
-679.222	546.938	0.023	-0.057
-678.208	-121.564	0.254	-0.043
-677.193	768.276	-0.013	0.036
-676.178	-17.374	-0.183	-0.118
-675.164	-200.000	0.001	0.155
-674.149	186.024	-0.209	-0.317
-673.135	198.005	-0.150	0.234
-672.120	86.452	0.076	0.086
-671.105	-50.752	-0.448	0.215
-670.091	374.003	-0.221	0.460
-669.076	-48.744	0.013	0.006
-668.062	-19.660	0.177	0.111
-667.047	-91.874	-0.289	-0.084
-666.032	-32.797	-0.200	0.113
-665.018	-200.000	-0.012	-0.081
-664.003	-128.875	-0.215	-0.031
-662.989	229.844	-0.099	0.166
-661.974	170.552	-0.102	0.150
-660.959	21.077	-0.138	0.114
-659.945	280.002	0.111	0.201
-658.930	-162.073	-0.170	-0.009
-657.916	363.171	0.136	0.279
-656.901	613.871	0.081	0.207
-655.886	80.562	0.429	-0.472
-654.872	-106.085	-0.354	-0.081
-653.857	-47.034	-0.205	0.102
-652.843	-200.000	-0.019	-0.206
-651.828	-15.275	-0.232	-0.151
-650.814	99.688	-0.021	-0.025
-649.799	-24.429	-0.336	-0.204
-648.784	-157.905	-0.441	-0.027
-647.770	-200.000	-0.054	0.266
-646.755	313.853	-0.155	-0.297
-645.741	-200.000	-0.001	-0.137
-644.726	312.365	0.117	-0.223
-643.711	800.000	0.046	-0.169
-642.697	47.625	-0.093	-0.089
-641.682	143.426	0.015	0.021
-640.668	303.419	0.036	-0.068
-639.653	-174.416	-0.105	0.003
-638.638	-200.000	-0.033	0.179
-637.624	198.154	-0.124	-0.192
-636.609	-200.000	0.009	-0.226
-635.595	-83.788	-0.038	-0.012
-634.580	-108.053	0.103	0.023
-633.565	-98.808	-0.149	-0.038
-632.551	-200.000	0.028	-0.129
-631.536	-176.606	-0.209	0.005
-630.522	-138.707	-0.285	-0.032
-629.507	-100.093	-0.132	0.034
-628.492	-28.322	-0.292	0.172
-627.478	-116.900	-0.346	0.064
-626.463	55.561	0.127	0.125
-625.449	-16.390	0.165	0.106
-624.434	194.990	-0.024	-0.037
-623.419	-175.368	-0.331	-0.009
-622.405	-89.509	0.279	-0.083
-621.390	-189.464	0.152	-0.002
-620.376	174.266	0.076	-0.113
-619.361	21.395	-0.171	-0.142
-618.346	328.740	0.064	0.125
-617.332	27.305	0.028	-0.024
-616.317	-86.507	-0.287	0.090
-615.303	-77.217	0.313	0.111
-614.288	800.000	0.030	0.105
-613.273	-200.000	0.002	0.097
-612.259	-172.186	0.195	-0.006
-611.244	-200.000	0.055	0.398
-610.230	90.074	-0.177	-0.201
-609.215	19.174	0.095	0.077
-608.201	-192.646	-0.192	0.002
-607.186	-200.000	0.025	0.189
-606.171	800.000	-0.071	-0.199
-605.157	-200.000	-0.080	-0.383
-604.142	800.000	-0.045	-0.169
-603.128	84.253	0.126	0.140
-602.113	234.130	0.118	0.197
-601.098	90.824	0.086	0.098
-600.084	-200.000	0.034	-0.256
-599.069	282.603	0.187	0.342
-598.055	-200.000	0.001	0.273
-597.040	-200.000	-0.004	-0.096
-596.025	-13.759	0.178	-0.117
-595.011	331.137	-0.028	0.056
-593.996	-97.804	0.162	0.042
-592.982	800.000	-0.039	-0.173
-591.967	30.605	-0.074	0.064
-590.952	107.187	0.183	-0.221
-589.938	-200.000	-0.063	0.285
-588.923	800.000	-0.079	0.229
-587.909	-81.355	0.366	0.123
-586.894	-117.539	0.279	0.051
-585.879	-97.157	-0.473	-0.126
-584.865	154.391	0.257	-0.359
-583.850	-189.245	0.393	-0.005
-582.836	-110.923	0.086	0.018
-581.821	-200.000	0.008	-0.210
-580.806	17.510	0.087	0.071
-579.792	800.000	0.021	-0.070
-578.777	543.835	-0.130	-0.316
-577.763	-46.783	0.190	0.094
-576.748	26.296	0.210	0.178
-575.733	-82.512	0.048	-0.016
-574.719	93.746	0.309	0.356
-573.704	51.913	0.173	0.168
-572.690	-200.000	-0.063	0.341
-571.675	-200.000	-0.032	0.229
-570.661	-112.284	0.228	-0.047
-569.646	-116.596	0.261	-0.049
-568.631	-109.651	0.227	-0.049
-567.617	68.508	-0.224	-0.233
-566.602	88.192	0.324	-0.366
-565.588	86.208	0.053	0.059
-564.573	-70.201	-0.196	0.076
-563.558	-130.066	0.078	-0.011
-562.544	47.417	0.118	-0.112
-561.529	-200.000	-0.008	-0.091
-560.515	-200.000	-0.000	-0.006
-559.500	-200.000	0.045	-0.297
-558.485	-156.930	0.315	-0.020
-557.471	68.403	-0.160	-0.166
-556.456	425.759	0.067	-0.146
-555.442	-200.000	0.014	0.177
-554.427	293.636	-0.150	0.278
-553.412	-200.000	0.237	0.000
-552.398	-29.787	-0.108	0.063
-551.383	-97.428	0.098	0.026
-550.369	-114.135	-0.227	0.045
-549.354	310.612	0.128	0.243
-548.339	-200.000	0.043	0.202
-547.325	-147.292	-0.208	-0.018
-546.310	34.437	-0.138	-0.123
-545.296	-200.000	-0.001	-0.126
-544.281	-4.866	0.063	-0.044
-543.266	-200.000	-0.000	0.026
-542.252	126.139	0.226	-0.289
-541.237	203.195	-0.129	-0.202
-540.223	-61.749	0.227	0.096
-539.208	411.544	-0.069	-0.149
-538.193	144.522	0.102	-0.138
-537.179	800.000	0.055	-0.217
-536.164	800.000	0.028	0.112
-535.150	-200.000	0.009	0.259
-534.135	-56.837	0.193	-0.087
-533.121	-65.744	-0.369	-0.150
-532.106	52.164	-0.194	-0.187
-531.091	-62.054	-0.460	0.195
-530.077	-147.675	0.428	0.036
-529.062	-200.000	-0.035	-0.172
-528.048	20.256	-0.151	-0.124
-527.033	65.677	-0.293	0.301
-526.018	-200.000	0.010	-0.364
-525.004	-131.766	-0.315	0.042
-523.989	799.561	0.034	0.096
-522.975	223.577	-0.133	0.218
-521.960	-18.574	-0.300	0.190
-520.945	-144.258	0.286	0.027
-519.931	-86.096	-0.467	-0.146
-518.916	-93.517	0.213	0.060
-517.902	186.699	0.110	-0.165
-516.887	-200.000	0.035	0.171
-515.872	68.252	-0.033	0.035
-514.858	61.245	-0.203	-0.204
-513.843	91.672	0.367	0.419
-512.829	34.678	-0.091	0.081
-511.814	-103.431	0.449	-0.107
-510.799	37.470	0.086	-0.077
-509.785	-155.342	-0.194	0.013
-508.770	26.428	-0.252	-0.214
-507.756	-65.603	-0.080	0.032
-506.741	344.258	0.161	0.320
-505.726	800.000	-0.089	-0.298
-504.712	489.116	0.068	-0.156
-503.697	245.653	0.128	0.219
-502.683	-200.000	0.015	0.168
-501.668	69.099	0.098	-0.102
-500.653	306.567	-0.145	-0.274
-499.639	-128.783	0.109	-0.016
-498.624	-94.683	0.418	0.115
-497.610	-200.000	0.007	0.073
-496.595	-58.759	-0.308	0.135
-495.581	229.483	0.103	-0.171
-494.566	435.627	-0.069	0.153
-493.551	-141.835	-0.262	0.027
-492.537	8.880	-0.340	-0.260
-491.522	380.131	-0.121	0.252
-490.508	-100.959	0.268	0.067
-489.493	-200.000	0.037	0.466
-488.478	800.000	0.017	0.074
-487.464	-57.231	0.174	-0.078
-486.449	779.786	0.052	0.145
-485.435	112.586	-0.190	0.233
-484.420	587.726	-0.059	0.148
-483.405	9.090	-0.114	-0.087
-482.391	-200.000	0.001	0.165
-481.376	-200.000	-0.021	-0.322
-480.362	-200.000	-0.013	-0.433
-479.347	100.011	-0.237	0.278
-478.332	-84.320	0.128	-0.041
-477.318	-36.888	0.032	0.018
-476.303	277.114	0.145	-0.261
-475.289	-121.612	0.154	0.026
-474.274	33.878	-0.099	-0.087
-473.259	329.362	-0.037	-0.071
-472.245	-200.000	0.018	0.325
-471.230	-141.619	-0.225	-0.023
-470.216	-122.201	0.490	0.081
-469.201	-66.409	-0.145	0.058
-468.186	-200.000	0.009	-0.061
-467.172	284.543	-0.035	0.064
-466.157	103.262	0.191	-0.227
-465.143	-200.000	0.002	-0.130
-464.128	174.208	0.184	-0.269
-463.113	296.466	0.211	-0.391
-462.099	-200.000	0.019	-0.481
-461.084	800.000	-0.026	-0.111
-460.070	800.000	0.041	0.124
-459.055	215.214	-0.125	0.200
-458.040	421.771	-0.060	-0.130
-457.026	-1.403	0.285	0.204
-456.011	11.755	-0.096	-0.074
-454.997	-132.874	-0.059	0.008
-453.982	-14.222	0.033	0.021
-452.968	-99.206	-0.271	0.069
-451.953	100.926	0.243	0.286
-450.938	-104.429	0.321	-0.075
-449.924	185.095	0.185	0.277
-448.909	-116.180	0.210	0.039
-447.895	42.981	0.260	-0.239
-446.880	91.986	-0.103	-0.117
-445.865	-200.000	-0.018	-0.138
-444.851	123.624	-0.031	0.039
-443.836	-168.720	-0.329	-0.013
-442.822	-2.478	0.367	0.260
-441.807	-200.000	0.005	-0.391
-440.792	-106.771	-0.166	-0.037
-439.778	558.740	-0.130	-0.317
-438.763	800.000	-0.129	0.376
-437.749	-20.364	0.087	0.054
-436.734	723.172	-0.056	-0.151
-435.719	182.356	-0.052	-0.078
-434.705	28.745	0.068	0.058
-433.690	179.462	-0.096	0.142
-432.676	-51.912	0.102	0.048
-431.661	49.933	-0.155	0.147
-430.646	-37.727	0.172	0.092
-429.632	-61.714	-0.321	-0.136
-428.617	148.432	0.048	0.066
-427.603	-200.000	0.030	-0.270
-426.588	-79.550	-0.148	-0.050
-425.573	551.871	0.080	0.195
-424.559	-200.000	0.011	0.287
-423.544	423.691	0.032	-0.069
-422.530	-10.897	-0.182	-0.121
-421.515	0.352	0.457	0.330
-420.500	73.955	-0.266	0.281
-419.486	74.317	-0.229	0.243
-418.471	800.000	-0.111	-0.377
-417.457	574.435	0.089	-0.218
-416.442	5.568	0.173	-0.129
-415.428	-200.000	0.015	0.185
-414.413	-13.207	-0.027	0.018
-413.398	-64.737	-0.350	-0.143
-412.384	81.011	-0.069	0.075
-411.369	2.294	-0.265	0.194
-410.355	800.000	-0.103	-0.334
-409.340	-7.851	-0.261	0.178
-408.325	800.000	0.074	0.224
-407.311	66.822	0.170	-0.175
-406.296	203.704	-0.051	0.080
-405.282	-63.964	-0.122	0.050
-404.267	96.545	0.186	-0.215
-403.252	-84.667	-0.236	0.075
-402.238	-30.700	-0.060	-0.034
-401.223	-9.564	0.249	-0.168
-400.209	116.457	0.184	-0.228
-399.194	-173.605	0.300	0.009
-398.179	-43.745	-0.066	0.033
-397.165	209.252	-0.260	-0.411
-396.150	-74.450	0.313	0.114
-395.136	-200.000	-0.064	0.443
-394.121	-59.105	0.114	-0.050
-393.106	-71.309	-0.287	-0.109
-392.092	94.836	-0.169	-0.194
-391.077	-23.383	-0.174	0.106
-390.063	487.859	-0.080	-0.184
-389.048	800.000	0.065	-0.187
-388.033	57.996	-0.102	0.101
-387.019	-144.765	-0.221	0.021
-386.004	20.763	0.133	-0.108
-384.990	282.916	-0.109	0.197
-383.975	-21.409	0.372	0.229
-382.960	2.016	0.084	0.061
-381.946	-101.195	0.194	0.048
-380.931	2.012	0.184	-0.134
-379.917	-7.364	0.235	-0.160
-378.902	279.220	-0.104	0.188
-377.888	-66.473	-0.353	-0.141
-376.873	800.000	0.046	0.196
-375.858	-92.985	0.284	0.080
-374.844	392.890	-0.162	-0.339
-373.829	89.587	0.107	-0.121
-372.815	-86.000	0.325	-0.101
-371.800	185.088	0.032	0.047
-370.785	-6.679	-0.169	-0.116
-369.771	-93.034	0.587	-0.165
-368.756	-191.214	0.275	0.003
-367.742	46.466	-0.034	-0.032
-366.727	-30.202	0.130	0.074
-365.712	-40.252	-0.041	0.021
-364.698	150.368	0.025	-0.034
-363.683	423.809	-0.075	-0.162
-362.669	-128.045	0.349	-0.050
-361.654	-200.000	0.012	-0.221
-360.639	495.213	0.072	-0.166
-359.625	68.690	-0.301	-0.311
-358.610	670.005	0.057	0.148
-357.596	7.771	0.179	0.135
-356.581	-200.000	-0.018	-0.189
-355.566	149.529	-0.101	-0.137
-354.552	81.860	0.182	-0.199
-353.537	358.557	-0.081	-0.164
-352.523	800.000	0.156	0.541
-351.508	41.513	0.172	0.157
-350.493	-32.599	0.240	-0.134
-349.479	-159.096	0.253	0.014
-348.464	-68.985	-0.095	0.037
-347.450	-81.390	-0.353	-0.117
-346.435	131.669	-0.034	-0.044
-345.420	39.675	-0.249	-0.225
-344.406	800.000	-0.031	0.090
-343.391	-176.960	-0.116	0.003
-342.377	-131.458	-0.264	0.035
-341.362	94.539	0.214	-0.245
-340.348	-155.763	-0.412	-0.027
-339.333	-124.208	-0.633	0.100
-338.318	115.552	-0.072	-0.089
-337.304	-200.000	-0.003	0.258
-336.289	-200.000	0.027	0.162
-335.275	-62.585	0.254	0.106
-334.260	413.023	0.130	0.279
-333.245	23.954	-0.173	0.143
-332.231	9.492	0.426	-0.325
-331.216	-96.925	-0.250	0.066
-330.202	-172.432	0.324	-0.010
-329.187	22.671	-0.141	-0.116
-328.172	-111.238	0.321	0.066
-327.158	132.112	-0.030	-0.038
-326.143	-89.713	0.342	0.101
-325.129	-169.939	-0.327	-0.012
-324.114	47.649	-0.199	-0.187
-323.099	-65.554	0.148	-0.060
-322.085	76.386	-0.230	0.245
-321.070	98.573	0.022	0.026
-320.056	800.000	0.070	0.223
-319.041	-166.729	0.290	-0.012
-318.026	-109.401	-0.223	0.047
-317.012	-3.770	0.116	-0.081
-315.997	664.889	-0.020	-0.052
-314.983	-75.779	0.192	0.068
-313.968	93.089	-0.078	0.089
-312.953	81.334	-0.105	0.114
-311.939	800.000	-0.062	0.242
-310.924	252.534	-0.224	0.384
-309.910	-200.000	-0.042	-0.272
-308.895	-146.245	-0.228	0.020
-307.880	392.342	0.068	-0.143
-306.866	-164.886	0.125	0.006
-305.851	800.000	0.027	0.086
-304.837	-20.090	0.273	-0.169
-303.822	-200.000	0.019	-0.131
-302.807	-41.721	0.301	-0.155
-301.793	-95.238	0.302	0.082
-300.778	171.059	-0.052	0.075
-299.764	147.798	0.157	-0.213
-298.749	-200.000	0.010	-0.089
-297.735	800.000	-0.008	0.028
-296.720	61.536	-0.208	-0.208
-295.705	229.791	0.084	-0.138
-294.691	-200.000	-0.041	-0.249
-293.676	-200.000	0.045	0.307
-292.662	-187.697	0.731	-0.010
-291.647	-200.000	-0.022	0.406
-290.632	258.975	0.086	0.149
-289.618	33.812	-0.271	0.237
-288.603	-200.000	0.043	0.274
-287.589	800.000	0.063	-0.234
-286.574	-66.177	-0.417	0.167
-285.559	-60.605	0.184	-0.078
-284.545	183.761	0.121	0.180
-283.530	-92.758	0.198	-0.056
-282.516	-97.641	0.232	0.060
-281.501	101.163	-0.069	0.081
-280.486	-179.518	-0.325	-0.007
-279.472	-44.467	0.133	-0.067
-278.457	800.000	-0.050	0.172
-277.443	-200.000	-0.003	-0.318
-276.428	231.401	-0.087	0.144
-275.413	-170.403	-0.136	0.005
-274.399	109.694	0.143	-0.172
-273.384	-13.812	0.415	0.270
-272.370	-181.011	-0.175	0.004
-271.355	191.622	0.047	0.071
-270.340	46.543	-0.158	0.147
-269.326	-120.603	-0.239	-0.041
-268.311	800.000	0.066	-0.209
-267.297	-150.478	0.193	0.015
-266.282	-200.000	-0.016	0.338
-265.267	-98.134	0.358	0.093
-264.253	260.173	-0.233	0.405
-263.238	133.407	-0.129	0.168
-262.224	-200.000	-0.003	0.268
-261.209	13.330	-0.204	-0.159
-260.195	-158.679	-0.237	0.014
-259.180	-98.465	0.238	0.061
-258.165	6.343	-0.227	0.169
-257.151	298.431	-0.122	-0.226
-256.136	-71.489	-0.199	-0.075
-255.122	800.000	-0.083	0.332
-254.107	-76.998	-0.393	0.138
-253.092	46.889	-0.112	0.105
-252.078	12.702	-0.137	0.106
-251.063	21.638	-0.202	0.165
-250.049	-200.000	0.003	-0.274
-249.034	193.514	0.084	-0.128
-248.019	-46.458	0.081	0.040
-247.005	66.153	0.160	-0.163
-245.990	-157.917	-0.130	0.008
-244.976	-200.000	0.003	-0.225
-243.961	356.173	-0.040	0.079
-242.946	231.729	0.175	0.287
-241.932	36.725	0.198	-0.175
-240.917	10.956	0.117	0.090
-239.903	-144.761	0.113	0.010
-238.888	32.044	0.317	-0.274
-237.873	-200.000	-0.012	-0.282
-236.859	132.854	-0.200	0.259
-235.844	-62.820	-0.327	-0.136
-234.830	-181.244	0.046	0.001
-233.815	69.998	0.160	-0.166
-232.800	-200.000	0.026	-0.323
-231.786	481.273	-0.083	-0.190
-230.771	-64.051	-0.170	0.070
-229.757	-133.084	0.041	-0.005
-228.742	569.329	0.029	0.070
-227.727	-158.438	0.153	0.009
-226.713	800.000	-0.066	0.227
-225.698	-200.000	-0.016	0.315
-224.684	-144.468	-0.277	0.026
-223.669	-169.748	0.173	-0.006
-222.655	-90.672	0.106	0.031
-221.640	738.242	0.041	-0.109
-220.625	-6.632	-0.125	0.085
-219.611	-200.000	0.021	0.152
-218.596	-200.000	-0.037	-0.176
-217.582	60.301	0.149	-0.148
-216.567	-200.000	-0.057	-0.350
-215.552	36.821	-0.184	-0.163
-214.538	-114.074	0.382	0.074
-213.523	800.000	0.067	-0.279
-212.509	383.688	-0.119	-0.245
-211.494	-151.567	-0.060	-0.004
-210.479	414.297	-0.146	0.311
-209.465	37.134	-0.275	0.244
-208.450	-200.000	0.013	-0.222
-207.436	160.968	0.250	0.350
-206.421	-200.000	-0.006	0.196
-205.406	343.190	0.081	0.159
-204.392	-34.638	-0.068	-0.037
-203.377	-200.000	-0.018	0.162
-202.363	-200.000	0.035	-0.236
-201.348	-200.000	-0.023	0.162
-200.333	800.000	0.022	-0.065
-199.319	800.000	-0.138	0.383
-198.304	-200.000	-0.023	-0.153
-197.290	67.255	0.205	-0.210
-196.275	-111.742	-0.430	-0.087
-195.260	-113.689	-0.432	-0.084
-194.246	-106.366	0.110	0.025
-193.231	-200.000	-0.025	0.146
-192.217	-200.000	-0.032	-0.241
-191.202	-91.029	-0.145	-0.042
-190.187	-155.337	-0.219	-0.014
-189.173	87.007	0.046	0.051
-188.158	-43.235	0.241	-0.122
-187.144	800.000	0.031	0.096
-186.129	162.045	-0.001	0.002
-185.114	-44.059	-0.418	-0.210
-184.100	-200.000	0.015	0.265
-183.085	-200.000	0.020	-0.138
-182.071	-200.000	-0.016	0.102
-181.056	800.000	0.049	-0.150
-180.042	-200.000	-0.006	0.412
-179.027	155.036	0.211	0.290
-178.012	248.959	0.118	-0.201
-176.998	800.000	-0.055	0.202
-175.983	-35.676	-0.373	0.202
-174.969	129.351	0.281	-0.360
-173.954	-200.000	-0.032	-0.239
-172.939	-85.340	-0.125	-0.039
-171.925	-200.000	-0.045	0.430
-170.910	19.509	-0.287	-0.231
-169.896	534.774	-0.050	0.120
-168.881	-200.000	-0.013	-0.274
-167.866	-180.148	0.163	0.003
-166.852	3.761	0.178	-0.130
-165.837	51.854	0.232	-0.221
-164.823	-200.000	-0.015	-0.232
-163.808	104.260	-0.167	0.197
-162.793	-196.450	-0.354	-0.002
-161.779	-81.241	0.191	-0.063
-160.764	-200.000	-0.016	0.258
-159.750	-200.000	0.009	0.291
-158.735	-68.935	0.066	-0.025
-157.720	-65.018	-0.450	0.182
-156.706	-121.865	-0.042	-0.007
-155.691	19.685	-0.219	0.177
-154.677	94.143	-0.063	-0.071
-153.662	-200.000	0.028	0.174
-152.647	-15.516	0.105	-0.067
-151.633	-41.394	-0.085	-0.044
-150.618	800.000	-0.048	0.188
-149.604	0.034	0.051	-0.036
-148.589	117.598	-0.108	0.133
-147.574	800.000	-0.103	-0.313
-146.560	5.426	-0.192	-0.142
-145.545	26.851	0.243	-0.204
-144.531	-67.133	-0.188	0.074
-143.516	-148.833	-0.169	-0.014
-142.502	-200.000	-0.093	-0.518
-141.487	42.930	0.129	-0.117
-140.472	-21.373	0.109	0.067
-139.458	-200.000	-0.048	-0.224
-138.443	576.465	-0.130	-0.318
-137.429	96.998	0.176	-0.202
-136.414	151.380	0.075	0.102
-135.399	-200.000	-0.002	-0.107
-134.385	800.000	0.083	0.300
-133.370	-200.000	-0.033	0.196
-132.356	16.414	0.141	0.111
-131.341	-79.318	0.276	-0.093
-130.326	-146.005	0.313	-0.028
-129.312	800.000	0.014	-0.040
-128.297	800.000	0.100	0.322
-127.283	800.000	-0.045	0.139
-126.268	126.308	0.119	-0.151
-125.253	25.905	0.116	-0.097
-124.239	70.100	0.089	-0.092
-123.224	-23.552	-0.252	0.151
-122.210	694.535	0.053	0.138
-121.195	-76.561	-0.068	-0.024
