DTS Sentinel unit serial number:	SN413079Multiplexer serial number:	ORYXHardware model number:	OX4-SRSoftware version number:	ORYX F/W v4.00 Oryx Data Collector v3.7.2.0data status	okinstallation	princeton_trtdifferential loss correction	single-endedforward channel	channel 1reverse channel	N/Adate	2019/09/17time	12:14:35forward acquisition time	60.00reverse acquisition time	0.00gamma	496.2192k internal	0.2321k external	0.2321temperature offset calibration	0.9973default loss term (dB/km)	0.3790temperature slope calibration	1.0000multiplexer offset coefficient	1.0000multiplexer slope coefficient	1.0000fibre end	0.00T internal ref (°C)	31.42T ext. ref 1 (°C)	0.43T ext. ref 2 (°C)	28.10length (m)	temperature (°C)	Stokes	anti-Stokes-747.200	-200.000	-0.037	-0.320
-746.185	570.330	-0.116	0.284
-745.171	-66.244	0.201	0.081
-744.156	178.267	0.124	0.183
-743.142	489.742	-0.046	0.106
-742.127	800.000	-0.056	-0.162
-741.112	-75.390	-0.325	0.117
-740.098	-19.833	-0.223	0.139
-739.083	800.000	-0.019	-0.054
-738.069	-185.691	-0.345	0.005
-737.054	309.119	0.071	0.134
-736.039	18.119	-0.285	0.229
-735.025	-200.000	-0.038	0.287
-734.010	800.000	-0.068	0.266
-732.996	-20.689	-0.374	-0.232
-731.981	-51.292	0.292	-0.138
-730.966	103.669	-0.252	0.299
-729.952	-200.000	0.021	0.207
-728.937	30.977	0.017	0.015
-727.923	-148.041	-0.152	-0.013
-726.908	39.949	-0.054	-0.049
-725.894	109.652	-0.037	0.044
-724.879	-67.896	-0.250	0.099
-723.864	239.449	0.201	-0.338
-722.850	-56.963	-0.263	-0.117
-721.835	182.711	-0.109	-0.163
-720.821	165.518	0.155	-0.221
-719.806	-123.190	-0.192	0.031
-718.791	-200.000	-0.040	0.237
-717.777	201.321	0.121	-0.189
-716.762	800.000	-0.106	-0.307
-715.748	199.067	-0.106	0.163
-714.733	135.175	0.029	0.038
-713.718	234.249	-0.146	0.243
-712.704	-40.229	-0.057	-0.030
-711.689	800.000	-0.042	-0.154
-710.675	-93.505	0.170	0.048
-709.660	132.541	0.211	0.275
-708.645	262.828	0.117	-0.205
-707.631	-136.504	0.275	0.032
-706.616	800.000	-0.064	0.257
-705.602	-173.081	-0.256	-0.008
-704.587	-4.924	-0.222	-0.155
-703.572	-200.000	-0.002	-0.207
-702.558	41.844	-0.263	-0.241
-701.543	-41.250	-0.073	-0.038
-700.529	-19.496	-0.121	-0.076
-699.514	609.882	0.104	-0.262
-698.499	-125.656	0.210	0.032
-697.485	304.502	-0.119	0.223
-696.470	-200.000	0.046	-0.206
-695.456	315.020	-0.139	0.265
-694.441	-45.808	0.130	0.065
-693.426	-83.719	-0.299	-0.096
-692.412	-17.647	-0.052	0.033
-691.397	-54.061	0.355	0.163
-690.383	6.280	-0.313	-0.234
-689.368	-200.000	0.021	-0.287
-688.354	8.929	-0.173	0.132
-687.339	-11.073	0.310	-0.206
-686.324	-105.202	-0.399	0.092
-685.310	451.293	-0.186	-0.414
-684.295	63.582	0.116	-0.117
-683.281	-200.000	-0.025	0.189
-682.266	-9.197	-0.197	0.133
-681.251	-7.684	0.068	-0.046
-680.237	-123.196	-0.257	-0.041
-679.222	-33.276	0.240	-0.134
-678.208	-142.510	-0.208	0.021
-677.193	-127.372	0.184	-0.027
-676.178	375.916	-0.081	-0.167
-675.164	8.072	-0.262	-0.198
-674.149	-200.000	0.016	0.100
-673.135	-94.857	0.283	0.077
-672.120	800.000	0.025	-0.110
-671.105	14.362	0.302	0.237
-670.091	447.819	-0.062	0.138
-669.076	-200.000	-0.007	-0.032
-668.062	172.416	0.240	-0.348
-667.047	800.000	0.051	-0.157
-666.032	-200.000	0.085	-0.472
-665.018	-97.818	0.186	-0.048
-664.003	265.271	0.150	0.264
-662.989	-21.757	0.150	-0.092
-661.974	-200.000	-0.002	-0.189
-660.959	800.000	-0.028	-0.103
-659.945	-21.997	0.102	0.062
-658.930	-101.718	0.215	0.053
-657.916	355.389	0.030	0.059
-656.901	-182.742	-0.475	0.009
-655.886	-37.064	0.191	-0.103
-654.872	-86.547	0.590	-0.182
-653.857	-117.344	-0.087	-0.016
-652.843	-107.144	-0.054	0.012
-651.828	178.784	-0.198	-0.292
-650.814	-45.855	0.406	-0.202
-649.799	-24.260	-0.088	-0.053
-648.784	427.033	-0.009	0.020
-647.770	800.000	0.039	0.143
-646.755	199.566	0.123	-0.190
-645.741	16.934	0.277	-0.221
-644.726	-200.000	-0.001	-0.135
-643.711	-42.639	0.188	-0.096
-642.697	-0.870	0.154	0.110
-641.682	-200.000	-0.029	-0.148
-640.668	-200.000	0.008	-0.038
-639.653	77.415	0.081	-0.086
-638.638	-42.404	-0.142	-0.073
-637.624	-128.947	0.399	0.056
-636.609	57.325	0.245	0.240
-635.595	-200.000	0.002	0.073
-634.580	-200.000	-0.030	0.244
-633.565	401.550	-0.049	0.104
-632.551	-200.000	-0.066	-0.388
-631.536	168.044	-0.254	-0.364
-630.522	5.597	0.149	-0.111
-629.507	-13.834	-0.181	0.118
-628.492	-127.519	-0.324	0.047
-627.478	21.838	-0.136	-0.111
-626.463	38.207	-0.102	-0.091
-625.449	14.548	0.183	0.144
-624.434	-177.835	-0.200	-0.005
-623.419	-86.897	-0.100	-0.031
-622.405	-110.493	0.296	0.062
-621.390	-142.479	0.395	-0.039
-620.376	-81.738	0.287	-0.095
-619.361	800.000	0.061	0.265
-618.346	-99.330	0.224	0.057
-617.332	-63.845	0.329	-0.135
-616.317	-200.000	0.001	-0.018
-615.303	-92.253	-0.149	-0.042
-614.288	-100.391	-0.304	-0.076
-613.273	-22.811	-0.307	-0.187
-612.259	-200.000	0.002	-0.098
-611.244	1.281	-0.047	-0.034
-610.230	-145.147	0.349	-0.032
-609.215	-71.267	-0.259	0.098
-608.201	800.000	0.052	-0.153
-607.186	39.936	-0.181	-0.164
-606.171	-200.000	-0.014	-0.426
-605.157	-200.000	0.009	-0.103
-604.142	143.649	0.262	-0.351
-603.128	-62.228	-0.402	-0.168
-602.113	450.306	-0.113	-0.250
-601.098	318.392	-0.116	0.221
-600.084	1.673	0.173	0.125
-599.069	800.000	0.082	0.238
-598.055	731.889	-0.063	0.168
-597.040	-93.690	0.185	-0.051
-596.025	-200.000	0.072	0.435
-595.011	-85.832	-0.082	-0.025
-593.996	396.648	0.108	-0.226
-592.982	200.897	0.047	-0.072
-591.967	-86.296	0.107	0.033
-590.952	133.634	-0.134	-0.174
-589.938	297.076	-0.202	-0.372
-588.923	800.000	-0.081	-0.238
-587.909	674.135	-0.155	-0.405
-586.894	194.817	-0.029	-0.044
-585.879	577.473	-0.072	-0.176
-584.865	-21.524	0.142	-0.087
-583.850	-154.706	-0.097	-0.006
-582.836	223.852	-0.167	-0.271
-581.821	-88.431	-0.032	-0.009
-580.806	800.000	-0.082	-0.347
-579.792	-200.000	0.003	-0.038
-578.777	800.000	-0.058	0.179
-577.763	-48.085	-0.089	0.043
-576.748	-139.067	0.283	-0.031
-575.733	-70.982	-0.113	-0.043
-574.719	-45.630	-0.628	0.312
-573.704	-53.462	-0.179	-0.082
-572.690	800.000	0.043	0.150
-571.675	14.828	-0.092	0.072
-570.661	-200.000	-0.032	0.368
-569.646	83.113	-0.181	0.198
-568.631	115.959	-0.166	-0.204
-567.617	-27.341	0.152	-0.089
-566.602	-138.475	0.119	0.013
-565.588	233.500	0.174	-0.288
-564.573	430.895	-0.045	0.098
-563.558	50.405	0.315	0.299
-562.544	87.251	-0.087	0.096
-561.529	-27.348	0.139	-0.081
-560.515	-43.221	0.162	-0.083
-559.500	118.251	0.125	-0.155
-558.485	800.000	0.062	0.258
-557.471	461.341	0.119	0.267
-556.456	-119.170	0.183	-0.032
-555.442	-200.000	-0.022	0.157
-554.427	-143.575	0.247	0.024
-553.412	800.000	-0.011	0.045
-552.398	-200.000	-0.004	-0.315
-551.383	185.029	0.094	0.140
-550.369	97.017	-0.283	0.326
-549.354	800.000	0.061	0.223
-548.339	-200.000	0.035	0.189
-547.325	-111.831	-0.079	0.016
-546.310	23.817	0.176	-0.145
-545.296	800.000	-0.056	0.181
-544.281	-200.000	0.030	0.164
-543.266	173.743	0.082	0.119
-542.252	800.000	0.024	0.070
-541.237	-200.000	0.015	0.130
-540.223	3.074	-0.150	-0.110
-539.208	63.238	0.131	0.132
-538.193	-200.000	-0.043	-0.209
-537.179	6.252	0.158	-0.118
-536.164	-19.892	-0.156	0.097
-535.150	680.042	-0.064	0.168
-534.135	234.836	-0.056	0.092
-533.121	-155.832	-0.090	-0.006
-532.106	-18.537	-0.213	0.133
-531.091	785.040	-0.099	-0.273
-530.077	800.000	-0.100	-0.317
-529.062	117.515	-0.133	0.164
-528.048	800.000	0.027	0.112
-527.033	16.681	-0.207	-0.164
-526.018	-55.978	-0.245	0.110
-525.004	-45.031	0.130	0.065
-523.989	-10.801	-0.137	0.091
-522.975	-70.431	0.126	0.048
-521.960	-71.934	-0.245	0.091
-520.945	-173.375	0.076	-0.002
-519.931	181.524	0.061	-0.090
-518.916	-200.000	0.086	0.553
-517.902	88.625	-0.209	0.233
-516.887	1.685	0.206	0.149
-515.872	-10.189	-0.120	0.080
-514.858	-39.841	-0.321	-0.168
-513.843	341.571	-0.033	0.064
-512.829	-127.482	0.139	-0.020
-511.814	-109.595	0.312	-0.066
-510.799	-80.608	-0.168	-0.056
-509.785	-118.544	0.543	-0.096
-508.770	334.160	0.078	0.151
-507.756	9.457	0.122	0.092
-506.741	185.684	-0.082	0.121
-505.726	150.649	-0.403	-0.548
-504.712	43.544	0.064	0.059
-503.697	4.543	0.143	0.105
-502.683	-102.441	-0.229	0.055
-501.668	-200.000	-0.012	0.208
-500.653	-200.000	0.038	-0.278
-499.639	800.000	0.053	-0.181
-498.624	-200.000	-0.023	-0.249
-497.610	244.696	-0.091	-0.154
-496.595	800.000	0.052	-0.210
-495.581	484.910	-0.093	0.213
-494.566	-18.456	-0.288	0.180
-493.551	-7.872	0.036	0.025
-492.537	-183.777	0.596	0.010
-491.522	277.834	-0.092	-0.164
-490.508	-52.332	0.084	0.039
-489.493	800.000	0.068	-0.196
-488.478	-30.623	-0.122	0.069
-487.464	37.778	-0.298	0.265
-486.449	-96.735	-0.135	-0.036
-485.435	-85.034	-0.336	0.105
-484.420	-16.762	-0.127	-0.081
-483.405	-112.632	-0.168	0.033
-482.391	380.540	-0.190	-0.391
-481.376	-132.407	-0.226	0.029
-480.362	87.222	0.171	0.189
-479.347	-200.000	0.001	0.083
-478.332	-99.831	-0.273	0.068
-477.318	800.000	-0.083	0.299
-476.303	-64.690	0.315	-0.128
-475.289	800.000	0.010	0.034
-474.274	-200.000	0.012	0.076
-473.259	800.000	0.056	0.177
-472.245	-110.234	0.100	-0.021
-471.230	425.268	-0.065	0.139
-470.216	-19.472	-0.193	-0.120
-469.201	-200.000	0.073	-0.335
-468.186	248.024	-0.026	-0.044
-467.172	162.459	0.079	0.111
-466.157	800.000	-0.129	0.360
-465.143	-45.602	-0.033	-0.016
-464.128	-55.918	0.190	-0.085
-463.113	-72.676	0.284	-0.105
-462.099	800.000	-0.094	0.398
-461.084	441.372	0.041	-0.090
-460.070	-200.000	-0.001	0.033
-459.055	800.000	-0.054	-0.232
-458.040	315.749	-0.060	-0.113
-457.026	800.000	0.056	-0.213
-456.011	-200.000	-0.033	-0.167
-454.997	-51.384	0.201	-0.094
-453.982	-3.724	-0.121	0.084
-452.968	21.440	0.190	-0.155
-451.953	-40.426	-0.287	0.149
-450.938	156.296	0.093	-0.128
-449.924	-200.000	-0.018	-0.102
-448.909	762.851	0.084	0.229
-447.895	-12.075	-0.123	0.081
-446.880	559.773	0.059	-0.142
-445.865	140.082	0.158	0.208
-444.851	227.447	0.268	0.435
-443.836	4.143	0.117	-0.085
-442.822	272.089	-0.064	0.112
-441.807	-78.555	0.234	-0.080
-440.792	43.111	0.198	0.180
-439.778	-200.000	0.029	0.290
-438.763	134.460	0.192	0.249
-437.749	-120.018	-0.040	-0.007
-436.734	-200.000	0.028	-0.148
-435.719	582.599	0.125	0.307
-434.705	434.777	-0.158	0.344
-433.690	800.000	-0.024	0.094
-432.676	280.163	-0.190	-0.340
-431.661	800.000	-0.084	0.250
-430.646	-200.000	-0.014	-0.296
-429.632	-86.955	-0.177	0.054
-428.617	121.670	-0.040	0.049
-427.603	-138.878	-0.227	0.025
-426.588	-200.000	0.058	0.340
-425.573	120.085	0.060	0.074
-424.559	50.678	0.323	0.305
-423.544	119.508	0.149	-0.184
-422.530	-0.939	-0.141	-0.100
-421.515	-103.625	-0.315	-0.074
-420.500	201.379	0.064	0.099
-419.486	-139.428	-0.237	-0.025
-418.471	800.000	-0.069	0.231
-417.457	-200.000	-0.005	-0.037
-416.442	331.739	0.131	-0.252
-415.428	3.069	-0.210	-0.152
-414.413	-36.891	0.190	0.102
-413.398	-29.893	-0.270	0.153
-412.384	-119.198	-0.061	-0.011
-411.369	91.373	-0.044	-0.049
-410.355	-115.238	0.352	-0.066
-409.340	129.661	0.049	0.062
-408.325	376.028	-0.150	-0.306
-407.311	264.675	0.132	0.229
-406.296	141.586	0.179	-0.237
-405.282	-120.869	0.150	0.025
-404.267	429.035	0.078	0.168
-403.252	-147.723	0.304	0.025
-402.238	-200.000	0.039	-0.181
-401.223	800.000	-0.065	-0.188
-400.209	245.684	-0.177	0.298
-399.194	362.207	0.195	0.391
-398.179	-12.536	-0.096	0.063
-397.165	-112.341	-0.136	0.027
-396.150	-200.000	0.012	0.230
-395.136	-58.444	0.265	0.115
-394.121	-200.000	0.018	-0.136
-393.106	-200.000	-0.014	0.090
-392.092	-200.000	0.043	0.266
-391.077	553.611	-0.086	0.205
-390.063	-2.017	0.264	0.185
-389.048	-8.880	-0.217	-0.145
-388.033	-200.000	-0.011	0.505
-387.019	-166.085	-0.320	0.014
-386.004	58.124	-0.085	-0.083
-384.990	46.957	-0.032	-0.029
-383.975	-138.471	0.347	-0.038
-382.960	800.000	0.077	-0.278
-381.946	717.648	-0.054	-0.144
-380.931	201.784	0.117	-0.179
-379.917	-171.801	-0.260	-0.008
-378.902	132.078	0.077	0.099
-377.888	66.458	0.200	0.202
-376.873	180.263	0.180	-0.263
-375.858	-15.641	-0.218	-0.139
-374.844	191.557	0.077	-0.116
-373.829	621.721	-0.020	0.049
-372.815	5.910	-0.263	-0.194
-371.800	-7.707	-0.169	0.114
-370.785	-200.000	-0.013	-0.317
-369.771	124.252	-0.215	0.270
-368.756	-7.783	0.181	0.122
-367.742	-200.000	0.002	0.018
-366.727	-83.487	-0.262	-0.084
-365.712	-155.111	0.334	0.022
-364.698	-1.833	-0.289	-0.202
-363.683	-156.445	0.256	-0.016
-362.669	69.944	-0.168	0.173
-361.654	136.926	0.261	-0.340
-360.639	-0.415	-0.225	0.159
-359.625	-57.786	0.183	0.080
-358.610	62.595	-0.122	0.121
-357.596	-131.836	0.144	-0.019
-356.581	341.597	-0.028	0.054
-355.566	-200.000	-0.036	0.227
-354.552	21.475	-0.144	0.117
-353.537	800.000	0.013	-0.049
-352.523	-200.000	-0.074	0.336
-351.508	644.229	-0.047	0.119
-350.493	-119.731	0.209	0.036
-349.479	-200.000	0.026	-0.165
-348.464	-75.135	0.408	-0.145
-347.450	-122.058	0.521	0.085
-346.435	-200.000	-0.003	-0.230
-345.420	-1.109	-0.086	0.061
-344.406	-55.034	0.159	0.071
-343.391	-90.546	0.279	0.080
-342.377	-67.828	-0.277	0.108
-341.362	-124.520	-0.335	0.052
-340.348	-64.748	-0.203	0.082
-339.333	-200.000	-0.016	0.097
-338.318	-26.667	-0.229	-0.133
-337.304	-156.522	0.094	-0.006
-336.289	363.712	0.097	-0.194
-335.275	679.502	-0.033	0.086
-334.260	-52.403	0.296	0.136
-333.245	17.339	0.067	-0.053
-332.231	62.432	0.095	-0.095
-331.216	800.000	-0.144	-0.456
-330.202	-200.000	0.245	0.001
-329.187	-200.000	0.024	-0.190
-328.172	-91.685	-0.246	-0.070
-327.158	87.113	0.071	0.078
-326.143	18.754	0.254	-0.202
-325.129	800.000	-0.072	0.275
-324.114	-144.402	-0.205	0.019
-323.099	-159.053	0.451	-0.025
-322.085	21.657	-0.169	0.137
-321.070	318.336	-0.146	0.275
-320.056	111.642	-0.020	-0.024
-319.041	-200.000	-0.076	-0.334
-318.026	-38.016	-0.139	0.074
-317.012	-1.949	0.161	-0.113
-315.997	-166.038	0.085	0.004
-314.983	-153.658	-0.373	0.026
-313.968	800.000	0.034	0.139
-312.953	120.998	0.153	-0.190
-311.939	-144.084	0.120	0.011
-310.924	224.279	-0.126	0.202
-309.910	31.015	-0.192	-0.164
-308.895	-200.000	-0.042	-0.198
-307.880	-4.176	0.340	-0.234
-306.866	-147.449	-0.195	-0.016
-305.851	800.000	-0.065	-0.252
-304.837	-60.782	0.037	-0.015
-303.822	105.457	-0.215	-0.253
-302.807	-200.000	-0.035	0.182
-301.793	-200.000	-0.020	0.168
-300.778	182.248	-0.221	-0.323
-299.764	-74.331	0.107	-0.038
-298.749	134.133	0.145	0.187
-297.735	-79.539	0.231	-0.077
-296.720	-189.404	0.075	0.001
-295.705	-55.266	-0.150	0.067
-294.691	-110.377	0.181	-0.037
-293.676	252.153	-0.108	0.183
-292.662	-144.119	-0.102	0.009
-291.647	-200.000	0.064	-0.363
-290.632	-99.286	0.217	-0.055
-289.618	-200.000	0.019	0.150
-288.603	800.000	-0.025	-0.105
-287.589	-200.000	-0.025	-0.362
-286.574	-172.378	-0.145	0.005
-285.559	34.684	0.182	0.158
-284.545	-121.159	0.129	0.022
-283.530	171.952	0.225	0.321
-282.516	-123.067	-0.279	0.045
-281.501	-200.000	0.016	0.371
-280.486	-10.796	-0.069	0.045
-279.472	-129.225	0.211	0.029
-278.457	800.000	-0.072	-0.250
-277.443	122.327	0.124	0.154
-276.428	169.052	-0.070	-0.099
-275.413	-200.000	0.001	-0.181
-274.399	-136.795	0.231	0.026
-273.384	-48.021	-0.216	0.104
-272.370	-29.382	0.139	-0.079
-271.355	-97.902	-0.150	0.039
-270.340	800.000	0.066	0.209
-269.326	-99.499	0.327	0.082
-268.311	293.104	-0.121	0.220
-267.297	-51.308	0.084	-0.039
-266.282	-100.947	-0.130	0.032
-265.267	393.439	0.155	-0.321
-264.253	58.933	-0.181	0.176
-263.238	-181.099	0.125	-0.002
-262.224	-200.000	-0.011	0.138
-261.209	800.000	0.037	0.117
-260.195	800.000	0.064	0.269
-259.180	151.466	0.107	0.145
-258.165	-51.394	0.267	-0.124
-257.151	-154.717	-0.296	0.020
-256.136	-143.547	0.319	-0.030
-255.122	-200.000	-0.070	-0.355
-254.107	309.544	0.155	-0.287
-253.092	-34.751	-0.205	0.111
-252.078	348.401	-0.164	-0.320
-251.063	-86.851	-0.286	0.087
-250.049	-78.740	0.195	0.066
-249.034	-16.204	-0.225	-0.142
-248.019	91.098	-0.217	0.241
-247.005	800.000	0.091	0.371
-245.990	-99.194	-0.290	-0.073
-244.976	800.000	0.075	0.225
-243.961	-164.294	0.196	-0.009
-242.946	190.222	0.104	-0.156
-241.932	-200.000	0.066	-0.300
-240.917	159.056	0.140	-0.193
-239.903	194.389	-0.085	0.127
-238.888	800.000	0.136	0.556
-237.873	224.695	-0.082	0.132
-236.859	179.255	0.245	0.355
-235.844	75.126	-0.075	-0.079
-234.830	-109.479	0.158	0.033
-233.815	-183.529	-0.112	0.002
-232.800	-124.292	-0.099	-0.015
-231.786	-137.894	0.497	0.055
-230.771	156.488	0.090	-0.123
-229.757	-200.000	-0.004	0.131
-228.742	800.000	-0.058	0.217
-227.727	800.000	-0.101	-0.378
-226.713	25.929	-0.325	-0.268
-225.698	-163.135	-0.249	-0.012
-224.684	-98.617	-0.161	0.041
-223.669	336.814	0.041	0.079
-222.655	-50.357	0.211	0.099
-221.640	13.602	-0.162	-0.124
-220.625	41.555	0.108	0.097
-219.611	219.420	-0.206	0.326
-218.596	177.287	-0.130	-0.188
-217.582	-167.702	-0.296	-0.012
-216.567	-79.531	0.228	0.076
-215.552	-182.411	0.107	-0.002
-214.538	479.541	-0.093	-0.208
-213.523	-54.199	0.188	0.084
-212.509	537.464	0.093	-0.218
-211.494	51.848	-0.238	-0.224
-210.479	160.473	0.283	-0.391
-209.465	-138.986	0.263	-0.028
-208.450	66.779	0.128	0.129
-207.436	53.577	-0.200	-0.190
-206.421	62.925	-0.127	0.126
-205.406	800.000	-0.027	0.079
-204.392	82.538	0.200	-0.215
-203.377	25.229	0.142	0.116
-202.363	493.541	0.063	-0.143
-201.348	-150.681	-0.315	0.024
-200.333	625.765	-0.104	0.260
-199.319	-75.361	-0.323	0.114
-198.304	-139.403	-0.394	0.042
-197.290	-106.853	0.210	0.046
-196.275	385.873	0.078	-0.159
-195.260	58.045	0.214	0.208
-194.246	-102.781	-0.433	-0.102
-193.231	12.424	0.193	-0.147
-192.217	-94.080	0.151	0.041
-191.202	-16.426	-0.182	-0.114
-190.187	-127.251	-0.300	-0.043
-189.173	-129.464	0.016	-0.002
-188.158	-118.722	0.216	-0.038
-187.144	-183.880	-0.277	-0.005
-186.129	181.820	0.110	0.159
-185.114	-46.020	0.222	-0.108
-184.100	19.177	-0.132	0.105
-183.085	-200.000	-0.036	-0.208
-182.071	-49.365	0.352	-0.166
-181.056	800.000	-0.049	-0.177
-180.042	-28.958	0.123	0.070
-179.027	174.570	0.138	0.198
-178.012	236.854	0.134	0.219
-176.998	76.181	-0.202	-0.212
-175.983	271.182	0.108	0.188
-174.969	121.491	0.151	0.186
-173.954	229.960	-0.190	0.307
-172.939	14.234	-0.146	-0.113
-171.925	-200.000	0.004	-0.025
-170.910	-11.176	0.252	-0.164
-169.896	-200.000	0.021	-0.201
-168.881	-200.000	-0.030	-0.285
-167.866	-200.000	0.005	-0.032
-166.852	-72.012	0.118	-0.043
-165.837	-73.460	-0.185	-0.067
-164.823	-48.454	-0.062	-0.030
-163.808	698.921	0.059	-0.155
-162.793	-200.000	0.029	0.217
-161.779	33.550	0.054	-0.046
-160.764	-126.664	-0.316	-0.046
-159.750	752.976	-0.143	-0.383
-158.735	-75.584	-0.237	-0.083
-157.720	692.020	0.082	0.211
-156.706	-200.000	0.021	-0.258
-155.691	-146.610	-0.229	0.020
-154.677	16.594	0.096	-0.075
-153.662	800.000	0.069	-0.205
-152.647	2.988	0.125	0.090
-151.633	-94.473	-0.307	-0.083
-150.618	80.051	0.245	0.260
-149.604	10.247	-0.187	0.141
-148.589	800.000	-0.040	0.149
-147.574	-200.000	0.000	-0.120
-146.560	-146.191	0.080	0.007
-145.545	4.381	-0.104	0.075
-144.531	-200.000	-0.097	0.000
-143.516	-200.000	0.062	-0.292
-142.502	23.668	-0.516	0.419
-141.487	-101.435	0.181	0.044
-140.472	-8.503	0.282	0.187
-139.458	-200.000	-0.000	-0.254
-138.443	800.000	-0.055	0.165
-137.429	-200.000	-0.022	0.209
-136.414	800.000	0.053	-0.188
-135.399	-142.598	0.153	0.015
-134.385	83.998	-0.319	-0.344
-133.370	-200.000	0.022	-0.209
-132.356	-200.000	0.008	0.150
-131.341	-21.222	0.197	-0.119
-130.326	67.955	-0.205	0.207
-129.312	1.777	0.303	-0.215
-128.297	-200.000	0.051	-0.271
-127.283	-104.582	-0.058	-0.013
-126.268	63.878	-0.195	0.193
-125.253	-58.741	-0.104	-0.044
-124.239	-200.000	-0.012	-0.237
-123.224	-135.615	0.318	0.037
-122.210	580.145	-0.140	-0.337
-121.195	-200.000	-0.011	-0.298
