DTS Sentinel unit serial number:	SN413079Multiplexer serial number:	ORYXHardware model number:	OX4-SRSoftware version number:	ORYX F/W v4.00 Oryx Data Collector v3.7.2.0data status	okinstallation	princeton_trtdifferential loss correction	single-endedforward channel	channel 1reverse channel	N/Adate	2019/09/14time	14:22:35forward acquisition time	60.00reverse acquisition time	0.00gamma	496.2192k internal	0.2293k external	0.2293temperature offset calibration	1.0079default loss term (dB/km)	0.3790temperature slope calibration	1.0000multiplexer offset coefficient	1.0000multiplexer slope coefficient	1.0000fibre end	0.00T internal ref (°C)	38.94T ext. ref 1 (°C)	5.10T ext. ref 2 (°C)	35.90length (m)	temperature (°C)	Stokes	anti-Stokes-747.200	-185.426	-0.073	-0.001
-746.185	-54.089	0.176	0.082
-745.171	-63.925	-0.114	-0.048
-744.156	-16.241	0.262	-0.170
-743.142	-133.022	-0.387	0.050
-742.127	-200.000	0.077	0.442
-741.112	-33.619	-0.129	0.073
-740.098	20.301	-0.249	0.206
-739.083	-200.000	-0.019	-0.179
-738.069	2.594	-0.172	-0.127
-737.054	-53.672	-0.208	0.097
-736.039	-200.000	0.035	-0.245
-735.025	-78.313	0.096	0.034
-734.010	-200.000	-0.006	0.094
-732.996	-51.220	-0.331	-0.158
-731.981	553.461	0.118	-0.289
-730.966	-162.045	-0.116	0.006
-729.952	800.000	-0.027	-0.096
-728.937	-140.201	-0.046	0.005
-727.923	448.253	-0.023	0.051
-726.908	409.155	-0.086	0.187
-725.894	-17.311	-0.238	0.153
-724.879	237.655	0.178	0.301
-723.864	157.270	-0.124	-0.175
-722.850	775.099	-0.019	-0.054
-721.835	-101.554	0.147	-0.037
-720.821	26.522	0.143	0.122
-719.806	136.757	-0.173	0.231
-718.791	-200.000	-0.028	-0.171
-717.777	-115.703	-0.109	0.021
-716.762	640.484	-0.067	-0.176
-715.748	40.487	-0.094	0.086
-714.733	109.334	0.231	0.283
-713.718	138.204	-0.100	0.134
-712.704	178.850	0.098	-0.147
-711.689	130.919	-0.117	-0.153
-710.675	-200.000	0.088	-0.433
-709.660	1.701	-0.162	0.119
-708.645	35.972	-0.332	-0.298
-707.631	401.235	-0.153	-0.328
-706.616	-200.000	-0.060	-0.345
-705.602	-75.557	-0.295	-0.107
-704.587	800.000	-0.107	-0.353
-703.572	177.681	-0.211	0.314
-702.558	8.939	0.340	0.262
-701.543	-200.000	-0.001	-0.040
-700.529	800.000	0.084	0.258
-699.514	49.558	-0.087	0.083
-698.499	315.035	0.133	-0.257
-697.485	-67.123	-0.384	0.155
-696.470	-68.748	-0.224	0.089
-695.456	359.334	0.020	-0.041
-694.441	30.598	-0.104	-0.091
-693.426	-3.489	0.122	-0.087
-692.412	-11.010	0.058	0.039
-691.397	5.760	0.085	-0.064
-690.383	-200.000	0.087	-0.392
-689.368	-200.000	0.001	-0.218
-688.354	-3.558	-0.320	-0.227
-687.339	-149.156	-0.278	-0.023
-686.324	-200.000	-0.003	-0.070
-685.310	-200.000	-0.020	-0.118
-684.295	331.642	0.103	-0.202
-683.281	-51.272	-0.043	-0.021
-682.266	389.073	0.073	0.154
-681.251	-79.412	-0.247	-0.085
-680.237	241.468	-0.141	-0.241
-679.222	162.441	0.031	-0.045
-678.208	-200.000	0.009	-0.299
-677.193	-200.000	0.081	-0.501
-676.178	161.535	0.143	0.204
-675.164	-200.000	0.030	-0.323
-674.149	-152.633	-0.205	0.015
-673.135	800.000	0.074	-0.277
-672.120	-159.933	0.315	0.018
-671.105	800.000	-0.040	-0.155
-670.091	-200.000	0.007	-0.044
-669.076	-175.218	-0.291	-0.008
-668.062	-111.781	-0.358	-0.074
-667.047	-117.077	-0.169	0.031
-666.032	-71.132	-0.258	-0.099
-665.018	98.951	-0.107	0.126
-664.003	-200.000	-0.004	0.072
-662.989	47.315	0.249	0.236
-661.974	-34.572	0.233	0.130
-660.959	319.740	0.017	0.034
-659.945	16.708	-0.144	-0.116
-658.930	231.754	0.100	-0.167
-657.916	626.494	-0.105	-0.271
-656.901	113.629	-0.025	0.031
-655.886	800.000	-0.086	-0.282
-654.872	34.770	0.130	-0.115
-653.857	-133.367	0.328	0.042
-652.843	425.344	0.162	-0.356
-651.828	-10.986	0.027	0.018
-650.814	-96.444	-0.050	0.013
-649.799	363.034	0.269	-0.550
-648.784	-73.885	-0.361	0.134
-647.770	-200.000	-0.004	-0.124
-646.755	56.599	-0.253	0.251
-645.741	-17.019	-0.073	-0.047
-644.726	286.868	0.146	0.269
-643.711	-100.260	0.241	-0.061
-642.697	-101.803	0.168	-0.041
-641.682	452.414	0.084	-0.188
-640.668	-200.000	0.028	-0.246
-639.653	-200.000	0.025	-0.167
-638.638	-200.000	-0.033	0.188
-637.624	256.242	-0.089	0.156
-636.609	-125.688	0.237	0.037
-635.595	-8.537	0.091	0.062
-634.580	-200.000	-0.081	0.438
-633.565	800.000	0.037	0.107
-632.551	-53.402	0.097	-0.045
-631.536	139.495	-0.198	0.265
-630.522	-200.000	-0.010	0.264
-629.507	800.000	-0.045	-0.200
-628.492	-47.297	-0.340	-0.169
-627.478	-105.700	-0.322	-0.074
-626.463	120.978	-0.071	-0.090
-625.449	-93.555	0.119	0.034
-624.434	66.342	-0.293	-0.303
-623.419	-200.000	-0.006	-0.140
-622.405	-67.637	0.371	0.148
-621.390	-77.233	0.292	0.104
-620.376	62.911	0.017	0.017
-619.361	319.658	-0.034	-0.066
-618.346	-70.601	-0.295	0.113
-617.332	72.555	-0.006	-0.006
-616.317	319.080	0.111	0.214
-615.303	-103.288	0.216	-0.052
-614.288	-200.000	-0.060	-0.368
-613.273	-200.000	0.019	-0.191
-612.259	12.686	-0.098	0.077
-611.244	800.000	-0.017	0.064
-610.230	48.070	0.061	0.058
-609.215	-36.915	0.196	-0.107
-608.201	-200.000	0.004	-0.200
-607.186	800.000	-0.174	0.608
-606.171	297.053	-0.257	0.480
-605.157	574.214	0.116	0.288
-604.142	-54.151	-0.201	0.093
-603.128	231.294	0.171	-0.285
-602.113	-161.257	-0.272	0.014
-601.098	-77.258	-0.246	0.087
-600.084	800.000	-0.099	-0.286
-599.069	-200.000	0.040	0.201
-598.055	-39.007	0.012	-0.006
-597.040	-200.000	0.074	-0.333
-596.025	-130.229	-0.234	-0.032
-595.011	-114.807	-0.251	0.049
-593.996	-200.000	0.009	0.150
-592.982	13.073	-0.139	-0.110
-591.967	-148.045	-0.139	0.012
-590.952	800.000	-0.119	-0.506
-589.938	-95.128	-0.147	-0.040
-588.923	-125.050	-0.201	-0.031
-587.909	-97.590	-0.347	0.091
-586.894	-163.785	-0.114	-0.005
-585.879	-96.147	0.141	0.038
-584.865	12.223	-0.229	0.179
-583.850	-21.071	0.012	0.008
-582.836	-138.583	0.286	-0.032
-581.821	408.977	-0.155	-0.334
-580.806	-98.418	0.171	-0.045
-579.792	-28.746	0.182	-0.106
-578.777	522.406	0.016	0.037
-577.763	607.075	0.056	-0.141
-576.748	136.891	-0.109	0.144
-575.733	-200.000	0.078	0.358
-574.719	-91.856	-0.220	0.063
-573.704	295.987	0.219	0.408
-572.690	-88.795	-0.285	-0.086
-571.675	-200.000	-0.037	-0.319
-570.661	-200.000	0.021	-0.101
-569.646	800.000	-0.111	-0.319
-568.631	-200.000	0.000	0.166
-567.617	35.574	0.069	0.061
-566.602	363.870	-0.055	0.111
-565.588	-86.684	-0.263	-0.082
-564.573	-200.000	0.015	0.228
-563.558	-86.934	0.159	-0.049
-562.544	-200.000	-0.030	-0.196
-561.529	55.929	-0.162	-0.160
-560.515	-200.000	-0.054	-0.410
-559.500	6.045	0.303	0.228
-558.485	-200.000	0.015	-0.205
-557.471	-58.172	0.195	0.086
-556.456	-200.000	-0.043	-0.223
-555.442	800.000	0.100	-0.359
-554.427	761.386	0.048	-0.132
-553.412	-50.996	-0.158	0.075
-552.398	560.876	-0.048	-0.119
-551.383	-157.595	0.189	-0.011
-550.369	161.343	0.087	-0.123
-549.354	-66.990	-0.088	-0.035
-548.339	52.325	0.113	-0.109
-547.325	-87.067	0.192	0.059
-546.310	108.905	-0.132	0.160
-545.296	800.000	-0.052	-0.147
-544.281	-200.000	-0.011	-0.324
-543.266	-123.735	-0.153	-0.025
-542.252	376.335	0.073	-0.152
-541.237	-35.011	0.104	0.058
-540.223	-54.565	0.232	0.107
-539.208	-20.839	-0.115	0.071
-538.193	-70.519	-0.142	-0.055
-537.179	114.389	-0.132	0.163
-536.164	-107.486	-0.188	-0.042
-535.150	-8.307	0.108	0.074
-534.135	-55.400	0.048	0.022
-533.121	131.402	-0.182	0.238
-532.106	-42.020	0.363	0.189
-531.091	40.839	0.064	-0.059
-530.077	-44.640	0.548	-0.278
-529.062	163.156	-0.030	-0.043
-528.048	-120.240	-0.043	0.007
-527.033	198.514	0.157	-0.244
-526.018	-200.000	-0.017	0.234
-525.004	109.431	-0.145	-0.176
-523.989	135.273	-0.222	-0.293
-522.975	-181.443	0.570	-0.011
-521.960	-158.468	0.269	0.016
-520.945	112.782	-0.118	0.145
-519.931	800.000	0.027	-0.084
-518.916	55.415	0.213	0.209
-517.902	3.926	0.125	0.093
-516.887	-59.657	-0.163	-0.071
-515.872	-93.790	0.115	0.032
-514.858	-45.138	-0.277	-0.139
-513.843	-200.000	0.021	0.196
-512.829	271.724	0.098	-0.176
-511.814	-83.861	-0.401	0.129
-510.799	0.449	-0.221	0.160
-509.785	800.000	-0.025	-0.100
-508.770	450.450	0.084	0.188
-507.756	-200.000	0.019	-0.131
-506.741	800.000	-0.043	-0.161
-505.726	-146.062	0.177	-0.016
-504.712	-14.981	0.058	-0.038
-503.697	209.450	-0.035	0.056
-502.683	268.638	0.024	-0.043
-501.668	-200.000	0.044	-0.231
-500.653	-200.000	-0.019	-0.267
-499.639	-82.032	-0.507	0.168
-498.624	-200.000	0.032	-0.183
-497.610	246.732	0.085	0.146
-496.595	187.636	-0.078	0.119
-495.581	308.324	0.071	0.134
-494.566	-159.772	-0.146	0.008
-493.551	-82.512	-0.108	-0.036
-492.537	-200.000	0.001	0.357
-491.522	-21.554	0.138	0.085
-490.508	-136.257	0.206	-0.024
-489.493	92.887	-0.339	0.388
-488.478	-117.217	-0.174	0.032
-487.464	-122.398	0.342	-0.056
-486.449	-4.967	0.034	0.024
-485.435	105.617	0.026	-0.032
-484.420	114.126	-0.059	-0.073
-483.405	-200.000	0.048	0.314
-482.391	537.838	0.072	-0.172
-481.376	-81.777	0.084	-0.028
-480.362	-200.000	0.009	-0.142
-479.347	286.826	0.098	0.180
-478.332	-200.000	-0.020	-0.160
-477.318	-27.615	-0.058	0.034
-476.303	146.668	-0.196	0.266
-475.289	-27.694	-0.183	-0.107
-474.274	5.941	-0.084	-0.063
-473.259	70.003	0.013	-0.014
-472.245	-47.887	-0.126	-0.062
-471.230	-12.862	0.329	0.217
-470.216	-68.475	0.145	0.057
-469.201	800.000	0.102	0.309
-468.186	352.020	-0.138	-0.277
-467.172	-43.469	0.339	-0.173
-466.157	-69.635	-0.125	0.049
-465.143	92.798	0.182	0.208
-464.128	-200.000	0.015	-0.151
-463.113	-86.937	-0.076	-0.024
-462.099	301.207	0.058	0.109
-461.084	-120.511	-0.109	0.019
-460.070	-147.724	-0.408	0.035
-459.055	-67.272	-0.060	-0.024
-458.040	651.569	-0.071	-0.185
-457.026	654.377	0.112	-0.290
-456.011	19.053	-0.239	-0.194
-454.997	102.396	-0.273	-0.323
-453.982	-0.748	0.321	0.230
-452.968	172.221	-0.178	0.259
-451.953	-114.123	0.206	0.040
-450.938	-148.865	-0.147	-0.012
-449.924	37.984	-0.055	-0.049
-448.909	456.736	-0.013	0.028
-447.895	-4.251	-0.216	0.151
-446.880	-200.000	-0.056	0.356
-445.865	9.289	0.365	-0.279
-444.851	117.463	0.257	-0.319
-443.836	186.949	0.124	-0.186
-442.822	132.199	0.095	-0.124
-441.807	-23.576	-0.298	-0.181
-440.792	-33.613	0.178	0.099
-439.778	-200.000	-0.018	0.139
-438.763	-135.306	-0.133	-0.016
-437.749	-52.494	0.239	0.112
-436.734	175.276	-0.101	0.148
-435.719	-200.000	-0.021	0.308
-434.705	742.419	-0.018	0.049
-433.690	-146.023	0.336	-0.030
-432.676	-122.197	-0.019	-0.003
-431.661	-115.415	-0.257	0.049
-430.646	-200.000	-0.003	0.147
-429.632	800.000	-0.060	0.208
-428.617	-108.300	-0.038	0.008
-427.603	213.155	0.129	-0.205
-426.588	257.541	0.144	-0.251
-425.573	-140.821	0.269	0.028
-424.559	-135.396	-0.362	0.044
-423.544	343.826	0.048	-0.095
-422.530	-17.802	0.050	-0.032
-421.515	264.736	-0.105	-0.185
-420.500	188.436	0.165	0.250
-419.486	13.120	0.037	0.029
-418.471	-200.000	-0.122	0.000
-417.457	491.566	0.115	0.266
-416.442	3.888	-0.170	0.125
-415.428	661.032	0.108	0.280
-414.413	-161.095	-0.350	0.018
-413.398	276.407	-0.111	-0.199
-412.384	-42.596	0.187	-0.096
-411.369	-87.430	-0.190	0.058
-410.355	-28.792	0.070	-0.041
-409.340	-53.197	0.009	-0.004
-408.325	224.866	0.154	0.252
-407.311	-200.000	-0.036	0.176
-406.296	-71.474	0.283	-0.107
-405.282	-175.888	-0.468	0.013
-404.267	23.129	-0.121	0.100
-403.252	800.000	0.026	0.104
-402.238	579.442	-0.052	-0.129
-401.223	15.529	-0.090	0.071
-400.209	-200.000	-0.033	-0.379
-399.194	-200.000	-0.002	-0.207
-398.179	4.653	-0.113	-0.084
-397.165	-200.000	-0.036	-0.333
-396.150	-141.906	-0.115	0.012
-395.136	-152.381	0.292	0.021
-394.121	-60.943	0.368	0.157
-393.106	43.668	0.133	0.123
-392.092	312.012	-0.060	-0.113
-391.077	-64.186	0.346	-0.142
-390.063	-200.000	-0.076	-0.381
-389.048	46.486	0.196	-0.184
-388.033	-107.943	0.174	0.038
-387.019	-24.848	0.084	-0.051
-386.004	546.596	-0.143	-0.346
-384.990	240.007	0.082	0.137
-383.975	158.294	-0.137	-0.191
-382.960	-85.621	-0.234	0.073
-381.946	16.696	-0.076	0.060
-380.931	-55.619	0.391	0.176
-379.917	-125.237	0.310	0.048
-378.902	552.554	0.108	0.261
-377.888	-139.764	0.176	-0.019
-376.873	2.210	0.098	0.071
-375.858	467.966	0.043	-0.097
-374.844	-69.806	0.395	-0.152
-373.829	-95.029	-0.105	0.029
-372.815	-53.601	-0.230	-0.106
-371.800	800.000	-0.134	0.451
-370.785	62.386	-0.153	-0.154
-369.771	-75.214	0.135	0.049
-368.756	-200.000	-0.019	0.113
-367.742	-200.000	-0.002	0.082
-366.727	-92.498	-0.074	0.021
-365.712	-51.125	-0.267	-0.126
-364.698	113.731	-0.123	-0.151
-363.683	59.100	-0.091	0.090
-362.669	87.958	0.079	0.088
-361.654	-15.937	-0.286	0.184
-360.639	-51.712	-0.129	0.060
-359.625	-200.000	0.012	0.107
-358.610	800.000	-0.067	0.250
-357.596	11.267	0.238	-0.184
-356.581	-200.000	-0.216	-0.001
-355.566	-4.343	-0.174	-0.121
-354.552	800.000	-0.023	0.098
-353.537	-119.282	0.178	-0.031
-352.523	800.000	0.131	-0.451
-351.508	-113.866	0.243	-0.048
-350.493	675.834	0.078	-0.203
-349.479	-48.084	0.163	0.079
-348.464	-160.494	-0.064	-0.003
-347.450	-200.000	0.039	-0.239
-346.435	11.354	0.289	-0.223
-345.420	-200.000	-0.035	-0.223
-344.406	7.145	-0.070	0.052
-343.391	44.281	0.078	-0.072
-342.377	-87.535	-0.221	0.067
-341.362	1.931	-0.219	0.159
-340.348	-141.993	0.324	-0.033
-339.333	-18.028	0.100	-0.063
-338.318	-8.920	-0.352	0.237
-337.304	-73.408	0.084	-0.031
-336.289	195.949	0.294	0.450
-335.275	236.077	0.150	0.249
-334.260	416.428	-0.038	-0.081
-333.245	172.381	-0.038	-0.055
-332.231	-11.958	-0.037	-0.024
-331.216	126.897	-0.064	0.082
-330.202	402.612	-0.076	0.160
-329.187	-160.927	-0.190	-0.010
-328.172	-85.477	0.247	-0.077
-327.158	-200.000	0.029	0.148
-326.143	102.580	0.270	-0.318
-325.129	-200.000	-0.035	0.333
-324.114	-122.380	0.227	-0.037
-323.099	-108.925	0.112	0.024
-322.085	69.966	0.261	0.271
-321.070	800.000	-0.032	0.131
-320.056	225.228	-0.255	0.416
-319.041	70.670	0.279	-0.290
-318.026	-200.000	0.015	-0.303
-317.012	29.481	0.098	0.084
-315.997	90.074	-0.192	-0.216
-314.983	-67.559	-0.150	-0.059
-313.968	52.006	-0.167	-0.160
-312.953	-200.000	-0.020	0.377
-311.939	311.889	0.068	-0.127
-310.924	-28.823	0.309	-0.179
-309.910	105.952	-0.119	-0.142
-308.895	199.949	0.040	-0.061
-307.880	800.000	-0.032	0.090
-306.866	60.783	0.049	-0.049
-305.851	-200.000	0.019	0.164
-304.837	627.641	0.097	0.247
-303.822	33.929	-0.136	-0.119
-302.807	123.510	0.232	0.293
-301.793	-66.161	-0.152	0.061
-300.778	538.556	0.037	0.089
-299.764	-158.022	0.199	-0.012
-298.749	-80.484	-0.354	-0.119
-297.735	-37.143	0.281	0.151
-296.720	-70.400	-0.187	-0.071
-295.705	-103.844	-0.286	0.067
-294.691	-200.000	-0.023	0.210
-293.676	261.538	0.102	0.178
-292.662	-72.784	-0.067	0.025
-291.647	536.601	-0.069	-0.165
-290.632	-92.619	-0.297	-0.084
-289.618	-129.528	-0.238	0.033
-288.603	-200.000	0.046	0.215
-287.589	149.851	0.160	-0.218
-286.574	-93.945	0.223	0.062
-285.559	-200.000	0.041	-0.274
-284.545	256.077	-0.034	-0.059
-283.530	13.221	-0.186	0.145
-282.516	-17.377	-0.249	-0.157
-281.501	205.022	-0.184	0.286
-280.486	800.000	-0.021	0.062
-279.472	43.641	-0.111	0.102
-278.457	-126.451	0.219	-0.033
-277.443	-24.050	-0.218	-0.131
-276.428	-200.000	-0.030	0.281
-275.413	249.657	0.214	0.364
-274.399	218.294	-0.101	-0.162
-273.384	12.065	0.043	-0.034
-272.370	677.136	-0.030	0.077
-271.355	-56.844	0.209	0.093
-270.340	-200.000	-0.001	0.302
-269.326	167.883	0.092	0.131
-268.311	742.521	0.148	-0.400
-267.297	-108.694	-0.143	-0.031
-266.282	-102.545	-0.038	0.009
-265.267	-200.000	0.008	-0.189
-264.253	-200.000	-0.003	0.018
-263.238	40.345	0.266	-0.240
-262.224	-26.165	-0.166	0.098
-261.209	800.000	-0.047	-0.148
-260.195	-192.173	-0.128	0.001
-259.180	-20.568	0.143	0.088
-258.165	800.000	-0.051	0.218
-257.151	-23.766	-0.183	-0.110
-256.136	-60.392	0.265	0.113
-255.122	-64.585	0.064	0.026
-254.107	800.000	0.107	-0.321
-253.092	-97.915	0.221	-0.057
-252.078	-77.455	-0.222	-0.077
-251.063	152.096	0.051	-0.070
-250.049	12.455	0.202	-0.156
-249.034	-51.668	0.039	0.018
-248.019	-157.018	0.202	0.012
-247.005	697.768	-0.039	0.104
-245.990	-200.000	0.045	0.287
-244.976	-125.808	-0.080	0.012
-243.961	199.481	0.162	0.249
-242.946	119.901	0.083	-0.103
-241.932	319.138	-0.073	0.139
-240.917	340.999	-0.074	-0.145
-239.903	227.873	0.086	-0.140
-238.888	-128.850	0.188	-0.026
-237.873	220.135	0.143	0.229
-236.859	-99.519	-0.074	-0.019
-235.844	800.000	-0.036	0.114
-234.830	517.703	0.059	-0.139
-233.815	-37.689	-0.282	0.151
-232.800	-156.546	0.224	-0.014
-231.786	-100.559	0.150	-0.037
-230.771	38.255	-0.362	-0.323
-229.757	-61.276	0.332	-0.140
-228.742	-200.000	0.027	0.283
-227.727	236.827	0.094	-0.156
-226.713	-200.000	0.011	0.254
-225.698	149.664	0.080	-0.109
-224.684	-200.000	-0.021	-0.235
-223.669	337.015	-0.063	0.123
-222.655	41.840	-0.103	-0.093
-221.640	21.653	-0.051	0.041
-220.625	28.568	-0.208	-0.177
-219.611	137.572	0.105	-0.138
-218.596	103.397	0.152	0.179
-217.582	-101.688	-0.141	-0.034
-216.567	800.000	0.036	0.148
-215.552	-200.000	0.014	0.189
-214.538	-34.724	0.058	-0.032
-213.523	-128.179	-0.048	-0.007
-212.509	-200.000	0.037	-0.188
-211.494	-200.000	-0.014	-0.171
-210.479	800.000	0.075	0.285
-209.465	-144.546	-0.187	-0.017
-208.450	800.000	-0.053	-0.156
-207.436	146.569	0.097	0.130
-206.421	-26.527	0.353	0.207
-205.406	-104.061	-0.209	0.049
-204.392	-37.284	-0.170	-0.091
-203.377	66.470	-0.127	-0.129
-202.363	-153.036	-0.466	-0.033
-201.348	-200.000	0.023	-0.206
-200.333	-54.324	0.195	-0.088
-199.319	800.000	-0.033	0.118
-198.304	-108.345	0.260	0.056
-197.290	-51.215	-0.177	0.083
-196.275	-8.054	0.114	-0.077
-195.260	-200.000	0.052	-0.243
-194.246	178.492	-0.018	0.026
-193.231	800.000	0.028	-0.105
-192.217	-74.792	0.132	0.048
-191.202	150.645	0.037	0.050
-190.187	-146.156	0.259	0.023
-189.173	-25.158	-0.223	-0.132
-188.158	-114.768	0.227	0.043
-187.144	655.140	-0.083	0.214
-186.129	-200.000	0.040	0.263
-185.114	-8.678	-0.190	0.128
-184.100	66.073	-0.295	-0.300
-183.085	213.693	-0.100	0.158
-182.071	-11.134	0.175	0.115
-181.056	133.478	-0.201	0.260
-180.042	54.738	-0.283	-0.273
-179.027	-200.000	-0.022	0.132
-178.012	171.281	0.129	-0.185
-176.998	-144.211	-0.271	-0.025
-175.983	389.275	0.144	0.298
-174.969	-27.217	0.210	-0.123
-173.954	-200.000	0.035	0.164
-172.939	-110.857	0.177	-0.037
-171.925	164.971	-0.102	-0.144
-170.910	319.662	0.102	0.193
-169.896	77.183	0.111	0.118
-168.881	183.613	-0.181	-0.267
-167.866	-39.565	0.308	-0.162
-166.852	203.291	-0.176	-0.273
-165.837	9.019	0.122	-0.092
-164.823	202.467	0.082	0.127
-163.808	15.356	0.232	0.182
-162.793	-110.852	0.128	0.026
-161.779	-81.329	-0.448	0.148
-160.764	800.000	0.153	-0.460
-159.750	800.000	-0.096	-0.368
-158.735	-93.141	-0.237	0.066
-157.720	-37.549	-0.144	-0.077
-156.706	-137.053	-0.327	0.037
-155.691	800.000	-0.093	0.296
-154.677	-200.000	0.018	-0.146
-153.662	-200.000	-0.012	0.214
-152.647	800.000	0.092	0.270
-151.633	-76.892	0.147	0.051
-150.618	23.150	0.170	0.140
-149.604	162.245	-0.027	-0.037
-148.589	-200.000	0.017	0.141
-147.574	149.967	0.152	0.206
-146.560	800.000	-0.064	0.280
-145.545	-40.144	-0.478	-0.249
-144.531	382.913	0.012	-0.024
-143.516	-130.260	0.312	-0.042
-142.502	-91.466	0.100	0.028
-141.487	-88.826	0.542	-0.161
-140.472	-200.000	0.005	0.500
-139.458	498.345	-0.023	0.054
-138.443	-189.275	0.160	-0.002
-137.429	-28.814	0.094	-0.054
-136.414	-200.000	-0.038	0.305
-135.399	-28.961	0.203	0.116
-134.385	-93.174	0.146	0.041
-133.370	800.000	0.118	-0.335
-132.356	45.987	0.216	-0.200
-131.341	80.421	0.071	0.076
-130.326	46.007	-0.061	0.056
-129.312	-200.000	0.039	0.234
-128.297	800.000	-0.080	-0.273
-127.283	71.989	0.115	0.119
-126.268	693.105	0.081	0.213
-125.253	-59.992	-0.125	0.053
-124.239	85.859	-0.056	0.061
-123.224	-152.570	-0.156	0.011
-122.210	-85.552	0.169	-0.052
