DTS Sentinel unit serial number:	SN413079Multiplexer serial number:	ORYXHardware model number:	OX4-SRSoftware version number:	ORYX F/W v4.00 Oryx Data Collector v3.7.2.0data status	okinstallation	princeton_trtdifferential loss correction	single-endedforward channel	channel 1reverse channel	N/Adate	2019/09/13time	12:30:35forward acquisition time	60.00reverse acquisition time	0.00gamma	496.2192k internal	0.2306k external	0.2306temperature offset calibration	1.0169default loss term (dB/km)	0.3790temperature slope calibration	1.0000multiplexer offset coefficient	1.0000multiplexer slope coefficient	1.0000fibre end	0.00T internal ref (°C)	34.41T ext. ref 1 (°C)	4.61T ext. ref 2 (°C)	31.77length (m)	temperature (°C)	Stokes	anti-Stokes-747.200	137.279	0.096	0.128
-746.185	-60.610	0.262	0.113
-745.171	-159.042	0.085	0.005
-744.156	313.712	-0.093	0.178
-743.142	-121.664	0.351	-0.059
-742.127	-148.192	-0.201	-0.017
-741.112	66.474	-0.187	0.193
-740.098	-38.850	-0.170	0.091
-739.083	112.815	0.132	0.163
-738.069	800.000	-0.028	0.096
-737.054	-158.935	-0.311	0.018
-736.039	-58.995	-0.292	-0.128
-735.025	800.000	-0.070	0.302
-734.010	71.989	0.192	-0.203
-732.996	-37.099	-0.354	-0.192
-731.981	637.160	-0.076	0.196
-730.966	-8.334	0.067	-0.046
-729.952	70.413	-0.126	-0.132
-728.937	800.000	-0.090	0.384
-727.923	-169.392	-0.364	0.014
-726.908	-200.000	-0.008	-0.082
-725.894	-37.105	-0.199	0.108
-724.879	-86.512	-0.158	-0.049
-723.864	-93.691	-0.389	0.109
-722.850	-200.000	-0.038	-0.277
-721.835	-65.155	-0.507	0.208
-720.821	-75.922	-0.101	0.036
-719.806	800.000	-0.096	-0.327
-718.791	-200.000	-0.022	0.445
-717.777	61.198	-0.208	-0.210
-716.762	537.323	-0.045	0.108
-715.748	139.913	-0.211	-0.282
-714.733	71.313	0.143	0.151
-713.718	800.000	-0.082	-0.256
-712.704	-200.000	0.025	-0.123
-711.689	-200.000	-0.002	-0.251
-710.675	-107.939	-0.038	-0.008
-709.660	-76.796	-0.301	-0.107
-708.645	-200.000	0.020	0.137
-707.631	-200.000	0.010	0.200
-706.616	63.581	0.147	0.150
-705.602	-200.000	-0.008	0.191
-704.587	-200.000	0.008	-0.246
-703.572	22.249	-0.147	-0.122
-702.558	-136.474	0.239	0.028
-701.543	-37.820	0.087	0.047
-700.529	199.688	-0.042	0.066
-699.514	-60.809	0.285	0.122
-698.499	-88.086	0.165	-0.050
-697.485	-53.123	0.448	-0.209
-696.470	119.076	-0.015	0.019
-695.456	-49.361	0.137	0.066
-694.441	-104.170	-0.110	-0.026
-693.426	595.752	0.086	-0.216
-692.412	-200.000	-0.014	-0.082
-691.397	592.099	-0.122	0.307
-690.383	-200.000	0.024	-0.317
-689.368	46.588	0.236	0.223
-688.354	448.805	0.233	0.521
-687.339	17.884	0.068	-0.055
-686.324	2.138	0.157	-0.115
-685.310	-34.955	-0.209	0.116
-684.295	2.871	0.084	-0.062
-683.281	289.035	-0.147	0.271
-682.266	-120.446	-0.318	0.055
-681.251	90.760	0.059	-0.068
-680.237	-122.614	-0.239	0.039
-679.222	-200.000	0.031	-0.151
-678.208	-23.056	0.208	-0.127
-677.193	800.000	-0.085	-0.276
-676.178	-42.681	0.294	-0.152
-675.164	800.000	-0.096	-0.324
-674.149	-81.130	0.108	0.036
-673.135	390.413	0.062	-0.130
-672.120	32.521	-0.296	-0.260
-671.105	-116.665	0.129	-0.024
-670.091	5.049	0.238	-0.178
-669.076	-200.000	-0.081	-0.464
-668.062	464.758	-0.065	-0.148
-667.047	-200.000	0.035	0.167
-666.032	-99.508	-0.069	-0.018
-665.018	152.904	-0.082	0.113
-664.003	-114.074	0.160	-0.031
-662.989	33.974	-0.391	0.345
-661.974	800.000	-0.055	-0.234
-660.959	800.000	0.029	-0.088
-659.945	800.000	0.091	0.318
-658.930	-112.712	-0.179	-0.036
-657.916	232.391	-0.210	0.349
-656.901	78.304	-0.141	-0.152
-655.886	41.110	-0.112	-0.102
-654.872	235.962	-0.040	0.067
-653.857	1.533	-0.180	0.131
-652.843	-85.779	-0.278	0.087
-651.828	-0.284	0.094	0.068
-650.814	-90.747	-0.349	0.102
-649.799	138.201	0.113	-0.150
-648.784	-126.810	-0.153	-0.023
-647.770	800.000	0.023	-0.066
-646.755	285.342	0.150	-0.274
-645.741	-173.957	0.050	0.001
-644.726	800.000	-0.043	-0.158
-643.711	100.651	0.010	-0.012
-642.697	-200.000	-0.042	-0.191
-641.682	-36.319	0.120	0.065
-640.668	680.955	-0.021	0.055
-639.653	800.000	0.052	-0.191
-638.638	61.848	0.191	0.193
-637.624	800.000	-0.021	0.090
-636.609	-86.454	0.261	0.081
-635.595	-59.636	0.122	0.053
-634.580	357.109	-0.028	0.056
-633.565	-200.000	0.015	-0.229
-632.551	624.522	-0.091	0.231
-631.536	89.419	-0.262	0.295
-630.522	-200.000	-0.023	0.470
-629.507	-200.000	-0.019	-0.176
-628.492	629.164	-0.102	0.262
-627.478	-200.000	0.001	-0.232
-626.463	168.793	0.129	0.186
-625.449	-54.818	-0.291	0.133
-624.434	800.000	0.034	-0.135
-623.419	-200.000	0.066	0.567
-622.405	258.897	0.232	0.405
-621.390	-200.000	-0.001	0.382
-620.376	128.554	0.162	-0.209
-619.361	105.253	0.055	-0.066
-618.346	-102.673	-0.344	0.083
-617.332	-34.781	-0.268	0.148
-616.317	257.003	0.046	-0.080
-615.303	-38.693	-0.156	0.083
-614.288	-93.945	-0.345	-0.096
-613.273	8.895	0.301	-0.230
-612.259	129.548	0.108	-0.140
-611.244	-139.676	0.198	-0.021
-610.230	-28.018	-0.153	0.090
-609.215	170.976	-0.039	0.057
-608.201	55.198	-0.237	-0.232
-607.186	-59.513	0.073	0.032
-606.171	87.845	0.158	0.177
-605.157	-100.591	-0.106	0.027
-604.142	9.580	-0.059	-0.045
-603.128	392.144	0.068	-0.142
-602.113	-10.380	-0.106	0.071
-601.098	173.144	-0.166	-0.243
-600.084	-105.074	-0.479	0.111
-599.069	104.878	0.105	-0.125
-598.055	-21.533	0.289	-0.178
-597.040	-87.876	-0.171	0.052
-596.025	269.323	0.142	-0.252
-595.011	-200.000	0.034	-0.329
-593.996	319.516	0.206	-0.396
-592.982	2.439	0.113	0.083
-591.967	800.000	0.080	-0.290
-590.952	-119.824	0.123	-0.021
-589.938	6.495	-0.262	-0.197
-588.923	-160.478	0.154	0.008
-587.909	-191.736	-0.230	0.002
-586.894	151.199	-0.079	0.108
-585.879	12.046	0.322	0.250
-584.865	-151.975	-0.191	0.014
-583.850	276.815	0.131	0.235
-582.836	-99.137	0.106	0.027
-581.821	81.224	-0.091	-0.099
-580.806	-20.261	0.244	-0.152
-579.792	275.878	0.190	0.340
-578.777	517.023	-0.094	-0.223
-577.763	-179.505	0.358	0.008
-576.748	130.956	-0.178	-0.230
-575.733	-57.388	-0.357	0.159
-574.719	-96.534	0.121	0.032
-573.704	-3.132	0.290	0.204
-572.690	-200.000	-0.044	-0.252
-571.675	-9.982	-0.134	-0.090
-570.661	25.640	0.315	0.265
-569.646	-71.056	-0.124	-0.047
-568.631	-147.283	0.218	0.019
-567.617	-118.513	-0.215	-0.039
-566.602	205.623	-0.087	-0.136
-565.588	800.000	0.065	-0.249
-564.573	-200.000	-0.010	-0.237
-563.558	-114.767	-0.187	-0.036
-562.544	318.221	0.136	-0.260
-561.529	-200.000	0.049	0.283
-560.515	-23.265	-0.332	-0.202
-559.500	0.371	0.062	0.045
-558.485	-94.808	0.210	-0.058
-557.471	-157.155	-0.195	-0.012
-556.456	-98.177	-0.104	0.027
-555.442	-200.000	0.024	-0.184
-554.427	120.029	-0.083	0.104
-553.412	72.702	-0.141	-0.149
-552.398	37.663	-0.255	0.229
-551.383	354.123	-0.129	-0.258
-550.369	-59.795	0.183	0.079
-549.354	800.000	-0.095	0.333
-548.339	800.000	0.093	0.396
-547.325	-200.000	0.020	0.143
-546.310	-200.000	0.035	-0.187
-545.296	-28.793	-0.248	-0.144
-544.281	-0.864	-0.253	0.181
-543.266	130.429	-0.217	-0.280
-542.252	218.364	-0.077	0.123
-541.237	22.813	0.208	-0.172
-540.223	117.700	0.093	-0.115
-539.208	-200.000	0.008	-0.107
-538.193	574.749	-0.047	0.116
-537.179	38.210	-0.204	-0.183
-536.164	183.464	0.066	0.099
-535.150	-10.764	0.048	-0.032
-534.135	-114.242	-0.065	-0.013
-533.121	800.000	-0.084	0.247
-532.106	800.000	0.022	-0.076
-531.091	393.721	0.070	-0.147
-530.077	-177.282	-0.024	-0.001
-529.062	-94.657	-0.434	-0.119
-528.048	800.000	-0.091	0.324
-527.033	-10.800	0.156	0.104
-526.018	-67.693	0.245	-0.097
-525.004	-123.440	-0.197	-0.032
-523.989	800.000	-0.082	0.291
-522.975	-200.000	-0.008	-0.158
-521.960	800.000	0.048	0.191
-520.945	-93.775	0.176	0.049
-519.931	-173.919	-0.105	0.003
-518.916	438.881	-0.063	-0.138
-517.902	-0.362	0.233	0.167
-516.887	49.172	0.147	-0.140
-515.872	-167.260	-0.022	0.001
-514.858	-200.000	-0.045	0.211
-513.843	-103.697	-0.376	0.089
-512.829	452.859	0.016	0.036
-511.814	800.000	-0.069	0.304
-510.799	800.000	0.049	0.182
-509.785	7.269	0.071	-0.053
-508.770	-0.258	-0.081	0.058
-507.756	-35.709	-0.244	-0.134
-506.741	705.384	-0.087	0.231
-505.726	82.351	0.174	0.190
-504.712	298.789	0.068	0.126
-503.697	800.000	0.061	0.182
-502.683	800.000	-0.043	0.177
-501.668	127.735	0.118	0.151
-500.653	-200.000	-0.000	0.133
-499.639	80.310	-0.142	0.154
-498.624	-180.780	-0.278	0.006
-497.610	-98.193	-0.154	0.040
-496.595	28.190	0.305	-0.259
-495.581	157.078	-0.230	-0.321
-494.566	348.878	0.093	-0.185
-493.551	186.844	0.122	0.183
-492.537	-200.000	0.009	-0.127
-491.522	201.936	-0.132	0.204
-490.508	-84.634	-0.030	-0.010
-489.493	-200.000	0.024	-0.253
-488.478	80.699	-0.063	-0.068
-487.464	-89.552	0.415	-0.123
-486.449	14.730	-0.139	-0.109
-485.435	-121.497	0.205	0.034
-484.420	12.903	0.038	0.029
-483.405	66.459	0.129	-0.132
-482.391	-108.069	-0.191	0.042
-481.376	161.660	0.060	-0.084
-480.362	-36.141	0.147	0.080
-479.347	204.318	-0.060	-0.094
-478.332	-144.603	0.367	-0.034
-477.318	-10.634	-0.066	0.044
-476.303	-200.000	-0.055	0.298
-475.289	-77.348	-0.215	0.075
-474.274	0.894	0.197	-0.142
-473.259	-69.552	-0.309	0.119
-472.245	-14.332	0.234	0.152
-471.230	800.000	-0.032	-0.123
-470.216	498.753	-0.067	-0.155
-469.201	-126.302	0.120	-0.018
-468.186	-200.000	0.015	0.304
-467.172	-137.100	0.151	0.017
-466.157	414.718	0.132	-0.283
-465.143	-156.873	-0.298	0.018
-464.128	418.499	0.124	0.266
-463.113	184.833	-0.029	-0.044
-462.099	102.133	0.252	0.296
-461.084	-200.000	0.017	0.360
-460.070	49.725	0.103	0.098
-459.055	67.104	0.096	-0.098
-458.040	125.215	-0.233	0.295
-457.026	-19.266	-0.232	0.145
-456.011	-158.996	-0.300	0.017
-454.997	423.173	0.056	0.121
-453.982	79.230	0.137	0.148
-452.968	259.345	0.062	-0.108
-451.953	-152.378	-0.417	0.030
-450.938	290.531	-0.097	-0.177
-449.924	-92.643	0.239	-0.067
-448.909	-123.511	0.353	0.056
-447.895	-121.292	0.149	0.025
-446.880	-200.000	-0.016	-0.106
-445.865	-178.628	0.209	-0.005
-444.851	100.263	0.060	-0.070
-443.836	30.568	0.155	0.133
-442.822	-200.000	0.027	-0.166
-441.807	800.000	0.079	-0.318
-440.792	13.718	-0.065	0.050
-439.778	-58.470	0.114	-0.050
-438.763	-200.000	-0.038	-0.327
-437.749	57.425	-0.112	-0.110
-436.734	-200.000	-0.005	-0.055
-435.719	-200.000	-0.033	-0.152
-434.705	-164.622	0.297	0.014
-433.690	56.965	-0.107	-0.105
-432.676	800.000	0.086	0.285
-431.661	-200.000	-0.018	0.203
-430.646	-93.210	0.225	0.063
-429.632	-200.000	-0.018	-0.164
-428.617	-23.950	-0.131	-0.079
-427.603	781.973	0.078	-0.213
-426.588	-142.187	0.109	0.011
-425.573	2.766	0.144	-0.105
-424.559	-125.525	-0.152	-0.023
-423.544	-200.000	0.006	0.214
-422.530	-154.436	0.104	0.007
-421.515	212.035	-0.098	0.154
-420.500	-71.725	0.414	-0.155
-419.486	800.000	0.002	-0.008
-418.471	114.873	0.147	-0.180
-417.457	55.238	-0.502	-0.488
-416.442	-200.000	-0.034	-0.242
-415.428	-6.063	0.166	-0.114
-414.413	-84.110	-0.110	-0.035
-413.398	-76.861	0.216	-0.076
-412.384	38.126	0.188	0.168
-411.369	-19.823	0.154	-0.095
-410.355	-37.510	-0.303	-0.162
-409.340	612.206	-0.070	0.176
-408.325	111.066	0.163	-0.198
-407.311	68.424	-0.103	-0.106
-406.296	-149.121	-0.335	-0.027
-405.282	800.000	0.038	0.126
-404.267	-42.319	0.192	-0.098
-403.252	-0.785	0.149	-0.106
-402.238	800.000	-0.107	-0.315
-401.223	562.219	0.017	0.041
-400.209	123.020	-0.084	0.106
-399.194	366.441	-0.262	-0.531
-398.179	-200.000	0.043	0.203
-397.165	-77.935	-0.282	0.098
-396.150	300.004	0.081	0.150
-395.136	-75.735	0.209	0.074
-394.121	800.000	0.063	-0.273
-393.106	-200.000	0.004	0.165
-392.092	800.000	-0.020	-0.056
-391.077	561.318	0.061	-0.147
-390.063	121.912	-0.262	-0.328
-389.048	4.230	-0.104	-0.076
-388.033	-31.850	0.244	-0.137
-387.019	115.204	0.134	-0.164
-386.004	-6.597	0.051	0.035
-384.990	523.110	-0.072	-0.169
-383.975	-124.898	0.369	0.057
-382.960	238.732	-0.088	0.147
-381.946	18.447	0.048	-0.039
-380.931	188.527	0.085	0.128
-379.917	-200.000	-0.018	0.152
-378.902	800.000	0.083	-0.252
-377.888	-24.796	-0.423	0.252
-376.873	114.197	0.092	-0.113
-375.858	407.486	-0.048	-0.101
-374.844	-105.507	0.242	0.055
-373.829	-5.322	0.222	-0.153
-372.815	-200.000	0.032	-0.176
-371.800	-19.183	-0.351	-0.218
-370.785	47.367	0.259	-0.242
-369.771	-3.073	0.268	0.188
-368.756	340.506	0.040	0.079
-367.742	-13.457	-0.144	-0.093
-366.727	-66.887	0.234	-0.093
-365.712	47.090	0.259	0.241
-364.698	-90.223	0.229	-0.067
-363.683	-27.770	-0.294	0.171
-362.669	-200.000	-0.003	-0.060
-361.654	800.000	0.109	0.399
-360.639	198.211	-0.153	0.235
-359.625	800.000	0.079	0.239
-358.610	327.331	-0.038	0.074
-357.596	-29.185	-0.126	-0.073
-356.581	3.612	0.175	-0.128
-355.566	122.240	-0.162	0.202
-354.552	-200.000	0.002	-0.235
-353.537	-200.000	-0.088	-0.422
-352.523	575.371	0.040	0.098
-351.508	-148.424	0.260	0.021
-350.493	-64.188	-0.333	-0.136
-349.479	-28.808	-0.390	0.224
-348.464	61.489	0.120	-0.119
-347.450	38.166	0.043	-0.039
-346.435	-200.000	-0.027	0.327
-345.420	-117.586	-0.233	-0.042
-344.406	8.057	0.151	0.113
-343.391	44.236	0.105	0.097
-342.377	-69.756	0.162	0.062
-341.362	-120.584	-0.166	-0.028
-340.348	467.558	-0.117	-0.263
-339.333	59.934	0.102	0.101
-338.318	-117.879	0.200	0.036
-337.304	-138.232	0.143	-0.016
-336.289	166.999	-0.015	0.022
-335.275	-10.752	0.161	-0.107
-334.260	-116.018	0.243	-0.045
-333.245	-79.742	-0.175	-0.059
-332.231	-187.491	0.216	0.003
-331.216	800.000	-0.107	0.305
-330.202	-114.793	0.470	-0.090
-329.187	141.576	-0.059	0.078
-328.172	-146.628	0.191	-0.017
-327.158	561.994	0.064	-0.154
-326.143	-114.318	-0.341	-0.066
-325.129	-200.000	0.035	0.222
-324.114	298.756	-0.085	-0.157
-323.099	-53.594	-0.285	0.130
-322.085	-64.987	-0.355	0.144
-321.070	16.993	0.078	0.062
-320.056	0.898	-0.179	0.128
-319.041	269.246	0.105	0.184
-318.026	-200.000	-0.045	0.432
-317.012	800.000	-0.019	-0.062
-315.997	-200.000	0.014	0.148
-314.983	-118.844	0.214	0.038
-313.968	-29.769	-0.207	-0.118
-312.953	29.144	0.184	-0.156
-311.939	-200.000	-0.037	-0.390
-310.924	277.850	0.071	0.127
-309.910	106.231	-0.133	0.157
-308.895	301.306	-0.111	-0.206
-307.880	800.000	0.012	0.053
-306.866	785.064	-0.053	-0.147
-305.851	-200.000	0.097	-0.466
-304.837	105.343	0.098	-0.116
-303.822	44.496	-0.085	-0.078
-302.807	-200.000	-0.010	-0.192
-301.793	-200.000	-0.003	-0.136
-300.778	800.000	0.109	0.425
-299.764	-48.573	-0.144	0.069
-298.749	-60.997	-0.203	-0.086
-297.735	192.487	-0.158	-0.239
-296.720	-120.152	0.320	0.055
-295.705	-137.503	-0.227	0.026
-294.691	800.000	0.067	-0.293
-293.676	269.069	0.139	-0.244
-292.662	140.126	0.102	-0.135
-291.647	-155.767	-0.282	-0.018
-290.632	-105.841	-0.122	-0.028
-289.618	-200.000	0.029	-0.163
-288.603	-56.323	0.202	0.090
-287.589	7.904	0.163	0.122
-286.574	737.468	-0.088	-0.237
-285.559	800.000	0.031	0.095
-284.545	13.755	-0.211	-0.164
-283.530	-200.000	0.039	0.344
-282.516	-42.052	-0.280	0.143
-281.501	800.000	-0.101	-0.381
-280.486	6.357	-0.388	0.288
-279.472	128.496	-0.229	0.291
-278.457	54.369	-0.228	-0.219
-277.443	-200.000	0.027	0.180
-276.428	800.000	-0.017	-0.054
-275.413	121.891	0.243	0.303
-274.399	-152.332	0.369	0.027
-273.384	110.023	0.059	-0.071
-272.370	-200.000	0.013	0.291
-271.355	-48.824	-0.200	0.096
-270.340	800.000	0.100	0.414
-269.326	-11.627	-0.477	-0.313
-268.311	14.022	-0.349	0.271
-267.297	186.557	-0.161	0.239
-266.282	-5.361	-0.035	0.024
-265.267	-106.059	0.218	0.049
-264.253	-200.000	-0.009	0.207
-263.238	-200.000	0.028	0.192
-262.224	-200.000	0.031	-0.283
-261.209	-200.000	0.020	0.121
-260.195	107.266	-0.090	-0.107
-259.180	-31.963	0.225	0.126
-258.165	-34.542	-0.114	0.062
-257.151	93.560	0.015	0.017
-256.136	-200.000	-0.053	-0.415
-255.122	-50.087	0.201	0.095
-254.107	-200.000	-0.037	0.445
-253.092	343.010	0.083	0.163
-252.078	14.386	0.132	0.103
-251.063	-30.017	-0.242	-0.137
-250.049	-76.238	-0.268	0.094
-249.034	-200.000	-0.013	0.251
-248.019	800.000	0.050	-0.162
-247.005	-200.000	-0.017	0.079
-245.990	356.679	0.078	-0.155
-244.976	56.354	-0.141	0.136
-243.961	11.350	-0.137	-0.105
-242.946	88.296	-0.129	-0.143
-241.932	-200.000	-0.001	0.187
-240.917	624.405	-0.037	0.092
-239.903	-60.111	-0.128	-0.054
-238.888	670.308	-0.086	0.223
-237.873	-200.000	-0.050	-0.231
-236.859	-108.435	0.351	-0.075
-235.844	-76.290	0.340	0.119
-234.830	-61.598	-0.264	0.110
-233.815	-87.903	0.116	0.035
-232.800	67.845	-0.061	0.063
-231.786	-0.152	0.055	-0.039
-230.771	-200.000	0.002	-0.199
-229.757	-200.000	-0.030	-0.154
-228.742	-200.000	-0.017	-0.205
-227.727	-30.657	0.210	-0.119
-226.713	-145.956	-0.307	-0.027
-225.698	-37.041	-0.198	0.106
-224.684	-200.000	-0.117	0.586
-223.669	-50.274	-0.314	-0.148
-222.655	-6.375	0.305	0.208
-221.640	800.000	0.093	-0.283
-220.625	-200.000	0.037	0.254
-219.611	107.678	-0.199	-0.236
-218.596	41.661	0.150	0.135
-217.582	-200.000	0.002	0.240
-216.567	-200.000	-0.249	-0.000
-215.552	-200.000	0.004	0.041
-214.538	-52.101	0.120	-0.055
-213.523	289.006	-0.063	-0.113
-212.509	101.912	0.031	-0.036
-211.494	441.435	-0.127	-0.277
-210.479	570.042	0.104	-0.251
-209.465	28.852	0.289	-0.244
-208.450	513.059	-0.149	0.345
-207.436	-89.697	0.125	-0.036
-206.421	-90.200	-0.240	0.070
-205.406	191.021	0.082	0.122
-204.392	800.000	-0.053	0.205
-203.377	800.000	-0.061	0.243
-202.363	23.860	-0.224	0.184
-201.348	161.958	-0.183	0.255
-200.333	-58.674	0.131	0.056
-199.319	800.000	-0.074	0.279
-198.304	-89.281	0.417	-0.122
-197.290	298.714	0.129	-0.237
-196.275	800.000	0.031	0.096
-195.260	2.791	0.111	0.080
-194.246	727.977	-0.114	-0.302
-193.231	800.000	-0.051	-0.202
-192.217	-21.717	0.096	-0.058
-191.202	-200.000	0.017	-0.430
-190.187	-200.000	-0.028	-0.281
-189.173	800.000	0.056	-0.189
-188.158	-140.608	-0.270	-0.028
-187.144	-69.048	-0.183	-0.070
-186.129	-200.000	-0.011	-0.245
-185.114	-200.000	0.011	-0.235
-184.100	-200.000	-0.003	-0.050
-183.085	-51.758	0.213	0.099
-182.071	-200.000	-0.009	-0.122
-181.056	-180.795	0.059	0.001
-180.042	184.093	0.055	0.080
-179.027	800.000	-0.103	0.318
-178.012	-31.838	0.077	-0.043
-176.998	640.845	-0.052	0.132
-175.983	-193.179	-0.094	-0.001
-174.969	126.748	-0.097	-0.122
-173.954	-79.036	0.234	-0.079
-172.939	73.423	-0.125	0.130
-171.925	-140.073	0.271	0.028
-170.910	-200.000	0.033	0.317
-169.896	50.332	0.200	-0.188
-168.881	157.474	0.053	-0.073
-167.866	104.276	0.213	-0.250
-166.852	-64.072	0.166	-0.068
-165.837	-18.566	-0.224	-0.139
-164.823	-68.843	0.032	0.012
-163.808	155.371	0.185	0.253
-162.793	-62.993	0.177	0.073
-161.779	-23.379	-0.226	0.135
-160.764	-37.442	-0.221	-0.117
-159.750	800.000	-0.069	0.190
-158.735	-76.343	0.199	-0.070
-157.720	800.000	-0.027	-0.081
-156.706	-74.644	0.292	0.104
-155.691	74.365	0.203	0.212
-154.677	-34.096	0.119	0.065
-153.662	800.000	-0.039	-0.154
-152.647	-129.744	-0.247	0.034
-151.633	185.039	0.096	0.141
-150.618	-165.716	0.356	-0.015
-149.604	-200.000	0.067	0.365
-148.589	-200.000	0.004	0.338
-147.574	800.000	0.045	-0.190
-146.560	-14.593	0.141	0.090
-145.545	-131.679	-0.297	-0.039
-144.531	-64.322	-0.338	-0.137
-143.516	-61.052	0.143	-0.060
-142.502	-100.373	0.248	0.061
-141.487	44.305	0.061	-0.055
-140.472	152.972	-0.143	0.194
-139.458	237.491	0.047	-0.077
-138.443	-73.693	0.233	-0.084
-137.429	-33.192	0.023	-0.013
-136.414	800.000	0.062	0.253
-135.399	-154.397	0.148	0.010
-134.385	-111.558	0.105	0.021
-133.370	-168.549	-0.218	-0.008
-132.356	-52.472	0.165	-0.076
-131.341	161.155	-0.094	0.130
-130.326	-112.177	0.212	-0.042
-129.312	-27.874	-0.055	-0.032
-128.297	298.333	-0.221	0.404
-127.283	-200.000	0.014	-0.315
-126.268	-68.621	0.245	0.094
-125.253	800.000	-0.106	0.348
-124.239	127.081	0.086	0.108
-123.224	-125.035	-0.226	0.034
-122.210	762.007	0.111	0.300
-121.195	800.000	0.020	-0.056
