DTS Sentinel unit serial number:	SN413079Multiplexer serial number:	ORYXHardware model number:	OX4-SRSoftware version number:	ORYX F/W v4.00 Oryx Data Collector v3.7.2.0data status	okinstallation	princeton_trtdifferential loss correction	single-endedforward channel	channel 1reverse channel	N/Adate	2019/09/16time	01:18:35forward acquisition time	60.00reverse acquisition time	0.00gamma	496.2192k internal	0.2334k external	0.2334temperature offset calibration	0.9975default loss term (dB/km)	0.3790temperature slope calibration	1.0000multiplexer offset coefficient	1.0000multiplexer slope coefficient	1.0000fibre end	0.00T internal ref (°C)	27.28T ext. ref 1 (°C)	9.84T ext. ref 2 (°C)	21.83length (m)	temperature (°C)	Stokes	anti-Stokes-747.200	-36.520	-0.268	0.145
-746.185	-18.381	-0.244	0.153
-745.171	159.942	0.152	0.213
-744.156	331.914	-0.177	0.343
-743.142	-90.741	0.110	-0.032
-742.127	412.314	-0.054	0.115
-741.112	800.000	-0.038	0.164
-740.098	85.625	0.051	0.056
-739.083	8.991	-0.233	-0.177
-738.069	784.696	0.084	-0.231
-737.054	-18.141	0.206	0.130
-736.039	-38.958	-0.295	0.156
-735.025	-102.809	0.217	-0.052
-734.010	-200.000	-0.006	-0.161
-732.996	800.000	-0.093	-0.294
-731.981	-200.000	0.013	-0.146
-730.966	7.534	0.239	0.179
-729.952	-48.912	0.263	-0.126
-728.937	590.337	-0.201	0.497
-727.923	-10.925	-0.265	-0.176
-726.908	-78.382	-0.215	-0.074
-725.894	-200.000	0.007	-0.260
-724.879	-200.000	0.005	0.056
-723.864	-64.371	-0.362	0.148
-722.850	-200.000	-0.003	-0.056
-721.835	-200.000	-0.005	0.127
-720.821	38.394	0.237	-0.212
-719.806	-4.200	-0.179	-0.124
-718.791	-7.598	-0.133	-0.090
-717.777	-200.000	0.002	0.024
-716.762	74.502	0.315	-0.332
-715.748	12.829	0.106	-0.082
-714.733	548.778	-0.108	-0.259
-713.718	202.298	0.016	-0.025
-712.704	-200.000	0.016	0.230
-711.689	-200.000	-0.006	-0.043
-710.675	-83.950	-0.335	-0.107
-709.660	-72.472	-0.122	0.045
-708.645	-119.241	-0.139	0.024
-707.631	354.985	0.040	0.079
-706.616	-96.933	-0.324	-0.085
-705.602	-200.000	-0.014	0.068
-704.587	-14.998	-0.137	0.088
-703.572	800.000	-0.026	-0.106
-702.558	-106.966	0.284	-0.063
-701.543	-75.573	0.193	0.069
-700.529	12.310	-0.220	0.170
-699.514	-108.443	0.085	0.018
-698.499	-200.000	-0.008	-0.123
-697.485	-25.092	-0.346	-0.206
-696.470	119.538	0.224	-0.278
-695.456	-14.192	-0.308	0.199
-694.441	-200.000	0.012	0.126
-693.426	800.000	-0.092	0.369
-692.412	-18.828	-0.229	0.143
-691.397	-200.000	-0.000	0.047
-690.383	380.141	0.066	0.135
-689.368	800.000	-0.062	-0.251
-688.354	-200.000	0.045	0.442
-687.339	-87.062	0.076	-0.023
-686.324	800.000	0.012	0.048
-685.310	131.185	-0.148	0.190
-684.295	-150.564	-0.182	0.014
-683.281	-129.189	-0.333	0.047
-682.266	-24.981	-0.368	-0.219
-681.251	794.268	-0.038	0.105
-680.237	-200.000	-0.082	-0.366
-679.222	466.991	-0.053	0.119
-678.208	-121.095	0.209	0.035
-677.193	389.798	0.118	-0.245
-676.178	-75.032	0.191	0.069
-675.164	-200.000	0.000	0.147
-674.149	-93.562	-0.104	0.029
-673.135	90.109	-0.121	0.136
-672.120	-200.000	-0.052	0.273
-671.105	-27.711	-0.231	-0.134
-670.091	524.931	-0.107	0.251
-669.076	800.000	-0.117	0.334
-668.062	484.913	0.171	-0.391
-667.047	149.246	0.161	-0.219
-666.032	-106.726	-0.071	0.016
-665.018	-82.639	0.198	-0.064
-664.003	-69.604	-0.182	0.070
-662.989	800.000	0.085	-0.253
-661.974	800.000	0.085	-0.264
-660.959	758.732	-0.079	-0.216
-659.945	179.989	-0.185	0.272
-658.930	150.078	-0.026	0.035
-657.916	-176.607	-0.190	0.005
-656.901	-131.619	0.137	0.018
-655.886	-87.412	-0.506	-0.154
-654.872	527.623	-0.024	0.056
-653.857	-23.876	0.080	0.048
-652.843	-130.136	-0.177	-0.024
-651.828	-200.000	0.032	-0.393
-650.814	514.087	0.153	0.358
-649.799	-57.850	-0.461	0.202
-648.784	-77.936	-0.191	-0.066
-647.770	135.848	0.112	0.146
-646.755	58.497	-0.101	0.099
-645.741	-97.925	-0.190	0.049
-644.726	-200.000	0.007	-0.127
-643.711	76.278	0.187	-0.198
-642.697	90.855	0.143	-0.161
-641.682	112.538	-0.253	-0.306
-640.668	52.562	-0.191	-0.183
-639.653	17.267	0.160	0.127
-638.638	-136.851	0.234	0.027
-637.624	180.722	0.184	-0.270
-636.609	52.651	-0.175	-0.168
-635.595	21.383	0.197	-0.160
-634.580	800.000	0.132	0.405
-633.565	178.214	0.078	0.113
-632.551	-69.610	-0.207	-0.079
-631.536	800.000	-0.064	-0.231
-630.522	-8.830	-0.134	-0.090
-629.507	-200.000	-0.060	-0.360
-628.492	109.547	0.172	-0.206
-627.478	-15.458	-0.127	-0.081
-626.463	15.393	-0.195	-0.153
-625.449	-200.000	-0.014	0.093
-624.434	54.521	-0.197	-0.190
-623.419	800.000	0.108	-0.327
-622.405	22.288	-0.152	-0.124
-621.390	139.186	0.166	0.218
-620.376	-143.973	-0.197	-0.018
-619.361	-151.077	0.239	0.018
-618.346	-81.668	-0.270	-0.089
-617.332	-117.589	-0.241	-0.043
-616.317	-200.000	0.032	-0.553
-615.303	-79.660	-0.268	0.091
-614.288	-25.832	-0.181	-0.107
-613.273	335.791	-0.076	-0.147
-612.259	-200.000	-0.042	0.269
-611.244	329.910	-0.150	-0.289
-610.230	800.000	-0.068	-0.255
-609.215	91.312	0.071	0.080
-608.201	800.000	-0.052	-0.201
-607.186	-200.000	-0.015	0.067
-606.171	800.000	0.101	-0.378
-605.157	218.781	-0.211	0.337
-604.142	800.000	-0.036	0.106
-603.128	-76.531	0.276	0.097
-602.113	800.000	-0.025	-0.085
-601.098	-54.314	-0.128	-0.058
-600.084	-141.224	-0.333	0.034
-599.069	17.113	0.068	0.054
-598.055	-200.000	-0.004	-0.018
-597.040	-105.765	0.191	-0.043
-596.025	66.964	0.289	-0.294
-595.011	-27.052	0.223	-0.130
-593.996	800.000	-0.080	-0.223
-592.982	-76.643	-0.220	0.077
-591.967	33.967	-0.239	0.208
-590.952	31.873	-0.219	0.188
-589.938	39.671	0.224	-0.201
-588.923	-3.984	-0.213	-0.148
-587.909	42.712	-0.151	0.137
-586.894	-200.000	0.007	-0.051
-585.879	191.250	-0.066	0.099
-584.865	-3.961	-0.107	-0.074
-583.850	273.520	0.035	-0.063
-582.836	-200.000	-0.008	0.125
-581.821	61.229	0.232	-0.230
-580.806	-200.000	-0.003	0.049
-579.792	607.751	-0.105	0.260
-578.777	-58.928	0.156	-0.067
-577.763	-79.769	0.154	-0.052
-576.748	-200.000	0.053	-0.297
-575.733	-200.000	0.053	0.382
-574.719	800.000	-0.110	0.371
-573.704	90.797	0.131	0.146
-572.690	28.023	0.063	0.053
-571.675	-65.755	-0.210	-0.084
-570.661	180.359	0.145	-0.212
-569.646	-144.134	-0.315	-0.029
-568.631	-36.630	-0.186	0.100
-567.617	-200.000	0.023	-0.106
-566.602	800.000	-0.088	0.324
-565.588	-38.566	0.090	0.047
-564.573	-66.920	0.314	0.124
-563.558	343.826	-0.010	0.020
-562.544	148.175	-0.193	0.260
-561.529	1.157	0.095	0.068
-560.515	-3.880	-0.296	-0.205
-559.500	-200.000	0.074	-0.355
-558.485	11.251	-0.293	-0.224
-557.471	-135.781	-0.344	0.041
-556.456	800.000	-0.058	-0.227
-555.442	-200.000	-0.059	0.420
-554.427	-80.238	0.290	0.097
-553.412	313.058	0.181	-0.340
-552.398	703.387	-0.042	-0.110
-551.383	-85.732	0.052	-0.016
-550.369	-17.863	-0.142	-0.089
-549.354	-55.251	-0.109	-0.049
-548.339	-135.502	0.202	0.024
-547.325	-60.946	0.090	-0.038
-546.310	54.722	-0.258	-0.248
-545.296	-26.482	0.443	0.259
-544.281	21.485	0.077	0.062
-543.266	8.402	-0.205	-0.154
-542.252	456.863	0.048	0.107
-541.237	-62.775	-0.388	0.160
-540.223	181.205	0.180	-0.264
-539.208	491.087	-0.112	0.256
-538.193	-200.000	-0.024	0.468
-537.179	556.242	0.094	0.226
-536.164	-46.124	0.371	0.182
-535.150	-25.406	-0.212	0.125
-534.135	800.000	-0.032	0.107
-533.121	85.462	-0.248	0.271
-532.106	-92.968	0.289	-0.080
-531.091	-47.019	0.100	0.048
-530.077	-200.000	0.007	-0.152
-529.062	-117.371	0.327	0.059
-528.048	321.201	-0.076	0.144
-527.033	-133.245	-0.253	-0.032
-526.018	-77.459	0.316	-0.109
-525.004	488.248	0.025	-0.058
-523.989	112.280	0.062	0.075
-522.975	-6.328	0.213	0.145
-521.960	111.039	0.052	-0.062
-520.945	-76.381	0.338	-0.118
-519.931	-200.000	0.011	0.333
-518.916	47.429	0.310	0.288
-517.902	-15.931	0.248	-0.157
-516.887	46.492	0.034	0.031
-515.872	-55.043	0.157	-0.071
-514.858	371.743	0.108	-0.219
-513.843	83.006	-0.132	-0.143
-512.829	95.445	0.198	-0.225
-511.814	-119.442	-0.252	0.044
-510.799	800.000	0.027	-0.113
-509.785	-200.000	0.031	-0.227
-508.770	67.775	-0.011	-0.011
-507.756	-126.265	-0.035	0.005
-506.741	378.874	-0.139	0.283
-505.726	800.000	0.016	-0.071
-504.712	134.957	-0.052	-0.068
-503.697	352.577	0.052	0.103
-502.683	-62.842	-0.109	0.045
-501.668	-131.350	0.173	0.023
-500.653	800.000	0.097	0.298
-499.639	-0.057	0.227	-0.161
-498.624	800.000	0.042	-0.119
-497.610	29.964	0.126	-0.107
-496.595	-46.204	-0.234	-0.115
-495.581	800.000	0.066	0.230
-494.566	-200.000	0.005	0.036
-493.551	-49.557	-0.456	-0.216
-492.537	-38.746	0.243	0.128
-491.522	262.953	-0.159	0.274
-490.508	-90.514	-0.110	0.032
-489.493	-71.736	0.268	0.099
-488.478	-1.460	0.209	-0.147
-487.464	-29.729	0.266	-0.151
-486.449	-200.000	0.019	-0.171
-485.435	327.574	0.125	0.239
-484.420	-200.000	-0.006	-0.090
-483.405	25.044	0.286	0.236
-482.391	23.383	0.185	0.151
-481.376	-200.000	-0.026	0.386
-480.362	631.786	0.047	0.119
-479.347	-124.903	0.332	-0.051
-478.332	-132.714	0.039	-0.005
-477.318	-200.000	0.008	0.116
-476.303	152.502	-0.228	0.310
-475.289	-155.748	-0.112	-0.007
-474.274	-133.471	-0.212	-0.027
-473.259	-200.000	-0.002	0.180
-472.245	-7.643	0.315	0.212
-471.230	202.905	-0.041	0.063
-470.216	800.000	-0.076	-0.257
-469.201	-110.098	0.245	0.051
-468.186	324.435	-0.112	0.212
-467.172	-200.000	0.014	-0.097
-466.157	-169.004	-0.170	-0.006
-465.143	-18.008	0.115	0.071
-464.128	352.721	0.073	0.144
-463.113	109.743	0.083	0.099
-462.099	43.699	0.111	0.101
-461.084	800.000	-0.101	-0.293
-460.070	-66.089	-0.107	-0.042
-459.055	755.615	-0.071	-0.192
-458.040	-0.475	-0.040	0.028
-457.026	226.394	-0.048	-0.078
-456.011	199.729	-0.127	-0.193
-454.997	-165.653	-0.365	-0.016
-453.982	92.753	0.199	0.224
-452.968	-125.769	-0.220	-0.033
-451.953	-200.000	-0.002	-0.210
-450.938	-57.282	-0.302	0.132
-449.924	-200.000	-0.032	-0.150
-448.909	800.000	0.016	-0.050
-447.895	2.184	-0.286	0.205
-446.880	458.613	-0.096	-0.213
-445.865	-113.341	0.290	-0.057
-444.851	-4.986	-0.150	0.103
-443.836	800.000	0.019	0.072
-442.822	-58.383	-0.137	0.059
-441.807	-200.000	0.032	-0.188
-440.792	-59.124	0.041	0.017
-439.778	-138.171	-0.231	-0.025
-438.763	-166.754	-0.253	0.010
-437.749	-173.225	0.305	0.009
-436.734	98.084	-0.150	0.172
-435.719	-49.494	0.471	0.223
-434.705	580.636	0.072	0.174
-433.690	-200.000	-0.039	-0.238
-432.676	800.000	-0.058	0.237
-431.661	-112.739	0.214	0.042
-430.646	73.660	0.037	0.038
-429.632	-119.231	0.068	0.012
-428.617	243.246	0.271	0.451
-427.603	-96.647	-0.214	0.056
-426.588	90.989	0.263	-0.293
-425.573	103.129	0.102	0.119
-424.559	-118.438	0.068	0.012
-423.544	383.487	0.063	-0.128
-422.530	241.180	-0.130	0.215
-421.515	439.890	-0.123	0.268
-420.500	-87.269	-0.148	0.045
-419.486	-170.311	0.355	0.012
-418.471	800.000	0.007	0.028
-417.457	39.366	0.301	-0.268
-416.442	-51.308	0.191	-0.089
-415.428	800.000	0.044	0.152
-414.413	-39.820	0.287	-0.149
-413.398	180.261	-0.168	-0.245
-412.384	800.000	-0.025	0.099
-411.369	-185.432	0.074	-0.001
-410.355	-131.216	-0.282	0.037
-409.340	800.000	0.077	-0.226
-408.325	800.000	-0.110	0.304
-407.311	-83.976	0.267	0.084
-406.296	-200.000	-0.035	0.176
-405.282	100.962	-0.048	-0.055
-404.267	106.531	-0.189	-0.222
-403.252	-48.040	-0.047	-0.023
-402.238	-101.169	-0.278	0.067
-401.223	81.870	-0.155	-0.167
-400.209	-97.134	0.161	-0.042
-399.194	800.000	-0.035	-0.134
-398.179	-83.949	0.064	-0.020
-397.165	-200.000	-0.001	-0.364
-396.150	-32.777	-0.512	0.282
-395.136	-56.852	-0.236	-0.104
-394.121	-145.297	-0.427	0.038
-393.106	18.270	-0.240	0.190
-392.092	-41.498	0.334	-0.170
-391.077	44.721	-0.151	-0.138
-390.063	-64.496	-0.054	0.022
-389.048	108.823	-0.113	0.134
-388.033	-21.809	0.202	-0.122
-387.019	228.828	-0.072	0.117
-386.004	246.449	-0.216	-0.360
-384.990	80.721	0.325	0.347
-383.975	50.900	0.171	-0.160
-382.960	-79.046	0.490	-0.165
-381.946	-129.161	-0.253	-0.035
-380.931	61.301	-0.212	0.209
-379.917	-200.000	0.013	0.271
-378.902	-71.950	0.037	0.014
-377.888	68.166	0.184	0.187
-376.873	-16.591	-0.246	-0.154
-375.858	534.452	0.071	0.167
-374.844	800.000	-0.077	-0.258
-373.829	-32.321	-0.134	0.074
-372.815	-200.000	-0.022	-0.129
-371.800	-41.332	0.457	0.233
-370.785	273.203	0.162	0.283
-369.771	-134.098	-0.329	-0.040
-368.756	800.000	-0.029	0.100
-367.742	34.691	0.092	0.080
-366.727	516.593	-0.055	0.128
-365.712	-123.323	-0.328	0.052
-364.698	-80.073	-0.156	0.052
-363.683	339.301	-0.133	0.257
-362.669	50.309	0.208	0.195
-361.654	107.225	-0.247	-0.291
-360.639	-200.000	-0.010	-0.048
-359.625	-200.000	0.006	-0.206
-358.610	-118.924	-0.335	-0.058
-357.596	231.070	0.077	0.125
-356.581	36.457	-0.037	0.033
-355.566	-200.000	-0.034	0.223
-354.552	549.970	0.093	-0.220
-353.537	-146.561	0.166	0.014
-352.523	-14.051	-0.122	0.078
-351.508	-200.000	-0.022	-0.390
-350.493	-86.715	0.140	0.043
-349.479	-200.000	-0.015	0.095
-348.464	-35.830	-0.364	0.195
-347.450	-133.806	0.375	-0.046
-346.435	-17.376	-0.178	-0.111
-345.420	-36.177	-0.146	-0.078
-344.406	-80.660	0.427	0.141
-343.391	800.000	-0.047	0.168
-342.377	-42.593	-0.281	0.142
-341.362	800.000	0.121	-0.497
-340.348	-76.420	0.219	-0.076
-339.333	-29.355	0.145	0.082
-338.318	800.000	-0.069	-0.207
-337.304	-27.979	-0.066	0.038
-336.289	800.000	-0.113	0.340
-335.275	166.904	-0.160	0.225
-334.260	-47.664	-0.182	0.087
-333.245	800.000	-0.030	0.112
-332.231	-134.209	0.171	-0.021
-331.216	-4.385	0.039	0.027
-330.202	800.000	0.112	-0.463
-329.187	9.306	-0.343	-0.256
-328.172	-200.000	-0.041	0.327
-327.158	-200.000	0.015	0.087
-326.143	47.434	0.250	0.231
-325.129	800.000	-0.029	0.100
-324.114	295.406	-0.077	0.140
-323.099	-105.476	-0.190	-0.043
-322.085	-200.000	-0.006	0.095
-321.070	-113.974	-0.134	0.026
-320.056	800.000	0.059	0.251
-319.041	800.000	0.103	-0.294
-318.026	15.823	0.132	-0.103
-317.012	-200.000	0.004	-0.069
-315.997	-200.000	0.046	0.366
-314.983	53.450	0.245	0.232
-313.968	2.501	-0.267	-0.191
-312.953	800.000	0.039	0.161
-311.939	-124.925	-0.108	0.016
-310.924	-200.000	0.024	0.236
-309.910	800.000	-0.059	-0.247
-308.895	-81.211	0.085	-0.028
-307.880	-81.058	-0.176	-0.058
-306.866	-5.033	0.135	-0.092
-305.851	-106.123	0.224	-0.050
-304.837	-200.000	0.077	0.534
-303.822	46.478	-0.264	-0.242
-302.807	-9.694	-0.134	0.088
-301.793	800.000	0.103	-0.408
-300.778	-200.000	-0.082	-0.375
-299.764	-200.000	-0.019	-0.193
-298.749	34.951	0.174	0.151
-297.735	-116.897	0.404	-0.073
-296.720	-46.673	-0.210	-0.102
-295.705	3.560	0.088	0.063
-294.691	73.285	0.085	-0.088
-293.676	-116.214	0.222	0.041
-292.662	-200.000	0.209	0.001
-291.647	-191.647	-0.024	-0.000
-290.632	128.323	-0.264	0.332
-289.618	-116.599	-0.061	-0.011
-288.603	-200.000	0.013	0.233
-287.589	800.000	0.084	0.243
-286.574	147.841	-0.097	-0.130
-285.559	153.987	-0.020	0.027
-284.545	-172.266	0.061	0.002
-283.530	440.702	-0.115	0.249
-282.516	800.000	0.092	0.368
-281.501	-11.314	0.151	-0.098
-280.486	800.000	-0.035	-0.151
-279.472	81.666	-0.064	-0.068
-278.457	238.820	0.103	-0.169
-277.443	5.593	-0.124	0.091
-276.428	427.740	0.062	0.133
-275.413	294.146	-0.078	0.141
-274.399	229.116	-0.194	-0.312
-273.384	351.283	0.047	-0.092
-272.370	-100.823	-0.119	0.029
-271.355	-71.639	-0.176	0.065
-270.340	108.525	-0.203	-0.240
-269.326	-200.000	0.021	-0.208
-268.311	26.505	0.065	-0.053
-267.297	83.261	0.177	0.190
-266.282	-134.036	0.289	-0.035
-265.267	-121.748	0.112	-0.018
-264.253	-110.292	0.202	-0.041
-263.238	315.757	-0.094	0.175
-262.224	-11.824	0.319	-0.207
-261.209	143.503	0.110	-0.145
-260.195	-200.000	-0.018	0.251
-259.180	-76.807	-0.251	0.087
-258.165	-42.169	0.390	-0.197
-257.151	-200.000	-0.029	-0.193
-256.136	-37.055	-0.335	0.177
-255.122	-200.000	0.052	0.231
-254.107	142.486	0.054	-0.070
-253.092	597.413	0.086	-0.210
-252.078	-71.640	0.153	0.056
-251.063	413.572	-0.072	-0.151
-250.049	229.755	-0.085	-0.137
-249.034	785.499	-0.058	-0.157
-248.019	65.385	0.168	-0.167
-247.005	800.000	-0.116	-0.325
-245.990	194.555	0.193	0.288
-244.976	-200.000	-0.033	0.255
-243.961	161.126	0.193	-0.266
-242.946	800.000	0.057	0.157
-241.932	8.624	-0.183	-0.136
-240.917	246.114	-0.155	0.258
-239.903	63.197	0.036	-0.036
-238.888	-121.317	0.429	-0.071
-237.873	368.197	0.039	0.077
-236.859	-145.292	0.242	0.022
-235.844	-20.879	-0.164	-0.099
-234.830	-200.000	0.014	0.167
-233.815	280.942	0.053	0.093
-232.800	-76.690	-0.192	-0.066
-231.786	-200.000	-0.011	-0.267
-230.771	-61.699	0.269	0.111
-229.757	86.790	-0.160	-0.174
-228.742	17.190	0.124	-0.097
-227.727	-109.516	0.234	-0.049
-226.713	236.908	-0.177	-0.289
-225.698	-200.000	0.010	-0.184
-224.684	66.174	0.147	-0.147
-223.669	69.184	0.139	0.141
-222.655	-41.499	0.348	0.177
-221.640	-200.000	-0.019	0.511
-220.625	474.552	-0.105	0.233
-219.611	259.204	0.143	0.243
-218.596	-200.000	0.040	0.378
-217.582	228.073	-0.043	0.068
-216.567	361.081	-0.082	0.162
-215.552	800.000	0.056	0.156
-214.538	745.430	-0.034	-0.089
-213.523	44.526	0.219	-0.198
-212.509	-51.128	-0.224	0.104
-211.494	-200.000	-0.001	0.180
-210.479	463.625	0.103	-0.226
-209.465	-48.698	-0.378	-0.179
-208.450	127.595	0.163	0.204
-207.436	-167.446	-0.128	-0.005
-206.421	-88.199	0.071	0.021
-205.406	-200.000	-0.000	-0.240
-204.392	309.608	0.044	0.081
-203.377	180.249	-0.068	-0.098
-202.363	-197.715	-0.311	-0.002
-201.348	-181.607	-0.218	0.004
-200.333	256.183	0.189	-0.318
-199.319	461.787	-0.105	-0.231
-198.304	1.867	-0.121	0.086
-197.290	-57.759	0.172	-0.074
-196.275	208.032	-0.103	0.158
-195.260	-200.000	-0.012	-0.211
-194.246	-95.708	0.154	0.040
-193.231	-2.195	-0.079	0.055
-192.217	-19.841	-0.154	-0.094
-191.202	-86.318	-0.269	-0.081
-190.187	7.008	0.046	-0.034
-189.173	-146.560	-0.304	-0.026
-188.158	-200.000	-0.004	-0.341
-187.144	-38.986	-0.139	-0.072
-186.129	-200.000	-0.249	0.000
-185.114	21.851	0.196	-0.157
-184.100	-162.588	-0.094	-0.005
-183.085	800.000	0.103	-0.427
-182.071	236.324	0.173	0.281
-181.056	-200.000	0.019	-0.168
-180.042	-177.163	-0.246	-0.006
-179.027	800.000	-0.058	-0.180
-178.012	-12.250	-0.191	0.123
-176.998	-71.512	-0.094	0.034
-175.983	110.796	-0.276	0.327
-174.969	71.067	0.173	-0.176
-173.954	-200.000	-0.036	0.295
-172.939	-200.000	-0.060	-0.298
-171.925	547.048	0.052	-0.123
-170.910	-81.675	0.322	0.104
-169.896	-100.647	0.279	0.068
-168.881	-124.381	-0.269	-0.041
-167.866	-46.025	-0.153	-0.074
-166.852	-200.000	0.033	0.217
-165.837	-23.251	0.250	0.148
-164.823	-113.447	0.143	-0.028
-163.808	800.000	-0.063	-0.208
-162.793	58.910	-0.353	0.341
-161.779	-23.446	0.458	0.270
-160.764	33.791	0.269	0.230
-159.750	748.529	-0.117	-0.310
-158.735	-80.028	0.334	0.110
-157.720	-200.000	-0.014	0.160
-156.706	-123.228	-0.255	-0.040
-155.691	-89.816	0.627	-0.180
-154.677	-200.000	-0.003	-0.213
-153.662	46.709	-0.327	-0.298
-152.647	-130.137	0.267	0.036
-151.633	-89.708	-0.027	-0.008
-150.618	-26.054	-0.193	0.112
-149.604	-6.023	0.096	-0.064
-148.589	-117.350	0.142	-0.025
-147.574	-200.000	-0.024	-0.167
-146.560	218.310	-0.210	0.330
-145.545	174.627	0.141	-0.200
-144.531	303.046	0.154	0.279
-143.516	-200.000	-0.005	-0.211
-142.502	95.334	0.110	-0.123
-141.487	3.839	0.190	0.136
-140.472	-200.000	0.005	0.199
-139.458	-7.493	0.109	0.072
-138.443	-67.196	-0.220	0.085
-137.429	800.000	0.095	0.263
-136.414	130.030	0.132	0.166
-135.399	-111.255	-0.368	-0.074
-134.385	-22.976	-0.070	-0.041
-133.370	-61.491	-0.171	-0.071
-132.356	-142.840	-0.241	0.023
-131.341	-200.000	-0.038	-0.180
-130.326	338.775	0.069	0.131
-129.312	-70.723	0.367	0.136
-128.297	-39.191	-0.339	0.175
-127.283	-100.911	-0.087	-0.021
-126.268	800.000	-0.023	-0.072
-125.253	8.744	-0.344	0.255
-124.239	307.540	0.156	0.286
-123.224	144.990	0.113	0.148
-122.210	-200.000	-0.014	0.095
-121.195	430.166	-0.070	-0.149
