DTS Sentinel unit serial number:	SN413079Multiplexer serial number:	ORYXHardware model number:	OX4-SRSoftware version number:	ORYX F/W v4.00 Oryx Data Collector v3.7.2.0data status	okinstallation	princeton_trtdifferential loss correction	single-endedforward channel	channel 1reverse channel	N/Adate	2019/09/15time	04:34:35forward acquisition time	60.00reverse acquisition time	0.00gamma	496.2192k internal	0.2324k external	0.2324temperature offset calibration	0.9995default loss term (dB/km)	0.3790temperature slope calibration	1.0000multiplexer offset coefficient	1.0000multiplexer slope coefficient	1.0000fibre end	0.00T internal ref (°C)	30.84T ext. ref 1 (°C)	4.68T ext. ref 2 (°C)	25.45length (m)	temperature (°C)	Stokes	anti-Stokes-747.200	337.321	0.067	0.131
-746.185	33.999	0.073	-0.064
-745.171	-200.000	-0.027	-0.181
-744.156	-200.000	-0.007	0.251
-743.142	-74.939	-0.142	0.051
-742.127	153.675	-0.434	0.600
-741.112	421.675	0.063	-0.137
-740.098	-200.000	0.035	0.220
-739.083	140.410	-0.196	0.261
-738.069	-200.000	-0.030	-0.155
-737.054	-200.000	0.023	-0.261
-736.039	11.088	-0.087	0.067
-735.025	-80.052	0.301	0.102
-734.010	9.316	0.304	-0.232
-732.996	120.016	-0.095	-0.119
-731.981	198.078	-0.160	0.247
-730.966	800.000	-0.058	0.231
-729.952	800.000	-0.080	-0.283
-728.937	154.491	0.096	-0.133
-727.923	-192.491	0.261	0.002
-726.908	-200.000	0.006	0.242
-725.894	168.261	0.132	-0.189
-724.879	142.542	0.203	-0.272
-723.864	40.429	-0.083	0.075
-722.850	-143.832	-0.208	0.020
-721.835	113.863	-0.139	0.171
-720.821	265.413	0.086	0.151
-719.806	800.000	0.033	-0.115
-718.791	-103.708	0.183	0.043
-717.777	-195.118	-0.203	-0.002
-716.762	-200.000	-0.051	0.239
-715.748	-39.034	-0.183	-0.097
-714.733	114.579	0.098	-0.120
-713.718	176.458	0.210	-0.307
-712.704	-68.812	-0.225	-0.088
-711.689	-100.925	-0.076	-0.019
-710.675	-129.459	0.195	0.027
-709.660	-99.600	0.479	0.121
-708.645	-174.905	0.312	0.009
-707.631	72.171	-0.236	0.248
-706.616	-80.497	0.170	-0.057
-705.602	279.769	0.020	0.035
-704.587	-200.000	0.060	0.290
-703.572	476.041	0.021	0.049
-702.558	-59.982	0.257	0.111
-701.543	348.896	-0.062	-0.124
-700.529	-87.093	-0.020	0.006
-699.514	-200.000	-0.020	-0.096
-698.499	146.728	-0.015	-0.021
-697.485	-68.419	0.070	0.028
-696.470	-158.452	0.357	0.021
-695.456	800.000	-0.126	-0.402
-694.441	-200.000	0.033	-0.154
-693.426	800.000	0.088	0.273
-692.412	-200.000	0.007	-0.051
-691.397	-70.866	0.178	-0.068
-690.383	-75.820	-0.080	0.029
-689.368	-28.570	-0.350	-0.203
-688.354	-200.000	-0.042	-0.293
-687.339	-161.124	-0.061	0.003
-686.324	-6.480	0.172	-0.118
-685.310	-70.142	0.057	-0.022
-684.295	83.955	-0.094	0.103
-683.281	-117.796	0.195	-0.035
-682.266	95.608	0.096	-0.110
-681.251	-200.000	-0.078	-0.407
-680.237	81.866	0.291	-0.317
-679.222	-200.000	-0.047	0.500
-678.208	-200.000	0.011	-0.373
-677.193	71.904	-0.101	0.105
-676.178	-200.000	0.060	-0.330
-675.164	-146.806	-0.280	-0.024
-674.149	36.541	0.179	0.159
-673.135	-90.706	-0.376	0.109
-672.120	-13.975	0.082	0.053
-671.105	-130.281	-0.192	0.026
-670.091	762.279	-0.074	-0.203
-669.076	40.275	0.198	-0.179
-668.062	-200.000	0.013	-0.133
-667.047	132.053	-0.168	-0.218
-666.032	-85.795	-0.133	0.042
-665.018	298.410	-0.092	0.171
-664.003	-200.000	-0.031	-0.486
-662.989	449.734	-0.145	-0.322
-661.974	1.379	0.224	0.162
-660.959	-200.000	0.025	-0.507
-659.945	-87.729	0.071	0.021
-658.930	283.153	-0.110	-0.198
-657.916	44.269	0.051	0.047
-656.901	381.652	-0.133	-0.276
-655.886	-4.897	0.123	0.085
-654.872	1.918	-0.144	-0.104
-653.857	133.482	-0.153	-0.199
-652.843	-106.671	-0.397	-0.089
-651.828	-55.103	0.120	-0.054
-650.814	-19.542	0.125	-0.078
-649.799	800.000	-0.047	-0.149
-648.784	-10.630	-0.071	0.047
-647.770	-128.419	-0.157	-0.022
-646.755	-200.000	-0.020	0.151
-645.741	-200.000	-0.014	0.078
-644.726	-141.811	-0.338	-0.034
-643.711	12.371	0.240	-0.186
-642.697	-106.658	-0.338	0.076
-641.682	-119.375	0.418	0.073
-640.668	800.000	0.037	-0.154
-639.653	800.000	-0.015	-0.042
-638.638	4.047	0.127	0.093
-637.624	22.811	-0.175	0.144
-636.609	461.847	-0.049	0.110
-635.595	-34.257	0.151	0.083
-634.580	-200.000	-0.103	0.000
-633.565	-32.285	-0.289	-0.162
-632.551	-24.317	-0.342	0.205
-631.536	136.992	0.217	0.284
-630.522	-16.343	-0.158	0.101
-629.507	800.000	-0.063	-0.196
-628.492	-103.214	-0.017	-0.004
-627.478	-40.523	-0.104	0.054
-626.463	328.201	0.053	0.102
-625.449	244.528	0.058	-0.098
-624.434	575.710	-0.114	-0.280
-623.419	-200.000	-0.067	-0.355
-622.405	800.000	0.027	0.106
-621.390	-200.000	0.080	-0.448
-620.376	67.357	-0.083	0.085
-619.361	-96.579	0.113	-0.030
-618.346	184.958	-0.153	0.228
-617.332	34.932	-0.060	0.053
-616.317	104.442	0.213	-0.252
-615.303	378.901	0.045	0.093
-614.288	-47.764	0.116	-0.056
-613.273	-200.000	0.003	-0.232
-612.259	173.599	0.243	0.351
-611.244	67.375	0.031	-0.031
-610.230	159.654	-0.114	0.160
-609.215	-6.475	0.161	0.110
-608.201	-200.000	0.006	-0.306
-607.186	449.091	0.072	-0.160
-606.171	475.881	-0.086	0.194
-605.157	36.119	-0.074	-0.065
-604.142	23.865	-0.283	-0.234
-603.128	181.119	-0.103	-0.151
-602.113	-124.102	0.226	0.036
-601.098	-14.341	0.156	-0.101
-600.084	31.577	0.063	-0.054
-599.069	-92.236	0.059	0.017
-598.055	-200.000	0.015	-0.151
-597.040	800.000	-0.032	0.138
-596.025	-29.796	0.356	0.204
-595.011	105.921	-0.188	0.223
-593.996	-147.511	0.155	0.013
-592.982	-73.296	-0.118	0.043
-591.967	800.000	-0.042	0.180
-590.952	123.234	-0.115	-0.145
-589.938	-82.058	-0.210	-0.069
-588.923	-40.178	0.201	-0.105
-587.909	19.119	-0.066	-0.053
-586.894	-200.000	-0.012	0.165
-585.879	-119.168	0.146	-0.026
-584.865	-152.422	-0.374	0.027
-583.850	-116.997	0.276	-0.051
-582.836	57.101	0.220	0.215
-581.821	356.388	-0.148	-0.296
-580.806	739.680	-0.051	-0.137
-579.792	-16.793	-0.191	-0.121
-578.777	800.000	0.033	-0.142
-577.763	161.216	-0.189	-0.265
-576.748	-186.598	-0.498	-0.007
-575.733	293.551	-0.143	-0.261
-574.719	-60.004	0.079	-0.034
-573.704	-200.000	-0.023	-0.170
-572.690	359.876	-0.202	0.406
-571.675	-59.904	0.112	-0.048
-570.661	17.617	0.108	0.086
-569.646	159.795	-0.114	-0.159
-568.631	6.929	-0.386	-0.288
-567.617	-140.636	0.358	-0.037
-566.602	-37.069	-0.222	-0.119
-565.588	645.984	-0.106	-0.273
-564.573	-11.855	0.153	0.101
-563.558	-126.005	-0.283	0.043
-562.544	81.504	0.129	0.140
-561.529	-53.602	0.107	-0.049
-560.515	-161.752	0.171	-0.009
-559.500	-200.000	0.162	0.000
-558.485	83.212	-0.071	-0.077
-557.471	800.000	0.035	0.133
-556.456	564.479	-0.166	0.402
-555.442	-107.816	-0.144	-0.031
-554.427	-168.671	0.194	-0.007
-553.412	-72.091	-0.359	0.134
-552.398	167.189	0.134	-0.190
-551.383	-105.549	0.286	-0.065
-550.369	283.881	0.106	-0.192
-549.354	2.985	0.021	-0.015
-548.339	143.262	-0.143	-0.191
-547.325	202.404	-0.042	-0.065
-546.310	-41.753	0.231	-0.119
-545.296	-10.011	-0.051	-0.034
-544.281	18.235	0.225	0.180
-543.266	135.015	-0.086	-0.112
-542.252	712.989	0.054	-0.142
-541.237	800.000	0.072	-0.293
-540.223	-79.817	0.212	-0.071
-539.208	37.729	0.122	-0.109
-538.193	-200.000	0.034	-0.282
-537.179	-118.461	-0.331	-0.059
-536.164	68.751	-0.037	0.038
-535.150	-68.486	0.433	0.168
-534.135	117.339	-0.218	-0.269
-533.121	181.939	0.264	-0.390
-532.106	-36.261	-0.112	0.060
-531.091	576.185	0.183	-0.447
-530.077	14.465	0.017	0.013
-529.062	-25.522	-0.041	0.024
-528.048	482.116	0.085	0.193
-527.033	338.562	-0.109	-0.213
-526.018	-200.000	0.047	-0.337
-525.004	130.958	-0.246	0.316
-523.989	163.620	0.166	0.234
-522.975	-8.324	0.081	0.054
-521.960	-128.533	-0.384	-0.054
-520.945	-200.000	-0.081	0.537
-519.931	-0.280	0.263	-0.187
-518.916	-139.997	0.529	-0.056
-517.902	-87.566	-0.047	0.014
-516.887	800.000	-0.056	-0.184
-515.872	44.865	0.283	-0.261
-514.858	-200.000	-0.012	0.135
-513.843	-200.000	-0.001	-0.032
-512.829	-129.174	0.489	-0.068
-511.814	120.440	0.188	0.234
-510.799	390.677	0.224	0.465
-509.785	-200.000	0.024	-0.195
-508.770	184.676	0.116	-0.173
-507.756	13.914	-0.158	-0.123
-506.741	-72.304	-0.160	0.059
-505.726	-119.024	0.231	0.040
-504.712	112.416	-0.061	0.074
-503.697	122.663	-0.102	0.127
-502.683	-65.545	-0.203	0.082
-501.668	15.407	0.223	-0.175
-500.653	-111.756	0.229	-0.046
-499.639	189.970	-0.052	0.078
-498.624	242.536	-0.254	0.425
-497.610	-200.000	-0.069	0.309
-496.595	317.336	-0.158	0.299
-495.581	22.343	-0.170	0.139
-494.566	-70.316	-0.385	-0.146
-493.551	187.910	-0.073	-0.109
-492.537	134.543	-0.143	0.186
-491.522	41.296	0.173	0.157
-490.508	-178.836	0.167	0.004
-489.493	-43.066	0.188	0.095
-488.478	-200.000	-0.015	-0.122
-487.464	-200.000	-0.001	-0.310
-486.449	81.468	-0.134	-0.145
-485.435	54.321	-0.126	0.121
-484.420	-200.000	-0.001	0.028
-483.405	-38.695	0.095	0.050
-482.391	23.556	0.083	-0.068
-481.376	29.776	0.045	0.038
-480.362	-8.568	-0.221	0.149
-479.347	-93.213	-0.333	-0.093
-478.332	-200.000	-0.006	-0.117
-477.318	-8.466	0.091	0.061
-476.303	142.772	-0.102	-0.136
-475.289	-99.744	0.384	0.096
-474.274	-200.000	0.002	0.261
-473.259	-200.000	-0.002	-0.137
-472.245	800.000	-0.080	0.312
-471.230	800.000	-0.023	0.080
-470.216	-188.803	0.249	-0.003
-469.201	67.323	0.156	0.159
-468.186	-26.804	-0.065	-0.038
-467.172	-200.000	-0.005	0.288
-466.157	9.462	0.120	0.091
-465.143	113.918	0.227	0.275
-464.128	-38.946	0.305	0.160
-463.113	105.834	-0.205	-0.242
-462.099	-35.566	-0.256	-0.139
-461.084	735.693	-0.047	-0.125
-460.070	396.345	0.087	0.182
-459.055	-106.811	0.304	-0.067
-458.040	38.192	0.164	0.146
-457.026	-187.637	-0.188	-0.002
-456.011	-58.424	0.185	-0.080
-454.997	-150.215	0.418	0.032
-453.982	22.030	-0.224	-0.182
-452.968	81.064	-0.077	-0.083
-451.953	42.536	0.129	0.117
-450.938	-149.607	-0.393	0.031
-449.924	69.157	-0.062	0.064
-448.909	-11.665	-0.056	-0.037
-447.895	574.627	0.061	-0.148
-446.880	-74.332	0.103	0.037
-445.865	46.320	0.063	-0.058
-444.851	59.631	-0.335	-0.329
-443.836	382.924	-0.161	-0.331
-442.822	-200.000	0.055	-0.414
-441.807	-28.752	-0.189	-0.109
-440.792	17.154	0.096	0.076
-439.778	800.000	-0.060	-0.207
-438.763	-48.613	-0.072	0.034
-437.749	-126.359	0.236	0.035
-436.734	371.640	0.062	0.125
-435.719	33.002	-0.123	0.106
-434.705	800.000	0.014	-0.047
-433.690	-11.706	0.170	-0.111
-432.676	-142.399	0.273	-0.027
-431.661	325.149	-0.049	-0.093
-430.646	-2.540	-0.111	0.078
-429.632	185.639	-0.047	0.069
-428.617	23.913	-0.227	0.187
-427.603	458.676	0.043	0.095
-426.588	-200.000	-0.003	-0.115
-425.573	214.610	0.129	0.204
-424.559	-54.900	-0.189	-0.085
-423.544	63.236	0.167	-0.167
-422.530	23.779	-0.035	-0.028
-421.515	-77.472	0.317	0.110
-420.500	-41.796	-0.067	0.034
-419.486	61.093	0.084	0.083
-418.471	-93.088	-0.359	-0.100
-417.457	-65.292	0.157	-0.063
-416.442	-200.000	-0.037	-0.171
-415.428	65.905	-0.084	0.085
-414.413	-45.517	-0.161	0.080
-413.398	-200.000	0.028	-0.261
-412.384	36.454	-0.176	0.155
-411.369	-113.073	-0.224	0.044
-410.355	156.965	0.083	-0.115
-409.340	167.160	-0.158	-0.224
-408.325	68.569	0.236	0.242
-407.311	-165.232	-0.174	0.008
-406.296	-200.000	-0.023	-0.252
-405.282	-159.078	-0.207	-0.012
-404.267	-200.000	-0.011	0.073
-403.252	78.430	-0.074	0.079
-402.238	-200.000	0.006	0.324
-401.223	-200.000	0.005	-0.237
-400.209	598.463	-0.090	-0.222
-399.194	147.584	-0.132	0.177
-398.179	-96.825	0.109	-0.029
-397.165	-107.512	0.300	0.065
-396.150	713.705	0.085	-0.225
-395.136	-77.776	-0.305	-0.105
-394.121	141.238	0.082	0.108
-393.106	-200.000	-0.006	0.050
-392.092	-26.973	0.208	0.121
-391.077	800.000	-0.060	0.184
-390.063	-139.579	-0.099	-0.011
-389.048	800.000	-0.043	0.135
-388.033	-64.654	0.107	0.043
-387.019	-55.742	0.470	0.209
-386.004	-200.000	-0.016	-0.133
-384.990	-31.456	-0.360	-0.201
-383.975	130.999	0.141	-0.181
-382.960	800.000	-0.012	-0.051
-381.946	-50.213	-0.145	0.068
-380.931	-200.000	-0.009	-0.071
-379.917	-65.166	0.105	-0.042
-378.902	152.492	-0.212	-0.288
-377.888	-37.851	-0.153	0.081
-376.873	-52.148	0.172	-0.079
-375.858	-177.952	0.148	-0.004
-374.844	-200.000	0.034	-0.499
-373.829	-96.009	0.530	0.140
-372.815	305.836	0.055	-0.102
-371.800	-200.000	-0.020	-0.123
-370.785	17.568	-0.155	0.123
-369.771	-94.219	0.151	0.041
-368.756	-111.083	-0.254	0.052
-367.742	-200.000	-0.029	-0.239
-366.727	-73.107	-0.102	-0.037
-365.712	-200.000	-0.089	0.562
-364.698	-68.349	-0.161	-0.062
-363.683	29.356	0.215	-0.181
-362.669	9.149	0.136	0.102
-361.654	-52.446	0.080	0.037
-360.639	-105.073	-0.264	-0.060
-359.625	800.000	0.016	-0.060
-358.610	-200.000	-0.008	-0.049
-357.596	-153.907	-0.321	-0.022
-356.581	100.816	0.101	0.117
-355.566	-49.071	-0.242	0.115
-354.552	-101.572	-0.140	-0.034
-353.537	91.566	0.217	-0.242
-352.523	-151.963	-0.294	-0.021
-351.508	206.296	-0.232	0.358
-350.493	198.717	-0.066	0.101
-349.479	34.417	0.221	0.192
-348.464	303.290	0.153	0.282
-347.450	-160.339	-0.188	-0.010
-346.435	-200.000	0.030	-0.133
-345.420	224.797	-0.280	0.450
-344.406	-47.242	0.185	-0.090
-343.391	800.000	0.083	-0.264
-342.377	-21.195	0.239	0.145
-341.362	396.679	0.142	0.294
-340.348	800.000	0.076	0.238
-339.333	-124.963	0.156	-0.024
-338.318	-87.002	-0.250	-0.076
-337.304	-200.000	-0.021	-0.232
-336.289	-135.928	-0.126	0.015
-335.275	-129.700	-0.145	-0.020
-334.260	-200.000	-0.188	-0.000
-333.245	800.000	0.045	0.175
-332.231	-127.172	0.114	0.017
-331.216	576.736	-0.090	0.217
-330.202	800.000	-0.046	0.179
-329.187	198.267	-0.237	0.360
-328.172	-110.725	0.181	-0.037
-327.158	-200.000	-0.027	0.150
-326.143	-200.000	0.001	-0.067
-325.129	596.480	0.156	-0.383
-324.114	183.468	-0.055	-0.081
-323.099	-145.868	-0.204	0.018
-322.085	-200.000	-0.001	-0.158
-321.070	800.000	0.130	0.386
-320.056	-105.074	-0.176	0.040
-319.041	286.659	-0.068	-0.121
-318.026	-27.540	0.126	0.073
-317.012	9.180	-0.115	-0.086
-315.997	87.535	0.274	0.301
-314.983	84.792	-0.241	0.262
-313.968	800.000	0.037	-0.133
-312.953	-18.661	-0.174	-0.108
-311.939	800.000	-0.105	-0.352
-310.924	-200.000	0.023	-0.262
-309.910	134.560	-0.168	-0.216
-308.895	-200.000	0.038	0.184
-307.880	-50.079	0.255	0.120
-306.866	800.000	-0.033	0.101
-305.851	-67.945	-0.277	-0.107
-304.837	-175.347	-0.040	0.001
-303.822	-200.000	-0.008	0.270
-302.807	800.000	0.055	-0.231
-301.793	-112.759	0.188	0.037
-300.778	800.000	-0.052	-0.191
-299.764	-94.964	-0.397	-0.106
-298.749	312.538	-0.065	0.120
-297.735	-150.512	0.204	0.016
-296.720	-200.000	0.051	-0.272
-295.705	148.792	0.106	0.143
-294.691	300.514	0.067	-0.122
-293.676	-37.994	-0.059	-0.031
-292.662	27.533	-0.227	-0.189
-291.647	305.513	-0.130	0.239
-290.632	-132.537	0.180	-0.023
-289.618	145.503	-0.036	0.047
-288.603	181.392	-0.210	0.306
-287.589	-83.735	-0.050	0.016
-286.574	43.488	-0.228	-0.207
-285.559	107.794	-0.026	0.031
-284.545	177.434	0.069	0.100
-283.530	-59.616	-0.107	-0.046
-282.516	800.000	0.065	0.203
-281.501	-119.437	-0.112	0.019
-280.486	-62.812	0.083	-0.034
-279.472	39.604	0.132	-0.117
-278.457	-43.730	-0.131	-0.066
-277.443	620.413	0.009	0.022
-276.428	-200.000	-0.030	-0.140
-275.413	-182.650	0.177	-0.003
-274.399	586.914	-0.099	-0.242
-273.384	141.207	0.279	-0.366
-272.370	350.054	0.130	-0.255
-271.355	45.362	-0.163	0.149
-270.340	-86.229	0.272	0.083
-269.326	-143.339	-0.042	0.004
-268.311	-160.045	-0.152	0.008
-267.297	298.423	0.071	0.130
-266.282	-40.018	0.160	-0.082
-265.267	41.680	0.081	0.073
-264.253	-42.250	0.083	-0.042
-263.238	-39.830	0.299	-0.155
-262.224	-85.359	-0.160	0.049
-261.209	89.837	0.137	0.152
-260.195	-141.957	-0.308	-0.030
-259.180	-67.584	0.224	-0.087
-258.165	368.237	-0.108	0.216
-257.151	800.000	0.020	-0.081
-256.136	1.425	-0.240	-0.171
-255.122	13.635	0.205	0.157
-254.107	-26.674	0.251	-0.146
-253.092	147.223	0.098	-0.130
-252.078	58.620	-0.119	0.115
-251.063	-200.000	0.006	-0.090
-250.049	-105.771	-0.133	-0.030
-249.034	-5.348	-0.221	-0.150
-248.019	-200.000	-0.052	-0.241
-247.005	-200.000	-0.021	0.281
-245.990	133.457	-0.291	0.373
-244.976	123.382	-0.046	-0.057
-243.961	-119.313	0.046	-0.008
-242.946	-53.181	-0.337	0.153
-241.932	510.947	-0.061	0.140
-240.917	443.186	0.059	-0.129
-239.903	7.948	-0.282	-0.209
-238.888	8.334	0.021	-0.016
-237.873	55.864	-0.203	0.195
-236.859	-200.000	-0.002	0.425
-235.844	286.631	0.084	0.149
-234.830	-200.000	0.014	0.148
-233.815	-31.898	-0.032	0.018
-232.800	-76.395	0.115	0.040
-231.786	-132.943	0.123	0.015
-230.771	-200.000	0.010	0.071
-229.757	-92.141	0.145	-0.041
-228.742	-84.762	-0.162	-0.050
-227.727	800.000	-0.060	0.213
-226.713	800.000	0.090	0.264
-225.698	-153.322	0.249	0.017
-224.684	-23.822	-0.288	-0.171
-223.669	386.827	0.170	-0.347
-222.655	-120.483	-0.378	-0.064
-221.640	478.523	-0.102	-0.229
-220.625	272.194	-0.163	-0.285
-219.611	61.415	0.216	0.212
-218.596	-1.922	0.293	0.203
-217.582	-128.195	-0.155	-0.022
-216.567	41.832	-0.263	-0.236
-215.552	-200.000	-0.003	0.246
-214.538	800.000	-0.029	-0.086
-213.523	800.000	0.038	-0.124
-212.509	491.323	-0.090	0.203
-211.494	275.437	0.082	0.143
-210.479	-200.000	0.002	-0.016
-209.465	264.310	-0.092	0.158
-208.450	91.619	0.277	0.307
-207.436	-108.712	-0.328	0.070
-206.421	36.029	0.065	-0.057
-205.406	236.457	-0.053	-0.086
-204.392	-200.000	-0.004	-0.034
-203.377	155.520	0.293	0.398
-202.363	-125.962	0.059	0.009
-201.348	-28.718	0.164	-0.093
-200.333	25.593	-0.242	-0.199
-199.319	-70.637	0.040	-0.015
-198.304	-29.831	-0.117	0.066
-197.290	-68.541	0.336	0.129
-196.275	-138.859	0.142	0.015
-195.260	-200.000	0.038	-0.167
-194.246	52.717	0.154	0.145
-193.231	24.659	-0.205	0.168
-192.217	-200.000	-0.032	-0.153
-191.202	-42.018	0.139	-0.071
-190.187	-66.807	0.238	0.093
-189.173	-200.000	0.000	-0.189
-188.158	-200.000	-0.006	-0.091
-187.144	-163.294	-0.161	0.008
-186.129	800.000	-0.047	-0.176
-185.114	551.259	0.047	-0.111
-184.100	303.753	-0.179	-0.328
-183.085	-61.106	-0.246	0.103
-182.071	359.758	0.196	0.386
-181.056	-86.219	0.146	-0.044
-180.042	-82.200	0.183	0.059
-179.027	481.799	-0.118	-0.265
-178.012	-200.000	0.045	-0.213
-176.998	-200.000	0.036	0.254
-175.983	-55.602	0.265	-0.117
-174.969	800.000	-0.078	0.298
-173.954	-138.950	0.335	-0.036
-172.939	-144.542	0.374	-0.034
-171.925	-36.632	0.263	0.140
-170.910	-17.081	0.048	0.030
-169.896	800.000	0.070	-0.220
-168.881	29.564	0.193	-0.162
-167.866	12.843	0.194	-0.148
-166.852	800.000	0.089	-0.251
-165.837	413.268	-0.079	-0.165
-164.823	54.031	0.146	0.139
-163.808	-34.758	0.249	0.134
-162.793	-200.000	0.022	0.388
-161.779	-200.000	0.006	-0.208
-160.764	800.000	0.090	0.252
-159.750	-200.000	0.070	0.515
-158.735	-200.000	0.033	-0.152
-157.720	135.975	-0.141	0.181
-156.706	-200.000	0.023	0.104
-155.691	-200.000	0.008	-0.132
-154.677	119.677	-0.120	0.146
-153.662	205.278	-0.105	0.161
-152.647	800.000	-0.060	0.205
-151.633	-200.000	0.052	0.585
-150.618	-70.666	-0.261	-0.097
-149.604	16.799	-0.150	0.117
-148.589	422.209	0.042	0.089
-147.574	441.779	0.088	0.190
-146.560	-0.490	0.083	-0.058
-145.545	-95.489	0.202	-0.054
-144.531	-38.255	-0.120	0.062
-143.516	150.384	0.135	-0.181
-142.502	165.953	0.299	0.417
-141.487	18.147	0.027	-0.021
-140.472	-200.000	-0.002	0.323
-139.458	-200.000	-0.022	-0.145
-138.443	-25.053	0.308	0.180
-137.429	-38.226	-0.220	0.115
-136.414	-78.621	0.157	-0.053
-135.399	186.273	0.121	-0.177
-134.385	-23.119	-0.105	-0.062
-133.370	800.000	-0.057	0.162
-132.356	22.419	0.191	0.154
-131.341	167.021	-0.123	0.172
-130.326	-200.000	0.002	0.266
-129.312	-12.251	-0.225	0.145
-128.297	20.042	0.197	0.157
-127.283	-200.000	-0.032	0.242
-126.268	-133.775	-0.377	-0.046
-125.253	5.980	-0.184	0.134
-124.239	-28.623	0.243	0.138
-123.224	-89.322	0.173	-0.050
-122.210	-179.501	0.425	-0.009
-121.195	-115.274	-0.438	-0.081
