DTS Sentinel unit serial number:	SN413079Multiplexer serial number:	ORYXHardware model number:	OX4-SRSoftware version number:	ORYX F/W v4.00 Oryx Data Collector v3.7.2.0data status	okinstallation	princeton_trtdifferential loss correction	single-endedforward channel	channel 1reverse channel	N/Adate	2019/09/14time	01:58:35forward acquisition time	60.00reverse acquisition time	0.00gamma	496.2192k internal	0.2336k external	0.2336temperature offset calibration	1.0077default loss term (dB/km)	0.3790temperature slope calibration	1.0000multiplexer offset coefficient	1.0000multiplexer slope coefficient	1.0000fibre end	0.00T internal ref (°C)	26.50T ext. ref 1 (°C)	3.20T ext. ref 2 (°C)	21.51length (m)	temperature (°C)	Stokes	anti-Stokes-747.200	-200.000	-0.020	-0.132
-746.185	-20.947	0.151	0.093
-745.171	37.396	-0.129	0.115
-744.156	-30.938	-0.323	0.183
-743.142	10.540	0.178	0.136
-742.127	53.113	-0.262	-0.252
-741.112	192.640	-0.113	0.172
-740.098	-28.512	0.167	0.097
-739.083	33.945	0.382	0.334
-738.069	479.175	0.092	0.209
-737.054	452.330	0.192	0.426
-736.039	-131.256	-0.184	0.025
-735.025	-48.237	-0.159	-0.077
-734.010	252.569	-0.064	0.109
-732.996	-200.000	-0.018	-0.139
-731.981	-200.000	0.005	-0.065
-730.966	800.000	-0.062	0.214
-729.952	-163.709	-0.143	-0.007
-728.937	800.000	-0.044	-0.181
-727.923	-200.000	-0.026	0.242
-726.908	40.858	-0.232	-0.210
-725.894	-1.508	-0.170	-0.120
-724.879	-29.415	-0.163	-0.093
-723.864	-200.000	-0.009	-0.475
-722.850	-200.000	-0.022	0.202
-721.835	167.676	-0.163	0.233
-720.821	-19.055	0.387	-0.242
-719.806	-126.378	-0.208	-0.031
-718.791	-48.524	-0.127	-0.061
-717.777	450.607	-0.107	-0.237
-716.762	185.844	-0.170	-0.253
-715.748	-63.029	0.243	-0.100
-714.733	148.052	0.060	0.081
-713.718	800.000	0.072	-0.301
-712.704	66.306	0.081	-0.083
-711.689	-150.959	-0.064	0.005
-710.675	595.029	-0.049	0.122
-709.660	-42.521	-0.414	0.211
-708.645	-79.217	-0.092	0.031
-707.631	719.266	-0.080	-0.213
-706.616	674.101	-0.144	-0.375
-705.602	-105.303	0.147	-0.034
-704.587	-140.598	0.189	-0.020
-703.572	-200.000	-0.082	0.365
-702.558	124.881	-0.100	0.126
-701.543	-122.742	-0.388	-0.063
-700.529	385.134	-0.159	0.329
-699.514	-169.888	-0.270	-0.010
-698.499	24.091	0.105	-0.087
-697.485	-200.000	-0.031	0.308
-696.470	-200.000	0.008	-0.102
-695.456	-200.000	-0.013	0.243
-694.441	2.640	-0.287	-0.208
-693.426	-86.607	0.194	-0.060
-692.412	-100.129	-0.045	0.011
-691.397	-79.055	0.181	0.061
-690.383	-132.151	0.250	0.032
-689.368	-145.447	-0.368	-0.033
-688.354	161.533	-0.004	-0.006
-687.339	34.603	0.254	-0.223
-686.324	-90.660	0.190	-0.055
-685.310	-50.582	0.118	-0.056
-684.295	-178.532	0.206	-0.005
-683.281	-200.000	-0.065	-0.358
-682.266	-200.000	0.017	-0.095
-681.251	72.516	-0.082	0.086
-680.237	-200.000	0.023	-0.400
-679.222	800.000	-0.051	-0.217
-678.208	-136.243	0.141	-0.016
-677.193	315.276	0.122	0.230
-676.178	367.292	0.121	0.246
-675.164	800.000	0.032	-0.131
-674.149	-12.730	-0.257	-0.168
-673.135	-6.488	-0.141	0.096
-672.120	-3.512	-0.146	0.102
-671.105	518.128	-0.018	-0.042
-670.091	55.164	-0.328	0.317
-669.076	-198.098	0.240	0.001
-668.062	41.790	0.101	-0.091
-667.047	88.457	0.187	-0.208
-666.032	-17.722	-0.137	-0.086
-665.018	776.355	-0.129	0.352
-664.003	800.000	0.154	-0.449
-662.989	-30.917	0.331	-0.187
-661.974	690.040	0.122	-0.319
-660.959	-24.402	-0.307	0.183
-659.945	332.005	0.141	0.272
-658.930	-200.000	0.034	0.243
-657.916	350.999	-0.114	0.225
-656.901	197.690	-0.171	0.262
-655.886	36.348	0.255	0.225
-654.872	-83.985	0.140	-0.044
-653.857	466.782	-0.094	0.210
-652.843	-200.000	0.026	0.115
-651.828	110.752	0.176	0.212
-650.814	382.121	-0.037	0.076
-649.799	-200.000	-0.003	0.113
-648.784	-65.691	0.113	0.045
-647.770	-122.638	-0.012	-0.002
-646.755	-200.000	0.017	0.096
-645.741	252.249	-0.085	0.146
-644.726	-77.366	0.157	-0.055
-643.711	379.568	-0.136	-0.279
-642.697	-200.000	0.007	0.168
-641.682	103.874	-0.090	0.105
-640.668	33.128	-0.068	0.059
-639.653	-200.000	0.022	-0.142
-638.638	-111.843	0.238	-0.048
-637.624	-61.207	0.116	0.049
-636.609	96.104	-0.134	-0.153
-635.595	-115.172	0.294	0.056
-634.580	-200.000	-0.026	-0.172
-633.565	-200.000	-0.045	-0.255
-632.551	-91.336	0.161	0.046
-631.536	-200.000	0.039	-0.236
-630.522	26.041	0.163	-0.136
-629.507	-144.185	0.337	-0.031
-628.492	235.674	-0.170	-0.281
-627.478	113.673	0.103	0.125
-626.463	154.852	0.139	-0.191
-625.449	-21.254	-0.196	0.120
-624.434	-200.000	-0.037	-0.391
-623.419	-16.504	-0.358	-0.227
-622.405	76.119	0.209	-0.221
-621.390	-73.536	0.071	0.026
-620.376	9.999	-0.080	-0.061
-619.361	66.522	0.133	-0.135
-618.346	1.009	-0.029	-0.021
-617.332	-1.575	-0.087	-0.061
-616.317	64.749	0.266	0.268
-615.303	182.915	-0.127	0.188
-614.288	-200.000	0.008	0.148
-613.273	47.639	-0.200	-0.187
-612.259	-165.447	0.107	-0.005
-611.244	76.410	-0.168	-0.178
-610.230	468.597	-0.043	-0.097
-609.215	800.000	0.076	-0.244
-608.201	-125.496	0.149	0.023
-607.186	-47.397	-0.316	0.154
-606.171	-0.787	0.275	-0.195
-605.157	90.008	0.063	0.070
-604.142	-65.535	-0.069	0.028
-603.128	37.998	-0.219	0.194
-602.113	-138.538	-0.122	-0.013
-601.098	382.207	0.049	-0.101
-600.084	39.913	-0.174	0.156
-599.069	437.231	-0.138	0.301
-598.055	800.000	-0.043	0.132
-597.040	-105.006	0.236	-0.054
-596.025	366.145	-0.080	0.161
-595.011	800.000	0.083	0.267
-593.996	460.983	-0.101	-0.226
-592.982	16.222	0.142	-0.112
-591.967	158.016	0.083	0.114
-590.952	55.970	-0.231	0.223
-589.938	6.835	-0.023	0.017
-588.923	515.609	0.069	-0.161
-587.909	-200.000	0.039	0.225
-586.894	56.520	-0.242	-0.235
-585.879	-200.000	0.003	-0.241
-584.865	-187.787	0.376	-0.005
-583.850	800.000	-0.063	0.222
-582.836	-98.413	-0.436	-0.111
-581.821	100.936	-0.165	0.192
-580.806	800.000	0.033	-0.111
-579.792	531.994	0.035	0.084
-578.777	-200.000	-0.008	-0.317
-577.763	800.000	-0.144	-0.529
-576.748	-157.600	-0.112	0.007
-575.733	-18.104	-0.167	0.104
-574.719	509.832	0.176	0.409
-573.704	-29.116	-0.204	-0.117
-572.690	-94.388	0.181	0.049
-571.675	-200.000	0.003	0.115
-570.661	274.705	0.202	-0.358
-569.646	59.515	0.227	-0.223
-568.631	175.172	0.018	-0.026
-567.617	800.000	-0.093	0.291
-566.602	-200.000	-0.069	-0.324
-565.588	229.133	-0.093	-0.151
-564.573	-92.161	-0.223	0.063
-563.558	-200.000	0.002	-0.056
-562.544	-112.671	-0.195	0.039
-561.529	114.909	0.140	-0.171
-560.515	-133.639	-0.157	0.020
-559.500	-2.854	-0.185	-0.129
-558.485	-40.799	0.206	0.106
-557.471	-200.000	-0.017	-0.211
-556.456	-200.000	0.035	-0.335
-555.442	646.269	-0.168	-0.428
-554.427	0.312	0.243	-0.173
-553.412	-68.457	-0.148	-0.057
-552.398	-16.371	0.125	0.079
-551.383	7.104	0.074	0.055
-550.369	0.955	0.092	0.066
-549.354	-200.000	-0.038	0.171
-548.339	206.351	-0.083	0.129
-547.325	-90.515	-0.235	-0.068
-546.310	34.933	-0.034	-0.029
-545.296	-200.000	0.009	0.085
-544.281	-66.574	0.170	0.067
-543.266	-200.000	-0.010	0.207
-542.252	333.428	-0.117	0.226
-541.237	-100.938	-0.229	-0.056
-540.223	-142.943	-0.206	-0.020
-539.208	800.000	0.092	0.291
-538.193	-200.000	0.006	0.058
-537.179	65.068	0.197	0.198
-536.164	-96.101	-0.302	0.080
-535.150	123.408	0.029	-0.037
-534.135	431.323	-0.070	-0.150
-533.121	-50.728	0.470	-0.221
-532.106	-200.000	-0.009	-0.083
-531.091	-0.552	0.164	-0.116
-530.077	175.048	0.083	0.120
-529.062	-37.447	-0.279	0.148
-528.048	101.471	0.119	-0.138
-527.033	-74.890	-0.230	-0.082
-526.018	1.406	0.242	0.173
-525.004	-120.959	-0.051	0.009
-523.989	55.476	-0.315	0.303
-522.975	800.000	0.031	0.111
-521.960	-119.312	0.169	0.029
-520.945	-98.145	0.283	-0.072
-519.931	363.731	-0.160	-0.320
-518.916	-200.000	-0.001	-0.040
-517.902	19.167	-0.293	-0.234
-516.887	-200.000	-0.023	0.267
-515.872	41.482	0.023	0.020
-514.858	-132.172	-0.253	-0.033
-513.843	5.712	0.154	-0.113
-512.829	800.000	0.057	0.157
-511.814	654.194	0.131	0.335
-510.799	67.409	-0.025	-0.026
-509.785	-9.302	-0.173	-0.115
-508.770	-27.499	-0.145	-0.084
-507.756	-141.076	-0.236	0.024
-506.741	-24.805	0.079	0.047
-505.726	93.277	-0.046	-0.052
-504.712	192.320	0.106	-0.159
-503.697	190.853	0.081	-0.120
-502.683	186.486	-0.155	0.229
-501.668	-102.959	0.132	0.031
-500.653	12.258	-0.119	-0.091
-499.639	800.000	-0.080	-0.227
-498.624	35.192	-0.232	-0.202
-497.610	-86.516	0.111	0.034
-496.595	189.976	-0.171	-0.256
-495.581	469.212	0.059	-0.131
-494.566	800.000	0.037	-0.151
-493.551	-153.612	-0.147	0.010
-492.537	262.143	0.128	-0.221
-491.522	34.036	-0.122	-0.105
-490.508	800.000	-0.052	-0.155
-489.493	800.000	0.113	0.364
-488.478	-105.163	0.036	0.008
-487.464	-19.323	-0.076	-0.047
-486.449	-78.317	-0.054	-0.018
-485.435	-144.393	0.188	-0.017
-484.420	542.379	-0.115	-0.273
-483.405	-118.012	-0.203	0.036
-482.391	-90.318	0.233	0.067
-481.376	583.251	-0.108	0.262
-480.362	-200.000	-0.031	0.221
-479.347	-200.000	-0.011	0.362
-478.332	306.938	0.246	0.455
-477.318	-200.000	0.053	0.443
-476.303	586.586	0.127	-0.311
-475.289	-200.000	-0.006	-0.224
-474.274	-34.190	0.134	0.073
-473.259	-200.000	-0.020	-0.396
-472.245	269.814	-0.120	-0.210
-471.230	-200.000	0.034	-0.389
-470.216	-33.539	-0.123	-0.068
-469.201	93.986	-0.050	0.056
-468.186	800.000	0.080	-0.309
-467.172	-16.883	0.130	0.082
-466.157	-180.232	-0.309	-0.006
-465.143	-12.883	-0.172	-0.111
-464.128	-73.858	0.374	-0.135
-463.113	-200.000	-0.045	0.322
-462.099	-139.174	0.123	0.013
-461.084	-50.793	0.080	-0.038
-460.070	15.389	0.289	-0.225
-459.055	317.860	0.138	-0.260
-458.040	32.510	-0.054	-0.046
-457.026	800.000	0.123	0.374
-456.011	-200.000	0.046	0.242
-454.997	-200.000	-0.022	0.419
-453.982	-80.956	0.146	-0.048
-452.968	800.000	0.078	-0.258
-451.953	-120.523	-0.248	-0.042
-450.938	45.601	0.239	-0.219
-449.924	-14.916	-0.319	0.203
-448.909	-200.000	0.044	-0.492
-447.895	-38.069	-0.158	0.083
-446.880	-136.808	0.386	0.044
-445.865	-35.551	-0.217	0.117
-444.851	-73.534	-0.099	0.036
-443.836	-200.000	-0.021	-0.524
-442.822	27.320	0.264	-0.220
-441.807	35.222	-0.126	-0.109
-440.792	-4.498	0.346	0.237
-439.778	-104.755	-0.112	0.026
-438.763	-200.000	-0.013	0.207
-437.749	185.803	-0.136	-0.200
-436.734	800.000	0.101	-0.351
-435.719	-103.059	0.113	-0.026
-434.705	-144.569	-0.333	0.031
-433.690	108.553	-0.130	-0.154
-432.676	118.709	0.224	-0.274
-431.661	38.695	0.231	0.204
-430.646	41.866	-0.140	0.126
-429.632	-200.000	0.005	-0.078
-428.617	-200.000	0.070	0.345
-427.603	800.000	-0.029	0.107
-426.588	217.259	-0.072	0.114
-425.573	-200.000	0.035	-0.154
-424.559	292.065	-0.041	-0.073
-423.544	-82.222	0.066	-0.021
-422.530	-125.758	0.072	-0.011
-421.515	800.000	0.083	0.269
-420.500	139.437	-0.026	-0.034
-419.486	317.442	-0.086	0.160
-418.471	-56.323	-0.217	0.096
-417.457	159.996	0.116	0.160
-416.442	89.916	0.109	-0.121
-415.428	-48.023	-0.171	0.082
-414.413	-200.000	0.001	-0.105
-413.398	185.354	0.179	-0.264
-412.384	54.300	0.239	-0.228
-411.369	-78.153	-0.327	0.111
-410.355	-60.487	0.124	0.052
-409.340	507.008	-0.077	0.178
-408.325	-93.037	0.376	0.104
-407.311	307.726	0.098	0.182
-406.296	-121.922	-0.275	0.045
-405.282	-200.000	0.041	0.358
-404.267	-85.027	-0.242	0.075
-403.252	-110.819	-0.112	0.023
-402.238	266.665	0.068	0.118
-401.223	37.738	-0.332	0.292
-400.209	800.000	-0.012	-0.047
-399.194	-116.650	-0.193	0.035
-398.179	321.941	-0.056	-0.105
-397.165	49.570	0.328	-0.306
-396.150	-183.372	0.325	0.006
-395.136	77.218	0.166	0.175
-394.121	584.220	-0.024	-0.059
-393.106	800.000	0.060	0.214
-392.092	-113.171	0.459	-0.090
-391.077	-19.846	-0.256	0.157
-390.063	-64.811	0.115	0.046
-389.048	-200.000	-0.011	-0.086
-388.033	34.950	-0.131	-0.114
-387.019	-200.000	0.061	0.306
-386.004	-69.124	0.104	-0.040
-384.990	36.459	-0.186	-0.162
-383.975	-200.000	-0.010	0.062
-382.960	-65.704	0.050	0.020
-381.946	-119.039	-0.152	0.026
-380.931	72.496	0.209	-0.215
-379.917	31.207	0.118	-0.100
-378.902	-179.424	-0.120	0.003
-377.888	-200.000	-0.037	0.308
-376.873	-147.029	0.337	-0.029
-375.858	34.864	-0.150	-0.130
-374.844	-47.020	0.262	-0.126
-373.829	-6.920	0.177	0.119
-372.815	-93.651	-0.151	0.041
-371.800	-14.998	-0.149	-0.095
-370.785	-95.433	-0.456	0.121
-369.771	-200.000	0.258	0.000
-368.756	-177.784	0.115	-0.003
-367.742	-137.033	-0.081	-0.009
-366.727	-200.000	-0.049	0.227
-365.712	-173.566	0.379	0.011
-364.698	162.107	0.204	0.283
-363.683	-99.684	-0.281	-0.070
-362.669	800.000	0.042	0.128
-361.654	-200.000	-0.006	0.303
-360.639	-70.016	0.294	-0.111
-359.625	-62.824	-0.181	0.074
-358.610	169.402	-0.104	0.147
-357.596	218.690	0.121	0.191
-356.581	-141.012	0.274	-0.028
-355.566	248.361	0.066	0.110
-354.552	-15.316	0.163	-0.103
-353.537	800.000	-0.112	-0.435
-352.523	59.480	-0.231	0.225
-351.508	800.000	-0.103	0.317
-350.493	564.091	-0.077	-0.183
-349.479	31.726	0.107	0.091
-348.464	88.400	-0.245	0.269
-347.450	86.467	0.066	-0.072
-346.435	78.661	0.095	0.100
-345.420	-57.824	-0.399	0.173
-344.406	54.379	-0.183	0.175
-343.391	800.000	-0.039	0.136
-342.377	71.638	-0.059	0.061
-341.362	281.226	0.230	0.408
-340.348	-113.079	-0.297	0.058
-339.333	-45.709	0.218	0.106
-338.318	-200.000	0.019	-0.147
-337.304	-66.952	-0.457	0.178
-336.289	-200.000	-0.022	-0.209
-335.275	-200.000	-0.028	-0.146
-334.260	-200.000	0.064	0.292
-333.245	-15.150	-0.082	-0.052
-332.231	79.104	-0.101	0.107
-331.216	152.488	0.102	-0.137
-330.202	-200.000	-0.025	0.355
-329.187	38.470	0.080	0.070
-328.172	-50.042	0.045	0.021
-327.158	-200.000	-0.007	-0.066
-326.143	73.016	-0.119	0.122
-325.129	-78.842	0.157	0.053
-324.114	177.403	-0.186	0.267
-323.099	-200.000	-0.018	0.262
-322.085	-200.000	0.060	0.271
-321.070	47.988	-0.206	-0.190
-320.056	309.604	0.125	-0.230
-319.041	358.305	-0.132	-0.261
-318.026	-135.676	-0.449	-0.053
-317.012	-66.547	-0.190	-0.074
-315.997	-52.628	-0.087	0.040
-314.983	404.936	0.050	-0.104
-313.968	-200.000	-0.011	-0.235
-312.953	800.000	0.031	-0.107
-311.939	-41.340	-0.155	-0.079
-310.924	-200.000	0.050	-0.267
-309.910	-7.629	-0.047	-0.031
-308.895	800.000	-0.056	-0.187
-307.880	-200.000	0.011	0.142
-306.866	56.562	0.085	-0.082
-305.851	11.225	-0.314	-0.237
-304.837	37.019	-0.295	-0.258
-303.822	-78.699	0.498	-0.168
-302.807	134.380	0.093	0.119
-301.793	-150.398	-0.087	0.007
-300.778	-38.367	-0.138	0.072
-299.764	-57.228	0.127	0.055
-298.749	741.273	0.070	-0.184
-297.735	10.890	0.367	-0.277
-296.720	-200.000	0.045	0.236
-295.705	-33.137	0.325	-0.178
-294.691	130.366	-0.275	-0.348
-293.676	62.543	0.049	-0.049
-292.662	-96.320	-0.057	0.015
-291.647	-200.000	0.052	0.249
-290.632	114.723	0.124	0.149
-289.618	261.839	-0.096	-0.164
-288.603	81.046	0.314	0.334
-287.589	90.184	0.132	-0.145
-286.574	-29.913	0.322	-0.181
-285.559	265.136	-0.167	0.287
-284.545	-120.463	-0.084	0.014
-283.530	-200.000	0.033	-0.155
-282.516	110.667	0.261	-0.309
-281.501	-82.680	-0.174	-0.055
-280.486	-32.524	0.074	-0.041
-279.472	-200.000	0.077	-0.337
-278.457	-160.594	0.282	0.015
-277.443	19.228	-0.244	0.193
-276.428	-58.341	-0.184	0.079
-275.413	-137.578	-0.185	-0.021
-274.399	58.083	0.169	0.163
-273.384	-200.000	0.032	0.233
-272.370	182.752	-0.258	0.375
-271.355	-160.587	0.137	0.007
-270.340	800.000	-0.056	0.219
-269.326	-12.961	0.119	0.076
-268.311	-25.417	0.304	0.177
-267.297	-193.163	-0.093	-0.001
-266.282	800.000	0.110	-0.352
-265.267	-98.825	0.268	-0.067
-264.253	358.101	-0.092	0.181
-263.238	-200.000	-0.006	0.134
-262.224	-61.601	0.137	0.056
-261.209	781.118	0.070	0.188
-260.195	181.417	0.196	0.283
-259.180	-200.000	-0.003	0.112
-258.165	221.191	0.119	0.189
-257.151	-52.365	-0.382	-0.174
-256.136	216.612	0.174	-0.273
-255.122	-200.000	-0.031	0.227
-254.107	-73.628	0.080	-0.029
-253.092	-68.188	0.276	0.106
-252.078	-31.099	0.253	0.141
-251.063	-72.463	0.250	-0.091
-250.049	-109.326	-0.213	-0.045
-249.034	-91.429	-0.199	0.056
-248.019	800.000	-0.195	0.531
-247.005	-15.614	-0.115	-0.072
-245.990	197.702	-0.075	-0.113
-244.976	800.000	-0.115	0.334
-243.961	-73.507	-0.180	-0.065
-242.946	-200.000	0.007	-0.172
-241.932	-69.022	-0.115	0.044
-240.917	609.596	-0.112	0.275
-239.903	-51.509	-0.073	0.033
-238.888	-200.000	0.023	-0.188
-237.873	-118.763	0.236	-0.041
-236.859	213.523	-0.067	0.105
-235.844	491.821	0.107	-0.241
-234.830	-200.000	0.065	-0.284
-233.815	-128.679	-0.177	0.025
-232.800	-50.192	0.146	-0.068
-231.786	-61.574	0.363	0.150
-230.771	35.717	0.110	-0.095
-229.757	491.462	-0.111	-0.249
-228.742	-122.560	-0.200	0.032
-227.727	-70.462	0.148	0.055
-226.713	617.208	-0.046	-0.115
-225.698	757.608	-0.036	0.097
-224.684	800.000	0.043	-0.122
-223.669	-200.000	-0.067	0.341
-222.655	-200.000	-0.036	0.181
-221.640	227.872	-0.132	0.212
-220.625	200.669	0.163	0.247
-219.611	-38.846	-0.139	0.072
-218.596	415.669	0.080	0.167
-217.582	32.206	-0.061	-0.051
-216.567	344.507	0.082	0.159
-215.552	-148.166	0.387	-0.031
-214.538	-200.000	-0.017	-0.219
-213.523	151.119	-0.046	0.061
-212.509	-144.444	0.178	-0.016
-211.494	800.000	0.019	-0.077
-210.479	50.208	0.395	-0.367
-209.465	-59.581	-0.283	0.119
-208.450	605.374	0.035	0.085
-207.436	148.737	0.135	0.180
-206.421	-22.449	0.086	0.051
-205.406	714.689	-0.069	-0.181
-204.392	-200.000	0.132	0.676
-203.377	800.000	-0.057	-0.184
-202.363	-159.205	-0.377	-0.021
-201.348	-79.630	-0.127	0.042
-200.333	-200.000	0.023	-0.318
-199.319	97.779	0.125	0.142
-198.304	785.002	0.090	-0.244
-197.290	800.000	0.074	0.292
-196.275	511.263	-0.054	0.124
-195.260	800.000	0.108	-0.464
-194.246	-200.000	0.023	-0.144
-193.231	-64.939	-0.228	-0.091
-192.217	-200.000	0.019	0.431
-191.202	208.340	0.268	0.412
-190.187	-44.896	0.029	0.014
-189.173	66.013	-0.179	-0.178
-188.158	800.000	0.073	-0.205
-187.144	620.472	-0.061	-0.150
-186.129	246.644	-0.172	0.285
-185.114	224.408	0.073	0.117
-184.100	-200.000	-0.008	-0.354
-183.085	136.158	-0.278	-0.356
-182.071	-100.192	0.181	0.044
-181.056	-97.237	-0.126	-0.032
-180.042	-100.130	-0.209	-0.051
-179.027	-200.000	-0.055	0.444
-178.012	-115.832	0.117	0.021
-176.998	247.762	-0.225	-0.373
-175.983	184.085	0.126	-0.183
-174.969	-200.000	-0.119	-0.000
-173.954	-160.216	0.113	-0.006
-172.939	-200.000	0.005	-0.080
-171.925	553.271	0.128	-0.302
-170.910	-200.000	-0.027	-0.217
-169.896	526.978	0.065	0.150
-168.881	-127.241	-0.145	-0.021
-167.866	-71.916	-0.290	-0.106
-166.852	-69.539	-0.178	0.067
-165.837	181.168	0.046	-0.067
-164.823	800.000	-0.040	-0.110
-163.808	69.796	-0.157	-0.159
-162.793	46.873	-0.264	0.241
-161.779	-66.942	0.200	-0.077
-160.764	-200.000	-0.019	-0.113
-159.750	639.252	-0.043	-0.108
-158.735	-24.910	-0.131	0.076
-157.720	262.828	0.124	0.211
-156.706	-74.856	-0.141	-0.050
-155.691	349.156	0.016	0.031
-154.677	-15.512	0.164	-0.103
-153.662	-200.000	-0.017	0.197
-152.647	241.639	0.090	0.147
-151.633	-140.188	0.331	-0.034
-150.618	118.625	-0.072	-0.087
-149.604	-200.000	-0.023	-0.280
-148.589	-81.102	0.036	-0.012
-147.574	91.266	-0.165	-0.182
-146.560	153.650	-0.110	-0.147
-145.545	63.652	0.163	0.161
-144.531	-61.548	0.133	0.055
-143.516	-200.000	-0.008	0.194
-142.502	41.815	-0.201	0.179
-141.487	380.683	-0.213	0.429
-140.472	222.701	-0.125	0.198
-139.458	268.995	0.119	0.205
-138.443	-141.352	0.143	0.014
-137.429	-88.224	-0.181	0.053
-136.414	78.342	0.189	0.198
-135.399	-200.000	0.059	0.460
-134.385	371.883	0.089	-0.177
-133.370	174.935	0.103	-0.146
-132.356	-200.000	0.057	0.245
-131.341	-67.832	0.102	-0.039
-130.326	43.596	0.092	0.082
-129.312	-34.993	-0.197	0.106
-128.297	44.648	0.243	0.219
-127.283	39.004	-0.128	0.113
-126.268	-66.212	-0.239	-0.093
-125.253	57.020	-0.061	-0.058
-124.239	-66.663	-0.492	-0.191
-123.224	-166.220	-0.188	0.008
-122.210	-109.198	0.443	-0.092
-121.195	88.745	-0.046	-0.050
