DTS Sentinel unit serial number:	SN413079Multiplexer serial number:	ORYXHardware model number:	OX4-SRSoftware version number:	ORYX F/W v4.00 Oryx Data Collector v3.7.2.0data status	okinstallation	princeton_trtdifferential loss correction	single-endedforward channel	channel 1reverse channel	N/Adate	2019/09/14time	08:26:35forward acquisition time	60.00reverse acquisition time	0.00gamma	496.2192k internal	0.2327k external	0.2327temperature offset calibration	1.0072default loss term (dB/km)	0.3790temperature slope calibration	1.0000multiplexer offset coefficient	1.0000multiplexer slope coefficient	1.0000fibre end	0.00T internal ref (°C)	28.23T ext. ref 1 (°C)	3.62T ext. ref 2 (°C)	25.89length (m)	temperature (°C)	Stokes	anti-Stokes-747.200	304.087	0.125	0.234
-746.185	-115.083	0.296	0.057
-745.171	-200.000	0.031	-0.415
-744.156	-200.000	0.029	0.383
-743.142	-139.217	0.364	0.040
-742.127	93.435	-0.174	0.199
-741.112	-61.118	0.059	0.025
-740.098	-64.385	-0.207	0.085
-739.083	62.026	-0.062	0.062
-738.069	-168.183	-0.106	-0.004
-737.054	-60.085	0.125	0.054
-736.039	398.560	-0.061	-0.128
-735.025	18.047	0.086	0.069
-734.010	-200.000	0.001	-0.023
-732.996	-61.612	-0.075	0.032
-731.981	-79.812	0.136	0.046
-730.966	359.827	0.105	-0.212
-729.952	-51.443	-0.167	-0.079
-728.937	405.636	0.104	0.221
-727.923	-88.397	-0.318	-0.096
-726.908	72.518	-0.124	0.130
-725.894	800.000	0.149	0.448
-724.879	-57.557	0.204	-0.090
-723.864	-105.897	-0.082	0.019
-722.850	-181.349	0.159	0.003
-721.835	125.201	-0.182	-0.231
-720.821	-147.658	0.207	0.018
-719.806	800.000	0.028	0.124
-718.791	270.450	-0.168	-0.298
-717.777	253.001	0.125	-0.215
-716.762	-200.000	0.006	0.113
-715.748	-200.000	-0.041	0.360
-714.733	-28.840	-0.286	0.166
-713.718	73.307	-0.137	-0.144
-712.704	473.243	-0.055	-0.126
-711.689	653.282	0.152	0.391
-710.675	-179.780	0.172	0.004
-709.660	-198.977	0.216	0.001
-708.645	226.328	0.033	0.054
-707.631	5.339	0.255	-0.189
-706.616	16.615	-0.088	-0.070
-705.602	-200.000	0.014	-0.068
-704.587	-82.244	0.332	0.109
-703.572	209.497	0.132	-0.207
-702.558	210.004	-0.133	-0.211
-701.543	-77.921	0.085	0.029
-700.529	4.644	-0.259	-0.192
-699.514	800.000	0.044	-0.173
-698.499	-86.627	-0.128	-0.039
-697.485	800.000	0.082	-0.284
-696.470	191.482	0.088	-0.134
-695.456	164.320	-0.054	0.077
-694.441	466.402	0.055	0.125
-693.426	66.005	0.171	0.174
-692.412	-79.766	-0.224	0.076
-691.397	800.000	-0.127	-0.554
-690.383	-76.974	-0.204	-0.072
-689.368	-127.928	-0.365	-0.053
-688.354	800.000	-0.039	-0.148
-687.339	-44.475	-0.446	-0.224
-686.324	-200.000	-0.004	-0.222
-685.310	-15.074	-0.346	-0.223
-684.295	-115.685	-0.115	0.022
-683.281	410.351	-0.095	-0.203
-682.266	800.000	-0.187	-0.557
-681.251	0.431	-0.357	0.256
-680.237	-77.570	0.140	0.049
-679.222	174.004	0.152	-0.221
-678.208	-200.000	0.001	-0.031
-677.193	-21.225	0.072	-0.044
-676.178	800.000	0.032	-0.110
-675.164	-65.604	-0.132	-0.053
-674.149	-31.174	-0.143	-0.081
-673.135	-200.000	-0.034	-0.300
-672.120	-200.000	-0.010	-0.073
-671.105	-159.754	-0.190	0.011
-670.091	800.000	-0.073	0.219
-669.076	-132.042	-0.142	-0.019
-668.062	-179.026	-0.106	0.002
-667.047	332.660	-0.180	-0.350
-666.032	-76.126	0.175	0.062
-665.018	-167.933	0.166	0.007
-664.003	140.517	-0.244	-0.324
-662.989	-5.383	0.197	0.136
-661.974	-200.000	0.099	-0.440
-660.959	165.076	0.240	-0.341
-659.945	170.993	0.219	0.316
-658.930	800.000	0.125	0.435
-657.916	463.933	0.137	-0.307
-656.901	-200.000	-0.012	-0.337
-655.886	-25.669	-0.429	-0.254
-654.872	-80.102	-0.310	0.104
-653.857	154.402	0.101	0.140
-652.843	-98.895	-0.188	-0.048
-651.828	321.185	-0.164	-0.312
-650.814	-115.217	-0.302	-0.057
-649.799	-114.992	0.026	0.005
-648.784	800.000	0.038	-0.147
-647.770	-78.713	0.402	-0.138
-646.755	59.506	-0.248	0.246
-645.741	800.000	0.072	0.213
-644.726	-125.279	0.303	0.046
-643.711	-53.839	-0.394	-0.180
-642.697	176.058	-0.198	-0.289
-641.682	58.591	0.260	-0.257
-640.668	151.410	-0.085	0.117
-639.653	169.797	-0.172	0.247
-638.638	53.462	0.117	-0.112
-637.624	139.460	-0.166	0.219
-636.609	800.000	-0.085	0.320
-635.595	-34.865	-0.186	-0.102
-634.580	-130.719	0.028	-0.004
-633.565	-200.000	-0.058	-0.337
-632.551	234.172	-0.271	-0.449
-631.536	800.000	0.048	0.205
-630.522	-200.000	-0.010	-0.114
-629.507	-137.885	0.053	-0.006
-628.492	256.814	-0.146	-0.252
-627.478	304.832	-0.048	0.089
-626.463	-200.000	-0.054	-0.273
-625.449	-129.703	0.075	-0.010
-624.434	-60.378	-0.170	-0.073
-623.419	27.311	-0.269	0.227
-622.405	310.303	0.115	-0.216
-621.390	109.037	-0.105	0.126
-620.376	-82.003	-0.229	-0.075
-619.361	-171.232	0.346	-0.012
-618.346	426.104	-0.066	0.142
-617.332	350.048	0.049	-0.097
-616.317	-26.106	0.092	-0.054
-615.303	-5.698	0.050	0.034
-614.288	508.610	0.129	0.300
-613.273	302.086	-0.137	0.254
-612.259	517.818	-0.064	-0.150
-611.244	800.000	-0.074	0.296
-610.230	330.552	0.107	0.207
-609.215	800.000	0.081	-0.265
-608.201	-83.370	0.102	-0.033
-607.186	3.527	-0.108	-0.079
-606.171	800.000	-0.043	-0.137
-605.157	800.000	-0.059	0.204
-604.142	81.500	0.121	0.131
-603.128	-200.000	0.010	-0.117
-602.113	197.252	0.276	-0.422
-601.098	800.000	0.119	-0.364
-600.084	85.990	0.132	0.146
-599.069	184.636	-0.161	0.239
-598.055	-17.770	-0.276	0.174
-597.040	89.272	-0.126	0.140
-596.025	-59.146	-0.335	-0.145
-595.011	108.772	0.150	0.180
-593.996	300.581	-0.113	0.210
-592.982	-200.000	0.036	-0.388
-591.967	-174.249	0.260	-0.008
-590.952	145.758	-0.235	0.315
-589.938	-95.577	-0.260	-0.070
-588.923	361.082	0.069	0.138
-587.909	-200.000	0.025	-0.117
-586.894	-200.000	0.034	-0.344
-585.879	113.106	-0.248	0.302
-584.865	100.735	0.069	-0.080
-583.850	122.486	-0.140	-0.175
-582.836	30.819	0.261	-0.224
-581.821	100.166	0.070	0.082
-580.806	235.136	-0.091	-0.150
-579.792	-132.488	-0.296	0.038
-578.777	-195.303	0.103	0.001
-577.763	-200.000	0.011	-0.204
-576.748	21.373	-0.182	-0.148
-575.733	-200.000	0.015	0.532
-574.719	40.199	-0.153	-0.138
-573.704	-200.000	-0.008	0.085
-572.690	-142.417	0.176	0.017
-571.675	-33.287	-0.363	0.201
-570.661	-26.029	0.052	-0.031
-569.646	60.267	0.113	0.112
-568.631	94.729	-0.170	-0.194
-567.617	56.748	0.107	-0.105
-566.602	-77.405	-0.153	-0.053
-565.588	-54.580	-0.041	0.018
-564.573	88.865	0.117	0.130
-563.558	-200.000	0.103	-0.509
-562.544	-200.000	-0.034	-0.183
-561.529	469.907	0.143	0.322
-560.515	-147.907	-0.278	0.023
-559.500	800.000	0.059	-0.197
-558.485	-200.000	-0.046	0.238
-557.471	800.000	0.034	-0.138
-556.456	-79.465	0.256	-0.087
-555.442	342.597	0.092	0.179
-554.427	177.998	-0.046	-0.067
-553.412	33.515	0.120	-0.104
-552.398	-112.996	-0.519	0.103
-551.383	-61.427	-0.265	-0.111
-550.369	-200.000	0.020	-0.347
-549.354	-71.929	0.067	0.025
-548.339	-199.243	0.413	-0.002
-547.325	800.000	-0.080	-0.225
-546.310	113.837	-0.049	-0.059
-545.296	283.270	-0.046	-0.082
-544.281	-1.297	-0.140	0.099
-543.266	-33.782	-0.107	0.059
-542.252	-200.000	0.001	0.068
-541.237	711.552	-0.099	0.263
-540.223	-110.129	-0.144	0.030
-539.208	-117.861	0.329	-0.059
-538.193	47.562	0.070	0.065
-537.179	-1.147	-0.141	0.100
-536.164	-58.213	0.317	0.138
-535.150	-200.000	0.099	-0.543
-534.135	800.000	0.022	-0.092
-533.121	156.586	0.173	-0.238
-532.106	-99.464	0.307	-0.077
-531.091	-7.281	-0.212	-0.144
-530.077	166.089	0.057	-0.080
-529.062	-200.000	0.032	0.331
-528.048	35.484	-0.187	-0.164
-527.033	35.888	0.123	-0.108
-526.018	-200.000	-0.052	-0.408
-525.004	-18.123	0.169	0.106
-523.989	102.888	-0.182	-0.213
-522.975	561.490	0.153	-0.370
-521.960	-200.000	0.014	-0.247
-520.945	800.000	0.117	0.377
-519.931	-29.875	-0.411	-0.234
-518.916	-73.203	0.045	-0.016
-517.902	-129.962	-0.312	-0.043
-516.887	13.993	-0.245	-0.190
-515.872	128.492	0.126	0.160
-514.858	-139.896	-0.090	-0.009
-513.843	-200.000	-0.001	-0.214
-512.829	-200.000	-0.011	-0.197
-511.814	31.228	-0.259	-0.222
-510.799	-200.000	0.022	-0.112
-509.785	-200.000	-0.041	-0.312
-508.770	391.245	-0.011	0.023
-507.756	745.312	-0.216	0.579
-506.741	-104.687	0.611	-0.141
-505.726	-200.000	0.005	0.368
-504.712	12.682	0.106	-0.082
-503.697	-2.820	-0.187	0.130
-502.683	236.390	0.060	-0.099
-501.668	198.499	0.144	-0.220
-500.653	-139.148	-0.135	0.015
-499.639	91.301	-0.226	-0.254
-498.624	-66.654	-0.126	-0.050
-497.610	303.773	0.055	-0.101
-496.595	-157.890	-0.721	-0.043
-495.581	151.212	0.083	-0.112
-494.566	378.628	-0.089	0.181
-493.551	-55.324	0.214	0.096
-492.537	-148.435	0.281	0.023
-491.522	-30.019	-0.084	-0.048
-490.508	-200.000	-0.021	0.326
-489.493	800.000	-0.075	0.218
-488.478	-42.881	0.342	0.173
-487.464	-25.200	0.240	0.142
-486.449	60.974	0.020	0.020
-485.435	112.252	0.117	0.142
-484.420	-10.122	-0.236	0.157
-483.405	-137.747	-0.232	-0.026
-482.391	85.258	-0.346	0.379
-481.376	-200.000	0.002	0.032
-480.362	47.072	-0.219	-0.203
-479.347	800.000	-0.056	-0.212
-478.332	-57.678	0.157	-0.069
-477.318	-60.507	0.049	0.021
-476.303	-57.949	0.096	-0.042
-475.289	-25.035	-0.041	0.024
-474.274	-56.710	0.040	0.018
-473.259	-148.949	-0.138	-0.011
-472.245	736.219	-0.175	-0.467
-471.230	-84.262	-0.079	-0.025
-470.216	32.462	0.158	-0.136
-469.201	800.000	-0.182	0.515
-468.186	213.181	0.200	0.314
-467.172	228.305	0.233	-0.378
-466.157	-129.238	-0.211	0.029
-465.143	371.372	0.068	0.137
-464.128	50.961	-0.080	0.076
-463.113	-19.368	0.222	-0.137
-462.099	322.891	-0.139	-0.264
-461.084	-17.589	-0.149	0.094
-460.070	-16.849	0.273	0.172
-459.055	-47.386	-0.192	0.093
-458.040	67.908	-0.322	-0.328
-457.026	-200.000	0.014	-0.078
-456.011	728.164	0.070	0.187
-454.997	42.208	0.082	-0.074
-453.982	13.257	-0.038	-0.030
-452.968	3.638	0.171	0.124
-451.953	716.727	0.047	-0.124
-450.938	-200.000	-0.048	0.225
-449.924	-64.293	-0.213	0.087
-448.909	-21.803	0.125	-0.076
-447.895	-125.085	0.098	-0.015
-446.880	-176.086	-0.242	-0.006
-445.865	-108.296	-0.331	-0.071
-444.851	-200.000	-0.064	-0.286
-443.836	12.932	-0.262	-0.202
-442.822	-157.718	0.072	-0.004
-441.807	-120.328	-0.130	0.022
-440.792	686.645	-0.060	0.155
-439.778	-200.000	-0.019	0.094
-438.763	147.283	0.247	-0.331
-437.749	55.390	0.124	0.120
-436.734	134.781	-0.112	0.145
-435.719	-62.520	-0.023	-0.009
-434.705	-103.042	-0.355	0.084
-433.690	-136.661	-0.139	-0.016
-432.676	-200.000	-0.021	-0.183
-431.661	-60.033	-0.127	-0.054
-430.646	279.958	-0.087	-0.155
-429.632	-83.930	-0.092	0.029
-428.617	-34.544	0.167	0.091
-427.603	285.274	0.018	0.033
-426.588	101.015	-0.079	0.091
-425.573	91.276	0.015	0.016
-424.559	253.570	-0.076	-0.129
-423.544	305.682	0.124	0.229
-422.530	310.560	0.147	-0.274
-421.515	43.110	0.119	0.108
-420.500	800.000	-0.024	0.103
-419.486	-200.000	0.044	0.320
-418.471	93.622	-0.247	0.279
-417.457	-157.765	-0.115	0.007
-416.442	-200.000	0.271	0.001
-415.428	-2.745	0.139	0.097
-414.413	53.573	0.279	-0.267
-413.398	133.491	0.258	0.332
-412.384	-200.000	-0.011	0.072
-411.369	-41.921	0.283	0.144
-410.355	133.111	-0.062	0.080
-409.340	37.451	-0.148	-0.131
-408.325	98.886	0.123	-0.141
-407.311	-161.458	-0.136	-0.007
-406.296	-200.000	-0.038	0.376
-405.282	755.101	0.083	0.224
-404.267	398.600	-0.057	-0.118
-403.252	22.638	-0.121	0.099
-402.238	323.025	0.112	-0.213
-401.223	92.630	0.152	0.171
-400.209	-200.000	-0.031	-0.159
-399.194	162.948	-0.133	-0.186
-398.179	207.286	0.080	0.123
-397.165	-166.773	-0.177	-0.007
-396.150	-137.285	0.087	0.010
-395.136	-46.302	-0.185	0.090
-394.121	395.138	0.075	-0.156
-393.106	800.000	0.070	0.192
-392.092	800.000	0.055	0.160
-391.077	157.628	0.093	-0.128
-390.063	120.444	0.062	0.076
-389.048	463.337	-0.054	0.119
-388.033	67.011	0.143	0.145
-387.019	-172.062	0.314	-0.010
-386.004	-156.964	-0.113	0.007
-384.990	188.872	0.036	-0.054
-383.975	142.967	-0.123	0.163
-382.960	-34.421	0.190	-0.103
-381.946	92.487	-0.396	-0.444
-380.931	-140.618	-0.292	-0.030
-379.917	400.831	-0.047	0.097
-378.902	201.611	0.187	-0.286
-377.888	550.711	0.124	-0.297
-376.873	800.000	-0.047	0.166
-375.858	527.170	-0.104	0.244
-374.844	172.751	0.061	-0.087
-373.829	0.966	0.145	0.103
-372.815	-24.743	0.091	-0.054
-371.800	-159.237	0.252	-0.014
-370.785	73.179	0.068	0.070
-369.771	-93.581	-0.122	0.033
-368.756	133.568	0.126	-0.162
-367.742	-200.000	-0.011	0.334
-366.727	47.223	0.372	-0.344
-365.712	-200.000	-0.024	0.290
-364.698	-130.097	-0.314	0.043
-363.683	-150.179	-0.194	-0.015
-362.669	501.304	-0.050	-0.115
-361.654	25.806	0.224	0.186
-360.639	32.581	0.117	-0.100
-359.625	-130.912	0.211	-0.028
-358.610	-144.470	-0.127	-0.012
-357.596	-200.000	0.031	0.233
-356.581	542.986	0.048	-0.113
-355.566	-200.000	0.056	-0.330
-354.552	-71.165	0.095	-0.035
-353.537	-177.546	-0.225	-0.005
-352.523	-200.000	-0.018	0.094
-351.508	85.850	-0.057	0.062
-350.493	444.300	-0.109	-0.237
-349.479	800.000	-0.042	-0.155
-348.464	-5.846	-0.153	0.104
-347.450	-53.623	0.222	0.101
-346.435	-86.288	-0.307	-0.094
-345.420	17.900	-0.193	-0.153
-344.406	228.976	0.154	0.249
-343.391	-126.128	-0.101	0.015
-342.377	26.719	0.136	0.113
-341.362	143.771	0.062	0.082
-340.348	-200.000	0.019	-0.107
-339.333	436.301	0.112	0.241
-338.318	-28.946	0.096	0.055
-337.304	-200.000	0.123	-0.642
-336.289	800.000	0.017	0.047
-335.275	-77.797	0.202	-0.069
-334.260	-200.000	0.001	-0.097
-333.245	-110.485	0.239	-0.049
-332.231	800.000	0.032	-0.138
-331.216	-133.500	0.140	0.017
-330.202	-156.399	-0.050	0.003
-329.187	-77.731	0.152	0.052
-328.172	-200.000	0.081	-0.363
-327.158	108.444	0.143	-0.169
-326.143	-115.105	0.118	0.022
-325.129	77.879	-0.164	0.173
-324.114	90.131	0.136	-0.151
-323.099	205.622	0.157	-0.242
-322.085	-117.496	0.145	0.026
-321.070	-42.227	0.188	-0.095
-320.056	-172.928	-0.193	-0.006
-319.041	106.976	0.240	0.283
-318.026	800.000	-0.042	-0.117
-317.012	595.970	0.074	0.182
-315.997	-38.501	-0.438	-0.229
-314.983	-69.635	0.416	-0.158
-313.968	-200.000	0.028	0.246
-312.953	-200.000	0.002	0.029
-311.939	800.000	0.035	-0.117
-310.924	-72.005	0.240	-0.089
-309.910	-38.603	0.463	-0.242
-308.895	-91.211	0.120	-0.034
-307.880	-144.983	0.315	0.028
-306.866	-189.856	-0.373	0.004
-305.851	-39.203	-0.307	-0.160
-304.837	800.000	-0.051	-0.174
-303.822	36.855	0.236	-0.207
-302.807	69.236	-0.184	-0.187
-301.793	-85.623	0.215	-0.066
-300.778	239.298	0.077	0.127
-299.764	100.706	-0.313	0.360
-298.749	-200.000	-0.001	0.139
-297.735	-139.772	-0.301	0.032
-296.720	45.729	-0.324	-0.297
-295.705	-1.073	-0.221	0.155
-294.691	292.989	0.155	-0.280
-293.676	171.815	0.070	0.100
-292.662	-20.242	-0.215	-0.131
-291.647	-98.021	-0.130	0.033
-290.632	-98.417	0.229	0.058
-289.618	112.498	-0.112	-0.134
-288.603	44.081	-0.171	0.155
-287.589	161.407	0.048	0.066
-286.574	20.575	0.137	-0.110
-285.559	67.043	-0.155	-0.156
-284.545	23.486	0.082	0.067
-283.530	800.000	0.151	0.434
-282.516	-56.006	0.344	0.152
-281.501	-200.000	-0.002	0.233
-280.486	-96.911	-0.307	-0.080
-279.472	-46.131	-0.211	-0.103
-278.457	-30.647	-0.107	0.060
-277.443	-200.000	-0.039	-0.200
-276.428	112.905	0.087	-0.104
-275.413	-200.000	0.013	0.499
-274.399	5.466	0.425	0.311
-273.384	-154.026	0.121	-0.008
-272.370	227.610	0.108	0.174
-271.355	-114.261	0.382	-0.073
-270.340	-46.581	-0.059	0.029
-269.326	-50.085	-0.194	0.091
-268.311	-200.000	0.000	0.162
-267.297	-39.150	0.213	-0.111
-266.282	800.000	0.113	-0.325
-265.267	-54.097	0.199	0.090
-264.253	98.520	0.134	0.153
-263.238	800.000	0.043	-0.129
-262.224	-109.570	0.492	0.103
-261.209	27.812	0.141	0.118
-260.195	800.000	0.026	0.097
-259.180	-146.666	-0.298	-0.026
-258.165	-200.000	0.039	0.209
-257.151	-84.192	-0.347	-0.109
-256.136	672.170	-0.084	-0.214
-255.122	178.111	0.152	-0.219
-254.107	-200.000	-0.011	0.263
-253.092	636.292	0.024	-0.061
-252.078	308.793	-0.110	0.203
-251.063	106.975	-0.106	0.124
-250.049	-200.000	0.045	0.201
-249.034	-200.000	0.010	-0.085
-248.019	171.694	-0.067	0.095
-247.005	255.762	-0.143	0.242
-245.990	124.279	0.110	0.137
-244.976	-23.215	-0.139	0.083
-243.961	401.954	-0.075	0.156
-242.946	584.746	-0.078	-0.189
-241.932	-32.019	0.266	0.147
-240.917	-200.000	-0.003	0.045
-239.903	250.888	0.120	0.202
-238.888	120.804	0.113	0.139
-237.873	45.962	-0.244	-0.223
-236.859	231.671	-0.012	-0.020
-235.844	164.988	-0.082	0.114
-234.830	88.844	0.286	0.315
-233.815	317.113	-0.152	0.284
-232.800	-92.556	-0.216	0.060
-231.786	-200.000	-0.026	0.301
-230.771	41.566	0.079	0.071
-229.757	5.851	0.211	0.154
-228.742	-200.000	-0.013	-0.254
-227.727	524.767	-0.085	-0.198
-226.713	-200.000	0.005	0.210
-225.698	158.820	0.270	0.371
-224.684	186.625	-0.128	0.188
-223.669	-24.680	0.256	0.150
-222.655	53.562	0.245	0.232
-221.640	-104.054	0.139	-0.032
-220.625	-154.817	-0.070	-0.005
-219.611	-47.849	-0.334	0.160
-218.596	-11.344	-0.064	0.042
-217.582	-29.794	-0.580	0.326
-216.567	-112.874	-0.281	0.055
-215.552	-71.916	0.379	0.139
-214.538	-104.407	0.035	-0.008
-213.523	-127.664	0.141	-0.020
-212.509	-103.193	0.331	-0.077
-211.494	-41.119	0.229	-0.116
-210.479	89.716	0.106	-0.117
-209.465	-14.163	-0.233	-0.148
-208.450	-63.828	-0.135	-0.055
-207.436	800.000	0.021	-0.064
-206.421	800.000	0.096	0.263
-205.406	-66.633	-0.320	-0.125
-204.392	-200.000	-0.044	-0.195
-203.377	800.000	-0.027	-0.096
-202.363	800.000	-0.116	-0.333
-201.348	-60.892	0.042	-0.017
-200.333	-78.492	0.344	-0.116
-199.319	-161.834	-0.349	-0.017
-198.304	440.529	-0.107	0.231
-197.290	-193.274	0.038	0.000
-196.275	20.742	0.207	-0.165
-195.260	-30.717	0.142	0.079
-194.246	-126.299	0.369	0.054
-193.231	800.000	-0.052	0.167
-192.217	12.894	-0.307	-0.234
-191.202	298.174	-0.141	-0.256
-190.187	216.465	0.082	0.129
-189.173	474.144	-0.105	0.233
-188.158	-200.000	-0.026	-0.196
-187.144	284.637	0.023	0.042
-186.129	-98.952	0.189	0.047
-185.114	-122.493	0.225	-0.036
-184.100	800.000	0.196	0.548
-183.085	-152.506	-0.135	0.010
-182.071	190.546	0.159	0.236
-181.056	458.949	0.104	-0.229
-180.042	402.527	-0.087	0.180
-179.027	11.873	-0.246	0.186
-178.012	-75.494	-0.251	0.088
-176.998	-200.000	0.010	0.081
-175.983	-200.000	0.001	-0.057
-174.969	-77.922	-0.340	0.116
-173.954	29.859	-0.176	-0.148
-172.939	-200.000	-0.010	-0.325
-171.925	-135.778	0.358	0.042
-170.910	237.817	-0.075	-0.123
-169.896	800.000	-0.026	0.098
-168.881	58.327	-0.155	0.150
-167.866	-200.000	-0.032	-0.353
-166.852	221.526	-0.083	-0.131
-165.837	644.040	0.148	0.371
-164.823	-8.405	0.198	-0.131
-163.808	10.011	0.344	0.258
-162.793	-46.593	-0.419	-0.203
-161.779	-131.789	-0.277	-0.036
-160.764	-200.000	0.057	-0.255
-159.750	281.322	0.205	0.361
-158.735	-156.812	-0.305	-0.019
-157.720	800.000	0.044	-0.149
-156.706	-143.838	0.353	0.033
-155.691	-48.182	0.295	0.140
-154.677	73.568	-0.075	0.077
-153.662	332.878	-0.063	-0.121
-152.647	-76.629	0.128	-0.044
-151.633	131.893	0.136	-0.172
-150.618	301.548	0.178	0.325
-149.604	-32.642	0.184	0.101
-148.589	105.443	-0.151	0.175
-147.574	800.000	0.065	-0.265
-146.560	-200.000	-0.005	0.072
-145.545	-19.038	-0.173	-0.106
-144.531	-50.920	0.235	0.109
-143.516	800.000	-0.044	-0.151
-142.502	23.581	-0.140	-0.113
-141.487	42.430	-0.154	-0.138
-140.472	-109.044	0.117	-0.024
-139.458	-67.913	-0.348	0.134
-138.443	-110.308	-0.134	-0.027
-137.429	-150.128	-0.404	0.031
-136.414	-22.790	-0.144	-0.085
-135.399	480.376	-0.106	-0.237
-134.385	-50.202	0.319	0.149
-133.370	-200.000	-0.028	0.172
-132.356	-200.000	-0.010	0.123
-131.341	-22.551	-0.077	-0.046
-130.326	-200.000	-0.001	-0.126
-129.312	-200.000	-0.006	-0.197
-128.297	104.502	0.219	0.254
-127.283	-200.000	0.000	0.223
-126.268	-61.040	0.262	0.109
-125.253	-200.000	-0.010	-0.371
-124.239	-36.028	0.268	-0.142
-123.224	800.000	-0.150	0.574
-122.210	-151.009	-0.292	-0.022
-121.195	79.113	0.198	0.208
