DTS Sentinel unit serial number:	SN413079Multiplexer serial number:	ORYXHardware model number:	OX4-SRSoftware version number:	ORYX F/W v4.00 Oryx Data Collector v3.7.2.0data status	okinstallation	princeton_trtdifferential loss correction	single-endedforward channel	channel 1reverse channel	N/Adate	2019/09/14time	22:14:35forward acquisition time	60.00reverse acquisition time	0.00gamma	496.2192k internal	0.2319k external	0.2319temperature offset calibration	1.0004default loss term (dB/km)	0.3790temperature slope calibration	1.0000multiplexer offset coefficient	1.0000multiplexer slope coefficient	1.0000fibre end	0.00T internal ref (°C)	32.62T ext. ref 1 (°C)	4.70T ext. ref 2 (°C)	27.62length (m)	temperature (°C)	Stokes	anti-Stokes-747.200	33.497	-0.290	0.255
-746.185	294.007	-0.050	-0.093
-745.171	233.851	0.117	-0.194
-744.156	226.732	0.060	0.099
-743.142	69.442	-0.139	0.145
-742.127	94.936	0.201	-0.232
-741.112	-106.477	0.106	-0.024
-740.098	474.197	-0.153	0.350
-739.083	800.000	-0.068	-0.249
-738.069	-200.000	0.008	0.272
-737.054	-116.796	-0.416	0.077
-736.039	-18.189	-0.287	0.182
-735.025	-109.652	0.123	-0.026
-734.010	-58.518	-0.305	0.134
-732.996	-92.410	-0.351	-0.100
-731.981	-200.000	-0.042	-0.390
-730.966	-200.000	-0.009	-0.071
-729.952	-8.969	-0.278	-0.188
-728.937	266.586	0.037	-0.066
-727.923	-200.000	-0.057	0.305
-726.908	265.461	-0.102	0.181
-725.894	51.965	-0.062	-0.060
-724.879	-134.475	-0.078	0.010
-723.864	103.917	0.142	-0.169
-722.850	3.811	-0.178	-0.132
-721.835	391.069	0.185	-0.388
-720.821	800.000	-0.072	-0.202
-719.806	166.611	0.296	-0.424
-718.791	-135.819	-0.174	0.021
-717.777	96.282	-0.141	-0.163
-716.762	-141.917	-0.169	-0.017
-715.748	264.574	-0.114	0.201
-714.733	-144.295	-0.112	0.011
-713.718	-66.921	-0.122	-0.049
-712.704	101.652	0.094	-0.111
-711.689	800.000	-0.029	0.113
-710.675	-200.000	-0.054	0.246
-709.660	-110.081	-0.135	-0.029
-708.645	800.000	-0.076	-0.269
-707.631	-200.000	0.022	0.112
-706.616	-31.341	0.254	-0.145
-705.602	397.509	0.042	0.088
-704.587	162.842	0.057	-0.080
-703.572	-116.422	-0.077	0.014
-702.558	17.920	0.030	0.024
-701.543	49.610	-0.302	0.287
-700.529	-129.805	-0.106	-0.015
-699.514	800.000	-0.018	-0.056
-698.499	-150.968	0.278	-0.021
-697.485	158.360	0.064	-0.090
-696.470	-81.993	-0.163	0.054
-695.456	-12.689	-0.262	-0.172
-694.441	89.244	0.144	0.162
-693.426	153.956	0.201	0.279
-692.412	-110.873	-0.314	0.065
-691.397	-200.000	-0.009	0.217
-690.383	-143.395	0.155	-0.015
-689.368	-47.050	0.365	0.180
-688.354	-37.059	0.136	0.074
-687.339	420.593	-0.159	-0.343
-686.324	-79.760	-0.154	-0.052
-685.310	-31.189	-0.130	-0.074
-684.295	-200.000	-0.042	0.211
-683.281	-200.000	-0.039	-0.225
-682.266	-200.000	-0.020	-0.299
-681.251	-200.000	0.001	-0.326
-680.237	382.101	-0.134	-0.278
-679.222	-53.655	-0.344	0.159
-678.208	-164.235	-0.188	-0.009
-677.193	-30.394	-0.218	-0.125
-676.178	-172.680	-0.446	0.014
-675.164	2.597	-0.070	-0.051
-674.149	800.000	0.066	-0.221
-673.135	114.548	-0.190	0.233
-672.120	-20.374	-0.254	-0.158
-671.105	91.497	-0.218	-0.247
-670.091	800.000	0.113	0.349
-669.076	-200.000	0.091	0.532
-668.062	20.454	0.180	-0.147
-667.047	-180.207	0.289	-0.006
-666.032	150.840	0.046	-0.063
-665.018	-200.000	0.010	0.155
-664.003	800.000	0.160	-0.530
-662.989	406.524	-0.155	-0.331
-661.974	-200.000	-0.013	-0.333
-660.959	-200.000	-0.020	-0.163
-659.945	-27.662	-0.197	-0.115
-658.930	174.656	-0.028	0.041
-657.916	-200.000	0.008	0.067
-656.901	-127.125	-0.235	0.035
-655.886	-82.800	-0.335	-0.109
-654.872	-200.000	-0.016	-0.290
-653.857	294.381	0.165	-0.303
-652.843	-61.141	-0.291	-0.124
-651.828	800.000	0.079	-0.245
-650.814	-200.000	0.039	-0.205
-649.799	479.910	-0.095	-0.217
-648.784	-76.907	0.240	-0.085
-647.770	-84.526	0.264	0.084
-646.755	67.728	0.058	0.059
-645.741	79.848	0.162	0.176
-644.726	-6.281	-0.138	-0.095
-643.711	-27.261	0.060	0.035
-642.697	3.473	-0.253	-0.186
-641.682	-117.724	0.218	0.040
-640.668	-83.072	0.067	0.022
-639.653	-93.187	-0.118	0.033
-638.638	-29.033	0.260	0.151
-637.624	40.731	0.061	0.055
-636.609	800.000	-0.106	-0.333
-635.595	-200.000	0.023	-0.204
-634.580	-94.830	-0.242	0.066
-633.565	-104.761	-0.274	0.064
-632.551	-134.989	0.300	0.036
-631.536	592.817	0.104	0.259
-630.522	71.110	-0.144	0.150
-629.507	-200.000	-0.066	-0.344
-628.492	483.698	0.034	0.078
-627.478	348.716	-0.096	0.191
-626.463	47.168	-0.193	0.181
-625.449	223.429	0.122	-0.197
-624.434	53.601	-0.085	0.082
-623.419	-86.239	0.397	0.123
-622.405	103.809	-0.224	-0.265
-621.390	-64.434	0.296	-0.121
-620.376	168.919	0.121	0.174
-619.361	45.655	-0.124	0.115
-618.346	64.783	0.062	0.063
-617.332	-61.271	0.309	-0.131
-616.317	-32.680	0.273	-0.153
-615.303	-4.258	-0.163	0.113
-614.288	-18.005	-0.277	0.175
-613.273	-28.666	0.219	-0.127
-612.259	-60.027	0.297	-0.127
-611.244	-2.331	-0.304	0.215
-610.230	-32.298	-0.292	0.164
-609.215	-200.000	0.045	-0.237
-608.201	-200.000	-0.021	-0.101
-607.186	-45.514	-0.220	-0.110
-606.171	-30.626	0.260	0.148
-605.157	-51.396	-0.349	0.164
-604.142	-127.993	0.331	0.048
-603.128	800.000	0.086	-0.345
-602.113	-200.000	0.042	0.278
-601.098	49.952	0.258	0.245
-600.084	297.517	-0.035	0.065
-599.069	432.890	-0.056	-0.123
-598.055	-92.388	0.138	-0.039
-597.040	-15.605	-0.481	0.309
-596.025	800.000	0.120	-0.358
-595.011	800.000	-0.091	-0.307
-593.996	-46.718	0.122	-0.060
-592.982	-140.636	-0.098	-0.010
-591.967	-108.182	0.188	-0.041
-590.952	-104.816	-0.182	-0.042
-589.938	296.194	0.024	-0.045
-588.923	-1.558	-0.157	-0.111
-587.909	-2.645	0.177	0.124
-586.894	-190.275	-0.308	-0.003
-585.879	-200.000	-0.022	0.264
-584.865	-54.528	0.456	-0.208
-583.850	-175.215	-0.292	0.008
-582.836	-99.956	0.364	0.091
-581.821	-200.000	-0.011	-0.093
-580.806	195.100	0.235	-0.359
-579.792	-200.000	0.047	-0.238
-578.777	-200.000	-0.009	0.271
-577.763	-6.999	0.345	-0.236
-576.748	82.700	-0.017	0.019
-575.733	182.618	0.300	0.445
-574.719	-158.135	0.191	-0.011
-573.704	185.629	0.068	-0.102
-572.690	65.365	-0.025	0.025
-571.675	-40.247	-0.153	0.080
-570.661	-165.526	-0.312	0.014
-569.646	-74.444	-0.158	0.057
-568.631	-200.000	0.028	0.151
-567.617	62.642	0.156	0.157
-566.602	600.785	-0.101	-0.252
-565.588	-200.000	0.033	0.208
-564.573	95.673	0.079	0.090
-563.558	-200.000	0.013	0.276
-562.544	-200.000	-0.356	-0.001
-561.529	-200.000	-0.005	-0.048
-560.515	-0.183	0.238	-0.170
-559.500	-171.627	0.127	-0.004
-558.485	-86.948	-0.219	-0.067
-557.471	-45.654	-0.133	0.066
-556.456	50.374	0.204	0.193
-555.442	-11.107	-0.251	0.166
-554.427	-200.000	0.032	-0.331
-553.412	57.019	-0.201	-0.197
-552.398	800.000	0.071	0.263
-551.383	-200.000	0.024	-0.204
-550.369	-87.255	0.247	-0.075
-549.354	800.000	0.108	-0.405
-548.339	-32.227	0.250	-0.140
-547.325	374.558	0.054	-0.111
-546.310	-200.000	-0.074	-0.342
-545.296	-14.772	0.078	-0.051
-544.281	-78.751	-0.183	0.063
-543.266	214.271	0.057	0.090
-542.252	-123.454	0.113	0.018
-541.237	-176.152	-0.086	-0.002
-540.223	63.134	-0.075	0.076
-539.208	152.810	-0.099	0.136
-538.193	10.446	-0.151	0.116
-537.179	37.001	-0.420	0.373
-536.164	232.553	-0.061	-0.101
-535.150	276.971	-0.078	-0.139
-534.135	-90.667	0.123	-0.036
-533.121	49.503	-0.157	-0.148
-532.106	299.520	-0.027	0.050
-531.091	139.735	-0.042	0.055
-530.077	-81.890	0.142	0.047
-529.062	-154.597	0.095	0.006
-528.048	-136.941	0.408	0.047
-527.033	46.444	-0.153	-0.142
-526.018	764.656	0.102	0.278
-525.004	-73.082	0.334	0.123
-523.989	306.350	-0.044	0.082
-522.975	-200.000	-0.009	-0.070
-521.960	41.092	-0.169	0.153
-520.945	265.297	-0.060	-0.105
-519.931	-47.426	-0.106	-0.052
-518.916	-76.318	0.127	-0.045
-517.902	144.395	0.023	0.030
-516.887	800.000	-0.080	-0.231
-515.872	104.116	-0.262	-0.308
-514.858	79.923	-0.176	0.189
-513.843	800.000	-0.126	-0.376
-512.829	-200.000	0.008	-0.090
-511.814	-200.000	-0.005	-0.275
-510.799	4.115	-0.323	-0.237
-509.785	-29.439	0.201	-0.116
-508.770	-122.379	0.092	-0.015
-507.756	526.217	0.080	0.188
-506.741	-4.014	-0.328	-0.228
-505.726	83.795	-0.027	0.029
-504.712	-200.000	-0.032	-0.203
-503.697	150.658	0.112	0.153
-502.683	22.601	0.108	0.088
-501.668	-107.239	0.116	-0.026
-500.653	-188.126	-0.178	-0.002
-499.639	46.764	-0.048	0.044
-498.624	-200.000	-0.074	-0.414
-497.610	-200.000	-0.062	0.295
-496.595	-66.717	-0.048	-0.019
-495.581	487.113	-0.032	0.073
-494.566	8.288	-0.307	0.231
-493.551	-200.000	0.055	0.368
-492.537	28.277	0.115	0.098
-491.522	77.978	-0.135	0.144
-490.508	800.000	0.076	-0.227
-489.493	34.670	-0.113	-0.099
-488.478	-99.736	0.254	0.064
-487.464	-200.000	-0.069	0.506
-486.449	-21.121	0.188	0.115
-485.435	800.000	-0.043	-0.163
-484.420	800.000	0.071	-0.295
-483.405	18.136	0.224	0.179
-482.391	200.876	-0.055	-0.084
-481.376	-181.372	0.128	-0.003
-480.362	-18.713	-0.140	-0.088
-479.347	-89.943	0.186	0.055
-478.332	229.978	0.220	0.360
-477.318	-200.000	-0.029	0.164
-476.303	396.324	0.060	-0.124
-475.289	-83.365	-0.317	-0.102
-474.274	800.000	-0.028	-0.104
-473.259	-41.829	0.106	-0.054
-472.245	-200.000	0.013	0.231
-471.230	84.996	-0.151	0.165
-470.216	-158.647	-0.242	0.014
-469.201	48.051	-0.155	0.145
-468.186	-75.876	-0.335	-0.119
-467.172	800.000	0.112	0.387
-466.157	800.000	-0.028	-0.089
-465.143	-71.346	-0.269	-0.101
-464.128	106.070	-0.202	0.240
-463.113	-37.050	-0.015	-0.008
-462.099	67.344	0.251	-0.256
-461.084	-173.015	0.264	-0.008
-460.070	-22.009	-0.193	-0.118
-459.055	-140.157	-0.178	0.019
-458.040	16.184	-0.179	-0.141
-457.026	-47.888	-0.223	0.108
-456.011	96.611	0.061	0.070
-454.997	-86.319	-0.266	0.082
-453.982	273.786	-0.093	0.165
-452.968	800.000	0.065	0.210
-451.953	-200.000	-0.045	0.455
-450.938	255.176	-0.096	0.164
-449.924	-77.538	0.159	0.055
-448.909	-61.361	-0.048	-0.020
-447.895	385.974	-0.047	-0.098
-446.880	800.000	-0.063	-0.211
-445.865	119.117	-0.284	-0.352
-444.851	-29.656	-0.178	0.102
-443.836	299.560	-0.129	0.238
-442.822	-200.000	0.020	0.091
-441.807	-93.601	-0.355	0.098
-440.792	-129.867	-0.200	-0.027
-439.778	-79.100	-0.064	-0.022
-438.763	-165.126	0.175	0.008
-437.749	-89.462	0.249	0.073
-436.734	-115.095	-0.568	-0.108
-435.719	102.753	0.205	-0.240
-434.705	800.000	-0.068	-0.227
-433.690	63.512	0.115	-0.115
-432.676	-116.919	-0.264	-0.048
-431.661	31.124	-0.086	-0.074
-430.646	210.497	-0.034	-0.053
-429.632	214.688	-0.118	-0.187
-428.617	244.178	0.138	-0.232
-427.603	-150.342	0.242	0.019
-426.588	676.039	-0.017	-0.043
-425.573	-88.101	0.221	0.066
-424.559	-200.000	0.008	-0.048
-423.544	31.468	0.326	-0.280
-422.530	-24.867	0.201	-0.119
-421.515	-162.197	-0.292	-0.015
-420.500	236.598	0.075	-0.124
-419.486	-147.701	-0.156	-0.013
-418.471	-45.705	0.165	0.081
-417.457	-47.011	-0.105	-0.051
-416.442	-122.435	-0.264	-0.043
-415.428	-200.000	-0.004	-0.301
-414.413	449.209	0.086	-0.189
-413.398	800.000	-0.041	-0.122
-412.384	-28.843	-0.147	-0.084
-411.369	-200.000	0.013	0.133
-410.355	23.430	-0.291	0.239
-409.340	572.760	0.107	0.261
-408.325	99.934	-0.097	-0.112
-407.311	684.265	0.137	0.356
-406.296	800.000	-0.040	0.170
-405.282	-200.000	-0.031	0.178
-404.267	-124.267	0.223	-0.035
-403.252	126.457	0.320	-0.405
-402.238	-6.691	0.023	0.016
-401.223	-91.571	0.080	-0.023
-400.209	387.019	0.058	-0.120
-399.194	800.000	0.028	0.088
-398.179	-200.000	0.002	0.066
-397.165	-82.893	0.093	-0.030
-396.150	277.257	-0.012	0.022
-395.136	-115.699	0.378	-0.071
-394.121	-95.143	-0.165	-0.044
-393.106	54.313	-0.327	0.314
-392.092	-56.704	-0.392	-0.173
-391.077	97.566	0.020	0.023
-390.063	-63.983	-0.222	-0.091
-389.048	730.502	0.062	-0.166
-388.033	-200.000	0.034	0.160
-387.019	-118.719	0.250	0.044
-386.004	-200.000	0.050	-0.326
-384.990	-53.780	0.086	0.039
-383.975	46.655	0.124	0.115
-382.960	-90.392	-0.362	-0.105
-381.946	-29.051	-0.003	-0.001
-380.931	800.000	0.040	-0.119
-379.917	307.091	0.052	0.096
-378.902	-114.082	-0.157	0.030
-377.888	416.782	0.055	0.117
-376.873	186.246	-0.130	0.193
-375.858	-101.773	0.268	0.065
-374.844	17.464	0.152	0.121
-373.829	-182.159	0.221	-0.004
-372.815	249.103	-0.085	0.144
-371.800	800.000	0.042	0.176
-370.785	200.808	0.043	0.066
-369.771	-74.504	0.457	-0.164
-368.756	260.779	0.128	0.221
-367.742	-125.255	-0.027	0.004
-366.727	-22.059	-0.102	0.062
-365.712	-112.286	0.172	-0.034
-364.698	-81.860	-0.297	0.097
-363.683	-200.000	0.037	-0.165
-362.669	218.998	-0.072	-0.115
-361.654	-50.786	-0.210	0.098
-360.639	300.947	0.225	-0.414
-359.625	-20.641	-0.141	-0.086
-358.610	324.176	-0.165	0.314
-357.596	-200.000	-0.022	0.175
-356.581	69.135	0.117	-0.120
-355.566	321.386	0.078	0.148
-354.552	147.940	-0.259	-0.349
-353.537	800.000	0.037	-0.143
-352.523	87.104	0.324	0.357
-351.508	63.131	-0.031	-0.031
-350.493	-200.000	0.007	-0.069
-349.479	44.320	-0.098	-0.090
-348.464	227.056	-0.118	-0.191
-347.450	-5.613	0.054	0.037
-346.435	-80.560	-0.166	-0.055
-345.420	-43.209	0.250	0.126
-344.406	-200.000	0.008	0.058
-343.391	210.151	-0.162	-0.254
-342.377	-200.000	-0.055	-0.277
-341.362	3.958	-0.151	-0.110
-340.348	800.000	-0.110	0.435
-339.333	0.433	0.118	-0.084
-338.318	-101.622	0.105	0.025
-337.304	330.753	0.068	0.130
-336.289	270.706	0.048	0.084
-335.275	-50.243	0.213	0.100
-334.260	64.095	0.209	-0.210
-333.245	-56.807	-0.235	0.103
-332.231	-92.934	0.211	-0.059
-331.216	247.879	0.164	0.276
-330.202	17.938	-0.139	0.111
-329.187	-200.000	0.022	-0.142
-328.172	-26.028	-0.354	-0.207
-327.158	-200.000	0.243	-0.001
-326.143	-200.000	-0.027	-0.335
-325.129	498.699	-0.099	0.226
-324.114	15.982	0.263	-0.206
-323.099	43.434	0.308	-0.280
-322.085	115.743	0.192	-0.234
-321.070	-134.063	-0.220	-0.027
-320.056	-73.128	0.266	0.097
-319.041	-200.000	-0.018	0.169
-318.026	73.253	-0.309	0.322
-317.012	519.922	-0.145	-0.337
-315.997	-178.652	-0.147	0.003
-314.983	800.000	0.049	-0.155
-313.968	-200.000	-0.013	-0.059
-312.953	-77.242	-0.335	0.116
-311.939	66.509	0.061	0.062
-310.924	-72.046	0.229	-0.085
-309.910	277.142	0.162	-0.286
-308.895	51.684	0.030	-0.028
-307.880	122.624	0.047	-0.059
-306.866	316.187	-0.152	-0.286
-305.851	-61.155	0.190	-0.080
-304.837	-134.779	-0.046	0.006
-303.822	205.907	0.154	-0.238
-302.807	58.097	-0.134	-0.131
-301.793	-200.000	0.064	-0.435
-300.778	-29.858	-0.400	-0.227
-299.764	165.124	-0.068	0.095
-298.749	95.363	-0.066	-0.075
-297.735	-200.000	0.001	-0.012
-296.720	166.647	0.098	0.139
-295.705	-23.113	0.171	0.102
-294.691	281.020	-0.113	-0.202
-293.676	111.210	-0.109	0.131
-292.662	800.000	0.023	-0.084
-291.647	163.913	0.025	-0.036
-290.632	575.857	0.023	0.055
-289.618	788.139	0.041	0.111
-288.603	800.000	-0.075	0.317
-287.589	-5.119	0.098	0.067
-286.574	17.513	0.218	-0.172
-285.559	-165.903	-0.106	-0.005
-284.545	-200.000	0.026	-0.227
-283.530	-60.351	0.407	0.172
-282.516	-76.379	-0.107	-0.038
-281.501	-200.000	-0.032	0.322
-280.486	800.000	-0.045	0.153
-279.472	-200.000	-0.008	0.144
-278.457	13.511	-0.070	0.054
-277.443	97.066	-0.031	0.035
-276.428	-200.000	-0.011	0.059
-275.413	-61.555	-0.174	0.073
-274.399	-51.189	-0.073	0.034
-273.384	38.298	0.109	0.096
-272.370	50.651	-0.119	0.112
-271.355	-200.000	0.014	-0.266
-270.340	-4.953	-0.160	-0.109
-269.326	116.283	-0.057	0.070
-268.311	-102.984	-0.151	-0.036
-267.297	0.934	0.311	0.221
-266.282	-75.720	0.337	0.119
-265.267	91.988	0.128	0.143
-264.253	800.000	0.113	0.326
-263.238	-200.000	-0.039	0.235
-262.224	-200.000	-0.040	0.275
-261.209	-66.265	0.184	0.073
-260.195	800.000	0.053	-0.219
-259.180	18.005	0.160	-0.126
-258.165	-200.000	0.065	-0.467
-257.151	439.868	0.047	-0.102
-256.136	-166.236	-0.177	0.007
-255.122	-200.000	0.068	-0.307
-254.107	103.176	0.137	-0.160
-253.092	800.000	-0.078	-0.310
-252.078	-107.445	-0.227	0.049
-251.063	-38.877	-0.215	0.113
-250.049	-11.319	-0.174	0.113
-249.034	-26.731	0.212	0.123
-248.019	-125.071	-0.275	0.042
-247.005	25.066	0.149	-0.123
-245.990	153.949	0.068	-0.092
-244.976	591.031	-0.107	0.261
-243.961	-39.975	0.192	0.099
-242.946	581.558	-0.135	0.327
-241.932	23.179	0.263	0.214
-240.917	-23.787	-0.339	0.202
-239.903	110.397	0.326	-0.388
-238.888	-23.377	-0.266	-0.159
-237.873	616.897	0.048	0.119
-236.859	78.178	-0.048	0.050
-235.844	72.920	0.294	-0.305
-234.830	86.508	-0.051	-0.056
-233.815	133.962	0.239	-0.307
-232.800	-115.003	-0.171	-0.032
-231.786	-55.403	0.214	0.095
-230.771	-52.871	-0.193	-0.088
-229.757	-200.000	0.002	-0.101
-228.742	-17.326	-0.130	0.081
-227.727	-50.591	0.253	0.118
-226.713	178.664	-0.107	0.156
-225.698	-0.829	-0.188	-0.132
-224.684	-63.928	-0.365	-0.148
-223.669	800.000	-0.040	0.165
-222.655	800.000	-0.039	0.115
-221.640	-110.870	-0.212	0.043
-220.625	800.000	-0.034	-0.144
-219.611	-130.689	-0.274	0.037
-218.596	8.404	0.138	0.103
-217.582	-149.507	0.242	-0.019
-216.567	-113.859	-0.107	-0.021
-215.552	-74.793	-0.056	-0.020
-214.538	-140.857	0.127	-0.013
-213.523	21.406	-0.138	0.111
-212.509	232.387	-0.094	0.154
-211.494	-112.319	-0.112	-0.022
-210.479	-89.587	0.023	0.007
-209.465	-200.000	-0.012	-0.177
-208.450	473.534	-0.131	-0.292
-207.436	33.549	0.140	-0.120
-206.421	-104.953	0.285	-0.065
-205.406	-67.415	0.119	0.046
-204.392	109.159	0.106	-0.126
-203.377	-135.098	0.290	0.035
-202.363	-74.125	0.422	0.151
-201.348	-199.476	0.170	-0.001
-200.333	214.282	0.085	-0.133
-199.319	-124.991	-0.179	0.027
-198.304	-151.791	-0.340	0.025
-197.290	-37.655	0.510	0.269
-196.275	-131.621	-0.098	-0.013
-195.260	-200.000	0.022	-0.206
-194.246	23.360	0.173	-0.141
-193.231	96.783	-0.131	-0.149
-192.217	408.014	-0.066	0.138
-191.202	143.784	0.186	-0.246
-190.187	-19.083	0.165	-0.101
-189.173	112.913	0.214	-0.256
-188.158	-200.000	-0.015	0.074
-187.144	-9.811	-0.098	0.065
-186.129	-57.211	0.102	0.045
-185.114	-200.000	0.022	0.278
-184.100	140.414	0.186	0.243
-183.085	44.339	-0.140	-0.128
-182.071	162.648	0.057	-0.079
-181.056	-200.000	-0.004	0.426
-180.042	-81.274	0.139	0.045
-179.027	121.768	0.186	0.230
-178.012	-6.883	-0.313	0.211
-176.998	328.528	0.074	0.140
-175.983	84.326	0.115	-0.124
-174.969	800.000	-0.058	0.196
-173.954	-114.022	0.229	0.044
-172.939	29.045	0.123	0.104
-171.925	-188.174	0.204	-0.003
-170.910	-200.000	-0.052	0.250
-169.896	-146.446	-0.216	0.019
-168.881	-2.774	-0.129	-0.089
-167.866	135.642	-0.045	-0.058
-166.852	80.891	-0.210	-0.224
-165.837	153.078	-0.092	0.124
-164.823	-43.797	-0.240	-0.120
-163.808	-96.035	0.075	-0.020
-162.793	39.938	0.151	0.134
-161.779	191.565	-0.175	0.260
-160.764	-200.000	-0.065	0.427
-159.750	404.085	-0.099	0.206
-158.735	-138.241	0.210	0.023
-157.720	13.392	-0.390	0.299
-156.706	-85.901	-0.125	0.038
-155.691	30.318	0.018	0.015
-154.677	157.213	0.094	0.128
-153.662	160.771	-0.079	-0.109
-152.647	-58.137	-0.096	-0.041
-151.633	-101.894	0.223	-0.053
-150.618	-122.520	-0.453	-0.073
-149.604	-119.071	0.177	-0.031
-148.589	-39.423	-0.150	0.078
-147.574	-106.673	-0.191	0.042
-146.560	148.041	-0.130	-0.174
-145.545	432.500	0.110	0.236
-144.531	-33.925	0.215	0.117
-143.516	49.097	0.005	0.005
-142.502	37.214	0.185	0.162
-141.487	-95.872	0.249	0.066
-140.472	-200.000	-0.010	-0.151
-139.458	-67.232	0.246	0.096
-138.443	-64.573	0.175	0.070
-137.429	183.841	-0.029	-0.043
-136.414	-34.708	0.088	0.047
-135.399	-1.564	-0.128	-0.089
-134.385	500.687	0.063	0.144
-133.370	-117.845	-0.601	0.107
-132.356	-96.050	-0.375	0.098
-131.341	-65.796	-0.163	0.064
-130.326	298.350	0.187	-0.340
-129.312	-200.000	-0.009	-0.160
-128.297	60.025	0.393	-0.383
-127.283	-112.511	0.415	0.082
-126.268	490.788	-0.127	-0.287
-125.253	454.068	-0.086	-0.188
-124.239	119.935	-0.175	-0.214
-123.224	-200.000	-0.020	0.151
-122.210	-105.921	-0.063	0.014
-121.195	42.491	0.213	0.192
