DTS Sentinel unit serial number:	SN413079Multiplexer serial number:	ORYXHardware model number:	OX4-SRSoftware version number:	ORYX F/W v4.00 Oryx Data Collector v3.7.2.0data status	okinstallation	princeton_trtdifferential loss correction	single-endedforward channel	channel 1reverse channel	N/Adate	2019/09/12time	19:52:34forward acquisition time	15.00reverse acquisition time	0.00gamma	496.2192k internal	0.2322k external	0.2322temperature offset calibration	1.0139default loss term (dB/km)	0.3790temperature slope calibration	1.0000multiplexer offset coefficient	1.0000multiplexer slope coefficient	1.0000fibre end	0.00T internal ref (°C)	31.87T ext. ref 1 (°C)	3.43T ext. ref 2 (°C)	26.38length (m)	temperature (°C)	Stokes	anti-Stokes-747.200	800.000	-0.163	-0.687
-746.185	-94.259	-0.874	0.242
-745.171	223.967	0.525	0.856
-744.156	-57.954	0.229	-0.101
-743.142	-200.000	-0.067	0.697
-742.127	-200.000	0.069	0.898
-741.112	26.686	-0.291	-0.246
-740.098	153.045	0.089	0.123
-739.083	-200.000	-0.068	-0.663
-738.069	277.832	0.324	-0.583
-737.054	-35.529	0.245	-0.134
-736.039	18.443	-0.512	0.413
-735.025	37.390	-0.327	0.293
-734.010	72.136	-0.507	-0.533
-732.996	-83.562	0.178	0.058
-731.981	-39.133	0.369	0.196
-730.966	-200.000	0.009	0.078
-729.952	702.619	-0.067	0.178
-728.937	-30.652	0.180	0.103
-727.923	-80.049	-0.608	0.206
-726.908	-200.000	-0.058	-0.737
-725.894	-98.102	-0.894	0.232
-724.879	-71.599	0.529	-0.199
-723.864	-82.837	-0.698	0.228
-722.850	-200.000	-0.006	-0.500
-721.835	147.548	-0.078	-0.106
-720.821	-124.072	0.254	-0.040
-719.806	147.138	-0.741	1.007
-718.791	-28.599	-0.146	0.085
-717.777	449.615	-0.139	0.310
-716.762	-200.000	0.070	0.680
-715.748	-144.171	-0.952	-0.090
-714.733	-200.000	0.085	-0.733
-713.718	-200.000	0.023	0.282
-712.704	174.901	-0.407	0.595
-711.689	77.043	0.265	0.284
-710.675	-92.874	-0.797	0.225
-709.660	-21.334	-0.298	-0.184
-708.645	47.952	0.241	-0.227
-707.631	421.839	-0.318	-0.688
-706.616	55.614	-0.172	0.168
-705.602	141.781	0.396	0.530
-704.587	301.934	-0.220	-0.411
-703.572	800.000	-0.170	-0.587
-702.558	-200.000	0.084	0.683
-701.543	12.886	0.565	0.441
-700.529	87.683	-0.431	0.481
-699.514	800.000	0.079	0.334
-698.499	388.203	0.425	-0.887
-697.485	800.000	0.217	-0.678
-696.470	-45.786	0.436	0.217
-695.456	-182.415	0.152	0.003
-694.441	800.000	0.286	0.914
-693.426	151.403	-0.583	0.800
-692.412	-200.000	0.044	0.428
-691.397	-200.000	-0.017	-0.927
-690.383	-200.000	0.010	-0.762
-689.368	-42.752	-0.717	0.368
-688.354	-200.000	0.019	0.155
-687.339	-76.158	0.446	0.159
-686.324	-42.079	0.357	0.184
-685.310	-78.584	0.775	0.267
-684.295	6.915	-0.237	-0.178
-683.281	38.924	-0.154	-0.138
-682.266	800.000	0.041	0.114
-681.251	325.847	-0.535	1.032
-680.237	-200.000	-0.013	-0.230
-679.222	104.585	-0.245	0.290
-678.208	341.078	0.262	0.515
-677.193	-200.000	-0.058	-0.615
-676.178	800.000	-0.050	-0.199
-675.164	7.920	0.388	-0.293
-674.149	-102.156	0.936	-0.227
-673.135	-112.614	-0.792	0.159
-672.120	-200.000	-0.036	0.484
-671.105	-56.073	0.723	0.325
-670.091	-43.030	-0.338	-0.172
-669.076	147.788	0.447	-0.607
-668.062	88.699	-0.306	-0.343
-667.047	264.992	-0.173	-0.303
-666.032	-65.328	0.350	-0.142
-665.018	-65.163	-0.128	-0.052
-664.003	-88.914	0.213	-0.064
-662.989	658.978	-0.220	0.570
-661.974	-52.922	-0.091	-0.042
-660.959	800.000	0.098	0.385
-659.945	507.262	-0.258	0.602
-658.930	167.839	0.308	0.441
-657.916	-37.853	0.250	0.134
-656.901	115.112	-0.076	-0.093
-655.886	800.000	0.060	0.233
-654.872	40.123	-0.419	0.379
-653.857	197.613	-0.254	0.390
-652.843	800.000	0.189	-0.586
-651.828	-94.495	0.414	0.113
-650.814	-99.857	-0.732	0.184
-649.799	-200.000	-0.040	0.510
-648.784	800.000	0.220	-0.667
-647.770	94.691	0.531	0.607
-646.755	-200.000	0.033	0.439
-645.741	-200.000	0.078	-0.369
-644.726	634.691	-0.205	-0.523
-643.711	-30.290	-0.362	-0.207
-642.697	7.912	-0.595	0.449
-641.682	-87.922	0.580	-0.175
-640.668	-200.000	-0.035	0.251
-639.653	459.356	0.175	-0.391
-638.638	1.845	0.597	-0.433
-637.624	800.000	-0.104	-0.385
-636.609	-37.368	-0.569	0.306
-635.595	-103.439	-0.185	-0.044
-634.580	-200.000	0.060	-0.670
-633.565	-12.189	0.517	-0.340
-632.551	676.192	-0.079	0.207
-631.536	94.414	0.197	0.226
-630.522	-200.000	0.060	0.314
-629.507	-155.908	-0.320	-0.020
-628.492	-26.602	-0.679	0.400
-627.478	-94.465	-0.830	0.228
-626.463	-114.195	-0.488	-0.095
-625.449	2.473	0.272	-0.198
-624.434	685.401	-0.184	-0.483
-623.419	-9.521	0.116	-0.078
-622.405	-76.417	-0.444	-0.157
-621.390	44.261	0.925	-0.854
-620.376	160.502	0.367	-0.515
-619.361	800.000	0.285	-0.832
-618.346	-114.766	1.387	0.266
-617.332	-123.860	-0.467	0.074
-616.317	760.121	-0.291	0.792
-615.303	-100.739	0.229	0.057
-614.288	-200.000	-0.011	0.296
-613.273	-101.365	-0.439	0.108
-612.259	-32.455	-0.466	-0.261
-611.244	110.672	-0.486	-0.587
-610.230	36.875	-0.421	0.374
-609.215	33.112	0.134	-0.116
-608.201	-155.196	-0.394	0.026
-607.186	-200.000	0.021	-0.236
-606.171	667.381	-0.194	-0.505
-605.157	-109.015	0.105	0.023
-604.142	110.280	0.028	-0.033
-603.128	106.454	-0.512	-0.610
-602.113	670.155	-0.183	-0.475
-601.098	423.487	-0.161	0.347
-600.084	-200.000	-0.045	1.036
-599.069	188.589	-0.167	0.251
-598.055	-100.964	-0.253	0.062
-597.040	118.561	0.195	-0.242
-596.025	70.015	-0.429	0.444
-595.011	-196.402	0.565	0.004
-593.996	-118.689	0.535	0.095
-592.982	-59.482	0.549	0.237
-591.967	-81.592	-1.271	0.419
-590.952	-21.138	-0.286	0.176
-589.938	-66.805	-0.225	0.089
-588.923	130.548	0.411	0.529
-587.909	585.671	0.052	0.129
-586.894	-186.733	-0.266	0.004
-585.879	-200.000	-0.012	-0.066
-584.865	-56.398	-0.536	-0.239
-583.850	-90.227	0.658	-0.192
-582.836	-68.711	-0.270	-0.105
-581.821	-77.639	0.711	-0.247
-580.806	-25.256	0.278	0.165
-579.792	-82.060	-0.349	-0.114
-578.777	430.808	0.327	-0.710
-577.763	-85.672	-0.057	0.018
-576.748	-41.123	-0.551	-0.286
-575.733	531.646	0.190	-0.451
-574.719	-200.000	-0.045	-0.829
-573.704	96.405	0.320	0.368
-572.690	262.060	-0.455	0.792
-571.675	-200.000	-0.142	0.771
-570.661	800.000	0.213	-0.929
-569.646	77.801	-0.100	0.107
-568.631	800.000	-0.124	0.358
-567.617	-200.000	0.323	1.552
-566.602	-54.598	-0.417	-0.189
-565.588	-54.950	-0.337	0.152
-564.573	43.891	-0.471	0.433
-563.558	-151.391	0.440	-0.033
-562.544	-90.387	-1.640	-0.477
-561.529	188.127	0.114	-0.171
-560.515	-29.438	0.965	-0.554
-559.500	46.897	-0.876	-0.817
-558.485	-25.595	-0.303	0.179
-557.471	-200.000	-0.069	0.858
-556.456	-200.000	0.096	0.436
-555.442	-200.000	-0.023	0.544
-554.427	-200.000	0.031	0.306
-553.412	24.627	-0.475	0.395
-552.398	-107.757	-0.676	-0.148
-551.383	-63.825	-0.874	0.359
-550.369	63.663	-0.336	-0.339
-549.354	41.404	-0.220	-0.199
-548.339	-200.000	0.087	-0.508
-547.325	272.279	0.442	0.781
-546.310	-200.000	0.008	0.624
-545.296	-200.000	0.070	0.550
-544.281	-200.000	-0.007	0.495
-543.266	124.455	-0.288	0.364
-542.252	-200.000	-0.118	0.911
-541.237	-200.000	0.003	0.217
-540.223	23.013	-0.326	0.268
-539.208	1.099	-0.339	-0.244
-538.193	-118.493	-0.588	0.104
-537.179	3.304	0.531	-0.388
-536.164	55.135	0.680	0.659
-535.150	615.548	-0.203	-0.509
-534.135	256.450	0.244	-0.420
-533.121	205.644	-0.069	-0.108
-532.106	-200.000	0.070	0.645
-531.091	800.000	0.179	0.627
-530.077	-116.055	0.344	-0.064
-529.062	-200.000	-0.012	0.171
-528.048	105.737	0.431	0.511
-527.033	-91.009	0.499	-0.144
-526.018	-200.000	0.069	-0.341
-525.004	84.606	0.173	-0.190
-523.989	129.855	0.054	0.069
-522.975	87.442	-0.196	-0.217
-521.960	219.000	0.163	0.260
-520.945	-106.885	-0.356	0.079
-519.931	511.855	-0.154	-0.359
-518.916	67.091	-0.583	-0.595
-517.902	70.116	0.345	0.356
-516.887	-93.926	-0.401	0.110
-515.872	-19.999	-0.330	-0.204
-514.858	800.000	-0.090	0.282
-513.843	-48.507	0.434	0.209
-512.829	-200.000	-0.037	0.387
-511.814	-90.768	0.609	0.176
-510.799	-200.000	-0.061	0.427
-509.785	-80.112	-0.642	-0.216
-508.770	409.295	-0.443	0.938
-507.756	65.774	-0.442	0.448
-506.741	166.332	-0.249	0.354
-505.726	-62.490	0.325	-0.135
-504.712	-55.226	-0.484	0.218
-503.697	-187.543	-0.349	0.005
-502.683	-107.436	0.585	-0.128
-501.668	-153.339	-0.257	0.018
-500.653	7.432	0.679	-0.508
-499.639	-95.663	0.882	-0.236
-498.624	-47.271	-0.108	-0.053
-497.610	-200.000	-0.008	0.402
-496.595	299.910	-0.222	-0.409
-495.581	-89.925	0.139	0.041
-494.566	277.790	-0.338	0.601
-493.551	-23.451	0.667	-0.401
-492.537	-200.000	-0.032	-0.691
-491.522	587.899	-0.201	0.495
-490.508	417.537	0.099	-0.212
-489.493	-24.864	0.727	-0.432
-488.478	-115.694	-0.143	-0.027
-487.464	101.732	0.414	0.483
-486.449	-129.313	-0.642	-0.089
-485.435	37.673	0.140	0.124
-484.420	-49.283	0.840	-0.401
-483.405	44.240	-0.131	0.120
-482.391	176.340	-0.275	0.400
-481.376	-41.312	0.559	0.288
-480.362	-64.891	0.250	0.101
-479.347	-200.000	0.121	1.048
-478.332	800.000	-0.194	-0.702
-477.318	-118.516	0.152	0.027
-476.303	107.597	0.341	0.405
-475.289	-200.000	0.061	0.369
-474.274	-157.365	0.171	0.010
-473.259	-102.404	0.595	-0.143
-472.245	197.382	0.272	0.415
-471.230	-41.186	0.195	0.101
-470.216	-46.325	0.166	-0.081
-469.201	-200.000	0.031	0.444
-468.186	328.540	0.248	-0.475
-467.172	-57.672	-0.575	-0.252
-466.157	-200.000	-0.047	0.255
-465.143	-28.033	-0.585	0.338
-464.128	-134.889	-0.447	-0.054
-463.113	253.303	0.277	0.473
-462.099	26.137	0.748	0.624
-461.084	-131.303	0.478	-0.063
-460.070	-1.072	0.554	-0.391
-459.055	-115.493	0.676	0.127
-458.040	193.167	-0.149	-0.225
-457.026	724.221	-0.013	0.035
-456.011	-25.572	-0.677	-0.399
-454.997	-107.610	0.226	0.049
-453.982	417.165	-0.190	0.406
-452.968	-146.650	-0.759	-0.066
-451.953	-200.000	-0.037	0.353
-450.938	57.139	-0.660	-0.643
-449.924	-11.044	0.305	-0.201
-448.909	800.000	0.155	0.486
-447.895	-83.021	1.077	-0.346
-446.880	-116.643	0.112	-0.021
-445.865	-200.000	-0.104	-0.667
-444.851	-200.000	-0.006	-0.802
-443.836	630.379	-0.157	-0.396
-442.822	-46.297	0.571	-0.280
-441.807	-200.000	0.094	0.432
-440.792	230.142	-0.105	0.171
-439.778	355.361	0.237	-0.471
-438.763	-5.985	0.444	0.303
-437.749	-18.272	0.858	-0.535
-436.734	118.181	0.522	-0.642
-435.719	-76.260	0.482	-0.169
-434.705	-200.000	0.071	0.884
-433.690	603.164	-0.182	-0.452
-432.676	-92.191	-0.236	-0.066
-431.661	-153.997	-0.694	-0.047
-430.646	-200.000	-0.047	0.693
-429.632	-50.888	-0.296	0.139
-428.617	167.783	0.513	-0.727
-427.603	7.740	0.726	0.543
-426.588	120.581	0.521	-0.645
-425.573	-59.689	0.578	-0.247
-424.559	-200.000	-0.121	-1.050
-423.544	373.718	0.301	0.611
-422.530	512.517	-0.079	-0.184
-421.515	-200.000	-0.019	-0.271
-420.500	-62.184	-0.237	0.098
-419.486	800.000	0.128	-0.507
-418.471	-65.455	0.557	0.223
-417.457	-200.000	0.020	-0.103
-416.442	-200.000	-0.038	-0.242
-415.428	-113.291	0.372	0.073
-414.413	76.038	-0.544	-0.574
-413.398	333.276	0.271	-0.523
-412.384	131.671	-0.381	-0.488
-411.369	37.890	0.406	-0.360
-410.355	-65.365	0.081	0.033
-409.340	194.416	0.258	-0.391
-408.325	800.000	0.171	0.737
-407.311	-95.957	-0.497	0.132
-406.296	464.105	0.179	0.398
-405.282	800.000	0.078	0.219
-404.267	-200.000	-0.033	0.262
-403.252	-200.000	0.091	1.081
-402.238	800.000	-0.187	0.712
-401.223	-200.000	0.008	0.077
-400.209	-11.840	-0.864	0.565
-399.194	-200.000	-0.143	0.692
-398.179	-50.543	-0.278	0.131
-397.165	-119.738	0.304	-0.052
-396.150	73.325	-0.428	-0.446
-395.136	73.246	0.286	-0.299
-394.121	-10.716	-0.366	0.241
-393.106	800.000	0.028	-0.086
-392.092	-122.136	-0.503	-0.082
-391.077	800.000	0.267	1.015
-390.063	53.651	-0.832	0.796
-389.048	-200.000	-0.020	0.538
-388.033	84.784	0.270	0.295
-387.019	26.288	-0.427	-0.355
-386.004	21.657	-0.475	0.385
-384.990	42.676	0.402	-0.365
-383.975	616.005	-0.198	-0.494
-382.960	-109.208	0.366	0.077
-381.946	-200.000	-0.062	0.422
-380.931	800.000	0.256	-0.745
-379.917	-69.560	-1.044	0.398
-378.902	-128.442	-0.413	0.058
-377.888	-166.478	-0.759	-0.032
-376.873	-200.000	0.014	-0.078
-375.858	-200.000	0.029	-0.280
-374.844	-37.640	0.239	-0.127
-373.829	-4.496	-0.469	-0.323
-372.815	56.336	-0.162	-0.157
-371.800	50.899	0.257	-0.242
-370.785	88.923	-0.637	-0.706
-369.771	20.734	0.345	0.278
-368.756	-183.409	-0.307	-0.005
-367.742	-150.590	0.661	0.050
-366.727	52.762	0.406	0.386
-365.712	291.338	0.073	0.132
-364.698	-200.000	0.138	-1.190
-363.683	124.205	0.164	0.205
-362.669	429.614	0.265	0.571
-361.654	-14.096	-0.764	-0.491
-360.639	58.552	-0.338	0.330
-359.625	115.016	0.242	0.293
-358.610	406.099	-0.389	-0.817
-357.596	615.102	-0.217	0.541
-356.581	177.450	0.157	-0.228
-355.566	51.452	0.305	0.289
-354.552	39.535	-0.367	0.327
-353.537	800.000	-0.075	0.304
-352.523	384.930	0.238	0.488
-351.508	-17.997	0.789	0.492
-350.493	-109.451	-0.371	-0.078
-349.479	310.070	-0.150	-0.279
-348.464	800.000	0.270	0.826
-347.450	-200.000	-0.084	0.487
-346.435	780.100	0.082	0.224
-345.420	35.526	0.507	0.442
-344.406	228.868	0.102	0.166
-343.391	7.393	-0.174	0.129
-342.377	800.000	-0.215	0.914
-341.362	-200.000	0.100	-0.868
-340.348	-33.179	0.527	-0.290
-339.333	800.000	-0.110	0.439
-338.318	168.913	-0.378	-0.536
-337.304	168.173	-0.041	-0.059
-336.289	227.136	0.273	-0.440
-335.275	77.148	-0.186	-0.196
-334.260	800.000	-0.228	0.691
-333.245	-128.914	0.674	-0.094
-332.231	387.705	0.157	0.322
-331.216	-78.854	0.085	-0.029
-330.202	-48.521	0.848	0.405
-329.187	35.646	0.138	-0.120
-328.172	-54.683	0.196	-0.088
-327.158	-200.000	0.148	-0.762
-326.143	-159.942	0.496	0.027
-325.129	-90.131	0.406	0.118
-324.114	92.262	-0.389	-0.436
-323.099	297.675	0.298	-0.543
-322.085	105.094	-0.294	-0.345
-321.070	-75.926	-0.089	0.031
-320.056	35.764	0.280	-0.244
-319.041	-35.449	0.404	-0.218
-318.026	227.458	-0.290	-0.468
-317.012	-52.226	0.470	0.217
-315.997	-157.121	-1.240	-0.075
-314.983	-141.233	-0.457	-0.046
-313.968	68.031	-0.319	-0.324
-312.953	735.546	0.410	-1.092
-311.939	355.319	0.157	-0.310
-310.924	-36.930	-0.564	0.301
-309.910	-89.546	0.328	-0.096
-308.895	-112.876	-0.500	0.098
-307.880	-111.570	-0.937	0.189
-306.866	-12.955	-0.931	0.602
-305.851	800.000	0.247	1.021
-304.837	-49.022	0.203	0.096
-303.822	12.607	0.234	-0.179
-302.807	800.000	-0.093	-0.306
-301.793	103.202	-0.302	0.352
-300.778	37.911	-0.172	0.152
-299.764	-119.815	1.313	-0.225
-298.749	-72.986	-0.961	-0.351
-297.735	189.065	-0.574	0.854
-296.720	-200.000	-0.000	-0.080
-295.705	167.774	0.362	0.512
-294.691	-73.275	-0.459	0.167
-293.676	800.000	-0.224	-0.624
-292.662	735.205	-0.229	0.610
-291.647	208.790	-0.294	0.456
-290.632	-22.565	0.822	-0.493
-289.618	-68.382	-0.338	-0.130
-288.603	508.367	-0.157	-0.361
-287.589	550.160	0.255	-0.607
-286.574	-17.202	0.499	-0.312
-285.559	267.962	-0.247	0.429
-284.545	297.250	0.270	-0.492
-283.530	164.087	0.151	-0.212
-282.516	118.022	0.442	0.541
-281.501	-155.672	1.083	-0.069
-280.486	-200.000	0.008	-0.486
-279.472	458.082	0.090	-0.198
-278.457	-150.607	-1.129	-0.086
-277.443	-200.000	0.045	0.238
-276.428	302.217	-0.496	-0.909
-275.413	-18.898	-0.619	-0.382
-274.399	-89.758	-0.530	0.154
-273.384	405.143	-0.432	0.903
-272.370	-100.245	-0.051	0.013
-271.355	179.287	0.254	0.368
-270.340	-41.244	0.407	0.208
-269.326	800.000	-0.346	-0.960
-268.311	-200.000	-0.041	0.456
-267.297	-103.025	-0.542	-0.127
-266.282	190.032	0.117	0.173
-265.267	106.451	-0.089	0.104
-264.253	-122.715	-0.189	-0.030
-263.238	-137.873	-0.967	-0.107
-262.224	360.276	0.299	-0.594
-261.209	-62.618	1.150	-0.473
-260.195	188.956	-0.122	-0.181
-259.180	-105.506	0.155	0.035
-258.165	-200.000	0.058	-0.255
-257.151	800.000	0.090	0.304
-256.136	184.796	-0.101	0.148
-255.122	178.734	0.573	-0.829
-254.107	45.878	-0.234	0.214
-253.092	-55.158	-0.377	-0.168
-252.078	70.026	0.275	-0.281
-251.063	208.065	0.274	0.424
-250.049	-74.562	0.606	-0.216
-249.034	-154.902	0.121	-0.008
-248.019	134.999	0.270	-0.348
-247.005	800.000	0.234	0.710
-245.990	-200.000	-0.057	0.268
-244.976	554.417	0.162	-0.385
-243.961	133.577	0.274	-0.351
-242.946	-13.651	-0.460	0.295
-241.932	-68.349	0.145	0.056
-240.917	-159.828	-0.475	0.026
-239.903	-105.454	-0.340	-0.077
-238.888	296.940	0.415	0.753
-237.873	800.000	-0.056	-0.205
-236.859	-79.363	0.306	-0.103
-235.844	-69.880	0.676	-0.255
-234.830	12.169	-0.325	0.248
-233.815	-0.607	0.464	-0.326
-232.800	-200.000	-0.067	0.542
-231.786	284.487	-0.229	-0.408
-230.771	75.714	-0.404	-0.423
-229.757	-113.945	-0.814	-0.156
-228.742	-200.000	0.053	0.487
-227.727	570.204	0.313	-0.753
-226.713	-125.271	-0.208	0.031
-225.698	120.183	0.344	-0.422
-224.684	411.961	0.350	-0.736
-223.669	-97.421	0.228	-0.059
-222.655	-63.261	-1.185	-0.483
-221.640	-200.000	-0.136	1.598
-220.625	-108.099	0.492	0.106
-219.611	640.956	-0.145	0.365
-218.596	325.667	0.411	-0.777
-217.582	-200.000	-0.108	-0.810
-216.567	137.376	-0.555	0.718
-215.552	127.593	0.168	0.211
-214.538	-132.322	0.631	-0.081
-213.523	364.937	0.153	-0.305
-212.509	-108.489	0.301	0.064
-211.494	-200.000	0.156	0.857
-210.479	-86.437	0.588	-0.179
-209.465	100.002	0.114	0.131
-208.450	-143.911	-0.327	0.031
-207.436	787.106	0.226	-0.614
-206.421	-67.528	-0.688	-0.267
-205.406	231.587	-0.417	-0.676
-204.392	-37.948	0.122	-0.064
-203.377	-200.000	0.119	0.657
-202.363	587.143	-0.316	0.768
-201.348	-154.908	-0.208	-0.014
-200.333	-51.573	0.704	-0.325
-199.319	177.348	0.158	0.228
-198.304	-96.711	-0.324	-0.084
-197.290	65.726	0.616	0.618
-196.275	-200.000	0.123	-1.192
-195.260	-98.254	0.519	-0.132
-194.246	164.324	0.039	0.055
-193.231	183.475	0.221	0.323
-192.217	332.515	-0.254	-0.485
-191.202	452.083	0.231	-0.504
-190.187	164.806	-0.238	0.333
-189.173	-46.757	-0.557	-0.269
-188.158	5.636	0.157	-0.115
-187.144	-105.244	-0.278	0.063
-186.129	-200.000	-0.045	0.582
-185.114	-70.731	-0.172	-0.064
-184.100	-200.000	0.079	-0.367
-183.085	-89.678	0.541	-0.157
-182.071	724.361	-0.213	-0.561
-181.056	-200.000	0.047	1.199
-180.042	-200.000	-0.113	-0.539
-179.027	21.101	-0.152	-0.122
-178.012	-113.047	-0.091	-0.018
-176.998	444.812	-0.140	0.304
-175.983	60.997	0.614	-0.602
-174.969	19.812	-0.768	-0.611
-173.954	-88.420	-0.366	0.108
-172.939	-138.664	-0.968	0.105
-171.925	-134.347	0.904	0.110
-170.910	-170.347	-0.424	0.015
-169.896	-6.707	0.526	0.354
-168.881	-113.155	0.680	0.132
-167.866	-24.050	-0.641	0.378
-166.852	14.731	0.619	-0.478
-165.837	-200.000	-0.069	-0.456
-164.823	-109.256	-0.358	0.075
-163.808	-60.980	1.338	-0.558
-162.793	176.841	0.300	0.431
-161.779	-200.000	0.065	-0.286
-160.764	53.225	-0.636	-0.601
-159.750	-116.557	-0.809	-0.147
-158.735	-61.265	0.308	-0.128
-157.720	-1.838	0.150	0.104
-156.706	72.126	0.487	0.500
-155.691	800.000	0.150	-0.489
-154.677	-155.936	0.181	0.011
-153.662	555.281	-0.182	-0.432
-152.647	281.559	-0.078	0.138
-151.633	800.000	0.190	-0.518
-150.618	-17.507	-0.356	0.221
-149.604	23.623	-0.601	-0.488
-148.589	-103.512	0.146	-0.034
-147.574	424.537	-0.301	0.638
-146.560	-200.000	-0.153	0.695
-145.545	-25.963	0.701	-0.407
-144.531	-33.270	0.642	0.351
-143.516	800.000	-0.134	-0.416
-142.502	-90.427	-0.427	-0.122
-141.487	56.364	-0.245	0.235
-140.472	-200.000	0.077	0.381
-139.458	-136.867	-0.440	-0.050
-138.443	-200.000	-0.143	1.229
-137.429	-33.444	-0.393	0.214
-136.414	800.000	-0.164	-0.541
-135.399	-200.000	0.024	0.293
-134.385	-71.377	0.926	-0.342
-133.370	95.198	0.278	0.313
-132.356	180.988	-0.570	0.825
-131.341	208.224	-0.064	0.099
-130.326	-61.339	0.187	-0.077
-129.312	-200.000	0.003	0.181
-128.297	96.190	0.633	0.713
-127.283	-60.542	0.520	-0.218
-126.268	800.000	0.080	-0.217
-125.253	-25.631	0.452	0.263
-124.239	-91.350	-0.309	-0.087
-123.224	409.091	-0.261	0.544
-122.210	-200.000	0.117	0.540
-121.195	27.460	-0.396	-0.328
