DTS Sentinel unit serial number:	SN413079Multiplexer serial number:	ORYXHardware model number:	OX4-SRSoftware version number:	ORYX F/W v4.00 Oryx Data Collector v3.7.2.0data status	okinstallation	princeton_trtdifferential loss correction	single-endedforward channel	channel 1reverse channel	N/Adate	2019/09/19time	08:42:35forward acquisition time	60.00reverse acquisition time	0.00gamma	496.2192k internal	0.2343k external	0.2343temperature offset calibration	1.0006default loss term (dB/km)	0.3790temperature slope calibration	1.0000multiplexer offset coefficient	1.0000multiplexer slope coefficient	1.0000fibre end	0.00T internal ref (°C)	20.98T ext. ref 1 (°C)	0.58T ext. ref 2 (°C)	16.57length (m)	temperature (°C)	Stokes	anti-Stokes-747.200	-55.369	-0.168	-0.076
-746.185	18.409	0.067	0.053
-745.171	-52.835	0.285	0.132
-744.156	-152.694	-0.084	-0.006
-743.142	-187.687	-0.065	-0.001
-742.127	223.869	0.065	0.105
-741.112	-12.394	-0.378	0.247
-740.098	800.000	-0.076	0.285
-739.083	141.554	0.213	-0.283
-738.069	126.843	0.310	0.393
-737.054	401.377	-0.088	-0.186
-736.039	-54.061	-0.308	-0.140
-735.025	276.996	0.155	0.276
-734.010	312.506	0.205	0.385
-732.996	25.559	0.333	-0.277
-731.981	-80.221	-0.160	0.054
-730.966	-76.569	-0.429	-0.151
-729.952	-152.240	-0.157	-0.011
-728.937	-200.000	-0.041	0.453
-727.923	-82.101	-0.049	0.016
-726.908	-28.902	0.124	-0.071
-725.894	-200.000	0.034	-0.284
-724.879	52.234	0.051	0.048
-723.864	154.272	0.010	-0.014
-722.850	377.055	-0.151	-0.310
-721.835	26.158	-0.175	-0.146
-720.821	256.538	0.246	-0.423
-719.806	290.090	-0.160	-0.291
-718.791	206.893	-0.225	-0.351
-717.777	110.313	0.092	0.111
-716.762	25.765	0.136	-0.114
-715.748	690.663	0.095	0.248
-714.733	-200.000	-0.007	0.061
-713.718	421.419	0.064	-0.137
-712.704	800.000	-0.068	-0.219
-711.689	425.098	0.081	-0.174
-710.675	-81.021	-0.263	-0.087
-709.660	250.269	0.058	0.098
-708.645	-79.151	0.229	-0.078
-707.631	83.893	-0.188	-0.205
-706.616	800.000	0.086	-0.281
-705.602	25.205	-0.200	-0.166
-704.587	-114.676	0.169	0.032
-703.572	-167.227	0.046	0.002
-702.558	-62.420	-0.352	0.146
-701.543	800.000	0.036	0.111
-700.529	-109.825	-0.035	-0.007
-699.514	455.874	0.202	-0.447
-698.499	54.231	0.255	-0.245
-697.485	-200.000	-0.054	-0.247
-696.470	-130.046	-0.450	-0.062
-695.456	23.096	-0.116	-0.095
-694.441	108.628	0.070	-0.084
-693.426	195.128	-0.066	0.100
-692.412	800.000	-0.045	-0.165
-691.397	-108.733	0.159	-0.034
-690.383	-200.000	-0.001	0.015
-689.368	10.944	-0.177	0.135
-688.354	41.868	0.165	0.150
-687.339	-115.757	-0.245	0.046
-686.324	5.960	-0.146	0.108
-685.310	257.814	-0.129	-0.222
-684.295	-25.702	-0.334	0.197
-683.281	-72.483	0.033	-0.012
-682.266	252.381	-0.211	0.360
-681.251	-200.000	0.028	0.141
-680.237	269.339	-0.072	-0.126
-679.222	-101.869	0.091	-0.022
-678.208	184.725	-0.037	-0.055
-677.193	-123.349	-0.198	-0.032
-676.178	-31.382	-0.396	-0.222
-675.164	800.000	0.026	0.101
-674.149	90.150	-0.158	-0.176
-673.135	-200.000	0.023	0.244
-672.120	-157.550	-0.187	0.011
-671.105	21.993	-0.014	0.012
-670.091	479.470	0.054	-0.122
-669.076	-150.376	0.105	0.008
-668.062	94.589	0.286	-0.325
-667.047	-71.774	0.208	0.077
-666.032	-112.935	-0.147	0.029
-665.018	28.900	0.280	-0.237
-664.003	-147.381	-0.341	0.029
-662.989	431.154	-0.044	0.094
-661.974	-5.808	0.095	-0.065
-660.959	70.384	-0.206	-0.213
-659.945	361.444	-0.123	-0.245
-658.930	-99.389	0.349	-0.088
-657.916	-27.145	-0.192	0.112
-656.901	-25.961	-0.382	-0.224
-655.886	-200.000	-0.027	0.220
-654.872	-86.008	0.357	0.110
-653.857	-200.000	0.026	0.194
-652.843	308.684	-0.134	-0.250
-651.828	548.843	0.157	-0.376
-650.814	-68.880	-0.152	0.059
-649.799	-125.634	0.153	0.023
-648.784	-49.295	0.352	0.168
-647.770	800.000	-0.069	0.247
-646.755	-100.152	-0.107	0.027
-645.741	242.270	0.165	-0.276
-644.726	-86.679	-0.054	-0.016
-643.711	-125.486	0.231	0.035
-642.697	45.009	0.053	-0.049
-641.682	327.021	0.108	-0.206
-640.668	-111.574	0.390	0.079
-639.653	800.000	0.113	-0.355
-638.638	800.000	0.068	0.191
-637.624	133.740	-0.003	-0.004
-636.609	140.743	-0.258	0.341
-635.595	800.000	-0.036	0.132
-634.580	-27.748	0.532	-0.308
-633.565	84.070	0.081	-0.089
-632.551	800.000	0.051	0.198
-631.536	-83.006	0.015	-0.005
-630.522	40.873	0.236	0.212
-629.507	-200.000	-0.015	0.247
-628.492	238.303	-0.175	0.289
-627.478	800.000	-0.012	-0.035
-626.463	236.040	0.059	-0.098
-625.449	-0.630	0.108	0.076
-624.434	-200.000	0.002	0.042
-623.419	-200.000	-0.031	-0.150
-622.405	-52.337	-0.245	0.113
-621.390	14.098	0.133	-0.103
-620.376	-99.887	-0.124	0.031
-619.361	-128.391	-0.043	0.006
-618.346	469.875	-0.047	-0.106
-617.332	-25.184	-0.403	-0.238
-616.317	800.000	0.113	-0.385
-615.303	-45.843	0.125	0.061
-614.288	-61.348	-0.012	0.005
-613.273	-151.529	-0.252	0.019
-612.259	800.000	0.073	-0.304
-611.244	800.000	-0.075	-0.227
-610.230	199.439	-0.145	0.222
-609.215	290.208	0.157	0.284
-608.201	155.748	0.076	-0.105
-607.186	-35.269	0.128	-0.070
-606.171	-200.000	0.015	-0.099
-605.157	-148.389	-0.313	-0.026
-604.142	613.677	-0.021	-0.053
-603.128	18.587	-0.099	0.079
-602.113	52.968	0.018	0.018
-601.098	-155.006	-0.162	0.011
-600.084	-172.429	-0.045	0.001
-599.069	-93.465	-0.212	0.058
-598.055	-37.374	0.169	-0.090
-597.040	35.400	0.147	0.129
-596.025	676.837	0.069	0.177
-595.011	-57.874	-0.436	-0.190
-593.996	686.167	-0.111	0.289
-592.982	800.000	-0.024	-0.091
-591.967	275.633	0.214	0.377
-590.952	114.975	0.039	-0.048
-589.938	-200.000	0.053	-0.000
-588.923	211.832	0.100	-0.156
-587.909	-35.681	0.130	-0.070
-586.894	800.000	0.066	-0.227
-585.879	-83.066	-0.160	0.051
-584.865	-99.872	0.182	0.045
-583.850	-11.415	-0.051	0.033
-582.836	-200.000	-0.069	-0.392
-581.821	-19.815	0.129	-0.079
-580.806	-200.000	-0.010	0.244
-579.792	-154.761	-0.345	-0.023
-578.777	-4.865	-0.181	0.124
-577.763	163.756	-0.215	0.302
-576.748	240.256	-0.018	-0.029
-575.733	-36.235	-0.102	0.055
-574.719	230.538	0.123	-0.200
-573.704	-200.000	-0.008	-0.058
-572.690	800.000	0.064	0.274
-571.675	-148.968	-0.236	-0.019
-570.661	-156.759	0.167	0.010
-569.646	800.000	0.067	-0.222
-568.631	-141.823	-0.351	-0.035
-567.617	-200.000	0.025	0.285
-566.602	-200.000	-0.032	-0.195
-565.588	-139.079	0.337	-0.036
-564.573	-53.655	0.079	-0.036
-563.558	193.744	0.091	-0.137
-562.544	-200.000	-0.006	-0.037
-561.529	-180.965	0.116	0.002
-560.515	-145.603	-0.145	0.013
-559.500	54.238	-0.137	0.131
-558.485	254.681	-0.039	0.067
-557.471	90.836	0.292	0.326
-556.456	-1.973	-0.034	-0.024
-555.442	35.809	-0.188	-0.165
-554.427	-89.077	-0.234	0.069
-553.412	256.070	-0.066	-0.113
-552.398	89.564	0.128	-0.142
-551.383	-109.076	0.063	0.013
-550.369	-14.090	0.013	-0.008
-549.354	366.661	-0.133	-0.266
-548.339	-51.754	-0.015	0.007
-547.325	-67.636	0.158	0.061
-546.310	-200.000	-0.068	-0.500
-545.296	-136.853	0.165	-0.019
-544.281	-197.578	-0.285	-0.002
-543.266	-200.000	-0.003	0.035
-542.252	-75.969	-0.331	-0.116
-541.237	800.000	-0.026	-0.107
-540.223	-45.510	0.249	-0.122
-539.208	-120.391	-0.176	-0.030
-538.193	-200.000	-0.011	0.052
-537.179	620.036	-0.137	0.341
-536.164	338.301	0.102	-0.198
-535.150	-200.000	0.026	-0.253
-534.135	-68.974	0.247	0.095
-533.121	59.861	0.183	0.179
-532.106	82.388	0.164	-0.177
-531.091	-200.000	-0.017	0.098
-530.077	-184.599	0.187	0.003
-529.062	-16.832	0.123	0.078
-528.048	-111.047	-0.108	-0.022
-527.033	-31.322	-0.145	-0.081
-526.018	345.707	-0.063	0.124
-525.004	-85.106	-0.320	0.099
-523.989	-25.536	0.145	0.085
-522.975	-200.000	-0.017	-0.095
-521.960	-135.872	-0.146	0.017
-520.945	-200.000	-0.038	-0.230
-519.931	-200.000	-0.011	-0.224
-518.916	-200.000	0.000	0.147
-517.902	12.993	-0.216	0.166
-516.887	-90.643	-0.391	-0.112
-515.872	-66.014	-0.120	-0.048
-514.858	-200.000	0.010	-0.175
-513.843	-77.748	-0.133	-0.046
-512.829	-91.194	-0.045	0.013
-511.814	163.777	0.203	-0.284
-510.799	27.153	0.209	-0.174
-509.785	-85.450	-0.126	-0.039
-508.770	-95.466	0.264	0.070
-507.756	-200.000	0.018	-0.095
-506.741	-200.000	-0.013	-0.190
-505.726	-200.000	0.000	0.061
-504.712	16.523	-0.296	-0.232
-503.697	33.554	-0.314	0.270
-502.683	25.617	0.106	-0.088
-501.668	81.525	-0.306	0.329
-500.653	-42.909	0.274	-0.138
-499.639	-56.755	-0.151	-0.066
-498.624	-200.000	0.065	-0.682
-497.610	138.930	0.182	-0.238
-496.595	-200.000	0.006	-0.323
-495.581	800.000	-0.038	0.113
-494.566	234.596	0.129	0.212
-493.551	-200.000	0.034	0.242
-492.537	800.000	0.130	0.544
-491.522	-200.000	-0.232	-0.000
-490.508	118.949	-0.403	-0.494
-489.493	800.000	-0.090	-0.265
-488.478	137.463	-0.164	0.212
-487.464	570.149	0.124	-0.298
-486.449	800.000	-0.031	0.102
-485.435	407.560	0.104	-0.218
-484.420	673.584	0.095	-0.244
-483.405	800.000	-0.078	-0.233
-482.391	4.432	0.097	-0.071
-481.376	-200.000	0.048	0.267
-480.362	-200.000	0.018	-0.130
-479.347	75.521	-0.196	0.205
-478.332	-200.000	0.033	0.276
-477.318	45.513	-0.041	-0.037
-476.303	130.131	0.075	-0.095
-475.289	98.778	0.094	-0.107
-474.274	205.443	-0.181	-0.279
-473.259	-200.000	0.026	0.211
-472.245	390.746	0.192	-0.395
-471.230	-82.411	-0.116	-0.037
-470.216	420.283	0.082	0.174
-469.201	66.846	-0.107	0.108
-468.186	52.808	0.253	-0.239
-467.172	-200.000	-0.009	0.177
-466.157	-183.857	0.189	-0.003
-465.143	26.621	0.336	0.279
-464.128	-98.094	-0.150	0.038
-463.113	367.688	0.087	0.175
-462.099	-200.000	-0.016	0.304
-461.084	181.072	-0.278	-0.405
-460.070	361.342	-0.014	0.028
-459.055	-48.174	0.093	-0.044
-458.040	800.000	0.061	0.226
-457.026	800.000	0.013	0.040
-456.011	800.000	-0.088	0.279
-454.997	-200.000	0.056	-0.296
-453.982	-200.000	-0.026	-0.167
-452.968	45.465	-0.230	-0.210
-451.953	800.000	0.097	-0.280
-450.938	167.436	-0.178	-0.250
-449.924	37.044	-0.089	-0.078
-448.909	-68.066	-0.269	-0.104
-447.895	-105.198	0.174	-0.039
-446.880	-0.645	-0.244	0.172
-445.865	360.621	0.020	0.039
-444.851	174.362	0.156	0.223
-443.836	-195.415	-0.417	0.003
-442.822	-60.165	0.337	0.142
-441.807	-117.888	-0.202	0.036
-440.792	-152.480	-0.369	-0.026
-439.778	52.779	-0.047	-0.044
-438.763	108.162	-0.039	-0.046
-437.749	36.476	-0.400	0.350
-436.734	128.263	-0.051	-0.064
-435.719	89.362	0.130	0.143
-434.705	40.622	0.302	0.269
-433.690	-78.501	-0.196	0.067
-432.676	26.453	0.155	-0.128
-431.661	98.237	0.144	-0.164
-430.646	-88.537	0.187	-0.055
-429.632	26.221	0.159	0.132
-428.617	-116.383	0.136	0.025
-427.603	-86.120	-0.229	-0.070
-426.588	-67.045	0.376	-0.147
-425.573	-200.000	-0.069	-0.370
-424.559	-200.000	0.017	0.122
-423.544	100.217	0.088	0.101
-422.530	37.488	-0.217	-0.191
-421.515	-82.024	0.127	0.041
-420.500	-40.950	0.188	0.096
-419.486	56.624	0.235	-0.226
-418.471	-131.488	-0.143	-0.019
-417.457	-19.835	0.034	-0.021
-416.442	-15.018	-0.077	-0.049
-415.428	284.632	-0.122	0.217
-414.413	-78.448	-0.132	-0.045
-413.398	37.134	0.256	0.224
-412.384	174.657	-0.187	-0.268
-411.369	-32.537	-0.129	-0.071
-410.355	57.432	0.007	0.007
-409.340	135.619	-0.043	-0.055
-408.325	548.360	0.048	-0.114
-407.311	-200.000	-0.027	0.237
-406.296	-118.767	-0.372	0.065
-405.282	70.734	-0.116	-0.119
-404.267	-27.914	-0.213	0.122
-403.252	249.551	0.030	0.051
-402.238	-138.299	0.303	0.033
-401.223	714.580	0.016	-0.043
-400.209	663.120	-0.053	0.135
-399.194	11.946	0.115	-0.088
-398.179	-121.724	-0.244	0.040
-397.165	800.000	-0.009	0.024
-396.150	-74.003	0.416	-0.149
-395.136	323.065	0.146	0.275
-394.121	43.845	0.133	0.120
-393.106	800.000	0.073	-0.240
-392.092	800.000	-0.051	0.189
-391.077	230.800	-0.216	-0.350
-390.063	-109.646	-0.203	0.042
-389.048	-200.000	0.087	0.464
-388.033	800.000	0.067	-0.217
-387.019	124.394	-0.077	-0.096
-386.004	23.071	-0.127	0.103
-384.990	-23.330	0.145	-0.086
-383.975	800.000	-0.014	0.048
-382.960	38.435	0.045	-0.039
-381.946	54.808	-0.061	-0.058
-380.931	194.713	0.171	0.257
-379.917	14.785	0.217	-0.167
-378.902	800.000	-0.121	-0.401
-377.888	-58.985	0.241	-0.103
-376.873	181.343	0.050	-0.072
-375.858	-181.758	0.178	-0.003
-374.844	-47.069	-0.201	-0.097
-373.829	169.655	0.056	-0.079
-372.815	-27.870	0.248	0.142
-371.800	-59.398	0.102	-0.043
-370.785	-11.781	-0.301	-0.195
-369.771	-50.370	-0.277	0.129
-368.756	800.000	-0.053	0.145
-367.742	101.652	-0.088	0.101
-366.727	113.847	-0.051	-0.061
-365.712	-37.260	0.169	0.089
-364.698	604.216	-0.018	-0.044
-363.683	45.794	-0.071	0.064
-362.669	-44.407	0.129	-0.064
-361.654	17.728	-0.028	-0.022
-360.639	71.750	-0.187	-0.191
-359.625	2.848	0.486	-0.348
-358.610	12.963	0.165	-0.126
-357.596	-11.693	0.225	0.146
-356.581	25.435	-0.318	0.261
-355.566	800.000	-0.020	-0.083
-354.552	-35.676	0.117	0.063
-353.537	135.284	-0.113	0.144
-352.523	-85.310	-0.287	-0.088
-351.508	-79.116	0.344	0.115
-350.493	800.000	-0.101	-0.317
-349.479	-2.896	0.138	0.095
-348.464	-200.000	-0.052	0.259
-347.450	43.876	0.107	-0.097
-346.435	-200.000	0.009	-0.188
-345.420	800.000	0.049	0.195
-344.406	137.290	0.052	0.067
-343.391	800.000	0.090	-0.268
-342.377	-46.045	0.500	-0.243
-341.362	-155.599	0.113	0.007
-340.348	-99.504	-0.464	0.115
-339.333	-200.000	0.004	0.222
-338.318	-138.616	0.047	-0.005
-337.304	-200.000	0.022	-0.304
-336.289	-195.605	-0.173	-0.001
-335.275	-91.483	0.231	0.065
-334.260	-130.124	0.235	0.032
-333.245	-23.698	-0.342	0.202
-332.231	800.000	0.068	-0.278
-331.216	149.766	-0.209	-0.279
-330.202	-33.415	0.096	-0.053
-329.187	800.000	0.084	-0.277
-328.172	-118.778	-0.084	0.015
-327.158	92.992	-0.207	0.231
-326.143	11.434	0.330	-0.249
-325.129	800.000	0.141	0.502
-324.114	217.265	-0.123	0.193
-323.099	-200.000	-0.013	-0.184
-322.085	246.588	-0.106	0.176
-321.070	59.944	-0.076	0.073
-320.056	800.000	-0.067	-0.199
-319.041	21.488	0.181	0.145
-318.026	705.914	0.011	-0.030
-317.012	196.001	0.060	0.090
-315.997	-66.161	-0.217	0.085
-314.983	-183.286	0.355	0.006
-313.968	-200.000	-0.020	0.123
-312.953	800.000	0.051	0.150
-311.939	-102.354	0.213	-0.050
-310.924	-135.563	-0.347	0.041
-309.910	-156.449	0.153	-0.009
-308.895	-76.306	-0.049	-0.017
-307.880	-162.103	-0.034	-0.002
-306.866	591.266	0.189	0.459
-305.851	793.736	-0.086	-0.232
-304.837	1.706	0.057	0.040
-303.822	0.213	-0.237	0.166
-302.807	-30.375	0.361	-0.201
-301.793	-116.332	-0.129	-0.023
-300.778	-95.230	-0.061	0.016
-299.764	163.910	-0.134	-0.185
-298.749	-111.061	0.162	0.033
-297.735	100.268	-0.136	0.156
-296.720	381.229	0.033	0.066
-295.705	331.749	-0.072	0.137
-294.691	73.593	0.089	0.092
-293.676	-73.883	-0.378	-0.135
-292.662	110.941	0.075	-0.089
-291.647	57.666	0.066	-0.064
-290.632	502.754	0.125	-0.284
-289.618	-200.000	0.074	0.373
-288.603	25.280	0.232	-0.190
-287.589	128.354	-0.032	-0.040
-286.574	-32.022	0.346	0.191
-285.559	-29.292	0.213	-0.120
-284.545	56.643	-0.426	-0.408
-283.530	-200.000	-0.077	0.461
-282.516	575.885	0.139	0.335
-281.501	-200.000	0.013	-0.122
-280.486	381.320	-0.224	0.452
-279.472	-200.000	-0.049	0.223
-278.457	-22.110	-0.037	0.022
-277.443	-172.275	0.224	0.007
-276.428	-200.000	-0.000	0.160
-275.413	-55.352	0.253	0.112
-274.399	285.655	-0.115	0.203
-273.384	-58.810	0.131	-0.056
-272.370	-130.721	0.132	-0.017
-271.355	210.501	0.191	0.294
-270.340	-200.000	-0.012	-0.190
-269.326	-105.783	-0.335	0.074
-268.311	-131.027	0.298	-0.039
-267.297	-100.046	0.283	0.069
-266.282	-187.542	0.145	-0.002
-265.267	94.635	0.037	0.041
-264.253	800.000	-0.124	0.394
-263.238	-200.000	-0.006	0.102
-262.224	-200.000	-0.052	0.231
-261.209	-127.510	-0.185	-0.026
-260.195	-200.000	0.008	0.361
-259.180	-3.386	0.391	0.268
-258.165	-185.038	-0.065	-0.001
-257.151	-112.060	0.246	-0.049
-256.136	-55.622	-0.333	-0.147
-255.122	151.704	0.176	0.235
-254.107	67.399	-0.190	0.191
-253.092	14.664	0.239	0.183
-252.078	-89.312	-0.314	0.091
-251.063	76.249	0.182	0.189
-250.049	11.583	-0.190	0.143
-249.034	87.747	-0.057	-0.062
-248.019	-54.875	0.180	-0.080
-247.005	8.280	-0.207	0.152
-245.990	51.510	0.312	0.292
-244.976	-86.748	-0.150	-0.045
-243.961	448.395	-0.062	-0.133
-242.946	490.873	0.144	0.323
-241.932	430.375	-0.043	-0.092
-240.917	-176.381	-0.370	0.009
-239.903	-200.000	0.021	-0.128
-238.888	-129.422	-0.315	-0.043
-237.873	-159.124	0.080	-0.004
-236.859	800.000	0.104	-0.284
-235.844	-85.979	0.024	0.007
-234.830	56.298	0.077	-0.074
-233.815	-93.729	-0.206	0.056
-232.800	141.133	0.159	0.207
-231.786	186.871	-0.116	0.169
-230.771	-65.506	0.162	-0.064
-229.757	329.623	-0.155	-0.293
-228.742	91.142	0.114	-0.126
-227.727	24.748	-0.082	-0.067
-226.713	-55.856	-0.117	-0.051
-225.698	-20.898	0.101	0.061
-224.684	4.936	-0.252	0.182
-223.669	113.680	0.264	0.315
-222.655	-27.544	-0.152	0.087
-221.640	-54.497	-0.299	-0.133
-220.625	37.896	0.112	0.098
-219.611	-107.810	0.106	0.023
-218.596	25.079	-0.271	-0.221
-217.582	15.256	0.139	0.107
-216.567	-18.685	0.216	-0.132
-215.552	-200.000	0.011	-0.122
-214.538	26.569	0.127	-0.105
-213.523	-200.000	0.034	-0.174
-212.509	15.485	0.122	-0.094
-211.494	-200.000	0.053	-0.507
-210.479	-134.044	0.092	-0.011
-209.465	-2.184	-0.339	0.233
-208.450	-200.000	0.021	0.442
-207.436	-83.637	-0.299	0.094
-206.421	323.903	-0.199	0.372
-205.406	-97.202	0.260	-0.067
-204.392	-200.000	0.008	-0.201
-203.377	-200.000	-0.035	0.183
-202.363	-84.213	0.042	-0.013
-201.348	596.073	-0.050	-0.120
-200.333	200.362	0.186	-0.280
-199.319	-22.378	0.060	0.035
-198.304	-38.397	-0.171	-0.089
-197.290	-20.729	-0.106	0.064
-196.275	343.005	0.137	-0.263
-195.260	40.131	0.253	0.223
-194.246	326.817	-0.221	0.414
-193.231	-200.000	0.005	-0.092
-192.217	559.867	-0.063	0.148
-191.202	-200.000	-0.015	0.069
-190.187	209.370	-0.113	0.173
-189.173	480.180	0.032	0.072
-188.158	-34.920	-0.296	0.158
-187.144	-200.000	-0.002	-0.149
-186.129	-200.000	0.004	-0.197
-185.114	10.896	-0.024	-0.018
-184.100	-42.431	0.255	0.127
-183.085	-6.129	-0.068	0.046
-182.071	-73.417	-0.057	0.020
-181.056	384.467	-0.120	-0.242
-180.042	134.307	-0.073	-0.093
-179.027	680.389	0.204	0.521
-178.012	-161.992	-0.172	-0.009
-176.998	321.275	0.108	-0.201
-175.983	-96.764	-0.366	-0.094
-174.969	-200.000	0.004	0.072
-173.954	-15.846	0.190	-0.118
-172.939	413.490	-0.092	0.191
-171.925	-101.533	0.181	0.043
-170.910	55.799	0.154	0.146
-169.896	168.728	-0.180	-0.251
-168.881	-84.959	-0.286	-0.088
-167.866	84.191	-0.094	0.100
-166.852	-37.241	-0.425	-0.222
-165.837	-163.577	-0.236	0.011
-164.823	181.388	0.117	0.169
-163.808	38.726	-0.083	0.073
-162.793	56.859	0.181	0.172
-161.779	-153.720	0.250	-0.017
-160.764	54.690	-0.146	-0.138
-159.750	125.988	0.236	-0.292
-158.735	-200.000	0.001	-0.351
-157.720	386.163	0.086	0.173
-156.706	-34.328	0.192	-0.103
-155.691	2.295	-0.256	-0.181
-154.677	435.225	0.225	0.479
-153.662	62.699	0.255	-0.249
-152.647	-32.891	0.195	-0.106
-151.633	800.000	-0.075	-0.231
-150.618	-200.000	-0.022	0.195
-149.604	739.660	-0.086	0.226
-148.589	-40.835	0.322	-0.163
-147.574	512.543	0.102	-0.232
-146.560	248.015	-0.051	-0.085
-145.545	280.668	0.156	0.273
-144.531	-200.000	-0.003	-0.348
-143.516	13.150	0.016	-0.012
-142.502	627.148	-0.102	-0.252
-141.487	215.947	0.047	0.072
-140.472	-200.000	-0.004	0.024
-139.458	-200.000	-0.037	0.189
-138.443	-8.883	-0.069	-0.045
-137.429	-169.141	-0.006	-0.000
-136.414	-42.529	-0.191	-0.095
-135.399	-200.000	-0.009	0.217
-134.385	-200.000	-0.012	0.252
-133.370	-51.818	-0.234	-0.107
-132.356	-123.373	-0.156	-0.024
-131.341	-200.000	0.002	0.117
-130.326	288.459	0.052	-0.092
-129.312	-59.626	-0.195	-0.082
-128.297	444.466	0.147	0.314
-127.283	-154.050	-0.222	-0.015
-126.268	-85.274	0.185	0.057
-125.253	651.781	0.090	-0.226
-124.239	-35.456	0.289	-0.153
-123.224	47.973	-0.149	0.136
-122.210	25.996	-0.264	0.215
-121.195	235.052	0.063	0.102
