DTS Sentinel unit serial number:	SN413079Multiplexer serial number:	ORYXHardware model number:	OX4-SRSoftware version number:	ORYX F/W v4.00 Oryx Data Collector v3.7.2.0data status	okinstallation	princeton_trtdifferential loss correction	single-endedforward channel	channel 1reverse channel	N/Adate	2019/09/19time	11:50:35forward acquisition time	60.00reverse acquisition time	0.00gamma	496.2192k internal	0.2337k external	0.2337temperature offset calibration	1.0011default loss term (dB/km)	0.3790temperature slope calibration	1.0000multiplexer offset coefficient	1.0000multiplexer slope coefficient	1.0000fibre end	0.00T internal ref (°C)	25.81T ext. ref 1 (°C)	0.82T ext. ref 2 (°C)	21.71length (m)	temperature (°C)	Stokes	anti-Stokes-747.200	431.073	-0.191	0.414
-746.185	-41.552	-0.137	0.071
-745.171	-42.960	0.361	-0.184
-744.156	-53.632	-0.329	0.151
-743.142	-200.000	0.055	0.319
-742.127	235.530	-0.123	0.204
-741.112	-200.000	0.032	-0.222
-740.098	184.350	0.032	-0.048
-739.083	-77.393	0.090	0.031
-738.069	800.000	0.103	0.289
-737.054	-30.449	0.230	-0.131
-736.039	-26.657	-0.274	0.161
-735.025	-30.071	-0.360	0.205
-734.010	-200.000	0.068	-0.438
-732.996	-76.321	0.106	0.037
-731.981	800.000	-0.043	0.124
-730.966	-200.000	0.005	-0.048
-729.952	-125.233	-0.235	0.036
-728.937	-39.460	-0.086	-0.045
-727.923	8.229	-0.308	0.232
-726.908	800.000	0.038	0.158
-725.894	-200.000	0.000	-0.320
-724.879	-200.000	-0.020	0.294
-723.864	-89.209	-0.133	-0.039
-722.850	-200.000	-0.005	-0.042
-721.835	-79.034	0.155	-0.053
-720.821	800.000	-0.048	-0.199
-719.806	-3.580	-0.401	-0.280
-718.791	-200.000	-0.016	-0.132
-717.777	112.021	-0.334	-0.405
-716.762	202.550	0.070	-0.108
-715.748	-12.415	0.217	0.142
-714.733	-67.162	-0.346	0.137
-713.718	62.632	0.137	0.137
-712.704	-70.241	-0.225	-0.086
-711.689	-12.531	-0.223	-0.146
-710.675	282.266	0.113	-0.203
-709.660	-99.478	-0.014	-0.004
-708.645	503.453	-0.100	-0.231
-707.631	12.000	0.086	-0.066
-706.616	504.954	0.065	0.151
-705.602	-136.034	0.164	-0.019
-704.587	-129.760	0.247	0.034
-703.572	28.026	0.091	0.077
-702.558	-41.608	0.221	0.114
-701.543	102.653	-0.119	-0.140
-700.529	-43.625	0.139	-0.070
-699.514	-24.962	-0.194	-0.116
-698.499	197.310	0.095	-0.145
-697.485	153.936	-0.318	-0.436
-696.470	287.863	0.074	0.134
-695.456	-125.613	-0.146	0.022
-694.441	60.498	0.149	-0.148
-693.426	-29.226	-0.029	-0.017
-692.412	234.770	-0.112	0.186
-691.397	-24.424	-0.220	-0.131
-690.383	-129.750	0.074	0.010
-689.368	280.225	0.121	-0.216
-688.354	-142.908	0.104	0.010
-687.339	376.902	-0.201	0.412
-686.324	127.803	0.119	0.151
-685.310	-4.427	0.243	-0.168
-684.295	-200.000	0.012	-0.221
-683.281	191.517	-0.105	-0.158
-682.266	0.043	-0.097	0.069
-681.251	-61.973	-0.250	0.104
-680.237	-200.000	-0.241	-0.001
-679.222	-79.733	-0.300	0.101
-678.208	-200.000	0.092	-0.450
-677.193	800.000	-0.030	0.121
-676.178	51.031	-0.111	-0.105
-675.164	445.001	-0.028	0.061
-674.149	68.202	0.148	-0.152
-673.135	-200.000	0.049	-0.239
-672.120	61.962	-0.133	0.132
-671.105	91.879	-0.258	-0.291
-670.091	245.242	-0.100	-0.169
-669.076	-200.000	0.018	0.164
-668.062	78.486	0.229	0.245
-667.047	235.913	0.063	0.104
-666.032	-136.779	0.248	0.029
-665.018	-11.712	0.238	-0.156
-664.003	229.784	-0.048	0.079
-662.989	403.083	0.014	0.030
-661.974	181.017	0.020	-0.029
-660.959	800.000	0.099	0.279
-659.945	-66.759	0.419	0.166
-658.930	638.414	-0.107	0.271
-657.916	-82.247	0.097	-0.032
-656.901	204.443	0.114	-0.177
-655.886	-200.000	0.020	0.358
-654.872	-49.810	0.338	0.160
-653.857	216.818	-0.055	-0.087
-652.843	-90.124	0.107	-0.031
-651.828	-6.173	-0.099	-0.068
-650.814	-1.780	-0.145	-0.102
-649.799	-200.000	0.047	-0.408
-648.784	-200.000	0.004	-0.262
-647.770	-200.000	-0.015	0.178
-646.755	-28.824	-0.161	-0.093
-645.741	-200.000	-0.056	0.470
-644.726	-12.668	-0.133	-0.087
-643.711	-47.912	0.033	0.016
-642.697	159.927	-0.070	0.098
-641.682	35.276	0.095	-0.083
-640.668	190.204	0.194	-0.291
-639.653	-62.545	-0.164	-0.068
-638.638	15.715	-0.142	-0.111
-637.624	-151.167	0.340	0.026
-636.609	-148.393	0.190	0.016
-635.595	-62.260	-0.269	-0.112
-634.580	-104.830	-0.223	-0.051
-633.565	299.646	-0.111	-0.205
-632.551	528.251	0.032	0.074
-631.536	-200.000	0.131	0.000
-630.522	93.061	0.155	0.175
-629.507	91.263	-0.151	-0.169
-628.492	388.285	0.013	0.028
-627.478	46.250	-0.108	-0.100
-626.463	-200.000	0.013	0.061
-625.449	72.424	0.057	-0.060
-624.434	271.400	-0.002	0.003
-623.419	-200.000	0.003	-0.089
-622.405	-200.000	0.030	0.375
-621.390	-109.085	-0.077	0.016
-620.376	581.679	-0.077	-0.189
-619.361	-84.650	-0.095	-0.030
-618.346	-145.870	0.124	-0.011
-617.332	3.004	0.203	0.148
-616.317	-200.000	0.007	-0.057
-615.303	790.757	-0.052	-0.144
-614.288	-200.000	-0.007	0.068
-613.273	108.959	0.261	-0.311
-612.259	30.695	-0.175	0.149
-611.244	-71.705	0.159	-0.059
-610.230	-128.109	-0.174	-0.025
-609.215	-200.000	0.036	0.324
-608.201	221.175	0.058	-0.092
-607.186	-27.182	-0.021	-0.012
-606.171	158.539	-0.193	-0.268
-605.157	-173.166	0.107	-0.003
-604.142	-35.307	-0.176	0.095
-603.128	-22.885	-0.224	-0.135
-602.113	748.906	-0.141	-0.379
-601.098	-200.000	0.047	0.351
-600.084	-200.000	0.015	0.237
-599.069	-33.742	-0.258	-0.142
-598.055	-57.124	0.073	0.032
-597.040	63.125	-0.078	0.078
-596.025	115.616	-0.118	-0.144
-595.011	-62.352	-0.205	-0.085
-593.996	-200.000	-0.004	0.458
-592.982	-98.366	-0.154	0.039
-591.967	-200.000	0.041	0.183
-590.952	679.276	-0.191	-0.496
-589.938	-24.001	-0.240	0.143
-588.923	-34.660	-0.094	-0.051
-587.909	22.657	0.034	-0.028
-586.894	-87.518	0.187	0.056
-585.879	16.485	-0.224	0.177
-584.865	-148.565	-0.193	0.016
-583.850	350.924	-0.063	-0.124
-582.836	-200.000	0.000	0.243
-581.821	-15.367	-0.068	-0.044
-580.806	63.310	0.231	-0.231
-579.792	-200.000	-0.021	-0.189
-578.777	800.000	-0.076	-0.245
-577.763	-54.946	-0.452	0.203
-576.748	800.000	-0.118	-0.348
-575.733	-104.217	-0.299	0.069
-574.719	132.132	0.127	0.164
-573.704	800.000	-0.047	-0.170
-572.690	637.196	0.186	-0.472
-571.675	235.752	0.083	-0.137
-570.661	-139.239	-0.309	0.033
-569.646	470.452	-0.050	0.113
-568.631	800.000	0.114	0.408
-567.617	-182.100	-0.174	0.003
-566.602	-72.464	-0.082	-0.030
-565.588	-25.237	0.184	0.108
-564.573	-56.489	0.191	0.085
-563.558	-200.000	0.011	0.096
-562.544	308.794	0.164	0.306
-561.529	800.000	0.022	0.075
-560.515	-21.319	0.332	0.202
-559.500	401.792	-0.100	-0.209
-558.485	-200.000	0.020	0.297
-557.471	-200.000	-0.037	0.187
-556.456	78.945	0.223	-0.237
-555.442	800.000	-0.027	-0.092
-554.427	-48.874	0.263	-0.126
-553.412	-111.360	0.218	-0.044
-552.398	-26.331	-0.270	0.158
-551.383	-200.000	0.014	0.074
-550.369	76.161	-0.125	-0.132
-549.354	17.910	0.173	0.137
-548.339	9.217	0.199	0.150
-547.325	800.000	0.031	-0.130
-546.310	-200.000	-0.015	0.149
-545.296	-78.152	0.220	-0.075
-544.281	90.029	-0.054	0.060
-543.266	-188.881	-0.343	-0.004
-542.252	-200.000	-0.075	-0.572
-541.237	-92.332	-0.234	0.066
-540.223	-64.931	-0.285	0.115
-539.208	392.573	-0.113	-0.234
-538.193	-136.607	-0.090	-0.010
-537.179	-200.000	0.014	-0.130
-536.164	84.346	0.149	-0.162
-535.150	77.070	-0.118	-0.125
-534.135	-200.000	-0.062	-0.439
-533.121	67.018	-0.175	0.178
-532.106	-99.771	-0.202	-0.050
-531.091	269.096	0.205	-0.358
-530.077	800.000	-0.080	-0.230
-529.062	46.745	0.169	0.156
-528.048	-39.850	0.302	0.157
-527.033	180.645	-0.278	-0.406
-526.018	-112.995	-0.261	0.051
-525.004	-45.317	0.184	-0.091
-523.989	-81.819	0.221	-0.072
-522.975	309.598	0.011	-0.020
-521.960	800.000	-0.092	0.375
-520.945	800.000	-0.060	0.237
-519.931	800.000	0.069	-0.227
-518.916	435.148	-0.199	-0.431
-517.902	61.799	0.116	0.115
-516.887	800.000	0.069	-0.190
-515.872	26.868	-0.244	0.203
-514.858	-200.000	-0.013	0.142
-513.843	-200.000	-0.061	-0.354
-512.829	-90.758	0.192	0.055
-511.814	-200.000	0.011	-0.134
-510.799	83.806	0.163	-0.177
-509.785	-71.655	0.221	-0.082
-508.770	-86.839	0.082	-0.025
-507.756	-26.405	0.198	0.115
-506.741	228.581	-0.026	0.043
-505.726	-58.688	0.176	-0.076
-504.712	-200.000	0.005	0.141
-503.697	93.236	0.183	0.206
-502.683	78.072	-0.090	0.096
-501.668	-51.217	-0.063	0.029
-500.653	750.660	0.055	-0.148
-499.639	268.775	-0.126	0.220
-498.624	-157.608	0.332	-0.020
-497.610	-200.000	0.028	0.301
-496.595	201.513	-0.113	0.173
-495.581	-200.000	-0.080	-0.361
-494.566	-200.000	0.067	0.000
-493.551	-200.000	-0.002	-0.299
-492.537	-108.425	-0.042	-0.009
-491.522	-103.230	0.345	0.081
-490.508	412.575	0.076	0.160
-489.493	-155.772	0.332	-0.021
-488.478	-200.000	0.224	0.000
-487.464	-5.958	0.102	-0.070
-486.449	-200.000	-0.033	0.258
-485.435	310.110	0.143	-0.265
-484.420	291.639	0.142	-0.256
-483.405	-67.041	0.255	-0.100
-482.391	-15.234	0.028	0.018
-481.376	-61.116	-0.238	-0.100
-480.362	-123.733	-0.215	-0.034
-479.347	-53.373	-0.243	-0.111
-478.332	439.931	0.065	0.140
-477.318	69.393	0.132	0.135
-476.303	61.919	0.102	-0.101
-475.289	-26.053	-0.227	-0.133
-474.274	-200.000	0.014	0.142
-473.259	-111.238	-0.563	0.114
-472.245	114.399	-0.239	-0.289
-471.230	-200.000	0.030	-0.246
-470.216	269.406	0.066	0.115
-469.201	399.358	-0.062	0.130
-468.186	276.915	0.136	-0.241
-467.172	-148.619	0.249	0.020
-466.157	-152.286	-0.122	0.009
-465.143	316.618	-0.150	0.282
-464.128	315.002	0.236	0.442
-463.113	800.000	0.035	-0.111
-462.099	-128.247	0.584	0.083
-461.084	-83.796	-0.227	0.072
-460.070	145.150	0.046	-0.061
-459.055	113.591	-0.074	-0.090
-458.040	254.721	-0.117	0.199
-457.026	-93.332	-0.371	0.102
-456.011	-111.551	0.254	-0.051
-454.997	326.879	-0.073	-0.138
-453.982	-135.587	-0.391	-0.046
-452.968	-44.927	0.173	0.086
-451.953	-166.732	-0.253	-0.010
-450.938	121.781	-0.165	0.204
-449.924	-136.186	0.227	-0.026
-448.909	-10.857	0.086	0.056
-447.895	98.351	0.121	0.139
-446.880	-57.644	0.200	-0.087
-445.865	-150.617	0.080	-0.006
-444.851	86.330	0.073	-0.080
-443.836	-200.000	0.034	0.148
-442.822	-200.000	-0.033	0.224
-441.807	89.774	0.130	0.144
-440.792	-200.000	-0.028	0.281
-439.778	234.190	-0.018	-0.029
-438.763	-34.166	0.412	0.225
-437.749	-200.000	-0.035	0.171
-436.734	586.095	-0.103	-0.250
-435.719	-50.507	-0.134	-0.063
-434.705	-145.739	0.106	-0.009
-433.690	-200.000	-0.024	-0.133
-432.676	26.427	-0.230	-0.191
-431.661	396.103	0.066	0.137
-430.646	-200.000	-0.003	-0.103
-429.632	-50.339	-0.212	-0.100
-428.617	91.393	-0.318	-0.355
-427.603	-81.010	0.385	-0.127
-426.588	81.377	-0.174	0.186
-425.573	-147.163	-0.291	-0.025
-424.559	-200.000	-0.088	-0.490
-423.544	-143.209	0.106	-0.010
-422.530	27.712	-0.182	-0.152
-421.515	-78.511	0.108	-0.036
-420.500	-200.000	0.027	0.195
-419.486	-32.882	-0.396	-0.218
-418.471	800.000	-0.043	0.174
-417.457	-198.712	0.376	0.002
-416.442	-153.905	0.158	0.011
-415.428	-112.574	-0.252	0.050
-414.413	-200.000	0.040	-0.308
-413.398	6.655	0.243	-0.179
-412.384	-200.000	-0.016	-0.320
-411.369	800.000	-0.017	-0.067
-410.355	-15.179	-0.162	0.103
-409.340	-135.287	0.179	0.021
-408.325	625.966	0.010	0.025
-407.311	64.865	0.254	-0.254
-406.296	-200.000	-0.003	0.245
-405.282	72.264	0.121	-0.125
-404.267	-123.126	-0.167	-0.027
-403.252	384.774	-0.150	0.305
-402.238	51.188	-0.150	-0.141
-401.223	-58.979	-0.196	0.084
-400.209	12.026	0.114	0.087
-399.194	-200.000	0.024	0.139
-398.179	76.622	0.284	-0.298
-397.165	-200.000	-0.026	-0.248
-396.150	-36.786	-0.147	0.078
-395.136	-142.066	-0.539	-0.053
-394.121	398.719	0.201	0.417
-393.106	800.000	0.105	-0.435
-392.092	-57.462	0.279	-0.121
-391.077	-200.000	0.047	0.317
-390.063	-200.000	-0.035	0.228
-389.048	179.177	-0.052	-0.075
-388.033	324.104	0.083	-0.158
-387.019	56.592	0.169	0.162
-386.004	-126.315	0.218	-0.032
-384.990	-200.000	-0.060	-0.330
-383.975	460.102	0.075	0.165
-382.960	488.671	-0.130	-0.294
-381.946	-8.219	0.128	-0.086
-380.931	30.865	0.396	0.335
-379.917	-3.433	-0.183	0.126
-378.902	-200.000	0.091	-0.424
-377.888	121.481	0.104	-0.129
-376.873	431.321	0.118	0.253
-375.858	-108.938	0.117	-0.025
-374.844	-67.831	-0.218	-0.084
-373.829	-64.596	-0.184	-0.074
-372.815	-120.660	0.074	0.012
-371.800	34.189	-0.187	0.161
-370.785	235.497	0.008	0.014
-369.771	83.578	0.162	0.175
-368.756	108.825	0.211	-0.249
-367.742	-15.670	0.256	0.161
-366.727	-38.326	0.272	0.142
-365.712	-200.000	-0.020	0.233
-364.698	-154.739	-0.077	-0.005
-363.683	-200.000	0.003	-0.096
-362.669	240.553	0.162	-0.266
-361.654	670.849	-0.101	-0.259
-360.639	10.708	0.096	0.072
-359.625	-87.399	0.338	0.101
-358.610	-120.001	0.099	-0.017
-357.596	263.776	0.087	0.150
-356.581	800.000	0.043	-0.137
-355.566	55.405	0.055	-0.052
-354.552	-119.620	-0.479	0.082
-353.537	-94.520	-0.293	-0.079
-352.523	-173.112	-0.239	0.007
-351.508	23.945	-0.182	-0.149
-350.493	589.677	-0.153	-0.374
-349.479	34.189	-0.194	0.168
-348.464	-99.735	-0.240	-0.059
-347.450	-200.000	-0.031	0.209
-346.435	225.299	0.061	-0.097
-345.420	-77.935	0.119	-0.041
-344.406	-74.446	0.172	-0.061
-343.391	169.266	-0.100	0.142
-342.377	-73.430	-0.403	-0.145
-341.362	-200.000	-0.018	-0.328
-340.348	-25.886	0.118	0.069
-339.333	664.850	0.066	-0.168
-338.318	-112.957	-0.185	-0.036
-337.304	285.348	0.049	0.087
-336.289	32.803	0.078	-0.066
-335.275	101.264	0.161	0.185
-334.260	-103.120	-0.152	-0.035
-333.245	159.077	-0.058	-0.080
-332.231	578.970	0.050	-0.121
-331.216	83.017	-0.098	-0.105
-330.202	272.761	0.111	0.193
-329.187	800.000	0.045	0.129
-328.172	495.210	0.081	0.184
-327.158	-123.912	-0.231	-0.036
-326.143	-200.000	-0.009	-0.065
-325.129	-196.813	0.090	0.001
-324.114	-121.700	-0.105	0.017
-323.099	-200.000	-0.033	-0.375
-322.085	-200.000	-0.002	-0.203
-321.070	-200.000	-0.053	-0.247
-320.056	731.441	0.106	-0.279
-319.041	-131.377	0.134	0.018
-318.026	-175.184	0.136	-0.004
-317.012	630.320	-0.120	-0.299
-315.997	-77.477	-0.042	-0.015
-314.983	86.389	-0.204	-0.222
-313.968	800.000	-0.080	0.242
-312.953	338.745	-0.073	0.139
-311.939	295.387	-0.137	-0.247
-310.924	491.179	-0.135	-0.305
-309.910	67.505	-0.076	-0.077
-308.895	240.531	0.011	-0.019
-307.880	-200.000	-0.008	0.042
-306.866	32.079	-0.072	0.061
-305.851	158.275	0.051	0.069
-304.837	-71.588	-0.084	0.031
-303.822	-200.000	-0.066	-0.410
-302.807	-200.000	0.018	-0.492
-301.793	-200.000	0.009	-0.174
-300.778	-23.170	0.411	0.244
-299.764	-90.393	-0.049	0.014
-298.749	-156.101	-0.093	0.006
-297.735	-141.710	-0.205	-0.020
-296.720	-118.159	-0.197	0.035
-295.705	-39.987	0.240	-0.124
-294.691	-200.000	-0.007	0.155
-293.676	-37.687	0.112	-0.059
-292.662	-200.000	0.015	0.459
-291.647	-95.353	-0.261	-0.069
-290.632	-33.509	0.324	0.176
-289.618	-171.454	-0.077	0.003
-288.603	-49.563	0.256	0.120
-287.589	-28.270	0.216	0.123
-286.574	438.345	-0.040	0.086
-285.559	264.786	0.100	0.171
-284.545	778.810	-0.084	-0.227
-283.530	-34.865	0.300	-0.161
-282.516	280.366	-0.056	0.098
-281.501	800.000	0.050	-0.205
-280.486	-200.000	0.022	0.240
-279.472	507.646	0.133	0.303
-278.457	2.073	-0.332	-0.236
-277.443	635.833	0.125	-0.313
-276.428	654.068	0.108	-0.274
-275.413	-200.000	0.025	0.240
-274.399	-100.296	-0.036	0.009
-273.384	-10.747	-0.070	-0.046
-272.370	177.763	-0.126	-0.182
-271.355	-168.388	-0.204	-0.008
-270.340	-200.000	-0.026	-0.153
-269.326	-200.000	-0.025	0.160
-268.311	3.436	0.034	0.024
-267.297	348.813	-0.101	-0.197
-266.282	-2.575	-0.089	0.062
-265.267	-141.639	-0.127	0.013
-264.253	-157.104	0.097	-0.006
-263.238	221.038	0.063	-0.100
-262.224	-87.511	-0.168	-0.050
-261.209	-21.653	0.131	0.078
-260.195	-200.000	-0.054	0.543
-259.180	63.094	0.044	-0.043
-258.165	-121.945	0.321	0.052
-257.151	-145.154	-0.428	0.038
-256.136	-108.996	-0.289	-0.061
-255.122	800.000	-0.034	0.119
-254.107	-8.992	-0.149	-0.098
-253.092	28.357	0.114	0.095
-252.078	629.869	-0.048	0.120
-251.063	-132.719	0.206	-0.026
-250.049	800.000	0.050	-0.157
-249.034	471.993	-0.184	0.407
-248.019	-133.320	0.208	0.026
-247.005	365.935	0.180	-0.357
-245.990	-138.123	-0.155	-0.017
-244.976	-200.000	-0.008	-0.132
-243.961	800.000	-0.019	0.054
-242.946	53.708	0.094	-0.089
-241.932	197.481	0.222	0.334
-240.917	-200.000	0.047	0.211
-239.903	-42.425	-0.145	0.073
-238.888	-200.000	0.011	0.102
-237.873	-54.680	0.201	0.089
-236.859	-3.051	0.286	0.196
-235.844	800.000	0.089	0.357
-234.830	199.343	0.151	0.228
-233.815	12.820	0.092	0.070
-232.800	20.941	-0.258	0.206
-231.786	-200.000	0.030	0.279
-230.771	-71.312	0.199	-0.073
-229.757	-81.225	-0.089	0.029
-228.742	-67.724	0.217	0.084
-227.727	-200.000	0.036	0.494
-226.713	8.302	-0.160	0.118
-225.698	7.450	0.132	0.097
-224.684	91.699	0.057	-0.064
-223.669	-200.000	-0.026	-0.122
-222.655	165.318	0.025	-0.034
-221.640	366.814	0.106	0.211
-220.625	506.338	0.132	0.301
-219.611	-200.000	-0.043	-0.191
-218.596	615.739	0.103	0.253
-217.582	111.504	-0.104	-0.123
-216.567	-200.000	0.025	0.189
-215.552	-158.762	0.388	-0.022
-214.538	-47.361	0.203	0.097
-213.523	-200.000	0.048	0.271
-212.509	-200.000	-0.018	0.252
-211.494	-91.267	-0.171	0.048
-210.479	-200.000	0.031	0.412
-209.465	-111.073	-0.113	-0.023
-208.450	63.161	0.226	0.222
-207.436	-200.000	-0.004	0.047
-206.421	219.722	0.047	0.073
-205.406	-3.710	-0.337	-0.230
-204.392	442.558	-0.106	0.227
-203.377	201.100	-0.072	-0.108
-202.363	-66.673	-0.098	0.038
-201.348	-25.792	0.118	-0.068
-200.333	-52.547	-0.259	0.118
-199.319	-200.000	-0.026	0.371
-198.304	-71.673	0.062	0.023
-197.290	7.241	0.049	-0.036
-196.275	-200.000	-0.003	0.127
-195.260	361.432	-0.180	-0.355
-194.246	-200.000	0.066	0.312
-193.231	416.171	0.017	-0.036
-192.217	-200.000	0.065	0.367
-191.202	-135.637	0.184	0.022
-190.187	-134.707	0.392	-0.047
-189.173	-180.633	0.081	0.002
-188.158	-67.877	-0.230	0.088
-187.144	497.202	0.191	0.432
-186.129	-59.236	0.237	-0.100
-185.114	800.000	-0.036	-0.097
-184.100	378.377	-0.111	-0.222
-183.085	274.017	-0.059	-0.102
-182.071	322.826	-0.082	-0.154
-181.056	26.859	0.346	-0.285
-180.042	247.058	-0.104	0.172
-179.027	-82.263	0.233	0.074
-178.012	237.442	-0.079	0.129
-176.998	52.101	-0.097	0.091
-175.983	-200.000	-0.014	-0.138
-174.969	800.000	0.024	0.074
-173.954	128.503	0.110	-0.138
-172.939	-38.827	0.224	0.116
-171.925	149.456	0.034	-0.045
-170.910	757.069	0.091	0.242
-169.896	800.000	-0.066	0.232
-168.881	-119.857	-0.227	0.038
-167.866	81.867	-0.061	-0.065
-166.852	-200.000	0.004	0.102
-165.837	46.312	0.115	0.104
-164.823	-56.337	-0.099	0.043
-163.808	421.490	0.033	-0.069
-162.793	-119.394	-0.539	-0.092
-161.779	260.886	0.036	0.061
-160.764	-102.013	0.173	0.041
-159.750	-110.517	0.088	-0.018
-158.735	-200.000	-0.008	0.450
-157.720	-157.732	-0.521	-0.030
-156.706	-59.159	0.275	-0.116
-155.691	44.743	-0.009	0.008
-154.677	-200.000	0.010	0.109
-153.662	-73.824	0.205	-0.073
-152.647	-19.370	-0.186	0.113
-151.633	-27.482	-0.176	-0.101
-150.618	36.478	-0.213	0.184
-149.604	189.797	-0.088	-0.130
-148.589	91.817	-0.154	-0.170
-147.574	-200.000	0.037	-0.228
-146.560	293.744	-0.116	-0.208
-145.545	118.113	0.225	-0.272
-144.531	284.834	0.163	-0.287
-143.516	-200.000	-0.060	0.272
-142.502	-200.000	0.001	0.053
-141.487	-31.281	0.104	0.057
-140.472	-16.771	0.134	0.083
-139.458	-46.343	-0.245	-0.118
-138.443	-200.000	-0.055	0.247
-137.429	-113.642	-0.249	-0.048
-136.414	-151.182	0.085	0.006
-135.399	-109.638	0.236	-0.049
-134.385	800.000	-0.065	0.212
-133.370	476.444	0.089	-0.197
-132.356	-53.139	0.301	-0.135
-131.341	-200.000	0.031	-0.434
-130.326	-137.550	-0.345	-0.038
-129.312	-200.000	-0.060	0.356
-128.297	62.228	-0.067	0.066
-127.283	143.656	0.072	-0.095
-126.268	-82.570	0.135	-0.043
-125.253	2.035	-0.253	0.179
-124.239	-132.887	0.174	-0.022
-123.224	92.013	0.195	-0.215
-122.210	800.000	0.054	0.209
