DTS Sentinel unit serial number:	SN413079Multiplexer serial number:	ORYXHardware model number:	OX4-SRSoftware version number:	ORYX F/W v4.00 Oryx Data Collector v3.7.2.0data status	okinstallation	princeton_trtdifferential loss correction	single-endedforward channel	channel 1reverse channel	N/Adate	2019/09/16time	14:14:35forward acquisition time	60.00reverse acquisition time	0.00gamma	496.2192k internal	0.2293k external	0.2293temperature offset calibration	0.9954default loss term (dB/km)	0.3790temperature slope calibration	1.0000multiplexer offset coefficient	1.0000multiplexer slope coefficient	1.0000fibre end	0.00T internal ref (°C)	42.25T ext. ref 1 (°C)	14.13T ext. ref 2 (°C)	37.19length (m)	temperature (°C)	Stokes	anti-Stokes-747.200	-25.822	-0.318	0.192
-746.185	-142.072	-0.399	-0.041
-745.171	-144.311	-0.262	0.025
-744.156	109.339	-0.145	-0.178
-743.142	603.105	0.100	0.255
-742.127	800.000	-0.049	0.199
-741.112	74.243	0.080	-0.085
-740.098	545.794	-0.057	-0.139
-739.083	-110.311	0.078	0.016
-738.069	-200.000	0.011	0.287
-737.054	-120.624	-0.124	0.022
-736.039	-10.379	-0.143	-0.097
-735.025	19.353	0.244	0.200
-734.010	139.379	-0.137	-0.184
-732.996	800.000	-0.089	0.302
-731.981	-69.586	-0.086	0.034
-730.966	119.811	-0.101	0.128
-729.952	-128.189	-0.259	0.038
-728.937	0.317	-0.206	-0.150
-727.923	-95.663	-0.210	0.057
-726.908	-126.641	-0.222	0.034
-725.894	-200.000	0.036	-0.249
-724.879	-200.000	-0.012	-0.372
-723.864	-83.566	-0.187	-0.061
-722.850	-133.818	0.185	0.023
-721.835	197.787	0.109	-0.170
-720.821	201.225	0.143	0.224
-719.806	-18.092	-0.254	-0.163
-718.791	-157.021	-0.148	0.009
-717.777	-158.072	0.310	-0.019
-716.762	24.055	0.110	-0.093
-715.748	-200.000	0.002	-0.102
-714.733	241.693	-0.096	-0.165
-713.718	214.304	-0.065	0.105
-712.704	800.000	-0.036	0.106
-711.689	285.984	0.154	-0.284
-710.675	-195.584	-0.237	-0.002
-709.660	800.000	-0.100	0.447
-708.645	28.163	0.306	0.264
-707.631	800.000	0.096	-0.406
-706.616	-160.010	-0.287	-0.016
-705.602	-93.215	-0.119	-0.034
-704.587	-132.520	0.172	0.023
-703.572	25.498	-0.169	0.144
-702.558	50.109	-0.203	-0.196
-701.543	-49.907	0.230	0.112
-700.529	120.946	-0.184	-0.234
-699.514	-200.000	-0.050	-0.254
-698.499	-23.364	0.262	-0.161
-697.485	115.026	-0.091	-0.113
-696.470	-119.535	-0.141	-0.025
-695.456	89.838	-0.111	0.127
-694.441	-124.771	-0.363	0.057
-693.426	108.094	0.176	0.214
-692.412	-36.691	-0.247	-0.136
-691.397	800.000	-0.059	-0.173
-690.383	135.331	-0.219	-0.290
-689.368	-99.331	-0.293	0.076
-688.354	-200.000	-0.019	-0.271
-687.339	-200.000	0.033	0.278
-686.324	-200.000	0.040	0.222
-685.310	138.129	-0.149	0.200
-684.295	-149.854	0.245	0.020
-683.281	-58.686	-0.099	-0.044
-682.266	-31.173	0.161	-0.092
-681.251	-6.914	-0.216	-0.150
-680.237	-62.333	-0.135	0.057
-679.222	800.000	-0.083	0.312
-678.208	-200.000	-0.015	-0.075
-677.193	15.171	-0.335	-0.268
-676.178	166.220	-0.121	0.175
-675.164	30.890	0.054	-0.047
-674.149	-200.000	0.026	-0.147
-673.135	237.025	0.010	0.017
-672.120	-78.708	-0.112	-0.039
-671.105	-20.248	0.084	0.053
-670.091	327.159	0.168	-0.328
-669.076	-200.000	0.010	-0.058
-668.062	-143.723	0.089	-0.009
-667.047	-178.899	-0.133	0.003
-666.032	39.754	-0.223	0.204
-665.018	43.914	0.150	0.140
-664.003	-168.905	0.263	-0.010
-662.989	-4.966	-0.141	0.099
-661.974	-111.895	0.383	-0.079
-660.959	233.846	-0.146	-0.245
-659.945	72.376	-0.140	-0.149
-658.930	800.000	-0.135	-0.383
-657.916	-200.000	0.010	0.051
-656.901	-113.257	0.167	-0.033
-655.886	115.607	-0.126	0.157
-654.872	-200.000	0.048	-0.310
-653.857	-200.000	-0.015	0.197
-652.843	800.000	0.015	-0.052
-651.828	-200.000	0.020	-0.208
-650.814	-200.000	0.028	-0.180
-649.799	-77.905	0.060	0.021
-648.784	-200.000	0.037	-0.226
-647.770	102.143	-0.116	0.138
-646.755	-196.243	-0.068	-0.000
-645.741	800.000	0.077	-0.324
-644.726	-82.197	0.110	0.036
-643.711	-87.650	0.240	0.074
-642.697	47.296	-0.111	0.105
-641.682	16.777	0.215	0.174
-640.668	-67.035	0.266	0.107
-639.653	-144.297	-0.352	-0.033
-638.638	109.436	-0.064	-0.078
-637.624	7.757	0.155	0.118
-636.609	-200.000	-0.054	0.269
-635.595	800.000	0.069	-0.297
-634.580	0.708	-0.300	-0.219
-633.565	364.778	-0.075	0.153
-632.551	-75.654	-0.332	-0.120
-631.536	-200.000	-0.010	0.348
-630.522	-200.000	0.012	0.056
-629.507	-200.000	-0.001	0.239
-628.492	145.706	-0.088	0.120
-627.478	800.000	0.054	0.199
-626.463	22.924	-0.128	0.107
-625.449	679.868	-0.098	-0.260
-624.434	751.868	-0.116	-0.318
-623.419	72.046	0.189	-0.200
-622.405	-79.983	-0.405	0.138
-621.390	-86.568	0.168	0.052
-620.376	-114.964	0.398	-0.077
-619.361	-200.000	-0.014	-0.092
-618.346	-200.000	0.038	-0.211
-617.332	-32.685	0.294	-0.166
-616.317	84.047	-0.051	-0.057
-615.303	3.163	0.102	0.076
-614.288	-200.000	-0.012	-0.290
-613.273	131.202	-0.065	0.085
-612.259	-200.000	-0.055	-0.275
-611.244	-30.651	0.187	-0.108
-610.230	65.903	0.124	0.128
-609.215	-101.734	0.073	0.018
-608.201	-98.923	0.198	-0.051
-607.186	-29.976	-0.542	0.314
-606.171	-26.430	-0.165	0.098
-605.157	168.681	0.155	0.224
-604.142	367.238	0.088	-0.181
-603.128	267.712	-0.089	0.158
-602.113	-200.000	0.001	0.039
-601.098	-29.688	-0.286	0.166
-600.084	105.531	-0.051	-0.061
-599.069	800.000	0.054	0.224
-598.055	109.260	-0.270	-0.329
-597.040	179.224	-0.190	0.283
-596.025	-4.179	0.107	0.075
-595.011	800.000	0.029	-0.095
-593.996	245.774	0.202	0.346
-592.982	-166.675	0.180	0.008
-591.967	-200.000	0.001	-0.026
-590.952	86.862	-0.110	-0.124
-589.938	218.060	0.010	-0.016
-588.923	-150.790	0.135	0.010
-587.909	46.697	-0.176	0.166
-586.894	-200.000	-0.016	-0.157
-585.879	-200.000	0.009	0.087
-584.865	112.969	0.133	-0.164
-583.850	-172.055	0.202	0.007
-582.836	-143.394	0.298	0.029
-581.821	-23.598	-0.282	0.172
-580.806	-28.397	-0.196	-0.115
-579.792	-86.619	0.257	0.080
-578.777	-126.407	-0.151	0.023
-577.763	39.459	-0.198	0.180
-576.748	75.021	0.224	-0.240
-575.733	224.533	-0.037	-0.061
-574.719	-200.000	0.002	0.037
-573.704	-32.194	-0.107	-0.061
-572.690	-101.211	0.111	0.027
-571.675	-96.426	0.229	0.062
-570.661	-200.000	0.002	-0.060
-569.646	-117.252	0.221	-0.041
-568.631	184.528	0.103	-0.155
-567.617	90.902	0.069	0.079
-566.602	-54.118	-0.442	0.204
-565.588	-200.000	-0.027	-0.351
-564.573	562.419	0.140	-0.344
-563.558	400.688	0.058	-0.123
-562.544	800.000	0.088	-0.266
-561.529	102.534	0.136	0.162
-560.515	675.263	-0.033	-0.087
-559.500	338.173	-0.141	-0.279
-558.485	160.807	0.184	-0.261
-557.471	-200.000	-0.017	0.368
-556.456	800.000	-0.084	0.307
-555.442	7.569	0.111	0.084
-554.427	-200.000	-0.028	-0.157
-553.412	216.414	0.088	-0.142
-552.398	-59.918	-0.299	0.130
-551.383	623.282	-0.116	-0.297
-550.369	-170.909	0.226	-0.008
-549.354	800.000	-0.014	0.040
-548.339	-23.116	-0.115	-0.070
-547.325	-49.676	-0.080	0.038
-546.310	800.000	0.083	-0.325
-545.296	-200.000	-0.019	-0.113
-544.281	-49.234	-0.340	-0.165
-543.266	800.000	0.064	-0.279
-542.252	-200.000	-0.017	0.087
-541.237	-157.690	-0.117	0.007
-540.223	-95.195	0.229	0.063
-539.208	189.058	-0.040	-0.061
-538.193	-200.000	-0.048	0.235
-537.179	645.332	0.090	0.234
-536.164	9.298	-0.083	0.064
-535.150	572.985	0.030	0.075
-534.135	-111.126	0.329	0.068
-533.121	-45.776	0.133	-0.067
-532.106	98.352	0.075	0.087
-531.091	528.528	-0.024	0.057
-530.077	47.618	-0.171	-0.162
-529.062	-200.000	-0.015	-0.218
-528.048	-136.969	0.157	0.018
-527.033	-200.000	-0.002	0.407
-526.018	-127.582	0.177	0.026
-525.004	-113.230	-0.058	-0.012
-523.989	145.263	-0.081	0.111
-522.975	-56.892	-0.158	-0.071
-521.960	-127.033	-0.270	0.040
-520.945	46.896	-0.244	0.230
-519.931	-23.809	0.127	-0.077
-518.916	342.853	0.172	-0.341
-517.902	-125.477	0.293	0.045
-516.887	-16.695	-0.262	-0.168
-515.872	50.066	-0.037	0.036
-514.858	800.000	-0.091	0.282
-513.843	-66.673	0.344	0.138
-512.829	-38.824	0.232	0.124
-511.814	201.745	-0.101	0.157
-510.799	-200.000	-0.015	0.337
-509.785	-9.645	0.156	0.105
-508.770	-200.000	0.024	-0.110
-507.756	-86.458	-0.162	-0.050
-506.741	189.755	-0.058	0.088
-505.726	-37.203	0.225	-0.122
-504.712	48.866	0.210	0.200
-503.697	-96.828	-0.068	-0.018
-502.683	310.728	-0.119	0.227
-501.668	-48.948	-0.239	0.116
-500.653	800.000	-0.089	0.297
-499.639	26.551	0.115	0.098
-498.624	76.629	-0.218	-0.234
-497.610	240.564	-0.184	0.311
-496.595	146.767	0.219	0.299
-495.581	-129.126	-0.200	0.028
-494.566	-0.942	0.264	0.189
-493.551	-150.554	0.159	0.012
-492.537	-46.539	0.439	0.218
-491.522	-69.421	-0.122	0.048
-490.508	800.000	0.104	0.335
-489.493	-62.783	0.075	-0.031
-488.478	800.000	-0.038	-0.144
-487.464	-200.000	0.018	0.095
-486.449	-200.000	0.078	-0.593
-485.435	-170.673	-0.156	-0.005
-484.420	-122.769	-0.529	-0.087
-483.405	66.159	0.260	-0.267
-482.391	-56.633	0.093	-0.042
-481.376	245.518	0.064	0.110
-480.362	-200.000	0.018	0.305
-479.347	-110.062	0.151	-0.032
-478.332	-43.617	0.045	0.023
-477.318	137.035	0.249	-0.330
-476.303	28.495	-0.062	0.053
-475.289	312.478	-0.201	-0.381
-474.274	139.696	0.068	0.091
-473.259	-16.881	-0.063	-0.040
-472.245	-10.230	0.053	-0.036
-471.230	35.197	0.034	0.030
-470.216	-45.944	0.058	0.029
-469.201	-99.179	-0.361	0.092
-468.186	631.787	-0.081	-0.207
-467.172	800.000	0.060	-0.197
-466.157	-9.069	-0.182	-0.124
-465.143	183.696	0.071	-0.106
-464.128	198.079	-0.114	0.176
-463.113	-32.533	0.242	0.137
-462.099	-86.420	0.134	0.042
-461.084	800.000	0.046	0.131
-460.070	60.029	0.155	0.155
-459.055	194.417	-0.131	0.201
-458.040	-61.788	-0.291	-0.123
-457.026	-200.000	-0.032	0.297
-456.011	-200.000	0.074	-0.379
-454.997	-200.000	0.018	-0.083
-453.982	148.118	0.111	-0.152
-452.968	-200.000	0.008	0.130
-451.953	-80.840	-0.135	0.045
-450.938	218.049	-0.088	0.142
-449.924	474.845	-0.135	-0.308
-448.909	-130.022	0.120	-0.017
-447.895	109.527	-0.069	-0.084
-446.880	-200.000	-0.012	-0.289
-445.865	-13.049	0.237	0.156
-444.851	-88.523	0.155	0.047
-443.836	50.955	-0.111	0.106
-442.822	-80.517	-0.140	0.047
-441.807	54.232	0.183	0.178
-440.792	192.700	0.099	-0.151
-439.778	-31.058	-0.345	0.197
-438.763	-56.039	0.262	0.118
-437.749	-200.000	0.002	0.118
-436.734	430.260	0.015	0.033
-435.719	800.000	-0.020	0.073
-434.705	-200.000	0.040	0.185
-433.690	800.000	-0.033	0.144
-432.676	74.569	-0.281	-0.299
-431.661	186.926	0.104	-0.156
-430.646	94.338	0.092	0.105
-429.632	-18.074	-0.084	-0.053
-428.617	327.171	-0.106	-0.206
-427.603	-98.026	-0.258	-0.067
-426.588	-200.000	0.020	-0.112
-425.573	800.000	-0.088	-0.373
-424.559	-200.000	0.048	-0.298
-423.544	201.384	0.084	0.131
-422.530	-82.885	-0.189	0.062
-421.515	252.056	0.080	0.138
-420.500	195.616	0.081	0.125
-419.486	166.478	0.092	-0.132
-418.471	189.460	0.132	0.200
-417.457	-37.951	0.212	0.114
-416.442	463.481	0.184	-0.414
-415.428	709.094	0.023	0.061
-414.413	-200.000	-0.029	-0.187
-413.398	-200.000	-0.003	-0.078
-412.384	632.849	0.059	0.152
-411.369	-7.174	-0.291	-0.199
-410.355	116.860	-0.278	-0.344
-409.340	-110.073	-0.170	-0.036
-408.325	279.831	-0.179	0.322
-407.311	-48.412	-0.051	0.025
-406.296	-200.000	0.001	-0.088
-405.282	141.098	0.166	0.221
-404.267	-200.000	-0.036	0.212
-403.252	-154.173	0.233	-0.016
-402.238	18.565	0.092	0.075
-401.223	-184.971	0.030	-0.000
-400.209	534.789	0.027	-0.066
-399.194	-38.472	0.252	0.134
-398.179	-19.035	-0.104	-0.065
-397.165	800.000	0.104	0.335
-396.150	-102.923	-0.174	0.042
-395.136	98.563	0.067	-0.078
-394.121	211.461	0.023	0.036
-393.106	-27.428	-0.299	-0.175
-392.092	-75.116	-0.060	0.022
-391.077	-56.492	0.318	0.142
-390.063	-152.706	-0.261	0.019
-389.048	-82.470	-0.199	-0.065
-388.033	-11.014	0.163	0.109
-387.019	-46.722	-0.139	0.069
-386.004	-200.000	-0.033	-0.175
-384.990	-89.167	0.063	-0.019
-383.975	-200.000	0.014	0.251
-382.960	51.327	0.196	-0.188
-381.946	800.000	-0.100	-0.313
-380.931	56.598	0.137	0.135
-379.917	265.509	0.158	-0.279
-378.902	396.901	0.117	0.247
-377.888	-119.323	0.266	-0.047
-376.873	-153.445	0.456	0.032
-375.858	800.000	-0.064	0.273
-374.844	-60.494	-0.264	0.113
-373.829	-69.693	0.132	0.051
-372.815	36.645	-0.245	0.218
-371.800	-107.350	0.417	-0.092
-370.785	159.578	-0.170	-0.238
-369.771	3.037	0.099	-0.073
-368.756	64.916	-0.220	-0.223
-367.742	170.861	0.094	-0.136
-366.727	51.036	-0.068	0.065
-365.712	-200.000	0.003	0.016
-364.698	-200.000	-0.024	-0.486
-363.683	800.000	-0.076	-0.238
-362.669	673.553	-0.176	0.461
-361.654	-39.164	0.038	0.020
-360.639	-135.696	0.160	0.019
-359.625	800.000	0.031	0.120
-358.610	800.000	-0.126	0.370
-357.596	-18.062	0.239	-0.151
-356.581	-200.000	0.006	0.201
-355.566	-74.798	0.342	-0.124
-354.552	800.000	-0.065	-0.184
-353.537	-89.122	0.297	-0.088
-352.523	-136.660	-0.160	-0.019
-351.508	53.317	-0.215	-0.207
-350.493	210.838	-0.060	-0.096
-349.479	-200.000	-0.001	-0.106
-348.464	-200.000	-0.012	0.118
-347.450	363.398	-0.050	-0.101
-346.435	141.181	-0.047	-0.063
-345.420	128.762	0.082	0.105
-344.406	-200.000	0.022	-0.131
-343.391	388.942	-0.080	-0.167
-342.377	-150.487	-0.375	-0.029
-341.362	-200.000	-0.020	0.154
-340.348	-200.000	0.001	-0.079
-339.333	151.375	-0.084	-0.116
-338.318	-200.000	0.016	0.133
-337.304	46.940	0.098	0.091
-336.289	422.377	0.134	0.289
-335.275	-34.138	0.352	0.195
-334.260	178.507	-0.155	0.228
-333.245	-84.632	-0.460	0.146
-332.231	-21.043	0.240	0.148
-331.216	79.480	-0.136	0.147
-330.202	800.000	0.043	0.126
-329.187	-11.138	0.130	0.086
-328.172	-2.622	-0.155	-0.109
-327.158	228.313	-0.249	0.407
-326.143	453.070	0.083	-0.184
-325.129	-7.292	0.128	-0.087
-324.114	-80.654	0.040	0.013
-323.099	-200.000	0.043	-0.297
-322.085	260.851	0.035	-0.062
-321.070	-9.125	0.219	-0.147
-320.056	-200.000	0.004	0.063
-319.041	98.604	-0.207	-0.241
-318.026	200.701	-0.019	0.029
-317.012	-129.719	-0.202	-0.028
-315.997	-142.068	0.213	0.021
-314.983	34.531	0.356	0.313
-313.968	473.574	0.021	0.049
-312.953	800.000	-0.122	0.354
-311.939	-72.999	0.333	0.123
-310.924	-106.882	0.283	0.063
-309.910	-78.121	0.372	-0.129
-308.895	-193.319	0.167	-0.001
-307.880	-48.778	0.387	0.187
-306.866	70.267	0.054	0.056
-305.851	-93.151	0.271	0.076
-304.837	676.961	-0.034	0.090
-303.822	164.690	0.127	0.180
-302.807	-75.749	0.140	0.050
-301.793	-155.049	-0.283	0.019
-300.778	520.038	0.042	0.099
-299.764	-200.000	0.059	-0.323
-298.749	129.008	0.110	-0.141
-297.735	243.188	0.164	-0.277
-296.720	-59.959	-0.252	0.108
-295.705	-64.305	0.135	-0.055
-294.691	239.411	-0.148	-0.248
-293.676	74.870	-0.042	-0.044
-292.662	-9.121	-0.215	-0.145
-291.647	380.643	-0.100	-0.206
-290.632	-109.454	0.127	-0.027
-289.618	-200.000	-0.032	-0.285
-288.603	-200.000	0.030	-0.203
-287.589	-29.068	-0.320	-0.184
-286.574	-78.672	-0.257	0.088
-285.559	-20.974	-0.122	0.075
-284.545	330.852	-0.153	-0.296
-283.530	-200.000	-0.011	0.315
-282.516	171.146	-0.091	0.131
-281.501	-200.000	-0.040	-0.245
-280.486	-88.207	-0.262	0.079
-279.472	515.036	0.087	-0.205
-278.457	-200.000	0.016	0.100
-277.443	-94.727	0.263	0.072
-276.428	-5.134	0.232	0.160
-275.413	-200.000	-0.008	0.068
-274.399	-95.509	-0.233	0.063
-273.384	-15.195	-0.063	0.041
-272.370	144.763	-0.204	0.274
-271.355	139.080	0.045	-0.059
-270.340	-133.651	0.372	0.047
-269.326	-14.837	0.099	-0.064
-268.311	-200.000	-0.014	-0.177
-267.297	310.469	-0.098	-0.185
-266.282	-200.000	0.047	-0.263
-265.267	-200.000	-0.003	-0.254
-264.253	50.820	-0.179	-0.170
-263.238	-200.000	0.038	-0.308
-262.224	-200.000	-0.013	0.084
-261.209	242.529	-0.057	0.096
-260.195	-200.000	-0.044	0.282
-259.180	22.649	-0.208	0.171
-258.165	12.847	0.136	0.105
-257.151	72.020	0.114	-0.119
-256.136	18.568	-0.197	0.158
-255.122	800.000	-0.060	0.186
-254.107	-200.000	0.004	0.114
-253.092	-200.000	0.025	0.289
-252.078	-200.000	-0.010	-0.096
-251.063	242.069	0.074	-0.124
-250.049	-21.725	-0.201	-0.123
-249.034	-33.901	0.343	-0.189
-248.019	59.519	0.071	-0.070
-247.005	-200.000	-0.057	0.258
-245.990	-28.262	-0.060	-0.035
-244.976	-33.231	-0.093	0.052
-243.961	344.730	-0.142	0.279
-242.946	-19.002	0.265	0.166
-241.932	-126.693	-0.108	-0.016
-240.917	25.627	-0.337	0.281
-239.903	165.067	-0.206	-0.291
-238.888	-24.136	0.359	-0.215
-237.873	800.000	-0.108	-0.325
-236.859	397.463	-0.217	-0.455
-235.844	-200.000	0.016	0.128
-234.830	18.215	-0.162	0.130
-233.815	60.788	-0.078	-0.077
-232.800	-55.543	-0.115	0.051
-231.786	-28.376	-0.156	-0.090
-230.771	-87.941	-0.144	0.043
-229.757	376.456	-0.014	0.028
-228.742	-200.000	-0.034	-0.188
-227.727	-121.686	0.048	0.008
-226.713	-118.667	-0.132	0.023
-225.698	-200.000	0.002	0.041
-224.684	184.505	-0.102	-0.151
-223.669	-200.000	0.016	0.312
-222.655	800.000	-0.038	-0.140
-221.640	80.661	-0.180	0.194
-220.625	-200.000	0.014	0.070
-219.611	118.053	0.194	-0.240
-218.596	47.721	-0.105	-0.098
-217.582	37.553	0.098	0.087
-216.567	51.284	0.143	-0.136
-215.552	182.659	0.100	-0.148
-214.538	-93.568	0.143	0.040
-213.523	599.502	-0.069	-0.171
-212.509	800.000	0.027	0.091
-211.494	-133.556	-0.034	0.004
-210.479	800.000	0.050	-0.195
-209.465	98.708	0.130	-0.151
-208.450	-72.352	0.072	0.027
-207.436	-100.042	-0.203	0.051
-206.421	-121.949	0.088	0.015
-205.406	284.519	-0.171	-0.308
-204.392	-200.000	-0.000	-0.012
-203.377	-200.000	0.002	0.265
-202.363	-48.496	0.056	-0.027
-201.348	-0.336	-0.172	-0.122
-200.333	774.619	0.092	0.251
-199.319	-49.019	-0.250	-0.120
-198.304	-63.809	-0.258	0.106
-197.290	-66.182	0.195	0.078
-196.275	396.650	0.059	-0.122
-195.260	-98.468	-0.100	0.026
-194.246	-20.519	-0.065	-0.040
-193.231	800.000	0.044	-0.170
-192.217	13.383	0.334	-0.260
-191.202	-185.331	-0.259	-0.004
-190.187	-148.796	0.272	0.022
-189.173	-45.377	-0.143	0.071
-188.158	-42.920	0.094	-0.048
-187.144	-168.111	-0.232	-0.009
-186.129	-11.920	-0.214	-0.140
-185.114	-34.215	-0.063	-0.034
-184.100	-200.000	-0.036	-0.184
-183.085	-166.197	0.190	0.008
-182.071	-17.773	0.236	-0.148
-181.056	-73.741	-0.073	0.027
-180.042	62.998	-0.147	0.147
-179.027	389.151	-0.109	0.226
-178.012	272.618	0.063	-0.111
-176.998	800.000	-0.085	-0.238
-175.983	-117.650	-0.223	-0.040
-174.969	800.000	0.073	0.209
-173.954	-31.862	0.037	0.021
-172.939	421.403	0.122	-0.262
-171.925	-31.715	0.171	0.096
-170.910	-98.202	-0.077	0.020
-169.896	-19.753	-0.413	-0.256
-168.881	25.686	0.369	0.307
-167.866	219.802	0.213	0.341
-166.852	113.034	-0.201	0.243
-165.837	198.390	0.050	0.077
-164.823	-29.924	-0.157	0.089
-163.808	-158.485	0.055	-0.003
-162.793	37.819	0.094	0.084
-161.779	-58.453	-0.171	0.074
-160.764	36.151	-0.304	-0.268
-159.750	-200.000	-0.043	0.285
-158.735	254.288	-0.175	0.299
-157.720	360.396	-0.087	0.174
-156.706	230.530	0.220	0.359
-155.691	-49.299	-0.103	0.049
-154.677	259.797	0.125	-0.217
-153.662	-200.000	-0.038	-0.327
-152.647	134.903	0.113	-0.147
-151.633	-200.000	-0.004	0.046
-150.618	72.605	0.195	0.203
-149.604	299.940	0.170	0.313
-148.589	-36.165	-0.193	-0.104
-147.574	-200.000	0.004	-0.273
-146.560	-200.000	-0.026	-0.228
-145.545	43.956	0.133	0.121
-144.531	-200.000	0.034	0.150
-143.516	179.715	-0.125	-0.183
-142.502	800.000	-0.049	-0.172
-141.487	199.915	-0.059	-0.091
-140.472	-107.113	0.160	0.035
-139.458	-98.495	0.311	-0.079
-138.443	-200.000	-0.052	0.312
-137.429	192.679	0.219	0.330
-136.414	469.443	0.121	0.271
-135.399	800.000	0.045	0.185
-134.385	277.971	0.200	-0.356
-133.370	-107.171	-0.198	-0.044
-132.356	-200.000	-0.007	-0.241
-131.341	-200.000	0.064	-0.573
-130.326	-200.000	-0.030	0.261
-129.312	-200.000	0.112	0.567
-128.297	800.000	-0.042	0.160
-127.283	-200.000	-0.003	-0.124
-126.268	800.000	-0.094	-0.266
-125.253	742.470	0.078	0.210
-124.239	673.740	0.064	-0.167
-123.224	150.995	0.194	-0.264
-122.210	14.843	-0.308	0.240
-121.195	-38.981	0.158	0.083
