DTS Sentinel unit serial number:	SN413079Multiplexer serial number:	ORYXHardware model number:	OX4-SRSoftware version number:	ORYX F/W v4.00 Oryx Data Collector v3.7.2.0data status	okinstallation	princeton_trtdifferential loss correction	single-endedforward channel	channel 1reverse channel	N/Adate	2019/09/15time	05:14:36forward acquisition time	60.00reverse acquisition time	0.00gamma	496.2192k internal	0.2325k external	0.2325temperature offset calibration	0.9995default loss term (dB/km)	0.3790temperature slope calibration	1.0000multiplexer offset coefficient	1.0000multiplexer slope coefficient	1.0000fibre end	0.00T internal ref (°C)	30.62T ext. ref 1 (°C)	4.77T ext. ref 2 (°C)	25.40length (m)	temperature (°C)	Stokes	anti-Stokes-747.200	800.000	-0.058	0.250
-746.185	49.130	0.195	0.185
-745.171	-200.000	0.006	0.208
-744.156	402.315	0.104	0.221
-743.142	175.232	-0.167	0.244
-742.127	555.787	0.158	0.384
-741.112	20.464	0.032	0.026
-740.098	-112.895	-0.191	-0.038
-739.083	63.931	-0.089	-0.090
-738.069	339.873	0.207	0.407
-737.054	28.892	-0.381	0.326
-736.039	-88.233	-0.452	0.137
-735.025	-162.134	0.008	-0.000
-734.010	-200.000	-0.004	-0.178
-732.996	-23.722	0.210	-0.127
-731.981	147.888	0.174	-0.236
-730.966	800.000	0.027	-0.076
-729.952	163.199	0.089	-0.126
-728.937	126.718	0.205	0.261
-727.923	191.418	0.240	-0.365
-726.908	34.913	-0.134	0.118
-725.894	-104.496	-0.407	-0.095
-724.879	-91.797	0.024	0.007
-723.864	150.984	-0.158	0.217
-722.850	-103.854	-0.290	-0.068
-721.835	-200.000	-0.021	0.135
-720.821	-157.436	0.188	-0.011
-719.806	370.453	-0.148	-0.302
-718.791	-2.527	-0.113	0.080
-717.777	-119.885	-0.073	-0.013
-716.762	-25.840	0.216	0.128
-715.748	-82.262	0.104	-0.034
-714.733	-14.079	-0.120	-0.078
-713.718	-28.320	-0.199	-0.116
-712.704	-48.096	0.474	0.231
-711.689	263.133	-0.091	-0.159
-710.675	194.121	-0.206	-0.315
-709.660	-45.563	0.350	0.175
-708.645	-200.000	-0.014	0.067
-707.631	444.732	-0.147	0.325
-706.616	-103.874	0.474	0.112
-705.602	800.000	0.021	-0.088
-704.587	138.282	0.188	0.249
-703.572	289.674	0.145	0.265
-702.558	300.744	0.091	0.169
-701.543	182.949	-0.254	-0.378
-700.529	-200.000	-0.049	0.300
-699.514	-25.965	0.099	-0.058
-698.499	-20.147	0.231	-0.144
-697.485	42.607	-0.174	0.160
-696.470	372.501	-0.052	-0.107
-695.456	-91.260	0.040	0.012
-694.441	800.000	-0.113	-0.364
-693.426	800.000	-0.090	-0.319
-692.412	-200.000	-0.006	0.107
-691.397	-80.073	-0.120	-0.040
-690.383	800.000	0.054	0.154
-689.368	-118.503	0.081	0.014
-688.354	44.258	-0.280	0.258
-687.339	117.898	-0.254	0.314
-686.324	-78.155	0.282	0.098
-685.310	36.530	0.063	-0.056
-684.295	800.000	0.021	-0.088
-683.281	800.000	0.034	0.144
-682.266	-200.000	-0.032	-0.267
-681.251	14.764	0.096	-0.075
-680.237	162.956	-0.207	-0.293
-679.222	-142.310	-0.418	0.042
-678.208	58.818	0.090	0.089
-677.193	-21.794	0.187	0.114
-676.178	138.796	0.242	0.320
-675.164	441.335	0.096	-0.211
-674.149	-2.977	-0.344	-0.242
-673.135	243.286	0.092	-0.155
-672.120	113.652	0.126	0.155
-671.105	800.000	-0.026	0.107
-670.091	9.517	-0.166	-0.127
-669.076	-200.000	0.000	-0.168
-668.062	-7.941	-0.127	-0.086
-667.047	-200.000	-0.018	-0.115
-666.032	18.628	-0.144	-0.116
-665.018	-103.810	-0.187	0.044
-664.003	70.181	0.054	-0.056
-662.989	-124.256	0.089	-0.014
-661.974	58.120	0.180	0.177
-660.959	-112.812	-0.057	-0.011
-659.945	452.971	-0.102	-0.226
-658.930	-92.503	0.068	0.019
-657.916	376.726	0.137	-0.281
-656.901	212.569	-0.056	-0.089
-655.886	660.930	-0.067	0.172
-654.872	518.383	0.070	-0.164
-653.857	800.000	-0.118	0.341
-652.843	-200.000	-0.015	0.202
-651.828	-156.101	0.205	-0.013
-650.814	564.528	-0.078	0.189
-649.799	42.945	0.081	0.074
-648.784	-200.000	-0.040	0.221
-647.770	-130.345	-0.426	-0.058
-646.755	33.320	0.269	-0.235
-645.741	-24.246	-0.351	0.211
-644.726	276.857	-0.203	-0.363
-643.711	-200.000	-0.020	0.386
-642.697	30.793	-0.075	0.065
-641.682	-76.994	0.092	0.032
-640.668	172.156	-0.154	-0.222
-639.653	38.714	-0.076	0.069
-638.638	-104.568	-0.244	-0.057
-637.624	-167.772	0.486	-0.019
-636.609	-142.459	0.463	0.046
-635.595	-173.089	-0.087	0.003
-634.580	6.948	0.245	-0.184
-633.565	-200.000	0.033	-0.193
-632.551	-200.000	-0.017	-0.334
-631.536	80.327	-0.073	0.079
-630.522	-80.444	-0.302	-0.101
-629.507	-164.469	-0.075	0.003
-628.492	394.720	0.065	0.135
-627.478	-99.280	0.109	-0.028
-626.463	-200.000	-0.088	0.408
-625.449	-93.375	0.070	-0.019
-624.434	-50.989	-0.121	-0.057
-623.419	-78.011	0.213	0.074
-622.405	-146.108	-0.129	0.011
-621.390	-72.096	0.392	0.146
-620.376	572.816	0.052	0.127
-619.361	-200.000	0.011	0.072
-618.346	-93.263	0.254	-0.071
-617.332	-200.000	0.004	0.021
-616.317	-86.556	-0.233	-0.072
-615.303	480.340	-0.042	0.095
-614.288	-53.758	-0.289	0.132
-613.273	-73.276	0.540	-0.198
-612.259	167.865	0.102	0.146
-611.244	-200.000	-0.027	-0.347
-610.230	-78.852	0.442	0.151
-609.215	-148.477	0.550	0.045
-608.201	646.070	0.101	0.259
-607.186	-66.465	0.407	0.162
-606.171	-200.000	-0.018	-0.150
-605.157	-200.000	-0.003	0.169
-604.142	-181.313	-0.159	0.003
-603.128	-12.546	0.059	0.039
-602.113	34.938	0.237	-0.208
-601.098	-200.000	-0.016	-0.193
-600.084	14.503	0.326	-0.255
-599.069	800.000	-0.061	-0.227
-598.055	24.785	0.070	0.059
-597.040	-61.038	0.223	0.095
-596.025	-200.000	0.006	0.223
-595.011	130.632	0.039	-0.051
-593.996	-68.206	-0.169	0.066
-592.982	-200.000	-0.017	0.275
-591.967	-72.202	-0.242	0.090
-590.952	-200.000	-0.010	-0.203
-589.938	435.271	0.022	-0.049
-588.923	-155.703	-0.197	0.013
-587.909	-95.244	0.035	-0.009
-586.894	330.216	0.044	-0.086
-585.879	-200.000	0.003	-0.070
-584.865	80.810	0.211	-0.229
-583.850	116.962	-0.173	0.214
-582.836	-60.528	0.134	0.057
-581.821	238.397	0.277	-0.462
-580.806	44.434	-0.318	-0.293
-579.792	91.863	-0.220	-0.248
-578.777	-135.495	-0.190	-0.023
-577.763	50.118	-0.079	0.075
-576.748	49.331	-0.161	0.152
-575.733	-108.290	0.079	-0.017
-574.719	800.000	-0.052	0.181
-573.704	347.827	-0.123	0.243
-572.690	-13.901	-0.141	-0.092
-571.675	-86.889	-0.273	0.084
-570.661	-200.000	0.004	-0.174
-569.646	129.008	0.148	0.189
-568.631	-86.953	-0.539	-0.165
-567.617	591.662	-0.230	0.569
-566.602	-42.470	0.154	0.079
-565.588	264.853	-0.079	0.137
-564.573	556.389	0.063	0.153
-563.558	120.531	0.026	-0.033
-562.544	800.000	0.024	0.070
-561.529	-52.433	0.201	-0.093
-560.515	27.075	-0.133	-0.112
-559.500	-30.036	0.172	-0.098
-558.485	-175.833	-0.066	-0.002
-557.471	153.786	-0.022	0.030
-556.456	-34.121	0.162	0.089
-555.442	128.083	0.149	-0.189
-554.427	96.082	-0.263	0.300
-553.412	-57.822	-0.058	0.025
-552.398	234.612	-0.213	-0.352
-551.383	800.000	0.072	0.270
-550.369	-46.275	-0.286	0.141
-549.354	628.058	0.055	0.140
-548.339	20.775	-0.209	-0.170
-547.325	-189.446	-0.130	0.002
-546.310	800.000	0.043	0.184
-545.296	367.788	0.068	-0.137
-544.281	-200.000	-0.019	-0.145
-543.266	-50.798	-0.126	-0.059
-542.252	-36.789	0.156	0.084
-541.237	163.270	-0.234	-0.329
-540.223	-200.000	-0.022	-0.132
-539.208	800.000	-0.142	-0.472
-538.193	-200.000	-0.025	0.140
-537.179	-105.987	0.304	-0.069
-536.164	800.000	0.064	-0.235
-535.150	554.032	-0.133	0.321
-534.135	-169.691	0.573	-0.021
-533.121	512.319	-0.090	-0.210
-532.106	-179.504	0.232	0.005
-531.091	-200.000	0.014	-0.211
-530.077	-42.865	-0.236	-0.120
-529.062	611.489	-0.118	-0.295
-528.048	83.359	-0.016	0.018
-527.033	-36.572	-0.108	0.058
-526.018	-200.000	-0.007	0.251
-525.004	-86.502	0.320	0.098
-523.989	628.456	0.129	-0.325
-522.975	-0.012	-0.241	-0.172
-521.960	299.461	-0.035	-0.064
-520.945	486.413	0.107	-0.244
-519.931	800.000	-0.020	-0.076
-518.916	-200.000	0.007	0.384
-517.902	-16.111	-0.239	0.152
-516.887	-181.682	0.598	-0.012
-515.872	800.000	-0.026	0.103
-514.858	-20.050	0.359	0.221
-513.843	-127.297	0.291	-0.042
-512.829	-90.565	-0.083	-0.024
-511.814	800.000	-0.047	-0.174
-510.799	-86.443	0.357	-0.110
-509.785	-46.352	-0.471	0.232
-508.770	800.000	0.074	0.237
-507.756	-13.372	-0.280	-0.182
-506.741	800.000	-0.028	-0.107
-505.726	-200.000	-0.021	-0.144
-504.712	-72.177	-0.318	0.118
-503.697	67.360	0.129	0.132
-502.683	63.658	0.197	0.198
-501.668	-192.073	-0.327	0.003
-500.653	274.268	-0.107	-0.190
-499.639	-81.363	-0.314	-0.103
-498.624	300.306	-0.071	-0.131
-497.610	-121.826	0.153	-0.025
-496.595	-101.744	0.253	0.061
-495.581	-56.991	-0.149	-0.066
-494.566	-200.000	0.035	0.236
-493.551	14.938	-0.178	0.139
-492.537	800.000	0.022	0.089
-491.522	-100.443	0.181	-0.045
-490.508	-34.263	0.276	-0.152
-489.493	-200.000	-0.016	-0.147
-488.478	405.628	-0.080	0.168
-487.464	-2.545	-0.128	-0.089
-486.449	-90.452	-0.313	0.091
-485.435	19.579	-0.127	-0.102
-484.420	603.560	0.038	0.093
-483.405	-84.253	0.314	-0.099
-482.391	-69.714	0.320	-0.122
-481.376	27.760	-0.121	0.102
-480.362	25.516	0.234	-0.194
-479.347	-91.021	0.361	-0.104
-478.332	251.624	-0.169	-0.287
-477.318	132.408	-0.047	-0.060
-476.303	23.378	-0.118	-0.097
-475.289	-200.000	-0.042	0.238
-474.274	-51.414	-0.323	0.151
-473.259	-65.060	0.250	-0.101
-472.245	661.933	0.071	-0.182
-471.230	34.994	0.209	-0.182
-470.216	38.041	0.105	0.093
-469.201	53.488	-0.185	0.178
-468.186	-4.353	-0.276	-0.190
-467.172	153.624	0.130	0.178
-466.157	482.555	0.062	-0.141
-465.143	800.000	-0.127	0.359
-464.128	-143.196	0.181	0.017
-463.113	4.433	-0.237	-0.173
-462.099	15.272	0.070	-0.055
-461.084	-94.485	0.248	0.067
-460.070	37.142	0.239	-0.211
-459.055	312.661	0.087	0.162
-458.040	-139.902	0.214	0.023
-457.026	-46.949	0.436	0.213
-456.011	-68.053	0.187	0.073
-454.997	63.666	-0.043	-0.043
-453.982	706.737	-0.064	-0.168
-452.968	-200.000	0.020	-0.111
-451.953	44.959	0.041	-0.038
-450.938	-175.174	-0.284	-0.008
-449.924	93.880	-0.098	-0.110
-448.909	499.617	-0.136	-0.314
-447.895	15.942	-0.202	-0.159
-446.880	115.982	0.228	0.278
-445.865	87.526	0.224	0.247
-444.851	331.372	-0.050	-0.095
-443.836	-73.984	-0.192	-0.070
-442.822	154.514	0.090	0.123
-441.807	-148.189	0.233	0.019
-440.792	-15.965	-0.113	0.071
-439.778	-200.000	0.002	0.202
-438.763	-200.000	0.030	-0.285
-437.749	800.000	0.046	-0.184
-436.734	800.000	-0.051	0.163
-435.719	-60.562	0.065	0.027
-434.705	150.486	-0.025	-0.034
-433.690	99.751	-0.040	0.046
-432.676	-145.486	-0.176	0.016
-431.661	6.047	-0.028	0.021
-430.646	-200.000	-0.008	0.060
-429.632	-200.000	0.057	-0.281
-428.617	-92.554	-0.165	-0.046
-427.603	235.779	-0.172	-0.284
-426.588	-35.695	-0.012	-0.006
-425.573	166.888	-0.056	-0.079
-424.559	-8.802	-0.223	0.149
-423.544	-62.261	0.246	-0.102
-422.530	-81.207	-0.220	0.072
-421.515	249.617	0.182	0.308
-420.500	-126.979	0.109	0.016
-419.486	678.662	0.114	0.296
-418.471	15.986	-0.014	0.011
-417.457	800.000	0.021	0.079
-416.442	14.597	-0.284	0.221
-415.428	-200.000	0.005	-0.385
-414.413	11.218	0.330	0.251
-413.398	-48.418	0.101	-0.049
-412.384	-111.631	-0.434	0.088
-411.369	-53.465	0.040	0.018
-410.355	-147.830	0.311	0.026
-409.340	767.983	-0.164	0.444
-408.325	234.297	-0.189	-0.310
-407.311	-200.000	-0.045	0.212
-406.296	-10.505	-0.155	0.102
-405.282	135.760	0.115	0.149
-404.267	266.904	0.142	-0.247
-403.252	-200.000	0.008	0.215
-402.238	86.051	-0.040	-0.043
-401.223	295.639	-0.097	-0.178
-400.209	108.612	-0.102	-0.122
-399.194	54.297	-0.077	0.074
-398.179	-55.153	0.163	0.073
-397.165	-154.958	-0.222	-0.015
-396.150	110.769	-0.082	-0.099
-395.136	15.320	0.040	0.031
-394.121	-200.000	-0.077	0.336
-393.106	-100.744	-0.415	0.102
-392.092	800.000	-0.043	-0.188
-391.077	-14.081	0.065	-0.042
-390.063	158.221	0.067	0.092
-389.048	136.817	-0.059	0.076
-388.033	-130.263	-0.343	0.046
-387.019	58.666	-0.024	0.023
-386.004	800.000	-0.068	-0.221
-384.990	4.067	-0.086	-0.063
-383.975	800.000	0.088	0.331
-382.960	-106.750	0.214	-0.047
-381.946	-200.000	0.043	-0.274
-380.931	-200.000	0.025	-0.280
-379.917	-2.130	0.085	-0.060
-378.902	800.000	0.081	0.229
-377.888	297.658	-0.127	0.231
-376.873	-13.637	-0.252	0.162
-375.858	-200.000	-0.026	0.470
-374.844	-108.034	0.118	0.025
-373.829	-70.665	-0.197	-0.074
-372.815	-79.557	-0.132	-0.044
-371.800	800.000	0.069	-0.213
-370.785	-80.356	0.214	-0.071
-369.771	800.000	-0.117	0.457
-368.756	800.000	-0.062	-0.206
-367.742	-2.572	0.208	0.145
-366.727	75.280	0.075	-0.079
-365.712	-1.688	0.447	-0.313
-364.698	245.897	0.133	0.223
-363.683	54.295	0.357	-0.341
-362.669	43.713	-0.079	-0.072
-361.654	800.000	-0.015	0.048
-360.639	-42.653	-0.396	-0.201
-359.625	-45.361	0.304	-0.150
-358.610	-149.257	-0.228	-0.018
-357.596	146.263	-0.156	-0.208
-356.581	-200.000	0.002	-0.024
-355.566	-83.970	-0.370	0.117
-354.552	210.157	0.114	0.178
-353.537	-74.519	-0.114	-0.041
-352.523	91.867	-0.195	-0.218
-351.508	800.000	0.037	0.109
-350.493	-22.567	-0.045	0.027
-349.479	-200.000	-0.002	-0.358
-348.464	-90.309	-0.322	-0.093
-347.450	-99.674	-0.281	-0.070
-346.435	68.986	-0.202	0.207
-345.420	-200.000	-0.007	0.200
-344.406	536.126	-0.107	-0.252
-343.391	-200.000	-0.011	0.114
-342.377	-104.790	-0.155	0.035
-341.362	-142.015	0.049	-0.005
-340.348	-73.533	0.342	0.124
-339.333	82.043	0.084	-0.090
-338.318	-149.232	0.114	0.009
-337.304	-200.000	-0.012	-0.107
-336.289	-200.000	-0.049	0.327
-335.275	-144.706	0.268	0.025
-334.260	-200.000	0.012	-0.166
-333.245	-90.012	0.228	-0.066
-332.231	-153.218	0.319	0.022
-331.216	120.698	-0.165	-0.203
-330.202	542.003	0.006	0.015
-329.187	527.720	-0.061	-0.142
-328.172	-48.583	-0.329	-0.157
-327.158	267.728	0.143	-0.248
-326.143	-164.781	0.184	0.008
-325.129	20.569	0.224	-0.180
-324.114	63.965	-0.239	-0.238
-323.099	-200.000	-0.007	0.185
-322.085	-200.000	-0.021	-0.113
-321.070	-55.411	0.185	0.082
-320.056	185.252	-0.243	-0.358
-319.041	220.154	-0.139	0.222
-318.026	-45.755	-0.105	0.051
-317.012	-98.703	0.198	-0.050
-315.997	56.287	-0.311	-0.300
-314.983	395.282	0.117	0.241
-313.968	-100.069	-0.339	0.084
-312.953	578.357	-0.128	0.311
-311.939	-80.312	-0.308	-0.102
-310.924	143.965	-0.142	-0.188
-309.910	-200.000	0.029	-0.311
-308.895	-200.000	-0.022	0.184
-307.880	6.372	0.247	0.182
-306.866	95.976	-0.259	-0.294
-305.851	-104.335	-0.131	0.030
-304.837	-131.626	0.156	0.020
-303.822	744.812	-0.057	0.151
-302.807	-155.374	0.492	0.032
-301.793	-146.016	-0.385	0.034
-300.778	198.463	0.086	0.130
-299.764	800.000	-0.087	0.253
-298.749	58.757	-0.209	0.204
-297.735	-197.126	0.402	0.003
-296.720	-200.000	0.005	-0.162
-295.705	-109.405	0.111	0.023
-294.691	188.096	-0.098	0.146
-293.676	-68.918	0.323	0.124
-292.662	-200.000	-0.004	0.040
-291.647	181.931	-0.146	-0.213
-290.632	138.165	-0.076	-0.099
-289.618	27.844	0.222	0.185
-288.603	265.208	0.053	0.092
-287.589	-24.896	-0.182	-0.107
-286.574	-200.000	-0.008	0.225
-285.559	-47.393	0.194	-0.093
-284.545	572.224	-0.038	0.092
-283.530	348.364	-0.081	-0.158
-282.516	-200.000	-0.055	-0.424
-281.501	272.283	-0.034	-0.059
-280.486	149.945	0.125	0.168
-279.472	-200.000	0.007	0.368
-278.457	73.570	0.024	-0.025
-277.443	-99.588	-0.120	-0.030
-276.428	-200.000	-0.020	0.247
-275.413	12.210	0.073	0.056
-274.399	91.054	0.259	0.288
-273.384	-26.604	-0.396	-0.229
-272.370	-200.000	-0.020	-0.137
-271.355	-200.000	0.014	0.061
-270.340	-200.000	-0.007	0.092
-269.326	-172.323	-0.358	0.011
-268.311	-130.108	-0.119	0.016
-267.297	-189.377	0.406	-0.005
-266.282	-67.531	-0.166	-0.065
-265.267	512.699	-0.106	-0.244
-264.253	800.000	-0.097	-0.378
-263.238	-101.709	-0.126	-0.030
-262.224	800.000	0.084	-0.249
-261.209	464.165	0.085	0.189
-260.195	-101.488	-0.343	0.083
-259.180	-7.623	-0.352	0.236
-258.165	646.124	0.085	-0.215
-257.151	19.370	0.218	-0.173
-256.136	-53.535	0.138	0.062
-255.122	800.000	0.028	0.119
-254.107	-200.000	-0.015	-0.072
-253.092	800.000	0.051	-0.159
-252.078	-200.000	0.042	0.201
-251.063	193.654	-0.042	0.063
-250.049	-39.424	0.093	-0.049
-249.034	62.038	0.196	-0.193
-248.019	68.585	0.157	-0.160
-247.005	-92.475	-0.376	-0.104
-245.990	73.609	0.053	-0.055
-244.976	120.176	-0.039	0.048
-243.961	71.590	-0.349	-0.358
-242.946	570.732	0.123	0.295
-241.932	-200.000	-0.005	0.149
-240.917	-200.000	0.017	0.186
-239.903	720.720	-0.079	-0.209
-238.888	-19.147	-0.262	0.161
-237.873	-136.057	0.160	0.019
-236.859	221.877	-0.092	-0.147
-235.844	92.276	0.258	0.287
-234.830	800.000	0.144	0.472
-233.815	-200.000	0.002	0.055
-232.800	-166.397	0.373	0.015
-231.786	800.000	0.154	0.438
-230.771	35.733	0.266	-0.231
-229.757	-24.899	-0.222	0.130
-228.742	44.527	0.185	0.169
-227.727	352.596	0.120	-0.235
-226.713	292.719	0.110	-0.198
-225.698	164.294	-0.128	-0.178
-224.684	-52.239	-0.154	-0.070
-223.669	-200.000	0.039	0.198
-222.655	-4.646	-0.277	-0.189
-221.640	306.932	0.116	-0.213
-220.625	390.280	-0.133	-0.272
-219.611	-32.374	-0.179	-0.099
-218.596	-123.153	-0.032	0.005
-217.582	-107.993	0.197	-0.042
-216.567	-8.869	0.331	-0.219
-215.552	53.069	-0.114	-0.108
-214.538	111.912	0.048	-0.057
-213.523	-200.000	-0.062	0.352
-212.509	-39.979	-0.207	0.107
-211.494	23.544	0.217	-0.176
-210.479	127.594	0.139	0.174
-209.465	42.789	-0.270	0.243
-208.450	-200.000	0.021	-0.268
-207.436	271.463	0.209	0.363
-206.421	396.864	0.216	0.446
-205.406	-72.286	-0.257	-0.094
-204.392	-21.841	-0.223	-0.134
-203.377	-200.000	0.025	0.172
-202.363	-200.000	0.023	0.151
-201.348	-155.695	0.410	-0.026
-200.333	800.000	0.039	0.141
-199.319	426.685	-0.126	-0.268
-198.304	-43.287	0.187	-0.093
-197.290	176.608	-0.083	0.119
-196.275	-40.571	-0.110	0.057
-195.260	-184.830	0.342	0.005
-194.246	97.996	0.110	-0.126
-193.231	-40.423	-0.200	-0.103
-192.217	341.281	-0.111	0.213
-191.202	230.253	0.054	0.088
-190.187	-113.574	0.167	-0.032
-189.173	-200.000	0.006	0.072
-188.158	123.675	-0.095	0.118
-187.144	139.874	-0.209	-0.272
-186.129	-200.000	-0.037	0.298
-185.114	276.153	-0.101	0.177
-184.100	-200.000	0.028	0.217
-183.085	447.117	0.190	0.412
-182.071	169.486	0.202	0.284
-181.056	-200.000	-0.037	-0.235
-180.042	-123.208	0.246	0.039
-179.027	-128.587	-0.206	-0.029
-178.012	-200.000	0.028	0.139
-176.998	-160.897	-0.340	0.018
-175.983	-60.265	-0.155	0.065
-174.969	800.000	-0.078	-0.214
-173.954	156.473	-0.067	-0.091
-172.939	8.416	-0.187	-0.139
-171.925	-25.291	-0.129	0.075
-170.910	-200.000	-0.013	-0.113
-169.896	-78.342	0.203	-0.069
-168.881	-97.271	0.023	-0.006
-167.866	-67.033	0.070	-0.027
-166.852	-83.301	-0.207	0.066
-165.837	98.471	0.071	-0.081
-164.823	32.590	0.565	0.481
-163.808	142.130	-0.215	0.281
-162.793	-200.000	-0.015	-0.239
-161.779	-129.313	-0.426	-0.058
-160.764	-200.000	-0.040	-0.197
-159.750	-74.316	0.475	0.169
-158.735	-88.173	0.262	-0.077
-157.720	155.954	0.081	0.110
-156.706	-200.000	0.033	0.324
-155.691	-46.905	0.408	0.196
-154.677	800.000	-0.051	-0.203
-153.662	43.357	-0.385	-0.347
-152.647	628.713	0.095	-0.238
-151.633	41.458	0.175	0.156
-150.618	72.684	0.054	0.055
-149.604	45.960	0.207	0.188
-148.589	620.628	0.094	-0.233
-147.574	262.752	0.137	0.235
-146.560	775.039	0.165	-0.444
-145.545	38.328	0.200	-0.176
-144.531	-88.583	0.030	-0.009
-143.516	-200.000	0.025	0.253
-142.502	-200.000	0.003	0.157
-141.487	343.470	0.064	-0.123
-140.472	-200.000	-0.042	0.231
-139.458	-19.796	-0.279	0.170
-138.443	-56.797	0.209	-0.091
-137.429	-125.608	0.126	-0.019
-136.414	-147.223	-0.310	0.026
-135.399	-200.000	-0.035	0.261
-134.385	23.357	-0.051	0.041
-133.370	-85.754	0.201	-0.062
-132.356	67.272	0.164	0.165
-131.341	62.104	0.187	0.184
-130.326	-45.066	0.219	-0.107
-129.312	-77.428	-0.157	-0.054
-128.297	619.621	-0.080	0.197
-127.283	-46.213	0.076	-0.037
-126.268	56.621	-0.284	-0.272
-125.253	163.294	0.075	-0.104
-124.239	-118.415	-0.341	-0.060
-123.224	-150.227	-0.127	0.010
-122.210	-84.543	-0.354	-0.110
-121.195	165.929	-0.080	-0.111
