DTS Sentinel unit serial number:	SN413079Multiplexer serial number:	ORYXHardware model number:	OX4-SRSoftware version number:	ORYX F/W v4.00 Oryx Data Collector v3.7.2.0data status	okinstallation	princeton_trtdifferential loss correction	single-endedforward channel	channel 1reverse channel	N/Adate	2019/09/16time	18:58:35forward acquisition time	60.00reverse acquisition time	0.00gamma	496.2192k internal	0.2310k external	0.2310temperature offset calibration	0.9948default loss term (dB/km)	0.3790temperature slope calibration	1.0000multiplexer offset coefficient	1.0000multiplexer slope coefficient	1.0000fibre end	0.00T internal ref (°C)	35.64T ext. ref 1 (°C)	0.07T ext. ref 2 (°C)	28.89length (m)	temperature (°C)	Stokes	anti-Stokes-747.200	110.804	0.197	0.240
-746.185	-200.000	-0.043	0.477
-745.171	7.167	0.211	-0.160
-744.156	-200.000	-0.147	0.001
-743.142	87.877	0.116	-0.131
-742.127	143.698	-0.047	0.063
-741.112	800.000	0.091	0.311
-740.098	555.473	-0.049	-0.120
-739.083	-73.687	0.278	0.103
-738.069	-38.756	0.111	0.059
-737.054	27.871	0.119	-0.102
-736.039	-179.675	-0.094	-0.002
-735.025	-3.499	0.167	0.118
-734.010	-200.000	0.053	0.542
-732.996	-157.480	-0.336	-0.020
-731.981	-127.491	-0.039	-0.006
-730.966	-186.552	0.102	0.001
-729.952	-94.055	-0.165	-0.046
-728.937	800.000	0.029	0.102
-727.923	-200.000	-0.012	-0.281
-726.908	-200.000	0.016	0.260
-725.894	-95.759	0.252	0.068
-724.879	2.166	-0.137	-0.100
-723.864	27.987	0.146	0.125
-722.850	379.347	0.127	-0.264
-721.835	7.586	-0.178	0.135
-720.821	-200.000	0.005	-0.081
-719.806	686.895	0.026	0.070
-718.791	560.905	0.097	0.239
-717.777	-200.000	0.004	-0.098
-716.762	337.095	-0.081	0.160
-715.748	-200.000	-0.027	0.197
-714.733	-98.135	0.250	-0.065
-713.718	457.233	0.099	0.223
-712.704	-164.443	0.138	0.006
-711.689	-200.000	-0.023	-0.115
-710.675	-146.796	-0.200	-0.018
-709.660	166.196	0.094	0.135
-708.645	-71.704	0.376	-0.142
-707.631	-14.457	-0.034	0.022
-706.616	-125.015	0.183	-0.028
-705.602	-131.906	0.019	0.003
-704.587	-200.000	-0.038	0.217
-703.572	-200.000	0.012	0.098
-702.558	20.831	-0.052	0.043
-701.543	348.710	-0.185	-0.371
-700.529	800.000	0.012	-0.047
-699.514	-100.478	-0.112	-0.028
-698.499	24.423	-0.153	0.129
-697.485	13.615	-0.207	-0.163
-696.470	-35.497	0.255	0.140
-695.456	-200.000	-0.029	0.151
-694.441	-200.000	-0.024	-0.199
-693.426	-200.000	-0.017	-0.281
-692.412	-200.000	0.014	0.185
-691.397	-95.293	-0.350	-0.096
-690.383	-6.305	-0.096	0.066
-689.368	-138.340	-0.407	-0.046
-688.354	-151.051	-0.035	-0.003
-687.339	-20.799	0.039	0.024
-686.324	36.218	0.257	-0.229
-685.310	188.423	0.133	0.202
-684.295	-200.000	-0.008	-0.055
-683.281	-200.000	0.081	0.463
-682.266	-102.091	-0.225	-0.055
-681.251	-75.353	0.248	-0.090
-680.237	-157.628	-0.110	0.007
-679.222	-138.375	-0.049	0.006
-678.208	800.000	-0.102	0.406
-677.193	672.218	-0.099	-0.261
-676.178	-62.604	-0.281	-0.118
-675.164	800.000	0.069	0.207
-674.149	25.737	-0.041	0.035
-673.135	17.965	-0.214	-0.172
-672.120	-15.691	0.575	0.371
-671.105	-82.043	0.323	-0.107
-670.091	-76.028	-0.078	0.028
-669.076	20.304	0.255	-0.209
-668.062	-200.000	-0.030	-0.159
-667.047	386.115	0.123	-0.258
-666.032	-200.000	-0.060	0.344
-665.018	-24.331	0.184	0.111
-664.003	-9.748	0.432	-0.291
-662.989	38.198	0.222	0.200
-661.974	-3.570	-0.092	0.065
-660.959	2.813	-0.220	-0.162
-659.945	443.045	-0.061	-0.135
-658.930	10.837	-0.147	-0.114
-657.916	-149.920	0.340	0.027
-656.901	40.917	0.161	0.147
-655.886	-99.439	-0.044	-0.011
-654.872	-75.279	-0.414	-0.150
-653.857	-200.000	0.003	-0.024
-652.843	800.000	0.020	0.069
-651.828	-28.398	-0.258	0.151
-650.814	800.000	-0.038	0.167
-649.799	-200.000	0.010	-0.115
-648.784	349.253	-0.273	-0.545
-647.770	-80.690	-0.151	0.051
-646.755	515.856	0.125	0.295
-645.741	186.486	-0.061	0.092
-644.726	29.565	-0.205	-0.177
-643.711	-138.516	0.232	-0.026
-642.697	582.619	-0.006	0.015
-641.682	800.000	0.119	-0.377
-640.668	-200.000	-0.022	0.150
-639.653	-19.819	-0.277	-0.173
-638.638	-118.121	-0.300	-0.054
-637.624	335.228	-0.177	-0.348
-636.609	-116.356	0.082	-0.015
-635.595	-81.027	-0.229	-0.077
-634.580	-79.621	0.179	0.061
-633.565	-200.000	-0.013	-0.138
-632.551	-123.803	-0.116	-0.019
-631.536	-200.000	-0.009	-0.095
-630.522	17.934	-0.217	0.175
-629.507	-200.000	0.013	0.126
-628.492	800.000	0.059	-0.189
-627.478	-13.392	0.262	-0.172
-626.463	-10.056	0.148	0.099
-625.449	-123.151	0.377	0.061
-624.434	78.880	0.105	-0.114
-623.419	9.133	0.168	-0.128
-622.405	44.097	-0.059	-0.054
-621.390	-200.000	-0.004	-0.066
-620.376	49.225	0.279	0.265
-619.361	800.000	0.070	0.275
-618.346	800.000	-0.054	0.214
-617.332	-58.173	-0.202	-0.089
-616.317	79.168	-0.198	0.214
-615.303	800.000	-0.009	-0.034
-614.288	153.960	-0.105	-0.145
-613.273	790.377	0.127	0.353
-612.259	-46.986	-0.334	0.165
-611.244	-200.000	0.022	-0.111
-610.230	-106.993	0.115	-0.026
-609.215	63.003	-0.152	-0.153
-608.201	-93.872	-0.110	0.030
-607.186	432.455	-0.112	0.244
-606.171	-98.696	0.153	-0.039
-605.157	115.470	-0.165	0.204
-604.142	140.052	0.191	-0.254
-603.128	-200.000	-0.012	0.149
-602.113	-11.637	0.091	0.061
-601.098	-200.000	0.039	0.212
-600.084	-73.718	0.187	0.069
-599.069	80.701	-0.239	-0.260
-598.055	800.000	0.077	0.273
-597.040	-93.655	-0.152	0.042
-596.025	-191.450	-0.232	-0.002
-595.011	110.398	0.220	0.266
-593.996	484.472	0.113	0.260
-592.982	800.000	0.111	-0.375
-591.967	800.000	0.085	-0.328
-590.952	-60.598	-0.136	0.058
-589.938	45.148	-0.354	-0.329
-588.923	-124.462	0.180	-0.028
-587.909	800.000	0.071	0.282
-586.894	800.000	0.009	0.029
-585.879	356.653	-0.056	0.113
-584.865	126.151	-0.091	-0.116
-583.850	-200.000	-0.036	-0.322
-582.836	800.000	-0.082	0.275
-581.821	-82.823	0.260	-0.085
-580.806	-76.623	0.142	0.050
-579.792	800.000	0.023	-0.095
-578.777	-107.953	-0.499	-0.109
-577.763	-200.000	-0.031	0.173
-576.748	-31.067	-0.164	-0.093
-575.733	-119.627	-0.224	-0.039
-574.719	-77.554	0.104	-0.037
-573.704	-13.564	-0.190	0.124
-572.690	-43.769	0.170	-0.087
-571.675	800.000	-0.068	-0.192
-570.661	-123.713	0.108	-0.017
-569.646	-4.589	0.140	-0.098
-568.631	800.000	0.024	-0.083
-567.617	44.922	0.087	0.081
-566.602	800.000	0.092	0.313
-565.588	100.432	-0.288	0.337
-564.573	-200.000	0.044	0.420
-563.558	-3.317	-0.089	0.063
-562.544	61.170	0.140	0.140
-561.529	-200.000	0.011	0.262
-560.515	5.935	-0.370	0.276
-559.500	-124.341	0.154	-0.024
-558.485	-135.007	-0.187	0.023
-557.471	800.000	0.068	-0.255
-556.456	-79.978	-0.237	0.080
-555.442	-30.743	0.182	-0.104
-554.427	-147.424	0.261	-0.022
-553.412	78.312	0.101	-0.109
-552.398	-137.955	0.020	-0.002
-551.383	338.966	0.053	0.103
-550.369	464.955	-0.046	0.103
-549.354	99.911	0.212	-0.248
-548.339	96.045	-0.235	0.270
-547.325	26.285	-0.236	0.199
-546.310	800.000	-0.047	-0.161
-545.296	-120.908	-0.149	-0.025
-544.281	-28.376	0.084	-0.049
-543.266	-200.000	-0.043	-0.353
-542.252	-200.000	-0.013	-0.179
-541.237	39.516	-0.065	0.059
-540.223	-64.507	-0.206	0.084
-539.208	230.731	-0.078	0.129
-538.193	130.572	-0.082	0.106
-537.179	45.472	-0.042	0.039
-536.164	-105.844	0.325	-0.074
-535.150	36.948	-0.020	0.018
-534.135	-135.458	0.237	-0.028
-533.121	130.840	0.009	-0.012
-532.106	718.702	0.093	0.248
-531.091	-96.016	0.255	-0.068
-530.077	-43.129	0.350	0.179
-529.062	97.717	-0.063	-0.073
-528.048	165.539	-0.111	0.158
-527.033	2.744	-0.012	-0.008
-526.018	-83.330	0.056	-0.018
-525.004	-46.431	0.025	0.012
-523.989	-76.242	-0.178	-0.063
-522.975	-200.000	0.016	0.101
-521.960	255.313	-0.108	-0.187
-520.945	28.591	-0.209	-0.178
-519.931	-125.409	0.100	-0.015
-518.916	-33.410	0.388	0.216
-517.902	30.835	-0.050	0.043
-516.887	-50.750	0.071	-0.034
-515.872	-186.195	-0.112	-0.002
-514.858	-93.942	0.149	-0.041
-513.843	800.000	-0.023	-0.071
-512.829	-172.361	-0.203	-0.007
-511.814	8.633	-0.360	-0.273
-510.799	-45.816	-0.102	-0.051
-509.785	388.680	-0.052	-0.109
-508.770	24.947	0.050	0.042
-507.756	800.000	0.063	0.180
-506.741	-160.611	0.360	0.019
-505.726	-172.104	-0.279	-0.009
-504.712	-17.508	-0.167	0.106
-503.697	88.750	-0.258	0.289
-502.683	224.065	0.159	0.259
-501.668	-40.247	0.378	-0.198
-500.653	33.555	-0.034	0.030
-499.639	159.229	-0.059	-0.082
-498.624	234.305	0.215	-0.356
-497.610	-200.000	-0.016	-0.108
-496.595	-14.257	-0.135	0.088
-495.581	220.395	-0.167	-0.269
-494.566	-58.702	0.105	-0.046
-493.551	-16.097	0.255	-0.163
-492.537	526.183	-0.169	-0.400
-491.522	-155.429	0.242	0.016
-490.508	60.488	0.173	-0.173
-489.493	-6.980	-0.141	0.096
-488.478	-31.979	0.052	-0.029
-487.464	385.419	0.052	0.108
-486.449	56.652	0.022	-0.021
-485.435	-200.000	0.051	0.407
-484.420	-78.117	0.135	0.047
-483.405	501.497	0.102	0.238
-482.391	-115.884	0.134	-0.025
-481.376	-200.000	-0.001	0.181
-480.362	-7.732	0.273	0.185
-479.347	-99.966	0.355	0.089
-478.332	-134.512	-0.199	0.024
-477.318	-200.000	-0.042	-0.256
-476.303	131.707	0.046	0.060
-475.289	-148.680	-0.198	0.016
-474.274	800.000	-0.129	0.372
-473.259	296.889	0.089	0.165
-472.245	-67.120	-0.137	0.054
-471.230	640.910	-0.031	-0.079
-470.216	-112.527	0.101	-0.020
-469.201	697.355	-0.122	0.322
-468.186	-200.000	0.012	-0.172
-467.172	135.384	-0.120	-0.157
-466.157	-171.969	-0.181	-0.006
-465.143	9.996	0.190	0.145
-464.128	-200.000	0.031	-0.285
-463.113	-72.699	-0.210	0.078
-462.099	-157.487	0.192	-0.012
-461.084	-200.000	-0.012	0.130
-460.070	-95.311	-0.170	0.046
-459.055	-200.000	0.012	-0.056
-458.040	13.542	0.263	-0.205
-457.026	-72.620	0.027	-0.010
-456.011	-36.397	-0.095	0.051
-454.997	-55.185	-0.181	-0.082
-453.982	244.634	-0.054	0.092
-452.968	147.663	-0.186	0.252
-451.953	-95.205	0.082	-0.022
-450.938	569.537	0.120	0.293
-449.924	-109.394	0.149	-0.032
-448.909	152.178	-0.036	0.049
-447.895	-4.245	0.190	0.132
-446.880	-64.944	-0.115	0.047
-445.865	174.645	-0.129	0.188
-444.851	-177.859	-0.167	-0.004
-443.836	-200.000	-0.036	-0.344
-442.822	5.666	0.337	-0.250
-441.807	-70.756	-0.203	-0.077
-440.792	-200.000	-0.055	-0.279
-439.778	-119.908	-0.349	0.060
-438.763	105.943	0.166	0.198
-437.749	800.000	0.030	0.093
-436.734	-200.000	-0.023	-0.118
-435.719	-200.000	0.004	-0.224
-434.705	374.924	0.120	-0.246
-433.690	-125.940	0.033	0.005
-432.676	124.201	0.310	0.391
-431.661	-50.274	-0.164	0.078
-430.646	-160.237	-0.378	-0.020
-429.632	-25.888	0.166	0.098
-428.617	-200.000	-0.011	-0.259
-427.603	57.606	-0.181	-0.178
-426.588	570.801	-0.021	0.052
-425.573	476.488	-0.051	0.115
-424.559	-40.629	-0.247	-0.128
-423.544	-136.759	0.036	0.004
-422.530	73.380	-0.248	-0.260
-421.515	-200.000	0.010	-0.176
-420.500	735.096	-0.137	-0.369
-419.486	-145.447	-0.576	0.052
-418.471	800.000	0.101	0.316
-417.457	296.172	0.152	-0.279
-416.442	408.008	0.165	-0.350
-415.428	39.441	0.258	-0.232
-414.413	800.000	-0.094	0.297
-413.398	110.586	0.415	0.500
-412.384	329.534	0.161	0.311
-411.369	-98.857	0.242	0.062
-410.355	-185.884	0.140	-0.002
-409.340	-36.765	0.075	-0.040
-408.325	786.188	-0.044	0.122
-407.311	78.472	-0.132	-0.141
-406.296	-26.470	-0.238	-0.140
-405.282	-49.680	0.127	0.060
-404.267	25.547	-0.053	0.044
-403.252	100.682	-0.061	-0.072
-402.238	-200.000	0.079	-0.377
-401.223	-200.000	0.066	-0.366
-400.209	-45.123	0.271	0.135
-399.194	200.727	0.100	-0.154
-398.179	286.508	0.158	0.285
-397.165	800.000	-0.081	0.298
-396.150	-57.350	0.251	0.110
-395.136	-17.867	-0.322	0.202
-394.121	23.558	0.136	-0.112
-393.106	-134.772	-0.160	0.019
-392.092	-200.000	-0.050	0.314
-391.077	-115.256	0.319	0.060
-390.063	-200.000	0.006	-0.116
-389.048	-121.276	-0.248	0.041
-388.033	366.115	-0.103	0.208
-387.019	277.437	-0.189	0.338
-386.004	-200.000	-0.028	0.257
-384.990	-6.736	-0.242	0.165
-383.975	-200.000	0.043	-0.260
-382.960	-31.168	-0.103	0.058
-381.946	306.585	-0.050	0.093
-380.931	-200.000	-0.002	-0.428
-379.917	-200.000	0.056	0.353
-378.902	12.339	0.122	0.094
-377.888	800.000	-0.070	0.258
-376.873	-180.698	0.167	0.003
-375.858	-127.557	0.079	-0.011
-374.844	42.400	-0.252	0.230
-373.829	-106.951	-0.045	0.010
-372.815	-118.739	0.372	0.066
-371.800	377.215	-0.028	-0.056
-370.785	-138.462	0.089	0.010
-369.771	-118.946	0.052	-0.009
-368.756	-143.484	0.365	0.035
-367.742	-130.550	-0.323	-0.044
-366.727	98.236	0.125	-0.145
-365.712	-200.000	0.013	0.126
-364.698	605.362	-0.116	0.290
-363.683	94.021	0.218	0.248
-362.669	95.923	0.242	-0.277
-361.654	-28.351	-0.169	-0.098
-360.639	-146.617	0.354	-0.031
-359.625	129.481	0.111	-0.142
-358.610	800.000	0.044	-0.123
-357.596	-200.000	0.008	-0.238
-356.581	-200.000	-0.033	-0.161
-355.566	-117.113	0.138	-0.025
-354.552	800.000	-0.051	0.155
-353.537	479.421	0.074	-0.168
-352.523	800.000	-0.098	0.317
-351.508	-105.744	0.028	0.006
-350.493	-0.300	-0.050	0.035
-349.479	-200.000	0.009	-0.083
-348.464	-84.660	-0.131	0.041
-347.450	43.023	0.220	0.201
-346.435	25.686	0.057	0.047
-345.420	-91.357	-0.209	0.060
-344.406	-74.190	0.247	-0.089
-343.391	-15.223	-0.319	-0.204
-342.377	800.000	-0.050	0.141
-341.362	-92.496	0.112	0.031
-340.348	-45.919	-0.155	-0.076
-339.333	114.894	0.093	0.113
-338.318	-43.323	-0.138	0.070
-337.304	231.076	0.133	0.218
-336.289	-64.934	-0.294	0.119
-335.275	-17.317	-0.132	0.083
-334.260	21.604	0.111	-0.090
-333.245	42.617	-0.134	0.122
-332.231	800.000	0.082	0.256
-331.216	-74.183	0.362	0.131
-330.202	-37.477	-0.112	0.060
-329.187	-200.000	-0.024	-0.269
-328.172	54.453	0.277	0.267
-327.158	22.348	0.034	-0.027
-326.143	-144.486	-0.143	-0.013
-325.129	800.000	-0.112	0.324
-324.114	201.423	0.119	-0.183
-323.099	-93.966	0.234	0.064
-322.085	-109.260	-0.419	-0.089
-321.070	800.000	0.032	-0.131
-320.056	-25.438	-0.087	-0.051
-319.041	-123.230	0.104	0.017
-318.026	42.380	-0.137	0.124
-317.012	376.594	-0.116	-0.236
-315.997	-200.000	-0.007	-0.244
-314.983	-200.000	0.019	0.084
-313.968	8.148	-0.178	0.133
-312.953	-115.750	0.209	-0.039
-311.939	-0.873	-0.177	0.125
-310.924	800.000	0.067	0.232
-309.910	147.339	-0.219	0.295
-308.895	-96.410	-0.147	0.039
-307.880	-44.938	0.240	0.119
-306.866	-200.000	0.017	0.181
-305.851	27.683	-0.114	-0.096
-304.837	-14.144	0.217	-0.140
-303.822	37.316	0.153	0.135
-302.807	-15.314	-0.241	-0.154
-301.793	800.000	-0.028	0.095
-300.778	232.725	-0.152	0.250
-299.764	91.641	0.064	-0.072
-298.749	800.000	-0.085	-0.295
-297.735	-34.445	-0.329	-0.180
-296.720	-152.377	0.362	-0.026
-295.705	-131.047	0.277	0.037
-294.691	-200.000	-0.003	-0.196
-293.676	5.383	-0.198	-0.146
-292.662	487.948	-0.055	-0.125
-291.647	-117.705	-0.216	-0.039
-290.632	9.444	0.314	-0.237
-289.618	494.470	0.099	-0.227
-288.603	230.439	-0.087	-0.142
-287.589	-182.844	0.107	-0.002
-286.574	295.280	-0.070	-0.129
-285.559	-172.204	0.246	0.008
-284.545	-200.000	0.012	-0.308
-283.530	348.565	-0.108	0.212
-282.516	-25.138	-0.174	0.103
-281.501	-96.375	-0.211	-0.056
-280.486	-90.053	0.254	0.074
-279.472	-33.449	-0.068	0.038
-278.457	8.397	0.168	-0.126
-277.443	-200.000	0.009	-0.077
-276.428	-200.000	-0.032	-0.220
-275.413	-55.777	0.214	-0.096
-274.399	380.781	-0.112	-0.229
-273.384	-111.187	0.260	-0.053
-272.370	-74.038	0.138	-0.050
-271.355	-34.964	-0.201	-0.109
-270.340	-200.000	-0.003	-0.209
-269.326	55.201	0.119	-0.115
-268.311	-103.496	-0.234	0.055
-267.297	-200.000	0.030	0.135
-266.282	800.000	0.092	-0.259
-265.267	102.101	-0.180	0.210
-264.253	398.303	0.128	0.267
-263.238	-76.113	-0.325	-0.114
-262.224	-24.123	-0.423	-0.252
-261.209	87.195	-0.239	-0.264
-260.195	-173.618	0.174	-0.005
-259.180	-43.027	0.260	-0.131
-258.165	-200.000	0.014	-0.227
-257.151	39.374	-0.162	-0.145
-256.136	-116.622	0.308	0.056
-255.122	29.574	0.091	0.077
-254.107	-13.088	0.089	-0.057
-253.092	800.000	0.049	-0.173
-252.078	152.737	0.111	0.151
-251.063	116.364	-0.222	0.271
-250.049	68.506	-0.144	-0.147
-249.034	-134.589	0.089	-0.011
-248.019	167.308	-0.126	-0.178
-247.005	-46.068	0.178	-0.087
-245.990	342.273	0.073	0.142
-244.976	-31.264	-0.254	-0.143
-243.961	324.929	0.132	-0.252
-242.946	-200.000	0.015	-0.282
-241.932	-18.722	-0.239	-0.148
-240.917	-5.972	-0.186	-0.126
-239.903	24.062	-0.156	0.128
-238.888	74.559	0.174	0.182
-237.873	607.107	-0.020	-0.051
-236.859	-143.906	-0.247	-0.023
-235.844	18.629	-0.091	-0.073
-234.830	-200.000	-0.020	0.266
-233.815	-24.148	-0.260	-0.154
-232.800	28.054	-0.193	-0.162
-231.786	-103.382	0.399	-0.094
-230.771	113.417	0.235	0.283
-229.757	57.775	-0.019	-0.018
-228.742	-2.535	-0.235	-0.164
-227.727	64.862	0.111	-0.112
-226.713	800.000	-0.059	0.220
-225.698	800.000	-0.075	-0.240
-224.684	-200.000	0.031	-0.424
-223.669	-18.143	0.487	-0.303
-222.655	-200.000	0.034	-0.522
-221.640	-70.636	-0.088	-0.033
-220.625	206.940	0.164	0.254
-219.611	800.000	-0.110	0.396
-218.596	461.955	-0.070	-0.155
-217.582	-131.540	0.064	0.008
-216.567	91.346	-0.137	-0.153
-215.552	-200.000	0.013	0.155
-214.538	22.882	0.064	-0.053
-213.523	-119.480	-0.166	0.029
-212.509	-200.000	0.001	0.201
-211.494	-80.705	0.107	0.035
-210.479	800.000	-0.029	0.100
-209.465	-200.000	0.019	-0.232
-208.450	161.275	-0.096	0.133
-207.436	692.592	-0.135	0.351
-206.421	-38.183	-0.111	-0.059
-205.406	94.506	-0.300	0.339
-204.392	197.404	0.354	0.537
-203.377	180.418	0.034	0.050
-202.363	-31.647	0.269	0.150
-201.348	-156.662	-0.275	0.017
-200.333	-33.786	0.181	0.099
-199.319	-89.814	0.288	-0.084
-198.304	37.950	-0.100	-0.088
-197.290	-6.131	0.221	0.150
-196.275	109.539	0.179	0.213
-195.260	-200.000	-0.001	0.063
-194.246	679.918	-0.125	-0.324
-193.231	-126.285	-0.151	-0.022
-192.217	-200.000	0.062	-0.335
-191.202	-200.000	-0.003	-0.066
-190.187	-188.653	0.217	-0.003
-189.173	-13.871	-0.312	0.200
-188.158	24.535	0.125	-0.103
-187.144	5.649	0.016	-0.012
-186.129	-200.000	-0.055	0.357
-185.114	240.770	0.105	0.173
-184.100	-83.593	-0.137	0.044
-183.085	-101.344	-0.104	0.025
-182.071	-200.000	-0.003	0.032
-181.056	99.576	0.113	-0.130
-180.042	140.830	-0.164	0.215
-179.027	85.700	0.098	-0.107
-178.012	-47.838	0.129	0.062
-176.998	261.521	0.069	-0.119
-175.983	800.000	-0.137	-0.496
-174.969	-115.195	-0.073	0.014
-173.954	-80.720	0.478	0.158
-172.939	448.789	-0.056	0.123
-171.925	521.746	0.161	-0.375
-170.910	-64.773	0.487	-0.196
-169.896	205.997	-0.093	-0.144
-168.881	-96.010	-0.145	-0.038
-167.866	269.340	-0.119	-0.207
-166.852	198.274	0.150	0.228
-165.837	800.000	0.055	-0.229
-164.823	-104.802	-0.084	-0.019
-163.808	114.825	-0.092	0.112
-162.793	-9.055	-0.058	-0.038
-161.779	-200.000	0.020	0.253
-160.764	-200.000	-0.006	-0.190
-159.750	539.859	-0.101	0.238
-158.735	-100.067	-0.284	0.070
-157.720	13.480	0.077	-0.059
-156.706	-91.515	-0.100	-0.028
-155.691	44.833	0.183	0.167
-154.677	-121.461	0.225	0.037
-153.662	-18.335	0.181	0.112
-152.647	97.757	-0.158	-0.180
-151.633	-200.000	0.014	0.214
-150.618	237.602	-0.207	-0.341
-149.604	153.702	-0.170	0.231
-148.589	800.000	-0.035	-0.125
-147.574	-28.824	0.290	-0.165
-146.560	-200.000	-0.018	0.229
-145.545	-30.449	-0.231	-0.130
-144.531	51.000	0.079	0.074
-143.516	-37.569	-0.286	0.151
-142.502	58.798	-0.155	-0.151
-141.487	229.813	-0.120	0.194
-140.472	-200.000	-0.011	0.125
-139.458	230.582	-0.053	-0.085
-138.443	109.985	-0.279	-0.332
-137.429	-200.000	-0.043	-0.348
-136.414	-199.304	0.452	0.002
-135.399	247.146	-0.138	0.232
-134.385	-200.000	-0.029	0.353
-133.370	-73.515	0.118	-0.043
-132.356	92.199	0.354	0.396
-131.341	-13.212	-0.319	0.205
-130.326	-55.902	-0.078	-0.034
-129.312	-27.584	0.150	-0.087
-128.297	24.711	-0.082	-0.067
-127.283	2.946	0.260	-0.187
-126.268	-200.000	0.072	0.455
-125.253	800.000	-0.075	0.265
-124.239	204.746	-0.098	0.151
-123.224	800.000	-0.130	0.403
-122.210	-22.975	-0.250	0.149
-121.195	439.987	0.104	-0.225
