DTS Sentinel unit serial number:	SN413079Multiplexer serial number:	ORYXHardware model number:	OX4-SRSoftware version number:	ORYX F/W v4.00 Oryx Data Collector v3.7.2.0data status	okinstallation	princeton_trtdifferential loss correction	single-endedforward channel	channel 1reverse channel	N/Adate	2019/09/14time	20:30:35forward acquisition time	60.00reverse acquisition time	0.00gamma	496.2192k internal	0.2316k external	0.2316temperature offset calibration	1.0026default loss term (dB/km)	0.3790temperature slope calibration	1.0000multiplexer offset coefficient	1.0000multiplexer slope coefficient	1.0000fibre end	0.00T internal ref (°C)	33.55T ext. ref 1 (°C)	4.86T ext. ref 2 (°C)	28.12length (m)	temperature (°C)	Stokes	anti-Stokes-747.200	-32.863	0.199	-0.112
-746.185	-200.000	-0.065	0.386
-745.171	-123.496	-0.285	0.046
-744.156	-200.000	-0.034	-0.196
-743.142	-5.703	0.254	-0.176
-742.127	-83.766	0.129	-0.042
-741.112	437.590	-0.031	-0.068
-740.098	-82.946	-0.308	0.101
-739.083	335.182	-0.128	-0.250
-738.069	18.793	0.162	0.132
-737.054	-105.310	0.034	0.008
-736.039	-2.054	-0.140	-0.100
-735.025	-200.000	-0.006	0.204
-734.010	586.766	0.088	-0.220
-732.996	-11.538	-0.105	0.070
-731.981	215.168	-0.045	0.072
-730.966	19.160	0.159	0.130
-729.952	16.052	-0.071	-0.057
-728.937	-2.724	-0.280	-0.198
-727.923	-200.000	-0.028	-0.189
-726.908	161.432	-0.225	-0.318
-725.894	502.891	-0.113	-0.265
-724.879	-200.000	-0.013	-0.094
-723.864	-200.000	0.006	0.050
-722.850	-30.966	-0.291	-0.166
-721.835	-122.540	-0.198	-0.033
-720.821	427.740	-0.091	0.199
-719.806	-200.000	-0.044	-0.219
-718.791	-162.018	0.067	-0.003
-717.777	59.527	-0.177	0.177
-716.762	800.000	0.029	-0.100
-715.748	-145.028	-0.057	-0.005
-714.733	183.367	0.209	0.313
-713.718	800.000	-0.030	0.092
-712.704	-22.827	0.082	-0.050
-711.689	-200.000	-0.003	-0.205
-710.675	228.694	0.112	-0.184
-709.660	140.058	0.099	0.132
-708.645	60.678	-0.272	-0.273
-707.631	67.081	-0.119	-0.123
-706.616	-56.013	-0.138	-0.062
-705.602	-37.391	0.279	-0.151
-704.587	431.535	-0.045	-0.099
-703.572	800.000	0.059	0.253
-702.558	-200.000	-0.018	-0.245
-701.543	133.648	-0.292	0.382
-700.529	166.920	0.028	0.040
-699.514	40.388	0.163	0.149
-698.499	-13.755	0.096	0.062
-697.485	-51.258	0.248	0.118
-696.470	216.125	0.102	0.163
-695.456	-200.000	-0.038	0.175
-694.441	103.853	-0.023	-0.028
-693.426	252.346	0.063	0.108
-692.412	-200.000	-0.013	-0.133
-691.397	-102.610	-0.298	-0.072
-690.383	800.000	-0.079	-0.267
-689.368	-120.696	0.443	0.076
-688.354	-200.000	-0.043	0.341
-687.339	-200.000	0.016	-0.115
-686.324	-200.000	-0.029	-0.449
-685.310	-3.692	0.214	-0.150
-684.295	415.573	-0.107	0.230
-683.281	-10.372	0.260	-0.174
-682.266	-200.000	-0.000	-0.087
-681.251	223.659	-0.221	-0.361
-680.237	169.108	-0.075	-0.109
-679.222	556.404	-0.026	-0.063
-678.208	-115.783	-0.187	0.035
-677.193	-131.335	-0.127	0.017
-676.178	-150.158	-0.114	-0.009
-675.164	-200.000	0.006	-0.062
-674.149	-183.663	0.429	-0.007
-673.135	-71.673	-0.220	0.083
-672.120	-96.169	-0.160	0.043
-671.105	-101.596	-0.099	-0.024
-670.091	-36.047	0.308	-0.168
-669.076	-99.193	-0.225	0.058
-668.062	-200.000	-0.053	-0.320
-667.047	-200.000	-0.014	0.154
-666.032	62.987	0.127	-0.128
-665.018	571.955	-0.062	-0.153
-664.003	-200.000	0.031	-0.168
-662.989	69.493	0.107	-0.112
-661.974	-80.350	0.128	0.043
-660.959	-78.107	0.057	-0.020
-659.945	-32.339	0.079	0.044
-658.930	141.962	-0.088	0.117
-657.916	-83.732	0.171	0.055
-656.901	133.275	-0.155	0.202
-655.886	26.530	0.019	-0.016
-654.872	800.000	0.021	0.066
-653.857	-154.417	-0.294	0.020
-652.843	-163.016	0.223	-0.011
-651.828	-94.220	-0.174	-0.048
-650.814	-57.644	0.176	0.078
-649.799	-79.562	0.276	0.094
-648.784	132.014	0.212	-0.275
-647.770	-105.846	0.305	0.069
-646.755	-120.169	-0.248	0.043
-645.741	71.464	0.045	0.047
-644.726	-17.990	0.076	0.048
-643.711	800.000	0.054	0.157
-642.697	-7.340	-0.191	0.131
-641.682	129.131	-0.068	-0.087
-640.668	18.216	0.392	-0.315
-639.653	-83.896	-0.332	0.107
-638.638	-55.203	0.318	-0.144
-637.624	-85.618	-0.093	-0.029
-636.609	216.059	-0.196	0.313
-635.595	-200.000	-0.033	-0.304
-634.580	280.403	0.170	0.307
-633.565	-92.613	-0.218	-0.062
-632.551	122.295	0.124	-0.156
-631.536	-6.622	0.156	-0.107
-630.522	52.426	-0.050	0.048
-629.507	55.682	0.211	-0.206
-628.492	300.738	-0.161	-0.300
-627.478	-101.068	-0.288	-0.071
-626.463	41.650	-0.036	0.032
-625.449	361.207	0.093	-0.187
-624.434	56.883	0.224	0.220
-623.419	-56.347	0.189	0.085
-622.405	-200.000	-0.026	0.123
-621.390	-200.000	0.032	0.197
-620.376	-25.548	0.225	-0.134
-619.361	-37.754	0.117	-0.063
-618.346	-200.000	0.019	-0.173
-617.332	99.049	0.071	-0.083
-616.317	-82.730	0.282	0.092
-615.303	-64.349	0.126	-0.052
-614.288	-200.000	-0.009	-0.492
-613.273	-51.042	-0.110	-0.052
-612.259	8.258	-0.143	-0.108
-611.244	-200.000	0.011	-0.090
-610.230	543.297	-0.038	-0.091
-609.215	-200.000	0.078	-0.494
-608.201	-63.345	0.182	-0.075
-607.186	-109.932	-0.407	-0.086
-606.171	28.374	0.226	-0.193
-605.157	81.199	-0.075	-0.082
-604.142	697.785	0.017	-0.045
-603.128	800.000	0.109	-0.475
-602.113	90.095	0.312	-0.351
-601.098	-200.000	0.022	0.140
-600.084	800.000	0.100	-0.331
-599.069	-20.747	-0.119	-0.073
-598.055	800.000	-0.084	0.346
-597.040	-83.808	-0.263	-0.084
-596.025	-200.000	0.000	0.125
-595.011	218.639	-0.095	0.153
-593.996	140.706	0.039	-0.051
-592.982	-111.944	-0.251	-0.051
-591.967	-200.000	-0.076	-0.355
-590.952	-2.353	0.352	0.248
-589.938	107.317	-0.100	0.120
-588.923	-103.031	0.225	0.054
-587.909	800.000	0.039	-0.144
-586.894	60.132	-0.171	-0.170
-585.879	179.937	-0.278	0.410
-584.865	-127.252	0.199	0.029
-583.850	-133.847	0.368	0.046
-582.836	232.496	-0.161	-0.267
-581.821	-200.000	0.023	-0.114
-580.806	-69.079	0.195	0.076
-579.792	-128.909	0.106	0.015
-578.777	45.739	-0.137	0.128
-577.763	-134.168	-0.159	0.020
-576.748	800.000	-0.022	-0.085
-575.733	-200.000	-0.021	-0.120
-574.719	93.469	0.185	-0.211
-573.704	-0.457	-0.170	-0.122
-572.690	102.247	-0.135	0.158
-571.675	800.000	-0.066	-0.210
-570.661	68.764	0.219	0.226
-569.646	38.227	-0.182	-0.163
-568.631	-65.919	0.199	-0.080
-567.617	27.186	0.065	-0.055
-566.602	-28.117	0.432	-0.251
-565.588	69.794	-0.131	-0.136
-564.573	522.833	-0.135	0.319
-563.558	-81.256	0.233	0.077
-562.544	-200.000	0.029	0.432
-561.529	800.000	-0.082	0.297
-560.515	174.332	-0.037	-0.054
-559.500	731.580	-0.062	-0.166
-558.485	800.000	0.059	0.234
-557.471	257.704	-0.194	-0.336
-556.456	35.612	-0.373	-0.329
-555.442	800.000	-0.043	0.126
-554.427	-200.000	0.002	0.148
-553.412	75.356	0.230	0.244
-552.398	800.000	0.188	0.539
-551.383	265.617	-0.154	0.271
-550.369	-118.769	0.078	-0.014
-549.354	-200.000	0.061	-0.272
-548.339	800.000	0.059	-0.177
-547.325	-41.000	0.247	-0.128
-546.310	65.769	0.163	0.166
-545.296	245.939	0.091	0.153
-544.281	-72.179	-0.186	0.069
-543.266	-200.000	-0.082	0.465
-542.252	2.530	-0.268	0.195
-541.237	-39.631	0.172	-0.090
-540.223	-92.731	-0.503	-0.142
-539.208	-177.011	-0.290	-0.007
-538.193	134.714	0.103	0.134
-537.179	-200.000	-0.012	0.114
-536.164	-28.610	0.456	-0.264
-535.150	-122.263	-0.203	0.033
-534.135	306.873	-0.069	0.129
-533.121	-138.316	0.304	0.034
-532.106	-137.637	-0.112	0.013
-531.091	1.782	0.089	-0.065
-530.077	152.864	-0.263	0.361
-529.062	219.298	0.019	0.031
-528.048	800.000	0.053	-0.156
-527.033	-149.477	-0.492	0.039
-526.018	-135.859	-0.183	0.022
-525.004	800.000	-0.019	-0.078
-523.989	-127.382	-0.315	0.046
-522.975	35.185	-0.219	-0.193
-521.960	-200.000	0.029	-0.187
-520.945	305.951	-0.120	-0.224
-519.931	31.409	0.267	0.231
-518.916	800.000	0.161	0.549
-517.902	-126.757	0.045	-0.007
-516.887	-65.059	-0.179	0.072
-515.872	-84.621	-0.109	-0.035
-514.858	322.965	0.137	-0.262
-513.843	-117.060	-0.166	0.030
-512.829	-94.574	0.288	0.079
-511.814	515.831	-0.033	0.077
-510.799	40.408	0.077	-0.070
-509.785	14.905	-0.224	-0.176
-508.770	-200.000	0.022	0.129
-507.756	90.278	0.227	-0.255
-506.741	-68.774	0.137	-0.053
-505.726	-142.992	0.192	0.019
-504.712	-34.935	-0.302	0.165
-503.697	-16.539	-0.242	0.154
-502.683	-200.000	0.006	-0.076
-501.668	-160.633	-0.214	0.011
-500.653	-143.023	0.388	0.038
-499.639	274.860	0.147	-0.261
-498.624	-200.000	0.141	-0.676
-497.610	53.054	0.151	-0.145
-496.595	397.312	-0.143	0.301
-495.581	800.000	0.036	-0.133
-494.566	800.000	-0.084	-0.272
-493.551	-200.000	-0.045	0.298
-492.537	526.129	-0.095	0.225
-491.522	55.885	0.041	-0.040
-490.508	-60.780	0.094	-0.040
-489.493	173.126	0.096	-0.139
-488.478	117.646	-0.117	0.145
-487.464	-200.000	-0.028	0.189
-486.449	184.249	0.257	0.381
-485.435	-200.000	0.007	0.114
-484.420	-200.000	0.003	0.034
-483.405	479.074	0.046	0.105
-482.391	800.000	-0.054	-0.172
-481.376	800.000	0.133	0.476
-480.362	213.534	0.122	0.193
-479.347	75.096	0.025	-0.026
-478.332	319.605	0.028	0.053
-477.318	-200.000	0.030	-0.241
-476.303	160.985	-0.022	0.030
-475.289	6.389	0.062	-0.046
-474.274	77.009	-0.154	0.164
-473.259	442.150	-0.198	-0.434
-472.245	-83.458	-0.288	-0.092
-471.230	246.687	-0.156	0.264
-470.216	-37.079	0.097	-0.052
-469.201	-75.597	0.351	0.125
-468.186	-122.366	-0.060	-0.010
-467.172	800.000	-0.071	-0.220
-466.157	-200.000	-0.003	-0.070
-465.143	65.334	0.192	0.194
-464.128	800.000	-0.064	0.212
-463.113	17.430	0.202	0.161
-462.099	-10.823	0.155	-0.103
-461.084	-200.000	0.022	-0.308
-460.070	-40.944	-0.115	0.060
-459.055	-38.014	-0.073	-0.039
-458.040	-200.000	-0.014	-0.181
-457.026	130.057	0.109	0.140
-456.011	249.592	0.080	0.136
-454.997	668.684	-0.036	-0.094
-453.982	-200.000	0.011	-0.247
-452.968	24.236	-0.085	-0.071
-451.953	-70.714	-0.172	-0.065
-450.938	-26.877	-0.241	0.141
-449.924	-50.204	0.125	0.059
-448.909	5.367	-0.221	-0.163
-447.895	-21.681	0.036	0.022
-446.880	-200.000	-0.025	0.130
-445.865	300.382	0.222	-0.409
-444.851	-200.000	0.035	0.161
-443.836	137.628	0.044	0.057
-442.822	-200.000	-0.032	-0.223
-441.807	17.824	-0.205	-0.163
-440.792	-75.947	-0.148	0.052
-439.778	-85.600	-0.205	-0.064
-438.763	800.000	-0.056	0.217
-437.749	177.884	-0.097	-0.142
-436.734	163.491	-0.109	0.153
-435.719	-101.379	0.437	0.107
-434.705	-54.937	-0.189	0.085
-433.690	382.440	0.119	0.244
-432.676	-69.820	0.317	-0.121
-431.661	-132.323	0.475	-0.061
-430.646	4.760	0.208	-0.153
-429.632	-124.382	-0.466	-0.073
-428.617	-43.307	0.236	-0.120
-427.603	-200.000	0.001	0.085
-426.588	-7.131	0.135	-0.091
-425.573	-200.000	-0.063	0.302
-424.559	-200.000	-0.020	0.203
-423.544	112.690	-0.070	0.085
-422.530	-200.000	-0.035	0.323
-421.515	57.824	0.051	-0.049
-420.500	354.619	-0.074	-0.146
-419.486	55.726	0.028	0.027
-418.471	19.035	0.102	0.081
-417.457	-200.000	-0.013	-0.225
-416.442	-200.000	-0.039	-0.235
-415.428	549.640	-0.049	-0.118
-414.413	-200.000	0.004	-0.203
-413.398	-43.799	-0.170	0.086
-412.384	16.027	0.193	-0.152
-411.369	-48.440	-0.360	0.173
-410.355	0.877	0.327	0.234
-409.340	9.209	-0.141	0.107
-408.325	-200.000	0.038	-0.193
-407.311	359.632	-0.083	0.167
-406.296	-200.000	0.059	0.257
-405.282	115.655	-0.121	-0.148
-404.267	178.099	0.137	-0.199
-403.252	83.251	-0.265	-0.288
-402.238	115.752	-0.176	-0.216
-401.223	173.732	-0.089	0.129
-400.209	-200.000	0.019	-0.397
-399.194	197.663	-0.133	-0.203
-398.179	-61.203	0.144	-0.061
-397.165	760.068	-0.030	0.081
-396.150	-142.882	0.196	0.019
-395.136	800.000	-0.044	-0.137
-394.121	261.156	-0.239	0.414
-393.106	97.100	0.030	-0.035
-392.092	-158.285	-0.204	0.012
-391.077	53.556	-0.171	0.164
-390.063	400.054	-0.105	-0.221
-389.048	488.516	0.055	0.126
-388.033	636.325	-0.067	-0.169
-387.019	800.000	0.053	0.158
-386.004	410.195	0.144	0.305
-384.990	800.000	0.037	0.126
-383.975	-200.000	0.038	-0.269
-382.960	-77.408	-0.164	0.057
-381.946	324.424	-0.179	0.342
-380.931	800.000	0.043	0.120
-379.917	352.618	0.104	-0.207
-378.902	-200.000	-0.008	-0.043
-377.888	-78.440	-0.301	-0.103
-376.873	393.869	-0.032	-0.067
-375.858	-148.927	-0.219	-0.018
-374.844	-200.000	-0.033	0.282
-373.829	509.690	0.060	0.138
-372.815	-123.139	-0.274	-0.044
-371.800	232.704	-0.154	0.252
-370.785	-1.578	0.190	0.134
-369.771	53.630	-0.267	0.256
-368.756	26.611	-0.369	0.308
-367.742	-90.801	0.184	0.053
-366.727	70.175	-0.050	0.051
-365.712	285.117	0.060	0.108
-364.698	-67.555	0.123	-0.048
-363.683	-80.444	0.381	-0.127
-362.669	91.027	0.075	-0.084
-361.654	-200.000	0.006	-0.064
-360.639	17.179	-0.197	-0.156
-359.625	-88.750	0.102	0.030
-358.610	-200.000	0.013	0.090
-357.596	275.214	-0.072	0.128
-356.581	403.760	-0.076	-0.159
-355.566	-200.000	-0.035	0.279
-354.552	-88.835	0.254	0.075
-353.537	-200.000	-0.031	0.332
-352.523	-27.901	0.097	-0.056
-351.508	43.059	0.151	0.137
-350.493	-48.485	-0.063	-0.030
-349.479	-14.105	0.253	0.163
-348.464	-98.305	0.416	0.106
-347.450	-115.588	0.180	-0.034
-346.435	95.948	0.189	-0.216
-345.420	-200.000	0.020	0.162
-344.406	800.000	0.058	-0.178
-343.391	800.000	-0.085	-0.272
-342.377	800.000	0.030	-0.084
-341.362	-124.140	-0.070	-0.011
-340.348	346.998	0.059	-0.116
-339.333	800.000	-0.031	-0.109
-338.318	417.178	-0.084	0.178
-337.304	704.404	0.038	0.100
-336.289	800.000	0.043	0.137
-335.275	133.945	-0.218	-0.282
-334.260	800.000	0.094	-0.334
-333.245	340.639	0.069	-0.134
-332.231	15.022	0.045	-0.036
-331.216	-90.034	0.108	-0.031
-330.202	242.584	0.118	0.197
-329.187	-34.814	0.276	-0.150
-328.172	-45.712	-0.256	-0.126
-327.158	-1.206	-0.217	0.153
-326.143	445.344	0.024	0.053
-325.129	-200.000	0.017	-0.234
-324.114	538.454	-0.034	0.082
-323.099	-57.123	0.149	-0.065
-322.085	-200.000	-0.009	-0.057
-321.070	113.566	0.175	-0.212
-320.056	126.330	-0.080	-0.100
-319.041	153.441	-0.142	-0.194
-318.026	800.000	-0.065	0.214
-317.012	26.819	0.130	-0.108
-315.997	-87.003	-0.283	0.086
-314.983	800.000	0.133	0.385
-313.968	142.157	-0.081	0.108
-312.953	390.327	-0.068	-0.140
-311.939	800.000	-0.090	-0.352
-310.924	551.209	0.079	0.189
-309.910	-20.506	0.173	-0.106
-308.895	632.663	-0.051	-0.128
-307.880	-200.000	-0.003	0.038
-306.866	121.446	0.043	0.054
-305.851	800.000	-0.032	0.127
-304.837	-107.181	-0.223	-0.049
-303.822	-103.062	-0.109	0.026
-302.807	19.716	-0.148	-0.118
-301.793	25.315	0.166	0.137
-300.778	23.448	-0.203	0.166
-299.764	259.033	0.069	-0.119
-298.749	-47.904	-0.018	0.009
-297.735	333.649	-0.116	0.223
-296.720	-97.373	0.402	-0.104
-295.705	-200.000	0.046	0.273
-294.691	-200.000	-0.012	0.157
-293.676	800.000	0.024	0.104
-292.662	132.209	-0.312	-0.400
-291.647	-85.220	-0.398	0.124
-290.632	4.072	-0.239	-0.174
-289.618	800.000	-0.141	-0.399
-288.603	-131.619	0.307	0.040
-287.589	300.354	-0.104	-0.191
-286.574	167.112	-0.161	0.228
-285.559	40.556	0.029	-0.026
-284.545	243.937	0.050	0.083
-283.530	448.464	-0.162	0.354
-282.516	-68.164	-0.178	0.069
-281.501	-200.000	0.038	-0.325
-280.486	206.376	-0.259	0.401
-279.472	-57.054	-0.049	-0.022
-278.457	153.796	-0.136	0.185
-277.443	356.667	-0.064	-0.127
-276.428	-6.824	-0.237	0.160
-275.413	49.255	-0.110	-0.103
-274.399	58.047	-0.197	-0.192
-273.384	20.768	0.215	-0.173
-272.370	165.822	0.040	-0.056
-271.355	800.000	0.048	0.167
-270.340	-200.000	0.030	0.185
-269.326	800.000	-0.031	-0.107
-268.311	298.816	0.107	-0.196
-267.297	-87.605	0.070	0.021
-266.282	800.000	-0.050	0.201
-265.267	44.416	0.160	0.146
-264.253	-200.000	0.010	0.115
-263.238	113.632	-0.122	0.147
-262.224	57.559	0.205	-0.199
-261.209	107.795	0.090	-0.107
-260.195	-23.603	-0.136	-0.081
-259.180	-68.953	0.267	0.102
-258.165	-113.859	-0.178	0.034
-257.151	800.000	0.102	-0.297
-256.136	-200.000	-0.064	-0.311
-255.122	-200.000	0.071	-0.313
-254.107	-200.000	-0.003	-0.069
-253.092	-200.000	0.081	-0.433
-252.078	-115.091	0.105	-0.020
-251.063	-25.712	0.129	0.076
-250.049	145.436	0.281	0.374
-249.034	800.000	0.051	-0.157
-248.019	10.515	-0.088	0.066
-247.005	800.000	0.052	-0.163
-245.990	-200.000	-0.010	0.194
-244.976	80.582	0.251	0.269
-243.961	546.069	-0.150	-0.357
-242.946	-200.000	0.045	-0.307
-241.932	-160.637	0.157	-0.008
-240.917	64.035	-0.107	0.107
-239.903	-88.036	-0.230	-0.069
-238.888	0.039	-0.234	-0.166
-237.873	800.000	0.050	-0.156
-236.859	800.000	-0.027	0.088
-235.844	-43.553	-0.167	-0.084
-234.830	67.965	-0.279	-0.284
-233.815	457.403	0.075	0.165
-232.800	-200.000	-0.029	0.368
-231.786	-123.478	0.119	0.019
-230.771	-199.224	0.161	0.001
-229.757	-44.910	-0.090	0.045
-228.742	41.590	0.169	-0.152
-227.727	23.670	-0.190	0.155
-226.713	800.000	0.069	0.222
-225.698	-45.879	-0.316	0.155
-224.684	800.000	-0.091	0.367
-223.669	559.086	0.048	0.114
-222.655	33.584	-0.160	-0.138
-221.640	-28.051	-0.202	0.116
-220.625	-87.241	0.223	-0.067
-219.611	-6.812	0.163	0.110
-218.596	-106.976	0.349	0.077
-217.582	800.000	0.091	-0.348
-216.567	-123.948	-0.195	-0.030
-215.552	-148.887	0.204	-0.016
-214.538	-200.000	0.021	0.364
-213.523	-200.000	-0.003	-0.145
-212.509	149.141	0.131	0.176
-211.494	-114.370	-0.323	-0.062
-210.479	-200.000	-0.002	-0.017
-209.465	-52.183	0.393	-0.181
-208.450	-169.280	0.362	-0.013
-207.436	239.602	-0.037	0.060
-206.421	-55.580	-0.109	-0.048
-205.406	283.266	-0.139	-0.248
-204.392	107.172	-0.106	0.126
-203.377	-14.237	0.302	0.193
-202.363	-40.570	0.122	0.063
-201.348	200.694	0.204	0.311
-200.333	-200.000	-0.017	0.128
-199.319	800.000	0.087	-0.261
-198.304	-200.000	0.019	0.088
-197.290	149.733	0.107	0.144
-196.275	261.701	0.115	0.198
-195.260	-154.250	0.211	-0.014
-194.246	800.000	0.064	-0.233
-193.231	-200.000	0.021	-0.363
-192.217	-178.002	-0.212	0.005
-191.202	-40.554	0.039	-0.020
-190.187	-14.610	0.247	0.157
-189.173	388.208	-0.122	0.251
-188.158	127.124	0.105	-0.133
-187.144	734.048	-0.047	-0.124
-186.129	-9.568	-0.144	0.095
-185.114	-200.000	-0.014	0.187
-184.100	-200.000	-0.061	-0.271
-183.085	6.082	0.172	-0.127
-182.071	158.253	-0.195	0.268
-181.056	-200.000	0.013	-0.060
-180.042	-200.000	0.057	-0.263
-179.027	161.179	0.131	0.181
-178.012	-0.616	-0.362	0.255
-176.998	800.000	0.017	0.064
-175.983	96.293	-0.080	-0.091
-174.969	-115.850	-0.423	0.078
-173.954	-32.739	-0.098	-0.054
-172.939	153.764	0.065	0.088
-171.925	795.726	-0.050	0.137
-170.910	-200.000	-0.046	0.293
-169.896	-200.000	0.015	0.143
-168.881	75.116	-0.164	0.171
-167.866	102.011	0.097	-0.112
-166.852	364.316	0.156	-0.311
-165.837	-168.505	-0.077	0.003
-164.823	514.395	0.052	-0.120
-163.808	-200.000	0.044	0.265
-162.793	-100.864	-0.110	-0.027
-161.779	-200.000	-0.026	0.203
-160.764	-30.241	-0.167	0.094
-159.750	-51.073	-0.194	0.090
-158.735	-139.293	0.276	-0.029
-157.720	-53.970	0.112	0.050
-156.706	-140.635	-0.204	0.021
-155.691	205.308	-0.158	0.243
-154.677	-0.317	0.112	-0.079
-153.662	-200.000	-0.007	-0.097
-152.647	147.381	-0.131	-0.175
-151.633	1.823	0.283	0.202
-150.618	-47.146	0.062	0.030
-149.604	85.634	0.171	-0.186
-148.589	-128.382	0.236	-0.033
-147.574	-200.000	0.006	-0.200
-146.560	800.000	-0.098	-0.328
-145.545	-200.000	0.010	0.259
-144.531	-23.009	-0.247	-0.147
-143.516	-121.935	-0.378	-0.062
-142.502	-108.242	-0.129	0.028
-141.487	33.181	0.162	-0.139
-140.472	-200.000	0.011	-0.136
-139.458	789.427	-0.036	0.097
-138.443	-200.000	-0.043	-0.352
-137.429	231.109	0.060	-0.098
-136.414	-31.749	0.154	-0.085
-135.399	-27.022	0.203	0.117
-134.385	-96.891	0.173	-0.045
-133.370	-200.000	0.012	-0.223
-132.356	-147.700	-0.100	0.008
-131.341	213.082	-0.112	0.175
-130.326	-10.730	-0.109	-0.071
-129.312	157.955	-0.185	-0.253
-128.297	-112.715	0.353	0.069
-127.283	-200.000	-0.018	0.293
-126.268	-61.534	0.202	-0.084
-125.253	-200.000	0.039	-0.409
-124.239	-92.582	0.063	0.017
-123.224	-87.234	0.298	0.090
-122.210	800.000	0.092	0.282
-121.195	-2.050	-0.318	0.221
