DTS Sentinel unit serial number:	SN413079Multiplexer serial number:	ORYXHardware model number:	OX4-SRSoftware version number:	ORYX F/W v4.00 Oryx Data Collector v3.7.2.0data status	okinstallation	princeton_trtdifferential loss correction	single-endedforward channel	channel 1reverse channel	N/Adate	2019/09/12time	15:00:11forward acquisition time	60.00reverse acquisition time	0.00gamma	496.2192k internal	0.2292k external	0.2292temperature offset calibration	1.0050default loss term (dB/km)	0.3790temperature slope calibration	1.0000multiplexer offset coefficient	1.0000multiplexer slope coefficient	1.0000fibre end	0.00T internal ref (°C)	40.42T ext. ref 1 (°C)	2.36T ext. ref 2 (°C)	37.25length (m)	temperature (°C)	Stokes	anti-Stokes-747.200	98.185	0.124	0.146
-746.185	-200.000	-0.008	0.420
-745.171	-90.741	-0.148	-0.044
-744.156	-43.018	0.198	-0.103
-743.142	42.132	0.042	-0.039
-742.127	-18.526	-0.349	-0.223
-741.112	-136.646	0.130	-0.015
-740.098	-44.099	0.222	0.114
-739.083	-200.000	-0.030	0.160
-738.069	800.000	-0.098	0.290
-737.054	800.000	-0.064	0.267
-736.039	-173.294	-0.162	0.005
-735.025	125.412	0.211	0.272
-734.010	-51.722	0.261	-0.125
-732.996	-177.199	-0.077	0.002
-731.981	-76.122	-0.288	0.104
-730.966	368.545	-0.118	0.243
-729.952	-138.902	-0.402	-0.045
-728.937	-200.000	-0.016	0.282
-727.923	-90.404	0.187	-0.056
-726.908	-200.000	-0.009	-0.234
-725.894	-200.000	-0.007	-0.155
-724.879	-65.275	-0.239	-0.098
-723.864	54.461	-0.112	-0.110
-722.850	13.613	0.129	-0.103
-721.835	-78.793	-0.279	-0.097
-720.821	-126.021	0.334	-0.051
-719.806	311.120	-0.091	0.174
-718.791	90.752	0.026	-0.030
-717.777	162.206	-0.079	0.113
-716.762	-82.824	-0.194	-0.064
-715.748	-146.268	0.159	0.014
-714.733	293.414	0.105	-0.196
-713.718	257.621	-0.197	-0.346
-712.704	-70.279	0.045	-0.018
-711.689	-94.265	0.141	-0.039
-710.675	461.124	0.029	-0.067
-709.660	-15.659	-0.315	-0.205
-708.645	11.386	0.191	-0.149
-707.631	-15.816	0.239	0.156
-706.616	800.000	-0.113	0.357
-705.602	-19.931	0.224	-0.141
-704.587	-117.360	-0.186	0.034
-703.572	-200.000	0.118	0.000
-702.558	-200.000	0.027	-0.344
-701.543	-200.000	0.001	0.315
-700.529	-77.580	-0.268	0.095
-699.514	78.551	-0.228	-0.248
-698.499	-46.851	-0.258	0.129
-697.485	-57.039	0.166	-0.075
-696.470	187.997	-0.084	-0.128
-695.456	-200.000	-0.000	-0.138
-694.441	-171.849	0.399	-0.013
-693.426	218.702	0.049	0.079
-692.412	150.878	0.174	-0.242
-691.397	123.824	-0.258	-0.331
-690.383	-25.280	-0.211	-0.128
-689.368	-200.000	0.045	0.211
-688.354	259.839	0.096	-0.170
-687.339	378.558	-0.160	-0.335
-686.324	-41.259	-0.363	-0.191
-685.310	-104.391	-0.309	-0.073
-684.295	-109.307	0.207	0.045
-683.281	-200.000	0.055	0.275
-682.266	652.516	0.101	-0.265
-681.251	-23.045	0.103	0.064
-680.237	-104.409	0.431	-0.102
-679.222	349.100	0.143	0.287
-678.208	79.203	0.142	-0.155
-677.193	177.924	-0.316	-0.470
-676.178	-105.244	0.110	0.026
-675.164	-111.303	-0.203	-0.042
-674.149	577.313	-0.164	-0.410
-673.135	358.322	0.095	-0.193
-672.120	-62.081	0.240	-0.102
-671.105	-200.000	-0.008	-0.516
-670.091	-35.400	-0.135	-0.075
-669.076	116.352	-0.139	-0.173
-668.062	-200.000	0.002	0.239
-667.047	-200.000	0.005	0.112
-666.032	134.385	0.119	0.158
-665.018	49.968	0.138	0.133
-664.003	-51.676	-0.233	0.111
-662.989	-21.104	-0.197	0.123
-661.974	36.322	-0.292	-0.263
-660.959	800.000	-0.048	0.144
-659.945	-47.540	0.140	-0.069
-658.930	-84.058	0.137	0.044
-657.916	800.000	0.019	-0.062
-656.901	-200.000	-0.008	0.119
-655.886	-200.000	0.032	-0.210
-654.872	743.978	-0.143	-0.391
-653.857	800.000	-0.080	-0.263
-652.843	-53.763	0.238	0.111
-651.828	-112.645	-0.223	0.045
-650.814	184.364	0.025	0.037
-649.799	98.386	-0.072	0.085
-648.784	131.564	0.211	-0.277
-647.770	-0.462	-0.307	0.222
-646.755	284.856	0.249	0.457
-645.741	-200.000	-0.010	-0.121
-644.726	-129.453	-0.193	0.027
-643.711	-13.410	0.060	-0.040
-642.697	-200.000	-0.018	0.122
-641.682	-37.652	-0.097	-0.053
-640.668	-141.526	-0.223	-0.023
-639.653	-200.000	0.048	-0.251
-638.638	553.082	0.006	0.016
-637.624	55.798	0.151	-0.149
-636.609	693.555	-0.160	-0.427
-635.595	-176.926	0.056	-0.001
-634.580	-200.000	-0.021	-0.102
-633.565	66.677	-0.132	-0.137
-632.551	-200.000	0.048	-0.262
-631.536	548.052	-0.103	-0.252
-630.522	424.810	0.143	-0.313
-629.507	-64.965	0.390	-0.161
-628.492	-35.059	0.172	0.095
-627.478	-38.663	-0.109	-0.058
-626.463	-29.759	-0.312	-0.181
-625.449	-115.900	0.068	-0.013
-624.434	-66.607	-0.104	-0.042
-623.419	189.324	-0.204	0.312
-622.405	41.056	0.237	0.218
-621.390	183.867	-0.114	0.172
-620.376	36.382	-0.195	-0.176
-619.361	73.562	0.147	-0.156
-618.346	-75.049	0.173	0.063
-617.332	436.951	0.032	-0.072
-616.317	-200.000	-0.006	-0.198
-615.303	-200.000	0.035	-0.304
-614.288	-200.000	0.030	0.217
-613.273	338.969	-0.066	-0.130
-612.259	81.209	-0.256	0.281
-611.244	-200.000	-0.065	0.340
-610.230	-24.555	0.108	-0.066
-609.215	506.138	0.067	-0.158
-608.201	163.504	-0.219	-0.313
-607.186	-33.303	0.299	0.169
-606.171	-134.231	0.199	0.025
-605.157	111.164	-0.166	0.203
-604.142	-35.942	-0.145	0.080
-603.128	188.556	0.092	0.140
-602.113	-49.921	0.268	0.130
-601.098	-99.411	0.192	-0.049
-600.084	53.915	0.262	-0.256
-599.069	171.104	0.081	0.118
-598.055	631.894	0.070	-0.180
-597.040	413.762	0.015	-0.033
-596.025	800.000	0.062	-0.223
-595.011	-200.000	-0.023	-0.421
-593.996	-200.000	0.029	-0.172
-592.982	-105.446	0.060	-0.014
-591.967	42.681	0.099	-0.091
-590.952	617.511	-0.156	-0.398
-589.938	136.894	0.161	0.214
-588.923	-50.960	-0.208	0.099
-587.909	-44.197	-0.166	-0.084
-586.894	75.543	-0.163	0.175
-585.879	531.522	-0.164	-0.395
-584.865	-17.443	-0.076	-0.049
-583.850	31.741	0.166	0.146
-582.836	-10.020	0.065	-0.044
-581.821	-74.556	-0.011	0.004
-580.806	-190.416	-0.090	-0.001
-579.792	800.000	0.094	-0.265
-578.777	468.322	0.062	0.141
-577.763	-200.000	0.018	0.160
-576.748	48.647	0.008	0.008
-575.733	89.729	0.269	-0.305
-574.719	-138.541	0.080	0.009
-573.704	87.893	-0.250	-0.282
-572.690	116.091	-0.074	-0.093
-571.675	165.140	-0.090	0.130
-570.661	-61.683	0.170	0.073
-569.646	-200.000	0.004	0.194
-568.631	800.000	0.068	0.276
-567.617	-200.000	-0.018	0.330
-566.602	-146.257	-0.488	0.044
-565.588	35.096	-0.021	-0.018
-564.573	-42.852	-0.075	0.039
-563.558	800.000	0.187	0.544
-562.544	-112.937	0.201	-0.040
-561.529	-200.000	0.027	-0.169
-560.515	265.124	-0.195	0.345
-559.500	-70.357	-0.153	-0.059
-558.485	-200.000	-0.030	0.252
-557.471	-200.000	-0.017	-0.345
-556.456	-200.000	0.026	-0.201
-555.442	-154.978	-0.300	-0.020
-554.427	-200.000	0.037	-0.191
-553.412	665.370	0.032	0.083
-552.398	218.754	0.107	-0.174
-551.383	-115.286	-0.227	-0.044
-550.369	-22.809	0.176	0.108
-549.354	-83.762	-0.395	0.128
-548.339	-6.317	-0.051	-0.035
-547.325	-200.000	-0.018	0.116
-546.310	-200.000	-0.013	0.301
-545.296	-178.618	-0.279	-0.007
-544.281	149.279	-0.075	0.104
-543.266	800.000	-0.089	-0.357
-542.252	-41.921	0.053	-0.028
-541.237	55.177	0.214	0.210
-540.223	-200.000	-0.027	0.206
-539.208	627.714	-0.145	-0.371
-538.193	290.316	0.074	0.136
-537.179	-200.000	0.042	0.208
-536.164	81.388	0.036	0.039
-535.150	259.556	-0.177	0.310
-534.135	121.141	-0.096	0.122
-533.121	-76.307	-0.295	0.105
-532.106	-4.194	-0.072	0.051
-531.091	124.355	-0.128	0.164
-530.077	59.308	0.084	-0.084
-529.062	-200.000	-0.068	0.563
-528.048	269.344	-0.113	0.202
-527.033	317.080	0.097	0.187
-526.018	24.801	-0.114	0.096
-525.004	50.556	0.225	0.216
-523.989	-70.543	-0.353	0.135
-522.975	-138.963	0.311	0.034
-521.960	-42.122	0.198	-0.103
-520.945	-142.778	0.398	0.039
-519.931	223.065	-0.011	-0.018
-518.916	171.203	-0.137	0.200
-517.902	-200.000	0.014	-0.079
-516.887	-98.529	-0.369	-0.096
-515.872	-200.000	0.038	-0.258
-514.858	800.000	-0.078	0.281
-513.843	-200.000	-0.061	0.293
-512.829	-53.558	-0.288	-0.133
-511.814	-144.775	-0.110	0.010
-510.799	275.539	-0.173	0.311
-509.785	-71.790	-0.154	-0.058
-508.770	69.674	-0.099	0.103
-507.756	-5.154	-0.329	-0.230
-506.741	216.863	-0.208	-0.336
-505.726	-200.000	0.037	-0.257
-504.712	-124.420	-0.064	-0.010
-503.697	-137.605	-0.301	-0.034
-502.683	-14.802	-0.215	0.140
-501.668	-118.958	-0.050	0.009
-500.653	4.955	0.194	-0.145
-499.639	-200.000	-0.021	-0.180
-498.624	-200.000	0.034	-0.276
-497.610	-16.490	-0.190	-0.122
-496.595	19.588	-0.197	-0.161
-495.581	-15.141	0.041	-0.027
-494.566	28.124	-0.208	-0.178
-493.551	-63.456	-0.246	-0.103
-492.537	-200.000	-0.048	-0.233
-491.522	-200.000	0.023	0.116
-490.508	76.287	0.266	0.286
-489.493	-83.273	0.154	-0.050
-488.478	167.448	0.214	0.308
-487.464	-19.859	-0.272	0.170
-486.449	-200.000	0.000	-0.155
-485.435	-86.402	0.201	0.063
-484.420	-64.892	0.034	-0.014
-483.405	53.380	-0.335	-0.326
-482.391	-10.385	-0.057	-0.038
-481.376	-62.068	0.134	-0.057
-480.362	-200.000	0.021	0.141
-479.347	-43.191	0.435	0.223
-478.332	800.000	0.028	0.113
-477.318	2.512	-0.274	-0.201
-476.303	647.257	0.096	0.248
-475.289	53.212	0.100	-0.097
-474.274	-106.761	0.160	0.036
-473.259	-11.171	-0.176	-0.118
-472.245	460.099	0.053	0.120
-471.230	86.454	-0.177	-0.198
-470.216	-49.862	-0.150	0.072
-469.201	-89.530	0.172	0.051
-468.186	99.264	0.004	-0.004
-467.172	800.000	0.115	0.390
-466.157	-200.000	-0.038	0.315
-465.143	230.180	0.057	-0.095
-464.128	201.130	-0.156	-0.243
-463.113	-200.000	0.004	0.035
-462.099	800.000	0.075	0.327
-461.084	70.640	-0.109	-0.114
-460.070	2.598	0.180	-0.132
-459.055	669.825	-0.119	-0.312
-458.040	-69.420	-0.148	0.057
-457.026	-200.000	0.030	0.228
-456.011	-200.000	-0.036	0.245
-454.997	-125.679	0.224	-0.034
-453.982	-200.000	-0.029	-0.266
-452.968	-54.206	-0.132	0.060
-451.953	86.136	0.151	-0.168
-450.938	800.000	-0.039	-0.129
-449.924	396.226	0.040	0.085
-448.909	-64.149	0.465	0.192
-447.895	57.413	-0.221	0.219
-446.880	-51.572	-0.167	-0.079
-445.865	152.727	-0.142	-0.196
-444.851	800.000	-0.082	-0.298
-443.836	104.526	-0.169	0.202
-442.822	-78.019	0.174	-0.061
-441.807	-200.000	-0.027	0.359
-440.792	-30.813	-0.274	0.157
-439.778	800.000	-0.076	0.324
-438.763	-104.498	0.196	-0.046
-437.749	120.162	0.176	-0.221
-436.734	-111.221	0.055	-0.011
-435.719	800.000	-0.062	0.254
-434.705	32.142	0.192	-0.167
-433.690	23.936	0.334	0.278
-432.676	-124.841	-0.254	-0.040
-431.661	-128.025	-0.045	-0.007
-430.646	41.114	0.288	-0.263
-429.632	-49.740	-0.088	0.042
-428.617	-97.279	-0.333	0.088
-427.603	27.564	-0.279	-0.237
-426.588	147.362	0.049	0.066
-425.573	123.918	-0.206	-0.261
-424.559	36.375	-0.119	-0.106
-423.544	-200.000	0.010	0.144
-422.530	79.123	-0.231	0.250
-421.515	38.003	-0.062	0.055
-420.500	-155.456	0.408	-0.027
-419.486	-37.174	0.196	0.106
-418.471	-200.000	-0.039	0.269
-417.457	173.958	-0.232	0.338
-416.442	111.080	0.153	-0.186
-415.428	-89.497	0.165	0.049
-414.413	-10.609	0.201	-0.135
-413.398	800.000	-0.058	-0.185
-412.384	96.767	0.046	-0.053
-411.369	-83.900	0.240	-0.077
-410.355	567.686	0.070	-0.172
-409.340	-200.000	-0.003	0.102
-408.325	800.000	-0.077	0.259
-407.311	-133.929	-0.072	0.009
-406.296	10.796	-0.114	0.088
-405.282	31.407	0.179	-0.156
-404.267	-200.000	-0.006	0.260
-403.252	-160.820	0.253	-0.014
-402.238	116.686	0.134	-0.166
-401.223	524.625	0.097	0.229
-400.209	-21.573	-0.259	0.160
-399.194	-133.907	0.200	-0.025
-398.179	-200.000	-0.014	-0.323
-397.165	-166.760	0.007	-0.000
-396.150	-200.000	0.041	0.243
-395.136	-16.948	0.128	-0.081
-394.121	-16.655	0.127	-0.081
-393.106	-98.850	-0.071	-0.018
-392.092	-160.656	0.222	0.012
-391.077	800.000	0.062	-0.193
-390.063	151.470	0.148	0.203
-389.048	222.427	-0.134	-0.218
-388.033	-200.000	-0.039	0.240
-387.019	-200.000	0.026	0.144
-386.004	246.554	0.045	0.077
-384.990	-12.145	0.142	0.094
-383.975	-11.304	0.260	0.173
-382.960	-7.566	-0.312	0.213
-381.946	-200.000	-0.003	-0.069
-380.931	43.523	0.291	-0.269
-379.917	-78.079	-0.360	0.125
-378.902	-16.797	0.168	0.107
-377.888	650.762	-0.090	0.233
-376.873	-105.211	0.336	-0.077
-375.858	82.185	0.078	0.085
-374.844	-85.655	-0.101	0.032
-373.829	-5.397	0.230	0.159
-372.815	-200.000	0.074	0.409
-371.800	588.896	-0.024	-0.060
-370.785	800.000	0.110	0.381
-369.771	-200.000	-0.030	0.256
-368.756	309.722	0.075	0.142
-367.742	-161.742	0.588	-0.030
-366.727	-112.755	-0.111	0.022
-365.712	-73.306	0.173	-0.064
-364.698	115.340	0.200	-0.246
-363.683	49.085	0.178	-0.168
-362.669	513.244	0.199	0.468
-361.654	-88.591	-0.207	0.062
-360.639	164.167	0.070	0.100
-359.625	230.330	-0.148	-0.244
-358.610	-88.389	-0.095	0.029
-357.596	211.644	-0.228	-0.362
-356.581	533.458	-0.041	-0.099
-355.566	-111.982	0.358	-0.073
-354.552	-137.533	0.235	-0.027
-353.537	-60.333	0.117	0.050
-352.523	-31.878	0.119	-0.067
-351.508	-159.303	0.131	-0.007
-350.493	177.195	-0.044	-0.064
-349.479	282.702	-0.119	-0.215
-348.464	60.834	-0.228	0.228
-347.450	-55.874	0.294	-0.132
-346.435	-200.000	-0.008	0.150
-345.420	800.000	0.053	-0.199
-344.406	-179.889	-0.372	0.008
-343.391	471.900	-0.145	0.328
-342.377	-200.000	0.027	-0.250
-341.362	-88.318	0.248	-0.075
-340.348	-40.557	0.320	-0.167
-339.333	246.637	-0.024	-0.041
-338.318	-146.749	-0.164	0.014
-337.304	-15.741	0.248	-0.160
-336.289	-200.000	0.030	-0.254
-335.275	-37.992	0.267	-0.143
-334.260	322.022	0.153	0.294
-333.245	-200.000	0.009	-0.266
-332.231	257.278	-0.120	-0.207
-331.216	-134.686	-0.318	-0.039
-330.202	18.655	-0.031	0.025
-329.187	199.001	-0.258	0.398
-328.172	-136.127	-0.219	0.026
-327.158	327.397	0.058	-0.113
-326.143	-200.000	-0.008	0.307
-325.129	-161.614	-0.130	0.007
-324.114	-32.298	0.242	-0.136
-323.099	-130.491	0.258	0.035
-322.085	-200.000	0.007	0.161
-321.070	-46.295	0.253	0.125
-320.056	-147.565	0.297	-0.025
-319.041	-120.811	0.343	0.058
-318.026	-144.700	0.210	0.019
-317.012	-26.050	-0.231	0.137
-315.997	410.125	0.105	-0.224
-314.983	467.583	-0.111	0.251
-313.968	-200.000	-0.003	-0.240
-312.953	117.609	-0.132	-0.163
-311.939	-99.671	0.108	-0.027
-310.924	-200.000	0.067	-0.313
-309.910	210.306	-0.098	-0.154
-308.895	-200.000	-0.001	0.234
-307.880	-108.755	-0.165	0.036
-306.866	-113.518	0.319	-0.063
-305.851	-32.902	0.192	-0.107
-304.837	43.036	0.206	0.189
-303.822	-21.029	-0.280	0.172
-302.807	149.922	-0.105	0.143
-301.793	800.000	0.021	0.087
-300.778	800.000	0.056	-0.158
-299.764	-28.570	-0.042	0.024
-298.749	-200.000	0.050	-0.281
-297.735	-115.804	-0.336	-0.063
-296.720	18.201	-0.030	-0.024
-295.705	130.162	0.209	-0.269
-294.691	-24.482	-0.050	0.030
-293.676	-146.263	0.214	-0.019
-292.662	800.000	-0.086	-0.295
-291.647	-200.000	-0.006	-0.095
-290.632	-123.819	-0.045	0.007
-289.618	378.260	-0.220	0.453
-288.603	-99.722	0.246	-0.062
-287.589	448.214	-0.105	-0.233
-286.574	-41.499	-0.318	-0.164
-285.559	124.431	-0.045	-0.057
-284.545	194.659	-0.178	-0.271
-283.530	-59.679	0.346	-0.149
-282.516	160.522	-0.084	0.118
-281.501	-74.444	-0.243	0.088
-280.486	-68.767	-0.316	-0.123
-279.472	-102.795	-0.377	0.090
-278.457	-200.000	0.110	0.518
-277.443	-118.976	0.144	0.025
-276.428	-200.000	-0.007	0.072
-275.413	-200.000	0.008	0.129
-274.399	-200.000	-0.022	0.121
-273.384	124.091	0.227	-0.286
-272.370	-80.207	-0.180	0.061
-271.355	186.018	-0.294	-0.439
-270.340	113.454	0.349	-0.426
-269.326	169.727	0.149	-0.214
-268.311	-0.408	0.448	0.320
-267.297	-148.364	-0.331	-0.027
-266.282	-182.311	0.400	0.007
-265.267	-86.499	-0.138	0.043
-264.253	685.460	0.119	-0.313
-263.238	-200.000	0.006	-0.232
-262.224	-200.000	0.009	0.090
-261.209	655.242	0.214	-0.551
-260.195	-75.795	-0.116	-0.041
-259.180	35.143	0.249	0.219
-258.165	-200.000	-0.040	0.279
-257.151	-140.506	0.306	-0.032
-256.136	19.845	-0.089	-0.072
-255.122	-15.624	-0.206	0.132
-254.107	800.000	-0.031	-0.134
-253.092	800.000	0.028	-0.079
-252.078	-68.921	0.292	0.113
-251.063	-142.899	0.177	0.017
-250.049	47.976	-0.254	-0.239
-249.034	468.190	0.079	0.177
-248.019	-143.428	-0.161	0.015
-247.005	-200.000	-0.002	0.171
-245.990	661.683	0.067	-0.173
-244.976	-15.160	0.135	-0.087
-243.961	-17.252	-0.253	-0.160
-242.946	-120.064	-0.450	0.077
-241.932	-200.000	-0.074	0.380
-240.917	150.967	-0.054	-0.074
-239.903	-200.000	0.057	-0.345
-238.888	-200.000	0.046	-0.289
-237.873	42.936	-0.196	0.179
-236.859	-165.087	-0.157	0.007
-235.844	540.056	-0.119	0.284
-234.830	-200.000	0.023	-0.179
-233.815	-15.474	-0.110	-0.071
-232.800	108.072	0.061	-0.073
-231.786	-200.000	-0.042	-0.246
-230.771	-146.720	0.426	-0.037
-229.757	169.069	0.050	0.071
-228.742	800.000	-0.109	-0.389
-227.727	138.248	0.157	0.207
-226.713	-42.808	0.169	-0.086
-225.698	800.000	-0.022	0.082
-224.684	94.208	-0.112	0.127
-223.669	-134.103	-0.169	-0.021
-222.655	-200.000	-0.013	-0.241
-221.640	-36.890	-0.126	-0.068
-220.625	-200.000	-0.032	-0.354
-219.611	-108.475	-0.365	0.079
-218.596	-60.374	-0.303	-0.129
-217.582	-156.031	-0.164	0.010
-216.567	-125.135	0.318	-0.049
-215.552	-87.390	-0.043	-0.013
-214.538	-145.129	0.236	0.022
-213.523	-86.364	-0.316	0.097
-212.509	-200.000	0.058	0.374
-211.494	-35.624	0.171	0.093
-210.479	800.000	-0.027	0.091
-209.465	52.954	0.141	-0.136
-208.450	-90.022	-0.312	-0.091
-207.436	-200.000	0.003	0.161
-206.421	-200.000	0.012	0.178
-205.406	52.505	0.112	0.107
-204.392	800.000	0.017	0.060
-203.377	-70.697	0.225	-0.085
-202.363	-107.658	-0.202	-0.044
-201.348	-19.358	0.098	0.061
-200.333	211.208	0.032	0.050
-199.319	-142.414	0.127	-0.013
-198.304	-12.729	0.132	0.086
-197.290	635.147	0.170	-0.433
-196.275	150.540	-0.063	0.086
-195.260	159.919	-0.077	-0.108
-194.246	102.803	0.189	-0.222
-193.231	-200.000	0.014	-0.069
-192.217	-194.328	0.221	0.002
-191.202	800.000	0.041	-0.139
-190.187	238.924	-0.043	0.071
-189.173	58.712	-0.076	-0.075
-188.158	-200.000	-0.048	-0.339
-187.144	-148.208	0.424	0.035
-186.129	-115.827	0.032	0.006
-185.114	613.444	-0.114	0.286
-184.100	-65.626	0.244	0.098
-183.085	-137.619	-0.269	0.030
-182.071	401.058	-0.223	0.468
-181.056	-28.714	0.244	0.140
-180.042	-200.000	0.019	-0.124
-179.027	-200.000	0.030	0.272
-178.012	-71.748	-0.161	0.060
-176.998	-5.668	-0.084	0.057
-175.983	428.021	0.068	0.146
-174.969	-127.379	-0.351	-0.051
-173.954	-200.000	-0.010	-0.076
-172.939	-200.000	0.008	0.206
-171.925	-200.000	0.001	-0.019
-170.910	28.112	-0.061	0.051
-169.896	800.000	0.081	-0.235
-168.881	800.000	-0.011	-0.037
-167.866	-78.386	-0.295	0.101
-166.852	-102.762	-0.462	0.110
-165.837	47.714	-0.056	0.052
-164.823	508.629	0.157	0.366
-163.808	265.000	0.104	0.182
-162.793	-200.000	0.019	0.226
-161.779	-23.229	0.282	0.170
-160.764	-200.000	-0.011	0.185
-159.750	800.000	0.069	-0.252
-158.735	-142.551	-0.092	-0.009
-157.720	-0.513	-0.100	0.071
-156.706	305.273	0.156	0.289
-155.691	396.034	-0.072	-0.151
-154.677	356.884	-0.190	-0.378
-153.662	-200.000	0.034	-0.294
-152.647	108.324	0.204	-0.244
-151.633	-156.474	-0.238	-0.015
-150.618	-200.000	0.011	0.233
-149.604	108.871	-0.134	0.160
-148.589	65.490	-0.132	-0.134
-147.574	-200.000	0.071	-0.381
-146.560	123.274	-0.116	0.145
-145.545	-200.000	0.051	0.306
-144.531	-166.708	-0.261	-0.011
-143.516	-200.000	-0.060	0.487
-142.502	242.607	0.164	-0.274
-141.487	-200.000	0.014	0.161
-140.472	-200.000	-0.016	0.272
-139.458	-200.000	-0.012	0.379
-138.443	26.924	0.204	0.171
-137.429	-200.000	-0.054	-0.243
-136.414	-10.141	-0.087	0.058
-135.399	-161.738	-0.268	0.014
-134.385	85.261	-0.090	0.098
-133.370	-200.000	0.021	0.160
-132.356	-103.491	0.145	0.034
-131.341	3.234	0.222	-0.162
-130.326	23.333	0.081	-0.067
-129.312	123.492	-0.073	0.091
-128.297	89.539	-0.209	-0.232
-127.283	-179.475	0.115	-0.003
-126.268	-24.419	0.232	0.138
-125.253	800.000	-0.018	-0.071
-124.239	51.055	-0.168	0.159
-123.224	-200.000	-0.031	-0.136
