DTS Sentinel unit serial number:	SN413079Multiplexer serial number:	ORYXHardware model number:	OX4-SRSoftware version number:	ORYX F/W v4.00 Oryx Data Collector v3.7.2.0data status	okinstallation	princeton_trtdifferential loss correction	single-endedforward channel	channel 1reverse channel	N/Adate	2019/09/12time	12:40:11forward acquisition time	60.00reverse acquisition time	0.00gamma	496.2192k internal	0.2291k external	0.2291temperature offset calibration	1.0044default loss term (dB/km)	0.3790temperature slope calibration	1.0000multiplexer offset coefficient	1.0000multiplexer slope coefficient	1.0000fibre end	0.00T internal ref (°C)	40.48T ext. ref 1 (°C)	2.03T ext. ref 2 (°C)	36.42length (m)	temperature (°C)	Stokes	anti-Stokes-747.200	-42.276	0.160	-0.084
-746.185	-22.568	-0.094	0.058
-745.171	162.848	0.219	-0.314
-744.156	-200.000	0.016	0.253
-743.142	430.800	0.027	0.060
-742.127	-82.228	-0.404	-0.135
-741.112	462.965	0.113	-0.258
-740.098	-200.000	0.042	-0.319
-739.083	-200.000	-0.016	-0.401
-738.069	-73.334	0.064	-0.024
-737.054	-200.000	-0.002	-0.110
-736.039	-148.980	0.158	0.013
-735.025	305.485	0.081	-0.155
-734.010	-34.626	-0.218	-0.122
-732.996	-62.974	0.236	0.100
-731.981	3.468	-0.287	-0.214
-730.966	-27.388	0.127	0.076
-729.952	-200.000	0.094	-0.510
-728.937	-4.557	-0.090	-0.064
-727.923	-200.000	0.054	-0.487
-726.908	-200.000	0.026	-0.188
-725.894	5.054	-0.199	-0.150
-724.879	-137.028	-0.305	-0.036
-723.864	-27.868	-0.313	0.185
-722.850	597.092	-0.152	-0.386
-721.835	112.477	-0.089	-0.110
-720.821	-200.000	-0.071	0.332
-719.806	-92.969	-0.376	0.107
-718.791	578.640	-0.144	-0.361
-717.777	360.472	0.286	-0.585
-716.762	14.371	-0.070	-0.056
-715.748	-200.000	0.002	0.099
-714.733	-200.000	0.020	-0.364
-713.718	213.551	0.080	0.130
-712.704	-105.634	0.191	-0.044
-711.689	-200.000	-0.015	-0.181
-710.675	-112.136	-0.188	-0.039
-709.660	-49.481	0.326	0.159
-708.645	-82.355	0.313	-0.104
-707.631	-58.946	0.045	0.020
-706.616	-97.950	-0.380	0.100
-705.602	166.747	-0.104	-0.151
-704.587	-21.515	-0.171	0.107
-703.572	129.504	0.120	-0.157
-702.558	-101.941	0.050	-0.012
-701.543	425.407	0.023	0.051
-700.529	-200.000	-0.029	-0.159
-699.514	139.103	-0.105	0.141
-698.499	-9.175	0.078	-0.053
-697.485	-154.963	0.132	0.009
-696.470	58.356	0.172	0.173
-695.456	-97.390	-0.159	0.042
-694.441	569.957	0.137	0.340
-693.426	500.788	0.126	0.297
-692.412	-200.000	0.013	-0.120
-691.397	-172.520	-0.441	-0.014
-690.383	76.238	-0.053	-0.057
-689.368	349.186	-0.203	0.410
-688.354	-39.897	-0.214	0.114
-687.339	-186.733	-0.083	0.001
-686.324	-138.862	-0.196	0.022
-685.310	-92.255	0.166	0.048
-684.295	-200.000	0.001	0.256
-683.281	-97.102	-0.347	-0.093
-682.266	115.252	-0.085	-0.106
-681.251	770.969	0.084	-0.234
-680.237	105.027	-0.139	-0.168
-679.222	-200.000	0.011	-0.269
-678.208	157.637	-0.070	0.098
-677.193	-183.435	0.092	-0.002
-676.178	190.027	-0.191	0.293
-675.164	-170.485	-0.387	-0.014
-674.149	800.000	0.089	0.290
-673.135	-200.000	-0.017	0.382
-672.120	800.000	0.029	-0.096
-671.105	22.876	-0.079	0.066
-670.091	103.734	-0.056	0.067
-669.076	608.468	-0.056	-0.142
-668.062	-7.115	-0.325	-0.225
-667.047	64.311	-0.231	0.238
-666.032	-84.846	-0.191	0.061
-665.018	-93.353	0.184	-0.052
-664.003	789.625	0.036	-0.101
-662.989	-149.191	-0.309	-0.025
-661.974	-200.000	0.020	0.217
-660.959	635.451	-0.072	-0.186
-659.945	-200.000	-0.008	-0.122
-658.930	-200.000	-0.052	0.270
-657.916	142.987	-0.138	-0.187
-656.901	-200.000	-0.004	0.159
-655.886	-185.657	0.087	-0.001
-654.872	-4.760	0.165	-0.116
-653.857	-137.803	-0.375	0.043
-652.843	69.110	0.144	-0.151
-651.828	-10.677	0.110	0.074
-650.814	-20.514	-0.013	0.008
-649.799	-200.000	0.030	0.134
-648.784	-102.352	-0.170	-0.042
-647.770	47.050	0.123	-0.116
-646.755	-104.623	0.162	0.038
-645.741	-92.053	0.353	0.102
-644.726	-33.369	-0.250	-0.141
-643.711	559.586	0.074	-0.182
-642.697	127.199	-0.140	0.181
-641.682	166.745	0.112	0.161
-640.668	-200.000	-0.005	0.148
-639.653	23.133	0.333	0.278
-638.638	-15.825	0.218	0.142
-637.624	160.819	-0.102	0.145
-636.609	800.000	-0.031	0.123
-635.595	-182.994	0.277	0.005
-634.580	32.595	-0.167	-0.147
-633.565	-123.936	-0.212	0.034
-632.551	-94.131	-0.110	-0.031
-631.536	-28.164	-0.084	-0.050
-630.522	-91.759	0.275	-0.080
-629.507	-172.712	0.269	-0.009
-628.492	800.000	0.026	-0.073
-627.478	-200.000	-0.023	-0.212
-626.463	-200.000	0.039	-0.440
-625.449	88.801	0.027	0.031
-624.434	-37.235	0.105	0.057
-623.419	211.309	0.134	0.214
-622.405	-131.776	-0.337	-0.045
-621.390	-51.995	0.211	0.100
-620.376	-73.364	-0.401	0.149
-619.361	-121.237	0.196	0.033
-618.346	800.000	0.010	0.036
-617.332	127.583	-0.155	0.201
-616.317	800.000	0.090	-0.320
-615.303	120.900	0.136	-0.172
-614.288	39.875	0.272	-0.249
-613.273	55.005	0.196	-0.193
-612.259	-43.884	-0.164	-0.084
-611.244	-101.666	-0.297	0.073
-610.230	322.299	0.119	0.230
-609.215	-34.702	-0.093	0.052
-608.201	-200.000	0.076	0.000
-607.186	197.642	-0.196	-0.305
-606.171	-200.000	0.010	0.175
-605.157	-97.347	0.128	-0.034
-604.142	410.036	0.046	-0.099
-603.128	-36.392	0.222	0.122
-602.113	75.281	-0.268	0.288
-601.098	-59.610	-0.218	-0.095
-600.084	17.496	-0.164	-0.133
-599.069	-43.671	-0.124	-0.064
-598.055	-163.431	0.316	0.015
-597.040	-200.000	-0.006	0.223
-596.025	30.566	0.348	-0.303
-595.011	226.029	0.093	-0.154
-593.996	7.620	0.177	0.135
-592.982	-125.298	0.167	0.026
-591.967	139.909	0.087	0.117
-590.952	30.616	0.145	-0.126
-589.938	-167.850	0.348	-0.014
-588.923	-104.843	0.358	0.084
-587.909	339.630	0.199	0.396
-586.894	137.188	-0.258	-0.343
-585.879	268.634	0.085	-0.151
-584.865	-37.634	0.356	-0.193
-583.850	499.454	-0.091	0.213
-582.836	661.403	0.032	-0.083
-581.821	-200.000	-0.063	-0.474
-580.806	-22.124	0.114	-0.070
-579.792	45.692	0.098	-0.093
-578.777	177.000	-0.152	-0.226
-577.763	-200.000	0.009	-0.087
-576.748	257.843	0.172	-0.302
-575.733	-200.000	-0.016	-0.121
-574.719	14.307	0.099	0.079
-573.704	120.876	-0.097	0.123
-572.690	-22.348	0.112	-0.069
-571.675	-75.413	0.192	0.069
-570.661	-200.000	0.004	-0.071
-569.646	262.274	-0.135	-0.238
-568.631	48.804	0.217	0.207
-567.617	-60.514	0.197	0.085
-566.602	7.138	-0.351	-0.266
-565.588	2.586	-0.213	0.157
-564.573	48.734	-0.031	0.030
-563.558	-43.699	0.223	-0.114
-562.544	140.058	-0.156	0.209
-561.529	-102.811	0.328	0.079
-560.515	-200.000	0.016	-0.263
-559.500	800.000	0.071	-0.213
-558.485	-156.439	-0.131	0.008
-557.471	87.921	-0.154	0.173
-556.456	109.365	0.105	-0.128
-555.442	-200.000	0.059	-0.316
-554.427	279.544	0.043	-0.078
-553.412	196.789	-0.220	-0.341
-552.398	-60.899	0.105	-0.045
-551.383	152.852	0.144	0.200
-550.369	-68.544	0.085	0.033
-549.354	1.645	-0.287	0.210
-548.339	-112.253	0.123	0.025
-547.325	-49.345	0.411	-0.200
-546.310	-166.460	0.091	0.004
-545.296	-77.010	0.028	-0.010
-544.281	-1.444	-0.121	0.087
-543.266	-124.017	-0.127	-0.020
-542.252	-33.412	0.193	-0.108
-541.237	116.790	0.133	-0.166
-540.223	-57.969	-0.298	-0.132
-539.208	-157.167	-0.327	0.020
-538.193	-200.000	0.014	0.201
-537.179	137.473	0.112	0.149
-536.164	-60.092	-0.139	-0.060
-535.150	-200.000	0.020	0.187
-534.135	-63.658	-0.089	0.037
-533.121	-104.354	-0.369	0.087
-532.106	-151.434	-0.342	-0.026
-531.091	126.178	-0.056	0.072
-530.077	286.520	-0.177	-0.324
-529.062	-200.000	-0.018	0.261
-528.048	-65.472	-0.246	0.100
-527.033	60.760	0.326	0.328
-526.018	-200.000	0.124	0.000
-525.004	-105.018	-0.213	0.049
-523.989	-200.000	0.024	-0.461
-522.975	-200.000	0.021	0.153
-521.960	1.642	-0.412	0.301
-520.945	499.727	0.032	0.075
-519.931	-68.975	-0.130	0.051
-518.916	-13.918	-0.149	-0.098
-517.902	21.382	0.091	-0.075
-516.887	-48.777	-0.048	0.023
-515.872	800.000	-0.076	0.322
-514.858	180.017	-0.119	0.177
-513.843	-200.000	-0.015	-0.241
-512.829	-200.000	0.034	-0.444
-511.814	-117.065	0.211	0.039
-510.799	429.864	-0.028	0.061
-509.785	-35.740	-0.200	-0.110
-508.770	159.840	-0.180	-0.255
-507.756	147.970	-0.056	0.077
-506.741	-200.000	0.010	0.199
-505.726	-136.689	0.104	-0.012
-504.712	197.869	-0.094	0.145
-503.697	27.654	-0.173	-0.148
-502.683	-181.235	-0.244	0.005
-501.668	-4.446	-0.154	0.108
-500.653	390.704	-0.157	0.330
-499.639	-62.245	0.110	0.046
-498.624	520.684	-0.030	0.072
-497.610	-200.000	0.029	-0.180
-496.595	251.289	0.035	0.060
-495.581	58.948	-0.199	0.199
-494.566	-38.192	0.093	-0.050
-493.551	-37.852	0.387	0.209
-492.537	176.430	-0.264	0.389
-491.522	800.000	0.028	-0.103
-490.508	114.188	-0.167	-0.206
-489.493	-200.000	0.031	-0.217
-488.478	-107.663	0.278	-0.062
-487.464	63.971	-0.125	0.127
-486.449	134.969	0.053	-0.069
-485.435	800.000	-0.017	-0.067
-484.420	-200.000	0.030	0.199
-483.405	-200.000	0.046	-0.211
-482.391	-200.000	-0.020	-0.096
-481.376	206.157	0.097	0.152
-480.362	-136.069	-0.274	-0.033
-479.347	800.000	0.039	-0.161
-478.332	-200.000	0.006	-0.102
-477.318	800.000	0.111	0.317
-476.303	10.248	-0.182	0.140
-475.289	53.213	-0.105	-0.102
-474.274	23.704	0.163	0.136
-473.259	61.128	-0.176	0.177
-472.245	-172.973	-0.090	0.003
-471.230	381.750	-0.140	0.292
-470.216	-101.415	0.219	-0.054
-469.201	-147.218	0.074	0.006
-468.186	800.000	0.018	-0.072
-467.172	659.473	0.073	-0.190
-466.157	-124.389	-0.205	0.032
-465.143	85.687	-0.167	0.185
-464.128	800.000	-0.080	0.269
-463.113	8.304	-0.242	0.184
-462.099	-200.000	-0.005	0.026
-461.084	-188.150	-0.126	0.002
-460.070	800.000	0.060	-0.213
-459.055	-17.369	0.227	-0.145
-458.040	-76.644	-0.242	0.086
-457.026	800.000	0.009	0.041
-456.011	182.800	-0.052	-0.077
-454.997	800.000	-0.131	-0.380
-453.982	291.971	0.194	-0.357
-452.968	9.261	-0.112	0.086
-451.953	60.945	-0.121	-0.122
-450.938	268.658	0.114	-0.202
-449.924	-29.258	0.099	-0.057
-448.909	-142.779	0.214	-0.021
-447.895	-16.555	0.152	-0.098
-446.880	-152.627	-0.275	0.020
-445.865	-200.000	-0.026	0.173
-444.851	-115.208	0.103	-0.020
-443.836	-200.000	-0.044	0.238
-442.822	351.839	-0.116	0.232
-441.807	-200.000	-0.018	-0.155
-440.792	-102.402	-0.186	0.045
-439.778	-200.000	0.032	-0.355
-438.763	-200.000	0.019	0.353
-437.749	361.640	-0.048	0.098
-436.734	9.753	0.186	0.142
-435.719	-59.147	0.287	-0.125
-434.705	51.843	-0.287	0.276
-433.690	-131.701	0.224	0.030
-432.676	-53.818	-0.207	-0.096
-431.661	-101.873	-0.274	0.067
-430.646	800.000	0.026	-0.084
-429.632	-74.119	-0.237	-0.087
-428.617	800.000	-0.090	0.284
-427.603	336.184	0.140	0.276
-426.588	-16.275	0.250	-0.161
-425.573	528.544	0.013	-0.030
-424.559	800.000	-0.023	-0.079
-423.544	-200.000	0.016	0.221
-422.530	800.000	-0.041	0.148
-421.515	-110.896	0.259	0.054
-420.500	154.773	-0.132	0.184
-419.486	517.806	-0.062	0.147
-418.471	46.101	0.156	0.146
-417.457	-200.000	-0.020	0.306
-416.442	239.257	0.085	-0.142
-415.428	725.297	-0.085	-0.229
-414.413	182.873	0.052	-0.077
-413.398	266.649	-0.096	-0.170
-412.384	-30.068	0.053	-0.031
-411.369	800.000	0.082	0.260
-410.355	-147.453	0.040	-0.003
-409.340	645.765	0.099	0.256
-408.325	-156.099	-0.416	0.027
-407.311	559.197	-0.076	-0.185
-406.296	7.038	0.156	-0.118
-405.282	54.650	0.299	-0.292
-404.267	-84.109	-0.136	-0.044
-403.252	-158.296	0.250	0.015
-402.238	800.000	0.098	-0.351
-401.223	8.313	0.092	0.070
-400.209	-136.080	0.210	0.025
-399.194	800.000	-0.004	-0.018
-398.179	-200.000	0.024	0.152
-397.165	-200.000	0.051	0.404
-396.150	-15.637	-0.309	-0.199
-395.136	-118.667	0.017	-0.003
-394.121	-98.751	0.483	-0.124
-393.106	-84.381	0.446	-0.142
-392.092	-98.097	0.104	-0.027
-391.077	-86.269	-0.125	-0.039
-390.063	-38.266	-0.072	0.039
-389.048	-123.354	0.075	-0.012
-388.033	20.852	0.576	0.471
-387.019	-169.010	0.181	0.007
-386.004	237.086	-0.112	0.187
-384.990	75.380	-0.099	0.106
-383.975	299.219	-0.157	-0.293
-382.960	-200.000	0.026	0.178
-381.946	-54.108	0.091	0.042
-380.931	-200.000	0.018	0.226
-379.917	800.000	-0.093	0.262
-378.902	-136.882	-0.073	-0.008
-377.888	-103.735	-0.294	-0.069
-376.873	225.642	0.185	0.303
-375.858	-200.000	0.006	-0.103
-374.844	202.824	0.119	-0.186
-373.829	217.662	-0.105	-0.169
-372.815	685.224	-0.040	-0.106
-371.800	76.866	0.264	0.283
-370.785	-68.089	-0.371	0.146
-369.771	-102.437	0.081	0.020
-368.756	-96.881	-0.181	-0.048
-367.742	-200.000	-0.004	-0.034
-366.727	125.217	-0.307	-0.390
-365.712	-8.088	-0.271	-0.184
-364.698	-127.068	-0.160	0.024
-363.683	-103.114	0.385	0.092
-362.669	304.562	0.143	-0.269
-361.654	346.143	-0.185	-0.367
-360.639	-151.413	-0.293	0.022
-359.625	-169.380	0.172	-0.006
-358.610	-200.000	-0.033	0.188
-357.596	-37.830	0.124	-0.066
-356.581	67.515	0.276	-0.284
-355.566	-102.575	0.267	0.064
-354.552	-129.684	0.350	-0.049
-353.537	-7.840	-0.184	-0.125
-352.523	189.108	-0.259	0.392
-351.508	-170.805	0.180	0.006
-350.493	-128.377	-0.142	0.020
-349.479	-150.817	0.192	0.015
-348.464	-121.539	0.187	0.031
-347.450	171.526	0.088	0.128
-346.435	632.120	0.136	0.348
-345.420	482.783	-0.138	0.316
-344.406	132.152	-0.121	-0.157
-343.391	800.000	-0.079	-0.330
-342.377	-200.000	0.043	-0.368
-341.362	800.000	0.049	0.198
-340.348	206.906	0.049	-0.077
-339.333	-128.772	-0.483	-0.069
-338.318	-200.000	0.009	0.050
-337.304	57.136	-0.320	0.314
-336.289	-72.299	-0.245	0.091
-335.275	-139.791	0.440	0.047
-334.260	-98.108	-0.249	-0.065
-333.245	-18.087	-0.047	0.029
-332.231	753.132	0.126	-0.343
-331.216	-97.632	0.319	0.083
-330.202	52.203	0.160	0.154
-329.187	-125.635	0.242	-0.037
-328.172	646.438	-0.037	-0.094
-327.158	-65.610	-0.274	-0.111
-326.143	-197.105	0.274	-0.002
-325.129	170.540	0.137	0.198
-324.114	800.000	-0.123	0.489
-323.099	-93.080	-0.285	0.080
-322.085	94.530	-0.272	0.311
-321.070	-97.091	0.281	-0.074
-320.056	-200.000	0.075	-0.344
-319.041	-107.547	0.382	0.084
-318.026	-62.224	-0.056	-0.023
-317.012	-103.101	0.324	-0.077
-315.997	731.813	-0.021	0.057
-314.983	-58.183	0.310	-0.136
-313.968	-200.000	0.032	0.170
-312.953	59.428	0.023	-0.023
-311.939	90.573	0.151	0.170
-310.924	-53.721	0.208	-0.096
-309.910	257.224	0.041	-0.072
-308.895	54.340	-0.149	0.144
-307.880	-144.924	-0.187	-0.017
-306.866	-200.000	0.011	-0.168
-305.851	-118.793	0.164	0.029
-304.837	-200.000	-0.011	-0.086
-303.822	165.036	-0.277	-0.394
-302.807	195.629	-0.051	0.078
-301.793	504.837	0.134	0.312
-300.778	-96.988	0.089	0.023
-299.764	-200.000	-0.002	-0.070
-298.749	50.808	-0.240	0.228
-297.735	-200.000	0.013	0.284
-296.720	-200.000	-0.019	-0.176
-295.705	-192.453	-0.189	-0.002
-294.691	108.837	0.134	0.161
-293.676	-8.685	-0.083	-0.056
-292.662	-46.751	0.130	-0.064
-291.647	55.083	-0.219	-0.213
-290.632	-26.760	-0.203	-0.119
-289.618	62.130	0.287	0.288
-288.603	-10.556	0.112	-0.075
-287.589	138.367	-0.133	-0.175
-286.574	48.788	0.216	-0.204
-285.559	171.841	-0.061	0.088
-284.545	34.657	0.198	0.174
-283.530	800.000	0.079	0.282
-282.516	-27.458	-0.202	0.118
-281.501	-154.841	-0.179	0.012
-280.486	800.000	-0.050	0.183
-279.472	-107.905	-0.054	0.012
-278.457	-200.000	-0.038	-0.174
-277.443	-39.124	0.068	-0.036
-276.428	-200.000	0.003	0.147
-275.413	-132.688	0.090	-0.012
-274.399	800.000	0.089	-0.346
-273.384	407.053	0.052	0.111
-272.370	-34.359	-0.168	0.093
-271.355	-72.254	0.325	-0.121
-270.340	-200.000	0.011	-0.175
-269.326	1.018	0.064	-0.046
-268.311	-124.320	-0.395	0.062
-267.297	17.325	0.147	-0.117
-266.282	128.756	-0.185	0.237
-265.267	678.387	0.099	-0.258
-264.253	89.663	0.057	-0.064
-263.238	112.731	0.198	-0.241
-262.224	-29.925	0.091	-0.052
-261.209	-152.474	0.142	-0.010
-260.195	-156.209	-0.289	-0.018
-259.180	53.744	-0.035	0.034
-258.165	-200.000	-0.038	0.266
-257.151	17.690	-0.125	0.100
-256.136	221.244	-0.091	-0.146
-255.122	-70.977	-0.369	-0.140
-254.107	495.072	-0.105	0.241
-253.092	-110.871	-0.189	-0.039
-252.078	-199.965	-0.356	0.002
-251.063	56.671	-0.194	0.189
-250.049	800.000	0.051	0.212
-249.034	-200.000	-0.001	-0.050
-248.019	434.938	0.080	0.174
-247.005	-200.000	-0.008	0.156
-245.990	-17.932	0.210	-0.132
-244.976	-77.790	-0.086	0.030
-243.961	-141.894	-0.137	-0.014
-242.946	104.492	0.287	0.339
-241.932	800.000	-0.042	-0.135
-240.917	731.505	-0.061	-0.164
-239.903	800.000	-0.039	-0.137
-238.888	151.864	0.155	-0.212
-237.873	-129.685	-0.161	-0.022
-236.859	29.170	-0.143	-0.122
-235.844	-27.704	-0.078	0.046
-234.830	-74.673	-0.334	0.121
-233.815	1.789	-0.012	0.008
-232.800	-200.000	0.052	-0.400
-231.786	-105.855	0.079	0.018
-230.771	1.479	0.155	-0.112
-229.757	-113.448	-0.159	0.031
-228.742	800.000	-0.022	0.063
-227.727	176.355	-0.096	0.139
-226.713	-67.621	-0.298	0.117
-225.698	72.817	0.111	0.117
-224.684	84.754	-0.166	-0.182
-223.669	-200.000	-0.048	-0.287
-222.655	-105.037	-0.410	0.094
-221.640	31.391	-0.284	0.245
-220.625	-102.191	0.054	-0.013
-219.611	712.004	-0.058	0.153
-218.596	20.421	0.075	-0.061
-217.582	56.994	0.254	-0.249
-216.567	596.585	-0.069	-0.172
-215.552	-200.000	-0.001	-0.213
-214.538	162.356	-0.158	0.223
-213.523	-59.696	0.191	0.082
-212.509	32.064	0.118	0.102
-211.494	-57.524	-0.414	0.182
-210.479	22.049	-0.119	-0.097
-209.465	800.000	-0.068	0.247
-208.450	-200.000	0.002	-0.100
-207.436	-148.086	-0.421	-0.035
-206.421	-200.000	0.005	0.153
-205.406	431.623	-0.095	0.206
-204.392	105.727	-0.046	-0.055
-203.377	156.181	0.193	-0.267
-202.363	43.666	-0.056	-0.052
-201.348	32.920	0.094	0.081
-200.333	150.728	0.030	-0.040
-199.319	-200.000	0.010	0.160
-198.304	-4.314	0.254	0.176
-197.290	667.877	0.014	0.037
-196.275	51.829	0.144	-0.137
-195.260	-200.000	0.030	-0.473
-194.246	197.935	-0.158	-0.241
-193.231	110.753	-0.171	0.206
-192.217	800.000	-0.102	-0.391
-191.202	-200.000	-0.033	0.275
-190.187	50.843	0.300	-0.285
-189.173	0.616	-0.236	-0.169
-188.158	163.104	0.155	0.218
-187.144	-71.062	-0.270	0.102
-186.129	316.886	-0.062	0.118
-185.114	800.000	0.024	0.075
-184.100	800.000	0.145	-0.435
-183.085	-55.304	0.157	-0.071
-182.071	629.652	0.100	0.254
-181.056	108.214	0.091	-0.109
-180.042	-200.000	0.004	-0.198
-179.027	781.997	0.035	0.096
-178.012	-72.359	-0.107	0.040
-176.998	82.357	-0.131	-0.142
-175.983	332.964	0.131	-0.254
-174.969	-54.571	-0.173	0.078
-173.954	800.000	-0.198	-0.554
-172.939	-200.000	0.026	0.152
-171.925	5.872	0.231	0.171
-170.910	112.178	-0.188	0.227
-169.896	592.024	0.088	0.218
-168.881	-200.000	0.041	-0.238
-167.866	16.731	0.142	0.112
-166.852	16.090	0.088	-0.069
-165.837	41.511	0.148	0.134
-164.823	-83.208	0.180	-0.058
-163.808	-75.912	-0.188	0.066
-162.793	-200.000	0.029	-0.157
-161.779	800.000	-0.050	0.192
-160.764	800.000	0.019	-0.079
-159.750	-101.561	0.283	0.069
-158.735	-193.084	-0.133	-0.001
-157.720	132.777	0.037	-0.048
-156.706	197.299	0.039	-0.060
-155.691	-65.665	-0.084	-0.034
-154.677	-31.619	-0.078	0.044
-153.662	-119.835	-0.193	0.033
-152.647	-76.665	0.209	-0.073
-151.633	-138.096	0.176	-0.020
-150.618	-200.000	-0.005	-0.213
-149.604	169.838	0.199	-0.285
-148.589	-23.821	0.112	-0.067
-147.574	-65.469	-0.258	0.104
-146.560	-200.000	0.010	0.181
-145.545	177.517	-0.136	-0.198
-144.531	-168.401	0.406	-0.016
-143.516	-182.670	-0.106	0.002
-142.502	98.551	0.297	-0.343
-141.487	-89.337	0.108	-0.032
-140.472	97.194	-0.054	0.061
-139.458	-190.011	0.106	0.001
-138.443	800.000	0.034	-0.116
-137.429	518.327	0.093	0.217
-136.414	-200.000	0.010	-0.146
-135.399	-42.268	-0.177	-0.090
-134.385	-77.034	0.266	0.093
-133.370	336.815	0.085	-0.165
-132.356	-200.000	-0.001	0.025
-131.341	-200.000	-0.008	-0.167
-130.326	-51.742	0.050	0.023
-129.312	-200.000	0.048	-0.230
-128.297	-200.000	-0.073	0.407
-127.283	305.086	0.122	-0.227
-126.268	320.170	0.112	0.213
-125.253	-130.478	-0.187	-0.025
-124.239	85.142	0.191	-0.209
-123.224	-37.693	-0.310	-0.165
-122.210	-139.796	-0.300	0.032
-121.195	37.261	0.159	0.140
