DTS Sentinel unit serial number:	SN413079Multiplexer serial number:	ORYXHardware model number:	OX4-SRSoftware version number:	ORYX F/W v4.00 Oryx Data Collector v3.7.2.0data status	okinstallation	princeton_trtdifferential loss correction	single-endedforward channel	channel 1reverse channel	N/Adate	2019/09/19time	00:22:35forward acquisition time	60.00reverse acquisition time	0.00gamma	496.2192k internal	0.2342k external	0.2342temperature offset calibration	1.0019default loss term (dB/km)	0.3790temperature slope calibration	1.0000multiplexer offset coefficient	1.0000multiplexer slope coefficient	1.0000fibre end	0.00T internal ref (°C)	22.62T ext. ref 1 (°C)	0.75T ext. ref 2 (°C)	15.64length (m)	temperature (°C)	Stokes	anti-Stokes-747.200	-200.000	-0.012	-0.136
-746.185	-181.234	0.181	0.004
-745.171	61.261	-0.056	0.056
-744.156	-87.665	-0.151	0.046
-743.142	0.966	0.068	-0.049
-742.127	-200.000	0.018	0.179
-741.112	-200.000	0.331	0.000
-740.098	800.000	-0.109	0.312
-739.083	466.948	0.075	-0.169
-738.069	-76.907	-0.208	-0.073
-737.054	-18.672	-0.319	0.199
-736.039	32.980	0.135	0.117
-735.025	-116.957	0.466	-0.085
-734.010	-200.000	0.004	-0.395
-732.996	-122.684	-0.150	-0.024
-731.981	163.302	0.093	-0.130
-730.966	-118.804	-0.063	0.011
-729.952	-200.000	-0.028	-0.169
-728.937	158.104	0.139	-0.193
-727.923	-130.400	-0.258	-0.035
-726.908	-113.667	0.109	0.021
-725.894	-163.065	-0.507	0.025
-724.879	-200.000	-0.052	0.562
-723.864	18.731	-0.103	-0.083
-722.850	-48.240	-0.344	0.166
-721.835	473.262	-0.162	-0.365
-720.821	627.927	0.106	0.268
-719.806	-200.000	0.058	-0.257
-718.791	-53.221	-0.347	0.159
-717.777	707.149	-0.089	-0.236
-716.762	-200.000	-0.070	-0.456
-715.748	800.000	0.081	0.249
-714.733	58.988	-0.231	0.228
-713.718	-58.885	0.149	0.064
-712.704	329.187	0.140	-0.269
-711.689	422.606	0.098	-0.209
-710.675	42.425	-0.142	-0.129
-709.660	-137.268	-0.044	-0.005
-708.645	-125.436	0.133	-0.020
-707.631	-149.709	0.012	0.001
-706.616	-200.000	0.002	0.299
-705.602	62.291	-0.096	0.096
-704.587	-125.783	-0.445	-0.067
-703.572	-200.000	-0.005	0.293
-702.558	-69.060	0.090	-0.035
-701.543	-160.756	0.333	-0.018
-700.529	40.984	-0.285	0.258
-699.514	211.300	0.155	-0.243
-698.499	112.250	0.160	0.194
-697.485	-32.690	0.215	-0.119
-696.470	114.592	0.121	0.147
-695.456	-65.390	-0.225	-0.090
-694.441	-200.000	0.041	0.325
-693.426	-75.429	0.050	0.018
-692.412	110.929	0.035	-0.042
-691.397	-200.000	-0.012	0.220
-690.383	-81.251	-0.381	0.126
-689.368	354.107	-0.034	0.068
-688.354	-108.547	-0.118	-0.025
-687.339	-117.031	-0.292	0.053
-686.324	-120.710	-0.238	-0.040
-685.310	-183.931	0.284	0.005
-684.295	-86.417	-0.159	-0.049
-683.281	130.215	-0.150	0.192
-682.266	-29.051	0.235	-0.135
-681.251	37.969	-0.092	0.082
-680.237	321.717	-0.076	-0.145
-679.222	-34.106	-0.295	-0.162
-678.208	183.924	-0.134	-0.198
-677.193	681.304	0.079	0.204
-676.178	-87.894	-0.236	-0.071
-675.164	79.212	0.055	-0.059
-674.149	1.579	0.161	-0.116
-673.135	-32.659	0.499	0.278
-672.120	172.754	0.093	-0.134
-671.105	800.000	-0.043	0.156
-670.091	-90.482	-0.214	-0.062
-669.076	128.900	-0.201	0.256
-668.062	106.582	0.106	-0.126
-667.047	23.429	-0.219	-0.180
-666.032	-39.340	0.416	-0.218
-665.018	72.644	0.197	0.205
-664.003	-97.698	-0.070	-0.018
-662.989	18.739	-0.083	-0.066
-661.974	800.000	-0.054	0.190
-660.959	-31.655	-0.026	-0.015
-659.945	-46.223	0.331	0.163
-658.930	9.467	-0.257	0.194
-657.916	491.829	-0.147	0.337
-656.901	523.760	0.149	0.350
-655.886	-10.956	-0.185	-0.122
-654.872	-189.716	-0.158	0.002
-653.857	366.777	-0.085	0.172
-652.843	-134.861	0.259	0.031
-651.828	-200.000	0.058	-0.266
-650.814	-8.591	-0.028	0.019
-649.799	-12.018	0.092	0.060
-648.784	-72.860	-0.170	-0.062
-647.770	-103.370	0.219	-0.051
-646.755	-49.272	-0.326	0.155
-645.741	0.746	0.074	-0.053
-644.726	-200.000	-0.002	0.080
-643.711	190.082	0.097	0.145
-642.697	0.334	0.162	0.115
-641.682	-200.000	0.061	-0.473
-640.668	125.193	0.172	0.216
-639.653	-200.000	-0.045	-0.283
-638.638	-200.000	-0.024	-0.354
-637.624	-200.000	-0.007	0.176
-636.609	-8.808	-0.047	0.032
-635.595	800.000	0.114	0.488
-634.580	600.383	-0.071	-0.177
-633.565	-41.489	-0.218	0.112
-632.551	212.880	0.079	-0.125
-631.536	92.995	0.196	0.221
-630.522	800.000	0.072	0.220
-629.507	-146.444	0.280	0.024
-628.492	-99.428	-0.247	0.062
-627.478	-111.254	0.088	-0.018
-626.463	30.521	-0.153	0.131
-625.449	120.857	-0.226	0.280
-624.434	-123.317	-0.311	-0.050
-623.419	478.019	0.113	-0.255
-622.405	-91.305	0.093	0.026
-621.390	-133.911	-0.357	-0.044
-620.376	-122.724	0.133	-0.022
-619.361	717.113	-0.044	-0.116
-618.346	800.000	-0.068	-0.194
-617.332	278.919	-0.097	-0.173
-616.317	-47.186	0.222	0.108
-615.303	99.268	0.113	0.130
-614.288	-200.000	0.047	0.247
-613.273	-50.627	0.214	-0.100
-612.259	-82.218	-0.141	0.046
-611.244	800.000	0.041	-0.117
-610.230	-200.000	-0.023	0.374
-609.215	476.274	-0.176	-0.396
-608.201	45.561	-0.179	0.165
-607.186	150.629	0.130	0.176
-606.171	87.780	0.158	0.174
-605.157	53.886	0.300	-0.287
-604.142	15.559	-0.185	-0.145
-603.128	800.000	0.101	-0.437
-602.113	-200.000	0.059	0.331
-601.098	9.914	0.047	0.036
-600.084	199.545	0.025	-0.039
-599.069	596.984	-0.010	-0.025
-598.055	-33.867	0.080	0.044
-597.040	-19.905	-0.210	0.129
-596.025	-22.652	-0.126	-0.076
-595.011	85.303	0.156	-0.171
-593.996	-200.000	0.015	0.065
-592.982	-15.047	0.112	-0.072
-591.967	-18.079	-0.184	0.115
-590.952	105.391	0.123	0.144
-589.938	-55.875	0.160	0.071
-588.923	-160.769	-0.148	-0.008
-587.909	-7.922	0.430	-0.289
-586.894	72.294	0.090	0.093
-585.879	-132.077	0.153	-0.020
-584.865	537.709	-0.020	0.048
-583.850	-77.798	-0.076	0.026
-582.836	131.131	-0.080	0.103
-581.821	30.169	0.173	-0.147
-580.806	-120.378	-0.096	-0.016
-579.792	635.578	-0.075	-0.189
-578.777	-104.033	0.144	0.033
-577.763	-102.461	-0.093	0.022
-576.748	64.200	0.134	0.135
-575.733	-123.228	0.030	-0.005
-574.719	-200.000	0.028	-0.185
-573.704	-200.000	0.025	-0.218
-572.690	-36.673	0.116	-0.062
-571.675	306.698	-0.095	0.176
-570.661	53.399	0.217	0.207
-569.646	454.073	-0.216	0.476
-568.631	451.985	0.153	0.336
-567.617	43.327	0.120	-0.109
-566.602	800.000	-0.039	-0.119
-565.588	278.027	-0.075	-0.132
-564.573	-57.952	0.087	-0.038
-563.558	16.863	0.305	0.240
-562.544	93.094	0.126	0.142
-561.529	-65.534	-0.351	-0.140
-560.515	800.000	0.036	0.139
-559.500	-200.000	0.015	0.155
-558.485	-62.405	-0.439	-0.182
-557.471	-56.210	-0.161	-0.071
-556.456	800.000	-0.054	-0.155
-555.442	-109.272	-0.062	-0.013
-554.427	-120.912	-0.213	-0.036
-553.412	800.000	-0.123	-0.415
-552.398	108.292	-0.088	0.104
-551.383	-30.862	0.366	0.205
-550.369	-114.292	-0.284	-0.054
-549.354	103.389	0.054	-0.063
-548.339	221.720	-0.033	0.052
-547.325	-106.208	-0.017	-0.004
-546.310	-77.450	0.149	-0.051
-545.296	-122.240	0.449	-0.073
-544.281	-167.096	-0.405	0.016
-543.266	-95.916	0.137	0.036
-542.252	251.343	-0.149	0.252
-541.237	-78.307	-0.409	-0.139
-540.223	-88.597	0.354	0.105
-539.208	-33.502	0.178	0.098
-538.193	-99.045	-0.111	-0.028
-537.179	63.465	0.216	0.216
-536.164	800.000	-0.037	0.118
-535.150	-69.157	0.271	-0.103
-534.135	519.475	0.019	-0.044
-533.121	577.959	0.070	-0.170
-532.106	-58.181	-0.196	-0.085
-531.091	-75.718	0.058	-0.021
-530.077	-200.000	-0.249	0.001
-529.062	-93.485	-0.171	-0.047
-528.048	-100.904	0.154	0.037
-527.033	75.934	0.118	-0.124
-526.018	373.610	0.099	0.199
-525.004	118.538	0.125	0.153
-523.989	-104.712	0.061	-0.014
-522.975	725.130	0.059	-0.155
-521.960	554.309	0.037	-0.089
-520.945	-105.257	0.299	-0.068
-519.931	338.275	-0.122	-0.236
-518.916	800.000	0.038	-0.151
-517.902	-103.252	0.209	-0.049
-516.887	87.069	0.062	0.068
-515.872	304.035	0.023	-0.042
-514.858	-166.133	0.228	-0.010
-513.843	-34.638	-0.269	-0.146
-512.829	161.551	0.043	-0.060
-511.814	-200.000	0.001	-0.123
-510.799	107.393	-0.027	0.032
-509.785	-107.014	0.053	-0.012
-508.770	-14.866	-0.463	-0.295
-507.756	34.979	-0.258	0.224
-506.741	70.021	0.210	-0.215
-505.726	449.116	-0.118	0.258
-504.712	-163.397	-0.094	-0.004
-503.697	36.625	-0.141	-0.123
-502.683	54.572	0.205	-0.196
-501.668	42.015	-0.101	-0.091
-500.653	195.809	-0.259	0.391
-499.639	176.754	-0.128	0.185
-498.624	-109.075	-0.118	0.025
-497.610	-129.623	-0.147	-0.020
-496.595	-115.045	-0.206	0.039
-495.581	-200.000	-0.018	0.270
-494.566	231.236	-0.215	-0.350
-493.551	64.811	-0.072	-0.072
-492.537	413.655	0.045	-0.095
-491.522	-12.091	-0.356	-0.231
-490.508	-120.701	0.110	0.018
-489.493	800.000	-0.064	0.239
-488.478	116.023	-0.185	0.225
-487.464	-144.780	0.326	-0.030
-486.449	40.276	-0.343	-0.306
-485.435	51.366	0.075	0.071
-484.420	493.891	-0.130	0.297
-483.405	112.213	-0.037	-0.044
-482.391	-200.000	-0.016	-0.290
-481.376	-7.134	-0.345	-0.232
-480.362	195.182	0.146	0.220
-479.347	-200.000	0.017	-0.194
-478.332	-97.787	-0.361	0.093
-477.318	180.866	-0.097	0.142
-476.303	-136.891	0.210	-0.024
-475.289	-200.000	0.143	0.000
-474.274	-146.524	-0.380	-0.033
-473.259	-82.032	-0.418	-0.135
-472.245	34.775	0.179	0.155
-471.230	-61.606	-0.216	-0.090
-470.216	-54.906	0.179	-0.080
-469.201	25.841	0.348	-0.288
-468.186	800.000	-0.099	-0.294
-467.172	746.832	0.060	0.161
-466.157	106.200	0.099	0.116
-465.143	800.000	0.114	-0.401
-464.128	-96.622	0.301	0.079
-463.113	-139.890	0.168	-0.018
-462.099	-200.000	0.001	0.297
-461.084	-44.642	-0.351	0.174
-460.070	-200.000	-0.005	0.055
-459.055	-32.117	-0.094	0.052
-458.040	-118.307	0.523	-0.092
-457.026	103.430	-0.240	0.279
-456.011	-69.651	-0.272	-0.103
-454.997	57.120	0.062	-0.060
-453.982	215.224	0.212	-0.333
-452.968	-200.000	-0.006	0.046
-451.953	800.000	-0.071	-0.262
-450.938	-75.422	-0.343	-0.121
-449.924	36.480	0.209	0.182
-448.909	58.930	0.054	0.052
-447.895	668.549	-0.014	-0.035
-446.880	800.000	0.065	0.181
-445.865	-2.239	0.234	-0.163
-444.851	474.622	0.157	-0.350
-443.836	-64.401	-0.084	-0.034
-442.822	559.431	0.103	-0.246
-441.807	-97.220	-0.283	-0.073
-440.792	-14.953	0.187	-0.119
-439.778	333.693	0.102	-0.195
-438.763	117.394	0.076	-0.092
-437.749	800.000	0.042	0.166
-436.734	-126.687	0.127	0.019
-435.719	800.000	-0.019	0.066
-434.705	-75.879	0.248	-0.087
-433.690	-102.065	0.335	0.080
-432.676	575.161	-0.066	-0.158
-431.661	4.939	-0.172	0.125
-430.646	-104.520	-0.093	0.021
-429.632	29.004	-0.141	0.119
-428.617	517.860	-0.021	0.049
-427.603	-122.481	-0.143	0.023
-426.588	-111.163	-0.307	0.062
-425.573	90.491	0.066	0.073
-424.559	127.795	0.248	0.312
-423.544	-200.000	0.009	0.092
-422.530	257.195	0.020	-0.034
-421.515	587.603	0.053	-0.128
-420.500	101.596	0.047	-0.055
-419.486	382.124	0.140	-0.284
-418.471	-100.667	-0.028	-0.007
-417.457	-21.712	0.024	0.015
-416.442	25.314	0.072	-0.059
-415.428	-119.420	0.272	-0.047
-414.413	142.882	0.023	-0.030
-413.398	800.000	-0.078	0.287
-412.384	291.088	0.116	-0.208
-411.369	-200.000	-0.023	0.273
-410.355	16.824	0.280	0.219
-409.340	-200.000	-0.081	-0.434
-408.325	-200.000	-0.003	0.301
-407.311	457.489	0.080	-0.177
-406.296	-28.283	0.306	0.175
-405.282	555.699	-0.204	-0.486
-404.267	-94.901	0.170	-0.045
-403.252	-159.028	-0.189	0.011
-402.238	800.000	0.026	-0.087
-401.223	-200.000	0.010	0.130
-400.209	-200.000	0.036	-0.220
-399.194	-200.000	-0.023	-0.122
-398.179	392.688	0.032	-0.066
-397.165	-119.343	-0.343	0.059
-396.150	-82.873	0.145	0.046
-395.136	-5.844	0.183	0.124
-394.121	-105.134	-0.363	-0.082
-393.106	-27.822	0.294	0.168
-392.092	-88.300	0.218	-0.065
-391.077	96.575	-0.161	-0.183
-390.063	-200.000	-0.021	0.321
-389.048	-197.767	-0.327	0.002
-388.033	-200.000	-0.002	0.371
-387.019	155.760	-0.171	-0.232
-386.004	-109.009	0.454	-0.096
-384.990	-41.705	-0.219	0.111
-383.975	-140.438	-0.156	0.016
-382.960	-136.091	0.096	-0.011
-381.946	91.896	-0.282	0.313
-380.931	510.922	-0.033	0.075
-379.917	-200.000	0.032	-0.186
-378.902	188.726	-0.190	-0.281
-377.888	788.702	0.082	0.222
-376.873	-105.796	-0.251	-0.056
-375.858	-168.239	-0.158	-0.006
-374.844	23.081	0.108	0.087
-373.829	-200.000	-0.022	-0.182
-372.815	243.081	-0.108	-0.178
-371.800	-52.229	-0.152	-0.070
-370.785	-54.521	-0.422	0.188
-369.771	39.463	-0.192	-0.170
-368.756	413.847	-0.041	0.086
-367.742	-57.035	-0.403	0.176
-366.727	405.938	0.032	0.066
-365.712	-200.000	0.004	-0.120
-364.698	52.600	0.246	-0.232
-363.683	-52.054	-0.093	0.043
-362.669	-200.000	0.005	0.232
-361.654	246.746	-0.200	0.333
-360.639	-93.946	0.171	-0.046
-359.625	-200.000	0.045	-0.279
-358.610	-158.033	0.274	0.016
-357.596	584.949	0.195	-0.474
-356.581	800.000	0.087	-0.305
-355.566	119.999	-0.209	0.256
-354.552	-20.356	-0.030	0.018
-353.537	-48.191	0.035	0.017
-352.523	7.456	-0.381	0.281
-351.508	-106.830	0.110	-0.024
-350.493	551.406	-0.030	0.070
-349.479	84.805	0.305	0.330
-348.464	-0.093	0.124	0.087
-347.450	-200.000	-0.003	0.031
-346.435	283.130	-0.131	-0.233
-345.420	-200.000	0.026	0.330
-344.406	-49.937	-0.325	-0.152
-343.391	-200.000	-0.022	-0.212
-342.377	-129.774	-0.185	-0.025
-341.362	800.000	-0.061	0.222
-340.348	-1.445	-0.320	-0.222
-339.333	800.000	-0.081	-0.242
-338.318	-200.000	-0.008	0.154
-337.304	800.000	0.070	0.202
-336.289	-101.281	0.349	0.084
-335.275	-200.000	0.037	-0.187
-334.260	87.155	0.309	0.337
-333.245	800.000	-0.019	-0.056
-332.231	41.026	0.307	-0.273
-331.216	-119.568	0.076	0.013
-330.202	-200.000	-0.000	0.510
-329.187	684.969	0.045	-0.115
-328.172	-200.000	-0.049	-0.220
-327.158	-12.533	-0.129	0.083
-326.143	-46.416	-0.318	-0.154
-325.129	-200.000	0.037	0.254
-324.114	-200.000	-0.011	-0.089
-323.099	202.934	-0.133	0.203
-322.085	142.335	0.061	0.079
-321.070	57.909	0.069	0.066
-320.056	-200.000	0.044	-0.299
-319.041	743.241	-0.188	-0.498
-318.026	-13.875	0.030	-0.019
-317.012	-76.855	0.151	0.052
-315.997	-134.768	-0.261	0.031
-314.983	137.534	0.160	-0.206
-313.968	211.523	0.055	0.085
-312.953	320.115	-0.157	0.294
-311.939	-114.386	0.299	0.057
-310.924	622.982	0.053	-0.133
-309.910	800.000	0.067	-0.249
-308.895	313.874	-0.036	0.067
-307.880	-167.092	-0.333	-0.013
-306.866	131.955	0.055	-0.070
-305.851	2.430	-0.269	-0.191
-304.837	800.000	-0.062	-0.226
-303.822	73.148	-0.083	-0.086
-302.807	-200.000	0.030	-0.286
-301.793	487.910	-0.092	-0.207
-300.778	-200.000	0.016	-0.315
-299.764	701.847	0.136	0.354
-298.749	68.184	0.046	0.047
-297.735	-80.609	-0.096	-0.031
-296.720	-74.998	0.093	-0.033
-295.705	-80.389	0.458	0.151
-294.691	36.675	0.514	-0.447
-293.676	596.223	-0.040	0.097
-292.662	-174.338	0.045	-0.001
-291.647	43.574	0.154	-0.139
-290.632	-118.659	0.184	-0.032
-289.618	185.233	0.195	-0.284
-288.603	198.931	-0.056	0.084
-287.589	639.488	-0.048	0.119
-286.574	569.250	0.152	0.365
-285.559	-31.234	0.085	-0.047
-284.545	-147.163	-0.264	0.022
-283.530	21.745	-0.117	0.093
-282.516	-40.152	-0.187	-0.096
-281.501	-54.056	0.138	-0.062
-280.486	306.994	0.121	0.221
-279.472	-200.000	-0.032	-0.231
-278.457	-200.000	0.023	0.193
-277.443	-200.000	0.020	0.334
-276.428	502.867	0.108	0.245
-275.413	-168.836	-0.657	-0.024
-274.399	47.413	0.256	-0.235
-273.384	-200.000	0.012	0.572
-272.370	30.676	-0.235	0.198
-271.355	-200.000	0.038	-0.196
-270.340	-115.641	-0.038	-0.007
-269.326	47.685	0.174	-0.160
-268.311	381.665	-0.057	-0.115
-267.297	800.000	0.117	0.326
-266.282	105.522	0.047	-0.055
-265.267	-17.723	0.085	-0.053
-264.253	-200.000	0.038	0.257
-263.238	-200.000	0.029	0.152
-262.224	-32.493	0.137	-0.075
-261.209	128.329	-0.064	0.081
-260.195	-7.118	0.066	0.044
-259.180	-127.913	-0.108	-0.015
-258.165	106.699	-0.304	0.354
-257.151	72.233	0.158	-0.161
-256.136	278.817	0.141	0.246
-255.122	332.922	0.162	-0.308
-254.107	-30.843	-0.073	0.041
-253.092	319.980	0.064	0.120
-252.078	508.172	0.094	0.215
-251.063	168.298	-0.147	0.206
-250.049	-200.000	-0.032	-0.147
-249.034	276.641	0.086	-0.151
-248.019	-200.000	0.017	0.192
-247.005	-200.000	0.008	-0.039
-245.990	44.375	-0.269	-0.243
-244.976	-200.000	0.061	0.514
-243.961	-23.904	0.313	-0.184
-242.946	166.729	0.064	0.089
-241.932	14.974	0.125	-0.096
-240.917	-200.000	0.026	-0.249
-239.903	477.929	-0.129	0.286
-238.888	196.466	0.140	0.209
-237.873	-121.036	0.337	-0.056
-236.859	800.000	0.068	-0.197
-235.844	219.846	0.321	0.506
-234.830	8.781	-0.079	0.059
-233.815	800.000	-0.065	0.185
-232.800	39.538	-0.083	-0.073
-231.786	305.479	-0.098	-0.179
-230.771	-65.458	0.256	0.101
-229.757	-200.000	0.029	-0.133
-228.742	-31.205	0.154	0.085
-227.727	97.502	0.154	0.174
-226.713	-73.921	0.328	-0.117
-225.698	209.450	-0.192	-0.296
-224.684	24.356	-0.226	0.183
-223.669	-124.689	0.223	-0.034
-222.655	-200.000	0.006	-0.139
-221.640	430.458	-0.181	-0.384
-220.625	393.449	0.079	0.162
-219.611	-88.755	0.289	0.084
-218.596	-78.188	-0.399	0.135
-217.582	-14.737	0.142	-0.090
-216.567	54.976	-0.072	-0.068
-215.552	-86.041	-0.252	0.077
-214.538	-84.812	0.121	0.037
-213.523	-65.941	-0.164	-0.064
-212.509	-147.676	0.251	0.021
-211.494	399.114	-0.155	0.318
-210.479	261.624	0.220	0.374
-209.465	-41.104	-0.087	0.044
-208.450	96.543	0.098	-0.110
-207.436	-200.000	-0.009	0.043
-206.421	800.000	-0.077	-0.222
-205.406	-29.304	0.128	0.072
-204.392	408.672	-0.131	0.272
-203.377	800.000	-0.067	-0.262
-202.363	-200.000	0.003	-0.018
-201.348	-44.123	-0.071	0.035
-200.333	106.440	-0.214	0.248
-199.319	-104.442	0.068	-0.015
-198.304	-46.093	0.290	0.140
-197.290	543.803	0.097	-0.227
-196.275	-157.173	-0.325	0.019
-195.260	-139.340	0.191	-0.020
-194.246	-115.997	0.331	-0.060
-193.231	125.676	-0.104	0.129
-192.217	17.687	-0.245	0.191
-191.202	18.997	-0.055	-0.043
-190.187	253.457	-0.049	0.083
-189.173	0.120	-0.126	-0.088
-188.158	-103.611	0.072	0.017
-187.144	-200.000	0.013	0.139
-186.129	14.014	-0.042	-0.032
-185.114	-158.732	0.146	0.008
-184.100	-200.000	-0.033	-0.179
-183.085	66.686	0.273	0.272
-182.071	800.000	0.116	-0.441
-181.056	-69.795	-0.072	-0.027
-180.042	7.111	-0.206	0.150
-179.027	-38.208	0.181	-0.094
-178.012	613.893	0.151	0.370
-176.998	-200.000	-0.042	0.238
-175.983	184.799	-0.110	0.160
-174.969	283.542	-0.147	-0.258
-173.954	-129.572	0.192	-0.026
-172.939	96.943	0.125	-0.141
-171.925	-106.524	-0.269	0.059
-170.910	-57.365	0.234	-0.101
-169.896	-119.097	-0.112	0.019
-168.881	33.709	-0.178	-0.151
-167.866	192.095	-0.165	-0.244
-166.852	-118.995	-0.392	-0.067
-165.837	169.839	-0.146	0.204
-164.823	-68.389	-0.282	0.107
-163.808	11.110	0.126	-0.094
-162.793	-61.824	-0.262	0.107
-161.779	-97.908	-0.160	-0.041
-160.764	9.110	-0.238	0.176
-159.750	-155.673	0.346	0.022
-158.735	-200.000	0.006	-0.093
-157.720	800.000	0.009	-0.038
-156.706	-200.000	-0.048	-0.231
-155.691	-64.660	0.228	0.090
-154.677	-200.000	-0.015	0.114
-153.662	631.944	-0.122	-0.302
-152.647	-200.000	-0.010	0.139
-151.633	470.562	0.055	-0.121
-150.618	216.152	-0.233	0.363
-149.604	24.219	0.122	-0.099
-148.589	-200.000	0.010	0.083
-147.574	-116.781	-0.219	-0.039
-146.560	-116.425	0.219	-0.040
-145.545	120.961	-0.069	-0.084
-144.531	-50.904	0.207	0.095
-143.516	624.817	-0.103	-0.254
-142.502	-145.698	-0.164	0.014
-141.487	-200.000	0.020	0.146
-140.472	-53.480	-0.223	-0.100
-139.458	-58.063	0.098	-0.042
-138.443	-200.000	0.002	-0.069
-137.429	-83.778	-0.120	0.037
-136.414	-83.566	0.188	-0.059
-135.399	570.792	0.170	0.406
-134.385	416.228	0.042	0.088
-133.370	-51.657	0.179	-0.082
-132.356	56.467	-0.335	-0.318
-131.341	-180.730	0.217	0.004
-130.326	383.779	-0.015	-0.031
-129.312	-100.115	0.108	0.026
-128.297	21.534	0.180	0.143
-127.283	-200.000	0.026	0.131
-126.268	-50.803	0.148	0.068
-125.253	-0.838	0.512	-0.355
-124.239	-5.098	-0.371	0.250
-123.224	8.799	0.241	0.178
-122.210	-158.884	-0.201	0.011
-121.195	212.998	0.096	0.148
