DTS Sentinel unit serial number:	SN413079Multiplexer serial number:	ORYXHardware model number:	OX4-SRSoftware version number:	ORYX F/W v4.00 Oryx Data Collector v3.7.2.0data status	okinstallation	princeton_trtdifferential loss correction	single-endedforward channel	channel 1reverse channel	N/Adate	2019/09/16time	07:26:35forward acquisition time	60.00reverse acquisition time	0.00gamma	496.2192k internal	0.2330k external	0.2330temperature offset calibration	0.9982default loss term (dB/km)	0.3790temperature slope calibration	1.0000multiplexer offset coefficient	1.0000multiplexer slope coefficient	1.0000fibre end	0.00T internal ref (°C)	27.53T ext. ref 1 (°C)	11.61T ext. ref 2 (°C)	23.40length (m)	temperature (°C)	Stokes	anti-Stokes-747.200	36.322	0.332	-0.295
-746.185	101.474	0.186	0.218
-745.171	-52.523	-0.143	-0.067
-744.156	146.279	-0.116	0.157
-743.142	-112.247	-0.135	-0.027
-742.127	271.393	0.238	0.421
-741.112	-31.838	0.203	-0.115
-740.098	800.000	-0.111	0.370
-739.083	86.221	0.116	0.129
-738.069	-27.086	0.155	0.091
-737.054	-26.878	0.200	0.117
-736.039	-200.000	-0.006	-0.487
-735.025	113.381	0.064	0.078
-734.010	372.180	-0.098	0.200
-732.996	-107.917	-0.373	-0.082
-731.981	122.328	0.270	-0.339
-730.966	-98.086	0.200	0.052
-729.952	-24.933	-0.153	0.091
-728.937	-200.000	-0.034	0.170
-727.923	600.583	-0.091	-0.228
-726.908	102.292	0.115	-0.136
-725.894	124.726	-0.152	0.193
-724.879	554.734	0.116	-0.280
-723.864	308.598	-0.146	-0.274
-722.850	800.000	-0.072	-0.223
-721.835	-74.851	0.121	0.044
-720.821	31.896	-0.200	0.174
-719.806	-17.688	0.045	-0.028
-718.791	16.433	-0.185	0.147
-717.777	-61.801	-0.271	0.114
-716.762	800.000	0.128	-0.362
-715.748	95.717	-0.096	-0.111
-714.733	-30.688	-0.099	0.056
-713.718	621.475	-0.054	-0.135
-712.704	185.846	0.183	-0.274
-711.689	-71.283	0.274	0.103
-710.675	-12.024	0.147	-0.097
-709.660	98.499	0.126	0.146
-708.645	472.897	-0.060	0.136
-707.631	409.467	-0.004	0.009
-706.616	-31.763	0.098	0.055
-705.602	115.014	-0.190	-0.233
-704.587	5.762	-0.155	0.115
-703.572	800.000	0.030	-0.109
-702.558	166.859	0.131	0.187
-701.543	-105.408	-0.174	0.040
-700.529	-7.209	0.385	-0.262
-699.514	-200.000	0.001	-0.408
-698.499	-150.000	-0.167	-0.013
-697.485	55.585	0.354	0.344
-696.470	-200.000	0.002	-0.179
-695.456	-25.736	0.242	-0.144
-694.441	-117.999	0.256	-0.046
-693.426	-200.000	0.025	0.243
-692.412	800.000	-0.035	-0.116
-691.397	-89.440	0.081	0.024
-690.383	800.000	-0.061	-0.197
-689.368	-107.621	-0.205	-0.045
-688.354	800.000	-0.041	-0.136
-687.339	334.138	0.082	-0.159
-686.324	-200.000	-0.050	0.221
-685.310	800.000	0.049	0.210
-684.295	-112.770	-0.069	-0.014
-683.281	-181.239	-0.204	0.004
-682.266	-62.855	0.106	0.044
-681.251	-99.836	0.199	-0.050
-680.237	250.302	-0.202	-0.344
-679.222	27.963	0.081	-0.068
-678.208	-200.000	0.004	-0.079
-677.193	800.000	0.076	-0.216
-676.178	-200.000	0.025	-0.478
-675.164	156.099	-0.043	0.060
-674.149	-42.621	-0.295	0.151
-673.135	-200.000	0.005	-0.075
-672.120	5.759	0.092	0.068
-671.105	143.006	-0.413	-0.551
-670.091	-43.509	0.163	0.082
-669.076	-200.000	-0.012	-0.134
-668.062	-30.206	-0.352	-0.201
-667.047	-146.705	0.183	0.016
-666.032	-57.845	-0.042	-0.019
-665.018	-112.908	0.160	0.032
-664.003	-200.000	0.010	0.436
-662.989	365.013	0.095	-0.192
-661.974	-24.550	-0.296	0.177
-660.959	191.829	-0.013	-0.020
-659.945	-48.544	-0.115	-0.056
-658.930	800.000	-0.084	-0.329
-657.916	-45.412	-0.081	0.040
-656.901	17.435	-0.229	-0.182
-655.886	-2.729	-0.098	-0.068
-654.872	89.337	0.303	-0.339
-653.857	219.780	-0.007	0.011
-652.843	-44.476	-0.226	-0.113
-651.828	-200.000	-0.004	-0.114
-650.814	-200.000	0.007	0.197
-649.799	-14.752	-0.239	0.154
-648.784	262.689	0.050	0.088
-647.770	-20.765	0.119	-0.073
-646.755	-200.000	0.038	-0.302
-645.741	149.922	0.040	0.055
-644.726	-200.000	-0.048	-0.228
-643.711	-16.907	-0.280	0.177
-642.697	-200.000	-0.078	0.402
-641.682	-68.995	0.173	-0.067
-640.668	-200.000	0.012	0.134
-639.653	56.101	0.125	-0.121
-638.638	56.405	-0.283	0.275
-637.624	132.441	0.113	0.146
-636.609	-65.266	-0.217	-0.087
-635.595	-139.081	-0.150	0.016
-634.580	1.194	-0.059	-0.043
-633.565	0.822	0.224	0.161
-632.551	214.556	0.120	-0.190
-631.536	800.000	-0.044	0.139
-630.522	59.556	-0.309	0.305
-629.507	69.448	0.222	-0.229
-628.492	93.930	-0.139	-0.158
-627.478	-71.960	-0.382	0.142
-626.463	336.212	-0.084	0.163
-625.449	-114.614	0.120	0.023
-624.434	172.705	0.087	0.125
-623.419	22.906	-0.058	0.047
-622.405	-137.906	-0.147	-0.016
-621.390	15.332	-0.126	-0.099
-620.376	406.140	0.021	-0.044
-619.361	-178.410	0.167	-0.004
-618.346	-157.197	0.430	0.026
-617.332	-83.370	0.209	-0.067
-616.317	800.000	0.073	-0.308
-615.303	-186.201	-0.232	0.003
-614.288	294.908	-0.103	-0.189
-613.273	-124.214	-0.227	0.036
-612.259	-200.000	-0.009	0.251
-611.244	-76.715	0.221	0.078
-610.230	-75.758	-0.272	0.096
-609.215	151.154	0.144	-0.196
-608.201	-92.409	0.401	-0.113
-607.186	-200.000	-0.002	-0.191
-606.171	210.859	-0.178	-0.280
-605.157	-200.000	0.025	0.169
-604.142	-200.000	-0.024	0.144
-603.128	-166.897	-0.212	0.009
-602.113	325.108	0.256	-0.490
-601.098	288.589	-0.069	-0.126
-600.084	-15.964	0.156	0.099
-599.069	245.579	-0.096	0.162
-598.055	-101.743	-0.149	-0.036
-597.040	153.255	-0.082	0.112
-596.025	-0.794	0.160	-0.113
-595.011	24.482	0.061	0.051
-593.996	-175.209	-0.063	-0.002
-592.982	-200.000	0.011	0.108
-591.967	-32.077	0.201	0.113
-590.952	114.661	0.158	-0.193
-589.938	-23.615	0.276	0.165
-588.923	468.076	0.132	0.297
-587.909	501.903	0.102	0.237
-586.894	85.296	-0.059	-0.065
-585.879	675.010	-0.060	0.156
-584.865	7.986	0.076	-0.057
-583.850	204.366	0.247	0.383
-582.836	55.333	-0.207	-0.200
-581.821	800.000	-0.163	-0.545
-580.806	-200.000	-0.003	0.045
-579.792	0.207	0.265	0.189
-578.777	-42.176	-0.328	-0.168
-577.763	-77.231	0.143	-0.050
-576.748	511.125	0.159	0.369
-575.733	129.828	0.295	-0.378
-574.719	-106.115	0.324	-0.073
-573.704	-200.000	0.000	0.152
-572.690	-200.000	0.003	-0.174
-571.675	800.000	-0.108	0.455
-570.661	-45.101	0.089	-0.044
-569.646	-127.042	0.101	-0.015
-568.631	287.726	-0.025	0.045
-567.617	-94.668	-0.273	-0.074
-566.602	-95.238	-0.199	-0.054
-565.588	-149.818	0.471	-0.037
-564.573	-53.694	-0.321	-0.146
-563.558	30.981	0.084	0.072
-562.544	-124.120	-0.609	0.095
-561.529	522.669	-0.165	-0.388
-560.515	-200.000	-0.014	0.151
-559.500	-22.961	-0.152	0.092
-558.485	800.000	-0.019	-0.072
-557.471	31.624	0.161	-0.138
-556.456	18.536	-0.206	-0.165
-555.442	-86.837	-0.195	0.060
-554.427	69.333	-0.018	0.019
-553.412	-200.000	-0.028	0.205
-552.398	-55.886	0.118	0.053
-551.383	-175.421	-0.279	0.008
-550.369	-31.064	-0.177	0.100
-549.354	532.271	0.053	-0.126
-548.339	-179.422	-0.154	0.003
-547.325	277.239	0.155	-0.275
-546.310	11.876	-0.225	0.173
-545.296	800.000	-0.046	0.153
-544.281	68.632	0.283	0.290
-543.266	-85.104	0.290	-0.091
-542.252	583.209	-0.143	0.350
-541.237	118.108	0.170	-0.209
-540.223	67.179	0.099	0.100
-539.208	-168.020	0.176	0.007
-538.193	-200.000	-0.056	-0.340
-537.179	-200.000	-0.037	0.533
-536.164	231.154	0.076	0.125
-535.150	-93.314	-0.285	-0.079
-534.135	-194.773	-0.290	-0.002
-533.121	800.000	-0.119	-0.359
-532.106	-200.000	0.079	-0.432
-531.091	-137.335	-0.421	-0.048
-530.077	-22.138	0.264	0.160
-529.062	-54.054	0.079	0.036
-528.048	178.362	-0.218	0.318
-527.033	696.270	-0.047	0.123
-526.018	-200.000	0.104	-0.564
-525.004	-61.642	0.374	-0.157
-523.989	2.152	0.292	0.211
-522.975	-155.036	-0.220	0.014
-521.960	-200.000	0.016	-0.172
-520.945	62.163	-0.080	0.080
-519.931	-28.600	0.094	0.054
-518.916	-181.617	-0.210	0.004
-517.902	-45.373	-0.246	0.122
-516.887	800.000	-0.072	-0.205
-515.872	477.106	-0.071	0.161
-514.858	-50.732	0.077	0.036
-513.843	142.963	-0.203	0.270
-512.829	81.769	-0.126	-0.136
-511.814	-79.214	-0.249	-0.084
-510.799	167.205	0.077	0.110
-509.785	227.918	0.171	0.277
-508.770	-50.772	-0.170	-0.080
-507.756	250.866	-0.072	0.122
-506.741	-68.407	0.144	-0.056
-505.726	-116.238	0.333	0.062
-504.712	9.369	-0.439	-0.331
-503.697	655.722	0.097	-0.248
-502.683	16.325	0.081	-0.064
-501.668	-134.491	0.148	0.018
-500.653	-114.565	0.269	-0.051
-499.639	-116.630	0.279	-0.051
-498.624	-200.000	-0.075	0.373
-497.610	-83.281	0.075	-0.024
-496.595	-200.000	0.026	-0.260
-495.581	190.364	-0.101	0.152
-494.566	567.701	0.127	0.309
-493.551	-95.309	-0.297	0.080
-492.537	-1.045	0.064	-0.045
-491.522	-161.918	-0.280	-0.014
-490.508	-133.063	-0.101	-0.013
-489.493	288.056	0.106	0.192
-488.478	800.000	-0.065	-0.192
-487.464	116.770	-0.151	0.185
-486.449	-34.909	-0.101	0.055
-485.435	-79.352	-0.269	0.091
-484.420	-200.000	0.036	0.401
-483.405	-23.553	0.237	0.142
-482.391	216.813	-0.124	0.197
-481.376	-78.103	0.370	0.127
-480.362	796.605	-0.011	-0.030
-479.347	-126.797	-0.157	0.023
-478.332	800.000	-0.056	-0.182
-477.318	311.529	-0.139	-0.259
-476.303	-200.000	0.035	0.270
-475.289	51.679	-0.037	-0.035
-474.274	-92.243	0.356	0.100
-473.259	-200.000	0.010	0.123
-472.245	-54.524	-0.096	-0.043
-471.230	116.681	0.055	-0.067
-470.216	-96.511	0.083	0.022
-469.201	-198.152	-0.325	0.002
-468.186	-200.000	0.026	-0.273
-467.172	-200.000	0.181	0.000
-466.157	-18.539	0.427	-0.265
-465.143	126.988	0.162	-0.204
-464.128	-46.872	0.088	0.043
-463.113	488.116	-0.147	-0.335
-462.099	-96.872	-0.209	-0.055
-461.084	381.670	-0.195	-0.398
-460.070	800.000	-0.102	0.341
-459.055	800.000	-0.144	0.412
-458.040	233.157	0.065	-0.107
-457.026	65.647	0.308	0.310
-456.011	-52.292	-0.146	-0.067
-454.997	16.171	0.146	-0.114
-453.982	524.662	0.093	-0.217
-452.968	433.261	-0.124	-0.269
-451.953	77.120	0.135	-0.143
-450.938	158.911	-0.180	-0.249
-449.924	-56.093	0.255	-0.113
-448.909	-200.000	0.015	-0.225
-447.895	761.963	0.054	-0.145
-446.880	-200.000	0.012	-0.081
-445.865	21.796	-0.086	0.069
-444.851	384.754	0.025	0.051
-443.836	800.000	-0.085	0.248
-442.822	86.722	-0.184	0.202
-441.807	-79.126	0.151	0.051
-440.792	-200.000	0.271	-0.001
-439.778	234.233	0.224	0.367
-438.763	800.000	0.023	-0.085
-437.749	37.920	-0.293	-0.259
-436.734	-99.235	0.361	0.091
-435.719	-55.235	-0.211	-0.094
-434.705	-19.762	0.084	-0.052
-433.690	185.457	0.123	-0.182
-432.676	-48.039	-0.176	0.085
-431.661	-118.974	-0.280	0.049
-430.646	-200.000	-0.024	0.250
-429.632	-74.818	-0.235	0.084
-428.617	272.268	-0.081	0.142
-427.603	570.358	0.123	0.297
-426.588	41.855	-0.234	0.211
-425.573	42.730	-0.082	-0.074
-424.559	-200.000	-0.012	0.108
-423.544	-13.869	0.227	0.146
-422.530	115.542	-0.247	-0.300
-421.515	162.169	-0.207	0.288
-420.500	146.071	-0.144	-0.192
-419.486	-118.473	0.293	0.052
-418.471	129.634	-0.091	-0.116
-417.457	-128.284	0.258	0.037
-416.442	-122.749	-0.315	0.051
-415.428	-7.455	0.167	-0.112
-414.413	-136.769	0.149	0.017
-413.398	-66.392	0.255	0.101
-412.384	-158.162	0.192	-0.011
-411.369	800.000	0.056	0.201
-410.355	73.302	-0.101	-0.105
-409.340	302.940	-0.053	0.097
-408.325	-57.576	-0.217	-0.094
-407.311	9.235	0.053	0.040
-406.296	-200.000	-0.008	-0.045
-405.282	-21.668	-0.100	-0.060
-404.267	-200.000	0.084	-0.466
-403.252	-130.817	0.203	0.027
-402.238	701.813	-0.118	0.309
-401.223	-200.000	-0.009	0.062
-400.209	-200.000	0.049	0.297
-399.194	-21.157	-0.161	-0.098
-398.179	-85.071	0.094	0.029
-397.165	-126.858	-0.171	0.025
-396.150	-86.166	-0.294	0.090
-395.136	-79.157	0.461	-0.155
-394.121	-200.000	-0.027	-0.202
-393.106	-110.439	-0.173	-0.036
-392.092	313.908	0.094	-0.175
-391.077	-200.000	0.005	0.280
-390.063	800.000	0.017	0.072
-389.048	-200.000	-0.013	-0.171
-388.033	23.041	0.242	-0.197
-387.019	-116.280	-0.292	-0.054
-386.004	-126.661	-0.180	0.027
-384.990	211.340	0.153	0.240
-383.975	-133.592	-0.233	-0.029
-382.960	800.000	-0.028	0.114
-381.946	-47.895	0.175	0.084
-380.931	584.464	0.143	-0.348
-379.917	126.947	-0.257	-0.324
-378.902	35.085	0.222	0.193
-377.888	382.776	0.014	-0.029
-376.873	36.504	0.212	-0.186
-375.858	-200.000	0.038	-0.199
-374.844	-19.806	-0.216	-0.132
-373.829	-12.269	0.133	-0.086
-372.815	186.980	-0.093	-0.138
-371.800	104.294	0.092	0.108
-370.785	241.982	0.034	-0.056
-369.771	800.000	0.069	-0.238
-368.756	-200.000	-0.032	-0.386
-367.742	-16.393	0.313	-0.197
-366.727	800.000	0.053	0.173
-365.712	41.616	0.164	-0.147
-364.698	253.562	0.149	0.252
-363.683	-200.000	-0.001	0.269
-362.669	-75.472	-0.211	-0.075
-361.654	214.609	0.199	0.312
-360.639	269.941	0.021	-0.036
-359.625	800.000	-0.016	0.046
-358.610	251.951	-0.173	0.292
-357.596	800.000	0.061	-0.235
-356.581	800.000	-0.075	-0.299
-355.566	201.148	0.109	-0.167
-354.552	432.317	0.111	0.238
-353.537	-81.112	0.163	-0.054
-352.523	185.961	-0.212	0.313
-351.508	-99.590	0.142	-0.035
-350.493	800.000	-0.056	0.184
-349.479	487.312	-0.191	0.431
-348.464	800.000	0.105	0.290
-347.450	-5.659	0.233	0.158
-346.435	55.412	-0.044	-0.042
-345.420	800.000	0.086	-0.253
-344.406	-200.000	-0.015	-0.160
-343.391	4.584	0.215	0.156
-342.377	-200.000	-0.024	0.117
-341.362	176.510	0.289	-0.416
-340.348	132.918	-0.225	0.288
-339.333	-70.735	-0.171	-0.064
-338.318	800.000	0.054	0.221
-337.304	47.888	-0.051	0.047
-336.289	-119.034	-0.287	0.050
-335.275	-200.000	0.004	-0.035
-334.260	22.054	-0.178	0.144
-333.245	-200.000	0.001	-0.018
-332.231	-98.190	0.183	-0.047
-331.216	276.558	0.246	0.432
-330.202	-55.782	-0.260	0.115
-329.187	727.354	0.089	-0.236
-328.172	326.309	-0.169	-0.320
-327.158	-200.000	-0.018	-0.357
-326.143	-6.202	-0.219	-0.148
-325.129	32.972	0.128	0.110
-324.114	-34.506	0.364	0.197
-323.099	-200.000	0.012	-0.194
-322.085	-72.261	0.169	-0.062
-321.070	-200.000	-0.032	-0.251
-320.056	14.718	0.030	0.023
-319.041	-149.911	-0.282	-0.022
-318.026	-200.000	-0.057	0.333
-317.012	800.000	-0.072	0.224
-315.997	-200.000	-0.044	-0.246
-314.983	-18.656	-0.079	0.049
-313.968	-194.385	0.385	-0.003
-312.953	53.349	0.150	0.143
-311.939	-97.169	0.246	0.064
-310.924	33.252	0.101	-0.087
-309.910	-200.000	0.029	-0.182
-308.895	565.061	-0.119	-0.286
-307.880	-128.739	0.227	0.032
-306.866	-137.064	0.479	-0.054
-305.851	5.114	-0.152	0.111
-304.837	-200.000	-0.027	-0.123
-303.822	-126.929	0.403	-0.059
-302.807	-87.451	-0.107	-0.032
-301.793	785.369	-0.032	-0.088
-300.778	-121.054	-0.004	-0.001
-299.764	-200.000	0.013	-0.285
-298.749	81.119	0.110	-0.117
-297.735	-64.454	-0.383	-0.154
-296.720	800.000	-0.065	0.249
-295.705	-71.636	-0.144	-0.053
-294.691	800.000	-0.018	-0.077
-293.676	-39.979	-0.143	0.074
-292.662	-97.646	0.221	-0.057
-291.647	73.136	-0.225	0.233
-290.632	-138.581	0.250	-0.027
-289.618	-112.278	0.234	-0.046
-288.603	800.000	-0.076	0.329
-287.589	-200.000	-0.008	-0.271
-286.574	-200.000	-0.000	0.058
-285.559	29.024	-0.404	0.339
-284.545	-17.381	-0.253	-0.158
-283.530	800.000	0.069	0.219
-282.516	-128.420	-0.368	-0.052
-281.501	-64.470	0.304	0.122
-280.486	-156.776	0.041	0.002
-279.472	28.441	-0.199	-0.166
-278.457	11.627	-0.094	0.071
-277.443	20.188	0.261	-0.208
-276.428	-87.865	-0.059	-0.018
-275.413	76.547	0.050	0.052
-274.399	-102.451	-0.329	-0.078
-273.384	-28.043	0.239	0.137
-272.370	252.107	0.094	0.157
-271.355	135.277	0.162	-0.208
-270.340	73.081	0.066	-0.068
-269.326	8.659	0.065	-0.049
-268.311	-44.925	-0.229	-0.113
-267.297	49.605	0.190	0.177
-266.282	-76.203	-0.265	-0.092
-265.267	-91.664	-0.229	0.064
-264.253	-200.000	-0.001	0.099
-263.238	-40.201	0.285	-0.147
-262.224	-200.000	-0.020	-0.133
-261.209	88.014	0.143	-0.157
-260.195	-103.037	-0.067	-0.016
-259.180	-18.357	-0.169	0.104
-258.165	54.011	0.126	0.120
-257.151	427.882	-0.041	-0.087
-256.136	-200.000	-0.030	-0.214
-255.122	-3.630	-0.258	0.177
-254.107	-38.725	-0.151	-0.079
-253.092	-158.802	-0.159	0.009
-252.078	-149.189	0.206	0.016
-251.063	584.279	-0.076	-0.184
-250.049	-48.095	0.256	-0.122
-249.034	15.476	0.119	0.093
-248.019	153.029	-0.029	0.040
-247.005	-73.626	-0.203	0.073
-245.990	-104.322	0.287	0.066
-244.976	-200.000	-0.052	-0.274
-243.961	-105.144	-0.380	0.086
-242.946	187.399	-0.121	0.178
-241.932	143.649	0.131	0.172
-240.917	800.000	0.081	0.253
-239.903	-80.734	0.144	0.047
-238.888	63.202	-0.128	0.127
-237.873	800.000	-0.059	0.220
-236.859	-200.000	-0.022	0.109
-235.844	-107.547	0.049	0.011
-234.830	353.813	0.166	0.325
-233.815	-86.505	0.218	0.066
-232.800	-60.842	-0.252	-0.105
-231.786	800.000	-0.084	0.239
-230.771	329.069	0.142	-0.269
-229.757	208.650	0.091	-0.141
-228.742	-180.102	0.182	-0.004
-227.727	-48.908	0.224	0.106
-226.713	271.215	-0.191	0.333
-225.698	-200.000	-0.011	0.436
-224.684	66.295	-0.074	-0.074
-223.669	-200.000	-0.068	0.297
-222.655	267.688	-0.187	-0.322
-221.640	17.496	0.246	0.193
-220.625	-200.000	-0.027	0.143
-219.611	-152.089	-0.340	-0.024
-218.596	70.980	-0.217	-0.222
-217.582	250.342	0.063	-0.106
-216.567	-31.133	-0.150	-0.084
-215.552	-200.000	0.004	0.044
-214.538	-71.028	0.345	0.128
-213.523	315.736	-0.112	-0.208
-212.509	-125.762	0.173	-0.026
-211.494	800.000	-0.044	0.179
-210.479	-1.420	0.146	-0.102
-209.465	-200.000	-0.013	0.287
-208.450	-57.764	-0.102	-0.044
-207.436	800.000	0.019	-0.078
-206.421	280.260	-0.173	-0.305
-205.406	-122.353	0.204	-0.033
-204.392	-200.000	-0.021	0.197
-203.377	329.316	0.067	-0.126
-202.363	65.288	0.088	0.087
-201.348	-116.122	0.058	-0.011
-200.333	106.787	0.059	-0.069
-199.319	486.915	0.118	-0.266
-198.304	800.000	-0.048	-0.191
-197.290	330.970	0.027	-0.051
-196.275	-132.430	-0.109	-0.014
-195.260	609.207	0.086	-0.211
-194.246	48.797	-0.208	-0.192
-193.231	-200.000	-0.082	-0.532
-192.217	-27.404	-0.371	-0.213
-191.202	-53.387	0.307	0.138
-190.187	70.132	0.117	-0.119
-189.173	450.608	0.071	-0.155
-188.158	172.590	0.053	-0.075
-187.144	50.810	0.158	-0.147
-186.129	177.496	0.040	-0.058
-185.114	-14.486	0.267	-0.169
-184.100	-83.190	0.069	0.022
-183.085	74.699	0.129	-0.134
-182.071	338.450	0.082	-0.157
-181.056	108.778	-0.152	0.179
-180.042	-119.880	0.187	0.032
-179.027	-50.384	-0.157	-0.073
-178.012	319.678	-0.127	0.238
-176.998	800.000	0.098	0.320
-175.983	-200.000	0.017	-0.167
-174.969	-200.000	-0.002	0.026
-173.954	-148.327	-0.215	0.017
-172.939	-200.000	-0.036	0.250
-171.925	-129.905	-0.448	-0.060
-170.910	800.000	-0.085	-0.269
-169.896	-82.182	0.199	-0.064
-168.881	-200.000	0.004	0.070
-167.866	279.145	0.122	-0.213
-166.852	800.000	-0.048	0.182
-165.837	-200.000	0.031	-0.296
-164.823	800.000	0.075	0.302
-163.808	56.175	0.170	0.163
-162.793	-77.831	-0.116	-0.039
-161.779	35.755	-0.127	0.110
-160.764	-19.965	-0.153	-0.093
-159.750	-66.558	-0.440	-0.172
-158.735	-39.761	0.300	0.155
-157.720	-200.000	0.004	-0.033
-156.706	1.870	-0.156	-0.111
-155.691	-200.000	0.023	0.335
-154.677	-81.329	0.184	0.060
-153.662	-118.960	0.328	0.057
-152.647	-62.470	-0.309	-0.126
-151.633	-77.746	-0.170	0.058
-150.618	-18.735	0.184	0.113
-149.604	351.075	-0.036	0.071
-148.589	-179.659	-0.186	0.004
-147.574	136.499	0.171	-0.219
-146.560	700.673	-0.119	-0.307
-145.545	-65.995	-0.203	0.080
-144.531	290.562	0.078	0.140
-143.516	85.072	0.086	-0.093
-142.502	126.568	-0.199	-0.247
-141.487	-76.050	0.321	0.111
-140.472	-154.980	-0.335	-0.022
-139.458	-178.720	0.117	-0.003
-138.443	-69.691	0.179	0.067
-137.429	-104.809	-0.274	0.062
-136.414	-34.544	0.097	0.052
-135.399	-200.000	-0.004	-0.035
-134.385	516.741	0.070	0.162
-133.370	-200.000	0.114	0.593
-132.356	-133.538	-0.150	-0.018
-131.341	205.183	0.101	-0.154
-130.326	800.000	0.029	-0.085
-129.312	-1.712	0.297	0.205
-128.297	164.903	0.135	-0.187
-127.283	800.000	0.122	0.420
-126.268	337.223	0.089	-0.170
-125.253	124.997	-0.267	-0.331
-124.239	-11.987	0.188	-0.121
-123.224	-113.945	0.548	-0.105
-122.210	-101.731	-0.057	0.013
-121.195	-50.388	-0.188	0.087
