DTS Sentinel unit serial number:	SN413079Multiplexer serial number:	ORYXHardware model number:	OX4-SRSoftware version number:	ORYX F/W v4.00 Oryx Data Collector v3.7.2.0data status	okinstallation	princeton_trtdifferential loss correction	single-endedforward channel	channel 1reverse channel	N/Adate	2019/09/14time	23:50:35forward acquisition time	60.00reverse acquisition time	0.00gamma	496.2192k internal	0.2320k external	0.2320temperature offset calibration	0.9993default loss term (dB/km)	0.3790temperature slope calibration	1.0000multiplexer offset coefficient	1.0000multiplexer slope coefficient	1.0000fibre end	0.00T internal ref (°C)	32.27T ext. ref 1 (°C)	4.63T ext. ref 2 (°C)	27.18length (m)	temperature (°C)	Stokes	anti-Stokes-747.200	78.806	0.267	0.289
-746.185	-64.961	0.158	-0.065
-745.171	-121.940	-0.058	-0.010
-744.156	6.260	-0.228	0.171
-743.142	800.000	0.035	0.148
-742.127	422.047	0.083	0.181
-741.112	-19.196	-0.262	0.165
-740.098	258.139	-0.218	0.380
-739.083	69.057	-0.310	-0.322
-738.069	-200.000	0.044	0.302
-737.054	-200.000	0.023	-0.268
-736.039	-13.011	-0.190	-0.125
-735.025	173.943	0.138	0.202
-734.010	45.418	-0.105	0.098
-732.996	-41.890	-0.226	-0.117
-731.981	-66.039	-0.305	-0.123
-730.966	217.572	-0.254	-0.409
-729.952	800.000	-0.078	-0.223
-728.937	-22.373	-0.227	0.139
-727.923	306.104	-0.060	0.112
-726.908	-74.582	-0.194	-0.071
-725.894	-200.000	-0.013	-0.165
-724.879	-200.000	0.039	0.316
-723.864	-114.386	0.192	-0.037
-722.850	291.998	0.267	-0.491
-721.835	413.679	0.118	-0.253
-720.821	1.294	-0.078	-0.057
-719.806	-34.530	-0.430	0.238
-718.791	800.000	-0.063	0.206
-717.777	800.000	-0.065	0.268
-716.762	258.741	-0.051	0.090
-715.748	-200.000	-0.015	-0.230
-714.733	303.301	-0.048	-0.090
-713.718	-188.560	0.025	-0.000
-712.704	15.527	-0.205	0.163
-711.689	101.520	-0.192	0.226
-710.675	9.033	-0.158	0.120
-709.660	-170.635	-0.364	0.013
-708.645	10.520	-0.169	0.130
-707.631	-27.253	-0.183	-0.108
-706.616	88.081	0.194	0.217
-705.602	262.797	-0.027	-0.047
-704.587	259.660	-0.089	-0.155
-703.572	343.339	0.116	-0.229
-702.558	-120.848	0.026	-0.004
-701.543	-110.349	-0.227	0.048
-700.529	-89.555	-0.078	-0.023
-699.514	143.886	-0.072	-0.097
-698.499	406.895	0.155	-0.331
-697.485	-200.000	0.067	-0.364
-696.470	-94.187	-0.165	-0.046
-695.456	-122.842	-0.159	0.026
-694.441	-82.818	-0.194	0.063
-693.426	290.223	-0.178	-0.325
-692.412	-200.000	-0.044	0.224
-691.397	-74.253	0.126	0.046
-690.383	-200.000	-0.007	-0.108
-689.368	275.156	-0.143	0.257
-688.354	-200.000	0.011	0.143
-687.339	800.000	-0.078	-0.293
-686.324	431.338	-0.114	-0.248
-685.310	-200.000	0.029	0.183
-684.295	-200.000	0.043	0.228
-683.281	-47.353	-0.192	-0.094
-682.266	-200.000	-0.039	0.224
-681.251	-200.000	-0.047	0.210
-680.237	-108.334	-0.255	-0.055
-679.222	-88.491	-0.063	-0.019
-678.208	800.000	0.042	0.144
-677.193	800.000	0.092	-0.372
-676.178	-27.163	0.130	-0.076
-675.164	-31.127	0.195	-0.111
-674.149	-118.000	-0.240	-0.043
-673.135	-108.215	0.231	0.050
-672.120	-200.000	-0.005	-0.155
-671.105	-97.045	0.109	-0.029
-670.091	-42.867	-0.221	-0.113
-669.076	-98.586	-0.099	-0.026
-668.062	46.088	-0.253	0.236
-667.047	-29.309	-0.370	0.213
-666.032	-156.389	0.093	0.006
-665.018	61.134	0.193	-0.193
-664.003	-113.412	-0.289	0.057
-662.989	-89.877	0.238	0.070
-661.974	800.000	0.018	-0.056
-660.959	800.000	-0.026	0.073
-659.945	22.626	-0.093	0.076
-658.930	800.000	-0.062	-0.206
-657.916	-7.953	0.159	-0.108
-656.901	-150.104	0.076	0.006
-655.886	-25.853	-0.233	-0.138
-654.872	161.164	0.084	0.118
-653.857	-167.441	-0.424	-0.017
-652.843	347.358	-0.076	-0.150
-651.828	-13.164	0.201	-0.131
-650.814	425.940	0.067	0.146
-649.799	-200.000	0.010	0.091
-648.784	120.043	-0.157	-0.196
-647.770	-156.395	-0.133	-0.008
-646.755	-85.495	-0.098	-0.031
-645.741	363.383	-0.045	0.091
-644.726	123.406	-0.200	-0.252
-643.711	-200.000	-0.056	-0.331
-642.697	-25.074	0.265	-0.158
-641.682	800.000	-0.143	0.472
-640.668	63.110	0.104	0.105
-639.653	800.000	-0.059	-0.233
-638.638	8.826	0.126	0.095
-637.624	522.697	0.071	-0.168
-636.609	-2.163	-0.113	-0.080
-635.595	701.196	-0.105	0.279
-634.580	-119.872	-0.134	0.023
-633.565	-200.000	-0.002	0.212
-632.551	-85.791	0.168	0.053
-631.536	-77.940	-0.269	0.094
-630.522	-200.000	-0.044	0.252
-629.507	-200.000	-0.028	0.219
-628.492	-115.330	-0.114	-0.022
-627.478	-67.885	-0.153	0.060
-626.463	-88.599	-0.252	0.076
-625.449	-200.000	0.087	-0.395
-624.434	514.764	-0.052	-0.122
-623.419	128.645	-0.116	-0.149
-622.405	231.249	-0.146	-0.240
-621.390	37.801	0.322	-0.288
-620.376	-5.381	0.035	0.024
-619.361	-10.492	-0.294	0.196
-618.346	-48.561	-0.119	0.058
-617.332	165.962	0.086	-0.122
-616.317	-80.008	-0.133	-0.045
-615.303	-200.000	-0.035	0.217
-614.288	-62.012	-0.292	-0.123
-613.273	-30.845	-0.070	0.040
-612.259	-57.994	0.183	-0.081
-611.244	83.859	-0.116	-0.128
-610.230	-200.000	-0.018	-0.233
-609.215	658.540	0.072	-0.187
-608.201	12.828	0.135	0.105
-607.186	87.248	0.177	0.197
-606.171	-54.812	-0.084	0.038
-605.157	-36.954	-0.101	-0.055
-604.142	-200.000	0.018	-0.245
-603.128	-23.418	0.232	-0.140
-602.113	-8.626	-0.270	0.183
-601.098	-200.000	-0.010	-0.076
-600.084	-69.363	0.343	0.132
-599.069	353.554	0.056	-0.111
-598.055	-149.206	0.173	0.014
-597.040	-67.790	-0.165	0.065
-596.025	-39.622	0.389	-0.205
-595.011	31.066	0.079	-0.068
-593.996	-43.396	0.075	0.038
-592.982	-57.151	0.390	0.173
-591.967	-23.494	0.105	0.064
-590.952	690.556	-0.166	-0.438
-589.938	40.569	0.114	0.104
-588.923	-161.394	0.110	-0.006
-587.909	-102.681	0.065	0.016
-586.894	-200.000	-0.020	0.106
-585.879	800.000	-0.054	0.157
-584.865	644.962	0.063	-0.163
-583.850	202.691	-0.278	0.432
-582.836	58.157	0.039	0.038
-581.821	-191.398	-0.322	-0.003
-580.806	199.183	-0.105	-0.161
-579.792	-21.132	0.378	-0.233
-578.777	800.000	-0.112	-0.443
-577.763	-200.000	-0.025	-0.166
-576.748	-121.744	-0.369	0.061
-575.733	310.097	-0.039	-0.074
-574.719	-40.877	0.141	-0.073
-573.704	-104.015	0.192	-0.045
-572.690	578.577	-0.085	0.208
-571.675	234.667	-0.084	-0.140
-570.661	-41.262	-0.085	0.044
-569.646	-128.903	0.545	-0.077
-568.631	-200.000	-0.048	-0.270
-567.617	420.739	-0.081	0.174
-566.602	-65.230	-0.164	-0.066
-565.588	115.068	-0.257	-0.315
-564.573	-17.172	0.342	-0.216
-563.558	118.286	-0.188	-0.233
-562.544	-3.744	0.308	-0.215
-561.529	36.802	-0.277	-0.246
-560.515	-200.000	-0.054	-0.253
-559.500	-41.515	0.098	-0.050
-558.485	289.912	0.082	0.150
-557.471	800.000	0.025	-0.106
-556.456	-25.623	-0.343	-0.203
-555.442	-73.586	-0.273	-0.100
-554.427	800.000	0.101	-0.355
-553.412	25.068	0.199	0.166
-552.398	18.188	-0.243	-0.195
-551.383	-200.000	-0.003	-0.118
-550.369	-62.323	0.524	-0.219
-549.354	90.644	0.119	-0.134
-548.339	282.688	-0.083	-0.150
-547.325	122.456	-0.235	0.294
-546.310	-166.011	0.182	0.008
-545.296	18.235	-0.384	-0.308
-544.281	-200.000	0.058	-0.362
-543.266	-62.700	-0.090	0.037
-542.252	403.532	-0.080	0.169
-541.237	560.470	0.034	0.083
-540.223	131.440	0.125	-0.161
-539.208	35.555	-0.269	0.237
-538.193	111.461	-0.098	-0.118
-537.179	537.795	0.018	-0.043
-536.164	800.000	-0.046	0.139
-535.150	-200.000	-0.022	0.376
-534.135	17.149	-0.181	-0.144
-533.121	-129.844	-0.365	-0.050
-532.106	-159.113	-0.119	-0.007
-531.091	133.300	-0.141	-0.183
-530.077	-200.000	-0.011	0.439
-529.062	20.071	0.229	-0.186
-528.048	-200.000	-0.041	-0.285
-527.033	-105.533	0.248	0.057
-526.018	-61.179	0.250	-0.106
-525.004	-109.457	-0.082	-0.017
-523.989	17.019	0.317	-0.252
-522.975	-19.738	-0.256	0.158
-521.960	45.659	-0.210	-0.194
-520.945	39.466	-0.119	-0.107
-519.931	605.601	0.185	0.463
-518.916	-200.000	-0.042	-0.208
-517.902	-10.048	0.148	-0.099
-516.887	45.399	0.260	-0.241
-515.872	800.000	0.044	-0.133
-514.858	45.406	-0.201	-0.186
-513.843	-151.955	0.287	-0.021
-512.829	118.098	0.254	-0.314
-511.814	622.712	-0.129	0.326
-510.799	544.030	0.040	0.096
-509.785	100.268	0.050	-0.058
-508.770	-146.142	-0.266	-0.023
-507.756	-200.000	0.007	-0.096
-506.741	-97.390	0.198	0.052
-505.726	-200.000	0.042	0.287
-504.712	210.116	0.138	-0.217
-503.697	-55.418	-0.130	-0.058
-502.683	-71.484	-0.152	-0.057
-501.668	-43.766	-0.267	-0.135
-500.653	24.077	-0.026	0.022
-499.639	61.247	-0.094	-0.094
-498.624	-200.000	0.035	-0.476
-497.610	284.091	0.168	0.304
-496.595	-179.921	0.534	-0.011
-495.581	324.800	-0.087	0.167
-494.566	86.462	0.096	0.106
-493.551	-200.000	-0.005	0.148
-492.537	-18.975	0.174	-0.108
-491.522	-200.000	-0.014	-0.112
-490.508	135.542	0.059	0.077
-489.493	6.639	-0.208	0.155
-488.478	-92.733	-0.292	0.082
-487.464	-200.000	0.029	0.159
-486.449	59.434	-0.141	0.139
-485.435	48.004	-0.120	-0.112
-484.420	800.000	0.115	0.370
-483.405	-148.503	-0.148	-0.012
-482.391	-200.000	0.045	0.296
-481.376	93.571	0.152	-0.173
-480.362	-86.591	-0.138	-0.042
-479.347	107.429	0.163	0.195
-478.332	-200.000	-0.086	0.424
-477.318	-151.733	-0.378	-0.028
-476.303	14.303	0.040	-0.031
-475.289	8.551	0.109	-0.082
-474.274	-124.315	-0.284	-0.044
-473.259	324.339	0.077	-0.148
-472.245	49.806	-0.211	0.199
-471.230	-132.630	-0.282	0.036
-470.216	63.040	-0.122	-0.122
-469.201	144.643	0.182	-0.244
-468.186	87.007	-0.116	0.128
-467.172	-90.906	-0.541	0.156
-466.157	62.225	-0.220	0.220
-465.143	-45.291	-0.297	-0.147
-464.128	-98.030	0.230	-0.059
-463.113	-74.378	-0.139	-0.050
-462.099	-166.969	0.155	0.006
-461.084	-200.000	-0.030	-0.630
-460.070	-200.000	0.024	0.335
-459.055	-200.000	0.057	0.302
-458.040	-131.564	0.400	0.053
-457.026	83.064	0.067	-0.073
-456.011	103.435	-0.030	0.036
-454.997	-200.000	-0.000	-0.054
-453.982	-101.518	0.306	0.074
-452.968	594.388	-0.048	-0.119
-451.953	124.264	-0.194	0.243
-450.938	-200.000	0.009	0.061
-449.924	800.000	-0.126	0.430
-448.909	-35.883	-0.476	0.258
-447.895	-112.145	-0.166	-0.033
-446.880	-200.000	0.005	-0.127
-445.865	-62.032	0.194	-0.081
-444.851	800.000	-0.080	-0.239
-443.836	-173.751	-0.270	-0.008
-442.822	-34.113	-0.086	0.047
-441.807	-162.729	0.330	0.016
-440.792	-5.930	-0.275	0.188
-439.778	-67.050	-0.131	0.052
-438.763	-200.000	0.027	-0.279
-437.749	-161.761	0.218	0.011
-436.734	-79.665	0.098	-0.033
-435.719	-52.293	0.204	0.094
-434.705	78.285	0.291	-0.311
-433.690	800.000	0.066	-0.258
-432.676	-0.390	0.080	-0.057
-431.661	-136.511	0.105	-0.012
-430.646	-16.888	0.241	0.152
-429.632	-141.662	-0.077	-0.008
-428.617	-125.612	0.146	0.022
-427.603	-188.579	-0.059	0.001
-426.588	-112.113	0.169	0.034
-425.573	-200.000	-0.000	-0.140
-424.559	56.709	0.230	0.224
-423.544	-4.987	-0.113	-0.078
-422.530	-200.000	-0.022	0.127
-421.515	-200.000	-0.032	0.283
-420.500	730.562	-0.049	-0.131
-419.486	179.902	-0.048	0.070
-418.471	11.148	-0.106	0.081
-417.457	800.000	0.047	-0.133
-416.442	-157.521	-0.056	0.003
-415.428	-200.000	0.042	0.190
-414.413	122.364	0.065	-0.082
-413.398	-200.000	-0.002	0.153
-412.384	691.779	-0.024	-0.063
-411.369	-63.422	0.345	-0.142
-410.355	305.031	-0.160	0.297
-409.340	73.025	0.077	0.080
-408.325	-11.223	0.192	0.126
-407.311	448.371	0.174	-0.383
-406.296	-23.190	-0.121	0.073
-405.282	-200.000	0.012	0.198
-404.267	-60.981	0.114	-0.048
-403.252	-103.448	-0.122	0.029
-402.238	-18.145	0.010	-0.006
-401.223	-91.190	0.129	-0.037
-400.209	-200.000	-0.058	-0.329
-399.194	604.735	-0.043	-0.107
-398.179	-19.015	-0.209	0.130
-397.165	11.009	-0.116	0.088
-396.150	-200.000	0.071	0.324
-395.136	175.830	0.075	0.108
-394.121	-200.000	0.022	0.127
-393.106	-199.403	0.139	0.001
-392.092	47.060	-0.297	-0.275
-391.077	26.426	0.143	-0.119
-390.063	500.892	0.052	0.119
-389.048	294.989	-0.071	0.130
-388.033	800.000	0.056	-0.209
-387.019	-125.815	0.034	-0.005
-386.004	-105.017	0.382	0.087
-384.990	604.133	-0.068	0.169
-383.975	261.028	0.143	0.247
-382.960	0.921	0.086	0.062
-381.946	-200.000	-0.050	-0.231
-380.931	289.815	0.048	0.088
-379.917	-118.594	0.232	0.041
-378.902	12.055	0.072	-0.055
-377.888	-200.000	-0.015	0.371
-376.873	-6.854	-0.201	0.136
-375.858	800.000	-0.062	-0.211
-374.844	517.769	-0.201	-0.469
-373.829	-200.000	-0.004	0.073
-372.815	-70.618	0.343	0.129
-371.800	23.355	-0.245	-0.200
-370.785	-124.672	0.141	-0.022
-369.771	-80.758	0.092	0.030
-368.756	800.000	0.087	0.311
-367.742	-200.000	-0.026	0.192
-366.727	-200.000	-0.059	-0.361
-365.712	335.410	-0.141	-0.272
-364.698	-113.982	0.198	-0.038
-363.683	-125.654	-0.323	-0.049
-362.669	-51.464	0.187	0.087
-361.654	16.140	-0.187	0.147
-360.639	15.718	-0.253	0.198
-359.625	800.000	0.067	0.225
-358.610	281.735	-0.029	0.052
-357.596	-68.066	0.077	0.030
-356.581	-200.000	-0.012	-0.215
-355.566	-140.579	0.319	0.033
-354.552	-169.430	-0.317	0.012
-353.537	-82.218	0.174	0.056
-352.523	66.141	0.154	0.155
-351.508	-145.420	-0.057	0.005
-350.493	402.709	-0.110	0.231
-349.479	-17.547	-0.130	-0.082
-348.464	-200.000	0.015	-0.134
-347.450	-200.000	-0.023	-0.120
-346.435	-89.393	-0.450	-0.132
-345.420	-9.845	0.329	0.218
-344.406	795.573	-0.031	0.086
-343.391	-21.562	0.179	0.109
-342.377	-200.000	0.002	0.011
-341.362	-68.399	0.164	-0.063
-340.348	161.885	-0.040	0.055
-339.333	-183.946	0.182	-0.003
-338.318	729.799	-0.116	0.308
-337.304	195.324	0.107	0.161
-336.289	-200.000	0.033	-0.248
-335.275	259.831	0.274	-0.470
-334.260	-90.245	0.072	0.021
-333.245	-103.478	0.090	-0.021
-332.231	-118.392	0.091	0.016
-331.216	107.397	-0.159	-0.188
-330.202	800.000	0.025	-0.097
-329.187	-200.000	0.048	0.432
-328.172	800.000	-0.024	-0.103
-327.158	-30.106	0.118	0.067
-326.143	-85.991	-0.171	0.053
-325.129	53.351	-0.192	-0.183
-324.114	309.506	0.041	-0.077
-323.099	800.000	-0.037	0.117
-322.085	-200.000	-0.001	0.316
-321.070	-63.497	-0.104	-0.042
-320.056	-200.000	-0.024	0.146
-319.041	-145.138	0.050	0.005
-318.026	-37.156	-0.324	-0.172
-317.012	337.191	-0.048	0.092
-315.997	-57.049	-0.148	0.065
-314.983	-162.778	0.212	0.010
-313.968	-200.000	0.003	-0.149
-312.953	800.000	-0.026	-0.113
-311.939	-110.540	0.192	-0.040
-310.924	-148.523	0.315	-0.026
-309.910	800.000	-0.043	-0.144
-308.895	800.000	0.052	0.155
-307.880	-65.266	-0.285	-0.114
-306.866	800.000	0.009	-0.035
-305.851	149.853	-0.091	0.123
-304.837	-77.173	0.061	0.021
-303.822	800.000	-0.049	0.161
-302.807	-200.000	-0.038	0.195
-301.793	-137.309	0.276	0.031
-300.778	-29.899	-0.115	-0.065
-299.764	-200.000	-0.007	-0.208
-298.749	24.614	0.235	-0.193
-297.735	-142.097	0.353	0.035
-296.720	800.000	-0.010	0.037
-295.705	35.842	-0.072	0.063
-294.691	156.263	-0.116	-0.159
-293.676	-100.468	0.120	0.030
-292.662	-37.640	0.170	-0.090
-291.647	-22.413	0.085	0.051
-290.632	80.938	-0.270	-0.289
-289.618	458.079	0.037	-0.082
-288.603	68.157	-0.138	-0.140
-287.589	128.965	0.208	0.264
-286.574	171.972	-0.208	0.297
-285.559	524.880	-0.114	-0.268
-284.545	-8.943	-0.523	0.348
-283.530	40.884	0.278	-0.249
-282.516	-27.436	-0.216	0.125
-281.501	-76.479	0.145	0.051
-280.486	110.289	0.035	0.042
-279.472	112.762	0.055	-0.066
-278.457	-86.862	-0.243	0.074
-277.443	-96.491	0.263	-0.069
-276.428	297.802	0.056	-0.102
-275.413	800.000	-0.052	-0.201
-274.399	-39.308	0.212	-0.111
-273.384	-79.346	-0.502	-0.169
-272.370	-129.562	-0.180	0.025
-271.355	-65.822	-0.220	-0.088
-270.340	5.808	0.304	0.223
-269.326	800.000	-0.005	0.016
-268.311	-80.891	-0.328	-0.108
-267.297	84.804	0.181	0.196
-266.282	513.470	-0.146	0.337
-265.267	-17.127	0.167	-0.104
-264.253	57.372	-0.048	0.047
-263.238	-76.004	-0.113	0.040
-262.224	88.274	-0.327	0.360
-261.209	-136.286	0.247	0.029
-260.195	104.697	-0.021	-0.025
-259.180	378.509	0.063	-0.129
-258.165	-129.045	0.179	0.025
-257.151	51.470	-0.147	0.138
-256.136	123.739	0.097	0.121
-255.122	4.757	0.234	0.171
-254.107	800.000	-0.072	0.256
-253.092	33.933	0.126	-0.109
-252.078	115.724	0.093	-0.112
-251.063	-14.603	0.245	0.156
-250.049	161.974	-0.126	0.175
-249.034	800.000	0.074	0.293
-248.019	105.544	0.082	0.096
-247.005	-151.589	0.378	0.028
-245.990	800.000	0.033	0.125
-244.976	82.526	-0.188	0.203
-243.961	253.013	-0.137	0.231
-242.946	-131.707	-0.279	-0.036
-241.932	139.092	0.071	0.093
-240.917	415.814	-0.090	-0.190
-239.903	-154.114	-0.118	0.008
-238.888	800.000	0.075	0.261
-237.873	-200.000	-0.018	0.083
-236.859	-3.255	0.054	-0.037
-235.844	-111.369	0.400	0.081
-234.830	349.957	0.019	0.037
-233.815	-100.629	0.186	-0.046
-232.800	-45.925	-0.435	0.213
-231.786	439.014	-0.114	-0.248
-230.771	-145.746	0.275	0.024
-229.757	50.814	0.109	0.102
-228.742	-18.393	-0.330	-0.204
-227.727	-127.633	0.099	0.014
-226.713	-58.800	-0.176	0.076
-225.698	-200.000	-0.038	0.189
-224.684	300.361	-0.075	-0.137
-223.669	18.008	0.062	-0.049
-222.655	800.000	0.022	0.090
-221.640	800.000	0.049	0.183
-220.625	-64.731	-0.175	-0.070
-219.611	-90.168	0.085	0.024
-218.596	178.497	-0.188	0.273
-217.582	-56.209	0.168	0.074
-216.567	-200.000	-0.048	-0.221
-215.552	316.072	-0.072	-0.136
-214.538	-200.000	0.012	0.128
-213.523	-200.000	-0.039	-0.175
-212.509	432.383	0.027	-0.058
-211.494	-66.295	-0.160	-0.063
-210.479	86.276	0.114	0.125
-209.465	-200.000	0.030	-0.234
-208.450	-46.291	0.030	-0.015
-207.436	-200.000	0.015	0.581
-206.421	32.434	-0.143	0.123
-205.406	-26.473	0.079	0.046
-204.392	-200.000	0.003	-0.023
-203.377	-200.000	0.009	0.049
-202.363	800.000	0.081	-0.227
-201.348	-200.000	-0.007	0.074
-200.333	-117.838	-0.165	0.029
-199.319	800.000	-0.108	0.327
-198.304	-58.825	0.117	0.050
-197.290	93.140	0.112	-0.125
-196.275	-118.619	0.057	0.010
-195.260	-16.554	-0.143	-0.090
-194.246	658.647	0.069	0.176
-193.231	45.184	0.039	0.036
-192.217	254.945	-0.117	0.199
-191.202	104.098	-0.043	0.049
-190.187	611.236	0.020	0.049
-189.173	6.563	0.329	-0.242
-188.158	235.421	-0.041	-0.068
-187.144	-200.000	-0.028	0.349
-186.129	-33.685	0.150	-0.082
-185.114	-200.000	0.002	-0.331
-184.100	-100.738	-0.114	0.028
-183.085	-119.782	0.149	0.025
-182.071	800.000	-0.024	0.094
-181.056	17.628	0.193	-0.152
-180.042	293.886	0.182	0.329
-179.027	6.405	0.218	0.160
-178.012	10.124	0.173	-0.130
-176.998	232.359	-0.117	0.191
-175.983	-81.861	0.230	-0.074
-174.969	-165.790	0.294	0.013
-173.954	547.800	0.052	-0.124
-172.939	497.268	0.049	0.111
-171.925	800.000	0.128	-0.368
-170.910	-200.000	0.024	-0.165
-169.896	-172.025	0.288	-0.009
-168.881	-152.959	-0.275	0.019
-167.866	216.934	-0.062	-0.098
-166.852	800.000	-0.020	0.061
-165.837	-19.963	-0.156	0.095
-164.823	-97.973	-0.280	-0.071
-163.808	-68.090	-0.021	-0.008
-162.793	329.173	0.065	-0.123
-161.779	455.889	0.211	-0.462
-160.764	-153.699	-0.091	-0.006
-159.750	800.000	-0.032	0.106
-158.735	64.156	0.308	0.306
-157.720	-59.021	-0.111	-0.047
-156.706	-12.381	-0.254	0.164
-155.691	-141.044	-0.237	0.024
-154.677	-149.482	0.327	-0.026
-153.662	128.874	-0.073	-0.092
-152.647	-200.000	-0.004	0.037
-151.633	216.778	-0.013	-0.021
-150.618	-63.488	0.502	0.204
-149.604	-36.002	0.336	-0.179
-148.589	173.256	-0.124	-0.177
-147.574	-116.219	-0.281	0.051
-146.560	133.264	0.069	0.088
-145.545	157.454	0.232	-0.318
-144.531	-200.000	0.097	-0.430
-143.516	-129.788	0.368	0.050
-142.502	-167.325	0.196	-0.008
-141.487	207.867	-0.119	0.183
-140.472	800.000	-0.119	-0.371
-139.458	-200.000	0.057	-0.463
-138.443	-41.539	0.268	-0.136
-137.429	21.094	0.183	-0.146
-136.414	34.967	0.306	-0.264
-135.399	-28.849	-0.060	0.034
-134.385	132.548	0.088	0.112
-133.370	800.000	0.011	-0.033
-132.356	298.559	0.108	-0.196
-131.341	52.359	-0.224	-0.211
-130.326	-32.216	-0.157	0.087
-129.312	800.000	-0.026	0.082
-128.297	59.733	-0.312	-0.304
-127.283	0.929	-0.141	-0.100
-126.268	376.336	0.116	0.233
-125.253	-53.069	0.297	-0.135
-124.239	721.596	0.117	0.308
-123.224	-200.000	0.051	-0.404
-122.210	-1.135	0.322	-0.225
