DTS Sentinel unit serial number:	SN413079Multiplexer serial number:	ORYXHardware model number:	OX4-SRSoftware version number:	ORYX F/W v4.00 Oryx Data Collector v3.7.2.0data status	okinstallation	princeton_trtdifferential loss correction	single-endedforward channel	channel 1reverse channel	N/Adate	2019/09/19time	01:46:35forward acquisition time	60.00reverse acquisition time	0.00gamma	496.2192k internal	0.2344k external	0.2344temperature offset calibration	1.0022default loss term (dB/km)	0.3790temperature slope calibration	1.0000multiplexer offset coefficient	1.0000multiplexer slope coefficient	1.0000fibre end	0.00T internal ref (°C)	21.41T ext. ref 1 (°C)	0.70T ext. ref 2 (°C)	14.84length (m)	temperature (°C)	Stokes	anti-Stokes-747.200	-158.618	-0.103	-0.006
-746.185	800.000	-0.077	0.328
-745.171	0.245	0.272	0.194
-744.156	-71.090	0.333	0.125
-743.142	153.028	-0.077	-0.105
-742.127	107.697	0.113	0.135
-741.112	-200.000	0.025	0.331
-740.098	-113.340	-0.099	0.020
-739.083	-200.000	-0.046	-0.358
-738.069	-24.672	-0.280	0.167
-737.054	-63.384	0.055	-0.023
-736.039	-191.619	-0.246	-0.002
-735.025	174.202	0.265	0.383
-734.010	26.558	-0.051	-0.042
-732.996	313.083	0.123	0.231
-731.981	4.267	-0.335	-0.245
-730.966	94.821	0.068	0.078
-729.952	-186.762	-0.344	0.005
-728.937	-200.000	0.003	-0.129
-727.923	-200.000	0.058	-0.380
-726.908	-40.754	-0.337	-0.175
-725.894	274.811	-0.167	0.297
-724.879	-15.909	0.074	-0.047
-723.864	331.251	0.159	-0.306
-722.850	-0.539	-0.325	0.231
-721.835	-196.763	0.258	0.002
-720.821	-17.028	-0.214	-0.135
-719.806	37.207	0.253	-0.224
-718.791	-79.896	-0.336	0.113
-717.777	674.499	-0.112	0.292
-716.762	800.000	0.055	0.166
-715.748	416.230	0.036	0.076
-714.733	701.260	-0.035	0.093
-713.718	-97.268	-0.024	0.006
-712.704	4.122	0.226	-0.166
-711.689	193.042	0.173	-0.261
-710.675	-200.000	-0.009	-0.421
-709.660	303.307	-0.097	-0.179
-708.645	84.360	0.056	0.062
-707.631	623.857	0.081	-0.203
-706.616	61.579	0.172	0.171
-705.602	50.255	-0.057	-0.054
-704.587	800.000	0.054	-0.169
-703.572	-124.420	0.327	-0.051
-702.558	5.928	-0.114	0.084
-701.543	675.885	0.100	0.261
-700.529	-130.589	-0.187	-0.025
-699.514	-200.000	0.001	-0.057
-698.499	-200.000	0.022	-0.241
-697.485	-73.261	-0.299	0.109
-696.470	126.853	0.180	0.228
-695.456	260.913	-0.034	-0.058
-694.441	9.718	0.091	-0.069
-693.426	118.637	0.166	-0.205
-692.412	-101.664	-0.429	0.104
-691.397	153.458	0.205	-0.280
-690.383	-170.864	-0.572	0.020
-689.368	-119.638	0.141	-0.024
-688.354	-80.453	-0.193	0.064
-687.339	800.000	0.137	-0.379
-686.324	-200.000	0.005	-0.101
-685.310	85.174	-0.145	0.159
-684.295	-4.087	0.344	0.238
-683.281	460.652	-0.090	-0.200
-682.266	-55.963	-0.046	0.020
-681.251	800.000	0.056	0.208
-680.237	681.742	0.026	0.067
-679.222	-13.244	-0.104	0.067
-678.208	-200.000	0.011	0.220
-677.193	-86.096	0.411	0.127
-676.178	-96.476	-0.264	-0.070
-675.164	282.198	0.130	-0.232
-674.149	94.821	-0.292	-0.331
-673.135	-137.268	0.223	0.025
-672.120	-68.770	-0.383	-0.148
-671.105	11.146	0.183	-0.140
-670.091	-105.808	0.099	0.022
-669.076	196.285	-0.072	-0.110
-668.062	275.207	-0.085	0.150
-667.047	189.744	0.119	0.178
-666.032	455.185	0.054	-0.119
-665.018	-23.521	0.030	0.018
-664.003	-90.125	-0.017	-0.005
-662.989	406.016	-0.094	-0.197
-661.974	-200.000	0.018	-0.173
-660.959	-0.433	-0.183	0.129
-659.945	-66.158	0.177	0.070
-658.930	29.842	-0.233	0.198
-657.916	800.000	-0.025	-0.081
-656.901	66.267	0.123	-0.125
-655.886	-200.000	0.032	0.355
-654.872	-200.000	-0.008	-0.203
-653.857	132.968	0.071	0.091
-652.843	800.000	0.099	-0.303
-651.828	-140.536	-0.056	0.006
-650.814	113.265	-0.095	-0.115
-649.799	157.729	-0.191	0.264
-648.784	-116.257	-0.308	-0.057
-647.770	-45.428	-0.163	0.081
-646.755	244.987	0.169	0.284
-645.741	276.670	0.103	0.183
-644.726	-1.852	-0.015	-0.010
-643.711	58.395	-0.084	0.082
-642.697	-92.194	0.245	-0.069
-641.682	-200.000	-0.001	0.184
-640.668	-200.000	0.073	-0.532
-639.653	800.000	-0.063	-0.182
-638.638	-69.255	-0.375	-0.144
-637.624	-101.414	0.047	-0.011
-636.609	-200.000	-0.010	-0.177
-635.595	-200.000	0.002	-0.116
-634.580	-161.530	0.103	0.005
-633.565	-200.000	-0.004	0.106
-632.551	151.409	-0.190	-0.257
-631.536	-56.175	0.242	0.107
-630.522	800.000	0.091	0.328
-629.507	52.628	0.333	-0.317
-628.492	800.000	0.032	-0.100
-627.478	800.000	0.028	0.118
-626.463	-17.736	-0.104	-0.065
-625.449	-200.000	0.013	-0.313
-624.434	-200.000	0.021	-0.101
-623.419	-86.597	-0.157	0.048
-622.405	-200.000	-0.068	0.340
-621.390	-23.171	-0.155	0.093
-620.376	800.000	0.052	-0.176
-619.361	-200.000	0.053	-0.269
-618.346	-200.000	0.075	0.341
-617.332	-200.000	0.047	-0.225
-616.317	52.496	0.256	0.244
-615.303	-90.085	-0.009	-0.003
-614.288	712.443	-0.064	-0.168
-613.273	106.921	-0.022	-0.026
-612.259	-200.000	0.024	-0.268
-611.244	-134.439	-0.063	-0.008
-610.230	-169.291	0.261	-0.010
-609.215	800.000	0.055	-0.194
-608.201	800.000	0.037	0.135
-607.186	-200.000	0.035	-0.222
-606.171	800.000	-0.092	-0.257
-605.157	-200.000	0.013	-0.177
-604.142	-200.000	0.006	-0.025
-603.128	800.000	-0.070	-0.230
-602.113	213.924	0.088	0.139
-601.098	138.898	0.074	0.097
-600.084	31.497	-0.173	0.148
-599.069	67.901	0.131	-0.133
-598.055	-130.155	0.383	-0.052
-597.040	607.224	0.180	-0.445
-596.025	-4.974	-0.262	0.180
-595.011	-200.000	0.033	0.246
-593.996	-28.094	0.288	0.165
-592.982	-200.000	0.027	0.157
-591.967	-49.510	-0.032	0.015
-590.952	15.405	0.275	-0.215
-589.938	-94.277	0.249	-0.068
-588.923	71.544	-0.309	-0.319
-587.909	-200.000	-0.016	-0.247
-586.894	138.363	-0.138	0.179
-585.879	-133.145	-0.078	0.010
-584.865	253.982	-0.014	-0.023
-583.850	-25.494	0.112	-0.066
-582.836	-200.000	-0.018	-0.134
-581.821	25.141	-0.198	0.163
-580.806	-38.564	-0.157	-0.083
-579.792	-139.307	0.092	0.010
-578.777	58.516	0.199	-0.194
-577.763	-85.953	0.267	-0.082
-576.748	384.228	0.053	-0.108
-575.733	-90.548	-0.110	0.032
-574.719	-128.575	-0.133	0.019
-573.704	-124.971	0.181	0.028
-572.690	-102.509	-0.097	-0.023
-571.675	-200.000	-0.050	0.253
-570.661	97.893	0.008	-0.009
-569.646	-37.952	0.283	-0.150
-568.631	-148.862	0.059	-0.005
-567.617	-33.980	-0.142	-0.078
-566.602	-200.000	-0.032	-0.388
-565.588	-200.000	0.053	-0.435
-564.573	-200.000	-0.013	-0.347
-563.558	6.265	0.095	-0.070
-562.544	-99.218	0.234	-0.059
-561.529	-17.771	0.145	-0.091
-560.515	-17.699	-0.061	-0.038
-559.500	220.173	0.196	0.312
-558.485	-72.665	-0.078	-0.029
-557.471	42.826	-0.226	-0.205
-556.456	-168.208	-0.170	-0.007
-555.442	92.236	-0.075	0.084
-554.427	66.330	-0.123	0.124
-553.412	-33.180	-0.150	0.083
-552.398	463.167	0.010	0.022
-551.383	124.364	-0.125	0.157
-550.369	-72.473	0.041	0.015
-549.354	-5.144	-0.115	0.078
-548.339	136.946	-0.086	-0.112
-547.325	-107.942	-0.295	0.064
-546.310	-135.185	0.213	-0.025
-545.296	-115.976	-0.271	0.050
-544.281	24.945	0.184	-0.152
-543.266	334.819	-0.135	0.260
-542.252	27.623	0.266	0.222
-541.237	29.117	0.206	0.173
-540.223	-64.685	0.236	-0.095
-539.208	800.000	-0.047	-0.194
-538.193	-197.505	0.123	-0.001
-537.179	-200.000	-0.009	-0.245
-536.164	439.345	-0.163	0.354
-535.150	449.412	-0.023	0.050
-534.135	800.000	-0.017	-0.054
-533.121	-120.084	0.104	0.018
-532.106	-14.434	0.363	-0.232
-531.091	800.000	-0.044	-0.183
-530.077	800.000	-0.110	0.314
-529.062	213.882	-0.091	-0.143
-528.048	-85.717	-0.244	-0.075
-527.033	-200.000	0.082	-0.398
-526.018	800.000	-0.080	-0.237
-525.004	3.368	-0.149	-0.108
-523.989	-200.000	-0.028	-0.146
-522.975	-187.824	-0.315	0.004
-521.960	-112.061	0.196	-0.039
-520.945	-144.149	-0.274	-0.025
-519.931	104.575	0.162	0.189
-518.916	266.463	-0.097	-0.167
-517.902	-148.845	0.076	0.006
-516.887	62.217	0.249	-0.246
-515.872	-80.236	0.064	0.021
-514.858	28.623	0.085	0.072
-513.843	484.396	0.007	0.017
-512.829	-134.966	-0.339	-0.041
-511.814	-105.599	0.140	-0.031
-510.799	688.791	-0.130	-0.337
-509.785	31.735	0.212	0.181
-508.770	-200.000	-0.002	0.087
-507.756	292.003	-0.063	-0.114
-506.741	70.827	-0.142	0.145
-505.726	-67.554	-0.400	0.156
-504.712	-200.000	0.003	-0.058
-503.697	-123.035	0.260	0.041
-502.683	82.183	0.239	-0.257
-501.668	-200.000	0.016	-0.105
-500.653	387.479	-0.127	0.261
-499.639	323.709	0.165	0.313
-498.624	800.000	-0.067	0.233
-497.610	44.216	-0.297	0.270
-496.595	-12.654	0.173	-0.112
-495.581	50.339	-0.178	-0.167
-494.566	169.371	0.105	-0.149
-493.551	509.029	-0.182	0.419
-492.537	-130.394	-0.247	0.033
-491.522	-200.000	-0.013	0.292
-490.508	-114.853	0.389	-0.073
-489.493	305.683	-0.132	0.244
-488.478	800.000	0.033	-0.136
-487.464	57.789	-0.137	0.133
-486.449	-77.913	-0.360	-0.123
-485.435	39.523	0.202	0.179
-484.420	-105.396	0.140	0.032
-483.405	101.718	0.190	0.219
-482.391	-65.004	0.298	0.119
-481.376	-200.000	-0.033	-0.172
-480.362	-200.000	0.013	0.173
-479.347	250.651	0.070	0.118
-478.332	203.351	0.118	-0.181
-477.318	-200.000	0.014	-0.212
-476.303	-63.655	-0.108	-0.044
-475.289	63.634	-0.034	-0.034
-474.274	-67.384	-0.377	0.147
-473.259	800.000	-0.053	0.183
-472.245	180.697	-0.214	-0.311
-471.230	-105.231	0.188	0.042
-470.216	-200.000	0.028	-0.264
-469.201	292.014	-0.154	0.278
-468.186	138.096	0.195	0.253
-467.172	-69.265	0.118	-0.045
-466.157	-200.000	-0.040	0.222
-465.143	-28.201	0.071	0.041
-464.128	800.000	0.042	0.168
-463.113	246.218	-0.087	0.145
-462.099	466.499	-0.049	0.108
-461.084	-35.658	-0.136	0.073
-460.070	51.347	-0.326	-0.307
-459.055	-200.000	-0.002	0.197
-458.040	-121.454	0.275	0.045
-457.026	-149.627	0.291	-0.023
-456.011	-200.000	-0.039	0.334
-454.997	-200.000	-0.012	0.248
-453.982	122.607	-0.185	-0.229
-452.968	183.515	-0.156	-0.228
-451.953	-137.089	0.144	0.016
-450.938	789.874	-0.060	0.164
-449.924	47.817	-0.328	0.303
-448.909	87.730	0.173	-0.189
-447.895	-200.000	-0.013	-0.214
-446.880	-149.591	-0.460	-0.036
-445.865	-200.000	0.015	0.133
-444.851	-91.676	0.260	0.073
-443.836	98.054	-0.289	-0.329
-442.822	74.060	-0.061	0.063
-441.807	452.144	-0.117	0.257
-440.792	56.390	0.189	-0.182
-439.778	-39.285	0.090	0.047
-438.763	194.239	-0.104	-0.156
-437.749	800.000	-0.010	-0.029
-436.734	371.346	0.098	-0.196
-435.719	33.838	0.210	0.181
-434.705	6.799	0.213	-0.157
-433.690	134.195	0.176	0.225
-432.676	-160.436	0.400	0.021
-431.661	-40.269	-0.072	0.037
-430.646	-28.317	0.129	-0.073
-429.632	-88.580	-0.227	-0.067
-428.617	800.000	-0.041	-0.144
-427.603	-2.553	-0.069	-0.048
-426.588	-39.470	-0.299	0.155
-425.573	-200.000	-0.034	-0.235
-424.559	-158.079	-0.228	-0.013
-423.544	153.603	0.249	-0.337
-422.530	-40.180	-0.313	0.161
-421.515	-87.173	0.161	0.048
-420.500	-115.939	-0.256	0.047
-419.486	-200.000	0.048	-0.413
-418.471	-122.274	-0.133	0.022
-417.457	264.593	-0.163	0.280
-416.442	26.823	-0.301	0.250
-415.428	800.000	-0.025	0.075
-414.413	-49.157	-0.369	0.174
-413.398	-189.051	0.444	0.005
-412.384	-89.287	-0.139	-0.040
-411.369	800.000	0.170	0.628
-410.355	-36.509	-0.352	-0.187
-409.340	-78.606	0.177	0.060
-408.325	-60.009	-0.135	0.057
-407.311	29.475	0.222	-0.187
-406.296	-97.421	0.454	0.117
-405.282	800.000	0.054	0.206
-404.267	466.577	-0.133	0.294
-403.252	216.208	0.123	0.193
-402.238	321.562	0.105	0.198
-401.223	6.019	-0.234	-0.171
-400.209	-26.036	0.003	-0.002
-399.194	-40.409	-0.245	-0.126
-398.179	-51.319	0.269	0.124
-397.165	-200.000	-0.048	0.645
-396.150	-110.655	0.130	0.027
-395.136	23.787	-0.183	-0.149
-394.121	-200.000	0.028	0.191
-393.106	103.805	-0.200	-0.231
-392.092	-200.000	0.072	0.319
-391.077	-31.395	0.062	0.034
-390.063	-200.000	0.014	0.382
-389.048	-163.002	-0.188	-0.009
-388.033	-178.421	-0.124	-0.003
-387.019	37.266	0.285	-0.249
-386.004	-134.090	-0.136	-0.017
-384.990	342.447	0.035	-0.067
-383.975	-200.000	-0.127	-0.000
-382.960	63.464	0.049	-0.049
-381.946	90.703	0.093	0.103
-380.931	63.773	-0.111	0.110
-379.917	-18.870	0.134	-0.083
-378.902	-106.275	-0.182	0.040
-377.888	-200.000	-0.045	-0.267
-376.873	-200.000	0.052	-0.357
-375.858	127.179	0.218	-0.273
-374.844	-166.930	0.244	-0.010
-373.829	336.722	0.090	0.172
-372.815	16.645	-0.358	-0.279
-371.800	55.226	0.110	-0.105
-370.785	52.192	0.125	0.117
-369.771	619.525	-0.109	-0.271
-368.756	800.000	0.043	-0.149
-367.742	-17.611	-0.197	0.122
-366.727	-200.000	-0.040	0.222
-365.712	-200.000	-0.014	0.072
-364.698	-73.517	-0.046	0.016
-363.683	-200.000	-0.021	-0.226
-362.669	35.470	-0.166	-0.144
-361.654	114.589	0.095	0.114
-360.639	-39.293	-0.046	0.024
-359.625	-200.000	-0.000	0.145
-358.610	75.103	0.228	-0.237
-357.596	-200.000	-0.043	-0.328
-356.581	-200.000	0.022	-0.175
-355.566	141.769	-0.065	0.085
-354.552	-66.807	0.317	0.124
-353.537	-127.331	-0.046	0.007
-352.523	-200.000	0.030	0.191
-351.508	515.772	-0.136	0.313
-350.493	-200.000	-0.018	0.477
-349.479	-46.635	0.211	0.102
-348.464	-148.785	-0.187	0.015
-347.450	-28.344	-0.322	0.183
-346.435	20.192	0.026	0.020
-345.420	375.982	-0.136	0.273
-344.406	635.933	-0.124	-0.311
-343.391	-100.891	0.095	-0.023
-342.377	800.000	0.111	-0.308
-341.362	-200.000	0.053	-0.465
-340.348	-95.138	-0.141	0.037
-339.333	800.000	0.056	0.220
-338.318	-53.788	0.311	-0.140
-337.304	414.820	-0.047	-0.099
-336.289	-115.807	-0.199	-0.037
-335.275	104.675	0.124	-0.143
-334.260	391.682	0.107	0.218
-333.245	-78.552	-0.252	0.085
-332.231	-103.317	0.209	0.049
-331.216	141.742	0.091	0.118
-330.202	-130.286	-0.086	0.012
-329.187	49.279	-0.061	-0.056
-328.172	-27.899	-0.182	0.104
-327.158	189.895	-0.098	-0.145
-326.143	-125.781	0.329	0.049
-325.129	-113.443	0.152	-0.029
-324.114	-200.000	0.007	0.145
-323.099	208.090	-0.277	-0.426
-322.085	-35.076	0.324	0.174
-321.070	-5.552	0.067	0.045
-320.056	-200.000	-0.002	0.164
-319.041	-200.000	0.024	0.256
-318.026	-33.865	-0.202	0.110
-317.012	-84.947	0.284	0.088
-315.997	217.622	-0.235	0.369
-314.983	715.693	0.103	0.268
-313.968	800.000	0.100	0.344
-312.953	268.450	-0.141	0.244
-311.939	477.554	0.048	0.106
-310.924	-59.553	-0.232	-0.098
-309.910	39.869	0.157	0.139
-308.895	-126.196	0.155	-0.023
-307.880	800.000	0.030	-0.089
-306.866	-200.000	-0.072	0.319
-305.851	-150.547	0.137	0.010
-304.837	-200.000	0.025	0.129
-303.822	461.451	-0.207	0.454
-302.807	466.801	0.092	0.203
-301.793	98.012	-0.030	-0.034
-300.778	-102.217	0.205	0.048
-299.764	265.267	-0.012	-0.021
-298.749	-37.115	-0.310	0.163
-297.735	-42.371	-0.326	-0.164
-296.720	-106.743	-0.255	-0.056
-295.705	46.742	0.189	0.173
-294.691	-138.173	-0.286	0.031
-293.676	16.575	-0.196	0.152
-292.662	7.907	-0.080	-0.059
-291.647	800.000	-0.029	0.082
-290.632	2.372	0.197	0.140
-289.618	-200.000	-0.007	0.066
-288.603	100.886	0.230	-0.263
-287.589	10.991	0.110	-0.083
-286.574	-34.701	0.197	-0.106
-285.559	61.043	-0.126	-0.123
-284.545	7.730	0.204	0.151
-283.530	619.925	0.089	-0.220
-282.516	272.898	-0.042	0.073
-281.501	-41.753	0.103	0.052
-280.486	0.640	0.164	0.115
-279.472	564.673	0.065	0.155
-278.457	-147.284	0.173	-0.014
-277.443	653.337	-0.098	-0.247
-276.428	578.413	0.051	-0.122
-275.413	-161.738	-0.488	-0.024
-274.399	-200.000	-0.037	-0.303
-273.384	800.000	0.055	-0.178
-272.370	470.088	0.191	-0.421
-271.355	609.867	0.094	-0.230
-270.340	58.477	0.327	-0.315
-269.326	-200.000	-0.030	0.133
-268.311	186.069	-0.186	0.272
-267.297	-64.797	0.118	0.047
-266.282	-200.000	-0.017	-0.131
-265.267	90.015	-0.173	0.189
-264.253	-114.533	-0.146	-0.027
-263.238	-126.895	-0.042	-0.006
-262.224	-117.556	0.365	0.065
-261.209	242.870	0.099	0.163
-260.195	-93.838	0.416	-0.113
-259.180	800.000	-0.036	-0.101
-258.165	208.222	-0.076	0.117
-257.151	-133.076	0.110	0.014
-256.136	11.490	0.129	0.097
-255.122	6.510	0.419	0.306
-254.107	-48.120	-0.308	-0.146
-253.092	125.036	0.267	-0.330
-252.078	141.654	0.190	-0.247
-251.063	430.015	-0.068	-0.143
-250.049	-200.000	0.015	-0.087
-249.034	-200.000	0.089	0.443
-248.019	-44.370	-0.268	0.132
-247.005	46.217	0.066	-0.060
-245.990	-200.000	-0.015	-0.305
-244.976	146.256	-0.308	-0.405
-243.961	-91.268	0.106	0.030
-242.946	-200.000	-0.047	-0.253
-241.932	-81.410	0.265	-0.086
-240.917	-35.221	0.144	0.077
-239.903	-59.051	-0.178	0.075
-238.888	98.072	-0.219	-0.247
-237.873	-87.158	0.119	-0.035
-236.859	-200.000	0.025	-0.149
-235.844	285.208	-0.101	0.179
-234.830	-71.739	0.225	0.082
-233.815	-114.037	-0.372	0.071
-232.800	800.000	0.100	0.282
-231.786	146.637	0.255	-0.336
-230.771	309.793	-0.159	-0.291
-229.757	94.046	0.229	-0.255
-228.742	-36.420	0.042	0.022
-227.727	-4.220	-0.242	0.164
-226.713	-200.000	0.010	0.149
-225.698	800.000	-0.060	0.197
-224.684	-62.576	-0.286	-0.116
-223.669	-191.355	0.103	0.001
-222.655	400.800	-0.138	0.283
-221.640	196.463	-0.128	0.191
-220.625	-99.500	-0.143	-0.035
-219.611	-85.194	0.133	0.041
-218.596	-88.157	0.330	-0.097
-217.582	-134.733	0.245	0.029
-216.567	34.333	-0.242	0.207
-215.552	304.555	-0.066	-0.119
-214.538	185.425	0.113	0.164
-213.523	-169.660	0.042	-0.002
-212.509	-200.000	-0.001	-0.123
-211.494	244.162	-0.083	0.136
-210.479	-53.627	0.359	0.161
-209.465	-93.204	-0.636	0.173
-208.450	323.486	-0.031	0.059
-207.436	89.519	-0.287	-0.314
-206.421	-73.109	0.210	0.076
-205.406	-149.249	0.180	-0.014
-204.392	-200.000	0.013	0.158
-203.377	-7.982	0.182	-0.120
-202.363	-42.898	-0.150	-0.075
-201.348	151.320	-0.147	-0.196
-200.333	-200.000	-0.013	-0.329
-199.319	-88.046	-0.316	0.093
-198.304	342.535	-0.105	-0.202
-197.290	68.656	-0.140	-0.141
-196.275	-108.311	-0.110	-0.023
-195.260	-7.961	-0.231	0.153
-194.246	263.722	0.284	0.484
-193.231	-93.514	0.248	-0.067
-192.217	173.091	0.072	0.101
-191.202	-33.119	0.030	0.016
-190.187	40.835	0.107	0.095
-189.173	82.813	-0.109	0.117
-188.158	-200.000	-0.008	-0.076
-187.144	-5.470	-0.386	0.260
-186.129	800.000	-0.046	-0.155
-185.114	800.000	0.095	0.352
-184.100	-200.000	0.008	-0.107
-183.085	-179.002	0.295	0.007
-182.071	-104.263	0.182	0.041
-181.056	800.000	0.069	-0.262
-180.042	-200.000	-0.038	-0.255
-179.027	413.453	-0.167	-0.348
-178.012	800.000	-0.056	-0.155
-176.998	-114.823	0.087	0.016
-175.983	534.584	-0.024	0.055
-174.969	800.000	0.161	0.449
-173.954	263.269	-0.054	0.092
-172.939	-19.205	-0.146	-0.089
-171.925	-76.516	0.098	-0.034
-170.910	181.812	0.094	-0.136
-169.896	325.146	-0.143	0.268
-168.881	800.000	-0.100	-0.286
-167.866	-200.000	0.054	0.255
-166.852	-200.000	-0.157	-0.000
-165.837	-9.362	0.131	-0.085
-164.823	396.008	0.014	-0.029
-163.808	149.190	0.062	-0.082
-162.793	-33.492	0.270	-0.146
-161.779	107.756	-0.282	-0.329
-160.764	-125.561	-0.087	-0.013
-159.750	-129.595	-0.120	0.016
-158.735	-139.172	0.239	-0.025
-157.720	85.997	-0.131	0.141
-156.706	-200.000	-0.055	-0.256
-155.691	441.535	0.162	-0.347
-154.677	60.253	0.035	0.034
-153.662	-179.430	0.218	-0.005
-152.647	627.509	-0.048	-0.120
-151.633	311.289	-0.179	0.328
-150.618	-73.037	0.232	-0.083
-149.604	-93.842	0.262	-0.071
-148.589	-33.728	-0.325	0.175
-147.574	800.000	0.037	-0.145
-146.560	126.639	-0.160	0.198
-145.545	152.977	0.192	-0.257
-144.531	800.000	-0.014	-0.058
-143.516	-200.000	-0.017	0.086
-142.502	800.000	0.031	-0.095
-141.487	73.101	-0.071	-0.073
-140.472	652.208	0.112	-0.280
-139.458	-25.764	0.180	-0.104
-138.443	-38.046	0.328	0.170
-137.429	94.239	0.282	0.313
-136.414	16.737	0.108	0.083
-135.399	-99.648	0.254	0.062
-134.385	-136.054	0.125	0.014
-133.370	-114.334	-0.125	0.024
-132.356	-200.000	0.005	-0.212
-131.341	548.415	-0.094	-0.221
-130.326	-65.765	0.287	-0.112
-129.312	-43.225	0.175	0.087
-128.297	-131.486	-0.317	-0.041
-127.283	53.686	0.044	-0.041
-126.268	200.119	-0.122	-0.182
-125.253	800.000	0.018	0.059
-124.239	222.240	0.171	-0.269
-123.224	51.677	0.199	-0.185
-122.210	-200.000	-0.027	0.236
-121.195	800.000	0.099	-0.351
