DTS Sentinel unit serial number:	SN413079Multiplexer serial number:	ORYXHardware model number:	OX4-SRSoftware version number:	ORYX F/W v4.00 Oryx Data Collector v3.7.2.0data status	okinstallation	princeton_trtdifferential loss correction	single-endedforward channel	channel 1reverse channel	N/Adate	2019/09/19time	15:18:35forward acquisition time	60.00reverse acquisition time	0.00gamma	496.2192k internal	0.2314k external	0.2314temperature offset calibration	1.0019default loss term (dB/km)	0.3790temperature slope calibration	1.0000multiplexer offset coefficient	1.0000multiplexer slope coefficient	1.0000fibre end	0.00T internal ref (°C)	33.69T ext. ref 1 (°C)	1.14T ext. ref 2 (°C)	30.50length (m)	temperature (°C)	Stokes	anti-Stokes-747.200	60.462	-0.210	-0.211
-746.185	155.068	-0.118	0.165
-745.171	-93.791	0.272	-0.076
-744.156	259.695	0.149	0.261
-743.142	-200.000	-0.033	0.440
-742.127	-200.000	-0.017	0.120
-741.112	45.007	-0.135	0.126
-740.098	83.187	0.182	0.201
-739.083	-57.012	-0.269	0.120
-738.069	122.054	-0.026	0.033
-737.054	39.687	-0.198	0.180
-736.039	56.018	-0.071	-0.070
-735.025	800.000	0.062	0.194
-734.010	14.805	-0.120	-0.095
-732.996	-30.535	-0.171	-0.098
-731.981	-29.699	-0.036	0.021
-730.966	-21.124	0.250	0.155
-729.952	-200.000	-0.017	-0.117
-728.937	-200.000	0.001	-0.038
-727.923	477.462	0.091	0.208
-726.908	-94.763	-0.121	0.033
-725.894	-99.458	-0.391	-0.100
-724.879	-89.540	0.060	-0.018
-723.864	16.869	0.068	-0.055
-722.850	26.703	0.124	-0.105
-721.835	-98.017	-0.036	-0.009
-720.821	-200.000	-0.018	-0.228
-719.806	112.348	0.222	0.271
-718.791	32.466	-0.170	0.149
-717.777	437.876	-0.026	0.057
-716.762	-200.000	-0.014	0.104
-715.748	57.060	0.117	0.116
-714.733	31.167	0.152	0.132
-713.718	246.887	0.156	-0.266
-712.704	-177.564	0.292	0.007
-711.689	-104.492	0.189	0.044
-710.675	28.679	-0.065	-0.056
-709.660	163.692	-0.120	-0.171
-708.645	112.629	-0.107	0.131
-707.631	206.023	0.154	-0.243
-706.616	141.859	-0.249	-0.334
-705.602	55.241	0.056	-0.055
-704.587	-72.166	0.372	0.140
-703.572	53.065	-0.038	0.037
-702.558	146.299	0.147	-0.199
-701.543	-200.000	-0.071	0.377
-700.529	-200.000	-0.013	-0.288
-699.514	800.000	0.144	-0.463
-698.499	-11.392	-0.215	-0.143
-697.485	-174.433	-0.105	0.003
-696.470	800.000	-0.006	0.024
-695.456	-59.872	-0.076	-0.033
-694.441	584.598	0.071	-0.177
-693.426	133.973	0.158	-0.207
-692.412	-200.000	-0.000	-0.109
-691.397	-8.905	0.344	-0.233
-690.383	-200.000	0.011	0.186
-689.368	-48.817	0.133	-0.065
-688.354	758.447	0.177	-0.486
-687.339	486.096	-0.062	0.143
-686.324	-130.440	0.108	0.015
-685.310	-88.962	0.355	0.106
-684.295	651.251	0.016	0.041
-683.281	-29.593	0.069	-0.040
-682.266	93.729	-0.222	0.255
-681.251	-200.000	0.008	-0.218
-680.237	-40.460	-0.112	0.059
-679.222	800.000	-0.028	-0.120
-678.208	-33.176	-0.236	-0.132
-677.193	-129.611	-0.093	0.013
-676.178	-200.000	-0.016	-0.150
-675.164	-200.000	-0.026	-0.244
-674.149	-200.000	0.007	-0.202
-673.135	147.340	-0.116	0.157
-672.120	151.139	0.243	-0.335
-671.105	800.000	0.111	0.326
-670.091	101.173	0.068	0.080
-669.076	43.988	-0.123	-0.114
-668.062	593.656	-0.064	0.161
-667.047	-175.581	0.344	0.009
-666.032	-13.878	0.115	-0.075
-665.018	-200.000	0.041	0.241
-664.003	80.006	-0.155	0.169
-662.989	800.000	-0.075	0.212
-661.974	116.919	0.296	-0.367
-660.959	188.249	0.204	-0.308
-659.945	800.000	-0.064	-0.235
-658.930	373.989	-0.122	-0.252
-657.916	-11.871	0.326	-0.216
-656.901	800.000	0.055	-0.182
-655.886	49.508	-0.307	-0.292
-654.872	-200.000	-0.014	-0.228
-653.857	-6.679	0.196	0.135
-652.843	-200.000	0.004	0.221
-651.828	-200.000	0.037	-0.365
-650.814	245.528	0.111	0.188
-649.799	800.000	-0.062	-0.206
-648.784	-28.355	0.158	-0.092
-647.770	-166.642	-0.225	0.009
-646.755	49.830	0.288	-0.274
-645.741	800.000	0.043	-0.161
-644.726	404.973	-0.109	0.232
-643.711	-200.000	0.006	0.094
-642.697	-200.000	0.005	-0.308
-641.682	-73.614	0.170	0.062
-640.668	723.542	-0.015	-0.040
-639.653	42.912	0.191	0.175
-638.638	-200.000	-0.004	-0.061
-637.624	-200.000	-0.082	0.369
-636.609	-5.304	0.168	-0.116
-635.595	-174.149	-0.164	0.005
-634.580	71.960	0.068	-0.071
-633.565	60.191	0.113	-0.113
-632.551	-56.469	-0.330	0.148
-631.536	-19.043	0.167	0.105
-630.522	-5.552	-0.335	0.232
-629.507	-113.107	-0.047	0.009
-628.492	-111.917	0.064	0.013
-627.478	-73.028	-0.366	0.136
-626.463	-200.000	0.075	0.333
-625.449	-163.425	0.292	-0.014
-624.434	-187.918	-0.119	-0.002
-623.419	-200.000	0.038	-0.210
-622.405	8.320	-0.176	0.134
-621.390	-41.330	-0.220	-0.114
-620.376	-21.276	-0.188	0.116
-619.361	183.220	0.057	0.086
-618.346	-16.228	-0.041	0.026
-617.332	-171.506	0.223	-0.007
-616.317	-68.967	-0.222	-0.086
-615.303	-163.066	-0.148	0.007
-614.288	-25.541	0.261	-0.155
-613.273	-87.345	0.305	-0.093
-612.259	-55.332	-0.337	-0.153
-611.244	322.174	0.036	0.069
-610.230	-3.647	-0.280	-0.196
-609.215	6.397	-0.198	-0.148
-608.201	-127.600	-0.314	0.046
-607.186	-161.348	-0.380	0.020
-606.171	-186.506	-0.191	-0.003
-605.157	-200.000	-0.000	-0.190
-604.142	-26.691	-0.161	-0.095
-603.128	-64.139	0.189	-0.078
-602.113	595.957	0.130	0.325
-601.098	-200.000	-0.001	-0.034
-600.084	-115.473	-0.061	0.012
-599.069	-103.637	0.411	0.097
-598.055	580.964	-0.089	0.219
-597.040	-19.133	0.376	-0.236
-596.025	-46.669	0.445	-0.220
-595.011	-200.000	0.011	-0.133
-593.996	67.475	0.257	0.265
-592.982	-200.000	0.021	0.112
-591.967	34.977	-0.055	0.049
-590.952	-83.024	0.289	-0.094
-589.938	-200.000	0.005	0.131
-588.923	-30.342	-0.288	0.164
-587.909	-61.550	-0.264	0.112
-586.894	800.000	0.117	-0.403
-585.879	800.000	0.125	0.452
-584.865	-110.513	0.466	0.097
-583.850	492.180	0.053	0.123
-582.836	96.328	0.170	0.196
-581.821	477.436	-0.195	0.443
-580.806	-94.794	-0.099	0.027
-579.792	-117.785	0.291	0.053
-578.777	436.838	0.149	-0.327
-577.763	127.167	-0.049	-0.063
-576.748	-67.529	-0.370	-0.146
-575.733	-17.518	0.213	-0.135
-574.719	113.626	-0.152	-0.186
-573.704	257.337	-0.256	-0.443
-572.690	-111.249	-0.128	-0.026
-571.675	84.338	-0.097	-0.107
-570.661	603.195	-0.142	-0.357
-569.646	-170.902	-0.071	-0.002
-568.631	-101.490	-0.296	0.073
-567.617	-200.000	0.039	0.184
-566.602	-189.971	0.098	-0.001
-565.588	109.045	0.068	0.081
-564.573	118.470	-0.208	0.259
-563.558	-31.406	-0.187	0.106
-562.544	20.703	-0.245	-0.200
-561.529	435.287	-0.089	-0.195
-560.515	-200.000	0.021	-0.302
-559.500	74.446	-0.059	0.062
-558.485	127.967	0.138	0.176
-557.471	-183.025	0.277	0.005
-556.456	240.021	0.064	-0.108
-555.442	800.000	-0.094	-0.337
-554.427	-200.000	0.001	0.004
-553.412	-137.154	0.059	0.007
-552.398	-23.374	-0.123	0.075
-551.383	511.010	0.197	-0.462
-550.369	-115.817	-0.101	0.019
-549.354	-8.072	0.037	-0.025
-548.339	-200.000	-0.003	-0.065
-547.325	-200.000	-0.010	-0.075
-546.310	-200.000	-0.002	0.039
-545.296	-200.000	0.031	-0.357
-544.281	-56.175	0.322	-0.144
-543.266	800.000	0.095	-0.274
-542.252	-45.523	-0.165	0.082
-541.237	257.254	-0.167	0.289
-540.223	-200.000	0.012	0.081
-539.208	214.293	0.092	-0.147
-538.193	-63.265	0.305	0.126
-537.179	161.938	0.243	0.342
-536.164	-56.803	-0.125	-0.055
-535.150	-200.000	-0.065	-0.434
-534.135	-112.229	0.314	-0.063
-533.121	-200.000	0.066	0.330
-532.106	-200.000	0.053	0.379
-531.091	-200.000	0.084	0.395
-530.077	200.517	-0.069	0.106
-529.062	25.427	0.062	0.052
-528.048	-70.805	0.521	0.197
-527.033	-200.000	0.000	-0.336
-526.018	800.000	-0.099	-0.384
-525.004	-26.726	0.182	0.107
-523.989	7.682	0.287	0.216
-522.975	449.712	-0.038	-0.084
-521.960	-31.782	-0.049	-0.028
-520.945	364.790	0.016	-0.033
-519.931	-134.685	-0.211	0.026
-518.916	-156.840	0.316	-0.020
-517.902	-200.000	0.026	0.117
-516.887	-172.011	-0.116	0.004
-515.872	-42.775	0.222	0.113
-514.858	-64.254	0.088	-0.036
-513.843	61.959	0.065	-0.066
-512.829	-200.000	-0.036	0.189
-511.814	102.497	-0.079	0.092
-510.799	-152.953	0.355	0.025
-509.785	37.562	-0.087	-0.077
-508.770	-135.138	0.206	0.025
-507.756	800.000	0.086	-0.364
-506.741	15.289	0.122	-0.096
-505.726	-82.001	-0.275	-0.090
-504.712	-16.209	0.355	0.227
-503.697	-62.400	0.102	0.043
-502.683	-200.000	0.001	-0.071
-501.668	800.000	-0.152	-0.433
-500.653	-200.000	0.001	-0.135
-499.639	-200.000	-0.043	0.282
-498.624	216.610	0.039	-0.062
-497.610	-84.876	0.248	0.078
-496.595	67.713	0.091	-0.094
-495.581	491.894	-0.107	0.246
-494.566	-200.000	0.024	-0.187
-493.551	-39.653	-0.203	0.106
-492.537	800.000	0.089	-0.341
-491.522	800.000	0.061	-0.171
-490.508	-75.491	0.238	0.085
-489.493	69.117	0.148	0.152
-488.478	-200.000	-0.051	0.235
-487.464	23.604	-0.177	0.146
-486.449	-161.723	0.033	0.002
-485.435	322.000	-0.104	-0.198
-484.420	205.937	-0.156	-0.243
-483.405	800.000	0.052	-0.169
-482.391	485.214	0.036	-0.083
-481.376	-107.924	0.185	-0.040
-480.362	171.252	-0.175	0.252
-479.347	187.554	-0.033	0.050
-478.332	175.757	0.117	-0.171
-477.318	39.802	0.227	0.204
-476.303	-85.405	0.312	0.098
-475.289	-141.453	-0.064	-0.006
-474.274	-200.000	0.032	0.357
-473.259	98.257	-0.041	0.047
-472.245	223.372	0.094	0.152
-471.230	-200.000	0.079	0.498
-470.216	-200.000	-0.004	0.247
-469.201	-200.000	-0.051	0.244
-468.186	221.190	-0.205	0.330
-467.172	228.967	0.121	0.197
-466.157	22.807	-0.271	-0.223
-465.143	92.667	0.131	0.149
-464.128	-74.470	-0.249	-0.090
-463.113	-178.809	0.153	0.003
-462.099	-59.708	0.474	0.204
-461.084	729.561	-0.041	-0.111
-460.070	-171.791	-0.332	-0.011
-459.055	-81.251	-0.133	0.044
-458.040	-30.470	0.118	0.067
-457.026	-75.150	0.197	0.071
-456.011	-168.381	-0.352	-0.014
-454.997	-76.198	0.168	0.059
-453.982	104.934	0.095	0.113
-452.968	800.000	-0.080	-0.247
-451.953	-24.322	0.277	-0.165
-450.938	74.312	0.080	-0.084
-449.924	88.969	-0.167	-0.186
-448.909	-200.000	0.030	-0.133
-447.895	-115.101	0.084	-0.016
-446.880	-107.233	-0.103	-0.023
-445.865	800.000	-0.007	-0.027
-444.851	-112.972	-0.225	-0.045
-443.836	-87.900	-0.272	-0.082
-442.822	-200.000	0.016	0.282
-441.807	6.302	0.105	0.078
-440.792	46.176	0.091	0.085
-439.778	-92.672	-0.279	0.078
-438.763	-57.187	-0.086	0.038
-437.749	-22.954	-0.082	0.050
-436.734	-73.074	0.118	-0.043
-435.719	153.382	0.270	0.371
-434.705	-56.147	0.181	-0.081
-433.690	-12.604	-0.202	-0.132
-432.676	424.104	0.111	-0.238
-431.661	141.806	0.147	-0.196
-430.646	800.000	-0.017	0.066
-429.632	800.000	0.044	-0.130
-428.617	-200.000	0.015	0.098
-427.603	-95.151	-0.112	0.030
-426.588	154.966	0.126	0.173
-425.573	14.086	0.034	0.027
-424.559	549.916	0.034	-0.082
-423.544	189.856	0.016	0.024
-422.530	321.637	0.075	-0.143
-421.515	389.412	-0.085	-0.177
-420.500	-147.263	-0.207	0.018
-419.486	800.000	-0.039	-0.129
-418.471	170.979	-0.165	0.237
-417.457	275.014	0.128	0.226
-416.442	28.003	0.077	0.065
-415.428	-200.000	-0.029	0.284
-414.413	-200.000	0.030	-0.135
-413.398	800.000	0.071	-0.228
-412.384	164.023	0.179	0.252
-411.369	11.929	-0.159	0.122
-410.355	800.000	0.055	-0.207
-409.340	558.381	-0.061	0.148
-408.325	273.329	-0.082	-0.146
-407.311	800.000	-0.014	-0.052
-406.296	132.615	-0.049	0.064
-405.282	-97.906	-0.240	-0.062
-404.267	36.647	-0.315	0.278
-403.252	-12.101	0.434	0.284
-402.238	-11.592	-0.126	0.083
-401.223	-99.865	0.228	-0.057
-400.209	-13.675	-0.379	0.245
-399.194	-63.324	0.165	0.068
-398.179	326.489	-0.175	0.335
-397.165	51.948	-0.376	0.358
-396.150	800.000	-0.062	0.232
-395.136	258.014	-0.102	-0.176
-394.121	602.561	-0.089	-0.220
-393.106	-42.768	0.209	-0.106
-392.092	-123.066	-0.040	0.006
-391.077	69.184	0.126	0.130
-390.063	232.742	0.198	0.325
-389.048	164.342	0.120	0.170
-388.033	-44.404	-0.147	0.073
-387.019	71.152	-0.045	0.046
-386.004	81.366	-0.008	0.009
-384.990	-59.235	0.139	-0.060
-383.975	-78.526	0.331	0.113
-382.960	800.000	0.076	0.281
-381.946	-30.455	-0.279	0.158
-380.931	195.267	-0.133	0.202
-379.917	645.496	0.050	-0.127
-378.902	-200.000	-0.044	0.381
-377.888	-146.394	-0.412	0.036
-376.873	800.000	0.035	0.121
-375.858	800.000	0.068	-0.203
-374.844	-150.565	-0.020	-0.002
-373.829	-161.269	-0.368	0.019
-372.815	-123.347	0.163	0.026
-371.800	172.449	0.150	-0.216
-370.785	-102.201	0.165	-0.040
-369.771	-200.000	-0.031	-0.162
-368.756	83.955	-0.154	0.168
-367.742	-70.439	0.027	-0.010
-366.727	800.000	0.064	-0.182
-365.712	-103.813	-0.489	0.114
-364.698	-181.584	0.019	0.000
-363.683	-194.107	-0.371	0.003
-362.669	50.183	-0.094	-0.089
-361.654	215.883	-0.157	-0.249
-360.639	-140.949	0.177	0.018
-359.625	30.212	0.255	-0.217
-358.610	660.775	0.054	-0.139
-357.596	139.357	0.064	0.084
-356.581	153.102	0.208	0.284
-355.566	274.178	-0.165	-0.291
-354.552	800.000	0.095	-0.275
-353.537	-158.312	0.111	-0.006
-352.523	40.266	-0.293	-0.263
-351.508	96.825	0.080	-0.091
-350.493	56.410	0.115	-0.112
-349.479	781.371	-0.064	0.175
-348.464	800.000	-0.083	-0.279
-347.450	-144.625	0.073	-0.007
-346.435	-69.453	0.194	-0.074
-345.420	-106.481	0.144	-0.032
-344.406	-131.480	-0.234	0.031
-343.391	-15.973	-0.156	-0.099
-342.377	-200.000	0.020	-0.303
-341.362	29.255	0.223	0.189
-340.348	-66.893	-0.207	0.082
-339.333	-55.180	-0.213	0.095
-338.318	-97.578	0.321	-0.083
-337.304	228.298	-0.072	-0.116
-336.289	149.411	0.257	-0.347
-335.275	231.571	0.282	0.461
-334.260	-11.174	0.172	-0.113
-333.245	-200.000	0.026	-0.282
-332.231	-200.000	0.006	0.178
-331.216	-200.000	-0.025	0.176
-330.202	74.285	0.078	-0.081
-329.187	72.171	-0.056	0.058
-328.172	14.881	0.230	-0.180
-327.158	-156.093	-0.187	0.012
-326.143	-200.000	-0.027	0.196
-325.129	-10.154	0.161	-0.107
-324.114	-103.924	0.182	-0.042
-323.099	232.881	-0.055	0.090
-322.085	-41.982	0.045	-0.023
-321.070	379.645	0.016	-0.033
-320.056	-33.678	0.115	-0.063
-319.041	-126.833	-0.337	0.049
-318.026	15.663	0.078	0.061
-317.012	220.564	0.099	-0.157
-315.997	625.356	-0.116	0.292
-314.983	125.593	0.197	-0.248
-313.968	69.993	-0.130	0.134
-312.953	233.224	0.166	0.272
-311.939	-200.000	0.001	-0.410
-310.924	210.287	-0.128	-0.200
-309.910	-49.000	0.220	0.105
-308.895	-200.000	0.005	0.049
-307.880	-200.000	0.020	-0.125
-306.866	800.000	-0.069	0.230
-305.851	-21.176	0.067	-0.041
-304.837	-200.000	0.091	-0.514
-303.822	-110.570	0.333	-0.069
-302.807	-94.956	-0.091	-0.024
-301.793	-200.000	-0.098	-0.570
-300.778	-92.191	-0.257	-0.072
-299.764	30.258	0.086	0.074
-298.749	800.000	0.101	-0.433
-297.735	-108.477	-0.341	-0.073
-296.720	-200.000	-0.049	-0.232
-295.705	-194.940	0.145	0.001
-294.691	-51.545	-0.318	-0.148
-293.676	76.479	0.187	-0.197
-292.662	-191.313	-0.124	-0.001
-291.647	470.284	-0.031	0.069
-290.632	-101.789	-0.188	0.045
-289.618	800.000	-0.045	-0.152
-288.603	-200.000	-0.017	-0.244
-287.589	800.000	0.023	0.091
-286.574	707.311	-0.061	0.161
-285.559	-200.000	-0.020	-0.179
-284.545	-6.267	0.152	0.103
-283.530	800.000	0.021	0.072
-282.516	-200.000	0.037	0.244
-281.501	-29.558	-0.284	0.161
-280.486	127.415	0.104	0.131
-279.472	3.682	0.009	-0.006
-278.457	-74.375	-0.267	0.096
-277.443	39.850	0.277	0.248
-276.428	154.552	-0.130	-0.177
-275.413	-200.000	0.015	0.098
-274.399	-47.938	0.185	0.089
-273.384	44.396	-0.172	0.157
-272.370	63.418	-0.054	-0.054
-271.355	-87.418	0.228	0.069
-270.340	296.746	0.033	0.061
-269.326	12.005	0.092	0.070
-268.311	187.962	-0.099	0.147
-267.297	-59.837	-0.250	0.107
-266.282	-76.429	-0.085	0.030
-265.267	-119.942	-0.363	-0.062
-264.253	-154.231	0.178	-0.012
-263.238	-144.995	-0.241	0.022
-262.224	18.659	-0.275	-0.219
-261.209	-52.962	0.131	-0.060
-260.195	800.000	0.019	0.074
-259.180	-6.941	0.264	-0.178
-258.165	800.000	-0.066	-0.183
-257.151	-148.861	-0.075	0.006
-256.136	-75.596	0.009	-0.003
-255.122	91.113	-0.191	0.213
-254.107	80.796	-0.285	-0.306
-253.092	-109.676	-0.345	0.072
-252.078	-126.101	-0.337	-0.050
-251.063	588.267	-0.046	-0.112
-250.049	800.000	0.100	0.350
-249.034	-200.000	-0.039	0.326
-248.019	515.739	-0.157	-0.364
-247.005	-200.000	-0.012	0.190
-245.990	-28.052	-0.256	-0.147
-244.976	-156.210	0.473	0.030
-243.961	95.816	-0.153	0.174
-242.946	-117.685	0.170	-0.030
-241.932	27.125	-0.117	0.098
-240.917	-139.958	-0.271	0.028
-239.903	800.000	-0.125	-0.369
-238.888	-127.949	0.042	0.006
-237.873	156.523	0.056	0.077
-236.859	-140.811	-0.221	0.023
-235.844	-200.000	0.103	0.488
-234.830	-200.000	0.019	0.205
-233.815	176.296	0.106	-0.153
-232.800	-200.000	0.020	0.153
-231.786	-116.080	0.211	-0.039
-230.771	-66.606	-0.125	-0.049
-229.757	160.068	0.069	0.096
-228.742	-200.000	-0.043	0.252
-227.727	-75.776	0.199	-0.070
-226.713	-200.000	-0.013	0.101
-225.698	321.220	-0.060	-0.113
-224.684	30.448	-0.167	-0.142
-223.669	-62.361	-0.192	0.079
-222.655	-13.322	-0.315	0.203
-221.640	547.342	-0.054	-0.128
-220.625	-81.369	0.271	0.089
-219.611	800.000	-0.024	-0.069
-218.596	220.910	-0.079	0.125
-217.582	96.918	0.134	0.152
-216.567	-43.541	-0.216	-0.108
-215.552	139.867	-0.070	-0.091
-214.538	800.000	0.036	0.106
-213.523	-125.456	0.075	-0.011
-212.509	800.000	-0.064	-0.221
-211.494	-200.000	0.024	0.242
-210.479	-200.000	-0.075	-0.354
-209.465	-138.973	-0.050	0.005
-208.450	-53.977	-0.292	-0.132
-207.436	-159.766	0.378	-0.021
-206.421	325.297	0.123	0.234
-205.406	-113.509	0.237	-0.046
-204.392	-74.754	-0.140	0.050
-203.377	338.883	0.047	-0.091
-202.363	-55.543	-0.207	0.092
-201.348	800.000	0.070	-0.204
-200.333	-51.100	0.145	-0.067
-199.319	13.902	0.155	0.120
-198.304	9.875	-0.151	-0.114
-197.290	-200.000	0.039	0.250
-196.275	13.783	0.167	0.129
-195.260	155.386	-0.090	-0.123
-194.246	-200.000	0.037	-0.166
-193.231	-131.031	0.091	0.012
-192.217	-30.152	0.401	0.226
-191.202	356.132	0.050	0.099
-190.187	459.737	-0.095	-0.210
-189.173	-75.442	0.490	0.173
-188.158	-25.745	-0.239	0.140
-187.144	800.000	0.091	0.279
-186.129	800.000	0.072	0.302
-185.114	318.856	-0.061	0.115
-184.100	-98.282	-0.070	0.018
-183.085	800.000	0.111	-0.419
-182.071	800.000	0.043	-0.162
-181.056	-186.279	0.242	-0.003
-180.042	31.232	-0.221	-0.188
-179.027	-200.000	0.002	0.106
-178.012	-65.650	-0.413	0.164
-176.998	42.622	-0.310	0.280
-175.983	51.912	-0.193	-0.182
-174.969	-40.096	-0.178	-0.092
-173.954	329.264	0.077	-0.146
-172.939	169.377	-0.086	-0.122
-171.925	631.280	-0.100	-0.251
-170.910	-72.134	0.048	0.018
-169.896	-125.659	-0.251	-0.038
-168.881	-163.098	0.501	-0.024
-167.866	-200.000	-0.120	-0.602
-166.852	37.218	-0.262	0.230
-165.837	-200.000	-0.002	0.075
-164.823	93.330	0.366	-0.410
-163.808	800.000	-0.050	-0.210
-162.793	409.207	-0.097	-0.204
-161.779	100.837	0.066	-0.076
-160.764	68.128	-0.253	0.256
-159.750	-3.681	-0.167	0.115
-158.735	117.337	0.200	-0.244
-157.720	81.352	0.180	-0.193
-156.706	48.818	0.161	0.149
-155.691	188.687	-0.144	-0.214
-154.677	12.105	0.096	0.073
-153.662	504.473	-0.108	0.247
-152.647	357.952	0.086	0.170
-151.633	86.856	0.209	-0.229
-150.618	-53.178	0.406	0.185
-149.604	71.466	0.168	-0.173
-148.589	693.097	0.096	0.250
-147.574	-46.100	-0.021	-0.010
-146.560	-200.000	-0.024	0.336
-145.545	-189.741	-0.111	0.001
-144.531	-27.707	0.317	0.182
-143.516	102.598	-0.034	0.039
-142.502	334.431	-0.089	0.170
-141.487	800.000	-0.038	0.162
-140.472	373.952	0.176	0.354
-139.458	-96.021	-0.029	0.008
-138.443	-42.885	-0.049	-0.025
-137.429	-88.025	0.177	0.053
-136.414	126.128	-0.189	0.237
-135.399	160.905	0.093	-0.128
-134.385	53.066	0.106	-0.100
-133.370	53.641	-0.080	-0.076
-132.356	93.968	-0.083	0.093
-131.341	-200.000	0.013	-0.270
-130.326	420.903	-0.116	0.247
-129.312	-10.576	0.106	0.069
-128.297	-8.093	0.146	-0.097
-127.283	270.583	0.095	0.165
-126.268	-188.925	0.179	-0.002
-125.253	28.033	0.249	-0.208
-124.239	-200.000	-0.007	0.109
-123.224	441.372	0.111	0.241
-122.210	-112.455	-0.170	0.034
-121.195	124.173	0.059	-0.073
-120.180	60.355	0.130	-0.127
