DTS Sentinel unit serial number:	SN413079Multiplexer serial number:	ORYXHardware model number:	OX4-SRSoftware version number:	ORYX F/W v4.00 Oryx Data Collector v3.7.2.0data status	okinstallation	princeton_trtdifferential loss correction	single-endedforward channel	channel 1reverse channel	N/Adate	2019/09/19time	11:26:35forward acquisition time	60.00reverse acquisition time	0.00gamma	496.2192k internal	0.2338k external	0.2338temperature offset calibration	1.0011default loss term (dB/km)	0.3790temperature slope calibration	1.0000multiplexer offset coefficient	1.0000multiplexer slope coefficient	1.0000fibre end	0.00T internal ref (°C)	25.31T ext. ref 1 (°C)	0.79T ext. ref 2 (°C)	21.13length (m)	temperature (°C)	Stokes	anti-Stokes-747.200	-95.821	-0.246	0.066
-746.185	1.671	0.057	-0.041
-745.171	-42.187	0.176	0.090
-744.156	-145.644	0.112	-0.010
-743.142	800.000	-0.010	-0.044
-742.127	-5.624	-0.204	0.141
-741.112	800.000	0.112	0.384
-740.098	-115.602	-0.415	0.078
-739.083	51.485	0.336	0.320
-738.069	-60.812	-0.484	0.205
-737.054	546.901	-0.022	-0.052
-736.039	137.841	-0.108	-0.141
-735.025	-41.784	0.322	0.166
-734.010	800.000	-0.046	-0.129
-732.996	-71.415	-0.134	0.050
-731.981	800.000	-0.117	0.366
-730.966	268.201	-0.087	0.153
-729.952	177.654	-0.173	-0.254
-728.937	-48.618	-0.112	-0.054
-727.923	-200.000	0.025	-0.344
-726.908	-69.145	-0.026	-0.010
-725.894	-24.170	-0.004	-0.002
-724.879	-200.000	-0.410	-0.001
-723.864	-44.770	-0.132	-0.066
-722.850	32.467	0.165	0.143
-721.835	-43.740	-0.425	-0.215
-720.821	-123.803	0.157	0.025
-719.806	35.928	0.090	-0.079
-718.791	46.658	-0.111	-0.103
-717.777	-200.000	0.003	-0.210
-716.762	-161.969	0.412	0.021
-715.748	-200.000	-0.039	-0.267
-714.733	-108.963	-0.148	0.032
-713.718	800.000	-0.057	-0.166
-712.704	223.157	-0.083	-0.133
-711.689	-51.341	-0.189	-0.089
-710.675	-30.273	-0.138	0.079
-709.660	31.447	-0.179	0.154
-708.645	-200.000	0.000	0.246
-707.631	281.674	0.125	0.225
-706.616	800.000	-0.134	0.470
-705.602	160.399	-0.061	0.085
-704.587	-174.375	-0.193	-0.006
-703.572	401.549	0.212	0.447
-702.558	-200.000	-0.038	-0.168
-701.543	-142.678	0.094	-0.009
-700.529	322.149	0.093	-0.178
-699.514	-82.175	-0.189	-0.062
-698.499	184.129	0.025	-0.037
-697.485	111.417	-0.107	-0.129
-696.470	116.960	0.074	-0.091
-695.456	-200.000	0.061	0.521
-694.441	-7.461	0.152	-0.103
-693.426	-157.334	-0.146	0.009
-692.412	-200.000	-0.031	-0.353
-691.397	-39.947	-0.199	0.104
-690.383	800.000	-0.127	0.415
-689.368	46.367	-0.279	0.259
-688.354	-15.808	-0.265	-0.169
-687.339	74.446	0.063	0.066
-686.324	18.197	-0.140	0.112
-685.310	800.000	0.046	-0.131
-684.295	34.023	0.092	0.081
-683.281	58.780	0.169	-0.166
-682.266	-155.977	0.083	0.005
-681.251	81.999	0.316	-0.343
-680.237	-200.000	-0.012	0.104
-679.222	-200.000	0.003	0.426
-678.208	181.654	-0.085	-0.126
-677.193	124.859	-0.204	-0.257
-676.178	-66.499	-0.184	-0.073
-675.164	-93.871	0.340	-0.094
-674.149	-72.164	0.290	-0.108
-673.135	41.371	-0.079	-0.071
-672.120	-200.000	0.024	-0.220
-671.105	-57.077	0.278	0.123
-670.091	106.433	0.063	-0.074
-669.076	65.266	-0.261	-0.264
-668.062	100.846	-0.043	-0.050
-667.047	-63.121	0.372	-0.154
-666.032	110.274	0.018	-0.022
-665.018	800.000	0.110	0.368
-664.003	-112.905	0.092	0.018
-662.989	-29.537	0.190	0.109
-661.974	-110.055	-0.309	0.065
-660.959	33.766	0.110	0.095
-659.945	141.631	0.019	-0.025
-658.930	-200.000	0.011	0.110
-657.916	409.910	0.209	0.444
-656.901	-79.146	0.215	-0.073
-655.886	-134.043	0.269	0.033
-654.872	-200.000	0.037	-0.206
-653.857	-138.999	-0.050	0.005
-652.843	614.466	0.095	-0.237
-651.828	-107.719	0.095	0.021
-650.814	65.615	-0.041	0.041
-649.799	-85.175	-0.032	-0.010
-648.784	-7.068	0.217	0.148
-647.770	407.688	-0.114	-0.242
-646.755	-18.934	0.170	-0.106
-645.741	153.777	-0.045	0.061
-644.726	-90.101	-0.323	0.094
-643.711	237.593	0.101	-0.168
-642.697	117.799	-0.111	0.136
-641.682	92.438	-0.132	0.149
-640.668	39.106	-0.077	-0.069
-639.653	-106.773	-0.200	-0.044
-638.638	-79.645	0.251	-0.085
-637.624	-151.872	-0.180	-0.013
-636.609	-142.396	-0.035	0.003
-635.595	-45.012	0.260	0.129
-634.580	141.241	-0.161	0.213
-633.565	-135.986	0.034	-0.004
-632.551	-145.196	-0.181	0.016
-631.536	200.835	0.164	0.251
-630.522	-88.441	0.196	-0.058
-629.507	150.918	-0.206	-0.279
-628.492	9.434	0.062	-0.047
-627.478	-200.000	0.055	-0.270
-626.463	692.546	-0.015	0.040
-625.449	62.268	-0.121	-0.121
-624.434	52.566	-0.198	0.189
-623.419	529.986	-0.090	-0.212
-622.405	524.057	0.221	0.520
-621.390	-113.447	-0.148	-0.029
-620.376	-200.000	0.001	-0.042
-619.361	-200.000	-0.034	0.175
-618.346	699.009	-0.119	-0.313
-617.332	800.000	0.065	-0.206
-616.317	243.577	-0.102	-0.171
-615.303	-104.646	-0.143	0.033
-614.288	-200.000	0.031	0.181
-613.273	-200.000	-0.035	-0.165
-612.259	-85.087	-0.267	-0.084
-611.244	-200.000	0.030	0.256
-610.230	197.863	0.175	-0.267
-609.215	800.000	-0.114	-0.487
-608.201	-100.377	0.316	-0.078
-607.186	495.799	0.086	-0.196
-606.171	-13.773	0.081	0.052
-605.157	-200.000	-0.080	-0.425
-604.142	385.045	-0.116	-0.238
-603.128	-200.000	-0.020	-0.201
-602.113	-200.000	-0.027	0.147
-601.098	92.628	0.164	0.185
-600.084	3.638	-0.209	-0.152
-599.069	-200.000	0.072	-0.417
-598.055	3.605	-0.041	0.030
-597.040	-200.000	0.029	0.167
-596.025	-42.040	-0.301	-0.154
-595.011	800.000	-0.115	-0.341
-593.996	140.863	0.133	-0.175
-592.982	675.662	0.059	-0.153
-591.967	-79.846	-0.024	0.008
-590.952	-200.000	0.044	0.250
-589.938	-103.804	-0.251	0.059
-588.923	78.871	-0.135	0.144
-587.909	91.961	-0.208	0.234
-586.894	-37.067	0.328	-0.175
-585.879	-170.369	-0.385	-0.013
-584.865	133.638	-0.089	-0.115
-583.850	202.332	0.143	0.220
-582.836	-57.742	0.307	-0.134
-581.821	734.891	0.093	0.249
-580.806	-200.000	0.012	0.212
-579.792	184.936	-0.092	-0.136
-578.777	69.659	-0.203	-0.209
-577.763	-98.767	0.311	0.079
-576.748	-98.565	-0.288	-0.073
-575.733	46.429	-0.191	-0.177
-574.719	-200.000	0.081	0.391
-573.704	577.433	0.050	0.122
-572.690	-200.000	0.024	0.241
-571.675	354.650	-0.211	0.419
-570.661	-110.316	0.257	-0.053
-569.646	82.246	0.138	-0.150
-568.631	482.116	0.044	-0.100
-567.617	-17.399	0.121	-0.076
-566.602	-76.738	0.123	0.043
-565.588	-11.383	-0.068	-0.044
-564.573	-165.486	-0.042	0.002
-563.558	-36.639	0.079	-0.043
-562.544	16.528	-0.160	-0.126
-561.529	33.865	0.133	0.115
-560.515	800.000	0.051	0.220
-559.500	-55.023	0.342	-0.153
-558.485	-200.000	-0.035	0.237
-557.471	-200.000	0.031	-0.180
-556.456	-162.392	-0.275	-0.014
-555.442	115.524	0.232	-0.282
-554.427	6.130	-0.224	-0.166
-553.412	-105.337	0.270	-0.061
-552.398	420.741	-0.036	0.076
-551.383	-81.004	-0.213	0.070
-550.369	255.446	0.122	-0.208
-549.354	8.943	-0.103	-0.078
-548.339	71.900	-0.130	-0.135
-547.325	-200.000	-0.015	0.082
-546.310	559.238	0.100	-0.241
-545.296	800.000	0.100	0.285
-544.281	244.755	-0.045	-0.076
-543.266	-30.242	0.132	-0.075
-542.252	-152.958	-0.248	-0.017
-541.237	-200.000	-0.010	0.075
-540.223	267.598	-0.165	-0.288
-539.208	595.895	0.029	0.072
-538.193	-94.398	0.169	0.046
-537.179	-35.986	-0.164	0.088
-536.164	38.578	-0.161	0.143
-535.150	-44.390	0.221	-0.110
-534.135	104.091	0.085	0.099
-533.121	-14.291	-0.216	-0.139
-532.106	-71.943	0.088	0.032
-531.091	-200.000	-0.017	-0.091
-530.077	-200.000	-0.016	-0.234
-529.062	-200.000	-0.031	-0.177
-528.048	800.000	0.068	0.241
-527.033	173.551	0.186	-0.267
-526.018	800.000	-0.024	0.085
-525.004	-69.272	-0.195	0.075
-523.989	-100.093	0.037	0.009
-522.975	-200.000	-0.070	0.326
-521.960	-23.195	-0.303	0.182
-520.945	-70.209	0.267	-0.101
-519.931	800.000	-0.028	-0.114
-518.916	-190.492	-0.065	-0.001
-517.902	83.645	0.179	0.195
-516.887	-53.974	0.423	-0.191
-515.872	333.584	0.040	0.076
-514.858	-63.375	0.222	-0.091
-513.843	565.754	0.076	0.183
-512.829	-200.000	-0.009	-0.214
-511.814	442.133	0.124	0.270
-510.799	108.909	0.119	0.141
-509.785	800.000	-0.049	-0.192
-508.770	-91.452	0.392	0.111
-507.756	-58.427	0.185	0.080
-506.741	-120.860	-0.357	-0.060
-505.726	-4.511	0.077	-0.053
-504.712	17.744	-0.324	-0.256
-503.697	-200.000	-0.009	0.227
-502.683	-131.448	0.478	0.063
-501.668	49.011	-0.186	-0.174
-500.653	-43.249	0.083	0.042
-499.639	800.000	-0.010	-0.040
-498.624	730.621	-0.121	-0.322
-497.610	248.235	-0.112	-0.189
-496.595	259.131	0.108	0.185
-495.581	3.276	0.267	-0.193
-494.566	516.541	-0.134	-0.311
-493.551	-167.502	-0.480	-0.019
-492.537	-200.000	-0.005	-0.112
-491.522	-35.943	-0.221	0.119
-490.508	800.000	-0.081	-0.340
-489.493	8.074	-0.385	-0.287
-488.478	-3.754	0.088	-0.061
-487.464	-182.049	-0.304	0.006
-486.449	-8.551	0.123	0.082
-485.435	58.877	-0.118	0.115
-484.420	-172.890	0.117	0.004
-483.405	335.975	-0.099	-0.191
-482.391	-200.000	-0.032	-0.233
-481.376	-138.376	0.182	0.020
-480.362	-114.144	-0.449	-0.086
-479.347	-200.000	0.026	0.248
-478.332	-101.421	-0.298	0.072
-477.318	101.780	-0.054	-0.062
-476.303	88.627	-0.018	0.020
-475.289	791.863	0.069	0.187
-474.274	557.172	0.039	-0.092
-473.259	11.072	-0.426	0.324
-472.245	-144.686	-0.071	-0.006
-471.230	-44.547	0.203	-0.101
-470.216	-89.051	-0.020	0.006
-469.201	800.000	-0.094	0.305
-468.186	-85.359	0.220	-0.068
-467.172	-32.984	-0.186	0.102
-466.157	113.795	0.072	0.087
-465.143	-200.000	-0.041	0.267
-464.128	-200.000	-0.013	-0.075
-463.113	184.691	0.147	-0.216
-462.099	-200.000	0.022	-0.442
-461.084	162.302	0.099	0.138
-460.070	-149.492	0.153	0.012
-459.055	149.651	-0.092	0.124
-458.040	51.410	-0.127	-0.120
-457.026	151.173	0.035	-0.047
-456.011	-17.256	-0.171	0.107
-454.997	-200.000	0.077	-0.433
-453.982	-200.000	-0.040	0.466
-452.968	-91.790	-0.179	0.051
-451.953	-44.118	-0.134	-0.067
-450.938	-96.707	0.340	0.089
-449.924	800.000	0.059	-0.198
-448.909	-46.085	0.157	-0.077
-447.895	229.578	-0.122	-0.197
-446.880	-142.277	0.133	-0.013
-445.865	111.594	-0.123	0.147
-444.851	204.412	0.154	-0.238
-443.836	628.446	0.068	0.171
-442.822	800.000	-0.032	0.115
-441.807	2.002	-0.317	-0.227
-440.792	-104.909	0.386	-0.088
-439.778	-200.000	-0.012	-0.059
-438.763	59.830	-0.217	0.212
-437.749	126.565	0.107	-0.135
-436.734	110.009	-0.150	0.179
-435.719	164.871	0.182	-0.255
-434.705	-53.916	-0.085	0.038
-433.690	429.258	-0.094	0.201
-432.676	18.050	-0.146	-0.116
-431.661	60.043	0.084	-0.082
-430.646	50.763	-0.086	0.081
-429.632	-200.000	0.015	0.227
-428.617	-200.000	0.026	-0.238
-427.603	-200.000	0.029	0.194
-426.588	-104.436	0.332	0.076
-425.573	-83.205	-0.157	-0.050
-424.559	-61.080	-0.273	-0.114
-423.544	-4.819	-0.120	0.082
-422.530	800.000	0.086	0.255
-421.515	-200.000	0.011	-0.306
-420.500	91.571	-0.126	0.140
-419.486	-139.087	0.254	0.027
-418.471	-200.000	0.008	0.233
-417.457	168.150	-0.179	0.252
-416.442	-52.603	0.191	0.087
-415.428	-66.328	0.311	0.122
-414.413	-41.135	-0.286	0.146
-413.398	-121.900	-0.277	-0.045
-412.384	-24.313	0.152	0.090
-411.369	-200.000	0.070	-0.429
-410.355	-137.870	-0.307	0.034
-409.340	171.838	-0.096	0.137
-408.325	-107.897	0.312	-0.067
-407.311	-57.213	-0.341	-0.149
-406.296	-190.664	0.357	0.004
-405.282	-72.602	0.029	-0.011
-404.267	-60.327	0.321	0.135
-403.252	-41.220	-0.293	-0.150
-402.238	-37.472	-0.112	0.059
-401.223	-18.267	0.306	0.189
-400.209	-200.000	0.018	-0.155
-399.194	-200.000	0.017	-0.138
-398.179	-200.000	0.077	-0.418
-397.165	46.176	-0.167	-0.153
-396.150	800.000	0.068	0.249
-395.136	7.790	-0.445	-0.330
-394.121	32.943	-0.213	-0.182
-393.106	35.302	0.239	0.208
-392.092	-131.187	-0.038	-0.005
-391.077	-200.000	0.031	0.236
-390.063	72.761	0.163	0.169
-389.048	247.658	-0.082	0.137
-388.033	-200.000	0.008	0.203
-387.019	68.027	-0.134	0.136
-386.004	101.436	-0.029	-0.033
-384.990	3.308	0.244	-0.176
-383.975	-200.000	-0.033	0.142
-382.960	-58.687	-0.158	-0.068
-381.946	-170.920	0.165	-0.006
-380.931	485.076	-0.106	-0.239
-379.917	800.000	-0.075	-0.284
-378.902	49.812	0.086	0.080
-377.888	-200.000	-0.001	-0.236
-376.873	0.073	0.071	-0.050
-375.858	109.984	-0.035	-0.042
-374.844	-68.540	-0.077	0.030
-373.829	-169.268	-0.250	0.009
-372.815	-65.965	-0.201	0.079
-371.800	-200.000	-0.033	0.507
-370.785	-147.728	-0.176	0.015
-369.771	-200.000	0.008	-0.505
-368.756	-81.399	-0.255	0.083
-367.742	186.601	-0.160	0.235
-366.727	124.287	0.253	0.314
-365.712	-146.504	-0.201	0.017
-364.698	-30.993	-0.153	0.085
-363.683	-184.320	-0.261	-0.004
-362.669	-40.989	-0.221	0.113
-361.654	800.000	0.029	0.107
-360.639	-16.466	0.231	-0.145
-359.625	94.643	-0.241	-0.271
-358.610	-200.000	-0.005	-0.151
-357.596	34.518	-0.316	0.272
-356.581	213.154	-0.170	0.265
-355.566	-143.727	-0.251	0.024
-354.552	126.886	0.145	0.181
-353.537	201.466	0.187	0.284
-352.523	800.000	0.132	0.455
-351.508	-23.495	0.234	0.139
-350.493	-151.920	-0.203	-0.015
-349.479	125.355	0.191	0.238
-348.464	502.765	0.033	-0.076
-347.450	-97.967	0.236	0.060
-346.435	-200.000	0.006	0.367
-345.420	125.082	0.195	0.243
-344.406	-8.217	-0.227	-0.151
-343.391	-168.506	-0.222	0.008
-342.377	-200.000	-0.006	-0.142
-341.362	-200.000	-0.052	0.280
-340.348	800.000	-0.008	0.029
-339.333	-200.000	-0.019	-0.127
-338.318	-200.000	-0.007	0.108
-337.304	-83.398	0.165	0.052
-336.289	-148.013	0.222	-0.018
-335.275	-44.709	0.137	-0.067
-334.260	150.025	0.281	0.377
-333.245	47.303	0.130	-0.120
-332.231	235.009	0.042	-0.069
-331.216	73.032	0.263	-0.272
-330.202	-103.254	0.049	-0.012
-329.187	-38.158	-0.041	-0.021
-328.172	471.495	0.196	-0.435
-327.158	406.239	-0.049	-0.101
-326.143	800.000	0.087	0.328
-325.129	172.888	-0.121	0.172
-324.114	-200.000	0.028	-0.224
-323.099	-74.837	-0.146	-0.052
-322.085	-61.919	-0.233	-0.096
-321.070	-200.000	-0.008	0.171
-320.056	800.000	0.075	0.239
-319.041	-200.000	0.002	0.042
-318.026	-200.000	-0.026	-0.336
-317.012	-200.000	-0.041	0.289
-315.997	54.535	0.030	0.028
-314.983	-200.000	-0.007	-0.267
-313.968	-25.772	0.175	-0.102
-312.953	-176.795	0.275	0.007
-311.939	243.577	-0.044	0.072
-310.924	-200.000	0.040	0.234
-309.910	88.785	0.281	0.308
-308.895	-65.816	0.215	0.085
-307.880	36.535	0.041	0.036
-306.866	687.055	0.078	0.201
-305.851	-49.346	-0.254	0.120
-304.837	-200.000	-0.030	0.162
-303.822	-200.000	0.005	-0.028
-302.807	800.000	0.140	-0.413
-301.793	-200.000	0.004	-0.076
-300.778	800.000	0.042	0.171
-299.764	-200.000	0.050	0.283
-298.749	-10.887	0.164	-0.107
-297.735	-200.000	0.023	0.415
-296.720	4.445	0.167	-0.121
-295.705	176.612	0.080	0.115
-294.691	-51.725	0.017	0.008
-293.676	800.000	0.029	-0.084
-292.662	-21.882	0.045	0.027
-291.647	-145.422	0.332	-0.029
-290.632	693.786	0.138	-0.356
-289.618	2.131	-0.260	-0.185
-288.603	-200.000	0.010	0.305
-287.589	-200.000	-0.081	0.359
-286.574	123.304	-0.135	-0.167
-285.559	-200.000	-0.003	-0.331
-284.545	177.831	-0.065	-0.093
-283.530	-153.395	-0.045	-0.003
-282.516	-19.670	0.137	-0.083
-281.501	-52.673	0.121	-0.055
-280.486	18.304	0.333	0.262
-279.472	-139.706	-0.279	-0.029
-278.457	179.695	-0.055	-0.079
-277.443	-130.767	0.150	-0.020
-276.428	-200.000	-0.020	0.143
-275.413	206.519	-0.166	0.255
-274.399	168.394	0.129	-0.182
-273.384	800.000	0.013	0.045
-272.370	-95.527	-0.218	-0.058
-271.355	-54.305	-0.295	-0.132
-270.340	253.815	0.176	0.297
-269.326	164.210	0.228	0.316
-268.311	-105.913	-0.524	-0.116
-267.297	-5.771	-0.379	-0.256
-266.282	-98.826	0.092	-0.023
-265.267	-54.077	-0.280	0.126
-264.253	-26.141	0.092	0.053
-263.238	-148.655	-0.117	0.009
-262.224	-4.434	-0.219	-0.149
-261.209	29.307	-0.224	0.187
-260.195	-18.205	-0.108	-0.067
-259.180	-170.877	0.148	-0.005
-258.165	477.081	0.174	0.387
-257.151	670.152	0.055	0.141
-256.136	588.261	0.013	0.031
-255.122	116.218	-0.296	-0.357
-254.107	-79.821	0.196	-0.065
-253.092	-200.000	-0.043	-0.213
-252.078	-135.487	-0.228	-0.027
-251.063	-200.000	-0.002	-0.024
-250.049	-82.703	-0.197	0.063
-249.034	-74.968	0.322	-0.114
-248.019	800.000	0.117	-0.364
-247.005	-200.000	0.016	-0.208
-245.990	-14.313	-0.299	-0.190
-244.976	-88.031	-0.134	-0.040
-243.961	-93.951	0.276	-0.075
-242.946	158.579	0.157	0.215
-241.932	-200.000	0.003	-0.137
-240.917	245.260	0.109	-0.181
-239.903	329.329	-0.102	-0.194
-238.888	-200.000	-0.015	-0.169
-237.873	200.273	-0.085	-0.128
-236.859	-101.213	-0.145	-0.035
-235.844	800.000	-0.075	0.283
-234.830	297.613	-0.123	0.221
-233.815	-200.000	-0.017	-0.129
-232.800	-200.000	-0.009	-0.269
-231.786	800.000	-0.033	0.094
-230.771	220.920	-0.135	0.213
-229.757	353.770	-0.056	0.109
-228.742	14.736	0.133	0.103
-227.727	-123.543	0.153	0.024
-226.713	9.369	0.228	-0.170
-225.698	-90.829	-0.147	-0.042
-224.684	800.000	-0.025	0.071
-223.669	173.090	-0.015	0.022
-222.655	209.907	0.216	0.333
-221.640	375.832	-0.092	-0.185
-220.625	800.000	0.025	-0.077
-219.611	7.019	0.281	0.206
-218.596	-200.000	0.007	0.274
-217.582	-200.000	-0.010	0.149
-216.567	800.000	-0.109	-0.326
-215.552	-99.066	0.046	0.011
-214.538	-2.288	0.289	0.199
-213.523	-110.860	-0.173	0.035
-212.509	-26.766	0.193	-0.111
-211.494	-16.847	0.137	0.085
-210.479	-200.000	0.001	0.098
-209.465	-75.006	0.195	0.069
-208.450	647.578	-0.126	0.316
-207.436	727.395	-0.146	-0.382
-206.421	-166.214	0.302	-0.013
-205.406	-100.737	0.266	0.064
-204.392	103.754	0.098	0.114
-203.377	800.000	-0.109	0.371
-202.363	75.653	-0.253	0.262
-201.348	-137.049	-0.174	-0.020
-200.333	118.192	0.046	0.056
-199.319	-200.000	-0.033	-0.239
-198.304	-200.000	0.002	0.118
-197.290	-56.788	0.381	-0.165
-196.275	800.000	0.068	0.209
-195.260	-110.951	0.234	0.047
-194.246	140.260	-0.078	0.102
-193.231	-200.000	0.006	0.032
-192.217	-28.924	-0.097	0.055
-191.202	-123.208	0.085	-0.013
-190.187	0.400	0.201	-0.141
-189.173	-71.334	0.159	0.058
-188.158	32.274	0.222	-0.188
-187.144	-46.435	0.116	-0.056
-186.129	-200.000	-0.008	-0.220
-185.114	-200.000	0.006	-0.097
-184.100	-200.000	-0.051	-0.221
-183.085	-67.545	0.204	-0.079
-182.071	78.038	-0.129	-0.135
-181.056	-106.625	0.195	-0.043
-180.042	290.984	0.105	0.187
-179.027	584.504	0.096	0.233
-178.012	-119.292	-0.225	0.038
-176.998	-75.110	0.203	-0.071
-175.983	-200.000	-0.009	0.307
-174.969	238.487	-0.177	-0.288
-173.954	-200.000	0.022	-0.331
-172.939	78.359	0.073	-0.076
-171.925	2.328	0.143	-0.101
-170.910	-73.210	-0.157	-0.056
-169.896	439.485	0.176	0.378
-168.881	94.381	-0.212	0.236
-167.866	48.048	0.129	0.118
-166.852	265.651	0.091	-0.156
-165.837	77.108	0.145	-0.151
-164.823	-200.000	-0.039	0.241
-163.808	-200.000	0.016	0.361
-162.793	5.925	-0.150	-0.109
-161.779	800.000	-0.048	0.166
-160.764	106.129	0.066	-0.076
-159.750	-200.000	-0.002	-0.366
-158.735	0.904	0.067	-0.047
-157.720	106.831	-0.125	-0.146
-156.706	346.438	0.072	0.139
-155.691	-25.110	-0.241	-0.140
-154.677	668.005	-0.065	0.165
-153.662	-101.684	0.389	-0.093
-152.647	-200.000	0.014	0.208
-151.633	-142.805	0.349	0.033
-150.618	401.222	-0.130	0.269
-149.604	254.055	-0.129	-0.217
-148.589	800.000	-0.034	0.094
-147.574	800.000	-0.062	-0.181
-146.560	23.017	-0.119	0.096
-145.545	-200.000	-0.021	0.182
-144.531	14.473	-0.230	0.176
-143.516	129.670	-0.233	-0.292
-142.502	-200.000	-0.039	-0.168
-141.487	251.754	-0.067	-0.111
-140.472	-172.875	-0.212	0.006
-139.458	-200.000	0.048	0.213
-138.443	-95.172	-0.122	0.032
-137.429	155.613	0.065	-0.087
-136.414	800.000	-0.054	-0.150
-135.399	65.845	-0.012	0.012
-134.385	-16.066	-0.222	-0.138
-133.370	-134.601	-0.160	-0.019
-132.356	-200.000	-0.002	0.139
-131.341	800.000	0.079	0.220
-130.326	-200.000	-0.068	0.367
-129.312	-77.677	-0.348	-0.118
-128.297	-200.000	0.050	-0.231
-127.283	-162.210	0.346	0.017
-126.268	-127.888	0.066	0.009
-125.253	-99.973	-0.159	0.039
-124.239	-38.558	-0.328	0.170
-123.224	-125.633	-0.169	-0.025
-122.210	156.492	0.201	0.272
