DTS Sentinel unit serial number:	SN413079Multiplexer serial number:	ORYXHardware model number:	OX4-SRSoftware version number:	ORYX F/W v4.00 Oryx Data Collector v3.7.2.0data status	okinstallation	princeton_trtdifferential loss correction	single-endedforward channel	channel 1reverse channel	N/Adate	2019/09/12time	08:40:11forward acquisition time	60.00reverse acquisition time	0.00gamma	496.2192k internal	0.2312k external	0.2312temperature offset calibration	1.0041default loss term (dB/km)	0.3790temperature slope calibration	1.0000multiplexer offset coefficient	1.0000multiplexer slope coefficient	1.0000fibre end	0.00T internal ref (°C)	33.81T ext. ref 1 (°C)	1.71T ext. ref 2 (°C)	30.20length (m)	temperature (°C)	Stokes	anti-Stokes-747.200	-70.270	0.259	0.100
-746.185	-200.000	0.007	-0.212
-745.171	9.272	0.144	-0.111
-744.156	250.062	0.195	0.337
-743.142	-95.354	0.249	0.068
-742.127	-15.142	-0.074	-0.048
-741.112	48.032	0.212	-0.201
-740.098	471.867	-0.159	0.364
-739.083	-124.176	-0.281	-0.045
-738.069	520.381	0.172	-0.410
-737.054	-180.873	0.349	0.007
-736.039	-198.456	-0.266	0.002
-735.025	-61.410	-0.039	-0.016
-734.010	-200.000	-0.010	-0.165
-732.996	-200.000	0.010	0.153
-731.981	46.567	0.098	-0.093
-730.966	465.753	-0.143	-0.326
-729.952	800.000	-0.068	-0.198
-728.937	45.333	0.072	0.067
-727.923	-185.230	0.129	-0.002
-726.908	800.000	0.071	-0.221
-725.894	121.673	-0.212	-0.268
-724.879	-96.152	-0.286	-0.077
-723.864	-54.918	-0.257	0.117
-722.850	-104.468	-0.221	-0.052
-721.835	-12.124	0.352	-0.233
-720.821	-176.452	-0.145	-0.004
-719.806	-116.454	0.077	-0.014
-718.791	94.180	-0.033	-0.038
-717.777	184.062	-0.085	-0.128
-716.762	800.000	0.097	-0.273
-715.748	-57.866	0.231	-0.102
-714.733	-81.497	-0.199	-0.066
-713.718	-200.000	0.044	0.320
-712.704	-2.391	0.155	-0.110
-711.689	198.735	0.039	-0.060
-710.675	-107.943	-0.066	0.014
-709.660	-9.691	0.030	0.020
-708.645	75.737	-0.155	-0.166
-707.631	23.127	-0.058	0.048
-706.616	79.314	0.233	0.253
-705.602	-166.254	-0.359	-0.015
-704.587	-101.574	-0.094	-0.023
-703.572	-90.262	-0.409	0.120
-702.558	51.283	0.036	0.034
-701.543	-200.000	0.086	0.532
-700.529	21.287	-0.378	-0.311
-699.514	-69.297	0.298	-0.116
-698.499	-56.899	-0.151	0.068
-697.485	800.000	0.027	-0.083
-696.470	-115.434	0.125	0.024
-695.456	-98.071	-0.305	-0.080
-694.441	253.619	0.104	0.180
-693.426	82.720	-0.256	0.282
-692.412	-99.151	-0.057	0.015
-691.397	19.950	0.076	0.062
-690.383	27.204	-0.350	-0.298
-689.368	-200.000	-0.013	0.131
-688.354	-200.000	-0.061	-0.361
-687.339	402.170	-0.043	0.092
-686.324	-97.397	-0.160	-0.042
-685.310	800.000	0.157	-0.558
-684.295	135.111	-0.205	-0.270
-683.281	23.359	0.235	0.196
-682.266	18.847	-0.086	-0.070
-681.251	21.297	0.150	0.123
-680.237	800.000	-0.005	-0.019
-679.222	-10.945	-0.332	-0.222
-678.208	-200.000	-0.021	-0.235
-677.193	-200.000	0.030	-0.229
-676.178	-133.039	0.291	-0.037
-675.164	-200.000	-0.008	0.110
-674.149	96.283	0.097	-0.113
-673.135	317.695	-0.131	-0.251
-672.120	-32.361	-0.149	0.084
-671.105	-71.331	-0.531	-0.201
-670.091	-200.000	-0.013	-0.059
-669.076	-65.473	0.033	-0.013
-668.062	337.792	0.054	0.107
-667.047	9.996	0.161	-0.124
-666.032	68.916	0.116	0.121
-665.018	-119.673	-0.336	0.059
-664.003	-200.000	0.046	-0.251
-662.989	800.000	0.040	-0.171
-661.974	-200.000	-0.014	0.092
-660.959	4.472	-0.176	-0.131
-659.945	-183.187	-0.339	-0.006
-658.930	-200.000	0.021	-0.169
-657.916	127.788	-0.302	-0.388
-656.901	78.504	0.129	-0.139
-655.886	0.571	-0.063	0.045
-654.872	-107.969	0.332	-0.073
-653.857	189.846	-0.172	-0.260
-652.843	-140.877	-0.259	-0.027
-651.828	5.961	0.137	0.102
-650.814	-200.000	0.008	0.130
-649.799	57.525	-0.163	0.161
-648.784	800.000	0.063	-0.227
-647.770	-200.000	0.005	-0.264
-646.755	-130.260	0.322	0.044
-645.741	-176.618	0.116	0.003
-644.726	-136.129	-0.296	-0.035
-643.711	-115.762	-0.168	-0.032
-642.697	261.743	-0.134	0.235
-641.682	453.743	-0.024	-0.053
-640.668	800.000	0.158	0.521
-639.653	-40.749	0.233	0.122
-638.638	55.469	-0.145	0.141
-637.624	70.338	-0.335	-0.350
-636.609	593.355	0.034	-0.085
-635.595	-121.391	-0.269	0.045
-634.580	-200.000	-0.006	-0.158
-633.565	-136.302	-0.061	0.007
-632.551	175.056	0.076	0.111
-631.536	-61.057	-0.299	-0.128
-630.522	-200.000	-0.008	-0.226
-629.507	293.311	0.152	-0.280
-628.492	21.271	-0.489	-0.401
-627.478	33.185	0.202	-0.177
-626.463	121.064	-0.160	0.202
-625.449	-200.000	0.005	-0.076
-624.434	266.235	0.128	-0.227
-623.419	800.000	-0.044	-0.127
-622.405	-200.000	-0.006	-0.128
-621.390	88.676	-0.149	0.168
-620.376	184.303	-0.110	-0.164
-619.361	-131.879	-0.123	-0.016
-618.346	57.523	-0.088	-0.087
-617.332	104.402	0.083	-0.098
-616.317	117.511	0.198	0.246
-615.303	-127.107	-0.184	-0.027
-614.288	97.215	0.101	-0.117
-613.273	-98.618	0.273	-0.070
-612.259	-123.175	0.268	0.043
-611.244	-131.330	0.300	-0.040
-610.230	-86.396	-0.191	-0.059
-609.215	627.828	0.021	0.053
-608.201	-200.000	-0.197	-0.000
-607.186	232.778	-0.194	-0.323
-606.171	800.000	-0.013	-0.056
-605.157	82.185	-0.196	0.214
-604.142	56.278	-0.007	-0.007
-603.128	120.234	-0.089	-0.111
-602.113	342.412	0.043	-0.085
-601.098	-18.360	0.155	-0.098
-600.084	-2.336	0.151	-0.107
-599.069	110.161	0.042	0.051
-598.055	138.403	-0.120	-0.158
-597.040	-200.000	0.005	-0.178
-596.025	-200.000	-0.035	0.319
-595.011	172.434	-0.086	0.125
-593.996	-200.000	-0.002	0.378
-592.982	147.779	-0.108	0.146
-591.967	-194.703	0.518	-0.004
-590.952	-75.952	0.323	0.115
-589.938	-122.335	0.257	0.042
-588.923	-200.000	-0.052	-0.241
-587.909	-200.000	-0.032	-0.317
-586.894	16.227	0.277	0.220
-585.879	-200.000	0.006	0.028
-584.865	160.671	0.094	-0.133
-583.850	-200.000	0.043	-0.238
-582.836	-122.432	-0.184	-0.030
-581.821	251.736	0.133	-0.228
-580.806	350.205	0.147	0.293
-579.792	-92.409	-0.168	-0.048
-578.777	-200.000	-0.051	-0.230
-577.763	121.636	-0.084	0.105
-576.748	182.116	-0.056	-0.084
-575.733	-45.753	-0.143	-0.071
-574.719	-116.618	0.084	-0.016
-573.704	-5.014	-0.284	-0.197
-572.690	-5.229	0.211	0.146
-571.675	75.005	0.172	0.183
-570.661	-82.730	0.272	0.089
-569.646	340.960	-0.013	0.025
-568.631	-200.000	-0.034	0.223
-567.617	26.767	-0.097	-0.082
-566.602	76.066	0.186	-0.198
-565.588	-131.762	-0.271	-0.036
-564.573	218.750	0.057	-0.092
-563.558	-143.267	0.351	-0.034
-562.544	-82.025	0.086	-0.028
-561.529	429.771	-0.051	0.110
-560.515	12.390	0.324	0.252
-559.500	800.000	0.026	0.099
-558.485	800.000	0.176	0.576
-557.471	-125.154	-0.271	0.042
-556.456	77.025	-0.127	-0.136
-555.442	516.967	-0.065	-0.153
-554.427	196.983	0.066	-0.101
-553.412	33.388	-0.272	-0.238
-552.398	4.721	-0.362	-0.268
-551.383	20.117	-0.367	-0.298
-550.369	-60.708	-0.044	-0.019
-549.354	782.788	0.117	-0.321
-548.339	-23.027	0.112	-0.068
-547.325	-123.258	-0.065	-0.010
-546.310	-5.669	0.177	-0.122
-545.296	800.000	-0.056	-0.186
-544.281	-100.974	0.150	0.037
-543.266	60.063	-0.188	0.187
-542.252	-200.000	0.018	-0.143
-541.237	-67.555	-0.420	0.166
-540.223	-19.987	0.135	-0.084
-539.208	194.365	0.186	-0.285
-538.193	-86.312	0.105	0.032
-537.179	446.728	-0.072	0.160
-536.164	-56.622	0.163	0.073
-535.150	800.000	-0.068	0.247
-534.135	175.193	0.026	0.039
-533.121	80.716	-0.258	-0.280
-532.106	132.686	-0.039	0.050
-531.091	242.303	-0.144	0.243
-530.077	-200.000	-0.009	0.294
-529.062	-126.163	-0.258	-0.039
-528.048	423.127	-0.125	-0.271
-527.033	-200.000	0.012	0.249
-526.018	-110.798	-0.122	0.025
-525.004	800.000	0.036	0.132
-523.989	121.471	-0.105	0.131
-522.975	28.929	-0.208	-0.177
-521.960	542.657	-0.100	0.241
-520.945	726.183	-0.079	0.211
-519.931	798.752	0.045	0.125
-518.916	406.000	0.110	-0.233
-517.902	-158.764	-0.404	-0.023
-516.887	-200.000	-0.024	-0.239
-515.872	-154.853	-0.374	0.025
-514.858	-200.000	-0.014	0.067
-513.843	-89.664	0.359	-0.106
-512.829	683.495	-0.056	0.147
-511.814	-151.347	0.104	-0.008
-510.799	276.657	0.103	0.185
-509.785	22.948	-0.156	0.129
-508.770	-72.764	-0.229	0.085
-507.756	800.000	0.067	-0.284
-506.741	-200.000	0.080	-0.429
-505.726	-0.414	-0.273	0.195
-504.712	-50.465	0.145	0.069
-503.697	-200.000	0.016	0.123
-502.683	731.545	0.069	-0.186
-501.668	-147.658	-0.365	-0.031
-500.653	61.496	0.096	0.096
-499.639	122.482	-0.059	-0.074
-498.624	-200.000	-0.032	0.272
-497.610	161.672	-0.143	-0.202
-496.595	35.912	-0.097	-0.086
-495.581	272.112	0.111	0.197
-494.566	-200.000	-0.020	0.170
-493.551	542.513	0.073	0.175
-492.537	800.000	0.109	-0.397
-491.522	-200.000	0.014	0.074
-490.508	-200.000	-0.034	-0.319
-489.493	-11.515	-0.211	0.139
-488.478	-200.000	-0.011	0.258
-487.464	-177.264	-0.082	-0.002
-486.449	800.000	0.064	0.181
-485.435	800.000	-0.124	0.401
-484.420	-68.796	0.202	0.078
-483.405	-143.293	-0.168	0.016
-482.391	218.147	-0.256	0.410
-481.376	-98.964	-0.186	0.047
-480.362	7.763	-0.364	0.274
-479.347	-200.000	-0.038	0.226
-478.332	-200.000	-0.013	-0.078
-477.318	-45.497	0.248	-0.123
-476.303	272.418	0.192	-0.340
-475.289	18.127	-0.201	-0.161
-474.274	156.541	0.135	-0.187
-473.259	182.051	-0.189	0.279
-472.245	-119.384	0.158	-0.028
-471.230	-200.000	0.006	-0.148
-470.216	266.573	0.070	0.124
-469.201	7.222	0.226	0.169
-468.186	405.553	0.182	0.386
-467.172	-81.962	-0.080	-0.026
-466.157	165.178	-0.070	-0.099
-465.143	-98.151	-0.217	0.056
-464.128	-107.195	0.134	0.030
-463.113	-200.000	-0.035	-0.380
-462.099	105.927	0.055	-0.066
-461.084	-200.000	0.020	-0.121
-460.070	-2.769	-0.191	-0.134
-459.055	-200.000	-0.005	-0.105
-458.040	-167.156	0.296	0.012
-457.026	-200.000	0.020	0.111
-456.011	-193.120	-0.060	-0.001
-454.997	-200.000	-0.026	-0.134
-453.982	358.485	0.060	-0.120
-452.968	-200.000	-0.009	0.415
-451.953	-91.422	0.261	-0.075
-450.938	-173.780	-0.215	0.006
-449.924	-200.000	0.030	-0.140
-448.909	104.666	-0.074	0.087
-447.895	168.637	0.204	0.292
-446.880	588.574	0.095	0.235
-445.865	17.437	-0.177	-0.141
-444.851	56.537	0.309	-0.302
-443.836	74.918	-0.144	0.153
-442.822	-200.000	0.053	0.459
-441.807	-12.860	-0.047	0.031
-440.792	83.108	-0.080	-0.087
-439.778	60.572	-0.183	0.182
-438.763	384.120	0.052	-0.107
-437.749	-148.460	-0.207	0.017
-436.734	129.934	-0.183	-0.235
-435.719	800.000	-0.088	0.256
-434.705	59.555	0.147	0.145
-433.690	-26.041	-0.196	0.116
-432.676	129.872	0.150	-0.193
-431.661	-32.280	-0.186	-0.104
-430.646	294.775	0.064	0.117
-429.632	800.000	-0.053	0.168
-428.617	-200.000	0.030	0.234
-427.603	270.895	-0.065	0.114
-426.588	-37.111	0.079	-0.042
-425.573	800.000	0.024	-0.072
-424.559	-15.358	0.148	-0.095
-423.544	172.317	0.113	0.162
-422.530	128.207	-0.095	-0.122
-421.515	-118.020	-0.269	0.048
-420.500	270.569	0.091	-0.161
-419.486	-85.962	0.199	0.062
-418.471	800.000	0.004	0.014
-417.457	407.607	0.189	0.401
-416.442	-28.800	0.280	-0.161
-415.428	-101.427	-0.113	0.028
-414.413	490.804	0.118	0.270
-413.398	169.894	-0.101	0.144
-412.384	-136.531	0.478	0.056
-411.369	186.867	0.136	0.203
-410.355	-51.995	-0.056	0.026
-409.340	-15.722	0.338	-0.216
-408.325	-168.393	-0.225	0.009
-407.311	282.481	-0.104	-0.187
-406.296	253.951	-0.140	0.240
-405.282	16.334	-0.117	-0.093
-404.267	-37.278	0.149	0.080
-403.252	-106.810	0.097	-0.022
-402.238	205.160	-0.041	0.063
-401.223	558.372	0.044	0.106
-400.209	-98.921	0.422	0.107
-399.194	-105.443	-0.215	0.049
-398.179	33.184	0.046	-0.040
-397.165	-200.000	-0.020	0.210
-396.150	146.430	-0.057	0.077
-395.136	-200.000	0.017	-0.075
-394.121	-200.000	-0.011	0.139
-393.106	298.556	-0.129	-0.238
-392.092	-149.630	-0.427	0.034
-391.077	591.842	0.063	0.157
-390.063	-149.028	0.396	-0.032
-389.048	79.662	0.086	-0.092
-388.033	800.000	-0.030	0.125
-387.019	153.193	-0.098	0.134
-386.004	-200.000	-0.016	-0.147
-384.990	25.119	0.094	0.078
-383.975	-50.561	-0.039	0.019
-382.960	-200.000	0.011	0.083
-381.946	-76.370	-0.052	-0.018
-380.931	-0.833	0.215	-0.152
-379.917	-89.917	-0.260	-0.076
-378.902	9.029	0.070	0.053
-377.888	-127.986	-0.064	0.009
-376.873	121.070	-0.316	0.394
-375.858	104.334	0.163	0.192
-374.844	48.102	0.248	0.232
-373.829	-71.928	0.150	-0.056
-372.815	-81.313	0.224	-0.074
-371.800	211.252	0.136	0.213
-370.785	-200.000	0.016	0.307
-369.771	166.700	0.028	-0.040
-368.756	148.784	-0.099	0.134
-367.742	-66.090	-0.200	-0.080
-366.727	-22.319	0.058	-0.035
-365.712	115.914	0.032	0.039
-364.698	-200.000	-0.038	-0.224
-363.683	-26.026	-0.224	-0.132
-362.669	328.158	-0.064	0.123
-361.654	-43.220	0.326	0.165
-360.639	-16.551	0.326	-0.206
-359.625	76.125	-0.077	-0.082
-358.610	-133.221	0.251	0.032
-357.596	190.823	-0.094	0.141
-356.581	-96.526	0.215	-0.057
-355.566	80.444	-0.103	-0.111
-354.552	49.492	-0.181	0.170
-353.537	48.131	-0.128	0.119
-352.523	64.328	0.254	-0.256
-351.508	-45.962	-0.211	-0.104
-350.493	96.737	0.128	0.147
-349.479	612.135	-0.012	0.031
-348.464	251.668	0.072	0.122
-347.450	249.430	-0.127	0.215
-346.435	504.370	-0.062	-0.143
-345.420	-136.482	-0.277	-0.032
-344.406	-200.000	-0.014	0.196
-343.391	41.634	-0.105	0.095
-342.377	800.000	-0.119	-0.405
-341.362	800.000	-0.115	-0.334
-340.348	-200.000	0.008	0.271
-339.333	119.906	0.108	0.133
-338.318	-45.675	-0.297	0.147
-337.304	-39.131	-0.298	0.157
-336.289	-149.215	-0.287	-0.023
-335.275	94.672	-0.131	-0.148
-334.260	-147.561	0.343	-0.029
-333.245	-84.093	-0.109	0.034
-332.231	-87.484	-0.071	-0.021
-331.216	800.000	0.041	0.171
-330.202	-200.000	-0.026	-0.142
-329.187	-114.347	-0.342	-0.066
-328.172	-113.101	0.195	0.038
-327.158	420.813	-0.112	0.239
-326.143	232.024	0.018	-0.030
-325.129	-19.441	-0.164	0.102
-324.114	557.212	0.117	-0.281
-323.099	408.203	-0.066	-0.140
-322.085	-112.042	-0.272	0.055
-321.070	-200.000	0.018	0.174
-320.056	800.000	0.018	0.052
-319.041	136.309	0.262	-0.341
-318.026	-103.469	0.308	0.072
-317.012	6.745	0.212	0.157
-315.997	800.000	0.007	0.025
-314.983	144.134	-0.048	-0.063
-313.968	800.000	-0.029	-0.114
-312.953	800.000	0.101	-0.333
-311.939	-60.911	-0.120	-0.051
-310.924	-98.248	-0.075	0.019
-309.910	-180.615	-0.256	0.005
-308.895	-200.000	-0.021	-0.113
-307.880	-125.640	-0.154	0.023
-306.866	145.586	-0.137	0.184
-305.851	-149.799	0.063	0.005
-304.837	353.001	-0.132	0.260
-303.822	-71.452	0.353	-0.132
-302.807	-108.455	0.170	0.037
-301.793	-200.000	0.055	0.266
-300.778	54.983	-0.203	0.196
-299.764	358.024	0.038	-0.076
-298.749	-121.721	0.444	0.073
-297.735	-61.934	-0.171	-0.071
-296.720	800.000	-0.028	0.121
-295.705	-5.760	0.175	-0.119
-294.691	22.112	-0.185	0.151
-293.676	-76.165	-0.174	-0.061
-292.662	-18.736	0.094	-0.058
-291.647	-75.522	-0.239	0.085
-290.632	-38.150	-0.278	-0.147
-289.618	142.320	-0.099	-0.131
-288.603	-200.000	-0.029	0.236
-287.589	800.000	-0.021	0.081
-286.574	-83.760	-0.204	-0.065
-285.559	45.550	-0.252	0.232
-284.545	303.738	0.150	0.277
-283.530	-29.914	-0.276	-0.157
-282.516	800.000	0.139	-0.535
-281.501	-179.836	0.295	-0.006
-280.486	-75.354	-0.406	-0.144
-279.472	-13.171	0.431	-0.279
-278.457	-6.189	0.111	-0.075
-277.443	22.631	-0.306	0.250
-276.428	-78.728	0.227	0.077
-275.413	-23.492	0.242	-0.145
-274.399	800.000	0.013	0.048
-273.384	33.828	-0.216	0.187
-272.370	-200.000	0.184	-0.001
-271.355	302.025	0.029	-0.054
-270.340	-107.553	0.069	-0.015
-269.326	95.864	-0.223	0.254
-268.311	1.140	-0.301	-0.215
-267.297	-200.000	-0.003	0.074
-266.282	-200.000	-0.013	-0.086
-265.267	800.000	0.091	-0.259
-264.253	297.888	-0.135	0.248
-263.238	-76.381	0.267	0.094
-262.224	800.000	0.045	0.190
-261.209	2.729	0.190	0.137
-260.195	-33.132	0.051	0.028
-259.180	-200.000	-0.027	0.186
-258.165	800.000	-0.029	-0.110
-257.151	36.291	-0.064	-0.056
-256.136	-37.124	0.106	-0.056
-255.122	800.000	-0.023	0.065
-254.107	-15.507	-0.439	-0.279
-253.092	770.388	0.114	-0.309
-252.078	89.815	-0.048	-0.054
-251.063	-66.001	0.069	-0.027
-250.049	198.380	0.222	-0.338
-249.034	442.925	-0.131	0.285
-248.019	-171.523	0.500	0.017
-247.005	-9.752	0.327	-0.216
-245.990	49.335	-0.082	0.077
-244.976	-166.376	-0.066	-0.003
-243.961	24.736	0.030	0.025
-242.946	-18.918	-0.179	0.111
-241.932	-123.101	-0.141	0.023
-240.917	240.972	-0.038	0.064
-239.903	287.596	0.113	-0.204
-238.888	14.818	0.201	-0.157
-237.873	-72.191	0.198	-0.073
-236.859	-200.000	0.001	-0.204
-235.844	7.562	0.170	-0.127
-234.830	800.000	-0.019	-0.057
-233.815	-200.000	0.004	-0.025
-232.800	-200.000	0.019	-0.309
-231.786	-119.672	0.256	-0.044
-230.771	306.914	-0.011	0.020
-229.757	249.968	0.143	0.241
-228.742	-56.236	0.217	-0.096
-227.727	89.461	-0.142	-0.157
-226.713	-163.119	0.209	0.010
-225.698	-200.000	-0.005	-0.156
-224.684	168.129	0.135	0.191
-223.669	14.012	-0.283	-0.219
-222.655	-126.367	0.221	0.033
-221.640	8.661	-0.335	0.251
-220.625	-200.000	0.053	-0.332
-219.611	159.576	0.107	0.149
-218.596	34.310	-0.065	-0.056
-217.582	8.814	-0.050	-0.038
-216.567	-34.093	-0.440	-0.240
-215.552	132.726	0.098	-0.126
-214.538	355.149	0.082	0.162
-213.523	288.376	-0.078	0.141
-212.509	25.905	0.150	0.124
-211.494	-119.845	0.322	-0.055
-210.479	90.879	0.052	-0.058
-209.465	268.279	0.081	-0.141
-208.450	-117.695	-0.410	-0.073
-207.436	-6.319	0.160	0.108
-206.421	800.000	0.010	-0.034
-205.406	143.866	0.153	-0.203
-204.392	505.266	-0.160	-0.369
-203.377	-200.000	-0.048	0.321
-202.363	-151.631	0.159	0.012
-201.348	-39.614	0.152	-0.079
-200.333	165.724	0.049	-0.070
-199.319	20.363	0.124	0.100
-198.304	-59.344	-0.256	-0.109
-197.290	-200.000	-0.028	0.147
-196.275	-200.000	-0.059	0.363
-195.260	31.420	0.084	-0.071
-194.246	-186.881	0.401	0.006
-193.231	23.664	0.043	-0.035
-192.217	-148.741	0.109	0.009
-191.202	226.165	0.090	-0.144
-190.187	523.471	-0.097	0.225
-189.173	-200.000	0.008	0.088
-188.158	-43.708	-0.210	0.105
-187.144	-120.520	-0.189	0.032
-186.129	162.824	-0.116	-0.162
-185.114	166.314	-0.126	-0.178
-184.100	19.815	-0.100	-0.080
-183.085	434.786	0.085	-0.184
-182.071	673.302	0.039	-0.101
-181.056	-107.471	0.200	0.044
-180.042	-200.000	-0.023	0.246
-179.027	-62.857	0.205	-0.084
-178.012	0.878	0.144	-0.103
-176.998	-200.000	0.036	-0.261
-175.983	-130.843	0.337	-0.045
-174.969	-96.360	0.207	0.054
-173.954	-118.652	0.136	0.024
-172.939	58.302	-0.082	-0.079
-171.925	125.952	0.242	-0.304
-170.910	11.355	0.243	0.184
-169.896	-200.000	0.049	0.219
-168.881	12.206	-0.150	-0.115
-167.866	203.762	-0.102	-0.157
-166.852	88.505	0.073	-0.080
-165.837	-200.000	0.019	-0.243
-164.823	270.594	0.130	-0.227
-163.808	351.742	0.087	0.170
-162.793	-57.915	-0.230	-0.100
-161.779	-22.068	0.047	-0.028
-160.764	-109.489	0.431	-0.090
-159.750	800.000	-0.039	-0.138
-158.735	177.822	-0.119	0.172
-157.720	577.338	0.147	0.356
-156.706	-58.342	-0.280	-0.121
-155.691	-136.073	0.150	0.017
-154.677	-171.886	0.113	-0.004
-153.662	-139.770	-0.108	0.011
-152.647	466.784	-0.070	0.155
-151.633	-79.110	0.195	0.066
-150.618	-125.992	0.107	-0.016
-149.604	-164.214	0.379	-0.017
-148.589	-31.958	-0.308	0.171
-147.574	13.691	0.130	0.101
-146.560	800.000	0.095	0.267
-145.545	223.207	-0.060	-0.096
-144.531	342.692	0.049	0.095
-143.516	585.139	0.047	0.115
-142.502	800.000	0.035	0.144
-141.487	9.269	0.329	0.246
-140.472	302.865	-0.182	0.333
-139.458	-136.489	-0.277	0.032
-138.443	800.000	0.080	-0.339
-137.429	-37.941	-0.313	0.165
-136.414	-200.000	0.004	0.021
-135.399	39.590	-0.206	0.183
-134.385	-59.966	0.072	-0.030
-133.370	-73.206	0.191	0.069
-132.356	-90.659	0.194	0.056
-131.341	665.855	0.042	-0.108
-130.326	69.351	-0.097	0.099
-129.312	144.378	0.144	-0.190
-128.297	-200.000	-0.017	-0.252
-127.283	-21.325	-0.062	-0.037
-126.268	-41.862	-0.132	0.067
-125.253	74.252	0.305	-0.318
-124.239	-200.000	-0.027	-0.129
-123.224	800.000	-0.022	-0.077
-122.210	-132.873	-0.155	-0.020
-121.195	-48.151	-0.235	0.112
