DTS Sentinel unit serial number:	SN413079Multiplexer serial number:	ORYXHardware model number:	OX4-SRSoftware version number:	ORYX F/W v4.00 Oryx Data Collector v3.7.2.0data status	okinstallation	princeton_trtdifferential loss correction	single-endedforward channel	channel 1reverse channel	N/Adate	2019/09/17time	02:54:36forward acquisition time	60.00reverse acquisition time	0.00gamma	496.2192k internal	0.2323k external	0.2323temperature offset calibration	0.9958default loss term (dB/km)	0.3790temperature slope calibration	1.0000multiplexer offset coefficient	1.0000multiplexer slope coefficient	1.0000fibre end	0.00T internal ref (°C)	29.92T ext. ref 1 (°C)	0.14T ext. ref 2 (°C)	24.89length (m)	temperature (°C)	Stokes	anti-Stokes-747.200	-66.175	0.100	0.040
-746.185	546.237	-0.119	0.287
-745.171	-7.903	-0.066	-0.045
-744.156	-82.593	-0.148	-0.049
-743.142	679.737	-0.096	0.254
-742.127	-165.937	-0.327	0.014
-741.112	-134.752	0.250	0.031
-740.098	415.074	-0.019	0.042
-739.083	-70.841	-0.114	-0.044
-738.069	-81.277	0.367	-0.122
-737.054	37.793	0.072	0.065
-736.039	-200.000	-0.027	-0.214
-735.025	33.616	-0.129	0.114
-734.010	45.721	0.115	-0.107
-732.996	-141.034	0.246	-0.025
-731.981	-137.444	-0.444	0.051
-730.966	-200.000	-0.030	0.187
-729.952	468.436	-0.121	0.274
-728.937	-65.256	0.272	0.111
-727.923	800.000	0.075	-0.228
-726.908	-139.843	-0.287	-0.031
-725.894	-33.222	-0.357	-0.199
-724.879	-180.111	-0.139	0.003
-723.864	-200.000	0.019	0.226
-722.850	-1.104	-0.319	-0.228
-721.835	800.000	-0.045	0.172
-720.821	-121.636	-0.174	-0.029
-719.806	553.591	-0.073	-0.176
-718.791	-74.001	-0.250	-0.091
-717.777	-131.435	0.292	0.039
-716.762	-1.625	-0.123	0.087
-715.748	7.985	-0.153	-0.116
-714.733	122.810	-0.152	0.192
-713.718	-65.954	-0.242	-0.098
-712.704	-167.109	-0.170	-0.007
-711.689	-169.793	-0.015	-0.001
-710.675	222.501	-0.129	0.210
-709.660	-15.863	-0.258	-0.166
-708.645	82.488	-0.085	-0.093
-707.631	-94.628	-0.216	0.059
-706.616	182.822	0.122	-0.181
-705.602	85.006	0.146	-0.162
-704.587	210.499	-0.258	-0.409
-703.572	-200.000	-0.049	-0.287
-702.558	-108.813	-0.184	-0.040
-701.543	-37.900	-0.077	-0.041
-700.529	346.031	0.103	0.204
-699.514	-200.000	0.026	0.153
-698.499	45.535	0.159	0.148
-697.485	32.664	-0.287	0.250
-696.470	-83.383	0.176	-0.057
-695.456	36.343	-0.316	0.281
-694.441	-32.288	0.223	0.126
-693.426	388.630	-0.091	-0.191
-692.412	-89.555	0.374	0.111
-691.397	-200.000	-0.009	-0.129
-690.383	169.970	0.026	-0.037
-689.368	-78.449	-0.141	-0.049
-688.354	33.033	-0.069	0.060
-687.339	-91.655	0.137	-0.039
-686.324	-4.616	0.293	-0.204
-685.310	-93.221	0.118	0.033
-684.295	121.595	0.144	0.180
-683.281	62.552	0.034	0.034
-682.266	9.687	-0.168	-0.128
-681.251	-37.051	0.332	0.179
-680.237	-107.069	-0.380	0.084
-679.222	399.675	0.162	-0.342
-678.208	-200.000	0.041	-0.192
-677.193	171.958	-0.171	0.248
-676.178	7.137	-0.238	-0.179
-675.164	-133.866	-0.312	-0.039
-674.149	19.506	-0.117	-0.095
-673.135	392.798	0.040	-0.083
-672.120	-99.198	0.224	0.057
-671.105	-200.000	0.012	0.162
-670.091	36.563	0.277	0.246
-669.076	-200.000	0.011	-0.187
-668.062	-79.484	0.061	0.021
-667.047	-138.692	-0.066	0.007
-666.032	-37.135	0.143	0.077
-665.018	-89.903	-0.195	0.057
-664.003	116.605	-0.063	-0.077
-662.989	800.000	0.067	0.192
-661.974	54.504	0.194	0.189
-660.959	686.313	0.065	0.172
-659.945	-47.087	-0.274	0.134
-658.930	376.771	0.033	-0.068
-657.916	-142.673	-0.263	-0.026
-656.901	41.058	0.245	0.223
-655.886	-87.462	0.197	-0.060
-654.872	147.714	-0.097	0.131
-653.857	554.898	0.065	-0.158
-652.843	218.685	-0.200	0.321
-651.828	-60.724	-0.186	-0.079
-650.814	-99.539	0.080	-0.020
-649.799	246.829	0.145	0.246
-648.784	-200.000	-0.013	0.079
-647.770	-200.000	0.041	-0.349
-646.755	-58.282	-0.256	-0.112
-645.741	652.539	-0.080	0.207
-644.726	60.212	-0.172	0.171
-643.711	292.434	-0.052	0.095
-642.697	-42.890	-0.125	0.064
-641.682	-132.157	-0.140	-0.018
-640.668	-38.457	0.222	-0.118
-639.653	213.263	0.127	0.202
-638.638	66.465	0.090	0.092
-637.624	214.488	-0.081	-0.130
-636.609	423.079	0.122	0.264
-635.595	-13.322	-0.152	-0.099
-634.580	800.000	0.032	0.135
-633.565	-200.000	0.006	0.027
-632.551	-34.819	0.080	0.044
-631.536	90.093	-0.166	-0.186
-630.522	-130.160	-0.401	-0.055
-629.507	86.241	-0.157	-0.173
-628.492	-82.203	0.056	-0.018
-627.478	-2.337	-0.145	0.102
-626.463	-200.000	-0.014	0.150
-625.449	-200.000	0.038	0.224
-624.434	445.454	0.113	-0.250
-623.419	-200.000	0.019	-0.244
-622.405	800.000	-0.033	0.128
-621.390	-200.000	-0.033	0.276
-620.376	-49.375	0.189	0.090
-619.361	211.657	-0.024	0.038
-618.346	119.962	-0.155	-0.194
-617.332	-200.000	0.037	-0.351
-616.317	-138.223	-0.420	0.047
-615.303	-200.000	-0.049	0.269
-614.288	-113.578	-0.128	-0.025
-613.273	215.830	-0.109	-0.174
-612.259	48.314	0.073	0.069
-611.244	674.699	0.116	-0.302
-610.230	-80.283	-0.344	-0.116
-609.215	-200.000	-0.036	0.215
-608.201	8.186	0.246	0.185
-607.186	76.011	-0.243	-0.258
-606.171	632.666	-0.093	-0.237
-605.157	228.833	-0.269	-0.440
-604.142	83.944	-0.164	-0.180
-603.128	-139.629	-0.295	0.032
-602.113	800.000	-0.049	-0.199
-601.098	161.318	-0.097	-0.136
-600.084	-200.000	0.010	0.155
-599.069	-200.000	-0.083	-0.714
-598.055	38.854	-0.440	0.395
-597.040	-37.274	-0.255	-0.137
-596.025	60.796	-0.215	-0.214
-595.011	25.663	-0.178	-0.149
-593.996	-42.891	0.157	0.080
-592.982	201.026	0.041	-0.063
-591.967	-50.752	-0.061	-0.029
-590.952	-200.000	-0.003	-0.087
-589.938	800.000	-0.004	0.017
-588.923	452.697	-0.089	-0.197
-587.909	-178.221	0.058	0.001
-586.894	800.000	0.082	-0.298
-585.879	95.595	-0.083	-0.096
-584.865	-200.000	0.049	0.228
-583.850	422.998	0.095	0.205
-582.836	-35.452	-0.354	-0.193
-581.821	102.892	-0.025	0.030
-580.806	-84.104	-0.186	-0.059
-579.792	21.927	-0.300	0.246
-578.777	-93.863	-0.113	-0.031
-577.763	-200.000	0.031	0.185
-576.748	24.342	0.091	0.076
-575.733	-134.863	0.190	-0.023
-574.719	-43.656	-0.376	-0.190
-573.704	-90.802	0.112	0.032
-572.690	-32.292	0.195	-0.109
-571.675	-24.170	0.186	-0.111
-570.661	-16.846	-0.186	0.118
-569.646	-200.000	-0.025	-0.157
-568.631	112.733	0.093	-0.113
-567.617	-121.117	-0.185	0.031
-566.602	-200.000	-0.016	0.077
-565.588	-141.579	0.167	-0.017
-564.573	310.688	0.150	0.282
-563.558	-62.968	-0.374	-0.155
-562.544	120.299	-0.092	0.114
-561.529	-139.470	-0.155	-0.017
-560.515	60.471	0.168	0.167
-559.500	-200.000	0.025	-0.428
-558.485	800.000	-0.053	-0.234
-557.471	800.000	0.059	-0.229
-556.456	-78.370	0.211	0.073
-555.442	-153.707	-0.059	0.004
-554.427	-0.310	0.163	0.116
-553.412	251.555	0.118	0.201
-552.398	-200.000	0.029	0.160
-551.383	-200.000	0.015	0.081
-550.369	165.577	-0.223	0.316
-549.354	-109.319	0.111	0.024
-548.339	800.000	-0.014	-0.043
-547.325	658.704	-0.114	-0.295
-546.310	-200.000	0.053	0.256
-545.296	306.461	-0.122	-0.227
-544.281	-200.000	-0.026	-0.137
-543.266	-200.000	-0.001	0.128
-542.252	-191.086	-0.214	0.002
-541.237	800.000	-0.005	0.021
-540.223	800.000	0.061	-0.231
-539.208	174.139	-0.209	-0.303
-538.193	164.999	-0.050	-0.070
-537.179	-44.822	-0.115	0.057
-536.164	-149.089	-0.166	0.013
-535.150	-200.000	-0.007	0.129
-534.135	-23.006	0.154	0.093
-533.121	-83.844	-0.087	-0.028
-532.106	93.619	0.188	0.213
-531.091	-131.535	-0.137	0.018
-530.077	-37.814	0.052	-0.028
-529.062	-131.573	-0.241	-0.032
-528.048	-200.000	0.027	-0.291
-527.033	67.501	-0.163	-0.167
-526.018	220.238	0.135	-0.217
-525.004	-20.233	0.046	0.029
-523.989	800.000	-0.049	-0.212
-522.975	465.449	-0.128	0.286
-521.960	-200.000	-0.024	-0.201
-520.945	800.000	0.081	0.323
-519.931	156.993	-0.161	0.222
-518.916	6.226	-0.216	0.161
-517.902	89.935	-0.137	-0.153
-516.887	-109.102	0.185	-0.039
-515.872	-176.039	-0.051	-0.001
-514.858	573.901	0.059	-0.145
-513.843	-200.000	-0.026	-0.250
-512.829	-200.000	0.014	-0.183
-511.814	20.486	0.071	0.057
-510.799	30.052	-0.329	0.281
-509.785	-75.645	-0.207	-0.073
-508.770	-127.247	0.196	-0.029
-507.756	175.789	-0.172	0.250
-506.741	9.041	0.323	0.244
-505.726	-96.733	0.183	-0.048
-504.712	259.181	0.032	-0.056
-503.697	-9.008	-0.100	0.067
-502.683	-200.000	-0.088	0.403
-501.668	-90.736	-0.247	0.071
-500.653	683.834	0.091	-0.239
-499.639	558.594	-0.080	-0.192
-498.624	-141.302	0.104	0.011
-497.610	-200.000	0.015	0.262
-496.595	-24.576	-0.167	0.099
-495.581	800.000	0.044	0.133
-494.566	227.516	-0.089	0.145
-493.551	16.090	-0.185	0.146
-492.537	319.678	-0.199	-0.377
-491.522	-20.631	-0.246	-0.151
-490.508	800.000	0.053	0.152
-489.493	-200.000	0.020	-0.125
-488.478	-47.440	-0.202	0.098
-487.464	203.966	0.056	0.086
-486.449	33.918	-0.183	0.159
-485.435	92.297	-0.063	0.072
-484.420	184.112	-0.071	-0.105
-483.405	402.289	-0.107	-0.224
-482.391	800.000	0.052	-0.203
-481.376	-200.000	0.037	-0.180
-480.362	196.353	-0.067	0.101
-479.347	-126.714	0.373	-0.055
-478.332	26.232	0.284	-0.237
-477.318	311.150	-0.047	-0.089
-476.303	-18.688	0.148	-0.092
-475.289	93.754	0.177	0.200
-474.274	-200.000	0.057	-0.251
-473.259	-200.000	0.038	-0.268
-472.245	-13.232	0.170	-0.110
-471.230	-28.015	-0.197	0.114
-470.216	3.084	-0.045	0.033
-469.201	-194.095	0.324	0.003
-468.186	-52.368	-0.255	-0.118
-467.172	-200.000	-0.023	-0.192
-466.157	-200.000	-0.007	0.105
-465.143	800.000	-0.006	0.017
-464.128	-50.712	0.399	-0.188
-463.113	-200.000	0.002	0.168
-462.099	161.708	-0.147	0.205
-461.084	-159.894	0.114	-0.006
-460.070	-200.000	0.043	0.214
-459.055	-120.851	0.146	0.024
-458.040	-64.176	-0.270	-0.110
-457.026	308.269	0.090	-0.167
-456.011	-200.000	-0.022	0.102
-454.997	204.864	0.131	0.203
-453.982	-6.601	0.119	-0.081
-452.968	352.845	0.041	0.081
-451.953	289.172	0.008	0.014
-450.938	-177.982	-0.144	-0.003
-449.924	-20.621	-0.189	-0.116
-448.909	339.192	-0.142	-0.276
-447.895	-10.589	-0.167	0.110
-446.880	92.440	0.179	-0.202
-445.865	70.804	0.151	-0.156
-444.851	-200.000	-0.001	0.216
-443.836	-200.000	0.032	0.251
-442.822	-41.765	0.389	0.199
-441.807	-54.321	0.145	-0.066
-440.792	232.213	-0.117	-0.191
-439.778	382.302	0.074	-0.152
-438.763	-119.411	-0.150	-0.026
-437.749	-200.000	0.025	0.136
-436.734	-109.095	-0.137	0.029
-435.719	-200.000	-0.019	-0.243
-434.705	-113.954	-0.228	0.044
-433.690	-200.000	0.315	-0.001
-432.676	-200.000	0.076	0.354
-431.661	-13.213	-0.101	-0.065
-430.646	-77.850	-0.198	-0.068
-429.632	-200.000	0.010	0.182
-428.617	-118.949	0.189	0.033
-427.603	4.725	-0.116	-0.085
-426.588	128.885	0.110	-0.140
-425.573	-6.677	0.140	0.095
-424.559	88.274	0.250	0.277
-423.544	11.089	-0.178	0.136
-422.530	-200.000	-0.008	-0.404
-421.515	-91.563	0.128	-0.036
-420.500	73.208	0.093	-0.097
-419.486	-200.000	-0.003	0.072
-418.471	-36.087	0.253	0.136
-417.457	103.615	0.101	-0.118
-416.442	40.442	-0.142	-0.127
-415.428	-200.000	-0.041	-0.484
-414.413	6.901	-0.146	-0.109
-413.398	-200.000	0.013	0.212
-412.384	347.666	0.150	0.295
-411.369	-200.000	-0.042	-0.208
-410.355	-87.446	0.269	-0.081
-409.340	-200.000	0.010	-0.075
-408.325	239.133	0.110	-0.183
-407.311	4.367	-0.013	-0.009
-406.296	-118.981	-0.377	-0.066
-405.282	-134.106	0.231	0.028
-404.267	-26.006	0.075	-0.044
-403.252	-80.764	-0.077	0.026
-402.238	22.336	0.177	0.144
-401.223	800.000	-0.071	-0.307
-400.209	-200.000	0.000	0.286
-399.194	266.647	-0.242	-0.422
-398.179	-200.000	0.025	-0.304
-397.165	-55.012	0.209	0.094
-396.150	-200.000	-0.119	0.541
-395.136	336.761	-0.105	0.204
-394.121	172.250	0.067	0.096
-393.106	-60.880	-0.120	-0.050
-392.092	-15.961	-0.203	-0.128
-391.077	-200.000	-0.064	-0.447
-390.063	581.458	-0.071	-0.174
-389.048	-200.000	0.053	-0.315
-388.033	-33.332	-0.182	0.100
-387.019	-36.316	0.255	-0.137
-386.004	21.601	-0.289	0.235
-384.990	168.600	-0.120	0.170
-383.975	174.558	0.168	-0.242
-382.960	48.937	0.200	-0.187
-381.946	445.574	0.038	-0.083
-380.931	134.543	-0.097	-0.125
-379.917	-117.147	0.238	0.043
-378.902	-200.000	-0.046	-0.287
-377.888	103.472	0.146	0.170
-376.873	-24.770	0.123	0.073
-375.858	630.499	-0.072	0.182
-374.844	154.084	-0.110	0.150
-373.829	800.000	-0.024	-0.079
-372.815	-107.374	0.107	-0.023
-371.800	16.945	-0.116	-0.092
-370.785	-200.000	-0.031	0.426
-369.771	800.000	-0.008	0.025
-368.756	81.198	-0.055	-0.059
-367.742	-200.000	-0.001	0.066
-366.727	48.837	-0.113	-0.106
-365.712	40.655	0.180	0.162
-364.698	43.866	0.250	0.228
-363.683	256.518	-0.168	0.286
-362.669	-200.000	0.033	-0.154
-361.654	-2.290	0.173	-0.120
-360.639	-70.980	0.075	-0.028
-359.625	43.864	-0.175	-0.159
-358.610	-151.293	-0.336	0.025
-357.596	-74.357	-0.104	0.037
-356.581	-158.390	0.476	0.027
-355.566	106.081	-0.202	-0.238
-354.552	-200.000	0.022	0.132
-353.537	274.862	-0.035	0.062
-352.523	-75.837	-0.344	0.121
-351.508	-95.482	0.133	0.036
-350.493	-200.000	-0.023	-0.174
-349.479	-191.110	0.071	0.001
-348.464	-115.365	0.053	-0.010
-347.450	-200.000	-0.046	0.247
-346.435	36.940	-0.172	-0.151
-345.420	-200.000	0.017	0.194
-344.406	76.853	-0.148	0.156
-343.391	-8.048	0.148	0.099
-342.377	6.070	0.384	0.283
-341.362	-200.000	-0.004	0.268
-340.348	-134.865	-0.170	0.021
-339.333	673.472	0.077	-0.198
-338.318	641.500	0.037	0.095
-337.304	-45.400	-0.270	0.133
-336.289	800.000	-0.068	0.255
-335.275	-104.096	-0.347	0.080
-334.260	-200.000	0.068	-0.317
-333.245	-200.000	0.001	-0.218
-332.231	584.461	-0.151	0.369
-331.216	32.493	0.342	0.294
-330.202	491.138	-0.072	-0.164
-329.187	-200.000	0.001	0.035
-328.172	119.300	0.124	-0.152
-327.158	-200.000	-0.018	-0.129
-326.143	218.865	0.121	-0.192
-325.129	185.979	-0.043	-0.063
-324.114	-113.139	0.125	0.025
-323.099	56.967	-0.367	0.355
-322.085	-200.000	0.009	0.310
-321.070	144.389	-0.083	0.111
-320.056	266.695	-0.073	0.126
-319.041	-45.194	0.138	-0.068
-318.026	315.672	-0.026	-0.048
-317.012	-200.000	-0.013	0.073
-315.997	800.000	0.041	0.165
-314.983	-200.000	-0.020	0.215
-313.968	-9.974	0.202	-0.134
-312.953	276.610	0.215	-0.379
-311.939	-117.812	0.316	0.056
-310.924	-200.000	-0.030	0.399
-309.910	-138.483	-0.199	0.022
-308.895	-38.583	0.265	0.139
-307.880	-200.000	0.019	-0.137
-306.866	-69.453	0.145	0.055
-305.851	-17.292	-0.171	-0.107
-304.837	-120.518	-0.123	0.021
-303.822	82.663	-0.070	0.076
-302.807	-200.000	0.028	-0.323
-301.793	122.352	0.127	0.158
-300.778	-62.136	-0.077	-0.032
-299.764	-200.000	0.023	-0.311
-298.749	-46.323	0.122	-0.060
-297.735	-99.576	0.198	0.049
-296.720	337.112	0.162	0.313
-295.705	-200.000	0.013	0.113
-294.691	-64.622	0.204	0.082
-293.676	-200.000	-0.027	0.378
-292.662	-200.000	-0.002	-0.082
-291.647	-114.684	-0.090	0.017
-290.632	-65.697	0.105	0.042
-289.618	41.347	0.213	0.191
-288.603	-200.000	0.005	-0.203
-287.589	-60.887	-0.288	-0.121
-286.574	-130.456	0.230	0.031
-285.559	163.999	0.249	-0.348
-284.545	-194.306	-0.241	-0.002
-283.530	-200.000	0.039	-0.235
-282.516	320.783	-0.033	-0.062
-281.501	-61.180	0.210	-0.088
-280.486	-200.000	0.001	-0.092
-279.472	-130.535	-0.118	0.016
-278.457	-200.000	0.061	0.287
-277.443	-200.000	0.060	0.350
-276.428	-93.003	0.172	0.047
-275.413	-60.264	-0.208	-0.088
-274.399	-200.000	0.022	0.497
-273.384	-71.302	-0.095	-0.035
-272.370	71.177	0.158	0.162
-271.355	-200.000	-0.018	0.128
-270.340	11.903	-0.214	-0.163
-269.326	499.281	-0.144	-0.329
-268.311	265.115	0.150	0.259
-267.297	73.483	0.183	0.190
-266.282	-200.000	0.010	-0.075
-265.267	-126.935	-0.082	0.012
-264.253	-49.093	0.468	-0.222
-263.238	-113.956	0.233	0.045
-262.224	-18.352	-0.210	0.130
-261.209	-55.697	0.084	-0.037
-260.195	-132.123	0.188	0.024
-259.180	-189.281	-0.473	0.006
-258.165	-45.098	-0.120	-0.059
-257.151	2.378	0.301	0.216
-256.136	-28.038	0.156	0.089
-255.122	106.612	-0.214	-0.251
-254.107	800.000	-0.044	-0.130
-253.092	-200.000	-0.002	-0.040
-252.078	-6.747	0.080	-0.054
-251.063	-125.034	0.211	-0.032
-250.049	-200.000	-0.017	-0.200
-249.034	-187.658	0.304	-0.004
-248.019	-11.466	0.162	0.106
-247.005	4.163	0.276	0.200
-245.990	-34.195	-0.234	-0.127
-244.976	155.926	0.127	-0.173
-243.961	-46.978	0.287	-0.139
-242.946	-39.473	0.250	-0.130
-241.932	35.022	-0.180	0.156
-240.917	800.000	0.011	-0.043
-239.903	-15.629	0.246	-0.156
-238.888	-118.511	-0.058	-0.010
-237.873	3.908	-0.189	-0.137
-236.859	-31.408	-0.191	0.106
-235.844	-186.731	0.245	0.003
-234.830	99.779	0.176	0.202
-233.815	75.602	-0.089	-0.093
-232.800	154.106	-0.063	-0.086
-231.786	-63.093	-0.086	-0.035
-230.771	66.214	0.031	-0.031
-229.757	-78.528	-0.141	-0.048
-228.742	800.000	0.085	-0.367
-227.727	-131.188	-0.073	0.010
-226.713	433.727	0.052	0.111
-225.698	800.000	-0.043	0.167
-224.684	-200.000	0.009	0.298
-223.669	-119.238	-0.169	0.029
-222.655	-90.965	-0.068	0.019
-221.640	-200.000	-0.034	0.264
-220.625	-119.652	0.113	-0.019
-219.611	-43.859	0.177	-0.088
-218.596	-94.702	-0.293	0.079
-217.582	-55.544	0.375	-0.166
-216.567	-161.824	0.216	0.011
-215.552	121.022	0.243	-0.299
-214.538	-143.478	0.221	0.021
-213.523	-200.000	0.009	0.164
-212.509	-101.709	0.213	-0.051
-211.494	-34.759	0.206	0.111
-210.479	305.226	-0.189	0.348
-209.465	-170.770	0.201	-0.007
-208.450	-105.061	-0.138	-0.031
-207.436	-27.869	0.247	-0.141
-206.421	-18.699	0.438	-0.270
-205.406	46.735	-0.269	0.247
-204.392	800.000	-0.043	-0.149
-203.377	106.293	0.070	-0.082
-202.363	800.000	-0.075	-0.305
-201.348	17.199	-0.334	0.262
-200.333	-61.825	0.498	0.206
-199.319	-27.224	-0.103	0.059
-198.304	624.724	-0.075	-0.188
-197.290	800.000	-0.070	0.228
-196.275	-120.623	0.063	-0.011
-195.260	305.729	0.080	0.147
-194.246	-200.000	0.020	0.469
-193.231	12.439	-0.098	0.075
-192.217	-200.000	0.042	-0.295
-191.202	-200.000	-0.006	0.131
-190.187	71.699	-0.074	-0.076
-189.173	66.315	-0.126	0.127
-188.158	-200.000	-0.007	0.137
-187.144	-76.216	0.277	0.097
-186.129	44.297	0.130	0.118
-185.114	800.000	0.062	0.182
-184.100	20.384	-0.088	0.070
-183.085	395.164	-0.075	0.155
-182.071	72.357	-0.164	-0.169
-181.056	77.270	-0.039	-0.041
-180.042	-58.035	-0.213	-0.092
-179.027	-80.871	0.071	-0.023
-178.012	-45.120	-0.199	-0.098
-176.998	-61.505	0.209	0.087
-175.983	-16.951	0.169	0.106
-174.969	-118.961	0.498	0.086
-173.954	93.700	-0.160	0.179
-172.939	-101.390	0.292	-0.070
-171.925	103.459	0.269	0.312
-170.910	273.317	-0.196	0.342
-169.896	-44.873	-0.036	-0.017
-168.881	743.431	0.030	0.081
-167.866	-191.452	0.257	0.003
-166.852	40.616	0.198	0.176
-165.837	800.000	-0.066	0.202
-164.823	-200.000	-0.054	-0.363
-163.808	785.988	-0.078	0.212
-162.793	-68.962	0.162	-0.062
-161.779	-53.411	0.393	-0.177
-160.764	263.643	-0.242	-0.416
-159.750	-200.000	0.031	-0.210
-158.735	588.382	0.075	0.181
-157.720	800.000	-0.170	0.492
-156.706	-200.000	0.041	-0.274
-155.691	-200.000	-0.023	0.150
-154.677	136.500	-0.256	-0.329
-153.662	665.256	0.042	-0.106
-152.647	461.831	-0.109	-0.240
-151.633	395.306	0.079	0.162
-150.618	-200.000	0.029	0.215
-149.604	-77.795	0.105	0.036
-148.589	4.145	-0.216	-0.156
-147.574	800.000	-0.128	0.466
-146.560	72.832	-0.233	0.240
-145.545	-97.711	-0.446	0.114
-144.531	761.389	-0.004	0.010
-143.516	-200.000	0.018	0.348
-142.502	401.735	-0.090	0.186
-141.487	-61.247	0.063	-0.026
-140.472	-200.000	0.050	0.269
-139.458	37.677	-0.169	0.148
-138.443	137.460	-0.286	-0.369
-137.429	-61.061	-0.175	-0.073
-136.414	-200.000	-0.031	0.218
-135.399	-200.000	0.038	0.364
-134.385	-22.626	0.102	-0.061
-133.370	-42.193	0.220	0.111
-132.356	128.039	-0.127	0.159
-131.341	81.891	0.150	0.160
-130.326	34.557	0.227	0.195
-129.312	800.000	-0.131	-0.359
-128.297	-127.606	0.342	-0.049
-127.283	243.942	0.125	0.206
-126.268	-106.036	0.096	0.021
-125.253	-200.000	-0.001	-0.087
-124.239	800.000	-0.065	0.183
-123.224	-115.936	-0.395	-0.073
-122.210	-43.794	-0.156	0.077
-121.195	-44.411	0.081	0.040
