DTS Sentinel unit serial number:	SN413079Multiplexer serial number:	ORYXHardware model number:	OX4-SRSoftware version number:	ORYX F/W v4.00 Oryx Data Collector v3.7.2.0data status	okinstallation	princeton_trtdifferential loss correction	single-endedforward channel	channel 1reverse channel	N/Adate	2019/09/18time	19:18:35forward acquisition time	60.00reverse acquisition time	0.00gamma	496.2192k internal	0.2319k external	0.2319temperature offset calibration	1.0034default loss term (dB/km)	0.3790temperature slope calibration	1.0000multiplexer offset coefficient	1.0000multiplexer slope coefficient	1.0000fibre end	0.00T internal ref (°C)	34.09T ext. ref 1 (°C)	1.09T ext. ref 2 (°C)	23.39length (m)	temperature (°C)	Stokes	anti-Stokes-747.200	717.647	-0.127	0.340
-746.185	800.000	0.159	0.637
-745.171	60.810	0.115	-0.116
-744.156	800.000	-0.056	0.197
-743.142	-200.000	-0.027	-0.284
-742.127	243.920	-0.211	0.358
-741.112	472.971	-0.158	0.360
-740.098	-200.000	-0.007	0.041
-739.083	-36.055	0.363	-0.199
-738.069	800.000	-0.036	0.134
-737.054	46.061	-0.191	-0.179
-736.039	219.344	0.108	-0.175
-735.025	800.000	0.073	0.232
-734.010	-33.004	-0.434	-0.244
-732.996	-31.911	0.165	-0.094
-731.981	800.000	-0.081	0.269
-730.966	56.938	0.309	-0.304
-729.952	-67.249	-0.080	0.032
-728.937	215.075	0.141	-0.227
-727.923	-7.454	0.099	-0.068
-726.908	-141.785	0.153	-0.016
-725.894	47.325	-0.269	-0.253
-724.879	-20.894	-0.139	-0.086
-723.864	800.000	0.080	-0.307
-722.850	-4.277	0.039	-0.027
-721.835	-200.000	-0.011	0.072
-720.821	24.177	-0.086	-0.072
-719.806	374.481	-0.068	-0.140
-718.791	397.167	-0.047	0.100
-717.777	-18.707	0.233	-0.147
-716.762	-200.000	0.012	-0.172
-715.748	800.000	0.032	0.113
-714.733	-173.988	0.261	0.008
-713.718	144.798	0.156	-0.211
-712.704	438.174	-0.015	-0.034
-711.689	-200.000	0.065	0.334
-710.675	691.516	-0.067	-0.179
-709.660	-88.115	0.206	0.062
-708.645	-55.145	0.076	0.035
-707.631	-29.057	0.389	0.225
-706.616	579.980	-0.171	-0.424
-705.602	132.616	-0.265	-0.345
-704.587	196.046	-0.242	-0.372
-703.572	-50.379	-0.333	0.159
-702.558	58.996	-0.330	0.328
-701.543	-89.939	0.308	-0.091
-700.529	65.085	-0.257	0.262
-699.514	365.653	0.044	-0.089
-698.499	-114.437	0.119	-0.023
-697.485	6.679	-0.157	-0.118
-696.470	221.294	0.178	0.289
-695.456	-94.309	-0.114	0.032
-694.441	800.000	0.124	0.516
-693.426	-114.097	0.506	0.099
-692.412	-122.864	-0.335	-0.055
-691.397	-200.000	-0.033	-0.224
-690.383	-109.010	-0.155	0.033
-689.368	-0.902	0.250	0.179
-688.354	18.985	-0.128	-0.103
-687.339	211.492	-0.196	-0.311
-686.324	-76.879	0.209	-0.074
-685.310	-200.000	-0.008	-0.201
-684.295	103.348	-0.216	-0.256
-683.281	225.391	-0.033	0.054
-682.266	-54.624	-0.253	-0.116
-681.251	6.134	-0.197	-0.147
-680.237	73.275	0.224	0.237
-679.222	49.981	0.183	-0.175
-678.208	384.427	0.173	0.359
-677.193	88.778	-0.157	-0.176
-676.178	48.440	0.083	0.079
-675.164	34.437	0.274	-0.242
-674.149	-76.935	0.120	0.042
-673.135	16.629	0.256	0.204
-672.120	800.000	0.061	0.195
-671.105	-77.123	0.131	0.046
-670.091	178.068	-0.139	0.204
-669.076	184.938	0.078	0.117
-668.062	-188.036	-0.385	-0.005
-667.047	331.293	0.120	-0.233
-666.032	341.713	-0.057	-0.113
-665.018	371.673	-0.053	-0.108
-664.003	-76.660	0.294	0.104
-662.989	-169.045	-0.383	-0.014
-661.974	800.000	0.021	0.083
-660.959	-6.766	-0.171	0.117
-659.945	276.140	-0.078	-0.139
-658.930	-200.000	0.003	-0.171
-657.916	-141.230	-0.036	-0.004
-656.901	-137.096	-0.232	-0.027
-655.886	285.214	0.233	-0.424
-654.872	127.581	0.105	-0.135
-653.857	80.375	0.258	-0.280
-652.843	299.558	0.065	-0.121
-651.828	423.637	0.063	-0.137
-650.814	165.296	-0.123	0.174
-649.799	800.000	-0.085	0.287
-648.784	493.649	-0.034	-0.079
-647.770	800.000	-0.049	-0.158
-646.755	-54.441	0.304	-0.139
-645.741	-22.255	-0.175	-0.107
-644.726	181.227	-0.124	-0.184
-643.711	-200.000	0.002	-0.332
-642.697	-92.890	0.135	0.038
-641.682	-13.949	-0.106	0.069
-640.668	45.117	-0.103	-0.096
-639.653	800.000	0.036	-0.142
-638.638	-127.800	-0.244	0.035
-637.624	85.372	-0.159	0.176
-636.609	-200.000	-0.073	-0.343
-635.595	-133.490	-0.238	-0.030
-634.580	-200.000	0.028	0.250
-633.565	341.378	0.147	0.289
-632.551	-200.000	0.026	-0.123
-631.536	-200.000	0.043	-0.385
-630.522	-92.015	-0.106	-0.030
-629.507	-200.000	0.008	-0.063
-628.492	800.000	-0.095	-0.377
-627.478	262.077	-0.070	0.123
-626.463	211.920	-0.124	0.196
-625.449	800.000	-0.065	-0.203
-624.434	-181.051	-0.287	-0.006
-623.419	300.263	0.131	0.243
-622.405	187.956	-0.149	-0.224
-621.390	5.551	-0.398	-0.296
-620.376	-117.714	0.132	0.024
-619.361	251.472	-0.101	0.173
-618.346	-17.565	-0.147	-0.093
-617.332	-101.300	-0.172	0.042
-616.317	-200.000	-0.055	0.509
-615.303	-74.738	-0.084	-0.031
-614.288	67.617	-0.107	0.110
-613.273	206.857	0.182	0.285
-612.259	59.327	-0.203	0.201
-611.244	-200.000	-0.001	-0.025
-610.230	-200.000	0.008	-0.139
-609.215	-200.000	0.043	-0.193
-608.201	-38.843	-0.337	0.179
-607.186	226.218	0.057	0.092
-606.171	3.934	0.255	-0.188
-605.157	60.279	0.160	0.159
-604.142	-67.335	-0.178	0.070
-603.128	-200.000	-0.029	-0.470
-602.113	-137.541	-0.366	-0.042
-601.098	-0.473	0.239	-0.171
-600.084	134.912	0.189	-0.246
-599.069	36.383	0.191	-0.170
-598.055	-186.743	0.441	0.006
-597.040	16.587	-0.299	0.237
-596.025	497.653	-0.084	0.195
-595.011	-83.511	0.356	-0.114
-593.996	-73.392	0.197	0.073
-592.982	678.780	-0.037	-0.096
-591.967	95.541	0.305	-0.350
-590.952	-200.000	0.007	0.050
-589.938	-178.988	-0.150	0.003
-588.923	205.155	-0.050	0.078
-587.909	-70.863	0.314	-0.119
-586.894	-54.258	0.356	-0.163
-585.879	1.586	0.096	0.070
-584.865	150.292	-0.151	-0.206
-583.850	-142.522	-0.137	-0.014
-582.836	77.551	0.239	0.256
-581.821	14.291	-0.274	0.215
-580.806	-13.790	-0.176	0.114
-579.792	133.269	-0.151	0.197
-578.777	-84.738	-0.319	0.101
-577.763	24.857	0.160	-0.134
-576.748	-77.443	0.094	0.033
-575.733	-200.000	0.036	-0.172
-574.719	-200.000	0.008	-0.224
-573.704	-126.897	-0.309	0.046
-572.690	78.512	-0.129	0.139
-571.675	93.043	0.091	0.104
-570.661	800.000	0.116	0.349
-569.646	-157.731	-0.370	0.022
-568.631	-2.400	-0.252	-0.177
-567.617	-200.000	0.007	-0.277
-566.602	278.645	0.119	0.213
-565.588	-125.099	0.234	-0.036
-564.573	-115.979	-0.322	-0.060
-563.558	800.000	-0.046	0.163
-562.544	-80.341	-0.201	-0.067
-561.529	53.873	-0.480	0.463
-560.515	-31.940	-0.307	-0.173
-559.500	-27.659	0.075	-0.044
-558.485	25.409	0.090	-0.075
-557.471	649.722	-0.120	-0.308
-556.456	-200.000	-0.033	0.193
-555.442	98.319	-0.059	0.068
-554.427	-155.813	0.343	0.022
-553.412	-65.472	0.218	0.088
-552.398	800.000	0.055	-0.194
-551.383	-200.000	0.032	0.195
-550.369	-133.372	0.216	0.027
-549.354	-200.000	-0.334	0.001
-548.339	-191.028	-0.110	-0.001
-547.325	-55.969	0.150	0.067
-546.310	-65.591	-0.302	-0.122
-545.296	262.875	0.060	0.104
-544.281	-81.465	0.091	0.030
-543.266	253.226	0.187	-0.320
-542.252	87.400	-0.074	0.083
-541.237	-132.928	-0.283	0.036
-540.223	-17.524	0.182	0.115
-539.208	122.582	-0.033	0.042
-538.193	-200.000	-0.018	-0.134
-537.179	-125.657	-0.179	-0.027
-536.164	-142.074	0.102	0.010
-535.150	-200.000	-0.013	0.114
-534.135	429.123	0.148	0.322
-533.121	467.858	0.168	-0.378
-532.106	-74.669	0.279	-0.101
-531.091	-17.768	-0.404	-0.255
-530.077	800.000	0.072	0.238
-529.062	-62.785	-0.096	0.040
-528.048	-94.233	0.263	0.072
-527.033	64.448	0.312	0.315
-526.018	-80.608	-0.307	0.102
-525.004	-19.784	0.012	-0.008
-523.989	551.023	-0.119	0.287
-522.975	-4.247	0.198	0.137
-521.960	-65.733	0.223	0.090
-520.945	789.984	0.076	0.211
-519.931	-200.000	0.023	-0.102
-518.916	800.000	0.068	0.213
-517.902	-164.866	-0.235	0.011
-516.887	-59.593	0.251	0.108
-515.872	202.427	0.120	0.185
-514.858	-3.966	-0.170	0.118
-513.843	800.000	-0.030	0.097
-512.829	-200.000	0.011	-0.529
-511.814	303.223	-0.185	-0.343
-510.799	596.518	-0.078	-0.194
-509.785	-63.314	-0.328	0.135
-508.770	800.000	-0.089	-0.268
-507.756	375.369	-0.082	-0.169
-506.741	10.322	-0.226	-0.173
-505.726	-92.383	-0.121	-0.034
-504.712	75.060	-0.125	-0.132
-503.697	120.315	-0.166	0.206
-502.683	136.001	0.139	0.182
-501.668	233.599	0.111	-0.183
-500.653	-58.958	-0.309	0.134
-499.639	800.000	-0.029	0.107
-498.624	-85.260	0.422	0.132
-497.610	71.947	0.175	0.183
-496.595	-91.769	0.211	-0.060
-495.581	-197.088	-0.178	-0.001
-494.566	-66.514	-0.173	0.069
-493.551	-29.681	-0.135	0.077
-492.537	266.448	0.238	-0.417
-491.522	280.729	-0.178	0.320
-490.508	24.930	-0.156	-0.129
-489.493	-200.000	-0.062	-0.360
-488.478	-87.486	0.060	0.018
-487.464	21.154	-0.168	-0.137
-486.449	-145.169	-0.065	-0.006
-485.435	-200.000	-0.004	-0.168
-484.420	211.246	-0.050	0.079
-483.405	-16.819	-0.193	0.122
-482.391	165.767	-0.188	0.266
-481.376	-141.888	0.369	0.037
-480.362	574.582	0.010	0.025
-479.347	473.562	-0.117	-0.263
-478.332	-200.000	0.001	0.106
-477.318	-200.000	-0.041	0.260
-476.303	-30.265	-0.388	-0.221
-475.289	-151.011	-0.064	-0.005
-474.274	5.693	0.103	-0.077
-473.259	800.000	-0.023	-0.064
-472.245	1.516	0.088	-0.064
-471.230	800.000	0.059	0.235
-470.216	-104.078	0.256	-0.060
-469.201	144.979	0.153	0.205
-468.186	-105.611	0.132	-0.030
-467.172	-43.408	-0.407	-0.206
-466.157	-96.996	0.304	-0.080
-465.143	249.441	0.088	-0.149
-464.128	-70.575	0.019	0.007
-463.113	-200.000	-0.048	0.307
-462.099	-200.000	0.001	-0.052
-461.084	-200.000	0.001	-0.043
-460.070	116.509	0.187	-0.229
-459.055	-200.000	0.015	0.079
-458.040	88.871	-0.065	0.072
-457.026	-200.000	0.014	-0.309
-456.011	-34.357	0.132	0.072
-454.997	798.376	-0.112	0.310
-453.982	314.628	-0.045	-0.085
-452.968	405.629	0.127	0.267
-451.953	208.649	0.198	0.310
-450.938	563.163	-0.078	0.190
-449.924	-8.481	-0.334	-0.224
-448.909	72.156	0.164	-0.170
-447.895	-183.885	0.326	-0.005
-446.880	-153.135	0.045	0.003
-445.865	-100.294	0.244	0.061
-444.851	570.118	-0.069	0.167
-443.836	76.209	-0.123	-0.130
-442.822	-22.864	0.054	-0.033
-441.807	-136.934	0.492	0.056
-440.792	-171.731	-0.310	-0.010
-439.778	512.832	0.060	-0.139
-438.763	118.513	0.111	-0.137
-437.749	171.795	-0.137	-0.196
-436.734	-116.203	0.321	-0.059
-435.719	1.415	0.123	-0.088
-434.705	800.000	0.079	0.338
-433.690	-143.765	-0.293	0.028
-432.676	-200.000	0.027	0.226
-431.661	-139.110	-0.131	-0.014
-430.646	126.028	0.061	-0.077
-429.632	48.128	-0.253	-0.236
-428.617	93.374	-0.165	-0.186
-427.603	-38.763	0.040	0.021
-426.588	-126.326	0.128	0.019
-425.573	-200.000	0.028	0.156
-424.559	-200.000	-0.022	0.122
-423.544	-9.193	0.198	-0.132
-422.530	-113.332	-0.135	-0.027
-421.515	-200.000	-0.045	-0.219
-420.500	-28.095	-0.119	0.069
-419.486	156.719	-0.243	-0.335
-418.471	669.742	0.130	-0.336
-417.457	50.273	0.196	-0.185
-416.442	36.786	-0.238	-0.210
-415.428	-69.557	-0.068	-0.026
-414.413	-104.711	0.243	-0.056
-413.398	784.737	0.047	0.128
-412.384	-200.000	-0.001	-0.462
-411.369	-200.000	0.024	0.218
-410.355	-1.304	0.151	0.106
-409.340	-200.000	-0.041	0.537
-408.325	33.711	-0.269	-0.234
-407.311	-200.000	0.001	0.245
-406.296	-200.000	0.050	0.281
-405.282	-80.439	-0.432	-0.144
-404.267	-155.559	0.139	0.009
-403.252	213.988	0.082	0.130
-402.238	-155.924	-0.092	0.006
-401.223	800.000	0.021	0.073
-400.209	-74.877	-0.116	0.042
-399.194	-34.032	0.287	0.158
-398.179	-52.950	-0.079	0.036
-397.165	9.270	0.194	-0.147
-396.150	800.000	0.039	-0.154
-395.136	450.643	-0.068	-0.149
-394.121	-100.239	0.188	-0.047
-393.106	-55.055	0.115	0.052
-392.092	-108.242	0.182	-0.039
-391.077	-49.685	0.357	-0.169
-390.063	-154.482	0.335	-0.022
-389.048	77.090	-0.178	0.189
-388.033	-200.000	0.025	0.119
-387.019	-200.000	-0.013	0.399
-386.004	-18.917	-0.066	-0.041
-384.990	-200.000	0.009	-0.071
-383.975	-200.000	0.004	0.137
-382.960	-10.475	0.221	0.146
-381.946	79.653	-0.170	-0.182
-380.931	-49.819	0.094	-0.045
-379.917	-125.595	0.174	0.026
-378.902	-140.248	0.290	-0.030
-377.888	-97.938	0.105	-0.027
-376.873	-200.000	-0.042	0.000
-375.858	-25.949	0.276	-0.162
-374.844	-200.000	0.011	0.074
-373.829	9.653	-0.186	0.141
-372.815	-117.312	-0.103	-0.019
-371.800	32.050	-0.225	0.194
-370.785	-200.000	0.063	0.427
-369.771	-23.881	-0.152	-0.090
-368.756	-200.000	-0.072	-0.355
-367.742	-5.075	-0.159	-0.109
-366.727	-200.000	-0.007	0.037
-365.712	93.722	0.263	0.297
-364.698	137.827	0.186	0.242
-363.683	54.853	-0.190	0.183
-362.669	-200.000	-0.004	-0.067
-361.654	-200.000	0.023	-0.163
-360.639	800.000	-0.025	-0.092
-359.625	-111.376	0.257	0.052
-358.610	-200.000	0.060	0.584
-357.596	82.041	-0.170	0.183
-356.581	96.214	0.108	0.123
-355.566	-103.902	-0.072	0.017
-354.552	-22.799	0.112	0.067
-353.537	-54.814	0.057	0.026
-352.523	-200.000	0.009	0.188
-351.508	489.214	-0.171	-0.389
-350.493	-95.459	0.184	0.049
-349.479	346.676	0.071	0.140
-348.464	31.916	-0.146	0.125
-347.450	-200.000	0.002	0.326
-346.435	-105.946	-0.091	-0.020
-345.420	-200.000	-0.028	0.168
-344.406	284.495	-0.181	0.325
-343.391	-200.000	-0.152	-0.001
-342.377	-200.000	-0.016	-0.304
-341.362	-127.765	-0.276	-0.040
-340.348	-70.507	0.089	0.034
-339.333	-9.410	0.379	-0.252
-338.318	-163.411	0.266	-0.013
-337.304	162.950	0.145	0.203
-336.289	-200.000	0.040	0.213
-335.275	111.752	-0.161	-0.193
-334.260	335.286	-0.102	-0.197
-333.245	-6.886	0.029	-0.019
-332.231	-193.902	-0.391	0.003
-331.216	-155.798	0.151	-0.010
-330.202	141.741	0.197	-0.259
-329.187	116.710	-0.042	-0.051
-328.172	-170.452	-0.269	0.009
-327.158	70.356	0.293	-0.302
-326.143	136.487	-0.148	-0.192
-325.129	-200.000	0.011	-0.473
-324.114	-108.573	-0.106	-0.023
-323.099	187.399	-0.076	0.113
-322.085	-200.000	-0.024	0.124
-321.070	-78.898	0.236	0.080
-320.056	398.466	0.046	-0.095
-319.041	53.830	-0.128	-0.122
-318.026	-156.042	-0.261	0.016
-317.012	-200.000	0.032	0.346
-315.997	-143.713	0.356	0.034
-314.983	-133.366	0.135	-0.017
-313.968	291.357	-0.078	0.142
-312.953	-200.000	-0.050	0.329
-311.939	276.279	0.291	0.515
-310.924	-112.514	-0.088	0.017
-309.910	-185.754	-0.498	-0.007
-308.895	-168.013	-0.117	-0.005
-307.880	-75.953	0.150	0.053
-306.866	-98.412	0.262	0.067
-305.851	238.656	-0.195	0.323
-304.837	-200.000	-0.020	-0.106
-303.822	311.057	-0.097	0.181
-302.807	-115.964	-0.259	0.048
-301.793	-159.052	0.179	0.010
-300.778	-200.000	-0.001	0.108
-299.764	-132.581	0.156	0.020
-298.749	-189.499	-0.292	-0.003
-297.735	22.236	-0.153	-0.124
-296.720	-126.341	-0.179	0.027
-295.705	312.486	0.158	0.294
-294.691	-55.401	0.100	0.045
-293.676	107.653	-0.237	-0.280
-292.662	25.718	-0.060	0.050
-291.647	22.664	-0.120	-0.098
-290.632	-200.000	-0.006	-0.196
-289.618	647.554	-0.043	0.110
-288.603	416.504	-0.039	0.083
-287.589	-46.073	0.132	0.065
-286.574	-98.166	-0.164	-0.042
-285.559	-43.263	-0.140	-0.070
-284.545	419.285	0.084	0.179
-283.530	8.533	0.048	-0.036
-282.516	800.000	-0.060	-0.166
-281.501	-155.576	0.420	0.027
-280.486	800.000	0.052	-0.168
-279.472	-84.342	-0.177	0.055
-278.457	-86.797	0.015	-0.005
-277.443	-58.435	-0.149	-0.064
-276.428	105.945	-0.157	-0.185
-275.413	-101.544	-0.217	0.053
-274.399	-200.000	-0.009	0.058
-273.384	40.808	0.115	0.103
-272.370	-200.000	0.021	-0.258
-271.355	-55.015	-0.077	0.035
-270.340	-23.312	0.322	0.192
-269.326	-135.185	0.200	0.024
-268.311	800.000	0.076	-0.240
-267.297	259.759	0.018	-0.031
-266.282	800.000	-0.028	-0.119
-265.267	123.368	-0.078	-0.097
-264.253	177.068	-0.193	-0.278
-263.238	170.474	-0.171	-0.243
-262.224	-39.370	0.361	-0.188
-261.209	-99.733	-0.055	0.014
-260.195	2.260	-0.185	-0.132
-259.180	138.368	0.068	0.089
-258.165	-73.862	0.103	0.037
-257.151	-91.664	0.052	0.015
-256.136	138.070	0.228	0.296
-255.122	6.950	0.061	0.045
-254.107	-153.556	0.146	-0.010
-253.092	45.147	-0.119	-0.109
-252.078	-115.433	-0.221	0.041
-251.063	-141.504	0.061	0.006
-250.049	-163.138	0.331	-0.016
-249.034	133.741	-0.104	0.133
-248.019	800.000	-0.101	0.365
-247.005	-74.967	-0.212	0.076
-245.990	-15.322	0.059	0.038
-244.976	-200.000	0.027	-0.309
-243.961	283.509	0.134	0.239
-242.946	-119.800	-0.345	-0.059
-241.932	-80.947	0.337	-0.111
-240.917	306.937	0.181	0.334
-239.903	-200.000	-0.021	0.362
-238.888	-76.538	-0.196	-0.068
-237.873	631.666	0.205	-0.515
-236.859	12.458	0.203	0.155
-235.844	-200.000	0.013	-0.153
-234.830	800.000	0.116	-0.414
-233.815	-133.201	0.297	-0.037
-232.800	-200.000	-0.037	-0.169
-231.786	-200.000	0.022	-0.245
-230.771	-200.000	0.011	-0.051
-229.757	-34.690	0.153	-0.083
-228.742	53.789	0.206	-0.196
-227.727	61.663	-0.322	0.318
-226.713	-135.537	0.190	0.022
-225.698	-200.000	-0.005	-0.135
-224.684	-65.708	-0.122	0.048
-223.669	-69.005	0.418	0.160
-222.655	-68.284	0.174	0.067
-221.640	-200.000	0.002	-0.160
-220.625	-200.000	0.125	-0.564
-219.611	-145.353	0.075	0.007
-218.596	-36.011	0.144	0.077
-217.582	-149.376	-0.137	-0.011
-216.567	-200.000	0.037	-0.278
-215.552	130.237	-0.076	0.097
-214.538	97.331	0.009	-0.011
-213.523	-200.000	0.073	-0.462
-212.509	-86.959	-0.128	-0.039
-211.494	8.811	0.069	0.052
-210.479	9.315	-0.177	0.133
-209.465	800.000	0.040	-0.167
-208.450	691.440	-0.067	0.175
-207.436	709.057	-0.115	0.301
-206.421	-68.580	-0.066	-0.025
-205.406	-23.948	-0.232	0.138
-204.392	-84.017	-0.350	0.110
-203.377	264.314	-0.032	-0.055
-202.363	276.471	-0.198	-0.348
-201.348	120.010	0.261	-0.320
-200.333	374.367	0.056	0.113
-199.319	122.353	0.107	-0.133
-198.304	-79.689	0.307	-0.102
-197.290	436.478	-0.161	0.347
-196.275	683.775	0.182	0.470
-195.260	-54.585	0.374	0.168
-194.246	116.827	0.090	0.109
-193.231	-81.875	-0.203	0.066
-192.217	24.992	0.090	0.074
-191.202	-107.038	0.108	-0.024
-190.187	800.000	-0.027	0.073
-189.173	-130.172	-0.180	-0.024
-188.158	5.356	0.330	-0.241
-187.144	-156.327	0.394	-0.024
-186.129	-184.697	0.187	-0.003
-185.114	-62.455	0.253	0.104
-184.100	11.374	0.252	-0.191
-183.085	241.107	0.168	-0.278
-182.071	203.418	-0.111	-0.170
-181.056	603.374	-0.139	0.341
-180.042	-115.110	0.144	0.027
-179.027	128.737	-0.140	0.177
-178.012	-200.000	-0.012	0.153
-176.998	-200.000	0.044	-0.204
-175.983	800.000	0.026	0.079
-174.969	-104.792	-0.125	-0.028
-173.954	539.015	-0.116	-0.273
-172.939	109.293	-0.116	-0.137
-171.925	782.405	0.125	0.340
-170.910	-172.775	-0.121	0.004
-169.896	-130.061	0.184	-0.025
-168.881	-112.481	0.234	-0.046
-167.866	68.516	0.205	-0.208
-166.852	-20.874	-0.121	-0.073
-165.837	-55.036	-0.220	-0.098
-164.823	234.927	-0.048	0.079
-163.808	-151.745	-0.365	-0.027
-162.793	103.638	0.114	0.133
-161.779	686.228	0.073	-0.188
-160.764	364.944	-0.127	-0.253
-159.750	67.498	0.212	0.214
-158.735	-90.707	-0.113	-0.032
-157.720	800.000	-0.085	0.252
-156.706	740.819	-0.092	0.244
-155.691	-62.632	-0.237	0.097
-154.677	-26.639	-0.201	0.116
-153.662	-10.489	0.019	-0.012
-152.647	-200.000	-0.002	-0.083
-151.633	-200.000	0.041	-0.178
-150.618	624.173	-0.159	-0.395
-149.604	-200.000	0.024	-0.148
-148.589	623.525	-0.109	0.270
-147.574	-200.000	-0.002	-0.098
-146.560	-123.299	0.180	-0.028
-145.545	355.635	0.061	-0.120
-144.531	66.207	-0.174	-0.175
-143.516	40.992	-0.115	0.103
-142.502	-200.000	0.016	0.070
-141.487	733.901	0.158	0.418
-140.472	77.427	0.104	0.110
-139.458	166.614	-0.081	0.113
-138.443	-200.000	-0.002	-0.488
-137.429	333.792	-0.041	-0.078
-136.414	599.778	-0.055	-0.134
-135.399	359.315	0.070	0.138
-134.385	-124.176	-0.303	-0.047
-133.370	45.985	0.229	0.209
-132.356	65.518	-0.085	-0.085
-131.341	-99.716	0.237	0.059
-130.326	-120.377	-0.048	0.008
-129.312	125.946	-0.141	-0.176
-128.297	-200.000	-0.096	0.000
-127.283	-62.167	0.223	0.092
-126.268	33.622	-0.241	-0.207
-125.253	800.000	-0.071	0.248
-124.239	-200.000	0.017	0.288
-123.224	-150.962	-0.092	-0.007
-122.210	75.467	0.132	-0.137
-121.195	-29.893	0.319	-0.179
