DTS Sentinel unit serial number:	SN413079Multiplexer serial number:	ORYXHardware model number:	OX4-SRSoftware version number:	ORYX F/W v4.00 Oryx Data Collector v3.7.2.0data status	okinstallation	princeton_trtdifferential loss correction	single-endedforward channel	channel 1reverse channel	N/Adate	2019/09/13time	12:46:35forward acquisition time	60.00reverse acquisition time	0.00gamma	496.2192k internal	0.2305k external	0.2305temperature offset calibration	1.0173default loss term (dB/km)	0.3790temperature slope calibration	1.0000multiplexer offset coefficient	1.0000multiplexer slope coefficient	1.0000fibre end	0.00T internal ref (°C)	34.69T ext. ref 1 (°C)	4.59T ext. ref 2 (°C)	30.32length (m)	temperature (°C)	Stokes	anti-Stokes-747.200	93.186	0.200	-0.230
-746.185	305.425	0.136	0.258
-745.171	-200.000	0.002	-0.188
-744.156	-200.000	-0.003	0.035
-743.142	-11.054	0.024	-0.016
-742.127	86.280	-0.306	0.344
-741.112	-35.827	0.215	-0.119
-740.098	217.473	0.074	0.120
-739.083	-118.772	-0.105	-0.019
-738.069	329.834	-0.076	0.148
-737.054	12.989	-0.183	0.144
-736.039	-49.593	-0.202	-0.098
-735.025	-9.804	0.193	0.131
-734.010	-106.166	-0.226	-0.052
-732.996	-200.000	-0.163	-0.777
-731.981	-48.557	0.075	-0.036
-730.966	-138.458	-0.159	0.018
-729.952	-188.237	-0.095	0.001
-728.937	203.479	-0.099	0.155
-727.923	800.000	0.048	0.138
-726.908	-21.296	-0.109	0.068
-725.894	-12.234	0.163	-0.108
-724.879	403.631	0.051	-0.110
-723.864	9.103	-0.099	0.076
-722.850	324.432	0.099	0.192
-721.835	-75.259	-0.260	0.094
-720.821	800.000	-0.075	0.264
-719.806	-96.485	0.223	-0.060
-718.791	800.000	0.066	0.277
-717.777	-108.636	-0.233	0.051
-716.762	-191.556	-0.291	-0.003
-715.748	800.000	0.058	-0.231
-714.733	-135.385	0.155	-0.019
-713.718	93.557	0.123	0.141
-712.704	119.294	-0.140	-0.176
-711.689	-137.850	0.382	-0.043
-710.675	-32.982	0.133	0.075
-709.660	371.876	-0.097	0.200
-708.645	92.743	0.141	0.162
-707.631	-48.606	-0.427	-0.209
-706.616	-200.000	0.058	0.309
-705.602	-200.000	-0.002	-0.447
-704.587	384.935	-0.089	-0.187
-703.572	-200.000	0.013	-0.158
-702.558	-69.880	-0.125	-0.049
-701.543	74.175	-0.095	-0.102
-700.529	-13.193	0.242	0.160
-699.514	-61.138	-0.163	-0.070
-698.499	-133.364	-0.212	0.027
-697.485	21.192	0.089	-0.074
-696.470	-107.813	-0.172	0.038
-695.456	243.591	-0.090	-0.154
-694.441	800.000	-0.077	0.294
-693.426	170.058	-0.202	-0.293
-692.412	-124.182	0.307	0.049
-691.397	-134.397	-0.388	0.048
-690.383	93.165	-0.128	0.147
-689.368	-130.564	-0.449	0.062
-688.354	-140.303	0.034	0.004
-687.339	171.154	0.021	-0.030
-686.324	-87.078	0.491	-0.152
-685.310	19.545	0.060	-0.049
-684.295	632.777	-0.113	-0.291
-683.281	-1.023	-0.224	0.161
-682.266	-21.669	-0.253	-0.156
-681.251	78.009	-0.124	0.135
-680.237	47.266	-0.336	-0.318
-679.222	-22.872	0.222	-0.136
-678.208	-200.000	-0.004	0.058
-677.193	-135.157	0.334	-0.041
-676.178	-180.490	-0.198	0.004
-675.164	12.465	0.057	-0.045
-674.149	-190.383	0.323	0.004
-673.135	23.327	-0.162	0.135
-672.120	183.162	-0.100	-0.150
-671.105	-198.088	-0.230	0.001
-670.091	48.576	0.126	0.120
-669.076	-200.000	-0.098	-0.475
-668.062	-200.000	-0.040	-0.181
-667.047	-200.000	0.000	0.174
-666.032	800.000	0.122	-0.385
-665.018	800.000	-0.036	-0.125
-664.003	-153.648	-0.249	0.017
-662.989	-23.372	-0.419	-0.255
-661.974	187.817	0.205	-0.311
-660.959	-200.000	0.009	0.126
-659.945	800.000	-0.052	-0.194
-658.930	-138.885	-0.092	-0.010
-657.916	-200.000	-0.016	0.164
-656.901	702.584	-0.122	-0.326
-655.886	566.097	0.053	0.131
-654.872	-200.000	-0.083	-0.445
-653.857	-92.408	-0.154	-0.044
-652.843	-110.043	-0.242	0.051
-651.828	-193.313	0.336	0.003
-650.814	328.614	-0.043	-0.083
-649.799	-200.000	0.026	-0.281
-648.784	-13.851	0.181	0.119
-647.770	-200.000	-0.073	0.367
-646.755	-84.913	0.112	-0.036
-645.741	-43.419	0.217	-0.111
-644.726	-165.974	0.525	0.023
-643.711	207.212	-0.086	0.136
-642.697	-176.032	0.394	0.011
-641.682	-200.000	0.030	0.147
-640.668	28.539	-0.269	-0.231
-639.653	207.724	0.086	-0.136
-638.638	-2.300	-0.341	0.243
-637.624	-147.420	0.126	0.011
-636.609	57.436	-0.261	0.258
-635.595	53.401	0.167	-0.162
-634.580	-102.703	-0.181	-0.044
-633.565	-92.113	-0.081	0.023
-632.551	-16.335	0.135	-0.087
-631.536	800.000	-0.078	-0.241
-630.522	-97.730	0.306	0.080
-629.507	800.000	0.059	-0.245
-628.492	-200.000	0.010	-0.069
-627.478	-78.343	0.333	-0.116
-626.463	171.792	-0.275	-0.400
-625.449	-24.322	-0.046	-0.028
-624.434	234.429	-0.241	0.403
-623.419	800.000	0.092	-0.332
-622.405	-200.000	-0.052	-0.267
-621.390	-30.065	0.187	-0.108
-620.376	-200.000	-0.057	0.308
-619.361	105.507	0.223	-0.267
-618.346	53.066	0.290	-0.281
-617.332	-200.000	0.055	-0.349
-616.317	249.584	0.103	-0.178
-615.303	800.000	-0.133	-0.433
-614.288	356.766	0.055	0.112
-613.273	77.928	-0.152	0.165
-612.259	800.000	0.083	-0.295
-611.244	-181.854	-0.292	0.006
-610.230	370.093	0.112	0.231
-609.215	-200.000	-0.051	0.277
-608.201	557.321	0.029	-0.072
-607.186	-70.680	0.192	0.073
-606.171	-171.234	-0.380	0.013
-605.157	33.223	0.250	-0.219
-604.142	39.794	-0.119	-0.108
-603.128	-157.080	-0.140	0.009
-602.113	566.633	0.180	0.442
-601.098	-200.000	0.000	-0.098
-600.084	-153.923	-0.161	-0.011
-599.069	-25.238	-0.218	0.131
-598.055	-200.000	-0.036	-0.183
-597.040	27.976	-0.118	-0.101
-596.025	-22.430	-0.413	-0.253
-595.011	122.000	0.266	0.336
-593.996	320.224	-0.174	0.335
-592.982	119.833	-0.174	-0.218
-591.967	-200.000	0.012	0.231
-590.952	568.452	0.022	0.054
-589.938	800.000	0.089	0.249
-588.923	-200.000	-0.053	0.240
-587.909	800.000	0.138	0.440
-586.894	114.315	0.276	-0.340
-585.879	63.737	-0.073	-0.074
-584.865	-200.000	0.050	-0.421
-583.850	-152.047	-0.398	0.029
-582.836	71.365	0.183	0.192
-581.821	-85.060	0.223	0.071
-580.806	229.924	-0.024	-0.040
-579.792	313.828	0.037	0.070
-578.777	-135.725	-0.187	0.022
-577.763	-97.579	-0.316	-0.083
-576.748	228.090	-0.144	-0.238
-575.733	598.178	-0.068	0.171
-574.719	-104.597	0.063	0.015
-573.704	-75.689	0.077	-0.028
-572.690	-26.958	0.171	0.101
-571.675	-178.132	-0.123	-0.003
-570.661	-55.867	0.154	0.069
-569.646	427.478	0.035	-0.076
-568.631	-87.764	0.122	0.037
-567.617	-102.657	-0.214	-0.052
-566.602	86.676	-0.091	0.102
-565.588	62.389	0.120	-0.121
-564.573	166.001	-0.167	-0.239
-563.558	-86.884	-0.438	-0.135
-562.544	-96.717	0.257	0.068
-561.529	-5.255	-0.153	-0.106
-560.515	227.288	-0.338	-0.556
-559.500	-200.000	0.018	0.132
-558.485	94.567	-0.143	0.164
-557.471	-30.098	-0.186	0.107
-556.456	-159.422	-0.081	-0.005
-555.442	295.864	-0.037	0.069
-554.427	-37.845	-0.138	-0.074
-553.412	-200.000	-0.010	0.072
-552.398	-200.000	-0.013	0.165
-551.383	7.873	-0.075	-0.057
-550.369	-52.219	-0.135	-0.063
-549.354	-28.157	0.151	0.088
-548.339	14.833	-0.176	-0.139
-547.325	-147.356	-0.330	0.028
-546.310	136.495	0.134	0.176
-545.296	560.086	0.071	-0.172
-544.281	-155.967	-0.236	0.015
-543.266	-200.000	0.026	-0.235
-542.252	25.871	0.117	0.098
-541.237	-78.309	0.438	0.152
-540.223	-200.000	0.034	-0.240
-539.208	-16.497	0.199	-0.127
-538.193	-50.397	-0.196	0.094
-537.179	-200.000	0.006	0.084
-536.164	-131.782	0.360	-0.048
-535.150	-200.000	-0.018	0.189
-534.135	-54.440	0.278	-0.127
-533.121	-124.696	-0.108	0.017
-532.106	-200.000	0.016	-0.316
-531.091	585.718	-0.011	-0.027
-530.077	-62.220	-0.180	0.076
-529.062	-200.000	0.002	0.055
-528.048	249.584	0.077	0.132
-527.033	-200.000	0.003	0.032
-526.018	53.546	0.148	0.143
-525.004	-66.640	-0.165	-0.066
-523.989	67.336	-0.244	-0.251
-522.975	-108.773	-0.312	-0.068
-521.960	-200.000	0.014	-0.103
-520.945	171.581	-0.236	-0.342
-519.931	176.511	-0.067	-0.098
-518.916	63.645	0.160	0.162
-517.902	800.000	0.072	-0.248
-516.887	-88.505	0.344	-0.104
-515.872	122.636	0.060	0.075
-514.858	800.000	0.140	-0.473
-513.843	118.346	0.284	-0.354
-512.829	154.952	0.089	-0.124
-511.814	526.708	-0.102	-0.243
-510.799	181.985	-0.169	-0.252
-509.785	-111.946	0.126	0.026
-508.770	106.368	0.147	0.175
-507.756	-200.000	-0.025	-0.139
-506.741	800.000	0.154	-0.457
-505.726	-200.000	0.018	-0.159
-504.712	-200.000	-0.041	0.300
-503.697	78.266	-0.040	0.043
-502.683	142.473	0.180	0.241
-501.668	800.000	0.026	-0.077
-500.653	-11.917	0.351	0.232
-499.639	741.390	-0.052	0.142
-498.624	800.000	-0.077	0.334
-497.610	-73.901	0.228	0.083
-496.595	-200.000	-0.031	0.398
-495.581	32.976	-0.041	-0.036
-494.566	800.000	-0.150	-0.519
-493.551	-200.000	0.033	-0.317
-492.537	501.380	-0.149	-0.347
-491.522	422.323	-0.170	0.368
-490.508	289.310	-0.128	0.234
-489.493	-153.268	0.266	0.019
-488.478	-17.274	0.173	0.110
-487.464	-96.446	-0.202	0.054
-486.449	-200.000	-0.004	0.244
-485.435	241.741	0.156	-0.262
-484.420	-115.673	-0.052	-0.010
-483.405	-95.482	0.182	-0.049
-482.391	6.609	0.116	-0.087
-481.376	-16.855	-0.381	0.242
-480.362	148.108	0.152	-0.206
-479.347	-75.049	0.299	0.108
-478.332	270.550	-0.130	0.231
-477.318	264.499	0.145	-0.254
-476.303	-37.979	0.077	-0.041
-475.289	-200.000	-0.026	0.132
-474.274	800.000	0.023	-0.071
-473.259	137.178	-0.039	0.052
-472.245	-200.000	0.025	-0.119
-471.230	800.000	-0.050	-0.171
-470.216	-121.360	0.130	-0.022
-469.201	118.642	0.078	-0.096
-468.186	-35.469	-0.286	0.156
-467.172	-200.000	-0.067	-0.376
-466.157	-177.941	-0.224	0.005
-465.143	21.118	0.061	-0.050
-464.128	-25.768	-0.238	-0.141
-463.113	-138.158	0.081	0.009
-462.099	-152.216	0.394	0.029
-461.084	174.036	-0.129	0.188
-460.070	-3.123	-0.055	0.038
-459.055	16.617	0.085	-0.068
-458.040	97.032	0.020	-0.023
-457.026	238.032	0.153	-0.256
-456.011	-39.595	0.028	-0.015
-454.997	800.000	-0.035	0.149
-453.982	-11.487	0.023	-0.015
-452.968	571.360	0.163	0.400
-451.953	-200.000	-0.043	0.195
-450.938	-53.391	-0.043	-0.020
-449.924	-200.000	0.003	-0.332
-448.909	-200.000	0.013	0.608
-447.895	-122.492	-0.199	-0.033
-446.880	-121.901	-0.048	-0.008
-445.865	-1.318	-0.164	0.117
-444.851	748.649	0.050	-0.136
-443.836	-109.701	-0.162	-0.034
-442.822	3.825	-0.202	0.148
-441.807	-42.962	-0.118	-0.060
-440.792	475.660	-0.089	0.201
-439.778	569.318	-0.021	0.052
-438.763	-200.000	0.004	0.071
-437.749	80.148	-0.160	0.174
-436.734	149.927	0.144	0.196
-435.719	404.162	-0.096	-0.203
-434.705	66.776	-0.036	0.037
-433.690	47.808	0.095	0.089
-432.676	-200.000	-0.050	0.229
-431.661	800.000	0.087	-0.324
-430.646	-111.157	-0.318	-0.065
-429.632	-68.603	0.236	0.092
-428.617	-200.000	0.000	0.320
-427.603	13.665	-0.146	0.114
-426.588	608.923	-0.116	-0.290
-425.573	-3.540	-0.045	-0.031
-424.559	16.428	0.217	0.172
-423.544	-62.267	0.383	0.160
-422.530	71.690	-0.162	-0.169
-421.515	458.384	-0.124	0.278
-420.500	-81.603	-0.182	-0.060
-419.486	-200.000	-0.013	0.119
-418.471	-200.000	-0.006	0.191
-417.457	50.385	-0.037	0.035
-416.442	800.000	0.082	0.303
-415.428	-200.000	-0.004	0.114
-414.413	-73.152	0.295	0.109
-413.398	214.630	0.144	0.229
-412.384	169.255	0.121	-0.173
-411.369	3.135	0.192	0.140
-410.355	-105.895	0.130	0.030
-409.340	-95.992	0.147	0.039
-408.325	241.661	-0.136	0.228
-407.311	312.631	0.070	0.131
-406.296	217.438	-0.109	0.175
-405.282	154.096	-0.086	-0.118
-404.267	57.978	0.159	-0.157
-403.252	-200.000	0.017	0.117
-402.238	372.985	0.145	0.295
-401.223	-113.893	-0.119	0.023
-400.209	-3.922	-0.099	-0.069
-399.194	-147.918	0.200	-0.017
-398.179	54.423	-0.184	-0.178
-397.165	10.438	-0.283	0.216
-396.150	60.511	-0.139	0.138
-395.136	5.434	-0.155	-0.115
-394.121	672.319	-0.143	0.373
-393.106	42.361	0.234	-0.213
-392.092	239.629	0.060	0.101
-391.077	-200.000	0.080	0.433
-390.063	-107.179	-0.303	0.067
-389.048	800.000	-0.091	-0.275
-388.033	91.184	0.037	-0.041
-387.019	396.866	0.103	-0.216
-386.004	-22.280	-0.280	-0.170
-384.990	2.052	-0.118	-0.086
-383.975	-23.195	0.342	0.207
-382.960	-200.000	0.001	0.168
-381.946	-200.000	-0.001	-0.064
-380.931	-75.694	0.151	-0.054
-379.917	-15.352	-0.191	-0.122
-378.902	6.984	-0.133	-0.100
-377.888	-200.000	0.014	-0.114
-376.873	-20.579	0.045	0.028
-375.858	-44.601	-0.261	0.131
-374.844	-200.000	-0.022	-0.139
-373.829	-200.000	0.004	-0.166
-372.815	32.658	-0.293	0.254
-371.800	123.005	-0.150	0.188
-370.785	111.614	-0.200	-0.243
-369.771	-139.518	0.255	0.027
-368.756	-71.709	0.212	-0.079
-367.742	800.000	0.108	-0.336
-366.727	-193.769	-0.311	-0.003
-365.712	178.989	0.106	0.156
-364.698	73.100	-0.073	-0.077
-363.683	351.917	0.060	-0.120
-362.669	57.844	-0.036	0.035
-361.654	-184.457	-0.081	-0.001
-360.639	335.125	0.059	-0.115
-359.625	-200.000	-0.007	0.172
-358.610	60.291	0.220	0.218
-357.596	-200.000	0.062	-0.275
-356.581	-178.049	0.329	-0.008
-355.566	-71.888	-0.184	-0.069
-354.552	800.000	-0.046	0.150
-353.537	-50.223	-0.147	0.070
-352.523	12.456	-0.270	0.208
-351.508	-52.622	0.112	-0.052
-350.493	-147.584	0.449	0.038
-349.479	-200.000	0.024	-0.187
-348.464	-6.663	-0.177	-0.121
-347.450	-200.000	0.004	0.304
-346.435	153.840	0.085	-0.117
-345.420	20.590	0.139	0.113
-344.406	68.991	0.091	0.093
-343.391	-149.563	0.146	0.012
-342.377	800.000	-0.089	-0.281
-341.362	124.431	-0.044	-0.055
-340.348	20.168	0.170	0.137
-339.333	-200.000	0.050	0.449
-338.318	-7.438	-0.105	-0.071
-337.304	800.000	0.026	0.096
-336.289	-200.000	-0.032	-0.163
-335.275	-51.871	0.160	-0.074
-334.260	22.539	-0.137	0.112
-333.245	-14.157	-0.063	0.041
-332.231	-142.392	-0.106	-0.011
-331.216	-6.562	-0.167	0.114
-330.202	-153.556	0.118	0.008
-329.187	-39.966	-0.117	-0.061
-328.172	-68.287	-0.165	0.064
-327.158	281.040	0.021	-0.038
-326.143	-89.601	0.117	-0.034
-325.129	-81.453	-0.195	-0.064
-324.114	6.462	0.045	0.034
-323.099	800.000	0.046	-0.170
-322.085	20.459	-0.126	0.102
-321.070	-117.441	0.419	0.076
-320.056	800.000	0.069	-0.212
-319.041	151.781	0.090	0.122
-318.026	-9.930	0.157	0.104
-317.012	157.758	-0.057	-0.079
-315.997	126.084	-0.136	-0.172
-314.983	800.000	-0.062	-0.254
-313.968	305.610	-0.045	-0.083
-312.953	-103.379	-0.385	-0.091
-311.939	35.347	0.218	0.191
-310.924	49.464	0.099	-0.093
-309.910	249.389	0.092	-0.156
-308.895	800.000	-0.050	-0.201
-307.880	-120.753	0.227	-0.038
-306.866	-200.000	0.004	-0.084
-305.851	-61.672	0.330	-0.139
-304.837	-178.820	-0.365	-0.008
-303.822	270.919	-0.102	0.180
-302.807	-41.538	-0.173	0.089
-301.793	-48.939	0.366	0.175
-300.778	383.702	0.044	0.091
-299.764	-7.972	0.159	-0.107
-298.749	46.037	0.148	-0.137
-297.735	-60.105	0.362	-0.154
-296.720	-152.485	-0.331	0.024
-295.705	-82.967	0.330	-0.106
-294.691	722.330	-0.117	-0.312
-293.676	-159.693	-0.276	-0.015
-292.662	-200.000	0.029	0.153
-291.647	96.690	0.053	0.061
-290.632	-21.484	-0.133	-0.081
-289.618	113.442	-0.119	-0.145
-288.603	800.000	0.024	0.088
-287.589	800.000	-0.019	0.066
-286.574	210.833	0.160	0.252
-285.559	303.711	0.143	-0.266
-284.545	-79.546	-0.161	0.054
-283.530	-26.659	-0.330	-0.193
-282.516	10.816	-0.200	-0.153
-281.501	-69.747	-0.151	-0.058
-280.486	467.252	-0.045	-0.101
-279.472	26.861	-0.098	0.082
-278.457	-52.615	-0.025	0.012
-277.443	-70.490	0.200	-0.076
-276.428	-27.225	-0.238	-0.138
-275.413	187.471	0.177	-0.264
-274.399	120.396	-0.049	-0.061
-273.384	-200.000	-0.002	-0.221
-272.370	-154.126	-0.224	0.015
-271.355	652.684	0.122	0.313
-270.340	81.689	0.396	-0.429
-269.326	-61.884	0.126	-0.053
-268.311	-32.152	0.224	0.125
-267.297	-200.000	-0.021	0.118
-266.282	800.000	-0.066	0.196
-265.267	462.500	-0.212	-0.473
-264.253	228.604	-0.144	-0.234
-263.238	43.142	-0.121	-0.110
-262.224	-200.000	0.001	-0.166
-261.209	-200.000	-0.006	-0.178
-260.195	-200.000	0.041	-0.190
-259.180	-141.623	-0.192	0.019
-258.165	188.523	-0.094	0.140
-257.151	-200.000	0.043	-0.333
-256.136	4.531	0.220	-0.162
-255.122	-38.426	0.271	0.143
-254.107	83.386	0.093	-0.102
-253.092	-67.851	0.232	-0.091
-252.078	-200.000	0.000	-0.066
-251.063	800.000	-0.070	-0.237
-250.049	-55.959	-0.151	0.067
-249.034	-200.000	0.010	-0.140
-248.019	-167.881	-0.174	-0.007
-247.005	237.842	0.066	-0.109
-245.990	224.734	-0.088	0.141
-244.976	-50.231	0.234	-0.111
-243.961	237.709	-0.120	0.198
-242.946	378.317	-0.018	-0.037
-241.932	42.590	0.095	0.086
-240.917	446.618	0.132	-0.290
-239.903	117.938	0.109	0.134
-238.888	-200.000	-0.053	0.393
-237.873	351.511	-0.047	-0.094
-236.859	-200.000	0.025	0.115
-235.844	800.000	0.071	-0.206
-234.830	-106.404	-0.254	0.057
-233.815	-200.000	0.057	0.270
-232.800	-151.101	-0.301	0.023
-231.786	94.409	0.278	0.315
-230.771	157.390	-0.047	0.064
-229.757	-86.977	0.159	-0.048
-228.742	114.058	0.199	0.241
-227.727	-157.306	-0.202	0.012
-226.713	-200.000	0.001	0.213
-225.698	17.996	-0.198	-0.157
-224.684	169.575	0.067	0.096
-223.669	57.481	0.085	-0.083
-222.655	17.970	-0.056	0.045
-221.640	-200.000	-0.029	0.281
-220.625	-76.931	0.075	-0.026
-219.611	74.539	-0.076	0.079
-218.596	107.268	0.060	-0.072
-217.582	196.871	0.102	-0.155
-216.567	53.806	-0.382	0.365
-215.552	775.268	-0.051	0.139
-214.538	345.531	0.064	-0.125
-213.523	42.021	0.107	0.097
-212.509	-43.979	0.085	-0.043
-211.494	-200.000	0.019	0.208
-210.479	800.000	0.045	0.163
-209.465	-200.000	-0.017	0.265
-208.450	-200.000	-0.031	-0.188
-207.436	385.117	0.072	-0.147
-206.421	-51.004	-0.271	0.127
-205.406	81.196	-0.095	0.102
-204.392	-200.000	0.041	0.182
-203.377	171.181	0.307	-0.439
-202.363	12.835	-0.139	-0.107
-201.348	-131.728	-0.239	0.031
-200.333	91.609	0.303	0.339
-199.319	7.474	-0.256	0.190
-198.304	-20.621	0.190	-0.116
-197.290	800.000	-0.095	0.344
-196.275	-31.748	0.400	0.224
-195.260	-59.240	0.177	-0.076
-194.246	-127.933	-0.181	0.026
-193.231	-40.418	0.124	0.064
-192.217	61.780	-0.132	-0.131
-191.202	800.000	0.035	0.137
-190.187	154.761	0.169	-0.231
-189.173	89.060	-0.060	0.066
-188.158	11.114	0.220	-0.168
-187.144	800.000	-0.079	0.309
-186.129	-200.000	-0.019	0.222
-185.114	-200.000	0.001	0.062
-184.100	24.821	0.111	0.092
-183.085	27.231	-0.222	0.186
-182.071	331.045	0.044	0.085
-181.056	800.000	0.039	0.137
-180.042	800.000	0.062	0.237
-179.027	141.469	0.034	0.045
-178.012	6.204	-0.165	-0.122
-176.998	-13.685	-0.121	0.078
-175.983	163.472	-0.036	-0.050
-174.969	26.608	-0.012	-0.010
-173.954	-200.000	-0.008	0.336
-172.939	36.361	0.176	0.154
-171.925	-156.725	0.249	0.015
-170.910	-38.878	0.292	-0.153
-169.896	-127.583	-0.551	-0.080
-168.881	-200.000	-0.017	-0.305
-167.866	-90.132	-0.160	-0.046
-166.852	-36.054	0.129	0.069
-165.837	5.572	-0.165	-0.122
-164.823	-77.660	0.074	0.025
-163.808	-98.285	-0.106	-0.027
-162.793	121.669	-0.158	-0.196
-161.779	155.202	0.199	-0.272
-160.764	-200.000	0.009	0.413
-159.750	331.676	-0.087	0.167
-158.735	216.418	0.239	0.378
-157.720	-164.885	-0.266	-0.012
-156.706	800.000	-0.030	-0.087
-155.691	417.567	0.059	-0.125
-154.677	368.760	0.034	0.068
-153.662	-66.450	-0.135	0.053
-152.647	800.000	0.073	0.309
-151.633	-170.690	0.178	0.006
-150.618	16.758	-0.124	0.098
-149.604	-200.000	0.021	0.166
-148.589	-86.446	0.193	-0.059
-147.574	-0.459	0.067	-0.048
-146.560	168.820	-0.054	-0.077
-145.545	168.275	-0.244	-0.345
-144.531	800.000	0.049	-0.197
-143.516	-114.149	0.232	0.045
-142.502	-200.000	-0.013	-0.191
-141.487	-87.074	-0.274	-0.083
-140.472	3.970	0.157	-0.114
-139.458	-200.000	0.072	-0.315
-138.443	4.380	-0.129	-0.094
-137.429	390.592	-0.135	0.278
-136.414	-7.162	0.153	-0.103
-135.399	252.885	-0.120	-0.203
-134.385	-120.312	0.286	0.048
-133.370	152.137	-0.037	-0.050
-132.356	472.830	-0.160	-0.358
-131.341	-135.354	-0.159	0.019
-130.326	-200.000	-0.412	-0.001
-129.312	-86.637	0.192	0.059
-128.297	-0.386	-0.064	-0.045
-127.283	111.329	-0.107	-0.128
-126.268	16.560	-0.033	-0.026
-125.253	-76.220	-0.254	-0.089
-124.239	-86.458	-0.246	0.075
-123.224	-200.000	0.060	-0.361
-122.210	-53.874	0.206	0.093
-121.195	-139.350	0.174	-0.019
