DTS Sentinel unit serial number:	SN413079Multiplexer serial number:	ORYXHardware model number:	OX4-SRSoftware version number:	ORYX F/W v4.00 Oryx Data Collector v3.7.2.0data status	okinstallation	princeton_trtdifferential loss correction	single-endedforward channel	channel 1reverse channel	N/Adate	2019/09/19time	03:50:35forward acquisition time	60.00reverse acquisition time	0.00gamma	496.2192k internal	0.2343k external	0.2343temperature offset calibration	1.0018default loss term (dB/km)	0.3790temperature slope calibration	1.0000multiplexer offset coefficient	1.0000multiplexer slope coefficient	1.0000fibre end	0.00T internal ref (°C)	20.50T ext. ref 1 (°C)	0.64T ext. ref 2 (°C)	14.36length (m)	temperature (°C)	Stokes	anti-Stokes-747.200	580.458	0.071	-0.175
-746.185	-98.195	-0.104	-0.027
-745.171	-62.174	0.163	-0.068
-744.156	173.489	0.037	-0.054
-743.142	-51.867	0.307	0.143
-742.127	-130.093	-0.292	0.040
-741.112	138.574	-0.079	0.104
-740.098	-200.000	-0.018	0.226
-739.083	15.425	0.241	0.189
-738.069	105.788	-0.113	-0.134
-737.054	-51.884	-0.113	-0.053
-736.039	-200.000	-0.002	-0.328
-735.025	800.000	0.073	-0.314
-734.010	-42.280	-0.197	-0.101
-732.996	800.000	-0.050	0.210
-731.981	17.247	-0.152	0.121
-730.966	-200.000	-0.010	-0.103
-729.952	-17.156	-0.109	-0.069
-728.937	60.110	-0.183	0.181
-727.923	594.951	0.099	-0.245
-726.908	-107.957	0.186	0.040
-725.894	-200.000	0.003	-0.035
-724.879	111.096	-0.101	0.122
-723.864	-116.492	-0.183	0.034
-722.850	-200.000	0.035	0.167
-721.835	758.828	0.086	-0.233
-720.821	-12.184	-0.157	0.103
-719.806	149.278	-0.031	0.042
-718.791	-103.932	-0.295	0.069
-717.777	-25.742	0.069	0.041
-716.762	-121.238	0.205	-0.034
-715.748	-29.747	-0.098	-0.056
-714.733	280.334	-0.149	0.266
-713.718	800.000	0.086	0.279
-712.704	355.614	-0.089	0.176
-711.689	800.000	0.091	-0.370
-710.675	154.515	0.039	0.053
-709.660	-80.605	-0.193	0.064
-708.645	323.440	-0.082	-0.157
-707.631	20.394	-0.250	0.202
-706.616	601.476	-0.118	0.293
-705.602	-138.438	0.209	-0.023
-704.587	800.000	-0.080	0.257
-703.572	-72.609	-0.261	0.096
-702.558	26.492	0.159	0.133
-701.543	-79.916	0.176	0.059
-700.529	800.000	0.029	-0.118
-699.514	-105.991	0.450	-0.101
-698.499	652.448	0.105	-0.270
-697.485	380.895	0.036	-0.075
-696.470	-200.000	-0.024	-0.154
-695.456	37.244	0.061	0.054
-694.441	209.509	-0.166	0.259
-693.426	-6.822	-0.095	-0.065
-692.412	-177.003	0.215	0.005
-691.397	-110.100	0.260	0.054
-690.383	643.851	0.032	-0.080
-689.368	-28.322	-0.077	0.044
-688.354	-42.623	-0.292	0.149
-687.339	-200.000	0.007	-0.243
-686.324	352.727	-0.170	-0.336
-685.310	37.810	-0.248	-0.220
-684.295	122.853	-0.096	-0.120
-683.281	778.482	0.065	-0.177
-682.266	105.191	0.150	-0.177
-681.251	-154.896	-0.476	0.031
-680.237	-39.425	0.190	-0.099
-679.222	-143.988	0.201	0.019
-678.208	378.397	-0.111	-0.227
-677.193	470.735	0.076	-0.171
-676.178	-11.310	0.162	-0.106
-675.164	-200.000	-0.039	0.300
-674.149	-170.859	-0.028	0.001
-673.135	800.000	-0.007	0.023
-672.120	155.160	0.131	0.181
-671.105	111.010	-0.090	-0.108
-670.091	406.314	-0.094	-0.199
-669.076	235.848	-0.169	-0.280
-668.062	-200.000	-0.040	-0.215
-667.047	800.000	0.002	-0.009
-666.032	-200.000	0.013	-0.270
-665.018	35.973	0.202	-0.178
-664.003	79.423	-0.112	-0.119
-662.989	-5.818	0.247	-0.169
-661.974	431.027	0.101	-0.219
-660.959	-55.742	-0.399	0.178
-659.945	78.262	0.068	-0.073
-658.930	356.035	0.097	0.192
-657.916	-200.000	-0.019	0.358
-656.901	-200.000	-0.003	-0.022
-655.886	-0.815	-0.256	0.181
-654.872	-103.096	-0.177	0.042
-653.857	-200.000	-0.043	0.191
-652.843	165.356	-0.282	0.397
-651.828	299.179	0.089	0.163
-650.814	-192.454	0.379	-0.004
-649.799	722.208	-0.023	-0.061
-648.784	9.839	0.317	-0.240
-647.770	-67.258	0.092	0.036
-646.755	-81.483	-0.198	-0.065
-645.741	431.796	-0.225	0.486
-644.726	209.355	0.265	0.415
-643.711	-153.426	-0.187	0.013
-642.697	800.000	-0.064	0.178
-641.682	-65.172	-0.328	-0.132
-640.668	-200.000	-0.001	-0.056
-639.653	-125.853	0.229	0.034
-638.638	-200.000	0.004	-0.180
-637.624	800.000	-0.062	-0.214
-636.609	418.446	-0.138	-0.295
-635.595	-91.053	0.085	0.024
-634.580	519.426	-0.029	0.069
-633.565	-15.310	0.157	0.100
-632.551	695.176	-0.213	-0.559
-631.536	589.157	-0.101	-0.248
-630.522	27.562	0.104	-0.088
-629.507	-74.382	-0.106	0.038
-628.492	339.556	0.032	0.062
-627.478	-200.000	-0.020	-0.104
-626.463	-86.537	-0.430	-0.132
-625.449	800.000	0.084	-0.301
-624.434	-200.000	-0.075	-0.390
-623.419	-200.000	0.026	0.464
-622.405	-86.861	-0.123	0.038
-621.390	800.000	-0.113	0.436
-620.376	-64.324	-0.055	-0.022
-619.361	-18.353	-0.357	0.223
-618.346	-51.744	-0.134	0.062
-617.332	-200.000	-0.033	-0.364
-616.317	511.845	0.105	-0.245
-615.303	304.644	-0.039	0.072
-614.288	-108.932	-0.429	-0.091
-613.273	-82.818	-0.081	-0.026
-612.259	696.944	-0.026	-0.069
-611.244	7.403	0.282	0.210
-610.230	-136.343	-0.377	0.044
-609.215	-200.000	0.002	-0.170
-608.201	-95.686	-0.200	-0.053
-607.186	-86.252	0.025	-0.008
-606.171	-200.000	-0.011	-0.118
-605.157	464.723	-0.195	0.435
-604.142	114.366	0.190	-0.230
-603.128	-0.065	-0.242	-0.172
-602.113	-114.891	-0.467	-0.089
-601.098	28.018	0.167	0.140
-600.084	-92.904	0.340	0.095
-599.069	-10.756	-0.031	-0.020
-598.055	-148.680	0.107	0.009
-597.040	-131.726	0.131	0.017
-596.025	-200.000	0.010	0.216
-595.011	-42.347	0.207	-0.105
-593.996	79.417	-0.105	-0.112
-592.982	-200.000	0.002	0.228
-591.967	-138.050	0.247	0.027
-590.952	-123.510	0.205	0.032
-589.938	-200.000	-0.084	-0.390
-588.923	-85.334	-0.154	-0.048
-587.909	-35.685	-0.231	0.125
-586.894	218.820	0.019	0.030
-585.879	216.970	-0.117	-0.186
-584.865	627.903	-0.051	-0.129
-583.850	470.421	0.090	-0.202
-582.836	67.622	0.136	-0.138
-581.821	-64.607	0.173	-0.070
-580.806	101.837	-0.178	-0.207
-579.792	-132.935	0.190	-0.024
-578.777	-200.000	-0.052	-0.602
-577.763	-200.000	0.031	-0.271
-576.748	13.312	-0.158	0.122
-575.733	11.213	-0.056	0.043
-574.719	-81.704	0.230	0.075
-573.704	208.951	-0.008	0.012
-572.690	-93.197	0.401	0.111
-571.675	-159.094	0.059	0.003
-570.661	-200.000	-0.006	0.054
-569.646	71.536	-0.294	0.304
-568.631	138.151	0.049	-0.064
-567.617	-60.170	0.390	0.165
-566.602	24.437	-0.191	-0.157
-565.588	194.515	0.165	0.248
-564.573	800.000	-0.122	-0.364
-563.558	73.545	0.186	-0.193
-562.544	800.000	0.013	0.039
-561.529	-130.761	0.180	0.024
-560.515	-15.869	0.112	-0.071
-559.500	800.000	0.038	-0.146
-558.485	800.000	-0.053	0.170
-557.471	800.000	0.044	0.127
-556.456	-122.993	0.413	-0.066
-555.442	164.802	0.109	-0.153
-554.427	412.483	-0.048	0.102
-553.412	260.235	0.108	0.185
-552.398	184.326	-0.244	0.359
-551.383	800.000	0.078	-0.228
-550.369	-200.000	-0.194	-0.001
-549.354	-36.494	0.421	-0.225
-548.339	296.057	0.046	-0.084
-547.325	-50.634	0.556	-0.261
-546.310	265.534	0.181	0.313
-545.296	86.493	-0.134	0.147
-544.281	-21.932	-0.303	-0.183
-543.266	359.486	-0.089	-0.178
-542.252	329.245	-0.094	0.179
-541.237	-200.000	-0.022	-0.218
-540.223	-200.000	-0.052	0.230
-539.208	-100.365	-0.116	-0.029
-538.193	-200.000	0.023	0.179
-537.179	-107.119	0.113	0.025
-536.164	-99.020	0.323	-0.081
-535.150	-69.620	-0.372	0.141
-534.135	128.464	0.037	-0.047
-533.121	306.112	-0.130	-0.241
-532.106	-52.045	0.188	-0.087
-531.091	-200.000	0.028	0.196
-530.077	-200.000	0.059	-0.278
-529.062	540.517	-0.061	0.145
-528.048	-23.501	-0.173	-0.103
-527.033	-81.432	-0.313	0.102
-526.018	-86.844	-0.276	-0.084
-525.004	35.947	0.100	-0.088
-523.989	234.857	-0.067	-0.109
-522.975	296.272	0.121	-0.220
-521.960	-136.333	-0.456	0.053
-520.945	-133.046	-0.027	0.003
-519.931	320.826	-0.151	-0.284
-518.916	-31.747	0.101	-0.056
-517.902	-200.000	-0.039	-0.189
-516.887	-148.030	-0.131	-0.011
-515.872	18.209	-0.155	-0.123
-514.858	42.081	0.241	0.217
-513.843	-131.423	-0.201	0.026
-512.829	-200.000	0.014	0.297
-511.814	-103.756	-0.590	0.137
-510.799	-140.655	-0.387	0.040
-509.785	506.150	-0.091	0.210
-508.770	47.267	-0.072	-0.067
-507.756	164.657	0.103	-0.144
-506.741	-200.000	0.004	0.425
-505.726	-200.000	0.022	-0.366
-504.712	-127.350	0.145	-0.021
-503.697	-93.806	0.177	0.048
-502.683	-93.233	0.089	0.025
-501.668	-156.294	-0.113	0.007
-500.653	15.024	-0.265	-0.206
-499.639	-29.872	-0.332	0.188
-498.624	-85.760	-0.338	-0.104
-497.610	43.400	0.227	0.206
-496.595	278.311	-0.236	0.417
-495.581	-200.000	0.047	-0.205
-494.566	800.000	0.052	0.160
-493.551	-50.528	-0.228	-0.107
-492.537	109.529	-0.199	0.237
-491.522	177.170	-0.116	-0.167
-490.508	-200.000	-0.007	0.102
-489.493	66.111	-0.187	0.188
-488.478	426.850	-0.056	0.121
-487.464	-200.000	-0.033	0.156
-486.449	-162.986	-0.174	0.008
-485.435	0.863	0.145	0.103
-484.420	-200.000	-0.003	0.072
-483.405	370.523	-0.184	0.369
-482.391	-171.935	0.239	-0.008
-481.376	-1.903	-0.075	0.052
-480.362	79.957	-0.212	-0.225
-479.347	-37.854	0.205	-0.108
-478.332	800.000	0.108	0.308
-477.318	-200.000	0.052	0.304
-476.303	98.468	0.050	0.057
-475.289	27.690	-0.093	0.078
-474.274	6.994	0.182	0.134
-473.259	-200.000	0.020	-0.141
-472.245	-157.336	-0.174	0.010
-471.230	-200.000	0.081	-0.406
-470.216	-11.737	0.082	0.053
-469.201	-58.408	-0.052	-0.022
-468.186	800.000	-0.028	-0.088
-467.172	-18.590	0.326	0.201
-466.157	-200.000	-0.063	-0.323
-465.143	130.111	-0.142	-0.181
-464.128	-69.341	0.287	0.109
-463.113	57.390	0.149	-0.144
-462.099	-136.862	-0.218	-0.025
-461.084	-15.743	-0.143	-0.090
-460.070	-200.000	0.005	0.203
-459.055	136.243	-0.114	-0.148
-458.040	-135.582	0.158	0.019
-457.026	106.895	-0.120	-0.141
-456.011	800.000	-0.075	0.272
-454.997	-174.706	-0.330	0.009
-453.982	9.198	0.154	-0.115
-452.968	14.120	-0.139	-0.107
-451.953	-99.396	-0.101	-0.025
-450.938	-200.000	-0.023	0.386
-449.924	-59.660	-0.070	-0.030
-448.909	-32.064	0.253	0.140
-447.895	-200.000	0.073	0.506
-446.880	-106.138	0.237	0.053
-445.865	19.940	0.115	-0.092
-444.851	-76.297	0.189	0.066
-443.836	-138.667	-0.226	0.025
-442.822	104.227	0.156	-0.182
-441.807	800.000	0.039	0.167
-440.792	-200.000	0.023	-0.156
-439.778	-7.743	-0.076	0.050
-438.763	-154.706	-0.193	0.013
-437.749	800.000	-0.045	0.155
-436.734	89.008	0.148	-0.163
-435.719	-77.028	0.030	-0.011
-434.705	97.576	-0.145	0.165
-433.690	33.855	0.295	0.254
-432.676	-122.853	0.231	-0.037
-431.661	-200.000	-0.024	0.222
-430.646	-200.000	-0.027	-0.119
-429.632	-102.346	0.159	-0.038
-428.617	-44.132	-0.226	0.112
-427.603	-81.491	0.192	0.063
-426.588	-106.573	-0.341	-0.075
-425.573	122.374	-0.017	0.021
-424.559	759.917	0.057	-0.152
-423.544	504.126	-0.203	0.466
-422.530	33.812	-0.196	0.169
-421.515	194.308	0.206	0.309
-420.500	-200.000	-0.044	-0.250
-419.486	-200.000	0.019	0.403
-418.471	800.000	-0.057	0.167
-417.457	58.151	0.162	0.157
-416.442	-18.243	-0.262	0.162
-415.428	-56.386	0.143	-0.063
-414.413	-125.545	-0.462	-0.069
-413.398	281.689	-0.076	0.134
-412.384	-200.000	-0.031	0.377
-411.369	452.862	0.187	-0.410
-410.355	-26.962	-0.195	0.112
-409.340	155.979	-0.169	0.231
-408.325	-98.515	0.127	0.032
-407.311	-89.456	0.365	0.106
-406.296	56.012	0.332	-0.319
-405.282	-23.998	-0.158	-0.093
-404.267	-99.237	0.318	-0.079
-403.252	800.000	0.079	-0.299
-402.238	-173.626	0.288	0.009
-401.223	-146.862	-0.189	0.016
-400.209	-113.286	0.142	0.028
-399.194	-67.286	0.255	0.099
-398.179	-3.072	0.083	0.057
-397.165	800.000	-0.096	-0.337
-396.150	-68.955	0.297	-0.113
-395.136	-99.797	0.143	0.035
-394.121	546.039	-0.071	0.167
-393.106	31.549	0.370	-0.314
-392.092	109.314	0.129	0.153
-391.077	167.533	0.289	0.405
-390.063	-106.047	0.069	-0.015
-389.048	408.172	0.058	-0.120
-388.033	-200.000	0.018	0.360
-387.019	-18.215	0.079	0.049
-386.004	254.234	-0.197	-0.332
-384.990	800.000	0.049	0.163
-383.975	220.487	0.126	-0.200
-382.960	224.984	-0.148	-0.236
-381.946	271.222	0.180	0.314
-380.931	-79.725	0.115	0.038
-379.917	-200.000	-0.010	0.292
-378.902	-38.385	-0.167	0.087
-377.888	-130.645	-0.392	0.052
-376.873	135.421	0.092	-0.119
-375.858	800.000	0.168	-0.556
-374.844	-200.000	0.005	-0.054
-373.829	46.591	-0.216	-0.198
-372.815	-48.611	0.171	0.081
-371.800	-200.000	0.053	-0.240
-370.785	157.231	0.087	-0.119
-369.771	-200.000	-0.007	0.066
-368.756	-155.936	-0.211	0.013
-367.742	-32.821	-0.144	0.079
-366.727	-6.044	0.114	0.077
-365.712	-33.215	-0.082	-0.045
-364.698	58.770	-0.217	0.211
-363.683	301.362	0.081	0.147
-362.669	-72.081	-0.448	0.164
-361.654	7.337	0.225	-0.165
-360.639	140.015	0.159	0.207
-359.625	-200.000	0.001	0.447
-358.610	800.000	-0.046	0.188
-357.596	-76.911	-0.214	-0.074
-356.581	-5.423	-0.177	0.120
-355.566	-200.000	0.003	-0.067
-354.552	75.341	0.092	0.095
-353.537	-200.000	0.012	-0.073
-352.523	-166.769	0.098	-0.004
-351.508	-82.944	0.196	0.062
-350.493	56.773	0.083	-0.080
-349.479	50.370	-0.385	0.358
-348.464	-72.809	-0.148	0.054
-347.450	-1.714	-0.104	0.072
-346.435	30.295	-0.397	-0.335
-345.420	-200.000	-0.002	0.022
-344.406	-200.000	0.003	0.080
-343.391	800.000	0.071	0.237
-342.377	-50.546	0.114	0.053
-341.362	8.187	-0.004	-0.003
-340.348	-200.000	-0.054	0.303
-339.333	2.616	-0.084	0.060
-338.318	16.354	-0.146	-0.113
-337.304	-13.277	0.092	0.059
-336.289	-111.262	0.250	-0.050
-335.275	800.000	0.025	-0.104
-334.260	-55.544	0.063	0.028
-333.245	-130.781	0.525	-0.069
-332.231	-157.920	0.064	0.004
-331.216	-200.000	-0.007	0.128
-330.202	-200.000	-0.009	-0.301
-329.187	185.384	0.313	-0.457
-328.172	-102.131	-0.256	-0.061
-327.158	-75.373	-0.156	-0.055
-326.143	20.927	-0.203	0.162
-325.129	-153.505	0.268	0.018
-324.114	800.000	-0.064	-0.259
-323.099	89.948	0.133	0.146
-322.085	-52.713	0.169	-0.077
-321.070	-107.627	-0.113	-0.024
-320.056	722.124	0.014	-0.037
-319.041	-200.000	0.065	0.345
-318.026	-39.043	0.341	-0.177
-317.012	6.632	0.303	-0.222
-315.997	86.423	-0.220	-0.239
-314.983	634.045	-0.006	-0.016
-313.968	235.051	0.014	0.022
-312.953	-106.605	-0.241	-0.053
-311.939	-200.000	-0.005	-0.256
-310.924	97.321	-0.209	-0.236
-309.910	83.953	0.055	-0.059
-308.895	14.550	0.075	0.058
-307.880	105.780	-0.165	-0.192
-306.866	77.334	0.205	0.215
-305.851	-27.529	-0.168	0.096
-304.837	-200.000	0.024	0.124
-303.822	-200.000	0.019	0.127
-302.807	74.077	-0.332	0.343
-301.793	-149.389	0.086	0.007
-300.778	-98.649	0.144	0.036
-299.764	-66.092	-0.299	0.117
-298.749	309.382	0.155	0.286
-297.735	-59.429	-0.253	-0.107
-296.720	-200.000	-0.016	-0.195
-295.705	-200.000	-0.020	-0.178
-294.691	32.070	0.167	-0.142
-293.676	-47.661	0.151	0.072
-292.662	233.703	0.067	-0.108
-291.647	-142.670	-0.460	-0.044
-290.632	-115.840	0.117	0.022
-289.618	11.092	-0.201	0.151
-288.603	-138.098	0.159	0.017
-287.589	800.000	-0.144	0.574
-286.574	-200.000	-0.010	0.060
-285.559	351.342	-0.067	-0.130
-284.545	-53.128	0.195	0.088
-283.530	13.548	0.152	-0.116
-282.516	-200.000	0.070	-0.341
-281.501	43.202	-0.087	0.078
-280.486	166.021	0.089	0.123
-279.472	49.770	-0.058	0.054
-278.457	234.984	-0.107	0.174
-277.443	-99.762	0.466	-0.115
-276.428	-163.828	0.282	0.013
-275.413	13.296	0.086	-0.066
-274.399	-79.030	-0.281	-0.094
-273.384	220.060	0.167	-0.263
-272.370	800.000	-0.081	-0.312
-271.355	-133.191	-0.212	-0.026
-270.340	2.158	0.031	0.022
-269.326	-136.649	0.094	0.011
-268.311	97.303	-0.181	0.205
-267.297	-200.000	0.033	-0.237
-266.282	-106.016	-0.165	0.036
-265.267	336.852	0.147	0.281
-264.253	223.714	0.149	0.237
-263.238	440.142	0.051	-0.109
-262.224	-200.000	-0.025	-0.291
-261.209	-200.000	-0.035	-0.215
-260.195	-200.000	0.014	-0.245
-259.180	-133.390	0.159	0.020
-258.165	-159.729	-0.204	0.011
-257.151	124.790	-0.155	0.192
-256.136	-157.756	0.329	0.019
-255.122	32.839	0.054	0.046
-254.107	259.384	0.232	-0.393
-253.092	-200.000	0.011	0.194
-252.078	-118.855	0.261	-0.045
-251.063	800.000	-0.088	-0.257
-250.049	298.781	-0.171	-0.308
-249.034	-2.676	0.218	-0.149
-248.019	137.880	0.118	0.152
-247.005	-85.933	0.451	0.137
-245.990	800.000	0.046	0.147
-244.976	-132.459	-0.282	0.036
-243.961	249.934	-0.101	-0.168
-242.946	-55.627	0.037	-0.016
-241.932	-200.000	-0.001	0.138
-240.917	87.628	0.255	0.277
-239.903	800.000	0.074	-0.208
-238.888	347.420	-0.154	-0.298
-237.873	800.000	-0.063	-0.220
-236.859	800.000	-0.116	-0.375
-235.844	800.000	0.072	0.274
-234.830	282.397	-0.376	-0.663
-233.815	-200.000	0.019	-0.254
-232.800	-172.895	-0.204	-0.006
-231.786	-97.791	0.287	-0.073
-230.771	-116.125	0.502	-0.092
-229.757	669.325	-0.037	0.095
-228.742	-159.327	0.033	0.002
-227.727	123.339	0.121	-0.149
-226.713	-93.155	0.084	-0.023
-225.698	10.331	0.165	-0.123
-224.684	-200.000	-0.003	0.445
-223.669	326.220	0.073	0.137
-222.655	14.768	0.221	0.169
-221.640	470.977	-0.141	0.311
-220.625	-29.282	0.124	0.069
-219.611	800.000	0.066	0.275
-218.596	136.209	-0.077	0.099
-217.582	-200.000	-0.011	-0.082
-216.567	333.887	0.061	0.116
-215.552	800.000	0.066	-0.218
-214.538	695.471	-0.037	0.095
-213.523	334.864	0.104	0.197
-212.509	-148.739	0.317	-0.025
-211.494	241.038	-0.160	0.262
-210.479	77.573	0.273	0.285
-209.465	-57.318	0.184	-0.079
-208.450	60.965	-0.154	-0.150
-207.436	129.737	-0.156	0.196
-206.421	-200.000	0.011	0.299
-205.406	800.000	-0.064	0.225
-204.392	399.172	-0.081	0.167
-203.377	-7.913	-0.369	-0.244
-202.363	800.000	-0.091	-0.300
-201.348	-200.000	-0.017	0.109
-200.333	-68.455	-0.221	0.084
-199.319	800.000	0.029	-0.111
-198.304	679.512	0.063	-0.162
-197.290	-107.370	-0.189	0.041
-196.275	-121.407	-0.107	0.017
-195.260	650.775	0.098	0.246
-194.246	-165.304	0.438	0.019
-193.231	800.000	0.097	-0.325
-192.217	-55.068	0.166	-0.073
-191.202	68.928	0.109	0.110
-190.187	800.000	0.038	-0.144
-189.173	-129.666	0.193	0.026
-188.158	-70.895	-0.176	-0.065
-187.144	-200.000	-0.036	-0.300
-186.129	-200.000	-0.035	-0.278
-185.114	192.636	0.109	-0.161
-184.100	288.445	0.129	-0.229
-183.085	-200.000	-0.049	-0.220
-182.071	251.079	0.020	0.033
-181.056	-56.811	0.141	-0.061
-180.042	145.736	-0.093	-0.123
-179.027	119.804	-0.006	0.007
-178.012	36.014	-0.200	0.172
-176.998	29.722	0.188	0.157
-175.983	-59.404	-0.081	-0.034
-174.969	313.312	0.044	-0.082
-173.954	-200.000	0.053	-0.394
-172.939	14.936	0.144	0.111
-171.925	800.000	-0.065	0.277
-170.910	-200.000	0.059	0.322
-169.896	-200.000	0.026	0.119
-168.881	-64.004	0.211	-0.084
-167.866	229.004	0.015	0.024
-166.852	34.115	-0.313	0.267
-165.837	-39.046	0.067	-0.034
-164.823	800.000	0.111	-0.368
-163.808	-200.000	-0.003	-0.360
-162.793	-24.369	0.211	-0.123
-161.779	385.000	-0.161	0.325
-160.764	-107.044	-0.255	-0.055
-159.750	239.132	0.113	0.184
-158.735	447.649	-0.123	0.266
-157.720	-124.535	0.095	-0.015
-156.706	-100.922	-0.159	0.038
-155.691	-7.611	-0.232	-0.153
-154.677	-99.679	0.081	-0.020
-153.662	-149.550	-0.324	-0.025
-152.647	72.757	-0.091	-0.093
-151.633	440.738	0.122	0.261
-150.618	-95.867	0.234	-0.061
-149.604	21.027	0.062	-0.049
-148.589	118.414	0.224	-0.271
-147.574	164.467	-0.112	0.155
-146.560	-96.443	0.278	0.072
-145.545	194.693	0.089	0.132
-144.531	99.526	-0.090	-0.102
-143.516	-200.000	0.001	0.182
-142.502	196.863	0.111	-0.166
-141.487	-123.664	0.476	-0.074
-140.472	340.317	-0.084	0.160
-139.458	34.567	-0.268	-0.229
-138.443	-120.639	0.336	0.056
-137.429	396.556	-0.050	-0.101
-136.414	-124.440	0.412	-0.063
-135.399	327.142	0.036	-0.068
-134.385	-9.974	-0.093	0.060
-133.370	-39.701	-0.349	0.178
-132.356	282.265	0.057	0.100
-131.341	-200.000	0.031	-0.136
-130.326	-69.589	-0.181	0.068
-129.312	-83.384	0.241	0.075
-128.297	-200.000	0.044	-0.477
-127.283	109.451	0.117	-0.137
-126.268	-37.342	-0.131	0.068
-125.253	-130.949	0.359	0.047
-124.239	23.171	-0.332	-0.267
-123.224	-166.309	0.105	0.004
-122.210	-115.564	0.016	0.003
-121.195	89.148	-0.098	0.106
