DTS Sentinel unit serial number:	SN413079Multiplexer serial number:	ORYXHardware model number:	OX4-SRSoftware version number:	ORYX F/W v4.00 Oryx Data Collector v3.7.2.0data status	okinstallation	princeton_trtdifferential loss correction	single-endedforward channel	channel 1reverse channel	N/Adate	2019/09/17time	02:34:35forward acquisition time	60.00reverse acquisition time	0.00gamma	496.2192k internal	0.2323k external	0.2323temperature offset calibration	0.9959default loss term (dB/km)	0.3790temperature slope calibration	1.0000multiplexer offset coefficient	1.0000multiplexer slope coefficient	1.0000fibre end	0.00T internal ref (°C)	29.81T ext. ref 1 (°C)	0.12T ext. ref 2 (°C)	24.77length (m)	temperature (°C)	Stokes	anti-Stokes-747.200	10.070	-0.176	0.135
-746.185	-48.906	0.175	-0.085
-745.171	-65.118	0.234	0.095
-744.156	69.034	-0.260	0.270
-743.142	-129.934	0.196	0.027
-742.127	-42.555	-0.122	0.063
-741.112	-38.374	-0.093	0.050
-740.098	36.830	0.030	0.027
-739.083	-47.662	-0.214	-0.105
-738.069	297.277	-0.163	0.303
-737.054	-39.036	0.184	0.098
-736.039	-200.000	-0.045	-0.208
-735.025	-142.815	0.045	-0.004
-734.010	474.408	0.137	-0.313
-732.996	-119.459	-0.411	0.072
-731.981	187.035	0.055	-0.083
-730.966	-200.000	0.008	-0.378
-729.952	-87.510	-0.037	0.011
-728.937	800.000	-0.073	-0.271
-727.923	23.667	-0.247	-0.205
-726.908	-0.346	-0.155	0.111
-725.894	-10.208	-0.462	-0.310
-724.879	-26.224	-0.256	0.152
-723.864	-50.695	-0.234	-0.111
-722.850	74.428	0.134	-0.142
-721.835	-200.000	0.031	-0.211
-720.821	-200.000	0.012	-0.136
-719.806	-112.544	-0.194	-0.039
-718.791	800.000	0.054	0.168
-717.777	424.309	-0.113	0.244
-716.762	5.197	0.051	-0.038
-715.748	-84.658	-0.277	-0.088
-714.733	-200.000	-0.044	-0.366
-713.718	-200.000	-0.044	-0.196
-712.704	-45.328	-0.298	0.149
-711.689	55.805	-0.073	-0.072
-710.675	69.849	0.041	0.042
-709.660	-200.000	-0.028	0.238
-708.645	800.000	0.035	-0.118
-707.631	-56.920	0.119	0.053
-706.616	152.074	-0.110	0.151
-705.602	41.146	-0.289	-0.263
-704.587	-60.662	0.150	-0.064
-703.572	-76.565	0.283	-0.100
-702.558	-200.000	-0.022	-0.124
-701.543	-200.000	-0.020	-0.263
-700.529	170.097	-0.206	-0.298
-699.514	-200.000	-0.006	-0.272
-698.499	603.357	0.180	0.450
-697.485	-41.344	-0.102	-0.053
-696.470	-54.956	0.156	0.071
-695.456	-19.007	-0.175	0.110
-694.441	452.347	-0.180	-0.401
-693.426	-200.000	-0.031	-0.160
-692.412	-200.000	0.010	0.160
-691.397	144.729	0.091	0.122
-690.383	3.589	-0.187	-0.138
-689.368	106.958	-0.111	-0.133
-688.354	145.183	0.081	0.110
-687.339	-101.358	0.298	0.073
-686.324	-87.360	-0.090	0.028
-685.310	-96.514	-0.425	0.113
-684.295	-50.252	0.270	0.129
-683.281	800.000	0.075	0.257
-682.266	800.000	0.058	0.242
-681.251	-200.000	0.078	-0.443
-680.237	800.000	0.143	-0.434
-679.222	-10.296	0.008	-0.005
-678.208	800.000	-0.113	-0.366
-677.193	-25.357	-0.198	0.118
-676.178	-19.909	-0.305	0.189
-675.164	-180.250	0.060	0.001
-674.149	-144.791	-0.311	0.029
-673.135	-200.000	-0.048	-0.286
-672.120	-200.000	-0.007	0.179
-671.105	-12.583	-0.294	-0.193
-670.091	458.990	-0.149	-0.335
-669.076	-200.000	0.011	-0.111
-668.062	-172.440	-0.231	-0.007
-667.047	205.341	-0.152	0.238
-666.032	269.790	-0.179	-0.316
-665.018	-98.091	-0.117	0.030
-664.003	41.669	-0.227	0.207
-662.989	3.570	-0.195	0.143
-661.974	68.302	-0.153	-0.158
-660.959	-118.681	0.111	0.020
-659.945	-200.000	0.068	-0.456
-658.930	360.791	-0.108	-0.218
-657.916	145.968	0.047	0.064
-656.901	17.192	-0.280	-0.223
-655.886	800.000	0.039	-0.126
-654.872	138.625	0.035	0.046
-653.857	800.000	0.111	0.365
-652.843	-27.662	-0.234	0.137
-651.828	-24.090	0.011	-0.007
-650.814	325.778	0.069	0.132
-649.799	101.303	-0.178	-0.208
-648.784	-144.596	-0.431	-0.040
-647.770	161.672	-0.055	-0.078
-646.755	-200.000	0.023	0.313
-645.741	-5.848	-0.191	0.132
-644.726	279.238	-0.136	0.244
-643.711	-26.562	-0.318	-0.187
-642.697	-88.018	0.209	-0.063
-641.682	-43.447	0.195	0.099
-640.668	800.000	-0.031	-0.137
-639.653	141.866	-0.067	-0.090
-638.638	800.000	-0.047	0.206
-637.624	-149.015	-0.119	-0.010
-636.609	-81.306	-0.122	-0.040
-635.595	531.921	-0.122	0.289
-634.580	144.620	-0.364	0.489
-633.565	-200.000	-0.021	0.191
-632.551	-83.650	-0.049	-0.016
-631.536	65.705	-0.081	-0.082
-630.522	143.417	-0.183	0.245
-629.507	-200.000	-0.073	-0.329
-628.492	-7.630	0.280	-0.190
-627.478	-83.950	-0.287	-0.092
-626.463	-65.107	0.290	0.117
-625.449	-40.397	-0.219	-0.114
-624.434	9.703	0.092	0.070
-623.419	-115.579	0.362	-0.068
-622.405	392.618	-0.016	-0.033
-621.390	-109.520	-0.131	0.028
-620.376	58.116	0.153	0.151
-619.361	800.000	-0.105	0.295
-618.346	23.611	0.146	-0.121
-617.332	46.851	-0.092	-0.086
-616.317	104.978	0.081	0.096
-615.303	-177.991	0.029	-0.001
-614.288	-142.842	0.122	-0.012
-613.273	-200.000	-0.048	0.315
-612.259	-77.921	0.213	-0.074
-611.244	-71.787	0.314	0.118
-610.230	-95.867	-0.231	-0.062
-609.215	-45.257	0.183	-0.091
-608.201	144.652	0.106	0.142
-607.186	310.326	0.134	0.253
-606.171	437.537	-0.072	0.158
-605.157	79.788	-0.110	-0.118
-604.142	171.926	0.099	0.142
-603.128	-200.000	-0.023	-0.130
-602.113	601.782	0.043	0.107
-601.098	300.328	-0.051	0.095
-600.084	-8.159	0.206	-0.139
-599.069	-57.263	0.529	0.234
-598.055	137.963	0.135	-0.178
-597.040	-134.849	0.238	0.029
-596.025	-33.315	-0.360	0.200
-595.011	337.514	0.137	0.267
-593.996	-200.000	0.011	0.137
-592.982	-34.512	0.170	0.094
-591.967	390.414	0.033	0.069
-590.952	41.535	-0.080	0.073
-589.938	-94.957	-0.349	-0.095
-588.923	123.915	-0.056	-0.071
-587.909	-200.000	-0.025	-0.149
-586.894	353.852	-0.013	-0.025
-585.879	-65.136	-0.354	-0.143
-584.865	-85.728	0.042	0.013
-583.850	-133.838	0.199	0.025
-582.836	-118.137	-0.135	0.024
-581.821	-200.000	0.001	0.138
-580.806	514.642	0.122	-0.286
-579.792	-200.000	-0.010	0.140
-578.777	-44.292	0.139	0.070
-577.763	-200.000	0.005	0.038
-576.748	307.678	-0.043	-0.081
-575.733	-200.000	0.002	-0.197
-574.719	448.868	0.198	-0.438
-573.704	-65.108	0.230	-0.093
-572.690	175.963	-0.110	-0.160
-571.675	-65.131	-0.472	0.191
-570.661	-54.899	0.143	-0.065
-569.646	-49.319	0.264	-0.126
-568.631	81.425	0.120	0.130
-567.617	-200.000	-0.013	-0.264
-566.602	537.626	0.039	0.092
-565.588	134.499	-0.143	-0.186
-564.573	156.818	0.223	-0.309
-563.558	650.987	-0.113	0.291
-562.544	-144.082	-0.266	0.025
-561.529	-200.000	0.084	0.481
-560.515	-67.215	-0.150	0.059
-559.500	-30.826	-0.427	0.242
-558.485	-24.544	0.184	0.110
-557.471	800.000	0.044	0.169
-556.456	-67.745	0.027	0.011
-555.442	-200.000	0.021	0.268
-554.427	75.672	-0.099	-0.104
-553.412	99.705	0.134	0.156
-552.398	800.000	0.107	0.312
-551.383	-200.000	-0.048	0.329
-550.369	-200.000	-0.002	-0.018
-549.354	-200.000	-0.052	-0.304
-548.339	800.000	-0.019	-0.061
-547.325	-176.081	-0.576	0.015
-546.310	-190.274	0.279	-0.003
-545.296	346.465	-0.120	-0.236
-544.281	-63.671	-0.074	-0.031
-543.266	-23.186	0.140	0.085
-542.252	-54.360	-0.192	0.087
-541.237	-179.295	-0.211	0.005
-540.223	-200.000	-0.041	-0.202
-539.208	186.348	0.243	0.362
-538.193	-35.625	-0.055	0.030
-537.179	165.011	0.150	-0.211
-536.164	22.821	-0.079	-0.065
-535.150	-200.000	-0.005	0.099
-534.135	421.152	0.093	-0.199
-533.121	800.000	0.115	-0.394
-532.106	-53.066	-0.038	0.017
-531.091	-30.837	-0.034	-0.019
-530.077	-109.366	0.161	0.034
-529.062	-19.280	-0.237	-0.147
-528.048	283.668	-0.087	0.156
-527.033	-200.000	-0.004	0.120
-526.018	206.827	0.034	-0.053
-525.004	-200.000	0.001	0.227
-523.989	187.897	0.069	0.103
-522.975	-19.302	-0.297	-0.185
-521.960	388.879	0.088	-0.182
-520.945	199.121	0.170	-0.261
-519.931	43.574	0.206	0.188
-518.916	322.983	-0.076	0.146
-517.902	-182.121	-0.208	0.004
-516.887	67.870	0.025	0.026
-515.872	23.639	0.025	-0.021
-514.858	-71.553	-0.101	0.038
-513.843	-200.000	0.059	0.383
-512.829	-108.586	0.248	0.053
-511.814	-200.000	-0.001	0.226
-510.799	75.515	0.171	-0.181
-509.785	59.229	0.151	0.148
-508.770	-19.068	0.162	0.101
-507.756	380.587	-0.087	-0.178
-506.741	53.423	0.139	0.133
-505.726	-200.000	-0.027	0.280
-504.712	-125.616	0.151	0.023
-503.697	-115.355	-0.346	-0.065
-502.683	-60.131	-0.228	0.097
-501.668	-148.770	0.244	0.020
-500.653	-51.860	-0.205	-0.096
-499.639	-48.490	-0.188	-0.091
-498.624	-89.215	0.344	-0.102
-497.610	55.934	0.020	0.020
-496.595	599.726	-0.086	0.214
-495.581	-200.000	0.037	0.179
-494.566	33.428	-0.169	0.147
-493.551	-45.038	-0.094	0.047
-492.537	74.097	-0.222	-0.233
-491.522	-200.000	-0.011	-0.242
-490.508	-53.525	-0.356	0.163
-489.493	31.189	0.087	0.074
-488.478	459.050	-0.073	-0.161
-487.464	-134.218	0.176	-0.022
-486.449	-67.716	0.178	0.070
-485.435	-84.678	0.113	0.036
-484.420	-54.406	0.066	0.030
-483.405	-120.025	-0.110	0.019
-482.391	164.341	-0.067	0.094
-481.376	443.290	-0.018	-0.040
-480.362	-43.123	0.238	0.120
-479.347	800.000	-0.074	-0.292
-478.332	800.000	0.037	0.113
-477.318	128.105	0.230	-0.293
-476.303	-12.115	0.161	0.105
-475.289	-86.797	-0.033	0.010
-474.274	800.000	-0.119	-0.380
-473.259	-84.504	0.029	0.009
-472.245	69.783	-0.382	-0.393
-471.230	-124.553	0.169	-0.026
-470.216	-140.605	0.120	0.012
-469.201	30.853	0.131	-0.112
-468.186	61.700	0.054	0.053
-467.172	-124.725	0.124	0.019
-466.157	185.244	-0.100	-0.148
-465.143	1.514	0.016	0.012
-464.128	-200.000	-0.008	-0.635
-463.113	116.688	0.199	-0.244
-462.099	162.980	0.107	-0.150
-461.084	282.196	-0.134	-0.240
-460.070	385.842	-0.131	-0.270
-459.055	-200.000	0.029	-0.162
-458.040	-25.938	-0.215	-0.126
-457.026	-135.125	0.163	-0.020
-456.011	-49.451	0.212	-0.101
-454.997	154.069	0.171	-0.235
-453.982	-43.690	-0.316	0.159
-452.968	677.741	0.036	-0.094
-451.953	-28.887	-0.139	-0.080
-450.938	-200.000	-0.010	-0.377
-449.924	-68.316	0.314	0.122
-448.909	-200.000	-0.012	-0.149
-447.895	126.030	0.166	0.210
-446.880	-200.000	-0.002	-0.013
-445.865	97.952	0.202	0.232
-444.851	800.000	0.122	0.393
-443.836	-81.949	0.199	-0.065
-442.822	800.000	-0.108	-0.369
-441.807	66.154	-0.184	-0.186
-440.792	-107.554	0.144	0.031
-439.778	-135.327	-0.240	0.029
-438.763	-200.000	0.027	0.252
-437.749	495.311	0.112	-0.257
-436.734	-80.927	0.275	-0.091
-435.719	284.407	-0.134	-0.240
-434.705	202.492	0.185	0.285
-433.690	-34.293	-0.137	0.075
-432.676	263.147	-0.105	-0.182
-431.661	-200.000	0.003	-0.028
-430.646	256.261	0.073	-0.124
-429.632	62.468	-0.040	-0.040
-428.617	800.000	-0.011	0.039
-427.603	43.945	0.259	0.236
-426.588	103.955	0.177	0.207
-425.573	113.168	0.047	-0.057
-424.559	-62.704	0.416	0.172
-423.544	-107.811	-0.303	0.066
-422.530	4.116	0.222	-0.162
-421.515	-200.000	-0.026	0.392
-420.500	-200.000	0.029	0.360
-419.486	-138.406	-0.210	0.023
-418.471	-161.125	-0.159	-0.008
-417.457	-30.294	0.133	-0.075
-416.442	-89.828	-0.083	0.024
-415.428	-28.009	0.118	-0.068
-414.413	-17.411	0.194	0.122
-413.398	-200.000	0.038	0.364
-412.384	-200.000	0.000	0.253
-411.369	-102.619	0.291	0.069
-410.355	-23.132	-0.149	-0.089
-409.340	-144.440	0.332	0.031
-408.325	96.805	0.130	0.148
-407.311	-200.000	0.039	0.173
-406.296	32.805	0.147	0.127
-405.282	-163.708	-0.391	-0.018
-404.267	41.992	0.185	0.167
-403.252	131.202	0.096	0.122
-402.238	800.000	-0.063	-0.235
-401.223	96.918	0.097	0.111
-400.209	800.000	0.095	-0.406
-399.194	-143.780	0.095	0.009
-398.179	-83.222	0.083	-0.027
-397.165	280.719	0.142	-0.253
-396.150	-164.274	-0.229	-0.011
-395.136	800.000	-0.085	-0.255
-394.121	800.000	0.016	-0.054
-393.106	-136.272	0.379	0.044
-392.092	414.491	-0.058	-0.124
-391.077	-169.197	-0.091	0.003
-390.063	-200.000	-0.037	0.228
-389.048	15.581	-0.223	0.175
-388.033	800.000	-0.074	-0.221
-387.019	341.626	-0.123	-0.240
-386.004	492.173	-0.104	-0.238
-384.990	-200.000	0.052	0.305
-383.975	-40.066	0.165	0.086
-382.960	280.623	0.100	0.178
-381.946	-137.800	-0.260	0.029
-380.931	367.339	-0.054	0.108
-379.917	-109.509	-0.223	0.047
-378.902	198.544	0.151	-0.230
-377.888	-45.039	-0.275	-0.136
-376.873	-11.292	-0.383	-0.251
-375.858	675.531	0.100	-0.259
-374.844	357.701	0.059	0.117
-373.829	182.829	-0.186	0.274
-372.815	-70.733	0.224	-0.084
-371.800	-144.299	-0.190	-0.018
-370.785	-129.776	-0.059	0.008
-369.771	80.643	-0.120	0.129
-368.756	43.350	-0.113	0.102
-367.742	-48.633	-0.307	0.147
-366.727	230.693	-0.107	-0.174
-365.712	17.737	-0.191	0.151
-364.698	188.931	-0.122	0.181
-363.683	-72.894	-0.173	0.063
-362.669	-21.129	0.225	-0.137
-361.654	800.000	-0.080	0.280
-360.639	-38.712	0.141	-0.074
-359.625	-71.298	0.227	0.085
-358.610	-75.003	-0.227	-0.081
-357.596	800.000	-0.105	-0.414
-356.581	-200.000	-0.005	-0.063
-355.566	800.000	-0.115	-0.322
-354.552	-110.782	-0.313	-0.064
-353.537	67.804	-0.033	0.033
-352.523	800.000	-0.030	0.084
-351.508	-119.146	-0.149	-0.026
-350.493	-200.000	-0.042	0.234
-349.479	-71.402	-0.242	-0.090
-348.464	-9.537	-0.107	-0.071
-347.450	13.347	0.169	0.130
-346.435	-200.000	-0.024	-0.185
-345.420	800.000	0.093	0.273
-344.406	-126.352	0.336	-0.050
-343.391	-200.000	0.037	0.172
-342.377	85.599	-0.097	-0.106
-341.362	-93.725	-0.173	-0.047
-340.348	-200.000	0.010	-0.228
-339.333	92.189	0.048	-0.053
-338.318	-200.000	0.036	0.355
-337.304	98.641	-0.048	0.055
-336.289	-82.325	-0.084	-0.027
-335.275	-200.000	0.008	0.185
-334.260	-21.125	0.165	-0.100
-333.245	-200.000	-0.021	0.000
-332.231	116.539	0.023	0.028
-331.216	-112.134	-0.236	-0.047
-330.202	279.042	-0.141	0.250
-329.187	7.227	-0.174	-0.129
-328.172	-200.000	0.029	0.173
-327.158	-93.086	-0.221	0.061
-326.143	-143.533	-0.053	0.005
-325.129	172.136	0.069	0.098
-324.114	-96.966	-0.077	-0.020
-323.099	-7.909	-0.109	-0.073
-322.085	-25.597	0.225	-0.132
-321.070	-89.519	-0.118	0.034
-320.056	-200.000	0.025	-0.170
-319.041	-35.930	0.118	0.063
-318.026	632.411	0.010	-0.026
-317.012	14.548	0.295	-0.229
-315.997	800.000	0.049	0.178
-314.983	120.715	0.131	0.162
-313.968	-200.000	0.003	0.098
-312.953	-200.000	-0.042	-0.315
-311.939	-54.379	-0.214	0.096
-310.924	29.702	-0.068	0.058
-309.910	-200.000	-0.034	-0.166
-308.895	155.254	-0.261	-0.356
-307.880	-101.781	0.148	0.036
-306.866	487.471	-0.071	-0.160
-305.851	-72.020	-0.115	-0.043
-304.837	800.000	-0.055	0.211
-303.822	-96.497	0.191	-0.050
-302.807	-200.000	0.075	0.360
-301.793	800.000	-0.089	-0.360
-300.778	121.727	-0.169	-0.209
-299.764	-35.306	0.154	-0.083
-298.749	-200.000	-0.104	-0.463
-297.735	-200.000	-0.030	0.501
-296.720	405.672	-0.163	0.341
-295.705	161.757	0.110	-0.153
-294.691	395.357	0.255	-0.527
-293.676	-78.328	-0.215	-0.073
-292.662	-152.682	0.242	0.017
-291.647	482.957	-0.035	-0.080
-290.632	788.294	-0.076	0.206
-289.618	800.000	-0.123	0.378
-288.603	-83.812	-0.244	0.077
-287.589	-151.512	-0.250	0.018
-286.574	-117.562	-0.244	0.044
-285.559	288.987	0.059	-0.106
-284.545	-115.589	-0.320	0.060
-283.530	241.766	-0.171	-0.283
-282.516	-126.891	0.117	0.017
-281.501	108.108	0.315	-0.373
-280.486	-200.000	0.002	0.384
-279.472	-200.000	0.024	0.222
-278.457	-111.304	-0.309	-0.062
-277.443	-92.735	0.031	-0.009
-276.428	800.000	-0.029	-0.091
-275.413	-162.275	0.131	0.006
-274.399	56.205	-0.272	-0.262
-273.384	800.000	-0.032	-0.103
-272.370	-200.000	-0.030	0.208
-271.355	86.878	0.067	-0.074
-270.340	-200.000	-0.029	-0.352
-269.326	800.000	-0.076	0.293
-268.311	-200.000	-0.018	0.123
-267.297	-94.144	-0.338	-0.092
-266.282	-200.000	0.016	0.214
-265.267	-72.285	0.088	-0.032
-264.253	161.347	-0.103	0.143
-263.238	-71.547	0.184	-0.068
-262.224	-82.115	0.159	-0.051
-261.209	-200.000	-0.059	-0.257
-260.195	64.539	-0.114	-0.114
-259.180	105.775	-0.272	-0.319
-258.165	-200.000	0.021	-0.095
-257.151	-107.260	0.098	-0.021
-256.136	737.054	-0.123	0.327
-255.122	-115.808	0.154	-0.029
-254.107	436.828	0.095	-0.205
-253.092	-11.568	0.283	-0.184
-252.078	198.959	0.137	0.207
-251.063	-200.000	-0.027	0.256
-250.049	-37.602	0.232	0.123
-249.034	3.508	-0.128	-0.092
-248.019	-47.165	0.181	0.087
-247.005	800.000	0.087	-0.238
-245.990	-7.852	0.038	-0.026
-244.976	430.247	-0.073	0.157
-243.961	-27.838	-0.070	-0.040
-242.946	-139.325	0.322	0.034
-241.932	104.833	-0.104	-0.121
-240.917	9.260	0.165	0.123
-239.903	800.000	0.121	0.352
-238.888	-200.000	-0.017	0.142
-237.873	-118.858	0.233	-0.041
-236.859	-5.308	0.224	-0.152
-235.844	431.933	-0.127	0.273
-234.830	58.912	-0.072	-0.070
-233.815	283.125	-0.088	-0.157
-232.800	800.000	0.028	0.094
-231.786	-200.000	0.021	0.277
-230.771	59.406	-0.180	-0.176
-229.757	-12.260	-0.256	0.166
-228.742	800.000	-0.027	-0.090
-227.727	462.111	-0.087	-0.193
-226.713	107.038	-0.058	-0.068
-225.698	-74.674	0.094	0.033
-224.684	-200.000	-0.051	0.375
-223.669	-200.000	0.007	-0.255
-222.655	111.337	0.181	-0.216
-221.640	164.164	-0.124	-0.173
-220.625	-43.934	0.368	0.183
-219.611	-80.844	0.212	0.070
-218.596	44.739	0.008	0.008
-217.582	-159.329	-0.388	-0.021
-216.567	-186.006	0.474	0.007
-215.552	147.293	-0.172	0.230
-214.538	88.480	0.110	-0.120
-213.523	-200.000	0.070	0.372
-212.509	-36.291	0.086	0.046
-211.494	771.355	0.086	-0.231
-210.479	-129.840	-0.183	0.025
-209.465	187.937	-0.085	0.126
-208.450	-200.000	-0.027	-0.393
-207.436	52.468	0.216	-0.204
-206.421	-40.023	0.125	-0.065
-205.406	43.442	0.296	0.268
-204.392	570.610	-0.133	0.319
-203.377	134.930	-0.113	-0.145
-202.363	800.000	0.009	-0.036
-201.348	-200.000	0.033	-0.466
-200.333	-138.442	0.106	-0.012
-199.319	49.432	0.251	0.233
-198.304	-180.147	-0.189	0.004
-197.290	79.372	-0.147	-0.155
-196.275	3.310	0.122	0.088
-195.260	-11.770	-0.042	0.028
-194.246	-200.000	0.047	0.253
-193.231	0.673	-0.181	-0.128
-192.217	-135.926	-0.080	-0.009
-191.202	-78.193	0.356	0.121
-190.187	76.472	-0.085	-0.089
-189.173	-200.000	-0.002	-0.325
-188.158	-82.563	0.169	-0.054
-187.144	-163.059	0.428	-0.020
-186.129	46.541	0.125	-0.115
-185.114	-200.000	-0.021	0.152
-184.100	-200.000	-0.004	0.186
-183.085	731.656	-0.120	-0.318
-182.071	-200.000	-0.014	0.199
-181.056	-24.843	0.505	0.296
-180.042	-139.941	-0.250	-0.026
-179.027	457.731	0.059	-0.131
-178.012	-113.691	-0.142	-0.027
-176.998	-94.440	0.122	-0.033
-175.983	624.349	0.109	0.272
-174.969	-159.573	-0.285	0.016
-173.954	-47.849	0.179	0.086
-172.939	-85.932	-0.204	-0.062
-171.925	148.095	-0.141	-0.188
-170.910	-39.246	-0.267	-0.139
-169.896	268.675	0.079	-0.137
-168.881	-149.425	0.082	0.006
-167.866	-49.875	-0.065	0.030
-166.852	67.352	0.081	0.081
-165.837	-11.603	0.090	0.058
-164.823	-107.247	-0.142	0.031
-163.808	548.900	-0.032	-0.075
-162.793	-66.719	0.209	0.082
-161.779	-39.354	0.151	-0.078
-160.764	165.263	0.037	0.051
-159.750	-200.000	-0.031	-0.226
-158.735	385.718	-0.137	-0.279
-157.720	499.737	0.041	-0.092
-156.706	379.561	0.196	0.397
-155.691	125.492	-0.302	-0.376
-154.677	171.339	0.135	0.192
-153.662	143.835	0.164	-0.216
-152.647	800.000	-0.057	0.175
-151.633	-27.456	0.120	0.069
-150.618	-200.000	0.046	-0.260
-149.604	-116.420	-0.321	-0.058
-148.589	113.973	-0.206	-0.247
-147.574	-200.000	0.035	0.233
-146.560	-200.000	0.089	0.426
-145.545	299.408	-0.161	0.292
-144.531	-200.000	-0.193	-0.001
-143.516	800.000	0.061	0.215
-142.502	42.385	-0.139	-0.125
-141.487	110.166	-0.128	-0.152
-140.472	65.528	0.059	-0.059
-139.458	800.000	-0.024	-0.068
-138.443	-200.000	0.018	0.315
-137.429	68.080	0.241	0.243
-136.414	137.050	0.271	-0.350
-135.399	-161.920	0.180	0.009
-134.385	252.459	-0.070	-0.118
-133.370	27.274	-0.351	-0.291
-132.356	-200.000	-0.020	-0.238
-131.341	99.934	0.103	-0.118
-130.326	215.228	0.325	0.508
-129.312	369.687	0.096	0.192
-128.297	11.746	0.193	0.146
-127.283	-178.723	-0.392	-0.009
-126.268	-49.923	0.147	0.069
-125.253	128.046	-0.242	0.303
-124.239	296.107	0.147	0.265
-123.224	-168.082	0.145	-0.006
-122.210	-200.000	0.001	-0.009
