DTS Sentinel unit serial number:	SN413079Multiplexer serial number:	ORYXHardware model number:	OX4-SRSoftware version number:	ORYX F/W v4.00 Oryx Data Collector v3.7.2.0data status	okinstallation	princeton_trtdifferential loss correction	single-endedforward channel	channel 1reverse channel	N/Adate	2019/09/11time	05:04:11forward acquisition time	60.00reverse acquisition time	0.00gamma	496.2192k internal	0.2330k external	0.2330temperature offset calibration	0.9927default loss term (dB/km)	0.3790temperature slope calibration	1.0000multiplexer offset coefficient	1.0000multiplexer slope coefficient	1.0000fibre end	0.00T internal ref (°C)	29.45T ext. ref 1 (°C)	-0.27T ext. ref 2 (°C)	23.38length (m)	temperature (°C)	Stokes	anti-Stokes-747.200	-139.678	0.136	0.015
-746.185	72.330	-0.135	0.142
-745.171	-200.000	-0.033	-0.188
-744.156	-200.000	-0.054	0.254
-743.142	-200.000	0.033	0.253
-742.127	19.792	-0.129	-0.104
-741.112	284.970	-0.142	-0.258
-740.098	-164.081	0.250	-0.012
-739.083	-182.840	-0.292	-0.005
-738.069	-200.000	-0.023	0.288
-737.054	124.216	-0.058	-0.073
-736.039	-14.773	0.183	0.118
-735.025	-200.000	-0.060	0.351
-734.010	175.367	-0.120	-0.176
-732.996	800.000	-0.030	-0.124
-731.981	-200.000	-0.077	-0.414
-730.966	-178.275	0.179	0.004
-729.952	263.463	-0.151	-0.265
-728.937	800.000	0.046	-0.136
-727.923	473.849	0.077	0.175
-726.908	-200.000	-0.061	-0.297
-725.894	-200.000	-0.001	-0.180
-724.879	-49.908	0.245	0.117
-723.864	-71.656	-0.255	0.096
-722.850	-200.000	-0.004	0.035
-721.835	800.000	-0.103	-0.391
-720.821	800.000	-0.116	-0.477
-719.806	800.000	0.077	-0.230
-718.791	-147.993	-0.260	0.022
-717.777	-200.000	-0.028	0.262
-716.762	800.000	-0.075	0.294
-715.748	-106.506	-0.274	0.062
-714.733	46.999	0.016	0.015
-713.718	-11.366	-0.219	-0.145
-712.704	-73.968	0.409	-0.149
-711.689	-58.091	-0.334	-0.146
-710.675	179.733	0.136	0.200
-709.660	-10.258	-0.099	-0.066
-708.645	-53.209	0.276	-0.127
-707.631	-107.553	-0.284	0.062
-706.616	-113.741	0.272	-0.053
-705.602	-157.846	-0.206	-0.012
-704.587	-200.000	0.016	0.113
-703.572	-200.000	-0.008	0.162
-702.558	9.484	-0.019	0.014
-701.543	-63.268	0.170	-0.070
-700.529	800.000	-0.109	-0.438
-699.514	-46.382	0.096	0.047
-698.499	-90.034	-0.085	0.025
-697.485	-8.750	-0.026	-0.018
-696.470	-57.923	-0.251	-0.110
-695.456	113.221	0.137	0.167
-694.441	-200.000	-0.082	0.406
-693.426	-200.000	-0.036	0.226
-692.412	-59.203	-0.152	-0.066
-691.397	-111.641	0.272	0.055
-690.383	800.000	-0.080	-0.274
-689.368	-113.596	-0.156	0.031
-688.354	122.765	-0.069	0.087
-687.339	-91.293	0.173	0.050
-686.324	510.318	0.084	-0.197
-685.310	4.780	0.229	-0.169
-684.295	800.000	0.131	-0.465
-683.281	-127.280	0.309	-0.045
-682.266	20.893	0.243	-0.197
-681.251	-124.602	-0.262	-0.041
-680.237	-95.286	-0.181	-0.049
-679.222	-67.383	-0.230	0.091
-678.208	37.849	-0.043	0.038
-677.193	443.595	0.074	0.162
-676.178	-155.432	-0.099	0.006
-675.164	-14.475	0.038	0.025
-674.149	-128.849	-0.251	-0.035
-673.135	275.231	-0.113	0.201
-672.120	-200.000	-0.008	0.073
-671.105	-36.251	0.195	-0.105
-670.091	62.453	-0.115	0.116
-669.076	181.649	-0.173	-0.256
-668.062	142.550	-0.252	-0.337
-667.047	14.956	-0.216	-0.170
-666.032	734.648	0.030	0.080
-665.018	-3.974	0.102	-0.071
-664.003	-53.743	-0.033	0.015
-662.989	-67.944	-0.151	-0.059
-661.974	-138.284	0.093	0.010
-660.959	167.603	0.150	0.214
-659.945	-195.450	0.289	0.002
-658.930	-69.785	-0.177	-0.068
-657.916	800.000	0.039	0.113
-656.901	69.934	-0.258	0.267
-655.886	231.510	-0.075	0.123
-654.872	-200.000	0.004	-0.325
-653.857	49.190	0.084	0.079
-652.843	2.412	0.248	0.180
-651.828	18.635	-0.203	-0.163
-650.814	800.000	0.045	-0.161
-649.799	674.740	-0.063	-0.164
-648.784	800.000	0.054	-0.154
-647.770	800.000	-0.152	-0.429
-646.755	-22.977	0.196	-0.118
-645.741	113.706	0.072	0.088
-644.726	145.699	-0.043	0.058
-643.711	166.654	0.186	0.264
-642.697	133.056	-0.062	-0.080
-641.682	148.544	-0.125	-0.169
-640.668	191.743	0.086	0.130
-639.653	379.284	-0.206	-0.422
-638.638	800.000	-0.100	0.328
-637.624	-7.761	0.213	0.144
-636.609	-200.000	-0.023	-0.138
-635.595	415.667	-0.169	-0.361
-634.580	57.018	-0.080	-0.078
-633.565	266.111	0.190	0.332
-632.551	-79.643	-0.164	0.056
-631.536	85.288	-0.098	0.108
-630.522	-200.000	-0.027	0.213
-629.507	682.082	-0.021	-0.056
-628.492	800.000	0.085	-0.242
-627.478	800.000	0.103	-0.320
-626.463	244.663	0.188	-0.316
-625.449	-26.373	-0.105	-0.062
-624.434	-200.000	0.036	0.288
-623.419	-200.000	0.017	0.115
-622.405	-13.244	-0.219	0.142
-621.390	-123.284	0.492	0.079
-620.376	528.318	-0.174	-0.411
-619.361	163.070	0.122	0.172
-618.346	-122.216	-0.114	-0.019
-617.332	-89.937	-0.292	-0.085
-616.317	408.227	0.094	0.199
-615.303	-23.253	0.123	0.074
-614.288	27.847	-0.187	0.158
-613.273	-105.868	0.243	-0.055
-612.259	-200.000	0.008	-0.049
-611.244	200.777	-0.157	-0.242
-610.230	-200.000	-0.006	-0.036
-609.215	-200.000	0.055	0.311
-608.201	-6.239	-0.356	-0.243
-607.186	157.213	-0.067	-0.093
-606.171	159.445	0.147	0.205
-605.157	-182.034	-0.161	-0.003
-604.142	55.414	-0.463	-0.449
-603.128	244.873	0.129	-0.217
-602.113	387.679	0.055	0.115
-601.098	651.556	0.176	0.453
-600.084	-55.615	0.291	-0.130
-599.069	-200.000	-0.012	-0.098
-598.055	-145.537	-0.202	0.018
-597.040	216.055	-0.072	-0.115
-596.025	-200.000	0.002	0.065
-595.011	32.671	0.142	0.123
-593.996	90.374	0.149	0.167
-592.982	-141.260	-0.071	0.007
-591.967	-86.783	0.140	-0.043
-590.952	-18.578	-0.296	-0.184
-589.938	-150.384	0.161	0.012
-588.923	350.430	-0.030	0.059
-587.909	349.129	0.088	-0.173
-586.894	-119.900	-0.355	-0.061
-585.879	-200.000	-0.004	-0.142
-584.865	540.621	-0.099	-0.236
-583.850	-50.203	-0.409	-0.194
-582.836	-200.000	0.018	0.184
-581.821	-200.000	0.014	0.259
-580.806	-99.585	-0.353	-0.089
-579.792	42.985	0.381	-0.348
-578.777	95.596	0.078	0.089
-577.763	519.875	-0.078	-0.182
-576.748	-84.666	-0.273	0.086
-575.733	-59.318	0.179	-0.077
-574.719	308.233	-0.048	0.090
-573.704	-12.849	0.217	-0.141
-572.690	-73.978	-0.471	0.171
-571.675	800.000	0.076	-0.326
-570.661	-19.710	0.144	-0.089
-569.646	102.895	0.139	-0.162
-568.631	-127.057	-0.296	0.043
-567.617	45.519	-0.155	-0.143
-566.602	6.261	-0.245	-0.182
-565.588	98.785	-0.086	0.099
-564.573	337.751	-0.080	-0.156
-563.558	-1.612	0.082	-0.058
-562.544	-200.000	0.041	0.252
-561.529	-42.070	-0.357	0.182
-560.515	276.049	0.062	-0.109
-559.500	-47.240	-0.345	-0.168
-558.485	-18.080	-0.327	0.205
-557.471	397.607	-0.096	0.200
-556.456	-77.041	-0.132	0.046
-555.442	-183.988	-0.128	0.002
-554.427	-104.389	-0.176	-0.041
-553.412	-115.254	0.245	0.046
-552.398	-18.531	0.263	-0.164
-551.383	800.000	-0.004	-0.012
-550.369	77.410	0.172	-0.183
-549.354	15.019	0.015	0.012
-548.339	314.141	-0.095	-0.178
-547.325	18.969	-0.055	-0.044
-546.310	-146.901	-0.260	0.022
-545.296	800.000	-0.033	-0.093
-544.281	-14.464	0.146	-0.094
-543.266	90.651	0.295	-0.331
-542.252	-200.000	-0.008	0.182
-541.237	-119.538	0.206	-0.036
-540.223	800.000	-0.090	0.320
-539.208	-181.515	-0.149	-0.003
-538.193	506.376	0.069	-0.160
-537.179	-150.693	-0.048	0.004
-536.164	-91.826	0.209	0.059
-535.150	-200.000	0.020	0.138
-534.135	-118.054	-0.116	0.021
-533.121	-99.192	0.107	-0.027
-532.106	60.304	0.194	-0.191
-531.091	500.562	-0.095	-0.218
-530.077	-200.000	-0.009	0.044
-529.062	240.502	0.032	0.054
-528.048	27.373	-0.129	-0.108
-527.033	-110.160	0.242	-0.050
-526.018	800.000	0.069	0.257
-525.004	101.899	-0.047	-0.054
-523.989	2.881	0.253	-0.183
-522.975	-125.958	0.074	-0.011
-521.960	81.204	-0.124	0.134
-520.945	313.281	-0.055	0.104
-519.931	-34.498	0.100	-0.054
-518.916	-2.050	0.120	0.084
-517.902	-98.913	-0.401	-0.102
-516.887	9.207	-0.168	-0.127
-515.872	-88.197	-0.284	0.085
-514.858	49.070	-0.119	-0.111
-513.843	800.000	-0.043	0.175
-512.829	48.918	0.303	0.283
-511.814	-152.869	0.306	-0.022
-510.799	-126.812	0.079	0.012
-509.785	-74.562	0.271	0.097
-508.770	-36.215	-0.208	-0.112
-507.756	273.798	0.092	0.162
-506.741	571.725	0.099	0.241
-505.726	637.838	-0.095	-0.240
-504.712	-200.000	0.001	0.092
-503.697	-101.910	-0.316	-0.076
-502.683	-24.474	0.155	0.092
-501.668	20.769	-0.252	0.204
-500.653	36.683	0.038	0.034
-499.639	19.987	-0.139	-0.112
-498.624	-51.097	0.096	-0.045
-497.610	-200.000	-0.034	-0.268
-496.595	-200.000	0.006	-0.074
-495.581	-200.000	-0.027	-0.129
-494.566	-79.518	0.163	0.055
-493.551	-128.048	0.139	0.020
-492.537	153.194	-0.112	-0.153
-491.522	182.140	0.143	-0.210
-490.508	-24.949	-0.147	0.087
-489.493	11.414	0.249	-0.190
-488.478	800.000	-0.051	-0.203
-487.464	800.000	-0.026	-0.094
-486.449	-163.941	-0.232	-0.011
-485.435	-200.000	0.036	0.262
-484.420	257.465	-0.084	0.144
-483.405	-53.974	0.199	0.090
-482.391	18.316	-0.221	-0.176
-481.376	-200.000	-0.036	0.344
-480.362	800.000	-0.014	-0.046
-479.347	-112.628	0.324	-0.064
-478.332	-200.000	-0.033	0.194
-477.318	-44.346	-0.094	-0.047
-476.303	-43.082	0.252	-0.127
-475.289	55.684	-0.148	-0.143
-474.274	800.000	0.006	0.020
-473.259	-118.176	0.173	0.031
-472.245	100.403	-0.274	-0.316
-471.230	715.838	0.112	-0.295
-470.216	800.000	-0.019	0.055
-469.201	-86.067	0.413	0.127
-468.186	70.566	0.056	0.058
-467.172	-200.000	-0.024	-0.398
-466.157	800.000	-0.040	-0.114
-465.143	161.444	-0.053	0.074
-464.128	-200.000	0.071	0.316
-463.113	106.374	0.307	0.362
-462.099	69.672	-0.210	0.215
-461.084	44.888	0.313	-0.287
-460.070	188.220	0.287	0.428
-459.055	-200.000	-0.053	-0.460
-458.040	-200.000	-0.051	0.325
-457.026	179.897	0.035	-0.051
-456.011	-57.152	0.273	0.120
-454.997	-84.268	0.212	0.067
-453.982	29.979	0.090	0.076
-452.968	-133.853	0.205	-0.025
-451.953	-39.526	0.045	0.023
-450.938	-65.687	0.228	0.091
-449.924	-66.446	0.215	0.085
-448.909	-200.000	-0.006	-0.347
-447.895	-137.267	-0.015	-0.002
-446.880	-84.447	0.190	-0.060
-445.865	-3.590	0.095	0.066
-444.851	-95.595	-0.199	0.053
-443.836	-200.000	-0.008	-0.221
-442.822	407.961	-0.060	-0.126
-441.807	21.068	-0.210	0.169
-440.792	-200.000	0.058	0.350
-439.778	-1.847	0.033	0.023
-438.763	-200.000	0.003	0.206
-437.749	-107.526	-0.068	-0.015
-436.734	14.164	0.104	0.081
-435.719	56.739	0.252	0.244
-434.705	-200.000	-0.034	-0.191
-433.690	-200.000	-0.005	-0.212
-432.676	-200.000	-0.022	0.329
-431.661	800.000	0.073	0.268
-430.646	-200.000	-0.023	-0.365
-429.632	-83.827	0.297	0.094
-428.617	177.840	0.189	-0.274
-427.603	-115.049	0.169	0.032
-426.588	-45.408	-0.463	0.228
-425.573	-28.087	-0.217	-0.125
-424.559	-89.056	0.184	0.054
-423.544	-124.412	0.258	0.040
-422.530	800.000	0.044	-0.140
-421.515	238.699	-0.148	0.244
-420.500	-59.477	0.093	0.040
-419.486	800.000	0.040	0.116
-418.471	42.664	0.163	0.147
-417.457	-127.813	-0.091	-0.013
-416.442	-44.351	-0.120	0.060
-415.428	-74.195	-0.139	0.050
-414.413	45.232	-0.154	0.141
-413.398	-200.000	-0.034	0.165
-412.384	242.431	0.159	0.265
-411.369	-103.998	0.043	-0.010
-410.355	-88.816	-0.134	-0.039
-409.340	501.925	-0.037	-0.084
-408.325	549.041	-0.065	-0.154
-407.311	427.244	0.150	0.322
-406.296	-56.220	0.185	-0.082
-405.282	364.654	-0.259	0.518
-404.267	-50.005	-0.177	-0.083
-403.252	-66.735	0.344	0.135
-402.238	800.000	-0.109	0.378
-401.223	-200.000	-0.017	0.114
-400.209	800.000	0.084	-0.248
-399.194	-97.128	-0.224	0.058
-398.179	-179.686	-0.176	-0.004
-397.165	206.806	0.146	0.226
-396.150	126.017	-0.111	0.139
-395.136	-200.000	-0.049	-0.366
-394.121	-104.061	-0.176	0.041
-393.106	800.000	-0.122	-0.356
-392.092	-128.435	0.289	0.041
-391.077	-33.973	-0.330	-0.180
-390.063	77.950	-0.077	-0.081
-389.048	454.854	-0.039	-0.086
-388.033	5.197	-0.172	0.126
-387.019	4.272	-0.069	0.050
-386.004	800.000	0.037	-0.120
-384.990	119.895	0.055	-0.068
-383.975	-143.686	0.242	0.023
-382.960	183.395	-0.233	0.342
-381.946	-131.011	0.208	-0.028
-380.931	62.190	0.146	0.145
-379.917	357.770	0.158	0.312
-378.902	-9.726	0.218	-0.144
-377.888	-49.599	-0.286	-0.135
-376.873	-200.000	0.061	0.271
-375.858	279.589	-0.067	0.118
-374.844	369.756	-0.013	0.025
-373.829	89.795	-0.149	-0.165
-372.815	-159.501	0.160	-0.009
-371.800	-128.703	-0.486	0.068
-370.785	-200.000	0.018	-0.148
-369.771	-192.101	-0.196	-0.002
-368.756	5.402	0.254	0.186
-367.742	86.730	0.075	-0.082
-366.727	1.746	-0.381	-0.272
-365.712	90.444	0.151	-0.168
-364.698	259.027	0.310	-0.531
-363.683	417.998	0.013	0.027
-362.669	-84.310	-0.223	0.070
-361.654	2.105	-0.242	-0.173
-360.639	800.000	0.069	-0.270
-359.625	-200.000	0.003	-0.359
-358.610	800.000	-0.053	-0.213
-357.596	-97.338	0.254	0.066
-356.581	-9.324	-0.093	-0.062
-355.566	-200.000	0.065	0.380
-354.552	-111.549	-0.283	0.057
-353.537	800.000	-0.068	-0.229
-352.523	-200.000	-0.057	-0.434
-351.508	-200.000	0.017	-0.149
-350.493	-200.000	0.014	-0.271
-349.479	800.000	-0.027	0.096
-348.464	131.630	0.167	0.213
-347.450	-106.162	0.072	-0.016
-346.435	800.000	-0.031	-0.104
-345.420	86.021	-0.170	-0.186
-344.406	399.128	-0.015	0.032
-343.391	282.814	-0.044	0.078
-342.377	109.112	0.056	-0.067
-341.362	-9.156	-0.216	-0.143
-340.348	-135.823	-0.086	-0.010
-339.333	66.787	0.101	0.102
-338.318	58.005	-0.161	0.156
-337.304	-44.387	-0.201	0.100
-336.289	800.000	0.041	0.116
-335.275	-200.000	0.004	-0.439
-334.260	-41.768	0.407	-0.207
-333.245	223.009	-0.132	0.211
-332.231	-103.016	0.263	0.062
-331.216	-36.692	-0.109	0.058
-330.202	800.000	-0.112	-0.364
-329.187	742.713	0.031	0.084
-328.172	800.000	0.116	-0.320
-327.158	-200.000	-0.011	-0.132
-326.143	65.418	0.026	-0.026
-325.129	-41.695	0.237	0.121
-324.114	-46.652	0.287	0.139
-323.099	-132.702	-0.363	-0.046
-322.085	146.241	-0.133	-0.176
-321.070	459.813	-0.173	-0.382
-320.056	195.937	-0.113	-0.169
-319.041	-200.000	0.020	0.106
-318.026	-108.329	0.172	0.037
-317.012	-156.801	-0.371	0.023
-315.997	-9.641	-0.124	-0.082
-314.983	231.332	-0.111	0.179
-313.968	-45.868	0.415	0.203
-312.953	108.293	-0.055	0.065
-311.939	348.124	-0.071	-0.138
-310.924	8.275	0.254	0.189
-309.910	-98.593	-0.084	0.021
-308.895	-200.000	0.012	-0.151
-307.880	9.671	-0.185	-0.139
-306.866	800.000	-0.050	0.162
-305.851	-153.130	-0.350	0.024
-304.837	-37.168	0.358	0.190
-303.822	-200.000	0.015	0.152
-302.807	-200.000	-0.036	0.252
-301.793	224.426	0.059	-0.094
-300.778	-157.872	-0.440	-0.026
-299.764	190.703	0.037	-0.055
-298.749	-161.698	-0.222	-0.011
-297.735	-67.596	0.251	0.097
-296.720	106.228	-0.137	-0.160
-295.705	25.190	-0.172	-0.142
-294.691	105.303	-0.066	-0.078
-293.676	-200.000	-0.003	-0.267
-292.662	141.780	0.178	-0.233
-291.647	-98.503	-0.055	-0.014
-290.632	-146.861	-0.137	-0.012
-289.618	800.000	0.123	0.436
-288.603	-118.755	0.148	-0.026
-287.589	-200.000	-0.036	-0.156
-286.574	-135.587	0.258	-0.030
-285.559	800.000	-0.152	-0.423
-284.545	-60.710	-0.036	0.015
-283.530	0.756	-0.172	-0.122
-282.516	12.685	0.129	-0.099
-281.501	192.567	0.133	-0.199
-280.486	-100.982	-0.177	-0.043
-279.472	-200.000	-0.039	-0.454
-278.457	-17.508	0.220	0.137
-277.443	192.058	0.185	0.275
-276.428	90.883	-0.227	0.251
-275.413	-28.532	0.119	0.068
-274.399	800.000	-0.061	0.213
-273.384	713.772	-0.035	0.091
-272.370	-89.317	0.362	-0.105
-271.355	-200.000	-0.071	0.336
-270.340	800.000	-0.066	0.259
-269.326	-57.990	-0.105	0.045
-268.311	349.422	0.042	0.082
-267.297	-200.000	-0.019	0.181
-266.282	-17.114	0.193	0.120
-265.267	8.327	-0.315	0.234
-264.253	-131.660	-0.221	-0.029
-263.238	-114.192	-0.014	0.003
-262.224	-116.831	-0.426	-0.077
-261.209	-61.422	0.330	-0.137
-260.195	163.566	-0.196	0.272
-259.180	-200.000	0.017	-0.460
-258.165	-200.000	-0.018	0.209
-257.151	155.822	0.050	-0.068
-256.136	-2.418	-0.198	-0.137
-255.122	56.958	-0.195	0.188
-254.107	-43.194	0.241	0.121
-253.092	293.891	0.067	0.121
-252.078	-200.000	0.054	0.291
-251.063	-24.252	-0.211	0.124
-250.049	109.712	-0.050	-0.059
-249.034	-148.097	-0.054	-0.004
-248.019	-179.985	0.293	-0.006
-247.005	-41.437	-0.182	0.093
-245.990	-20.621	0.195	-0.118
-244.976	140.599	0.107	0.140
-243.961	741.375	0.055	-0.145
-242.946	-149.099	0.318	-0.025
-241.932	-137.627	0.229	0.025
-240.917	593.396	0.098	0.238
-239.903	30.059	0.165	-0.139
-238.888	164.011	-0.197	-0.274
-237.873	241.533	0.098	-0.162
-236.859	203.205	-0.021	0.033
-235.844	800.000	-0.014	0.054
-234.830	606.882	0.074	-0.183
-233.815	23.455	-0.228	-0.185
-232.800	14.377	0.127	-0.098
-231.786	-200.000	-0.057	0.302
-230.771	134.238	-0.095	-0.122
-229.757	-10.383	-0.138	-0.090
-228.742	484.137	-0.040	-0.090
-227.727	-26.277	0.191	0.110
-226.713	-200.000	0.005	0.081
-225.698	-64.649	-0.165	0.066
-224.684	800.000	-0.053	-0.173
-223.669	-137.765	0.199	0.022
-222.655	800.000	0.048	0.150
-221.640	11.495	0.344	0.260
-220.625	-53.290	-0.277	0.125
-219.611	800.000	-0.071	0.247
-218.596	-14.676	0.164	-0.104
-217.582	10.685	0.359	0.270
-216.567	800.000	-0.078	0.229
-215.552	-2.342	0.287	-0.198
-214.538	126.835	-0.011	-0.014
-213.523	379.708	0.024	0.048
-212.509	-47.145	-0.197	0.094
-211.494	-142.602	-0.305	0.029
-210.479	149.243	-0.208	0.278
-209.465	-184.436	0.299	0.005
-208.450	297.818	-0.121	-0.220
-207.436	800.000	0.037	0.155
-206.421	-200.000	0.007	0.157
-205.406	800.000	-0.014	0.040
-204.392	-151.620	0.199	0.014
-203.377	-3.446	-0.130	0.089
-202.363	208.374	0.275	0.424
-201.348	112.623	0.131	-0.157
-200.333	-200.000	-0.050	0.283
-199.319	-200.000	-0.004	-0.061
-198.304	238.036	0.059	0.097
-197.290	-200.000	-0.098	-0.578
-196.275	800.000	-0.041	0.146
-195.260	-200.000	-0.005	0.162
-194.246	251.022	-0.072	-0.121
-193.231	-99.991	-0.249	-0.061
-192.217	-200.000	-0.033	-0.206
-191.202	-200.000	0.011	0.218
-190.187	-200.000	0.002	0.204
-189.173	-200.000	0.086	0.513
-188.158	-200.000	0.121	-0.001
-187.144	-81.336	-0.402	-0.130
-186.129	-175.095	-0.046	0.001
-185.114	582.963	-0.031	-0.076
-184.100	800.000	0.052	-0.165
-183.085	73.589	0.301	0.310
-182.071	0.817	0.140	0.099
-181.056	686.148	0.037	-0.096
-180.042	800.000	-0.070	-0.194
-179.027	-26.621	0.252	-0.145
-178.012	-10.478	-0.056	0.037
-176.998	94.109	0.166	-0.186
-175.983	800.000	0.081	0.225
-174.969	-22.551	0.090	0.054
-173.954	3.693	-0.123	0.088
-172.939	92.476	-0.222	0.247
-171.925	-56.178	-0.280	0.123
-170.910	-18.018	0.369	-0.228
-169.896	34.172	-0.188	0.161
-168.881	800.000	-0.046	-0.125
-167.866	220.482	-0.188	0.297
-166.852	-124.566	0.043	0.007
-165.837	800.000	0.047	0.183
-164.823	517.838	0.037	0.085
-163.808	-200.000	0.009	0.311
-162.793	54.345	0.142	-0.134
-161.779	211.510	0.153	-0.237
-160.764	-95.464	0.208	0.055
-159.750	-118.638	0.351	-0.061
-158.735	-200.000	0.009	-0.201
-157.720	225.507	-0.201	-0.320
-156.706	145.166	0.146	0.192
-155.691	-103.828	-0.096	0.022
-154.677	61.094	-0.204	0.199
-153.662	-83.991	0.237	-0.074
-152.647	-68.837	0.183	0.070
-151.633	467.882	0.124	0.274
-150.618	-200.000	-0.009	0.167
-149.604	10.870	0.350	-0.263
-148.589	-200.000	-0.004	-0.118
-147.574	45.505	0.085	-0.077
-146.560	-129.869	0.260	-0.035
-145.545	76.521	-0.135	0.141
-144.531	26.640	0.395	0.325
-143.516	-144.109	-0.186	0.017
-142.502	-58.253	0.109	0.047
-141.487	108.570	-0.180	-0.211
-140.472	800.000	-0.037	-0.102
-139.458	-30.200	0.227	-0.127
-138.443	-200.000	-0.046	-0.227
-137.429	52.987	0.044	-0.042
-136.414	-200.000	-0.026	-0.196
-135.399	53.996	-0.268	0.254
-134.385	-3.096	0.177	0.121
-133.370	-65.458	0.227	-0.090
-132.356	800.000	0.114	0.465
-131.341	520.853	-0.111	0.257
-130.326	82.983	0.306	-0.327
-129.312	-19.663	0.152	0.092
-128.297	-30.040	-0.151	0.084
-127.283	-46.268	0.351	0.170
-126.268	97.459	-0.118	0.133
-125.253	-200.000	-0.012	-0.338
-124.239	800.000	0.061	-0.179
-123.224	-49.412	0.496	0.233
-122.210	-18.409	-0.164	-0.100
-121.195	22.568	-0.338	0.272
