DTS Sentinel unit serial number:	SN413079Multiplexer serial number:	ORYXHardware model number:	OX4-SRSoftware version number:	ORYX F/W v4.00 Oryx Data Collector v3.7.2.0data status	okinstallation	princeton_trtdifferential loss correction	single-endedforward channel	channel 1reverse channel	N/Adate	2019/09/15time	03:34:35forward acquisition time	60.00reverse acquisition time	0.00gamma	496.2192k internal	0.2324k external	0.2324temperature offset calibration	0.9985default loss term (dB/km)	0.3790temperature slope calibration	1.0000multiplexer offset coefficient	1.0000multiplexer slope coefficient	1.0000fibre end	0.00T internal ref (°C)	31.00T ext. ref 1 (°C)	4.61T ext. ref 2 (°C)	25.81length (m)	temperature (°C)	Stokes	anti-Stokes-747.200	107.724	-0.199	-0.239
-746.185	-96.460	-0.210	-0.056
-745.171	-32.851	0.117	0.066
-744.156	-200.000	-0.005	0.072
-743.142	-200.000	-0.037	-0.263
-742.127	123.507	0.166	0.210
-741.112	-200.000	0.018	-0.121
-740.098	-200.000	-0.011	0.151
-739.083	-45.477	-0.196	-0.098
-738.069	427.541	-0.092	0.200
-737.054	20.496	-0.105	-0.086
-736.039	-150.869	-0.383	0.029
-735.025	228.298	-0.225	0.371
-734.010	-63.146	-0.416	-0.173
-732.996	38.488	-0.203	0.183
-731.981	88.637	-0.106	0.119
-730.966	269.524	-0.069	0.122
-729.952	445.283	-0.092	0.204
-728.937	121.010	-0.394	0.494
-727.923	799.065	-0.124	0.346
-726.908	800.000	-0.053	-0.188
-725.894	-138.590	-0.090	0.010
-724.879	108.815	-0.057	0.068
-723.864	-80.334	-0.116	0.039
-722.850	-115.190	-0.100	0.019
-721.835	18.233	0.226	-0.182
-720.821	-30.597	-0.232	0.132
-719.806	-86.427	-0.154	-0.048
-718.791	-200.000	0.024	0.111
-717.777	-133.690	-0.366	-0.046
-716.762	-24.215	-0.210	0.126
-715.748	-200.000	-0.084	-0.406
-714.733	421.340	0.066	0.144
-713.718	421.865	-0.089	0.193
-712.704	-200.000	0.071	0.442
-711.689	-49.610	-0.083	-0.040
-710.675	800.000	-0.083	-0.272
-709.660	-153.147	0.285	-0.020
-708.645	-143.102	-0.318	-0.031
-707.631	-22.125	-0.154	0.094
-706.616	17.980	-0.266	-0.213
-705.602	5.298	0.201	0.149
-704.587	119.862	-0.150	0.188
-703.572	75.842	0.102	0.109
-702.558	-145.253	-0.108	-0.010
-701.543	-24.901	0.154	-0.092
-700.529	-159.441	-0.115	-0.006
-699.514	-33.067	-0.134	-0.075
-698.499	-121.077	-0.288	0.049
-697.485	-200.000	0.003	-0.130
-696.470	13.883	-0.131	-0.103
-695.456	-200.000	0.003	-0.022
-694.441	352.548	0.113	-0.226
-693.426	-35.028	-0.273	0.150
-692.412	479.264	-0.085	0.194
-691.397	-200.000	0.013	-0.156
-690.383	800.000	-0.083	0.285
-689.368	-31.118	-0.167	0.095
-688.354	800.000	-0.036	-0.112
-687.339	-200.000	0.003	0.135
-686.324	140.807	-0.179	0.239
-685.310	186.098	-0.088	0.132
-684.295	-200.000	-0.042	0.203
-683.281	-93.820	-0.106	-0.029
-682.266	-48.500	-0.167	-0.081
-681.251	-11.140	0.101	0.067
-680.237	-200.000	0.127	0.000
-679.222	-190.673	-0.169	0.002
-678.208	667.172	0.110	-0.287
-677.193	-35.347	0.152	0.083
-676.178	-33.631	0.220	-0.122
-675.164	416.187	0.099	0.212
-674.149	-62.082	-0.329	0.138
-673.135	800.000	-0.041	-0.129
-672.120	-92.263	0.303	-0.086
-671.105	88.674	-0.248	0.277
-670.091	-148.058	-0.155	0.013
-669.076	-98.273	0.151	0.039
-668.062	60.981	0.120	0.120
-667.047	-20.332	-0.178	0.111
-666.032	340.961	0.005	0.009
-665.018	800.000	-0.099	-0.312
-664.003	-127.305	0.291	-0.043
-662.989	-45.680	0.182	0.091
-661.974	42.071	-0.275	0.252
-660.959	-118.535	-0.290	-0.052
-659.945	175.446	0.110	-0.161
-658.930	-143.553	-0.434	0.042
-657.916	-136.274	0.413	-0.048
-656.901	-45.546	-0.277	-0.138
-655.886	-59.235	0.303	0.131
-654.872	191.134	0.156	0.237
-653.857	-155.481	-0.440	-0.029
-652.843	-200.000	0.011	-0.063
-651.828	85.958	-0.105	0.116
-650.814	196.461	0.171	-0.263
-649.799	-52.742	-0.289	-0.134
-648.784	174.089	0.096	-0.140
-647.770	82.479	0.361	-0.394
-646.755	203.134	-0.203	0.315
-645.741	499.395	-0.061	-0.141
-644.726	-39.750	-0.290	0.152
-643.711	-92.428	0.111	-0.031
-642.697	-146.056	0.168	0.015
-641.682	800.000	-0.084	-0.310
-640.668	442.386	-0.109	0.240
-639.653	800.000	0.071	0.303
-638.638	-12.933	0.253	-0.166
-637.624	800.000	0.111	-0.342
-636.609	-200.000	-0.052	0.383
-635.595	7.839	-0.033	0.025
-634.580	-200.000	-0.005	-0.030
-633.565	800.000	0.086	0.303
-632.551	-107.556	-0.137	-0.030
-631.536	-89.022	-0.147	0.044
-630.522	-200.000	-0.002	-0.151
-629.507	117.541	-0.132	0.163
-628.492	89.732	-0.098	0.110
-627.478	-112.934	-0.320	-0.064
-626.463	-80.303	0.126	0.042
-625.449	428.162	-0.171	0.371
-624.434	10.282	-0.232	0.178
-623.419	800.000	0.103	0.320
-622.405	340.441	0.066	-0.130
-621.390	28.557	-0.196	-0.167
-620.376	58.645	-0.203	-0.200
-619.361	189.594	-0.165	0.248
-618.346	800.000	0.035	0.122
-617.332	279.050	0.127	-0.227
-616.317	-35.444	-0.145	-0.079
-615.303	54.815	-0.199	-0.193
-614.288	95.560	0.208	-0.239
-613.273	800.000	0.027	0.102
-612.259	94.269	-0.151	-0.172
-611.244	13.435	0.216	-0.168
-610.230	-78.385	0.059	-0.020
-609.215	800.000	-0.068	-0.228
-608.201	-75.184	-0.193	-0.069
-607.186	800.000	-0.075	0.257
-606.171	-200.000	-0.007	-0.160
-605.157	800.000	0.089	-0.265
-604.142	136.506	0.043	-0.056
-603.128	-97.583	0.180	0.047
-602.113	116.945	0.146	0.180
-601.098	-73.179	-0.222	0.082
-600.084	146.245	-0.194	0.261
-599.069	20.711	0.123	0.100
-598.055	25.688	-0.162	0.135
-597.040	155.549	0.105	0.145
-596.025	134.164	-0.091	0.118
-595.011	98.005	-0.153	-0.177
-593.996	186.289	-0.104	0.156
-592.982	-124.782	-0.105	0.016
-591.967	800.000	0.101	0.379
-590.952	-33.779	0.092	-0.051
-589.938	-200.000	0.002	0.098
-588.923	-200.000	0.044	0.329
-587.909	-20.371	0.317	0.196
-586.894	-139.580	0.246	-0.026
-585.879	800.000	-0.060	-0.201
-584.865	-44.874	0.510	0.255
-583.850	-114.626	0.107	-0.021
-582.836	129.981	-0.227	-0.292
-581.821	10.530	-0.377	-0.289
-580.806	228.893	0.108	-0.177
-579.792	181.902	-0.140	-0.208
-578.777	-13.219	-0.086	-0.056
-577.763	672.652	0.033	-0.085
-576.748	63.406	0.199	0.200
-575.733	305.340	-0.115	-0.213
-574.719	800.000	-0.038	-0.153
-573.704	152.427	0.234	0.321
-572.690	-200.000	0.005	0.344
-571.675	92.004	0.236	0.266
-570.661	28.951	0.112	0.095
-569.646	-45.639	-0.124	-0.062
-568.631	-164.517	0.327	-0.015
-567.617	1.540	0.360	-0.260
-566.602	-76.204	-0.393	-0.139
-565.588	101.887	0.147	-0.172
-564.573	800.000	-0.086	-0.300
-563.558	-200.000	-0.030	-0.227
-562.544	105.602	0.199	0.236
-561.529	800.000	-0.101	-0.285
-560.515	90.345	-0.129	0.145
-559.500	-200.000	0.011	0.137
-558.485	373.582	-0.042	-0.086
-557.471	117.971	-0.257	0.317
-556.456	-200.000	-0.037	0.269
-555.442	-89.612	0.218	0.064
-554.427	-122.655	0.187	0.030
-553.412	122.216	-0.215	0.269
-552.398	1.998	-0.054	-0.039
-551.383	-150.051	0.072	-0.006
-550.369	-107.887	0.241	-0.052
-549.354	-31.833	0.072	-0.040
-548.339	226.037	0.122	-0.199
-547.325	800.000	0.078	0.301
-546.310	-200.000	-0.001	-0.007
-545.296	587.900	-0.020	0.050
-544.281	-19.211	0.083	-0.052
-543.266	-75.726	-0.450	-0.160
-542.252	582.972	-0.040	-0.099
-541.237	67.460	-0.257	-0.262
-540.223	-22.163	0.119	0.073
-539.208	-41.467	0.185	0.096
-538.193	-200.000	0.029	0.253
-537.179	382.807	-0.041	0.084
-536.164	-18.756	-0.106	0.066
-535.150	-200.000	-0.036	0.177
-534.135	800.000	-0.076	0.237
-533.121	-88.389	-0.089	-0.027
-532.106	-74.594	0.253	0.091
-531.091	262.552	-0.095	0.165
-530.077	800.000	-0.044	0.148
-529.062	44.019	-0.249	-0.228
-528.048	-98.153	-0.064	-0.017
-527.033	105.630	-0.179	-0.212
-526.018	-200.000	0.023	0.407
-525.004	53.792	0.113	-0.108
-523.989	91.124	0.165	0.186
-522.975	59.770	-0.204	0.202
-521.960	474.007	0.070	-0.158
-520.945	-14.243	0.260	0.168
-519.931	93.289	0.107	0.121
-518.916	-106.041	-0.382	0.086
-517.902	332.671	0.141	-0.273
-516.887	-111.119	0.148	0.030
-515.872	277.731	-0.051	0.091
-514.858	-104.094	-0.128	0.030
-513.843	800.000	-0.018	-0.053
-512.829	498.532	-0.087	-0.200
-511.814	57.291	0.050	0.049
-510.799	-200.000	0.010	0.104
-509.785	-200.000	0.005	-0.127
-508.770	469.814	-0.006	0.014
-507.756	-91.932	-0.345	-0.098
-506.741	179.348	0.209	-0.306
-505.726	433.191	0.153	-0.332
-504.712	-36.580	0.044	-0.024
-503.697	-30.764	-0.211	0.119
-502.683	800.000	0.032	-0.122
-501.668	800.000	0.066	-0.267
-500.653	163.616	-0.186	0.261
-499.639	161.928	-0.163	0.229
-498.624	8.633	0.181	0.136
-497.610	136.520	-0.111	0.145
-496.595	-200.000	-0.085	-0.379
-495.581	-78.789	-0.291	-0.099
-494.566	-77.695	-0.412	0.143
-493.551	-4.738	-0.184	-0.127
-492.537	-200.000	0.001	0.223
-491.522	-66.214	-0.135	-0.054
-490.508	-37.764	0.156	0.083
-489.493	17.313	0.089	-0.070
-488.478	-200.000	-0.035	0.174
-487.464	-31.454	0.271	0.152
-486.449	746.891	0.162	0.436
-485.435	222.364	-0.089	-0.143
-484.420	-200.000	-0.020	-0.227
-483.405	800.000	0.041	-0.158
-482.391	727.838	-0.070	-0.186
-481.376	-8.252	-0.045	-0.030
-480.362	81.183	-0.096	0.104
-479.347	27.733	-0.213	-0.179
-478.332	468.209	-0.034	-0.075
-477.318	800.000	0.022	0.065
-476.303	-200.000	0.026	0.375
-475.289	-29.326	-0.049	0.028
-474.274	165.104	0.154	-0.218
-473.259	12.611	-0.195	-0.150
-472.245	110.887	-0.104	-0.125
-471.230	-200.000	-0.012	-0.159
-470.216	-200.000	-0.019	-0.188
-469.201	-48.436	0.224	0.108
-468.186	-200.000	-0.003	-0.285
-467.172	106.161	0.213	-0.252
-466.157	64.959	0.221	-0.223
-465.143	-152.723	0.235	0.017
-464.128	53.475	-0.213	0.204
-463.113	91.457	-0.265	0.297
-462.099	7.255	-0.238	-0.177
-461.084	176.768	-0.065	0.094
-460.070	173.185	0.136	-0.196
-459.055	8.468	0.300	-0.225
-458.040	-104.316	-0.354	-0.082
-457.026	161.933	-0.191	-0.267
-456.011	800.000	0.063	0.220
-454.997	42.443	-0.067	0.061
-453.982	800.000	-0.070	0.198
-452.968	56.318	0.151	-0.146
-451.953	-140.248	0.099	-0.010
-450.938	3.393	-0.278	-0.202
-449.924	-44.834	0.048	0.024
-448.909	74.979	-0.089	-0.094
-447.895	357.395	-0.097	-0.193
-446.880	-63.940	0.222	-0.091
-445.865	-4.209	0.299	0.207
-444.851	533.236	0.059	0.140
-443.836	-69.140	-0.155	0.060
-442.822	99.944	0.153	-0.177
-441.807	-68.234	-0.318	-0.123
-440.792	-93.388	0.396	-0.109
-439.778	330.692	0.097	0.186
-438.763	362.607	0.103	0.205
-437.749	-83.560	0.108	0.035
-436.734	-47.351	0.142	-0.069
-435.719	290.514	-0.093	-0.168
-434.705	60.907	0.135	-0.134
-433.690	349.198	0.104	0.206
-432.676	-48.288	-0.180	0.086
-431.661	-188.434	0.258	-0.003
-430.646	800.000	0.036	0.104
-429.632	-200.000	-0.006	-0.201
-428.617	-95.818	0.216	0.057
-427.603	34.771	0.171	0.149
-426.588	-95.226	0.472	0.127
-425.573	60.458	-0.193	0.190
-424.559	-132.918	0.049	-0.006
-423.544	20.713	-0.212	0.171
-422.530	-130.955	-0.094	0.013
-421.515	-200.000	-0.007	0.173
-420.500	-160.868	0.413	0.022
-419.486	800.000	0.047	-0.194
-418.471	-114.456	-0.510	-0.098
-417.457	-21.872	0.151	-0.092
-416.442	-62.099	-0.439	0.183
-415.428	-200.000	-0.016	-0.315
-414.413	-200.000	-0.092	-0.490
-413.398	-36.154	0.301	0.162
-412.384	-200.000	0.025	-0.405
-411.369	21.740	0.087	0.071
-410.355	237.777	-0.161	-0.267
-409.340	540.965	-0.036	-0.087
-408.325	646.059	-0.117	-0.297
-407.311	-200.000	0.042	-0.214
-406.296	800.000	-0.027	-0.077
-405.282	77.287	-0.213	0.226
-404.267	437.901	0.005	0.011
-403.252	152.299	0.059	0.080
-402.238	154.064	-0.272	0.371
-401.223	-145.927	0.203	-0.018
-400.209	128.205	0.188	-0.239
-399.194	-55.811	0.063	0.028
-398.179	800.000	0.036	0.108
-397.165	479.513	-0.086	0.193
-396.150	-39.985	0.287	0.149
-395.136	-102.851	0.197	0.047
-394.121	354.480	0.141	-0.278
-393.106	-164.399	-0.237	-0.011
-392.092	51.427	0.226	-0.214
-391.077	800.000	0.080	-0.237
-390.063	800.000	-0.062	-0.197
-389.048	-115.420	-0.112	0.021
-388.033	41.966	-0.078	-0.071
-387.019	-103.523	0.328	-0.077
-386.004	-200.000	0.000	0.338
-384.990	-145.709	0.381	0.034
-383.975	450.789	0.090	0.198
-382.960	200.486	-0.081	-0.124
-381.946	-200.000	-0.023	-0.152
-380.931	337.206	-0.123	0.239
-379.917	-200.000	-0.060	-0.293
-378.902	-200.000	-0.016	0.157
-377.888	-123.971	-0.101	0.016
-376.873	800.000	0.126	-0.524
-375.858	-1.334	-0.122	-0.086
-374.844	-141.714	-0.338	-0.034
-373.829	-115.197	0.220	-0.041
-372.815	-56.746	-0.206	0.091
-371.800	-200.000	-0.068	0.345
-370.785	-200.000	0.037	-0.228
-369.771	163.406	0.180	0.252
-368.756	398.478	0.032	-0.066
-367.742	-7.870	-0.097	-0.065
-366.727	448.983	-0.090	-0.197
-365.712	566.459	0.035	0.084
-364.698	-155.735	-0.340	-0.022
-363.683	-200.000	-0.003	0.290
-362.669	800.000	-0.040	0.129
-361.654	0.290	0.107	-0.076
-360.639	-200.000	-0.048	-0.237
-359.625	-200.000	0.039	0.186
-358.610	-149.861	0.215	-0.017
-357.596	517.706	-0.055	-0.128
-356.581	-31.151	-0.265	0.149
-355.566	-15.541	-0.334	-0.212
-354.552	270.246	0.188	0.328
-353.537	-106.659	-0.151	0.033
-352.523	172.911	0.130	0.186
-351.508	199.673	-0.066	0.100
-350.493	-135.760	0.456	-0.054
-349.479	128.703	0.213	0.270
-348.464	536.498	-0.059	-0.139
-347.450	137.840	0.156	0.203
-346.435	-145.591	0.130	-0.012
-345.420	717.833	-0.070	0.185
-344.406	-72.499	-0.191	0.070
-343.391	668.896	-0.051	-0.132
-342.377	-200.000	0.010	0.097
-341.362	406.055	0.099	0.208
-340.348	800.000	0.008	-0.030
-339.333	800.000	-0.035	-0.099
-338.318	800.000	-0.104	-0.293
-337.304	1.047	-0.167	-0.119
-336.289	-200.000	0.012	-0.074
-335.275	20.225	-0.090	0.072
-334.260	-184.312	-0.079	-0.001
-333.245	-95.067	0.257	0.069
-332.231	109.249	-0.156	0.186
-331.216	-19.660	0.219	0.135
-330.202	325.655	-0.056	0.107
-329.187	800.000	-0.090	0.276
-328.172	411.212	-0.149	-0.313
-327.158	275.770	-0.129	-0.228
-326.143	344.012	0.061	-0.118
-325.129	159.353	-0.160	0.221
-324.114	-125.911	0.407	-0.061
-323.099	423.683	-0.149	0.319
-322.085	-3.233	-0.142	-0.098
-321.070	726.397	-0.047	0.124
-320.056	-200.000	-0.130	-0.616
-319.041	157.199	-0.091	0.125
-318.026	226.297	0.085	-0.137
-317.012	99.306	0.054	-0.062
-315.997	581.363	0.027	0.065
-314.983	-77.160	0.149	0.052
-313.968	-200.000	0.032	0.185
-312.953	-70.387	0.239	-0.090
-311.939	800.000	-0.071	-0.202
-310.924	800.000	-0.063	-0.266
-309.910	-82.517	0.285	-0.092
-308.895	-200.000	0.004	-0.205
-307.880	399.198	-0.140	0.291
-306.866	-200.000	-0.025	0.135
-305.851	-200.000	-0.003	-0.075
-304.837	-19.975	0.310	-0.190
-303.822	-153.633	0.434	0.030
-302.807	124.229	-0.141	-0.176
-301.793	-172.645	0.049	0.002
-300.778	-56.374	-0.131	0.058
-299.764	70.929	0.311	0.319
-298.749	47.827	-0.252	-0.234
-297.735	800.000	-0.075	-0.282
-296.720	-86.372	0.257	0.079
-295.705	5.825	0.097	0.072
-294.691	-87.380	0.283	0.085
-293.676	274.957	-0.122	0.215
-292.662	65.939	0.086	-0.086
-291.647	-200.000	-0.046	0.269
-290.632	81.818	0.119	-0.128
-289.618	172.955	-0.037	0.053
-288.603	443.629	-0.164	0.356
-287.589	-200.000	0.031	-0.164
-286.574	1.382	0.174	-0.124
-285.559	800.000	-0.034	-0.130
-284.545	-200.000	0.027	0.401
-283.530	-125.994	-0.242	-0.036
-282.516	203.189	0.149	0.228
-281.501	-80.778	0.115	0.038
-280.486	34.580	0.078	-0.068
-279.472	253.130	-0.120	-0.203
-278.457	527.420	-0.150	-0.350
-277.443	800.000	-0.116	0.333
-276.428	223.722	0.142	0.228
-275.413	11.923	0.241	-0.183
-274.399	-133.168	-0.231	0.029
-273.384	-34.564	-0.370	-0.201
-272.370	-117.876	-0.036	0.006
-271.355	-200.000	0.031	-0.182
-270.340	96.323	-0.029	0.033
-269.326	-46.154	0.341	-0.166
-268.311	-200.000	-0.109	0.000
-267.297	12.193	-0.200	0.153
-266.282	563.777	0.130	0.312
-265.267	46.880	-0.147	-0.135
-264.253	-74.820	-0.105	-0.037
-263.238	800.000	0.033	-0.107
-262.224	800.000	-0.187	-0.534
-261.209	271.363	0.048	0.083
-260.195	800.000	0.079	0.335
-259.180	633.347	-0.164	0.411
-258.165	735.063	-0.045	-0.120
-257.151	-149.912	-0.198	0.015
-256.136	800.000	0.034	-0.133
-255.122	-84.055	0.429	0.135
-254.107	-173.785	0.190	-0.006
-253.092	365.925	-0.127	-0.253
-252.078	-175.964	0.109	0.003
-251.063	-97.679	0.162	-0.042
-250.049	-117.678	-0.356	0.064
-249.034	-51.986	0.206	0.095
-248.019	-110.550	0.119	0.024
-247.005	193.594	0.030	0.045
-245.990	-200.000	0.014	-0.111
-244.976	228.222	0.153	0.246
-243.961	59.058	0.106	-0.103
-242.946	6.195	0.167	-0.123
-241.932	-119.694	0.211	-0.036
-240.917	-51.106	-0.233	0.108
-239.903	207.376	-0.091	0.140
-238.888	106.636	-0.182	0.214
-237.873	-145.968	-0.161	0.014
-236.859	-15.303	0.312	0.197
-235.844	35.920	-0.243	-0.212
-234.830	-200.000	-0.042	-0.376
-233.815	67.004	-0.118	0.119
-232.800	-38.339	0.357	-0.187
-231.786	196.731	-0.018	-0.027
-230.771	176.590	-0.182	-0.262
-229.757	-132.060	-0.128	-0.016
-228.742	800.000	0.122	0.436
-227.727	89.542	0.135	-0.149
-226.713	13.424	0.237	0.182
-225.698	-9.584	0.109	-0.072
-224.684	-200.000	-0.022	-0.188
-223.669	206.943	-0.149	-0.229
-222.655	-84.357	-0.045	-0.014
-221.640	-79.404	0.216	0.072
-220.625	429.337	-0.068	-0.146
-219.611	-84.565	0.151	-0.047
-218.596	-200.000	0.000	0.129
-217.582	44.828	0.105	-0.095
-216.567	-56.923	-0.393	-0.172
-215.552	160.776	-0.088	0.122
-214.538	221.083	0.031	-0.049
-213.523	800.000	-0.094	0.400
-212.509	-200.000	-0.080	-0.358
-211.494	11.202	-0.210	-0.159
-210.479	161.324	0.130	0.180
-209.465	504.493	-0.130	0.297
-208.450	77.899	-0.206	-0.217
-207.436	-200.000	-0.034	-0.159
-206.421	-97.690	0.091	0.023
-205.406	143.276	0.122	0.161
-204.392	-200.000	-0.019	-0.206
-203.377	-156.626	-0.106	-0.006
-202.363	533.221	-0.144	0.338
-201.348	-14.879	-0.131	-0.083
-200.333	-132.432	0.384	0.049
-199.319	-133.282	-0.394	0.049
-198.304	15.651	0.235	0.183
-197.290	338.509	0.090	0.173
-196.275	237.335	0.015	0.024
-195.260	-125.672	-0.192	-0.029
-194.246	-108.972	-0.389	0.082
-193.231	123.053	-0.004	-0.005
-192.217	8.627	-0.167	0.124
-191.202	-21.348	0.078	-0.047
-190.187	2.449	-0.057	-0.041
-189.173	46.447	-0.132	0.121
-188.158	-46.851	0.143	-0.069
-187.144	-98.551	0.409	0.103
-186.129	-75.627	0.362	-0.127
-185.114	-110.305	0.195	0.040
-184.100	800.000	-0.093	0.348
-183.085	179.580	-0.173	-0.249
-182.071	-200.000	0.006	-0.150
-181.056	4.203	-0.219	0.159
-180.042	-100.549	0.102	-0.025
-179.027	-200.000	-0.014	0.467
-178.012	-151.428	-0.063	0.005
-176.998	-62.942	-0.300	-0.123
-175.983	107.492	-0.134	0.157
-174.969	22.588	0.170	0.137
-173.954	106.320	0.209	0.244
-172.939	-92.615	-0.186	-0.051
-171.925	-33.221	0.134	-0.073
-170.910	-200.000	-0.004	-0.083
-169.896	3.464	-0.265	-0.191
-168.881	15.583	-0.282	-0.218
-167.866	245.847	0.108	-0.179
-166.852	1.276	0.180	-0.128
-165.837	543.382	0.054	-0.127
-164.823	-3.367	0.085	0.059
-163.808	403.687	0.064	0.132
-162.793	-61.398	-0.136	0.056
-161.779	200.999	-0.067	-0.102
-160.764	800.000	-0.018	0.056
-159.750	-141.210	0.214	-0.021
-158.735	27.272	0.118	-0.097
-157.720	-139.209	-0.120	-0.013
-156.706	56.363	-0.204	0.196
-155.691	107.086	0.181	-0.213
-154.677	-200.000	0.005	-0.024
-153.662	201.151	0.175	0.265
-152.647	139.142	0.019	0.025
-151.633	-59.536	0.345	0.146
-150.618	-92.769	0.029	0.008
-149.604	284.604	0.166	0.294
-148.589	-27.771	-0.044	0.025
-147.574	-142.898	0.172	0.017
-146.560	522.986	-0.126	0.292
-145.545	47.886	0.109	0.100
-144.531	255.277	0.192	-0.324
-143.516	800.000	-0.078	0.258
-142.502	-194.642	0.184	-0.001
-141.487	-4.864	-0.257	-0.174
-140.472	244.757	0.330	0.548
-139.458	-78.787	-0.204	-0.069
-138.443	-78.900	-0.265	-0.089
-137.429	6.678	-0.239	0.175
-136.414	99.519	0.074	0.084
-135.399	-200.000	0.000	0.157
-134.385	-106.729	0.270	-0.059
-133.370	14.665	0.031	0.024
-132.356	800.000	-0.030	0.092
-131.341	-38.275	0.199	0.104
-130.326	67.951	0.188	-0.190
-129.312	-185.017	0.208	-0.003
-128.297	93.800	-0.283	-0.316
-127.283	-200.000	0.028	0.237
-126.268	-200.000	-0.023	-0.127
-125.253	247.940	-0.080	0.134
-124.239	-86.911	0.081	0.024
-123.224	-22.570	0.072	0.043
-122.210	-44.101	0.139	-0.069
-121.195	233.088	-0.052	0.084
-120.180	174.064	-0.033	-0.047
