DTS Sentinel unit serial number:	SN413079Multiplexer serial number:	ORYXHardware model number:	OX4-SRSoftware version number:	ORYX F/W v4.00 Oryx Data Collector v3.7.2.0data status	okinstallation	princeton_trtdifferential loss correction	single-endedforward channel	channel 1reverse channel	N/Adate	2019/09/13time	19:34:35forward acquisition time	60.00reverse acquisition time	0.00gamma	496.2192k internal	0.2327k external	0.2327temperature offset calibration	1.0094default loss term (dB/km)	0.3790temperature slope calibration	1.0000multiplexer offset coefficient	1.0000multiplexer slope coefficient	1.0000fibre end	0.00T internal ref (°C)	30.56T ext. ref 1 (°C)	3.41T ext. ref 2 (°C)	24.54length (m)	temperature (°C)	Stokes	anti-Stokes-747.200	85.357	-0.062	-0.068
-746.185	338.283	-0.120	-0.236
-745.171	221.700	-0.058	0.094
-744.156	-200.000	-0.036	-0.313
-743.142	242.980	0.156	0.263
-742.127	137.321	0.106	0.140
-741.112	800.000	0.031	0.105
-740.098	12.317	0.074	-0.058
-739.083	-24.867	0.166	-0.099
-738.069	-125.833	0.273	-0.042
-737.054	131.081	-0.118	-0.152
-736.039	91.462	-0.060	-0.067
-735.025	-10.273	-0.017	0.012
-734.010	800.000	0.148	0.547
-732.996	800.000	-0.094	-0.286
-731.981	-46.628	0.130	-0.064
-730.966	-82.013	-0.358	0.118
-729.952	717.957	-0.128	0.342
-728.937	-118.210	0.201	0.036
-727.923	60.039	-0.168	-0.168
-726.908	21.097	-0.109	0.089
-725.894	800.000	0.111	0.385
-724.879	-58.470	-0.171	0.075
-723.864	168.404	-0.089	0.127
-722.850	800.000	-0.020	-0.086
-721.835	-179.741	0.124	0.003
-720.821	-28.416	-0.407	0.236
-719.806	800.000	-0.067	0.193
-718.791	-152.449	-0.194	0.014
-717.777	-167.239	-0.200	-0.008
-716.762	364.704	0.129	-0.261
-715.748	704.853	-0.096	0.256
-714.733	-133.139	0.264	0.034
-713.718	-35.168	0.063	-0.035
-712.704	800.000	-0.057	-0.232
-711.689	40.701	0.220	-0.200
-710.675	66.048	0.205	-0.209
-709.660	466.172	-0.050	0.113
-708.645	10.931	-0.023	-0.018
-707.631	-200.000	0.004	-0.081
-706.616	22.989	-0.024	0.020
-705.602	-200.000	-0.027	-0.201
-704.587	800.000	0.061	-0.263
-703.572	800.000	-0.033	0.103
-702.558	313.524	0.034	-0.064
-701.543	-116.604	0.107	-0.020
-700.529	87.764	0.062	-0.069
-699.514	-166.921	-0.097	-0.004
-698.499	16.556	-0.050	-0.040
-697.485	-51.515	-0.162	0.076
-696.470	-32.553	-0.362	-0.203
-695.456	800.000	0.016	0.071
-694.441	-77.668	0.144	-0.050
-693.426	-61.419	-0.189	-0.080
-692.412	-149.480	-0.175	-0.014
-691.397	-200.000	-0.006	-0.157
-690.383	158.943	-0.201	-0.281
-689.368	-62.669	-0.259	-0.108
-688.354	2.658	-0.175	-0.127
-687.339	23.130	-0.265	-0.219
-686.324	82.741	-0.235	-0.257
-685.310	800.000	-0.064	0.207
-684.295	105.138	-0.153	0.182
-683.281	-200.000	0.035	-0.243
-682.266	-200.000	0.013	-0.100
-681.251	-169.581	0.353	0.013
-680.237	3.602	-0.170	-0.125
-679.222	800.000	-0.040	0.138
-678.208	-176.709	0.290	-0.007
-677.193	-14.637	0.117	-0.076
-676.178	-200.000	0.008	0.096
-675.164	-62.732	-0.183	0.076
-674.149	800.000	0.060	-0.224
-673.135	29.077	-0.113	-0.096
-672.120	187.828	-0.163	-0.245
-671.105	-200.000	0.036	-0.190
-670.091	-46.120	0.119	0.059
-669.076	200.903	-0.046	-0.071
-668.062	-43.731	0.071	0.036
-667.047	-142.569	0.232	0.023
-666.032	-92.080	0.055	-0.016
-665.018	800.000	0.045	0.153
-664.003	-153.434	0.295	0.021
-662.989	-28.335	0.231	-0.134
-661.974	800.000	-0.075	0.287
-660.959	327.316	-0.158	-0.304
-659.945	-3.251	-0.235	-0.165
-658.930	172.779	-0.082	-0.118
-657.916	-194.215	0.077	-0.001
-656.901	-177.451	0.073	0.002
-655.886	86.012	0.017	-0.019
-654.872	390.501	-0.145	-0.302
-653.857	15.909	-0.226	-0.179
-652.843	-33.944	-0.241	-0.133
-651.828	68.485	-0.192	0.198
-650.814	-144.885	-0.234	-0.021
-649.799	17.436	0.125	0.100
-648.784	-200.000	-0.057	0.337
-647.770	249.976	-0.132	0.225
-646.755	-200.000	-0.006	-0.265
-645.741	-99.182	-0.272	0.069
-644.726	246.854	0.059	-0.100
-643.711	-170.179	-0.076	-0.003
-642.697	-104.740	-0.164	-0.038
-641.682	-200.000	0.100	-0.588
-640.668	775.049	0.076	-0.208
-639.653	35.377	0.208	-0.183
-638.638	-28.433	-0.337	-0.195
-637.624	10.787	0.161	-0.124
-636.609	102.882	0.061	0.071
-635.595	-0.506	0.202	0.144
-634.580	112.046	0.254	0.308
-633.565	227.702	-0.218	0.355
-632.551	-60.251	0.189	-0.081
-631.536	-146.458	0.411	0.036
-630.522	108.219	-0.103	0.123
-629.507	278.039	-0.098	-0.175
-628.492	181.265	-0.102	-0.150
-627.478	-53.940	-0.339	-0.155
-626.463	-158.191	-0.089	0.005
-625.449	161.596	-0.053	-0.075
-624.434	800.000	-0.062	-0.227
-623.419	-25.029	0.123	0.073
-622.405	-89.744	0.326	-0.096
-621.390	141.045	0.025	-0.034
-620.376	-51.815	-0.185	-0.086
-619.361	-200.000	-0.057	-0.311
-618.346	-26.729	0.020	-0.012
-617.332	-98.636	0.110	0.028
-616.317	-200.000	-0.018	0.106
-615.303	-123.550	-0.134	0.021
-614.288	-117.437	0.175	0.032
-613.273	-191.743	-0.109	-0.001
-612.259	-200.000	-0.005	0.276
-611.244	-130.989	0.474	-0.064
-610.230	-83.787	-0.257	0.082
-609.215	-86.038	0.033	-0.010
-608.201	104.846	-0.141	0.167
-607.186	274.895	0.096	0.171
-606.171	-80.125	-0.249	0.084
-605.157	573.986	0.076	0.185
-604.142	-82.891	0.164	-0.053
-603.128	800.000	-0.049	0.149
-602.113	800.000	0.026	0.100
-601.098	-200.000	-0.040	-0.218
-600.084	-200.000	0.011	-0.055
-599.069	-155.085	-0.248	0.016
-598.055	33.584	0.164	0.143
-597.040	-190.243	0.171	0.002
-596.025	158.718	-0.210	0.292
-595.011	-200.000	-0.065	0.345
-593.996	-123.689	-0.127	-0.020
-592.982	562.697	-0.096	-0.233
-591.967	-32.193	-0.082	-0.046
-590.952	-200.000	0.002	0.477
-589.938	140.284	-0.100	0.132
-588.923	113.145	-0.110	0.134
-587.909	800.000	0.067	-0.228
-586.894	800.000	-0.114	-0.336
-585.879	94.225	0.209	-0.238
-584.865	169.066	-0.199	-0.284
-583.850	-200.000	0.028	-0.219
-582.836	-146.019	0.395	0.035
-581.821	307.120	-0.109	0.204
-580.806	-1.221	0.141	-0.100
-579.792	-87.898	0.522	0.157
-578.777	152.314	0.162	-0.221
-577.763	240.019	0.137	0.229
-576.748	407.615	0.071	0.150
-575.733	-74.316	0.045	0.016
-574.719	141.085	0.019	-0.025
-573.704	-200.000	-0.001	-0.150
-572.690	-84.356	-0.225	-0.071
-571.675	-32.463	0.235	0.131
-570.661	-25.510	-0.126	0.075
-569.646	10.829	0.078	0.059
-568.631	-138.962	0.203	0.022
-567.617	68.126	0.133	-0.136
-566.602	-16.825	-0.051	-0.032
-565.588	800.000	-0.021	0.085
-564.573	-23.661	-0.211	0.127
-563.558	312.546	0.201	-0.377
-562.544	-75.371	-0.217	0.078
-561.529	-149.091	-0.386	0.031
-560.515	-176.434	0.139	-0.004
-559.500	-180.777	-0.225	-0.005
-558.485	-61.111	-0.315	-0.133
-557.471	164.284	0.112	0.158
-556.456	11.919	-0.279	-0.214
-555.442	800.000	0.008	0.021
-554.427	-200.000	-0.036	0.266
-553.412	468.066	-0.024	0.054
-552.398	-17.806	0.265	-0.166
-551.383	-200.000	0.000	0.013
-550.369	720.778	0.032	-0.085
-549.354	77.685	0.179	-0.191
-548.339	-84.601	0.350	-0.110
-547.325	-39.287	0.048	-0.025
-546.310	-200.000	0.020	-0.104
-545.296	800.000	-0.120	0.348
-544.281	-34.459	0.199	-0.109
-543.266	123.922	-0.078	-0.098
-542.252	-148.158	-0.139	0.012
-541.237	-200.000	-0.003	0.148
-540.223	263.239	0.176	-0.306
-539.208	539.397	0.144	0.342
-538.193	77.148	-0.170	0.180
-537.179	-109.999	-0.156	0.033
-536.164	55.310	-0.152	-0.147
-535.150	522.953	-0.015	0.036
-534.135	800.000	0.042	-0.149
-533.121	800.000	0.095	-0.297
-532.106	289.864	-0.130	-0.236
-531.091	-6.256	-0.187	0.127
-530.077	236.883	0.233	0.386
-529.062	-200.000	0.058	-0.348
-528.048	67.070	-0.024	0.024
-527.033	29.968	0.071	-0.060
-526.018	-17.425	0.117	0.073
-525.004	-185.756	0.167	-0.003
-523.989	57.627	0.140	0.137
-522.975	800.000	-0.104	0.408
-521.960	-200.000	0.019	0.129
-520.945	-123.522	-0.303	0.048
-519.931	109.481	0.054	0.064
-518.916	-122.325	-0.132	0.022
-517.902	0.713	0.281	-0.201
-516.887	28.071	0.110	0.093
-515.872	-200.000	0.096	-0.501
-514.858	129.749	-0.012	-0.016
-513.843	191.499	0.055	0.083
-512.829	43.348	-0.194	-0.177
-511.814	-126.606	0.060	0.009
-510.799	50.163	-0.119	0.113
-509.785	-200.000	-0.024	0.286
-508.770	-119.957	-0.063	-0.011
-507.756	-200.000	-0.014	-0.092
-506.741	-115.287	0.315	0.060
-505.726	-200.000	0.037	-0.196
-504.712	-103.940	-0.152	-0.035
-503.697	23.629	0.160	-0.132
-502.683	14.465	0.148	-0.116
-501.668	583.160	0.073	0.180
-500.653	-74.205	-0.370	-0.134
-499.639	800.000	-0.056	0.220
-498.624	118.720	0.077	-0.095
-497.610	385.547	0.036	-0.075
-496.595	-200.000	0.024	-0.279
-495.581	196.447	0.070	0.106
-494.566	-200.000	0.002	-0.104
-493.551	800.000	-0.098	-0.327
-492.537	212.409	0.028	-0.043
-491.522	-61.739	-0.087	0.037
-490.508	25.404	-0.145	0.121
-489.493	-200.000	0.012	-0.100
-488.478	-103.549	-0.221	-0.052
-487.464	264.390	-0.127	0.221
-486.449	-41.498	-0.236	-0.121
-485.435	-9.564	0.163	0.108
-484.420	238.098	0.194	-0.322
-483.405	-200.000	0.018	0.268
-482.391	702.313	-0.070	0.184
-481.376	123.944	-0.081	-0.102
-480.362	45.380	0.122	0.113
-479.347	119.363	0.083	0.102
-478.332	302.920	0.051	0.095
-477.318	-200.000	-0.006	0.054
-476.303	55.120	0.142	0.137
-475.289	-164.151	0.302	0.014
-474.274	299.353	-0.049	-0.090
-473.259	-106.299	0.140	-0.031
-472.245	62.965	0.060	-0.060
-471.230	-200.000	0.014	0.086
-470.216	334.488	-0.048	0.093
-469.201	-19.886	-0.216	0.133
-468.186	26.324	-0.215	-0.179
-467.172	-14.654	-0.046	-0.029
-466.157	-200.000	0.002	-0.146
-465.143	-67.675	0.142	-0.056
-464.128	-2.889	-0.197	0.138
-463.113	-57.408	0.036	-0.016
-462.099	435.334	0.097	-0.210
-461.084	321.942	-0.152	-0.288
-460.070	-152.755	0.346	0.025
-459.055	800.000	-0.009	-0.025
-458.040	-200.000	-0.034	-0.298
-457.026	1.903	0.008	0.006
-456.011	135.834	0.181	-0.235
-454.997	311.856	0.028	0.053
-453.982	99.644	0.170	0.196
-452.968	-106.417	-0.190	-0.042
-451.953	176.252	-0.034	0.049
-450.938	-45.081	-0.344	0.170
-449.924	-94.928	-0.182	0.049
-448.909	-200.000	0.315	0.000
-447.895	800.000	0.031	0.086
-446.880	304.880	0.048	0.088
-445.865	-26.034	-0.381	0.223
-444.851	-116.943	-0.025	0.005
-443.836	-31.870	-0.400	-0.223
-442.822	-10.623	-0.060	-0.040
-441.807	-95.770	0.335	-0.089
-440.792	-21.230	0.357	-0.217
-439.778	-68.685	-0.315	0.122
-438.763	145.831	-0.048	0.064
-437.749	64.209	-0.131	0.131
-436.734	800.000	0.039	-0.168
-435.719	190.114	-0.179	0.267
-434.705	800.000	0.023	-0.076
-433.690	-200.000	0.017	-0.174
-432.676	-153.115	-0.247	-0.017
-431.661	41.883	0.297	-0.268
-430.646	-175.977	-0.198	-0.005
-429.632	-200.000	0.006	0.094
-428.617	800.000	0.037	0.129
-427.603	-25.792	-0.028	0.016
-426.588	-200.000	-0.031	-0.154
-425.573	161.157	-0.080	0.111
-424.559	107.082	0.130	0.154
-423.544	800.000	-0.011	-0.047
-422.530	68.192	-0.140	-0.143
-421.515	-200.000	-0.030	-0.235
-420.500	-66.194	-0.144	-0.057
-419.486	-200.000	0.026	0.203
-418.471	-119.405	-0.089	0.015
-417.457	-27.658	-0.179	0.103
-416.442	-200.000	0.018	-0.217
-415.428	-200.000	-0.125	-0.573
-414.413	-200.000	0.024	0.124
-413.398	-71.843	0.254	0.094
-412.384	405.120	-0.046	0.096
-411.369	181.508	0.207	0.303
-410.355	186.698	-0.179	0.265
-409.340	67.384	0.045	0.046
-408.325	-55.402	0.090	-0.040
-407.311	-57.652	-0.180	0.079
-406.296	-83.600	-0.158	0.050
-405.282	321.871	-0.299	0.566
-404.267	-36.725	0.226	-0.121
-403.252	-104.196	0.031	-0.007
-402.238	-200.000	-0.022	-0.182
-401.223	-200.000	-0.023	0.149
-400.209	-200.000	0.027	0.304
-399.194	800.000	0.083	-0.257
-398.179	-196.666	-0.274	-0.002
-397.165	-15.927	0.195	0.124
-396.150	-200.000	0.014	-0.071
-395.136	294.735	0.088	-0.159
-394.121	-200.000	0.017	-0.106
-393.106	-200.000	-0.008	-0.046
-392.092	-200.000	-0.083	-0.471
-391.077	-95.513	-0.235	-0.063
-390.063	800.000	-0.060	0.179
-389.048	142.853	-0.219	-0.289
-388.033	-200.000	0.003	0.275
-387.019	800.000	-0.069	-0.244
-386.004	153.177	0.100	-0.136
-384.990	-200.000	-0.032	0.195
-383.975	20.325	-0.210	-0.169
-382.960	-52.030	0.336	-0.155
-381.946	508.898	-0.013	-0.031
-380.931	60.698	0.284	0.280
-379.917	133.774	-0.163	-0.210
-378.902	-67.210	-0.213	-0.083
-377.888	-200.000	-0.024	0.250
-376.873	-18.404	-0.079	-0.049
-375.858	-200.000	0.080	-0.391
-374.844	800.000	-0.122	0.393
-373.829	-200.000	-0.013	0.212
-372.815	119.529	0.087	0.107
-371.800	146.059	-0.031	-0.041
-370.785	-200.000	0.000	-0.280
-369.771	-49.839	-0.119	0.056
-368.756	-94.269	0.316	0.086
-367.742	800.000	-0.147	-0.444
-366.727	800.000	-0.030	0.091
-365.712	-29.673	-0.115	-0.065
-364.698	-112.346	0.297	-0.059
-363.683	265.257	-0.143	-0.248
-362.669	-43.679	-0.064	0.032
-361.654	378.401	0.091	-0.184
-360.639	-8.446	0.127	0.085
-359.625	-10.795	0.097	-0.064
-358.610	117.242	0.211	-0.257
-357.596	-55.008	0.012	-0.006
-356.581	-103.881	0.379	-0.088
-355.566	-56.131	-0.134	0.059
-354.552	-172.406	0.183	-0.006
-353.537	-200.000	-0.027	-0.216
-352.523	267.212	0.082	0.143
-351.508	431.847	-0.064	0.137
-350.493	23.777	0.157	0.128
-349.479	800.000	-0.073	0.208
-348.464	109.647	0.264	-0.314
-347.450	-200.000	0.015	0.152
-346.435	96.674	-0.131	0.148
-345.420	-9.593	-0.230	0.152
-344.406	330.043	0.139	0.265
-343.391	80.641	0.125	-0.134
-342.377	210.066	-0.235	-0.365
-341.362	-200.000	0.019	-0.162
-340.348	787.494	0.031	0.083
-339.333	-200.000	-0.038	0.252
-338.318	-200.000	0.041	0.294
-337.304	-100.012	-0.356	-0.088
-336.289	0.036	-0.135	-0.096
-335.275	-200.000	-0.001	0.025
-334.260	-111.869	-0.166	-0.033
-333.245	527.683	0.135	0.317
-332.231	-145.628	0.037	0.003
-331.216	-200.000	0.028	-0.219
-330.202	-178.449	0.220	0.005
-329.187	-163.544	0.493	-0.023
-328.172	800.000	0.093	0.314
-327.158	-200.000	0.016	0.193
-326.143	-53.134	-0.343	-0.156
-325.129	-200.000	0.012	-0.051
-324.114	113.150	-0.179	-0.215
-323.099	52.303	-0.060	0.057
-322.085	800.000	-0.076	0.288
-321.070	178.146	-0.112	-0.162
-320.056	58.491	-0.097	0.094
-319.041	-57.844	-0.183	-0.080
-318.026	800.000	0.107	0.344
-317.012	370.941	0.071	0.143
-315.997	-200.000	-0.003	0.061
-314.983	-200.000	-0.043	-0.319
-313.968	98.387	-0.170	0.194
-312.953	800.000	-0.075	0.327
-311.939	-84.303	-0.308	0.097
-310.924	44.179	0.095	-0.086
-309.910	-159.476	-0.123	-0.007
-308.895	-200.000	0.022	-0.103
-307.880	-200.000	0.007	-0.030
-306.866	147.780	0.085	-0.113
-305.851	158.779	-0.086	0.119
-304.837	-1.709	-0.175	0.122
-303.822	-200.000	0.017	-0.136
-302.807	800.000	-0.097	0.339
-301.793	-200.000	-0.060	-0.397
-300.778	-68.774	0.150	0.058
-299.764	408.801	-0.010	0.022
-298.749	6.342	-0.134	0.099
-297.735	-96.437	0.144	0.038
-296.720	-99.814	0.239	-0.059
-295.705	-19.724	-0.153	-0.094
-294.691	-33.115	-0.114	-0.063
-293.676	481.127	0.041	0.093
-292.662	-122.915	-0.331	-0.053
-291.647	-200.000	-0.059	-0.411
-290.632	-124.834	0.439	0.067
-289.618	-132.002	0.329	-0.042
-288.603	-36.045	-0.025	-0.013
-287.589	688.716	-0.122	-0.317
-286.574	-122.259	0.123	-0.020
-285.559	42.685	0.404	-0.365
-284.545	-162.081	-0.093	-0.005
-283.530	-39.807	-0.118	0.061
-282.516	-200.000	-0.043	0.437
-281.501	-81.844	0.140	-0.046
-280.486	-137.414	-0.613	-0.069
-279.472	-25.118	-0.107	-0.063
-278.457	80.907	-0.144	0.153
-277.443	-70.912	0.187	-0.070
-276.428	800.000	0.120	0.334
-275.413	-142.158	-0.314	0.031
-274.399	-140.534	0.131	0.013
-273.384	117.119	-0.316	-0.384
-272.370	254.289	0.123	-0.209
-271.355	3.853	-0.175	-0.126
-270.340	9.422	0.033	0.025
-269.326	114.148	-0.268	0.322
-268.311	152.128	0.090	-0.121
-267.297	-200.000	0.024	-0.154
-266.282	800.000	0.062	0.180
-265.267	428.002	0.092	0.196
-264.253	-200.000	-0.002	-0.240
-263.238	-124.168	-0.153	0.024
-262.224	146.673	-0.109	-0.145
-261.209	800.000	-0.091	-0.248
-260.195	-129.203	0.229	-0.032
-259.180	-2.839	0.223	-0.154
-258.165	-73.530	-0.199	-0.072
-257.151	-144.035	0.214	0.020
-256.136	53.725	-0.166	0.157
-255.122	-38.461	0.201	0.105
-254.107	46.138	-0.051	0.047
-253.092	-64.477	0.244	0.098
-252.078	-131.963	0.316	0.041
-251.063	173.830	-0.122	0.174
-250.049	800.000	-0.077	-0.272
-249.034	83.599	0.188	-0.203
-248.019	90.635	-0.138	0.153
-247.005	188.598	0.096	0.143
-245.990	26.969	-0.161	0.133
-244.976	562.405	-0.126	-0.303
-243.961	203.474	0.069	0.106
-242.946	42.733	0.151	-0.136
-241.932	-146.240	-0.157	0.014
-240.917	-45.779	0.246	0.120
-239.903	-200.000	0.019	0.320
-238.888	251.827	-0.177	0.297
-237.873	-108.668	0.196	0.042
-236.859	-200.000	0.013	-0.109
-235.844	129.610	0.068	0.086
-234.830	-200.000	-0.028	0.207
-233.815	-91.076	0.138	-0.039
-232.800	-178.543	-0.105	0.002
-231.786	321.311	-0.051	-0.095
-230.771	-200.000	-0.011	-0.140
-229.757	-38.133	-0.259	0.136
-228.742	-200.000	-0.015	-0.161
-227.727	30.263	-0.152	0.128
-226.713	-200.000	0.072	0.331
-225.698	-120.526	0.082	-0.014
-224.684	130.704	-0.212	0.269
-223.669	-62.016	-0.066	0.027
-222.655	-33.698	-0.123	0.067
-221.640	800.000	0.045	0.167
-220.625	800.000	0.053	0.187
-219.611	-200.000	-0.026	0.183
-218.596	-151.472	0.156	-0.011
-217.582	-43.530	0.254	-0.127
-216.567	-92.281	-0.159	0.044
-215.552	-53.703	0.089	0.040
-214.538	514.302	-0.113	0.260
-213.523	376.218	0.065	-0.131
-212.509	183.870	0.157	-0.229
-211.494	708.156	-0.162	-0.423
-210.479	-200.000	-0.021	-0.103
-209.465	800.000	0.072	-0.230
-208.450	800.000	0.098	0.330
-207.436	-200.000	-0.036	-0.161
-206.421	175.332	-0.082	0.118
-205.406	587.481	-0.048	-0.117
-204.392	461.977	0.015	-0.032
-203.377	800.000	-0.094	0.366
-202.363	800.000	-0.036	-0.111
-201.348	355.631	-0.032	0.064
-200.333	431.395	0.106	0.228
-199.319	47.375	0.260	0.239
-198.304	-72.251	-0.254	0.093
-197.290	-76.315	0.121	0.042
-196.275	-59.229	-0.357	-0.152
-195.260	-71.475	0.513	0.190
-194.246	-20.588	0.161	0.097
-193.231	-200.000	0.029	0.367
-192.217	-1.119	0.217	-0.151
-191.202	136.579	0.048	0.061
-190.187	36.724	-0.149	-0.130
-189.173	-10.656	0.056	-0.037
-188.158	139.768	-0.215	-0.280
-187.144	11.166	-0.124	-0.093
-186.129	235.514	-0.132	0.215
-185.114	347.767	-0.032	-0.063
-184.100	-61.619	0.128	0.053
-183.085	782.217	0.026	-0.069
-182.071	414.202	-0.135	-0.283
-181.056	508.341	-0.101	0.232
-180.042	-46.077	0.262	-0.127
-179.027	476.828	0.065	0.146
-178.012	18.893	0.204	0.161
-176.998	-200.000	-0.027	0.318
-175.983	54.161	0.125	0.119
-174.969	800.000	0.017	-0.074
-173.954	-84.808	0.199	-0.062
-172.939	116.840	0.011	-0.013
-171.925	-200.000	0.017	-0.087
-170.910	543.556	0.088	-0.206
-169.896	-200.000	-0.018	-0.081
-168.881	800.000	-0.072	-0.286
-167.866	-127.751	0.173	-0.025
-166.852	-176.083	-0.215	0.006
-165.837	800.000	0.070	-0.232
-164.823	-200.000	0.050	-0.380
-163.808	-52.476	0.081	0.037
-162.793	-166.742	0.265	0.011
-161.779	67.423	-0.131	-0.131
-160.764	160.173	-0.213	0.293
-159.750	-44.379	0.321	0.158
-158.735	-200.000	0.014	0.185
-157.720	21.867	-0.093	-0.074
-156.706	800.000	-0.103	-0.348
-155.691	-89.820	0.247	0.071
-154.677	263.020	0.263	0.451
-153.662	-200.000	-0.043	0.214
-152.647	-200.000	0.006	0.034
-151.633	-200.000	-0.179	-0.001
-150.618	57.462	-0.154	0.148
-149.604	164.844	0.077	-0.108
-148.589	-183.253	0.144	0.002
-147.574	-200.000	-0.002	-0.075
-146.560	-200.000	0.006	0.217
-145.545	214.770	0.227	0.354
-144.531	-197.567	0.446	-0.003
-143.516	-39.779	-0.144	0.074
-142.502	105.848	0.072	-0.084
-141.487	-113.998	0.220	-0.042
-140.472	-79.236	0.213	-0.071
-139.458	-98.527	-0.484	0.122
-138.443	191.441	0.122	0.181
-137.429	-200.000	0.004	0.128
-136.414	-54.602	0.374	0.167
-135.399	-97.822	0.100	0.025
-134.385	-58.795	0.249	-0.106
-133.370	134.248	0.142	-0.181
-132.356	127.740	-0.150	0.188
-131.341	-79.189	0.459	-0.153
-130.326	-88.500	0.153	0.045
-129.312	-170.841	0.207	0.007
-128.297	238.247	0.074	0.121
-127.283	-28.343	0.093	-0.053
-126.268	-48.021	-0.176	-0.084
-125.253	800.000	0.040	-0.136
-124.239	449.502	-0.148	0.320
-123.224	-119.802	0.046	0.008
-122.210	-200.000	0.016	-0.092
