DTS Sentinel unit serial number:	SN413079Multiplexer serial number:	ORYXHardware model number:	OX4-SRSoftware version number:	ORYX F/W v4.00 Oryx Data Collector v3.7.2.0data status	okinstallation	princeton_trtdifferential loss correction	single-endedforward channel	channel 1reverse channel	N/Adate	2019/09/13time	23:42:35forward acquisition time	60.00reverse acquisition time	0.00gamma	496.2192k internal	0.2337k external	0.2337temperature offset calibration	1.0078default loss term (dB/km)	0.3790temperature slope calibration	1.0000multiplexer offset coefficient	1.0000multiplexer slope coefficient	1.0000fibre end	0.00T internal ref (°C)	26.69T ext. ref 1 (°C)	3.16T ext. ref 2 (°C)	20.95length (m)	temperature (°C)	Stokes	anti-Stokes-747.200	-25.903	-0.219	0.130
-746.185	226.092	0.127	0.207
-745.171	-12.624	-0.183	-0.120
-744.156	211.852	0.097	0.154
-743.142	-200.000	0.050	-0.240
-742.127	-34.110	-0.245	0.135
-741.112	-79.706	0.183	-0.062
-740.098	-200.000	-0.026	0.194
-739.083	-200.000	0.059	0.334
-738.069	-200.000	0.032	-0.173
-737.054	34.996	0.107	0.094
-736.039	32.215	-0.340	-0.295
-735.025	60.417	0.363	0.361
-734.010	111.495	0.129	-0.156
-732.996	214.089	-0.057	-0.091
-731.981	484.612	-0.104	0.238
-730.966	328.589	0.191	0.369
-729.952	800.000	-0.026	-0.084
-728.937	-200.000	-0.010	-0.240
-727.923	-72.195	-0.204	-0.076
-726.908	800.000	-0.036	0.158
-725.894	-65.884	0.242	-0.097
-724.879	39.792	0.037	-0.033
-723.864	218.579	0.119	-0.191
-722.850	800.000	-0.070	-0.199
-721.835	-76.360	-0.275	-0.097
-720.821	-133.673	0.162	-0.020
-719.806	-121.371	0.101	0.017
-718.791	28.562	-0.084	-0.071
-717.777	-88.176	-0.098	0.029
-716.762	290.661	0.058	-0.105
-715.748	-200.000	0.032	0.548
-714.733	800.000	-0.014	0.043
-713.718	272.135	-0.072	0.128
-712.704	-200.000	0.029	-0.218
-711.689	800.000	-0.081	0.229
-710.675	485.049	-0.153	-0.349
-709.660	-188.222	0.250	0.003
-708.645	-200.000	-0.010	-0.082
-707.631	206.929	0.050	0.079
-706.616	800.000	0.057	0.198
-705.602	64.627	0.091	0.092
-704.587	552.752	0.072	-0.172
-703.572	229.989	0.205	-0.335
-702.558	-49.510	0.296	-0.141
-701.543	17.551	-0.060	-0.048
-700.529	-200.000	0.058	0.314
-699.514	-200.000	0.004	0.354
-698.499	502.914	-0.220	-0.510
-697.485	18.988	-0.121	-0.097
-696.470	25.550	-0.189	0.157
-695.456	353.950	-0.100	0.200
-694.441	-63.314	-0.164	-0.068
-693.426	-51.396	0.119	-0.056
-692.412	-54.818	-0.098	-0.044
-691.397	9.376	0.244	0.185
-690.383	67.915	0.143	0.147
-689.368	183.068	-0.166	0.245
-688.354	800.000	-0.018	-0.051
-687.339	-109.432	-0.099	-0.021
-686.324	437.495	-0.027	-0.058
-685.310	21.376	-0.103	0.084
-684.295	-200.000	-0.004	-0.140
-683.281	-30.187	-0.123	-0.070
-682.266	-200.000	-0.013	-0.243
-681.251	-200.000	-0.053	-0.390
-680.237	-167.112	-0.321	0.013
-679.222	-72.260	0.110	-0.041
-678.208	-27.665	-0.103	-0.060
-677.193	41.450	-0.118	0.107
-676.178	55.380	-0.079	-0.077
-675.164	-161.151	0.050	-0.003
-674.149	81.824	0.174	0.189
-673.135	106.912	0.122	-0.146
-672.120	-29.179	-0.159	0.091
-671.105	-81.691	-0.190	0.063
-670.091	725.676	0.026	-0.070
-669.076	-200.000	-0.026	0.189
-668.062	193.266	0.167	-0.253
-667.047	458.604	-0.056	0.125
-666.032	718.651	0.044	0.118
-665.018	156.051	-0.094	0.130
-664.003	-13.547	0.093	0.060
-662.989	-172.789	0.092	0.003
-661.974	-200.000	-0.003	-0.193
-660.959	-7.025	-0.211	0.143
-659.945	-77.251	0.223	0.078
-658.930	800.000	-0.032	-0.109
-657.916	17.991	0.095	-0.076
-656.901	13.152	-0.100	0.077
-655.886	37.109	-0.199	0.176
-654.872	-50.492	0.240	-0.113
-653.857	-62.372	-0.266	0.111
-652.843	-27.731	0.076	0.044
-651.828	-200.000	0.033	0.181
-650.814	-200.000	-0.024	0.242
-649.799	280.801	0.070	0.124
-648.784	102.485	0.249	-0.292
-647.770	800.000	0.147	-0.411
-646.755	-128.343	-0.279	-0.040
-645.741	64.858	-0.167	0.169
-644.726	-92.688	-0.211	0.059
-643.711	133.119	0.181	-0.234
-642.697	-200.000	0.019	0.176
-641.682	-47.942	-0.027	-0.013
-640.668	361.287	0.027	0.055
-639.653	-200.000	0.003	-0.036
-638.638	-55.181	-0.136	-0.061
-637.624	226.342	-0.126	0.204
-636.609	-62.205	0.190	-0.079
-635.595	22.190	-0.053	-0.043
-634.580	-41.023	-0.130	-0.067
-633.565	46.814	-0.181	-0.168
-632.551	-135.482	-0.191	0.023
-631.536	1.000	0.071	0.051
-630.522	148.525	0.038	0.052
-629.507	575.993	0.049	0.119
-628.492	800.000	0.057	-0.160
-627.478	143.642	-0.092	-0.122
-626.463	78.884	-0.249	-0.266
-625.449	9.632	0.119	-0.090
-624.434	-18.733	-0.307	-0.191
-623.419	233.600	0.101	0.167
-622.405	63.631	0.080	-0.080
-621.390	-109.876	0.145	-0.030
-620.376	529.877	-0.073	-0.172
-619.361	315.443	-0.130	-0.244
-618.346	-200.000	0.012	-0.181
-617.332	635.881	-0.088	0.224
-616.317	21.390	-0.150	0.122
-615.303	164.458	0.075	0.106
-614.288	800.000	-0.026	0.074
-613.273	70.807	0.115	-0.119
-612.259	-86.678	0.263	0.080
-611.244	409.791	-0.098	-0.208
-610.230	-46.398	0.295	-0.145
-609.215	-25.755	-0.224	0.132
-608.201	800.000	0.051	-0.146
-607.186	-32.106	0.252	0.140
-606.171	-49.794	-0.194	-0.092
-605.157	-155.731	0.079	0.005
-604.142	-100.474	-0.236	0.058
-603.128	800.000	0.016	-0.057
-602.113	-200.000	0.007	-0.184
-601.098	20.009	0.480	0.386
-600.084	-57.537	-0.079	0.035
-599.069	-75.957	-0.277	0.098
-598.055	800.000	-0.049	-0.191
-597.040	-109.187	0.139	0.029
-596.025	-73.853	-0.224	-0.081
-595.011	-121.134	-0.175	-0.029
-593.996	-104.411	-0.173	0.040
-592.982	-61.858	-0.130	-0.054
-591.967	179.094	-0.239	-0.349
-590.952	800.000	0.043	0.135
-589.938	-24.371	-0.327	0.194
-588.923	-82.576	0.146	0.047
-587.909	-106.596	-0.163	0.036
-586.894	-19.030	-0.115	-0.071
-585.879	160.706	0.053	0.074
-584.865	56.181	0.144	0.140
-583.850	-108.932	0.081	0.017
-582.836	-85.763	0.269	-0.083
-581.821	445.178	-0.037	-0.081
-580.806	800.000	0.006	-0.020
-579.792	51.186	-0.049	-0.046
-578.777	253.984	-0.015	0.026
-577.763	-88.065	0.307	-0.092
-576.748	800.000	-0.052	-0.164
-575.733	125.085	-0.051	-0.064
-574.719	662.544	-0.024	-0.061
-573.704	-200.000	-0.044	0.209
-572.690	-98.346	0.326	0.083
-571.675	135.521	-0.129	0.168
-570.661	100.963	0.176	0.205
-569.646	-58.580	-0.056	-0.024
-568.631	165.024	-0.184	0.260
-567.617	112.228	-0.122	-0.147
-566.602	-83.667	0.172	0.055
-565.588	308.945	0.122	0.227
-564.573	-98.997	0.210	-0.053
-563.558	-179.037	0.314	0.007
-562.544	67.062	-0.257	-0.261
-561.529	240.490	-0.122	0.202
-560.515	235.015	-0.103	-0.169
-559.500	-28.546	0.305	-0.175
-558.485	51.169	-0.107	0.102
-557.471	181.145	-0.111	0.162
-556.456	-200.000	0.016	0.075
-555.442	-97.387	-0.272	-0.071
-554.427	-26.305	-0.080	0.047
-553.412	-44.390	-0.286	0.143
-552.398	-24.624	-0.300	-0.178
-551.383	-148.298	0.117	-0.010
-550.369	-172.140	-0.258	-0.008
-549.354	-178.854	0.063	-0.001
-548.339	800.000	0.082	-0.320
-547.325	254.212	-0.157	0.268
-546.310	-111.598	-0.210	0.042
-545.296	-200.000	0.018	-0.197
-544.281	-128.789	0.105	-0.015
-543.266	128.231	-0.273	-0.346
-542.252	800.000	-0.060	-0.184
-541.237	-99.014	-0.172	0.043
-540.223	-104.218	0.498	0.115
-539.208	-200.000	-0.005	0.027
-538.193	-74.543	0.086	-0.031
-537.179	556.590	-0.129	0.311
-536.164	162.696	-0.090	-0.125
-535.150	564.859	0.064	-0.153
-534.135	-94.839	-0.179	0.048
-533.121	22.377	0.337	-0.274
-532.106	-33.135	0.204	-0.112
-531.091	-78.480	-0.147	-0.050
-530.077	69.277	0.122	0.125
-529.062	299.761	0.229	0.420
-528.048	-55.973	-0.193	-0.086
-527.033	-34.859	-0.141	-0.077
-526.018	313.803	-0.127	0.238
-525.004	227.830	-0.067	-0.109
-523.989	-90.135	0.232	0.067
-522.975	172.444	0.136	0.195
-521.960	-56.203	-0.177	0.078
-520.945	150.898	0.068	0.091
-519.931	-200.000	0.044	-0.274
-518.916	-200.000	0.050	0.270
-517.902	-200.000	-0.023	-0.120
-516.887	427.132	-0.124	-0.266
-515.872	7.054	0.077	-0.057
-514.858	-80.308	0.081	-0.027
-513.843	-172.150	-0.168	0.005
-512.829	388.230	-0.059	-0.122
-511.814	800.000	0.010	-0.040
-510.799	-94.963	0.084	-0.023
-509.785	-61.723	0.139	0.058
-508.770	7.718	-0.168	0.125
-507.756	698.073	0.070	-0.184
-506.741	-68.250	-0.099	0.038
-505.726	46.998	-0.153	0.142
-504.712	-81.943	0.381	0.124
-503.697	239.752	-0.266	0.441
-502.683	-200.000	0.017	0.134
-501.668	-200.000	0.019	-0.180
-500.653	124.498	-0.208	0.261
-499.639	419.227	0.048	0.102
-498.624	-200.000	0.012	0.098
-497.610	-141.620	-0.097	0.010
-496.595	-200.000	0.005	-0.102
-495.581	-136.606	-0.286	-0.033
-494.566	184.785	-0.189	-0.278
-493.551	9.857	-0.102	0.077
-492.537	-92.809	0.126	-0.035
-491.522	800.000	0.083	0.237
-490.508	382.329	-0.077	0.157
-489.493	800.000	-0.141	0.488
-488.478	663.428	0.111	0.285
-487.464	800.000	-0.110	0.424
-486.449	-56.093	0.153	0.068
-485.435	-63.704	0.068	0.028
-484.420	800.000	0.042	-0.173
-483.405	668.782	-0.061	-0.156
-482.391	577.335	-0.057	0.140
-481.376	716.082	0.091	-0.240
-480.362	800.000	0.117	-0.432
-479.347	-200.000	0.007	0.298
-478.332	-200.000	-0.025	0.222
-477.318	567.796	0.113	0.273
-476.303	215.521	0.182	0.287
-475.289	40.861	0.230	-0.206
-474.274	-108.129	0.128	0.028
-473.259	-72.662	0.215	0.079
-472.245	13.278	-0.226	-0.174
-471.230	-200.000	-0.005	0.060
-470.216	-200.000	0.012	-0.130
-469.201	800.000	-0.001	0.005
-468.186	21.284	-0.212	0.171
-467.172	-35.553	-0.084	-0.045
-466.157	465.452	0.085	0.188
-465.143	582.417	-0.063	-0.153
-464.128	-50.504	0.187	-0.088
-463.113	800.000	0.065	-0.275
-462.099	800.000	0.044	0.158
-461.084	206.742	-0.016	-0.024
-460.070	-1.472	0.150	0.105
-459.055	-87.255	0.136	-0.041
-458.040	-98.446	0.205	-0.052
-457.026	-124.934	0.182	-0.028
-456.011	-200.000	-0.024	-0.212
-454.997	623.467	-0.100	-0.249
-453.982	112.395	0.226	0.271
-452.968	-151.057	0.360	0.027
-451.953	-50.850	-0.178	-0.083
-450.938	-65.238	0.139	0.055
-449.924	65.150	0.034	-0.034
-448.909	330.501	-0.146	-0.279
-447.895	2.566	-0.111	-0.080
-446.880	-132.146	-0.309	-0.040
-445.865	388.917	0.045	0.093
-444.851	260.226	-0.165	0.284
-443.836	-200.000	0.001	0.074
-442.822	-24.992	0.183	0.108
-441.807	-200.000	0.031	0.148
-440.792	57.991	-0.240	0.233
-439.778	800.000	0.050	-0.141
-438.763	-90.181	-0.064	-0.019
-437.749	234.227	0.095	-0.155
-436.734	245.789	-0.142	0.238
-435.719	-104.286	0.173	-0.040
-434.705	4.094	0.125	0.090
-433.690	-62.593	0.195	0.080
-432.676	-8.682	0.275	0.183
-431.661	-200.000	-0.019	-0.085
-430.646	-72.218	0.281	0.103
-429.632	800.000	0.016	-0.057
-428.617	252.768	0.035	-0.059
-427.603	530.213	0.111	-0.260
-426.588	140.302	-0.114	0.149
-425.573	-200.000	0.066	-0.464
-424.559	-2.712	0.212	-0.147
-423.544	26.527	-0.152	-0.126
-422.530	-200.000	-0.026	0.223
-421.515	378.895	-0.143	0.291
-420.500	45.272	-0.234	0.214
-419.486	800.000	-0.050	-0.155
-418.471	-54.196	-0.332	-0.149
-417.457	800.000	-0.022	0.072
-416.442	-200.000	0.009	0.179
-415.428	60.223	-0.176	-0.173
-414.413	800.000	-0.079	-0.253
-413.398	105.129	-0.200	0.234
-412.384	-28.691	0.165	0.094
-411.369	472.742	-0.159	-0.354
-410.355	252.806	-0.069	-0.117
-409.340	0.084	-0.160	0.113
-408.325	-200.000	0.020	-0.142
-407.311	42.123	0.114	0.103
-406.296	547.988	0.018	0.044
-405.282	-78.193	-0.098	0.033
-404.267	372.533	0.062	0.125
-403.252	36.983	-0.107	-0.094
-402.238	84.211	0.192	0.208
-401.223	247.808	-0.096	0.161
-400.209	-200.000	-0.005	-0.117
-399.194	1.039	-0.140	-0.099
-398.179	-109.408	0.232	-0.049
-397.165	643.064	-0.043	-0.109
-396.150	533.259	-0.074	0.173
-395.136	-60.304	0.141	0.059
-394.121	-200.000	-0.043	-0.219
-393.106	60.723	-0.190	0.186
-392.092	107.277	0.176	-0.208
-391.077	-30.439	0.161	-0.090
-390.063	800.000	-0.014	0.044
-389.048	-200.000	0.296	-0.001
-388.033	-200.000	0.034	-0.196
-387.019	-61.884	-0.224	0.093
-386.004	-42.004	-0.376	0.190
-384.990	-200.000	-0.032	0.198
-383.975	800.000	-0.074	-0.302
-382.960	-131.830	0.417	0.054
-381.946	57.351	-0.144	-0.139
-380.931	367.291	0.108	0.215
-379.917	-200.000	-0.034	-0.175
-378.902	-125.851	-0.194	0.029
-377.888	800.000	-0.064	-0.179
-376.873	148.364	-0.224	-0.299
-375.858	800.000	-0.046	0.151
-374.844	-46.600	-0.150	0.073
-373.829	204.537	-0.226	-0.346
-372.815	100.966	-0.113	-0.130
-371.800	65.378	0.284	0.284
-370.785	-200.000	-0.000	-0.291
-369.771	613.898	0.163	-0.404
-368.756	-53.587	-0.106	-0.048
-367.742	278.971	-0.208	0.367
-366.727	-13.440	0.288	0.185
-365.712	-99.486	-0.299	-0.074
-364.698	-200.000	0.001	0.112
-363.683	-50.483	-0.533	0.249
-362.669	-123.230	-0.048	0.008
-361.654	-31.892	0.117	-0.065
-360.639	229.181	0.026	-0.042
-359.625	-200.000	0.040	0.190
-358.610	800.000	0.006	0.017
-357.596	468.154	-0.116	0.256
-356.581	-118.002	0.317	0.056
-355.566	-98.369	0.158	0.040
-354.552	-200.000	0.006	0.042
-353.537	-94.558	-0.141	-0.038
-352.523	800.000	-0.059	0.179
-351.508	291.611	-0.110	0.198
-350.493	82.275	-0.290	0.311
-349.479	34.314	-0.023	0.020
-348.464	4.008	-0.243	-0.176
-347.450	-200.000	0.010	-0.271
-346.435	800.000	-0.028	0.113
-345.420	-11.892	0.260	0.169
-344.406	323.190	0.091	0.172
-343.391	-147.090	0.265	0.022
-342.377	107.984	0.067	-0.079
-341.362	800.000	0.066	-0.214
-340.348	82.471	0.300	0.321
-339.333	136.452	0.049	-0.064
-338.318	-16.320	0.253	0.159
-337.304	94.174	-0.196	-0.220
-336.289	28.491	0.268	0.224
-335.275	800.000	0.105	-0.425
-334.260	-128.351	-0.340	0.048
-333.245	-200.000	-0.077	-0.414
-332.231	-41.617	-0.331	-0.168
-331.216	-1.440	0.316	0.220
-330.202	-19.120	-0.041	0.025
-329.187	33.649	-0.147	0.127
-328.172	49.244	-0.294	0.273
-327.158	-200.000	0.007	0.042
-326.143	150.492	-0.068	0.091
-325.129	-200.000	0.000	-0.114
-324.114	51.503	0.131	0.123
-323.099	800.000	0.101	0.282
-322.085	-200.000	-0.012	-0.247
-321.070	-200.000	0.004	0.055
-320.056	-49.614	0.049	-0.023
-319.041	-96.665	-0.360	0.094
-318.026	401.832	0.140	0.290
-317.012	-119.865	-0.466	-0.079
-315.997	162.139	0.138	-0.192
-314.983	-47.569	-0.329	0.158
-313.968	-86.421	0.210	-0.064
-312.953	-200.000	0.014	0.060
-311.939	-53.151	-0.116	0.053
-310.924	144.971	0.126	0.166
-309.910	-112.753	-0.446	-0.088
-308.895	426.325	0.208	-0.442
-307.880	693.475	0.101	0.261
-306.866	-97.327	-0.208	0.053
-305.851	310.529	-0.133	-0.246
-304.837	455.071	-0.138	-0.303
-303.822	-200.000	-0.132	0.000
-302.807	-3.287	0.037	0.026
-301.793	266.102	0.157	0.270
-300.778	-98.447	0.149	-0.038
-299.764	22.548	0.183	-0.148
-298.749	782.858	-0.041	0.110
-297.735	-54.911	0.316	0.141
-296.720	-200.000	0.011	0.057
-295.705	11.827	0.017	-0.013
-294.691	-55.451	-0.162	-0.072
-293.676	-123.257	-0.331	0.052
-292.662	-200.000	-0.031	-0.155
-291.647	-81.317	0.210	-0.068
-290.632	121.878	0.070	-0.086
-289.618	-101.849	0.476	0.113
-288.603	-134.401	0.240	0.029
-287.589	800.000	-0.051	-0.196
-286.574	-113.986	0.065	-0.012
-285.559	-31.121	0.127	0.071
-284.545	-30.601	-0.241	0.135
-283.530	286.178	0.166	-0.296
-282.516	-37.175	0.230	-0.121
-281.501	98.108	-0.079	-0.089
-280.486	-200.000	0.010	0.108
-279.472	-31.651	-0.082	0.045
-278.457	599.047	0.002	-0.005
-277.443	-116.176	-0.499	-0.091
-276.428	-107.289	0.342	0.074
-275.413	91.482	-0.060	0.066
-274.399	168.580	-0.143	0.201
-273.384	-115.177	-0.265	0.050
-272.370	40.016	-0.129	0.114
-271.355	676.638	0.085	0.217
-270.340	456.097	0.133	-0.291
-269.326	-143.630	0.250	0.023
-268.311	116.771	-0.084	0.102
-267.297	-184.517	0.079	0.001
-266.282	48.526	-0.050	-0.046
-265.267	51.519	-0.235	0.220
-264.253	800.000	-0.029	0.100
-263.238	36.232	0.079	0.069
-262.224	-12.945	-0.181	-0.116
-261.209	629.210	0.049	-0.121
-260.195	-200.000	0.011	0.055
-259.180	-105.804	-0.040	-0.009
-258.165	-117.028	0.184	0.033
-257.151	55.494	0.279	0.266
-256.136	-60.781	0.330	-0.138
-255.122	66.479	0.228	-0.229
-254.107	278.351	0.243	-0.426
-253.092	51.660	-0.261	-0.244
-252.078	-200.000	0.009	-0.182
-251.063	-129.415	0.174	-0.024
-250.049	-200.000	-0.001	0.006
-249.034	800.000	-0.035	-0.109
-248.019	104.737	-0.106	0.123
-247.005	297.207	0.080	0.144
-245.990	-67.909	0.212	0.082
-244.976	-200.000	0.079	-0.385
-243.961	-31.410	0.119	0.066
-242.946	-44.794	0.468	-0.230
-241.932	-82.758	-0.162	-0.051
-240.917	-145.552	0.102	0.009
-239.903	800.000	0.051	0.147
-238.888	800.000	-0.077	0.267
-237.873	-106.077	-0.357	0.079
-236.859	800.000	0.125	0.352
-235.844	-200.000	0.021	-0.267
-234.830	-46.435	-0.172	-0.083
-233.815	800.000	0.094	0.382
-232.800	-8.620	0.132	-0.087
-231.786	233.882	-0.080	-0.130
-230.771	154.837	0.180	0.244
-229.757	5.838	0.350	0.255
-228.742	800.000	-0.072	-0.308
-227.727	464.390	0.114	-0.250
-226.713	-200.000	0.057	0.300
-225.698	-131.328	0.145	-0.019
-224.684	14.078	-0.209	-0.160
-223.669	-28.813	0.288	-0.163
-222.655	-200.000	-0.017	0.073
-221.640	574.544	-0.132	0.316
-220.625	6.033	-0.159	0.116
-219.611	800.000	-0.061	0.206
-218.596	800.000	-0.005	0.020
-217.582	-140.656	0.081	-0.008
-216.567	615.617	0.116	-0.286
-215.552	48.896	0.074	0.068
-214.538	-200.000	-0.001	0.208
-213.523	-200.000	0.019	-0.109
-212.509	-68.814	0.190	-0.072
-211.494	800.000	-0.048	-0.172
-210.479	-200.000	0.025	0.140
-209.465	43.621	0.075	-0.067
-208.450	154.815	0.236	-0.319
-207.436	-46.995	0.241	-0.116
-206.421	529.182	0.129	-0.299
-205.406	-107.307	-0.256	0.055
-204.392	-43.409	-0.204	-0.101
-203.377	12.939	-0.025	-0.019
-202.363	-200.000	-0.001	0.146
-201.348	-106.549	0.278	0.061
-200.333	-20.917	0.156	-0.094
-199.319	800.000	-0.018	0.064
-198.304	-200.000	-0.009	-0.256
-197.290	25.982	-0.147	-0.121
-196.275	-200.000	0.057	-0.296
-195.260	10.115	-0.119	-0.089
-194.246	-6.807	-0.323	-0.216
-193.231	-73.629	0.350	0.125
-192.217	168.088	-0.141	-0.197
-191.202	-200.000	0.060	0.353
-190.187	371.881	0.112	0.224
-189.173	-200.000	0.027	-0.371
-188.158	-200.000	0.017	0.181
-187.144	-200.000	-0.034	0.197
-186.129	294.850	0.164	0.295
-185.114	-18.693	0.231	-0.141
-184.100	800.000	-0.034	-0.125
-183.085	-200.000	0.014	0.079
-182.071	-128.530	-0.094	-0.013
-181.056	800.000	0.057	0.178
-180.042	-38.298	0.303	-0.158
-179.027	-175.916	-0.080	0.002
-178.012	-75.771	-0.104	0.036
-176.998	-173.499	-0.096	0.003
-175.983	96.615	0.102	-0.115
-174.969	-40.529	-0.091	0.046
-173.954	-65.352	0.223	-0.088
-172.939	534.948	0.066	-0.153
-171.925	313.908	0.062	-0.115
-170.910	16.303	-0.344	-0.267
-169.896	325.370	-0.049	0.093
-168.881	-93.760	-0.080	0.022
-167.866	260.110	-0.154	0.261
-166.852	178.891	-0.291	0.418
-165.837	-49.313	0.103	-0.048
-164.823	772.763	-0.083	-0.221
-163.808	-111.599	-0.201	0.040
-162.793	800.000	0.053	0.187
-161.779	-133.611	0.301	-0.037
-160.764	-29.032	-0.211	-0.119
-159.750	-98.374	0.213	0.054
-158.735	800.000	-0.058	-0.198
-157.720	58.529	0.254	0.245
-156.706	526.313	-0.036	0.084
-155.691	-200.000	-0.004	0.137
-154.677	-200.000	-0.076	-0.391
-153.662	-96.863	-0.291	-0.075
-152.647	-125.401	0.063	0.009
-151.633	-200.000	-0.007	0.038
-150.618	-91.999	-0.424	-0.118
-149.604	-6.508	-0.122	0.082
-148.589	64.058	-0.096	-0.095
-147.574	82.949	-0.215	-0.229
-146.560	-61.937	-0.256	0.105
-145.545	800.000	0.142	0.603
-144.531	-200.000	-0.009	0.226
-143.516	-116.234	-0.258	0.047
-142.502	151.113	-0.020	-0.027
-141.487	-200.000	-0.045	-0.240
-140.472	-200.000	0.207	-0.000
-139.458	-17.285	-0.222	-0.137
-138.443	-54.859	0.327	-0.145
-137.429	-79.674	0.459	0.152
-136.414	5.640	-0.164	0.119
-135.399	294.361	0.132	0.236
-134.385	88.262	0.016	0.018
-133.370	-132.511	-0.282	-0.036
-132.356	-7.039	0.211	0.140
-131.341	-8.969	0.121	-0.079
-130.326	800.000	0.063	0.209
-129.312	-16.359	-0.198	-0.123
-128.297	200.235	-0.150	0.226
-127.283	-47.701	0.032	-0.015
-126.268	-155.491	-0.131	-0.008
-125.253	-200.000	0.003	-0.277
-124.239	-161.560	0.192	0.010
-123.224	-119.335	0.258	0.044
-122.210	112.208	0.223	0.264
-121.195	784.291	-0.107	-0.288
-120.180	-108.527	0.313	-0.066
