DTS Sentinel unit serial number:	SN413079Multiplexer serial number:	ORYXHardware model number:	OX4-SRSoftware version number:	ORYX F/W v4.00 Oryx Data Collector v3.7.2.0data status	okinstallation	princeton_trtdifferential loss correction	single-endedforward channel	channel 1reverse channel	N/Adate	2019/09/17time	06:38:35forward acquisition time	60.00reverse acquisition time	0.00gamma	496.2192k internal	0.2328k external	0.2328temperature offset calibration	0.9965default loss term (dB/km)	0.3790temperature slope calibration	1.0000multiplexer offset coefficient	1.0000multiplexer slope coefficient	1.0000fibre end	0.00T internal ref (°C)	27.98T ext. ref 1 (°C)	0.12T ext. ref 2 (°C)	21.35length (m)	temperature (°C)	Stokes	anti-Stokes-747.200	-119.832	-0.257	-0.045
-746.185	-58.002	-0.079	0.035
-745.171	348.614	-0.066	-0.131
-744.156	-200.000	-0.135	0.692
-743.142	-58.166	0.056	0.025
-742.127	-200.000	0.008	0.279
-741.112	289.105	-0.209	0.381
-740.098	-157.062	-0.380	-0.023
-739.083	-35.305	0.317	-0.174
-738.069	-141.011	-0.315	-0.033
-737.054	102.016	-0.163	-0.191
-736.039	-200.000	0.023	0.273
-735.025	39.195	0.153	0.138
-734.010	90.492	-0.219	-0.247
-732.996	102.332	-0.344	-0.405
-731.981	-115.028	0.127	0.024
-730.966	-200.000	-0.008	0.275
-729.952	-18.399	-0.271	0.170
-728.937	-200.000	0.014	-0.146
-727.923	-83.366	-0.394	-0.127
-726.908	50.158	-0.106	-0.101
-725.894	53.898	0.185	-0.179
-724.879	-119.362	-0.148	-0.026
-723.864	126.146	-0.046	-0.059
-722.850	800.000	-0.061	-0.212
-721.835	-200.000	-0.016	-0.136
-720.821	-200.000	-0.031	0.267
-719.806	52.396	-0.218	-0.209
-718.791	800.000	0.036	0.106
-717.777	-65.640	0.225	0.091
-716.762	-200.000	-0.020	-0.298
-715.748	-116.440	0.219	-0.041
-714.733	-59.956	-0.251	-0.108
-713.718	33.682	-0.102	-0.089
-712.704	800.000	-0.036	-0.124
-711.689	800.000	-0.084	0.241
-710.675	-200.000	0.012	-0.172
-709.660	-2.628	-0.175	0.123
-708.645	-200.000	-0.011	-0.179
-707.631	118.180	-0.031	0.038
-706.616	-136.129	-0.147	0.017
-705.602	-100.200	0.206	-0.052
-704.587	800.000	-0.125	-0.356
-703.572	-200.000	0.000	-0.002
-702.558	4.514	0.175	0.129
-701.543	114.572	0.185	0.227
-700.529	67.281	0.229	-0.235
-699.514	-200.000	0.001	-0.242
-698.499	-58.513	0.039	0.017
-697.485	-96.675	-0.162	0.043
-696.470	376.735	0.086	0.177
-695.456	-200.000	-0.036	-0.473
-694.441	800.000	-0.046	0.175
-693.426	-200.000	-0.002	0.287
-692.412	800.000	0.098	-0.293
-691.397	364.202	-0.102	-0.207
-690.383	507.821	-0.046	-0.106
-689.368	150.744	0.145	-0.198
-688.354	-3.983	-0.306	0.213
-687.339	-200.000	0.015	-0.189
-686.324	-200.000	-0.016	0.170
-685.310	-122.606	0.360	-0.059
-684.295	-116.628	-0.165	-0.031
-683.281	524.605	-0.053	-0.125
-682.266	4.893	-0.127	-0.094
-681.251	492.635	-0.075	-0.173
-680.237	-129.880	0.082	-0.011
-679.222	14.440	0.257	0.202
-678.208	-181.139	-0.555	0.011
-677.193	-101.311	-0.255	0.063
-676.178	329.198	-0.062	-0.120
-675.164	-77.407	-0.145	0.051
-674.149	-121.636	0.182	-0.030
-673.135	-200.000	-0.038	0.208
-672.120	284.179	-0.135	-0.245
-671.105	-200.000	0.096	0.428
-670.091	-200.000	0.014	0.110
-669.076	80.349	0.141	-0.153
-668.062	112.462	0.134	-0.163
-667.047	-200.000	-0.047	-0.251
-666.032	-101.622	0.210	0.051
-665.018	192.471	-0.028	-0.043
-664.003	-32.066	0.277	0.155
-662.989	800.000	0.094	0.311
-661.974	512.259	-0.112	0.262
-660.959	-119.719	-0.158	-0.027
-659.945	213.373	-0.202	0.320
-658.930	83.326	0.031	-0.034
-657.916	-115.765	0.234	-0.044
-656.901	-200.000	0.024	0.142
-655.886	330.441	-0.192	-0.371
-654.872	800.000	-0.089	-0.280
-653.857	44.297	-0.311	-0.287
-652.843	-11.648	0.050	0.033
-651.828	299.674	-0.020	0.038
-650.814	109.813	-0.276	-0.332
-649.799	133.566	-0.213	-0.276
-648.784	-5.003	0.258	-0.178
-647.770	52.484	0.014	0.013
-646.755	-200.000	-0.049	-0.226
-645.741	-95.523	0.303	-0.082
-644.726	147.400	-0.111	0.150
-643.711	-12.222	-0.287	0.189
-642.697	-86.107	-0.064	-0.020
-641.682	92.344	0.086	-0.098
-640.668	52.947	-0.103	-0.099
-639.653	-84.148	-0.116	-0.037
-638.638	-29.439	-0.164	-0.094
-637.624	800.000	-0.095	0.274
-636.609	118.570	0.217	-0.269
-635.595	-24.001	0.133	-0.080
-634.580	745.942	-0.097	-0.262
-633.565	8.512	0.191	0.144
-632.551	-167.663	0.287	-0.011
-631.536	-200.000	0.035	0.385
-630.522	34.582	0.141	0.124
-629.507	20.504	-0.115	-0.093
-628.492	-69.260	-0.176	-0.068
-627.478	-41.654	0.261	0.135
-626.463	-200.000	-0.035	-0.255
-625.449	-67.742	-0.146	-0.057
-624.434	70.676	-0.087	0.090
-623.419	17.884	-0.163	-0.130
-622.405	-200.000	-0.022	-0.250
-621.390	179.101	-0.131	-0.192
-620.376	-134.130	-0.272	0.034
-619.361	24.069	0.080	0.066
-618.346	-63.245	0.040	0.016
-617.332	130.658	0.060	0.077
-616.317	100.411	-0.081	-0.094
-615.303	238.608	-0.128	0.214
-614.288	4.159	-0.057	-0.042
-613.273	791.771	-0.077	0.212
-612.259	-22.753	0.240	0.145
-611.244	-51.959	0.143	-0.067
-610.230	58.215	0.106	0.104
-609.215	89.283	0.113	-0.126
-608.201	228.782	-0.037	-0.060
-607.186	-45.474	0.091	0.045
-606.171	-10.268	-0.249	-0.166
-605.157	-126.512	0.151	0.023
-604.142	-9.462	0.127	-0.085
-603.128	-33.451	-0.033	-0.018
-602.113	-200.000	0.077	-0.353
-601.098	-27.168	0.119	0.070
-600.084	403.833	0.065	0.138
-599.069	800.000	-0.046	-0.191
-598.055	-90.241	-0.148	0.043
-597.040	-21.480	0.191	-0.117
-596.025	69.848	0.048	-0.050
-595.011	-200.000	-0.000	0.057
-593.996	323.907	-0.227	0.434
-592.982	306.752	0.139	0.259
-591.967	-139.591	-0.080	0.009
-590.952	739.276	0.084	0.226
-589.938	-115.777	-0.207	-0.039
-588.923	-95.151	-0.214	-0.058
-587.909	514.107	-0.089	0.209
-586.894	545.570	0.058	0.139
-585.879	366.361	0.091	0.184
-584.865	-200.000	-0.051	-0.325
-583.850	800.000	0.087	-0.342
-582.836	-0.827	0.125	0.089
-581.821	-66.581	0.295	-0.117
-580.806	104.353	0.072	0.085
-579.792	-200.000	0.026	-0.333
-578.777	68.014	0.207	0.212
-577.763	800.000	-0.099	-0.300
-576.748	-34.487	-0.249	0.136
-575.733	800.000	0.073	0.266
-574.719	62.760	-0.103	-0.103
-573.704	557.756	-0.175	0.422
-572.690	-200.000	0.058	-0.439
-571.675	193.709	0.109	-0.164
-570.661	397.237	-0.107	0.224
-569.646	-200.000	0.023	0.147
-568.631	42.562	0.219	-0.200
-567.617	-200.000	-0.025	-0.159
-566.602	51.227	0.046	-0.044
-565.588	-55.521	-0.379	-0.170
-564.573	-49.880	-0.114	0.054
-563.558	-200.000	-0.001	-0.026
-562.544	162.260	-0.075	0.106
-561.529	-127.369	-0.231	0.034
-560.515	33.021	-0.189	-0.164
-559.500	493.515	0.050	0.115
-558.485	-200.000	-0.026	0.139
-557.471	-200.000	0.085	0.408
-556.456	-79.836	-0.297	-0.100
-555.442	-180.507	0.078	0.002
-554.427	-96.220	0.269	0.071
-553.412	-200.000	-0.002	-0.092
-552.398	91.559	0.141	-0.159
-551.383	-58.796	0.179	0.077
-550.369	38.520	-0.128	-0.114
-549.354	-136.687	0.392	-0.045
-548.339	-171.520	-0.255	-0.008
-547.325	-101.078	0.485	0.119
-546.310	667.557	0.091	-0.236
-545.296	-200.000	0.009	0.104
-544.281	89.946	0.028	0.031
-543.266	-6.578	-0.204	-0.139
-542.252	99.439	-0.203	-0.235
-541.237	-200.000	-0.027	0.418
-540.223	5.455	-0.062	0.046
-539.208	-52.218	0.535	-0.248
-538.193	800.000	-0.050	-0.161
-537.179	227.928	-0.140	-0.227
-536.164	800.000	-0.108	0.404
-535.150	275.003	0.106	-0.188
-534.135	-200.000	-0.045	-0.302
-533.121	-200.000	-0.012	0.107
-532.106	-200.000	-0.007	-0.157
-531.091	-200.000	-0.022	0.132
-530.077	-24.795	0.176	0.105
-529.062	-200.000	0.054	0.264
-528.048	142.440	0.078	0.104
-527.033	208.522	0.103	-0.161
-526.018	-73.308	-0.060	-0.022
-525.004	-111.324	0.353	-0.072
-523.989	280.650	0.099	0.178
-522.975	229.157	-0.173	-0.282
-521.960	77.590	-0.172	-0.183
-520.945	115.630	0.042	0.051
-519.931	-96.784	-0.393	-0.103
-518.916	-48.349	-0.038	-0.018
-517.902	-200.000	-0.036	0.244
-516.887	150.065	0.039	-0.053
-515.872	5.361	-0.121	-0.089
-514.858	-42.421	0.381	0.194
-513.843	-200.000	0.080	-0.368
-512.829	-200.000	-0.013	-0.357
-511.814	-36.149	0.093	0.050
-510.799	40.520	-0.171	0.154
-509.785	-1.236	-0.217	-0.153
-508.770	-124.397	-0.261	-0.041
-507.756	-200.000	0.022	-0.290
-506.741	160.834	0.084	-0.117
-505.726	507.264	-0.036	-0.082
-504.712	-200.000	-0.005	0.059
-503.697	244.158	0.226	-0.378
-502.683	103.331	-0.065	0.076
-501.668	-200.000	-0.012	0.156
-500.653	-49.796	-0.181	0.086
-499.639	800.000	-0.068	0.281
-498.624	690.441	-0.121	0.316
-497.610	-200.000	-0.016	0.337
-496.595	606.161	-0.038	0.094
-495.581	-176.045	-0.168	0.004
-494.566	-49.377	0.160	0.076
-493.551	-200.000	-0.071	-0.473
-492.537	800.000	0.070	-0.251
-491.522	-109.578	-0.363	0.076
-490.508	-92.876	0.356	0.099
-489.493	701.866	-0.068	0.179
-488.478	102.366	-0.045	-0.053
-487.464	207.359	-0.158	0.246
-486.449	-200.000	-0.096	0.456
-485.435	-45.168	0.160	0.080
-484.420	17.392	-0.168	-0.133
-483.405	-200.000	0.003	0.227
-482.391	-43.119	0.019	0.010
-481.376	800.000	0.076	0.305
-480.362	-200.000	-0.041	-0.259
-479.347	432.631	0.085	0.183
-478.332	-120.170	0.238	0.041
-477.318	-93.102	-0.155	-0.043
-476.303	-51.292	-0.264	-0.123
-475.289	748.274	0.133	0.356
-474.274	116.189	-0.028	0.035
-473.259	800.000	0.096	-0.348
-472.245	-122.723	0.158	0.026
-471.230	-200.000	0.006	0.044
-470.216	-200.000	-0.057	0.472
-469.201	-57.317	0.068	-0.030
-468.186	114.178	0.071	0.086
-467.172	-200.000	-0.095	-0.454
-466.157	-200.000	-0.010	-0.062
-465.143	-200.000	-0.041	0.189
-464.128	-200.000	-0.022	-0.286
-463.113	800.000	-0.032	-0.101
-462.099	21.733	0.084	0.068
-461.084	290.806	-0.045	-0.082
-460.070	153.419	0.178	-0.243
-459.055	170.189	0.097	0.138
-458.040	800.000	0.022	-0.079
-457.026	800.000	0.060	-0.169
-456.011	-200.000	-0.001	0.151
-454.997	6.262	-0.184	-0.136
-453.982	-114.392	0.261	0.050
-452.968	109.123	-0.292	0.348
-451.953	-200.000	0.012	-0.066
-450.938	-35.594	0.213	-0.115
-449.924	-168.565	-0.297	0.011
-448.909	-200.000	0.007	-0.245
-447.895	71.919	0.081	-0.084
-446.880	-72.184	0.405	0.150
-445.865	55.292	-0.282	-0.271
-444.851	202.949	0.125	-0.193
-443.836	69.633	-0.143	0.147
-442.822	-0.929	0.172	-0.122
-441.807	-92.549	-0.154	0.043
-440.792	135.937	-0.178	0.230
-439.778	800.000	-0.050	0.174
-438.763	236.054	0.132	-0.217
-437.749	800.000	-0.050	-0.175
-436.734	602.964	-0.106	-0.262
-435.719	-200.000	0.060	0.300
-434.705	647.459	-0.069	0.176
-433.690	-96.353	-0.134	-0.035
-432.676	17.677	0.087	-0.069
-431.661	-147.185	-0.077	-0.007
-430.646	47.666	-0.193	0.179
-429.632	-60.686	-0.229	0.097
-428.617	-20.559	0.387	0.237
-427.603	-117.390	-0.100	-0.018
-426.588	566.870	0.127	-0.306
-425.573	-23.369	-0.183	-0.109
-424.559	-200.000	0.006	0.241
-423.544	-87.289	-0.408	0.123
-422.530	-24.625	0.059	-0.035
-421.515	-106.878	-0.195	0.043
-420.500	-200.000	0.024	-0.195
-419.486	777.437	-0.060	-0.163
-418.471	-114.404	0.050	0.009
-417.457	59.711	0.295	-0.290
-416.442	84.957	-0.106	0.116
-415.428	-152.992	0.104	-0.007
-414.413	-31.724	0.191	-0.106
-413.398	800.000	0.097	0.307
-412.384	-157.116	-0.120	-0.007
-411.369	-200.000	0.005	-0.023
-410.355	-57.251	-0.236	-0.103
-409.340	115.725	-0.091	-0.110
-408.325	-88.818	0.164	0.048
-407.311	-200.000	0.009	-0.344
-406.296	800.000	-0.087	-0.341
-405.282	-200.000	-0.048	0.220
-404.267	201.520	0.190	0.291
-403.252	-200.000	-0.014	-0.289
-402.238	-110.408	-0.274	0.057
-401.223	800.000	-0.080	0.246
-400.209	-28.151	-0.050	-0.029
-399.194	44.619	-0.270	-0.247
-398.179	-112.747	0.327	0.065
-397.165	1.676	-0.286	0.205
-396.150	-167.241	0.096	0.004
-395.136	-68.834	0.450	-0.173
-394.121	30.434	-0.176	0.149
-393.106	534.424	-0.039	0.093
-392.092	190.337	0.175	0.261
-391.077	62.768	0.286	-0.284
-390.063	36.651	-0.112	-0.098
-389.048	589.258	-0.064	0.157
-388.033	800.000	-0.092	0.287
-387.019	-18.981	0.126	-0.078
-386.004	-200.000	-0.023	-0.370
-384.990	-87.303	-0.411	0.124
-383.975	800.000	-0.032	-0.116
-382.960	336.027	0.239	0.460
-381.946	800.000	-0.021	0.084
-380.931	800.000	-0.029	-0.094
-379.917	-31.644	-0.132	0.073
-378.902	228.765	0.033	0.053
-377.888	-200.000	0.014	0.083
-376.873	-200.000	-0.056	-0.281
-375.858	-200.000	0.055	-0.291
-374.844	-200.000	0.017	0.410
-373.829	-68.565	-0.189	0.073
-372.815	100.684	-0.235	-0.271
-371.800	800.000	0.130	-0.488
-370.785	800.000	-0.087	-0.318
-369.771	-70.997	-0.427	0.159
-368.756	57.592	0.284	-0.276
-367.742	-6.656	-0.214	0.144
-366.727	-11.718	0.240	0.156
-365.712	-200.000	-0.027	-0.124
-364.698	21.276	0.225	-0.181
-363.683	689.054	-0.042	0.108
-362.669	-166.069	0.211	-0.009
-361.654	-200.000	0.042	0.228
-360.639	800.000	0.108	0.354
-359.625	800.000	-0.130	-0.419
-358.610	-200.000	-0.009	-0.197
-357.596	1.420	0.307	0.219
-356.581	-200.000	-0.007	-0.186
-355.566	-100.772	-0.186	-0.045
-354.552	-200.000	-0.008	-0.160
-353.537	-21.862	-0.401	0.242
-352.523	-200.000	0.060	0.506
-351.508	-65.377	-0.306	0.122
-350.493	-105.467	-0.267	-0.060
-349.479	665.193	-0.078	0.201
-348.464	-63.184	0.038	0.016
-347.450	51.314	-0.218	-0.205
-346.435	-45.061	-0.162	0.080
-345.420	-134.774	0.073	-0.009
-344.406	581.350	0.098	-0.238
-343.391	115.756	0.142	0.172
-342.377	-167.816	-0.110	0.004
-341.362	488.965	0.088	0.200
-340.348	800.000	0.049	0.163
-339.333	-29.710	-0.193	0.109
-338.318	-142.101	0.209	0.021
-337.304	-100.039	0.209	-0.052
-336.289	-98.213	-0.549	-0.140
-335.275	291.852	-0.188	-0.340
-334.260	466.909	0.146	0.325
-333.245	-133.624	0.352	0.044
-332.231	800.000	-0.043	0.150
-331.216	-152.872	0.146	-0.010
-330.202	0.840	-0.164	0.116
-329.187	800.000	-0.115	-0.332
-328.172	-200.000	0.001	0.174
-327.158	109.357	0.053	-0.063
-326.143	56.062	-0.045	-0.044
-325.129	42.887	0.161	-0.146
-324.114	-128.858	-0.206	0.029
-323.099	566.038	-0.044	0.105
-322.085	800.000	-0.057	0.221
-321.070	-52.728	0.212	0.097
-320.056	577.920	-0.058	0.141
-319.041	-200.000	0.097	0.000
-318.026	184.747	0.232	-0.341
-317.012	200.860	0.054	-0.083
-315.997	221.533	0.222	-0.354
-314.983	-52.328	-0.190	-0.087
-313.968	800.000	-0.106	0.351
-312.953	-200.000	-0.002	-0.041
-311.939	800.000	-0.084	-0.307
-310.924	-62.709	-0.398	-0.164
-309.910	8.702	-0.289	0.215
-308.895	369.195	0.040	0.079
-307.880	33.334	0.079	0.068
-306.866	41.561	0.105	0.094
-305.851	41.890	0.163	-0.146
-304.837	-200.000	0.005	-0.060
-303.822	-60.374	-0.021	-0.009
-302.807	-33.151	-0.086	0.047
-301.793	-200.000	-0.006	0.105
-300.778	21.253	-0.065	0.052
-299.764	-17.601	-0.323	-0.201
-298.749	51.202	-0.254	-0.239
-297.735	447.592	0.144	-0.314
-296.720	800.000	-0.145	-0.475
-295.705	-121.803	-0.173	0.028
-294.691	6.776	0.203	-0.150
-293.676	225.707	0.104	-0.167
-292.662	800.000	-0.057	0.189
-291.647	-200.000	-0.008	0.058
-290.632	-200.000	-0.011	0.257
-289.618	-51.927	0.213	0.098
-288.603	800.000	-0.056	0.167
-287.589	800.000	-0.122	-0.383
-286.574	800.000	0.041	0.178
-285.559	18.996	0.241	-0.191
-284.545	800.000	0.097	0.361
-283.530	-25.343	0.326	-0.191
-282.516	-112.736	0.066	0.013
-281.501	-166.708	0.229	-0.009
-280.486	386.860	-0.086	-0.175
-279.472	113.833	0.109	-0.131
-278.457	800.000	0.108	0.349
-277.443	202.017	-0.257	0.392
-276.428	109.515	0.147	0.175
-275.413	3.045	0.142	-0.102
-274.399	54.220	0.257	0.245
-273.384	800.000	0.149	0.438
-272.370	96.552	0.039	0.045
-271.355	800.000	-0.066	0.179
-270.340	62.823	0.100	0.099
-269.326	-107.341	0.047	-0.010
-268.311	-171.115	0.186	0.006
-267.297	105.992	-0.111	0.130
-266.282	20.339	0.185	0.148
-265.267	-200.000	0.191	-0.001
-264.253	-60.144	-0.172	-0.072
-263.238	-20.858	0.184	-0.111
-262.224	-41.813	0.112	0.057
-261.209	-94.483	-0.313	0.084
-260.195	-128.555	0.556	-0.078
-259.180	800.000	-0.037	0.121
-258.165	210.702	-0.085	-0.132
-257.151	-162.500	-0.167	-0.008
-256.136	52.501	0.129	-0.122
-255.122	-45.928	0.229	0.112
-254.107	36.632	-0.299	-0.261
-253.092	316.218	0.100	-0.186
-252.078	800.000	0.041	-0.131
-251.063	-137.911	-0.261	0.029
-250.049	741.605	-0.047	0.125
-249.034	-82.947	0.074	0.024
-248.019	-48.771	-0.014	-0.007
-247.005	800.000	0.074	-0.208
-245.990	165.991	-0.108	-0.150
-244.976	800.000	0.094	0.273
-243.961	-108.292	-0.151	-0.032
-242.946	-136.282	-0.306	-0.035
-241.932	168.001	-0.231	-0.325
-240.917	-200.000	0.021	0.266
-239.903	6.771	0.043	-0.032
-238.888	-200.000	0.007	-0.305
-237.873	-200.000	-0.001	-0.312
-236.859	-51.315	-0.116	0.054
-235.844	128.687	-0.091	0.115
-234.830	96.373	-0.327	-0.369
-233.815	-46.123	0.157	-0.076
-232.800	-53.797	0.153	0.069
-231.786	-22.017	0.240	0.144
-230.771	-13.337	-0.156	-0.100
-229.757	664.366	-0.182	-0.463
-228.742	800.000	0.049	0.209
-227.727	-24.386	0.392	-0.231
-226.713	-200.000	-0.010	-0.196
-225.698	90.358	0.064	0.070
-224.684	-137.670	0.335	0.037
-223.669	48.869	0.032	0.030
-222.655	-190.932	0.314	0.003
-221.640	-194.088	-0.071	0.001
-220.625	-200.000	-0.031	-0.332
-219.611	62.302	-0.126	0.124
-218.596	-200.000	-0.014	0.139
-217.582	51.800	-0.032	-0.030
-216.567	157.834	0.104	0.142
-215.552	-118.853	-0.105	0.018
-214.538	800.000	-0.024	-0.092
-213.523	-22.962	-0.140	-0.084
-212.509	187.059	0.242	-0.356
-211.494	39.448	-0.189	0.167
-210.479	555.022	-0.119	0.283
-209.465	-36.428	0.205	0.109
-208.450	-65.608	-0.035	0.014
-207.436	231.970	-0.153	0.248
-206.421	800.000	-0.081	0.300
-205.406	-32.441	0.055	-0.030
-204.392	-200.000	-0.042	0.249
-203.377	23.110	-0.162	0.131
-202.363	55.713	-0.212	0.203
-201.348	289.135	0.163	0.291
-200.333	23.414	-0.165	-0.134
-199.319	800.000	-0.084	-0.355
-198.304	800.000	0.030	-0.089
-197.290	-32.539	0.207	-0.114
-196.275	-126.787	0.080	-0.012
-195.260	65.830	-0.086	-0.086
-194.246	-200.000	0.031	0.189
-193.231	-146.879	-0.324	-0.027
-192.217	-78.149	-0.107	-0.036
-191.202	-145.427	-0.171	-0.015
-190.187	-200.000	0.018	0.206
-189.173	85.491	0.250	0.271
-188.158	726.031	-0.013	-0.035
-187.144	10.194	-0.026	0.019
-186.129	-200.000	-0.039	-0.246
-185.114	436.197	0.194	0.417
-184.100	-200.000	-0.047	0.396
-183.085	-200.000	-0.053	0.396
-182.071	-23.606	0.225	0.133
-181.056	-131.480	-0.243	-0.032
-180.042	-112.382	0.221	-0.044
-179.027	-59.890	0.497	0.209
-178.012	800.000	-0.066	0.182
-176.998	369.699	0.087	-0.174
-175.983	-134.845	-0.023	-0.003
-174.969	251.752	-0.113	0.189
-173.954	365.994	-0.091	-0.182
-172.939	124.958	0.125	-0.155
-171.925	-200.000	0.032	0.292
-170.910	-0.260	0.119	-0.083
-169.896	477.596	-0.037	0.082
-168.881	-0.530	0.180	-0.126
-167.866	-63.272	-0.209	-0.085
-166.852	123.882	0.130	0.161
-165.837	-113.418	0.252	-0.049
-164.823	-122.166	0.299	-0.048
-163.808	-200.000	-0.008	0.090
-162.793	800.000	0.125	0.354
-161.779	800.000	-0.068	0.194
-160.764	82.075	0.214	-0.228
-159.750	0.432	0.281	-0.197
-158.735	272.856	-0.135	-0.234
-157.720	24.789	0.015	0.012
-156.706	800.000	-0.076	-0.211
-155.691	-167.120	-0.218	0.009
-154.677	11.786	0.222	0.168
-153.662	14.003	-0.074	0.056
-152.647	-121.923	-0.142	0.023
-151.633	800.000	0.066	0.180
-150.618	-21.572	0.156	0.094
-149.604	5.980	-0.199	-0.145
-148.589	248.529	0.046	0.077
-147.574	-139.996	-0.056	-0.006
-146.560	-60.186	0.336	0.141
-145.545	98.752	-0.175	0.199
-144.531	633.480	-0.075	-0.188
-143.516	-200.000	-0.026	0.159
-142.502	64.103	-0.327	0.324
-141.487	-161.424	0.152	0.008
-140.472	185.479	0.062	-0.091
-139.458	22.102	0.272	-0.218
-138.443	200.141	-0.151	0.228
-137.429	800.000	0.076	0.284
-136.414	47.264	-0.187	-0.171
-135.399	399.191	-0.121	-0.249
-134.385	176.283	0.067	0.095
-133.370	-158.868	-0.267	0.015
-132.356	-87.019	0.332	-0.100
-131.341	180.988	-0.208	0.300
-130.326	-36.685	-0.243	-0.129
-129.312	-86.800	0.084	0.025
-128.297	172.206	0.065	-0.092
-127.283	96.795	0.283	-0.319
-126.268	-24.561	-0.270	-0.158
-125.253	800.000	0.045	-0.138
-124.239	-151.824	-0.076	0.005
-123.224	321.396	-0.054	-0.101
-122.210	-8.997	0.201	0.132
