DTS Sentinel unit serial number:	SN413079Multiplexer serial number:	ORYXHardware model number:	OX4-SRSoftware version number:	ORYX F/W v4.00 Oryx Data Collector v3.7.2.0data status	okinstallation	princeton_trtdifferential loss correction	single-endedforward channel	channel 1reverse channel	N/Adate	2019/09/14time	16:50:35forward acquisition time	60.00reverse acquisition time	0.00gamma	496.2192k internal	0.2294k external	0.2294temperature offset calibration	1.0053default loss term (dB/km)	0.3790temperature slope calibration	1.0000multiplexer offset coefficient	1.0000multiplexer slope coefficient	1.0000fibre end	0.00T internal ref (°C)	38.00T ext. ref 1 (°C)	4.99T ext. ref 2 (°C)	33.70length (m)	temperature (°C)	Stokes	anti-Stokes-747.200	800.000	0.105	0.296
-746.185	458.870	-0.079	0.179
-745.171	-62.536	-0.259	-0.110
-744.156	-200.000	-0.000	0.163
-743.142	-200.000	-0.048	-0.233
-742.127	-200.000	-0.044	0.200
-741.112	77.837	0.022	-0.024
-740.098	800.000	0.055	0.203
-739.083	800.000	0.064	-0.201
-738.069	675.451	0.081	-0.215
-737.054	800.000	-0.053	-0.203
-736.039	136.853	-0.163	0.217
-735.025	-127.350	0.154	0.023
-734.010	-134.825	-0.483	-0.060
-732.996	-152.225	-0.386	-0.029
-731.981	-200.000	-0.016	-0.093
-730.966	8.263	0.196	0.150
-729.952	-59.306	-0.238	-0.105
-728.937	101.288	0.126	0.150
-727.923	-83.913	-0.291	-0.095
-726.908	25.279	-0.126	0.107
-725.894	-200.000	-0.043	0.275
-724.879	141.373	-0.211	-0.285
-723.864	-7.768	-0.394	-0.272
-722.850	-35.634	-0.196	0.109
-721.835	-200.000	-0.020	0.128
-720.821	-200.000	-0.035	-0.269
-719.806	-200.000	0.029	-0.310
-718.791	-42.634	-0.103	-0.054
-717.777	-95.232	-0.296	0.081
-716.762	68.256	-0.268	-0.281
-715.748	-138.218	-0.176	0.020
-714.733	-200.000	-0.024	-0.154
-713.718	555.653	-0.072	-0.176
-712.704	78.087	-0.076	-0.083
-711.689	-200.000	-0.022	-0.332
-710.675	-200.000	-0.021	0.305
-709.660	-39.347	0.240	-0.129
-708.645	47.247	0.138	-0.131
-707.631	-58.737	0.168	0.074
-706.616	3.313	-0.212	0.157
-705.602	-134.994	-0.454	-0.056
-704.587	413.898	0.078	0.169
-703.572	-91.635	0.211	0.061
-702.558	-186.824	0.113	0.002
-701.543	240.012	-0.204	-0.346
-700.529	84.702	0.289	0.323
-699.514	-126.911	0.127	0.019
-698.499	-62.725	-0.120	0.051
-697.485	-84.847	0.250	0.080
-696.470	-36.157	-0.110	-0.061
-695.456	125.179	0.047	-0.060
-694.441	150.982	0.174	0.241
-693.426	-102.274	0.141	-0.035
-692.412	636.657	0.046	0.119
-691.397	-59.145	-0.269	-0.118
-690.383	-200.000	-0.024	-0.441
-689.368	-29.969	0.065	0.038
-688.354	-200.000	0.103	-0.471
-687.339	447.056	-0.196	-0.441
-686.324	52.850	-0.051	-0.049
-685.310	-31.055	-0.185	-0.106
-684.295	-200.000	0.004	0.195
-683.281	-57.615	0.141	-0.063
-682.266	-200.000	-0.018	0.347
-681.251	258.023	0.176	-0.310
-680.237	175.971	-0.115	-0.170
-679.222	-33.585	0.037	0.021
-678.208	-37.658	-0.312	0.170
-677.193	800.000	0.062	-0.251
-676.178	313.680	-0.024	0.045
-675.164	-80.301	0.137	-0.047
-674.149	456.935	0.086	-0.196
-673.135	627.093	-0.123	-0.316
-672.120	32.850	-0.171	-0.151
-671.105	-153.170	-0.383	-0.027
-670.091	31.584	0.109	0.096
-669.076	312.151	0.030	-0.057
-668.062	-138.767	-0.051	0.006
-667.047	-200.000	0.005	0.037
-666.032	-166.738	-0.325	-0.014
-665.018	-30.192	-0.069	0.040
-664.003	-63.332	0.109	-0.046
-662.989	-200.000	-0.006	-0.139
-661.974	800.000	-0.051	-0.189
-660.959	12.886	-0.172	0.136
-659.945	-54.340	0.452	0.209
-658.930	66.189	0.209	-0.216
-657.916	-200.000	-0.050	-0.243
-656.901	198.862	-0.122	0.190
-655.886	333.283	-0.078	-0.153
-654.872	-41.431	0.199	-0.105
-653.857	-69.381	-0.170	-0.066
-652.843	-11.453	0.186	0.125
-651.828	119.385	-0.068	-0.086
-650.814	-187.749	0.254	0.003
-649.799	131.546	-0.102	-0.134
-648.784	115.333	-0.143	0.178
-647.770	-53.913	-0.182	0.084
-646.755	693.904	0.083	0.222
-645.741	206.861	-0.112	0.177
-644.726	514.290	0.043	0.101
-643.711	2.987	-0.206	0.153
-642.697	-104.699	-0.263	-0.062
-641.682	539.008	0.103	0.249
-640.668	128.187	0.093	0.120
-639.653	-70.952	0.254	0.097
-638.638	-119.145	-0.165	-0.029
-637.624	-138.911	-0.223	0.025
-636.609	-36.386	0.199	0.109
-635.595	208.072	0.128	0.204
-634.580	-166.124	-0.255	-0.011
-633.565	800.000	0.101	0.342
-632.551	-112.755	-0.173	-0.035
-631.536	-200.000	0.008	-0.183
-630.522	49.395	-0.035	0.033
-629.507	-44.535	0.108	0.055
-628.492	-54.294	0.220	0.102
-627.478	-97.263	0.117	0.031
-626.463	48.264	0.158	0.150
-625.449	88.132	-0.061	0.069
-624.434	201.971	0.088	-0.138
-623.419	119.917	-0.169	-0.214
-622.405	-200.000	-0.023	0.192
-621.390	-101.505	-0.169	-0.042
-620.376	14.152	-0.128	-0.101
-619.361	-200.000	-0.005	0.121
-618.346	5.925	-0.071	-0.054
-617.332	-200.000	-0.031	-0.331
-616.317	-200.000	0.038	-0.236
-615.303	-37.763	-0.306	0.166
-614.288	558.900	-0.129	-0.317
-613.273	43.228	-0.207	-0.193
-612.259	-90.277	0.196	0.058
-611.244	-31.836	-0.279	-0.159
-610.230	130.990	-0.069	-0.090
-609.215	97.718	-0.230	-0.269
-608.201	-184.019	0.176	-0.003
-607.186	60.691	0.207	0.208
-606.171	-40.478	0.175	0.092
-605.157	-200.000	-0.018	0.167
-604.142	-93.366	0.251	-0.071
-603.128	-182.138	-0.395	0.008
-602.113	112.469	0.038	-0.047
-601.098	522.701	0.042	0.099
-600.084	60.616	-0.148	-0.149
-599.069	270.619	0.014	0.024
-598.055	-200.000	0.054	-0.251
-597.040	-138.465	-0.138	0.015
-596.025	800.000	0.063	-0.262
-595.011	-159.279	-0.244	0.014
-593.996	-56.961	0.137	0.061
-592.982	62.383	-0.204	-0.207
-591.967	800.000	-0.085	-0.375
-590.952	98.676	-0.318	-0.373
-589.938	-145.670	-0.242	0.022
-588.923	-70.414	-0.228	-0.088
-587.909	-29.064	-0.374	0.218
-586.894	-200.000	-0.011	-0.480
-585.879	35.719	-0.096	0.086
-584.865	251.806	-0.184	-0.318
-583.850	-200.000	0.006	0.027
-582.836	205.852	0.052	0.082
-581.821	-57.126	0.187	-0.084
-580.806	-36.372	0.180	0.098
-579.792	-156.854	-0.352	0.022
-578.777	800.000	0.113	0.324
-577.763	-43.016	-0.140	0.072
-576.748	-144.131	-0.069	0.007
-575.733	670.797	-0.069	0.182
-574.719	213.685	-0.096	0.154
-573.704	-200.000	-0.009	0.045
-572.690	-65.029	0.045	-0.018
-571.675	-73.248	-0.259	-0.096
-570.661	800.000	0.055	-0.176
-569.646	-29.035	0.480	0.280
-568.631	-99.102	0.145	0.037
-567.617	640.602	-0.065	0.167
-566.602	-101.147	0.235	-0.058
-565.588	346.169	0.069	-0.138
-564.573	293.356	0.048	-0.088
-563.558	-101.594	-0.505	0.125
-562.544	42.194	0.100	-0.093
-561.529	82.916	0.188	-0.208
-560.515	-74.794	0.085	-0.031
-559.500	-121.223	0.249	0.042
-558.485	-7.509	0.189	0.130
-557.471	297.716	0.054	-0.101
-556.456	800.000	0.003	0.010
-555.442	53.916	0.104	-0.102
-554.427	78.166	-0.171	-0.185
-553.412	-142.222	0.066	0.007
-552.398	-68.636	0.088	0.035
-551.383	-200.000	-0.018	0.221
-550.369	-176.297	0.208	-0.006
-549.354	25.847	-0.136	0.115
-548.339	-200.000	0.010	-0.083
-547.325	-33.569	0.139	-0.078
-546.310	-124.541	-0.118	-0.019
-545.296	109.346	0.138	0.167
-544.281	-150.505	0.067	-0.005
-543.266	151.757	-0.132	-0.182
-542.252	-99.029	0.206	0.053
-541.237	-110.464	0.081	-0.017
-540.223	507.854	0.173	-0.407
-539.208	-200.000	0.006	-0.124
-538.193	800.000	0.081	0.269
-537.179	226.521	0.041	0.068
-536.164	-156.040	0.197	-0.013
-535.150	-113.860	-0.068	0.013
-534.135	-200.000	0.061	0.290
-533.121	-20.235	0.251	0.157
-532.106	800.000	0.026	0.082
-531.091	800.000	0.043	0.128
-530.077	-160.326	-0.225	0.012
-529.062	-200.000	-0.038	-0.217
-528.048	-43.756	0.125	0.064
-527.033	643.080	-0.118	-0.304
-526.018	77.434	-0.043	-0.046
-525.004	-200.000	-0.016	-0.263
-523.989	-200.000	-0.003	0.037
-522.975	602.733	-0.074	-0.186
-521.960	-163.444	0.130	-0.006
-520.945	795.183	0.075	-0.210
-519.931	493.887	-0.076	-0.176
-518.916	-14.249	-0.022	0.014
-517.902	800.000	0.132	-0.379
-516.887	-69.473	-0.267	0.104
-515.872	401.038	0.101	-0.216
-514.858	164.660	-0.195	0.278
-513.843	-37.434	0.137	-0.074
-512.829	137.187	-0.092	-0.122
-511.814	-200.000	0.020	-0.236
-510.799	-200.000	0.019	-0.313
-509.785	141.570	-0.041	0.054
-508.770	141.207	-0.074	0.099
-507.756	-93.885	-0.449	0.125
-506.741	-96.821	0.264	0.070
-505.726	800.000	-0.059	0.244
-504.712	-200.000	0.056	0.277
-503.697	-104.238	0.136	0.032
-502.683	13.107	0.308	0.241
-501.668	800.000	-0.067	-0.208
-500.653	-200.000	0.007	0.247
-499.639	17.351	-0.182	0.147
-498.624	240.884	0.063	0.107
-497.610	800.000	-0.063	0.232
-496.595	337.028	0.132	0.260
-495.581	-50.321	0.319	0.153
-494.566	30.978	-0.023	-0.020
-493.551	-95.706	0.162	-0.044
-492.537	274.011	0.156	0.279
-491.522	622.364	0.142	-0.362
-490.508	10.075	0.141	0.108
-489.493	176.702	0.052	-0.077
-488.478	146.107	-0.087	0.118
-487.464	71.537	-0.282	-0.297
-486.449	-135.404	0.256	0.031
-485.435	435.874	-0.149	0.327
-484.420	-87.670	0.484	0.148
-483.405	-24.003	0.065	0.039
-482.391	-200.000	-0.043	-0.302
-481.376	-6.654	-0.181	0.125
-480.362	-200.000	-0.046	0.278
-479.347	421.087	-0.108	0.235
-478.332	-200.000	0.025	-0.115
-477.318	-200.000	-0.023	-0.189
-476.303	241.570	-0.045	0.076
-475.289	38.302	-0.237	0.214
-474.274	-200.000	-0.012	0.209
-473.259	-4.661	-0.082	0.058
-472.245	-200.000	0.014	0.172
-471.230	219.562	0.069	-0.111
-470.216	-200.000	-0.006	0.156
-469.201	190.749	0.150	-0.228
-468.186	-16.741	0.238	-0.152
-467.172	271.798	0.077	-0.138
-466.157	69.681	0.170	0.177
-465.143	0.502	-0.196	-0.142
-464.128	-149.211	0.086	0.007
-463.113	-200.000	-0.055	0.362
-462.099	-59.522	0.137	0.060
-461.084	-96.175	0.139	0.037
-460.070	742.522	-0.047	0.127
-459.055	338.269	0.047	-0.093
-458.040	-200.000	0.027	-0.342
-457.026	217.577	0.134	0.216
-456.011	-157.544	-0.063	0.004
-454.997	84.326	-0.050	-0.056
-453.982	131.331	-0.220	-0.286
-452.968	71.428	-0.073	0.077
-451.953	-200.000	-0.014	0.259
-450.938	-150.804	0.184	0.014
-449.924	768.366	-0.096	-0.265
-448.909	33.958	-0.096	-0.084
-447.895	-200.000	0.027	0.000
-446.880	165.518	0.194	0.277
-445.865	-104.079	-0.266	0.063
-444.851	320.047	0.009	-0.018
-443.836	-200.000	0.023	-0.224
-442.822	800.000	-0.041	-0.163
-441.807	-32.412	0.170	-0.096
-440.792	-23.510	-0.380	0.231
-439.778	800.000	0.095	-0.420
-438.763	72.805	-0.023	0.024
-437.749	3.638	-0.172	-0.127
-436.734	215.849	-0.101	-0.163
-435.719	-160.741	-0.318	0.017
-434.705	-98.042	-0.149	0.039
-433.690	-200.000	-0.034	0.210
-432.676	166.206	-0.058	-0.083
-431.661	-47.589	-0.089	-0.044
-430.646	-200.000	0.003	-0.134
-429.632	-77.634	0.130	-0.045
-428.617	-21.190	-0.127	0.079
-427.603	-39.226	-0.156	0.083
-426.588	90.418	0.127	0.143
-425.573	-28.857	0.314	-0.182
-424.559	-55.546	-0.215	0.097
-423.544	-200.000	-0.011	0.128
-422.530	-112.191	-0.174	-0.035
-421.515	-79.693	0.164	-0.056
-420.500	800.000	0.096	0.340
-419.486	-118.934	0.338	0.060
-418.471	800.000	-0.036	-0.155
-417.457	-200.000	0.058	0.261
-416.442	94.883	0.136	-0.157
-415.428	-200.000	0.013	-0.189
-414.413	-200.000	0.005	0.335
-413.398	-12.669	-0.271	-0.178
-412.384	28.065	0.170	-0.145
-411.369	338.517	-0.041	0.080
-410.355	52.061	-0.063	-0.061
-409.340	248.677	0.114	-0.195
-408.325	-122.725	-0.189	-0.031
-407.311	-39.525	0.195	0.103
-406.296	293.853	0.089	-0.164
-405.282	89.258	0.198	-0.222
-404.267	-106.416	-0.083	-0.019
-403.252	227.390	-0.171	0.281
-402.238	-200.000	-0.010	-0.237
-401.223	-94.830	-0.060	-0.016
-400.209	800.000	-0.039	0.131
-399.194	-49.062	-0.182	0.088
-398.179	359.822	-0.067	-0.136
-397.165	648.502	0.031	0.079
-396.150	-135.057	0.324	-0.039
-395.136	111.778	-0.143	-0.174
-394.121	-102.577	0.322	-0.078
-393.106	50.599	0.209	-0.199
-392.092	465.058	0.102	-0.230
-391.077	392.734	-0.064	-0.133
-390.063	101.427	-0.027	-0.032
-389.048	-92.431	0.289	0.082
-388.033	128.408	-0.122	-0.157
-387.019	468.851	0.047	0.107
-386.004	-16.212	-0.067	-0.043
-384.990	616.050	-0.047	0.119
-383.975	-200.000	0.021	-0.109
-382.960	-42.269	-0.033	-0.017
-381.946	-81.190	0.190	0.063
-380.931	550.367	-0.082	-0.198
-379.917	52.097	0.063	0.061
-378.902	-123.075	0.183	-0.030
-377.888	-31.962	-0.308	0.174
-376.873	-168.168	-0.107	-0.004
-375.858	55.587	-0.158	-0.154
-374.844	-138.102	-0.017	0.002
-373.829	800.000	0.039	-0.160
-372.815	759.893	-0.059	-0.162
-371.800	-97.602	0.298	0.078
-370.785	800.000	0.022	0.067
-369.771	-200.000	0.026	-0.140
-368.756	91.100	0.154	0.174
-367.742	-67.576	0.118	-0.046
-366.727	-200.000	-0.002	-0.263
-365.712	277.373	0.068	0.122
-364.698	296.746	0.205	-0.379
-363.683	-31.170	0.083	-0.047
-362.669	-79.991	0.164	-0.055
-361.654	42.290	0.133	-0.121
-360.639	800.000	-0.051	0.163
-359.625	-155.348	-0.366	-0.024
-358.610	-200.000	0.002	-0.282
-357.596	-83.524	-0.233	0.075
-356.581	167.921	-0.060	0.086
-355.566	290.190	0.207	0.378
-354.552	-128.447	-0.161	-0.023
-353.537	-200.000	-0.018	-0.083
-352.523	168.641	0.061	0.087
-351.508	115.999	0.070	0.087
-350.493	702.631	0.022	0.058
-349.479	-188.760	0.408	0.005
-348.464	-200.000	-0.002	-0.020
-347.450	-83.206	-0.157	0.051
-346.435	44.073	0.177	0.163
-345.420	-8.354	-0.059	-0.040
-344.406	579.153	0.121	0.297
-343.391	153.341	-0.091	0.125
-342.377	-200.000	0.080	-0.420
-341.362	-200.000	0.013	0.092
-340.348	-200.000	0.005	-0.133
-339.333	-200.000	-0.024	-0.172
-338.318	-138.323	-0.131	-0.015
-337.304	-200.000	0.040	0.338
-336.289	-61.304	0.173	0.073
-335.275	-200.000	-0.033	0.386
-334.260	-192.012	-0.043	0.000
-333.245	-90.520	0.306	0.089
-332.231	623.833	-0.060	-0.152
-331.216	509.286	0.043	0.100
-330.202	128.949	-0.161	-0.207
-329.187	329.858	0.105	-0.203
-328.172	-200.000	-0.002	0.094
-327.158	34.992	0.234	-0.206
-326.143	-180.729	-0.238	0.005
-325.129	56.448	0.119	-0.116
-324.114	-71.032	-0.204	0.077
-323.099	800.000	-0.056	0.227
-322.085	154.335	-0.121	-0.167
-321.070	-49.899	0.334	0.160
-320.056	800.000	-0.018	-0.077
-319.041	97.067	0.100	0.115
-318.026	-48.597	-0.213	-0.103
-317.012	-28.651	0.200	-0.116
-315.997	-200.000	0.064	0.344
-314.983	65.752	0.246	-0.251
-313.968	-75.086	0.149	0.053
-312.953	-71.535	-0.210	-0.079
-311.939	0.829	-0.070	-0.051
-310.924	253.263	0.056	-0.096
-309.910	-8.444	0.026	-0.018
-308.895	-164.471	-0.317	0.015
-307.880	-14.793	-0.037	-0.024
-306.866	-38.400	0.215	-0.114
-305.851	38.795	0.166	0.149
-304.837	-16.135	-0.379	0.242
-303.822	-123.234	0.179	0.029
-302.807	-200.000	0.046	0.261
-301.793	165.264	-0.205	0.292
-300.778	-200.000	0.034	-0.158
-299.764	76.778	-0.160	-0.170
-298.749	124.949	0.089	0.113
-297.735	83.626	0.049	0.054
-296.720	342.763	0.182	-0.358
-295.705	-200.000	0.026	0.185
-294.691	-32.234	-0.299	-0.168
-293.676	26.442	-0.095	-0.080
-292.662	-49.653	-0.137	0.066
-291.647	-200.000	0.015	0.216
-290.632	-41.324	0.064	0.033
-289.618	322.019	0.167	0.320
-288.603	-45.536	-0.065	-0.032
-287.589	45.911	-0.124	0.115
-286.574	-142.025	0.142	0.014
-285.559	-67.270	-0.193	0.076
-284.545	495.376	-0.117	0.270
-283.530	-200.000	0.010	0.105
-282.516	-49.493	-0.326	-0.156
-281.501	257.710	0.075	-0.130
-280.486	-200.000	-0.022	0.209
-279.472	67.399	-0.116	-0.119
-278.457	167.897	0.185	-0.264
-277.443	-47.961	-0.404	-0.196
-276.428	-65.922	-0.151	0.061
-275.413	-200.000	-0.049	-0.442
-274.399	800.000	0.085	0.327
-273.384	-8.874	0.257	0.173
-272.370	-136.398	0.271	-0.032
-271.355	48.200	-0.153	0.144
-270.340	-118.628	-0.149	0.026
-269.326	94.002	-0.125	0.142
-268.311	-200.000	-0.034	-0.291
-267.297	97.188	-0.195	-0.225
-266.282	-66.091	0.264	0.106
-265.267	58.033	-0.048	-0.047
-264.253	-99.490	0.177	-0.045
-263.238	104.298	0.118	0.139
-262.224	126.186	-0.135	0.171
-261.209	-95.635	0.142	-0.038
-260.195	-5.243	-0.179	0.124
-259.180	-200.000	0.005	0.223
-258.165	-30.236	0.324	-0.185
-257.151	-16.177	-0.219	-0.139
-256.136	-200.000	-0.011	-0.105
-255.122	100.419	-0.142	-0.165
-254.107	-103.980	0.322	-0.075
-253.092	-151.055	-0.311	-0.023
-252.078	-49.774	0.078	-0.037
-251.063	-70.318	0.179	-0.068
-250.049	75.665	0.136	-0.144
-249.034	-150.200	0.323	-0.025
-248.019	-200.000	-0.010	0.067
-247.005	-99.933	0.330	-0.083
-245.990	-200.000	0.006	-0.149
-244.976	-200.000	-0.009	0.082
-243.961	236.895	-0.073	-0.122
-242.946	-130.829	-0.073	0.010
-241.932	-42.897	0.236	0.120
-240.917	-166.710	-0.280	-0.012
-239.903	39.998	0.106	0.095
-238.888	256.252	-0.174	0.300
-237.873	-83.747	0.111	-0.036
-236.859	256.458	-0.150	-0.258
-235.844	9.273	0.226	-0.171
-234.830	102.817	0.258	-0.303
-233.815	-12.211	0.068	-0.045
-232.800	165.940	0.184	0.260
-231.786	272.811	0.047	0.084
-230.771	-200.000	0.017	-0.122
-229.757	510.171	-0.085	-0.197
-228.742	316.470	-0.082	-0.155
-227.727	108.084	0.058	-0.069
-226.713	528.337	-0.049	0.116
-225.698	-52.309	0.282	0.131
-224.684	264.930	-0.039	-0.069
-223.669	693.585	-0.012	0.032
-222.655	800.000	-0.080	0.344
-221.640	51.174	-0.314	0.299
-220.625	457.462	0.080	0.179
-219.611	-200.000	-0.003	0.077
-218.596	7.740	0.254	-0.191
-217.582	555.046	-0.048	0.115
-216.567	-44.815	0.331	-0.165
-215.552	3.608	0.311	-0.227
-214.538	-200.000	-0.036	-0.187
-213.523	-97.938	-0.159	-0.041
-212.509	-56.296	0.077	0.034
-211.494	58.295	0.130	0.127
-210.479	76.116	-0.120	-0.127
-209.465	-200.000	0.013	0.198
-208.450	82.305	0.163	-0.177
-207.436	-142.721	0.200	0.020
-206.421	-125.491	-0.138	-0.021
-205.406	71.155	-0.184	0.192
-204.392	26.203	0.436	0.365
-203.377	-51.971	-0.160	0.075
-202.363	-44.981	-0.216	-0.108
-201.348	-92.125	-0.202	0.057
-200.333	800.000	-0.098	-0.344
-199.319	-138.078	-0.204	-0.023
-198.304	-200.000	-0.034	-0.192
-197.290	-200.000	-0.014	0.082
-196.275	-200.000	-0.007	0.072
-195.260	-16.030	0.179	0.114
-194.246	-74.809	-0.179	-0.064
-193.231	73.925	-0.187	-0.197
-192.217	-20.368	-0.092	0.057
-191.202	-200.000	0.038	-0.184
-190.187	59.332	-0.082	0.081
-189.173	-44.540	0.145	-0.072
-188.158	122.932	-0.044	-0.055
-187.144	-57.457	0.066	0.029
-186.129	-200.000	0.063	0.289
-185.114	800.000	0.097	0.284
-184.100	-13.850	0.020	-0.013
-183.085	528.424	-0.071	0.168
-182.071	800.000	0.019	-0.067
-181.056	30.384	-0.306	-0.261
-180.042	18.649	0.120	0.096
-179.027	800.000	-0.024	0.088
-178.012	172.403	-0.071	0.102
-176.998	36.746	-0.182	-0.161
-175.983	42.473	-0.183	-0.167
-174.969	-83.046	-0.167	0.054
-173.954	178.242	-0.188	0.275
-172.939	-70.710	0.279	-0.105
-171.925	129.908	0.131	0.167
-170.910	-200.000	-0.004	0.045
-169.896	-48.745	-0.253	0.121
-168.881	23.943	-0.164	-0.135
-167.866	-75.156	-0.212	-0.076
-166.852	172.332	0.016	0.023
-165.837	-109.939	0.163	0.034
-164.823	20.614	-0.073	-0.059
-163.808	1.271	0.159	-0.114
-162.793	59.569	0.352	0.347
-161.779	-119.627	-0.232	-0.040
-160.764	55.280	-0.225	0.218
-159.750	201.674	0.109	0.167
-158.735	-48.662	-0.447	-0.215
-157.720	115.372	-0.163	0.199
-156.706	-45.297	0.264	0.131
-155.691	-200.000	-0.010	-0.169
-154.677	-27.406	-0.207	-0.120
-153.662	-108.054	-0.218	-0.047
-152.647	678.291	0.045	0.116
-151.633	42.768	0.274	0.249
-150.618	-58.920	-0.227	0.098
-149.604	800.000	-0.088	0.260
-148.589	800.000	-0.031	0.100
-147.574	800.000	0.125	-0.445
-146.560	41.758	-0.167	0.151
-145.545	-35.632	0.393	0.213
-144.531	190.673	-0.171	0.257
-143.516	-93.941	0.427	0.117
-142.502	-87.766	0.187	-0.056
-141.487	-145.268	-0.219	-0.020
-140.472	261.488	0.155	-0.267
-139.458	43.888	0.168	0.154
-138.443	528.257	-0.087	-0.205
-137.429	-165.450	0.184	-0.008
-136.414	-200.000	-0.033	0.218
-135.399	-200.000	0.160	-0.001
-134.385	-46.857	0.135	-0.066
-133.370	800.000	-0.062	0.210
-132.356	-1.866	-0.206	0.145
-131.341	449.315	0.190	-0.418
-130.326	323.521	-0.071	-0.135
-129.312	800.000	-0.040	0.127
-128.297	-49.511	-0.105	0.050
-127.283	29.718	-0.250	0.212
-126.268	-29.245	0.372	0.213
-125.253	253.056	-0.047	-0.080
-124.239	46.640	-0.092	-0.085
-123.224	-200.000	-0.101	0.457
-122.210	16.815	-0.079	-0.063
-121.195	-187.379	0.256	-0.003
