DTS Sentinel unit serial number:	SN413079Multiplexer serial number:	ORYXHardware model number:	OX4-SRSoftware version number:	ORYX F/W v4.00 Oryx Data Collector v3.7.2.0data status	okinstallation	princeton_trtdifferential loss correction	single-endedforward channel	channel 1reverse channel	N/Adate	2019/09/15time	05:42:35forward acquisition time	60.00reverse acquisition time	0.00gamma	496.2192k internal	0.2325k external	0.2325temperature offset calibration	0.9993default loss term (dB/km)	0.3790temperature slope calibration	1.0000multiplexer offset coefficient	1.0000multiplexer slope coefficient	1.0000fibre end	0.00T internal ref (°C)	30.62T ext. ref 1 (°C)	4.77T ext. ref 2 (°C)	25.73length (m)	temperature (°C)	Stokes	anti-Stokes-747.200	393.719	-0.070	-0.146
-746.185	635.951	0.129	0.332
-745.171	-21.119	0.207	-0.128
-744.156	-105.561	0.237	0.054
-743.142	-200.000	0.006	-0.296
-742.127	-98.495	-0.205	0.053
-741.112	24.978	0.169	0.141
-740.098	251.335	-0.233	0.401
-739.083	-38.423	-0.145	-0.078
-738.069	101.655	-0.282	-0.332
-737.054	-122.552	0.222	-0.036
-736.039	800.000	-0.085	0.280
-735.025	39.332	0.187	-0.169
-734.010	-200.000	-0.017	-0.348
-732.996	-200.000	0.052	-0.313
-731.981	75.551	-0.166	0.177
-730.966	-106.476	0.240	-0.054
-729.952	-200.000	0.028	0.322
-728.937	-200.000	-0.022	0.115
-727.923	800.000	-0.099	-0.408
-726.908	14.240	-0.123	-0.097
-725.894	-94.477	-0.241	0.066
-724.879	318.254	-0.094	-0.179
-723.864	-200.000	-0.442	0.001
-722.850	-200.000	0.061	0.378
-721.835	57.546	-0.164	0.162
-720.821	800.000	0.116	0.427
-719.806	-200.000	-0.015	-0.226
-718.791	-97.183	-0.424	0.112
-717.777	142.559	0.034	0.045
-716.762	422.850	-0.131	-0.283
-715.748	155.695	0.316	-0.439
-714.733	-59.004	0.143	-0.062
-713.718	-8.153	0.210	0.143
-712.704	7.207	0.124	0.093
-711.689	-25.203	0.241	-0.144
-710.675	119.167	-0.194	-0.241
-709.660	800.000	-0.024	-0.067
-708.645	389.845	0.135	0.282
-707.631	256.050	0.070	0.121
-706.616	800.000	-0.032	0.132
-705.602	57.842	-0.130	-0.128
-704.587	800.000	-0.098	-0.382
-703.572	-112.655	-0.156	-0.031
-702.558	35.517	0.221	0.196
-701.543	-200.000	-0.010	0.149
-700.529	55.352	0.055	0.053
-699.514	-135.752	0.403	-0.048
-698.499	113.139	-0.157	-0.192
-697.485	-181.700	-0.203	-0.004
-696.470	352.624	0.142	-0.284
-695.456	-200.000	-0.081	-0.548
-694.441	-11.625	0.428	0.283
-693.426	-200.000	-0.001	-0.203
-692.412	-112.351	-0.052	-0.010
-691.397	-95.275	-0.062	0.017
-690.383	45.092	0.177	-0.164
-689.368	800.000	-0.046	0.147
-688.354	-151.537	-0.298	-0.022
-687.339	800.000	-0.057	0.173
-686.324	27.825	0.240	-0.203
-685.310	61.839	-0.134	-0.135
-684.295	-200.000	-0.358	-0.001
-683.281	-52.907	0.120	-0.055
-682.266	-200.000	0.055	-0.324
-681.251	100.051	-0.192	0.224
-680.237	-132.757	-0.129	0.017
-679.222	273.776	0.099	-0.176
-678.208	-200.000	-0.034	0.373
-677.193	-193.319	-0.126	-0.001
-676.178	-10.835	0.059	-0.039
-675.164	-200.000	0.039	-0.328
-674.149	-98.984	-0.153	0.039
-673.135	7.279	0.374	-0.281
-672.120	-200.000	-0.027	-0.226
-671.105	800.000	-0.077	-0.314
-670.091	60.660	-0.225	0.224
-669.076	-167.756	0.409	-0.016
-668.062	46.001	-0.148	0.138
-667.047	800.000	0.051	-0.158
-666.032	-200.000	0.003	0.118
-665.018	21.062	-0.365	-0.298
-664.003	1.022	-0.219	-0.158
-662.989	800.000	-0.018	-0.053
-661.974	-200.000	0.101	0.471
-660.959	-5.136	0.080	0.055
-659.945	234.698	-0.112	0.185
-658.930	-200.000	0.002	-0.059
-657.916	26.734	0.092	-0.078
-656.901	577.345	0.149	0.367
-655.886	-9.710	-0.477	-0.320
-654.872	-200.000	-0.028	-0.286
-653.857	61.767	0.197	0.197
-652.843	141.028	-0.057	-0.076
-651.828	800.000	-0.034	-0.098
-650.814	800.000	-0.048	-0.146
-649.799	564.087	0.073	-0.178
-648.784	177.580	0.065	-0.095
-647.770	76.391	0.157	-0.167
-646.755	198.143	0.140	-0.215
-645.741	-59.876	-0.073	0.032
-644.726	-51.296	0.045	-0.021
-643.711	800.000	-0.032	-0.124
-642.697	-200.000	-0.073	-0.389
-641.682	421.772	-0.095	0.205
-640.668	95.718	0.173	0.199
-639.653	-82.551	0.176	0.058
-638.638	684.755	-0.075	-0.197
-637.624	-40.556	-0.252	0.132
-636.609	370.620	-0.095	0.193
-635.595	-200.000	-0.048	0.251
-634.580	38.876	0.145	-0.130
-633.565	-200.000	0.014	-0.067
-632.551	27.613	-0.124	0.105
-631.536	-169.742	0.476	0.017
-630.522	-86.919	-0.126	-0.039
-629.507	438.127	0.214	0.469
-628.492	391.702	-0.138	-0.288
-627.478	742.783	0.097	-0.262
-626.463	207.722	0.094	0.147
-625.449	-200.000	0.008	-0.050
-624.434	-93.644	-0.250	-0.069
-623.419	480.198	0.089	0.202
-622.405	800.000	0.051	0.165
-621.390	98.343	0.172	0.199
-620.376	311.334	0.065	-0.122
-619.361	-84.460	0.101	-0.032
-618.346	-200.000	0.010	-0.332
-617.332	-45.077	0.090	-0.045
-616.317	-200.000	0.017	0.124
-615.303	-79.050	-0.167	-0.057
-614.288	-57.504	-0.166	0.073
-613.273	-141.957	-0.165	-0.017
-612.259	-39.948	-0.165	-0.087
-611.244	173.750	0.127	-0.184
-610.230	202.041	-0.121	-0.187
-609.215	60.842	0.296	-0.294
-608.201	-200.000	0.018	-0.105
-607.186	14.007	0.150	-0.117
-606.171	-65.588	0.256	0.103
-605.157	-27.151	-0.210	-0.123
-604.142	-200.000	0.199	-0.001
-603.128	-149.033	0.126	-0.010
-602.113	-69.067	-0.144	-0.056
-601.098	31.659	0.370	0.319
-600.084	-21.329	0.074	-0.045
-599.069	-200.000	-0.010	-0.065
-598.055	18.582	0.298	0.239
-597.040	-48.799	-0.306	-0.147
-596.025	271.117	0.099	-0.175
-595.011	302.255	-0.069	-0.129
-593.996	-75.931	0.058	-0.021
-592.982	-69.015	0.345	-0.133
-591.967	-123.247	0.186	0.030
-590.952	-44.056	0.198	0.100
-589.938	-5.206	-0.456	-0.315
-588.923	351.560	-0.050	0.099
-587.909	-21.094	-0.161	-0.099
-586.894	76.996	-0.147	-0.157
-585.879	-200.000	0.019	-0.152
-584.865	-154.848	0.147	-0.010
-583.850	118.091	0.170	0.210
-582.836	174.845	0.085	0.123
-581.821	800.000	-0.012	-0.037
-580.806	-110.822	0.202	-0.042
-579.792	142.328	0.129	0.172
-578.777	214.701	-0.090	-0.142
-577.763	-102.887	-0.016	0.004
-576.748	-124.291	-0.054	-0.008
-575.733	599.126	0.037	-0.093
-574.719	212.498	0.037	-0.059
-573.704	75.272	-0.225	0.238
-572.690	-200.000	-0.003	-0.163
-571.675	181.911	-0.092	-0.136
-570.661	800.000	-0.057	-0.165
-569.646	-200.000	-0.059	-0.276
-568.631	-200.000	0.005	0.041
-567.617	-200.000	0.001	-0.151
-566.602	-163.719	-0.212	0.010
-565.588	-200.000	0.034	0.335
-564.573	-158.325	0.299	-0.017
-563.558	99.906	0.180	0.210
-562.544	-200.000	-0.002	-0.100
-561.529	-127.579	-0.158	-0.023
-560.515	-77.337	-0.235	-0.082
-559.500	47.108	-0.110	0.103
-558.485	-158.746	-0.170	-0.010
-557.471	-32.606	0.483	0.270
-556.456	-81.890	-0.096	0.032
-555.442	54.826	0.113	-0.109
-554.427	-21.489	-0.239	-0.146
-553.412	-153.445	0.236	0.016
-552.398	231.538	-0.100	-0.164
-551.383	-101.754	-0.110	0.027
-550.369	91.045	-0.123	-0.139
-549.354	-200.000	-0.026	0.251
-548.339	-167.460	0.146	-0.006
-547.325	361.171	-0.080	-0.160
-546.310	-127.104	-0.152	0.022
-545.296	-200.000	0.012	-0.403
-544.281	-78.346	-0.405	-0.139
-543.266	439.181	0.060	-0.130
-542.252	132.429	-0.158	0.204
-541.237	-111.462	0.262	0.053
-540.223	-78.849	0.301	0.103
-539.208	800.000	0.047	0.130
-538.193	17.507	-0.265	0.210
-537.179	-200.000	-0.024	0.186
-536.164	567.686	0.145	0.353
-535.150	-200.000	-0.003	0.185
-534.135	140.236	-0.110	0.145
-533.121	-200.000	0.015	0.096
-532.106	430.023	0.118	0.255
-531.091	-138.785	-0.055	0.006
-530.077	-87.700	0.225	-0.068
-529.062	-62.337	0.057	0.024
-528.048	99.585	0.246	0.285
-527.033	-75.587	-0.323	-0.115
-526.018	-52.448	0.249	0.115
-525.004	800.000	-0.085	0.345
-523.989	-157.803	-0.242	-0.014
-522.975	-200.000	-0.031	-0.244
-521.960	77.383	0.222	-0.236
-520.945	800.000	-0.042	0.134
-519.931	-32.693	0.273	0.152
-518.916	-41.583	-0.232	-0.119
-517.902	800.000	0.022	-0.070
-516.887	-200.000	-0.028	0.206
-515.872	-136.225	0.272	-0.032
-514.858	81.610	0.179	-0.193
-513.843	203.053	0.106	-0.163
-512.829	-132.785	-0.273	0.035
-511.814	-97.529	-0.098	0.025
-510.799	-134.578	-0.241	0.029
-509.785	-8.452	-0.181	-0.121
-508.770	181.115	-0.061	-0.089
-507.756	-200.000	0.019	-0.105
-506.741	-110.978	-0.310	0.064
-505.726	290.775	-0.037	0.067
-504.712	800.000	-0.090	-0.348
-503.697	150.148	-0.175	0.238
-502.683	40.407	0.088	-0.079
-501.668	666.930	-0.098	0.252
-500.653	800.000	-0.096	0.273
-499.639	139.763	-0.198	0.261
-498.624	-109.308	0.407	0.086
-497.610	14.211	0.338	0.263
-496.595	800.000	0.060	0.170
-495.581	15.311	-0.243	-0.190
-494.566	-65.578	-0.276	0.111
-493.551	-200.000	0.032	-0.410
-492.537	-146.081	0.277	0.024
-491.522	250.772	-0.033	0.056
-490.508	109.770	-0.078	0.094
-489.493	28.877	-0.213	0.181
-488.478	-109.758	-0.025	0.005
-487.464	-51.182	0.172	0.080
-486.449	-74.845	-0.299	-0.107
-485.435	800.000	0.070	0.217
-484.420	-200.000	0.004	-0.207
-483.405	184.874	0.240	-0.356
-482.391	160.603	-0.042	-0.059
-481.376	-68.872	-0.157	-0.060
-480.362	-20.311	0.261	-0.161
-479.347	192.041	-0.127	-0.191
-478.332	270.989	0.112	0.197
-477.318	-93.876	-0.095	-0.026
-476.303	-11.237	0.199	0.131
-475.289	-200.000	0.004	0.116
-474.274	213.918	0.124	0.195
-473.259	64.582	-0.262	-0.264
-472.245	-200.000	-0.020	0.102
-471.230	91.386	0.115	0.128
-470.216	45.725	0.271	0.250
-469.201	441.696	-0.061	-0.132
-468.186	264.170	-0.230	0.400
-467.172	504.742	0.061	0.141
-466.157	63.399	0.225	0.225
-465.143	2.358	-0.056	-0.040
-464.128	755.806	0.081	-0.218
-463.113	-180.270	-0.202	0.004
-462.099	-121.129	-0.303	0.051
-461.084	150.421	0.159	-0.215
-460.070	-72.105	-0.418	-0.155
-459.055	800.000	0.034	-0.104
-458.040	800.000	-0.074	0.255
-457.026	-200.000	-0.018	0.229
-456.011	-91.520	0.218	-0.062
-454.997	-200.000	0.012	0.102
-453.982	38.138	0.170	-0.151
-452.968	-106.989	-0.095	0.021
-451.953	6.076	0.212	-0.157
-450.938	-200.000	-0.005	-0.213
-449.924	-186.185	-0.189	-0.003
-448.909	-85.450	-0.330	0.102
-447.895	157.934	-0.111	-0.153
-446.880	158.408	0.279	0.386
-445.865	-39.242	0.288	0.151
-444.851	132.479	-0.081	0.104
-443.836	-200.000	0.008	-0.041
-442.822	-116.987	-0.088	-0.016
-441.807	26.212	0.186	0.155
-440.792	608.299	0.107	-0.265
-439.778	-168.475	0.224	0.009
-438.763	-126.993	-0.290	0.043
-437.749	-200.000	-0.006	0.162
-436.734	-200.000	0.012	-0.145
-435.719	800.000	-0.091	-0.342
-434.705	99.747	-0.065	0.075
-433.690	490.173	0.018	-0.041
-432.676	-34.421	-0.110	-0.060
-431.661	169.301	-0.162	-0.231
-430.646	97.584	0.172	0.197
-429.632	-75.819	-0.312	0.110
-428.617	287.347	-0.227	0.409
-427.603	-59.866	0.143	-0.061
-426.588	24.570	-0.188	0.155
-425.573	266.923	0.064	-0.112
-424.559	800.000	0.073	-0.213
-423.544	-111.121	0.032	-0.007
-422.530	-200.000	-0.010	-0.324
-421.515	27.358	0.200	0.168
-420.500	21.378	-0.140	0.113
-419.486	-200.000	0.027	0.228
-418.471	-200.000	0.033	0.153
-417.457	-80.722	-0.012	0.004
-416.442	-137.312	-0.130	0.015
-415.428	-97.497	0.294	0.076
-414.413	-118.891	-0.528	0.092
-413.398	-200.000	0.012	-0.069
-412.384	-151.005	-0.078	0.006
-411.369	103.357	-0.121	-0.141
-410.355	-200.000	-0.002	0.075
-409.340	800.000	-0.019	0.081
-408.325	110.442	0.318	-0.381
-407.311	-195.561	-0.194	0.001
-406.296	-10.479	-0.106	0.070
-405.282	19.846	-0.147	0.118
-404.267	101.425	-0.106	0.123
-403.252	800.000	0.073	0.228
-402.238	800.000	-0.084	0.269
-401.223	-144.301	-0.108	0.010
-400.209	-200.000	0.070	0.329
-399.194	-200.000	0.048	0.309
-398.179	83.570	0.114	0.124
-397.165	-121.444	-0.187	0.031
-396.150	-29.361	0.148	-0.085
-395.136	35.995	0.124	0.108
-394.121	-32.742	0.481	-0.267
-393.106	-65.095	-0.472	-0.189
-392.092	-200.000	0.021	-0.103
-391.077	-124.792	-0.436	-0.067
-390.063	-171.036	0.253	-0.009
-389.048	59.132	0.161	-0.158
-388.033	252.614	0.147	0.250
-387.019	404.566	0.021	-0.044
-386.004	177.785	0.052	-0.075
-384.990	-200.000	0.000	0.087
-383.975	43.660	0.168	0.153
-382.960	800.000	-0.128	0.398
-381.946	800.000	0.157	0.436
-380.931	800.000	-0.032	-0.132
-379.917	-131.576	-0.173	-0.023
-378.902	-34.576	-0.065	-0.035
-377.888	33.622	-0.164	0.142
-376.873	-21.505	-0.160	0.097
-375.858	31.128	-0.114	-0.097
-374.844	117.660	0.154	-0.189
-373.829	-87.230	-0.079	0.024
-372.815	-142.546	0.366	0.036
-371.800	-30.846	0.123	0.069
-370.785	-200.000	0.021	-0.163
-369.771	-24.560	-0.188	-0.111
-368.756	-108.400	-0.322	0.069
-367.742	-185.659	0.144	-0.002
-366.727	48.423	-0.096	0.089
-365.712	-68.820	-0.240	0.092
-364.698	800.000	0.112	0.392
-363.683	-112.963	0.228	0.045
-362.669	-200.000	-0.005	-0.156
-361.654	92.760	0.151	0.170
-360.639	-138.374	-0.343	-0.038
-359.625	5.328	-0.227	-0.166
-358.610	427.411	-0.089	0.190
-357.596	49.584	-0.288	-0.269
-356.581	450.963	-0.026	0.056
-355.566	-130.215	-0.160	0.022
-354.552	163.865	0.202	0.283
-353.537	-2.495	0.239	0.166
-352.523	-71.033	-0.212	-0.079
-351.508	-166.296	0.229	-0.010
-350.493	-200.000	-0.048	0.263
-349.479	-36.114	0.185	-0.099
-348.464	154.673	-0.049	-0.067
-347.450	16.770	0.086	-0.068
-346.435	-200.000	-0.070	-0.395
-345.420	138.725	0.121	0.158
-344.406	-25.993	0.380	0.222
-343.391	442.971	0.033	0.073
-342.377	-200.000	-0.005	0.068
-341.362	-33.381	-0.057	-0.031
-340.348	-145.873	-0.236	0.021
-339.333	254.649	0.251	-0.427
-338.318	-19.813	0.155	0.095
-337.304	-102.913	0.163	0.039
-336.289	177.566	0.142	-0.206
-335.275	380.338	-0.030	0.060
-334.260	-91.681	0.225	-0.064
-333.245	-115.738	-0.394	0.073
-332.231	-200.000	0.033	0.150
-331.216	-200.000	0.021	0.357
-330.202	0.449	0.275	-0.195
-329.187	-120.908	-0.201	-0.034
-328.172	-112.324	0.186	-0.037
-327.158	-17.449	-0.399	0.249
-326.143	-77.867	0.401	0.138
-325.129	-110.886	-0.302	-0.062
-324.114	425.115	0.133	-0.284
-323.099	37.371	-0.129	-0.113
-322.085	429.894	0.176	-0.379
-321.070	162.645	-0.218	-0.304
-320.056	-200.000	-0.036	-0.265
-319.041	800.000	0.049	0.199
-318.026	800.000	-0.061	0.222
-317.012	80.967	-0.087	-0.093
-315.997	-200.000	0.068	-0.297
-314.983	303.289	-0.127	0.234
-313.968	371.609	0.061	-0.123
-312.953	-6.139	0.339	-0.230
-311.939	-49.086	0.105	0.050
-310.924	-56.093	-0.143	-0.063
-309.910	364.617	0.057	0.114
-308.895	141.729	0.049	-0.064
-307.880	-33.465	-0.254	-0.139
-306.866	230.642	-0.228	0.370
-305.851	71.606	-0.120	-0.124
-304.837	-131.396	0.331	-0.043
-303.822	-160.247	-0.242	0.013
-302.807	3.051	0.244	-0.176
-301.793	164.053	0.080	-0.112
-300.778	-53.843	0.242	0.109
-299.764	-7.181	-0.140	-0.094
-298.749	-200.000	0.001	0.183
-297.735	-200.000	0.027	0.318
-296.720	-50.901	0.080	0.037
-295.705	-110.149	-0.273	-0.056
-294.691	45.960	-0.229	-0.210
-293.676	90.612	-0.256	-0.285
-292.662	-200.000	0.100	-0.502
-291.647	18.285	0.128	-0.101
-290.632	168.523	0.181	-0.256
-289.618	50.122	0.121	-0.113
-288.603	-95.818	-0.261	-0.069
-287.589	-200.000	-0.004	0.186
-286.574	129.626	0.243	0.308
-285.559	-93.260	-0.388	-0.107
-284.545	-200.000	0.024	0.120
-283.530	-116.860	0.206	-0.037
-282.516	3.182	-0.274	-0.197
-281.501	42.177	0.142	0.127
-280.486	800.000	0.033	-0.129
-279.472	-46.600	0.166	0.081
-278.457	-127.091	0.072	-0.010
-277.443	-16.927	-0.187	0.117
-276.428	661.055	-0.049	-0.126
-275.413	517.163	-0.067	0.156
-274.399	43.632	0.165	-0.150
-273.384	252.643	0.030	-0.051
-272.370	138.575	-0.107	0.139
-271.355	-200.000	0.048	0.274
-270.340	-200.000	0.029	0.676
-269.326	-184.540	0.439	0.007
-268.311	324.152	0.170	-0.321
-267.297	-92.127	0.117	-0.033
-266.282	800.000	0.089	0.276
-265.267	373.789	-0.024	-0.049
-264.253	10.385	0.113	-0.085
-263.238	-1.761	0.034	-0.023
-262.224	-108.159	-0.219	0.047
-261.209	132.518	0.059	0.075
-260.195	-195.899	0.244	-0.002
-259.180	-189.508	-0.200	-0.002
-258.165	-34.068	0.126	0.068
-257.151	-68.021	0.292	0.113
-256.136	-29.837	-0.354	-0.200
-255.122	-109.768	-0.157	0.033
-254.107	-35.055	0.015	0.008
-253.092	-59.223	-0.342	0.146
-252.078	625.018	0.091	-0.226
-251.063	-23.027	0.348	0.208
-250.049	438.339	-0.129	0.279
-249.034	21.079	0.100	-0.080
-248.019	-62.557	-0.195	-0.080
-247.005	-12.614	0.347	0.224
-245.990	-200.000	-0.022	0.096
-244.976	-103.891	-0.051	-0.012
-243.961	192.590	-0.146	-0.218
-242.946	-60.866	0.148	-0.062
-241.932	450.526	0.041	-0.090
-240.917	-67.441	-0.171	0.066
-239.903	299.052	-0.092	0.167
-238.888	78.156	0.151	-0.159
-237.873	-200.000	-0.022	-0.133
-236.859	-200.000	-0.120	-0.644
-235.844	89.447	-0.084	-0.093
-234.830	169.833	0.060	-0.085
-233.815	-84.350	-0.198	0.062
-232.800	83.869	-0.156	0.168
-231.786	-91.784	0.378	0.106
-230.771	-62.249	-0.166	-0.069
-229.757	99.300	-0.210	0.240
-228.742	330.609	-0.163	0.310
-227.727	335.872	-0.114	0.218
-226.713	800.000	-0.129	-0.390
-225.698	-58.347	-0.178	0.077
-224.684	-155.930	0.058	-0.004
-223.669	-78.114	-0.153	0.052
-222.655	-49.051	-0.039	-0.018
-221.640	39.368	-0.116	-0.103
-220.625	-5.341	0.158	0.107
-219.611	-200.000	-0.016	-0.348
-218.596	-73.537	-0.190	-0.069
-217.582	631.831	0.129	-0.323
-216.567	-51.558	-0.244	-0.112
-215.552	-200.000	-0.030	-0.176
-214.538	75.882	0.141	-0.147
-213.523	0.517	-0.284	0.201
-212.509	426.928	-0.150	-0.319
-211.494	-145.619	0.041	-0.004
-210.479	288.379	0.061	0.109
-209.465	-73.007	0.131	-0.047
-208.450	-56.238	0.257	-0.113
-207.436	-36.358	-0.307	-0.163
-206.421	269.327	0.084	-0.146
-205.406	-67.664	-0.064	-0.025
-204.392	800.000	0.078	0.306
-203.377	-0.727	0.271	0.189
-202.363	407.918	0.034	-0.072
-201.348	800.000	-0.022	0.076
-200.333	800.000	-0.034	0.103
-199.319	-17.925	0.471	-0.291
-198.304	-48.007	-0.351	0.168
-197.290	129.432	-0.285	-0.360
-196.275	-16.884	-0.208	0.130
-195.260	-149.068	0.308	-0.024
-194.246	46.320	-0.153	0.140
-193.231	-35.776	-0.225	0.120
-192.217	559.620	0.090	-0.215
-191.202	-80.952	-0.282	0.092
-190.187	205.461	0.210	-0.322
-189.173	-200.000	-0.011	-0.375
-188.158	800.000	0.069	-0.189
-187.144	232.993	-0.051	-0.082
-186.129	-145.997	0.115	-0.010
-185.114	-99.853	0.026	0.006
-184.100	347.561	-0.100	0.195
-183.085	206.229	0.110	-0.169
-182.071	248.984	-0.098	-0.164
-181.056	-106.294	0.515	-0.114
-180.042	55.286	0.018	-0.017
-179.027	-200.000	0.035	0.393
-178.012	-200.000	-0.031	-0.177
-176.998	-142.187	-0.215	0.021
-175.983	800.000	-0.001	0.004
-174.969	-154.488	0.361	0.024
-173.954	54.773	-0.215	0.205
-172.939	-200.000	0.041	0.258
-171.925	-39.475	0.157	-0.081
-170.910	-98.235	0.221	0.056
-169.896	101.739	0.082	0.095
-168.881	-200.000	0.031	-0.175
-167.866	-156.381	0.328	0.020
-166.852	-200.000	-0.050	-0.330
-165.837	266.453	-0.080	0.138
-164.823	479.364	0.023	0.050
-163.808	62.798	0.072	0.071
-162.793	-121.021	0.078	-0.013
-161.779	210.589	0.101	0.157
-160.764	33.344	0.076	-0.065
-159.750	-137.359	-0.172	0.019
-158.735	-200.000	0.015	0.109
-157.720	-103.222	-0.240	-0.056
-156.706	167.466	-0.126	-0.177
-155.691	663.004	0.042	-0.107
-154.677	800.000	-0.023	0.074
-153.662	61.139	0.039	0.038
-152.647	-141.949	-0.205	-0.020
-151.633	800.000	-0.048	0.159
-150.618	800.000	0.045	0.157
-149.604	-200.000	0.006	0.060
-148.589	-200.000	0.004	-0.204
-147.574	-22.149	-0.182	-0.109
-146.560	68.686	0.283	-0.287
-145.545	48.714	-0.181	0.168
-144.531	-200.000	-0.000	-0.085
-143.516	-117.034	0.500	0.090
-142.502	432.457	-0.057	-0.121
-141.487	-42.880	0.162	0.081
-140.472	650.882	0.068	0.171
-139.458	800.000	0.062	0.253
-138.443	309.868	0.121	0.222
-137.429	606.469	-0.039	0.096
-136.414	-61.037	0.094	-0.039
-135.399	74.182	0.132	0.136
-134.385	-96.336	-0.091	0.024
-133.370	-68.491	0.211	-0.081
-132.356	-61.968	-0.077	-0.032
-131.341	-188.514	-0.284	0.003
-130.326	-200.000	0.059	0.405
-129.312	-200.000	-0.018	-0.127
-128.297	800.000	-0.037	0.107
-127.283	-114.965	0.121	0.023
-126.268	-107.300	-0.133	0.029
-125.253	-200.000	-0.029	-0.295
-124.239	7.888	0.184	0.136
-123.224	-64.454	0.196	-0.078
-122.210	-4.461	0.326	0.222
