DTS Sentinel unit serial number:	SN413079Multiplexer serial number:	ORYXHardware model number:	OX4-SRSoftware version number:	ORYX F/W v4.00 Oryx Data Collector v3.7.2.0data status	okinstallation	princeton_trtdifferential loss correction	single-endedforward channel	channel 1reverse channel	N/Adate	2019/09/11time	09:44:11forward acquisition time	60.00reverse acquisition time	0.00gamma	496.2192k internal	0.2304k external	0.2304temperature offset calibration	0.9953default loss term (dB/km)	0.3790temperature slope calibration	1.0000multiplexer offset coefficient	1.0000multiplexer slope coefficient	1.0000fibre end	0.00T internal ref (°C)	34.94T ext. ref 1 (°C)	0.09T ext. ref 2 (°C)	31.30length (m)	temperature (°C)	Stokes	anti-Stokes-747.200	800.000	-0.032	0.127
-746.185	38.624	-0.275	0.250
-745.171	151.601	0.015	-0.020
-744.156	103.455	-0.033	0.039
-743.142	74.831	-0.166	-0.178
-742.127	800.000	-0.052	0.153
-741.112	71.386	-0.054	0.057
-740.098	227.075	0.066	-0.110
-739.083	800.000	0.058	0.225
-738.069	147.209	-0.308	0.422
-737.054	-173.675	-0.258	-0.008
-736.039	-200.000	0.007	-0.100
-735.025	36.844	0.188	0.170
-734.010	-140.425	-0.534	-0.057
-732.996	-95.444	0.198	-0.054
-731.981	-129.440	0.044	0.006
-730.966	800.000	-0.058	0.168
-729.952	-44.983	0.196	-0.099
-728.937	77.020	-0.274	-0.296
-727.923	-137.430	0.073	0.008
-726.908	578.803	-0.082	0.204
-725.894	83.281	-0.171	0.190
-724.879	-200.000	-0.073	-0.358
-723.864	77.193	0.083	-0.089
-722.850	-4.331	-0.383	-0.270
-721.835	35.848	-0.155	-0.139
-720.821	-84.367	-0.493	-0.159
-719.806	-200.000	-0.030	0.203
-718.791	-200.000	-0.018	-0.086
-717.777	-66.382	-0.184	-0.074
-716.762	-48.791	0.117	-0.057
-715.748	390.391	-0.205	0.433
-714.733	-162.145	-0.203	-0.010
-713.718	589.004	-0.036	-0.089
-712.704	-93.505	0.041	0.011
-711.689	740.734	0.081	-0.221
-710.675	-81.004	0.393	0.132
-709.660	50.148	-0.186	-0.178
-708.645	-47.956	-0.423	-0.208
-707.631	-36.183	-0.168	0.092
-706.616	-39.100	-0.360	0.192
-705.602	83.877	-0.129	-0.143
-704.587	76.012	-0.014	-0.015
-703.572	39.458	0.215	0.196
-702.558	-49.880	0.361	-0.174
-701.543	-200.000	-0.010	0.128
-700.529	0.817	-0.297	-0.216
-699.514	417.654	0.160	-0.347
-698.499	300.359	0.092	0.172
-697.485	182.919	-0.047	-0.071
-696.470	-92.878	0.444	0.126
-695.456	-63.032	-0.294	0.123
-694.441	279.618	-0.160	-0.290
-693.426	-189.995	-0.590	-0.007
-692.412	668.185	-0.062	-0.162
-691.397	326.938	-0.119	-0.231
-690.383	97.256	-0.132	-0.153
-689.368	359.108	-0.108	0.220
-688.354	-200.000	0.039	-0.184
-687.339	-77.704	0.102	0.036
-686.324	150.241	-0.317	0.437
-685.310	-101.530	0.136	0.034
-684.295	800.000	-0.081	-0.248
-683.281	7.288	0.223	-0.169
-682.266	135.565	-0.107	0.141
-681.251	-200.000	-0.001	-0.012
-680.237	-200.000	-0.052	-0.483
-679.222	800.000	0.031	-0.099
-678.208	-1.033	-0.267	-0.192
-677.193	-200.000	0.013	0.285
-676.178	-64.380	-0.038	0.016
-675.164	77.406	-0.113	-0.122
-674.149	-116.387	-0.339	-0.064
-673.135	213.050	-0.199	-0.320
-672.120	-158.565	-0.198	0.012
-671.105	483.696	0.100	-0.231
-670.091	162.849	-0.233	-0.333
-669.076	800.000	-0.031	-0.108
-668.062	-44.351	-0.164	0.083
-667.047	-200.000	-0.001	0.262
-666.032	-54.207	0.250	0.115
-665.018	-130.582	-0.275	0.038
-664.003	-200.000	-0.037	0.338
-662.989	800.000	0.113	0.464
-661.974	-44.303	-0.172	-0.088
-660.959	-124.800	0.175	-0.027
-659.945	-99.854	-0.211	-0.054
-658.930	178.268	0.187	-0.277
-657.916	-62.052	0.108	-0.046
-656.901	22.627	-0.018	0.015
-655.886	-34.077	-0.060	0.033
-654.872	314.298	-0.055	0.106
-653.857	-200.000	0.019	0.101
-652.843	44.801	0.162	-0.152
-651.828	-200.000	-0.037	-0.236
-650.814	244.324	0.076	0.129
-649.799	-200.000	-0.001	0.091
-648.784	-157.881	0.206	-0.012
-647.770	-60.877	-0.319	-0.137
-646.755	800.000	-0.087	-0.294
-645.741	-94.804	-0.253	-0.070
-644.726	-200.000	0.057	0.321
-643.711	-170.522	0.340	-0.012
-642.697	73.136	-0.115	0.122
-641.682	-50.284	-0.243	-0.116
-640.668	-96.273	-0.365	-0.098
-639.653	25.475	-0.191	-0.161
-638.638	800.000	0.029	-0.099
-637.624	-54.304	-0.148	-0.068
-636.609	-200.000	0.009	-0.103
-635.595	-66.384	-0.163	-0.066
-634.580	800.000	0.072	-0.259
-633.565	-95.803	-0.417	0.113
-632.551	12.850	-0.247	0.193
-631.536	-55.788	-0.421	0.191
-630.522	491.636	0.023	-0.053
-629.507	800.000	0.036	-0.146
-628.492	-16.387	0.262	0.169
-627.478	-200.000	-0.012	-0.175
-626.463	15.331	-0.233	-0.186
-625.449	-200.000	0.024	0.285
-624.434	-125.999	0.240	0.037
-623.419	-76.797	0.174	0.062
-622.405	-47.390	0.141	0.070
-621.390	-20.193	-0.050	0.031
-620.376	54.556	-0.244	0.239
-619.361	9.366	-0.363	0.278
-618.346	-49.048	-0.225	-0.109
-617.332	-9.415	0.096	0.065
-616.317	-30.544	-0.175	-0.100
-615.303	-74.495	0.295	0.108
-614.288	29.931	0.149	0.129
-613.273	-149.534	0.291	0.023
-612.259	-102.513	-0.293	0.071
-611.244	22.242	0.195	0.161
-610.230	800.000	-0.072	-0.245
-609.215	-116.760	-0.140	0.026
-608.201	-200.000	0.304	-0.001
-607.186	274.788	0.116	0.208
-606.171	-58.949	-0.066	0.029
-605.157	-113.400	0.316	-0.063
-604.142	-22.623	0.104	-0.063
-603.128	-6.451	-0.087	0.060
-602.113	-200.000	0.002	0.043
-601.098	-64.952	0.091	-0.037
-600.084	800.000	-0.032	-0.100
-599.069	-135.166	0.089	-0.011
-598.055	800.000	-0.067	-0.223
-597.040	250.358	-0.016	-0.028
-596.025	165.117	-0.043	0.062
-595.011	-200.000	-0.025	-0.489
-593.996	-200.000	-0.002	-0.259
-592.982	10.577	-0.054	-0.042
-591.967	131.400	-0.039	-0.051
-590.952	-200.000	-0.003	-0.114
-589.938	-172.403	-0.283	-0.009
-588.923	132.432	-0.043	0.056
-587.909	-27.676	-0.071	-0.042
-586.894	-200.000	-0.037	0.299
-585.879	53.411	0.080	0.078
-584.865	-139.831	0.100	0.011
-583.850	49.557	-0.092	0.088
-582.836	-81.083	0.186	0.062
-581.821	-156.866	0.497	0.031
-580.806	162.643	0.045	-0.064
-579.792	276.670	-0.011	-0.020
-578.777	18.423	0.078	-0.063
-577.763	39.713	0.153	0.139
-576.748	30.747	-0.103	-0.089
-575.733	-200.000	0.021	-0.103
-574.719	-200.000	-0.041	-0.270
-573.704	800.000	-0.055	-0.222
-572.690	38.102	0.220	-0.198
-571.675	-77.389	-0.319	-0.112
-570.661	275.208	0.156	-0.280
-569.646	309.659	-0.145	-0.274
-568.631	39.947	0.172	0.156
-567.617	-10.272	0.104	-0.070
-566.602	-104.031	-0.108	0.025
-565.588	-78.255	-0.040	0.014
-564.573	256.458	-0.103	-0.179
-563.558	179.177	-0.059	0.088
-562.544	-66.172	0.106	-0.043
-561.529	-112.680	-0.236	0.048
-560.515	-132.670	0.170	0.022
-559.500	-11.478	0.267	0.178
-558.485	224.595	-0.184	-0.301
-557.471	187.992	-0.247	-0.373
-556.456	-179.424	0.239	-0.005
-555.442	132.267	0.099	0.129
-554.427	21.670	0.039	0.032
-553.412	431.022	0.059	-0.130
-552.398	56.468	-0.179	-0.176
-551.383	-80.720	0.242	-0.081
-550.369	1.586	-0.217	0.158
-549.354	131.158	-0.099	-0.129
-548.339	105.841	0.259	-0.309
-547.325	232.215	-0.152	0.251
-546.310	-200.000	0.008	0.056
-545.296	70.426	-0.225	-0.235
-544.281	-136.329	-0.265	-0.031
-543.266	-35.349	0.390	0.214
-542.252	800.000	0.026	0.110
-541.237	-107.789	-0.229	0.050
-540.223	83.819	0.034	-0.038
-539.208	440.363	0.073	0.161
-538.193	9.489	-0.268	-0.205
-537.179	800.000	0.120	-0.386
-536.164	31.547	-0.144	-0.125
-535.150	-78.439	-0.106	0.037
-534.135	298.498	-0.136	0.252
-533.121	-200.000	0.041	0.354
-532.106	209.497	0.161	0.255
-531.091	77.703	-0.062	0.067
-530.077	-44.928	-0.422	-0.212
-529.062	243.050	-0.090	0.153
-528.048	400.592	-0.130	-0.276
-527.033	-57.947	-0.340	-0.150
-526.018	-84.602	-0.162	-0.052
-525.004	474.714	-0.108	0.246
-523.989	-200.000	-0.048	0.257
-522.975	183.476	0.159	0.237
-521.960	19.161	0.319	0.258
-520.945	-78.909	0.323	-0.111
-519.931	800.000	0.146	-0.417
-518.916	800.000	0.058	0.210
-517.902	800.000	0.070	0.240
-516.887	125.309	-0.172	-0.218
-515.872	-102.467	0.321	-0.078
-514.858	-200.000	0.006	0.058
-513.843	-200.000	0.015	-0.353
-512.829	-200.000	0.015	-0.117
-511.814	-200.000	-0.042	0.260
-510.799	-179.672	0.141	0.003
-509.785	314.325	0.017	0.032
-508.770	107.009	0.148	-0.177
-507.756	188.114	-0.126	-0.189
-506.741	653.747	0.147	-0.381
-505.726	-50.478	-0.236	0.112
-504.712	800.000	-0.070	0.283
-503.697	203.672	0.204	0.318
-502.683	-29.547	0.205	0.118
-501.668	-26.197	-0.135	0.080
-500.653	-200.000	-0.002	-0.109
-499.639	81.563	-0.275	-0.300
-498.624	-99.137	0.251	-0.064
-497.610	-127.103	-0.213	0.032
-496.595	55.415	0.124	0.121
-495.581	-11.283	-0.274	0.182
-494.566	800.000	-0.041	-0.169
-493.551	391.230	-0.098	-0.205
-492.537	-44.824	0.124	-0.062
-491.522	800.000	-0.076	0.334
-490.508	605.245	0.097	0.242
-489.493	494.913	-0.082	-0.189
-488.478	-98.115	-0.095	0.025
-487.464	-135.041	0.236	-0.029
-486.449	-96.610	0.142	-0.038
-485.435	-2.644	0.060	0.042
-484.420	-200.000	-0.053	0.310
-483.405	800.000	0.066	0.236
-482.391	15.150	0.290	-0.229
-481.376	84.702	0.194	-0.215
-480.362	-15.267	0.234	-0.151
-479.347	-200.000	-0.040	0.202
-478.332	35.255	0.222	0.196
-477.318	-61.662	0.362	0.153
-476.303	-152.086	0.305	-0.022
-475.289	-175.415	0.071	0.002
-474.274	201.281	-0.121	-0.187
-473.259	-23.140	-0.100	-0.060
-472.245	-21.420	0.308	-0.189
-471.230	34.168	-0.215	-0.188
-470.216	-21.804	0.150	0.092
-469.201	507.049	0.110	0.257
-468.186	-129.062	-0.354	-0.050
-467.172	-200.000	0.089	-0.416
-466.157	112.808	-0.093	-0.113
-465.143	243.042	0.173	-0.292
-464.128	-200.000	-0.046	0.214
-463.113	273.215	-0.098	0.174
-462.099	-200.000	-0.013	-0.101
-461.084	-200.000	0.029	-0.133
-460.070	14.867	-0.079	0.063
-459.055	-139.851	-0.247	0.026
-458.040	-126.968	-0.158	-0.023
-457.026	142.022	-0.105	-0.140
-456.011	800.000	0.093	0.266
-454.997	-178.428	-0.065	0.002
-453.982	-200.000	-0.213	0.001
-452.968	194.232	-0.156	-0.238
-451.953	-99.790	0.189	0.048
-450.938	-167.881	0.018	-0.001
-449.924	70.334	0.096	0.100
-448.909	168.406	0.074	-0.106
-447.895	299.532	-0.026	-0.049
-446.880	65.024	0.187	0.190
-445.865	-50.189	-0.293	-0.140
-444.851	-13.119	-0.180	-0.118
-443.836	56.973	0.140	0.137
-442.822	-93.691	-0.168	0.047
-441.807	52.254	0.289	-0.277
-440.792	-60.726	-0.160	-0.068
-439.778	67.568	-0.111	0.115
-438.763	-79.572	-0.298	0.101
-437.749	561.242	-0.058	-0.141
-436.734	30.703	-0.213	-0.183
-435.719	-159.356	0.117	-0.007
-434.705	-8.038	0.115	-0.078
-433.690	-109.849	-0.281	-0.059
-432.676	-200.000	0.056	0.267
-431.661	-151.688	0.256	0.019
-430.646	800.000	-0.070	-0.217
-429.632	152.721	-0.149	-0.205
-428.617	-52.210	-0.080	-0.037
-427.603	-31.617	0.423	0.239
-426.588	-200.000	-0.001	-0.266
-425.573	-184.554	-0.185	-0.003
-424.559	232.011	-0.255	0.420
-423.544	-69.072	-0.293	0.113
-422.530	85.722	0.159	0.176
-421.515	800.000	-0.051	-0.213
-420.500	800.000	-0.047	0.145
-419.486	-144.590	-0.349	-0.032
-418.471	184.147	-0.135	-0.201
-417.457	-200.000	-0.018	-0.357
-416.442	109.586	0.168	0.203
-415.428	-105.552	0.150	0.034
-414.413	-40.821	0.209	0.109
-413.398	-198.858	0.128	0.001
-412.384	-62.539	0.047	-0.019
-411.369	-7.014	0.127	0.087
-410.355	-200.000	0.005	-0.370
-409.340	-74.750	-0.312	-0.113
-408.325	-200.000	0.006	0.057
-407.311	157.062	0.053	-0.074
-406.296	-47.165	0.491	-0.240
-405.282	73.566	0.160	-0.168
-404.267	491.844	-0.042	0.096
-403.252	-8.190	-0.085	0.058
-402.238	386.928	-0.021	0.044
-401.223	107.298	-0.160	-0.191
-400.209	-148.038	-0.155	0.013
-399.194	734.232	0.071	-0.190
-398.179	1.420	0.130	-0.094
-397.165	-40.230	0.308	-0.161
-396.150	-200.000	-0.015	0.132
-395.136	307.151	-0.086	0.161
-394.121	-183.774	0.254	0.004
-393.106	-82.020	-0.428	-0.140
-392.092	-200.000	-0.003	0.122
-391.077	-200.000	-0.080	0.587
-390.063	-156.957	-0.062	-0.004
-389.048	41.939	0.086	-0.078
-388.033	-147.559	0.214	-0.018
-387.019	40.754	-0.233	0.211
-386.004	-200.000	0.006	-0.119
-384.990	-200.000	0.044	-0.280
-383.975	-6.183	-0.159	-0.109
-382.960	18.002	0.074	0.059
-381.946	116.929	0.133	0.164
-380.931	126.458	0.120	0.153
-379.917	-142.635	-0.236	-0.023
-378.902	-109.967	0.359	-0.076
-377.888	-175.718	-0.045	0.001
-376.873	-22.433	-0.203	0.123
-375.858	68.293	-0.182	0.188
-374.844	-54.845	0.239	-0.108
-373.829	-90.443	-0.229	-0.067
-372.815	66.629	-0.191	0.195
-371.800	256.164	0.118	0.204
-370.785	-2.822	0.161	0.113
-369.771	-79.776	-0.088	0.030
-368.756	-200.000	-0.005	-0.151
-367.742	187.091	-0.078	0.117
-366.727	-85.013	-0.090	-0.028
-365.712	-49.694	0.214	0.102
-364.698	800.000	0.040	0.115
-363.683	263.229	0.085	0.147
-362.669	-158.406	-0.181	0.011
-361.654	74.147	0.187	0.197
-360.639	27.733	-0.089	-0.075
-359.625	800.000	-0.104	0.354
-358.610	59.699	0.245	0.242
-357.596	800.000	0.029	-0.080
-356.581	115.793	-0.126	0.155
-355.566	-132.188	0.167	0.022
-354.552	-53.086	0.221	-0.102
-353.537	17.744	-0.157	-0.125
-352.523	-85.765	-0.088	0.027
-351.508	-200.000	-0.006	0.158
-350.493	588.126	0.099	0.244
-349.479	608.892	-0.112	-0.280
-348.464	-46.819	0.174	-0.085
-347.450	800.000	0.084	0.310
-346.435	-82.095	0.145	-0.048
-345.420	218.105	0.054	0.086
-344.406	800.000	0.053	-0.209
-343.391	10.333	-0.173	0.132
-342.377	39.917	-0.143	0.129
-341.362	-108.809	0.230	-0.049
-340.348	-107.042	-0.215	0.048
-339.333	0.826	0.301	-0.216
-338.318	-163.293	0.024	0.001
-337.304	-174.770	-0.209	-0.006
-336.289	-172.763	-0.030	-0.001
-335.275	-68.995	-0.437	0.169
-334.260	-59.107	0.180	0.078
-333.245	-200.000	-0.008	0.300
-332.231	-96.994	-0.047	-0.012
-331.216	196.603	-0.055	-0.084
-330.202	-154.287	-0.215	0.015
-329.187	-140.102	-0.700	0.074
-328.172	800.000	-0.085	-0.354
-327.158	-102.904	-0.394	-0.094
-326.143	240.509	-0.095	-0.159
-325.129	-99.981	0.124	-0.031
-324.114	-147.461	-0.192	-0.016
-323.099	1.091	-0.174	-0.125
-322.085	-200.000	0.042	-0.226
-321.070	-200.000	-0.014	0.174
-320.056	5.520	0.083	0.062
-319.041	800.000	0.054	-0.235
-318.026	222.313	0.186	0.299
-317.012	800.000	-0.006	-0.022
-315.997	7.102	0.360	-0.269
-314.983	-14.777	0.271	-0.174
-313.968	-78.676	-0.324	-0.111
-312.953	800.000	-0.087	0.315
-311.939	317.909	0.237	0.449
-310.924	299.791	0.187	-0.344
-309.910	-82.586	-0.148	-0.048
-308.895	257.839	0.112	-0.193
-307.880	121.671	0.009	-0.011
-306.866	229.871	-0.172	0.281
-305.851	-200.000	-0.018	0.479
-304.837	-200.000	-0.008	-0.157
-303.822	800.000	-0.030	0.099
-302.807	-18.871	-0.215	0.134
-301.793	574.567	-0.108	-0.263
-300.778	-200.000	-0.016	-0.342
-299.764	-1.505	0.130	0.092
-298.749	260.861	0.077	-0.134
-297.735	241.176	-0.260	0.434
-296.720	107.603	-0.146	-0.174
-295.705	800.000	0.091	-0.309
-294.691	15.240	0.205	-0.161
-293.676	-200.000	-0.015	0.269
-292.662	96.094	0.323	0.370
-291.647	180.421	0.231	-0.339
-290.632	-200.000	0.002	0.086
-289.618	-17.213	-0.326	-0.205
-288.603	800.000	0.052	0.176
-287.589	141.181	0.112	0.148
-286.574	-128.073	0.205	-0.029
-285.559	0.746	-0.326	-0.234
-284.545	-23.106	0.249	-0.150
-283.530	-26.964	-0.211	-0.123
-282.516	800.000	0.021	-0.076
-281.501	213.200	0.063	-0.100
-280.486	-151.769	0.132	0.010
-279.472	-132.547	-0.261	0.034
-278.457	-18.875	0.100	-0.062
-277.443	-21.938	-0.204	-0.124
-276.428	-200.000	0.029	0.215
-275.413	800.000	-0.065	0.184
-274.399	-200.000	0.010	0.092
-273.384	46.130	0.082	0.076
-272.370	800.000	-0.037	0.143
-271.355	15.488	-0.251	0.197
-270.340	508.584	0.124	-0.288
-269.326	-138.782	-0.079	-0.009
-268.311	-29.649	0.105	0.060
-267.297	106.654	0.088	0.104
-266.282	-200.000	-0.030	0.238
-265.267	-79.177	-0.148	0.050
-264.253	-65.647	-0.219	0.088
-263.238	800.000	0.040	-0.167
-262.224	-183.733	0.141	0.002
-261.209	30.925	-0.174	0.149
-260.195	-71.622	-0.225	0.084
-259.180	-117.251	-0.071	-0.013
-258.165	800.000	0.030	0.120
-257.151	-189.204	0.229	-0.003
-256.136	-200.000	0.011	0.212
-255.122	-21.731	-0.290	0.176
-254.107	-106.969	-0.146	-0.032
-253.092	-71.777	-0.274	0.102
-252.078	-200.000	0.007	0.281
-251.063	7.741	0.228	0.170
-250.049	-131.771	0.102	0.013
-249.034	208.467	-0.200	0.313
-248.019	-171.530	0.161	-0.005
-247.005	18.107	-0.141	-0.112
-245.990	800.000	0.057	0.197
-244.976	-153.682	-0.517	-0.036
-243.961	14.610	0.113	-0.088
-242.946	800.000	0.021	-0.073
-241.932	800.000	-0.093	0.392
-240.917	-200.000	0.000	-0.129
-239.903	217.922	0.175	-0.279
-238.888	-200.000	-0.060	-0.328
-237.873	-200.000	0.032	0.170
-236.859	-144.058	0.092	0.009
-235.844	8.116	0.062	0.046
-234.830	-47.213	0.324	0.158
-233.815	347.401	0.154	0.302
-232.800	202.395	0.101	0.156
-231.786	683.876	-0.028	-0.073
-230.771	277.740	0.149	-0.264
-229.757	-66.785	0.316	-0.125
-228.742	-79.448	0.248	0.084
-227.727	800.000	0.061	-0.221
-226.713	-200.000	0.068	-0.423
-225.698	-200.000	0.010	-0.104
-224.684	42.020	0.299	0.271
-223.669	156.044	-0.325	0.448
-222.655	131.028	0.155	-0.198
-221.640	181.266	-0.137	-0.201
-220.625	-82.218	0.312	0.101
-219.611	-89.366	0.439	0.129
-218.596	22.243	-0.044	-0.036
-217.582	113.988	-0.156	-0.189
-216.567	133.921	0.233	-0.301
-215.552	-34.827	0.179	0.098
-214.538	15.941	0.079	-0.062
-213.523	-76.220	-0.283	-0.100
-212.509	66.137	-0.075	-0.076
-211.494	-200.000	-0.054	-0.384
-210.479	-200.000	0.002	0.281
-209.465	-150.460	-0.299	0.023
-208.450	-200.000	0.138	-0.001
-207.436	-51.026	-0.100	0.047
-206.421	269.558	-0.099	-0.173
-205.406	32.067	-0.113	0.097
-204.392	432.725	0.217	0.470
-203.377	40.765	0.108	0.097
-202.363	-200.000	-0.013	-0.069
-201.348	-93.563	0.319	0.088
-200.333	-113.960	-0.243	-0.047
-199.319	134.214	-0.079	0.102
-198.304	563.545	0.085	0.205
-197.290	-115.180	0.059	0.011
-196.275	800.000	0.087	0.326
-195.260	2.346	-0.090	0.065
-194.246	45.126	-0.134	-0.124
-193.231	800.000	-0.069	-0.215
-192.217	-38.908	0.112	0.059
-191.202	51.836	0.050	-0.048
-190.187	570.205	0.075	-0.182
-189.173	800.000	-0.051	-0.164
-188.158	800.000	-0.012	0.033
-187.144	800.000	0.060	-0.230
-186.129	-200.000	0.010	-0.432
-185.114	-165.163	0.330	-0.015
-184.100	65.145	0.174	0.175
-183.085	-14.734	-0.284	0.182
-182.071	298.118	-0.142	0.260
-181.056	-200.000	-0.011	-0.087
-180.042	800.000	-0.067	0.229
-179.027	76.167	-0.118	-0.125
-178.012	-70.138	0.076	-0.029
-176.998	354.677	0.215	0.425
-175.983	165.774	0.061	-0.086
-174.969	-65.051	0.155	0.062
-173.954	119.405	-0.144	0.177
-172.939	-200.000	0.019	0.184
-171.925	584.647	0.039	0.094
-170.910	800.000	0.079	-0.325
-169.896	16.933	-0.154	0.122
-168.881	-63.493	0.139	-0.057
-167.866	-200.000	-0.010	0.154
-166.852	-200.000	0.019	-0.293
-165.837	100.070	0.160	0.185
-164.823	-124.985	0.302	-0.046
-163.808	147.806	0.229	0.307
-162.793	-24.909	0.412	0.243
-161.779	-149.155	0.246	0.020
-160.764	-8.149	0.302	-0.202
-159.750	800.000	-0.119	0.388
-158.735	417.562	-0.083	0.176
-157.720	-43.155	0.066	0.033
-156.706	-61.471	-0.177	-0.074
-155.691	119.177	-0.341	-0.419
-154.677	315.113	0.170	-0.320
-153.662	800.000	-0.075	-0.247
-152.647	449.612	-0.051	0.112
-151.633	-200.000	0.026	-0.234
-150.618	25.871	-0.025	0.021
-149.604	-139.073	-0.135	0.015
-148.589	800.000	-0.038	0.117
-147.574	27.137	-0.104	-0.087
-146.560	613.901	0.060	0.150
-145.545	-103.519	0.174	0.041
-144.531	-135.441	0.305	0.036
-143.516	-114.636	0.363	0.069
-142.502	307.378	-0.085	0.158
-141.487	-84.204	-0.208	0.065
-140.472	49.091	0.335	0.313
-139.458	125.956	-0.169	-0.213
-138.443	213.831	-0.057	-0.089
-137.429	73.337	-0.002	0.002
-136.414	90.337	0.108	0.120
-135.399	359.053	-0.063	0.126
-134.385	-40.083	-0.191	0.099
-133.370	-200.000	0.016	0.137
-132.356	-59.728	-0.098	-0.042
-131.341	800.000	-0.037	0.109
-130.326	-200.000	0.050	-0.310
-129.312	93.046	-0.241	-0.271
-128.297	-200.000	-0.011	0.243
-127.283	-93.440	-0.116	0.032
-126.268	27.528	-0.223	-0.186
-125.253	106.896	-0.121	-0.143
-124.239	-25.651	0.335	-0.196
-123.224	26.970	0.058	0.048
-122.210	18.245	-0.042	-0.033
-121.195	-53.871	-0.219	0.099
