DTS Sentinel unit serial number:	SN413079Multiplexer serial number:	ORYXHardware model number:	OX4-SRSoftware version number:	ORYX F/W v4.00 Oryx Data Collector v3.7.2.0data status	okinstallation	princeton_trtdifferential loss correction	single-endedforward channel	channel 1reverse channel	N/Adate	2019/09/12time	19:22:34forward acquisition time	15.00reverse acquisition time	0.00gamma	496.2192k internal	0.2321k external	0.2321temperature offset calibration	1.0121default loss term (dB/km)	0.3790temperature slope calibration	1.0000multiplexer offset coefficient	1.0000multiplexer slope coefficient	1.0000fibre end	0.00T internal ref (°C)	32.37T ext. ref 1 (°C)	3.23T ext. ref 2 (°C)	26.91length (m)	temperature (°C)	Stokes	anti-Stokes-747.200	-200.000	-0.007	-0.038
-746.185	-155.027	-0.403	0.027
-745.171	-200.000	-0.054	-0.345
-744.156	800.000	0.258	-0.751
-743.142	293.508	-0.173	-0.319
-742.127	-51.112	0.672	-0.319
-741.112	-122.053	-0.835	0.138
-740.098	-11.750	-0.670	-0.444
-739.083	-111.706	-0.230	0.047
-738.069	-89.725	0.060	-0.018
-737.054	290.837	0.240	0.441
-736.039	800.000	0.057	-0.212
-735.025	345.661	0.425	-0.844
-734.010	-87.855	-0.626	-0.190
-732.996	181.489	0.394	-0.585
-731.981	-60.923	0.481	0.206
-730.966	-200.000	-0.051	0.284
-729.952	800.000	0.089	0.313
-728.937	-129.975	-0.443	-0.061
-727.923	-200.000	0.093	0.933
-726.908	32.175	-0.641	0.559
-725.894	800.000	0.157	-0.473
-724.879	201.671	0.278	0.433
-723.864	-14.739	0.281	0.183
-722.850	-60.882	-0.377	-0.161
-721.835	-125.437	-1.140	0.175
-720.821	764.206	0.236	-0.646
-719.806	163.191	-0.355	0.504
-718.791	-92.345	0.623	-0.177
-717.777	-43.470	-0.587	-0.299
-716.762	-154.270	0.170	-0.012
-715.748	-163.091	1.124	-0.055
-714.733	-35.325	-0.868	-0.477
-713.718	-49.819	-0.356	-0.171
-712.704	-17.173	-0.574	-0.365
-711.689	-200.000	-0.053	-0.586
-710.675	-100.008	-0.196	0.049
-709.660	206.198	0.437	-0.687
-708.645	-0.422	-0.508	0.364
-707.631	213.972	-0.185	-0.296
-706.616	-56.814	0.474	-0.212
-705.602	-68.303	0.189	0.074
-704.587	800.000	0.062	-0.186
-703.572	20.112	0.487	0.396
-702.558	-6.794	0.547	0.376
-701.543	-200.000	0.013	0.457
-700.529	504.011	-0.186	0.433
-699.514	-200.000	0.049	0.827
-698.499	306.588	0.071	-0.133
-697.485	-200.000	-0.052	-0.476
-696.470	77.967	0.547	-0.588
-695.456	254.257	-0.510	-0.879
-694.441	238.609	-0.286	-0.479
-693.426	800.000	0.173	-0.612
-692.412	-200.000	0.035	0.290
-691.397	199.477	0.264	0.408
-690.383	-90.731	-0.151	0.044
-689.368	77.090	-0.564	-0.604
-688.354	2.258	0.419	-0.306
-687.339	262.456	-0.176	0.308
-686.324	148.372	-0.399	0.543
-685.310	-200.000	-0.196	-0.927
-684.295	-200.000	-0.148	-0.835
-683.281	-1.179	-0.318	-0.226
-682.266	-200.000	0.001	-0.040
-681.251	-90.546	-0.461	0.135
-680.237	-108.073	0.073	-0.016
-679.222	-137.465	-0.041	-0.005
-678.208	-116.252	0.196	0.037
-677.193	-156.173	-0.752	0.048
-676.178	135.566	0.172	0.226
-675.164	-195.499	0.369	-0.003
-674.149	76.775	-0.402	-0.430
-673.135	46.832	-0.791	-0.741
-672.120	118.808	0.204	-0.254
-671.105	-150.443	0.170	-0.013
-670.091	800.000	0.412	-1.328
-669.076	-78.686	0.145	0.050
-668.062	-114.709	-0.791	-0.152
-667.047	-104.368	0.826	-0.193
-666.032	-150.190	-0.459	-0.036
-665.018	-56.612	0.402	-0.179
-664.003	30.462	-0.261	-0.225
-662.989	405.808	0.070	0.148
-661.974	501.617	-0.156	-0.363
-660.959	-50.654	-0.259	0.123
-659.945	19.985	-0.697	0.566
-658.930	-200.000	-0.041	0.719
-657.916	-200.000	-0.139	-0.660
-656.901	-4.070	-0.376	-0.262
-655.886	83.838	-0.307	-0.337
-654.872	37.827	0.153	-0.137
-653.857	491.468	-0.412	0.950
-652.843	44.016	0.161	-0.148
-651.828	-200.000	-0.015	-0.402
-650.814	27.951	-0.506	-0.429
-649.799	-48.654	-0.277	0.134
-648.784	233.222	-0.576	-0.954
-647.770	800.000	-0.117	-0.337
-646.755	-200.000	0.079	0.495
-645.741	387.800	0.379	0.789
-644.726	178.624	-0.352	0.517
-643.711	473.426	-0.283	-0.642
-642.697	-155.441	1.004	0.065
-641.682	332.786	0.293	0.570
-640.668	308.237	0.278	-0.522
-639.653	-138.678	-0.419	0.046
-638.638	570.651	-0.317	0.777
-637.624	181.760	-0.277	-0.410
-636.609	94.040	-0.102	-0.117
-635.595	-21.716	0.253	-0.155
-634.580	-39.376	-0.170	-0.090
-633.565	-200.000	0.089	0.450
-632.551	-22.137	-0.240	-0.146
-631.536	-113.183	-0.476	0.094
-630.522	81.089	0.487	-0.529
-629.507	75.482	-0.491	-0.521
-628.492	-200.000	0.090	-1.199
-627.478	-54.220	-1.000	-0.457
-626.463	800.000	0.356	-1.046
-625.449	-28.205	0.938	-0.545
-624.434	-26.477	0.384	-0.226
-623.419	426.396	-0.354	0.767
-622.405	800.000	-0.057	-0.249
-621.390	-121.267	-0.888	-0.149
-620.376	800.000	0.181	-0.556
-619.361	-38.131	0.812	-0.433
-618.346	-200.000	-0.048	-0.468
-617.332	-54.758	-0.965	-0.438
-616.317	401.649	0.363	-0.768
-615.303	-75.300	-0.506	-0.182
-614.288	800.000	-0.129	0.471
-613.273	800.000	0.097	-0.334
-612.259	51.741	-0.319	-0.305
-611.244	-153.014	-0.753	-0.053
-610.230	-62.719	-0.260	-0.108
-609.215	-71.074	0.192	-0.073
-608.201	8.144	-0.429	-0.324
-607.186	-176.980	0.560	-0.014
-606.171	-7.101	-0.937	-0.639
-605.157	-200.000	0.000	0.343
-604.142	391.120	-0.029	-0.060
-603.128	-41.863	-0.119	-0.062
-602.113	117.047	-0.375	-0.464
-601.098	-104.186	-0.195	-0.046
-600.084	-137.699	-0.465	0.053
-599.069	26.503	-0.594	-0.499
-598.055	-200.000	0.033	0.840
-597.040	-108.626	0.432	-0.093
-596.025	546.389	0.379	0.910
-595.011	-59.481	-0.606	0.261
-593.996	-149.567	-0.423	0.034
-592.982	-196.120	1.109	-0.008
-591.967	-22.905	-0.227	-0.138
-590.952	-59.434	-0.387	-0.167
-589.938	59.780	-0.327	-0.324
-588.923	101.670	-0.731	0.857
-587.909	787.045	0.154	0.424
-586.894	800.000	-0.205	0.580
-585.879	243.333	-0.294	0.495
-584.865	41.136	-0.357	0.324
-583.850	134.059	-0.243	-0.316
-582.836	-200.000	-0.000	0.340
-581.821	-200.000	0.943	0.003
-580.806	-200.000	0.035	-0.156
-579.792	-27.021	-0.058	0.034
-578.777	-200.000	-0.009	1.110
-577.763	383.112	-0.071	0.146
-576.748	-119.620	0.905	-0.157
-575.733	740.620	-0.316	-0.852
-574.719	-58.069	-0.356	-0.156
-573.704	217.833	-0.398	-0.637
-572.690	240.656	-0.005	-0.008
-571.675	-121.726	0.707	-0.117
-570.661	-200.000	-0.041	0.185
-569.646	800.000	0.274	0.800
-568.631	239.266	-0.263	-0.440
-567.617	296.137	0.357	0.656
-566.602	393.910	0.272	-0.568
-565.588	-147.586	0.438	-0.037
-564.573	246.847	0.441	0.747
-563.558	-200.000	-0.022	-0.105
-562.544	-86.089	0.592	0.183
-561.529	-200.000	0.122	-0.544
-560.515	-84.085	0.354	-0.113
-559.500	23.214	-0.171	-0.141
-558.485	275.007	0.705	-1.254
-557.471	-54.592	-0.743	-0.337
-556.456	-111.247	1.133	0.232
-555.442	-58.546	-0.788	0.343
-554.427	-117.123	-0.370	-0.068
-553.412	-174.988	-0.126	-0.004
-552.398	117.488	-0.086	-0.107
-551.383	-52.358	-0.854	-0.397
-550.369	-73.470	-0.588	-0.215
-549.354	128.495	0.082	0.105
-548.339	445.590	0.288	0.634
-547.325	-62.154	0.035	0.015
-546.310	55.586	0.261	0.254
-545.296	-200.000	0.007	0.352
-544.281	800.000	0.193	0.825
-543.266	-200.000	0.090	0.790
-542.252	14.545	-0.112	-0.087
-541.237	88.442	-0.487	-0.543
-540.223	-169.390	-0.565	-0.021
-539.208	-108.524	-0.755	-0.163
-538.193	-79.321	0.744	-0.253
-537.179	-175.588	-0.423	-0.011
-536.164	-200.000	0.072	-0.578
-535.150	77.886	-0.698	-0.746
-534.135	179.119	0.516	-0.757
-533.121	-55.796	0.557	0.249
-532.106	-58.777	-1.511	0.656
-531.091	800.000	0.285	0.788
-530.077	-181.985	-0.132	-0.003
-529.062	11.225	-0.431	0.331
-528.048	-164.578	-0.149	-0.007
-527.033	-37.782	0.402	-0.214
-526.018	-200.000	-0.007	-0.345
-525.004	-26.805	-0.225	0.132
-523.989	165.460	0.589	-0.835
-522.975	-47.296	-0.449	-0.219
-521.960	159.103	-0.060	0.084
-520.945	178.907	-0.579	0.848
-519.931	64.525	0.552	0.558
-518.916	-99.306	-0.519	-0.131
-517.902	47.243	0.147	0.137
-516.887	-200.000	0.519	0.000
-515.872	163.861	-0.414	-0.584
-514.858	178.520	-0.237	0.347
-513.843	-200.000	0.090	0.810
-512.829	432.184	0.129	0.280
-511.814	-200.000	0.039	-0.512
-510.799	-200.000	-0.068	-0.387
-509.785	15.221	0.338	-0.266
-508.770	800.000	0.262	0.967
-507.756	-87.056	-0.277	-0.085
-506.741	143.908	-0.440	-0.588
-505.726	-56.943	-0.113	0.050
-504.712	229.116	0.143	0.233
-503.697	199.886	0.490	-0.753
-502.683	-158.312	-1.110	0.065
-501.668	330.420	0.076	0.146
-500.653	-54.540	-0.184	-0.083
-499.639	-164.302	0.301	-0.014
-498.624	-5.872	0.729	0.499
-497.610	-14.032	0.269	0.174
-496.595	-73.757	-0.958	-0.349
-495.581	-140.111	0.288	0.030
-494.566	-48.098	-0.558	-0.270
-493.551	-120.380	0.604	-0.103
-492.537	-85.496	0.452	-0.141
-491.522	-200.000	0.025	0.150
-490.508	109.911	0.366	0.439
-489.493	-200.000	-0.006	-0.294
-488.478	141.351	0.154	0.203
-487.464	91.982	-0.411	0.463
-486.449	57.662	-0.188	-0.184
-485.435	124.463	-0.379	-0.476
-484.420	48.799	0.225	0.211
-483.405	1.411	-0.162	0.117
-482.391	800.000	-0.141	-0.436
-481.376	-200.000	0.069	-0.349
-480.362	-50.347	0.518	-0.245
-479.347	54.304	0.319	-0.307
-478.332	256.213	0.301	-0.517
-477.318	-200.000	0.011	-0.363
-476.303	466.734	0.288	0.645
-475.289	54.896	0.286	0.276
-474.274	6.376	0.519	-0.385
-473.259	41.582	0.157	-0.142
-472.245	-170.811	0.142	0.005
-471.230	800.000	-0.031	-0.134
-470.216	-200.000	-0.001	-0.394
-469.201	-200.000	0.080	0.500
-468.186	-128.377	0.202	-0.029
-467.172	357.939	-0.311	0.621
-466.157	123.620	0.200	-0.251
-465.143	437.476	-0.231	-0.503
-464.128	-142.450	-0.339	0.033
-463.113	800.000	-0.199	0.567
-462.099	-94.654	1.134	0.308
-461.084	-122.875	0.437	0.070
-460.070	-180.250	-0.591	0.012
-459.055	-200.000	-0.045	-0.338
-458.040	279.890	0.220	0.392
-457.026	-4.315	0.868	0.600
-456.011	780.276	0.099	0.270
-454.997	-200.000	-0.113	0.648
-453.982	587.884	-0.109	-0.268
-452.968	487.587	0.184	0.420
-451.953	77.077	-0.417	0.442
-450.938	475.867	-0.148	0.334
-449.924	-76.572	0.373	-0.131
-448.909	800.000	0.115	-0.344
-447.895	593.345	0.217	-0.537
-446.880	-200.000	0.007	0.375
-445.865	-41.265	-0.332	-0.171
-444.851	75.394	-0.379	0.400
-443.836	20.759	1.050	-0.850
-442.822	-115.866	0.512	0.096
-441.807	-58.471	0.551	0.239
-440.792	800.000	-0.197	-0.664
-439.778	-54.233	-0.873	0.396
-438.763	-200.000	0.141	-0.776
-437.749	-177.697	0.433	-0.010
-436.734	-150.536	0.677	-0.052
-435.719	-88.363	-0.971	-0.290
-434.705	-200.000	-0.007	0.079
-433.690	800.000	-0.101	0.328
-432.676	-200.000	0.046	0.472
-431.661	-95.501	-0.478	-0.128
-430.646	42.970	-0.723	-0.658
-429.632	-169.876	0.349	-0.012
-428.617	-119.276	0.252	-0.044
-427.603	135.963	0.240	-0.311
-426.588	641.489	-0.152	0.386
-425.573	172.208	0.228	0.327
-424.559	-66.296	-0.807	0.320
-423.544	-200.000	-0.043	0.299
-422.530	-200.000	0.073	-0.881
-421.515	174.241	0.114	-0.165
-420.500	-64.523	0.390	0.158
-419.486	-200.000	-0.849	-0.003
-418.471	-158.939	0.588	0.033
-417.457	27.331	0.141	-0.118
-416.442	-11.385	0.744	-0.489
-415.428	96.766	-0.709	-0.811
-414.413	-200.000	0.193	-1.008
-413.398	-200.000	0.065	-0.700
-412.384	800.000	0.138	-0.394
-411.369	-200.000	-0.043	-0.545
-410.355	800.000	0.219	0.888
-409.340	161.841	-0.264	0.369
-408.325	178.787	-0.419	0.611
-407.311	800.000	0.111	-0.340
-406.296	-200.000	0.077	-0.798
-405.282	-99.154	-0.580	0.146
-404.267	800.000	0.106	0.423
-403.252	-29.746	0.302	-0.172
-402.238	16.453	-0.542	0.427
-401.223	5.484	0.582	-0.428
-400.209	-200.000	-0.038	0.619
-399.194	47.181	0.593	0.550
-398.179	-1.895	0.279	-0.195
-397.165	-103.492	-0.155	0.036
-396.150	-161.611	-0.807	-0.041
-395.136	-200.000	0.889	0.001
-394.121	337.264	0.304	0.590
-393.106	15.935	0.374	-0.294
-392.092	800.000	-0.071	-0.202
-391.077	243.528	0.277	-0.463
-390.063	-85.910	-0.739	-0.228
-389.048	-33.433	0.774	0.426
-388.033	-120.790	-0.999	0.168
-387.019	84.610	0.472	0.515
-386.004	800.000	0.173	0.632
-384.990	48.202	0.632	0.589
-383.975	264.116	-0.036	-0.063
-382.960	60.457	-0.380	-0.375
-381.946	342.231	0.166	-0.323
-380.931	800.000	0.054	0.227
-379.917	800.000	0.206	0.664
-378.902	-136.183	0.839	-0.098
-377.888	800.000	0.180	-0.611
-376.873	-49.128	0.614	-0.292
-375.858	-22.300	0.262	0.158
-374.844	-121.973	0.281	-0.046
-373.829	-163.588	0.737	-0.035
-372.815	-79.357	-0.521	0.176
-371.800	800.000	0.099	-0.308
-370.785	-147.196	0.281	-0.024
-369.771	-116.371	0.479	-0.088
-368.756	86.468	-0.398	0.437
-367.742	-13.308	0.967	-0.625
-366.727	-200.000	-0.057	-0.407
-365.712	-200.000	0.052	-0.595
-364.698	-39.010	0.339	0.178
-363.683	-100.867	-0.292	0.071
-362.669	212.523	-0.070	0.110
-361.654	-44.004	-0.638	-0.319
-360.639	-161.336	0.477	-0.025
-359.625	66.573	-0.113	0.114
-358.610	-118.419	-0.364	0.064
-357.596	78.275	-0.215	0.229
-356.581	-200.000	0.018	0.106
-355.566	67.240	-0.641	-0.651
-354.552	90.537	-0.297	0.330
-353.537	16.292	0.057	-0.044
-352.523	800.000	0.035	-0.146
-351.508	-88.459	0.805	-0.239
-350.493	800.000	-0.173	-0.590
-349.479	448.745	-0.317	0.696
-348.464	-120.009	0.559	0.095
-347.450	-135.963	0.501	0.059
-346.435	345.495	-0.253	-0.494
-345.420	-56.528	0.358	-0.158
-344.406	800.000	-0.498	1.692
-343.391	-52.829	-1.282	0.588
-342.377	299.732	0.225	-0.412
-341.362	84.856	-0.101	-0.110
-340.348	-200.000	0.016	-0.134
-339.333	105.339	-0.385	-0.452
-338.318	153.801	0.113	0.154
-337.304	-152.281	0.603	-0.043
-336.289	-12.795	-0.228	-0.148
-335.275	-104.388	0.461	-0.106
-334.260	-200.000	-0.053	0.803
-333.245	-49.929	1.031	0.486
-332.231	11.795	-0.139	0.106
-331.216	-66.398	-0.285	-0.113
-330.202	-148.414	0.499	0.041
-329.187	-139.397	-0.479	0.051
-328.172	-71.701	-0.345	0.128
-327.158	800.000	0.109	0.336
-326.143	41.543	0.653	0.587
-325.129	-200.000	-0.056	0.336
-324.114	800.000	-0.345	0.991
-323.099	800.000	-0.141	0.593
-322.085	37.030	-0.519	0.457
-321.070	800.000	0.170	0.726
-320.056	-91.105	0.497	-0.142
-319.041	-101.774	-0.536	-0.129
-318.026	-200.000	0.038	0.513
-317.012	104.828	0.282	0.331
-315.997	3.347	0.820	-0.593
-314.983	-100.623	-0.192	-0.047
-313.968	-91.236	0.650	-0.185
-312.953	-64.791	-0.889	-0.358
-311.939	-110.633	0.886	0.182
-310.924	80.851	0.228	0.244
-309.910	362.699	-0.320	0.637
-308.895	205.347	-0.102	0.157
-307.880	78.674	-0.339	0.360
-306.866	800.000	-0.179	-0.616
-305.851	54.096	-0.586	-0.560
-304.837	-200.000	0.095	-1.597
-303.822	-57.654	0.530	-0.231
-302.807	388.977	0.224	-0.461
-301.793	90.350	-0.522	-0.580
-300.778	513.835	-0.277	-0.642
-299.764	339.876	-0.347	-0.671
-298.749	9.925	-0.276	0.208
-297.735	-163.625	0.903	0.042
-296.720	185.430	0.449	-0.662
-295.705	800.000	-0.108	0.432
-294.691	-137.624	0.376	-0.042
-293.676	-13.203	0.438	0.283
-292.662	22.076	0.527	-0.427
-291.647	-139.360	-0.987	-0.105
-290.632	800.000	-0.194	0.659
-289.618	402.974	-0.197	-0.412
-288.603	606.964	0.129	-0.319
-287.589	190.072	0.325	0.484
-286.574	-200.000	0.019	0.638
-285.559	-200.000	0.120	0.961
-284.545	-122.158	-0.357	0.058
-283.530	-3.366	-0.746	0.515
-282.516	-128.595	-0.534	0.075
-281.501	18.724	0.511	0.406
-280.486	49.580	0.434	-0.405
-279.472	-60.453	0.235	0.099
-278.457	800.000	0.055	0.154
-277.443	76.492	-0.348	0.366
-276.428	800.000	0.079	-0.305
-275.413	68.214	-0.503	-0.511
-274.399	-131.604	0.518	-0.068
-273.384	38.720	-0.262	-0.232
-272.370	639.507	0.395	-0.996
-271.355	146.393	-0.564	0.751
-270.340	800.000	-0.189	0.595
-269.326	-200.000	-0.052	0.670
-268.311	356.411	-0.113	-0.223
-267.297	800.000	0.028	0.108
-266.282	95.160	0.437	-0.494
-265.267	-37.933	0.497	-0.262
-264.253	800.000	0.163	0.617
-263.238	800.000	0.082	-0.336
-262.224	591.542	0.110	-0.269
-261.209	85.667	-0.225	0.245
-260.195	220.479	-0.505	0.803
-259.180	-139.426	0.222	-0.024
-258.165	8.827	-0.097	0.073
-257.151	150.472	-0.203	-0.273
-256.136	110.341	-0.100	-0.119
-255.122	-63.398	-0.544	0.222
-254.107	-50.233	-0.329	0.154
-253.092	74.387	0.211	0.220
-252.078	4.004	0.265	0.192
-251.063	262.464	-0.256	0.440
-250.049	-200.000	0.026	-0.288
-249.034	-139.660	-0.540	-0.057
-248.019	-23.740	0.145	-0.086
-247.005	-200.000	-0.098	0.577
-245.990	-120.015	-0.535	0.091
-244.976	213.177	0.214	0.336
-243.961	800.000	0.087	0.331
-242.946	800.000	0.252	-0.717
-241.932	147.029	-0.244	0.325
-240.917	575.874	0.085	0.205
-239.903	125.722	-0.248	0.311
-238.888	-200.000	-0.068	0.449
-237.873	175.985	0.305	-0.438
-236.859	-53.525	-0.405	0.184
-235.844	800.000	-0.057	0.226
-234.830	522.838	0.174	0.405
-233.815	800.000	-0.205	0.665
-232.800	800.000	-0.248	-0.808
-231.786	-200.000	0.008	0.898
-230.771	-200.000	0.162	-0.764
-229.757	424.533	0.192	-0.408
-228.742	129.793	-0.460	0.583
-227.727	-17.161	-0.133	-0.083
-226.713	-145.018	0.372	-0.034
-225.698	800.000	0.160	0.600
-224.684	-200.000	0.035	-0.261
-223.669	-200.000	0.010	0.495
-222.655	106.415	-0.426	0.500
-221.640	-150.533	-0.408	0.031
-220.625	800.000	-0.179	-0.703
-219.611	-26.970	0.271	-0.157
-218.596	-3.121	0.085	-0.059
-217.582	-200.000	-0.089	-0.400
-216.567	-200.000	-0.091	0.788
-215.552	241.621	-0.078	-0.129
-214.538	740.224	-0.393	1.045
-213.523	140.441	0.209	-0.274
-212.509	-200.000	-0.034	-0.386
-211.494	-100.523	-1.035	-0.253
-210.479	-200.000	0.165	0.736
-209.465	-200.000	0.147	-0.783
-208.450	51.782	0.289	-0.272
-207.436	800.000	-0.201	0.777
-206.421	89.357	-0.219	0.242
-205.406	616.826	-0.211	-0.523
-204.392	-38.523	-0.393	-0.206
-203.377	-200.000	-0.051	0.287
-202.363	17.595	0.130	0.102
-201.348	4.217	0.599	-0.434
-200.333	-200.000	-0.001	-0.423
-199.319	-114.861	0.730	-0.138
-198.304	-117.128	0.361	-0.065
-197.290	-200.000	-0.005	-0.287
-196.275	52.927	0.376	0.356
-195.260	800.000	0.150	0.610
-194.246	72.317	0.356	0.366
-193.231	123.689	-0.222	0.275
-192.217	84.832	-0.684	-0.741
-191.202	4.001	-0.751	0.543
-190.187	-160.985	0.325	0.017
-189.173	68.219	-0.346	-0.350
-188.158	11.914	-0.466	-0.354
-187.144	-5.309	-0.640	0.435
-186.129	-0.344	0.213	0.150
-185.114	-115.056	0.246	0.046
-184.100	-82.700	0.838	0.268
-183.085	300.758	0.424	0.773
-182.071	-28.606	0.788	-0.449
-181.056	-200.000	0.042	0.537
-180.042	414.904	-0.112	0.235
-179.027	50.383	-0.300	-0.281
-178.012	-156.817	-0.377	-0.023
-176.998	282.530	0.235	-0.417
-175.983	-200.000	-0.008	0.170
-174.969	675.405	0.149	0.382
-173.954	-200.000	0.038	-0.226
-172.939	-125.974	0.731	0.109
-171.925	79.400	0.268	0.284
-170.910	462.759	0.105	0.232
-169.896	47.709	-0.073	-0.067
-168.881	-5.930	-0.542	-0.366
-167.866	133.502	-0.405	-0.518
-166.852	43.763	-0.194	0.176
-165.837	-131.896	-0.326	-0.042
-164.823	8.472	-0.254	-0.189
-163.808	-200.000	0.090	-1.506
-162.793	-200.000	-0.004	-0.447
-161.779	-120.232	0.681	0.115
-160.764	-4.545	0.329	-0.224
-159.750	658.864	0.176	-0.447
-158.735	523.556	-0.061	-0.142
-157.720	315.360	0.021	-0.040
-156.706	-200.000	-0.047	0.485
-155.691	-95.522	0.667	-0.177
-154.677	-3.020	-0.468	0.323
-153.662	48.504	0.406	0.376
-152.647	-17.135	-0.100	0.062
-151.633	-37.382	-0.086	0.045
-150.618	491.811	-0.385	0.871
-149.604	-85.508	-0.866	-0.266
-148.589	-143.288	-0.390	-0.037
-147.574	511.476	0.343	0.788
-146.560	800.000	-0.147	0.416
-145.545	687.836	0.262	-0.675
-144.531	-6.214	-0.155	-0.105
-143.516	169.136	0.104	0.146
-142.502	-193.890	-0.250	-0.002
-141.487	-7.364	0.376	0.251
-140.472	-24.861	-0.184	0.108
-139.458	-100.463	0.254	-0.062
-138.443	-69.248	-0.186	-0.071
-137.429	-200.000	-0.040	0.300
-136.414	-195.055	0.546	0.004
-135.399	-57.701	-0.477	0.206
-134.385	26.641	0.344	-0.285
-133.370	168.756	0.476	-0.669
-132.356	620.385	-0.212	0.527
-131.341	-140.212	0.795	-0.082
-130.326	306.869	0.142	-0.261
-129.312	182.123	-0.184	-0.268
-128.297	8.804	0.075	0.056
-127.283	-30.782	1.015	-0.566
-126.268	-35.687	0.214	-0.115
-125.253	269.327	0.331	-0.574
-124.239	-86.332	-0.527	-0.160
-123.224	2.548	-0.166	-0.118
-122.210	-164.378	0.675	0.030
