DTS Sentinel unit serial number:	SN413079Multiplexer serial number:	ORYXHardware model number:	OX4-SRSoftware version number:	ORYX F/W v4.00 Oryx Data Collector v3.7.2.0data status	okinstallation	princeton_trtdifferential loss correction	single-endedforward channel	channel 1reverse channel	N/Adate	2019/09/18time	03:30:35forward acquisition time	60.00reverse acquisition time	0.00gamma	496.2192k internal	0.2341k external	0.2341temperature offset calibration	0.9973default loss term (dB/km)	0.3790temperature slope calibration	1.0000multiplexer offset coefficient	1.0000multiplexer slope coefficient	1.0000fibre end	0.00T internal ref (°C)	22.81T ext. ref 1 (°C)	0.17T ext. ref 2 (°C)	17.48length (m)	temperature (°C)	Stokes	anti-Stokes-747.200	-200.000	-0.021	0.207
-746.185	-118.688	-0.293	0.052
-745.171	-200.000	0.044	0.547
-744.156	-159.745	-0.318	-0.018
-743.142	330.129	-0.075	0.144
-742.127	701.014	0.039	-0.103
-741.112	-3.926	-0.348	0.242
-740.098	-200.000	-0.038	-0.190
-739.083	800.000	0.005	-0.014
-738.069	-107.146	-0.333	0.074
-737.054	-200.000	-0.021	0.381
-736.039	800.000	0.059	-0.255
-735.025	256.101	-0.113	0.195
-734.010	125.290	-0.176	-0.222
-732.996	145.123	-0.120	-0.161
-731.981	2.979	-0.280	0.204
-730.966	800.000	0.136	-0.444
-729.952	0.606	-0.278	-0.199
-728.937	-200.000	0.007	-0.148
-727.923	-135.451	-0.333	0.040
-726.908	-200.000	-0.030	-0.340
-725.894	118.584	-0.062	-0.077
-724.879	800.000	-0.005	-0.013
-723.864	181.720	-0.171	0.253
-722.850	-200.000	-0.028	0.161
-721.835	-13.641	0.111	-0.072
-720.821	17.173	-0.071	-0.057
-719.806	430.804	-0.130	-0.282
-718.791	-139.415	-0.176	0.019
-717.777	485.421	-0.081	0.185
-716.762	-200.000	-0.017	0.282
-715.748	-43.611	0.138	0.070
-714.733	-200.000	-0.006	-0.096
-713.718	-146.528	-0.335	0.029
-712.704	-19.730	-0.217	-0.134
-711.689	-79.896	0.190	-0.064
-710.675	166.839	-0.123	0.174
-709.660	164.709	-0.047	0.067
-708.645	-130.793	-0.315	-0.042
-707.631	289.586	0.041	-0.074
-706.616	68.301	0.233	-0.239
-705.602	-61.879	-0.100	0.042
-704.587	124.206	0.135	0.170
-703.572	-87.940	-0.162	0.049
-702.558	788.259	0.092	-0.252
-701.543	-200.000	0.008	-0.064
-700.529	-73.962	-0.324	-0.118
-699.514	800.000	0.052	-0.220
-698.499	-200.000	-0.010	-0.194
-697.485	-200.000	-0.010	-0.220
-696.470	94.762	-0.164	-0.187
-695.456	-28.862	-0.021	-0.012
-694.441	-37.590	-0.353	0.188
-693.426	129.996	0.186	-0.238
-692.412	5.193	0.083	0.061
-691.397	254.020	-0.079	-0.135
-690.383	-50.657	0.299	-0.141
-689.368	-200.000	0.065	0.298
-688.354	-25.935	-0.107	0.063
-687.339	-14.738	0.187	-0.120
-686.324	800.000	-0.128	0.455
-685.310	241.504	0.194	0.324
-684.295	-62.522	-0.139	0.058
-683.281	3.071	-0.170	0.124
-682.266	800.000	-0.071	-0.310
-681.251	35.353	0.197	-0.172
-680.237	25.804	-0.209	0.174
-679.222	-200.000	0.030	0.227
-678.208	-200.000	-0.003	-0.230
-677.193	575.761	-0.088	-0.215
-676.178	-91.586	-0.369	0.105
-675.164	800.000	-0.036	-0.122
-674.149	-126.770	0.055	0.008
-673.135	800.000	-0.047	-0.175
-672.120	122.957	-0.153	-0.192
-671.105	-83.662	0.106	0.034
-670.091	-9.105	0.309	-0.207
-669.076	48.826	-0.295	-0.276
-668.062	6.060	-0.212	0.157
-667.047	-128.196	0.136	-0.019
-666.032	-101.440	-0.115	-0.028
-665.018	800.000	-0.073	-0.232
-664.003	132.829	0.081	-0.105
-662.989	-23.100	-0.005	0.003
-661.974	137.431	-0.091	-0.119
-660.959	800.000	0.081	0.247
-659.945	-74.697	0.180	-0.065
-658.930	800.000	-0.116	-0.369
-657.916	-155.955	0.272	-0.017
-656.901	187.105	-0.139	-0.207
-655.886	800.000	0.032	-0.095
-654.872	17.799	-0.130	-0.103
-653.857	-60.490	-0.222	-0.094
-652.843	-53.121	-0.336	-0.154
-651.828	89.610	-0.035	-0.040
-650.814	800.000	0.080	-0.315
-649.799	186.349	-0.188	-0.279
-648.784	-131.293	-0.086	0.011
-647.770	-55.880	-0.241	0.107
-646.755	800.000	-0.094	0.290
-645.741	718.296	0.172	0.456
-644.726	800.000	-0.060	0.197
-643.711	-200.000	0.017	-0.087
-642.697	-124.133	0.432	0.068
-641.682	610.942	0.134	-0.334
-640.668	-179.744	-0.312	-0.007
-639.653	280.803	0.099	-0.177
-638.638	-117.067	0.264	0.048
-637.624	186.605	0.102	0.152
-636.609	-200.000	0.051	-0.439
-635.595	182.737	0.086	0.127
-634.580	81.890	-0.247	-0.267
-633.565	-87.747	-0.475	0.143
-632.551	70.074	0.012	-0.012
-631.536	228.104	0.157	0.255
-630.522	520.147	0.034	-0.080
-629.507	-83.853	0.273	0.087
-628.492	376.918	0.139	-0.283
-627.478	-200.000	0.036	0.254
-626.463	-133.805	0.225	0.028
-625.449	-54.051	-0.193	0.088
-624.434	-50.563	0.387	-0.182
-623.419	555.903	0.062	-0.149
-622.405	144.200	-0.134	0.179
-621.390	-200.000	-0.021	0.093
-620.376	301.213	-0.126	-0.232
-619.361	-200.000	0.047	0.322
-618.346	800.000	-0.066	-0.234
-617.332	232.315	-0.109	-0.179
-616.317	-200.000	0.006	-0.189
-615.303	-66.135	0.103	-0.041
-614.288	-200.000	-0.051	0.330
-613.273	209.368	0.116	0.181
-612.259	134.389	0.112	0.145
-611.244	133.450	-0.225	-0.290
-610.230	-77.917	0.237	0.082
-609.215	684.262	0.049	-0.127
-608.201	-108.423	0.312	-0.067
-607.186	-137.462	-0.273	0.031
-606.171	-200.000	-0.070	-0.541
-605.157	-200.000	0.017	0.285
-604.142	-183.410	-0.340	0.006
-603.128	200.600	-0.137	-0.211
-602.113	237.783	0.031	0.051
-601.098	800.000	0.022	0.079
-600.084	3.776	0.212	-0.154
-599.069	56.248	-0.293	-0.283
-598.055	-131.394	0.298	0.039
-597.040	230.242	0.071	-0.115
-596.025	-175.862	0.136	-0.004
-595.011	-166.131	-0.176	-0.007
-593.996	-151.622	0.132	-0.010
-592.982	121.707	0.204	-0.253
-591.967	-200.000	0.017	-0.127
-590.952	-70.505	0.097	-0.037
-589.938	-83.802	-0.063	-0.020
-588.923	-200.000	-0.009	-0.187
-587.909	215.670	0.160	0.254
-586.894	-200.000	0.036	0.371
-585.879	-200.000	-0.004	0.069
-584.865	800.000	0.074	0.237
-583.850	211.895	-0.066	-0.104
-582.836	-200.000	-0.003	-0.274
-581.821	800.000	-0.033	0.126
-580.806	42.435	0.120	0.109
-579.792	461.967	0.139	-0.309
-578.777	15.759	0.032	-0.025
-577.763	-200.000	-0.404	-0.002
-576.748	93.428	-0.258	-0.291
-575.733	374.517	-0.126	0.256
-574.719	-81.531	-0.081	-0.026
-573.704	87.988	-0.031	0.034
-572.690	75.976	-0.163	0.172
-571.675	-173.324	-0.155	0.005
-570.661	139.902	0.217	-0.284
-569.646	-70.445	0.079	0.030
-568.631	26.464	0.242	-0.201
-567.617	-124.689	-0.482	0.074
-566.602	4.453	0.066	-0.048
-565.588	800.000	-0.056	0.171
-564.573	36.141	0.033	0.029
-563.558	138.163	-0.116	-0.151
-562.544	-200.000	0.010	-0.117
-561.529	57.148	-0.047	0.046
-560.515	-200.000	-0.049	-0.356
-559.500	800.000	-0.078	0.311
-558.485	23.055	-0.175	-0.143
-557.471	-116.780	-0.306	-0.056
-556.456	-200.000	0.039	-0.206
-555.442	50.728	-0.148	-0.139
-554.427	-200.000	-0.035	-0.250
-553.412	120.989	-0.096	-0.119
-552.398	183.033	-0.141	-0.207
-551.383	-154.234	0.563	-0.038
-550.369	41.532	-0.121	-0.109
-549.354	124.415	-0.191	-0.239
-548.339	65.335	-0.226	-0.228
-547.325	-141.850	-0.178	-0.018
-546.310	-86.283	-0.144	-0.044
-545.296	-46.207	-0.332	-0.162
-544.281	33.701	0.189	-0.164
-543.266	-200.000	0.002	-0.203
-542.252	-125.684	0.229	0.034
-541.237	-108.555	0.356	-0.076
-540.223	305.603	-0.086	0.159
-539.208	20.030	-0.195	0.157
-538.193	199.312	-0.058	0.088
-537.179	766.446	0.033	-0.089
-536.164	-8.571	-0.303	0.202
-535.150	-161.016	0.363	-0.019
-534.135	-46.292	-0.204	0.100
-533.121	800.000	-0.062	-0.236
-532.106	-67.093	0.281	-0.110
-531.091	-200.000	0.023	-0.289
-530.077	-85.330	0.315	0.098
-529.062	-40.660	-0.047	-0.024
-528.048	443.670	-0.101	0.221
-527.033	84.341	0.126	0.137
-526.018	800.000	0.097	0.348
-525.004	-45.766	-0.219	-0.108
-523.989	-74.860	-0.330	-0.118
-522.975	156.636	0.079	-0.108
-521.960	67.320	-0.285	-0.289
-520.945	133.750	0.050	0.065
-519.931	800.000	-0.030	-0.119
-518.916	-200.000	-0.067	0.305
-517.902	352.201	0.121	0.239
-516.887	5.685	-0.137	-0.101
-515.872	-200.000	-0.000	0.119
-514.858	-162.141	-0.171	-0.009
-513.843	800.000	0.097	-0.382
-512.829	50.131	-0.118	0.111
-511.814	144.656	0.247	0.327
-510.799	-200.000	0.047	-0.219
-509.785	-157.723	-0.427	-0.025
-508.770	-118.011	0.178	-0.032
-507.756	79.363	0.052	-0.056
-506.741	299.799	-0.178	0.326
-505.726	-72.650	0.331	0.121
-504.712	-200.000	-0.234	-0.001
-503.697	-200.000	-0.005	-0.143
-502.683	-35.586	0.057	-0.031
-501.668	-200.000	-0.005	0.118
-500.653	-200.000	-0.061	-0.324
-499.639	-105.067	-0.200	-0.045
-498.624	379.751	-0.168	0.341
-497.610	800.000	0.050	-0.172
-496.595	800.000	-0.074	-0.272
-495.581	-200.000	0.051	-0.557
-494.566	-103.610	0.273	0.064
-493.551	-91.520	0.322	-0.091
-492.537	800.000	-0.138	0.440
-491.522	4.051	-0.110	-0.080
-490.508	7.898	-0.121	-0.090
-489.493	-164.503	-0.253	-0.011
-488.478	-200.000	0.037	-0.450
-487.464	142.729	-0.080	-0.105
-486.449	-82.399	0.146	-0.047
-485.435	-92.649	-0.239	0.066
-484.420	800.000	0.027	-0.101
-483.405	-43.524	0.233	0.117
-482.391	76.528	-0.064	-0.068
-481.376	116.838	0.102	0.124
-480.362	38.131	0.248	-0.219
-479.347	-200.000	0.014	-0.140
-478.332	492.952	-0.139	0.316
-477.318	-200.000	-0.017	-0.426
-476.303	-127.923	0.127	0.018
-475.289	33.815	-0.055	0.048
-474.274	-200.000	-0.022	0.211
-473.259	-200.000	0.032	-0.349
-472.245	-14.174	0.199	0.127
-471.230	-200.000	0.058	-0.449
-470.216	-2.442	0.202	0.140
-469.201	-140.983	-0.301	0.031
-468.186	65.567	0.100	0.100
-467.172	164.236	-0.137	0.192
-466.157	527.863	0.101	0.237
-465.143	-164.326	-0.216	-0.010
-464.128	-167.847	0.395	0.015
-463.113	94.079	-0.199	-0.224
-462.099	-63.559	0.170	0.069
-461.084	-200.000	-0.028	-0.342
-460.070	6.577	-0.081	-0.060
-459.055	-102.559	-0.319	-0.075
-458.040	-200.000	-0.001	-0.051
-457.026	-200.000	-0.007	0.083
-456.011	-182.931	0.204	-0.004
-454.997	800.000	0.020	0.066
-453.982	-200.000	-0.026	-0.124
-452.968	-80.508	-0.128	-0.042
-451.953	-117.222	-0.355	-0.064
-450.938	75.061	-0.028	-0.029
-449.924	288.406	-0.210	0.378
-448.909	-52.398	-0.211	-0.097
-447.895	-200.000	0.029	-0.469
-446.880	-88.097	-0.031	-0.009
-445.865	-200.000	0.032	0.223
-444.851	378.345	0.070	-0.142
-443.836	229.546	0.067	-0.109
-442.822	-7.957	-0.046	0.031
-441.807	51.238	0.063	0.059
-440.792	-96.541	0.424	0.111
-439.778	345.330	0.182	-0.354
-438.763	364.243	-0.067	-0.133
-437.749	-200.000	0.010	0.388
-436.734	263.162	-0.179	-0.307
-435.719	-200.000	0.037	0.343
-434.705	-187.487	-0.494	-0.007
-433.690	-200.000	-0.001	0.295
-432.676	-200.000	0.053	0.356
-431.661	18.561	0.078	0.062
-430.646	634.440	0.138	0.346
-429.632	10.767	-0.353	0.267
-428.617	-29.008	0.111	0.063
-427.603	291.614	0.117	-0.212
-426.588	187.633	-0.187	0.276
-425.573	368.298	0.047	-0.094
-424.559	67.974	0.161	0.163
-423.544	-200.000	-0.021	0.424
-422.530	-200.000	0.069	0.388
-421.515	-91.452	0.185	-0.052
-420.500	-200.000	-0.020	0.477
-419.486	65.457	-0.250	0.251
-418.471	112.648	0.206	0.247
-417.457	72.715	-0.198	0.204
-416.442	-200.000	-0.034	-0.324
-415.428	-99.151	0.378	-0.095
-414.413	-200.000	0.030	-0.360
-413.398	-166.739	0.297	0.012
-412.384	97.799	-0.261	-0.297
-411.369	-57.831	-0.112	-0.048
-410.355	-162.234	0.183	0.009
-409.340	-95.787	0.340	0.090
-408.325	-116.621	-0.238	-0.043
-407.311	-169.198	-0.072	0.003
-406.296	-200.000	0.065	-0.383
-405.282	-123.417	-0.361	-0.057
-404.267	-84.380	0.372	-0.116
-403.252	56.434	-0.160	0.154
-402.238	110.091	-0.072	-0.086
-401.223	-88.908	0.400	0.117
-400.209	57.064	-0.190	0.183
-399.194	320.824	-0.126	0.237
-398.179	-54.923	0.370	0.165
-397.165	-199.229	-0.131	0.001
-396.150	-67.842	0.058	0.023
-395.136	-145.069	0.041	0.004
-394.121	-200.000	0.006	-0.080
-393.106	440.411	-0.132	-0.286
-392.092	48.720	0.106	-0.099
-391.077	-19.215	-0.260	0.160
-390.063	-200.000	-0.021	-0.213
-389.048	528.334	0.148	-0.345
-388.033	-123.106	0.293	0.047
-387.019	-146.701	0.251	-0.021
-386.004	-63.644	-0.255	-0.103
-384.990	127.893	0.145	0.182
-383.975	116.406	0.288	0.349
-382.960	-93.075	-0.267	0.074
-381.946	-200.000	0.009	0.186
-380.931	-17.926	0.517	0.320
-379.917	57.913	0.169	0.163
-378.902	99.560	-0.190	0.217
-377.888	57.434	-0.147	-0.142
-376.873	-200.000	0.020	0.330
-375.858	-121.541	-0.207	0.034
-374.844	-200.000	0.013	-0.101
-373.829	30.027	0.163	-0.138
-372.815	-200.000	0.011	0.225
-371.800	-104.348	-0.139	0.032
-370.785	-200.000	-0.284	0.001
-369.771	24.449	-0.173	0.141
-368.756	20.058	-0.109	-0.087
-367.742	800.000	0.070	-0.198
-366.727	143.411	-0.169	-0.222
-365.712	-33.044	-0.078	-0.043
-364.698	-142.851	0.128	0.012
-363.683	27.653	-0.096	0.080
-362.669	144.650	-0.202	0.266
-361.654	560.108	-0.178	0.426
-360.639	-167.359	0.072	-0.003
-359.625	-200.000	-0.012	-0.070
-358.610	-200.000	-0.015	-0.249
-357.596	234.840	0.105	-0.170
-356.581	133.989	-0.163	0.208
-355.566	-200.000	-0.012	-0.203
-354.552	-200.000	-0.119	0.001
-353.537	800.000	0.057	0.202
-352.523	-28.496	-0.119	0.068
-351.508	-66.176	-0.077	-0.030
-350.493	-90.448	0.028	-0.008
-349.479	8.540	0.243	0.181
-348.464	-19.051	-0.504	-0.309
-347.450	-16.029	0.110	-0.069
-346.435	23.044	-0.087	0.070
-345.420	760.165	0.114	-0.305
-344.406	-70.137	-0.207	-0.078
-343.391	-96.608	0.198	-0.052
-342.377	-97.925	0.339	-0.086
-341.362	146.943	-0.158	-0.210
-340.348	-200.000	-0.004	-0.414
-339.333	368.076	0.107	-0.214
-338.318	138.965	0.224	0.291
-337.304	200.539	-0.095	-0.144
-336.289	157.071	-0.078	-0.106
-335.275	-79.860	0.158	-0.052
-334.260	102.368	-0.176	-0.203
-333.245	72.058	-0.069	-0.071
-332.231	224.535	0.186	-0.297
-331.216	-115.555	-0.214	0.040
-330.202	206.626	0.131	-0.201
-329.187	270.414	0.028	0.049
-328.172	413.917	-0.107	0.224
-327.158	-143.841	-0.190	0.018
-326.143	540.453	-0.120	-0.281
-325.129	-200.000	-0.018	-0.113
-324.114	-36.494	-0.236	-0.125
-323.099	-200.000	0.058	0.379
-322.085	334.200	-0.173	-0.330
-321.070	233.607	-0.078	-0.127
-320.056	-135.183	-0.190	-0.022
-319.041	800.000	0.034	-0.110
-318.026	499.460	0.237	0.539
-317.012	372.483	0.253	0.506
-315.997	-200.000	-0.084	0.398
-314.983	423.551	-0.110	-0.233
-313.968	-63.823	-0.233	0.094
-312.953	800.000	-0.074	0.310
-311.939	-74.972	0.201	0.071
-310.924	-200.000	0.030	-0.321
-309.910	-200.000	0.011	-0.267
-308.895	173.055	0.226	0.321
-307.880	-200.000	0.001	0.083
-306.866	-67.033	-0.110	0.043
-305.851	-200.000	-0.028	0.228
-304.837	183.704	0.198	-0.289
-303.822	-59.875	0.096	0.041
-302.807	140.613	-0.161	-0.210
-301.793	449.066	0.084	0.182
-300.778	29.002	0.121	-0.101
-299.764	-32.874	0.081	-0.044
-298.749	448.766	-0.133	-0.289
-297.735	-200.000	-0.012	0.117
-296.720	519.369	0.078	0.180
-295.705	-200.000	0.002	-0.247
-294.691	12.297	-0.228	-0.173
-293.676	109.079	-0.059	-0.069
-292.662	30.313	-0.093	0.078
-291.647	-131.942	-0.194	0.025
-290.632	-126.253	0.064	-0.009
-289.618	134.641	-0.226	0.288
-288.603	-97.260	-0.516	0.133
-287.589	-58.582	0.281	-0.120
-286.574	631.228	0.174	0.434
-285.559	28.079	-0.113	0.094
-284.545	652.939	-0.209	0.528
-283.530	800.000	0.028	-0.097
-282.516	-65.140	0.322	0.128
-281.501	-53.321	0.283	-0.128
-280.486	-114.300	0.451	-0.086
-279.472	67.820	-0.039	0.039
-278.457	-25.669	-0.106	-0.062
-277.443	800.000	-0.061	-0.196
-276.428	-200.000	0.026	-0.127
-275.413	382.766	-0.042	0.085
-274.399	102.481	0.015	0.018
-273.384	800.000	-0.087	0.331
-272.370	-186.052	0.298	-0.004
-271.355	-120.864	0.302	0.050
-270.340	-200.000	0.025	0.167
-269.326	-50.874	-0.084	0.039
-268.311	-128.616	0.066	0.009
-267.297	-66.525	0.068	0.026
-266.282	-24.698	-0.168	-0.098
-265.267	-115.546	0.285	-0.053
-264.253	-91.546	-0.264	0.074
-263.238	-200.000	0.053	-0.358
-262.224	-200.000	0.017	-0.127
-261.209	-200.000	-0.032	-0.327
-260.195	543.471	0.073	0.170
-259.180	-200.000	-0.013	0.142
-258.165	-6.929	-0.152	-0.101
-257.151	-45.291	0.210	-0.102
-256.136	222.774	-0.081	0.128
-255.122	-200.000	-0.022	0.419
-254.107	800.000	0.088	0.270
-253.092	-117.450	-0.090	-0.016
-252.078	41.115	0.019	-0.017
-251.063	92.725	-0.104	0.115
-250.049	146.099	-0.159	0.209
-249.034	18.778	0.149	0.117
-248.019	800.000	0.106	-0.361
-247.005	153.117	0.200	-0.269
-245.990	50.387	-0.142	0.132
-244.976	203.115	-0.166	0.252
-243.961	-200.000	0.043	0.247
-242.946	-158.096	-0.313	0.018
-241.932	-100.075	-0.222	-0.054
-240.917	-48.613	0.119	-0.056
-239.903	800.000	-0.024	0.091
-238.888	-112.542	-0.132	0.026
-237.873	800.000	0.132	0.405
-236.859	800.000	0.024	-0.072
-235.844	-200.000	0.018	0.181
-234.830	-124.320	-0.428	0.066
-233.815	174.156	0.145	0.206
-232.800	358.574	-0.069	0.135
-231.786	-9.836	-0.053	0.034
-230.771	14.282	-0.155	-0.119
-229.757	54.367	-0.192	-0.182
-228.742	82.581	0.096	-0.103
-227.727	-200.000	-0.004	0.246
-226.713	-63.243	0.114	0.046
-225.698	363.393	0.070	-0.139
-224.684	747.713	0.120	0.317
-223.669	3.126	-0.178	-0.127
-222.655	-200.000	0.070	-0.353
-221.640	177.164	-0.050	0.071
-220.625	200.847	0.152	0.230
-219.611	-52.223	0.117	0.053
-218.596	102.586	-0.068	-0.079
-217.582	515.281	0.088	-0.201
-216.567	274.434	0.062	-0.108
-215.552	800.000	0.037	-0.141
-214.538	205.006	-0.036	-0.055
-213.523	-200.000	0.073	0.526
-212.509	800.000	0.084	0.228
-211.494	681.198	-0.063	0.160
-210.479	100.019	-0.099	0.112
-209.465	800.000	0.062	-0.173
-208.450	98.522	0.143	0.162
-207.436	-190.991	0.421	-0.004
-206.421	-101.645	-0.559	0.133
-205.406	114.168	-0.125	-0.149
-204.392	800.000	0.105	-0.325
-203.377	173.028	-0.201	-0.285
-202.363	82.615	0.191	0.204
-201.348	50.703	0.337	0.313
-200.333	-200.000	-0.010	0.075
-199.319	482.725	0.063	-0.141
-198.304	530.438	0.070	0.162
-197.290	79.739	0.277	0.291
-196.275	-51.741	0.068	-0.031
-195.260	700.531	-0.017	-0.045
-194.246	-200.000	0.023	-0.275
-193.231	-78.837	0.041	-0.014
-192.217	-138.519	0.213	-0.023
-191.202	15.648	0.112	0.086
-190.187	49.336	0.070	-0.065
-189.173	-77.103	-0.398	0.136
-188.158	-71.940	0.226	-0.083
-187.144	-37.922	0.062	0.032
-186.129	67.087	-0.095	0.095
-185.114	-200.000	-0.009	-0.064
-184.100	-19.458	-0.259	-0.158
-183.085	-79.019	0.318	0.106
-182.071	4.332	0.367	-0.264
-181.056	14.787	0.141	-0.108
-180.042	-55.723	0.206	-0.090
-179.027	-200.000	0.013	-0.070
-178.012	-60.952	0.115	-0.048
-176.998	-12.059	0.124	0.080
-175.983	0.154	0.170	-0.119
-174.969	155.154	0.072	0.097
-173.954	-73.052	-0.075	0.027
-172.939	-200.000	0.004	0.405
-171.925	181.673	0.042	0.061
-170.910	136.041	0.034	0.043
-169.896	212.097	0.077	0.120
-168.881	-49.040	0.080	0.038
-167.866	284.438	-0.101	0.179
-166.852	-108.959	0.380	-0.079
-165.837	800.000	0.115	-0.322
-164.823	535.148	-0.022	0.052
-163.808	39.515	0.174	-0.153
-162.793	-200.000	-0.013	0.123
-161.779	485.522	-0.154	-0.344
-160.764	800.000	-0.092	0.270
-159.750	44.232	0.180	0.162
-158.735	-200.000	0.011	-0.051
-157.720	19.311	-0.363	-0.285
-156.706	65.313	0.244	0.242
-155.691	113.764	-0.180	0.214
-154.677	-109.182	0.099	-0.021
-153.662	-200.000	-0.000	-0.066
-152.647	1.456	0.033	0.023
-151.633	-121.941	-0.141	0.023
-150.618	-200.000	0.009	-0.055
-149.604	-200.000	-0.021	0.227
-148.589	800.000	0.038	-0.125
-147.574	456.310	0.023	0.050
-146.560	48.291	-0.028	-0.026
-145.545	-154.479	-0.191	-0.013
-144.531	73.303	0.225	-0.230
-143.516	-96.678	-0.107	-0.028
-142.502	17.638	0.091	-0.071
-141.487	29.462	-0.230	0.191
-140.472	789.569	-0.026	0.071
-139.458	-111.768	0.092	0.018
-138.443	232.603	-0.155	0.249
-137.429	-109.946	0.025	0.005
-136.414	-64.280	0.307	-0.122
-135.399	-3.912	0.313	-0.213
-134.385	75.808	-0.062	-0.064
-133.370	-93.227	-0.214	-0.058
-132.356	329.274	-0.179	-0.336
-131.341	-200.000	0.004	-0.122
-130.326	726.351	0.047	0.123
-129.312	-200.000	-0.009	0.099
-128.297	800.000	-0.076	0.267
-127.283	23.551	0.087	-0.070
-126.268	-74.134	-0.026	0.009
-125.253	6.098	-0.048	0.035
-124.239	-108.082	-0.120	0.026
-123.224	-200.000	0.007	-0.226
-122.210	73.913	0.061	0.063
