DTS Sentinel unit serial number:	SN413079Multiplexer serial number:	ORYXHardware model number:	OX4-SRSoftware version number:	ORYX F/W v4.00 Oryx Data Collector v3.7.2.0data status	okinstallation	princeton_trtdifferential loss correction	single-endedforward channel	channel 1reverse channel	N/Adate	2019/09/16time	03:26:35forward acquisition time	60.00reverse acquisition time	0.00gamma	496.2192k internal	0.2330k external	0.2330temperature offset calibration	0.9982default loss term (dB/km)	0.3790temperature slope calibration	1.0000multiplexer offset coefficient	1.0000multiplexer slope coefficient	1.0000fibre end	0.00T internal ref (°C)	27.69T ext. ref 1 (°C)	10.55T ext. ref 2 (°C)	21.81length (m)	temperature (°C)	Stokes	anti-Stokes-747.200	-74.051	0.164	0.060
-746.185	-105.749	-0.299	-0.068
-745.171	80.398	0.223	-0.242
-744.156	-125.912	0.050	0.008
-743.142	-101.241	0.452	0.111
-742.127	-200.000	-0.006	-0.262
-741.112	-64.780	-0.161	-0.066
-740.098	-14.823	-0.304	0.196
-739.083	-122.460	0.190	0.031
-738.069	-175.323	-0.333	0.009
-737.054	-54.775	-0.333	-0.151
-736.039	-142.587	-0.187	0.018
-735.025	-117.789	0.257	-0.047
-734.010	-22.875	-0.265	0.161
-732.996	310.599	0.029	-0.054
-731.981	-25.836	-0.126	-0.075
-730.966	433.278	0.065	0.141
-729.952	615.153	-0.063	-0.158
-728.937	67.735	-0.073	-0.075
-727.923	-200.000	-0.036	0.204
-726.908	-148.101	-0.352	0.029
-725.894	800.000	0.040	-0.164
-724.879	-186.755	0.054	-0.001
-723.864	276.539	-0.039	-0.070
-722.850	-200.000	-0.046	-0.566
-721.835	-133.525	-0.325	0.041
-720.821	-200.000	-0.010	0.210
-719.806	272.085	-0.086	-0.153
-718.791	-97.754	-0.519	0.135
-717.777	225.767	-0.088	-0.144
-716.762	-71.880	0.059	0.022
-715.748	-79.800	-0.364	0.123
-714.733	-133.855	-0.200	-0.025
-713.718	-146.452	-0.164	0.014
-712.704	78.594	-0.131	-0.141
-711.689	-88.989	0.139	0.041
-710.675	30.174	-0.163	0.140
-709.660	-32.741	0.440	-0.246
-708.645	800.000	-0.042	-0.127
-707.631	-151.805	0.471	-0.035
-706.616	-130.570	-0.153	-0.021
-705.602	-200.000	-0.081	-0.453
-704.587	12.214	-0.268	-0.207
-703.572	-28.996	-0.315	-0.182
-702.558	-37.286	0.202	-0.109
-701.543	-200.000	-0.001	0.020
-700.529	-26.105	0.041	-0.024
-699.514	40.742	-0.187	0.170
-698.499	111.805	0.030	-0.036
-697.485	279.540	0.096	-0.172
-696.470	-53.243	0.283	0.130
-695.456	-83.670	-0.101	0.032
-694.441	695.724	-0.067	-0.176
-693.426	-7.626	0.239	-0.163
-692.412	-137.937	-0.189	0.021
-691.397	-176.669	-0.410	-0.011
-690.383	28.444	-0.055	-0.047
-689.368	313.494	-0.058	-0.109
-688.354	508.611	-0.165	-0.384
-687.339	-69.551	0.327	0.126
-686.324	800.000	0.065	0.242
-685.310	-90.473	-0.234	-0.068
-684.295	25.408	0.225	-0.188
-683.281	-159.659	-0.243	-0.014
-682.266	489.416	0.111	0.254
-681.251	800.000	-0.124	-0.348
-680.237	496.695	0.059	0.135
-679.222	-200.000	0.014	0.393
-678.208	757.658	-0.013	-0.035
-677.193	-98.493	0.235	0.060
-676.178	172.201	-0.077	0.111
-675.164	800.000	0.036	0.111
-674.149	710.417	-0.069	-0.183
-673.135	-16.517	-0.198	0.126
-672.120	-134.995	-0.258	-0.031
-671.105	-147.090	-0.301	-0.026
-670.091	-200.000	0.040	0.388
-669.076	-122.609	0.370	0.060
-668.062	-96.799	-0.187	-0.049
-667.047	-200.000	-0.008	-0.247
-666.032	-200.000	-0.045	0.282
-665.018	-17.288	0.242	-0.153
-664.003	557.962	-0.205	-0.495
-662.989	-40.385	0.303	-0.158
-661.974	110.155	-0.093	-0.113
-660.959	-135.035	-0.222	-0.027
-659.945	-125.722	-0.314	-0.048
-658.930	-200.000	0.034	-0.155
-657.916	-51.231	-0.298	-0.140
-656.901	-32.997	0.065	0.036
-655.886	389.540	0.146	-0.303
-654.872	-200.000	-0.006	-0.381
-653.857	-13.356	-0.173	0.113
-652.843	800.000	0.042	-0.175
-651.828	-200.000	-0.001	-0.361
-650.814	251.675	-0.246	-0.421
-649.799	-39.762	-0.200	0.105
-648.784	-200.000	-0.000	-0.004
-647.770	-54.635	0.195	-0.088
-646.755	14.412	0.219	0.172
-645.741	-184.002	-0.228	0.004
-644.726	86.230	0.088	-0.097
-643.711	-143.368	-0.224	0.022
-642.697	-200.000	-0.094	-0.507
-641.682	800.000	-0.034	-0.130
-640.668	532.084	0.090	-0.213
-639.653	152.100	0.062	-0.085
-638.638	-90.240	0.354	0.103
-637.624	759.373	0.018	0.049
-636.609	800.000	-0.058	0.179
-635.595	-200.000	0.047	0.215
-634.580	241.117	0.048	-0.080
-633.565	-89.705	-0.402	-0.118
-632.551	76.957	-0.166	-0.176
-631.536	319.819	-0.062	0.117
-630.522	382.372	-0.135	-0.279
-629.507	57.565	-0.191	0.187
-628.492	-45.898	0.247	-0.122
-627.478	92.076	0.049	-0.055
-626.463	800.000	-0.065	0.186
-625.449	149.894	-0.110	0.149
-624.434	-10.558	-0.117	0.078
-623.419	-19.230	-0.286	0.178
-622.405	45.201	0.002	-0.001
-621.390	-131.614	0.399	0.053
-620.376	70.401	-0.146	-0.151
-619.361	-37.554	0.201	-0.107
-618.346	-200.000	0.024	0.418
-617.332	-135.582	-0.179	-0.021
-616.317	209.904	0.038	0.059
-615.303	-26.638	-0.067	-0.039
-614.288	-26.205	0.137	-0.081
-613.273	-200.000	-0.153	-0.721
-612.259	613.493	-0.158	-0.396
-611.244	311.226	-0.165	0.311
-610.230	40.212	-0.214	0.193
-609.215	-200.000	-0.047	0.319
-608.201	-101.155	0.171	-0.042
-607.186	80.540	-0.090	-0.097
-606.171	-146.793	-0.081	0.007
-605.157	329.066	0.070	-0.134
-604.142	381.450	-0.188	-0.387
-603.128	-200.000	-0.011	0.109
-602.113	-115.077	0.169	-0.032
-601.098	-125.083	-0.234	0.036
-600.084	-161.149	-0.202	0.011
-599.069	198.841	0.064	0.098
-598.055	-71.429	0.264	-0.099
-597.040	-47.818	-0.054	-0.026
-596.025	-95.780	-0.446	-0.119
-595.011	-23.205	0.137	0.083
-593.996	-200.000	-0.001	-0.275
-592.982	-200.000	-0.016	0.302
-591.967	60.621	0.087	0.086
-590.952	40.421	0.073	-0.066
-589.938	4.609	0.048	0.035
-588.923	75.899	0.251	-0.266
-587.909	227.673	0.033	0.053
-586.894	681.903	-0.062	0.161
-585.879	-12.337	0.212	0.138
-584.865	-13.238	-0.152	0.099
-583.850	-200.000	-0.028	-0.310
-582.836	800.000	-0.079	-0.259
-581.821	79.055	0.208	-0.223
-580.806	-73.292	0.124	0.045
-579.792	-200.000	-0.015	0.193
-578.777	-56.092	-0.184	-0.082
-577.763	150.024	-0.175	-0.237
-576.748	-24.643	-0.159	0.095
-575.733	-135.872	-0.190	-0.022
-574.719	-200.000	0.005	0.393
-573.704	800.000	0.116	0.493
-572.690	79.534	-0.091	0.097
-571.675	-58.216	-0.107	-0.047
-570.661	-75.389	0.171	0.061
-569.646	571.774	-0.064	-0.155
-568.631	-103.940	-0.242	-0.056
-567.617	47.082	0.245	0.228
-566.602	-58.577	0.472	-0.205
-565.588	407.525	-0.088	-0.185
-564.573	38.006	-0.155	-0.138
-563.558	-104.573	0.191	0.044
-562.544	-75.666	0.276	-0.098
-561.529	-69.219	-0.167	-0.064
-560.515	78.547	0.127	-0.136
-559.500	800.000	0.090	0.281
-558.485	-78.787	0.181	0.062
-557.471	-64.563	-0.207	-0.084
-556.456	432.237	-0.113	-0.244
-555.442	-200.000	0.021	-0.122
-554.427	-130.092	-0.121	0.016
-553.412	334.951	0.153	0.297
-552.398	-200.000	0.005	0.379
-551.383	20.804	-0.160	-0.129
-550.369	172.909	-0.043	-0.062
-549.354	538.942	-0.131	0.312
-548.339	-15.980	0.136	-0.086
-547.325	-200.000	0.031	-0.156
-546.310	94.818	0.163	-0.185
-545.296	-200.000	-0.031	-0.222
-544.281	544.687	0.109	0.260
-543.266	-195.905	0.210	-0.001
-542.252	-200.000	-0.017	0.120
-541.237	-61.342	0.136	-0.057
-540.223	-200.000	0.006	-0.136
-539.208	48.638	-0.133	-0.124
-538.193	138.013	-0.023	0.031
-537.179	100.138	-0.050	0.057
-536.164	-169.798	0.152	0.005
-535.150	264.013	0.188	-0.327
-534.135	84.170	0.084	-0.091
-533.121	800.000	-0.113	-0.389
-532.106	-200.000	0.012	-0.071
-531.091	-35.125	0.199	0.108
-530.077	-200.000	-0.031	-0.283
-529.062	-69.660	0.151	-0.058
-528.048	-98.597	-0.222	0.057
-527.033	10.198	-0.326	0.248
-526.018	-91.688	-0.015	-0.004
-525.004	221.633	-0.036	-0.058
-523.989	-149.207	-0.131	-0.010
-522.975	800.000	-0.025	0.105
-521.960	154.965	0.073	0.100
-520.945	122.992	-0.081	0.101
-519.931	-200.000	-0.028	0.136
-518.916	143.155	0.278	0.369
-517.902	54.858	0.129	0.124
-516.887	122.795	-0.066	-0.082
-515.872	224.001	0.175	-0.282
-514.858	-8.194	-0.062	0.042
-513.843	214.632	0.166	-0.262
-512.829	236.538	0.137	0.227
-511.814	-79.485	0.215	0.072
-510.799	-7.742	0.226	-0.153
-509.785	-21.285	-0.210	-0.128
-508.770	-20.852	-0.153	0.094
-507.756	800.000	-0.038	0.143
-506.741	-80.913	0.078	0.026
-505.726	-74.534	0.255	-0.092
-504.712	800.000	0.090	-0.357
-503.697	-200.000	-0.060	-0.275
-502.683	156.757	0.090	-0.124
-501.668	46.143	0.135	-0.125
-500.653	800.000	0.083	0.298
-499.639	204.686	0.111	-0.172
-498.624	34.999	-0.070	0.061
-497.610	-63.756	0.176	-0.072
-496.595	16.404	-0.024	-0.019
-495.581	-200.000	0.003	0.166
-494.566	-200.000	0.029	-0.513
-493.551	800.000	-0.018	0.057
-492.537	-200.000	-0.076	-0.507
-491.522	-92.871	0.122	-0.034
-490.508	-85.296	-0.471	0.147
-489.493	-31.940	0.140	-0.078
-488.478	-93.866	0.171	0.047
-487.464	-102.350	-0.249	-0.060
-486.449	92.945	-0.115	-0.130
-485.435	-54.205	0.145	0.066
-484.420	57.275	0.287	-0.279
-483.405	729.513	0.028	-0.075
-482.391	-200.000	-0.003	0.286
-481.376	800.000	-0.071	0.224
-480.362	238.889	0.092	0.152
-479.347	228.140	0.108	-0.175
-478.332	-68.909	-0.334	-0.128
-477.318	-36.135	-0.313	0.169
-476.303	-11.374	0.131	-0.086
-475.289	-22.533	-0.168	0.101
-474.274	-117.502	0.032	-0.006
-473.259	800.000	-0.090	0.323
-472.245	275.154	0.108	0.190
-471.230	42.474	-0.144	-0.130
-470.216	-44.721	-0.184	-0.091
-469.201	429.458	0.115	-0.247
-468.186	366.887	-0.040	0.081
-467.172	-139.240	0.173	-0.019
-466.157	-31.519	-0.209	-0.117
-465.143	-47.865	-0.116	-0.056
-464.128	183.195	-0.170	0.249
-463.113	123.225	-0.194	0.242
-462.099	191.172	-0.224	0.336
-461.084	-155.099	0.014	-0.001
-460.070	800.000	-0.052	0.164
-459.055	233.465	0.084	0.138
-458.040	-39.742	0.316	-0.164
-457.026	-200.000	0.073	0.318
-456.011	360.344	0.081	0.161
-454.997	800.000	-0.045	-0.136
-453.982	-200.000	0.039	0.546
-452.968	464.680	-0.087	0.193
-451.953	-92.598	0.241	0.067
-450.938	20.022	-0.295	0.236
-449.924	289.804	0.083	-0.149
-448.909	-200.000	-0.342	-0.001
-447.895	-200.000	0.035	-0.346
-446.880	-167.903	-0.159	0.006
-445.865	17.555	0.064	-0.050
-444.851	131.780	0.094	0.120
-443.836	74.514	0.122	0.128
-442.822	-137.361	-0.109	-0.012
-441.807	-200.000	-0.026	-0.150
-440.792	-87.802	0.245	-0.073
-439.778	-148.576	-0.296	-0.024
-438.763	800.000	-0.075	-0.218
-437.749	-62.505	-0.202	0.083
-436.734	21.021	-0.258	0.208
-435.719	-101.042	0.474	0.116
-434.705	15.126	0.267	-0.208
-433.690	309.987	-0.076	-0.142
-432.676	43.960	0.031	-0.028
-431.661	375.235	0.056	-0.114
-430.646	-165.784	0.145	0.006
-429.632	800.000	0.087	-0.325
-428.617	338.321	-0.123	0.239
-427.603	668.245	0.122	0.314
-426.588	-52.051	0.104	-0.048
-425.573	-159.066	-0.082	0.005
-424.559	-200.000	0.042	0.342
-423.544	-200.000	0.035	0.204
-422.530	-200.000	0.011	-0.240
-421.515	12.305	-0.185	-0.141
-420.500	-153.563	0.114	0.008
-419.486	125.153	-0.213	0.267
-418.471	-200.000	0.031	0.228
-417.457	-186.168	-0.051	0.001
-416.442	-200.000	-0.010	-0.142
-415.428	-200.000	-0.013	-0.372
-414.413	-39.917	0.130	0.067
-413.398	-200.000	0.013	-0.073
-412.384	-119.517	-0.233	0.040
-411.369	-200.000	-0.005	-0.085
-410.355	-200.000	0.009	0.050
-409.340	-200.000	-0.023	-0.306
-408.325	-114.106	0.160	0.031
-407.311	90.093	-0.096	0.107
-406.296	800.000	-0.015	-0.053
-405.282	-1.954	-0.093	-0.065
-404.267	128.874	-0.173	0.220
-403.252	-51.622	-0.303	-0.140
-402.238	377.353	-0.058	-0.118
-401.223	7.882	-0.100	0.075
-400.209	-109.760	-0.387	0.081
-399.194	9.541	-0.062	-0.047
-398.179	-8.266	-0.347	-0.232
-397.165	-148.746	0.074	-0.006
-396.150	-45.146	-0.034	-0.017
-395.136	-200.000	0.015	0.177
-394.121	-200.000	0.034	-0.176
-393.106	-37.153	-0.194	-0.103
-392.092	81.769	0.107	0.115
-391.077	800.000	0.054	-0.148
-390.063	-12.466	0.141	0.092
-389.048	-94.689	-0.104	-0.028
-388.033	-172.137	-0.069	0.002
-387.019	68.309	0.200	0.203
-386.004	436.948	-0.071	0.153
-384.990	557.178	0.147	0.353
-383.975	12.931	-0.264	0.203
-382.960	-63.625	0.108	-0.044
-381.946	76.757	-0.074	0.078
-380.931	-200.000	-0.008	-0.041
-379.917	-105.755	0.245	-0.055
-378.902	-135.821	-0.289	0.034
-377.888	412.591	0.187	-0.395
-376.873	310.204	-0.124	-0.231
-375.858	800.000	-0.140	-0.421
-374.844	-2.554	-0.140	0.097
-373.829	-33.364	-0.240	0.132
-372.815	800.000	-0.056	0.200
-371.800	777.293	0.054	0.147
-370.785	-36.335	0.333	-0.178
-369.771	257.792	-0.141	0.241
-368.756	-0.312	0.188	-0.132
-367.742	-200.000	0.026	0.135
-366.727	-120.209	0.092	-0.016
-365.712	-200.000	0.020	-0.155
-364.698	-136.464	0.131	0.015
-363.683	151.499	0.257	-0.348
-362.669	134.374	0.123	-0.158
-361.654	800.000	0.015	-0.059
-360.639	-102.078	-0.289	-0.069
-359.625	79.108	0.305	0.324
-358.610	-161.953	0.391	-0.020
-357.596	200.346	-0.065	-0.099
-356.581	194.965	-0.077	0.116
-355.566	-200.000	-0.034	-0.581
-354.552	-200.000	0.032	0.144
-353.537	39.537	-0.173	-0.154
-352.523	26.277	-0.170	-0.140
-351.508	-0.599	0.221	0.155
-350.493	-19.203	-0.309	-0.190
-349.479	-97.256	-0.039	0.010
-348.464	800.000	-0.013	-0.057
-347.450	-200.000	0.037	0.190
-346.435	-135.666	-0.174	-0.021
-345.420	-40.592	0.360	0.185
-344.406	172.191	-0.024	-0.034
-343.391	-200.000	0.054	0.280
-342.377	-170.999	0.352	0.012
-341.362	800.000	0.050	0.149
-340.348	-200.000	-0.012	-0.287
-339.333	74.243	0.027	-0.028
-338.318	-146.706	0.038	0.003
-337.304	200.666	0.199	-0.304
-336.289	-188.504	-0.061	-0.001
-335.275	547.510	0.044	-0.105
-334.260	-90.257	0.237	0.068
-333.245	498.981	0.108	-0.246
-332.231	227.324	-0.115	0.184
-331.216	164.427	-0.170	0.238
-330.202	193.456	-0.133	0.199
-329.187	-148.598	0.092	0.007
-328.172	-3.109	0.126	0.087
-327.158	-200.000	-0.029	0.205
-326.143	433.681	-0.010	-0.021
-325.129	113.862	0.017	-0.021
-324.114	522.686	0.042	-0.098
-323.099	-42.166	0.417	-0.211
-322.085	172.442	0.060	-0.085
-321.070	-139.915	0.329	-0.034
-320.056	-28.438	-0.198	0.113
-319.041	-26.166	0.344	-0.200
-318.026	-149.454	-0.159	-0.012
-317.012	-200.000	-0.044	-0.333
-315.997	-200.000	-0.020	0.155
-314.983	-2.316	-0.193	0.134
-313.968	235.226	0.092	-0.151
-312.953	-172.426	0.079	0.002
-311.939	-76.391	0.225	0.078
-310.924	-57.175	-0.010	-0.004
-309.910	747.531	-0.074	0.198
-308.895	335.575	0.071	-0.136
-307.880	800.000	0.074	-0.224
-306.866	-200.000	-0.004	0.184
-305.851	568.453	-0.064	0.155
-304.837	-85.878	0.301	-0.092
-303.822	6.962	-0.239	0.176
-302.807	766.425	0.041	-0.110
-301.793	800.000	0.090	-0.251
-300.778	261.881	-0.090	0.155
-299.764	-200.000	0.001	-0.145
-298.749	-200.000	0.028	-0.227
-297.735	102.693	0.159	0.184
-296.720	-63.753	-0.382	0.155
-295.705	800.000	-0.070	0.231
-294.691	-200.000	-0.019	-0.224
-293.676	645.009	0.016	0.042
-292.662	-176.808	0.342	0.009
-291.647	-164.793	-0.481	0.021
-290.632	-82.127	0.163	-0.053
-289.618	-197.109	-0.188	-0.001
-288.603	800.000	0.091	-0.353
-287.589	284.149	0.182	0.325
-286.574	-200.000	-0.023	-0.157
-285.559	125.185	-0.187	-0.233
-284.545	-54.803	-0.316	-0.141
-283.530	-22.171	-0.246	0.147
-282.516	-200.000	0.013	-0.177
-281.501	-32.531	0.292	-0.161
-280.486	267.269	-0.051	0.089
-279.472	-198.981	0.247	0.001
-278.457	-200.000	0.023	0.137
-277.443	166.963	0.086	-0.121
-276.428	399.822	0.069	0.142
-275.413	-164.581	-0.179	0.008
-274.399	431.671	-0.163	0.350
-273.384	-94.540	-0.098	0.026
-272.370	87.689	-0.265	-0.290
-271.355	58.195	0.061	-0.059
-270.340	126.417	0.181	-0.227
-269.326	353.770	-0.064	-0.125
-268.311	272.403	0.142	0.248
-267.297	292.396	0.180	0.324
-266.282	-34.798	0.082	0.044
-265.267	-200.000	0.039	0.271
-264.253	800.000	0.013	-0.046
-263.238	-54.612	0.091	0.041
-262.224	-200.000	0.051	-0.326
-261.209	800.000	0.048	0.175
-260.195	-156.654	-0.044	-0.003
-259.180	70.269	0.268	0.274
-258.165	-59.780	0.046	-0.019
-257.151	800.000	0.076	0.243
-256.136	133.949	0.141	-0.181
-255.122	-200.000	-0.008	0.082
-254.107	402.946	-0.057	-0.119
-253.092	132.778	-0.128	-0.163
-252.078	-19.069	-0.265	0.163
-251.063	-31.445	0.398	0.221
-250.049	92.763	0.199	0.222
-249.034	-200.000	-0.063	0.377
-248.019	-105.567	-0.113	0.025
-247.005	416.726	-0.102	-0.215
-245.990	29.397	-0.042	0.035
-244.976	-200.000	0.024	-0.257
-243.961	-151.911	0.133	0.010
-242.946	128.171	0.147	-0.185
-241.932	356.193	-0.102	-0.201
-240.917	-100.473	0.171	0.042
-239.903	7.928	0.156	-0.116
-238.888	-74.229	0.277	-0.099
-237.873	70.162	-0.154	-0.157
-236.859	-81.211	-0.150	0.049
-235.844	-200.000	0.078	0.443
-234.830	-200.000	0.048	0.321
-233.815	-154.688	0.163	-0.011
-232.800	-200.000	0.002	-0.195
-231.786	-121.262	0.227	0.037
-230.771	-200.000	0.012	0.345
-229.757	-200.000	-0.082	0.358
-228.742	168.705	-0.084	0.118
-227.727	-81.180	-0.059	0.019
-226.713	800.000	0.028	0.095
-225.698	-33.292	-0.368	0.201
-224.684	63.600	0.184	0.182
-223.669	-200.000	-0.053	0.275
-222.655	255.139	0.127	-0.214
-221.640	-174.128	0.262	0.008
-220.625	-80.071	-0.393	0.130
-219.611	-87.921	0.199	0.059
-218.596	-88.617	0.225	0.066
-217.582	-128.505	-0.231	0.032
-216.567	791.629	-0.036	0.098
-215.552	-200.000	-0.064	0.382
-214.538	800.000	0.042	0.133
-213.523	93.915	-0.076	0.085
-212.509	-36.708	-0.396	-0.210
-211.494	-153.622	-0.306	-0.021
-210.479	56.755	0.048	-0.046
-209.465	209.521	0.089	0.138
-208.450	-37.057	0.122	0.064
-207.436	-15.746	0.167	-0.105
-206.421	14.624	0.023	-0.018
-205.406	-70.382	0.117	0.044
-204.392	-55.734	0.094	0.041
-203.377	-107.899	0.161	0.035
-202.363	800.000	-0.120	0.326
-201.348	-49.604	-0.147	-0.069
-200.333	709.260	-0.048	-0.125
-199.319	24.881	-0.278	0.227
-198.304	261.001	-0.012	-0.021
-197.290	11.116	-0.112	-0.084
-196.275	59.745	0.135	0.131
-195.260	547.661	-0.085	0.200
-194.246	476.786	-0.092	0.206
-193.231	-200.000	0.005	0.141
-192.217	72.970	0.071	0.073
-191.202	-52.441	-0.161	-0.073
-190.187	-109.778	-0.167	0.035
-189.173	-31.517	0.192	0.106
-188.158	199.211	-0.021	-0.032
-187.144	-34.647	0.236	-0.127
-186.129	-200.000	-0.015	-0.096
-185.114	-200.000	-0.039	-0.203
-184.100	800.000	0.066	-0.283
-183.085	246.778	0.083	-0.138
-182.071	-200.000	0.047	0.207
-181.056	-122.791	-0.214	-0.034
-180.042	112.665	-0.096	-0.114
-179.027	-52.696	0.076	-0.034
-178.012	322.162	-0.137	-0.256
-176.998	194.531	-0.137	-0.205
-175.983	-77.439	-0.193	-0.066
-174.969	557.557	-0.055	0.129
-173.954	-200.000	-0.030	0.251
-172.939	49.950	0.110	-0.102
-171.925	523.518	0.100	0.232
-170.910	-89.685	-0.141	-0.041
-169.896	-200.000	-0.020	-0.403
-168.881	-105.466	0.135	0.030
-167.866	206.793	-0.118	0.180
-166.852	-78.832	0.061	0.020
-165.837	26.753	-0.042	0.034
-164.823	96.763	0.225	-0.254
-163.808	-96.983	0.226	0.058
-162.793	-43.286	-0.236	0.118
-161.779	117.448	-0.104	-0.125
-160.764	266.812	0.175	-0.301
-159.750	-51.152	0.174	0.080
-158.735	-65.557	-0.301	0.119
-157.720	92.062	-0.162	-0.180
-156.706	800.000	0.045	-0.148
-155.691	-25.393	-0.281	-0.163
-154.677	512.240	0.056	-0.128
-153.662	52.567	0.182	0.171
-152.647	33.503	-0.289	0.247
-151.633	-21.728	0.148	-0.089
-150.618	541.452	0.029	-0.067
-149.604	-152.965	-0.214	0.015
-148.589	471.763	-0.075	-0.167
-147.574	-57.392	-0.185	-0.080
-146.560	800.000	0.134	0.380
-145.545	89.992	-0.135	0.148
-144.531	-200.000	-0.001	0.243
-143.516	-56.639	0.241	0.105
-142.502	358.269	-0.132	-0.259
-141.487	-113.869	-0.113	-0.022
-140.472	27.206	-0.143	0.118
-139.458	800.000	0.013	0.044
-138.443	-162.244	0.311	0.015
-137.429	113.809	0.210	0.250
-136.414	-125.108	0.081	-0.012
-135.399	-200.000	-0.048	-0.354
-134.385	38.433	-0.064	0.056
-133.370	205.167	-0.126	-0.192
-132.356	41.359	0.093	-0.083
-131.341	-91.739	0.247	-0.069
-130.326	449.439	-0.079	0.172
-129.312	394.666	-0.186	0.381
-128.297	32.936	0.213	-0.181
-127.283	129.311	0.103	-0.130
-126.268	800.000	-0.043	0.119
-125.253	112.066	0.396	-0.470
-124.239	-121.078	0.130	0.021
-123.224	529.280	-0.107	0.247
