DTS Sentinel unit serial number:	SN413079Multiplexer serial number:	ORYXHardware model number:	OX4-SRSoftware version number:	ORYX F/W v4.00 Oryx Data Collector v3.7.2.0data status	okinstallation	princeton_trtdifferential loss correction	single-endedforward channel	channel 1reverse channel	N/Adate	2019/09/17time	07:10:35forward acquisition time	60.00reverse acquisition time	0.00gamma	496.2192k internal	0.2332k external	0.2332temperature offset calibration	0.9965default loss term (dB/km)	0.3790temperature slope calibration	1.0000multiplexer offset coefficient	1.0000multiplexer slope coefficient	1.0000fibre end	0.00T internal ref (°C)	27.37T ext. ref 1 (°C)	0.13T ext. ref 2 (°C)	21.18length (m)	temperature (°C)	Stokes	anti-Stokes-747.200	22.235	0.217	0.178
-746.185	-48.756	-0.155	-0.075
-745.171	86.889	0.167	-0.185
-744.156	-124.133	0.146	0.023
-743.142	116.496	-0.122	0.151
-742.127	800.000	-0.083	0.351
-741.112	7.493	0.107	0.080
-740.098	96.776	-0.050	0.057
-739.083	199.893	-0.127	-0.197
-738.069	225.613	0.161	0.262
-737.054	7.848	0.106	-0.080
-736.039	-200.000	0.001	-0.336
-735.025	5.579	0.188	0.140
-734.010	39.913	-0.159	0.144
-732.996	10.084	0.065	-0.050
-731.981	-190.601	-0.093	0.001
-730.966	-148.195	0.347	0.029
-729.952	-68.355	0.138	-0.054
-728.937	-68.854	-0.274	0.106
-727.923	-83.975	-0.082	0.026
-726.908	-99.145	-0.181	0.046
-725.894	33.849	0.099	-0.086
-724.879	300.504	-0.145	-0.269
-723.864	-114.474	0.178	-0.034
-722.850	-180.390	-0.431	-0.009
-721.835	47.395	-0.209	0.196
-720.821	-121.555	0.137	-0.023
-719.806	270.109	-0.068	-0.120
-718.791	-64.893	-0.197	-0.080
-717.777	-146.372	-0.245	-0.022
-716.762	534.309	0.066	0.158
-715.748	75.514	0.131	-0.139
-714.733	-200.000	-0.007	0.052
-713.718	784.897	0.046	0.126
-712.704	103.765	-0.084	-0.099
-711.689	-126.423	-0.108	-0.016
-710.675	-120.438	-0.175	-0.030
-709.660	-116.205	0.174	-0.032
-708.645	198.991	-0.226	0.348
-707.631	-98.705	0.159	0.041
-706.616	80.663	-0.214	-0.232
-705.602	772.895	-0.033	-0.089
-704.587	58.581	-0.207	0.204
-703.572	-200.000	0.007	-0.172
-702.558	-118.896	0.305	0.054
-701.543	-22.460	-0.145	-0.088
-700.529	-80.239	0.155	-0.052
-699.514	154.566	0.158	0.218
-698.499	-200.000	0.060	0.281
-697.485	18.150	-0.316	-0.253
-696.470	-200.000	0.036	-0.487
-695.456	-2.116	0.055	0.039
-694.441	800.000	-0.069	-0.236
-693.426	183.044	-0.138	-0.205
-692.412	396.468	-0.080	0.169
-691.397	96.526	-0.128	-0.148
-690.383	-120.520	0.245	-0.042
-689.368	27.414	-0.181	-0.153
-688.354	523.549	0.101	-0.239
-687.339	225.510	0.159	0.258
-686.324	231.705	0.063	0.104
-685.310	-200.000	0.025	-0.420
-684.295	-200.000	-0.033	-0.205
-683.281	-141.541	-0.101	-0.010
-682.266	-197.119	-0.088	-0.001
-681.251	-200.000	-0.072	-0.333
-680.237	676.611	0.074	-0.193
-679.222	-200.000	-0.021	-0.180
-678.208	-135.377	0.272	0.033
-677.193	17.524	-0.267	0.213
-676.178	800.000	-0.111	0.359
-675.164	-109.345	0.278	0.059
-674.149	800.000	-0.084	0.314
-673.135	5.794	-0.171	-0.127
-672.120	123.963	-0.087	-0.110
-671.105	170.156	-0.166	0.239
-670.091	-200.000	-0.013	-0.206
-669.076	-200.000	0.003	0.293
-668.062	-123.741	-0.322	-0.051
-667.047	-4.905	0.182	-0.126
-666.032	211.374	-0.044	-0.070
-665.018	800.000	0.014	-0.053
-664.003	273.414	0.077	0.137
-662.989	645.826	-0.215	0.550
-661.974	-121.978	-0.224	-0.037
-660.959	800.000	0.069	-0.287
-659.945	268.760	-0.142	0.250
-658.930	-188.512	-0.389	0.005
-657.916	-97.980	-0.110	0.029
-656.901	-123.807	-0.096	0.015
-655.886	-200.000	0.018	-0.192
-654.872	-101.042	-0.170	-0.042
-653.857	115.996	0.305	-0.375
-652.843	-200.000	-0.045	-0.350
-651.828	-87.686	0.366	0.111
-650.814	-200.000	0.002	-0.058
-649.799	601.706	-0.209	0.520
-648.784	74.746	-0.054	0.057
-647.770	33.248	0.213	0.186
-646.755	267.432	0.034	-0.059
-645.741	-85.296	-0.240	-0.075
-644.726	-12.472	0.203	-0.133
-643.711	-200.000	-0.018	-0.239
-642.697	396.283	0.078	0.162
-641.682	-200.000	-0.012	0.100
-640.668	150.515	0.119	0.161
-639.653	800.000	-0.020	-0.084
-638.638	64.893	0.021	0.021
-637.624	473.295	0.058	0.131
-636.609	-152.613	-0.192	0.014
-635.595	139.976	-0.116	0.154
-634.580	-200.000	0.036	0.190
-633.565	-173.218	0.141	0.004
-632.551	800.000	0.044	0.180
-631.536	688.048	0.080	0.209
-630.522	-101.521	-0.179	0.044
-629.507	289.702	0.060	0.108
-628.492	-200.000	0.044	-0.265
-627.478	-135.315	-0.309	-0.037
-626.463	64.441	-0.129	0.130
-625.449	653.846	0.134	-0.346
-624.434	41.788	0.214	-0.194
-623.419	-143.005	0.066	0.006
-622.405	-200.000	-0.007	0.274
-621.390	-62.333	0.229	-0.096
-620.376	-142.629	-0.387	0.038
-619.361	-200.000	-0.022	-0.111
-618.346	580.276	0.035	-0.087
-617.332	1.663	-0.153	-0.111
-616.317	98.413	-0.065	-0.075
-615.303	71.451	-0.243	-0.253
-614.288	-200.000	0.045	-0.211
-613.273	800.000	0.043	0.157
-612.259	-200.000	0.017	-0.311
-611.244	-118.160	-0.064	-0.011
-610.230	-147.659	0.103	-0.009
-609.215	-109.623	-0.278	-0.059
-608.201	-15.608	-0.307	-0.196
-607.186	-18.013	-0.370	-0.232
-606.171	39.991	-0.163	-0.146
-605.157	-22.620	-0.261	-0.158
-604.142	-28.422	0.101	-0.058
-603.128	-168.809	-0.172	-0.006
-602.113	-95.458	-0.395	0.106
-601.098	158.836	0.036	-0.050
-600.084	26.406	0.104	-0.087
-599.069	-83.761	0.238	-0.076
-598.055	800.000	-0.170	-0.616
-597.040	124.282	0.020	0.025
-596.025	-140.866	-0.496	-0.051
-595.011	195.693	0.124	0.189
-593.996	-200.000	0.004	-0.129
-592.982	-167.613	-0.234	-0.009
-591.967	248.553	-0.100	-0.170
-590.952	-53.608	-0.422	-0.193
-589.938	-132.523	0.394	-0.051
-588.923	49.846	-0.276	0.260
-587.909	-200.000	-0.085	0.416
-586.894	98.222	-0.091	-0.105
-585.879	798.520	-0.099	-0.274
-584.865	-80.005	0.316	-0.106
-583.850	589.730	-0.142	-0.351
-582.836	290.580	-0.139	0.252
-581.821	-108.443	0.073	-0.016
-580.806	-95.053	0.425	0.115
-579.792	800.000	-0.124	0.380
-578.777	800.000	-0.056	0.198
-577.763	-200.000	-0.003	0.033
-576.748	-15.424	0.216	-0.138
-575.733	-14.557	-0.214	-0.137
-574.719	-54.121	-0.190	-0.086
-573.704	-78.979	-0.314	-0.107
-572.690	41.631	0.216	-0.196
-571.675	-108.486	-0.332	0.071
-570.661	180.922	0.071	-0.105
-569.646	32.329	-0.074	0.063
-568.631	165.949	-0.118	-0.167
-567.617	-128.140	0.062	-0.009
-566.602	-200.000	-0.014	-0.203
-565.588	800.000	-0.020	-0.065
-564.573	276.477	-0.094	-0.167
-563.558	65.640	-0.037	0.037
-562.544	252.306	-0.263	0.448
-561.529	382.556	-0.113	0.233
-560.515	-32.829	0.225	-0.125
-559.500	-36.157	0.040	0.022
-558.485	30.554	-0.118	-0.100
-557.471	314.886	-0.179	-0.338
-556.456	80.081	-0.147	-0.158
-555.442	320.789	0.031	0.059
-554.427	-200.000	0.012	0.058
-553.412	-54.073	-0.061	-0.028
-552.398	-19.532	-0.151	0.093
-551.383	-10.782	-0.292	0.193
-550.369	-135.052	0.109	0.013
-549.354	361.478	0.144	-0.289
-548.339	800.000	0.142	-0.445
-547.325	-69.174	-0.102	-0.039
-546.310	-37.780	-0.110	-0.058
-545.296	32.806	0.095	0.082
-544.281	406.396	0.102	0.214
-543.266	-83.957	0.140	-0.044
-542.252	-200.000	0.048	0.275
-541.237	-50.087	0.034	0.016
-540.223	-32.611	0.093	-0.052
-539.208	-109.492	-0.341	0.072
-538.193	541.320	-0.038	0.091
-537.179	-145.444	0.329	-0.030
-536.164	-50.488	0.202	0.095
-535.150	-200.000	0.003	-0.092
-534.135	-153.165	0.322	-0.023
-533.121	-200.000	0.061	-0.305
-532.106	-52.909	-0.349	0.160
-531.091	-200.000	0.091	0.409
-530.077	-200.000	0.005	0.159
-529.062	-47.834	0.034	0.016
-528.048	-76.333	-0.270	-0.095
-527.033	163.147	0.110	-0.154
-526.018	643.834	0.130	-0.330
-525.004	-200.000	-0.034	-0.338
-523.989	115.397	-0.093	0.114
-522.975	-57.302	-0.115	0.051
-521.960	-200.000	0.006	0.159
-520.945	-200.000	0.022	-0.215
-519.931	-83.929	-0.257	0.081
-518.916	548.705	0.120	-0.287
-517.902	-200.000	0.008	0.151
-516.887	-9.793	0.199	-0.132
-515.872	-200.000	-0.015	0.317
-514.858	-98.700	-0.036	-0.009
-513.843	-59.802	0.070	-0.030
-512.829	-37.136	0.230	0.123
-511.814	-74.644	-0.141	-0.050
-510.799	35.576	0.239	0.209
-509.785	240.341	-0.073	0.122
-508.770	800.000	-0.024	-0.089
-507.756	-108.469	-0.289	-0.062
-506.741	-61.604	0.277	-0.116
-505.726	-200.000	-0.029	-0.179
-504.712	-200.000	0.031	0.280
-503.697	-6.702	-0.122	-0.083
-502.683	-200.000	0.019	-0.241
-501.668	678.512	-0.088	0.228
-500.653	-62.117	-0.290	-0.120
-499.639	30.058	0.255	-0.217
-498.624	800.000	-0.069	0.241
-497.610	263.551	0.063	0.110
-496.595	13.572	0.083	0.064
-495.581	-200.000	-0.005	-0.296
-494.566	-37.066	-0.264	-0.141
-493.551	-79.726	-0.087	-0.029
-492.537	-200.000	0.024	-0.167
-491.522	4.271	-0.195	0.142
-490.508	123.114	-0.088	0.110
-489.493	-200.000	0.005	0.115
-488.478	-51.207	0.062	-0.029
-487.464	4.468	0.213	0.156
-486.449	-109.411	-0.089	0.019
-485.435	800.000	-0.067	-0.196
-484.420	117.311	-0.111	0.136
-483.405	757.687	0.192	0.517
-482.391	800.000	-0.030	-0.102
-481.376	-28.425	-0.441	0.254
-480.362	-174.840	0.353	0.010
-479.347	800.000	-0.042	0.164
-478.332	-88.365	0.161	0.048
-477.318	-127.066	0.222	0.032
-476.303	-200.000	-0.034	0.163
-475.289	390.314	0.081	0.168
-474.274	99.619	-0.207	0.239
-473.259	2.326	-0.231	0.166
-472.245	-200.000	0.045	-0.285
-471.230	9.433	0.085	-0.064
-470.216	-200.000	-0.021	0.119
-469.201	103.947	-0.119	-0.139
-468.186	21.514	-0.159	-0.129
-467.172	-200.000	0.058	-0.385
-466.157	-100.904	0.277	-0.068
-465.143	-40.496	0.374	0.193
-464.128	800.000	0.045	-0.165
-463.113	-200.000	-0.049	-0.564
-462.099	340.985	0.093	-0.180
-461.084	208.392	-0.132	0.205
-460.070	8.256	-0.277	-0.207
-459.055	-200.000	0.003	0.081
-458.040	17.787	-0.206	0.163
-457.026	186.921	-0.211	0.313
-456.011	-117.311	0.032	-0.006
-454.997	246.001	-0.033	0.055
-453.982	330.876	-0.130	0.250
-452.968	132.736	0.121	-0.155
-451.953	-200.000	0.009	0.132
-450.938	255.910	0.209	0.357
-449.924	-200.000	0.028	-0.319
-448.909	-116.072	0.065	0.012
-447.895	153.455	-0.184	-0.251
-446.880	-50.755	0.211	-0.099
-445.865	800.000	0.052	0.165
-444.851	-200.000	0.025	-0.373
-443.836	-73.258	-0.120	0.044
-442.822	-200.000	-0.076	-0.366
-441.807	-200.000	0.052	0.357
-440.792	-122.119	0.133	0.022
-439.778	-69.916	0.405	-0.154
-438.763	800.000	-0.069	-0.209
-437.749	-5.193	0.317	-0.217
-436.734	-33.681	-0.193	0.106
-435.719	-104.402	-0.022	0.005
-434.705	544.700	0.049	0.115
-433.690	258.685	-0.100	0.171
-432.676	800.000	-0.034	-0.113
-431.661	-74.588	-0.133	-0.047
-430.646	-111.247	-0.127	0.026
-429.632	-116.433	0.147	0.027
-428.617	-39.090	-0.213	0.111
-427.603	-10.228	0.056	0.037
-426.588	-200.000	0.103	-0.453
-425.573	56.190	-0.096	-0.093
-424.559	8.911	0.153	0.115
-423.544	-5.960	-0.182	-0.124
-422.530	-200.000	-0.112	-0.623
-421.515	-180.061	0.125	0.003
-420.500	705.056	0.055	0.144
-419.486	-61.080	0.298	-0.125
-418.471	-89.750	0.188	0.055
-417.457	556.916	0.087	0.209
-416.442	-200.000	0.012	-0.180
-415.428	-119.807	0.169	0.029
-414.413	329.176	0.076	0.145
-413.398	92.838	-0.100	-0.113
-412.384	64.957	-0.095	0.095
-411.369	264.140	-0.054	-0.094
-410.355	800.000	-0.009	-0.033
-409.340	-200.000	0.036	0.394
-408.325	-10.420	-0.058	0.038
-407.311	41.502	0.180	-0.162
-406.296	138.153	-0.075	-0.098
-405.282	-26.024	-0.327	0.191
-404.267	185.429	-0.203	-0.300
-403.252	-22.441	-0.226	0.136
-402.238	-88.898	0.066	-0.020
-401.223	-67.766	-0.178	0.069
-400.209	209.963	0.201	-0.312
-399.194	33.225	-0.183	-0.158
-398.179	-16.699	0.050	-0.032
-397.165	0.863	0.178	-0.127
-396.150	65.623	0.283	-0.285
-395.136	800.000	-0.100	-0.308
-394.121	-95.703	0.179	-0.048
-393.106	-32.004	-0.120	-0.066
-392.092	-200.000	0.040	-0.217
-391.077	-48.614	-0.292	-0.139
-390.063	-200.000	0.023	-0.117
-389.048	-200.000	0.098	0.523
-388.033	-160.332	-0.117	0.006
-387.019	-103.744	0.403	0.094
-386.004	361.980	0.097	0.192
-384.990	800.000	-0.051	-0.153
-383.975	-118.260	0.349	0.062
-382.960	67.813	-0.087	-0.088
-381.946	800.000	-0.075	0.304
-380.931	-13.119	-0.142	-0.092
-379.917	188.107	0.125	0.185
-378.902	-22.950	0.040	0.024
-377.888	-81.109	-0.195	-0.064
-376.873	-112.563	-0.339	-0.067
-375.858	-53.714	0.256	0.116
-374.844	22.344	0.286	-0.232
-373.829	-160.073	-0.061	0.003
-372.815	-200.000	0.013	0.213
-371.800	481.157	0.094	-0.212
-370.785	12.903	0.116	-0.089
-369.771	-56.704	0.021	0.009
-368.756	800.000	0.049	-0.157
-367.742	-76.843	0.285	0.099
-366.727	-200.000	0.050	0.440
-365.712	800.000	-0.059	-0.176
-364.698	800.000	0.158	-0.448
-363.683	143.665	-0.097	-0.129
-362.669	-124.160	0.210	-0.033
-361.654	-79.052	-0.290	-0.098
-360.639	-200.000	-0.024	0.163
-359.625	308.668	-0.162	0.299
-358.610	-200.000	-0.019	-0.348
-357.596	800.000	-0.069	0.228
-356.581	96.110	-0.151	-0.171
-355.566	13.455	-0.079	0.061
-354.552	-26.685	0.409	-0.237
-353.537	-32.919	0.296	0.163
-352.523	450.064	-0.061	0.133
-351.508	326.912	-0.045	-0.086
-350.493	-200.000	-0.078	-0.355
-349.479	-34.038	-0.311	-0.169
-348.464	-12.351	0.339	0.219
-347.450	36.183	-0.198	-0.172
-346.435	-200.000	-0.013	0.394
-345.420	-31.502	-0.322	0.180
-344.406	-11.949	0.108	0.070
-343.391	-2.149	-0.300	0.209
-342.377	800.000	-0.047	0.141
-341.362	717.926	-0.101	0.265
-340.348	46.890	0.169	0.156
-339.333	-110.666	-0.162	-0.033
-338.318	435.439	0.050	-0.107
-337.304	-200.000	-0.037	-0.163
-336.289	714.158	-0.062	0.163
-335.275	35.264	-0.264	-0.229
-334.260	800.000	0.081	-0.286
-333.245	-139.633	-0.040	0.004
-332.231	-200.000	0.014	-0.623
-331.216	-13.465	0.265	0.170
-330.202	-57.728	0.113	-0.049
-329.187	127.552	0.091	0.115
-328.172	-200.000	-0.002	0.146
-327.158	-8.282	0.334	-0.222
-326.143	-135.098	-0.256	0.031
-325.129	-200.000	0.013	-0.214
-324.114	326.291	-0.174	-0.329
-323.099	800.000	-0.106	-0.369
-322.085	-93.374	-0.460	-0.126
-321.070	115.301	0.076	-0.092
-320.056	89.423	0.276	0.305
-319.041	800.000	-0.097	0.339
-318.026	25.324	0.067	-0.055
-317.012	-200.000	0.000	-0.101
-315.997	31.660	-0.424	0.361
-314.983	-200.000	0.185	0.001
-313.968	-145.054	0.171	0.015
-312.953	-200.000	-0.021	-0.265
-311.939	-200.000	-0.016	0.098
-310.924	122.253	0.181	-0.224
-309.910	-200.000	-0.011	-0.109
-308.895	14.050	-0.238	0.183
-307.880	37.441	0.152	-0.133
-306.866	-121.603	0.061	0.010
-305.851	800.000	-0.101	0.331
-304.837	-66.803	0.240	0.094
-303.822	-101.622	0.120	0.029
-302.807	-200.000	-0.053	-0.622
-301.793	-16.239	0.280	-0.176
-300.778	121.308	-0.130	0.160
-299.764	-200.000	0.018	0.179
-298.749	800.000	0.104	-0.290
-297.735	-127.065	0.157	-0.023
-296.720	-76.171	0.113	-0.040
-295.705	283.639	-0.096	0.170
-294.691	-200.000	0.019	0.242
-293.676	-200.000	-0.021	-0.350
-292.662	63.843	0.195	0.193
-291.647	145.744	0.213	0.282
-290.632	-2.198	0.058	-0.040
-289.618	-163.680	-0.108	0.005
-288.603	-200.000	-0.019	0.222
-287.589	-200.000	-0.041	0.216
-286.574	-56.440	0.312	-0.137
-285.559	16.299	0.072	0.056
-284.545	271.419	-0.183	-0.319
-283.530	184.536	0.221	-0.323
-282.516	149.454	-0.003	-0.004
-281.501	800.000	-0.049	-0.162
-280.486	381.269	0.138	-0.279
-279.472	-17.847	0.078	0.048
-278.457	71.210	-0.354	0.362
-277.443	-200.000	0.018	-0.169
-276.428	141.413	-0.094	0.123
-275.413	-200.000	0.043	0.201
-274.399	-186.100	0.070	-0.001
-273.384	-195.263	-0.236	0.002
-272.370	18.427	0.198	-0.157
-271.355	51.753	0.098	-0.092
-270.340	197.420	0.166	0.250
-269.326	621.163	-0.066	0.164
-268.311	-101.602	0.234	0.056
-267.297	-200.000	-0.055	0.278
-266.282	56.292	0.095	-0.091
-265.267	514.170	0.210	0.484
-264.253	-200.000	-0.069	0.347
-263.238	-200.000	0.016	0.204
-262.224	-62.805	0.269	-0.110
-261.209	104.129	0.261	0.303
-260.195	51.125	-0.090	-0.084
-259.180	-28.499	0.048	0.027
-258.165	68.790	-0.225	-0.228
-257.151	-34.205	0.092	0.050
-256.136	-137.087	-0.095	0.011
-255.122	355.339	-0.127	0.249
-254.107	150.073	0.125	-0.167
-253.092	-109.978	0.155	0.032
-252.078	-153.289	-0.039	0.003
-251.063	800.000	-0.050	0.172
-250.049	351.838	-0.042	-0.082
-249.034	-48.828	0.259	-0.122
-248.019	2.779	0.178	-0.127
-247.005	-39.771	0.072	0.037
-245.990	-90.016	0.264	-0.076
-244.976	-200.000	-0.012	-0.144
-243.961	-200.000	0.059	0.265
-242.946	-200.000	0.048	0.275
-241.932	237.626	0.162	0.264
-240.917	800.000	-0.077	-0.296
-239.903	251.949	0.216	0.363
-238.888	-200.000	0.060	-0.344
-237.873	-119.688	0.193	-0.033
-236.859	-152.919	0.025	0.002
-235.844	1.215	-0.091	-0.065
-234.830	-200.000	0.081	-0.424
-233.815	-200.000	-0.074	0.321
-232.800	3.301	0.107	-0.077
-231.786	732.042	-0.049	-0.130
-230.771	-119.151	-0.368	-0.063
-229.757	-10.491	0.111	-0.073
-228.742	-134.836	-0.258	-0.031
-227.727	216.162	0.068	-0.106
-226.713	-135.360	0.073	0.009
-225.698	173.565	-0.252	0.358
-224.684	-71.369	-0.106	0.039
-223.669	-200.000	0.033	-0.141
-222.655	-200.000	-0.028	0.132
-221.640	800.000	0.029	-0.112
-220.625	-123.080	-0.345	0.055
-219.611	-56.905	0.411	-0.179
-218.596	-54.000	0.100	-0.045
-217.582	-90.744	0.062	-0.018
-216.567	-200.000	0.015	0.106
-215.552	-152.529	-0.408	0.029
-214.538	182.000	0.165	0.240
-213.523	800.000	-0.090	-0.256
-212.509	-28.154	-0.186	-0.106
-211.494	168.303	0.083	0.117
-210.479	379.273	-0.029	-0.059
-209.465	-92.663	0.142	-0.039
-208.450	279.188	-0.115	0.203
-207.436	-200.000	0.046	0.286
-206.421	-32.573	0.197	0.108
-205.406	-93.948	0.316	0.086
-204.392	-200.000	0.014	-0.257
-203.377	484.329	-0.091	0.204
-202.363	22.082	0.257	0.206
-201.348	800.000	0.076	0.248
-200.333	76.099	-0.127	-0.133
-199.319	113.032	0.052	-0.062
-198.304	219.348	0.092	0.145
-197.290	-122.812	-0.013	0.002
-196.275	800.000	0.035	0.139
-195.260	-73.757	0.138	-0.050
-194.246	37.720	0.247	0.216
-193.231	-200.000	-0.066	0.434
-192.217	-200.000	0.000	0.120
-191.202	56.816	0.206	-0.198
-190.187	-200.000	-0.031	0.207
-189.173	-120.508	-0.240	-0.040
-188.158	503.912	-0.133	0.304
-187.144	249.073	-0.076	-0.127
-186.129	110.193	0.100	0.118
-185.114	-75.451	0.223	-0.078
-184.100	-200.000	0.040	-0.197
-183.085	313.151	-0.092	0.171
-182.071	-41.747	0.148	0.075
-181.056	-54.168	0.124	0.056
-180.042	800.000	0.065	0.265
-179.027	107.069	0.103	0.120
-178.012	-200.000	0.007	0.257
-176.998	-200.000	0.064	-0.276
-175.983	-200.000	0.020	0.090
-174.969	800.000	-0.026	-0.105
-173.954	-89.899	0.215	-0.062
-172.939	-75.789	-0.026	-0.009
-171.925	-116.208	0.148	0.027
-170.910	-78.591	0.204	0.069
-169.896	137.469	-0.215	-0.277
-168.881	286.120	0.003	-0.005
-167.866	-138.954	-0.248	0.027
-166.852	0.097	-0.113	0.079
-165.837	-113.181	0.226	0.044
-164.823	60.975	-0.031	0.031
-163.808	100.637	-0.362	0.413
-162.793	104.660	-0.225	0.261
-161.779	37.568	0.318	-0.278
-160.764	-200.000	0.012	0.056
-159.750	-43.072	0.092	-0.046
-158.735	54.438	-0.361	0.342
-157.720	757.708	0.098	0.261
-156.706	-200.000	0.004	0.133
-155.691	143.695	-0.241	0.316
-154.677	-200.000	0.018	0.154
-153.662	-123.375	-0.113	0.018
-152.647	-140.400	0.101	-0.010
-151.633	557.763	0.043	-0.101
-150.618	593.154	0.057	0.138
-149.604	-200.000	0.061	-0.343
-148.589	-200.000	-0.008	0.321
-147.574	54.415	0.081	-0.077
-146.560	-200.000	0.009	-0.039
-145.545	423.652	-0.074	-0.157
-144.531	378.203	-0.095	0.191
-143.516	-135.664	-0.100	0.012
-142.502	-200.000	-0.004	-0.207
-141.487	-200.000	-0.004	-0.021
-140.472	-140.107	-0.301	-0.031
-139.458	192.041	0.175	0.259
-138.443	-200.000	0.048	0.389
-137.429	-200.000	0.013	0.195
-136.414	18.037	0.237	-0.186
-135.399	-200.000	-0.005	-0.183
-134.385	-90.991	-0.201	0.057
-133.370	228.280	0.096	0.154
-132.356	-36.830	0.125	-0.066
-131.341	193.295	-0.067	-0.100
-130.326	-10.196	-0.147	-0.096
-129.312	-94.911	0.205	0.054
-128.297	-98.299	0.489	0.123
-127.283	800.000	-0.019	-0.056
-126.268	-134.283	-0.319	-0.039
-125.253	-31.055	0.107	-0.059
-124.239	484.111	0.074	0.166
-123.224	800.000	0.059	0.213
-122.210	-111.975	0.070	-0.014
