DTS Sentinel unit serial number:	SN413079Multiplexer serial number:	ORYXHardware model number:	OX4-SRSoftware version number:	ORYX F/W v4.00 Oryx Data Collector v3.7.2.0data status	okinstallation	princeton_trtdifferential loss correction	single-endedforward channel	channel 1reverse channel	N/Adate	2019/09/19time	08:38:35forward acquisition time	60.00reverse acquisition time	0.00gamma	496.2192k internal	0.2343k external	0.2343temperature offset calibration	1.0007default loss term (dB/km)	0.3790temperature slope calibration	1.0000multiplexer offset coefficient	1.0000multiplexer slope coefficient	1.0000fibre end	0.00T internal ref (°C)	20.87T ext. ref 1 (°C)	0.58T ext. ref 2 (°C)	16.40length (m)	temperature (°C)	Stokes	anti-Stokes-747.200	-155.130	0.442	0.029
-746.185	-200.000	-0.006	0.249
-745.171	18.005	-0.122	0.098
-744.156	800.000	-0.039	0.155
-743.142	800.000	0.037	-0.123
-742.127	183.353	-0.117	0.173
-741.112	283.760	0.117	0.210
-740.098	-11.439	-0.095	0.063
-739.083	-200.000	0.003	0.168
-738.069	-140.422	-0.329	-0.034
-737.054	-17.802	0.177	0.111
-736.039	-52.341	-0.198	-0.092
-735.025	126.323	-0.073	0.093
-734.010	645.639	-0.061	-0.155
-732.996	409.545	0.017	-0.036
-731.981	-155.528	-0.433	0.028
-730.966	160.835	0.134	0.187
-729.952	133.083	0.253	-0.327
-728.937	177.330	0.136	-0.199
-727.923	-200.000	-0.020	-0.103
-726.908	-98.536	0.458	0.117
-725.894	800.000	0.105	-0.295
-724.879	-87.723	0.180	-0.054
-723.864	-106.047	-0.166	-0.037
-722.850	-200.000	0.065	0.308
-721.835	-99.428	-0.387	0.097
-720.821	-19.980	-0.098	-0.061
-719.806	-125.430	0.281	-0.043
-718.791	-128.874	-0.121	-0.017
-717.777	-3.059	0.094	-0.066
-716.762	-200.000	0.018	0.313
-715.748	-45.163	-0.065	-0.032
-714.733	-128.707	0.260	-0.037
-713.718	6.044	0.112	-0.083
-712.704	-106.578	-0.325	-0.072
-711.689	138.098	-0.174	-0.228
-710.675	-0.416	0.413	-0.294
-709.660	775.100	-0.037	-0.101
-708.645	116.522	0.085	-0.104
-707.631	434.914	0.135	0.293
-706.616	-47.495	-0.284	0.138
-705.602	-67.915	0.365	-0.143
-704.587	432.630	-0.183	-0.396
-703.572	183.372	0.104	-0.153
-702.558	-6.160	0.302	0.206
-701.543	486.381	-0.160	-0.364
-700.529	800.000	0.038	0.120
-699.514	800.000	-0.073	-0.227
-698.499	69.404	-0.066	0.067
-697.485	350.027	-0.256	-0.505
-696.470	-200.000	-0.035	0.218
-695.456	26.874	0.159	0.133
-694.441	-3.996	0.605	0.419
-693.426	-200.000	0.036	0.215
-692.412	130.061	0.214	0.274
-691.397	480.320	0.049	0.112
-690.383	-200.000	0.083	0.369
-689.368	-149.777	-0.144	0.011
-688.354	800.000	0.032	0.121
-687.339	179.296	0.273	-0.400
-686.324	-170.076	0.297	-0.011
-685.310	-142.851	-0.156	-0.015
-684.295	-105.380	-0.119	-0.027
-683.281	94.266	-0.168	-0.191
-682.266	162.948	0.139	-0.195
-681.251	-152.688	-0.067	0.005
-680.237	118.575	-0.157	-0.193
-679.222	-200.000	0.012	-0.218
-678.208	89.131	-0.182	0.203
-677.193	-19.941	0.097	0.060
-676.178	261.400	-0.058	-0.100
-675.164	-200.000	-0.028	0.220
-674.149	-39.981	-0.133	-0.070
-673.135	69.535	-0.164	0.169
-672.120	95.223	-0.073	-0.083
-671.105	-159.896	0.010	-0.001
-670.091	0.818	0.089	0.064
-669.076	166.009	-0.111	0.157
-668.062	-84.497	-0.404	-0.127
-667.047	-39.601	0.101	0.053
-666.032	800.000	0.052	-0.223
-665.018	692.474	0.027	-0.071
-664.003	-35.365	0.111	0.060
-662.989	-200.000	0.008	-0.447
-661.974	147.338	-0.274	-0.369
-660.959	-200.000	0.029	-0.178
-659.945	77.012	-0.091	-0.096
-658.930	-112.602	0.431	0.086
-657.916	-125.134	-0.159	-0.024
-656.901	-135.806	0.175	-0.021
-655.886	23.033	0.158	0.129
-654.872	800.000	-0.070	-0.277
-653.857	275.574	-0.115	-0.204
-652.843	-43.136	-0.210	0.106
-651.828	-198.989	-0.303	0.002
-650.814	-114.398	0.128	-0.025
-649.799	218.411	-0.082	0.130
-648.784	-169.529	-0.172	0.006
-647.770	382.061	0.090	-0.185
-646.755	-75.135	-0.367	-0.131
-645.741	-62.656	0.295	-0.122
-644.726	-133.258	0.170	0.021
-643.711	-200.000	-0.005	0.173
-642.697	-200.000	-0.036	0.252
-641.682	-18.738	0.163	0.101
-640.668	-25.339	0.148	0.087
-639.653	-110.877	-0.137	-0.028
-638.638	-200.000	0.026	0.129
-637.624	31.073	0.308	0.263
-636.609	800.000	0.048	-0.153
-635.595	-63.423	-0.170	-0.070
-634.580	-167.444	-0.164	0.007
-633.565	-43.592	0.189	-0.095
-632.551	74.389	0.106	-0.111
-631.536	-200.000	-0.025	-0.207
-630.522	271.126	0.113	-0.199
-629.507	-26.435	0.204	0.119
-628.492	-200.000	-0.011	0.261
-627.478	303.456	0.060	-0.111
-626.463	-81.001	0.189	-0.062
-625.449	-0.611	0.260	-0.184
-624.434	129.552	0.244	-0.311
-623.419	0.000	-0.121	0.086
-622.405	175.824	0.131	0.190
-621.390	-200.000	0.013	-0.314
-620.376	8.963	0.150	-0.113
-619.361	207.103	-0.097	-0.150
-618.346	-97.348	-0.054	0.014
-617.332	83.815	0.040	-0.043
-616.317	-200.000	-0.033	-0.196
-615.303	11.383	-0.191	0.146
-614.288	-200.000	0.034	-0.239
-613.273	800.000	-0.060	0.191
-612.259	-120.206	-0.146	-0.025
-611.244	619.683	0.026	-0.064
-610.230	-45.227	-0.148	-0.073
-609.215	-200.000	0.017	0.145
-608.201	24.100	-0.143	-0.117
-607.186	58.478	-0.133	-0.130
-606.171	28.915	0.237	-0.200
-605.157	-141.012	-0.684	-0.070
-604.142	-59.065	-0.158	-0.068
-603.128	-116.696	0.418	0.077
-602.113	49.148	-0.206	-0.193
-601.098	800.000	-0.119	0.349
-600.084	-27.759	-0.224	-0.129
-599.069	-200.000	0.071	-0.380
-598.055	101.092	-0.286	0.332
-597.040	-22.367	0.057	0.034
-596.025	-9.898	0.182	-0.121
-595.011	-200.000	0.013	0.133
-593.996	182.963	-0.038	-0.056
-592.982	423.575	-0.042	0.089
-591.967	-200.000	-0.031	-0.380
-590.952	800.000	-0.065	-0.214
-589.938	-65.551	0.097	-0.039
-588.923	356.334	0.092	0.182
-587.909	-200.000	0.091	0.407
-586.894	17.117	-0.194	0.153
-585.879	-200.000	-0.011	-0.123
-584.865	12.581	-0.213	-0.163
-583.850	-200.000	0.022	0.416
-582.836	-90.410	-0.075	-0.022
-581.821	-200.000	0.023	0.408
-580.806	800.000	-0.057	0.226
-579.792	111.550	-0.156	0.187
-578.777	117.843	-0.152	0.186
-577.763	15.042	0.094	-0.073
-576.748	78.250	-0.336	-0.356
-575.733	-14.633	-0.050	-0.032
-574.719	332.070	0.081	0.156
-573.704	800.000	-0.073	0.310
-572.690	-44.452	0.107	0.053
-571.675	-106.711	0.361	0.080
-570.661	23.065	0.480	0.391
-569.646	-84.047	-0.271	0.086
-568.631	-34.105	-0.363	0.199
-567.617	-85.539	-0.197	0.061
-566.602	-89.940	-0.332	-0.096
-565.588	-200.000	-0.002	-0.135
-564.573	27.834	-0.224	0.187
-563.558	-36.571	-0.061	-0.032
-562.544	20.929	0.159	0.128
-561.529	121.915	0.055	-0.068
-560.515	-48.920	-0.136	0.065
-559.500	-157.368	-0.180	-0.011
-558.485	421.728	-0.130	-0.278
-557.471	-200.000	-0.026	-0.271
-556.456	-34.709	0.513	0.279
-555.442	-200.000	-0.047	0.231
-554.427	313.321	0.077	0.143
-553.412	95.223	0.337	0.381
-552.398	185.387	-0.157	0.232
-551.383	-116.749	0.117	0.021
-550.369	80.788	0.215	0.231
-549.354	-118.856	-0.408	0.071
-548.339	-116.014	0.193	0.036
-547.325	-171.642	0.327	0.011
-546.310	800.000	0.078	-0.272
-545.296	-20.731	0.298	0.182
-544.281	800.000	0.029	0.089
-543.266	248.375	-0.184	0.309
-542.252	-25.474	-0.391	0.229
-541.237	-200.000	-0.034	-0.173
-540.223	-53.935	-0.010	0.004
-539.208	-94.500	0.314	-0.085
-538.193	-115.456	0.145	0.027
-537.179	-200.000	0.045	-0.249
-536.164	800.000	-0.086	-0.319
-535.150	-26.946	0.244	-0.141
-534.135	236.289	0.195	-0.321
-533.121	-200.000	-0.071	0.311
-532.106	92.342	0.072	-0.080
-531.091	-115.511	0.196	-0.037
-530.077	-178.202	0.076	-0.002
-529.062	800.000	0.068	0.264
-528.048	-200.000	0.048	0.276
-527.033	64.377	0.159	-0.159
-526.018	-200.000	-0.043	0.377
-525.004	-79.618	0.123	0.041
-523.989	-67.535	0.127	0.049
-522.975	-41.535	-0.010	-0.005
-521.960	512.105	0.127	0.293
-520.945	-149.267	-0.150	-0.012
-519.931	-121.510	-0.219	-0.036
-518.916	-54.639	-0.153	-0.069
-517.902	137.981	0.137	0.178
-516.887	6.349	-0.314	0.231
-515.872	-70.502	0.163	-0.061
-514.858	-17.309	-0.358	0.224
-513.843	767.383	-0.071	-0.191
-512.829	361.621	0.132	0.263
-511.814	-65.042	-0.383	-0.153
-510.799	-63.665	-0.103	-0.042
-509.785	800.000	0.032	0.122
-508.770	63.102	0.189	-0.188
-507.756	-54.548	-0.021	0.009
-506.741	-149.130	0.084	0.007
-505.726	-148.009	0.600	0.049
-504.712	-200.000	0.017	0.114
-503.697	156.634	0.106	0.146
-502.683	303.133	-0.065	0.119
-501.668	-0.776	-0.193	0.135
-500.653	-60.751	0.163	0.069
-499.639	800.000	0.045	-0.188
-498.624	142.687	-0.264	-0.348
-497.610	-200.000	-0.061	-0.279
-496.595	18.462	-0.366	-0.290
-495.581	800.000	-0.055	0.183
-494.566	-26.826	0.369	0.214
-493.551	262.874	0.120	-0.206
-492.537	128.382	-0.250	-0.316
-491.522	78.225	-0.152	-0.161
-490.508	-200.000	-0.029	-0.173
-489.493	-200.000	0.021	0.102
-488.478	-2.893	-0.093	0.064
-487.464	-200.000	0.028	-0.221
-486.449	-109.754	0.392	0.082
-485.435	-200.000	0.003	-0.092
-484.420	108.108	-0.290	0.342
-483.405	82.580	0.147	-0.158
-482.391	716.411	-0.070	-0.185
-481.376	6.842	-0.256	-0.189
-480.362	163.686	-0.061	-0.085
-479.347	-200.000	-0.005	-0.383
-478.332	197.169	-0.163	-0.247
-477.318	486.226	0.209	0.472
-476.303	-97.977	-0.190	-0.049
-475.289	-200.000	0.013	0.240
-474.274	-35.349	-0.202	0.109
-473.259	793.202	0.031	-0.084
-472.245	-73.686	-0.180	0.065
-471.230	-45.586	0.067	-0.033
-470.216	-72.233	0.092	0.034
-469.201	-127.836	0.284	0.041
-468.186	-174.503	-0.130	-0.004
-467.172	800.000	-0.048	0.196
-466.157	51.593	-0.215	0.203
-465.143	-4.423	0.132	-0.090
-464.128	-37.530	0.297	-0.157
-463.113	-109.697	-0.127	0.026
-462.099	800.000	-0.148	0.475
-461.084	-32.573	0.078	-0.043
-460.070	263.472	-0.096	-0.165
-459.055	-200.000	-0.073	-0.326
-458.040	800.000	-0.081	-0.226
-457.026	116.167	0.259	-0.314
-456.011	271.631	0.107	-0.187
-454.997	-22.368	0.343	0.206
-453.982	29.750	-0.314	-0.265
-452.968	14.096	-0.101	-0.078
-451.953	346.511	0.032	0.063
-450.938	-15.303	0.116	-0.074
-449.924	800.000	0.050	-0.185
-448.909	287.634	-0.054	-0.096
-447.895	361.506	0.102	-0.202
-446.880	-200.000	0.012	0.102
-445.865	-200.000	-0.005	0.090
-444.851	67.438	0.185	-0.187
-443.836	-19.765	0.105	-0.064
-442.822	-58.175	-0.189	-0.082
-441.807	90.060	0.113	0.125
-440.792	88.636	0.111	-0.122
-439.778	110.340	0.117	-0.139
-438.763	-200.000	-0.028	0.233
-437.749	-24.309	-0.130	-0.077
-436.734	-200.000	0.015	-0.100
-435.719	473.303	0.029	0.064
-434.705	-200.000	0.018	-0.221
-433.690	-78.113	0.112	0.038
-432.676	-200.000	-0.007	0.163
-431.661	-86.957	0.048	-0.014
-430.646	-136.378	0.107	0.012
-429.632	-200.000	0.106	0.471
-428.617	212.728	0.095	-0.148
-427.603	244.079	0.097	-0.160
-426.588	152.729	0.185	-0.250
-425.573	10.520	-0.172	0.129
-424.559	-200.000	0.005	0.274
-423.544	176.018	0.086	-0.123
-422.530	134.241	-0.188	-0.240
-421.515	751.962	0.076	-0.204
-420.500	-151.995	-0.136	0.010
-419.486	-148.848	-0.221	0.018
-418.471	34.318	0.212	0.183
-417.457	-200.000	-0.043	-0.348
-416.442	-58.969	0.158	-0.068
-415.428	800.000	-0.029	-0.091
-414.413	149.892	0.294	-0.394
-413.398	219.830	-0.039	0.061
-412.384	-28.337	-0.347	0.198
-411.369	204.628	-0.192	0.294
-410.355	-44.311	0.052	0.026
-409.340	-200.000	0.034	0.212
-408.325	-8.804	-0.281	0.186
-407.311	-115.292	0.181	0.034
-406.296	-200.000	0.042	-0.249
-405.282	-112.410	-0.221	-0.044
-404.267	-200.000	0.088	0.381
-403.252	9.176	0.060	0.045
-402.238	-27.778	0.275	-0.157
-401.223	-200.000	0.003	0.172
-400.209	-167.252	0.075	0.003
-399.194	-183.328	-0.346	0.006
-398.179	-118.821	0.288	-0.050
-397.165	-140.153	0.031	-0.003
-396.150	800.000	0.059	-0.176
-395.136	-200.000	-0.026	0.354
-394.121	71.354	-0.015	-0.015
-393.106	800.000	-0.070	-0.202
-392.092	-200.000	-0.029	0.132
-391.077	-19.668	-0.038	0.023
-390.063	27.999	-0.155	0.129
-389.048	-163.013	-0.311	0.015
-388.033	82.542	0.125	-0.134
-387.019	-131.758	-0.240	0.031
-386.004	125.738	0.120	0.149
-384.990	-30.583	-0.141	-0.079
-383.975	-33.651	-0.158	-0.086
-382.960	377.565	0.072	0.145
-381.946	192.813	0.194	0.289
-380.931	800.000	0.066	-0.261
-379.917	181.895	0.154	-0.224
-378.902	-28.314	-0.271	0.154
-377.888	-119.954	-0.323	0.055
-376.873	74.182	0.240	0.248
-375.858	-200.000	-0.071	-0.377
-374.844	-200.000	-0.022	0.352
-373.829	-17.992	-0.256	-0.158
-372.815	364.128	-0.043	-0.085
-371.800	-2.204	0.232	0.161
-370.785	-14.948	-0.189	-0.120
-369.771	-200.000	0.087	-0.396
-368.756	-115.549	0.440	0.082
-367.742	135.857	0.124	-0.159
-366.727	-90.393	0.252	-0.072
-365.712	249.592	0.117	0.196
-364.698	-72.089	0.481	-0.176
-363.683	-149.669	-0.187	-0.015
-362.669	-89.929	0.134	-0.039
-361.654	800.000	-0.081	-0.256
-360.639	40.193	0.130	-0.115
-359.625	-200.000	0.016	-0.190
-358.610	425.607	0.060	0.128
-357.596	212.032	-0.125	0.195
-356.581	-127.418	-0.260	0.037
-355.566	144.586	-0.179	0.236
-354.552	213.935	0.119	-0.186
-353.537	-44.121	0.142	-0.070
-352.523	-137.586	0.096	-0.011
-351.508	365.935	0.140	0.278
-350.493	-3.494	-0.210	0.144
-349.479	-200.000	0.014	0.325
-348.464	133.454	0.164	0.208
-347.450	200.984	-0.253	-0.384
-346.435	470.771	0.072	-0.160
-345.420	-96.318	0.345	-0.090
-344.406	459.487	-0.086	0.188
-343.391	263.804	-0.085	-0.145
-342.377	-200.000	-0.005	0.209
-341.362	-77.965	-0.329	0.112
-340.348	-200.000	-0.007	-0.132
-339.333	93.311	-0.086	-0.096
-338.318	214.469	0.108	-0.168
-337.304	339.977	0.105	0.201
-336.289	-116.249	-0.223	-0.041
-335.275	-200.000	-0.032	0.242
-334.260	11.430	0.102	-0.077
-333.245	-118.619	-0.256	0.045
-332.231	-200.000	-0.047	0.317
-331.216	-79.279	0.327	-0.109
-330.202	800.000	-0.078	-0.292
-329.187	185.387	-0.186	0.273
-328.172	-90.193	-0.063	0.018
-327.158	206.731	-0.128	-0.197
-326.143	186.410	-0.119	-0.175
-325.129	269.301	0.301	0.521
-324.114	685.869	0.172	0.443
-323.099	-137.472	0.230	0.026
-322.085	-39.914	0.120	0.062
-321.070	-91.204	0.302	0.085
-320.056	-200.000	0.023	-0.118
-319.041	-123.291	-0.321	-0.050
-318.026	-200.000	-0.018	-0.305
-317.012	-65.737	0.234	0.092
-315.997	-200.000	-0.042	-0.288
-314.983	327.711	0.088	0.167
-313.968	78.912	-0.079	-0.084
-312.953	-10.794	0.286	-0.186
-311.939	-39.632	-0.075	0.039
-310.924	134.199	-0.138	0.176
-309.910	-200.000	-0.012	0.325
-308.895	258.699	-0.199	-0.338
-307.880	-143.921	-0.048	-0.004
-306.866	280.852	-0.006	-0.010
-305.851	-28.227	-0.179	-0.102
-304.837	-200.000	0.030	0.147
-303.822	-67.490	-0.173	-0.067
-302.807	52.677	-0.098	0.092
-301.793	64.917	0.196	0.195
-300.778	589.193	0.096	0.234
-299.764	-93.212	-0.220	-0.060
-298.749	161.546	0.112	0.154
-297.735	-200.000	-0.030	-0.167
-296.720	-36.176	-0.114	0.061
-295.705	800.000	0.024	0.071
-294.691	-57.135	0.163	-0.071
-293.676	800.000	-0.086	0.310
-292.662	109.273	-0.123	0.145
-291.647	106.060	-0.196	-0.228
-290.632	42.748	-0.073	-0.066
-289.618	-138.777	0.160	-0.017
-288.603	701.340	-0.053	0.137
-287.589	375.245	0.166	-0.333
-286.574	121.813	-0.133	0.164
-285.559	198.440	0.083	-0.125
-284.545	64.690	-0.190	-0.189
-283.530	-123.812	0.273	-0.042
-282.516	-65.420	-0.465	0.184
-281.501	549.338	0.139	0.327
-280.486	203.691	-0.153	-0.233
-279.472	146.986	0.128	0.169
-278.457	562.612	-0.059	0.140
-277.443	495.053	0.136	-0.307
-276.428	-108.787	-0.344	-0.072
-275.413	-1.818	0.256	-0.177
-274.399	5.568	-0.046	-0.033
-273.384	-200.000	-0.018	0.217
-272.370	204.271	0.149	-0.227
-271.355	800.000	0.050	-0.177
-270.340	-76.657	0.218	0.075
-269.326	9.605	-0.337	0.251
-268.311	-49.596	-0.123	-0.058
-267.297	-10.395	0.107	0.070
-266.282	209.586	-0.119	-0.184
-265.267	800.000	-0.111	0.322
-264.253	133.877	0.223	0.284
-263.238	212.361	0.091	-0.140
-262.224	-52.288	-0.339	-0.154
-261.209	-139.309	-0.178	0.019
-260.195	-13.714	-0.456	0.290
-259.180	227.403	0.062	0.099
-258.165	-123.218	0.260	0.041
-257.151	48.428	0.079	0.073
-256.136	800.000	0.108	-0.331
-255.122	-192.167	0.336	0.003
-254.107	-28.251	-0.480	-0.273
-253.092	800.000	0.078	-0.319
-252.078	-9.958	-0.168	-0.109
-251.063	-130.218	0.509	-0.068
-250.049	73.054	0.150	0.154
-249.034	-200.000	0.030	0.289
-248.019	-88.313	0.291	-0.086
-247.005	-200.000	-0.001	-0.165
-245.990	-72.219	-0.194	-0.071
-244.976	800.000	0.060	-0.254
-243.961	-127.941	-0.107	-0.015
-242.946	-56.853	0.040	-0.017
-241.932	-175.395	-0.282	0.008
-240.917	122.717	-0.203	-0.249
-239.903	-51.337	-0.314	-0.144
-238.888	140.845	0.103	-0.133
-237.873	-200.000	-0.004	-0.096
-236.859	10.155	0.063	-0.047
-235.844	800.000	0.045	-0.133
-234.830	800.000	-0.046	-0.156
-233.815	-118.267	0.190	-0.033
-232.800	-200.000	-0.068	0.375
-231.786	83.991	0.327	-0.350
-230.771	-200.000	-0.030	0.408
-229.757	227.010	0.094	-0.150
-228.742	-77.717	-0.281	-0.095
-227.727	-200.000	0.014	0.299
-226.713	-155.225	-0.301	-0.019
-225.698	-74.014	0.021	0.008
-224.684	17.871	0.142	-0.111
-223.669	-113.388	0.206	0.040
-222.655	-12.829	-0.170	0.109
-221.640	36.012	0.093	0.080
-220.625	346.977	0.146	-0.281
-219.611	125.813	0.188	-0.233
-218.596	-34.928	0.303	-0.162
-217.582	65.467	-0.227	0.225
-216.567	22.810	0.375	0.302
-215.552	-200.000	0.023	0.150
-214.538	-109.557	-0.460	0.095
-213.523	633.861	0.047	-0.118
-212.509	-200.000	0.019	-0.190
-211.494	62.470	0.054	0.053
-210.479	-137.262	0.463	-0.052
-209.465	-112.088	-0.174	0.034
-208.450	800.000	0.050	0.142
-207.436	13.964	-0.104	0.079
-206.421	45.195	-0.077	0.070
-205.406	-200.000	0.006	0.034
-204.392	-76.576	0.408	-0.140
-203.377	800.000	-0.073	0.220
-202.363	-73.140	0.224	-0.080
-201.348	424.951	0.077	-0.162
-200.333	99.389	-0.114	0.129
-199.319	800.000	-0.072	0.243
-198.304	-106.055	-0.233	-0.051
-197.290	-113.178	-0.260	-0.050
-196.275	113.105	0.206	0.245
-195.260	-67.427	-0.288	-0.111
-194.246	347.148	-0.080	0.154
-193.231	12.094	-0.288	-0.217
-192.217	105.963	-0.200	-0.232
-191.202	-91.110	-0.034	0.010
-190.187	800.000	0.027	-0.086
-189.173	800.000	-0.070	-0.225
-188.158	-46.440	0.064	0.031
-187.144	-191.686	-0.169	0.002
-186.129	-131.163	-0.109	-0.014
-185.114	166.476	0.134	0.186
-184.100	84.995	-0.140	-0.151
-183.085	-200.000	-0.076	0.363
-182.071	-200.000	-0.017	-0.117
-181.056	-17.761	0.215	-0.132
-180.042	-200.000	0.017	-0.318
-179.027	-200.000	0.026	0.270
-178.012	68.154	0.199	0.199
-176.998	-139.023	-0.234	0.025
-175.983	-119.883	0.064	0.011
-174.969	-8.236	-0.158	-0.104
-173.954	-43.860	0.297	-0.146
-172.939	-76.401	0.193	-0.067
-171.925	-95.868	-0.281	0.073
-170.910	800.000	0.081	-0.264
-169.896	386.476	0.066	0.133
-168.881	407.208	-0.046	-0.095
-167.866	-200.000	-0.015	0.436
-166.852	-71.540	0.168	0.062
-165.837	-200.000	0.018	-0.087
-164.823	-200.000	0.022	0.203
-163.808	13.143	0.146	-0.111
-162.793	302.829	0.060	-0.109
-161.779	-131.307	0.150	0.019
-160.764	33.426	0.179	0.152
-159.750	-74.717	-0.367	-0.129
-158.735	800.000	-0.053	-0.161
-157.720	-200.000	0.018	0.134
-156.706	-200.000	0.041	-0.335
-155.691	-15.259	-0.076	-0.048
-154.677	-98.884	-0.161	0.040
-153.662	90.050	-0.272	-0.297
-152.647	-48.693	0.109	0.051
-151.633	194.513	0.077	0.114
-150.618	-83.730	-0.081	-0.025
-149.604	556.821	0.089	0.209
-148.589	175.715	-0.137	-0.195
-147.574	74.958	-0.153	0.158
-146.560	287.798	0.086	0.152
-145.545	-200.000	-0.026	-0.204
-144.531	-189.461	0.273	-0.003
-143.516	70.172	-0.108	0.110
-142.502	800.000	-0.014	0.059
-141.487	-75.994	-0.300	0.104
-140.472	-200.000	-0.036	-0.495
-139.458	-53.808	-0.100	-0.045
-138.443	-21.895	0.401	-0.239
-137.429	-31.044	-0.253	0.140
-136.414	800.000	-0.089	0.358
-135.399	800.000	0.076	0.242
-134.385	-81.480	0.381	-0.123
-133.370	-55.408	0.231	-0.101
-132.356	-200.000	-0.021	-0.157
-131.341	-200.000	0.051	0.313
-130.326	-101.864	-0.128	0.030
-129.312	23.574	0.249	0.200
-128.297	-109.078	-0.239	0.050
-127.283	42.555	0.273	0.243
-126.268	764.597	-0.010	0.025
-125.253	-29.969	0.047	-0.026
-124.239	-89.988	-0.221	-0.063
-123.224	-45.992	0.193	-0.093
-122.210	-128.650	-0.387	0.053
