DTS Sentinel unit serial number:	SN413079Multiplexer serial number:	ORYXHardware model number:	OX4-SRSoftware version number:	ORYX F/W v4.00 Oryx Data Collector v3.7.2.0data status	okinstallation	princeton_trtdifferential loss correction	single-endedforward channel	channel 1reverse channel	N/Adate	2019/09/15time	03:54:35forward acquisition time	60.00reverse acquisition time	0.00gamma	496.2192k internal	0.2323k external	0.2323temperature offset calibration	0.9985default loss term (dB/km)	0.3790temperature slope calibration	1.0000multiplexer offset coefficient	1.0000multiplexer slope coefficient	1.0000fibre end	0.00T internal ref (°C)	30.94T ext. ref 1 (°C)	4.60T ext. ref 2 (°C)	25.92length (m)	temperature (°C)	Stokes	anti-Stokes-747.200	-200.000	0.014	0.109
-746.185	189.583	-0.360	0.545
-745.171	-2.927	0.151	0.106
-744.156	-7.265	-0.324	0.222
-743.142	340.945	0.106	0.209
-742.127	236.737	-0.156	0.261
-741.112	150.202	0.198	0.271
-740.098	319.086	0.119	0.227
-739.083	73.975	0.301	0.319
-738.069	800.000	-0.191	0.549
-737.054	204.130	-0.225	0.352
-736.039	-103.664	-0.207	-0.049
-735.025	-56.701	-0.068	0.030
-734.010	75.000	0.163	-0.173
-732.996	-114.755	-0.251	-0.048
-731.981	-27.968	0.084	-0.049
-730.966	-56.056	0.277	0.124
-729.952	96.700	-0.074	0.086
-728.937	-21.875	-0.313	-0.192
-727.923	-200.000	-0.048	-0.220
-726.908	69.520	-0.252	-0.261
-725.894	-21.512	-0.466	0.287
-724.879	100.412	-0.049	-0.057
-723.864	612.402	0.092	-0.233
-722.850	800.000	-0.101	-0.328
-721.835	11.911	-0.063	-0.049
-720.821	2.123	-0.348	-0.253
-719.806	543.499	-0.024	-0.058
-718.791	127.569	-0.052	-0.066
-717.777	-131.334	0.039	-0.005
-716.762	-149.740	0.311	0.025
-715.748	-200.000	0.002	-0.189
-714.733	-42.409	-0.125	0.064
-713.718	27.879	0.043	-0.037
-712.704	107.800	-0.003	0.004
-711.689	512.537	-0.041	0.096
-710.675	-18.781	-0.199	0.125
-709.660	-99.800	-0.201	-0.051
-708.645	-76.547	0.252	0.089
-707.631	-200.000	0.001	-0.148
-706.616	-65.700	0.335	0.135
-705.602	170.993	0.314	0.454
-704.587	-48.125	0.235	0.114
-703.572	800.000	-0.109	0.463
-702.558	-200.000	0.031	-0.138
-701.543	800.000	0.074	-0.307
-700.529	-130.077	0.289	0.040
-699.514	166.744	-0.172	0.247
-698.499	156.174	-0.061	0.084
-697.485	-200.000	-0.009	0.149
-696.470	241.621	0.237	0.400
-695.456	-58.395	0.258	-0.113
-694.441	-75.809	0.265	-0.095
-693.426	179.444	0.099	0.146
-692.412	-200.000	0.012	0.334
-691.397	-102.482	-0.389	-0.094
-690.383	-200.000	0.026	-0.172
-689.368	-15.738	-0.473	-0.304
-688.354	-200.000	0.016	0.128
-687.339	-200.000	0.043	0.336
-686.324	-200.000	0.007	0.068
-685.310	-200.000	0.013	0.085
-684.295	-97.988	-0.401	-0.104
-683.281	-120.370	-0.248	0.043
-682.266	412.429	-0.095	0.203
-681.251	-13.912	0.233	0.151
-680.237	-108.442	-0.217	0.047
-679.222	-134.200	-0.475	-0.059
-678.208	-200.000	-0.002	0.246
-677.193	-156.532	-0.443	0.028
-676.178	171.100	0.094	-0.136
-675.164	-73.634	-0.174	0.064
-674.149	-200.000	-0.033	-0.178
-673.135	800.000	0.030	-0.093
-672.120	163.497	0.186	-0.263
-671.105	800.000	-0.137	-0.440
-670.091	-134.525	0.102	0.013
-669.076	-93.186	-0.474	0.133
-668.062	-200.000	-0.007	-0.166
-667.047	-143.114	0.161	-0.016
-666.032	120.378	0.186	-0.233
-665.018	-200.000	0.004	-0.119
-664.003	-95.522	-0.207	0.056
-662.989	-27.614	-0.178	-0.104
-661.974	800.000	0.096	0.376
-660.959	-86.789	0.050	-0.015
-659.945	-74.428	0.196	-0.071
-658.930	-200.000	-0.002	0.055
-657.916	8.985	0.138	-0.105
-656.901	800.000	-0.065	0.195
-655.886	9.138	-0.236	-0.180
-654.872	-39.124	0.173	0.092
-653.857	249.827	0.035	-0.059
-652.843	-200.000	-0.068	-0.315
-651.828	-57.423	-0.247	0.109
-650.814	-43.664	0.182	0.092
-649.799	-200.000	0.013	0.306
-648.784	576.493	0.076	-0.186
-647.770	-55.863	0.071	0.032
-646.755	800.000	0.096	0.398
-645.741	-34.466	-0.194	0.107
-644.726	-111.226	-0.128	0.026
-643.711	-73.271	0.093	0.034
-642.697	257.054	0.064	0.111
-641.682	178.182	0.104	0.152
-640.668	-1.648	-0.243	-0.172
-639.653	108.078	-0.034	-0.041
-638.638	-113.304	0.108	-0.021
-637.624	301.506	-0.141	-0.262
-636.609	530.038	0.020	0.048
-635.595	-89.032	-0.041	-0.012
-634.580	800.000	0.062	-0.184
-633.565	800.000	0.071	-0.299
-632.551	138.139	-0.207	-0.273
-631.536	-139.796	0.214	0.023
-630.522	-74.629	-0.300	0.109
-629.507	23.321	0.061	0.050
-628.492	233.029	-0.190	-0.314
-627.478	-200.000	0.006	0.119
-626.463	-112.910	0.128	0.026
-625.449	-2.460	0.143	0.101
-624.434	-200.000	0.000	0.039
-623.419	800.000	0.104	0.320
-622.405	612.311	0.101	-0.253
-621.390	-11.246	-0.048	-0.032
-620.376	-31.803	0.222	0.125
-619.361	-110.034	-0.213	0.045
-618.346	-105.337	-0.240	-0.055
-617.332	-200.000	-0.019	0.232
-616.317	800.000	0.075	-0.211
-615.303	-66.639	-0.122	0.049
-614.288	276.850	-0.043	-0.077
-613.273	112.574	-0.025	0.030
-612.259	-171.701	0.408	0.013
-611.244	-144.671	-0.283	-0.026
-610.230	-62.297	0.239	-0.100
-609.215	732.946	0.068	-0.183
-608.201	-200.000	0.027	0.184
-607.186	-170.838	0.083	-0.003
-606.171	-87.962	-0.413	0.125
-605.157	-200.000	0.013	-0.065
-604.142	-153.789	-0.328	-0.023
-603.128	668.475	-0.037	-0.097
-602.113	25.448	-0.132	0.110
-601.098	-200.000	0.017	0.108
-600.084	682.314	0.020	-0.053
-599.069	-200.000	-0.002	0.125
-598.055	285.641	0.044	0.079
-597.040	46.950	-0.131	-0.123
-596.025	-200.000	-0.015	-0.162
-595.011	-200.000	0.033	0.222
-593.996	-104.716	-0.285	0.066
-592.982	420.655	-0.201	-0.432
-591.967	565.030	-0.096	-0.235
-590.952	-200.000	-0.045	-0.291
-589.938	-87.017	-0.350	0.107
-588.923	71.954	-0.242	0.252
-587.909	657.793	-0.136	0.350
-586.894	213.843	0.115	0.182
-585.879	-198.101	-0.345	0.002
-584.865	89.581	0.101	0.113
-583.850	487.115	0.013	0.031
-582.836	279.480	0.130	-0.232
-581.821	387.832	-0.097	-0.201
-580.806	800.000	-0.093	-0.282
-579.792	138.388	-0.345	0.454
-578.777	-72.126	0.351	-0.131
-577.763	-71.510	-0.071	-0.026
-576.748	-200.000	0.013	-0.428
-575.733	-6.010	0.136	-0.094
-574.719	-200.000	0.055	0.251
-573.704	89.299	-0.157	-0.175
-572.690	-19.046	-0.200	-0.125
-571.675	-200.000	0.019	-0.243
-570.661	638.934	-0.038	-0.098
-569.646	210.444	0.213	-0.336
-568.631	8.918	-0.266	0.201
-567.617	94.213	-0.059	-0.067
-566.602	-200.000	0.012	-0.155
-565.588	-5.774	0.083	0.057
-564.573	137.750	0.091	0.120
-563.558	-58.144	0.260	0.113
-562.544	154.303	-0.145	0.200
-561.529	-3.160	0.060	-0.042
-560.515	7.459	0.168	0.126
-559.500	249.803	-0.170	-0.288
-558.485	-44.487	0.290	-0.145
-557.471	234.386	-0.018	0.030
-556.456	-128.096	0.121	-0.017
-555.442	-20.037	-0.154	-0.095
-554.427	-200.000	0.008	-0.064
-553.412	347.846	0.122	-0.240
-552.398	800.000	-0.049	-0.172
-551.383	137.708	-0.102	0.133
-550.369	-131.435	0.330	0.044
-549.354	458.678	0.113	0.252
-548.339	477.539	0.143	0.324
-547.325	-94.439	-0.121	0.033
-546.310	34.673	-0.159	0.140
-545.296	532.937	0.114	-0.269
-544.281	-123.075	-0.327	0.053
-543.266	5.956	0.216	0.160
-542.252	82.897	0.170	-0.186
-541.237	-68.377	-0.368	-0.143
-540.223	-97.203	-0.190	0.050
-539.208	-49.097	-0.166	-0.080
-538.193	77.051	0.102	0.108
-537.179	6.462	-0.275	-0.205
-536.164	96.290	-0.240	-0.275
-535.150	-73.042	0.159	-0.058
-534.135	-40.754	0.137	-0.071
-533.121	-58.384	-0.415	0.181
-532.106	-200.000	0.037	-0.263
-531.091	24.969	-0.329	0.273
-530.077	-7.786	-0.229	0.155
-529.062	800.000	0.009	-0.040
-528.048	-101.196	-0.310	-0.076
-527.033	452.549	-0.109	0.242
-526.018	-152.279	-0.029	-0.002
-525.004	-89.992	-0.260	0.076
-523.989	800.000	0.062	-0.258
-522.975	-76.499	0.436	-0.153
-521.960	-111.119	-0.099	-0.020
-520.945	185.291	-0.098	0.146
-519.931	-177.617	-0.240	-0.006
-518.916	-200.000	0.010	-0.161
-517.902	-108.453	-0.087	0.019
-516.887	800.000	0.048	0.148
-515.872	-163.472	0.054	-0.003
-514.858	-200.000	-0.002	0.315
-513.843	-143.513	0.198	-0.019
-512.829	800.000	-0.048	-0.196
-511.814	82.681	0.031	-0.034
-510.799	415.239	0.076	-0.162
-509.785	-76.079	-0.209	-0.074
-508.770	85.560	0.038	-0.042
-507.756	207.127	0.048	-0.075
-506.741	-200.000	0.032	-0.196
-505.726	800.000	0.047	0.136
-504.712	692.346	0.046	0.120
-503.697	28.974	-0.131	-0.111
-502.683	300.507	-0.107	-0.197
-501.668	-200.000	-0.012	-0.132
-500.653	-126.848	0.262	-0.039
-499.639	69.722	-0.163	0.168
-498.624	24.191	-0.313	-0.258
-497.610	-45.936	0.172	-0.085
-496.595	-82.362	0.152	-0.049
-495.581	-112.660	-0.360	0.072
-494.566	18.760	-0.123	-0.098
-493.551	-200.000	-0.029	-0.174
-492.537	56.181	0.195	0.189
-491.522	-200.000	-0.013	-0.201
-490.508	-82.835	-0.021	-0.007
-489.493	67.603	0.323	0.330
-488.478	800.000	-0.014	0.041
-487.464	129.152	-0.096	0.122
-486.449	4.093	-0.284	-0.207
-485.435	-200.000	0.035	0.331
-484.420	-121.077	0.252	0.042
-483.405	-200.000	-0.006	0.349
-482.391	-200.000	-0.012	-0.162
-481.376	271.041	-0.156	-0.275
-480.362	-200.000	-0.031	-0.296
-479.347	-200.000	0.027	-0.386
-478.332	-15.005	-0.117	0.075
-477.318	44.913	0.219	0.202
-476.303	-200.000	-0.027	0.219
-475.289	-33.284	0.022	-0.012
-474.274	-190.924	-0.174	-0.002
-473.259	48.274	0.245	-0.230
-472.245	-155.542	0.359	0.023
-471.230	287.338	0.056	-0.102
-470.216	800.000	0.132	0.368
-469.201	-168.103	0.203	-0.008
-468.186	-28.528	0.189	0.109
-467.172	76.511	0.105	-0.111
-466.157	-200.000	0.038	0.226
-465.143	-61.619	-0.213	0.089
-464.128	16.277	-0.112	0.088
-463.113	-22.589	0.092	0.056
-462.099	-200.000	0.004	0.173
-461.084	97.457	0.198	-0.227
-460.070	-1.547	-0.236	-0.166
-459.055	-200.000	-0.012	-0.090
-458.040	-99.417	-0.520	0.131
-457.026	-5.355	0.137	-0.094
-456.011	-112.837	-0.220	-0.044
-454.997	380.581	-0.055	0.112
-453.982	-4.048	0.114	-0.079
-452.968	-129.249	-0.075	-0.010
-451.953	160.173	0.178	-0.247
-450.938	-200.000	0.150	-0.660
-449.924	-143.945	0.310	-0.029
-448.909	-71.038	-0.154	0.058
-447.895	-200.000	0.003	-0.135
-446.880	-200.000	0.042	0.266
-445.865	-107.988	-0.173	0.038
-444.851	-86.878	0.118	-0.036
-443.836	196.321	0.068	-0.104
-442.822	-124.368	-0.430	-0.067
-441.807	319.100	0.148	0.280
-440.792	-70.034	0.175	-0.067
-439.778	646.081	0.097	-0.248
-438.763	-16.785	-0.262	0.165
-437.749	-123.802	-0.213	0.034
-436.734	-175.142	-0.138	0.004
-435.719	-176.293	0.230	-0.006
-434.705	-1.386	0.119	-0.084
-433.690	-200.000	0.038	-0.471
-432.676	-137.868	0.249	0.028
-431.661	-6.593	0.230	0.156
-430.646	78.092	-0.106	0.113
-429.632	106.712	0.202	0.239
-428.617	108.120	-0.102	-0.122
-427.603	0.700	0.042	0.030
-426.588	800.000	0.070	-0.254
-425.573	-73.517	-0.290	-0.105
-424.559	-200.000	-0.046	-0.210
-423.544	404.926	-0.064	-0.135
-422.530	69.523	0.155	0.159
-421.515	-200.000	-0.003	0.146
-420.500	-118.653	-0.238	0.042
-419.486	-86.746	0.175	-0.053
-418.471	57.343	-0.091	0.088
-417.457	273.859	-0.141	-0.249
-416.442	800.000	0.061	-0.182
-415.428	124.775	0.209	-0.263
-414.413	-134.306	-0.141	-0.017
-413.398	104.505	-0.346	-0.407
-412.384	-200.000	-0.142	-0.000
-411.369	73.559	0.178	-0.186
-410.355	-76.960	-0.260	-0.091
-409.340	-200.000	0.001	0.312
-408.325	-84.777	-0.172	-0.054
-407.311	188.661	-0.097	0.144
-406.296	48.504	0.052	0.048
-405.282	600.012	0.124	-0.308
-404.267	-148.766	-0.143	0.012
-403.252	549.771	-0.161	0.386
-402.238	710.542	0.093	0.246
-401.223	-31.089	-0.069	-0.039
-400.209	-8.964	0.091	-0.061
-399.194	34.648	-0.054	-0.047
-398.179	-21.459	-0.055	0.034
-397.165	-60.232	0.193	-0.082
-396.150	177.984	0.162	-0.236
-395.136	800.000	-0.080	-0.274
-394.121	41.509	0.023	0.021
-393.106	388.541	-0.148	-0.304
-392.092	-102.991	-0.308	0.073
-391.077	-75.506	-0.318	0.113
-390.063	-8.284	0.149	0.100
-389.048	-46.410	-0.268	-0.131
-388.033	-200.000	-0.014	0.204
-387.019	-83.502	-0.283	-0.090
-386.004	697.699	0.101	0.265
-384.990	-101.277	0.064	-0.016
-383.975	-57.438	0.037	-0.016
-382.960	327.201	-0.107	-0.205
-381.946	800.000	0.099	-0.365
-380.931	800.000	-0.083	0.283
-379.917	-111.568	-0.087	0.018
-378.902	202.387	0.106	-0.164
-377.888	530.677	0.025	-0.058
-376.873	226.205	0.034	0.055
-375.858	142.720	0.237	0.314
-374.844	-53.585	-0.351	0.160
-373.829	74.790	-0.126	-0.131
-372.815	800.000	0.016	-0.054
-371.800	-116.569	-0.118	0.022
-370.785	-89.755	-0.109	0.032
-369.771	-200.000	-0.010	0.068
-368.756	16.021	0.095	0.074
-367.742	44.781	0.084	0.077
-366.727	108.774	0.106	0.126
-365.712	800.000	-0.064	-0.211
-364.698	302.313	0.191	-0.352
-363.683	-200.000	0.023	-0.546
-362.669	79.460	-0.140	-0.149
-361.654	-5.956	0.048	0.033
-360.639	800.000	0.022	-0.075
-359.625	-200.000	0.015	0.092
-358.610	-200.000	0.022	0.159
-357.596	203.312	-0.116	-0.178
-356.581	632.643	-0.083	0.210
-355.566	229.160	-0.063	-0.101
-354.552	81.529	-0.267	0.287
-353.537	800.000	-0.076	-0.247
-352.523	800.000	0.093	0.288
-351.508	-143.547	-0.209	-0.020
-350.493	800.000	0.062	-0.173
-349.479	160.517	-0.128	-0.177
-348.464	15.499	-0.070	-0.054
-347.450	5.039	0.185	-0.136
-346.435	-200.000	0.032	-0.197
-345.420	19.078	-0.056	-0.044
-344.406	800.000	0.028	0.090
-343.391	-168.574	-0.074	0.003
-342.377	104.696	0.094	0.110
-341.362	-200.000	-0.059	0.299
-340.348	-3.431	-0.178	0.123
-339.333	22.949	0.160	-0.131
-338.318	800.000	-0.015	-0.054
-337.304	228.326	-0.122	0.198
-336.289	22.638	0.157	-0.127
-335.275	-200.000	-0.040	0.256
-334.260	113.852	-0.293	0.354
-333.245	-57.994	0.235	-0.102
-332.231	30.590	-0.230	0.195
-331.216	-145.864	-0.030	0.003
-330.202	-200.000	0.030	-0.331
-329.187	649.253	-0.092	-0.235
-328.172	62.977	0.139	0.139
-327.158	535.230	-0.048	-0.114
-326.143	-200.000	0.010	0.084
-325.129	-112.910	-0.220	0.043
-324.114	-124.416	0.090	-0.014
-323.099	-29.921	-0.384	0.217
-322.085	-200.000	-0.034	-0.166
-321.070	-200.000	0.039	0.172
-320.056	800.000	0.032	0.108
-319.041	-92.924	0.228	-0.063
-318.026	61.246	0.046	0.045
-317.012	434.361	0.028	-0.060
-315.997	-23.494	0.049	-0.029
-314.983	238.904	-0.112	0.186
-313.968	-7.575	0.189	0.127
-312.953	-52.343	0.438	-0.201
-311.939	-200.000	-0.023	-0.304
-310.924	-200.000	-0.032	-0.156
-309.910	29.088	0.257	0.217
-308.895	800.000	0.156	0.665
-307.880	303.534	-0.116	0.214
-306.866	-175.944	0.246	0.006
-305.851	-200.000	-0.006	-0.185
-304.837	-124.271	-0.411	-0.064
-303.822	-200.000	-0.021	0.271
-302.807	746.105	-0.082	0.220
-301.793	736.329	0.038	-0.100
-300.778	-96.068	0.067	0.018
-299.764	-150.153	-0.112	-0.009
-298.749	-9.146	-0.165	0.110
-297.735	-54.652	0.079	0.035
-296.720	-5.864	0.238	-0.162
-295.705	-13.347	0.091	-0.058
-294.691	-200.000	-0.105	-0.483
-293.676	-200.000	-0.039	-0.477
-292.662	404.359	0.131	0.273
-291.647	4.126	-0.192	0.139
-290.632	-91.713	0.079	0.022
-289.618	-111.457	-0.077	-0.016
-288.603	-13.796	0.378	0.242
-287.589	363.232	-0.080	-0.160
-286.574	-128.173	-0.143	-0.020
-285.559	800.000	0.072	-0.216
-284.545	464.825	0.092	-0.205
-283.530	-111.086	-0.201	0.041
-282.516	10.674	0.185	0.140
-281.501	-61.037	-0.067	0.028
-280.486	-200.000	0.040	0.247
-279.472	-200.000	0.005	0.049
-278.457	-200.000	0.022	0.179
-277.443	-65.764	0.210	-0.083
-276.428	6.601	-0.159	-0.117
-275.413	-75.308	0.012	-0.004
-274.399	-200.000	-0.017	-0.222
-273.384	470.027	0.143	0.318
-272.370	413.734	-0.085	0.180
-271.355	800.000	0.136	0.551
-270.340	5.388	0.261	0.191
-269.326	186.157	-0.074	0.110
-268.311	-22.360	-0.110	0.066
-267.297	49.338	0.162	0.151
-266.282	-94.371	0.172	0.046
-265.267	-200.000	0.038	0.168
-264.253	370.944	-0.032	-0.064
-263.238	199.976	0.105	-0.160
-262.224	-200.000	0.008	-0.231
-261.209	-200.000	-0.007	-0.030
-260.195	-159.213	-0.287	0.016
-259.180	55.517	0.102	0.098
-258.165	800.000	0.083	0.270
-257.151	-61.496	0.101	-0.042
-256.136	800.000	-0.086	0.325
-255.122	55.400	0.067	-0.064
-254.107	-7.676	0.389	-0.261
-253.092	-135.183	0.148	-0.018
-252.078	-200.000	-0.036	0.259
-251.063	-3.593	0.297	0.204
-250.049	-200.000	-0.054	-0.274
-249.034	800.000	0.067	0.189
-248.019	-95.846	0.152	-0.040
-247.005	17.737	-0.137	-0.108
-245.990	800.000	-0.084	0.263
-244.976	-61.498	0.405	-0.168
-243.961	2.247	-0.351	-0.251
-242.946	50.221	-0.262	0.245
-241.932	-200.000	-0.041	-0.266
-240.917	362.840	0.174	0.346
-239.903	800.000	-0.091	0.359
-238.888	172.744	0.064	0.091
-237.873	800.000	-0.025	0.093
-236.859	8.598	-0.128	0.096
-235.844	72.548	0.273	-0.282
-234.830	-47.248	0.285	-0.137
-233.815	-9.182	-0.010	0.006
-232.800	-151.660	0.397	-0.029
-231.786	-200.000	0.010	-0.096
-230.771	-145.164	0.239	0.021
-229.757	93.640	-0.249	0.279
-228.742	-112.227	-0.388	-0.077
-227.727	800.000	-0.048	-0.198
-226.713	-50.692	-0.084	0.039
-225.698	-41.757	-0.242	0.123
-224.684	138.094	0.147	-0.191
-223.669	64.024	0.228	-0.227
-222.655	-134.400	0.269	-0.033
-221.640	800.000	0.125	-0.347
-220.625	-110.342	-0.185	0.038
-219.611	-192.105	0.090	0.001
-218.596	357.836	-0.011	-0.022
-217.582	118.933	-0.042	0.052
-216.567	800.000	-0.073	0.228
-215.552	-136.033	-0.209	-0.024
-214.538	-100.252	0.094	-0.023
-213.523	319.986	0.032	-0.060
-212.509	-200.000	0.001	-0.105
-211.494	-200.000	-0.019	0.255
-210.479	-39.820	0.307	-0.159
-209.465	-66.766	0.194	-0.076
-208.450	800.000	0.113	-0.466
-207.436	-55.293	-0.187	0.083
-206.421	-53.418	0.330	0.149
-205.406	-20.022	0.231	-0.141
-204.392	319.906	0.075	-0.141
-203.377	-20.992	0.162	0.098
-202.363	139.384	0.052	0.068
-201.348	16.766	-0.111	0.087
-200.333	743.768	0.030	0.080
-199.319	-200.000	0.016	0.183
-198.304	-43.770	-0.087	-0.043
-197.290	143.820	0.068	-0.089
-196.275	-25.280	0.282	-0.165
-195.260	-200.000	-0.007	-0.111
-194.246	71.148	0.177	-0.182
-193.231	-54.389	-0.049	-0.022
-192.217	-147.330	0.070	0.006
-191.202	-200.000	-0.001	-0.250
-190.187	-200.000	0.026	0.141
-189.173	-131.364	-0.371	-0.048
-188.158	338.074	-0.131	0.251
-187.144	230.031	0.139	0.225
-186.129	-7.637	0.268	0.179
-185.114	46.640	0.220	-0.202
-184.100	-200.000	-0.020	0.102
-183.085	434.140	0.076	0.164
-182.071	153.682	-0.144	0.194
-181.056	24.399	0.049	0.040
-180.042	-200.000	-0.032	-0.174
-179.027	18.192	0.464	-0.365
-178.012	-172.750	-0.167	0.005
-176.998	-46.987	-0.216	0.104
-175.983	-113.693	0.190	0.036
-174.969	-163.533	0.079	0.004
-173.954	800.000	0.036	0.142
-172.939	-58.933	0.134	-0.057
-171.925	-65.705	0.216	0.085
-170.910	105.278	0.076	-0.088
-169.896	98.573	0.023	0.027
-168.881	-200.000	-0.030	0.297
-167.866	608.827	0.068	0.169
-166.852	499.189	-0.122	0.277
-165.837	-94.296	0.109	0.029
-164.823	-135.667	0.192	-0.022
-163.808	-200.000	-0.049	0.454
-162.793	-70.583	0.195	0.073
-161.779	123.084	-0.055	-0.068
-160.764	115.131	0.178	0.215
-159.750	800.000	0.107	0.386
-158.735	417.723	0.200	0.422
-157.720	-193.792	0.183	-0.002
-156.706	-200.000	0.102	0.502
-155.691	-200.000	-0.023	0.194
-154.677	157.702	-0.194	0.264
-153.662	-61.664	0.149	0.061
-152.647	36.149	-0.117	-0.101
-151.633	800.000	0.051	-0.213
-150.618	-46.491	0.268	0.130
-149.604	-200.000	-0.027	0.219
-148.589	56.583	0.061	-0.059
-147.574	-200.000	-0.013	0.059
-146.560	-102.528	-0.095	-0.022
-145.545	156.510	-0.087	0.118
-144.531	800.000	0.033	-0.111
-143.516	-59.101	0.097	0.041
-142.502	-200.000	-0.008	-0.211
-141.487	-200.000	0.022	0.212
-140.472	187.101	0.256	0.376
-139.458	165.928	0.318	-0.444
-138.443	800.000	-0.076	0.253
-137.429	28.716	0.248	-0.207
-136.414	-149.289	0.153	0.012
-135.399	12.903	-0.226	-0.172
-134.385	-85.331	-0.177	0.054
-133.370	-200.000	-0.034	0.479
-132.356	-200.000	0.012	0.116
-131.341	132.342	-0.066	0.084
-130.326	2.446	-0.257	-0.183
-129.312	-177.632	-0.166	0.004
-128.297	-200.000	0.044	0.263
-127.283	434.440	-0.050	0.107
-126.268	-121.196	-0.049	0.008
-125.253	-166.603	0.063	-0.003
-124.239	-36.675	-0.324	0.172
-123.224	274.148	0.056	0.097
-122.210	-200.000	-0.038	0.345
-121.195	-200.000	0.007	0.247
