DTS Sentinel unit serial number:	SN413079Multiplexer serial number:	ORYXHardware model number:	OX4-SRSoftware version number:	ORYX F/W v4.00 Oryx Data Collector v3.7.2.0data status	okinstallation	princeton_trtdifferential loss correction	single-endedforward channel	channel 1reverse channel	N/Adate	2019/09/13time	16:10:35forward acquisition time	60.00reverse acquisition time	0.00gamma	496.2192k internal	0.2305k external	0.2305temperature offset calibration	1.0157default loss term (dB/km)	0.3790temperature slope calibration	1.0000multiplexer offset coefficient	1.0000multiplexer slope coefficient	1.0000fibre end	0.00T internal ref (°C)	34.80T ext. ref 1 (°C)	4.84T ext. ref 2 (°C)	31.51length (m)	temperature (°C)	Stokes	anti-Stokes-747.200	-37.355	0.105	0.057
-746.185	55.426	-0.081	-0.080
-745.171	800.000	0.072	-0.250
-744.156	-200.000	-0.049	-0.239
-743.142	92.260	0.105	0.121
-742.127	266.309	0.146	0.260
-741.112	-200.000	-0.039	-0.232
-740.098	694.733	0.033	0.088
-739.083	61.855	-0.173	-0.175
-738.069	104.081	-0.286	0.342
-737.054	-46.278	-0.240	-0.120
-736.039	-107.037	-0.491	-0.110
-735.025	-69.521	0.188	0.073
-734.010	-96.045	-0.176	0.048
-732.996	80.720	0.185	-0.203
-731.981	709.287	0.129	0.346
-730.966	-99.542	-0.182	0.046
-729.952	-15.342	-0.531	-0.345
-728.937	22.616	0.073	0.061
-727.923	-118.505	-0.159	-0.029
-726.908	-200.000	-0.027	0.196
-725.894	-85.887	0.086	0.027
-724.879	-110.460	-0.619	0.131
-723.864	-123.824	-0.416	0.067
-722.850	-139.361	0.188	-0.021
-721.835	-200.000	0.019	-0.321
-720.821	-130.001	-0.267	-0.037
-719.806	800.000	-0.059	-0.226
-718.791	800.000	-0.116	0.375
-717.777	142.469	0.107	0.145
-716.762	223.273	-0.051	0.083
-715.748	166.817	-0.127	-0.184
-714.733	-151.042	0.156	-0.012
-713.718	-200.000	-0.029	0.312
-712.704	800.000	0.035	0.131
-711.689	-200.000	0.038	-0.289
-710.675	-22.698	-0.261	-0.160
-709.660	189.065	0.157	0.240
-708.645	170.551	-0.156	-0.226
-707.631	800.000	0.035	-0.155
-706.616	37.795	-0.189	0.170
-705.602	-105.831	0.070	0.016
-704.587	-138.077	0.150	0.017
-703.572	800.000	0.045	-0.170
-702.558	-159.219	0.195	-0.011
-701.543	-81.095	0.299	0.101
-700.529	800.000	0.062	0.177
-699.514	30.003	0.264	0.229
-698.499	110.409	0.137	-0.167
-697.485	-66.605	-0.205	-0.083
-696.470	95.674	-0.053	0.061
-695.456	-13.916	0.175	0.115
-694.441	392.711	0.131	0.276
-693.426	-200.000	0.015	0.224
-692.412	-53.201	0.042	0.020
-691.397	147.345	-0.071	-0.097
-690.383	-200.000	-0.008	0.154
-689.368	-99.602	-0.521	-0.133
-688.354	-73.228	-0.337	0.125
-687.339	-200.000	-0.045	-0.356
-686.324	72.974	-0.068	-0.072
-685.310	51.734	-0.081	0.078
-684.295	255.103	-0.132	-0.230
-683.281	330.850	-0.080	0.156
-682.266	-34.473	0.205	-0.114
-681.251	-17.330	-0.171	-0.109
-680.237	-200.000	-0.033	-0.184
-679.222	-200.000	-0.012	-0.316
-678.208	-60.212	0.161	-0.070
-677.193	-194.559	-0.344	-0.003
-676.178	738.151	0.044	-0.120
-675.164	-158.761	0.259	0.015
-674.149	-2.709	-0.102	-0.072
-673.135	101.080	-0.234	-0.276
-672.120	800.000	-0.037	-0.163
-671.105	1.957	-0.375	0.275
-670.091	16.254	-0.212	0.170
-669.076	237.840	-0.115	-0.194
-668.062	-24.078	0.496	0.301
-667.047	-150.420	-0.208	0.016
-666.032	-137.797	-0.049	-0.006
-665.018	117.158	-0.104	0.130
-664.003	-9.498	0.119	0.081
-662.989	101.451	0.155	-0.184
-661.974	-200.000	0.022	-0.099
-660.959	-103.133	-0.278	-0.067
-659.945	-11.509	-0.127	-0.085
-658.930	466.276	-0.074	0.168
-657.916	800.000	-0.040	0.153
-656.901	-27.635	0.212	0.125
-655.886	800.000	-0.061	-0.189
-654.872	13.709	0.164	0.129
-653.857	-141.768	-0.143	0.015
-652.843	-73.326	-0.283	-0.105
-651.828	-52.009	0.083	0.039
-650.814	-73.987	-0.280	0.103
-649.799	-200.000	-0.103	0.488
-648.784	-200.000	-0.001	0.166
-647.770	212.021	0.146	-0.233
-646.755	-67.302	-0.254	-0.101
-645.741	-46.119	0.274	-0.137
-644.726	113.490	0.332	-0.409
-643.711	-12.209	-0.253	0.168
-642.697	-97.307	-0.216	-0.057
-641.682	248.785	-0.253	-0.435
-640.668	-96.798	-0.163	-0.043
-639.653	98.396	0.124	-0.145
-638.638	-28.852	0.178	-0.104
-637.624	71.522	0.155	0.164
-636.609	53.762	0.343	-0.334
-635.595	-200.000	0.006	0.176
-634.580	-35.405	-0.289	-0.159
-633.565	-42.622	0.217	-0.112
-632.551	59.584	0.129	-0.129
-631.536	276.601	0.220	0.395
-630.522	15.555	0.175	-0.139
-629.507	135.728	0.104	0.138
-628.492	125.509	0.182	-0.233
-627.478	800.000	0.067	-0.286
-626.463	800.000	-0.012	0.040
-625.449	-200.000	-0.263	-0.001
-624.434	800.000	-0.108	-0.336
-623.419	-46.600	-0.211	0.105
-622.405	161.297	0.009	-0.013
-621.390	480.447	-0.089	0.203
-620.376	-108.979	-0.268	0.058
-619.361	192.063	-0.086	-0.132
-618.346	-136.392	0.161	-0.019
-617.332	-108.340	-0.168	0.037
-616.317	-200.000	0.036	-0.171
-615.303	-200.000	0.061	-0.342
-614.288	114.819	-0.021	-0.026
-613.273	-68.001	0.099	-0.039
-612.259	470.399	0.090	0.204
-611.244	800.000	-0.020	-0.059
-610.230	-97.158	-0.231	0.061
-609.215	-33.809	-0.302	0.168
-608.201	7.692	0.041	0.031
-607.186	211.384	0.057	-0.090
-606.171	273.909	0.142	-0.255
-605.157	106.741	-0.259	-0.311
-604.142	-139.897	-0.142	-0.015
-603.128	129.952	-0.277	-0.359
-602.113	800.000	0.053	0.224
-601.098	-200.000	0.009	-0.209
-600.084	-116.872	0.102	0.019
-599.069	-86.486	0.172	0.053
-598.055	-200.000	0.034	-0.499
-597.040	778.078	-0.084	-0.232
-596.025	182.214	-0.176	0.262
-595.011	498.242	0.032	-0.074
-593.996	-77.015	-0.155	-0.055
-592.982	-19.963	-0.198	0.123
-591.967	587.579	-0.044	0.110
-590.952	62.459	-0.168	-0.170
-589.938	-200.000	-0.003	-0.271
-588.923	-62.464	-0.206	-0.087
-587.909	-28.199	-0.187	0.109
-586.894	-200.000	0.042	0.204
-585.879	-175.985	0.223	0.006
-584.865	173.743	-0.099	0.144
-583.850	-165.854	0.138	0.006
-582.836	-131.788	-0.334	0.044
-581.821	701.854	0.027	-0.072
-580.806	86.913	0.234	0.261
-579.792	-200.000	0.015	0.111
-578.777	107.364	0.191	-0.230
-577.763	4.757	-0.333	0.247
-576.748	-110.771	0.505	0.105
-575.733	344.996	0.111	0.221
-574.719	-200.000	0.007	0.040
-573.704	-15.479	0.131	-0.085
-572.690	232.547	0.053	0.089
-571.675	76.018	-0.250	-0.267
-570.661	317.441	-0.136	0.260
-569.646	281.640	-0.145	0.262
-568.631	800.000	-0.075	0.268
-567.617	381.307	-0.063	-0.132
-566.602	-81.915	0.263	-0.087
-565.588	-52.259	-0.146	0.069
-564.573	-28.496	0.091	0.053
-563.558	104.112	-0.125	0.148
-562.544	-44.690	0.107	-0.054
-561.529	-159.490	0.376	0.021
-560.515	-45.184	-0.246	-0.124
-559.500	800.000	-0.044	-0.167
-558.485	-21.390	-0.211	0.130
-557.471	12.351	-0.249	0.194
-556.456	-117.442	0.022	-0.004
-555.442	-91.692	-0.438	0.126
-554.427	-3.822	0.127	-0.089
-553.412	-115.093	0.141	0.027
-552.398	-200.000	-0.010	-0.160
-551.383	800.000	-0.094	-0.335
-550.369	-35.517	-0.144	-0.079
-549.354	-94.500	0.149	-0.041
-548.339	-0.394	-0.208	0.149
-547.325	46.482	0.174	0.163
-546.310	-18.269	0.182	-0.115
-545.296	-155.969	0.171	-0.011
-544.281	39.751	-0.149	-0.135
-543.266	280.935	0.121	-0.219
-542.252	150.921	0.131	0.180
-541.237	-200.000	0.041	-0.199
-540.223	151.802	0.209	-0.288
-539.208	-200.000	0.002	-0.055
-538.193	800.000	0.033	-0.119
-537.179	-131.828	-0.403	0.053
-536.164	243.954	0.140	-0.238
-535.150	800.000	0.121	-0.532
-534.135	-145.430	-0.314	-0.029
-533.121	-65.693	-0.310	0.125
-532.106	-200.000	0.011	0.121
-531.091	-171.361	0.416	-0.014
-530.077	596.508	-0.115	-0.287
-529.062	155.654	0.076	-0.106
-528.048	-67.764	0.329	0.130
-527.033	-27.799	0.182	0.106
-526.018	161.067	0.068	0.095
-525.004	-92.001	0.123	0.035
-523.989	51.781	0.080	-0.077
-522.975	-199.430	-0.131	-0.001
-521.960	-200.000	0.010	-0.095
-520.945	448.745	0.084	0.186
-519.931	29.839	-0.147	-0.126
-518.916	224.044	0.097	0.158
-517.902	45.436	-0.099	-0.092
-516.887	800.000	0.101	-0.307
-515.872	-19.831	-0.225	-0.140
-514.858	51.890	-0.139	-0.133
-513.843	800.000	0.072	0.248
-512.829	90.024	-0.085	-0.096
-511.814	39.012	-0.152	0.137
-510.799	-200.000	0.008	-0.335
-509.785	632.201	-0.086	-0.221
-508.770	-198.417	0.394	0.002
-507.756	-53.586	0.104	-0.048
-506.741	85.307	-0.062	-0.069
-505.726	200.712	0.063	-0.098
-504.712	206.656	-0.157	-0.247
-503.697	-150.429	0.258	0.020
-502.683	90.617	0.121	-0.137
-501.668	-30.155	0.157	-0.090
-500.653	127.202	-0.079	-0.101
-499.639	800.000	-0.048	-0.136
-498.624	55.203	0.122	0.119
-497.610	-28.978	0.044	-0.025
-496.595	38.503	0.141	0.126
-495.581	800.000	-0.074	0.298
-494.566	-81.983	-0.441	-0.145
-493.551	-197.618	-0.331	0.002
-492.537	-40.080	0.034	0.018
-491.522	253.419	-0.170	0.293
-490.508	-137.096	0.170	0.020
-489.493	-200.000	-0.016	-0.134
-488.478	-74.444	-0.265	-0.096
-487.464	-63.113	0.051	0.021
-486.449	800.000	-0.065	0.188
-485.435	-200.000	-0.037	-0.247
-484.420	443.021	-0.117	-0.259
-483.405	87.188	-0.086	0.095
-482.391	92.709	0.141	-0.161
-481.376	-200.000	-0.007	-0.129
-480.362	-200.000	-0.037	0.370
-479.347	-187.178	0.240	-0.003
-478.332	-85.961	0.132	0.041
-477.318	-200.000	0.021	0.149
-476.303	-200.000	0.012	-0.100
-475.289	800.000	-0.069	-0.198
-474.274	800.000	-0.045	0.188
-473.259	800.000	0.044	0.190
-472.245	-117.431	-0.404	0.074
-471.230	800.000	-0.050	-0.219
-470.216	229.077	-0.075	0.122
-469.201	102.360	-0.070	-0.082
-468.186	43.877	-0.062	0.057
-467.172	-10.026	-0.197	-0.132
-466.157	800.000	0.070	0.205
-465.143	-200.000	0.066	0.375
-464.128	-61.915	-0.180	-0.076
-463.113	321.822	-0.117	0.225
-462.099	-200.000	0.021	0.104
-461.084	-32.221	0.187	0.105
-460.070	455.946	0.236	0.526
-459.055	1.967	-0.145	0.105
-458.040	-200.000	-0.062	0.379
-457.026	800.000	-0.074	-0.283
-456.011	152.301	-0.136	-0.187
-454.997	-88.740	0.390	-0.117
-453.982	-34.421	0.224	0.123
-452.968	-129.317	-0.123	0.017
-451.953	135.565	0.295	0.387
-450.938	780.307	-0.063	-0.173
-449.924	-73.638	-0.198	-0.073
-448.909	478.497	-0.103	0.235
-447.895	800.000	-0.056	0.199
-446.880	98.377	-0.024	-0.028
-445.865	123.665	0.150	-0.190
-444.851	-63.311	-0.285	0.118
-443.836	94.771	0.120	-0.137
-442.822	-200.000	0.019	0.250
-441.807	212.429	-0.169	-0.268
-440.792	-4.575	0.209	-0.145
-439.778	154.356	-0.191	0.263
-438.763	-22.732	-0.081	-0.049
-437.749	-200.000	-0.069	0.313
-436.734	-107.672	0.399	-0.088
-435.719	-78.152	-0.230	0.080
-434.705	123.690	-0.153	-0.193
-433.690	-97.184	-0.128	0.034
-432.676	-40.188	-0.178	0.093
-431.661	85.297	0.082	-0.091
-430.646	-124.451	0.038	-0.006
-429.632	-200.000	-0.025	-0.116
-428.617	101.764	0.095	-0.111
-427.603	59.389	0.354	-0.351
-426.588	391.972	0.060	-0.124
-425.573	10.444	-0.246	-0.188
-424.559	244.626	-0.102	0.172
-423.544	-68.518	0.253	0.099
-422.530	-200.000	-0.024	0.172
-421.515	175.533	0.047	-0.069
-420.500	800.000	0.060	-0.183
-419.486	-200.000	-0.028	-0.466
-418.471	125.340	-0.076	0.097
-417.457	-22.645	-0.176	-0.107
-416.442	34.285	-0.221	-0.194
-415.428	-200.000	-0.007	0.108
-414.413	-30.455	-0.177	-0.101
-413.398	-1.705	-0.154	0.109
-412.384	23.121	-0.127	0.104
-411.369	51.133	0.363	0.346
-410.355	212.005	0.304	0.481
-409.340	-200.000	0.003	0.149
-408.325	-91.400	-0.184	0.053
-407.311	-200.000	0.066	0.294
-406.296	34.233	0.100	-0.088
-405.282	-200.000	0.009	-0.238
-404.267	259.877	0.102	-0.176
-403.252	-70.232	0.086	0.033
-402.238	-148.099	-0.168	-0.014
-401.223	-28.067	0.181	0.105
-400.209	-200.000	0.012	0.133
-399.194	-93.012	-0.274	-0.077
-398.179	-121.313	-0.044	0.007
-397.165	556.228	0.022	-0.054
-396.150	259.000	-0.079	0.137
-395.136	759.108	0.047	-0.127
-394.121	800.000	-0.072	-0.291
-393.106	800.000	0.040	0.158
-392.092	185.314	-0.093	-0.139
-391.077	70.624	-0.119	-0.123
-390.063	-69.558	-0.197	0.076
-389.048	-129.961	0.295	0.041
-388.033	-75.776	-0.198	-0.070
-387.019	800.000	-0.078	-0.236
-386.004	71.543	0.063	0.066
-384.990	800.000	0.103	0.301
-383.975	433.516	0.080	0.174
-382.960	-19.935	0.234	0.145
-381.946	367.142	-0.108	-0.220
-380.931	-6.029	0.206	0.141
-379.917	121.325	0.248	0.310
-378.902	377.989	0.046	0.094
-377.888	62.895	-0.108	-0.108
-376.873	374.662	0.044	0.090
-375.858	185.042	0.191	0.284
-374.844	-57.718	0.113	0.050
-373.829	-7.063	0.229	-0.156
-372.815	8.985	-0.434	-0.328
-371.800	359.468	0.054	0.109
-370.785	800.000	0.061	0.193
-369.771	-130.891	0.169	-0.023
-368.756	800.000	-0.136	0.437
-367.742	-110.976	0.113	-0.023
-366.727	18.729	-0.289	0.232
-365.712	-7.972	0.202	0.137
-364.698	53.563	-0.049	0.047
-363.683	-26.420	0.063	-0.037
-362.669	-78.109	-0.064	-0.022
-361.654	25.906	-0.278	0.233
-360.639	-131.714	-0.187	0.025
-359.625	800.000	0.068	0.216
-358.610	463.285	-0.080	0.180
-357.596	800.000	0.017	0.076
-356.581	-168.078	0.489	-0.019
-355.566	102.967	0.113	0.132
-354.552	557.666	-0.058	-0.140
-353.537	-112.182	0.187	-0.038
-352.523	-94.452	0.354	-0.097
-351.508	-144.039	0.140	0.013
-350.493	232.965	0.126	-0.208
-349.479	-59.374	0.044	0.019
-348.464	78.362	-0.038	-0.040
-347.450	-176.029	-0.276	-0.007
-346.435	530.825	-0.056	-0.134
-345.420	24.639	0.136	-0.113
-344.406	96.864	-0.012	-0.014
-343.391	-161.338	-0.097	0.005
-342.377	-108.176	-0.396	0.086
-341.362	-0.380	-0.111	-0.079
-340.348	-200.000	-0.046	0.232
-339.333	-23.948	-0.157	0.094
-338.318	800.000	0.082	0.252
-337.304	-200.000	0.016	0.000
-336.289	-200.000	0.001	0.252
-335.275	147.373	-0.047	0.064
-334.260	-200.000	-0.028	-0.182
-333.245	165.797	0.109	0.154
-332.231	-180.868	-0.217	-0.004
-331.216	-200.000	-0.014	0.116
-330.202	122.977	0.004	0.005
-329.187	-0.880	0.226	0.160
-328.172	-67.192	0.295	-0.116
-327.158	3.499	0.325	0.237
-326.143	17.102	0.290	0.230
-325.129	305.120	0.118	-0.220
-324.114	-1.202	-0.281	0.199
-323.099	3.674	-0.195	-0.142
-322.085	800.000	-0.064	-0.183
-321.070	27.400	0.053	0.045
-320.056	-148.737	0.127	0.010
-319.041	-110.044	-0.279	0.058
-318.026	1.937	0.318	-0.230
-317.012	216.929	0.037	-0.060
-315.997	800.000	-0.050	0.139
-314.983	651.095	0.160	0.409
-313.968	70.260	-0.091	-0.095
-312.953	-200.000	-0.054	-0.248
-311.939	407.336	0.096	0.202
-310.924	169.158	0.266	0.380
-309.910	156.669	0.275	0.380
-308.895	125.680	0.206	-0.260
-307.880	-83.563	-0.174	0.056
-306.866	-121.804	-0.257	0.042
-305.851	-118.947	-0.084	-0.015
-304.837	-200.000	0.002	0.018
-303.822	-200.000	-0.002	-0.179
-302.807	-77.412	-0.036	0.012
-301.793	9.374	-0.406	0.307
-300.778	-95.287	0.018	0.005
-299.764	800.000	-0.080	-0.276
-298.749	-107.463	-0.281	-0.062
-297.735	-200.000	0.011	-0.164
-296.720	-122.244	0.258	-0.042
-295.705	-103.448	0.317	-0.075
-294.691	-78.983	0.140	0.048
-293.676	-200.000	-0.024	-0.134
-292.662	-127.971	-0.145	-0.021
-291.647	-63.877	-0.071	-0.029
-290.632	-200.000	0.053	0.275
-289.618	-53.572	-0.192	-0.088
-288.603	-125.728	-0.167	-0.025
-287.589	-44.150	0.091	-0.046
-286.574	151.239	0.113	0.154
-285.559	296.554	-0.078	0.143
-284.545	800.000	-0.058	0.204
-283.530	-200.000	0.002	0.040
-282.516	11.853	-0.195	-0.150
-281.501	77.680	0.256	-0.273
-280.486	-44.795	0.062	0.031
-279.472	-200.000	0.008	0.062
-278.457	-94.123	0.396	0.109
-277.443	-200.000	0.001	-0.138
-276.428	-59.680	-0.007	0.003
-275.413	-40.804	0.141	-0.073
-274.399	315.734	0.057	0.107
-273.384	-200.000	-0.008	0.044
-272.370	13.966	0.109	-0.084
-271.355	-103.556	-0.193	0.045
-270.340	800.000	-0.088	-0.277
-269.326	4.178	-0.181	-0.133
-268.311	-86.253	-0.353	-0.109
-267.297	-200.000	0.035	0.316
-266.282	210.990	0.233	0.366
-265.267	800.000	0.107	0.369
-264.253	-14.462	0.306	0.196
-263.238	-132.430	0.052	0.007
-262.224	678.657	0.119	0.309
-261.209	85.744	-0.274	-0.301
-260.195	-114.424	0.279	-0.054
-259.180	-82.409	0.338	0.110
-258.165	-122.730	0.008	-0.001
-257.151	-8.387	-0.105	0.071
-256.136	-124.761	0.317	-0.049
-255.122	-200.000	-0.019	0.093
-254.107	-3.873	-0.047	0.033
-253.092	-200.000	-0.024	0.141
-252.078	-151.256	-0.128	-0.010
-251.063	125.409	0.189	-0.238
-250.049	-83.739	-0.254	0.081
-249.034	-200.000	-0.054	-0.304
-248.019	545.638	-0.058	-0.139
-247.005	-53.690	0.151	-0.069
-245.990	800.000	-0.055	0.164
-244.976	286.586	-0.070	0.126
-243.961	800.000	0.023	0.070
-242.946	201.520	0.043	-0.066
-241.932	-200.000	0.154	0.000
-240.917	31.676	-0.095	0.082
-239.903	338.846	-0.172	-0.334
-238.888	800.000	-0.084	0.238
-237.873	-50.299	0.025	-0.012
-236.859	-160.038	-0.280	-0.015
-235.844	267.776	0.077	0.135
-234.830	800.000	0.056	0.230
-233.815	-200.000	-0.015	0.235
-232.800	220.188	-0.095	0.152
-231.786	-200.000	0.044	-0.344
-230.771	-164.801	0.313	0.014
-229.757	226.997	0.050	-0.081
-228.742	-1.780	-0.186	0.131
-227.727	800.000	0.037	0.111
-226.713	-143.957	-0.293	0.028
-225.698	-76.337	0.115	0.041
-224.684	20.814	0.185	-0.150
-223.669	-200.000	0.122	0.000
-222.655	47.260	-0.300	-0.279
-221.640	-121.041	-0.180	-0.030
-220.625	11.810	0.124	0.095
-219.611	800.000	0.062	0.190
-218.596	-107.416	0.336	0.073
-217.582	204.868	0.236	-0.366
-216.567	99.403	0.136	-0.157
-215.552	-193.271	-0.370	0.003
-214.538	-32.163	0.128	0.071
-213.523	800.000	-0.066	0.199
-212.509	-200.000	0.000	0.102
-211.494	800.000	-0.144	-0.489
-210.479	-200.000	0.063	-0.378
-209.465	184.806	-0.030	0.045
-208.450	133.680	0.115	0.149
-207.436	176.907	-0.145	0.211
-206.421	-64.315	0.059	0.024
-205.406	-200.000	-0.034	-0.193
-204.392	-200.000	0.035	0.160
-203.377	-200.000	0.024	-0.214
-202.363	99.258	-0.063	-0.073
-201.348	33.124	0.119	0.103
-200.333	-133.051	-0.246	0.031
-199.319	-32.236	-0.132	0.073
-198.304	20.977	-0.179	0.145
-197.290	-90.233	0.286	-0.083
-196.275	29.216	-0.178	-0.151
-195.260	-45.588	0.253	-0.125
-194.246	-141.968	-0.302	-0.030
-193.231	-32.835	0.352	0.195
-192.217	-180.986	-0.138	-0.003
-191.202	-25.452	0.261	0.154
-190.187	800.000	0.069	-0.280
-189.173	-59.341	0.239	0.102
-188.158	-110.454	-0.016	-0.003
-187.144	0.381	0.051	0.036
-186.129	-74.672	0.058	-0.021
-185.114	-129.273	0.082	0.011
-184.100	-90.330	0.366	0.106
-183.085	81.851	-0.281	-0.303
-182.071	-200.000	0.025	-0.147
-181.056	187.818	-0.175	-0.260
-180.042	-22.616	0.234	0.141
-179.027	272.964	-0.070	0.124
-178.012	-146.293	-0.104	0.009
-176.998	160.964	-0.050	0.069
-175.983	-76.832	-0.233	0.081
-174.969	-200.000	-0.015	0.195
-173.954	-45.232	0.193	0.095
-172.939	469.091	-0.167	-0.374
-171.925	-200.000	0.055	0.283
-170.910	-51.289	0.383	0.178
-169.896	-137.487	-0.246	0.028
-168.881	76.376	-0.342	-0.360
-167.866	-105.943	0.171	0.038
-166.852	-200.000	0.012	-0.227
-165.837	800.000	0.028	-0.110
-164.823	265.311	-0.059	0.103
-163.808	67.035	0.070	-0.071
-162.793	-200.000	-0.010	-0.227
-161.779	-200.000	0.004	-0.126
-160.764	126.386	-0.225	0.283
-159.750	5.597	0.232	0.171
-158.735	-95.930	0.074	-0.020
-157.720	174.746	0.229	0.330
-156.706	239.531	-0.101	-0.167
-155.691	-200.000	0.006	-0.174
-154.677	-77.746	0.060	-0.021
-153.662	-24.711	-0.278	-0.165
-152.647	-107.105	-0.328	-0.072
-151.633	88.479	-0.072	-0.080
-150.618	-112.277	-0.468	-0.093
-149.604	800.000	0.090	0.291
-148.589	-95.004	-0.183	0.049
-147.574	268.373	-0.036	-0.062
-146.560	1.494	-0.051	-0.037
-145.545	29.512	-0.216	0.182
-144.531	63.962	-0.181	0.181
-143.516	103.451	0.153	-0.178
-142.502	-171.090	-0.228	0.008
-141.487	137.148	-0.218	-0.283
-140.472	97.046	0.239	0.272
-139.458	-84.710	0.172	0.054
-138.443	-200.000	-0.012	0.138
-137.429	-124.856	-0.494	-0.076
-136.414	19.582	0.119	-0.095
-135.399	-106.469	0.101	0.022
-134.385	240.176	0.060	0.099
-133.370	-88.792	-0.243	0.072
-132.356	800.000	0.038	0.135
-131.341	-200.000	-0.001	-0.173
-130.326	40.448	0.132	-0.118
-129.312	800.000	0.090	0.303
-128.297	800.000	-0.128	0.412
-127.283	115.162	-0.118	-0.143
-126.268	-200.000	-0.003	0.059
-125.253	710.307	-0.106	0.279
-124.239	-73.793	0.078	-0.028
-123.224	-200.000	-0.006	-0.117
-122.210	181.624	-0.196	0.287
-121.195	17.907	-0.237	-0.188
