DTS Sentinel unit serial number:	SN413079Multiplexer serial number:	ORYXHardware model number:	OX4-SRSoftware version number:	ORYX F/W v4.00 Oryx Data Collector v3.7.2.0data status	okinstallation	princeton_trtdifferential loss correction	single-endedforward channel	channel 1reverse channel	N/Adate	2019/09/13time	17:26:36forward acquisition time	60.00reverse acquisition time	0.00gamma	496.2192k internal	0.2296k external	0.2296temperature offset calibration	1.0136default loss term (dB/km)	0.3790temperature slope calibration	1.0000multiplexer offset coefficient	1.0000multiplexer slope coefficient	1.0000fibre end	0.00T internal ref (°C)	36.12T ext. ref 1 (°C)	4.83T ext. ref 2 (°C)	30.66length (m)	temperature (°C)	Stokes	anti-Stokes-747.200	-82.963	0.184	0.061
-746.185	90.924	0.166	0.191
-745.171	-50.749	0.296	-0.143
-744.156	88.334	0.018	0.021
-743.142	656.605	-0.067	-0.176
-742.127	-64.553	0.112	0.047
-741.112	-53.727	-0.208	0.097
-740.098	-127.190	-0.198	0.030
-739.083	-200.000	0.009	-0.084
-738.069	-200.000	-0.015	0.245
-737.054	159.417	-0.101	0.143
-736.039	174.603	0.033	0.049
-735.025	298.659	-0.130	-0.245
-734.010	101.943	-0.136	-0.162
-732.996	14.682	0.309	-0.247
-731.981	38.190	-0.009	0.008
-730.966	-50.649	0.245	-0.118
-729.952	-75.313	-0.264	0.096
-728.937	-113.010	-0.210	-0.042
-727.923	137.632	-0.231	0.308
-726.908	153.374	0.185	-0.258
-725.894	-0.182	-0.260	-0.189
-724.879	263.971	0.038	-0.068
-723.864	-77.446	-0.146	0.052
-722.850	-10.028	0.118	0.080
-721.835	-134.281	0.176	0.022
-720.821	25.036	-0.070	0.059
-719.806	-52.264	-0.068	0.032
-718.791	-200.000	-0.000	-0.065
-717.777	6.873	0.018	-0.014
-716.762	141.606	0.123	-0.166
-715.748	292.604	-0.141	0.262
-714.733	526.871	-0.007	0.017
-713.718	41.908	0.159	0.147
-712.704	800.000	0.044	0.167
-711.689	52.164	0.073	0.071
-710.675	-28.094	-0.256	-0.151
-709.660	-136.040	0.509	0.061
-708.645	-62.958	0.181	0.076
-707.631	-200.000	0.007	-0.244
-706.616	-157.870	-0.073	0.004
-705.602	530.781	0.073	-0.176
-704.587	-200.000	-0.019	0.136
-703.572	-46.984	-0.272	-0.136
-702.558	112.261	0.190	0.235
-701.543	800.000	0.053	0.187
-700.529	166.158	0.044	0.063
-699.514	6.942	-0.378	0.287
-698.499	33.533	-0.151	-0.133
-697.485	-200.000	0.026	-0.126
-696.470	86.332	-0.220	-0.247
-695.456	-36.243	-0.113	-0.062
-694.441	-200.000	-0.027	-0.363
-693.426	-106.994	0.314	0.071
-692.412	-25.484	0.370	-0.223
-691.397	740.065	0.051	0.139
-690.383	-200.000	-0.015	0.091
-689.368	175.566	-0.076	-0.113
-688.354	-106.629	0.156	0.035
-687.339	-102.624	-0.271	0.066
-686.324	-2.218	0.159	-0.114
-685.310	-21.343	-0.227	0.141
-684.295	-200.000	0.015	-0.207
-683.281	-100.729	0.244	-0.061
-682.266	402.701	0.119	0.255
-681.251	-200.000	-0.062	-0.406
-680.237	42.067	-0.178	-0.164
-679.222	95.624	0.110	-0.127
-678.208	-200.000	0.068	0.359
-677.193	-89.467	-0.341	-0.102
-676.178	-76.775	-0.291	0.104
-675.164	-191.846	-0.263	0.003
-674.149	800.000	0.070	-0.290
-673.135	425.836	-0.123	0.270
-672.120	641.485	0.020	0.051
-671.105	18.089	-0.142	-0.116
-670.091	-129.290	-0.383	-0.054
-669.076	-200.000	0.000	0.309
-668.062	88.106	-0.207	0.234
-667.047	-118.815	-0.195	0.035
-666.032	267.061	-0.140	0.250
-665.018	-75.727	0.177	0.064
-664.003	-200.000	0.053	0.345
-662.989	39.880	-0.254	0.232
-661.974	16.098	0.125	-0.101
-660.959	-60.625	0.038	0.016
-659.945	-3.689	-0.131	-0.093
-658.930	-67.199	-0.194	-0.078
-657.916	-56.691	0.151	-0.068
-656.901	-200.000	0.014	0.084
-655.886	-110.681	-0.287	0.060
-654.872	-57.578	-0.250	-0.112
-653.857	800.000	0.070	0.282
-652.843	134.540	-0.131	0.173
-651.828	246.154	-0.091	-0.157
-650.814	102.210	0.156	-0.186
-649.799	-40.940	-0.360	0.189
-648.784	-200.000	0.042	0.000
-647.770	800.000	0.133	0.444
-646.755	-200.000	0.033	0.258
-645.741	-200.000	0.020	0.284
-644.726	15.878	0.150	0.120
-643.711	800.000	0.068	0.281
-642.697	48.938	-0.114	0.109
-641.682	95.468	0.063	-0.074
-640.668	-49.108	0.269	0.131
-639.653	162.941	-0.063	-0.090
-638.638	125.976	0.083	0.107
-637.624	-106.267	-0.342	-0.078
-636.609	-163.859	0.199	0.009
-635.595	-200.000	0.018	0.265
-634.580	51.917	0.256	-0.248
-633.565	800.000	0.071	-0.292
-632.551	46.186	0.135	0.128
-631.536	135.605	-0.130	0.172
-630.522	-85.743	-0.201	-0.063
-629.507	-91.708	0.343	0.099
-628.492	45.892	0.238	0.224
-627.478	-70.870	-0.065	-0.025
-626.463	102.071	-0.154	-0.183
-625.449	204.149	0.142	0.224
-624.434	163.074	0.125	-0.178
-623.419	-124.237	-0.318	-0.051
-622.405	-200.000	0.018	-0.145
-621.390	-7.129	0.254	0.175
-620.376	250.688	-0.155	-0.268
-619.361	-80.856	0.085	0.029
-618.346	-135.844	-0.083	-0.010
-617.332	423.182	-0.108	0.235
-616.317	101.342	-0.253	-0.299
-615.303	310.498	-0.125	-0.238
-614.288	-50.456	-0.152	-0.073
-613.273	-36.364	-0.114	0.062
-612.259	362.777	-0.161	0.329
-611.244	525.262	0.090	0.216
-610.230	-200.000	-0.013	-0.241
-609.215	474.364	0.152	-0.348
-608.201	12.003	-0.258	-0.202
-607.186	800.000	0.061	-0.237
-606.171	688.877	-0.216	-0.574
-605.157	274.350	-0.134	-0.241
-604.142	140.835	-0.093	-0.125
-603.128	-17.727	0.076	-0.048
-602.113	83.688	-0.294	0.326
-601.098	-139.770	-0.134	-0.014
-600.084	270.554	0.051	0.091
-599.069	182.995	-0.121	0.181
-598.055	283.781	-0.058	-0.105
-597.040	-74.835	0.116	0.042
-596.025	517.738	0.011	-0.025
-595.011	-8.370	-0.043	-0.029
-593.996	559.743	0.133	-0.326
-592.982	-195.853	-0.181	0.001
-591.967	120.102	-0.185	0.233
-590.952	-67.054	0.328	0.131
-589.938	473.795	0.078	-0.178
-588.923	-47.085	-0.307	-0.152
-587.909	-200.000	0.006	0.105
-586.894	800.000	0.014	0.059
-585.879	-67.588	-0.226	0.090
-584.865	-124.976	0.151	0.024
-583.850	-116.999	0.369	0.068
-582.836	-200.000	0.053	-0.263
-581.821	-78.456	-0.447	-0.155
-580.806	-77.626	0.160	0.056
-579.792	85.276	0.293	-0.326
-578.777	-18.046	0.074	-0.047
-577.763	-97.055	-0.174	0.046
-576.748	-43.773	0.084	-0.043
-575.733	-60.535	0.135	-0.058
-574.719	-13.530	0.119	0.078
-573.704	66.606	0.058	0.059
-572.690	330.846	-0.201	-0.394
-571.675	107.662	-0.184	0.222
-570.661	800.000	0.053	0.175
-569.646	16.137	0.187	-0.150
-568.631	-66.593	-0.112	0.045
-567.617	-200.000	0.001	-0.089
-566.602	-200.000	0.032	0.303
-565.588	357.918	-0.056	-0.112
-564.573	-200.000	-0.036	-0.207
-563.558	-200.000	0.010	0.074
-562.544	800.000	-0.025	-0.077
-561.529	112.549	-0.071	-0.087
-560.515	-98.230	-0.271	0.071
-559.500	651.329	-0.129	0.335
-558.485	-112.530	-0.351	-0.071
-557.471	-37.323	0.283	0.153
-556.456	-200.000	-0.009	-0.131
-555.442	-200.000	0.004	-0.185
-554.427	185.808	-0.061	0.092
-553.412	-115.302	0.135	0.026
-552.398	-101.464	-0.289	-0.071
-551.383	-20.524	-0.274	-0.171
-550.369	17.857	-0.075	0.061
-549.354	214.194	0.175	0.281
-548.339	185.923	0.086	-0.130
-547.325	-23.737	0.045	-0.027
-546.310	67.400	0.112	0.116
-545.296	-72.280	0.097	-0.036
-544.281	10.381	-0.122	-0.094
-543.266	439.215	-0.077	-0.172
-542.252	371.624	0.110	0.227
-541.237	800.000	0.016	0.070
-540.223	-200.000	0.031	-0.163
-539.208	250.232	0.049	0.084
-538.193	-111.864	-0.128	0.026
-537.179	-200.000	0.024	-0.366
-536.164	-134.550	0.188	-0.023
-535.150	-52.869	0.073	0.034
-534.135	-20.762	0.162	0.101
-533.121	63.767	0.046	0.046
-532.106	-177.851	-0.172	-0.004
-531.091	90.794	-0.116	0.131
-530.077	-132.040	0.287	0.038
-529.062	-131.037	-0.053	0.007
-528.048	-134.885	0.147	-0.018
-527.033	274.028	0.102	-0.182
-526.018	174.373	-0.183	0.268
-525.004	45.339	-0.133	-0.124
-523.989	112.601	-0.076	0.093
-522.975	237.920	-0.179	0.301
-521.960	-200.000	-0.026	0.332
-520.945	-200.000	-0.046	-0.352
-519.931	537.833	0.103	-0.249
-518.916	651.988	-0.122	-0.316
-517.902	152.717	-0.187	0.259
-516.887	-200.000	0.084	0.425
-515.872	98.592	0.088	0.103
-514.858	36.976	-0.198	-0.177
-513.843	-64.939	0.252	0.103
-512.829	-103.450	-0.036	0.009
-511.814	-80.046	-0.149	0.050
-510.799	18.937	-0.200	-0.162
-509.785	29.569	0.102	0.088
-508.770	32.509	-0.088	0.077
-507.756	-67.453	-0.396	-0.158
-506.741	-49.577	0.465	-0.224
-505.726	77.211	0.225	-0.242
-504.712	90.463	0.077	-0.087
-503.697	168.102	0.105	-0.152
-502.683	276.931	0.139	-0.250
-501.668	-200.000	0.049	-0.417
-500.653	-60.877	-0.071	0.030
-499.639	48.288	0.213	0.201
-498.624	-131.887	-0.445	0.059
-497.610	-200.000	0.020	0.103
-496.595	-200.000	-0.042	0.198
-495.581	-147.776	0.089	0.008
-494.566	253.292	0.074	0.129
-493.551	-1.400	-0.163	0.117
-492.537	-110.544	0.267	-0.056
-491.522	-48.891	0.222	0.108
-490.508	24.749	0.421	-0.353
-489.493	-123.294	-0.269	0.043
-488.478	-60.848	0.033	0.014
-487.464	-200.000	-0.050	0.301
-486.449	182.902	-0.168	0.252
-485.435	86.871	-0.190	0.212
-484.420	-91.820	-0.155	0.045
-483.405	411.464	-0.182	-0.391
-482.391	459.310	0.099	-0.224
-481.376	-117.135	-0.281	-0.052
-480.362	371.369	-0.033	-0.067
-479.347	-76.121	-0.407	0.145
-478.332	76.974	-0.088	0.094
-477.318	-127.950	0.160	0.023
-476.303	-136.455	0.272	-0.032
-475.289	-160.736	0.321	0.017
-474.274	-81.505	-0.132	-0.044
-473.259	-72.802	-0.142	-0.053
-472.245	145.445	0.264	0.357
-471.230	-44.832	-0.149	0.075
-470.216	79.538	-0.195	-0.212
-469.201	219.035	-0.039	-0.064
-468.186	-131.685	-0.229	0.030
-467.172	-159.645	0.132	0.007
-466.157	-27.811	0.181	0.106
-465.143	438.056	0.115	0.253
-464.128	800.000	-0.094	0.272
-463.113	42.005	-0.161	0.147
-462.099	-200.000	-0.013	0.298
-461.084	800.000	-0.034	0.100
-460.070	-200.000	-0.023	0.123
-459.055	-200.000	-0.027	0.199
-458.040	46.344	0.064	0.060
-457.026	-13.305	0.195	-0.128
-456.011	487.864	-0.091	-0.211
-454.997	102.298	0.225	-0.265
-453.982	-200.000	-0.023	-0.368
-452.968	800.000	0.082	0.261
-451.953	800.000	0.072	0.272
-450.938	225.697	-0.195	0.319
-449.924	756.967	0.041	-0.113
-448.909	15.472	0.198	0.157
-447.895	-200.000	0.039	0.196
-446.880	-130.302	0.125	0.017
-445.865	0.039	0.119	0.086
-444.851	-96.255	-0.345	0.092
-443.836	-157.838	0.299	0.018
-442.822	-169.556	0.153	0.006
-441.807	55.883	0.128	-0.125
-440.792	800.000	0.055	-0.165
-439.778	-25.988	-0.093	-0.055
-438.763	31.781	0.241	-0.210
-437.749	-43.645	-0.315	-0.160
-436.734	217.213	0.191	-0.308
-435.719	78.540	0.295	-0.319
-434.705	-153.093	-0.236	0.017
-433.690	46.775	-0.040	-0.037
-432.676	-8.779	-0.174	-0.118
-431.661	346.745	-0.057	0.113
-430.646	-118.802	0.304	-0.054
-429.632	168.579	0.109	-0.157
-428.617	232.021	-0.168	0.278
-427.603	-124.513	0.090	0.014
-426.588	628.253	-0.130	-0.331
-425.573	-200.000	0.010	0.109
-424.559	-200.000	-0.076	-0.400
-423.544	-68.134	-0.100	0.039
-422.530	-200.000	0.034	0.205
-421.515	-57.303	-0.065	0.029
-420.500	800.000	0.098	-0.428
-419.486	64.661	-0.057	0.058
-418.471	182.961	-0.167	0.249
-417.457	-24.589	-0.232	0.140
-416.442	-146.974	0.163	0.014
-415.428	120.703	0.227	0.285
-414.413	-20.016	-0.250	0.156
-413.398	165.023	0.124	0.177
-412.384	-55.328	0.235	0.106
-411.369	-7.900	0.438	-0.298
-410.355	-161.361	0.284	0.015
-409.340	272.985	0.234	-0.417
-408.325	-200.000	-0.027	0.140
-407.311	-55.354	-0.244	-0.110
-406.296	456.928	0.035	0.078
-405.282	182.764	-0.130	-0.193
-404.267	-155.092	-0.200	0.013
-403.252	-188.122	-0.376	0.005
-402.238	-200.000	0.031	0.180
-401.223	800.000	-0.024	-0.081
-400.209	289.476	0.077	0.141
-399.194	608.372	0.139	0.349
-398.179	29.105	-0.109	0.094
-397.165	-200.000	0.018	-0.171
-396.150	-50.941	-0.117	0.055
-395.136	58.052	0.300	-0.296
-394.121	-20.563	0.051	0.031
-393.106	-46.538	0.329	0.163
-392.092	-12.187	0.143	-0.094
-391.077	116.938	-0.135	0.167
-390.063	-12.467	-0.258	0.170
-389.048	-94.695	-0.432	0.118
-388.033	6.675	0.194	-0.145
-387.019	-200.000	-0.001	0.406
-386.004	755.182	-0.036	0.098
-384.990	-200.000	0.033	0.154
-383.975	-200.000	-0.038	0.268
-382.960	-200.000	-0.040	-0.373
-381.946	800.000	-0.058	-0.165
-380.931	-105.786	-0.227	-0.052
-379.917	800.000	0.069	-0.257
-378.902	-200.000	-0.009	0.262
-377.888	219.294	-0.126	0.203
-376.873	179.088	-0.021	0.030
-375.858	45.896	0.101	0.095
-374.844	109.445	-0.166	0.200
-373.829	89.727	0.211	-0.237
-372.815	-105.541	0.107	-0.024
-371.800	-159.342	-0.460	0.026
-370.785	-70.047	-0.363	-0.139
-369.771	-137.032	0.124	-0.014
-368.756	-200.000	0.059	-0.315
-367.742	-200.000	-0.041	-0.347
-366.727	-14.538	0.174	-0.113
-365.712	-64.223	-0.217	0.089
-364.698	359.965	-0.096	-0.194
-363.683	-63.343	-0.213	0.088
-362.669	-200.000	-0.002	0.314
-361.654	-200.000	0.035	0.182
-360.639	-99.999	-0.284	0.071
-359.625	0.825	0.125	-0.090
-358.610	156.937	-0.159	-0.221
-357.596	-122.853	-0.080	-0.013
-356.581	193.113	-0.178	0.271
-355.566	-74.888	-0.079	-0.028
-354.552	800.000	0.055	0.219
-353.537	-179.448	0.296	-0.007
-352.523	-155.161	0.067	0.004
-351.508	-6.078	-0.285	-0.196
-350.493	-22.229	-0.237	0.144
-349.479	16.560	0.181	-0.144
-348.464	-179.488	-0.334	0.007
-347.450	-10.263	0.227	-0.152
-346.435	800.000	0.040	-0.144
-345.420	-28.039	0.160	0.093
-344.406	-64.157	0.185	0.076
-343.391	-68.338	-0.155	0.061
-342.377	71.105	0.096	0.100
-341.362	800.000	0.128	-0.358
-340.348	-82.988	0.044	0.014
-339.333	-104.800	0.152	-0.035
-338.318	433.724	-0.010	-0.022
-337.304	-66.947	0.269	-0.107
-336.289	455.748	-0.046	0.102
-335.275	-33.019	-0.259	-0.145
-334.260	800.000	0.015	0.064
-333.245	-200.000	-0.031	-0.194
-332.231	315.136	-0.092	-0.174
-331.216	16.780	0.323	-0.257
-330.202	304.472	0.094	-0.175
-329.187	183.943	0.062	-0.092
-328.172	800.000	-0.077	0.305
-327.158	104.857	0.134	-0.159
-326.143	800.000	-0.027	0.114
-325.129	466.331	-0.136	0.307
-324.114	800.000	0.089	-0.391
-323.099	294.972	0.082	-0.151
-322.085	423.073	-0.051	0.110
-321.070	-98.659	0.370	-0.095
-320.056	-24.338	-0.259	0.155
-319.041	-150.923	-0.256	0.019
-318.026	-200.000	0.051	-0.376
-317.012	-34.610	0.279	-0.153
-315.997	-200.000	-0.008	0.262
-314.983	-130.551	0.305	0.041
-313.968	800.000	0.021	-0.068
-312.953	22.289	-0.075	-0.061
-311.939	-161.822	0.077	-0.004
-310.924	800.000	0.034	0.133
-309.910	-60.266	0.091	-0.039
-308.895	2.889	-0.158	-0.115
-307.880	-200.000	0.005	-0.027
-306.866	68.966	-0.257	0.265
-305.851	-200.000	-0.056	0.316
-304.837	167.628	0.130	-0.185
-303.822	800.000	0.010	-0.030
-302.807	26.767	0.273	0.230
-301.793	229.622	-0.098	0.161
-300.778	-39.539	0.285	-0.150
-299.764	93.132	0.117	-0.132
-298.749	22.311	-0.127	-0.104
-297.735	775.865	-0.091	0.251
-296.720	-105.326	-0.044	-0.010
-295.705	-73.023	0.116	0.043
-294.691	-7.706	0.338	0.229
-293.676	-117.684	0.336	-0.061
-292.662	3.785	0.022	0.016
-291.647	-8.120	-0.219	0.148
-290.632	-145.660	0.241	0.022
-289.618	93.812	0.109	-0.124
-288.603	-200.000	-0.013	0.081
-287.589	800.000	-0.038	-0.147
-286.574	-200.000	-0.012	-0.142
-285.559	543.227	-0.082	-0.196
-284.545	800.000	0.035	-0.137
-283.530	-58.044	0.024	0.010
-282.516	530.512	-0.112	-0.266
-281.501	-155.962	0.034	0.002
-280.486	800.000	0.090	0.303
-279.472	-170.366	0.179	-0.006
-278.457	-165.005	-0.049	0.002
-277.443	-127.594	-0.223	0.032
-276.428	-75.845	-0.217	0.077
-275.413	-162.045	0.213	-0.011
-274.399	142.167	-0.071	0.095
-273.384	71.341	0.100	0.104
-272.370	-103.436	-0.199	0.047
-271.355	-119.838	0.278	-0.048
-270.340	-67.925	-0.197	-0.077
-269.326	-200.000	-0.004	0.124
-268.311	800.000	0.116	-0.366
-267.297	-131.682	-0.303	0.040
-266.282	800.000	-0.046	0.135
-265.267	-116.096	0.471	0.088
-264.253	169.087	0.297	0.425
-263.238	-186.751	-0.060	0.001
-262.224	-7.169	-0.192	-0.131
-261.209	-77.495	0.225	0.078
-260.195	-26.926	-0.116	0.068
-259.180	113.092	-0.204	-0.248
-258.165	-133.553	0.136	0.017
-257.151	25.656	-0.095	0.080
-256.136	41.600	0.123	-0.112
-255.122	-200.000	-0.090	0.472
-254.107	207.488	0.082	0.129
-253.092	170.942	-0.085	0.122
-252.078	57.677	-0.197	-0.193
-251.063	-25.536	0.216	0.128
-250.049	-128.137	0.255	-0.037
-249.034	-200.000	-0.004	0.033
-248.019	-197.305	-0.167	-0.001
-247.005	56.165	-0.241	-0.235
-245.990	43.608	0.072	-0.066
-244.976	322.297	0.144	-0.274
-243.961	588.178	0.098	-0.241
-242.946	-200.000	-0.299	0.001
-241.932	-70.649	-0.409	0.155
-240.917	-8.231	-0.108	-0.073
-239.903	124.369	0.112	0.141
-238.888	39.767	-0.057	-0.051
-237.873	-46.922	-0.216	-0.106
-236.859	-4.035	0.069	0.048
-235.844	573.607	0.099	-0.242
-234.830	390.764	-0.181	0.376
-233.815	-36.487	-0.296	0.159
-232.800	188.538	0.023	-0.035
-231.786	800.000	-0.046	0.147
-230.771	800.000	-0.040	0.169
-229.757	58.350	-0.128	-0.126
-228.742	88.824	0.261	0.291
-227.727	61.357	-0.208	-0.207
-226.713	-145.434	0.561	-0.051
-225.698	-72.547	-0.109	0.040
-224.684	32.758	0.092	0.079
-223.669	-36.833	0.167	0.090
-222.655	86.819	0.154	-0.170
-221.640	-13.257	-0.130	-0.084
-220.625	380.495	0.090	-0.184
-219.611	42.391	0.054	-0.049
-218.596	371.042	-0.014	0.028
-217.582	-117.073	0.257	0.047
-216.567	-131.855	-0.358	0.047
-215.552	9.405	0.100	0.075
-214.538	416.689	0.053	0.113
-213.523	29.470	0.160	0.136
-212.509	-175.520	-0.124	0.003
-211.494	-71.210	-0.235	-0.088
-210.479	800.000	0.112	0.385
-209.465	-200.000	-0.021	0.103
-208.450	800.000	0.037	0.107
-207.436	192.822	0.066	0.099
-206.421	56.670	0.065	0.063
-205.406	-200.000	0.007	-0.156
-204.392	-20.813	0.093	-0.057
-203.377	-200.000	0.027	-0.206
-202.363	306.357	0.159	0.295
-201.348	-18.667	0.263	-0.164
-200.333	61.360	0.249	0.248
-199.319	-200.000	-0.005	0.061
-198.304	-71.864	-0.111	-0.041
-197.290	-142.051	-0.191	-0.019
-196.275	301.398	0.132	-0.245
-195.260	-96.280	-0.096	0.026
-194.246	-59.183	-0.083	-0.036
-193.231	-200.000	-0.005	0.270
-192.217	93.780	-0.170	0.193
-191.202	800.000	0.005	0.014
-190.187	-162.538	-0.354	0.017
-189.173	-35.331	-0.403	-0.219
-188.158	-200.000	0.005	-0.190
-187.144	-200.000	0.030	-0.326
-186.129	57.246	0.072	-0.070
-185.114	23.238	0.167	0.137
-184.100	800.000	0.048	-0.157
-183.085	800.000	-0.056	-0.234
-182.071	-200.000	0.045	-0.291
-181.056	626.525	0.068	0.172
-180.042	4.271	-0.176	-0.129
-179.027	-200.000	-0.001	-0.127
-178.012	-184.432	-0.085	-0.001
-176.998	25.000	0.135	0.112
-175.983	771.255	0.024	-0.066
-174.969	-200.000	0.040	0.181
-173.954	-200.000	0.009	-0.266
-172.939	575.466	-0.060	0.147
-171.925	-133.416	0.139	-0.017
-170.910	725.886	0.053	-0.142
-169.896	800.000	-0.072	0.228
-168.881	55.338	0.077	-0.074
-167.866	-76.642	-0.304	0.107
-166.852	800.000	0.069	0.291
-165.837	23.480	0.251	-0.206
-164.823	120.749	0.110	-0.136
-163.808	707.812	0.059	0.156
-162.793	-177.908	-0.119	-0.003
-161.779	65.777	-0.041	-0.042
-160.764	-40.747	0.229	-0.119
-159.750	-200.000	0.037	-0.520
-158.735	-3.863	-0.212	-0.147
-157.720	147.116	0.185	0.249
-156.706	-200.000	-0.017	0.139
-155.691	165.300	0.188	0.266
-154.677	23.163	-0.121	-0.099
-153.662	-200.000	0.006	0.174
-152.647	-200.000	0.013	-0.308
-151.633	-200.000	-0.007	0.038
-150.618	-200.000	-0.062	-0.277
-149.604	-200.000	0.030	0.298
-148.589	-200.000	-0.034	0.351
-147.574	170.521	0.158	-0.226
-146.560	-106.623	0.310	0.069
-145.545	57.551	-0.177	0.173
-144.531	-48.102	-0.235	-0.113
-143.516	-99.015	0.124	-0.031
-142.502	-42.651	0.063	-0.032
-141.487	397.197	0.046	0.095
-140.472	-108.530	-0.241	0.052
-139.458	102.704	-0.221	-0.259
-138.443	470.347	0.150	-0.336
-137.429	-8.682	-0.068	0.046
-136.414	577.295	0.044	0.107
-135.399	800.000	-0.009	0.027
-134.385	-46.738	0.372	0.182
-133.370	-44.779	-0.237	-0.118
-132.356	-133.034	0.073	0.009
-131.341	-72.230	0.359	-0.133
-130.326	23.151	-0.179	0.146
-129.312	59.347	0.271	0.266
-128.297	-141.439	0.306	-0.031
-127.283	-60.344	0.197	-0.084
-126.268	-42.135	0.192	0.098
-125.253	-52.162	0.077	0.036
-124.239	23.160	-0.297	-0.243
-123.224	-132.828	0.178	-0.023
-122.210	71.221	-0.063	-0.065
-121.195	-187.555	0.216	-0.003
-120.180	-200.000	0.000	-0.136
