DTS Sentinel unit serial number:	SN413079Multiplexer serial number:	ORYXHardware model number:	OX4-SRSoftware version number:	ORYX F/W v4.00 Oryx Data Collector v3.7.2.0data status	okinstallation	princeton_trtdifferential loss correction	single-endedforward channel	channel 1reverse channel	N/Adate	2019/09/12time	19:26:34forward acquisition time	15.00reverse acquisition time	0.00gamma	496.2192k internal	0.2322k external	0.2322temperature offset calibration	1.0121default loss term (dB/km)	0.3790temperature slope calibration	1.0000multiplexer offset coefficient	1.0000multiplexer slope coefficient	1.0000fibre end	0.00T internal ref (°C)	32.31T ext. ref 1 (°C)	3.20T ext. ref 2 (°C)	26.91length (m)	temperature (°C)	Stokes	anti-Stokes-747.200	37.972	0.603	-0.542
-746.185	-9.562	-0.373	-0.252
-745.171	-63.598	-0.634	0.263
-744.156	-9.420	-0.442	-0.298
-743.142	203.069	0.199	0.310
-742.127	113.135	0.297	-0.364
-741.112	-37.656	-0.659	-0.355
-740.098	342.361	-0.130	0.256
-739.083	707.613	-0.080	0.213
-738.069	12.186	0.229	-0.178
-737.054	-185.323	-0.252	-0.004
-736.039	-121.251	-0.507	0.086
-735.025	-62.071	0.561	-0.237
-734.010	-8.046	0.395	-0.269
-732.996	38.301	0.539	0.484
-731.981	323.893	-0.226	0.435
-730.966	112.125	0.544	0.664
-729.952	-200.000	0.010	-0.534
-728.937	-38.227	-0.439	0.235
-727.923	800.000	-0.094	0.385
-726.908	234.303	-0.265	0.441
-725.894	20.594	-0.419	-0.343
-724.879	800.000	-0.220	0.779
-723.864	78.077	0.554	0.597
-722.850	149.944	0.357	-0.488
-721.835	360.144	-0.121	-0.245
-720.821	12.322	-0.307	-0.238
-719.806	-16.168	0.527	-0.338
-718.791	95.107	0.464	-0.534
-717.777	29.179	-0.104	0.089
-716.762	800.000	0.054	-0.165
-715.748	-140.918	-0.704	0.073
-714.733	11.201	0.323	-0.250
-713.718	153.473	0.249	-0.344
-712.704	51.047	0.339	0.324
-711.689	-200.000	-0.146	-0.869
-710.675	-9.001	-0.828	-0.559
-709.660	-177.738	-0.435	0.011
-708.645	-200.000	0.061	1.113
-707.631	-101.236	0.382	-0.094
-706.616	800.000	-0.052	-0.156
-705.602	53.399	0.104	0.101
-704.587	8.025	0.593	0.449
-703.572	-84.069	-0.277	0.089
-702.558	-118.438	0.683	0.122
-701.543	-127.579	-0.435	-0.064
-700.529	274.306	0.238	0.424
-699.514	136.702	0.620	0.816
-698.499	93.026	-0.499	0.569
-697.485	-19.609	-0.498	0.311
-696.470	50.912	-0.216	-0.207
-695.456	-200.000	0.036	-0.825
-694.441	-187.135	-0.946	-0.013
-693.426	130.066	0.350	0.451
-692.412	117.999	-0.440	0.547
-691.397	-23.217	-0.445	0.270
-690.383	110.190	0.522	0.632
-689.368	231.491	-0.622	1.028
-688.354	-68.758	0.492	-0.192
-687.339	-92.501	0.240	-0.068
-686.324	290.059	-0.167	0.305
-685.310	-19.300	-0.682	0.427
-684.295	-93.423	0.446	-0.124
-683.281	780.126	0.168	-0.464
-682.266	-200.000	-0.011	0.458
-681.251	29.486	0.894	0.766
-680.237	422.636	-0.267	0.578
-679.222	-81.049	0.483	-0.161
-678.208	-105.440	0.678	0.155
-677.193	294.491	0.086	0.159
-676.178	507.522	-0.110	-0.257
-675.164	-7.632	-0.274	-0.186
-674.149	-25.659	0.443	-0.263
-673.135	107.846	-0.485	-0.583
-672.120	-138.271	0.933	0.104
-671.105	-114.218	-0.529	-0.103
-670.091	800.000	-0.311	-1.182
-669.076	18.659	0.523	-0.422
-668.062	75.568	0.270	0.288
-667.047	-44.784	0.234	0.117
-666.032	-135.582	1.093	-0.131
-665.018	800.000	0.206	-0.615
-664.003	-29.667	0.663	0.381
-662.989	-200.000	-0.060	0.513
-661.974	129.737	-0.261	0.336
-660.959	65.550	-0.201	-0.205
-659.945	800.000	-0.055	0.156
-658.930	409.445	-0.364	0.777
-657.916	800.000	-0.143	0.441
-656.901	-200.000	-0.069	0.686
-655.886	307.867	-0.037	0.070
-654.872	-65.744	-0.907	0.366
-653.857	-39.043	0.364	-0.193
-652.843	-48.897	-0.499	0.241
-651.828	-200.000	0.085	0.431
-650.814	-71.695	0.695	-0.261
-649.799	-38.051	-0.456	-0.244
-648.784	-96.947	0.600	-0.158
-647.770	-172.938	-0.381	0.012
-646.755	245.962	-0.402	0.682
-645.741	-133.363	-0.422	0.054
-644.726	-5.612	-0.302	-0.208
-643.711	24.007	0.504	0.418
-642.697	404.607	0.130	0.275
-641.682	-200.000	0.058	-0.281
-640.668	-52.535	-0.078	0.036
-639.653	-163.391	0.559	0.027
-638.638	300.320	0.218	-0.405
-637.624	-200.000	0.017	-0.394
-636.609	-200.000	0.093	-0.901
-635.595	429.755	-0.282	0.614
-634.580	-200.000	-0.513	0.002
-633.565	-46.422	-0.494	0.244
-632.551	-51.727	0.518	0.243
-631.536	168.995	0.148	0.213
-630.522	67.503	-0.175	-0.180
-629.507	-0.389	-0.347	0.248
-628.492	24.426	0.348	-0.290
-627.478	-60.443	0.315	0.135
-626.463	-43.833	-0.349	-0.177
-625.449	212.730	0.213	-0.338
-624.434	-155.730	-0.357	-0.023
-623.419	-3.879	-0.588	0.411
-622.405	-200.000	0.265	1.222
-621.390	122.626	0.596	0.749
-620.376	-54.973	0.372	-0.168
-619.361	41.838	0.849	-0.774
-618.346	-200.000	0.019	-0.085
-617.332	131.943	0.224	0.290
-616.317	181.367	0.268	0.396
-615.303	-51.208	-0.651	-0.307
-614.288	-71.262	-0.349	-0.132
-613.273	256.799	-0.198	-0.342
-612.259	491.755	-0.218	0.503
-611.244	-200.000	-0.020	0.306
-610.230	23.287	0.237	-0.196
-609.215	383.284	-0.111	0.231
-608.201	656.916	-0.112	-0.289
-607.186	2.598	0.581	-0.423
-606.171	800.000	0.073	-0.295
-605.157	480.724	-0.417	0.951
-604.142	-200.000	-0.073	0.635
-603.128	268.438	-0.507	-0.893
-602.113	-97.326	-0.981	0.257
-601.098	8.252	0.617	0.466
-600.084	-46.263	0.290	-0.143
-599.069	-99.498	0.348	-0.088
-598.055	-184.621	-0.177	-0.003
-597.040	-87.701	-0.745	-0.226
-596.025	-49.457	-0.561	-0.269
-595.011	615.169	-0.022	0.055
-593.996	-200.000	0.003	0.529
-592.982	-164.452	0.229	-0.010
-591.967	104.274	0.371	-0.438
-590.952	291.419	0.186	-0.340
-589.938	-77.368	0.490	-0.171
-588.923	240.389	0.320	-0.537
-587.909	527.606	-0.327	-0.775
-586.894	349.714	0.289	-0.574
-585.879	-158.007	-0.141	-0.008
-584.865	-200.000	-0.056	-0.752
-583.850	-48.326	-0.198	-0.096
-582.836	121.619	-0.282	0.353
-581.821	118.434	0.288	0.357
-580.806	742.536	0.140	-0.378
-579.792	199.170	0.159	-0.245
-578.777	-79.886	0.416	0.140
-577.763	117.980	0.297	-0.367
-576.748	-102.973	-0.612	0.146
-575.733	-112.447	-0.682	-0.137
-574.719	15.842	0.523	-0.413
-573.704	167.240	-0.120	0.171
-572.690	-200.000	0.023	-0.344
-571.675	-90.962	-0.473	-0.137
-570.661	38.081	-0.873	-0.779
-569.646	800.000	-0.213	-0.802
-568.631	-200.000	0.058	-0.488
-567.617	-43.900	0.530	0.268
-566.602	-200.000	-0.355	1.748
-565.588	287.270	0.264	0.480
-564.573	800.000	-0.207	-0.743
-563.558	-104.646	-0.482	-0.112
-562.544	-190.675	0.511	-0.005
-561.529	-81.657	0.071	-0.023
-560.515	132.154	0.318	0.411
-559.500	-179.721	1.048	0.023
-558.485	800.000	-0.053	0.174
-557.471	800.000	-0.070	-0.259
-556.456	-21.408	-0.598	-0.366
-555.442	289.124	-0.131	0.238
-554.427	-200.000	-0.029	0.237
-553.412	49.892	0.266	0.252
-552.398	197.799	0.292	-0.447
-551.383	-136.420	-0.646	0.075
-550.369	800.000	-0.122	-0.369
-549.354	-126.999	0.250	-0.037
-548.339	-153.920	-0.414	0.028
-547.325	-126.905	1.096	0.162
-546.310	800.000	-0.109	-0.334
-545.296	-80.972	-0.307	0.102
-544.281	-113.040	-0.359	0.071
-543.266	800.000	-0.055	-0.170
-542.252	-111.732	-0.687	-0.140
-541.237	800.000	0.241	0.740
-540.223	645.151	0.303	0.775
-539.208	-115.127	-0.267	0.051
-538.193	-166.979	-0.443	-0.018
-537.179	23.127	-0.270	0.222
-536.164	-73.596	-0.252	-0.092
-535.150	-200.000	0.051	-0.666
-534.135	-200.000	-0.040	-0.180
-533.121	-200.000	0.028	0.624
-532.106	-195.860	0.766	-0.005
-531.091	-82.657	-0.515	0.167
-530.077	800.000	0.241	0.831
-529.062	113.868	-0.526	0.641
-528.048	70.470	-0.504	0.522
-527.033	382.999	-0.125	-0.259
-526.018	-6.358	-0.204	-0.139
-525.004	705.604	0.048	-0.128
-523.989	-102.846	0.359	-0.086
-522.975	729.931	0.216	0.579
-521.960	-58.807	-0.408	-0.177
-520.945	121.318	-0.421	-0.525
-519.931	-21.137	0.524	0.321
-518.916	104.440	0.116	-0.137
-517.902	-105.415	0.384	0.087
-516.887	257.070	0.391	-0.674
-515.872	-76.708	-0.457	0.161
-514.858	-200.000	-0.140	1.169
-513.843	101.907	-0.113	0.132
-512.829	-200.000	-0.073	-1.022
-511.814	800.000	-0.209	0.762
-510.799	-76.049	0.707	0.250
-509.785	-200.000	-0.009	0.326
-508.770	373.510	-0.058	0.118
-507.756	-25.494	-0.212	0.126
-506.741	-200.000	0.062	-0.377
-505.726	64.893	0.455	-0.460
-504.712	380.465	0.187	-0.384
-503.697	-200.000	0.139	0.620
-502.683	47.787	0.347	-0.324
-501.668	-200.000	0.090	-0.735
-500.653	64.635	0.752	-0.759
-499.639	117.667	-0.370	0.456
-498.624	15.170	-0.252	-0.198
-497.610	-69.670	0.586	-0.224
-496.595	-24.796	0.684	0.407
-495.581	-200.000	-0.149	-0.751
-494.566	-51.873	0.266	-0.124
-493.551	-200.000	-0.001	0.188
-492.537	-185.108	-0.312	-0.005
-491.522	-200.000	-0.024	-0.303
-490.508	-88.686	0.415	0.123
-489.493	-26.498	0.187	0.110
-488.478	-118.132	-0.523	-0.093
-487.464	800.000	-0.280	0.872
-486.449	-43.259	0.202	-0.102
-485.435	800.000	-0.113	-0.365
-484.420	800.000	0.134	-0.555
-483.405	-112.756	0.564	0.112
-482.391	-200.000	0.024	0.371
-481.376	570.567	0.036	0.088
-480.362	137.330	-0.366	-0.479
-479.347	172.039	-0.552	-0.793
-478.332	665.611	-0.314	0.810
-477.318	-100.503	-1.295	-0.320
-476.303	-114.883	-0.312	0.059
-475.289	758.662	0.325	0.882
-474.274	-112.391	0.784	-0.157
-473.259	-200.000	-0.070	-0.628
-472.245	-44.761	-0.172	0.086
-471.230	-200.000	0.010	-0.266
-470.216	-28.075	-0.157	-0.091
-469.201	235.794	-0.412	0.680
-468.186	-200.000	-0.066	0.513
-467.172	-200.000	-0.087	0.546
-466.157	-200.000	-0.002	0.137
-465.143	800.000	-0.240	0.838
-464.128	-200.000	-0.134	-0.792
-463.113	179.073	0.095	0.139
-462.099	-124.577	1.111	0.172
-461.084	800.000	0.162	0.480
-460.070	-200.000	-0.051	-0.501
-459.055	-20.873	-0.626	-0.384
-458.040	-93.462	-0.666	0.184
-457.026	757.284	-0.422	-1.140
-456.011	-171.075	-0.385	0.013
-454.997	-49.512	0.826	0.393
-453.982	-200.000	0.022	-0.155
-452.968	303.029	-0.023	-0.043
-451.953	-200.000	-0.093	-0.480
-450.938	-200.000	-0.035	0.999
-449.924	-200.000	0.027	0.958
-448.909	-200.000	-0.029	0.905
-447.895	-200.000	-0.122	-0.698
-446.880	-68.024	-0.090	-0.035
-445.865	-200.000	-0.023	0.299
-444.851	5.818	0.652	0.482
-443.836	-200.000	-0.124	1.097
-442.822	-20.791	-0.878	-0.538
-441.807	800.000	0.151	-0.445
-440.792	-174.177	0.433	-0.013
-439.778	-74.904	-0.847	0.303
-438.763	800.000	-0.079	0.239
-437.749	-61.119	-0.178	0.075
-436.734	66.527	-0.425	0.431
-435.719	369.833	0.105	0.211
-434.705	-17.622	0.128	0.080
-433.690	-150.095	-0.438	0.034
-432.676	-81.952	-0.404	-0.132
-431.661	-86.759	0.624	-0.191
-430.646	149.855	-0.469	0.634
-429.632	-19.066	-0.368	0.228
-428.617	-65.392	-0.758	0.304
-427.603	467.597	0.242	0.541
-426.588	-200.000	-0.057	0.632
-425.573	800.000	-0.145	-0.503
-424.559	170.586	0.378	-0.540
-423.544	800.000	0.050	0.145
-422.530	-2.455	-0.195	-0.137
-421.515	108.935	0.424	0.506
-420.500	-19.489	-0.755	0.467
-419.486	107.585	-0.343	0.408
-418.471	136.244	0.795	-1.034
-417.457	-5.993	-0.606	0.413
-416.442	-104.498	0.485	0.112
-415.428	662.540	-0.046	0.117
-414.413	-200.000	-0.025	-0.914
-413.398	-39.055	-0.269	-0.141
-412.384	-200.000	0.026	0.269
-411.369	138.441	0.243	0.318
-410.355	-122.644	-0.656	-0.106
-409.340	-200.000	0.043	-0.230
-408.325	722.944	0.110	-0.291
-407.311	-200.000	-0.080	0.547
-406.296	-107.524	0.403	0.088
-405.282	351.716	0.225	-0.444
-404.267	-200.000	0.032	-0.273
-403.252	-87.600	-0.528	0.159
-402.238	-200.000	0.012	0.225
-401.223	-131.417	-0.181	-0.024
-400.209	800.000	0.050	-0.200
-399.194	54.019	0.321	0.308
-398.179	-82.592	0.450	-0.146
-397.165	73.419	0.163	0.170
-396.150	-113.303	0.352	0.069
-395.136	188.541	-0.385	0.574
-394.121	82.541	0.246	0.267
-393.106	-200.000	-0.020	0.218
-392.092	-98.636	0.341	-0.087
-391.077	-155.726	0.553	0.035
-390.063	21.054	-0.205	0.166
-389.048	-200.000	-0.098	0.526
-388.033	22.819	0.310	-0.253
-387.019	-200.000	-0.084	-0.873
-386.004	-98.850	-0.997	0.253
-384.990	283.607	0.402	-0.719
-383.975	285.778	0.394	-0.708
-382.960	-74.755	-0.236	0.085
-381.946	-200.000	-0.144	-1.253
-380.931	-200.000	0.021	0.577
-379.917	-133.857	-0.382	0.047
-378.902	-125.877	-0.048	-0.007
-377.888	448.008	-0.201	0.441
-376.873	54.412	0.497	-0.477
-375.858	-13.330	-0.298	0.193
-374.844	171.619	-0.064	-0.092
-373.829	-200.000	-0.001	0.156
-372.815	-170.579	-0.242	0.008
-371.800	1.518	-0.165	-0.118
-370.785	-200.000	-0.853	-0.003
-369.771	800.000	0.070	-0.291
-368.756	6.572	0.797	0.590
-367.742	-47.031	0.253	-0.123
-366.727	-200.000	0.049	0.762
-365.712	-200.000	-0.077	0.490
-364.698	182.047	-0.410	-0.601
-363.683	-79.877	0.803	0.269
-362.669	-200.000	-0.067	0.482
-361.654	-174.451	0.844	0.024
-360.639	-165.911	-0.279	-0.012
-359.625	-85.178	-0.086	0.027
-358.610	112.916	0.508	0.613
-357.596	123.837	0.075	0.094
-356.581	180.225	-0.056	-0.082
-355.566	-200.000	-0.138	0.851
-354.552	162.266	0.473	0.659
-353.537	-200.000	-0.100	0.641
-352.523	-162.778	0.624	-0.030
-351.508	-98.760	0.991	-0.251
-350.493	355.446	-0.323	-0.640
-349.479	13.384	0.193	0.149
-348.464	-200.000	0.010	-0.049
-347.450	-10.916	-0.850	-0.559
-346.435	-68.174	0.122	0.047
-345.420	0.541	0.348	0.247
-344.406	-177.236	-0.574	0.014
-343.391	-200.000	0.023	0.711
-342.377	-74.563	0.271	-0.097
-341.362	-116.364	-0.195	-0.036
-340.348	53.086	-0.330	0.314
-339.333	-53.082	0.432	-0.198
-338.318	800.000	-0.199	-0.557
-337.304	477.872	-0.106	-0.238
-336.289	-175.213	0.167	0.005
-335.275	800.000	0.052	-0.210
-334.260	800.000	-0.274	0.818
-333.245	-25.926	0.443	-0.259
-332.231	-200.000	0.042	-0.808
-331.216	70.202	0.237	0.243
-330.202	-34.315	-0.828	-0.452
-329.187	-200.000	0.092	0.831
-328.172	117.977	0.354	0.434
-327.158	-200.000	0.085	-0.823
-326.143	18.787	0.499	-0.397
-325.129	-139.880	0.052	0.005
-324.114	-29.372	-0.513	-0.292
-323.099	107.700	-0.422	0.499
-322.085	2.833	-0.754	-0.544
-321.070	49.523	0.845	0.791
-320.056	-200.000	0.011	0.513
-319.041	-77.732	-0.443	-0.152
-318.026	-34.574	-0.533	-0.290
-317.012	787.995	0.032	-0.088
-315.997	337.711	0.195	0.377
-314.983	-52.039	-0.354	0.164
-313.968	-183.586	-0.181	-0.003
-312.953	143.212	-0.428	-0.566
-311.939	228.907	-0.080	-0.130
-310.924	-200.000	-0.007	-0.317
-309.910	-152.709	0.402	0.028
-308.895	-31.567	-0.540	-0.301
-307.880	-200.000	0.033	-0.357
-306.866	-200.000	-0.048	-0.329
-305.851	214.019	-0.429	-0.674
-304.837	15.040	-0.600	0.466
-303.822	-136.095	1.003	-0.117
-302.807	-28.472	-0.503	-0.288
-301.793	-119.525	-0.522	-0.090
-300.778	78.002	0.412	-0.436
-299.764	-34.440	0.494	-0.269
-298.749	103.952	0.320	-0.374
-297.735	-102.154	-0.254	-0.061
-296.720	-200.000	-0.033	-0.212
-295.705	-20.307	-0.512	-0.313
-294.691	421.218	0.265	0.565
-293.676	40.397	0.343	-0.306
-292.662	-156.153	0.376	-0.024
-291.647	2.852	0.193	-0.139
-290.632	237.886	0.453	-0.746
-289.618	800.000	-0.237	-0.688
-288.603	-68.729	0.618	0.237
-287.589	-157.812	-0.655	0.039
-286.574	-200.000	-0.070	0.438
-285.559	-200.000	0.074	-0.502
-284.545	-200.000	-0.080	-0.387
-283.530	-53.373	-0.107	0.048
-282.516	-147.151	0.182	-0.015
-281.501	-200.000	0.004	0.170
-280.486	390.721	0.182	0.374
-279.472	-110.960	-0.443	-0.090
-278.457	800.000	-0.217	-0.631
-277.443	-92.359	0.780	-0.218
-276.428	793.065	0.184	0.502
-275.413	-119.175	-0.353	-0.061
-274.399	800.000	-0.164	-0.695
-273.384	199.618	0.241	-0.367
-272.370	417.087	-0.192	0.406
-271.355	-158.182	0.384	0.022
-270.340	-200.000	0.032	0.172
-269.326	-131.596	-0.587	-0.077
-268.311	45.203	0.762	0.697
-267.297	360.846	0.109	-0.216
-266.282	-92.245	0.725	-0.203
-265.267	-200.000	-0.074	-0.360
-264.253	222.810	0.242	0.387
-263.238	275.026	-0.065	-0.114
-262.224	140.787	0.487	0.638
-261.209	408.613	-0.176	0.369
-260.195	17.642	0.721	-0.569
-259.180	537.998	0.020	-0.046
-258.165	22.533	-0.289	0.234
-257.151	-57.574	-0.574	-0.250
-256.136	-200.000	0.291	1.304
-255.122	-55.707	0.236	-0.105
-254.107	-20.627	0.276	-0.168
-253.092	2.381	-0.316	-0.226
-252.078	-58.938	0.332	-0.142
-251.063	-200.000	-0.041	-0.936
-250.049	800.000	-0.162	0.512
-249.034	-129.765	0.586	-0.080
-248.019	-75.438	0.185	-0.065
-247.005	169.564	0.477	0.676
-245.990	-79.591	-0.779	0.260
-244.976	96.412	0.321	0.365
-243.961	-50.346	-0.724	0.339
-242.946	319.564	-0.342	0.643
-241.932	-4.935	0.276	-0.188
-240.917	-124.952	0.530	-0.081
-239.903	800.000	0.185	-0.690
-238.888	-126.120	0.563	-0.084
-237.873	37.294	-0.587	-0.516
-236.859	-81.060	0.361	-0.118
-235.844	-200.000	0.002	-0.624
-234.830	161.352	0.103	-0.142
-233.815	-200.000	0.133	-0.683
-232.800	564.411	-0.116	0.279
-231.786	-14.438	-0.408	0.260
-230.771	143.851	-0.476	0.628
-229.757	800.000	0.346	-1.073
-228.742	153.976	0.252	0.342
-227.727	379.828	-0.333	-0.676
-226.713	-200.000	0.078	-0.442
-225.698	73.415	-0.297	-0.308
-224.684	85.683	0.549	0.597
-223.669	800.000	0.108	-0.315
-222.655	194.643	0.309	0.464
-221.640	208.165	0.309	-0.477
-220.625	-92.375	0.350	-0.098
-219.611	-8.263	0.171	-0.114
-218.596	250.356	0.236	-0.396
-217.582	418.692	0.190	-0.403
-216.567	284.225	0.176	-0.313
-215.552	-19.786	-0.624	0.381
-214.538	56.924	0.315	0.303
-213.523	-13.394	-0.836	-0.536
-212.509	-200.000	0.057	-0.416
-211.494	190.131	-0.189	-0.280
-210.479	-77.303	0.428	-0.147
-209.465	440.195	-0.339	-0.734
-208.450	-138.389	0.289	0.032
-207.436	-52.870	0.556	0.253
-206.421	-92.266	0.327	0.091
-205.406	60.851	-0.240	0.236
-204.392	-15.390	0.078	0.049
-203.377	212.664	0.226	-0.353
-202.363	125.065	-0.082	-0.102
-201.348	466.487	-0.186	0.413
-200.333	-200.000	-0.022	0.269
-199.319	320.480	-0.215	0.403
-198.304	-114.137	0.711	-0.136
-197.290	108.583	-0.087	-0.103
-196.275	432.161	0.077	-0.165
-195.260	-44.290	0.311	-0.154
-194.246	-10.284	-0.487	0.320
-193.231	-122.435	0.886	-0.143
-192.217	3.675	-0.708	0.511
-191.202	-68.407	0.295	0.113
-190.187	-84.395	-0.465	0.145
-189.173	-200.000	0.093	-1.171
-188.158	-90.729	0.389	-0.111
-187.144	-33.885	0.269	0.146
-186.129	-200.000	-0.070	-0.693
-185.114	-86.515	0.227	0.069
-184.100	431.696	-0.085	-0.182
-183.085	800.000	0.103	-0.286
-182.071	344.468	-0.629	-1.221
-181.056	-31.516	0.579	0.322
-180.042	-129.213	-0.321	0.044
-179.027	800.000	-0.251	0.865
-178.012	52.962	-0.668	-0.631
-176.998	-200.000	-0.043	0.200
-175.983	276.419	-0.162	0.284
-174.969	264.034	-0.200	0.344
-173.954	246.262	0.104	-0.172
-172.939	101.591	0.495	-0.571
-171.925	-126.343	0.100	-0.015
-170.910	800.000	-0.182	0.524
-169.896	800.000	0.331	1.183
-168.881	19.235	-0.246	0.195
-167.866	-83.751	0.616	-0.194
-166.852	-105.675	-0.282	0.063
-165.837	-200.000	0.157	0.915
-164.823	197.537	0.084	-0.127
-163.808	702.885	0.192	0.500
-162.793	174.957	-0.090	0.129
-161.779	-116.448	-1.090	0.199
-160.764	-92.691	0.731	-0.202
-159.750	-24.291	0.914	-0.538
-158.735	-52.238	-0.811	0.371
-157.720	231.206	-0.315	0.509
-156.706	-200.000	0.011	-0.252
-155.691	-23.928	0.414	-0.244
-154.677	-174.852	0.269	-0.007
-153.662	-34.000	-0.338	0.183
-152.647	10.113	-0.541	0.406
-151.633	-200.000	-0.131	0.779
-150.618	-200.000	0.024	-0.317
-149.604	-200.000	-0.064	-0.745
-148.589	80.329	-0.582	0.619
-147.574	-148.975	-0.415	0.033
-146.560	-200.000	-0.013	-0.111
-145.545	-88.845	0.473	0.138
-144.531	-27.040	0.864	0.497
-143.516	349.903	0.203	-0.396
-142.502	167.112	0.050	-0.071
-141.487	700.229	0.388	1.008
-140.472	-75.373	-0.171	0.060
-139.458	81.679	-0.523	0.559
-138.443	411.178	0.091	-0.191
-137.429	800.000	-0.136	-0.433
-136.414	800.000	0.086	0.262
-135.399	-200.000	0.055	0.309
-134.385	334.500	-0.252	0.482
-133.370	-200.000	0.029	0.265
-132.356	-17.595	-0.781	0.485
-131.341	-103.225	0.286	-0.067
-130.326	104.579	-0.402	-0.467
-129.312	-10.918	0.814	-0.530
-128.297	-91.205	0.890	0.251
-127.283	2.708	-0.683	0.489
-126.268	-200.000	0.028	-0.543
-125.253	22.249	-0.430	-0.346
-124.239	800.000	0.218	0.743
-123.224	-172.788	-0.686	-0.021
-122.210	800.000	0.206	0.565
