DTS Sentinel unit serial number:	SN413079Multiplexer serial number:	ORYXHardware model number:	OX4-SRSoftware version number:	ORYX F/W v4.00 Oryx Data Collector v3.7.2.0data status	okinstallation	princeton_trtdifferential loss correction	single-endedforward channel	channel 1reverse channel	N/Adate	2019/09/13time	04:34:35forward acquisition time	60.00reverse acquisition time	0.00gamma	496.2192k internal	0.2334k external	0.2334temperature offset calibration	1.0161default loss term (dB/km)	0.3790temperature slope calibration	1.0000multiplexer offset coefficient	1.0000multiplexer slope coefficient	1.0000fibre end	0.00T internal ref (°C)	26.67T ext. ref 1 (°C)	4.04T ext. ref 2 (°C)	21.15length (m)	temperature (°C)	Stokes	anti-Stokes-747.200	255.379	-0.076	0.131
-746.185	-130.183	0.117	0.016
-745.171	23.900	0.067	0.055
-744.156	800.000	0.048	-0.159
-743.142	142.609	-0.243	0.325
-742.127	-64.210	0.347	0.142
-741.112	-160.470	-0.300	0.016
-740.098	10.140	-0.298	0.228
-739.083	34.446	0.090	-0.079
-738.069	-57.915	0.141	-0.062
-737.054	-200.000	-0.047	0.253
-736.039	-13.305	-0.206	0.134
-735.025	175.814	-0.097	0.141
-734.010	108.875	0.147	-0.177
-732.996	-29.674	-0.047	-0.027
-731.981	-80.418	-0.196	-0.066
-730.966	-200.000	-0.039	0.267
-729.952	-27.480	-0.224	-0.131
-728.937	121.469	-0.167	-0.208
-727.923	800.000	0.055	-0.240
-726.908	-200.000	-0.010	-0.251
-725.894	-13.311	0.207	-0.135
-724.879	-91.721	0.098	0.028
-723.864	-200.000	-0.063	-0.361
-722.850	171.380	0.085	0.122
-721.835	95.512	-0.296	0.339
-720.821	748.107	-0.104	-0.283
-719.806	141.043	-0.197	0.261
-718.791	800.000	-0.011	-0.036
-717.777	800.000	0.084	0.291
-716.762	-157.700	0.240	0.014
-715.748	-19.429	-0.238	0.148
-714.733	-184.408	0.261	0.004
-713.718	252.028	0.107	-0.183
-712.704	-75.810	-0.153	-0.054
-711.689	-200.000	-0.014	0.075
-710.675	270.976	-0.087	-0.153
-709.660	-179.113	-0.091	0.002
-708.645	-163.950	-0.206	0.010
-707.631	381.360	0.145	0.299
-706.616	-3.076	-0.199	0.140
-705.602	288.570	0.119	-0.217
-704.587	189.215	-0.181	0.272
-703.572	367.946	-0.161	0.327
-702.558	-9.536	-0.253	-0.170
-701.543	-1.490	0.184	-0.130
-700.529	-200.000	0.068	0.403
-699.514	208.252	-0.065	-0.102
-698.499	445.086	0.022	-0.048
-697.485	-33.188	0.022	-0.012
-696.470	-43.813	0.368	-0.186
-695.456	-200.000	0.016	0.305
-694.441	-26.804	0.126	0.074
-693.426	483.332	-0.030	-0.069
-692.412	-200.000	0.084	-0.465
-691.397	800.000	-0.054	0.216
-690.383	-86.113	0.034	0.011
-689.368	17.541	0.235	0.187
-688.354	177.252	-0.108	-0.158
-687.339	554.123	0.150	0.362
-686.324	-200.000	-0.009	0.401
-685.310	-200.000	0.007	0.112
-684.295	39.508	-0.051	-0.046
-683.281	-47.922	-0.068	-0.033
-682.266	-86.785	0.108	0.033
-681.251	-13.501	-0.137	0.089
-680.237	-87.848	-0.151	0.045
-679.222	-80.256	-0.218	-0.073
-678.208	87.872	-0.125	0.139
-677.193	-200.000	0.038	-0.305
-676.178	-161.543	-0.084	-0.004
-675.164	515.886	-0.197	0.460
-674.149	800.000	0.051	0.167
-673.135	132.640	-0.197	-0.254
-672.120	-43.646	-0.215	0.108
-671.105	800.000	-0.037	-0.104
-670.091	-122.620	-0.232	-0.038
-669.076	-200.000	0.016	0.140
-668.062	-115.245	-0.111	-0.021
-667.047	-119.185	-0.384	0.067
-666.032	531.590	-0.101	0.238
-665.018	-180.863	-0.086	0.002
-664.003	-41.804	-0.156	-0.080
-662.989	-153.939	0.132	0.009
-661.974	-67.371	-0.410	-0.161
-660.959	-200.000	0.047	0.265
-659.945	-200.000	-0.023	-0.107
-658.930	38.078	-0.071	-0.063
-657.916	55.800	-0.054	0.052
-656.901	190.902	-0.101	0.152
-655.886	800.000	0.157	0.437
-654.872	-200.000	-0.010	-0.135
-653.857	105.206	0.122	-0.144
-652.843	-90.564	-0.151	0.044
-651.828	-54.180	0.131	-0.060
-650.814	-200.000	0.020	0.134
-649.799	151.960	0.086	0.117
-648.784	41.441	0.143	0.129
-647.770	800.000	0.059	-0.187
-646.755	305.686	0.053	0.098
-645.741	119.508	0.160	-0.198
-644.726	-160.636	0.349	-0.019
-643.711	236.002	-0.118	-0.196
-642.697	326.659	-0.163	0.312
-641.682	91.457	0.243	-0.273
-640.668	250.305	-0.171	-0.291
-639.653	-2.578	-0.220	-0.154
-638.638	-86.059	-0.151	0.047
-637.624	-155.627	-0.270	0.017
-636.609	-87.515	-0.166	0.050
-635.595	800.000	-0.073	-0.209
-634.580	800.000	0.073	-0.291
-633.565	81.263	-0.167	-0.180
-632.551	-200.000	0.054	-0.280
-631.536	-61.054	0.228	0.096
-630.522	-166.683	-0.030	-0.001
-629.507	60.797	0.214	-0.212
-628.492	206.195	0.151	-0.235
-627.478	800.000	0.054	0.164
-626.463	34.049	0.132	0.115
-625.449	-9.604	0.268	-0.179
-624.434	-176.753	0.258	-0.007
-623.419	175.354	-0.209	0.303
-622.405	-160.961	-0.547	0.029
-621.390	127.755	0.169	0.215
-620.376	-200.000	0.014	0.158
-619.361	331.766	0.048	0.092
-618.346	50.710	-0.063	-0.060
-617.332	-9.907	-0.100	-0.067
-616.317	92.530	0.216	-0.244
-615.303	-101.026	-0.283	-0.069
-614.288	-25.961	0.175	-0.103
-613.273	800.000	-0.054	-0.179
-612.259	800.000	-0.082	0.314
-611.244	-200.000	-0.027	-0.175
-610.230	-200.000	-0.013	-0.091
-609.215	43.295	-0.109	-0.100
-608.201	-48.986	0.086	0.041
-607.186	111.518	0.177	0.213
-606.171	80.776	0.273	0.294
-605.157	360.689	0.062	-0.124
-604.142	-70.668	-0.133	0.050
-603.128	168.109	-0.191	0.271
-602.113	800.000	-0.084	0.301
-601.098	-200.000	0.047	-0.384
-600.084	-128.114	-0.088	-0.013
-599.069	-171.203	0.191	-0.006
-598.055	-66.647	0.054	0.021
-597.040	-200.000	0.004	-0.319
-596.025	-106.449	-0.250	-0.056
-595.011	-56.502	-0.373	0.165
-593.996	-25.378	0.339	-0.200
-592.982	1.455	-0.086	-0.062
-591.967	65.995	-0.248	-0.251
-590.952	-64.235	-0.171	0.069
-589.938	734.927	-0.118	-0.316
-588.923	-200.000	0.011	-0.274
-587.909	-92.069	-0.170	0.048
-586.894	57.743	0.192	0.188
-585.879	-163.578	-0.490	0.023
-584.865	-11.781	0.195	0.128
-583.850	8.216	-0.300	0.225
-582.836	-200.000	-0.027	-0.284
-581.821	800.000	-0.047	-0.196
-580.806	-27.360	-0.100	-0.058
-579.792	60.155	-0.073	0.072
-578.777	-77.960	-0.051	-0.018
-577.763	473.171	0.036	0.080
-576.748	189.413	0.057	-0.085
-575.733	-200.000	-0.010	0.235
-574.719	-76.291	-0.036	-0.013
-573.704	-112.323	0.126	0.025
-572.690	-106.094	0.217	-0.049
-571.675	24.751	0.182	-0.150
-570.661	-98.750	0.365	-0.093
-569.646	31.078	0.244	0.209
-568.631	283.417	-0.096	-0.172
-567.617	-155.120	0.139	-0.009
-566.602	1.219	0.224	0.160
-565.588	-184.499	0.364	0.006
-564.573	800.000	-0.084	-0.287
-563.558	-200.000	0.013	-0.242
-562.544	60.470	-0.247	-0.244
-561.529	231.453	-0.101	0.165
-560.515	-5.263	-0.165	0.113
-559.500	800.000	-0.057	-0.163
-558.485	-200.000	0.031	0.178
-557.471	548.918	0.091	-0.218
-556.456	-96.690	0.081	0.021
-555.442	-112.448	-0.426	-0.085
-554.427	18.895	0.246	-0.197
-553.412	272.480	0.123	0.217
-552.398	-174.536	-0.129	0.004
-551.383	-8.159	0.171	-0.115
-550.369	194.911	-0.154	-0.233
-549.354	337.877	-0.135	-0.263
-548.339	10.011	0.069	0.052
-547.325	-200.000	-0.014	0.124
-546.310	61.116	0.189	-0.187
-545.296	311.407	-0.052	0.096
-544.281	37.708	-0.123	-0.109
-543.266	-200.000	0.004	0.098
-542.252	-153.130	-0.295	0.021
-541.237	-133.860	-0.138	-0.017
-540.223	-76.342	-0.555	0.195
-539.208	-200.000	0.002	-0.204
-538.193	-200.000	-0.032	0.160
-537.179	-128.076	-0.125	-0.018
-536.164	261.297	0.100	0.173
-535.150	3.866	-0.169	0.123
-534.135	-52.360	-0.225	0.104
-533.121	-32.183	-0.076	0.042
-532.106	800.000	0.032	0.092
-531.091	-17.604	0.041	-0.026
-530.077	-34.849	-0.274	-0.149
-529.062	800.000	-0.037	0.122
-528.048	-64.213	0.453	0.184
-527.033	57.088	-0.090	0.088
-526.018	17.995	-0.071	0.056
-525.004	-200.000	-0.025	0.133
-523.989	-117.994	-0.290	-0.052
-522.975	94.181	0.062	0.070
-521.960	-18.011	0.322	0.201
-520.945	-200.000	0.016	-0.085
-519.931	-63.151	-0.096	0.040
-518.916	-52.210	0.073	-0.034
-517.902	67.283	-0.172	0.175
-516.887	-116.076	-0.319	-0.059
-515.872	58.259	0.142	-0.138
-514.858	-200.000	0.027	0.217
-513.843	800.000	0.048	-0.154
-512.829	453.400	0.111	-0.244
-511.814	-58.060	-0.173	-0.075
-510.799	4.414	-0.219	0.160
-509.785	-200.000	0.009	0.203
-508.770	-200.000	0.018	0.253
-507.756	800.000	0.038	-0.149
-506.741	484.572	0.102	-0.232
-505.726	-200.000	-0.015	0.067
-504.712	-27.031	0.096	-0.056
-503.697	800.000	-0.099	-0.350
-502.683	36.971	0.050	0.044
-501.668	113.802	0.159	-0.192
-500.653	-102.929	-0.311	0.074
-499.639	-68.373	0.123	-0.047
-498.624	800.000	0.100	-0.344
-497.610	249.010	0.020	0.033
-496.595	-1.690	0.117	-0.082
-495.581	-113.833	-0.237	-0.046
-494.566	-200.000	0.043	-0.377
-493.551	49.241	-0.145	-0.136
-492.537	-148.672	0.239	-0.019
-491.522	-27.601	-0.103	-0.060
-490.508	103.858	0.118	-0.138
-489.493	-200.000	0.009	0.041
-488.478	249.036	-0.053	0.089
-487.464	-96.588	-0.400	0.105
-486.449	209.302	-0.157	-0.244
-485.435	55.611	0.406	-0.391
-484.420	-19.691	0.140	-0.086
-483.405	800.000	0.066	0.212
-482.391	800.000	-0.066	0.272
-481.376	290.180	-0.041	0.074
-480.362	45.778	0.168	-0.154
-479.347	748.126	-0.061	-0.164
-478.332	-23.735	-0.212	-0.126
-477.318	-167.108	0.162	-0.007
-476.303	-200.000	-0.011	0.176
-475.289	-65.713	-0.603	-0.240
-474.274	40.366	0.063	-0.057
-473.259	325.752	-0.121	-0.230
-472.245	-137.425	-0.352	0.040
-471.230	-43.788	0.094	0.047
-470.216	441.227	0.076	0.166
-469.201	-200.000	-0.006	-0.075
-468.186	-63.687	-0.140	0.057
-467.172	800.000	-0.048	-0.185
-466.157	-169.977	0.330	0.012
-465.143	455.443	-0.148	0.326
-464.128	27.361	0.199	0.166
-463.113	800.000	0.124	0.451
-462.099	-200.000	0.011	-0.049
-461.084	19.775	0.184	0.148
-460.070	-59.678	-0.044	-0.019
-459.055	-16.387	-0.234	0.147
-458.040	800.000	-0.041	0.160
-457.026	-200.000	0.004	0.192
-456.011	-200.000	0.008	0.228
-454.997	-200.000	-0.017	0.158
-453.982	263.625	-0.043	0.074
-452.968	-200.000	-0.008	0.188
-451.953	-95.777	0.044	0.012
-450.938	171.468	-0.049	0.070
-449.924	-137.773	0.554	0.062
-448.909	-53.014	0.259	-0.118
-447.895	273.795	0.049	-0.087
-446.880	-63.752	-0.156	-0.063
-445.865	-5.265	-0.221	-0.151
-444.851	-115.308	-0.227	0.043
-443.836	-82.066	-0.217	0.070
-442.822	-150.167	-0.233	0.018
-441.807	800.000	-0.107	-0.455
-440.792	-200.000	0.019	0.380
-439.778	-116.145	0.047	0.009
-438.763	-76.520	0.284	0.099
-437.749	-65.996	0.232	0.092
-436.734	-0.727	-0.228	-0.160
-435.719	84.070	0.314	0.341
-434.705	-7.157	0.197	-0.133
-433.690	-151.897	-0.101	-0.007
-432.676	-46.848	0.207	-0.100
-431.661	-140.528	0.360	0.037
-430.646	101.756	0.143	0.166
-429.632	-142.424	-0.339	-0.033
-428.617	-200.000	0.019	-0.118
-427.603	7.671	0.090	-0.067
-426.588	13.950	-0.184	0.142
-425.573	275.495	0.233	0.409
-424.559	-109.988	-0.248	0.052
-423.544	-83.248	0.094	0.030
-422.530	-200.000	-0.006	0.332
-421.515	-158.997	-0.443	0.025
-420.500	800.000	-0.035	0.129
-419.486	-45.826	0.168	0.082
-418.471	24.482	0.079	-0.065
-417.457	326.083	-0.076	-0.145
-416.442	-94.406	-0.143	0.039
-415.428	-55.340	-0.291	-0.129
-414.413	800.000	-0.036	-0.125
-413.398	-200.000	0.018	0.083
-412.384	-131.880	0.185	-0.024
-411.369	262.017	0.234	-0.402
-410.355	800.000	-0.028	-0.116
-409.340	797.928	-0.118	-0.323
-408.325	-200.000	0.009	0.054
-407.311	800.000	0.057	0.189
-406.296	-200.000	0.029	0.165
-405.282	-116.332	-0.153	-0.028
-404.267	-29.529	0.554	0.314
-403.252	683.174	-0.135	0.349
-402.238	14.748	-0.127	0.099
-401.223	800.000	0.052	-0.221
-400.209	-74.230	-0.207	-0.074
-399.194	-200.000	-0.003	-0.178
-398.179	-200.000	0.031	-0.202
-397.165	-200.000	-0.003	0.045
-396.150	800.000	0.116	-0.353
-395.136	127.236	-0.177	-0.222
-394.121	99.627	0.078	0.089
-393.106	-113.259	-0.194	-0.038
-392.092	57.770	0.209	0.203
-391.077	-90.479	0.065	0.019
-390.063	110.751	0.204	-0.243
-389.048	136.461	0.085	0.109
-388.033	200.701	-0.127	0.194
-387.019	704.449	-0.131	0.342
-386.004	-68.228	-0.227	0.087
-384.990	-129.470	0.337	0.046
-383.975	-100.616	-0.378	0.092
-382.960	272.408	-0.134	-0.235
-381.946	38.759	0.217	0.192
-380.931	-93.969	0.234	-0.064
-379.917	-60.435	-0.412	-0.173
-378.902	-23.756	0.178	-0.106
-377.888	10.874	0.187	-0.141
-376.873	2.702	-0.073	-0.052
-375.858	-165.363	0.273	0.012
-374.844	-200.000	-0.036	0.199
-373.829	118.754	0.157	-0.192
-372.815	-124.897	0.182	0.028
-371.800	173.432	-0.091	-0.130
-370.785	-92.321	0.141	-0.039
-369.771	-43.426	-0.218	-0.109
-368.756	-40.853	0.122	0.063
-367.742	800.000	-0.032	0.135
-366.727	-26.655	-0.350	-0.203
-365.712	-109.694	0.192	-0.040
-364.698	800.000	0.072	0.230
-363.683	-174.673	0.107	-0.003
-362.669	146.602	0.042	0.056
-361.654	333.918	0.175	0.336
-360.639	-200.000	-0.047	-0.445
-359.625	-106.392	0.357	-0.079
-358.610	532.503	-0.038	0.088
-357.596	-200.000	-0.108	0.673
-356.581	319.359	0.137	0.257
-355.566	-148.852	-0.275	-0.022
-354.552	800.000	0.058	-0.228
-353.537	112.867	-0.053	-0.063
-352.523	-200.000	0.015	-0.157
-351.508	418.767	0.025	0.052
-350.493	-200.000	-0.008	0.362
-349.479	-77.799	0.265	-0.091
-348.464	-97.967	0.029	-0.007
-347.450	-200.000	-0.004	-0.090
-346.435	-95.821	0.296	-0.078
-345.420	-164.738	0.173	0.008
-344.406	135.159	-0.120	-0.155
-343.391	-105.068	0.248	-0.056
-342.377	-200.000	0.004	-0.052
-341.362	34.731	-0.161	0.139
-340.348	118.013	0.059	-0.071
-339.333	100.013	0.039	0.044
-338.318	-200.000	0.042	-0.224
-337.304	-174.575	0.191	-0.005
-336.289	800.000	-0.063	0.248
-335.275	800.000	-0.067	0.246
-334.260	-200.000	0.047	0.328
-333.245	34.223	0.303	-0.261
-332.231	-200.000	-0.010	0.117
-331.216	67.420	0.162	0.164
-330.202	-64.115	-0.213	0.086
-329.187	-146.979	0.250	0.021
-328.172	-200.000	-0.030	-0.155
-327.158	-116.767	-0.219	0.040
-326.143	-115.520	-0.459	0.085
-325.129	378.338	0.340	0.688
-324.114	-139.701	-0.198	-0.021
-323.099	11.895	0.120	0.091
-322.085	-200.000	-0.000	-0.252
-321.070	-114.089	0.074	0.014
-320.056	-140.479	0.148	0.015
-319.041	-56.085	0.167	-0.074
-318.026	610.731	-0.059	-0.145
-317.012	391.950	-0.074	-0.152
-315.997	-35.085	-0.138	0.074
-314.983	-200.000	-0.033	-0.258
-313.968	44.737	-0.266	0.242
-312.953	-156.954	0.379	-0.023
-311.939	36.788	-0.207	-0.181
-310.924	-200.000	-0.038	-0.291
-309.910	5.377	-0.222	-0.162
-308.895	-72.602	0.281	0.103
-307.880	800.000	0.016	-0.054
-306.866	514.963	0.041	-0.095
-305.851	85.316	0.237	-0.257
-304.837	800.000	0.036	0.101
-303.822	-97.268	0.122	0.031
-302.807	535.759	-0.032	0.074
-301.793	229.401	0.147	0.237
-300.778	10.790	0.263	0.198
-299.764	-200.000	0.014	-0.200
-298.749	97.125	-0.198	-0.224
-297.735	509.912	-0.135	-0.309
-296.720	-123.003	-0.129	-0.021
-295.705	80.437	0.297	0.316
-294.691	-156.815	-0.257	-0.016
-293.676	-200.000	-0.048	0.273
-292.662	136.937	-0.222	-0.287
-291.647	-80.167	-0.125	0.041
-290.632	-118.722	0.194	-0.034
-289.618	180.457	0.070	0.102
-288.603	800.000	0.031	-0.087
-287.589	-200.000	-0.034	0.209
-286.574	8.788	-0.151	-0.112
-285.559	214.184	-0.227	-0.355
-284.545	381.400	-0.054	-0.110
-283.530	-200.000	0.025	0.115
-282.516	-6.314	-0.240	0.162
-281.501	48.425	0.049	0.046
-280.486	-159.061	0.329	0.018
-279.472	-151.697	-0.222	0.016
-278.457	-200.000	0.019	-0.201
-277.443	-62.833	-0.220	0.090
-276.428	54.587	-0.241	-0.229
-275.413	-200.000	0.032	0.156
-274.399	295.348	0.046	0.084
-273.384	105.511	0.203	0.237
-272.370	-200.000	-0.002	0.088
-271.355	-20.172	-0.234	0.142
-270.340	36.927	0.149	0.130
-269.326	-47.416	0.185	-0.089
-268.311	-157.006	-0.163	-0.010
-267.297	800.000	-0.023	-0.097
-266.282	376.610	-0.111	0.224
-265.267	-64.259	0.063	0.025
-264.253	458.342	-0.167	0.365
-263.238	-200.000	-0.041	0.275
-262.224	32.501	0.123	-0.105
-261.209	56.332	-0.037	0.035
-260.195	-200.000	-0.050	0.235
-259.180	-200.000	-0.009	0.078
-258.165	11.681	0.204	-0.154
-257.151	-127.955	-0.138	0.020
-256.136	-200.000	0.000	0.212
-255.122	0.779	-0.227	0.161
-254.107	-200.000	-0.011	-0.130
-253.092	800.000	-0.098	0.290
-252.078	58.797	0.061	0.060
-251.063	10.145	-0.118	0.088
-250.049	26.940	-0.064	0.053
-249.034	82.610	-0.044	0.047
-248.019	369.079	0.137	-0.273
-247.005	-200.000	0.080	-0.360
-245.990	-200.000	0.062	0.315
-244.976	183.340	-0.162	0.236
-243.961	-127.186	-0.263	-0.038
-242.946	-116.344	0.157	0.029
-241.932	-200.000	-0.015	-0.218
-240.917	-200.000	-0.009	-0.106
-239.903	2.304	0.166	-0.118
-238.888	92.639	0.133	0.147
-237.873	135.236	0.361	0.463
-236.859	-200.000	-0.007	-0.310
-235.844	-99.187	-0.125	0.031
-234.830	800.000	0.061	0.181
-233.815	222.689	-0.163	-0.258
-232.800	79.910	-0.208	0.220
-231.786	-69.488	-0.130	0.049
-230.771	-200.000	-0.057	-0.366
-229.757	-99.194	-0.151	0.038
-228.742	145.839	0.149	-0.197
-227.727	-66.252	0.227	-0.089
-226.713	-33.371	-0.145	-0.079
-225.698	-197.497	0.068	0.000
-224.684	345.008	-0.064	-0.124
-223.669	364.135	0.147	-0.290
-222.655	-136.898	0.263	0.030
-221.640	-200.000	0.001	-0.037
-220.625	-133.278	0.070	-0.009
-219.611	-200.000	-0.045	-0.292
-218.596	-25.131	0.409	0.239
-217.582	57.664	-0.164	0.158
-216.567	-11.503	-0.085	-0.055
-215.552	322.023	0.194	-0.364
-214.538	412.983	0.027	0.056
-213.523	-26.310	-0.364	0.210
-212.509	-128.532	-0.021	-0.003
-211.494	-200.000	0.008	0.225
-210.479	-53.114	0.158	0.071
-209.465	58.310	0.091	-0.088
-208.450	161.991	0.163	-0.225
-207.436	108.217	-0.127	-0.149
-206.421	800.000	-0.024	-0.073
-205.406	800.000	-0.052	-0.148
-204.392	88.546	0.109	0.120
-203.377	-155.632	-0.419	-0.026
-202.363	8.002	-0.198	-0.146
-201.348	-200.000	0.012	0.274
-200.333	0.181	0.254	0.178
-199.319	608.946	-0.035	0.086
-198.304	-53.225	0.083	-0.038
-197.290	800.000	0.022	-0.082
-196.275	-103.461	0.222	-0.051
-195.260	800.000	0.077	-0.253
-194.246	-20.472	-0.175	0.106
-193.231	539.212	-0.054	-0.126
-192.217	115.984	0.250	0.301
-191.202	28.180	-0.204	0.170
-190.187	-200.000	-0.003	-0.047
-189.173	800.000	0.110	0.376
-188.158	-96.349	-0.163	-0.042
-187.144	-200.000	-0.075	0.395
-186.129	-200.000	-0.016	0.104
-185.114	-24.518	0.060	0.035
-184.100	237.948	0.237	-0.387
-183.085	483.942	0.057	0.127
-182.071	800.000	0.101	-0.302
-181.056	-192.977	0.383	0.003
-180.042	-34.608	0.157	-0.085
-179.027	-122.987	0.251	-0.040
-178.012	-200.000	0.101	-0.496
-176.998	411.683	-0.110	0.230
-175.983	-3.297	-0.242	0.166
-174.969	19.044	-0.140	-0.110
-173.954	36.938	0.150	-0.130
-172.939	-7.085	-0.144	0.096
-171.925	800.000	0.077	-0.244
-170.910	800.000	0.036	-0.121
-169.896	-135.374	-0.120	-0.014
-168.881	-200.000	-0.022	0.379
-167.866	0.208	-0.148	0.104
-166.852	800.000	-0.099	-0.370
-165.837	127.769	-0.054	0.068
-164.823	-200.000	-0.018	0.429
-163.808	-181.154	0.112	0.002
-162.793	-200.000	0.045	0.368
-161.779	-37.114	-0.283	0.149
-160.764	782.352	0.008	-0.022
-159.750	-200.000	-0.032	0.482
-158.735	4.467	-0.021	-0.015
-157.720	9.860	0.285	0.212
-156.706	53.892	0.099	-0.093
-155.691	-200.000	-0.005	-0.169
-154.677	-200.000	0.057	-0.294
-153.662	-25.933	0.237	-0.137
-152.647	56.006	-0.265	-0.252
-151.633	-200.000	-0.025	0.231
-150.618	-200.000	-0.013	0.272
-149.604	365.171	0.161	-0.319
-148.589	-57.757	0.237	-0.102
-147.574	800.000	0.117	-0.417
-146.560	-68.090	0.328	0.125
-145.545	-161.316	-0.579	-0.029
-144.531	-37.843	-0.273	-0.143
-143.516	35.805	0.250	-0.216
-142.502	8.250	0.341	-0.251
-141.487	-50.356	0.259	-0.120
-140.472	-153.671	0.360	0.024
-139.458	307.783	-0.122	-0.222
-138.443	-118.008	0.433	-0.076
-137.429	-28.301	0.280	-0.159
-136.414	-94.211	-0.175	-0.047
-135.399	-200.000	-0.010	0.140
-134.385	677.114	-0.128	0.327
-133.370	-200.000	0.101	0.563
-132.356	-200.000	-0.044	-0.259
-131.341	800.000	0.149	0.413
-130.326	-31.708	-0.099	0.054
-129.312	-200.000	0.023	0.160
-128.297	-31.740	-0.235	-0.129
-127.283	-51.865	-0.166	-0.076
-126.268	-66.093	0.240	0.094
-125.253	-200.000	0.026	0.240
-124.239	-131.380	0.281	-0.036
-123.224	-200.000	-0.051	0.415
-122.210	693.298	-0.048	-0.123
-121.195	-200.000	0.015	0.182
