DTS Sentinel unit serial number:	SN413079Multiplexer serial number:	ORYXHardware model number:	OX4-SRSoftware version number:	ORYX F/W v4.00 Oryx Data Collector v3.7.2.0data status	okinstallation	princeton_trtdifferential loss correction	single-endedforward channel	channel 1reverse channel	N/Adate	2019/09/12time	16:44:11forward acquisition time	60.00reverse acquisition time	0.00gamma	496.2192k internal	0.2308k external	0.2308temperature offset calibration	1.0093default loss term (dB/km)	0.3790temperature slope calibration	1.0000multiplexer offset coefficient	1.0000multiplexer slope coefficient	1.0000fibre end	0.00T internal ref (°C)	36.53T ext. ref 1 (°C)	2.70T ext. ref 2 (°C)	29.58length (m)	temperature (°C)	Stokes	anti-Stokes-747.200	-200.000	-0.002	-0.026
-746.185	359.997	-0.108	0.219
-745.171	-135.474	0.176	-0.021
-744.156	228.289	-0.154	0.255
-743.142	47.997	-0.107	0.101
-742.127	-69.833	0.013	-0.005
-741.112	-40.442	-0.087	-0.046
-740.098	800.000	-0.148	0.514
-739.083	-29.880	0.081	0.047
-738.069	130.037	-0.115	0.150
-737.054	603.110	0.116	-0.294
-736.039	56.324	0.148	0.146
-735.025	59.712	0.114	0.114
-734.010	-120.872	-0.199	0.034
-732.996	17.425	-0.138	-0.112
-731.981	-20.822	-0.113	-0.071
-730.966	-134.039	-0.325	0.041
-729.952	-193.658	-0.288	-0.002
-728.937	-157.660	-0.200	-0.012
-727.923	65.288	-0.185	0.190
-726.908	69.715	-0.216	-0.226
-725.894	-200.000	-0.030	-0.136
-724.879	-200.000	-0.021	0.211
-723.864	98.391	-0.240	-0.281
-722.850	-158.042	-0.130	0.008
-721.835	-101.272	0.273	-0.068
-720.821	-200.000	0.005	-0.235
-719.806	-130.221	0.043	0.006
-718.791	430.941	0.096	-0.211
-717.777	-200.000	-0.048	-0.316
-716.762	800.000	-0.070	-0.306
-715.748	-200.000	-0.015	-0.199
-714.733	-200.000	0.059	-0.293
-713.718	42.208	-0.251	-0.231
-712.704	107.773	-0.447	-0.540
-711.689	-162.970	-0.468	0.023
-710.675	-105.900	-0.543	0.124
-709.660	-10.166	-0.223	-0.150
-708.645	-78.658	0.203	-0.070
-707.631	-163.225	-0.252	-0.012
-706.616	-166.745	0.430	0.018
-705.602	12.530	0.291	-0.228
-704.587	-91.092	-0.168	0.049
-703.572	122.286	0.012	0.016
-702.558	331.178	0.147	0.288
-701.543	73.719	-0.204	0.217
-700.529	237.329	-0.207	0.348
-699.514	-75.641	0.076	-0.027
-698.499	-135.597	0.533	-0.064
-697.485	-200.000	-0.087	0.564
-696.470	-200.000	0.020	0.103
-695.456	25.077	-0.317	-0.267
-694.441	800.000	-0.048	-0.185
-693.426	-40.846	-0.226	0.119
-692.412	-40.585	0.092	0.048
-691.397	91.173	-0.276	-0.315
-690.383	800.000	0.117	-0.335
-689.368	-200.000	-0.015	-0.198
-688.354	-94.200	0.060	0.017
-687.339	-200.000	0.002	-0.229
-686.324	800.000	0.039	0.124
-685.310	-37.842	-0.401	-0.216
-684.295	542.625	0.040	-0.098
-683.281	156.187	0.119	-0.167
-682.266	94.509	0.142	-0.163
-681.251	800.000	-0.163	-0.470
-680.237	-52.717	0.281	-0.132
-679.222	68.012	-0.110	-0.114
-678.208	-124.787	-0.301	-0.047
-677.193	800.000	0.066	0.245
-676.178	140.592	-0.067	0.090
-675.164	-158.318	0.219	0.013
-674.149	800.000	0.081	-0.270
-673.135	-11.647	0.188	0.125
-672.120	72.717	0.350	-0.370
-671.105	33.234	0.390	0.343
-670.091	-200.000	-0.001	0.083
-669.076	394.578	0.120	0.254
-668.062	54.139	-0.095	0.093
-667.047	14.006	-0.063	0.050
-666.032	566.084	0.080	-0.197
-665.018	374.017	-0.277	-0.571
-664.003	-200.000	0.001	-0.019
-662.989	-42.780	-0.331	0.171
-661.974	-200.000	-0.001	-0.304
-660.959	800.000	-0.039	-0.114
-659.945	473.055	-0.082	0.186
-658.930	-7.301	0.068	0.046
-657.916	221.718	-0.052	-0.084
-656.901	800.000	-0.057	-0.218
-655.886	-36.794	-0.258	0.141
-654.872	-100.553	-0.148	0.037
-653.857	-23.243	0.182	0.111
-652.843	800.000	0.014	-0.050
-651.828	151.767	0.107	0.148
-650.814	-3.041	0.148	0.105
-649.799	77.748	0.079	-0.085
-648.784	-3.324	-0.362	-0.255
-647.770	0.776	-0.109	-0.079
-646.755	-103.863	0.098	-0.023
-645.741	573.791	0.130	0.320
-644.726	-200.000	0.019	0.085
-643.711	-25.040	-0.146	0.088
-642.697	410.998	0.155	0.334
-641.682	69.067	0.114	0.118
-640.668	543.337	0.065	-0.157
-639.653	-50.615	0.208	0.099
-638.638	-123.319	0.324	0.052
-637.624	495.269	-0.104	0.242
-636.609	-200.000	-0.066	0.318
-635.595	61.856	-0.179	0.180
-634.580	-76.978	-0.225	-0.079
-633.565	517.073	-0.077	0.183
-632.551	-200.000	0.044	0.418
-631.536	-83.067	-0.112	-0.037
-630.522	800.000	0.071	-0.290
-629.507	1.334	0.244	-0.178
-628.492	506.156	-0.036	0.085
-627.478	-28.298	0.139	-0.081
-626.463	181.191	0.114	-0.170
-625.449	-38.983	-0.266	-0.141
-624.434	233.540	-0.203	-0.338
-623.419	-117.317	-0.244	0.045
-622.405	-132.843	0.312	0.040
-621.390	-200.000	-0.029	-0.291
-620.376	800.000	0.031	0.123
-619.361	-150.195	-0.111	0.009
-618.346	559.380	0.121	-0.297
-617.332	-144.399	0.209	0.020
-616.317	84.272	-0.156	-0.172
-615.303	217.922	-0.030	0.048
-614.288	800.000	0.016	0.049
-613.273	44.441	0.061	0.056
-612.259	-36.751	-0.183	0.099
-611.244	453.839	0.124	0.278
-610.230	116.794	0.188	-0.233
-609.215	-66.911	-0.302	-0.121
-608.201	-40.177	-0.253	0.133
-607.186	14.488	-0.213	0.168
-606.171	-132.774	0.297	0.038
-605.157	-200.000	0.029	0.279
-604.142	203.106	-0.248	-0.388
-603.128	-124.382	-0.252	0.040
-602.113	31.805	-0.179	0.155
-601.098	-171.749	0.052	-0.002
-600.084	-119.019	0.117	-0.021
-599.069	196.750	-0.201	-0.310
-598.055	202.323	-0.151	-0.235
-597.040	-82.204	0.170	-0.056
-596.025	129.066	0.154	-0.199
-595.011	-200.000	-0.009	-0.126
-593.996	301.906	0.131	-0.245
-592.982	139.936	-0.087	0.116
-591.967	-200.000	-0.029	-0.145
-590.952	-120.628	-0.251	-0.043
-589.938	-200.000	-0.024	-0.291
-588.923	-13.660	0.076	0.050
-587.909	800.000	0.080	0.238
-586.894	145.810	-0.120	-0.163
-585.879	-82.421	0.301	-0.099
-584.865	-137.733	0.263	-0.030
-583.850	102.315	-0.270	0.319
-582.836	-90.297	-0.134	0.039
-581.821	-125.779	-0.309	0.047
-580.806	-200.000	-0.009	0.393
-579.792	-48.310	0.165	-0.080
-578.777	-164.711	0.314	0.014
-577.763	94.033	0.362	-0.414
-576.748	-115.229	-0.059	-0.011
-575.733	202.355	0.165	-0.257
-574.719	286.599	-0.121	-0.220
-573.704	92.454	-0.177	0.201
-572.690	-90.481	0.039	0.011
-571.675	800.000	0.083	0.366
-570.661	741.841	0.068	-0.185
-569.646	5.673	-0.111	-0.083
-568.631	800.000	-0.005	-0.015
-567.617	-200.000	-0.007	0.206
-566.602	-200.000	-0.001	-0.054
-565.588	202.232	-0.110	-0.172
-564.573	800.000	0.051	-0.214
-563.558	-200.000	-0.005	0.384
-562.544	113.922	0.205	0.251
-561.529	-117.576	0.588	-0.107
-560.515	800.000	0.105	0.407
-559.500	659.511	-0.064	-0.167
-558.485	-174.843	0.180	0.005
-557.471	-200.000	0.011	0.138
-556.456	140.186	0.051	0.067
-555.442	-200.000	0.021	-0.192
-554.427	-200.000	0.022	-0.196
-553.412	6.986	0.124	0.093
-552.398	11.859	0.151	0.117
-551.383	-200.000	-0.008	0.256
-550.369	-200.000	0.070	0.707
-549.354	163.465	0.069	-0.098
-548.339	-200.000	0.087	-0.505
-547.325	-78.611	0.124	0.043
-546.310	-22.492	-0.101	-0.061
-545.296	101.578	-0.127	0.149
-544.281	302.168	-0.092	-0.172
-543.266	-29.857	-0.106	-0.061
-542.252	-110.301	0.350	-0.073
-541.237	601.052	-0.087	-0.218
-540.223	-29.413	0.218	-0.126
-539.208	-75.319	-0.200	0.072
-538.193	-200.000	0.031	-0.178
-537.179	334.576	-0.208	-0.407
-536.164	-85.890	-0.180	-0.056
-535.150	-200.000	-0.001	0.318
-534.135	53.460	0.067	0.065
-533.121	-67.249	-0.202	-0.080
-532.106	-60.138	0.160	-0.069
-531.091	-181.695	0.312	-0.006
-530.077	506.100	-0.081	0.190
-529.062	221.567	-0.073	-0.117
-528.048	218.647	0.210	-0.337
-527.033	-74.233	-0.152	0.055
-526.018	573.901	0.020	0.050
-525.004	36.276	-0.063	-0.056
-523.989	-164.235	0.203	0.009
-522.975	22.333	0.052	-0.043
-521.960	38.596	0.116	0.104
-520.945	-200.000	0.010	0.053
-519.931	-77.424	-0.174	0.061
-518.916	-53.169	-0.357	0.165
-517.902	153.470	-0.077	-0.106
-516.887	23.558	0.212	0.176
-515.872	-200.000	-0.018	-0.249
-514.858	-90.176	0.220	0.065
-513.843	499.033	-0.082	-0.189
-512.829	-200.000	-0.019	-0.109
-511.814	800.000	-0.025	-0.072
-510.799	302.112	-0.059	0.109
-509.785	800.000	-0.189	-0.533
-508.770	10.817	0.148	-0.114
-507.756	27.419	-0.149	0.126
-506.741	36.179	-0.090	-0.080
-505.726	800.000	-0.049	0.149
-504.712	-71.900	0.458	0.172
-503.697	118.018	-0.180	0.223
-502.683	446.665	-0.120	-0.266
-501.668	-163.932	0.207	-0.010
-500.653	53.778	-0.090	0.087
-499.639	10.239	-0.208	0.159
-498.624	57.959	0.191	0.188
-497.610	-7.366	-0.373	-0.255
-496.595	800.000	-0.074	0.310
-495.581	-29.019	0.157	-0.091
-494.566	-93.502	-0.126	-0.035
-493.551	18.795	0.047	0.038
-492.537	800.000	0.081	-0.274
-491.522	238.989	-0.153	-0.255
-490.508	-11.092	0.276	0.183
-489.493	140.860	0.171	0.227
-488.478	57.453	0.361	0.355
-487.464	-145.158	-0.440	0.040
-486.449	-78.319	-0.224	-0.077
-485.435	-53.806	-0.302	0.138
-484.420	200.829	-0.012	-0.019
-483.405	101.107	-0.095	-0.111
-482.391	-82.946	-0.358	-0.116
-481.376	800.000	-0.049	-0.161
-480.362	-84.058	0.112	0.036
-479.347	-63.455	-0.241	-0.100
-478.332	-83.473	-0.343	0.111
-477.318	85.081	-0.140	-0.154
-476.303	-166.627	-0.260	0.011
-475.289	42.423	-0.104	-0.095
-474.274	104.966	0.180	-0.214
-473.259	620.730	-0.115	0.290
-472.245	152.987	0.198	-0.272
-471.230	-109.084	-0.197	-0.042
-470.216	13.608	0.176	-0.137
-469.201	-63.283	-0.406	-0.168
-468.186	-200.000	0.047	-0.316
-467.172	-200.000	-0.042	-0.256
-466.157	472.830	0.016	-0.036
-465.143	-41.644	0.286	-0.148
-464.128	-68.289	0.465	-0.182
-463.113	800.000	-0.045	0.152
-462.099	73.904	-0.178	0.187
-461.084	-90.573	-0.291	0.085
-460.070	331.415	0.030	0.057
-459.055	-200.000	-0.012	0.157
-458.040	-200.000	0.013	-0.274
-457.026	-29.479	-0.142	-0.081
-456.011	132.702	0.123	0.160
-454.997	-180.750	-0.098	-0.002
-453.982	800.000	0.018	-0.081
-452.968	-74.870	-0.326	-0.118
-451.953	731.299	-0.034	0.091
-450.938	-200.000	0.006	-0.091
-449.924	-76.402	-0.043	0.015
-448.909	800.000	-0.044	0.185
-447.895	800.000	0.072	-0.227
-446.880	-200.000	-0.027	0.363
-445.865	281.417	0.144	-0.259
-444.851	-10.018	0.202	0.135
-443.836	1.021	0.128	-0.092
-442.822	-29.970	0.406	-0.232
-441.807	168.178	-0.178	0.254
-440.792	-108.346	-0.144	0.031
-439.778	117.777	0.076	0.093
-438.763	18.948	0.179	0.144
-437.749	-95.651	-0.258	0.069
-436.734	62.653	0.152	-0.152
-435.719	149.750	0.122	-0.166
-434.705	-200.000	-0.025	0.217
-433.690	4.103	-0.337	-0.248
-432.676	34.491	0.137	0.121
-431.661	-36.685	0.148	0.080
-430.646	601.314	0.032	0.079
-429.632	-200.000	-0.001	0.208
-428.617	800.000	-0.055	-0.174
-427.603	35.594	0.328	-0.289
-426.588	-56.390	0.237	-0.106
-425.573	-174.122	-0.293	-0.009
-424.559	-67.248	0.034	0.013
-423.544	105.288	-0.198	-0.234
-422.530	591.915	0.069	0.172
-421.515	-129.264	-0.391	-0.055
-420.500	5.349	-0.117	0.087
-419.486	-104.462	0.098	-0.023
-418.471	-74.841	0.139	-0.050
-417.457	800.000	-0.022	0.085
-416.442	40.416	-0.163	0.147
-415.428	-173.638	-0.199	0.006
-414.413	-4.404	-0.129	0.089
-413.398	218.284	-0.090	0.145
-412.384	-200.000	-0.043	0.328
-411.369	-53.327	-0.255	-0.117
-410.355	-200.000	-0.043	0.310
-409.340	-27.224	0.229	0.134
-408.325	525.694	-0.038	0.090
-407.311	-29.882	0.142	0.081
-406.296	-164.794	0.153	0.007
-405.282	295.131	-0.163	0.299
-404.267	-64.567	0.401	0.163
-403.252	-55.060	-0.176	-0.079
-402.238	59.825	-0.165	-0.163
-401.223	40.034	0.082	0.074
-400.209	-200.000	0.034	-0.179
-399.194	-103.277	-0.184	-0.044
-398.179	-75.475	0.293	0.105
-397.165	42.176	-0.358	0.326
-396.150	800.000	-0.088	0.329
-395.136	4.057	0.145	0.106
-394.121	112.493	-0.192	0.232
-393.106	129.371	0.090	0.116
-392.092	256.687	-0.195	0.335
-391.077	-47.296	-0.249	0.122
-390.063	104.262	0.036	-0.043
-389.048	-200.000	-0.040	0.268
-388.033	-24.415	-0.263	0.157
-387.019	308.311	0.090	-0.169
-386.004	27.379	0.179	-0.151
-384.990	-200.000	-0.052	-0.237
-383.975	-200.000	0.033	-0.226
-382.960	206.358	-0.106	-0.166
-381.946	38.344	-0.169	0.151
-380.931	-75.083	0.224	-0.080
-379.917	29.115	-0.246	0.209
-378.902	-200.000	-0.024	0.114
-377.888	-151.513	0.311	0.023
-376.873	-200.000	-0.005	0.417
-375.858	-200.000	-0.068	0.389
-374.844	204.538	0.087	-0.135
-373.829	103.902	0.201	-0.237
-372.815	35.750	0.246	-0.217
-371.800	35.885	0.065	0.057
-370.785	84.101	0.076	-0.083
-369.771	-173.955	0.425	0.013
-368.756	-43.370	-0.153	0.078
-367.742	-200.000	-0.049	-0.290
-366.727	211.097	-0.037	-0.058
-365.712	-181.764	0.166	-0.003
-364.698	346.796	-0.100	-0.197
-363.683	-67.977	0.166	0.065
-362.669	-39.383	0.129	-0.068
-361.654	-200.000	0.034	-0.151
-360.639	79.062	0.145	0.155
-359.625	466.378	-0.095	0.213
-358.610	-200.000	-0.004	-0.123
-357.596	225.708	-0.087	-0.141
-356.581	-200.000	0.024	-0.262
-355.566	-0.761	-0.233	-0.165
-354.552	800.000	-0.034	0.115
-353.537	280.424	-0.060	-0.108
-352.523	110.578	0.243	-0.293
-351.508	-83.127	0.030	-0.010
-350.493	577.902	-0.119	-0.292
-349.479	301.756	-0.179	-0.330
-348.464	-200.000	-0.018	-0.132
-347.450	91.660	-0.142	-0.160
-346.435	800.000	-0.127	-0.536
-345.420	436.966	-0.129	-0.282
-344.406	247.500	0.081	0.137
-343.391	46.851	-0.259	0.241
-342.377	-200.000	0.030	0.278
-341.362	39.035	0.259	-0.231
-340.348	-200.000	0.017	0.192
-339.333	6.702	0.276	-0.206
-338.318	61.717	0.244	0.243
-337.304	241.278	0.240	0.400
-336.289	142.725	-0.183	0.243
-335.275	118.513	0.153	0.189
-334.260	800.000	-0.097	-0.349
-333.245	-26.045	-0.209	0.123
-332.231	69.267	0.176	-0.181
-331.216	-200.000	0.026	-0.183
-330.202	111.792	0.261	-0.315
-329.187	-200.000	-0.024	-0.242
-328.172	800.000	-0.044	0.184
-327.158	32.392	-0.018	-0.016
-326.143	493.848	-0.042	-0.097
-325.129	-176.434	0.164	-0.004
-324.114	-137.857	0.217	0.024
-323.099	625.523	0.046	0.115
-322.085	-134.970	0.150	0.018
-321.070	52.339	-0.087	0.083
-320.056	-200.000	0.040	0.434
-319.041	71.234	-0.117	-0.121
-318.026	-51.530	0.086	0.040
-317.012	123.551	-0.065	-0.081
-315.997	-25.148	-0.152	0.090
-314.983	-26.458	-0.110	0.065
-313.968	2.864	0.083	0.060
-312.953	-200.000	0.017	-0.155
-311.939	-200.000	-0.018	0.260
-310.924	-200.000	-0.001	0.107
-309.910	800.000	0.022	-0.071
-308.895	127.112	0.042	0.053
-307.880	-146.347	0.147	-0.013
-306.866	-79.781	0.035	-0.012
-305.851	89.074	0.115	-0.128
-304.837	33.278	-0.195	-0.169
-303.822	-68.029	-0.210	0.082
-302.807	800.000	0.067	0.238
-301.793	800.000	0.064	0.254
-300.778	-38.414	-0.295	-0.156
-299.764	-200.000	-0.037	0.205
-298.749	12.153	0.181	0.139
-297.735	-136.441	-0.124	0.014
-296.720	86.643	-0.150	0.165
-295.705	-200.000	0.016	0.129
-294.691	-53.203	-0.297	-0.136
-293.676	70.671	0.147	-0.152
-292.662	800.000	0.091	-0.364
-291.647	19.291	0.270	0.217
-290.632	45.953	-0.102	0.094
-289.618	169.387	-0.106	-0.151
-288.603	800.000	0.074	-0.208
-287.589	-21.970	-0.085	0.052
-286.574	800.000	-0.045	0.141
-285.559	800.000	-0.030	0.085
-284.545	566.544	-0.092	0.222
-283.530	94.733	-0.095	-0.108
-282.516	800.000	0.107	-0.303
-281.501	268.743	0.156	-0.274
-280.486	695.809	-0.005	0.013
-279.472	-200.000	-0.043	0.208
-278.457	-119.269	0.247	0.043
-277.443	175.327	-0.292	-0.422
-276.428	800.000	0.036	0.135
-275.413	-2.020	-0.335	0.235
-274.399	-200.000	0.004	0.041
-273.384	800.000	-0.072	0.299
-272.370	800.000	-0.094	-0.336
-271.355	15.140	-0.059	-0.046
-270.340	187.220	0.021	0.032
-269.326	-122.632	-0.133	-0.022
-268.311	262.251	-0.047	0.081
-267.297	10.839	-0.137	0.104
-266.282	-7.417	-0.341	-0.230
-265.267	216.762	0.108	-0.172
-264.253	115.825	0.075	0.091
-263.238	-49.641	0.223	0.106
-262.224	214.739	-0.189	-0.298
-261.209	34.727	-0.232	0.202
-260.195	800.000	0.028	-0.081
-259.180	183.875	-0.052	-0.076
-258.165	354.645	0.088	0.175
-257.151	669.434	-0.091	-0.235
-256.136	219.880	-0.164	-0.262
-255.122	215.949	0.030	0.048
-254.107	-200.000	0.042	0.212
-253.092	800.000	0.104	0.328
-252.078	-72.963	0.240	0.088
-251.063	278.427	0.121	-0.215
-250.049	-70.467	0.222	0.084
-249.034	800.000	-0.048	-0.161
-248.019	-200.000	0.137	0.604
-247.005	800.000	0.087	-0.241
-245.990	-200.000	-0.011	0.206
-244.976	-200.000	0.003	0.163
-243.961	-28.187	-0.304	0.175
-242.946	-200.000	-0.021	-0.179
-241.932	-200.000	-0.030	-0.367
-240.917	-200.000	0.011	0.090
-239.903	-200.000	0.115	-0.573
-238.888	33.643	-0.304	-0.263
-237.873	-112.220	0.191	0.038
-236.859	-22.650	-0.162	-0.098
-235.844	800.000	-0.145	-0.444
-234.830	-173.892	-0.172	0.005
-233.815	269.519	-0.057	0.099
-232.800	131.458	0.072	0.092
-231.786	800.000	-0.069	-0.295
-230.771	-14.230	0.208	0.134
-229.757	-200.000	0.065	0.344
-228.742	-200.000	0.016	0.105
-227.727	44.595	0.135	-0.124
-226.713	116.090	0.123	0.150
-225.698	-200.000	-0.001	0.016
-224.684	-4.961	-0.251	0.172
-223.669	59.625	0.177	0.174
-222.655	144.480	0.094	0.125
-221.640	-44.460	-0.155	0.077
-220.625	-12.310	-0.146	0.095
-219.611	-200.000	0.059	-0.307
-218.596	800.000	-0.058	0.194
-217.582	244.333	-0.123	-0.207
-216.567	51.535	-0.243	0.230
-215.552	425.906	-0.033	0.071
-214.538	-68.044	-0.314	-0.122
-213.523	35.861	0.196	-0.171
-212.509	234.897	-0.150	0.247
-211.494	-200.000	0.289	0.001
-210.479	23.994	-0.233	-0.191
-209.465	-117.403	0.211	-0.038
-208.450	800.000	-0.090	-0.295
-207.436	139.825	-0.144	0.189
-206.421	-200.000	0.003	0.135
-205.406	800.000	0.094	0.354
-204.392	-67.252	0.289	0.113
-203.377	-105.262	0.367	-0.083
-202.363	258.986	-0.097	-0.166
-201.348	-78.526	-0.376	0.128
-200.333	-52.017	0.180	0.083
-199.319	-200.000	-0.008	0.111
-198.304	-155.309	0.104	0.007
-197.290	39.431	-0.055	-0.049
-196.275	-189.061	0.222	-0.003
-195.260	71.691	0.119	0.123
-194.246	800.000	0.071	0.225
-193.231	309.187	-0.052	0.097
-192.217	-46.405	-0.058	0.028
-191.202	-34.632	0.164	0.089
-190.187	192.964	-0.141	0.213
-189.173	104.629	-0.030	0.035
-188.158	-91.506	0.306	0.087
-187.144	-200.000	0.003	-0.183
-186.129	-200.000	0.019	-0.162
-185.114	800.000	0.050	-0.203
-184.100	-200.000	0.018	0.449
-183.085	-2.503	0.144	-0.100
-182.071	43.770	-0.054	-0.049
-181.056	234.786	0.199	0.326
-180.042	400.252	0.130	-0.271
-179.027	467.319	-0.108	0.241
-178.012	-113.167	0.216	0.042
-176.998	-55.142	0.332	0.148
-175.983	-30.774	-0.147	0.083
-174.969	42.071	-0.184	0.166
-173.954	700.376	-0.018	0.047
-172.939	301.270	0.079	-0.145
-171.925	-56.906	-0.073	0.032
-170.910	-35.272	-0.159	-0.086
-169.896	-200.000	0.048	0.210
-168.881	36.421	-0.178	0.156
-167.866	-74.444	0.284	-0.102
-166.852	199.103	0.121	-0.184
-165.837	193.418	-0.136	0.204
-164.823	800.000	-0.037	-0.121
-163.808	87.059	-0.174	-0.191
-162.793	-86.559	0.221	-0.067
-161.779	45.376	0.110	-0.101
-160.764	274.347	0.115	-0.203
-159.750	335.377	0.213	0.410
-158.735	-175.981	0.211	0.006
-157.720	115.008	0.075	-0.091
-156.706	-10.242	0.182	-0.120
-155.691	-111.827	0.219	0.044
-154.677	800.000	0.024	-0.092
-153.662	-72.370	-0.165	-0.061
-152.647	-82.973	0.313	-0.100
-151.633	24.200	-0.269	-0.220
-150.618	-165.691	-0.098	0.004
-149.604	-200.000	-0.013	0.059
-148.589	-24.399	0.142	-0.084
-147.574	-140.353	0.105	0.011
-146.560	70.564	-0.115	0.118
-145.545	-200.000	-0.011	0.222
-144.531	-46.217	0.171	-0.083
-143.516	-200.000	-0.012	0.233
-142.502	124.808	0.221	-0.276
-141.487	-27.690	0.192	0.111
-140.472	-182.247	0.149	-0.003
-139.458	-200.000	0.017	0.107
-138.443	-200.000	-0.038	-0.190
-137.429	174.323	-0.081	0.117
-136.414	221.210	0.199	-0.317
-135.399	-100.754	0.196	0.048
-134.385	1.546	0.169	-0.121
-133.370	-105.687	-0.461	-0.103
-132.356	467.934	-0.024	-0.053
-131.341	331.339	-0.102	-0.196
-130.326	800.000	-0.042	0.151
-129.312	-20.636	0.271	0.165
-128.297	-0.385	0.112	0.079
-127.283	321.056	0.181	-0.341
-126.268	384.425	0.123	-0.252
-125.253	-19.394	-0.085	-0.053
-124.239	-5.605	0.169	0.115
-123.224	66.713	-0.199	-0.201
-122.210	800.000	-0.099	-0.286
-121.195	23.991	0.237	0.194
-120.180	-200.000	0.101	0.513
