DTS Sentinel unit serial number:	SN413079Multiplexer serial number:	ORYXHardware model number:	OX4-SRSoftware version number:	ORYX F/W v4.00 Oryx Data Collector v3.7.2.0data status	okinstallation	princeton_trtdifferential loss correction	single-endedforward channel	channel 1reverse channel	N/Adate	2019/09/13time	06:46:35forward acquisition time	60.00reverse acquisition time	0.00gamma	496.2192k internal	0.2336k external	0.2336temperature offset calibration	1.0157default loss term (dB/km)	0.3790temperature slope calibration	1.0000multiplexer offset coefficient	1.0000multiplexer slope coefficient	1.0000fibre end	0.00T internal ref (°C)	26.00T ext. ref 1 (°C)	4.10T ext. ref 2 (°C)	20.65length (m)	temperature (°C)	Stokes	anti-Stokes-747.200	440.327	-0.075	-0.164
-746.185	-181.194	-0.274	0.005
-745.171	9.379	-0.124	0.094
-744.156	165.680	-0.110	0.156
-743.142	294.736	0.099	0.181
-742.127	-107.585	-0.447	-0.098
-741.112	-79.875	0.275	0.093
-740.098	-154.751	-0.395	-0.026
-739.083	-16.330	-0.285	0.181
-738.069	29.223	0.098	-0.084
-737.054	-69.514	0.338	0.130
-736.039	-114.720	-0.416	0.080
-735.025	59.367	0.195	0.193
-734.010	-200.000	-0.033	0.187
-732.996	800.000	-0.086	-0.307
-731.981	549.111	-0.065	0.157
-730.966	-200.000	0.034	-0.428
-729.952	-126.212	0.158	0.024
-728.937	577.318	-0.058	-0.142
-727.923	800.000	0.141	-0.404
-726.908	153.199	-0.039	-0.054
-725.894	140.725	0.056	0.075
-724.879	31.219	0.216	-0.186
-723.864	-200.000	0.011	-0.234
-722.850	-188.608	-0.097	0.001
-721.835	-200.000	0.009	0.154
-720.821	19.088	0.192	0.154
-719.806	800.000	0.121	-0.347
-718.791	800.000	0.135	-0.486
-717.777	-200.000	0.024	-0.290
-716.762	-40.525	-0.332	-0.173
-715.748	42.401	-0.016	0.015
-714.733	610.848	0.033	-0.082
-713.718	-104.430	-0.127	-0.029
-712.704	-200.000	-0.063	-0.324
-711.689	-200.000	-0.033	0.179
-710.675	14.319	-0.102	-0.080
-709.660	225.857	-0.077	-0.124
-708.645	-200.000	0.048	-0.224
-707.631	-70.968	0.146	-0.055
-706.616	123.854	0.061	0.076
-705.602	-52.406	0.212	-0.098
-704.587	-200.000	-0.047	-0.360
-703.572	-63.927	0.129	-0.053
-702.558	-36.732	-0.087	0.047
-701.543	387.744	0.028	-0.059
-700.529	57.318	-0.201	-0.197
-699.514	93.782	0.145	-0.164
-698.499	-35.771	-0.135	0.073
-697.485	-200.000	0.015	0.260
-696.470	-51.480	-0.070	-0.033
-695.456	-200.000	0.050	-0.244
-694.441	800.000	0.071	-0.199
-693.426	-133.838	-0.246	0.031
-692.412	-115.820	0.075	-0.014
-691.397	-114.120	0.093	0.018
-690.383	-200.000	0.041	-0.383
-689.368	-88.660	-0.186	0.055
-688.354	-200.000	-0.049	-0.301
-687.339	800.000	-0.021	-0.085
-686.324	12.860	-0.099	0.076
-685.310	64.437	0.102	-0.103
-684.295	-69.763	0.295	-0.113
-683.281	427.256	0.068	0.147
-682.266	-200.000	0.043	-0.246
-681.251	800.000	0.027	-0.095
-680.237	-200.000	-0.035	-0.404
-679.222	-200.000	-0.021	0.253
-678.208	-7.493	0.043	0.029
-677.193	416.392	-0.024	0.051
-676.178	235.412	-0.102	0.168
-675.164	-200.000	-0.057	-0.366
-674.149	178.509	0.096	-0.141
-673.135	-80.326	0.171	-0.057
-672.120	-200.000	0.003	-0.037
-671.105	-200.000	0.023	0.317
-670.091	346.824	-0.054	-0.106
-669.076	800.000	0.080	-0.240
-668.062	-62.052	0.109	-0.046
-667.047	-49.766	0.399	0.190
-666.032	-16.146	-0.326	0.208
-665.018	582.902	-0.142	0.349
-664.003	-176.210	-0.125	0.003
-662.989	-200.000	0.042	-0.483
-661.974	-200.000	-0.005	-0.082
-660.959	-200.000	-0.067	-0.379
-659.945	-82.752	-0.181	-0.059
-658.930	-171.642	-0.050	-0.002
-657.916	-141.002	-0.194	-0.020
-656.901	20.120	-0.044	0.036
-655.886	150.961	-0.100	0.137
-654.872	5.533	-0.447	0.331
-653.857	800.000	-0.017	0.074
-652.843	-13.052	-0.241	0.157
-651.828	800.000	0.048	0.167
-650.814	-53.643	-0.342	0.156
-649.799	800.000	-0.150	-0.540
-648.784	-138.723	-0.266	0.029
-647.770	-36.313	-0.201	-0.109
-646.755	349.770	-0.077	0.152
-645.741	30.423	-0.105	0.090
-644.726	-60.358	0.224	0.095
-643.711	75.617	-0.132	0.140
-642.697	-29.006	0.337	0.194
-641.682	589.336	0.091	0.225
-640.668	11.767	0.251	-0.192
-639.653	132.617	0.136	-0.175
-638.638	-200.000	0.006	-0.051
-637.624	82.083	-0.161	0.175
-636.609	159.822	-0.133	0.185
-635.595	-67.984	0.282	-0.110
-634.580	756.263	-0.180	-0.488
-633.565	315.952	0.032	0.061
-632.551	-27.593	0.263	0.153
-631.536	800.000	-0.055	0.171
-630.522	25.809	0.165	-0.138
-629.507	800.000	0.058	-0.196
-628.492	130.985	0.181	-0.232
-627.478	-93.189	0.182	-0.051
-626.463	-180.521	-0.238	-0.005
-625.449	-69.837	-0.182	-0.069
-624.434	800.000	-0.075	-0.252
-623.419	68.187	0.244	0.250
-622.405	310.322	-0.109	-0.205
-621.390	200.064	0.129	0.198
-620.376	238.990	-0.019	0.032
-619.361	51.327	0.141	-0.134
-618.346	282.655	-0.085	0.152
-617.332	-200.000	0.014	-0.139
-616.317	-140.569	-0.162	-0.017
-615.303	-200.000	0.004	-0.229
-614.288	434.477	-0.017	-0.036
-613.273	397.106	0.055	0.114
-612.259	-200.000	-0.027	0.134
-611.244	139.499	-0.081	0.107
-610.230	83.298	0.161	0.175
-609.215	581.312	-0.077	0.188
-608.201	76.741	0.125	-0.133
-607.186	-122.207	-0.095	0.015
-606.171	719.051	0.055	0.146
-605.157	800.000	-0.074	-0.249
-604.142	61.015	0.059	-0.058
-603.128	-75.936	-0.161	0.057
-602.113	44.012	-0.124	-0.113
-601.098	368.748	0.085	0.172
-600.084	-17.467	-0.364	-0.229
-599.069	-167.102	0.171	-0.007
-598.055	-84.124	0.359	0.114
-597.040	-68.466	0.253	0.098
-596.025	696.576	-0.101	0.265
-595.011	-200.000	-0.006	0.129
-593.996	-200.000	-0.021	-0.194
-592.982	-200.000	0.009	-0.079
-591.967	43.624	0.034	0.031
-590.952	70.461	0.137	-0.141
-589.938	565.123	-0.069	-0.167
-588.923	246.461	0.131	0.220
-587.909	70.073	-0.149	0.153
-586.894	43.842	-0.093	-0.085
-585.879	-59.277	-0.150	-0.065
-584.865	-151.106	-0.275	0.021
-583.850	-200.000	-0.007	0.159
-582.836	152.139	-0.052	-0.071
-581.821	193.160	-0.074	-0.112
-580.806	800.000	-0.033	-0.104
-579.792	-57.822	0.282	0.123
-578.777	502.474	-0.058	0.133
-577.763	800.000	-0.088	0.380
-576.748	-67.765	0.252	0.098
-575.733	101.676	-0.134	-0.156
-574.719	147.979	-0.024	-0.032
-573.704	-9.592	-0.216	0.144
-572.690	59.558	0.241	-0.237
-571.675	-22.946	-0.301	0.181
-570.661	-113.054	0.296	0.058
-569.646	-121.097	-0.355	0.059
-568.631	-188.797	0.145	-0.002
-567.617	555.561	-0.052	-0.125
-566.602	-200.000	-0.011	0.210
-565.588	-200.000	-0.009	0.043
-564.573	-124.058	0.260	0.041
-563.558	-99.015	0.207	-0.052
-562.544	-84.181	0.275	0.087
-561.529	172.914	-0.207	0.297
-560.515	-200.000	-0.056	-0.251
-559.500	13.736	0.272	-0.211
-558.485	113.132	-0.144	-0.174
-557.471	-200.000	-0.034	-0.213
-556.456	-200.000	-0.003	0.114
-555.442	18.269	0.226	0.180
-554.427	-153.417	-0.195	-0.013
-553.412	627.841	0.112	-0.283
-552.398	-22.842	0.435	-0.262
-551.383	800.000	-0.050	-0.175
-550.369	-8.931	0.052	-0.035
-549.354	506.508	0.072	-0.166
-548.339	-21.978	0.177	0.107
-547.325	800.000	-0.033	0.126
-546.310	-0.156	0.278	0.197
-545.296	275.076	0.242	0.427
-544.281	-32.792	0.137	0.076
-543.266	-138.747	-0.320	0.035
-542.252	-200.000	0.075	0.355
-541.237	-200.000	0.015	-0.230
-540.223	-153.451	0.189	0.013
-539.208	-71.276	-0.092	0.034
-538.193	109.331	0.105	-0.125
-537.179	317.194	-0.182	0.344
-536.164	139.475	0.357	-0.468
-535.150	126.961	-0.049	-0.062
-534.135	-25.744	-0.206	0.121
-533.121	118.317	0.113	-0.139
-532.106	174.459	-0.211	-0.304
-531.091	-11.145	0.311	0.204
-530.077	160.885	0.113	0.157
-529.062	54.555	-0.195	0.187
-528.048	-91.674	0.029	-0.008
-527.033	257.634	0.092	-0.158
-526.018	-14.238	-0.170	0.109
-525.004	-200.000	-0.033	0.178
-523.989	-6.203	0.116	-0.079
-522.975	179.938	0.188	-0.275
-521.960	588.034	0.063	-0.154
-520.945	-122.153	0.127	0.021
-519.931	212.318	-0.213	-0.334
-518.916	-200.000	-0.005	0.142
-517.902	-0.659	0.066	0.047
-516.887	152.596	-0.072	-0.097
-515.872	38.280	-0.120	-0.106
-514.858	-15.233	-0.417	-0.266
-513.843	72.009	0.119	-0.123
-512.829	800.000	0.032	-0.134
-511.814	-200.000	-0.000	-0.418
-510.799	-119.085	-0.171	-0.030
-509.785	800.000	-0.088	-0.249
-508.770	-70.066	0.293	0.111
-507.756	16.311	-0.128	0.100
-506.741	265.751	0.270	-0.468
-505.726	9.959	0.351	-0.265
-504.712	106.552	0.156	-0.184
-503.697	-27.027	0.247	-0.143
-502.683	100.422	0.114	0.132
-501.668	-52.891	-0.081	0.037
-500.653	-200.000	0.004	0.195
-499.639	-96.001	-0.137	0.036
-498.624	-55.644	0.303	-0.135
-497.610	-27.282	0.075	0.043
-496.595	110.886	0.250	-0.299
-495.581	-60.258	-0.311	-0.132
-494.566	8.299	-0.117	0.087
-493.551	188.156	-0.087	0.129
-492.537	-200.000	0.001	-0.014
-491.522	-30.687	0.210	0.118
-490.508	-146.066	0.133	0.012
-489.493	-200.000	0.023	0.314
-488.478	-200.000	-0.033	0.153
-487.464	27.505	-0.082	0.069
-486.449	-200.000	-0.044	0.355
-485.435	-94.667	-0.414	0.112
-484.420	94.101	0.101	0.114
-483.405	43.395	0.145	0.131
-482.391	800.000	0.005	-0.014
-481.376	-200.000	0.035	0.335
-480.362	-200.000	-0.019	-0.491
-479.347	-200.000	0.004	-0.037
-478.332	-73.275	0.244	-0.089
-477.318	328.009	0.131	-0.251
-476.303	279.079	-0.021	0.037
-475.289	125.372	-0.279	-0.350
-474.274	-93.075	-0.184	-0.051
-473.259	560.422	0.029	-0.070
-472.245	75.345	-0.241	-0.253
-471.230	-48.335	-0.219	-0.105
-470.216	-200.000	-0.011	0.179
-469.201	-200.000	-0.002	-0.197
-468.186	-75.457	-0.319	-0.113
-467.172	122.347	-0.214	0.265
-466.157	7.082	-0.131	0.097
-465.143	-143.564	-0.248	-0.023
-464.128	-161.147	-0.052	-0.003
-463.113	-173.505	-0.188	-0.006
-462.099	-200.000	0.013	0.441
-461.084	-44.114	0.337	0.168
-460.070	-165.416	-0.157	-0.007
-459.055	396.591	0.089	0.184
-458.040	-14.223	-0.214	0.137
-457.026	268.093	-0.122	0.212
-456.011	-67.953	-0.035	-0.013
-454.997	-81.074	0.162	-0.053
-453.982	-200.000	0.049	-0.289
-452.968	-40.514	0.156	-0.080
-451.953	-200.000	0.004	-0.065
-450.938	216.637	-0.069	-0.109
-449.924	-131.507	-0.298	-0.039
-448.909	38.461	0.216	-0.191
-447.895	318.441	0.089	-0.168
-446.880	0.237	0.317	0.225
-445.865	106.253	-0.305	0.359
-444.851	56.500	0.070	0.067
-443.836	-102.193	0.279	-0.067
-442.822	-70.504	-0.328	-0.123
-441.807	-86.147	0.080	0.024
-440.792	-200.000	-0.025	-0.460
-439.778	-135.775	0.272	-0.032
-438.763	-125.593	0.146	0.022
-437.749	800.000	-0.032	0.099
-436.734	800.000	-0.020	0.087
-435.719	234.322	-0.022	-0.037
-434.705	253.569	0.138	0.235
-433.690	800.000	-0.085	-0.235
-432.676	125.966	0.030	-0.037
-431.661	274.249	-0.252	-0.442
-430.646	6.975	0.230	0.170
-429.632	3.436	0.160	-0.116
-428.617	-200.000	0.010	0.116
-427.603	371.575	0.180	-0.363
-426.588	-200.000	0.025	0.139
-425.573	800.000	-0.036	0.120
-424.559	-21.340	0.298	0.181
-423.544	-17.518	-0.243	-0.152
-422.530	522.896	0.078	-0.183
-421.515	504.842	-0.014	0.033
-420.500	800.000	0.085	0.243
-419.486	222.013	-0.069	-0.110
-418.471	202.788	0.194	-0.297
-417.457	17.500	-0.271	-0.213
-416.442	54.580	0.193	-0.185
-415.428	-200.000	0.010	-0.294
-414.413	9.639	-0.202	-0.152
-413.398	-98.190	0.016	0.004
-412.384	-67.510	0.208	-0.081
-411.369	-200.000	-0.003	-0.152
-410.355	-200.000	0.028	-0.177
-409.340	-165.330	-0.096	-0.004
-408.325	-200.000	0.055	0.341
-407.311	698.477	0.090	0.234
-406.296	-23.270	-0.260	-0.155
-405.282	-88.080	-0.356	0.106
-404.267	-200.000	0.028	0.240
-403.252	308.428	0.082	0.152
-402.238	126.915	0.156	0.196
-401.223	-176.774	-0.283	-0.007
-400.209	-49.399	-0.080	0.038
-399.194	-136.836	-0.142	0.016
-398.179	123.195	-0.109	0.135
-397.165	-50.477	-0.333	0.156
-396.150	-200.000	0.015	-0.246
-395.136	78.552	0.100	-0.106
-394.121	361.257	-0.108	-0.215
-393.106	-200.000	0.020	0.148
-392.092	180.988	-0.121	-0.176
-391.077	-200.000	0.030	0.144
-390.063	-40.550	-0.434	-0.223
-389.048	-88.514	-0.399	-0.118
-388.033	353.633	0.051	0.100
-387.019	-64.326	-0.089	0.036
-386.004	225.525	0.152	0.244
-384.990	266.490	-0.028	-0.048
-383.975	163.060	-0.314	0.436
-382.960	-72.861	0.176	-0.064
-381.946	800.000	0.048	-0.155
-380.931	75.988	-0.011	-0.012
-379.917	800.000	0.022	0.062
-378.902	-185.071	0.344	0.005
-377.888	-160.604	-0.211	0.011
-376.873	77.193	0.191	0.201
-375.858	-200.000	0.002	-0.217
-374.844	236.698	-0.077	0.125
-373.829	-127.223	-0.150	0.022
-372.815	136.778	0.147	0.190
-371.800	526.637	-0.111	0.258
-370.785	165.219	0.084	-0.118
-369.771	-6.113	-0.068	-0.046
-368.756	573.369	-0.044	0.107
-367.742	-123.545	-0.029	0.005
-366.727	-59.206	-0.114	-0.049
-365.712	9.254	-0.015	0.011
-364.698	-125.557	0.320	-0.048
-363.683	-62.349	-0.321	0.132
-362.669	800.000	-0.007	0.027
-361.654	-85.264	-0.226	-0.070
-360.639	181.325	-0.184	0.268
-359.625	386.253	0.173	0.353
-358.610	-200.000	-0.005	-0.041
-357.596	9.309	-0.239	0.179
-356.581	-73.443	-0.259	0.094
-355.566	-134.143	-0.409	-0.050
-354.552	-119.267	0.265	-0.046
-353.537	24.179	-0.127	-0.104
-352.523	95.861	-0.027	-0.031
-351.508	-200.000	0.050	-0.286
-350.493	171.252	-0.147	-0.209
-349.479	-84.606	0.114	-0.035
-348.464	-161.105	-0.135	-0.007
-347.450	800.000	-0.115	-0.448
-346.435	800.000	-0.034	-0.108
-345.420	426.907	0.156	-0.333
-344.406	-200.000	-0.039	-0.241
-343.391	-55.633	0.307	-0.136
-342.377	83.566	0.053	-0.057
-341.362	800.000	-0.013	0.047
-340.348	-200.000	-0.013	0.105
-339.333	-151.981	-0.206	0.015
-338.318	-200.000	-0.063	0.278
-337.304	159.865	-0.157	0.216
-336.289	-200.000	0.033	0.202
-335.275	800.000	0.011	0.048
-334.260	-200.000	0.001	-0.047
-333.245	800.000	-0.043	-0.181
-332.231	-200.000	0.093	-0.431
-331.216	800.000	0.075	0.224
-330.202	87.377	0.137	0.150
-329.187	-21.293	-0.092	-0.055
-328.172	-17.285	0.173	0.108
-327.158	-113.128	0.322	-0.063
-326.143	-123.203	-0.235	0.037
-325.129	-51.357	0.279	0.129
-324.114	139.169	-0.130	0.169
-323.099	-93.173	0.107	0.029
-322.085	800.000	-0.095	0.322
-321.070	-28.766	0.151	-0.086
-320.056	55.369	0.340	-0.325
-319.041	-123.695	-0.577	-0.090
-318.026	-112.324	0.177	-0.035
-317.012	145.488	0.124	-0.165
-315.997	-97.206	0.094	0.024
-314.983	-24.237	-0.066	-0.039
-313.968	-28.726	-0.232	0.132
-312.953	-52.341	-0.172	-0.079
-311.939	-152.449	-0.266	-0.019
-310.924	800.000	0.088	0.354
-309.910	-88.540	-0.163	0.048
-308.895	800.000	-0.079	-0.238
-307.880	-39.275	0.140	-0.073
-306.866	-200.000	-0.031	0.193
-305.851	-110.867	0.298	-0.061
-304.837	-19.947	0.015	-0.009
-303.822	-87.491	-0.192	-0.057
-302.807	48.360	0.077	-0.071
-301.793	800.000	-0.044	-0.187
-300.778	0.900	-0.210	0.149
-299.764	-88.356	-0.178	-0.053
-298.749	-200.000	-0.018	-0.419
-297.735	-200.000	-0.009	0.187
-296.720	-64.676	-0.249	-0.100
-295.705	-200.000	-0.040	0.312
-294.691	83.913	-0.223	-0.240
-293.676	452.643	-0.127	-0.277
-292.662	156.098	0.157	0.213
-291.647	176.524	0.166	-0.238
-290.632	800.000	-0.056	0.219
-289.618	-179.517	0.173	-0.004
-288.603	-90.148	-0.171	-0.049
-287.589	127.748	0.167	0.209
-286.574	210.701	0.203	-0.314
-285.559	10.299	0.112	0.084
-284.545	-98.414	0.202	0.051
-283.530	321.568	0.118	-0.221
-282.516	-37.871	0.165	-0.087
-281.501	6.994	0.271	-0.199
-280.486	-82.397	0.054	0.017
-279.472	800.000	0.053	-0.217
-278.457	84.676	0.279	0.301
-277.443	227.351	0.048	0.076
-276.428	-117.666	-0.225	-0.040
-275.413	-105.433	0.050	-0.011
-274.399	800.000	0.068	-0.277
-273.384	-90.207	-0.143	0.041
-272.370	800.000	-0.049	-0.178
-271.355	-32.463	0.171	0.094
-270.340	-53.589	-0.063	0.028
-269.326	244.362	0.130	-0.215
-268.311	140.903	-0.061	0.080
-267.297	800.000	0.053	0.223
-266.282	44.685	0.063	-0.057
-265.267	-125.231	0.153	0.023
-264.253	128.407	0.265	0.332
-263.238	185.100	0.172	0.251
-262.224	358.074	-0.075	0.147
-261.209	800.000	-0.065	0.209
-260.195	800.000	0.057	0.206
-259.180	800.000	0.112	0.394
-258.165	10.514	-0.142	0.106
-257.151	-200.000	0.008	0.099
-256.136	-122.175	-0.221	-0.036
-255.122	243.630	-0.305	0.505
-254.107	-200.000	-0.063	-0.274
-253.092	-200.000	-0.027	-0.332
-252.078	447.911	-0.052	0.114
-251.063	-21.255	0.089	-0.053
-250.049	297.289	-0.141	0.256
-249.034	-120.812	-0.131	-0.022
-248.019	-200.000	0.013	0.083
-247.005	-200.000	0.011	-0.059
-245.990	-3.443	-0.229	-0.157
-244.976	-48.202	0.152	-0.072
-243.961	-44.724	0.045	0.022
-242.946	-200.000	0.000	0.016
-241.932	-99.707	0.297	0.073
-240.917	207.391	0.032	-0.049
-239.903	-101.958	-0.277	0.066
-238.888	361.715	0.052	-0.103
-237.873	111.698	0.052	0.062
-236.859	-79.869	0.266	-0.088
-235.844	234.613	0.079	0.129
-234.830	366.387	-0.227	-0.450
-233.815	-7.820	-0.157	0.104
-232.800	800.000	-0.051	0.152
-231.786	-24.492	0.136	0.080
-230.771	55.845	-0.100	0.095
-229.757	-51.045	0.073	-0.034
-228.742	800.000	0.093	0.339
-227.727	182.824	-0.097	0.141
-226.713	-171.113	0.361	-0.012
-225.698	-44.208	-0.216	0.107
-224.684	800.000	0.043	-0.127
-223.669	-200.000	0.015	-0.141
-222.655	800.000	0.040	-0.157
-221.640	26.684	-0.216	0.178
-220.625	180.862	-0.105	-0.152
-219.611	800.000	-0.033	-0.112
-218.596	-53.978	-0.297	0.133
-217.582	-136.893	-0.231	0.026
-216.567	-116.291	0.346	-0.063
-215.552	-43.532	-0.238	-0.118
-214.538	800.000	-0.038	0.124
-213.523	549.371	0.032	-0.075
-212.509	-121.300	-0.409	0.067
-211.494	-99.493	-0.238	0.059
-210.479	-61.930	0.069	0.028
-209.465	-37.635	0.289	0.152
-208.450	-200.000	-0.056	0.456
-207.436	-77.144	0.153	0.052
-206.421	-133.354	-0.150	0.019
-205.406	12.342	-0.347	-0.263
-204.392	337.642	-0.010	0.020
-203.377	-200.000	-0.011	-0.061
-202.363	91.750	0.308	-0.340
-201.348	-200.000	-0.019	-0.146
-200.333	-200.000	-0.038	0.230
-199.319	112.401	0.177	0.211
-198.304	512.791	0.148	0.339
-197.290	259.966	0.110	-0.187
-196.275	233.529	-0.100	0.162
-195.260	-68.458	0.232	0.088
-194.246	800.000	0.075	-0.219
-193.231	-98.119	-0.217	-0.055
-192.217	40.527	0.123	0.109
-191.202	-200.000	-0.006	0.251
-190.187	1.215	-0.193	-0.136
-189.173	-200.000	0.050	-0.349
-188.158	-8.565	0.310	0.205
-187.144	-86.120	0.019	-0.006
-186.129	-200.000	0.017	0.262
-185.114	-96.013	-0.403	0.105
-184.100	-200.000	-0.002	-0.015
-183.085	50.456	-0.328	-0.305
-182.071	-145.886	0.140	-0.012
-181.056	-200.000	-0.068	0.324
-180.042	52.608	-0.307	-0.288
-179.027	-94.584	-0.258	0.069
-178.012	-138.761	0.130	0.014
-176.998	-128.763	0.222	-0.031
-175.983	-42.006	-0.032	0.016
-174.969	-80.051	-0.262	0.086
-173.954	124.315	0.138	-0.171
-172.939	-200.000	0.000	0.360
-171.925	-11.917	-0.176	-0.113
-170.910	260.551	-0.051	0.087
-169.896	-6.644	-0.017	0.012
-168.881	-200.000	0.082	0.503
-167.866	145.069	-0.051	0.067
-166.852	-96.491	0.423	0.110
-165.837	24.154	-0.174	-0.141
-164.823	-38.383	0.064	0.033
-163.808	-22.842	0.394	0.234
-162.793	-135.974	0.374	-0.043
-161.779	-132.606	0.201	0.025
-160.764	117.920	0.110	-0.133
-159.750	7.811	0.350	-0.258
-158.735	627.476	-0.092	-0.227
-157.720	55.599	-0.198	0.188
-156.706	-46.694	0.106	-0.051
-155.691	542.638	0.038	-0.090
-154.677	10.933	-0.073	-0.055
-153.662	182.426	0.133	0.192
-152.647	485.787	0.120	0.268
-151.633	-64.004	-0.272	0.109
-150.618	55.027	0.063	0.060
-149.604	800.000	-0.021	0.058
-148.589	-200.000	0.012	0.118
-147.574	4.129	0.063	-0.045
-146.560	457.660	0.232	-0.505
-145.545	151.260	0.115	0.153
-144.531	55.576	0.262	0.249
-143.516	-200.000	0.032	-0.156
-142.502	-43.152	-0.388	-0.193
-141.487	800.000	0.113	-0.313
-140.472	-200.000	0.075	-0.000
-139.458	-23.493	0.231	0.136
-138.443	-200.000	-0.002	0.147
-137.429	-200.000	0.016	0.105
-136.414	800.000	-0.063	-0.213
-135.399	87.828	0.187	-0.204
-134.385	-200.000	-0.037	0.430
-133.370	450.117	0.115	-0.249
-132.356	102.138	-0.237	-0.272
-131.341	104.730	0.172	-0.199
-130.326	31.500	-0.125	-0.106
-129.312	328.698	0.231	-0.435
-128.297	800.000	-0.027	-0.096
-127.283	61.652	0.162	-0.158
-126.268	-111.066	0.247	-0.050
-125.253	-152.015	0.104	-0.007
-124.239	311.294	0.030	-0.055
-123.224	-200.000	0.024	-0.309
-122.210	-78.869	0.305	0.102
-121.195	482.482	0.016	-0.037
