DTS Sentinel unit serial number:	SN413079Multiplexer serial number:	ORYXHardware model number:	OX4-SRSoftware version number:	ORYX F/W v4.00 Oryx Data Collector v3.7.2.0data status	okinstallation	princeton_trtdifferential loss correction	single-endedforward channel	channel 1reverse channel	N/Adate	2019/09/15time	08:54:35forward acquisition time	60.00reverse acquisition time	0.00gamma	496.2192k internal	0.2316k external	0.2316temperature offset calibration	0.9985default loss term (dB/km)	0.3790temperature slope calibration	1.0000multiplexer offset coefficient	1.0000multiplexer slope coefficient	1.0000fibre end	0.00T internal ref (°C)	32.55T ext. ref 1 (°C)	4.97T ext. ref 2 (°C)	29.67length (m)	temperature (°C)	Stokes	anti-Stokes-747.200	-200.000	0.056	-0.346
-746.185	-11.445	-0.080	-0.053
-745.171	-95.340	-0.234	-0.064
-744.156	-200.000	-0.041	-0.284
-743.142	800.000	0.052	0.224
-742.127	-191.922	-0.192	-0.002
-741.112	-200.000	0.002	-0.047
-740.098	-110.454	-0.214	0.045
-739.083	-74.775	0.150	0.055
-738.069	100.734	0.099	0.116
-737.054	111.911	0.113	0.139
-736.039	-200.000	-0.012	-0.075
-735.025	58.299	0.116	0.115
-734.010	-122.277	-0.341	0.056
-732.996	-112.307	-0.164	-0.033
-731.981	-128.749	0.223	-0.032
-730.966	-15.886	0.264	-0.170
-729.952	721.020	0.079	0.213
-728.937	-72.361	-0.179	-0.067
-727.923	-200.000	0.003	-0.160
-726.908	368.403	-0.071	-0.145
-725.894	-105.181	-0.189	-0.044
-724.879	-108.769	0.160	-0.035
-723.864	-170.816	-0.009	0.000
-722.850	-148.320	-0.153	-0.013
-721.835	-81.299	-0.054	-0.018
-720.821	-200.000	-0.055	-0.509
-719.806	-200.000	-0.038	-0.255
-718.791	333.519	0.091	-0.177
-717.777	16.160	0.198	0.158
-716.762	-127.936	-0.026	-0.004
-715.748	-200.000	0.039	0.242
-714.733	-72.299	-0.154	-0.058
-713.718	129.750	-0.158	0.205
-712.704	74.160	-0.282	0.299
-711.689	-163.144	-0.262	-0.013
-710.675	-200.000	0.012	0.184
-709.660	-46.061	0.344	-0.172
-708.645	-165.475	-0.216	0.010
-707.631	-190.656	0.250	0.003
-706.616	4.966	-0.170	0.127
-705.602	-134.786	-0.380	-0.047
-704.587	-55.858	0.223	0.101
-703.572	10.083	0.047	-0.036
-702.558	7.858	0.309	-0.235
-701.543	-7.851	-0.126	-0.086
-700.529	-36.074	-0.083	-0.046
-699.514	-124.785	0.552	0.086
-698.499	12.706	0.149	-0.116
-697.485	-200.000	0.002	-0.158
-696.470	-200.000	-0.013	0.215
-695.456	24.399	-0.240	0.200
-694.441	105.245	0.134	-0.160
-693.426	-133.905	0.175	-0.022
-692.412	145.824	0.134	-0.181
-691.397	284.465	0.152	0.276
-690.383	139.414	0.186	-0.248
-689.368	-78.483	-0.300	0.104
-688.354	-145.581	-0.296	-0.027
-687.339	-200.000	0.015	-0.158
-686.324	-90.028	-0.406	-0.120
-685.310	49.630	-0.060	0.058
-684.295	58.897	-0.153	-0.152
-683.281	-62.003	0.258	0.109
-682.266	-200.000	0.000	-0.090
-681.251	-27.296	0.235	0.138
-680.237	-59.156	-0.362	-0.158
-679.222	18.630	-0.096	0.078
-678.208	-107.137	-0.080	0.018
-677.193	324.203	-0.080	0.155
-676.178	208.744	0.127	0.200
-675.164	356.482	-0.061	-0.122
-674.149	-200.000	0.018	-0.205
-673.135	-200.000	-0.038	-0.272
-672.120	-80.190	0.275	0.093
-671.105	-114.369	-0.240	-0.047
-670.091	-35.643	-0.090	-0.049
-669.076	-75.249	-0.393	0.142
-668.062	26.455	-0.144	-0.122
-667.047	98.538	0.157	-0.183
-666.032	-45.968	0.266	-0.133
-665.018	44.458	0.143	-0.132
-664.003	-113.314	0.076	0.015
-662.989	-200.000	0.001	-0.264
-661.974	-101.245	-0.339	-0.084
-660.959	62.493	0.286	0.288
-659.945	-119.067	-0.589	-0.104
-658.930	582.580	0.062	-0.153
-657.916	-101.755	0.092	0.022
-656.901	-135.448	0.288	0.035
-655.886	-69.033	-0.174	-0.068
-654.872	103.183	-0.153	0.181
-653.857	-15.317	0.126	-0.081
-652.843	-200.000	0.008	-0.121
-651.828	800.000	-0.024	0.101
-650.814	-200.000	0.057	-0.267
-649.799	587.459	0.117	-0.291
-648.784	-118.163	-0.218	-0.039
-647.770	-200.000	-0.002	-0.309
-646.755	-150.345	-0.218	0.017
-645.741	-151.562	0.086	0.006
-644.726	-110.368	0.194	-0.041
-643.711	-103.640	0.239	-0.057
-642.697	800.000	-0.075	-0.220
-641.682	-0.195	0.080	0.057
-640.668	-69.797	0.102	-0.039
-639.653	800.000	-0.145	0.404
-638.638	-55.525	-0.166	-0.075
-637.624	32.946	0.195	-0.170
-636.609	134.279	0.162	-0.212
-635.595	-90.287	0.439	-0.129
-634.580	128.274	0.099	0.127
-633.565	-167.436	-0.234	-0.009
-632.551	-80.080	-0.131	0.044
-631.536	310.038	0.128	-0.242
-630.522	77.417	0.124	0.133
-629.507	-200.000	-0.023	0.124
-628.492	-45.769	-0.282	-0.140
-627.478	-95.771	0.427	-0.115
-626.463	-200.000	0.020	0.204
-625.449	196.811	0.019	-0.030
-624.434	-102.693	-0.340	-0.082
-623.419	45.647	0.316	0.294
-622.405	-200.000	0.003	0.134
-621.390	130.851	0.200	-0.258
-620.376	-76.323	-0.282	0.100
-619.361	-72.443	-0.345	-0.129
-618.346	29.041	0.073	0.062
-617.332	800.000	-0.092	0.303
-616.317	357.117	-0.071	0.142
-615.303	800.000	-0.050	-0.175
-614.288	530.012	0.058	0.138
-613.273	-200.000	-0.007	-0.180
-612.259	-200.000	-0.025	-0.161
-611.244	-134.833	-0.290	-0.035
-610.230	6.440	0.094	-0.070
-609.215	-84.396	-0.377	0.120
-608.201	-107.706	-0.195	-0.043
-607.186	-200.000	-0.029	-0.550
-606.171	326.224	-0.151	-0.290
-605.157	800.000	-0.109	0.317
-604.142	-66.586	0.181	0.072
-603.128	-200.000	0.027	0.272
-602.113	634.326	-0.067	0.171
-601.098	-135.195	0.290	-0.035
-600.084	-100.262	-0.064	-0.016
-599.069	-80.693	0.126	0.042
-598.055	76.138	-0.149	0.159
-597.040	-1.218	-0.191	-0.136
-596.025	-111.397	0.211	0.043
-595.011	400.605	0.105	0.221
-593.996	-200.000	-0.000	0.141
-592.982	-200.000	-0.018	-0.140
-591.967	-56.305	0.083	0.037
-590.952	-200.000	0.065	-0.361
-589.938	-200.000	0.016	0.105
-588.923	149.284	-0.177	-0.242
-587.909	-200.000	-0.034	-0.210
-586.894	-177.874	-0.182	-0.004
-585.879	-200.000	0.021	-0.258
-584.865	112.501	0.175	-0.213
-583.850	132.809	0.197	0.256
-582.836	9.662	-0.074	0.057
-581.821	-125.368	0.147	0.023
-580.806	-63.137	0.488	0.202
-579.792	800.000	0.060	-0.235
-578.777	-141.709	-0.132	-0.013
-577.763	-69.190	0.384	0.149
-576.748	800.000	0.126	0.405
-575.733	800.000	-0.031	0.098
-574.719	-140.330	0.153	-0.016
-573.704	800.000	0.055	0.181
-572.690	800.000	0.021	0.086
-571.675	-38.502	0.117	-0.062
-570.661	-42.488	0.241	0.123
-569.646	-108.019	-0.110	-0.024
-568.631	-171.676	-0.329	0.011
-567.617	-111.999	0.243	-0.049
-566.602	184.961	-0.122	0.182
-565.588	-200.000	-0.019	0.182
-564.573	374.066	0.171	-0.350
-563.558	-89.702	0.302	0.089
-562.544	-96.125	-0.202	-0.054
-561.529	-24.049	0.102	0.061
-560.515	-102.503	0.171	-0.041
-559.500	76.612	-0.165	-0.176
-558.485	-1.057	-0.295	-0.210
-557.471	61.444	-0.078	-0.078
-556.456	-89.395	0.189	0.056
-555.442	196.856	-0.153	0.235
-554.427	-98.642	0.100	0.026
-553.412	-101.905	-0.151	-0.037
-552.398	82.667	-0.113	-0.124
-551.383	102.540	-0.187	0.220
-550.369	-26.341	-0.223	-0.132
-549.354	-57.065	0.307	-0.136
-548.339	-200.000	0.020	-0.161
-547.325	-124.335	-0.228	0.036
-546.310	-18.488	-0.344	-0.216
-545.296	7.057	0.233	-0.175
-544.281	-102.822	0.220	0.053
-543.266	-160.054	0.257	-0.014
-542.252	-10.560	-0.236	-0.157
-541.237	-51.285	-0.136	0.064
-540.223	-1.419	0.145	-0.103
-539.208	-97.032	-0.159	0.042
-538.193	-115.217	-0.459	0.087
-537.179	38.034	0.144	0.129
-536.164	-200.000	-0.023	-0.132
-535.150	-43.466	0.130	0.066
-534.135	-42.346	-0.047	-0.024
-533.121	384.090	-0.171	0.354
-532.106	-63.003	0.289	0.120
-531.091	-11.800	0.095	-0.063
-530.077	-200.000	0.044	0.263
-529.062	-101.862	-0.150	-0.037
-528.048	-5.585	-0.164	-0.113
-527.033	-36.187	-0.112	0.061
-526.018	-136.895	0.084	0.010
-525.004	-120.588	-0.181	-0.031
-523.989	62.496	0.065	0.066
-522.975	-121.973	0.145	-0.024
-521.960	-200.000	-0.001	-0.241
-520.945	120.566	-0.109	-0.136
-519.931	-48.816	-0.360	0.173
-518.916	47.350	0.176	-0.165
-517.902	-3.252	-0.206	-0.144
-516.887	200.275	0.077	-0.118
-515.872	145.136	-0.072	0.097
-514.858	-99.655	-0.158	0.040
-513.843	-79.296	-0.179	-0.061
-512.829	126.767	-0.068	-0.087
-511.814	-61.384	-0.082	-0.035
-510.799	800.000	0.045	0.171
-509.785	203.820	0.158	0.246
-508.770	26.459	-0.035	0.029
-507.756	-200.000	-0.034	0.317
-506.741	105.259	0.067	-0.079
-505.726	253.323	-0.125	-0.214
-504.712	800.000	0.026	0.081
-503.697	345.688	0.156	-0.307
-502.683	-60.357	0.153	0.066
-501.668	-52.690	0.125	0.058
-500.653	-71.618	0.203	0.076
-499.639	8.831	-0.113	0.085
-498.624	-127.290	0.102	-0.015
-497.610	800.000	0.034	-0.119
-496.595	141.238	-0.214	0.284
-495.581	-116.440	0.366	0.068
-494.566	-14.167	0.177	-0.114
-493.551	192.004	-0.202	0.306
-492.537	-200.000	0.002	0.109
-491.522	-200.000	-0.005	0.046
-490.508	-200.000	-0.038	-0.197
-489.493	-67.304	0.198	-0.078
-488.478	32.329	-0.051	-0.044
-487.464	800.000	-0.106	0.391
-486.449	-200.000	-0.033	-0.331
-485.435	-39.576	-0.286	0.150
-484.420	-12.882	-0.136	0.089
-483.405	77.556	-0.109	-0.116
-482.391	-198.345	-0.097	-0.001
-481.376	189.089	-0.141	0.211
-480.362	-5.012	-0.142	0.098
-479.347	-151.957	-0.259	-0.019
-478.332	-139.280	0.109	0.012
-477.318	-200.000	-0.001	0.259
-476.303	-39.437	0.198	0.104
-475.289	800.000	0.190	0.610
-474.274	-161.086	-0.309	0.016
-473.259	800.000	-0.041	-0.151
-472.245	291.378	0.049	-0.089
-471.230	-200.000	0.017	-0.077
-470.216	-50.360	0.201	-0.095
-469.201	741.056	-0.075	0.203
-468.186	0.594	0.229	0.164
-467.172	-162.281	-0.266	-0.013
-466.157	87.595	0.139	-0.154
-465.143	424.816	0.153	-0.329
-464.128	217.283	0.096	0.153
-463.113	-62.855	0.346	-0.144
-462.099	-89.046	0.313	-0.093
-461.084	-88.677	0.217	0.065
-460.070	-197.084	-0.466	0.003
-459.055	252.287	0.129	0.220
-458.040	242.988	-0.050	0.085
-457.026	-157.913	-0.290	-0.017
-456.011	250.347	0.200	0.341
-454.997	-200.000	0.076	0.416
-453.982	-61.373	0.093	-0.039
-452.968	35.426	-0.113	-0.100
-451.953	-200.000	0.007	-0.212
-450.938	168.215	0.045	0.064
-449.924	-100.922	-0.121	0.030
-448.909	784.193	-0.060	0.164
-447.895	-130.110	0.225	0.031
-446.880	-200.000	-0.039	-0.192
-445.865	18.341	-0.256	-0.205
-444.851	-163.224	0.276	0.013
-443.836	300.499	-0.171	-0.315
-442.822	-41.153	0.039	0.020
-441.807	-177.035	0.129	-0.003
-440.792	78.314	0.042	0.045
-439.778	-200.000	0.048	-0.328
-438.763	101.487	-0.130	-0.151
-437.749	231.670	-0.170	0.279
-436.734	126.083	0.130	-0.164
-435.719	184.104	0.126	-0.187
-434.705	73.902	0.199	-0.209
-433.690	-43.289	-0.406	-0.206
-432.676	190.600	-0.060	0.090
-431.661	-73.090	0.194	-0.071
-430.646	-165.073	-0.162	0.007
-429.632	800.000	-0.148	0.421
-428.617	-79.979	-0.089	-0.030
-427.603	-105.745	-0.289	0.065
-426.588	64.230	-0.072	-0.072
-425.573	-70.794	-0.247	-0.093
-424.559	-84.746	-0.062	-0.020
-423.544	45.055	0.341	0.315
-422.530	-24.945	0.334	0.198
-421.515	-111.280	-0.197	-0.040
-420.500	69.557	-0.261	0.269
-419.486	-200.000	-0.047	0.365
-418.471	-9.099	0.197	0.132
-417.457	59.788	0.263	-0.260
-416.442	112.985	-0.102	0.123
-415.428	-116.348	0.279	-0.052
-414.413	2.352	-0.431	-0.312
-413.398	-200.000	0.009	0.096
-412.384	800.000	0.105	0.317
-411.369	150.223	0.257	0.349
-410.355	-86.845	-0.142	-0.043
-409.340	-19.879	-0.128	0.079
-408.325	-200.000	0.029	0.148
-407.311	-88.304	-0.107	0.032
-406.296	600.192	-0.065	0.162
-405.282	-91.930	0.144	0.041
-404.267	-200.000	0.054	0.256
-403.252	13.191	0.326	0.253
-402.238	-83.014	0.087	0.028
-401.223	-47.632	-0.096	-0.046
-400.209	31.938	0.125	0.107
-399.194	-200.000	-0.027	-0.300
-398.179	126.926	0.231	-0.292
-397.165	-200.000	0.044	0.359
-396.150	-120.851	0.211	-0.036
-395.136	767.619	-0.034	0.093
-394.121	-200.000	-0.057	-0.251
-393.106	-200.000	0.008	0.281
-392.092	230.916	-0.075	0.123
-391.077	110.804	0.108	-0.130
-390.063	-200.000	-0.016	0.150
-389.048	54.479	-0.060	-0.057
-388.033	269.533	-0.140	0.246
-387.019	31.114	0.097	0.083
-386.004	-53.425	-0.343	0.157
-384.990	-84.830	-0.220	-0.069
-383.975	13.107	0.171	0.132
-382.960	-55.378	0.296	0.133
-381.946	130.612	-0.080	0.103
-380.931	-161.655	0.168	-0.009
-379.917	-168.913	-0.367	-0.014
-378.902	38.779	-0.292	-0.260
-377.888	74.452	-0.163	-0.171
-376.873	210.610	-0.167	-0.261
-375.858	-150.405	0.504	-0.039
-374.844	-197.007	0.303	0.002
-373.829	147.012	0.273	-0.366
-372.815	-143.797	0.362	-0.034
-371.800	-71.447	-0.293	0.110
-370.785	-76.952	-0.041	0.014
-369.771	163.893	-0.048	0.068
-368.756	-200.000	-0.001	0.208
-367.742	127.654	0.063	0.080
-366.727	70.855	-0.233	-0.241
-365.712	-39.774	0.431	0.225
-364.698	-200.000	-0.012	-0.371
-363.683	50.969	-0.101	-0.095
-362.669	-152.915	-0.176	-0.012
-361.654	180.206	-0.286	-0.419
-360.639	89.356	0.018	-0.020
-359.625	-16.157	-0.060	0.038
-358.610	800.000	-0.068	-0.297
-357.596	14.522	-0.375	-0.293
-356.581	800.000	0.051	-0.200
-355.566	94.008	-0.252	0.285
-354.552	2.189	0.232	0.167
-353.537	136.964	0.091	0.118
-352.523	553.014	-0.037	-0.089
-351.508	32.573	-0.161	0.138
-350.493	-135.642	-0.159	-0.019
-349.479	376.330	-0.042	0.085
-348.464	-142.937	0.142	-0.014
-347.450	-200.000	-0.033	0.201
-346.435	-116.873	0.065	0.012
-345.420	-12.846	-0.469	0.305
-344.406	123.393	-0.120	0.150
-343.391	483.117	-0.069	-0.157
-342.377	123.285	-0.125	-0.156
-341.362	25.313	-0.101	-0.084
-340.348	-119.227	0.008	-0.001
-339.333	-85.631	0.325	-0.101
-338.318	-200.000	-0.012	-0.164
-337.304	-200.000	0.031	-0.323
-336.289	-122.629	0.379	-0.061
-335.275	-44.344	0.339	-0.169
-334.260	800.000	-0.081	0.326
-333.245	-200.000	0.027	0.119
-332.231	14.140	0.183	0.142
-331.216	40.466	-0.063	-0.057
-330.202	-41.632	0.051	-0.026
-329.187	-72.821	0.115	-0.042
-328.172	87.433	-0.169	-0.186
-327.158	386.628	0.106	0.217
-326.143	-65.235	-0.091	0.037
-325.129	-10.047	0.030	0.020
-324.114	-84.576	-0.242	0.076
-323.099	265.486	0.128	-0.223
-322.085	74.871	0.072	0.076
-321.070	234.999	0.227	0.373
-320.056	478.857	0.127	0.287
-319.041	800.000	0.091	-0.262
-318.026	201.937	0.228	-0.350
-317.012	95.440	0.158	-0.180
-315.997	-200.000	0.063	0.286
-314.983	32.981	-0.214	-0.185
-313.968	514.442	-0.181	-0.420
-312.953	-70.419	0.260	0.098
-311.939	-146.558	0.367	0.032
-310.924	114.047	-0.121	0.146
-309.910	800.000	-0.062	-0.247
-308.895	-155.226	0.077	-0.005
-307.880	-26.091	0.125	0.073
-306.866	280.216	-0.100	0.178
-305.851	59.428	0.204	-0.200
-304.837	-68.453	-0.215	0.083
-303.822	-59.813	-0.350	-0.149
-302.807	-95.823	0.155	-0.041
-301.793	5.200	0.057	0.042
-300.778	22.157	0.266	-0.216
-299.764	-156.809	0.128	-0.008
-298.749	98.310	-0.162	0.186
-297.735	422.244	-0.117	-0.251
-296.720	197.585	-0.070	-0.106
-295.705	27.941	-0.178	-0.150
-294.691	606.063	0.105	0.260
-293.676	42.326	0.109	0.099
-292.662	728.341	0.030	0.081
-291.647	-8.705	-0.250	-0.167
-290.632	-154.515	-0.135	-0.009
-289.618	800.000	0.056	-0.192
-288.603	677.784	0.170	-0.440
-287.589	-15.409	-0.166	-0.106
-286.574	-200.000	0.011	0.138
-285.559	-16.549	-0.172	-0.109
-284.545	209.982	0.049	0.076
-283.530	96.112	0.138	-0.157
-282.516	40.521	-0.218	-0.196
-281.501	-41.693	-0.270	0.138
-280.486	-58.264	-0.052	-0.023
-279.472	6.074	-0.187	0.138
-278.457	53.584	0.113	0.108
-277.443	-66.143	-0.245	0.097
-276.428	-200.000	-0.018	-0.173
-275.413	14.537	-0.150	0.116
-274.399	-90.449	0.123	-0.035
-273.384	-125.366	0.171	0.026
-272.370	-200.000	-0.587	0.000
-271.355	-124.546	0.093	-0.014
-270.340	529.085	0.158	0.370
-269.326	-72.161	-0.095	-0.035
-268.311	-70.195	0.067	-0.025
-267.297	-92.834	0.099	0.028
-266.282	-166.029	-0.125	-0.005
-265.267	-90.663	-0.198	0.057
-264.253	126.565	-0.246	-0.309
-263.238	48.748	0.250	-0.233
-262.224	800.000	0.013	-0.040
-261.209	-134.295	-0.109	-0.013
-260.195	198.004	-0.195	-0.296
-259.180	-63.097	0.137	0.056
-258.165	-200.000	-0.010	0.325
-257.151	-200.000	-0.292	-0.001
-256.136	-200.000	0.007	-0.356
-255.122	6.047	-0.140	0.103
-254.107	-162.207	0.345	0.017
-253.092	55.027	-0.321	0.308
-252.078	175.930	-0.107	-0.154
-251.063	-35.877	0.110	0.059
-250.049	-40.690	0.041	-0.021
-249.034	31.219	-0.257	-0.219
-248.019	-76.052	0.147	-0.052
-247.005	391.462	0.175	0.361
-245.990	12.351	0.212	0.162
-244.976	-171.694	-0.303	-0.010
-243.961	316.103	0.214	-0.402
-242.946	800.000	0.028	-0.113
-241.932	-54.301	0.206	-0.093
-240.917	229.367	0.108	-0.175
-239.903	100.902	-0.178	0.205
-238.888	-111.193	-0.085	0.017
-237.873	-160.027	0.130	0.007
-236.859	382.861	-0.083	0.169
-235.844	-40.471	0.289	-0.149
-234.830	156.454	-0.175	-0.239
-233.815	-200.000	-0.024	-0.128
-232.800	-132.962	0.166	0.021
-231.786	-200.000	0.005	0.312
-230.771	-173.678	-0.324	-0.010
-229.757	-22.244	0.249	0.150
-228.742	2.854	0.474	-0.342
-227.727	-200.000	-0.010	0.108
-226.713	-140.851	-0.143	0.015
-225.698	800.000	-0.047	0.129
-224.684	-200.000	-0.047	0.323
-223.669	257.618	-0.197	0.337
-222.655	-200.000	0.020	0.316
-221.640	-29.040	-0.178	-0.102
-220.625	-88.991	0.262	-0.077
-219.611	281.676	-0.286	-0.509
-218.596	-79.865	-0.114	0.038
-217.582	-61.453	-0.089	0.037
-216.567	-32.501	-0.152	-0.084
-215.552	-51.009	0.086	-0.040
-214.538	560.531	-0.061	0.147
-213.523	-119.942	-0.284	-0.048
-212.509	660.137	-0.058	-0.149
-211.494	-113.687	0.188	-0.036
-210.479	800.000	0.116	-0.324
-209.465	-180.490	-0.205	0.004
-208.450	-200.000	0.016	0.122
-207.436	-200.000	0.021	-0.118
-206.421	800.000	-0.089	-0.285
-205.406	-102.596	-0.200	0.047
-204.392	800.000	0.036	-0.152
-203.377	57.898	0.124	0.121
-202.363	-69.327	-0.106	0.040
-201.348	-22.264	0.168	0.101
-200.333	61.991	-0.241	0.238
-199.319	135.453	0.107	0.138
-198.304	800.000	0.042	0.142
-197.290	-36.513	-0.088	-0.047
-196.275	150.869	0.082	0.111
-195.260	-200.000	0.007	0.090
-194.246	156.197	0.077	0.105
-193.231	205.653	0.068	-0.105
-192.217	659.119	0.015	-0.038
-191.202	-44.601	0.115	0.057
-190.187	314.807	0.084	0.156
-189.173	-19.786	0.113	0.069
-188.158	45.695	0.054	-0.049
-187.144	452.940	0.120	0.263
-186.129	-81.527	0.239	0.078
-185.114	239.104	0.178	0.293
-184.100	-95.294	0.237	-0.063
-183.085	790.612	-0.058	-0.158
-182.071	-200.000	-0.009	0.135
-181.056	-13.798	-0.003	-0.002
-180.042	800.000	0.059	-0.249
-179.027	438.175	-0.037	-0.080
-178.012	261.925	0.132	-0.227
-176.998	46.192	0.196	-0.180
-175.983	-12.924	0.050	-0.032
-174.969	-64.210	-0.216	-0.087
-173.954	-100.221	-0.026	-0.006
-172.939	3.560	0.307	-0.222
-171.925	-89.579	0.158	-0.046
-170.910	-82.107	-0.403	-0.130
-169.896	88.265	0.069	0.075
-168.881	97.680	0.127	-0.145
-167.866	109.577	0.147	-0.174
-166.852	497.805	-0.175	0.398
-165.837	-200.000	0.047	0.292
-164.823	800.000	-0.038	-0.107
-163.808	54.325	0.147	0.140
-162.793	-98.110	-0.103	-0.026
-161.779	-200.000	0.001	-0.373
-160.764	118.854	0.111	0.135
-159.750	-200.000	0.041	0.410
-158.735	66.533	-0.099	-0.100
-157.720	71.974	-0.434	-0.447
-156.706	-151.754	0.354	0.026
-155.691	800.000	0.029	0.081
-154.677	224.739	0.160	-0.256
-153.662	-8.866	-0.183	0.122
-152.647	-89.366	-0.067	0.020
-151.633	-200.000	0.009	0.369
-150.618	158.033	0.173	-0.237
-149.604	296.771	0.146	-0.266
-148.589	-24.763	0.100	-0.059
-147.574	-145.671	-0.220	0.019
-146.560	-56.161	0.135	0.059
-145.545	192.514	-0.166	-0.248
-144.531	-103.922	-0.119	0.027
-143.516	-81.160	0.194	0.063
-142.502	-143.302	-0.393	0.037
-141.487	223.979	0.070	0.112
-140.472	9.251	0.021	-0.016
-139.458	163.835	0.255	-0.355
-138.443	88.967	0.403	-0.444
-137.429	130.855	0.113	-0.144
-136.414	-159.548	0.298	0.016
-135.399	-99.015	-0.153	-0.038
-134.385	-200.000	-0.006	0.353
-133.370	173.610	-0.033	-0.048
-132.356	291.705	-0.068	-0.123
-131.341	-60.417	0.232	-0.097
-130.326	-97.052	0.334	0.086
-129.312	463.359	-0.119	-0.262
-128.297	592.316	0.054	0.131
-127.283	91.814	-0.236	0.262
-126.268	230.166	-0.093	-0.150
-125.253	800.000	0.087	0.304
-124.239	-200.000	0.001	-0.158
-123.224	132.212	-0.114	0.145
-122.210	-200.000	-0.006	0.402
