DTS Sentinel unit serial number:	SN413079Multiplexer serial number:	ORYXHardware model number:	OX4-SRSoftware version number:	ORYX F/W v4.00 Oryx Data Collector v3.7.2.0data status	okinstallation	princeton_trtdifferential loss correction	single-endedforward channel	channel 1reverse channel	N/Adate	2019/09/13time	05:26:35forward acquisition time	60.00reverse acquisition time	0.00gamma	496.2192k internal	0.2336k external	0.2336temperature offset calibration	1.0163default loss term (dB/km)	0.3790temperature slope calibration	1.0000multiplexer offset coefficient	1.0000multiplexer slope coefficient	1.0000fibre end	0.00T internal ref (°C)	26.30T ext. ref 1 (°C)	4.04T ext. ref 2 (°C)	20.90length (m)	temperature (°C)	Stokes	anti-Stokes-747.200	3.626	-0.173	-0.127
-746.185	-118.381	-0.332	0.059
-745.171	136.148	0.069	0.090
-744.156	800.000	0.037	0.161
-743.142	35.753	-0.183	-0.161
-742.127	800.000	0.054	-0.197
-741.112	350.326	-0.188	-0.373
-740.098	-170.752	-0.412	-0.014
-739.083	-200.000	0.012	0.157
-738.069	545.248	0.117	0.281
-737.054	493.807	-0.134	0.309
-736.039	45.519	-0.204	0.189
-735.025	453.706	0.099	0.219
-734.010	-165.861	-0.097	-0.004
-732.996	800.000	-0.047	0.179
-731.981	-42.580	-0.231	-0.118
-730.966	261.434	0.031	-0.054
-729.952	-200.000	-0.075	-0.548
-728.937	-200.000	-0.001	-0.231
-727.923	-91.201	-0.108	-0.031
-726.908	114.584	-0.128	0.156
-725.894	88.164	-0.352	-0.392
-724.879	352.584	-0.153	-0.304
-723.864	220.110	-0.072	-0.116
-722.850	-200.000	0.012	0.200
-721.835	-132.846	0.296	-0.038
-720.821	-200.000	0.043	-0.285
-719.806	310.120	-0.165	-0.310
-718.791	88.563	-0.294	0.328
-717.777	-124.301	-0.494	-0.077
-716.762	-102.473	-0.200	0.048
-715.748	-200.000	-0.009	0.097
-714.733	-9.742	0.139	-0.093
-713.718	-167.083	-0.381	0.016
-712.704	496.057	-0.147	-0.339
-711.689	61.351	-0.056	0.056
-710.675	-42.646	0.144	-0.074
-709.660	-172.017	0.173	0.006
-708.645	43.260	-0.344	0.315
-707.631	-200.000	0.026	-0.261
-706.616	33.087	-0.282	-0.245
-705.602	800.000	0.092	-0.266
-704.587	264.326	-0.205	-0.359
-703.572	-138.018	0.242	0.027
-702.558	-200.000	-0.025	0.238
-701.543	-177.325	0.221	0.005
-700.529	210.143	-0.165	-0.260
-699.514	800.000	0.039	-0.113
-698.499	-163.515	0.333	-0.016
-697.485	202.428	0.144	-0.222
-696.470	-145.238	0.280	0.025
-695.456	458.219	-0.057	-0.126
-694.441	320.319	0.070	0.134
-693.426	-52.391	0.307	-0.142
-692.412	-58.389	0.061	0.026
-691.397	-17.012	-0.339	-0.215
-690.383	198.888	0.040	-0.061
-689.368	-65.890	-0.423	-0.169
-688.354	483.604	0.117	-0.267
-687.339	-53.867	-0.359	-0.164
-686.324	-97.907	-0.271	0.070
-685.310	-200.000	-0.009	-0.053
-684.295	62.172	-0.142	-0.142
-683.281	476.545	-0.068	-0.155
-682.266	-2.660	0.133	0.093
-681.251	-13.421	0.154	0.100
-680.237	378.358	-0.084	0.172
-679.222	800.000	0.103	-0.420
-678.208	158.514	0.113	-0.158
-677.193	-200.000	-0.011	-0.218
-676.178	-109.415	0.285	-0.060
-675.164	154.931	-0.124	0.171
-674.149	230.838	-0.025	0.041
-673.135	41.284	0.552	-0.500
-672.120	-62.202	-0.310	-0.129
-671.105	800.000	0.084	0.264
-670.091	-69.949	0.227	0.087
-669.076	-87.747	-0.116	-0.035
-668.062	-141.274	0.345	-0.035
-667.047	-18.833	0.212	-0.132
-666.032	-109.593	-0.072	-0.015
-665.018	53.767	-0.043	0.041
-664.003	125.141	0.297	0.374
-662.989	258.644	-0.046	0.079
-661.974	301.686	0.038	-0.070
-660.959	63.410	-0.006	-0.006
-659.945	135.790	-0.103	0.134
-658.930	16.948	-0.196	-0.155
-657.916	-200.000	0.004	0.137
-656.901	-19.425	0.116	-0.072
-655.886	-200.000	0.032	0.166
-654.872	-40.891	0.319	0.165
-653.857	-0.802	-0.161	-0.114
-652.843	286.380	-0.093	-0.169
-651.828	-69.024	-0.218	-0.084
-650.814	222.733	-0.097	-0.157
-649.799	-68.825	0.137	0.053
-648.784	23.678	-0.084	0.069
-647.770	-84.262	0.383	-0.121
-646.755	-46.224	-0.186	0.091
-645.741	-200.000	0.011	-0.063
-644.726	800.000	0.099	-0.368
-643.711	103.470	0.108	-0.127
-642.697	431.268	-0.049	-0.106
-641.682	125.834	-0.192	-0.243
-640.668	-61.612	-0.050	0.021
-639.653	-131.770	0.332	0.043
-638.638	-12.435	0.272	-0.178
-637.624	-200.000	-0.023	-0.197
-636.609	-118.317	0.364	-0.065
-635.595	800.000	0.085	0.327
-634.580	-87.297	-0.162	-0.049
-633.565	602.193	-0.025	-0.061
-632.551	800.000	0.024	-0.086
-631.536	-8.798	-0.155	-0.104
-630.522	-143.481	0.235	0.022
-629.507	-94.685	0.126	0.034
-628.492	228.973	0.192	-0.313
-627.478	359.981	0.049	0.098
-626.463	-200.000	0.049	0.221
-625.449	-123.526	0.185	0.029
-624.434	409.756	0.074	-0.157
-623.419	-21.067	0.138	0.085
-622.405	-79.434	0.138	-0.047
-621.390	-200.000	-0.038	0.194
-620.376	-200.000	-0.037	0.169
-619.361	275.474	-0.101	-0.179
-618.346	-82.684	-0.042	0.014
-617.332	-200.000	-0.065	0.356
-616.317	593.218	0.047	-0.115
-615.303	597.444	0.051	-0.127
-614.288	19.262	-0.206	0.165
-613.273	800.000	0.077	0.253
-612.259	-117.948	0.132	-0.024
-611.244	49.354	0.148	0.139
-610.230	-200.000	-0.014	0.218
-609.215	543.699	-0.011	0.026
-608.201	-97.174	-0.147	-0.038
-607.186	-69.983	0.150	0.057
-606.171	-96.316	-0.297	0.078
-605.157	800.000	0.019	0.070
-604.142	214.074	-0.127	0.201
-603.128	217.233	-0.180	0.286
-602.113	800.000	0.043	-0.173
-601.098	-145.819	0.156	0.014
-600.084	-200.000	0.032	0.402
-599.069	-200.000	-0.011	0.089
-598.055	-200.000	-0.040	0.200
-597.040	77.348	-0.327	0.347
-596.025	-200.000	0.039	-0.254
-595.011	-200.000	0.027	0.173
-593.996	163.655	-0.118	0.166
-592.982	-200.000	0.019	0.211
-591.967	207.130	0.218	0.340
-590.952	-93.540	0.318	0.088
-589.938	193.778	0.110	-0.166
-588.923	57.618	0.183	0.179
-587.909	63.107	0.122	-0.122
-586.894	-56.816	0.342	0.151
-585.879	-194.974	-0.235	-0.002
-584.865	-11.401	-0.074	0.049
-583.850	-200.000	0.003	-0.025
-582.836	-53.374	0.321	0.147
-581.821	-67.039	0.151	0.059
-580.806	271.240	-0.190	0.335
-579.792	-200.000	0.000	0.188
-578.777	99.181	0.272	-0.313
-577.763	-36.883	0.149	-0.080
-576.748	-200.000	0.024	0.485
-575.733	-116.817	0.430	0.079
-574.719	271.151	-0.087	0.153
-573.704	-200.000	0.032	0.216
-572.690	697.843	0.134	0.350
-571.675	48.541	0.066	-0.062
-570.661	0.273	0.277	-0.197
-569.646	1.434	-0.540	-0.388
-568.631	-200.000	-0.022	-0.204
-567.617	-67.385	-0.183	0.072
-566.602	-200.000	-0.009	-0.118
-565.588	96.789	-0.109	-0.125
-564.573	-200.000	-0.010	-0.058
-563.558	599.071	-0.079	-0.196
-562.544	-139.500	0.207	-0.022
-561.529	274.838	-0.081	0.143
-560.515	-178.790	0.136	-0.003
-559.500	-136.060	0.274	0.032
-558.485	510.599	0.059	0.137
-557.471	123.990	-0.131	-0.163
-556.456	-44.566	-0.164	-0.082
-555.442	-77.566	-0.062	-0.022
-554.427	13.213	0.181	0.140
-553.412	128.489	-0.094	0.120
-552.398	800.000	-0.112	0.353
-551.383	305.120	0.073	-0.135
-550.369	76.418	0.139	-0.147
-549.354	209.935	0.109	0.170
-548.339	-200.000	0.019	-0.322
-547.325	800.000	0.064	-0.200
-546.310	9.043	0.274	0.207
-545.296	-8.117	0.127	0.085
-544.281	800.000	0.025	0.080
-543.266	-62.531	-0.057	-0.023
-542.252	-200.000	0.024	-0.114
-541.237	126.208	-0.067	-0.084
-540.223	-60.429	-0.353	0.150
-539.208	14.007	0.376	-0.292
-538.193	-21.440	0.315	0.191
-537.179	537.850	0.072	-0.170
-536.164	-65.649	0.271	-0.108
-535.150	114.379	-0.213	0.258
-534.135	302.224	-0.075	0.139
-533.121	286.795	-0.158	0.285
-532.106	157.861	-0.334	-0.461
-531.091	21.571	-0.149	0.121
-530.077	68.962	0.186	0.190
-529.062	-34.649	-0.167	-0.091
-528.048	-200.000	-0.003	-0.067
-527.033	197.176	-0.036	-0.054
-526.018	-200.000	0.016	0.094
-525.004	-100.760	-0.266	-0.065
-523.989	5.552	-0.147	0.108
-522.975	75.248	-0.346	0.363
-521.960	273.577	-0.130	-0.229
-520.945	-200.000	-0.005	0.055
-519.931	-200.000	0.012	0.145
-518.916	-166.959	0.123	0.005
-517.902	21.622	-0.293	0.238
-516.887	-15.696	-0.259	-0.164
-515.872	-179.540	-0.128	-0.003
-514.858	507.181	0.095	-0.220
-513.843	-9.570	0.132	-0.087
-512.829	78.559	0.176	0.187
-511.814	-132.110	0.042	0.005
-510.799	800.000	-0.052	0.183
-509.785	-73.904	0.040	0.014
-508.770	-7.132	0.180	-0.122
-507.756	-23.770	-0.056	0.033
-506.741	607.464	0.135	0.335
-505.726	64.622	-0.202	-0.203
-504.712	-44.260	0.151	0.075
-503.697	-161.355	0.277	0.014
-502.683	-97.766	0.216	0.056
-501.668	585.689	-0.042	-0.104
-500.653	96.047	-0.117	-0.133
-499.639	26.068	-0.279	0.232
-498.624	282.316	-0.128	0.228
-497.610	-93.697	0.347	-0.095
-496.595	800.000	-0.069	-0.284
-495.581	-40.707	-0.566	0.292
-494.566	138.109	0.127	-0.165
-493.551	146.096	-0.200	0.266
-492.537	-44.052	-0.140	-0.070
-491.522	310.643	-0.133	-0.248
-490.508	-200.000	-0.012	0.067
-489.493	3.049	0.192	-0.139
-488.478	800.000	-0.113	-0.392
-487.464	629.018	0.090	-0.226
-486.449	57.044	-0.140	-0.136
-485.435	117.100	0.148	0.181
-484.420	800.000	-0.057	0.236
-483.405	-200.000	0.034	0.227
-482.391	86.199	-0.286	0.313
-481.376	-80.821	0.191	-0.063
-480.362	-200.000	0.017	0.165
-479.347	-45.070	-0.238	-0.118
-478.332	-6.527	0.030	0.021
-477.318	-200.000	0.001	0.093
-476.303	-200.000	0.015	-0.307
-475.289	160.966	-0.050	0.070
-474.274	-80.822	-0.230	-0.076
-473.259	78.076	-0.352	-0.373
-472.245	-100.024	-0.282	0.070
-471.230	-200.000	0.028	-0.437
-470.216	-1.467	-0.063	0.044
-469.201	427.596	-0.042	0.090
-468.186	-69.286	0.123	0.047
-467.172	-84.171	-0.391	-0.123
-466.157	-200.000	0.025	0.111
-465.143	328.390	-0.028	-0.053
-464.128	-197.262	-0.044	0.000
-463.113	353.186	-0.103	0.202
-462.099	-24.223	0.274	-0.162
-461.084	54.915	0.149	-0.143
-460.070	-106.448	-0.366	0.081
-459.055	593.737	0.152	-0.373
-458.040	-200.000	-0.007	-0.323
-457.026	-200.000	0.042	0.240
-456.011	-165.860	0.379	0.016
-454.997	-62.383	-0.204	-0.084
-453.982	-85.804	-0.120	-0.037
-452.968	800.000	-0.034	-0.105
-451.953	-3.671	-0.273	-0.189
-450.938	-24.016	0.117	0.070
-449.924	60.569	-0.227	0.223
-448.909	-19.201	0.020	0.012
-447.895	-155.051	0.166	0.011
-446.880	3.911	-0.070	-0.051
-445.865	8.129	-0.107	-0.079
-444.851	-34.027	0.170	-0.093
-443.836	-42.029	-0.093	-0.047
-442.822	-76.026	-0.341	-0.120
-441.807	600.969	-0.063	-0.157
-440.792	57.016	-0.249	-0.241
-439.778	-79.097	-0.224	-0.075
-438.763	-43.197	-0.324	0.163
-437.749	-200.000	0.033	-0.209
-436.734	72.787	0.106	-0.110
-435.719	110.709	-0.172	-0.206
-434.705	-200.000	-0.003	0.133
-433.690	-35.933	0.376	0.202
-432.676	149.238	0.132	0.177
-431.661	-28.418	0.276	-0.158
-430.646	62.327	0.043	0.043
-429.632	-130.965	0.468	-0.062
-428.617	78.485	-0.139	0.147
-427.603	-154.856	0.159	-0.010
-426.588	-56.462	-0.079	0.035
-425.573	428.624	0.068	0.146
-424.559	-18.009	0.283	0.176
-423.544	-14.205	0.165	0.106
-422.530	185.540	-0.185	-0.272
-421.515	112.445	0.105	-0.126
-420.500	-182.956	-0.077	0.001
-419.486	1.225	-0.047	0.034
-418.471	-200.000	-0.058	-0.379
-417.457	611.648	-0.067	0.166
-416.442	-200.000	0.008	0.380
-415.428	-146.997	0.111	0.009
-414.413	112.887	0.103	0.124
-413.398	110.186	-0.203	-0.242
-412.384	-94.575	-0.117	0.032
-411.369	81.237	-0.201	-0.215
-410.355	-200.000	0.002	-0.432
-409.340	-200.000	-0.042	-0.337
-408.325	-200.000	0.053	0.299
-407.311	146.283	0.175	0.233
-406.296	-42.731	0.204	0.103
-405.282	-86.953	0.052	-0.016
-404.267	800.000	-0.070	0.222
-403.252	87.534	-0.052	0.057
-402.238	-200.000	0.036	-0.295
-401.223	-200.000	0.027	-0.282
-400.209	-200.000	-0.173	0.000
-399.194	-80.238	-0.188	-0.062
-398.179	147.556	0.049	-0.065
-397.165	-63.635	0.247	-0.101
-396.150	-200.000	-0.071	-0.469
-395.136	95.374	0.010	-0.012
-394.121	-200.000	-0.006	-0.102
-393.106	-15.401	-0.044	-0.028
-392.092	375.041	-0.209	-0.422
-391.077	-60.583	0.079	0.033
-390.063	603.149	-0.088	-0.216
-389.048	-200.000	-0.047	0.220
-388.033	431.209	-0.118	-0.253
-387.019	-200.000	0.026	-0.130
-386.004	-65.017	0.178	0.071
-384.990	-200.000	-0.029	-0.197
-383.975	-31.654	-0.034	-0.019
-382.960	-167.028	-0.029	0.001
-381.946	24.111	0.062	0.050
-380.931	55.898	0.169	0.163
-379.917	115.428	0.096	0.116
-378.902	-102.206	0.173	0.041
-377.888	-189.398	-0.079	0.001
-376.873	0.831	0.106	-0.075
-375.858	-34.399	-0.343	0.186
-374.844	-106.364	0.511	-0.113
-373.829	275.624	0.013	0.022
-372.815	51.964	-0.091	0.086
-371.800	246.356	0.125	-0.208
-370.785	-200.000	0.012	-0.141
-369.771	800.000	-0.018	0.066
-368.756	-174.979	-0.103	-0.003
-367.742	-200.000	-0.003	-0.307
-366.727	113.256	0.091	-0.109
-365.712	-200.000	-0.048	-0.448
-364.698	-105.151	-0.085	0.019
-363.683	80.093	-0.109	0.116
-362.669	-69.098	-0.151	-0.057
-361.654	800.000	0.089	-0.254
-360.639	-65.898	0.260	0.103
-359.625	58.261	-0.059	0.057
-358.610	169.581	0.248	-0.351
-357.596	578.369	0.021	0.051
-356.581	800.000	-0.045	-0.185
-355.566	-200.000	-0.019	-0.115
-354.552	-76.360	-0.075	0.026
-353.537	800.000	-0.076	0.223
-352.523	800.000	-0.025	0.088
-351.508	-84.588	-0.288	-0.090
-350.493	-147.086	-0.229	0.019
-349.479	-152.693	-0.291	0.021
-348.464	86.616	0.203	0.222
-347.450	-48.788	-0.136	-0.064
-346.435	-155.817	0.333	0.021
-345.420	177.367	-0.157	-0.226
-344.406	-62.276	-0.329	0.136
-343.391	-40.394	0.377	-0.194
-342.377	-200.000	-0.032	-0.327
-341.362	800.000	-0.101	-0.281
-340.348	800.000	-0.016	-0.058
-339.333	-56.328	-0.196	-0.086
-338.318	-55.364	-0.119	0.053
-337.304	497.640	-0.027	-0.062
-336.289	465.697	0.162	0.359
-335.275	214.785	-0.155	0.243
-334.260	391.652	0.102	0.210
-333.245	63.503	0.039	-0.039
-332.231	151.887	-0.114	0.154
-331.216	167.490	0.157	0.221
-330.202	-21.979	0.132	-0.079
-329.187	470.641	0.037	-0.081
-328.172	205.929	-0.156	0.240
-327.158	-42.288	-0.151	-0.076
-326.143	7.562	-0.232	0.171
-325.129	-62.024	0.281	0.116
-324.114	-154.453	0.345	-0.023
-323.099	-55.657	0.170	-0.075
-322.085	653.486	0.116	0.294
-321.070	59.081	0.174	0.170
-320.056	-116.624	-0.297	-0.054
-319.041	800.000	-0.088	-0.333
-318.026	-26.946	-0.167	0.096
-317.012	245.603	-0.062	0.104
-315.997	225.678	0.050	0.080
-314.983	-68.202	0.112	0.043
-313.968	264.451	0.102	-0.176
-312.953	-34.341	0.205	0.111
-311.939	618.073	-0.050	-0.124
-310.924	-200.000	0.014	-0.157
-309.910	-200.000	-0.015	0.063
-308.895	206.442	-0.186	-0.287
-307.880	96.422	0.183	-0.207
-306.866	93.678	0.301	0.336
-305.851	375.877	-0.139	-0.279
-304.837	-101.372	0.200	-0.048
-303.822	800.000	0.129	0.382
-302.807	-150.187	-0.042	-0.003
-301.793	-121.544	0.347	0.057
-300.778	-200.000	-0.027	0.138
-299.764	87.472	-0.156	-0.170
-298.749	-45.980	-0.402	-0.196
-297.735	203.231	0.096	-0.147
-296.720	-200.000	-0.007	0.000
-295.705	-200.000	0.060	0.289
-294.691	754.713	0.102	0.272
-293.676	800.000	-0.178	0.566
-292.662	-103.381	-0.202	0.047
-291.647	276.329	0.073	0.127
-290.632	800.000	0.098	-0.410
-289.618	-93.966	0.350	-0.095
-288.603	476.490	0.082	-0.182
-287.589	-200.000	0.030	-0.281
-286.574	-200.000	0.008	-0.219
-285.559	-19.615	-0.169	0.103
-284.545	-86.990	-0.186	-0.056
-283.530	-200.000	-0.036	-0.238
-282.516	-66.811	-0.228	-0.089
-281.501	-187.382	-0.267	0.004
-280.486	-32.365	0.114	-0.063
-279.472	-64.976	0.294	-0.117
-278.457	-200.000	0.033	-0.174
-277.443	-50.555	-0.159	-0.074
-276.428	11.537	-0.102	-0.077
-275.413	302.626	0.087	0.158
-274.399	-200.000	-0.065	0.281
-273.384	215.791	-0.137	0.214
-272.370	-132.052	0.255	-0.033
-271.355	97.568	0.166	0.188
-270.340	-200.000	-0.010	0.099
-269.326	180.345	-0.136	0.197
-268.311	108.157	0.083	0.097
-267.297	292.468	0.133	-0.239
-266.282	800.000	0.051	0.172
-265.267	69.126	0.251	0.254
-264.253	-200.000	0.048	-0.415
-263.238	354.168	0.064	-0.125
-262.224	-56.234	-0.330	0.145
-261.209	-49.605	0.232	0.109
-260.195	-200.000	-0.036	0.297
-259.180	182.426	-0.237	-0.344
-258.165	-93.871	-0.265	-0.072
-257.151	-93.584	0.147	-0.040
-256.136	268.480	0.118	-0.203
-255.122	800.000	0.073	-0.216
-254.107	-49.908	0.216	-0.101
-253.092	194.268	-0.182	0.271
-252.078	-200.000	0.031	0.241
-251.063	-29.660	-0.171	-0.096
-250.049	-80.142	0.252	-0.083
-249.034	-72.141	-0.057	-0.021
-248.019	150.289	-0.195	0.261
-247.005	34.313	0.152	-0.131
-245.990	-126.103	0.132	-0.020
-244.976	192.974	0.126	0.187
-243.961	631.621	-0.059	0.148
-242.946	-200.000	-0.024	0.228
-241.932	-59.419	0.271	-0.115
-240.917	-54.651	-0.249	0.111
-239.903	-34.638	0.173	0.093
-238.888	-200.000	0.024	-0.118
-237.873	435.367	-0.200	0.428
-236.859	263.085	-0.137	-0.234
-235.844	229.425	-0.086	-0.138
-234.830	-58.137	0.036	0.015
-233.815	717.683	0.048	-0.125
-232.800	62.027	-0.257	-0.252
-231.786	-200.000	0.042	0.239
-230.771	-130.987	-0.524	0.069
-229.757	-109.767	-0.385	0.080
-228.742	-49.875	-0.173	0.081
-227.727	92.693	0.156	-0.173
-226.713	138.835	0.054	-0.070
-225.698	2.223	-0.279	-0.199
-224.684	-32.304	0.213	-0.117
-223.669	-200.000	0.052	0.227
-222.655	124.914	-0.063	-0.078
-221.640	-200.000	0.008	0.145
-220.625	-136.127	0.395	0.046
-219.611	-91.470	0.286	0.080
-218.596	98.864	0.111	0.126
-217.582	-39.708	-0.490	0.252
-216.567	520.360	-0.119	-0.273
-215.552	800.000	-0.018	-0.070
-214.538	-97.613	-0.275	0.070
-213.523	154.511	-0.171	-0.232
-212.509	-200.000	0.034	0.242
-211.494	286.278	0.187	0.332
-210.479	42.708	0.269	0.241
-209.465	-53.460	-0.335	-0.151
-208.450	-200.000	0.046	0.512
-207.436	-58.744	-0.246	0.105
-206.421	-136.689	0.365	-0.041
-205.406	800.000	-0.078	-0.306
-204.392	-96.629	-0.350	-0.091
-203.377	-120.734	0.288	-0.048
-202.363	29.932	-0.133	-0.111
-201.348	97.081	-0.051	-0.057
-200.333	-52.985	0.243	-0.110
-199.319	800.000	-0.050	-0.170
-198.304	311.149	-0.127	0.235
-197.290	-164.378	-0.164	-0.007
-196.275	-13.827	0.132	0.084
-195.260	-200.000	0.012	-0.178
-194.246	-52.801	0.043	0.020
-193.231	-200.000	-0.016	0.070
-192.217	-200.000	-0.008	-0.131
-191.202	-60.076	0.351	0.147
-190.187	-153.339	-0.227	0.016
-189.173	321.989	0.192	0.358
-188.158	35.872	0.291	0.252
-187.144	-81.914	-0.303	0.097
-186.129	704.992	-0.108	0.280
-185.114	-144.248	0.050	-0.005
-184.100	51.567	-0.135	-0.126
-183.085	-200.000	-0.006	-0.450
-182.071	276.498	0.058	-0.102
-181.056	38.223	0.283	-0.248
-180.042	6.367	-0.167	0.122
-179.027	42.649	-0.202	0.181
-178.012	52.037	0.093	0.087
-176.998	-82.712	0.262	-0.083
-175.983	440.694	-0.072	-0.155
-174.969	16.936	-0.230	-0.179
-173.954	83.643	-0.204	-0.219
-172.939	-103.408	0.226	-0.052
-171.925	800.000	-0.023	0.062
-170.910	800.000	0.021	0.072
-169.896	-200.000	0.041	-0.261
-168.881	226.818	-0.128	-0.204
-167.866	52.608	-0.122	-0.114
-166.852	142.538	0.250	0.326
-165.837	290.696	0.087	0.155
-164.823	-110.887	0.084	-0.017
-163.808	-26.698	-0.168	0.097
-162.793	172.156	0.132	-0.187
-161.779	73.005	-0.137	0.140
-160.764	-200.000	-0.091	-0.000
-159.750	-200.000	-0.008	-0.065
-158.735	-200.000	0.008	0.174
-157.720	-200.000	0.053	-0.324
-156.706	393.000	0.124	0.254
-155.691	87.879	-0.151	0.165
-154.677	-81.415	-0.101	0.033
-153.662	-14.634	-0.140	-0.088
-152.647	319.394	0.065	0.121
-151.633	192.610	0.157	0.233
-150.618	198.401	-0.080	-0.120
-149.604	-200.000	-0.065	-0.283
-148.589	-84.038	-0.366	0.114
-147.574	-149.055	0.328	-0.026
-146.560	-102.255	0.302	0.071
-145.545	-80.267	0.161	-0.053
-144.531	102.349	0.232	0.266
-143.516	800.000	0.054	-0.177
-142.502	-200.000	0.011	-0.321
-141.487	236.910	-0.069	0.112
-140.472	29.727	-0.039	0.033
-139.458	-120.251	-0.172	0.029
-138.443	-166.981	0.374	0.015
-137.429	211.926	-0.239	0.370
-136.414	-9.014	0.200	0.131
-135.399	-65.720	0.061	-0.024
-134.385	-142.919	-0.153	0.015
-133.370	45.588	0.238	-0.216
-132.356	-200.000	0.046	0.205
-131.341	51.326	-0.179	0.167
-130.326	198.421	-0.089	0.134
-129.312	800.000	-0.062	-0.256
-128.297	-12.222	-0.159	-0.102
-127.283	-200.000	0.010	-0.095
-126.268	162.006	0.088	0.121
-125.253	-200.000	-0.009	0.077
-124.239	579.367	0.060	0.143
-123.224	-50.065	0.024	0.011
-122.210	-200.000	0.030	-0.253
-121.195	-57.230	0.360	-0.155
