DTS Sentinel unit serial number:	SN413079Multiplexer serial number:	ORYXHardware model number:	OX4-SRSoftware version number:	ORYX F/W v4.00 Oryx Data Collector v3.7.2.0data status	okinstallation	princeton_trtdifferential loss correction	single-endedforward channel	channel 1reverse channel	N/Adate	2019/09/18time	05:06:35forward acquisition time	60.00reverse acquisition time	0.00gamma	496.2192k internal	0.2338k external	0.2338temperature offset calibration	0.9979default loss term (dB/km)	0.3790temperature slope calibration	1.0000multiplexer offset coefficient	1.0000multiplexer slope coefficient	1.0000fibre end	0.00T internal ref (°C)	23.50T ext. ref 1 (°C)	0.19T ext. ref 2 (°C)	17.64length (m)	temperature (°C)	Stokes	anti-Stokes-747.200	-27.676	0.326	0.190
-746.185	-121.652	0.238	-0.040
-745.171	-200.000	-0.134	-0.000
-744.156	-172.675	0.183	-0.006
-743.142	166.095	-0.065	-0.092
-742.127	217.424	0.099	0.158
-741.112	329.798	-0.181	-0.349
-740.098	8.237	-0.239	0.180
-739.083	-116.257	0.355	0.066
-738.069	74.830	-0.208	-0.219
-737.054	-200.000	-0.004	0.163
-736.039	600.761	0.093	-0.232
-735.025	-200.000	0.046	0.217
-734.010	-200.000	0.046	-0.309
-732.996	-82.020	-0.390	-0.128
-731.981	-102.541	-0.100	0.024
-730.966	-183.919	-0.110	0.002
-729.952	-59.192	-0.449	-0.194
-728.937	-200.000	-0.006	-0.207
-727.923	226.513	-0.087	-0.142
-726.908	15.042	-0.224	0.176
-725.894	-55.031	-0.200	0.090
-724.879	800.000	-0.048	-0.182
-723.864	232.494	-0.135	-0.222
-722.850	598.909	0.034	-0.086
-721.835	-125.344	-0.247	-0.038
-720.821	-100.980	-0.118	-0.029
-719.806	222.066	0.116	0.186
-718.791	229.734	0.048	-0.079
-717.777	-92.444	-0.030	-0.008
-716.762	-29.254	-0.273	-0.157
-715.748	-85.861	-0.553	0.172
-714.733	-52.268	0.157	0.073
-713.718	-44.581	-0.181	-0.091
-712.704	377.549	-0.117	0.241
-711.689	800.000	-0.089	0.266
-710.675	-75.049	-0.336	0.121
-709.660	50.972	-0.035	-0.033
-708.645	74.174	-0.211	0.222
-707.631	235.024	0.204	-0.337
-706.616	-9.225	0.130	-0.087
-705.602	82.502	-0.084	0.092
-704.587	-200.000	0.008	-0.175
-703.572	800.000	-0.084	0.288
-702.558	201.634	0.199	0.307
-701.543	276.608	-0.211	-0.375
-700.529	800.000	0.087	-0.241
-699.514	-39.184	0.181	0.095
-698.499	-200.000	-0.088	0.438
-697.485	319.077	0.097	0.185
-696.470	800.000	-0.107	0.348
-695.456	91.204	-0.140	-0.158
-694.441	-52.626	0.300	0.139
-693.426	89.998	0.035	0.039
-692.412	-117.436	0.209	0.038
-691.397	309.186	0.034	0.064
-690.383	-200.000	-0.099	-0.544
-689.368	-106.455	0.170	-0.038
-688.354	-9.567	-0.208	0.139
-687.339	-200.000	-0.049	-0.407
-686.324	-200.000	0.062	-0.281
-685.310	-54.441	-0.404	-0.183
-684.295	277.390	0.179	-0.318
-683.281	-107.398	0.129	-0.028
-682.266	-19.720	-0.292	0.181
-681.251	329.712	-0.157	0.303
-680.237	-132.331	-0.104	0.013
-679.222	-56.939	-0.097	0.043
-678.208	346.083	-0.128	-0.252
-677.193	-194.815	-0.290	0.002
-676.178	-200.000	-0.020	-0.193
-675.164	-10.684	0.067	-0.045
-674.149	-200.000	0.067	-0.309
-673.135	4.958	0.119	0.088
-672.120	-200.000	0.042	0.199
-671.105	-7.363	0.111	0.075
-670.091	800.000	0.039	0.127
-669.076	192.243	0.181	-0.273
-668.062	152.984	-0.105	0.144
-667.047	-30.586	0.215	0.122
-666.032	-200.000	0.037	-0.253
-665.018	-29.648	0.090	0.051
-664.003	-174.438	-0.308	-0.009
-662.989	800.000	-0.057	-0.202
-661.974	-200.000	0.021	0.145
-660.959	229.604	-0.132	-0.215
-659.945	-79.351	-0.396	-0.134
-658.930	51.704	-0.035	0.033
-657.916	-200.000	-0.024	-0.397
-656.901	27.664	-0.201	0.169
-655.886	-54.094	-0.328	-0.149
-654.872	64.289	0.304	0.306
-653.857	34.356	-0.117	0.102
-652.843	12.304	-0.077	-0.059
-651.828	178.093	-0.083	0.121
-650.814	-149.237	0.428	0.034
-649.799	-200.000	-0.017	-0.134
-648.784	-200.000	0.031	-0.330
-647.770	-166.727	0.131	0.005
-646.755	-71.051	0.106	0.040
-645.741	33.850	0.174	-0.152
-644.726	-200.000	-0.059	-0.313
-643.711	-10.151	-0.180	-0.119
-642.697	-200.000	0.014	-0.220
-641.682	-16.268	-0.112	0.071
-640.668	525.340	0.047	0.109
-639.653	97.225	-0.110	-0.126
-638.638	231.278	-0.085	0.140
-637.624	800.000	0.024	0.075
-636.609	-123.803	-0.223	0.035
-635.595	10.028	0.172	-0.130
-634.580	-66.753	-0.137	-0.054
-633.565	323.252	0.133	0.253
-632.551	-17.447	-0.179	0.112
-631.536	512.374	0.138	0.320
-630.522	800.000	0.081	-0.278
-629.507	-200.000	-0.013	-0.309
-628.492	210.736	0.044	-0.069
-627.478	-35.094	-0.133	-0.072
-626.463	109.068	0.064	-0.077
-625.449	-110.216	-0.294	-0.061
-624.434	-200.000	-0.007	0.248
-623.419	-102.851	0.264	0.063
-622.405	457.839	0.030	-0.066
-621.390	189.701	0.173	-0.260
-620.376	126.170	-0.152	0.192
-619.361	256.452	0.179	0.306
-618.346	189.938	-0.135	0.202
-617.332	45.189	0.141	0.130
-616.317	-74.366	-0.251	0.090
-615.303	-200.000	0.014	-0.099
-614.288	125.102	-0.134	-0.169
-613.273	-148.420	0.180	0.015
-612.259	23.044	-0.161	-0.132
-611.244	-81.870	0.141	0.046
-610.230	-60.766	-0.312	0.132
-609.215	800.000	-0.082	-0.250
-608.201	76.778	0.175	-0.185
-607.186	800.000	-0.087	-0.281
-606.171	1.758	-0.162	-0.116
-605.157	-200.000	0.008	-0.099
-604.142	-16.874	0.090	-0.057
-603.128	510.779	0.110	-0.255
-602.113	75.580	-0.090	0.095
-601.098	205.985	0.139	-0.216
-600.084	111.546	-0.075	-0.091
-599.069	211.281	-0.163	-0.257
-598.055	514.602	0.093	-0.216
-597.040	291.630	0.138	-0.251
-596.025	-48.944	-0.198	-0.095
-595.011	58.276	-0.237	0.232
-593.996	148.880	0.279	0.376
-592.982	-45.926	0.181	-0.089
-591.967	-27.492	0.247	0.143
-590.952	-69.197	0.070	-0.027
-589.938	-47.525	-0.354	-0.172
-588.923	-19.303	-0.190	-0.117
-587.909	-46.235	0.402	0.197
-586.894	800.000	-0.114	-0.368
-585.879	-133.304	0.107	0.013
-584.865	-136.449	-0.226	-0.026
-583.850	157.062	0.061	0.084
-582.836	345.688	-0.124	-0.242
-581.821	35.493	0.055	-0.049
-580.806	-66.468	-0.414	-0.164
-579.792	-200.000	0.023	0.196
-578.777	431.887	0.135	0.291
-577.763	81.818	-0.135	-0.146
-576.748	27.762	-0.180	0.151
-575.733	-100.784	0.233	0.057
-574.719	-125.115	0.191	-0.029
-573.704	-88.811	0.163	-0.048
-572.690	800.000	-0.039	0.155
-571.675	800.000	-0.041	-0.139
-570.661	58.482	-0.069	0.067
-569.646	125.906	0.190	0.239
-568.631	174.572	-0.137	0.197
-567.617	11.554	-0.152	-0.116
-566.602	-141.187	-0.188	-0.019
-565.588	-75.862	-0.341	0.120
-564.573	-23.230	0.269	0.161
-563.558	245.486	0.104	-0.174
-562.544	-40.697	-0.134	-0.069
-561.529	-93.511	0.298	0.082
-560.515	-68.858	0.180	-0.069
-559.500	-85.092	-0.189	-0.059
-558.485	-150.504	-0.326	0.025
-557.471	771.024	0.025	0.069
-556.456	-200.000	0.015	-0.098
-555.442	184.892	0.158	0.233
-554.427	14.725	0.116	-0.091
-553.412	327.066	-0.250	-0.477
-552.398	-200.000	0.029	0.129
-551.383	-200.000	-0.029	0.310
-550.369	-79.432	-0.083	0.028
-549.354	-200.000	-0.003	-0.145
-548.339	158.678	0.006	-0.008
-547.325	69.812	-0.093	0.096
-546.310	413.459	0.073	-0.155
-545.296	-200.000	-0.032	0.168
-544.281	115.683	-0.171	0.208
-543.266	44.190	0.259	-0.237
-542.252	422.711	-0.113	0.242
-541.237	307.801	-0.210	-0.390
-540.223	-120.930	0.244	0.041
-539.208	800.000	-0.047	-0.197
-538.193	-176.770	-0.296	-0.008
-537.179	-72.679	0.158	0.058
-536.164	-74.246	0.103	-0.037
-535.150	-121.430	0.319	-0.053
-534.135	-130.433	-0.160	0.022
-533.121	210.831	-0.368	0.576
-532.106	-200.000	0.004	0.068
-531.091	217.061	0.090	0.142
-530.077	63.668	-0.197	-0.197
-529.062	231.335	0.196	-0.320
-528.048	270.414	0.149	-0.260
-527.033	-185.036	-0.182	0.003
-526.018	-200.000	0.002	0.113
-525.004	-10.589	0.038	0.025
-523.989	-125.607	-0.249	0.038
-522.975	-59.072	-0.057	0.024
-521.960	-134.280	-0.082	0.010
-520.945	-5.048	-0.379	0.259
-519.931	295.376	-0.101	0.184
-518.916	-53.263	0.363	0.166
-517.902	-81.949	-0.353	-0.115
-516.887	800.000	-0.060	0.191
-515.872	628.126	0.142	0.358
-514.858	-58.787	-0.177	-0.076
-513.843	107.656	-0.255	-0.301
-512.829	-200.000	-0.042	-0.185
-511.814	-200.000	-0.047	-0.233
-510.799	216.786	-0.202	-0.319
-509.785	-41.717	-0.174	-0.089
-508.770	747.610	0.041	0.109
-507.756	-158.599	0.069	-0.004
-506.741	-163.217	-0.237	0.011
-505.726	22.833	0.199	-0.162
-504.712	-150.504	0.248	0.019
-503.697	-65.144	0.151	-0.061
-502.683	419.018	0.147	-0.312
-501.668	240.288	-0.128	-0.213
-500.653	725.638	-0.107	-0.283
-499.639	-200.000	0.040	-0.326
-498.624	158.576	-0.133	0.184
-497.610	93.200	0.099	-0.111
-496.595	800.000	-0.114	-0.360
-495.581	789.222	-0.067	0.183
-494.566	-200.000	-0.025	-0.158
-493.551	800.000	0.012	-0.041
-492.537	173.066	-0.362	-0.518
-491.522	434.389	0.101	0.218
-490.508	-19.583	-0.366	-0.225
-489.493	690.429	0.093	-0.241
-488.478	205.408	-0.038	-0.058
-487.464	800.000	0.067	-0.250
-486.449	-200.000	-0.031	-0.185
-485.435	617.775	0.148	-0.369
-484.420	-91.134	-0.290	-0.083
-483.405	-8.048	0.285	-0.191
-482.391	800.000	0.116	-0.348
-481.376	-115.203	0.244	-0.046
-480.362	-104.530	-0.319	-0.073
-479.347	172.141	-0.102	-0.145
-478.332	2.759	0.143	0.103
-477.318	-47.917	0.222	-0.107
-476.303	-200.000	0.039	0.192
-475.289	449.175	-0.100	0.219
-474.274	-200.000	-0.002	0.061
-473.259	-81.224	0.347	0.114
-472.245	536.099	0.113	0.267
-471.230	-32.720	-0.120	0.066
-470.216	-176.390	-0.249	0.006
-469.201	-200.000	-0.018	-0.171
-468.186	-87.236	0.070	-0.021
-467.172	-156.492	0.227	-0.014
-466.157	-132.511	0.232	0.030
-465.143	-48.488	-0.122	0.058
-464.128	140.397	0.021	0.028
-463.113	655.800	-0.058	0.149
-462.099	-200.000	0.019	0.086
-461.084	186.114	-0.062	0.092
-460.070	800.000	-0.070	0.227
-459.055	155.514	-0.247	0.337
-458.040	-52.561	0.139	-0.064
-457.026	800.000	0.047	-0.143
-456.011	-0.913	0.231	0.162
-454.997	213.657	-0.132	0.207
-453.982	800.000	-0.099	-0.368
-452.968	310.759	-0.069	0.128
-451.953	102.150	-0.265	-0.308
-450.938	144.965	0.104	0.138
-449.924	236.913	-0.085	0.140
-448.909	-200.000	-0.058	0.263
-447.895	-11.220	0.145	0.094
-446.880	-53.399	-0.266	-0.121
-445.865	336.959	0.111	0.213
-444.851	38.001	-0.078	0.069
-443.836	219.641	-0.199	-0.316
-442.822	-5.549	0.117	0.080
-441.807	75.164	-0.162	-0.169
-440.792	135.233	0.108	0.139
-439.778	-66.525	0.077	-0.030
-438.763	-73.996	-0.305	-0.110
-437.749	-200.000	0.005	-0.191
-436.734	73.812	0.111	-0.115
-435.719	-94.279	0.067	-0.018
-434.705	159.276	-0.159	-0.219
-433.690	391.796	0.125	-0.258
-432.676	800.000	-0.117	-0.359
-431.661	-127.466	0.130	-0.019
-430.646	800.000	-0.105	-0.437
-429.632	-46.185	-0.382	-0.186
-428.617	-92.861	-0.302	0.084
-427.603	-184.834	0.200	0.003
-426.588	-9.241	-0.309	0.205
-425.573	-200.000	0.032	0.145
-424.559	143.869	-0.046	0.060
-423.544	-200.000	-0.013	-0.301
-422.530	-200.000	0.020	-0.260
-421.515	26.181	-0.142	-0.117
-420.500	502.211	0.216	-0.495
-419.486	266.848	0.254	0.440
-418.471	-83.816	0.171	0.054
-417.457	-172.912	0.407	0.013
-416.442	481.269	-0.078	0.175
-415.428	800.000	0.057	0.175
-414.413	482.456	-0.226	0.509
-413.398	-6.955	-0.214	0.144
-412.384	-166.800	-0.158	-0.006
-411.369	39.080	-0.146	0.129
-410.355	-3.931	0.085	0.059
-409.340	161.396	-0.227	0.315
-408.325	97.563	-0.075	-0.086
-407.311	57.182	-0.141	0.136
-406.296	64.604	0.335	0.335
-405.282	-200.000	-0.018	-0.235
-404.267	800.000	-0.030	0.105
-403.252	299.085	-0.087	0.158
-402.238	50.645	0.197	-0.185
-401.223	156.475	0.025	0.034
-400.209	-38.039	0.330	0.174
-399.194	593.495	-0.090	-0.221
-398.179	-200.000	0.036	0.360
-397.165	141.307	-0.170	-0.222
-396.150	-90.213	0.182	-0.053
-395.136	-106.240	-0.435	-0.097
-394.121	-76.551	0.200	-0.070
-393.106	574.944	0.067	0.161
-392.092	21.017	0.064	-0.051
-391.077	4.407	-0.063	0.046
-390.063	-65.334	-0.243	0.097
-389.048	-125.664	-0.168	0.025
-388.033	535.930	0.040	-0.094
-387.019	-122.320	0.208	0.034
-386.004	434.218	-0.091	0.197
-384.990	135.370	0.106	0.137
-383.975	-130.484	-0.052	-0.007
-382.960	-95.967	-0.171	-0.045
-381.946	-76.877	-0.189	-0.065
-380.931	-77.751	0.230	0.079
-379.917	-24.064	0.233	0.138
-378.902	-93.629	-0.262	0.071
-377.888	-200.000	-0.003	0.129
-376.873	-80.056	-0.248	-0.082
-375.858	-200.000	0.336	-0.001
-374.844	209.404	0.125	0.193
-373.829	800.000	0.034	-0.116
-372.815	268.044	-0.055	-0.095
-371.800	430.533	0.048	0.102
-370.785	96.823	0.022	0.025
-369.771	-200.000	0.004	-0.416
-368.756	421.235	0.085	-0.181
-367.742	-113.439	-0.254	-0.049
-366.727	-132.698	0.275	0.035
-365.712	800.000	-0.072	-0.211
-364.698	-200.000	0.008	-0.143
-363.683	-200.000	-0.085	-0.416
-362.669	-14.351	0.109	0.070
-361.654	-200.000	-0.096	-0.000
-360.639	16.349	-0.163	0.127
-359.625	-109.858	-0.236	0.049
-358.610	-200.000	0.003	-0.171
-357.596	-30.462	0.207	0.116
-356.581	105.747	-0.099	0.116
-355.566	800.000	-0.103	0.433
-354.552	-200.000	0.035	0.275
-353.537	800.000	-0.038	-0.121
-352.523	-137.370	-0.162	-0.018
-351.508	-200.000	-0.006	-0.097
-350.493	800.000	0.030	0.115
-349.479	115.063	0.108	0.131
-348.464	250.858	-0.114	-0.191
-347.450	-118.859	-0.449	0.078
-346.435	68.316	0.128	-0.130
-345.420	89.795	-0.109	-0.121
-344.406	742.235	0.067	0.177
-343.391	-189.803	0.258	-0.003
-342.377	60.122	-0.187	-0.182
-341.362	-165.493	-0.284	-0.012
-340.348	-200.000	0.014	-0.458
-339.333	800.000	0.013	-0.044
-338.318	-93.851	-0.038	0.010
-337.304	449.704	-0.038	0.084
-336.289	-168.948	0.244	-0.009
-335.275	391.846	0.040	-0.083
-334.260	-24.970	0.131	0.077
-333.245	296.439	0.061	0.111
-332.231	254.839	0.170	0.287
-331.216	-35.531	-0.133	-0.071
-330.202	652.331	-0.060	0.152
-329.187	-30.509	0.119	0.067
-328.172	560.612	-0.082	0.195
-327.158	-27.736	0.259	0.149
-326.143	57.006	-0.152	-0.146
-325.129	-108.601	-0.265	-0.056
-324.114	-200.000	0.033	0.186
-323.099	-149.135	-0.142	-0.011
-322.085	-41.479	0.257	0.131
-321.070	742.170	-0.057	0.150
-320.056	-27.531	-0.413	-0.237
-319.041	-9.235	0.084	-0.055
-318.026	800.000	-0.093	0.284
-317.012	25.368	-0.287	0.235
-315.997	-200.000	-0.050	0.312
-314.983	-200.000	0.043	0.239
-313.968	800.000	-0.041	0.131
-312.953	-153.631	0.019	-0.001
-311.939	800.000	0.071	0.197
-310.924	-128.864	0.382	-0.053
-309.910	63.729	-0.237	-0.235
-308.895	-145.189	0.399	-0.036
-307.880	44.002	0.119	0.108
-306.866	-82.558	-0.137	0.044
-305.851	74.217	-0.172	-0.178
-304.837	-79.712	0.319	-0.106
-303.822	-121.964	0.238	-0.039
-302.807	175.491	-0.124	0.177
-301.793	800.000	0.059	-0.214
-300.778	-200.000	0.013	0.408
-299.764	-80.874	0.397	0.130
-298.749	800.000	0.079	0.248
-297.735	155.694	-0.124	0.169
-296.720	561.983	-0.022	-0.052
-295.705	122.631	0.309	-0.381
-294.691	3.307	-0.076	-0.054
-293.676	431.392	-0.031	-0.067
-292.662	66.042	0.306	0.306
-291.647	800.000	0.066	0.284
-290.632	89.490	0.092	-0.101
-289.618	28.925	0.112	-0.094
-288.603	-66.711	0.190	0.074
-287.589	800.000	-0.095	0.264
-286.574	-100.161	0.094	-0.023
-285.559	-29.112	0.107	0.060
-284.545	481.021	0.068	-0.152
-283.530	-200.000	-0.063	-0.327
-282.516	-118.853	-0.108	-0.019
-281.501	225.790	-0.061	-0.098
-280.486	-200.000	0.015	0.101
-279.472	-154.828	-0.160	0.010
-278.457	-109.696	-0.209	0.043
-277.443	-149.649	0.158	-0.012
-276.428	113.612	0.256	0.307
-275.413	-200.000	0.063	0.321
-274.399	-200.000	-0.003	0.092
-273.384	-57.320	-0.155	-0.067
-272.370	34.309	0.198	0.170
-271.355	-200.000	0.000	-0.091
-270.340	-150.275	0.179	-0.014
-269.326	-12.001	0.145	0.093
-268.311	800.000	-0.064	0.205
-267.297	-97.791	0.275	-0.070
-266.282	800.000	0.015	-0.053
-265.267	298.874	-0.125	-0.227
-264.253	15.194	0.315	0.243
-263.238	-200.000	-0.035	0.219
-262.224	-32.386	-0.231	-0.127
-261.209	-180.160	-0.073	0.002
-260.195	599.636	-0.079	0.193
-259.180	800.000	-0.051	-0.192
-258.165	304.294	-0.155	0.283
-257.151	800.000	0.061	0.190
-256.136	353.280	0.203	0.397
-255.122	11.509	0.097	-0.073
-254.107	-65.628	-0.240	-0.095
-253.092	268.470	-0.202	0.349
-252.078	361.556	0.083	0.164
-251.063	116.296	-0.133	0.161
-250.049	-50.560	-0.034	-0.016
-249.034	179.668	0.144	0.207
-248.019	-200.000	-0.034	0.195
-247.005	-137.540	-0.189	0.021
-245.990	800.000	-0.095	-0.273
-244.976	-82.321	-0.057	-0.018
-243.961	-200.000	-0.030	-0.148
-242.946	116.850	-0.183	0.221
-241.932	67.497	-0.061	-0.061
-240.917	-200.000	-0.014	-0.422
-239.903	800.000	0.070	-0.214
-238.888	-166.580	0.363	0.015
-237.873	50.620	-0.249	0.232
-236.859	3.177	0.312	-0.223
-235.844	292.712	-0.068	-0.122
-234.830	800.000	-0.068	-0.248
-233.815	-160.360	0.094	-0.005
-232.800	-200.000	0.018	-0.157
-231.786	-200.000	0.041	-0.331
-230.771	11.582	-0.125	0.094
-229.757	-11.038	0.114	0.074
-228.742	88.490	-0.189	0.206
-227.727	-73.498	0.154	0.055
-226.713	209.947	-0.154	0.237
-225.698	-36.680	-0.134	0.071
-224.684	669.023	0.048	0.121
-223.669	800.000	0.054	-0.214
-222.655	193.748	0.192	-0.285
-221.640	-200.000	-0.033	-0.272
-220.625	-108.449	0.126	0.027
-219.611	328.705	0.160	0.302
-218.596	800.000	-0.028	-0.102
-217.582	451.049	-0.156	-0.339
-216.567	272.793	0.045	-0.078
-215.552	746.340	0.103	0.273
-214.538	13.773	0.142	-0.109
-213.523	-43.221	0.275	0.137
-212.509	-109.751	-0.370	0.077
-211.494	-200.000	0.048	-0.418
-210.479	5.110	0.337	-0.244
-209.465	-126.132	0.107	-0.016
-208.450	285.309	0.131	-0.233
-207.436	-82.896	0.326	-0.103
-206.421	71.227	0.183	-0.187
-205.406	-64.293	-0.242	-0.097
-204.392	-200.000	-0.015	-0.071
-203.377	-116.440	-0.299	-0.054
-202.363	-200.000	0.017	-0.286
-201.348	800.000	0.043	0.129
-200.333	-42.008	0.255	0.128
-199.319	160.916	0.115	0.157
-198.304	210.418	-0.072	-0.111
-197.290	49.553	0.149	0.138
-196.275	-106.024	0.235	0.052
-195.260	141.932	0.112	-0.146
-194.246	-200.000	-0.019	-0.085
-193.231	-200.000	-0.081	-0.471
-192.217	-171.962	0.243	0.008
-191.202	176.464	-0.127	-0.181
-190.187	-47.631	0.152	0.072
-189.173	301.549	-0.121	-0.219
-188.158	180.028	0.389	0.559
-187.144	243.588	-0.123	0.203
-186.129	-115.668	0.495	-0.091
-185.114	-96.131	-0.258	-0.067
-184.100	107.038	-0.225	0.262
-183.085	-148.357	-0.169	-0.014
-182.071	-115.240	0.217	-0.040
-181.056	-38.969	0.221	0.114
-180.042	26.426	0.113	-0.093
-179.027	-179.788	0.067	-0.001
-178.012	204.858	-0.166	0.253
-176.998	800.000	0.044	0.146
-175.983	-200.000	0.012	0.270
-174.969	-200.000	0.032	0.351
-173.954	243.497	-0.068	0.112
-172.939	74.718	-0.187	0.193
-171.925	-200.000	-0.007	-0.050
-170.910	-200.000	0.044	-0.253
-169.896	17.465	-0.035	-0.027
-168.881	13.485	-0.016	-0.012
-167.866	360.733	-0.033	0.066
-166.852	275.632	0.089	-0.154
-165.837	-80.189	0.149	0.049
-164.823	81.989	0.114	0.121
-163.808	31.492	0.172	0.145
-162.793	-200.000	0.028	0.253
-161.779	1.618	0.173	0.122
-160.764	-49.991	-0.067	-0.031
-159.750	-200.000	0.018	0.201
-158.735	-200.000	0.041	0.267
-157.720	-200.000	0.029	0.135
-156.706	-124.793	-0.153	0.023
-155.691	49.201	0.105	0.096
-154.677	-46.364	0.176	0.085
-153.662	6.531	-0.035	-0.026
-152.647	467.040	0.069	0.151
-151.633	800.000	0.146	0.541
-150.618	-114.888	-0.144	0.027
-149.604	116.657	0.189	-0.228
-148.589	342.642	0.066	-0.126
-147.574	-68.155	-0.097	0.037
-146.560	-0.642	-0.102	0.071
-145.545	-131.010	-0.264	0.034
-144.531	-200.000	-0.036	-0.319
-143.516	185.821	-0.164	0.240
-142.502	33.820	-0.039	0.033
-141.487	-110.324	0.121	-0.025
-140.472	89.818	-0.077	0.084
-139.458	-200.000	0.056	-0.242
-138.443	-200.000	-0.019	-0.119
-137.429	-17.717	0.204	-0.125
-136.414	376.913	-0.168	0.336
-135.399	-151.693	0.284	-0.020
-134.385	327.113	0.039	-0.073
-133.370	-200.000	-0.016	0.180
-132.356	-80.571	-0.241	-0.078
-131.341	160.799	-0.082	-0.112
-130.326	-47.057	0.113	0.054
-129.312	-55.814	0.286	-0.125
-128.297	378.632	0.068	0.136
-127.283	-200.000	-0.006	0.178
-126.268	-200.000	-0.000	-0.090
-125.253	-33.691	0.183	0.099
-124.239	491.343	0.080	-0.180
-123.224	-59.558	0.114	-0.048
-122.210	470.064	-0.016	0.036
