DTS Sentinel unit serial number:	SN413079Multiplexer serial number:	ORYXHardware model number:	OX4-SRSoftware version number:	ORYX F/W v4.00 Oryx Data Collector v3.7.2.0data status	okinstallation	princeton_trtdifferential loss correction	single-endedforward channel	channel 1reverse channel	N/Adate	2019/09/19time	11:46:35forward acquisition time	60.00reverse acquisition time	0.00gamma	496.2192k internal	0.2337k external	0.2337temperature offset calibration	1.0010default loss term (dB/km)	0.3790temperature slope calibration	1.0000multiplexer offset coefficient	1.0000multiplexer slope coefficient	1.0000fibre end	0.00T internal ref (°C)	25.73T ext. ref 1 (°C)	0.81T ext. ref 2 (°C)	21.61length (m)	temperature (°C)	Stokes	anti-Stokes-747.200	25.768	-0.148	-0.123
-746.185	259.764	0.139	0.240
-745.171	-77.656	0.069	0.024
-744.156	-55.371	-0.243	0.110
-743.142	-39.830	-0.015	0.008
-742.127	50.426	-0.188	0.178
-741.112	-170.391	-0.408	-0.014
-740.098	19.787	-0.250	0.202
-739.083	-100.116	0.207	0.052
-738.069	-200.000	0.029	0.254
-737.054	-10.457	0.316	-0.210
-736.039	29.655	-0.223	-0.190
-735.025	800.000	-0.130	0.405
-734.010	-5.130	0.086	-0.059
-732.996	800.000	0.076	0.231
-731.981	542.874	-0.034	0.082
-730.966	-24.740	-0.273	-0.163
-729.952	-18.403	-0.263	-0.165
-728.937	800.000	0.072	-0.253
-727.923	-23.475	0.284	0.171
-726.908	-124.910	-0.245	-0.038
-725.894	136.542	-0.233	-0.305
-724.879	32.756	-0.224	-0.195
-723.864	102.077	0.222	-0.260
-722.850	90.372	-0.137	-0.153
-721.835	-20.789	-0.132	0.081
-720.821	-68.539	-0.046	0.018
-719.806	14.810	0.095	-0.075
-718.791	-70.134	-0.022	-0.008
-717.777	-75.145	-0.145	0.052
-716.762	-35.097	0.144	-0.079
-715.748	128.969	0.199	-0.254
-714.733	-4.729	0.150	-0.104
-713.718	-67.608	0.184	-0.072
-712.704	800.000	0.101	-0.305
-711.689	281.116	0.169	0.303
-710.675	187.698	-0.150	-0.225
-709.660	-200.000	-0.020	-0.102
-708.645	-47.158	0.144	-0.070
-707.631	122.948	-0.116	0.145
-706.616	118.074	0.122	-0.151
-705.602	-2.701	-0.314	-0.220
-704.587	320.079	0.099	-0.189
-703.572	-78.260	0.144	-0.050
-702.558	195.632	-0.072	-0.110
-701.543	800.000	0.069	-0.278
-700.529	10.279	0.142	-0.108
-699.514	-200.000	-0.002	-0.199
-698.499	-200.000	0.069	-0.304
-697.485	-90.194	-0.324	-0.094
-696.470	6.539	-0.146	-0.109
-695.456	-200.000	0.001	-0.252
-694.441	-46.619	0.106	0.052
-693.426	18.216	0.076	0.061
-692.412	-154.100	-0.318	-0.022
-691.397	117.525	-0.062	0.076
-690.383	-65.659	0.090	-0.036
-689.368	319.041	0.024	0.046
-688.354	734.055	0.079	-0.213
-687.339	-200.000	-0.045	-0.395
-686.324	-200.000	-0.021	0.092
-685.310	85.615	-0.127	-0.140
-684.295	-200.000	-0.017	0.124
-683.281	59.610	0.374	-0.369
-682.266	800.000	0.068	0.202
-681.251	1.392	-0.175	0.126
-680.237	538.272	0.107	0.254
-679.222	169.555	-0.081	-0.116
-678.208	40.271	0.298	-0.268
-677.193	-46.504	-0.283	-0.139
-676.178	-140.872	0.083	-0.009
-675.164	-124.123	0.101	-0.016
-674.149	15.720	-0.285	-0.224
-673.135	-197.102	-0.175	0.001
-672.120	230.988	0.103	-0.169
-671.105	53.363	0.220	-0.211
-670.091	-169.694	0.273	0.010
-669.076	-103.230	0.042	0.010
-668.062	-184.697	-0.217	-0.003
-667.047	-200.000	0.017	0.175
-666.032	800.000	-0.112	0.343
-665.018	-130.185	-0.412	0.056
-664.003	800.000	0.057	-0.205
-662.989	-65.270	-0.200	-0.081
-661.974	-68.056	-0.065	-0.025
-660.959	-59.896	0.144	-0.062
-659.945	-133.873	-0.169	-0.021
-658.930	-95.558	0.326	0.087
-657.916	107.316	0.189	-0.224
-656.901	-139.318	-0.389	-0.042
-655.886	-133.585	0.401	0.050
-654.872	607.802	0.138	0.345
-653.857	-89.050	-0.092	-0.027
-652.843	800.000	0.159	0.471
-651.828	-112.512	0.108	-0.022
-650.814	-200.000	0.068	0.432
-649.799	128.240	-0.223	-0.284
-648.784	54.194	0.268	-0.258
-647.770	-123.054	0.528	0.085
-646.755	-200.000	-0.022	-0.202
-645.741	373.109	0.193	-0.393
-644.726	269.615	-0.101	0.177
-643.711	134.338	-0.182	0.236
-642.697	-149.149	-0.203	0.016
-641.682	-7.157	0.102	-0.069
-640.668	-200.000	-0.069	-0.332
-639.653	800.000	-0.066	0.278
-638.638	-171.269	-0.449	-0.015
-637.624	45.645	0.175	0.162
-636.609	-0.305	-0.072	-0.051
-635.595	774.602	0.166	-0.452
-634.580	-14.491	-0.290	-0.186
-633.565	-121.972	-0.302	0.050
-632.551	-100.595	-0.185	-0.046
-631.536	10.384	-0.127	0.097
-630.522	-65.524	0.115	0.046
-629.507	43.697	0.115	-0.105
-628.492	-12.914	0.296	0.193
-627.478	-133.663	-0.434	-0.054
-626.463	-11.665	0.031	0.020
-625.449	10.220	-0.052	0.040
-624.434	-200.000	-0.051	0.283
-623.419	-135.017	0.040	0.005
-622.405	-200.000	0.000	0.200
-621.390	470.905	0.237	-0.533
-620.376	-47.808	-0.049	-0.024
-619.361	159.698	-0.064	0.089
-618.346	-200.000	0.568	-0.002
-617.332	48.624	-0.236	-0.221
-616.317	-34.056	-0.078	-0.043
-615.303	182.647	-0.051	-0.075
-614.288	-61.463	-0.113	-0.048
-613.273	70.718	-0.100	0.103
-612.259	53.811	0.303	-0.290
-611.244	83.684	-0.124	0.135
-610.230	137.501	0.066	-0.086
-609.215	-12.311	0.019	0.012
-608.201	70.887	0.314	0.325
-607.186	800.000	0.055	0.186
-606.171	172.802	-0.140	0.202
-605.157	96.212	0.097	-0.111
-604.142	457.550	-0.080	0.178
-603.128	-10.319	-0.213	-0.141
-602.113	-80.446	0.242	-0.081
-601.098	-161.822	0.166	0.008
-600.084	-166.425	0.055	0.002
-599.069	105.527	-0.098	0.116
-598.055	56.871	-0.159	0.154
-597.040	-65.199	-0.185	0.074
-596.025	-149.946	0.113	-0.009
-595.011	-33.938	0.160	0.088
-593.996	13.757	-0.177	0.137
-592.982	747.213	-0.126	0.339
-591.967	337.360	0.141	0.274
-590.952	800.000	0.124	-0.530
-589.938	-91.497	-0.030	0.009
-588.923	169.104	0.133	-0.189
-587.909	-14.854	-0.207	0.132
-586.894	-114.265	-0.112	-0.022
-585.879	143.355	0.039	-0.052
-584.865	11.787	-0.139	-0.106
-583.850	42.210	-0.044	0.040
-582.836	-155.699	0.108	0.007
-581.821	-122.443	-0.138	-0.022
-580.806	-140.982	-0.120	-0.012
-579.792	224.240	-0.146	0.235
-578.777	3.059	0.162	-0.117
-577.763	-24.534	0.114	0.068
-576.748	102.104	0.164	0.191
-575.733	-200.000	0.020	-0.223
-574.719	800.000	-0.062	0.172
-573.704	676.286	0.143	-0.370
-572.690	305.215	-0.100	-0.186
-571.675	-200.000	0.032	-0.286
-570.661	-72.584	0.074	-0.027
-569.646	-200.000	0.056	-0.265
-568.631	106.061	0.261	-0.308
-567.617	577.904	-0.078	0.191
-566.602	121.477	0.108	0.135
-565.588	-86.297	-0.103	-0.032
-564.573	-50.030	-0.242	0.114
-563.558	-200.000	0.005	-0.346
-562.544	-200.000	-0.003	0.576
-561.529	70.552	0.052	-0.054
-560.515	186.833	-0.040	0.059
-559.500	396.290	0.166	-0.346
-558.485	-114.988	-0.205	-0.039
-557.471	-115.789	0.278	-0.052
-556.456	53.696	-0.142	0.136
-555.442	-200.000	0.018	0.172
-554.427	-200.000	0.009	-0.154
-553.412	208.010	-0.146	-0.227
-552.398	249.716	0.144	-0.243
-551.383	742.524	0.047	0.125
-550.369	800.000	-0.010	0.045
-549.354	-128.729	0.213	0.030
-548.339	63.452	0.266	0.266
-547.325	-200.000	0.036	-0.187
-546.310	57.193	0.206	0.200
-545.296	-200.000	0.001	-0.096
-544.281	528.355	-0.129	-0.302
-543.266	-176.269	0.569	0.015
-542.252	-13.388	0.053	0.034
-541.237	800.000	0.022	-0.093
-540.223	312.914	0.133	0.248
-539.208	-18.835	0.322	0.199
-538.193	-91.469	-0.080	-0.023
-537.179	-93.239	-0.057	0.016
-536.164	151.687	-0.043	0.058
-535.150	-24.662	0.169	-0.100
-534.135	-99.501	0.188	-0.047
-533.121	-64.627	-0.512	-0.207
-532.106	800.000	0.034	0.132
-531.091	-51.102	0.205	-0.096
-530.077	-200.000	0.014	0.146
-529.062	800.000	-0.051	0.178
-528.048	8.390	-0.140	0.105
-527.033	-72.417	0.112	-0.041
-526.018	-200.000	0.008	0.292
-525.004	-139.354	0.102	0.011
-523.989	-127.089	-0.179	0.026
-522.975	-24.190	0.326	-0.194
-521.960	23.132	0.207	-0.169
-520.945	-74.423	0.276	-0.099
-519.931	-13.683	-0.211	-0.136
-518.916	75.876	-0.026	0.028
-517.902	78.228	0.071	-0.075
-516.887	-200.000	-0.017	0.155
-515.872	106.902	0.123	0.145
-514.858	9.511	0.305	0.229
-513.843	-135.458	-0.274	0.032
-512.829	-200.000	-0.008	-0.048
-511.814	14.384	-0.103	0.080
-510.799	99.363	-0.129	-0.148
-509.785	566.812	0.027	-0.066
-508.770	-25.454	0.155	-0.091
-507.756	-35.886	0.253	0.136
-506.741	-154.238	-0.233	-0.016
-505.726	-123.959	0.438	0.069
-504.712	-200.000	0.050	0.386
-503.697	-22.499	-0.325	0.196
-502.683	-90.822	-0.057	-0.016
-501.668	-65.179	0.296	-0.119
-500.653	506.144	-0.088	0.203
-499.639	334.356	0.042	-0.081
-498.624	-38.890	0.092	0.048
-497.610	106.414	-0.080	0.094
-496.595	-200.000	0.015	0.210
-495.581	288.944	-0.016	0.029
-494.566	60.943	0.172	0.170
-493.551	-104.363	-0.139	0.032
-492.537	-200.000	-0.013	0.364
-491.522	-129.803	-0.102	-0.014
-490.508	-200.000	-0.001	0.026
-489.493	-155.110	-0.074	0.005
-488.478	-94.218	-0.217	-0.059
-487.464	308.624	-0.056	0.104
-486.449	800.000	-0.049	0.196
-485.435	123.423	0.360	-0.449
-484.420	-52.304	-0.042	-0.019
-483.405	-146.214	0.135	0.012
-482.391	312.933	-0.112	-0.209
-481.376	800.000	-0.040	0.116
-480.362	-94.580	-0.258	0.070
-479.347	723.858	0.083	0.219
-478.332	285.449	0.067	0.120
-477.318	-109.651	0.105	0.022
-476.303	-200.000	-0.082	-0.367
-475.289	-200.000	-0.002	0.181
-474.274	-40.536	-0.259	0.133
-473.259	132.702	-0.158	0.202
-472.245	-157.877	-0.186	0.011
-471.230	-200.000	-0.010	0.050
-470.216	132.476	-0.248	-0.318
-469.201	68.152	0.167	0.170
-468.186	189.047	-0.169	0.251
-467.172	179.822	0.144	0.209
-466.157	-149.083	-0.029	-0.002
-465.143	187.254	-0.077	0.114
-464.128	-51.897	-0.192	-0.088
-463.113	-200.000	0.028	0.259
-462.099	589.755	0.087	-0.212
-461.084	-200.000	-0.032	-0.223
-460.070	-121.995	0.158	-0.026
-459.055	26.737	-0.114	0.095
-458.040	351.442	-0.141	-0.277
-457.026	-1.774	-0.122	0.085
-456.011	169.798	0.299	-0.424
-454.997	800.000	-0.107	-0.307
-453.982	-74.198	0.356	-0.128
-452.968	-120.466	0.235	0.040
-451.953	14.512	-0.328	0.254
-450.938	-140.757	-0.056	0.006
-449.924	-96.776	-0.111	-0.029
-448.909	-11.698	-0.111	-0.072
-447.895	303.185	-0.084	-0.154
-446.880	-22.880	0.068	-0.041
-445.865	127.227	0.057	-0.072
-444.851	538.049	0.098	-0.231
-443.836	-156.233	0.080	0.005
-442.822	800.000	0.075	0.313
-441.807	212.034	0.102	0.159
-440.792	-200.000	0.029	-0.250
-439.778	117.757	0.145	-0.177
-438.763	-200.000	-0.039	-0.251
-437.749	-85.007	0.182	-0.057
-436.734	-200.000	-0.039	-0.224
-435.719	-107.461	0.038	0.008
-434.705	-200.000	-0.011	-0.398
-433.690	587.900	0.045	-0.110
-432.676	-200.000	-0.002	0.155
-431.661	141.037	-0.105	-0.137
-430.646	800.000	-0.083	0.285
-429.632	43.014	0.089	0.080
-428.617	-200.000	0.035	-0.191
-427.603	36.779	-0.170	0.149
-426.588	-9.675	0.246	-0.162
-425.573	-200.000	0.040	-0.317
-424.559	60.792	0.090	0.088
-423.544	-156.300	0.305	0.019
-422.530	-59.709	-0.097	0.041
-421.515	-0.704	-0.166	-0.117
-420.500	-132.410	-0.324	-0.041
-419.486	114.721	0.191	-0.231
-418.471	-89.189	-0.301	-0.088
-417.457	-170.298	-0.292	0.010
-416.442	658.029	0.157	0.399
-415.428	65.716	-0.162	0.163
-414.413	-200.000	-0.024	0.332
-413.398	800.000	0.015	-0.051
-412.384	7.411	0.251	-0.186
-411.369	-200.000	0.031	0.174
-410.355	-15.366	-0.362	0.229
-409.340	136.267	-0.163	0.210
-408.325	-177.012	0.254	-0.006
-407.311	493.445	0.144	-0.327
-406.296	-132.954	-0.182	-0.023
-405.282	-11.913	-0.255	0.166
-404.267	-140.668	0.247	-0.025
-403.252	13.554	-0.108	0.083
-402.238	800.000	0.052	-0.211
-401.223	291.264	-0.020	0.036
-400.209	-137.435	-0.124	-0.014
-399.194	174.246	-0.122	0.174
-398.179	-87.625	-0.300	0.090
-397.165	-112.994	0.033	0.006
-396.150	9.925	-0.058	-0.044
-395.136	189.026	-0.103	-0.153
-394.121	-57.366	-0.381	-0.166
-393.106	-200.000	0.022	0.121
-392.092	-200.000	0.011	0.081
-391.077	138.872	0.133	-0.173
-390.063	800.000	-0.111	0.345
-389.048	-137.463	-0.282	0.032
-388.033	-200.000	0.020	-0.208
-387.019	-200.000	0.030	-0.158
-386.004	-17.467	-0.164	0.102
-384.990	-200.000	-0.051	0.427
-383.975	7.701	-0.009	0.007
-382.960	498.705	-0.127	-0.289
-381.946	800.000	-0.041	-0.130
-380.931	-76.891	-0.165	-0.057
-379.917	190.739	0.070	0.104
-378.902	697.009	0.030	-0.079
-377.888	-98.926	0.030	-0.007
-376.873	800.000	0.032	-0.102
-375.858	-76.806	-0.212	-0.073
-374.844	-166.136	-0.086	-0.004
-373.829	-112.117	-0.157	-0.031
-372.815	-200.000	-0.054	-0.252
-371.800	-200.000	0.002	-0.343
-370.785	800.000	-0.072	0.300
-369.771	-53.624	-0.144	0.065
-368.756	294.431	-0.049	0.088
-367.742	-200.000	0.225	0.000
-366.727	-93.350	0.261	-0.072
-365.712	-200.000	0.037	0.178
-364.698	-127.512	-0.173	0.025
-363.683	-71.979	-0.052	-0.019
-362.669	-176.964	0.277	-0.007
-361.654	-11.728	-0.201	-0.130
-360.639	-34.702	0.097	-0.053
-359.625	232.018	0.062	0.101
-358.610	43.378	0.215	0.194
-357.596	-33.062	-0.029	0.016
-356.581	26.105	0.032	0.027
-355.566	-166.109	0.207	-0.009
-354.552	-101.351	-0.233	-0.056
-353.537	800.000	-0.127	-0.508
-352.523	201.857	-0.106	-0.162
-351.508	-156.907	0.214	-0.013
-350.493	194.097	0.060	-0.090
-349.479	-200.000	0.004	-0.098
-348.464	-200.000	-0.083	-0.430
-347.450	78.167	-0.151	0.159
-346.435	780.514	-0.045	-0.121
-345.420	-70.876	0.194	-0.072
-344.406	26.472	-0.243	0.201
-343.391	-200.000	-0.010	-0.196
-342.377	-101.738	-0.111	-0.027
-341.362	572.919	-0.064	0.155
-340.348	0.544	0.181	0.128
-339.333	-200.000	-0.020	0.166
-338.318	3.698	-0.090	0.065
-337.304	-115.519	0.187	0.035
-336.289	224.177	0.086	-0.137
-335.275	-200.000	-0.231	0.001
-334.260	281.941	0.154	0.272
-333.245	-200.000	-0.021	-0.166
-332.231	-7.184	0.140	-0.094
-331.216	111.955	-0.323	0.385
-330.202	800.000	-0.076	0.273
-329.187	69.045	0.026	-0.026
-328.172	800.000	0.163	0.451
-327.158	25.792	-0.262	0.216
-326.143	-33.236	0.064	-0.035
-325.129	-33.739	0.503	-0.274
-324.114	-75.293	-0.282	-0.099
-323.099	-64.897	-0.232	-0.093
-322.085	126.258	0.029	0.036
-321.070	-59.573	-0.091	-0.038
-320.056	800.000	-0.095	0.295
-319.041	-141.380	-0.263	0.026
-318.026	111.204	0.128	0.152
-317.012	-0.131	-0.036	-0.025
-315.997	77.335	-0.218	-0.229
-314.983	-114.104	0.182	0.035
-313.968	529.207	-0.080	0.187
-312.953	-14.510	0.324	-0.206
-311.939	86.372	-0.031	0.034
-310.924	743.425	-0.008	0.023
-309.910	800.000	-0.058	0.163
-308.895	32.254	-0.156	-0.133
-307.880	19.032	-0.209	0.165
-306.866	-47.668	0.358	0.172
-305.851	-30.761	0.062	-0.034
-304.837	-200.000	0.052	-0.357
-303.822	-85.483	0.068	0.021
-302.807	-200.000	-0.020	-0.143
-301.793	46.226	-0.193	0.176
-300.778	-56.158	0.066	-0.029
-299.764	43.456	-0.252	0.227
-298.749	62.398	0.221	-0.218
-297.735	-200.000	-0.006	0.237
-296.720	-168.044	-0.172	0.007
-295.705	-76.249	-0.040	0.014
-294.691	49.197	0.137	0.127
-293.676	764.072	-0.044	0.118
-292.662	800.000	0.082	0.240
-291.647	-103.374	-0.268	0.062
-290.632	-200.000	-0.027	0.257
-289.618	-18.267	-0.270	-0.167
-288.603	-152.664	-0.301	-0.021
-287.589	800.000	-0.064	-0.259
-286.574	800.000	0.059	-0.179
-285.559	-200.000	-0.032	-0.282
-284.545	-82.364	-0.513	-0.164
-283.530	-200.000	0.042	0.303
-282.516	-200.000	0.052	0.267
-281.501	18.022	-0.111	0.087
-280.486	218.663	-0.045	0.070
-279.472	-152.750	0.065	0.005
-278.457	82.395	0.172	-0.184
-277.443	-97.931	0.369	-0.094
-276.428	-193.690	-0.150	-0.001
-275.413	800.000	-0.068	-0.267
-274.399	-185.642	-0.214	-0.003
-273.384	-179.497	0.182	-0.004
-272.370	134.897	0.076	-0.097
-271.355	-135.801	0.046	-0.005
-270.340	82.650	-0.073	0.078
-269.326	-165.693	-0.180	0.008
-268.311	-17.331	-0.137	0.085
-267.297	-70.688	-0.151	0.056
-266.282	-200.000	0.025	0.158
-265.267	-51.535	-0.211	0.097
-264.253	-200.000	-0.012	-0.089
-263.238	800.000	0.056	0.201
-262.224	-105.065	-0.342	0.077
-261.209	-121.105	-0.120	0.020
-260.195	321.734	-0.103	0.194
-259.180	800.000	-0.050	0.174
-258.165	-80.883	0.337	0.110
-257.151	-200.000	0.205	-0.001
-256.136	-200.000	-0.004	-0.165
-255.122	563.483	0.067	0.161
-254.107	-16.725	-0.127	-0.079
-253.092	-97.888	0.358	-0.091
-252.078	119.240	-0.127	0.155
-251.063	-161.415	-0.124	-0.006
-250.049	-25.724	0.268	0.155
-249.034	341.095	0.175	0.336
-248.019	-57.773	0.035	-0.015
-247.005	-64.175	0.320	0.128
-245.990	235.833	-0.191	-0.310
-244.976	157.376	0.154	0.210
-243.961	-200.000	0.047	-0.379
-242.946	4.444	0.222	0.160
-241.932	425.577	-0.062	-0.132
-240.917	-165.264	0.122	0.005
-239.903	800.000	0.016	0.063
-238.888	-74.932	0.078	-0.028
-237.873	-177.001	0.135	0.003
-236.859	58.814	0.216	0.209
-235.844	-113.708	0.104	-0.020
-234.830	-97.005	0.293	0.075
-233.815	373.386	-0.053	0.105
-232.800	-200.000	-0.011	-0.049
-231.786	42.317	0.267	0.239
-230.771	-154.403	0.008	-0.001
-229.757	-200.000	-0.033	0.255
-228.742	12.555	-0.140	-0.107
-227.727	-57.642	0.114	0.049
-226.713	200.345	-0.099	-0.149
-225.698	-132.320	0.118	0.015
-224.684	-138.383	-0.350	0.038
-223.669	-103.499	0.307	0.071
-222.655	-149.346	-0.403	-0.032
-221.640	13.250	-0.134	0.102
-220.625	39.475	-0.332	-0.293
-219.611	-68.521	-0.146	0.056
-218.596	-1.377	-0.280	0.194
-217.582	800.000	0.076	0.323
-216.567	800.000	0.041	-0.165
-215.552	-33.382	0.353	-0.192
-214.538	526.141	-0.053	-0.122
-213.523	208.686	0.071	-0.109
-212.509	273.556	-0.134	0.234
-211.494	-200.000	-0.004	-0.287
-210.479	-141.987	0.057	0.006
-209.465	-29.710	0.132	-0.074
-208.450	-200.000	0.013	-0.140
-207.436	-200.000	-0.007	0.132
-206.421	-167.021	0.342	-0.014
-205.406	469.044	-0.138	-0.304
-204.392	800.000	-0.120	-0.416
-203.377	71.691	-0.178	0.182
-202.363	-200.000	0.064	-0.336
-201.348	-139.474	0.059	0.006
-200.333	74.853	0.180	-0.186
-199.319	-200.000	0.018	-0.303
-198.304	-200.000	0.035	-0.153
-197.290	400.686	-0.146	-0.302
-196.275	-200.000	-0.006	0.153
-195.260	-55.010	0.285	-0.126
-194.246	28.264	-0.130	-0.108
-193.231	84.107	0.208	-0.224
-192.217	67.631	0.077	-0.077
-191.202	64.464	0.295	0.292
-190.187	-200.000	0.010	0.054
-189.173	112.791	-0.160	0.191
-188.158	-200.000	-0.004	-0.168
-187.144	25.849	-0.196	-0.161
-186.129	396.233	-0.109	-0.223
-185.114	720.618	-0.056	0.146
-184.100	-94.867	-0.066	-0.017
-183.085	-64.510	-0.090	0.036
-182.071	-76.660	0.218	0.075
-181.056	-138.949	-0.086	0.009
-180.042	-148.080	-0.218	0.018
-179.027	26.611	0.064	0.053
-178.012	-138.918	0.136	0.014
-176.998	-12.089	-0.093	-0.060
-175.983	-33.891	-0.043	-0.023
-174.969	199.030	0.088	0.132
-173.954	56.837	-0.205	0.196
-172.939	800.000	0.032	0.091
-171.925	-99.777	0.061	-0.015
-170.910	-200.000	-0.023	-0.120
-169.896	-2.135	-0.102	0.070
-168.881	1.631	0.136	-0.096
-167.866	-160.878	0.458	0.024
-166.852	-200.000	-0.030	-0.361
-165.837	800.000	0.194	0.526
-164.823	-119.880	0.132	0.022
-163.808	-54.784	0.112	0.049
-162.793	224.514	-0.230	0.365
-161.779	-78.777	-0.182	-0.061
-160.764	105.644	0.098	0.114
-159.750	122.484	0.135	0.165
-158.735	-67.422	0.184	0.071
-157.720	100.180	-0.138	-0.157
-156.706	344.526	0.148	0.286
-155.691	111.544	0.155	-0.183
-154.677	-200.000	-0.001	-0.112
-153.662	-168.331	0.100	-0.004
-152.647	274.478	0.124	-0.216
-151.633	117.020	0.105	0.126
-150.618	53.494	0.234	-0.220
-149.604	-200.000	-0.045	-0.339
-148.589	-52.393	-0.184	0.083
-147.574	18.437	0.188	0.147
-146.560	3.825	0.218	0.156
-145.545	67.928	-0.162	-0.162
-144.531	-76.116	0.196	0.068
-143.516	800.000	0.070	-0.229
-142.502	800.000	-0.011	-0.031
-141.487	-102.146	-0.276	-0.065
-140.472	-111.390	0.054	0.011
-139.458	-149.152	0.243	0.019
-138.443	-22.376	-0.112	0.066
-137.429	-17.212	0.042	-0.026
-136.414	-10.517	0.071	0.046
-135.399	-159.624	-0.064	-0.003
-134.385	59.687	0.316	0.306
-133.370	-200.000	0.025	0.371
-132.356	-99.241	-0.290	-0.072
-131.341	-150.245	0.071	-0.005
-130.326	362.093	0.097	-0.191
-129.312	173.738	-0.078	-0.111
-128.297	-133.770	0.099	0.012
-127.283	-116.419	0.253	0.046
-126.268	59.712	-0.208	0.201
-125.253	483.206	-0.135	-0.301
-124.239	314.161	-0.006	-0.012
-123.224	340.769	0.081	0.155
-122.210	-132.601	-0.268	0.034
