DTS Sentinel unit serial number:	SN413079Multiplexer serial number:	ORYXHardware model number:	OX4-SRSoftware version number:	ORYX F/W v4.00 Oryx Data Collector v3.7.2.0data status	okinstallation	princeton_trtdifferential loss correction	single-endedforward channel	channel 1reverse channel	N/Adate	2019/09/14time	22:26:35forward acquisition time	60.00reverse acquisition time	0.00gamma	496.2192k internal	0.2319k external	0.2319temperature offset calibration	1.0003default loss term (dB/km)	0.3790temperature slope calibration	1.0000multiplexer offset coefficient	1.0000multiplexer slope coefficient	1.0000fibre end	0.00T internal ref (°C)	32.56T ext. ref 1 (°C)	4.68T ext. ref 2 (°C)	27.52length (m)	temperature (°C)	Stokes	anti-Stokes-747.200	66.791	-0.088	0.091
-746.185	323.309	-0.075	0.145
-745.171	800.000	-0.069	-0.298
-744.156	-112.734	-0.158	0.032
-743.142	-109.944	0.316	0.067
-742.127	-109.299	0.471	0.101
-741.112	800.000	-0.080	0.237
-740.098	141.092	0.267	0.357
-739.083	-35.294	0.157	-0.087
-738.069	-200.000	0.007	0.062
-737.054	800.000	0.030	-0.089
-736.039	-70.563	-0.258	0.099
-735.025	67.151	0.130	-0.134
-734.010	-144.419	0.177	0.017
-732.996	657.417	0.076	-0.198
-731.981	-122.313	0.178	0.029
-730.966	-200.000	0.002	-0.106
-729.952	-14.964	-0.102	-0.066
-728.937	-105.386	-0.214	-0.049
-727.923	365.692	0.066	-0.135
-726.908	0.442	-0.298	-0.215
-725.894	-59.545	-0.074	-0.032
-724.879	-111.730	-0.301	-0.062
-723.864	260.055	-0.247	0.432
-722.850	-52.440	-0.222	-0.104
-721.835	800.000	-0.055	-0.167
-720.821	-40.951	0.051	-0.027
-719.806	203.110	-0.095	0.148
-718.791	800.000	0.068	-0.250
-717.777	-52.598	-0.257	0.120
-716.762	-10.879	-0.201	-0.134
-715.748	238.661	-0.072	-0.121
-714.733	-200.000	0.042	-0.193
-713.718	536.607	0.068	-0.163
-712.704	78.402	0.206	-0.222
-711.689	102.917	-0.154	0.183
-710.675	214.576	-0.139	-0.222
-709.660	-90.901	-0.125	-0.036
-708.645	-95.943	-0.173	-0.047
-707.631	-200.000	0.049	-0.267
-706.616	376.757	0.035	-0.072
-705.602	-87.880	-0.218	-0.066
-704.587	328.415	-0.086	-0.168
-703.572	-200.000	0.037	0.287
-702.558	-67.142	-0.030	-0.012
-701.543	-200.000	-0.041	-0.377
-700.529	83.064	0.086	0.094
-699.514	-184.366	-0.119	-0.002
-698.499	800.000	0.058	0.183
-697.485	-13.033	-0.224	-0.147
-696.470	12.629	-0.150	-0.117
-695.456	215.186	-0.140	0.224
-694.441	-16.013	-0.246	0.158
-693.426	-84.657	0.180	0.057
-692.412	-182.180	-0.302	0.006
-691.397	533.924	0.161	0.384
-690.383	-105.107	0.150	-0.035
-689.368	33.280	-0.289	0.253
-688.354	224.524	-0.089	-0.145
-687.339	5.048	0.061	0.046
-686.324	-31.674	0.169	0.096
-685.310	-79.290	0.049	0.017
-684.295	-104.096	-0.181	0.043
-683.281	-157.572	0.122	0.007
-682.266	18.387	0.107	0.086
-681.251	-123.746	0.372	-0.059
-680.237	-79.777	-0.361	0.123
-679.222	394.279	-0.071	-0.149
-678.208	89.392	0.032	-0.036
-677.193	-142.795	-0.041	-0.004
-676.178	-200.000	-0.004	-0.382
-675.164	-55.000	0.130	-0.059
-674.149	73.264	-0.190	0.200
-673.135	282.599	0.198	0.358
-672.120	-140.463	0.190	-0.020
-671.105	31.904	-0.206	-0.179
-670.091	42.884	0.101	0.093
-669.076	36.442	-0.136	-0.121
-668.062	-78.408	0.068	-0.024
-667.047	-49.520	-0.190	-0.091
-666.032	-2.050	0.204	0.144
-665.018	28.212	0.190	0.162
-664.003	-109.999	-0.145	0.031
-662.989	-7.171	-0.026	-0.018
-661.974	-112.752	-0.060	-0.012
-660.959	125.045	-0.128	0.163
-659.945	179.342	0.171	-0.253
-658.930	29.308	0.102	-0.087
-657.916	800.000	-0.047	0.143
-656.901	73.962	0.220	-0.233
-655.886	64.671	-0.226	-0.230
-654.872	477.471	-0.152	-0.346
-653.857	-121.012	-0.436	0.074
-652.843	-6.809	0.111	-0.076
-651.828	-6.153	0.302	0.208
-650.814	136.764	-0.122	0.160
-649.799	210.646	-0.177	-0.280
-648.784	-4.234	0.296	0.206
-647.770	800.000	0.079	-0.311
-646.755	-25.478	-0.285	-0.169
-645.741	800.000	0.069	0.204
-644.726	-200.000	-0.020	-0.261
-643.711	527.534	-0.102	-0.241
-642.697	-53.507	-0.267	0.123
-641.682	271.952	-0.185	-0.328
-640.668	800.000	-0.019	-0.071
-639.653	-41.742	-0.079	-0.041
-638.638	270.151	-0.092	0.163
-637.624	117.338	0.011	0.014
-636.609	-103.733	-0.395	-0.093
-635.595	37.370	-0.170	0.151
-634.580	-200.000	0.009	-0.180
-633.565	216.344	0.053	-0.084
-632.551	-75.755	0.222	0.079
-631.536	-114.927	-0.336	-0.065
-630.522	-95.653	0.310	0.084
-629.507	447.628	-0.023	0.050
-628.492	-75.887	-0.086	-0.031
-627.478	-14.937	-0.140	-0.090
-626.463	158.915	-0.021	-0.029
-625.449	433.674	-0.059	-0.129
-624.434	54.076	0.024	0.023
-623.419	-200.000	-0.037	-0.203
-622.405	800.000	0.061	-0.258
-621.390	-103.701	0.104	0.024
-620.376	201.157	0.230	0.357
-619.361	28.903	0.168	0.143
-618.346	13.593	-0.199	-0.155
-617.332	18.764	0.151	-0.121
-616.317	441.976	0.037	-0.081
-615.303	19.493	0.065	0.053
-614.288	-126.190	-0.443	-0.067
-613.273	-136.013	-0.219	-0.026
-612.259	90.603	0.017	-0.019
-611.244	-162.850	0.171	-0.008
-610.230	555.781	-0.065	-0.157
-609.215	26.291	-0.189	-0.159
-608.201	-125.115	0.154	0.024
-607.186	-200.000	0.022	0.269
-606.171	44.860	0.073	-0.068
-605.157	800.000	0.071	0.247
-604.142	-48.348	0.460	-0.223
-603.128	-200.000	-0.062	-0.296
-602.113	-167.390	-0.067	-0.003
-601.098	-70.350	0.178	0.068
-600.084	7.484	0.164	0.124
-599.069	224.537	0.143	-0.232
-598.055	287.677	0.133	-0.241
-597.040	-111.370	0.259	-0.053
-596.025	-200.000	-0.015	-0.496
-595.011	-200.000	-0.026	0.180
-593.996	800.000	0.053	0.166
-592.982	-47.796	-0.098	0.048
-591.967	282.707	0.080	0.145
-590.952	719.844	-0.131	0.350
-589.938	-104.852	0.148	-0.034
-588.923	-130.879	-0.195	0.026
-587.909	-5.276	-0.162	-0.112
-586.894	268.960	0.066	0.117
-585.879	-37.974	-0.116	0.062
-584.865	-46.247	0.168	0.083
-583.850	587.443	-0.094	0.232
-582.836	-200.000	0.025	0.197
-581.821	-107.763	-0.466	-0.102
-580.806	-156.666	0.505	0.031
-579.792	491.752	0.126	0.291
-578.777	-200.000	0.004	0.062
-577.763	20.635	0.275	0.224
-576.748	-52.677	-0.137	-0.064
-575.733	178.747	-0.110	-0.161
-574.719	281.715	-0.179	-0.323
-573.704	-200.000	-0.014	-0.202
-572.690	264.062	-0.138	-0.241
-571.675	-47.833	0.175	0.085
-570.661	-28.083	-0.122	-0.071
-569.646	-200.000	-0.025	0.162
-568.631	-35.968	-0.042	0.023
-567.617	-70.884	0.059	-0.022
-566.602	-200.000	-0.019	0.228
-565.588	130.981	0.149	0.192
-564.573	-78.322	0.113	-0.039
-563.558	-15.876	0.068	0.044
-562.544	641.812	-0.057	-0.146
-561.529	-17.447	-0.166	-0.105
-560.515	-4.710	0.243	-0.169
-559.500	57.622	0.143	-0.141
-558.485	-126.352	-0.356	-0.053
-557.471	752.068	-0.117	0.316
-556.456	211.908	-0.055	-0.087
-555.442	185.554	0.142	-0.211
-554.427	-114.068	-0.134	0.026
-553.412	-127.268	0.258	-0.038
-552.398	-16.836	-0.059	-0.037
-551.383	10.365	-0.109	-0.083
-550.369	15.982	0.240	0.190
-549.354	800.000	-0.071	-0.202
-548.339	-98.046	0.369	-0.095
-547.325	-116.809	-0.134	-0.025
-546.310	-34.617	-0.051	-0.028
-545.296	34.786	0.340	0.298
-544.281	-200.000	0.000	0.060
-543.266	-82.230	0.429	-0.140
-542.252	-28.132	-0.347	-0.201
-541.237	-11.009	-0.115	-0.076
-540.223	21.882	-0.267	-0.218
-539.208	4.465	-0.334	-0.246
-538.193	308.109	-0.044	-0.083
-537.179	521.883	0.079	0.187
-536.164	91.765	0.101	0.114
-535.150	800.000	-0.082	-0.339
-534.135	-200.000	0.037	0.195
-533.121	-200.000	0.033	0.163
-532.106	-200.000	0.014	-0.136
-531.091	-200.000	0.002	-0.355
-530.077	165.014	-0.123	-0.174
-529.062	65.061	0.251	0.255
-528.048	-71.135	-0.103	-0.039
-527.033	-200.000	0.001	-0.105
-526.018	208.399	-0.157	0.247
-525.004	284.089	-0.027	0.049
-523.989	800.000	-0.023	-0.092
-522.975	-89.486	0.074	0.022
-521.960	-200.000	0.002	-0.125
-520.945	-31.961	0.349	-0.196
-519.931	-106.982	-0.226	0.050
-518.916	53.651	-0.375	0.361
-517.902	154.070	0.042	0.057
-516.887	345.782	-0.065	0.128
-515.872	0.136	-0.108	0.077
-514.858	800.000	0.160	0.460
-513.843	172.327	0.042	-0.061
-512.829	-67.427	0.118	0.046
-511.814	0.972	-0.183	-0.132
-510.799	-78.061	0.308	-0.106
-509.785	108.464	-0.172	-0.206
-508.770	-191.114	0.089	-0.001
-507.756	-200.000	0.001	-0.148
-506.741	-91.038	0.236	0.068
-505.726	191.356	-0.105	-0.159
-504.712	202.619	0.021	0.032
-503.697	-2.339	0.196	0.138
-502.683	-163.536	0.359	0.017
-501.668	-21.223	-0.332	0.203
-500.653	-200.000	-0.037	0.279
-499.639	6.649	0.048	-0.036
-498.624	301.259	-0.188	-0.349
-497.610	43.302	-0.109	-0.100
-496.595	800.000	0.081	-0.269
-495.581	314.766	0.053	-0.100
-494.566	60.541	-0.067	0.066
-493.551	52.737	0.108	-0.103
-492.537	-200.000	-0.050	0.235
-491.522	-200.000	0.025	0.289
-490.508	-67.227	0.161	0.064
-489.493	-41.913	0.226	-0.116
-488.478	-200.000	-0.025	-0.186
-487.464	-200.000	0.031	-0.178
-486.449	88.495	-0.124	-0.138
-485.435	93.140	-0.113	-0.128
-484.420	800.000	0.066	0.196
-483.405	20.821	0.153	0.124
-482.391	-121.877	-0.167	-0.028
-481.376	-144.675	-0.407	-0.037
-480.362	-200.000	-0.014	0.218
-479.347	526.799	0.219	0.517
-478.332	-44.187	-0.201	-0.101
-477.318	51.771	-0.339	0.323
-476.303	-45.961	-0.226	-0.112
-475.289	-48.416	-0.232	0.112
-474.274	-62.588	-0.162	-0.067
-473.259	-166.238	-0.223	0.009
-472.245	87.586	0.185	0.205
-471.230	90.889	-0.144	-0.162
-470.216	-11.669	-0.028	0.018
-469.201	-107.248	0.293	0.065
-468.186	164.723	0.140	-0.198
-467.172	-59.701	0.488	0.209
-466.157	-20.589	0.109	-0.067
-465.143	800.000	-0.082	-0.230
-464.128	-117.191	0.326	-0.059
-463.113	800.000	0.066	-0.215
-462.099	-95.718	-0.385	-0.103
-461.084	58.577	-0.236	0.232
-460.070	122.979	0.057	-0.071
-459.055	7.325	-0.276	0.206
-458.040	-77.095	-0.054	0.019
-457.026	-200.000	-0.135	-0.600
-456.011	-36.608	-0.259	-0.139
-454.997	-155.710	0.147	0.009
-453.982	800.000	0.026	-0.108
-452.968	28.990	0.204	0.173
-451.953	-145.210	0.505	-0.046
-450.938	-4.426	-0.190	-0.131
-449.924	48.565	-0.090	-0.084
-448.909	-97.346	0.383	-0.100
-447.895	325.382	-0.200	0.382
-446.880	141.304	-0.145	0.192
-445.865	-79.779	-0.157	-0.053
-444.851	800.000	-0.078	0.243
-443.836	-115.335	-0.486	-0.092
-442.822	-122.784	-0.182	0.029
-441.807	-9.494	0.085	0.057
-440.792	251.431	-0.164	0.279
-439.778	132.966	-0.165	0.213
-438.763	-200.000	0.036	0.195
-437.749	298.768	0.077	0.143
-436.734	29.386	0.312	-0.265
-435.719	80.150	0.090	-0.097
-434.705	63.027	-0.125	-0.125
-433.690	58.828	-0.147	0.145
-432.676	800.000	0.040	0.171
-431.661	-70.047	-0.418	0.159
-430.646	159.109	0.097	-0.135
-429.632	-160.198	-0.304	0.016
-428.617	-29.482	0.209	0.119
-427.603	-98.292	0.194	0.050
-426.588	800.000	-0.046	0.130
-425.573	-51.889	0.227	-0.105
-424.559	83.367	0.239	0.260
-423.544	134.806	0.197	0.255
-422.530	800.000	-0.068	0.236
-421.515	-5.379	0.043	0.029
-420.500	-74.083	-0.055	0.020
-419.486	152.053	0.125	-0.170
-418.471	800.000	-0.041	-0.117
-417.457	-200.000	0.021	-0.116
-416.442	116.140	-0.140	-0.171
-415.428	-48.749	-0.144	0.069
-414.413	-40.284	-0.274	-0.142
-413.398	-45.329	0.309	0.153
-412.384	103.603	0.100	0.117
-411.369	172.515	-0.063	-0.090
-410.355	-100.398	0.272	-0.067
-409.340	-83.786	-0.114	-0.036
-408.325	800.000	0.108	0.466
-407.311	-36.942	-0.146	0.078
-406.296	280.077	0.113	-0.201
-405.282	-148.298	-0.296	0.024
-404.267	-200.000	0.012	0.085
-403.252	-200.000	-0.030	-0.180
-402.238	-112.365	-0.325	-0.065
-401.223	51.994	0.169	0.161
-400.209	-184.981	0.203	-0.003
-399.194	-46.502	0.271	-0.133
-398.179	-70.247	0.316	0.120
-397.165	-141.092	-0.345	-0.035
-396.150	-34.098	0.224	0.123
-395.136	-120.706	0.180	0.030
-394.121	-86.877	-0.087	0.026
-393.106	255.691	-0.147	-0.252
-392.092	136.363	-0.105	0.136
-391.077	800.000	0.060	0.245
-390.063	124.934	-0.088	0.111
-389.048	-200.000	0.028	-0.362
-388.033	-200.000	-0.012	0.199
-387.019	-78.829	0.135	0.046
-386.004	115.079	-0.110	-0.134
-384.990	15.519	-0.142	-0.111
-383.975	-200.000	-0.065	-0.316
-382.960	51.198	0.088	-0.083
-381.946	-7.402	0.106	-0.071
-380.931	162.748	0.341	0.478
-379.917	-7.911	0.179	0.121
-378.902	23.223	0.180	-0.148
-377.888	-32.631	0.067	-0.037
-376.873	-200.000	0.013	-0.203
-375.858	-65.245	0.299	0.120
-374.844	220.964	-0.142	0.227
-373.829	-105.978	0.158	0.035
-372.815	-121.158	0.076	0.013
-371.800	204.575	-0.071	0.109
-370.785	-38.148	-0.232	0.123
-369.771	74.773	-0.014	-0.015
-368.756	800.000	-0.109	0.381
-367.742	-200.000	-0.011	-0.126
-366.727	-200.000	0.003	0.079
-365.712	-85.637	0.178	-0.055
-364.698	-69.223	0.064	-0.025
-363.683	-117.232	0.160	0.029
-362.669	-23.634	0.134	-0.080
-361.654	-124.158	0.179	-0.028
-360.639	17.617	-0.135	-0.107
-359.625	-200.000	-0.002	0.089
-358.610	-200.000	0.042	0.331
-357.596	800.000	-0.034	-0.117
-356.581	-200.000	-0.008	-0.237
-355.566	800.000	0.055	0.201
-354.552	-200.000	-0.008	-0.128
-353.537	-102.365	0.065	-0.016
-352.523	-84.816	-0.152	0.048
-351.508	-15.048	-0.191	-0.122
-350.493	790.925	0.071	0.195
-349.479	-200.000	0.012	0.166
-348.464	-70.211	-0.204	0.077
-347.450	58.285	0.139	0.135
-346.435	-66.085	-0.053	0.021
-345.420	412.280	0.075	-0.159
-344.406	184.633	-0.113	0.167
-343.391	495.807	0.103	0.236
-342.377	-133.361	-0.285	0.036
-341.362	27.347	-0.181	-0.151
-340.348	-141.558	0.376	-0.038
-339.333	44.409	0.276	-0.252
-338.318	-200.000	0.023	0.294
-337.304	-98.006	-0.196	-0.050
-336.289	-108.332	0.449	-0.097
-335.275	0.546	-0.173	-0.123
-334.260	61.964	-0.242	0.240
-333.245	-69.128	-0.046	0.017
-332.231	-106.153	-0.189	0.042
-331.216	-108.203	-0.241	-0.052
-330.202	800.000	0.036	0.146
-329.187	-40.533	0.297	-0.153
-328.172	-200.000	-0.022	-0.151
-327.158	800.000	0.104	0.359
-326.143	150.484	-0.194	0.263
-325.129	-75.682	0.223	0.079
-324.114	1.234	0.176	-0.126
-323.099	33.379	0.191	-0.165
-322.085	-118.243	0.162	0.029
-321.070	800.000	-0.088	0.282
-320.056	532.071	-0.060	0.142
-319.041	-53.511	0.119	-0.054
-318.026	-200.000	-0.001	0.040
-317.012	11.379	0.238	-0.182
-315.997	-47.189	0.115	-0.056
-314.983	-200.000	0.025	-0.253
-313.968	35.267	0.254	-0.222
-312.953	36.518	0.131	-0.115
-311.939	800.000	-0.134	0.390
-310.924	131.538	-0.088	0.113
-309.910	-162.468	0.242	-0.012
-308.895	-140.753	0.249	-0.026
-307.880	-117.059	0.038	0.007
-306.866	-152.721	-0.240	-0.017
-305.851	-109.575	0.337	0.071
-304.837	84.461	0.053	-0.057
-303.822	97.961	0.202	0.231
-302.807	290.323	-0.196	0.354
-301.793	134.872	0.156	-0.201
-300.778	-107.528	0.268	-0.058
-299.764	-78.401	-0.417	-0.142
-298.749	-200.000	-0.008	0.182
-297.735	-200.000	0.021	0.177
-296.720	80.297	0.051	-0.055
-295.705	-102.402	0.075	-0.018
-294.691	118.612	0.232	0.285
-293.676	-80.503	-0.196	-0.065
-292.662	-96.159	0.090	-0.024
-291.647	218.852	-0.101	0.161
-290.632	-179.200	0.084	-0.002
-289.618	105.110	-0.218	-0.256
-288.603	-200.000	0.023	-0.122
-287.589	-200.000	-0.018	-0.258
-286.574	-49.926	0.191	0.090
-285.559	-200.000	-0.054	-0.255
-284.545	-185.228	0.303	-0.005
-283.530	-118.338	-0.161	0.028
-282.516	75.030	0.149	-0.156
-281.501	670.592	-0.039	-0.100
-280.486	19.093	-0.119	-0.095
-279.472	800.000	0.077	-0.256
-278.457	19.705	0.053	0.043
-277.443	249.209	0.110	0.185
-276.428	-200.000	-0.026	0.163
-275.413	-200.000	0.048	0.286
-274.399	92.201	-0.047	0.053
-273.384	-96.061	-0.384	-0.101
-272.370	-200.000	0.021	-0.382
-271.355	3.404	0.115	-0.083
-270.340	800.000	-0.049	-0.194
-269.326	-78.176	-0.049	0.017
-268.311	800.000	-0.084	-0.314
-267.297	-74.236	0.271	-0.097
-266.282	-136.000	0.183	0.021
-265.267	-47.366	-0.162	0.078
-264.253	301.431	0.108	-0.198
-263.238	173.854	0.165	-0.237
-262.224	-97.739	-0.086	-0.022
-261.209	43.915	-0.231	-0.210
-260.195	-26.261	-0.188	0.110
-259.180	-62.610	-0.050	0.021
-258.165	323.900	0.103	-0.195
-257.151	-75.885	-0.349	-0.123
-256.136	136.347	-0.132	0.171
-255.122	-146.099	0.134	0.012
-254.107	-51.571	0.083	-0.039
-253.092	-27.924	-0.073	-0.042
-252.078	-11.541	0.067	-0.044
-251.063	-200.000	0.025	0.112
-250.049	800.000	-0.045	-0.195
-249.034	-127.306	0.311	-0.045
-248.019	-200.000	-0.005	-0.080
-247.005	-96.712	-0.210	0.055
-245.990	-88.287	-0.225	-0.067
-244.976	-200.000	0.049	-0.228
-243.961	156.374	-0.096	-0.131
-242.946	25.281	0.148	0.122
-241.932	-75.670	-0.122	-0.043
-240.917	639.586	-0.154	0.389
-239.903	-157.314	0.162	-0.010
-238.888	41.509	-0.169	-0.151
-237.873	-31.023	-0.270	-0.151
-236.859	140.627	0.230	0.302
-235.844	-104.899	0.249	-0.057
-234.830	333.032	0.144	0.276
-233.815	-4.905	-0.336	0.229
-232.800	159.784	0.071	-0.098
-231.786	-56.424	0.278	-0.123
-230.771	-200.000	-0.013	0.463
-229.757	244.302	0.142	0.236
-228.742	-79.698	-0.089	-0.030
-227.727	-125.360	-0.125	-0.019
-226.713	-157.303	0.144	-0.009
-225.698	-117.703	-0.013	-0.002
-224.684	-6.257	-0.291	-0.197
-223.669	31.446	-0.137	0.117
-222.655	-200.000	-0.008	0.081
-221.640	800.000	-0.069	0.261
-220.625	23.302	-0.230	0.187
-219.611	7.771	0.142	-0.106
-218.596	36.781	-0.219	-0.192
-217.582	-200.000	0.031	0.229
-216.567	42.558	0.311	-0.280
-215.552	-104.692	-0.334	0.076
-214.538	800.000	0.015	-0.065
-213.523	-200.000	0.031	0.218
-212.509	516.462	0.026	0.060
-211.494	308.128	-0.147	0.272
-210.479	515.644	-0.264	0.611
-209.465	-38.646	0.146	-0.077
-208.450	800.000	0.058	-0.208
-207.436	393.694	-0.055	0.113
-206.421	-100.447	0.141	-0.035
-205.406	-26.121	0.168	0.098
-204.392	-41.822	-0.204	-0.104
-203.377	-57.596	-0.270	-0.117
-202.363	-200.000	0.007	-0.333
-201.348	-115.442	0.328	0.061
-200.333	30.919	-0.429	-0.364
-199.319	-106.914	-0.182	-0.040
-198.304	800.000	-0.044	-0.129
-197.290	-90.415	0.271	0.078
-196.275	203.415	0.232	-0.355
-195.260	62.302	0.138	0.137
-194.246	427.390	-0.110	0.235
-193.231	-50.115	-0.439	0.206
-192.217	800.000	0.069	-0.192
-191.202	154.223	0.213	-0.289
-190.187	239.617	-0.094	0.154
-189.173	-4.271	-0.193	-0.132
-188.158	-200.000	0.060	0.275
-187.144	-200.000	-0.005	0.078
-186.129	-121.019	0.124	-0.021
-185.114	27.280	-0.188	-0.156
-184.100	-200.000	-0.032	0.216
-183.085	82.965	-0.050	0.054
-182.071	-54.044	0.303	-0.136
-181.056	122.573	-0.136	-0.168
-180.042	48.469	-0.148	-0.138
-179.027	800.000	-0.031	0.097
-178.012	800.000	-0.053	-0.157
-176.998	-5.830	-0.134	0.091
-175.983	254.240	0.102	0.173
-174.969	-108.744	-0.139	0.029
-173.954	800.000	0.170	-0.482
-172.939	31.419	0.259	0.220
-171.925	2.609	0.087	-0.062
-170.910	-51.101	-0.294	-0.136
-169.896	395.647	-0.127	-0.262
-168.881	-53.420	0.130	-0.059
-167.866	-200.000	-0.037	0.378
-166.852	-200.000	0.051	0.294
-165.837	-78.737	-0.145	-0.049
-164.823	18.665	-0.141	0.112
-163.808	241.002	0.092	0.152
-162.793	3.995	0.172	-0.124
-161.779	662.345	0.042	-0.106
-160.764	245.668	-0.091	-0.151
-159.750	700.014	-0.030	-0.078
-158.735	-200.000	0.001	0.085
-157.720	-80.636	-0.081	0.027
-156.706	240.058	0.108	0.178
-155.691	94.171	-0.289	0.324
-154.677	-200.000	-0.007	0.079
-153.662	800.000	0.025	-0.106
-152.647	-200.000	0.007	-0.163
-151.633	246.336	0.023	-0.039
-150.618	-200.000	-0.019	-0.140
-149.604	72.253	0.085	0.088
-148.589	-49.510	0.269	-0.127
-147.574	68.967	0.260	0.264
-146.560	-69.393	0.173	0.066
-145.545	-200.000	-0.067	0.310
-144.531	563.251	0.116	-0.279
-143.516	-200.000	-0.006	0.617
-142.502	0.048	0.133	0.094
-141.487	-20.352	-0.174	-0.106
-140.472	-27.552	0.307	0.176
-139.458	-135.890	-0.228	0.027
-138.443	-17.565	0.043	-0.027
-137.429	800.000	0.092	-0.301
-136.414	-103.534	0.105	0.024
-135.399	-24.207	0.299	-0.176
-134.385	84.284	0.275	-0.297
-133.370	161.883	-0.107	0.148
-132.356	800.000	-0.110	0.397
-131.341	107.087	0.260	-0.306
-130.326	172.123	-0.095	0.134
-129.312	206.115	-0.196	-0.301
-128.297	45.659	-0.148	-0.135
-127.283	88.710	-0.189	-0.208
-126.268	800.000	0.033	0.123
-125.253	-200.000	-0.032	0.148
-124.239	33.534	0.328	0.281
-123.224	100.517	0.192	0.221
-122.210	-200.000	-0.020	-0.145
-121.195	-200.000	0.060	-0.314
