DTS Sentinel unit serial number:	SN413079Multiplexer serial number:	ORYXHardware model number:	OX4-SRSoftware version number:	ORYX F/W v4.00 Oryx Data Collector v3.7.2.0data status	okinstallation	princeton_trtdifferential loss correction	single-endedforward channel	channel 1reverse channel	N/Adate	2019/09/12time	08:32:11forward acquisition time	60.00reverse acquisition time	0.00gamma	496.2192k internal	0.2312k external	0.2312temperature offset calibration	1.0039default loss term (dB/km)	0.3790temperature slope calibration	1.0000multiplexer offset coefficient	1.0000multiplexer slope coefficient	1.0000fibre end	0.00T internal ref (°C)	33.69T ext. ref 1 (°C)	1.70T ext. ref 2 (°C)	29.92length (m)	temperature (°C)	Stokes	anti-Stokes-747.200	-148.027	0.490	0.041
-746.185	-109.311	-0.066	0.014
-745.171	230.182	-0.207	-0.344
-744.156	677.745	-0.087	0.229
-743.142	113.574	0.206	-0.254
-742.127	-103.428	-0.242	-0.058
-741.112	-82.604	-0.053	0.018
-740.098	-0.189	-0.138	-0.100
-739.083	-169.068	0.195	-0.007
-738.069	109.047	-0.126	0.153
-737.054	-188.112	-0.232	0.003
-736.039	-42.238	-0.111	0.057
-735.025	-200.000	-0.005	0.343
-734.010	800.000	-0.008	-0.026
-732.996	800.000	-0.079	0.319
-731.981	14.166	-0.139	-0.110
-730.966	142.236	0.149	-0.201
-729.952	-167.502	-0.153	0.006
-728.937	277.340	0.085	0.153
-727.923	-172.917	-0.197	0.006
-726.908	-135.853	0.110	-0.013
-725.894	-41.022	-0.162	-0.085
-724.879	-81.579	0.046	0.015
-723.864	-64.419	0.183	0.075
-722.850	356.374	-0.199	-0.401
-721.835	800.000	-0.039	0.151
-720.821	800.000	-0.054	-0.195
-719.806	-93.264	-0.366	-0.103
-718.791	-200.000	-0.019	0.229
-717.777	-41.938	-0.188	-0.098
-716.762	-21.018	0.298	0.185
-715.748	-44.549	-0.236	0.120
-714.733	800.000	0.113	-0.392
-713.718	205.470	-0.129	-0.203
-712.704	401.263	-0.019	0.041
-711.689	75.521	-0.173	0.185
-710.675	-27.289	-0.266	-0.157
-709.660	97.873	-0.126	0.147
-708.645	-180.184	0.158	-0.003
-707.631	397.383	-0.071	-0.150
-706.616	66.647	0.358	-0.369
-705.602	110.291	0.178	0.217
-704.587	215.597	-0.160	-0.257
-703.572	206.470	0.082	-0.130
-702.558	35.460	-0.141	0.126
-701.543	-22.117	-0.261	-0.160
-700.529	-60.906	-0.141	0.060
-699.514	-200.000	0.044	0.476
-698.499	-52.134	0.350	-0.165
-697.485	-200.000	-0.012	-0.479
-696.470	-44.364	0.244	0.124
-695.456	-0.855	-0.445	-0.319
-694.441	13.121	-0.136	0.107
-693.426	142.523	0.050	-0.068
-692.412	18.350	0.124	-0.101
-691.397	204.297	-0.105	-0.165
-690.383	153.693	-0.013	-0.019
-689.368	115.855	-0.129	0.160
-688.354	76.284	-0.081	0.087
-687.339	140.707	-0.108	0.144
-686.324	2.727	-0.264	-0.194
-685.310	-200.000	-0.033	0.288
-684.295	-120.903	0.079	0.013
-683.281	-20.769	-0.106	-0.066
-682.266	-200.000	-0.015	-0.233
-681.251	800.000	-0.078	-0.264
-680.237	-40.109	-0.103	0.054
-679.222	-160.945	0.132	-0.007
-678.208	4.589	-0.154	-0.114
-677.193	448.371	0.060	-0.133
-676.178	-200.000	-0.008	-0.073
-675.164	-115.755	0.106	-0.020
-674.149	-200.000	0.002	0.009
-673.135	-98.546	0.178	0.046
-672.120	767.146	-0.107	0.294
-671.105	508.711	0.107	0.252
-670.091	-200.000	0.006	-0.041
-669.076	-29.125	0.093	-0.054
-668.062	-200.000	0.009	0.229
-667.047	333.884	-0.185	-0.363
-666.032	133.367	0.133	-0.174
-665.018	800.000	-0.076	-0.269
-664.003	-200.000	-0.011	0.107
-662.989	19.185	0.010	0.008
-661.974	22.118	0.029	-0.024
-660.959	-32.836	-0.165	-0.093
-659.945	-56.005	0.288	-0.130
-658.930	-200.000	-0.026	-0.421
-657.916	800.000	-0.018	0.056
-656.901	-200.000	-0.053	0.236
-655.886	800.000	0.101	0.290
-654.872	-200.000	-0.020	-0.157
-653.857	-200.000	0.012	-0.211
-652.843	213.227	-0.140	-0.224
-651.828	115.392	-0.071	-0.088
-650.814	67.140	0.128	0.132
-649.799	-200.000	0.002	0.181
-648.784	-31.567	-0.031	0.017
-647.770	618.981	-0.096	-0.245
-646.755	-200.000	-0.043	0.227
-645.741	53.305	0.096	-0.093
-644.726	14.831	0.147	-0.116
-643.711	-200.000	-0.014	0.421
-642.697	-170.987	0.152	-0.005
-641.682	800.000	-0.045	0.148
-640.668	-130.740	0.057	0.008
-639.653	-20.617	0.116	0.072
-638.638	57.503	-0.141	-0.139
-637.624	73.977	0.143	-0.151
-636.609	-38.609	0.291	-0.155
-635.595	800.000	-0.049	0.143
-634.580	800.000	0.117	-0.331
-633.565	1.586	0.032	-0.023
-632.551	310.134	-0.066	-0.125
-631.536	-200.000	0.051	0.257
-630.522	-120.794	-0.413	0.070
-629.507	4.977	-0.251	-0.187
-628.492	198.633	-0.251	-0.388
-627.478	-200.000	0.005	-0.323
-626.463	95.254	-0.147	0.169
-625.449	-14.034	0.222	-0.145
-624.434	-17.449	0.197	-0.125
-623.419	-162.373	-0.321	0.016
-622.405	-200.000	0.011	0.130
-621.390	800.000	0.008	0.022
-620.376	-117.175	0.070	0.013
-619.361	-200.000	0.004	0.160
-618.346	-88.448	-0.201	-0.060
-617.332	-200.000	0.043	-0.317
-616.317	294.016	-0.078	0.144
-615.303	-87.925	0.186	-0.057
-614.288	-200.000	0.020	-0.133
-613.273	-82.458	0.117	0.038
-612.259	62.681	-0.174	-0.176
-611.244	-200.000	0.037	0.218
-610.230	-79.440	-0.175	-0.060
-609.215	800.000	0.053	-0.193
-608.201	-200.000	0.026	0.277
-607.186	243.204	-0.262	0.444
-606.171	-129.008	-0.104	-0.015
-605.157	-76.648	-0.123	0.044
-604.142	108.329	0.149	-0.179
-603.128	281.558	0.126	0.228
-602.113	800.000	-0.049	-0.167
-601.098	35.205	0.027	-0.024
-600.084	800.000	-0.063	-0.213
-599.069	-156.137	-0.213	0.014
-598.055	800.000	-0.100	0.288
-597.040	-36.988	-0.261	-0.141
-596.025	-62.327	0.241	-0.101
-595.011	-0.354	-0.271	0.194
-593.996	-134.111	0.130	0.016
-592.982	-154.791	-0.276	0.018
-591.967	-73.802	0.205	-0.075
-590.952	130.591	0.231	0.299
-589.938	157.412	0.113	-0.158
-588.923	-200.000	-0.016	-0.314
-587.909	-92.174	0.031	0.009
-586.894	-120.392	-0.273	-0.047
-585.879	-200.000	-0.046	-0.243
-584.865	484.851	-0.072	-0.166
-583.850	-129.670	-0.044	0.006
-582.836	-96.680	0.327	0.087
-581.821	170.161	-0.108	0.155
-580.806	287.137	-0.059	-0.108
-579.792	-0.858	0.122	0.087
-578.777	800.000	0.033	-0.136
-577.763	76.402	0.025	-0.027
-576.748	-147.042	-0.278	-0.024
-575.733	-141.941	-0.260	-0.026
-574.719	-200.000	0.033	0.173
-573.704	-161.040	0.091	-0.005
-572.690	-116.663	0.215	-0.040
-571.675	-159.267	0.145	-0.008
-570.661	26.158	0.073	-0.062
-569.646	56.649	0.159	0.156
-568.631	-19.917	0.229	0.143
-567.617	234.817	-0.138	-0.229
-566.602	79.770	-0.377	0.408
-565.588	22.304	-0.103	0.085
-564.573	-78.142	0.255	-0.088
-563.558	593.656	0.143	0.355
-562.544	104.059	-0.036	0.042
-561.529	490.392	-0.102	-0.235
-560.515	-200.000	-0.013	-0.096
-559.500	-200.000	0.028	0.131
-558.485	-200.000	-0.019	0.108
-557.471	800.000	-0.033	0.123
-556.456	179.036	-0.150	0.221
-555.442	-46.371	-0.452	0.224
-554.427	-109.201	-0.147	0.031
-553.412	-3.431	0.087	0.061
-552.398	-34.993	-0.247	0.136
-551.383	-64.466	0.142	-0.058
-550.369	-75.091	0.070	-0.025
-549.354	-82.392	0.301	0.099
-548.339	-88.120	-0.025	-0.008
-547.325	-200.000	-0.007	-0.206
-546.310	271.420	-0.125	-0.221
-545.296	800.000	-0.071	-0.210
-544.281	44.280	-0.137	-0.126
-543.266	110.195	-0.014	0.017
-542.252	236.878	-0.072	0.120
-541.237	-7.175	-0.165	0.113
-540.223	-200.000	0.026	0.135
-539.208	88.111	-0.288	-0.321
-538.193	65.017	0.158	-0.160
-537.179	-171.178	-0.148	0.005
-536.164	260.296	-0.052	0.091
-535.150	-200.000	-0.044	0.000
-534.135	135.134	-0.073	0.095
-533.121	159.054	-0.178	-0.249
-532.106	-134.632	0.168	0.021
-531.091	-117.005	0.143	-0.026
-530.077	-200.000	0.006	0.185
-529.062	-0.125	-0.200	0.143
-528.048	20.566	-0.054	-0.044
-527.033	378.420	0.107	0.220
-526.018	800.000	-0.037	0.143
-525.004	32.490	-0.233	0.203
-523.989	-78.439	-0.220	-0.076
-522.975	19.998	-0.255	0.207
-521.960	198.588	-0.204	-0.314
-520.945	-64.958	0.314	0.128
-519.931	-70.897	0.142	-0.054
-518.916	-200.000	-0.017	0.116
-517.902	125.670	0.259	-0.328
-516.887	26.268	-0.083	0.070
-515.872	242.152	0.160	-0.270
-514.858	575.498	0.143	-0.350
-513.843	81.639	-0.129	0.141
-512.829	393.869	-0.124	-0.260
-511.814	800.000	-0.016	-0.066
-510.799	-200.000	0.025	-0.119
-509.785	560.972	0.024	0.059
-508.770	-166.587	-0.106	0.004
-507.756	13.536	0.342	0.267
-506.741	75.522	-0.064	0.068
-505.726	206.478	0.077	0.120
-504.712	-200.000	-0.001	-0.044
-503.697	-10.574	0.050	0.033
-502.683	-200.000	0.034	0.195
-501.668	-29.476	-0.197	0.113
-500.653	-1.807	-0.024	-0.017
-499.639	306.849	0.096	0.179
-498.624	150.144	-0.006	0.008
-497.610	-44.438	-0.245	-0.123
-496.595	-200.000	0.046	-0.244
-495.581	-57.335	-0.086	-0.038
-494.566	-77.834	0.218	-0.076
-493.551	-49.280	-0.228	0.109
-492.537	-91.114	-0.307	0.089
-491.522	-42.005	0.106	0.055
-490.508	40.967	0.092	0.083
-489.493	14.550	-0.181	-0.142
-488.478	-144.318	-0.207	-0.019
-487.464	85.827	-0.020	-0.022
-486.449	758.592	-0.012	-0.032
-485.435	39.387	0.240	-0.216
-484.420	152.981	-0.170	0.234
-483.405	25.366	-0.096	0.080
-482.391	800.000	-0.158	0.564
-481.376	800.000	-0.007	-0.021
-480.362	278.932	0.172	0.308
-479.347	-153.705	-0.305	-0.021
-478.332	-78.261	-0.392	-0.135
-477.318	502.105	-0.076	0.176
-476.303	800.000	0.093	-0.325
-475.289	180.560	0.210	-0.309
-474.274	-200.000	0.028	0.154
-473.259	358.531	0.072	-0.144
-472.245	146.848	-0.051	0.068
-471.230	288.039	0.073	0.132
-470.216	-24.311	-0.260	-0.156
-469.201	-52.779	-0.124	0.057
-468.186	-116.720	0.145	0.027
-467.172	284.004	-0.066	-0.119
-466.157	-148.170	0.074	-0.006
-465.143	240.218	0.189	0.316
-464.128	496.805	-0.162	0.375
-463.113	-72.461	0.159	-0.059
-462.099	-88.341	0.139	-0.042
-461.084	-86.508	0.322	0.099
-460.070	-200.000	0.069	0.309
-459.055	-152.489	-0.301	-0.022
-458.040	-200.000	-0.006	-0.281
-457.026	-52.073	-0.101	0.047
-456.011	-165.594	-0.248	0.011
-454.997	206.675	0.092	0.143
-453.982	800.000	-0.032	0.140
-452.968	-117.708	0.248	-0.045
-451.953	-184.977	0.265	-0.004
-450.938	40.529	0.285	-0.258
-449.924	-50.966	-0.301	0.142
-448.909	800.000	-0.092	0.290
-447.895	132.889	0.193	-0.250
-446.880	-71.853	0.266	-0.099
-445.865	-61.147	-0.173	0.073
-444.851	-92.121	0.309	0.088
-443.836	-129.285	-0.241	-0.034
-442.822	-52.933	0.258	-0.119
-441.807	217.584	-0.187	0.299
-440.792	-75.110	-0.075	0.027
-439.778	0.307	-0.033	-0.024
-438.763	-200.000	-0.079	-0.461
-437.749	-110.791	0.099	-0.021
-436.734	74.788	-0.230	0.243
-435.719	-33.532	-0.249	-0.138
-434.705	296.744	-0.061	0.112
-433.690	120.755	0.135	0.168
-432.676	43.904	0.137	-0.126
-431.661	186.785	-0.210	-0.313
-430.646	10.900	0.188	0.144
-429.632	12.837	-0.063	-0.049
-428.617	397.214	-0.057	0.120
-427.603	-145.061	0.371	0.034
-426.588	800.000	0.126	-0.504
-425.573	-93.359	0.337	0.094
-424.559	-1.963	0.086	0.061
-423.544	-14.081	-0.156	-0.101
-422.530	800.000	-0.115	-0.354
-421.515	-74.227	-0.128	-0.047
-420.500	-37.130	0.200	0.107
-419.486	107.474	0.286	0.341
-418.471	-114.927	-0.358	0.068
-417.457	9.559	-0.164	-0.124
-416.442	-117.068	0.117	0.021
-415.428	63.267	-0.162	0.163
-414.413	40.063	-0.083	0.074
-413.398	800.000	0.029	-0.093
-412.384	800.000	-0.060	0.251
-411.369	-33.586	0.182	-0.101
-410.355	-36.967	0.247	-0.133
-409.340	-50.082	0.261	-0.124
-408.325	75.109	-0.157	0.165
-407.311	-33.230	-0.165	0.091
-406.296	36.260	-0.282	0.249
-405.282	-102.762	-0.121	-0.029
-404.267	-109.483	-0.341	0.072
-403.252	-78.149	0.410	-0.141
-402.238	-91.440	0.473	-0.135
-401.223	168.009	0.127	-0.180
-400.209	-200.000	0.029	0.199
-399.194	-57.259	-0.266	0.117
-398.179	800.000	-0.054	0.204
-397.165	748.397	0.064	-0.172
-396.150	401.958	-0.075	0.157
-395.136	-28.184	-0.299	-0.173
-394.121	115.991	-0.125	-0.153
-393.106	-93.618	0.261	0.072
-392.092	800.000	0.093	0.339
-391.077	84.966	0.352	-0.386
-390.063	-67.454	-0.324	0.127
-389.048	-93.414	0.402	0.111
-388.033	-102.594	0.082	-0.020
-387.019	-55.251	0.345	-0.155
-386.004	-200.000	-0.014	-0.119
-384.990	-23.479	0.151	0.091
-383.975	800.000	0.067	-0.252
-382.960	-187.074	-0.387	0.005
-381.946	37.525	0.060	-0.053
-380.931	-200.000	0.018	0.169
-379.917	-200.000	0.028	0.241
-378.902	800.000	-0.023	-0.074
-377.888	239.284	0.134	-0.222
-376.873	3.719	0.099	0.072
-375.858	26.569	-0.146	0.122
-374.844	381.738	0.228	0.469
-373.829	58.936	-0.111	0.110
-372.815	30.757	-0.301	0.257
-371.800	-112.625	0.418	-0.083
-370.785	-200.000	0.014	-0.126
-369.771	800.000	-0.051	-0.220
-368.756	149.576	-0.091	-0.124
-367.742	-41.726	-0.173	0.089
-366.727	-200.000	-0.015	-0.092
-365.712	-85.675	0.061	-0.019
-364.698	-82.495	0.233	-0.076
-363.683	47.452	0.118	-0.110
-362.669	123.297	-0.027	0.033
-361.654	-40.156	-0.219	0.114
-360.639	-200.000	0.002	-0.069
-359.625	-200.000	0.014	0.159
-358.610	-41.012	-0.245	0.126
-357.596	800.000	0.031	-0.121
-356.581	800.000	0.079	0.227
-355.566	35.489	-0.169	-0.149
-354.552	84.183	0.047	0.052
-353.537	-11.502	0.172	0.113
-352.523	-78.503	0.153	0.052
-351.508	-200.000	0.005	-0.173
-350.493	103.080	0.279	-0.327
-349.479	-200.000	-0.057	-0.310
-348.464	-13.893	0.172	-0.111
-347.450	60.967	-0.223	-0.221
-346.435	-94.293	0.054	0.015
-345.420	-200.000	-0.027	0.186
-344.406	161.368	0.054	-0.076
-343.391	800.000	-0.016	-0.063
-342.377	98.474	0.068	-0.079
-341.362	-51.275	-0.122	-0.057
-340.348	167.815	-0.053	0.075
-339.333	594.181	-0.094	0.231
-338.318	-111.023	0.145	0.030
-337.304	-82.231	0.185	0.060
-336.289	-114.165	0.082	0.016
-335.275	-200.000	0.005	-0.041
-334.260	-118.693	0.249	-0.044
-333.245	26.153	-0.072	0.060
-332.231	-200.000	-0.001	-0.030
-331.216	-200.000	0.084	-0.373
-330.202	-152.741	0.261	0.019
-329.187	5.547	0.116	0.086
-328.172	-108.764	-0.192	0.041
-327.158	411.291	-0.048	-0.101
-326.143	-200.000	0.002	0.083
-325.129	378.548	-0.034	0.068
-324.114	25.311	0.158	0.131
-323.099	211.321	0.069	-0.108
-322.085	-21.327	0.167	-0.102
-321.070	-200.000	-0.022	0.194
-320.056	-62.443	-0.277	-0.115
-319.041	-8.899	-0.216	-0.144
-318.026	-12.730	0.204	-0.133
-317.012	800.000	-0.076	-0.291
-315.997	-59.653	0.221	-0.095
-314.983	-23.671	0.156	-0.093
-313.968	-34.345	0.099	-0.054
-312.953	89.197	-0.215	-0.238
-311.939	80.924	0.067	0.072
-310.924	800.000	-0.027	0.083
-309.910	-9.693	-0.055	-0.037
-308.895	256.148	-0.073	-0.124
-307.880	4.828	0.079	-0.058
-306.866	-18.436	-0.096	-0.060
-305.851	226.371	0.042	-0.068
-304.837	752.058	-0.034	0.090
-303.822	35.104	-0.101	-0.089
-302.807	156.367	-0.158	-0.217
-301.793	45.090	-0.048	-0.044
-300.778	164.230	-0.111	0.156
-299.764	180.182	-0.078	0.114
-298.749	-59.716	-0.430	-0.184
-297.735	128.661	-0.131	-0.166
-296.720	-125.619	0.256	-0.039
-295.705	323.054	-0.273	0.518
-294.691	-21.786	0.073	0.044
-293.676	-200.000	-0.025	0.218
-292.662	800.000	0.041	0.132
-291.647	157.531	0.194	0.268
-290.632	312.170	-0.147	-0.275
-289.618	800.000	0.051	-0.185
-288.603	442.949	0.040	-0.087
-287.589	754.189	0.059	0.158
-286.574	362.464	0.067	0.135
-285.559	800.000	0.043	-0.166
-284.545	322.418	-0.034	-0.064
-283.530	157.970	-0.044	0.061
-282.516	-44.993	0.332	-0.164
-281.501	-72.898	-0.085	0.031
-280.486	130.735	-0.172	0.220
-279.472	-147.811	0.285	0.024
-278.457	-67.145	0.178	-0.070
-277.443	800.000	0.148	0.566
-276.428	-200.000	-0.010	-0.225
-275.413	34.140	0.211	-0.183
-274.399	106.765	0.082	0.097
-273.384	-22.941	-0.221	0.133
-272.370	-16.187	-0.185	-0.117
-271.355	-33.522	0.374	-0.206
-270.340	-74.593	0.100	0.036
-269.326	421.147	-0.132	-0.282
-268.311	-195.462	0.277	-0.002
-267.297	-64.245	0.083	-0.034
-266.282	-22.699	0.208	0.125
-265.267	-200.000	0.006	-0.184
-264.253	161.180	-0.107	0.149
-263.238	118.257	-0.116	-0.143
-262.224	-125.794	0.140	-0.021
-261.209	-176.023	-0.219	0.006
-260.195	97.900	0.121	0.138
-259.180	-200.000	0.028	0.155
-258.165	-75.653	0.137	0.048
-257.151	168.961	-0.273	0.388
-256.136	-200.000	0.006	-0.451
-255.122	49.498	-0.197	0.184
-254.107	571.093	0.124	-0.301
-253.092	-46.594	-0.103	0.050
-252.078	-69.799	0.202	-0.077
-251.063	172.590	0.092	0.132
-250.049	87.755	0.094	0.104
-249.034	-142.308	-0.201	0.020
-248.019	39.853	-0.094	0.084
-247.005	-67.322	0.197	0.077
-245.990	5.705	0.100	0.074
-244.976	634.703	-0.126	0.318
-243.961	-3.390	0.030	-0.021
-242.946	-200.000	0.190	-0.000
-241.932	-200.000	0.055	0.390
-240.917	360.288	0.083	-0.165
-239.903	85.522	0.124	-0.136
-238.888	800.000	0.084	-0.267
-237.873	-71.810	0.114	-0.042
-236.859	-200.000	-0.004	0.209
-235.844	-61.647	0.121	0.051
-234.830	-93.978	0.248	-0.068
-233.815	-121.986	0.079	-0.013
-232.800	73.439	-0.144	-0.150
-231.786	-54.989	-0.042	0.019
-230.771	117.674	0.218	-0.267
-229.757	-111.530	0.142	0.029
-228.742	-121.322	0.318	-0.053
-227.727	-65.456	-0.317	-0.127
-226.713	-129.272	0.153	0.021
-225.698	800.000	0.057	-0.204
-224.684	-3.803	-0.069	-0.047
-223.669	26.919	0.146	-0.121
-222.655	354.498	-0.086	0.169
-221.640	-131.357	0.202	-0.027
-220.625	53.931	0.125	0.120
-219.611	446.008	0.053	-0.115
-218.596	-118.977	0.103	-0.018
-217.582	-200.000	0.003	-0.192
-216.567	-25.771	-0.118	-0.069
-215.552	62.059	0.137	-0.136
-214.538	-59.260	-0.384	-0.164
-213.523	-200.000	0.000	-0.111
-212.509	205.609	0.070	-0.108
-211.494	800.000	-0.057	0.199
-210.479	800.000	0.091	0.337
-209.465	-1.426	0.137	-0.096
-208.450	58.043	-0.161	-0.157
-207.436	-16.500	-0.192	-0.121
-206.421	-14.174	0.108	0.069
-205.406	-94.842	0.092	-0.025
-204.392	-129.215	-0.289	-0.040
-203.377	33.119	-0.250	0.215
-202.363	800.000	-0.119	-0.380
-201.348	28.376	-0.231	0.194
-200.333	-200.000	0.005	0.179
-199.319	-110.213	-0.150	-0.031
-198.304	127.482	0.051	-0.064
-197.290	-177.869	-0.239	0.006
-196.275	-1.907	-0.119	0.083
-195.260	800.000	-0.087	0.273
-194.246	-18.735	0.299	-0.185
-193.231	-9.280	0.344	-0.228
-192.217	-200.000	-0.025	0.133
-191.202	159.126	-0.140	0.193
-190.187	-42.671	0.058	0.030
-189.173	5.668	-0.261	0.192
-188.158	173.565	0.145	0.207
-187.144	800.000	-0.050	-0.209
-186.129	800.000	0.026	0.073
-185.114	-124.394	-0.202	0.031
-184.100	141.176	-0.229	0.301
-183.085	612.832	-0.115	-0.287
-182.071	-90.940	0.076	-0.022
-181.056	-122.165	0.223	-0.036
-180.042	-28.225	-0.206	0.118
-179.027	292.781	-0.111	0.201
-178.012	-38.713	-0.474	-0.248
-176.998	-91.316	0.239	0.068
-175.983	100.203	-0.229	-0.264
-174.969	289.882	0.057	0.103
-173.954	-117.263	0.269	0.049
-172.939	98.328	-0.008	0.009
-171.925	255.652	-0.042	0.072
-170.910	0.838	0.176	-0.125
-169.896	3.436	-0.184	0.133
-168.881	26.906	-0.079	0.066
-167.866	162.576	-0.072	-0.100
-166.852	19.447	-0.085	0.067
-165.837	800.000	0.046	0.169
-164.823	-200.000	0.017	0.351
-163.808	800.000	-0.058	-0.188
-162.793	54.433	0.058	-0.055
-161.779	-39.233	0.131	-0.068
-160.764	69.452	0.104	-0.106
-159.750	800.000	-0.071	-0.281
-158.735	-200.000	-0.010	0.254
-157.720	-200.000	0.002	-0.167
-156.706	-47.804	-0.240	-0.115
-155.691	0.289	-0.094	0.066
-154.677	-33.492	0.325	0.178
-153.662	451.098	-0.064	0.141
-152.647	103.848	0.074	0.086
-151.633	-76.246	0.298	-0.104
-150.618	-121.686	0.097	0.016
-149.604	157.848	0.049	-0.067
-148.589	31.366	-0.109	0.093
-147.574	-127.724	-0.191	-0.027
-146.560	-200.000	0.021	0.166
-145.545	-8.768	0.111	-0.074
-144.531	-81.671	-0.098	0.032
-143.516	-151.124	-0.282	-0.021
-142.502	81.966	-0.065	0.070
-141.487	-142.790	0.112	0.011
-140.472	24.427	0.296	0.242
-139.458	-159.447	-0.186	-0.010
-138.443	-200.000	-0.004	0.473
-137.429	-200.000	0.005	-0.027
-136.414	800.000	0.087	-0.245
-135.399	138.709	0.153	0.199
-134.385	-2.849	0.197	-0.136
-133.370	18.059	-0.098	0.077
-132.356	800.000	-0.049	-0.152
-131.341	152.468	0.099	0.133
-130.326	127.641	0.050	-0.063
-129.312	8.003	-0.190	0.141
-128.297	1.567	-0.281	-0.201
-127.283	-116.081	-0.223	0.041
-126.268	-200.000	0.062	-0.347
-125.253	-200.000	0.005	0.069
-124.239	33.245	0.114	-0.098
-123.224	234.918	0.076	0.123
-122.210	-200.000	0.022	-0.174
-121.195	-94.579	0.110	0.030
-120.180	800.000	0.099	0.401
