DTS Sentinel unit serial number:	SN413079Multiplexer serial number:	ORYXHardware model number:	OX4-SRSoftware version number:	ORYX F/W v4.00 Oryx Data Collector v3.7.2.0data status	okinstallation	princeton_trtdifferential loss correction	single-endedforward channel	channel 1reverse channel	N/Adate	2019/09/15time	11:54:35forward acquisition time	60.00reverse acquisition time	0.00gamma	496.2192k internal	0.2308k external	0.2308temperature offset calibration	0.9989default loss term (dB/km)	0.3790temperature slope calibration	1.0000multiplexer offset coefficient	1.0000multiplexer slope coefficient	1.0000fibre end	0.00T internal ref (°C)	34.39T ext. ref 1 (°C)	5.06T ext. ref 2 (°C)	30.04length (m)	temperature (°C)	Stokes	anti-Stokes-747.200	-167.953	-0.436	0.017
-746.185	187.406	0.215	0.326
-745.171	-96.394	0.123	0.033
-744.156	-200.000	-0.004	0.247
-743.142	19.875	-0.165	-0.135
-742.127	98.348	-0.017	-0.019
-741.112	800.000	0.027	-0.091
-740.098	-75.078	0.295	0.107
-739.083	800.000	0.077	0.240
-738.069	-200.000	0.026	0.277
-737.054	325.674	-0.154	-0.300
-736.039	-12.786	-0.248	-0.165
-735.025	-200.000	0.017	0.195
-734.010	800.000	-0.118	-0.415
-732.996	-83.498	-0.331	-0.108
-731.981	-200.000	-0.002	-0.103
-730.966	-73.571	0.310	-0.115
-729.952	-35.007	-0.129	-0.072
-728.937	-146.732	-0.251	-0.022
-727.923	-20.253	-0.483	-0.302
-726.908	327.463	-0.203	0.395
-725.894	59.910	-0.140	-0.141
-724.879	590.909	-0.097	-0.243
-723.864	-1.786	-0.027	-0.019
-722.850	-200.000	-0.023	0.374
-721.835	-28.187	0.052	0.030
-720.821	-82.078	-0.211	-0.070
-719.806	800.000	0.047	0.173
-718.791	106.575	0.121	-0.146
-717.777	-56.479	0.311	0.140
-716.762	800.000	0.033	-0.132
-715.748	758.886	-0.182	-0.501
-714.733	435.953	0.139	-0.308
-713.718	49.751	0.156	0.149
-712.704	249.853	-0.183	0.315
-711.689	-110.707	0.164	0.034
-710.675	287.326	-0.095	0.174
-709.660	179.086	-0.081	-0.120
-708.645	272.381	-0.129	-0.231
-707.631	-200.000	0.020	-0.113
-706.616	36.156	-0.167	-0.150
-705.602	-200.000	0.058	-0.319
-704.587	33.423	0.115	0.101
-703.572	-172.647	0.079	-0.003
-702.558	39.491	0.199	0.181
-701.543	-200.000	-0.033	0.167
-700.529	327.049	-0.099	0.192
-699.514	113.128	-0.074	0.091
-698.499	54.005	-0.295	-0.288
-697.485	82.175	-0.086	-0.095
-696.470	699.200	-0.094	-0.251
-695.456	-200.000	-0.022	-0.111
-694.441	800.000	0.040	-0.159
-693.426	288.347	0.110	-0.201
-692.412	-143.442	-0.041	-0.004
-691.397	314.792	-0.097	0.185
-690.383	800.000	-0.048	-0.202
-689.368	-50.692	0.126	-0.060
-688.354	-159.732	-0.234	0.013
-687.339	-98.199	0.159	0.042
-686.324	258.587	0.144	0.251
-685.310	800.000	-0.012	-0.035
-684.295	800.000	-0.065	0.188
-683.281	-190.552	0.081	0.001
-682.266	-43.416	-0.214	0.110
-681.251	-200.000	-0.019	0.280
-680.237	478.425	0.102	0.234
-679.222	207.756	0.034	-0.053
-678.208	113.393	-0.186	0.229
-677.193	170.081	-0.046	0.066
-676.178	74.669	-0.246	-0.262
-675.164	800.000	0.041	-0.169
-674.149	64.674	-0.155	-0.159
-673.135	-36.834	-0.263	0.143
-672.120	32.667	0.204	0.179
-671.105	94.271	-0.126	0.145
-670.091	-173.852	0.182	-0.005
-669.076	-23.164	-0.133	-0.081
-668.062	-194.088	-0.340	0.003
-667.047	-22.673	0.404	0.247
-666.032	800.000	-0.031	-0.127
-665.018	-41.959	-0.225	0.117
-664.003	569.692	-0.075	-0.184
-662.989	773.260	-0.110	-0.305
-661.974	239.974	-0.109	-0.184
-660.959	72.975	0.179	-0.190
-659.945	673.135	0.145	-0.382
-658.930	-41.106	0.147	-0.077
-657.916	102.064	-0.126	0.149
-656.901	-28.981	-0.035	0.021
-655.886	18.090	-0.089	0.072
-654.872	-59.468	0.221	-0.096
-653.857	171.089	0.069	0.100
-652.843	5.675	-0.469	-0.351
-651.828	265.074	-0.086	0.152
-650.814	5.250	0.114	-0.085
-649.799	-200.000	-0.069	-0.365
-648.784	452.113	-0.120	-0.269
-647.770	395.729	0.121	0.256
-646.755	18.944	0.160	-0.130
-645.741	146.517	-0.177	0.241
-644.726	-200.000	-0.041	0.265
-643.711	-99.384	-0.401	0.102
-642.697	210.900	-0.223	0.356
-641.682	-32.036	-0.149	-0.084
-640.668	-61.209	0.350	-0.149
-639.653	-77.620	-0.020	0.007
-638.638	-200.000	-0.014	0.166
-637.624	-154.323	-0.335	-0.023
-636.609	-64.341	-0.196	-0.081
-635.595	322.006	-0.096	0.185
-634.580	77.306	-0.130	-0.140
-633.565	-154.415	0.218	-0.015
-632.551	-200.000	0.001	-0.142
-631.536	218.124	-0.120	-0.193
-630.522	281.135	-0.112	0.202
-629.507	143.703	0.030	0.041
-628.492	-122.658	-0.108	-0.018
-627.478	-126.375	-0.232	0.035
-626.463	-157.568	-0.203	-0.012
-625.449	-200.000	0.022	-0.111
-624.434	770.186	0.150	-0.414
-623.419	-18.263	-0.137	0.087
-622.405	-114.292	-0.226	-0.044
-621.390	-135.075	0.314	-0.038
-620.376	68.005	0.008	0.008
-619.361	-200.000	0.021	-0.344
-618.346	800.000	-0.080	0.235
-617.332	293.816	0.138	0.256
-616.317	-143.797	0.206	-0.020
-615.303	454.974	0.034	-0.076
-614.288	-126.084	0.553	-0.084
-613.273	-183.776	-0.284	-0.005
-612.259	-132.813	-0.183	-0.024
-611.244	-96.595	0.583	0.155
-610.230	-178.176	0.205	0.005
-609.215	31.163	0.102	0.088
-608.201	-107.438	-0.225	-0.050
-607.186	-200.000	-0.005	0.126
-606.171	173.189	0.161	-0.235
-605.157	463.913	-0.047	0.105
-604.142	-5.964	-0.216	0.150
-603.128	-115.800	-0.242	0.046
-602.113	-53.141	0.092	-0.043
-601.098	-33.615	0.255	-0.143
-600.084	-7.164	0.197	-0.135
-599.069	800.000	0.101	-0.353
-598.055	-200.000	-0.034	-0.264
-597.040	110.608	-0.090	-0.109
-596.025	-40.626	0.165	0.086
-595.011	-7.808	0.150	-0.103
-593.996	-84.251	0.309	0.099
-592.982	138.714	0.203	-0.269
-591.967	-73.528	-0.270	0.100
-590.952	285.443	-0.208	-0.379
-589.938	-179.476	-0.361	0.008
-588.923	-44.857	-0.120	0.060
-587.909	-25.391	-0.034	0.020
-586.894	-163.850	-0.167	0.008
-585.879	-197.217	-0.139	-0.001
-584.865	-60.733	-0.216	-0.093
-583.850	444.212	-0.078	-0.174
-582.836	-45.106	-0.494	0.248
-581.821	286.727	-0.015	-0.027
-580.806	201.105	0.223	-0.347
-579.792	-38.970	-0.315	-0.168
-578.777	-3.302	-0.131	0.092
-577.763	123.372	-0.080	-0.101
-576.748	800.000	0.084	-0.298
-575.733	800.000	-0.068	0.202
-574.719	-72.150	-0.140	0.052
-573.704	800.000	-0.056	-0.187
-572.690	-69.680	0.094	-0.036
-571.675	19.833	0.127	0.103
-570.661	166.863	-0.166	-0.238
-569.646	-69.254	0.132	-0.051
-568.631	-51.392	0.162	-0.077
-567.617	-200.000	0.017	0.090
-566.602	186.746	0.214	0.321
-565.588	-200.000	-0.059	0.463
-564.573	-200.000	-0.004	-0.161
-563.558	-30.800	-0.079	-0.045
-562.544	24.495	0.215	-0.179
-561.529	800.000	0.031	0.087
-560.515	800.000	-0.032	-0.095
-559.500	359.424	-0.091	0.183
-558.485	667.665	-0.090	0.235
-557.471	-154.154	-0.141	-0.010
-556.456	-125.582	-0.260	0.040
-555.442	9.352	0.154	-0.118
-554.427	800.000	-0.034	0.121
-553.412	211.127	0.028	0.044
-552.398	-19.723	-0.320	-0.200
-551.383	800.000	-0.044	0.147
-550.369	113.843	-0.204	-0.250
-549.354	-78.552	-0.034	-0.012
-548.339	-195.306	-0.214	-0.002
-547.325	-200.000	-0.000	-0.198
-546.310	486.800	0.039	0.090
-545.296	399.328	0.052	-0.110
-544.281	-51.979	0.375	0.176
-543.266	84.358	0.093	0.103
-542.252	-200.000	0.014	0.138
-541.237	800.000	0.033	0.108
-540.223	28.305	-0.056	-0.047
-539.208	-200.000	0.003	-0.014
-538.193	-146.666	0.170	-0.015
-537.179	-112.751	-0.084	0.017
-536.164	141.660	0.147	0.196
-535.150	800.000	-0.061	0.235
-534.135	-32.414	-0.478	-0.269
-533.121	-200.000	-0.011	-0.151
-532.106	-115.596	-0.167	0.032
-531.091	20.875	0.278	-0.227
-530.077	-193.534	-0.122	0.001
-529.062	800.000	-0.025	-0.102
-528.048	241.450	0.210	-0.354
-527.033	-45.654	0.125	0.062
-526.018	-200.000	-0.040	-0.189
-525.004	-200.000	0.069	0.402
-523.989	104.311	-0.032	0.038
-522.975	127.935	-0.192	-0.247
-521.960	800.000	0.014	0.048
-520.945	800.000	0.037	-0.143
-519.931	800.000	-0.126	0.430
-518.916	66.774	-0.145	0.149
-517.902	-68.818	0.131	-0.051
-516.887	4.526	0.124	0.091
-515.872	-72.158	-0.094	-0.035
-514.858	-127.569	0.483	0.071
-513.843	-154.767	-0.426	-0.028
-512.829	-106.927	0.309	0.069
-511.814	-46.573	-0.117	-0.058
-510.799	55.137	-0.106	-0.103
-509.785	-49.546	-0.349	0.167
-508.770	-200.000	0.013	-0.348
-507.756	160.082	-0.112	0.157
-506.741	92.088	-0.089	-0.100
-505.726	75.121	0.061	0.065
-504.712	-200.000	0.012	0.159
-503.697	-200.000	-0.006	-0.053
-502.683	62.428	-0.107	-0.107
-501.668	-139.087	0.210	0.023
-500.653	800.000	-0.038	-0.136
-499.639	119.574	0.197	0.245
-498.624	37.501	0.092	0.082
-497.610	-111.903	-0.091	-0.019
-496.595	287.094	0.183	0.332
-495.581	-200.000	0.059	0.370
-494.566	-124.306	0.209	0.033
-493.551	336.173	0.137	-0.267
-492.537	-83.587	-0.219	-0.070
-491.522	-67.507	-0.148	-0.058
-490.508	800.000	0.061	0.202
-489.493	372.409	-0.161	0.329
-488.478	155.690	-0.028	-0.039
-487.464	-200.000	-0.038	-0.191
-486.449	800.000	-0.100	-0.283
-485.435	159.005	-0.149	-0.209
-484.420	285.510	-0.123	0.223
-483.405	48.487	-0.137	0.130
-482.391	45.318	-0.093	-0.086
-481.376	-28.975	0.184	-0.106
-480.362	3.934	0.162	0.119
-479.347	-37.574	0.212	-0.114
-478.332	-200.000	-0.011	0.178
-477.318	134.271	0.197	-0.257
-476.303	16.394	0.270	-0.215
-475.289	28.338	-0.085	0.072
-474.274	160.654	0.086	-0.121
-473.259	-200.000	0.003	-0.134
-472.245	65.987	-0.023	-0.024
-471.230	154.287	-0.198	-0.274
-470.216	800.000	-0.032	-0.101
-469.201	427.964	-0.151	0.328
-468.186	-37.626	0.047	0.025
-467.172	524.494	-0.023	-0.054
-466.157	-200.000	0.017	0.428
-465.143	-137.106	-0.352	0.040
-464.128	-78.551	0.092	-0.032
-463.113	112.677	0.051	-0.062
-462.099	-35.964	-0.248	-0.135
-461.084	447.383	0.045	-0.099
-460.070	-24.109	-0.096	0.058
-459.055	6.806	-0.323	0.242
-458.040	-187.376	-0.285	-0.004
-457.026	-46.028	0.274	0.136
-456.011	800.000	0.092	0.329
-454.997	344.292	0.109	-0.214
-453.982	-131.297	0.100	0.013
-452.968	800.000	-0.149	0.435
-451.953	-110.993	0.214	0.044
-450.938	24.454	-0.252	-0.209
-449.924	-166.640	0.178	0.007
-448.909	28.488	0.208	0.177
-447.895	800.000	-0.103	0.356
-446.880	9.247	-0.126	-0.095
-445.865	-85.042	-0.198	0.062
-444.851	17.815	-0.238	0.191
-443.836	12.460	0.166	-0.129
-442.822	800.000	0.048	0.149
-441.807	294.981	-0.099	-0.181
-440.792	293.616	-0.068	0.125
-439.778	88.529	0.143	-0.159
-438.763	-200.000	-0.012	0.154
-437.749	-94.426	-0.184	-0.050
-436.734	-83.699	-0.312	0.100
-435.719	16.574	0.110	0.087
-434.705	-51.647	0.452	0.212
-433.690	31.740	0.143	0.124
-432.676	48.277	0.090	0.085
-431.661	406.752	-0.116	0.245
-430.646	-200.000	-0.008	0.057
-429.632	329.901	-0.085	-0.164
-428.617	-120.345	0.121	-0.021
-427.603	58.191	0.095	0.093
-426.588	-63.716	-0.118	-0.048
-425.573	78.270	0.080	0.086
-424.559	-129.076	-0.108	-0.015
-423.544	-98.682	-0.125	0.032
-422.530	157.312	0.169	0.235
-421.515	-200.000	-0.023	-0.112
-420.500	-74.285	-0.041	0.015
-419.486	36.089	0.087	0.077
-418.471	-89.944	0.082	-0.024
-417.457	800.000	0.096	-0.340
-416.442	18.769	-0.266	0.214
-415.428	800.000	0.042	-0.138
-414.413	336.435	0.105	-0.205
-413.398	405.024	-0.041	0.088
-412.384	-1.750	-0.248	-0.175
-411.369	164.773	-0.108	-0.153
-410.355	-119.432	0.419	-0.073
-409.340	-68.206	-0.238	-0.093
-408.325	-200.000	-0.042	-0.267
-407.311	57.624	0.170	-0.167
-406.296	-200.000	-0.003	-0.316
-405.282	794.998	0.064	0.177
-404.267	80.368	0.199	-0.215
-403.252	-200.000	-0.002	-0.086
-402.238	453.580	-0.066	0.147
-401.223	-200.000	-0.021	0.157
-400.209	791.149	0.032	0.088
-399.194	800.000	0.068	0.287
-398.179	-60.526	0.245	-0.105
-397.165	-200.000	0.011	0.093
-396.150	-200.000	0.088	0.442
-395.136	-142.470	0.224	0.022
-394.121	-49.506	-0.267	0.128
-393.106	-200.000	-0.011	-0.280
-392.092	317.535	0.133	0.251
-391.077	142.834	-0.302	0.403
-390.063	76.330	-0.025	-0.027
-389.048	69.261	0.127	-0.131
-388.033	-28.187	-0.042	0.024
-387.019	-141.278	0.033	0.003
-386.004	-145.464	0.108	-0.010
-384.990	-200.000	0.014	0.070
-383.975	71.797	0.039	-0.041
-382.960	61.414	-0.125	-0.124
-381.946	-114.549	0.193	-0.037
-380.931	55.606	0.178	0.173
-379.917	-200.000	0.009	0.143
-378.902	49.624	0.209	-0.197
-377.888	-117.818	0.147	0.026
-376.873	800.000	-0.057	0.157
-375.858	-193.382	0.070	0.001
-374.844	77.617	-0.224	-0.239
-373.829	-100.119	-0.341	-0.085
-372.815	-58.196	-0.156	0.068
-371.800	-200.000	0.005	-0.167
-370.785	-58.767	-0.078	0.034
-369.771	-189.206	0.388	0.005
-368.756	-41.546	0.303	-0.156
-367.742	50.063	0.100	0.094
-366.727	-101.625	-0.173	-0.042
-365.712	-94.660	-0.099	0.027
-364.698	273.886	-0.114	-0.202
-363.683	192.350	0.159	-0.240
-362.669	-200.000	-0.011	0.180
-361.654	-94.375	-0.380	-0.104
-360.639	172.305	-0.199	-0.286
-359.625	800.000	0.092	-0.316
-358.610	-55.575	-0.085	-0.038
-357.596	-200.000	0.010	0.057
-356.581	-77.876	-0.162	-0.056
-355.566	31.499	0.253	-0.218
-354.552	23.516	0.273	-0.225
-353.537	-114.070	-0.434	-0.084
-352.523	188.084	-0.138	-0.206
-351.508	23.316	0.436	0.358
-350.493	-44.318	0.176	0.088
-349.479	62.128	-0.036	-0.036
-348.464	490.362	0.068	0.157
-347.450	-130.658	-0.206	0.028
-346.435	346.758	0.138	-0.272
-345.420	-108.308	-0.426	-0.092
-344.406	535.383	-0.017	0.040
-343.391	800.000	-0.009	0.029
-342.377	-83.795	-0.152	0.049
-341.362	-200.000	0.000	0.069
-340.348	-191.310	0.101	0.001
-339.333	27.885	-0.251	0.212
-338.318	-54.558	-0.116	-0.053
-337.304	-30.870	0.220	-0.124
-336.289	-83.243	0.079	-0.025
-335.275	-68.222	0.296	-0.115
-334.260	-68.136	0.331	0.129
-333.245	94.293	-0.066	-0.075
-332.231	-200.000	-0.059	0.419
-331.216	-67.934	0.181	0.071
-330.202	-68.247	0.217	-0.085
-329.187	-156.603	0.196	0.012
-328.172	-131.312	-0.102	-0.014
-327.158	-88.050	-0.288	0.087
-326.143	-119.654	-0.318	0.055
-325.129	-93.728	0.371	0.102
-324.114	347.517	-0.102	-0.201
-323.099	-90.261	0.019	0.006
-322.085	800.000	-0.041	-0.177
-321.070	800.000	-0.046	-0.190
-320.056	-61.063	0.265	-0.112
-319.041	-200.000	0.005	0.126
-318.026	-200.000	0.162	-0.000
-317.012	-95.787	-0.271	0.072
-315.997	81.357	0.180	-0.195
-314.983	-200.000	0.008	0.211
-313.968	55.107	0.131	-0.127
-312.953	30.188	-0.087	-0.074
-311.939	-109.183	-0.225	0.048
-310.924	-137.180	-0.491	0.056
-309.910	190.949	0.055	0.083
-308.895	35.445	0.215	-0.188
-307.880	-45.181	0.338	0.168
-306.866	-9.442	-0.111	0.074
-305.851	-81.077	-0.313	0.103
-304.837	800.000	-0.031	0.090
-303.822	13.159	0.316	-0.245
-302.807	117.918	0.086	-0.106
-301.793	-69.351	0.253	-0.097
-300.778	545.843	0.093	-0.221
-299.764	-2.336	0.036	-0.025
-298.749	-87.741	-0.162	0.049
-297.735	482.901	0.082	-0.186
-296.720	-41.787	0.162	0.083
-295.705	-200.000	0.000	-0.115
-294.691	299.420	0.108	0.198
-293.676	153.333	-0.069	0.094
-292.662	-115.191	0.245	-0.046
-291.647	43.659	-0.124	0.113
-290.632	73.380	-0.041	-0.043
-289.618	775.459	0.096	0.262
-288.603	493.230	-0.081	0.185
-287.589	800.000	0.031	-0.101
-286.574	800.000	-0.045	0.137
-285.559	56.294	-0.129	0.125
-284.545	-77.072	0.231	0.080
-283.530	145.511	0.092	0.123
-282.516	21.758	-0.165	0.134
-281.501	666.925	-0.142	-0.366
-280.486	-24.396	0.278	-0.165
-279.472	800.000	0.051	0.157
-278.457	-200.000	-0.003	0.083
-277.443	-200.000	-0.018	0.224
-276.428	800.000	0.027	-0.075
-275.413	-167.762	0.278	0.011
-274.399	800.000	0.081	-0.337
-273.384	-200.000	0.019	0.167
-272.370	188.732	0.092	0.137
-271.355	188.704	0.093	-0.138
-270.340	-200.000	0.007	0.076
-269.326	800.000	-0.130	0.369
-268.311	-200.000	-0.049	0.220
-267.297	51.670	0.227	0.216
-266.282	800.000	0.063	-0.209
-265.267	-77.972	-0.107	0.037
-264.253	-177.497	0.309	-0.008
-263.238	51.715	0.105	0.100
-262.224	639.487	-0.040	-0.102
-261.209	800.000	0.018	-0.072
-260.195	-200.000	-0.029	-0.278
-259.180	-28.943	0.046	0.026
-258.165	-55.099	-0.389	-0.175
-257.151	127.780	0.038	0.048
-256.136	-47.426	-0.184	0.089
-255.122	438.833	0.116	-0.254
-254.107	17.337	-0.239	0.190
-253.092	800.000	-0.073	0.241
-252.078	-28.914	-0.401	0.230
-251.063	-62.681	-0.314	0.130
-250.049	-111.034	0.162	-0.033
-249.034	-200.000	0.018	0.113
-248.019	255.073	0.156	0.267
-247.005	800.000	-0.115	0.379
-245.990	800.000	0.033	-0.124
-244.976	-168.731	-0.106	0.004
-243.961	174.261	-0.118	-0.170
-242.946	-147.850	-0.201	-0.017
-241.932	88.896	0.172	0.190
-240.917	-39.774	-0.142	0.074
-239.903	327.959	-0.059	0.112
-238.888	164.448	-0.089	0.125
-237.873	-38.525	0.156	0.082
-236.859	-142.501	0.229	-0.022
-235.844	800.000	0.049	0.187
-234.830	593.127	-0.064	0.158
-233.815	800.000	0.103	0.391
-232.800	-92.508	-0.268	-0.075
-231.786	-58.034	0.214	-0.093
-230.771	607.717	-0.022	-0.055
-229.757	106.582	0.150	-0.178
-228.742	800.000	0.034	-0.113
-227.727	-112.507	0.414	0.082
-226.713	-200.000	0.007	-0.156
-225.698	23.077	0.169	0.138
-224.684	-200.000	0.012	-0.311
-223.669	800.000	-0.087	0.264
-222.655	-88.379	-0.069	-0.020
-221.640	429.034	0.111	0.239
-220.625	800.000	-0.085	-0.240
-219.611	-144.744	0.105	-0.010
-218.596	97.975	0.162	-0.186
-217.582	-47.821	0.186	-0.090
-216.567	-145.682	-0.182	0.016
-215.552	-102.226	0.171	0.041
-214.538	297.525	-0.057	-0.104
-213.523	-200.000	0.019	-0.274
-212.509	-132.403	-0.091	0.012
-211.494	-121.731	-0.122	-0.020
-210.479	-79.126	-0.294	-0.099
-209.465	515.655	-0.015	0.035
-208.450	-72.989	-0.284	-0.104
-207.436	-58.231	0.233	-0.101
-206.421	729.002	0.071	-0.190
-205.406	-88.809	0.174	-0.051
-204.392	-20.929	-0.303	0.185
-203.377	200.909	-0.112	-0.171
-202.363	-200.000	0.042	0.215
-201.348	28.113	-0.088	0.074
-200.333	-53.576	0.147	0.067
-199.319	-151.458	-0.060	-0.004
-198.304	-200.000	-0.005	-0.044
-197.290	-152.647	0.188	0.013
-196.275	-94.913	-0.126	0.034
-195.260	-103.005	0.493	-0.116
-194.246	486.945	0.066	0.150
-193.231	545.951	0.118	-0.281
-192.217	-191.820	-0.334	0.003
-191.202	-9.386	0.212	0.141
-190.187	248.216	0.108	0.181
-189.173	-200.000	-0.012	0.058
-188.158	131.243	0.058	-0.074
-187.144	127.971	-0.243	-0.308
-186.129	-95.107	0.349	0.094
-185.114	104.177	0.116	0.136
-184.100	-143.620	-0.375	-0.035
-183.085	224.017	0.151	0.242
-182.071	-22.503	-0.167	0.100
-181.056	159.375	0.128	-0.177
-180.042	74.217	-0.221	0.231
-179.027	-102.512	-0.307	0.073
-178.012	-117.995	0.331	0.059
-176.998	53.767	0.183	0.175
-175.983	-126.039	0.343	-0.051
-174.969	68.483	0.269	-0.274
-173.954	-2.121	-0.327	-0.228
-172.939	-56.443	0.132	0.058
-171.925	67.919	0.141	-0.143
-170.910	172.416	-0.021	-0.030
-169.896	75.707	-0.178	-0.186
-168.881	15.519	-0.085	-0.067
-167.866	194.848	-0.118	-0.178
-166.852	-200.000	-0.008	-0.209
-165.837	-31.495	0.119	-0.066
-164.823	-16.495	-0.243	-0.153
-163.808	-60.799	0.319	0.134
-162.793	800.000	-0.103	-0.293
-161.779	-116.130	-0.069	-0.013
-160.764	0.667	0.101	0.072
-159.750	-188.418	0.154	0.002
-158.735	800.000	0.008	0.030
-157.720	-78.568	0.159	-0.054
-156.706	-98.586	0.189	0.048
-155.691	189.297	-0.077	0.114
-154.677	-145.769	-0.218	0.019
-153.662	-19.760	-0.294	0.180
-152.647	-200.000	0.001	0.126
-151.633	-17.895	0.349	-0.217
-150.618	4.784	-0.164	0.120
-149.604	800.000	-0.051	-0.155
-148.589	419.909	-0.058	0.123
-147.574	76.429	0.192	-0.202
-146.560	-42.783	-0.268	-0.135
-145.545	16.263	-0.149	-0.117
-144.531	-27.063	-0.156	0.091
-143.516	-136.191	-0.083	-0.010
-142.502	39.831	0.021	0.019
-141.487	-200.000	0.004	-0.097
-140.472	-200.000	-0.067	0.405
-139.458	-200.000	0.055	-0.286
-138.443	-100.099	-0.460	-0.114
-137.429	194.329	0.041	-0.062
-136.414	-200.000	0.072	0.452
-135.399	13.850	0.052	-0.040
-134.385	84.989	0.177	0.193
-133.370	-200.000	0.037	-0.405
-132.356	-68.612	-0.210	-0.081
-131.341	-128.734	0.110	-0.015
-130.326	-101.172	0.151	0.037
-129.312	-111.903	0.083	-0.017
-128.297	56.773	-0.280	-0.270
-127.283	163.141	0.177	-0.247
-126.268	-200.000	-0.031	0.327
-125.253	800.000	-0.088	0.292
-124.239	642.483	-0.079	-0.199
-123.224	-64.700	-0.170	-0.069
-122.210	-200.000	-0.012	-0.170
-121.195	-200.000	-0.011	-0.160
