DTS Sentinel unit serial number:	SN413079Multiplexer serial number:	ORYXHardware model number:	OX4-SRSoftware version number:	ORYX F/W v4.00 Oryx Data Collector v3.7.2.0data status	okinstallation	princeton_trtdifferential loss correction	single-endedforward channel	channel 1reverse channel	N/Adate	2019/09/13time	10:26:35forward acquisition time	60.00reverse acquisition time	0.00gamma	496.2192k internal	0.2322k external	0.2322temperature offset calibration	1.0161default loss term (dB/km)	0.3790temperature slope calibration	1.0000multiplexer offset coefficient	1.0000multiplexer slope coefficient	1.0000fibre end	0.00T internal ref (°C)	31.05T ext. ref 1 (°C)	4.53T ext. ref 2 (°C)	28.00length (m)	temperature (°C)	Stokes	anti-Stokes-747.200	27.446	0.108	-0.091
-746.185	-54.818	0.083	0.038
-745.171	-104.889	0.143	0.033
-744.156	800.000	-0.167	0.477
-743.142	-108.495	-0.181	-0.039
-742.127	-200.000	0.005	0.215
-741.112	251.262	-0.161	0.277
-740.098	50.736	0.185	0.177
-739.083	-200.000	0.007	0.241
-738.069	-66.388	0.316	0.127
-737.054	800.000	-0.034	0.124
-736.039	-118.735	-0.220	-0.039
-735.025	800.000	-0.052	0.179
-734.010	299.082	-0.193	-0.359
-732.996	168.959	0.090	-0.130
-731.981	-200.000	-0.023	-0.275
-730.966	554.752	0.180	-0.438
-729.952	26.645	-0.028	-0.024
-728.937	576.286	0.066	-0.163
-727.923	40.671	-0.374	0.340
-726.908	11.174	0.059	0.045
-725.894	47.564	-0.133	-0.125
-724.879	294.671	0.090	-0.166
-723.864	-158.203	-0.245	-0.014
-722.850	257.583	-0.100	-0.174
-721.835	512.129	0.062	-0.146
-720.821	-59.679	0.059	0.025
-719.806	-200.000	0.015	-0.120
-718.791	-112.647	-0.271	-0.054
-717.777	-98.694	-0.521	0.134
-716.762	-200.000	-0.019	-0.186
-715.748	800.000	-0.067	0.224
-714.733	96.842	0.271	-0.314
-713.718	-30.225	-0.174	-0.100
-712.704	583.273	0.092	-0.228
-711.689	-70.086	0.172	0.066
-710.675	-98.951	-0.147	0.038
-709.660	-157.039	-0.235	-0.014
-708.645	-200.000	-0.045	0.333
-707.631	-10.050	-0.292	-0.196
-706.616	-103.374	0.141	0.034
-705.602	75.655	-0.155	-0.165
-704.587	40.641	-0.056	-0.051
-703.572	-200.000	0.040	0.228
-702.558	338.646	0.138	-0.271
-701.543	-114.955	0.144	-0.028
-700.529	-158.371	-0.214	-0.013
-699.514	5.916	-0.090	-0.067
-698.499	-181.369	-0.245	0.005
-697.485	90.674	0.115	-0.130
-696.470	24.208	-0.126	-0.105
-695.456	-161.110	0.250	0.013
-694.441	-157.821	-0.188	0.011
-693.426	-9.522	-0.210	0.141
-692.412	-55.687	-0.205	0.092
-691.397	-2.674	0.107	-0.076
-690.383	800.000	-0.099	-0.340
-689.368	-21.750	-0.209	-0.128
-688.354	-95.666	-0.045	-0.012
-687.339	-200.000	-0.010	0.091
-686.324	-138.898	-0.259	0.028
-685.310	210.403	-0.194	0.307
-684.295	339.068	0.051	-0.101
-683.281	73.445	-0.185	-0.195
-682.266	-200.000	-0.037	0.167
-681.251	-72.770	0.428	0.159
-680.237	-200.000	0.002	-0.119
-679.222	-77.143	-0.267	0.094
-678.208	21.175	0.186	-0.152
-677.193	293.664	0.085	0.156
-676.178	-159.083	-0.213	0.012
-675.164	-40.667	0.183	0.096
-674.149	43.182	-0.264	0.243
-673.135	-53.455	0.298	0.138
-672.120	716.586	-0.088	-0.236
-671.105	800.000	0.066	-0.199
-670.091	313.325	-0.136	0.258
-669.076	341.700	0.115	-0.227
-668.062	-52.580	0.184	0.086
-667.047	-152.557	0.098	0.007
-666.032	-130.141	-0.101	-0.014
-665.018	245.619	0.085	-0.144
-664.003	710.728	0.073	0.196
-662.989	52.361	-0.358	-0.344
-661.974	-22.351	-0.305	-0.186
-660.959	352.728	-0.114	-0.228
-659.945	-23.885	-0.218	0.131
-658.930	725.010	0.149	0.399
-657.916	-98.670	-0.181	-0.046
-656.901	-3.852	-0.119	-0.083
-655.886	441.297	0.132	-0.291
-654.872	800.000	-0.066	-0.208
-653.857	-32.185	0.201	-0.113
-652.843	216.563	0.125	0.201
-651.828	-101.046	-0.091	0.023
-650.814	-200.000	0.005	-0.061
-649.799	-161.743	0.311	-0.016
-648.784	-200.000	-0.032	-0.182
-647.770	-98.114	0.339	-0.088
-646.755	145.794	0.146	0.198
-645.741	-46.679	0.265	0.131
-644.726	68.631	-0.075	-0.078
-643.711	-36.486	0.121	0.065
-642.697	800.000	0.118	0.391
-641.682	172.889	-0.040	-0.057
-640.668	800.000	-0.077	0.223
-639.653	-200.000	0.014	-0.116
-638.638	-200.000	-0.036	-0.206
-637.624	121.434	-0.170	0.214
-636.609	-98.190	0.167	-0.043
-635.595	26.477	0.264	0.222
-634.580	165.362	-0.083	-0.118
-633.565	-163.568	-0.185	-0.009
-632.551	-28.453	0.167	0.097
-631.536	-83.390	0.271	-0.087
-630.522	44.402	-0.240	-0.222
-629.507	-126.054	-0.137	-0.021
-628.492	61.563	-0.183	0.183
-627.478	704.443	0.065	-0.172
-626.463	-165.529	-0.188	0.008
-625.449	-168.970	-0.322	0.012
-624.434	106.011	-0.097	-0.116
-623.419	143.453	-0.088	0.117
-622.405	-76.443	-0.155	-0.055
-621.390	-200.000	-0.023	0.224
-620.376	-7.051	-0.073	-0.050
-619.361	-99.887	-0.149	0.037
-618.346	-87.118	-0.154	-0.047
-617.332	258.794	-0.125	0.216
-616.317	-153.812	0.204	0.014
-615.303	-200.000	0.015	0.099
-614.288	-31.849	-0.210	0.118
-613.273	-35.261	-0.189	0.104
-612.259	-150.334	-0.197	0.015
-611.244	-75.449	0.154	0.055
-610.230	14.201	-0.196	0.153
-609.215	-144.465	-0.128	-0.012
-608.201	-64.138	0.260	0.107
-607.186	38.356	-0.142	-0.127
-606.171	686.375	0.186	-0.489
-605.157	112.876	-0.135	-0.164
-604.142	-144.675	-0.301	0.028
-603.128	-174.370	-0.208	0.006
-602.113	-200.000	-0.005	-0.117
-601.098	166.210	0.099	0.141
-600.084	800.000	-0.014	0.047
-599.069	-58.754	0.083	-0.036
-598.055	36.097	-0.026	-0.023
-597.040	92.702	0.250	0.283
-596.025	-26.693	-0.159	-0.093
-595.011	-72.836	-0.219	-0.081
-593.996	15.142	0.030	0.024
-592.982	303.033	-0.040	-0.074
-591.967	2.376	-0.069	0.050
-590.952	-200.000	0.017	0.264
-589.938	-200.000	-0.002	0.201
-588.923	-200.000	-0.009	-0.089
-587.909	-173.586	0.427	0.013
-586.894	-166.340	0.135	-0.006
-585.879	-193.673	0.063	0.001
-584.865	95.517	-0.129	0.148
-583.850	-148.850	0.185	-0.015
-582.836	-200.000	-0.015	-0.412
-581.821	-200.000	-0.024	-0.309
-580.806	234.963	-0.178	0.294
-579.792	-72.400	0.103	0.038
-578.777	163.732	0.231	0.326
-577.763	80.685	-0.481	0.521
-576.748	-12.857	0.094	0.062
-575.733	-12.835	0.066	0.043
-574.719	101.478	-0.102	-0.120
-573.704	-116.657	-0.249	0.046
-572.690	800.000	-0.085	-0.348
-571.675	-167.610	0.165	-0.007
-570.661	-200.000	-0.010	-0.076
-569.646	35.258	0.202	0.177
-568.631	-200.000	0.050	-0.392
-567.617	-16.247	-0.083	-0.053
-566.602	1.117	0.285	0.205
-565.588	24.025	-0.098	-0.081
-564.573	-101.703	0.264	-0.064
-563.558	58.843	0.207	0.204
-562.544	-200.000	-0.004	0.029
-561.529	-57.229	-0.171	0.075
-560.515	31.106	0.212	-0.182
-559.500	-200.000	0.089	-0.434
-558.485	-90.572	0.105	0.030
-557.471	-99.003	-0.083	0.021
-556.456	-32.942	-0.183	-0.102
-555.442	50.820	-0.185	-0.176
-554.427	139.023	0.095	-0.125
-553.412	98.769	0.185	0.214
-552.398	-0.565	-0.215	-0.153
-551.383	-62.352	-0.306	0.128
-550.369	-200.000	0.059	-0.284
-549.354	-200.000	0.008	-0.173
-548.339	-100.278	-0.115	-0.029
-547.325	-29.487	-0.035	-0.020
-546.310	-56.056	-0.151	0.067
-545.296	163.646	-0.131	-0.184
-544.281	-200.000	0.000	0.029
-543.266	133.817	-0.244	0.317
-542.252	77.969	0.169	0.180
-541.237	800.000	0.037	-0.158
-540.223	-200.000	0.003	-0.185
-539.208	-101.494	-0.118	-0.029
-538.193	253.481	-0.152	-0.259
-537.179	91.802	0.236	-0.266
-536.164	302.123	0.101	-0.187
-535.150	86.666	-0.033	0.037
-534.135	800.000	-0.019	0.054
-533.121	-200.000	0.015	-0.098
-532.106	209.155	-0.079	-0.125
-531.091	161.382	0.097	-0.136
-530.077	579.168	0.041	-0.102
-529.062	-200.000	-0.006	-0.070
-528.048	-200.000	-0.036	-0.177
-527.033	-40.988	-0.058	-0.030
-526.018	-67.707	-0.142	0.056
-525.004	-153.839	0.289	0.020
-523.989	-138.839	-0.168	0.018
-522.975	-200.000	-0.061	0.372
-521.960	-200.000	-0.029	0.176
-520.945	42.936	0.010	-0.009
-519.931	800.000	0.106	-0.407
-518.916	800.000	0.097	-0.373
-517.902	67.253	-0.180	-0.184
-516.887	225.118	0.101	0.163
-515.872	677.765	-0.093	0.242
-514.858	404.466	0.129	-0.272
-513.843	161.356	0.178	0.250
-512.829	-16.893	0.035	0.022
-511.814	21.315	0.060	-0.049
-510.799	-27.149	-0.308	0.180
-509.785	218.358	-0.102	0.163
-508.770	-200.000	-0.024	-0.395
-507.756	37.585	-0.263	-0.234
-506.741	1.542	0.162	-0.117
-505.726	800.000	-0.054	0.166
-504.712	289.801	-0.182	0.330
-503.697	6.798	0.080	0.060
-502.683	-31.324	0.111	-0.062
-501.668	-200.000	0.016	-0.139
-500.653	-92.991	0.188	-0.052
-499.639	-75.578	-0.116	-0.041
-498.624	-200.000	0.008	0.250
-497.610	-28.307	0.194	-0.112
-496.595	-73.912	0.091	-0.033
-495.581	-54.712	0.101	0.046
-494.566	800.000	0.259	-0.741
-493.551	8.229	0.098	-0.074
-492.537	800.000	-0.025	-0.099
-491.522	-200.000	-0.015	-0.112
-490.508	-109.870	-0.265	-0.056
-489.493	485.559	0.123	-0.279
-488.478	12.867	0.021	0.016
-487.464	31.478	0.198	-0.170
-486.449	800.000	0.077	0.312
-485.435	-5.373	0.264	0.182
-484.420	-113.999	-0.161	-0.031
-483.405	313.448	0.152	-0.286
-482.391	-133.487	-0.086	0.011
-481.376	789.003	-0.083	-0.228
-480.362	-200.000	0.001	0.078
-479.347	-130.118	0.260	0.035
-478.332	800.000	-0.024	0.073
-477.318	-46.640	0.347	0.170
-476.303	800.000	-0.070	0.213
-475.289	-104.606	-0.240	-0.055
-474.274	51.476	-0.084	0.079
-473.259	-105.779	-0.337	-0.076
-472.245	-23.621	0.033	-0.020
-471.230	78.821	0.141	0.151
-470.216	-82.230	0.058	-0.019
-469.201	77.972	0.118	0.126
-468.186	109.288	0.040	-0.048
-467.172	-8.429	0.172	-0.116
-466.157	212.589	0.027	-0.042
-465.143	-79.787	-0.186	0.063
-464.128	-126.696	-0.117	0.017
-463.113	-52.480	0.358	-0.165
-462.099	-200.000	0.026	-0.255
-461.084	-186.491	0.295	-0.004
-460.070	323.729	-0.057	0.109
-459.055	-200.000	0.013	0.275
-458.040	-200.000	0.004	-0.091
-457.026	242.919	0.035	0.058
-456.011	-4.566	0.301	0.208
-454.997	565.663	-0.088	0.214
-453.982	-200.000	-0.025	-0.163
-452.968	218.929	0.131	0.210
-451.953	-186.977	-0.233	0.003
-450.938	59.489	0.161	0.159
-449.924	25.423	-0.183	0.152
-448.909	800.000	-0.045	0.138
-447.895	202.499	0.104	-0.161
-446.880	269.613	-0.077	0.135
-445.865	214.075	-0.048	0.075
-444.851	-200.000	0.073	0.348
-443.836	-73.930	-0.187	-0.068
-442.822	505.918	-0.104	0.240
-441.807	800.000	-0.074	0.222
-440.792	-163.158	-0.223	-0.011
-439.778	800.000	-0.010	-0.039
-438.763	-46.802	-0.127	-0.062
-437.749	178.442	-0.167	0.244
-436.734	800.000	-0.090	0.269
-435.719	-161.564	0.245	0.013
-434.705	-145.930	-0.294	-0.026
-433.690	47.428	0.209	0.195
-432.676	-96.543	-0.347	-0.091
-431.661	507.290	0.113	-0.261
-430.646	-162.400	-0.157	-0.008
-429.632	-200.000	-0.011	-0.248
-428.617	-17.658	-0.162	-0.102
-427.603	412.011	0.069	0.146
-426.588	800.000	-0.090	-0.267
-425.573	127.805	-0.067	-0.085
-424.559	-144.538	0.069	0.006
-423.544	-200.000	-0.007	0.188
-422.530	800.000	0.104	0.320
-421.515	701.265	0.110	0.290
-420.500	800.000	0.024	-0.071
-419.486	-185.560	-0.288	-0.004
-418.471	65.771	-0.179	0.181
-417.457	-20.616	0.059	0.036
-416.442	140.716	0.097	-0.128
-415.428	-74.580	-0.014	-0.005
-414.413	101.399	-0.194	-0.226
-413.398	-151.635	-0.122	-0.009
-412.384	252.806	0.040	-0.068
-411.369	-200.000	0.013	-0.163
-410.355	-121.971	-0.295	-0.048
-409.340	531.616	-0.130	-0.307
-408.325	-53.735	-0.439	-0.200
-407.311	-40.178	-0.042	-0.022
-406.296	800.000	0.095	-0.348
-405.282	-200.000	-0.017	0.275
-404.267	-32.317	0.100	0.055
-403.252	-200.000	0.002	-0.117
-402.238	6.112	-0.144	-0.107
-401.223	-97.263	0.135	0.035
-400.209	530.427	0.085	0.200
-399.194	17.046	-0.096	0.075
-398.179	555.362	-0.084	-0.202
-397.165	800.000	0.033	-0.139
-396.150	-44.696	-0.128	0.064
-395.136	-200.000	0.058	-0.259
-394.121	43.200	0.197	-0.180
-393.106	22.797	0.008	-0.006
-392.092	-131.486	-0.198	-0.026
-391.077	-164.702	0.194	0.009
-390.063	43.261	-0.200	-0.182
-389.048	-121.102	0.079	-0.013
-388.033	389.012	0.116	-0.239
-387.019	178.580	0.081	0.118
-386.004	-120.154	-0.356	0.061
-384.990	800.000	0.055	-0.182
-383.975	-71.854	0.241	0.089
-382.960	-200.000	0.037	-0.285
-381.946	114.122	0.122	-0.148
-380.931	-6.351	0.228	-0.155
-379.917	-16.919	0.219	-0.138
-378.902	-200.000	-0.009	0.174
-377.888	26.883	-0.139	0.116
-376.873	220.148	0.099	-0.158
-375.858	202.039	0.216	0.332
-374.844	-82.521	-0.202	0.065
-373.829	-134.319	-0.230	0.028
-372.815	800.000	0.104	0.387
-371.800	-145.468	0.293	0.026
-370.785	-82.608	0.140	0.045
-369.771	-22.099	0.075	0.045
-368.756	23.832	-0.089	-0.073
-367.742	-200.000	-0.020	0.104
-366.727	-17.219	-0.197	0.124
-365.712	63.242	-0.253	0.253
-364.698	800.000	0.078	0.216
-363.683	-200.000	0.016	0.073
-362.669	191.933	0.063	-0.095
-361.654	-144.272	0.195	0.018
-360.639	53.475	0.220	0.210
-359.625	800.000	0.066	-0.221
-358.610	182.560	0.268	-0.393
-357.596	134.110	-0.075	0.097
-356.581	-29.169	0.169	-0.097
-355.566	756.025	0.046	0.123
-354.552	-179.919	0.179	0.004
-353.537	44.450	-0.407	0.372
-352.523	347.011	-0.194	0.379
-351.508	800.000	0.055	0.193
-350.493	245.053	0.104	-0.175
-349.479	-188.079	-0.422	-0.005
-348.464	-83.784	0.319	-0.101
-347.450	110.706	-0.331	0.396
-346.435	207.649	-0.107	-0.166
-345.420	67.669	0.103	0.104
-344.406	-200.000	-0.049	0.221
-343.391	-44.977	0.244	-0.121
-342.377	-43.427	0.331	0.166
-341.362	-118.448	0.076	-0.013
-340.348	-118.974	0.232	-0.040
-339.333	800.000	-0.045	0.166
-338.318	-200.000	0.002	-0.064
-337.304	-71.960	-0.490	0.181
-336.289	-200.000	-0.004	0.125
-335.275	-26.975	0.227	0.132
-334.260	800.000	0.085	0.319
-333.245	-113.659	-0.243	-0.047
-332.231	-37.301	0.167	-0.089
-331.216	-155.235	0.081	-0.005
-330.202	268.579	0.149	0.260
-329.187	-44.572	0.120	0.060
-328.172	-200.000	0.041	0.418
-327.158	-120.280	-0.047	0.008
-326.143	24.272	0.203	-0.167
-325.129	-200.000	-0.042	-0.264
-324.114	91.260	0.160	0.178
-323.099	-92.934	0.355	0.098
-322.085	279.795	0.280	-0.497
-321.070	-200.000	-0.046	0.229
-320.056	88.007	-0.165	-0.182
-319.041	217.030	-0.079	-0.125
-318.026	586.990	-0.094	-0.230
-317.012	470.764	0.103	-0.230
-315.997	-141.290	-0.312	-0.032
-314.983	123.944	0.170	-0.212
-313.968	800.000	0.024	0.082
-312.953	800.000	0.065	0.236
-311.939	800.000	-0.080	-0.223
-310.924	-200.000	-0.079	-0.360
-309.910	-15.343	-0.173	-0.110
-308.895	-41.979	0.181	-0.092
-307.880	266.231	0.109	-0.190
-306.866	60.748	0.257	0.253
-305.851	800.000	0.051	-0.164
-304.837	8.280	0.284	-0.212
-303.822	-200.000	0.011	-0.049
-302.807	-200.000	-0.008	-0.249
-301.793	284.678	-0.016	0.029
-300.778	-200.000	-0.030	0.326
-299.764	-76.992	-0.316	0.109
-298.749	-117.629	-0.368	-0.066
-297.735	298.042	-0.066	0.121
-296.720	-200.000	0.027	0.204
-295.705	-200.000	-0.047	0.375
-294.691	208.221	-0.133	-0.206
-293.676	184.802	0.115	-0.169
-292.662	-132.879	-0.197	0.025
-291.647	558.963	-0.137	0.327
-290.632	-200.000	-0.044	-0.355
-289.618	174.619	0.165	-0.236
-288.603	-200.000	0.007	0.073
-287.589	593.998	-0.056	0.138
-286.574	88.629	-0.044	-0.049
-285.559	-200.000	0.045	-0.219
-284.545	85.876	-0.095	-0.104
-283.530	10.411	-0.045	-0.034
-282.516	206.599	0.047	0.073
-281.501	112.511	-0.083	0.099
-280.486	800.000	0.056	-0.168
-279.472	-117.023	-0.270	-0.049
-278.457	-200.000	0.031	0.143
-277.443	-200.000	-0.009	-0.082
-276.428	298.664	0.041	-0.075
-275.413	141.918	-0.066	0.087
-274.399	800.000	0.074	0.317
-273.384	-70.160	-0.371	0.140
-272.370	-94.679	0.284	0.077
-271.355	-61.253	-0.166	-0.070
-270.340	-200.000	-0.009	-0.239
-269.326	-108.191	0.240	0.052
-268.311	-200.000	0.050	0.254
-267.297	-4.060	0.175	0.120
-266.282	800.000	0.086	-0.355
-265.267	60.602	-0.113	-0.111
-264.253	-4.887	-0.188	-0.128
-263.238	-5.983	-0.179	-0.121
-262.224	-200.000	0.005	0.049
-261.209	203.004	-0.062	0.094
-260.195	176.754	-0.194	0.279
-259.180	80.629	-0.203	-0.217
-258.165	212.866	0.070	-0.110
-257.151	-103.498	0.041	-0.010
-256.136	217.534	-0.133	-0.210
-255.122	-166.149	-0.174	-0.007
-254.107	-172.326	0.139	0.004
-253.092	-103.200	-0.081	0.019
-252.078	47.632	0.112	-0.104
-251.063	-200.000	-0.028	0.185
-250.049	-200.000	0.000	-0.218
-249.034	-200.000	0.021	0.138
-248.019	443.320	-0.064	0.140
-247.005	-185.806	0.127	0.002
-245.990	-200.000	0.019	0.151
-244.976	-152.714	0.300	-0.021
-243.961	-200.000	0.008	-0.347
-242.946	4.424	-0.047	0.034
-241.932	-40.679	0.282	-0.145
-240.917	-35.007	0.152	0.082
-239.903	-81.935	0.245	0.079
-238.888	-149.639	-0.375	-0.029
-237.873	28.774	-0.233	0.195
-236.859	-44.713	-0.161	-0.080
-235.844	-124.093	0.467	-0.073
-234.830	-80.285	-0.272	0.090
-233.815	496.763	-0.054	-0.123
-232.800	490.433	0.068	-0.155
-231.786	-200.000	-0.003	0.082
-230.771	7.688	0.242	0.179
-229.757	-87.140	-0.282	-0.085
-228.742	-111.589	0.287	-0.058
-227.727	-59.094	-0.207	-0.088
-226.713	572.889	0.054	-0.129
-225.698	-141.862	-0.353	0.035
-224.684	-154.338	0.097	-0.006
-223.669	-84.380	0.086	-0.027
-222.655	800.000	-0.104	0.315
-221.640	212.666	0.210	0.329
-220.625	91.327	0.264	-0.293
-219.611	-78.199	-0.126	-0.043
-218.596	-127.121	-0.134	-0.019
-217.582	484.554	-0.032	-0.073
-216.567	800.000	-0.073	-0.258
-215.552	64.024	0.087	0.087
-214.538	220.499	-0.056	0.089
-213.523	-101.699	-0.173	0.042
-212.509	-107.932	0.251	-0.054
-211.494	586.859	-0.184	-0.448
-210.479	800.000	0.080	-0.236
-209.465	-17.736	0.362	0.225
-208.450	34.746	0.257	0.222
-207.436	78.354	-0.281	-0.296
-206.421	-68.153	0.233	0.090
-205.406	-140.633	-0.311	0.032
-204.392	-200.000	0.025	-0.202
-203.377	800.000	-0.105	0.316
-202.363	152.361	-0.150	0.203
-201.348	327.001	-0.178	0.338
-200.333	800.000	-0.077	-0.287
-199.319	800.000	-0.075	-0.296
-198.304	380.689	-0.077	0.156
-197.290	-182.905	0.187	-0.003
-196.275	204.095	-0.112	-0.172
-195.260	-53.472	-0.135	-0.061
-194.246	800.000	-0.126	0.354
-193.231	15.631	0.073	0.057
-192.217	-107.439	0.285	0.062
-191.202	-122.604	0.369	-0.059
-190.187	-25.886	-0.159	-0.092
-189.173	45.530	0.143	0.130
-188.158	-132.353	0.140	0.018
-187.144	-146.705	0.347	-0.030
-186.129	-6.173	-0.182	0.123
-185.114	-132.912	-0.176	-0.022
-184.100	130.817	0.027	-0.034
-183.085	5.340	-0.111	0.081
-182.071	-29.246	-0.154	0.087
-181.056	-150.568	0.164	-0.012
-180.042	-200.000	0.031	0.154
-179.027	-44.796	0.116	0.057
-178.012	302.548	0.096	0.175
-176.998	-123.689	0.130	-0.020
-175.983	35.370	0.085	-0.074
-174.969	42.338	0.112	0.100
-173.954	800.000	-0.088	0.363
-172.939	194.550	0.131	0.196
-171.925	60.271	0.218	0.213
-170.910	-2.790	0.186	-0.129
-169.896	199.107	-0.077	-0.117
-168.881	-62.629	0.180	-0.074
-167.866	-200.000	-0.012	-0.232
-166.852	800.000	-0.015	0.058
-165.837	137.208	-0.101	-0.130
-164.823	40.660	-0.045	-0.040
-163.808	-128.450	-0.312	0.044
-162.793	177.707	-0.140	0.202
-161.779	800.000	-0.014	0.045
-160.764	-68.278	0.044	0.017
-159.750	-120.927	-0.124	-0.021
-158.735	-92.328	-0.192	0.054
-157.720	-5.782	-0.047	0.032
-156.706	-26.342	0.232	-0.135
-155.691	311.483	-0.119	0.220
-154.677	-22.888	-0.188	-0.112
-153.662	-200.000	0.089	-0.409
-152.647	697.858	0.137	0.356
-151.633	4.807	0.319	0.231
-150.618	97.025	-0.263	0.298
-149.604	675.458	0.011	0.029
-148.589	800.000	0.075	0.214
-147.574	-10.709	0.150	-0.098
-146.560	-1.446	-0.405	-0.282
-145.545	-37.008	0.056	-0.029
-144.531	-95.421	-0.130	-0.034
-143.516	-26.179	0.147	0.085
-142.502	800.000	0.038	0.121
-141.487	175.803	-0.053	-0.076
-140.472	-95.476	0.241	-0.064
-139.458	-127.067	-0.244	0.035
-138.443	-63.662	-0.174	0.071
-137.429	-116.985	-0.325	0.059
-136.414	-102.170	-0.117	0.028
-135.399	62.548	-0.159	0.157
-134.385	-142.013	0.483	0.047
-133.370	-155.593	-0.371	0.024
-132.356	-176.581	0.312	-0.008
-131.341	-52.082	-0.073	0.034
-130.326	82.517	0.153	0.164
-129.312	-15.175	0.377	0.238
-128.297	-154.229	-0.481	0.032
-127.283	564.830	0.066	0.159
-126.268	-141.785	0.041	-0.004
-125.253	-122.751	0.306	-0.049
-124.239	274.352	0.106	-0.186
-123.224	-200.000	0.020	0.171
-122.210	292.487	0.060	-0.108
