DTS Sentinel unit serial number:	SN413079Multiplexer serial number:	ORYXHardware model number:	OX4-SRSoftware version number:	ORYX F/W v4.00 Oryx Data Collector v3.7.2.0data status	okinstallation	princeton_trtdifferential loss correction	single-endedforward channel	channel 1reverse channel	N/Adate	2019/09/17time	04:38:35forward acquisition time	60.00reverse acquisition time	0.00gamma	496.2192k internal	0.2323k external	0.2323temperature offset calibration	0.9960default loss term (dB/km)	0.3790temperature slope calibration	1.0000multiplexer offset coefficient	1.0000multiplexer slope coefficient	1.0000fibre end	0.00T internal ref (°C)	29.64T ext. ref 1 (°C)	0.14T ext. ref 2 (°C)	24.06length (m)	temperature (°C)	Stokes	anti-Stokes-747.200	72.400	-0.061	0.064
-746.185	-200.000	-0.025	0.432
-745.171	178.449	0.064	0.094
-744.156	8.202	0.107	0.082
-743.142	-51.517	0.161	0.076
-742.127	-200.000	0.020	0.109
-741.112	800.000	0.120	0.429
-740.098	-200.000	0.041	0.272
-739.083	-107.272	0.039	0.009
-738.069	-200.000	0.010	0.483
-737.054	800.000	0.049	-0.170
-736.039	338.387	-0.114	-0.225
-735.025	-200.000	0.032	-0.347
-734.010	144.290	-0.108	-0.145
-732.996	800.000	-0.147	-0.455
-731.981	164.323	-0.092	0.132
-730.966	-127.864	-0.312	-0.045
-729.952	289.904	0.207	-0.378
-728.937	610.489	-0.112	-0.284
-727.923	189.713	-0.129	-0.195
-726.908	800.000	0.054	-0.158
-725.894	-15.486	-0.114	0.073
-724.879	-55.178	0.226	0.103
-723.864	358.469	-0.116	-0.235
-722.850	188.823	-0.066	0.100
-721.835	800.000	0.009	0.038
-720.821	-70.080	-0.118	0.045
-719.806	529.243	-0.058	0.139
-718.791	-180.979	0.173	0.004
-717.777	-200.000	-0.044	-0.267
-716.762	125.290	-0.187	0.239
-715.748	451.362	0.092	-0.205
-714.733	57.753	-0.274	-0.270
-713.718	169.365	0.084	0.121
-712.704	-200.000	0.001	-0.099
-711.689	14.713	0.217	0.171
-710.675	-121.868	0.303	-0.050
-709.660	-200.000	0.021	0.171
-708.645	-23.155	-0.337	-0.204
-707.631	800.000	0.005	-0.017
-706.616	-82.136	-0.268	-0.088
-705.602	280.761	0.052	0.094
-704.587	-154.523	-0.297	0.020
-703.572	38.964	0.186	0.167
-702.558	-3.625	0.301	0.211
-701.543	-75.273	0.145	0.052
-700.529	-200.000	0.029	-0.373
-699.514	800.000	0.059	-0.236
-698.499	800.000	0.054	-0.154
-697.485	131.162	-0.135	-0.174
-696.470	-105.935	0.282	-0.064
-695.456	-71.074	-0.277	-0.105
-694.441	209.954	-0.133	0.210
-693.426	-29.568	-0.185	-0.107
-692.412	51.555	-0.068	0.066
-691.397	-200.000	0.020	-0.596
-690.383	-133.213	-0.222	0.028
-689.368	800.000	0.055	-0.231
-688.354	-25.422	0.137	0.082
-687.339	44.248	0.136	-0.126
-686.324	45.088	-0.030	0.028
-685.310	800.000	-0.098	0.395
-684.295	108.514	-0.076	-0.092
-683.281	-66.366	-0.369	0.148
-682.266	-200.000	-0.035	-0.230
-681.251	514.118	-0.029	0.069
-680.237	108.809	-0.038	0.045
-679.222	-29.237	-0.047	-0.027
-678.208	313.179	0.052	0.098
-677.193	800.000	0.082	-0.292
-676.178	-131.080	-0.171	0.023
-675.164	-200.000	-0.006	-0.098
-674.149	-148.835	-0.181	-0.015
-673.135	-109.484	-0.248	0.053
-672.120	-127.633	0.395	-0.058
-671.105	148.634	0.162	-0.220
-670.091	21.081	0.318	-0.260
-669.076	-200.000	-0.002	0.214
-668.062	-200.000	-0.006	-0.218
-667.047	136.855	-0.211	0.277
-666.032	50.834	-0.101	0.096
-665.018	54.930	0.096	-0.094
-664.003	-21.053	0.360	-0.222
-662.989	157.580	-0.186	-0.260
-661.974	-200.000	0.011	-0.232
-660.959	-61.178	-0.112	-0.048
-659.945	-93.169	-0.046	-0.013
-658.930	-200.000	0.022	-0.115
-657.916	800.000	-0.092	0.321
-656.901	800.000	0.047	-0.144
-655.886	-200.000	0.019	0.129
-654.872	240.370	-0.050	0.084
-653.857	800.000	-0.023	0.091
-652.843	-121.310	0.345	-0.058
-651.828	-200.000	-0.024	0.266
-650.814	-52.798	0.059	0.028
-649.799	353.683	0.099	-0.198
-648.784	-200.000	0.017	-0.080
-647.770	-111.382	-0.212	-0.043
-646.755	-81.168	0.200	-0.066
-645.741	117.354	0.124	-0.154
-644.726	-200.000	0.023	-0.136
-643.711	38.180	0.120	0.107
-642.697	-80.117	0.006	-0.002
-641.682	585.069	0.059	-0.146
-640.668	800.000	-0.046	0.198
-639.653	557.034	0.019	0.046
-638.638	800.000	-0.036	-0.130
-637.624	-82.606	0.321	0.105
-636.609	191.450	0.068	0.103
-635.595	-32.553	0.039	0.022
-634.580	-38.266	-0.219	0.117
-633.565	-153.477	-0.148	-0.010
-632.551	-41.643	-0.166	-0.086
-631.536	82.234	-0.070	-0.076
-630.522	-200.000	-0.023	-0.195
-629.507	-200.000	0.014	-0.194
-628.492	52.964	-0.032	-0.031
-627.478	-200.000	0.020	-0.453
-626.463	-67.586	0.197	-0.078
-625.449	-52.464	0.154	0.072
-624.434	-24.608	-0.181	-0.108
-623.419	800.000	-0.032	-0.110
-622.405	800.000	0.003	-0.013
-621.390	-39.619	-0.270	-0.142
-620.376	-76.079	0.303	0.108
-619.361	-152.752	-0.143	0.010
-618.346	-22.301	-0.025	-0.015
-617.332	180.848	0.085	0.126
-616.317	-43.375	0.242	0.123
-615.303	-145.595	0.251	-0.023
-614.288	123.427	0.272	0.343
-613.273	147.292	0.135	0.182
-612.259	800.000	-0.033	0.111
-611.244	-91.720	-0.204	-0.058
-610.230	-84.540	-0.248	-0.078
-609.215	55.381	-0.066	0.064
-608.201	-200.000	0.033	0.150
-607.186	102.732	0.192	-0.226
-606.171	303.115	-0.081	0.151
-605.157	-145.246	-0.052	0.005
-604.142	584.586	-0.031	0.076
-603.128	800.000	0.020	-0.086
-602.113	341.347	-0.055	-0.108
-601.098	-181.290	-0.130	-0.003
-600.084	800.000	0.076	0.263
-599.069	469.760	0.052	-0.118
-598.055	-21.053	0.231	0.142
-597.040	800.000	0.044	0.138
-596.025	458.517	0.086	-0.192
-595.011	285.188	-0.156	-0.282
-593.996	-34.971	-0.129	-0.071
-592.982	-9.985	0.067	-0.045
-591.967	-185.654	-0.209	-0.003
-590.952	-200.000	-0.007	-0.092
-589.938	-66.664	0.255	0.101
-588.923	-82.890	0.239	-0.077
-587.909	-200.000	-0.040	-0.213
-586.894	-78.795	0.172	-0.059
-585.879	800.000	-0.102	0.283
-584.865	800.000	-0.042	0.140
-583.850	175.285	0.095	-0.138
-582.836	-128.246	-0.338	-0.048
-581.821	-26.143	0.162	-0.096
-580.806	-135.934	-0.191	0.023
-579.792	392.420	0.085	-0.178
-578.777	77.918	0.257	-0.275
-577.763	-42.081	-0.322	-0.165
-576.748	-187.425	-0.467	-0.006
-575.733	1.582	0.170	-0.122
-574.719	554.408	-0.042	0.101
-573.704	135.469	0.238	-0.310
-572.690	391.853	-0.038	-0.078
-571.675	-200.000	0.017	0.182
-570.661	-1.298	-0.312	0.221
-569.646	67.924	-0.121	0.124
-568.631	-79.624	-0.434	0.147
-567.617	73.564	0.272	0.286
-566.602	-200.000	0.029	0.273
-565.588	-36.756	-0.533	0.287
-564.573	-92.428	-0.226	0.064
-563.558	-58.421	-0.353	0.154
-562.544	-64.529	-0.058	0.024
-561.529	285.423	-0.096	-0.174
-560.515	-200.000	0.014	-0.183
-559.500	84.370	-0.140	0.154
-558.485	-200.000	-0.053	0.263
-557.471	-110.292	0.250	-0.052
-556.456	97.435	-0.241	0.278
-555.442	-24.005	0.036	0.021
-554.427	-4.398	-0.235	0.163
-553.412	-105.210	0.162	0.037
-552.398	-97.781	-0.370	0.096
-551.383	-70.825	-0.251	-0.095
-550.369	560.889	0.082	0.198
-549.354	-170.602	0.275	-0.010
-548.339	-116.245	0.303	0.056
-547.325	-150.349	0.234	0.018
-546.310	-1.926	-0.169	0.119
-545.296	-200.000	-0.009	-0.181
-544.281	211.901	0.112	-0.176
-543.266	135.189	0.102	-0.133
-542.252	5.856	0.054	0.040
-541.237	-138.663	0.193	0.021
-540.223	800.000	0.071	-0.275
-539.208	651.201	0.063	0.162
-538.193	544.301	-0.029	-0.068
-537.179	187.741	-0.174	0.261
-536.164	800.000	0.051	-0.218
-535.150	800.000	-0.033	-0.111
-534.135	-63.614	-0.108	0.045
-533.121	136.729	0.174	0.227
-532.106	46.325	-0.183	0.170
-531.091	-29.065	-0.304	-0.174
-530.077	-192.319	-0.304	-0.003
-529.062	-193.331	-0.470	0.004
-528.048	778.516	0.053	-0.146
-527.033	178.325	-0.158	-0.231
-526.018	-41.674	-0.402	0.207
-525.004	94.460	-0.106	0.121
-523.989	522.617	0.082	-0.193
-522.975	-200.000	0.014	0.140
-521.960	-1.826	-0.313	-0.221
-520.945	55.688	-0.180	-0.174
-519.931	-140.464	0.210	-0.022
-518.916	-77.196	-0.650	-0.227
-517.902	-79.798	-0.209	-0.070
-516.887	-8.025	0.381	-0.257
-515.872	339.817	-0.100	0.195
-514.858	-46.335	-0.286	0.141
-513.843	35.887	0.076	-0.067
-512.829	369.567	-0.222	-0.450
-511.814	-98.306	-0.325	0.083
-510.799	-77.175	-0.043	-0.015
-509.785	-200.000	0.056	0.327
-508.770	167.295	-0.122	-0.173
-507.756	47.020	0.027	-0.025
-506.741	-200.000	0.005	-0.227
-505.726	800.000	-0.077	-0.212
-504.712	-154.788	-0.122	-0.008
-503.697	-200.000	-0.107	-0.475
-502.683	77.224	-0.182	-0.193
-501.668	-75.627	0.222	-0.079
-500.653	708.753	-0.019	0.050
-499.639	-36.613	-0.152	0.082
-498.624	606.480	0.114	-0.284
-497.610	-142.011	-0.347	0.035
-496.595	-165.121	-0.103	0.005
-495.581	-200.000	-0.022	0.111
-494.566	800.000	-0.133	-0.511
-493.551	-189.391	0.334	-0.004
-492.537	20.272	-0.240	0.194
-491.522	161.430	-0.092	0.129
-490.508	-5.196	0.083	-0.057
-489.493	71.595	-0.114	0.118
-488.478	44.261	0.098	-0.089
-487.464	105.471	-0.118	0.139
-486.449	147.188	-0.319	-0.429
-485.435	-96.763	0.209	0.055
-484.420	16.413	0.262	0.207
-483.405	800.000	-0.020	-0.078
-482.391	376.947	0.144	-0.295
-481.376	82.465	0.234	0.253
-480.362	-107.464	0.372	-0.082
-479.347	-119.877	-0.257	0.044
-478.332	11.878	-0.170	0.131
-477.318	-72.142	0.186	-0.069
-476.303	-154.200	0.059	0.004
-475.289	-84.556	-0.260	0.082
-474.274	-157.375	0.378	-0.023
-473.259	176.231	0.172	0.249
-472.245	11.658	-0.190	-0.146
-471.230	-200.000	0.012	-0.316
-470.216	-54.942	-0.042	-0.019
-469.201	318.923	-0.116	0.220
-468.186	536.517	0.063	0.151
-467.172	-200.000	-0.013	0.106
-466.157	-200.000	-0.019	-0.145
-465.143	-125.697	-0.265	-0.040
-464.128	338.279	-0.121	0.234
-463.113	-200.000	-0.029	-0.160
-462.099	651.519	0.088	-0.224
-461.084	538.086	0.026	-0.062
-460.070	72.979	-0.147	0.154
-459.055	-158.173	0.204	-0.012
-458.040	-200.000	0.009	0.100
-457.026	18.119	0.126	-0.100
-456.011	-130.652	-0.270	0.036
-454.997	146.788	0.274	0.367
-453.982	2.461	0.222	-0.160
-452.968	54.676	0.075	-0.072
-451.953	-200.000	0.013	-0.219
-450.938	-116.985	0.246	-0.045
-449.924	-132.395	-0.387	-0.050
-448.909	-62.488	-0.363	-0.151
-447.895	165.015	-0.124	-0.175
-446.880	-98.205	-0.216	0.055
-445.865	-200.000	-0.024	0.458
-444.851	3.639	0.361	0.263
-443.836	197.743	-0.153	-0.234
-442.822	164.746	0.134	-0.189
-441.807	120.092	0.132	0.163
-440.792	313.966	0.101	0.191
-439.778	-152.590	0.230	-0.016
-438.763	184.037	0.161	-0.238
-437.749	180.177	0.151	-0.221
-436.734	-200.000	-0.005	0.062
-435.719	-200.000	-0.020	-0.190
-434.705	469.111	0.024	-0.055
-433.690	32.232	-0.297	-0.256
-432.676	95.845	-0.102	0.116
-431.661	-200.000	-0.023	0.235
-430.646	-46.279	-0.191	-0.094
-429.632	519.407	0.053	-0.124
-428.617	-200.000	-0.035	0.263
-427.603	-82.269	-0.429	0.139
-426.588	-113.333	0.267	0.052
-425.573	-200.000	0.030	-0.373
-424.559	21.165	-0.134	0.108
-423.544	127.174	-0.187	-0.237
-422.530	-200.000	0.107	0.496
-421.515	44.346	0.109	-0.100
-420.500	-111.905	0.206	0.042
-419.486	-200.000	-0.015	-0.068
-418.471	73.623	0.091	-0.095
-417.457	-200.000	0.002	-0.145
-416.442	-149.134	0.281	-0.022
-415.428	436.372	-0.041	0.090
-414.413	153.586	-0.068	-0.092
-413.398	36.322	0.117	-0.103
-412.384	800.000	0.040	-0.137
-411.369	-77.857	0.414	-0.142
-410.355	406.683	-0.104	0.219
-409.340	-122.962	0.255	0.041
-408.325	36.487	-0.083	0.073
-407.311	-200.000	-0.005	0.041
-406.296	349.449	-0.068	-0.134
-405.282	-119.354	0.035	-0.006
-404.267	32.918	0.218	0.188
-403.252	-93.523	0.105	-0.029
-402.238	-19.874	0.270	-0.166
-401.223	-10.901	-0.291	0.192
-400.209	-44.914	0.243	0.120
-399.194	-52.167	-0.030	0.014
-398.179	-119.751	0.244	-0.042
-397.165	-200.000	0.004	0.047
-396.150	-118.913	-0.355	0.062
-395.136	800.000	0.047	-0.186
-394.121	552.140	0.039	-0.093
-393.106	-200.000	0.023	-0.238
-392.092	-152.639	0.410	-0.029
-391.077	-158.286	-0.354	-0.021
-390.063	-200.000	0.003	0.127
-389.048	-67.299	0.167	-0.065
-388.033	-200.000	-0.012	-0.137
-387.019	160.613	0.269	-0.374
-386.004	800.000	-0.047	-0.168
-384.990	-111.384	-0.321	0.065
-383.975	13.090	0.216	0.166
-382.960	-200.000	0.036	0.213
-381.946	-114.451	0.267	0.051
-380.931	-200.000	0.054	0.000
-379.917	501.283	-0.051	-0.118
-378.902	-2.841	0.262	-0.182
-377.888	-15.003	-0.203	-0.129
-376.873	-200.000	0.034	0.187
-375.858	-200.000	-0.018	0.288
-374.844	-89.126	0.234	-0.069
-373.829	-45.230	-0.084	-0.041
-372.815	-97.133	-0.101	-0.026
-371.800	-44.920	-0.174	0.086
-370.785	-117.536	-0.197	-0.035
-369.771	779.476	0.067	-0.182
-368.756	-24.568	-0.129	0.077
-367.742	-200.000	0.001	-0.059
-366.727	-69.152	0.353	0.135
-365.712	294.373	-0.120	-0.219
-364.698	9.734	0.394	0.297
-363.683	-138.067	0.279	0.031
-362.669	-200.000	-0.053	-0.260
-361.654	169.763	-0.034	0.048
-360.639	-133.105	0.075	0.009
-359.625	-9.190	0.197	-0.131
-358.610	800.000	0.027	-0.102
-357.596	-200.000	0.038	0.237
-356.581	180.743	-0.035	0.050
-355.566	304.044	0.091	0.168
-354.552	-122.686	0.200	0.032
-353.537	-112.017	0.098	0.020
-352.523	-200.000	0.060	0.504
-351.508	-163.073	-0.218	-0.010
-350.493	-58.689	-0.113	-0.049
-349.479	800.000	-0.048	0.149
-348.464	693.341	0.024	0.064
-347.450	-200.000	0.007	-0.039
-346.435	800.000	0.031	-0.087
-345.420	-36.693	0.372	-0.199
-344.406	-124.788	0.280	0.043
-343.391	705.180	0.117	-0.307
-342.377	124.754	0.181	-0.226
-341.362	-74.667	0.254	0.091
-340.348	-200.000	-0.072	0.334
-339.333	285.504	0.121	0.216
-338.318	-31.187	-0.330	0.185
-337.304	-1.461	0.392	-0.275
-336.289	70.328	-0.131	-0.134
-335.275	20.637	0.126	0.102
-334.260	321.302	-0.118	-0.224
-333.245	-134.679	0.132	0.016
-332.231	-60.801	-0.173	-0.073
-331.216	143.324	0.139	0.184
-330.202	800.000	-0.101	0.284
-329.187	-14.554	0.175	-0.112
-328.172	-55.169	0.215	-0.096
-327.158	800.000	-0.062	-0.227
-326.143	56.225	0.043	-0.041
-325.129	150.359	0.206	-0.278
-324.114	196.443	-0.124	-0.188
-323.099	-63.234	-0.129	-0.053
-322.085	-200.000	0.008	0.187
-321.070	-200.000	-0.022	-0.362
-320.056	-82.903	0.055	0.018
-319.041	-200.000	0.046	-0.214
-318.026	79.258	-0.187	0.199
-317.012	-25.039	-0.293	0.172
-315.997	171.360	0.205	0.292
-314.983	-75.659	0.069	0.024
-313.968	-133.510	-0.092	-0.011
-312.953	-200.000	0.005	-0.206
-311.939	56.786	-0.015	-0.014
-310.924	151.354	0.124	-0.168
-309.910	-126.739	-0.089	-0.013
-308.895	800.000	-0.057	0.181
-307.880	-36.281	-0.155	-0.083
-306.866	800.000	0.051	-0.207
-305.851	-55.117	-0.137	0.061
-304.837	-47.185	0.192	0.093
-303.822	-30.841	0.256	0.144
-302.807	726.927	-0.094	0.249
-301.793	-194.897	-0.122	-0.001
-300.778	507.953	0.123	0.283
-299.764	149.371	0.169	0.227
-298.749	-145.702	-0.274	0.024
-297.735	43.785	-0.183	0.167
-296.720	-200.000	0.014	0.151
-295.705	-200.000	-0.038	0.334
-294.691	521.110	0.035	0.081
-293.676	-200.000	-0.020	0.191
-292.662	-129.224	-0.162	0.022
-291.647	-64.912	-0.364	-0.146
-290.632	-200.000	-0.046	-0.410
-289.618	180.562	-0.046	0.067
-288.603	-97.645	0.241	0.062
-287.589	-200.000	-0.015	0.275
-286.574	800.000	0.078	0.258
-285.559	-59.320	0.364	0.155
-284.545	162.796	0.174	0.243
-283.530	404.197	0.106	-0.221
-282.516	-200.000	-0.006	0.030
-281.501	800.000	0.145	0.436
-280.486	82.183	0.202	-0.217
-279.472	530.263	0.103	0.241
-278.457	22.519	0.156	-0.127
-277.443	60.366	0.117	0.115
-276.428	-103.337	-0.357	-0.084
-275.413	91.139	0.170	0.190
-274.399	74.653	-0.180	-0.188
-273.384	-156.616	0.151	-0.009
-272.370	-17.698	0.159	0.099
-271.355	800.000	-0.116	0.403
-270.340	-106.234	-0.368	0.082
-269.326	-200.000	-0.002	0.033
-268.311	800.000	0.035	0.142
-267.297	-147.800	-0.061	-0.005
-266.282	800.000	-0.049	0.157
-265.267	800.000	0.056	0.192
-264.253	800.000	-0.022	0.074
-263.238	20.561	0.103	0.083
-262.224	-6.841	-0.517	0.348
-261.209	-121.653	-0.204	-0.033
-260.195	800.000	0.021	0.062
-259.180	-200.000	-0.002	-0.012
-258.165	-54.839	-0.171	0.077
-257.151	800.000	-0.065	0.200
-256.136	-200.000	-0.030	0.264
-255.122	-200.000	-0.029	-0.170
-254.107	181.970	-0.089	0.129
-253.092	-160.363	0.230	0.012
-252.078	-63.282	0.247	-0.101
-251.063	-56.489	0.119	0.052
-250.049	-83.695	0.330	-0.104
-249.034	-130.049	-0.260	0.035
-248.019	-200.000	0.005	-0.122
-247.005	-28.161	-0.334	0.191
-245.990	-200.000	-0.047	-0.358
-244.976	-90.517	0.366	0.105
-243.961	31.638	-0.166	-0.141
-242.946	140.289	-0.012	-0.016
-241.932	109.303	-0.031	-0.037
-240.917	-158.277	-0.123	0.007
-239.903	-73.623	-0.281	0.101
-238.888	800.000	0.136	0.375
-237.873	-121.559	0.114	-0.019
-236.859	-129.818	-0.161	0.022
-235.844	-9.125	-0.194	0.128
-234.830	-200.000	0.012	-0.118
-233.815	1.153	0.218	-0.155
-232.800	-15.271	-0.128	-0.081
-231.786	-49.952	-0.176	-0.083
-230.771	447.604	-0.093	-0.203
-229.757	-200.000	-0.035	0.188
-228.742	-149.147	-0.126	-0.010
-227.727	77.158	0.184	-0.194
-226.713	95.135	0.106	0.119
-225.698	-13.634	-0.107	0.069
-224.684	800.000	-0.002	-0.007
-223.669	363.718	0.063	-0.126
-222.655	-186.448	0.401	-0.006
-221.640	24.441	0.073	-0.060
-220.625	33.692	0.365	-0.314
-219.611	65.431	-0.206	0.207
-218.596	1.604	0.157	0.112
-217.582	800.000	0.114	0.359
-216.567	-145.638	-0.271	0.024
-215.552	610.316	-0.036	0.090
-214.538	161.367	-0.177	-0.244
-213.523	47.106	-0.137	0.126
-212.509	536.096	0.159	-0.373
-211.494	-115.223	-0.070	-0.013
-210.479	-83.254	0.182	-0.058
-209.465	-200.000	-0.008	-0.229
-208.450	-200.000	-0.008	0.202
-207.436	-200.000	-0.027	-0.205
-206.421	552.336	0.052	0.124
-205.406	-15.701	-0.320	-0.202
-204.392	20.245	-0.128	-0.102
-203.377	-175.457	-0.207	0.006
-202.363	243.597	-0.202	-0.334
-201.348	-165.320	-0.115	0.005
-200.333	-56.365	-0.268	-0.118
-199.319	-200.000	-0.003	-0.021
-198.304	-70.621	0.132	-0.049
-197.290	-55.701	0.220	-0.097
-196.275	30.795	0.076	0.064
-195.260	126.554	0.065	-0.081
-194.246	800.000	0.014	0.051
-193.231	686.102	0.085	-0.221
-192.217	-31.316	0.120	0.067
-191.202	53.511	0.107	-0.102
-190.187	-126.301	-0.020	0.003
-189.173	800.000	-0.063	0.257
-188.158	9.059	0.100	0.075
-187.144	-80.959	-0.252	-0.082
-186.129	800.000	-0.082	-0.231
-185.114	-80.800	0.124	0.041
-184.100	662.413	0.042	0.106
-183.085	92.552	0.228	0.254
-182.071	800.000	0.047	0.195
-181.056	-145.831	0.312	0.027
-180.042	-48.938	0.203	-0.096
-179.027	-200.000	-0.081	-0.377
-178.012	-64.390	-0.323	-0.130
-176.998	-200.000	-0.033	0.242
-175.983	-112.091	-0.390	0.078
-174.969	-176.724	-0.120	-0.003
-173.954	-131.363	0.216	0.028
-172.939	233.449	0.089	-0.144
-171.925	-116.013	0.335	-0.062
-170.910	528.423	-0.102	0.238
-169.896	-148.159	0.332	-0.027
-168.881	800.000	0.028	0.077
-167.866	-72.361	0.225	0.082
-166.852	710.262	-0.031	-0.081
-165.837	800.000	-0.066	-0.216
-164.823	-200.000	0.031	-0.206
-163.808	70.572	0.115	0.117
-162.793	-159.490	-0.090	-0.005
-161.779	49.457	-0.167	0.155
-160.764	-93.641	0.169	-0.046
-159.750	-28.017	-0.191	0.109
-158.735	332.061	-0.129	0.245
-157.720	-200.000	0.014	0.104
-156.706	-200.000	-0.012	0.311
-155.691	427.822	0.148	0.315
-154.677	194.563	0.117	-0.175
-153.662	-200.000	-0.021	0.287
-152.647	-77.998	0.236	-0.080
-151.633	138.550	0.278	-0.360
-150.618	-40.450	0.218	-0.112
-149.604	-46.870	-0.711	0.343
-148.589	18.609	-0.108	-0.085
-147.574	72.752	0.149	-0.153
-146.560	-63.867	0.310	0.125
-145.545	-200.000	0.021	0.169
-144.531	394.046	-0.039	-0.080
-143.516	374.993	-0.141	0.283
-142.502	-140.147	-0.179	0.019
-141.487	447.583	-0.106	0.231
-140.472	800.000	-0.088	0.279
-139.458	-3.359	-0.039	-0.026
-138.443	-74.274	-0.495	-0.176
-137.429	-200.000	0.063	0.284
-136.414	-111.506	0.203	0.041
-135.399	-77.807	0.205	-0.070
-134.385	-109.101	-0.363	0.076
-133.370	-0.483	0.117	-0.082
-132.356	57.635	0.158	0.152
-131.341	-200.000	0.012	-0.070
-130.326	-200.000	-0.031	0.166
-129.312	-200.000	0.012	0.250
-128.297	-200.000	0.006	0.109
-127.283	335.410	-0.106	0.203
-126.268	-200.000	-0.042	-0.206
-125.253	193.825	0.156	0.233
-124.239	324.766	0.111	0.210
-123.224	78.058	-0.173	-0.182
-122.210	-50.309	0.216	-0.101
