DTS Sentinel unit serial number:	SN413079Multiplexer serial number:	ORYXHardware model number:	OX4-SRSoftware version number:	ORYX F/W v4.00 Oryx Data Collector v3.7.2.0data status	okinstallation	princeton_trtdifferential loss correction	single-endedforward channel	channel 1reverse channel	N/Adate	2019/09/10time	23:44:11forward acquisition time	60.00reverse acquisition time	0.00gamma	496.2192k internal	0.2331k external	0.2331temperature offset calibration	0.9940default loss term (dB/km)	0.3790temperature slope calibration	1.0000multiplexer offset coefficient	1.0000multiplexer slope coefficient	1.0000fibre end	0.00T internal ref (°C)	29.56T ext. ref 1 (°C)	-0.30T ext. ref 2 (°C)	22.96length (m)	temperature (°C)	Stokes	anti-Stokes-747.200	-21.445	0.086	-0.053
-746.185	-89.876	-0.476	0.140
-745.171	-148.788	-0.207	0.017
-744.156	-165.535	0.390	-0.017
-743.142	-143.649	-0.316	-0.030
-742.127	800.000	-0.136	0.409
-741.112	-122.485	-0.519	0.085
-740.098	-200.000	-0.030	0.209
-739.083	334.299	-0.091	0.177
-738.069	152.695	0.043	-0.059
-737.054	278.935	-0.060	-0.108
-736.039	324.544	-0.125	-0.240
-735.025	-19.374	0.477	-0.297
-734.010	342.808	-0.116	-0.228
-732.996	-50.614	-0.439	-0.208
-731.981	-17.882	-0.341	-0.215
-730.966	800.000	-0.121	0.353
-729.952	36.237	0.235	-0.208
-728.937	-33.747	0.480	-0.266
-727.923	126.561	-0.256	0.326
-726.908	49.935	-0.315	-0.299
-725.894	49.236	-0.190	0.179
-724.879	-184.935	0.208	-0.003
-723.864	568.936	0.232	-0.567
-722.850	60.779	-0.128	0.127
-721.835	-75.983	0.211	-0.075
-720.821	6.541	-0.309	-0.231
-719.806	-200.000	0.011	-0.072
-718.791	-59.822	-0.121	-0.052
-717.777	15.849	-0.116	-0.092
-716.762	-9.172	-0.154	0.104
-715.748	200.019	0.146	0.225
-714.733	-200.000	-0.008	-0.044
-713.718	-200.000	0.006	0.108
-712.704	220.877	0.130	0.210
-711.689	11.030	-0.097	0.074
-710.675	-48.544	-0.568	0.274
-709.660	18.419	-0.129	0.103
-708.645	-95.573	-0.495	0.133
-707.631	-76.189	0.161	-0.057
-706.616	244.849	-0.089	-0.151
-705.602	178.366	-0.168	-0.246
-704.587	-16.765	-0.128	0.082
-703.572	316.029	-0.126	-0.239
-702.558	10.231	0.040	0.031
-701.543	-70.898	0.116	0.044
-700.529	-200.000	0.042	-0.476
-699.514	-66.418	0.329	-0.131
-698.499	-95.818	-0.372	-0.100
-697.485	189.670	0.244	-0.367
-696.470	-162.279	0.402	0.020
-695.456	-150.461	0.381	-0.029
-694.441	-200.000	0.069	-0.372
-693.426	800.000	0.081	-0.312
-692.412	-170.203	-0.212	0.008
-691.397	-99.274	-0.254	0.064
-690.383	40.272	-0.050	0.045
-689.368	-66.202	0.135	0.054
-688.354	-78.498	-0.163	-0.056
-687.339	-186.208	0.071	0.001
-686.324	-75.295	-0.554	-0.198
-685.310	397.126	-0.217	0.455
-684.295	-116.323	0.124	0.023
-683.281	167.780	0.065	0.092
-682.266	49.659	-0.242	0.229
-681.251	800.000	-0.078	-0.308
-680.237	186.154	-0.094	0.141
-679.222	49.974	-0.106	-0.101
-678.208	-200.000	0.006	-0.059
-677.193	96.267	-0.214	-0.246
-676.178	179.961	0.141	-0.207
-675.164	-86.492	0.194	0.060
-674.149	800.000	-0.055	-0.163
-673.135	498.100	0.123	-0.284
-672.120	800.000	-0.060	-0.172
-671.105	415.349	-0.096	0.205
-670.091	-34.618	0.059	0.032
-669.076	800.000	-0.033	-0.117
-668.062	284.774	-0.162	-0.292
-667.047	-200.000	0.002	0.270
-666.032	109.861	-0.054	0.065
-665.018	327.634	0.148	-0.284
-664.003	-200.000	-0.076	-0.414
-662.989	-200.000	0.030	-0.278
-661.974	63.528	-0.131	-0.132
-660.959	800.000	-0.140	-0.413
-659.945	324.311	-0.132	0.252
-658.930	-173.654	0.387	0.012
-657.916	359.380	0.102	0.204
-656.901	-200.000	-0.028	0.312
-655.886	22.729	0.039	-0.032
-654.872	-86.275	-0.028	0.009
-653.857	800.000	0.082	0.257
-652.843	-1.215	-0.202	0.143
-651.828	-77.554	-0.074	-0.026
-650.814	86.768	-0.171	-0.190
-649.799	-12.663	0.182	-0.119
-648.784	-200.000	-0.053	-0.269
-647.770	127.036	-0.140	-0.178
-646.755	-200.000	-0.025	-0.292
-645.741	555.550	0.038	0.092
-644.726	218.092	0.172	0.275
-643.711	800.000	-0.026	-0.108
-642.697	-181.461	-0.159	0.003
-641.682	100.406	0.026	0.030
-640.668	-114.521	-0.297	0.057
-639.653	-31.676	0.211	0.119
-638.638	99.624	0.145	0.168
-637.624	264.465	-0.103	-0.179
-636.609	33.521	-0.202	0.176
-635.595	90.550	-0.345	-0.387
-634.580	71.695	-0.205	-0.214
-633.565	555.734	-0.080	-0.194
-632.551	-173.312	0.239	-0.007
-631.536	-130.456	-0.053	0.007
-630.522	-200.000	-0.003	-0.260
-629.507	-166.062	0.380	-0.016
-628.492	-54.900	-0.091	0.041
-627.478	443.195	0.029	0.063
-626.463	131.459	0.095	0.122
-625.449	152.065	-0.123	0.168
-624.434	-200.000	-0.028	-0.201
-623.419	-63.086	0.198	0.082
-622.405	-164.732	0.079	-0.004
-621.390	-159.258	-0.484	-0.027
-620.376	329.965	0.031	-0.060
-619.361	-120.978	-0.183	0.031
-618.346	16.768	0.144	-0.114
-617.332	246.319	-0.134	-0.227
-616.317	92.037	0.037	0.042
-615.303	-81.297	-0.027	-0.009
-614.288	-200.000	-0.008	0.191
-613.273	-63.638	-0.176	-0.072
-612.259	-200.000	0.062	-0.306
-611.244	315.631	0.131	0.247
-610.230	800.000	0.048	-0.169
-609.215	-14.764	-0.055	0.035
-608.201	-115.179	-0.074	0.014
-607.186	285.905	-0.132	-0.238
-606.171	-200.000	0.008	0.053
-605.157	-200.000	-0.001	-0.222
-604.142	-45.439	-0.074	0.037
-603.128	507.191	-0.081	-0.189
-602.113	-120.346	-0.198	0.034
-601.098	-200.000	0.000	-0.054
-600.084	68.591	0.169	0.173
-599.069	-101.548	-0.403	-0.098
-598.055	800.000	0.005	0.017
-597.040	612.237	0.046	-0.115
-596.025	-178.230	-0.265	0.006
-595.011	800.000	0.137	-0.527
-593.996	-76.666	-0.310	-0.109
-592.982	41.228	0.121	0.109
-591.967	-85.352	0.100	0.031
-590.952	800.000	0.053	0.178
-589.938	-85.888	-0.211	0.065
-588.923	-127.253	-0.193	-0.028
-587.909	-126.218	-0.241	-0.036
-586.894	-200.000	-0.005	0.155
-585.879	47.829	-0.406	-0.379
-584.865	-66.832	-0.172	0.068
-583.850	-200.000	-0.034	0.202
-582.836	215.589	-0.120	-0.191
-581.821	-171.600	-0.076	0.003
-580.806	203.442	0.052	-0.081
-579.792	-54.586	-0.076	-0.035
-578.777	169.018	0.048	-0.069
-577.763	794.385	-0.085	-0.234
-576.748	-90.895	0.244	-0.070
-575.733	-163.690	0.136	-0.006
-574.719	-99.262	-0.283	0.071
-573.704	-88.848	0.273	0.081
-572.690	-38.955	0.229	-0.120
-571.675	-138.672	-0.234	0.026
-570.661	65.654	0.087	0.088
-569.646	800.000	-0.071	0.298
-568.631	800.000	-0.080	-0.338
-567.617	-156.448	-0.188	-0.012
-566.602	-86.885	-0.113	-0.035
-565.588	-200.000	-0.034	-0.189
-564.573	-200.000	0.023	0.413
-563.558	-121.060	0.185	0.031
-562.544	-184.066	-0.104	0.002
-561.529	257.665	0.016	0.027
-560.515	-200.000	-0.010	0.071
-559.500	146.191	-0.043	0.058
-558.485	-142.591	0.236	0.023
-557.471	-82.332	0.284	-0.092
-556.456	796.840	-0.044	-0.121
-555.442	184.634	-0.101	0.150
-554.427	698.615	-0.104	-0.274
-553.412	800.000	0.047	0.161
-552.398	-200.000	0.007	0.130
-551.383	-70.855	0.025	0.010
-550.369	-33.651	-0.233	0.128
-549.354	-58.668	-0.128	0.055
-548.339	-200.000	0.021	-0.284
-547.325	-161.751	0.353	-0.018
-546.310	-1.887	-0.193	0.136
-545.296	191.734	-0.068	-0.102
-544.281	75.338	-0.225	-0.237
-543.266	161.085	-0.160	-0.223
-542.252	-200.000	0.000	0.164
-541.237	-33.923	0.024	-0.013
-540.223	111.815	-0.168	-0.202
-539.208	-97.417	-0.270	-0.070
-538.193	-200.000	-0.022	-0.203
-537.179	-105.117	0.221	0.051
-536.164	-137.117	-0.165	0.019
-535.150	-200.000	-0.001	0.056
-534.135	752.554	-0.103	0.278
-533.121	-69.155	0.390	0.150
-532.106	-200.000	0.019	-0.104
-531.091	372.995	0.145	-0.293
-530.077	-142.693	-0.552	-0.054
-529.062	235.225	-0.135	-0.223
-528.048	-86.003	-0.356	0.110
-527.033	-200.000	0.019	0.452
-526.018	-200.000	0.002	-0.126
-525.004	287.423	0.191	-0.344
-523.989	-200.000	-0.007	-0.030
-522.975	-200.000	-0.015	-0.149
-521.960	-169.961	0.186	0.007
-520.945	-98.516	0.200	-0.051
-519.931	-200.000	0.000	-0.100
-518.916	-45.822	-0.090	0.044
-517.902	-142.306	-0.150	0.015
-516.887	169.018	0.184	0.262
-515.872	-34.204	-0.299	0.164
-514.858	-78.023	-0.344	0.118
-513.843	-134.763	0.218	0.026
-512.829	-200.000	-0.069	0.339
-511.814	213.428	0.048	-0.075
-510.799	8.282	-0.299	-0.224
-509.785	-124.030	-0.022	-0.003
-508.770	278.745	0.068	-0.120
-507.756	307.794	-0.134	0.250
-506.741	800.000	0.085	0.370
-505.726	-80.140	0.168	-0.056
-504.712	-200.000	-0.056	0.277
-503.697	606.593	0.173	0.429
-502.683	-32.987	0.204	-0.113
-501.668	180.861	-0.200	-0.293
-500.653	-67.733	0.305	-0.119
-499.639	-56.959	0.050	0.022
-498.624	-120.756	0.211	-0.035
-497.610	20.067	0.134	0.108
-496.595	-15.116	0.200	-0.128
-495.581	-20.686	-0.102	-0.062
-494.566	800.000	-0.061	0.189
-493.551	-61.718	0.418	-0.174
-492.537	-200.000	0.020	0.096
-491.522	-118.304	0.219	0.039
-490.508	-183.013	-0.327	0.006
-489.493	-145.700	0.286	-0.025
-488.478	73.049	0.058	0.060
-487.464	-200.000	0.023	0.356
-486.449	272.556	-0.098	0.173
-485.435	121.319	-0.092	0.114
-484.420	75.884	0.106	0.112
-483.405	-200.000	-0.003	0.251
-482.391	-9.646	-0.205	0.136
-481.376	-200.000	-0.060	-0.277
-480.362	800.000	-0.042	0.175
-479.347	800.000	-0.036	0.106
-478.332	800.000	-0.051	0.148
-477.318	-200.000	0.001	-0.064
-476.303	765.175	-0.122	0.330
-475.289	-0.448	0.184	-0.130
-474.274	-200.000	0.032	0.203
-473.259	-21.203	-0.121	0.074
-472.245	-117.679	-0.030	0.005
-471.230	-22.658	-0.140	-0.084
-470.216	602.072	-0.121	-0.299
-469.201	-153.514	0.363	-0.025
-468.186	-12.004	0.097	-0.063
-467.172	-149.061	-0.259	-0.021
-466.157	13.263	0.038	0.030
-465.143	-125.517	-0.119	-0.018
-464.128	256.568	0.024	-0.041
-463.113	-4.496	0.297	0.204
-462.099	-128.856	0.212	0.030
-461.084	-187.890	-0.152	-0.002
-460.070	177.342	-0.193	0.279
-459.055	81.458	0.338	-0.364
-458.040	134.328	0.094	-0.122
-457.026	188.314	-0.071	0.105
-456.011	-200.000	-0.031	-0.208
-454.997	500.844	-0.008	0.018
-453.982	69.283	0.133	0.136
-452.968	60.546	-0.078	0.077
-451.953	-47.671	-0.286	0.138
-450.938	-80.367	0.110	0.037
-449.924	135.444	-0.306	0.396
-448.909	98.210	-0.065	-0.075
-447.895	-106.235	-0.372	0.083
-446.880	7.164	0.240	0.178
-445.865	35.297	0.495	-0.432
-444.851	-200.000	-0.007	-0.155
-443.836	27.882	-0.138	-0.115
-442.822	132.608	0.083	-0.107
-441.807	-134.160	0.248	-0.030
-440.792	432.216	0.102	0.221
-439.778	-25.648	-0.134	-0.079
-438.763	-200.000	-0.004	0.185
-437.749	-65.384	0.241	-0.096
-436.734	800.000	-0.037	-0.140
-435.719	800.000	0.131	-0.367
-434.705	27.192	-0.073	0.061
-433.690	11.615	0.182	-0.139
-432.676	-119.244	0.089	0.015
-431.661	-81.248	0.172	-0.057
-430.646	736.536	0.066	0.177
-429.632	209.189	-0.130	0.202
-428.617	800.000	0.037	0.117
-427.603	-138.882	-0.294	-0.032
-426.588	-27.617	-0.282	0.163
-425.573	-45.953	0.107	-0.053
-424.559	-68.643	0.211	0.081
-423.544	-200.000	-0.020	-0.106
-422.530	-200.000	-0.072	0.347
-421.515	-40.512	0.357	0.184
-420.500	-144.709	0.038	-0.003
-419.486	24.318	-0.241	0.198
-418.471	800.000	0.144	0.538
-417.457	80.671	-0.046	0.050
-416.442	142.543	-0.152	-0.201
-415.428	99.263	-0.156	0.179
-414.413	-79.685	0.121	0.041
-413.398	800.000	0.059	-0.207
-412.384	-118.291	0.099	-0.018
-411.369	-75.002	0.168	-0.060
-410.355	218.281	0.300	-0.475
-409.340	471.747	-0.112	0.251
-408.325	-90.082	-0.303	0.088
-407.311	12.211	0.020	0.015
-406.296	19.775	-0.185	0.148
-405.282	-200.000	0.021	0.308
-404.267	800.000	0.027	-0.081
-403.252	142.561	0.112	0.148
-402.238	215.819	0.085	-0.134
-401.223	-133.375	0.282	0.035
-400.209	-135.368	-0.166	-0.020
-399.194	-34.102	0.221	-0.120
-398.179	-50.435	0.116	0.054
-397.165	800.000	-0.047	0.163
-396.150	52.285	-0.233	0.221
-395.136	78.096	0.189	-0.200
-394.121	800.000	-0.035	-0.116
-393.106	-12.996	-0.080	-0.052
-392.092	133.436	-0.236	0.303
-391.077	-180.388	0.281	0.006
-390.063	800.000	-0.060	0.185
-389.048	-200.000	-0.000	0.017
-388.033	187.661	0.206	-0.306
-387.019	-14.136	0.123	-0.079
-386.004	800.000	0.054	0.166
-384.990	276.845	-0.170	-0.299
-383.975	-200.000	-0.016	-0.538
-382.960	-200.000	0.019	0.227
-381.946	22.389	-0.267	-0.217
-380.931	800.000	-0.016	0.046
-379.917	-14.486	0.305	0.195
-378.902	-27.890	0.071	0.041
-377.888	268.963	0.049	0.085
-376.873	16.426	-0.192	0.151
-375.858	-200.000	-0.055	-0.298
-374.844	73.569	0.187	-0.195
-373.829	-149.124	0.079	-0.006
-372.815	-200.000	0.028	0.176
-371.800	800.000	-0.061	0.226
-370.785	800.000	-0.042	-0.116
-369.771	5.693	0.102	-0.075
-368.756	101.165	0.186	-0.215
-367.742	-93.807	-0.133	-0.036
-366.727	357.589	-0.054	-0.106
-365.712	34.658	-0.286	0.248
-364.698	-96.364	0.201	-0.053
-363.683	-122.257	0.130	0.021
-362.669	-52.328	0.147	0.068
-361.654	800.000	0.030	0.115
-360.639	213.029	-0.083	-0.130
-359.625	-114.836	0.106	-0.020
-358.610	-117.880	-0.099	0.018
-357.596	-200.000	0.044	-0.518
-356.581	35.179	0.236	-0.205
-355.566	524.039	-0.055	-0.127
-354.552	-145.879	0.307	-0.027
-353.537	-200.000	-0.003	0.357
-352.523	169.594	0.155	-0.220
-351.508	-139.283	0.052	-0.006
-350.493	388.107	-0.113	-0.232
-349.479	233.729	-0.207	0.338
-348.464	-79.080	-0.152	0.051
-347.450	-200.000	0.046	0.267
-346.435	800.000	-0.045	-0.142
-345.420	-163.123	-0.509	0.024
-344.406	16.413	0.072	-0.057
-343.391	250.684	-0.172	-0.290
-342.377	665.058	-0.039	0.100
-341.362	-31.256	0.136	-0.076
-340.348	139.655	-0.178	-0.232
-339.333	-200.000	0.001	0.196
-338.318	-177.464	0.453	0.011
-337.304	-21.986	0.234	-0.141
-336.289	107.714	0.223	0.263
-335.275	113.977	0.254	0.306
-334.260	800.000	-0.054	0.153
-333.245	329.921	0.142	0.271
-332.231	-122.896	0.324	-0.052
-331.216	-200.000	0.010	-0.066
-330.202	200.693	0.149	0.227
-329.187	-200.000	0.052	-0.294
-328.172	64.926	-0.343	0.343
-327.158	40.167	0.166	0.148
-326.143	-200.000	-0.040	-0.317
-325.129	-50.011	0.220	-0.103
-324.114	102.256	0.230	0.266
-323.099	33.500	0.164	0.141
-322.085	148.876	-0.062	-0.083
-321.070	-132.358	-0.144	-0.018
-320.056	-101.228	0.363	-0.088
-319.041	-112.747	0.361	-0.071
-318.026	-46.191	0.172	0.084
-317.012	-102.865	0.155	0.037
-315.997	38.605	0.203	0.179
-314.983	-200.000	0.030	-0.156
-313.968	-126.672	0.215	-0.031
-312.953	-16.780	-0.190	-0.119
-311.939	396.386	0.036	0.074
-310.924	-129.678	-0.282	0.038
-309.910	146.057	0.143	0.190
-308.895	-140.893	0.365	0.037
-307.880	800.000	0.016	-0.054
-306.866	-68.767	0.119	0.045
-305.851	800.000	-0.058	-0.245
-304.837	-200.000	0.025	-0.129
-303.822	675.871	-0.028	-0.072
-302.807	240.383	0.010	0.016
-301.793	-47.216	-0.037	-0.018
-300.778	622.886	0.151	-0.377
-299.764	-200.000	-0.008	0.038
-298.749	57.121	0.068	-0.066
-297.735	-74.958	0.045	0.016
-296.720	216.985	-0.053	-0.084
-295.705	-54.190	-0.243	-0.109
-294.691	-22.151	0.190	-0.114
-293.676	-134.414	-0.066	0.008
-292.662	-27.425	0.201	-0.116
-291.647	65.120	-0.147	-0.146
-290.632	-200.000	0.032	-0.199
-289.618	135.386	-0.060	0.077
-288.603	-159.603	-0.253	-0.014
-287.589	800.000	-0.068	-0.280
-286.574	-200.000	0.022	0.242
-285.559	800.000	-0.021	-0.059
-284.545	191.373	0.044	-0.066
-283.530	85.875	-0.106	0.115
-282.516	344.129	0.050	-0.097
-281.501	39.089	0.230	-0.203
-280.486	-77.306	0.162	0.056
-279.472	21.922	0.176	0.142
-278.457	187.545	-0.192	0.283
-277.443	-200.000	-0.006	-0.229
-276.428	-102.715	0.254	-0.060
-275.413	35.965	-0.122	-0.106
-274.399	-27.784	0.116	0.067
-273.384	-2.400	-0.177	-0.122
-272.370	37.071	0.203	0.177
-271.355	-200.000	0.018	0.277
-270.340	800.000	-0.113	-0.313
-269.326	139.497	-0.338	-0.439
-268.311	-17.980	-0.050	-0.031
-267.297	-200.000	-0.089	-0.507
-266.282	-144.823	0.097	-0.009
-265.267	23.407	-0.220	-0.178
-264.253	566.724	-0.033	0.079
-263.238	80.298	0.142	-0.151
-262.224	-130.174	-0.450	0.061
-261.209	164.426	0.146	0.203
-260.195	-200.000	-0.046	0.217
-259.180	82.394	0.175	0.187
-258.165	-200.000	0.006	0.083
-257.151	466.231	-0.087	-0.193
-256.136	-200.000	-0.014	-0.117
-255.122	560.076	0.023	-0.054
-254.107	-105.246	0.182	0.041
-253.092	5.084	-0.027	-0.020
-252.078	227.254	0.082	0.132
-251.063	122.152	-0.134	-0.165
-250.049	-177.757	0.154	0.004
-249.034	-53.542	0.148	0.067
-248.019	-140.593	-0.278	-0.028
-247.005	-200.000	-0.033	-0.231
-245.990	88.618	-0.197	0.216
-244.976	800.000	0.076	0.311
-243.961	-150.951	0.100	-0.007
-242.946	-200.000	0.024	0.182
-241.932	209.409	-0.078	0.120
-240.917	800.000	0.050	-0.168
-239.903	-72.175	-0.236	-0.086
-238.888	133.865	0.126	0.161
-237.873	-102.579	0.352	0.083
-236.859	-70.363	-0.443	-0.166
-235.844	-126.767	0.019	0.003
-234.830	224.281	-0.047	-0.075
-233.815	-200.000	-0.025	-0.358
-232.800	-200.000	-0.007	0.121
-231.786	-200.000	0.057	0.365
-230.771	-21.829	0.044	0.026
-229.757	-11.751	0.164	0.106
-228.742	-81.204	-0.201	0.065
-227.727	-76.766	0.357	-0.123
-226.713	12.641	-0.326	-0.248
-225.698	21.559	-0.106	0.085
-224.684	-39.987	-0.260	0.134
-223.669	347.782	-0.137	-0.266
-222.655	800.000	-0.043	0.171
-221.640	520.630	0.089	0.207
-220.625	-121.594	-0.360	-0.059
-219.611	-200.000	0.032	-0.145
-218.596	-200.000	0.001	-0.107
-217.582	-200.000	-0.023	0.185
-216.567	-200.000	0.000	0.027
-215.552	800.000	-0.071	-0.272
-214.538	-200.000	-0.005	-0.038
-213.523	543.803	-0.013	0.031
-212.509	397.806	-0.131	0.271
-211.494	703.109	-0.064	-0.167
-210.479	-106.497	-0.141	-0.031
-209.465	-8.753	-0.209	-0.138
-208.450	-143.155	-0.172	0.016
-207.436	-37.474	-0.245	0.129
-206.421	800.000	-0.061	-0.218
-205.406	277.451	0.101	-0.177
-204.392	-42.149	-0.061	0.031
-203.377	-22.742	0.109	-0.065
-202.363	0.308	-0.303	0.213
-201.348	800.000	-0.081	0.300
-200.333	-151.688	-0.023	0.002
-199.319	121.952	-0.149	0.183
-198.304	-18.423	0.068	-0.042
-197.290	546.966	-0.083	0.196
-196.275	-7.200	-0.042	-0.028
-195.260	71.732	0.243	-0.249
-194.246	800.000	-0.082	0.279
-193.231	-200.000	0.055	0.344
-192.217	800.000	-0.072	-0.215
-191.202	185.093	-0.116	-0.169
-190.187	-4.850	0.409	-0.278
-189.173	-55.242	-0.046	-0.021
-188.158	87.558	0.048	-0.052
-187.144	-139.256	0.188	-0.020
-186.129	-78.900	-0.330	0.111
-185.114	-112.019	0.057	-0.011
-184.100	-33.335	-0.095	-0.052
-183.085	-88.687	-0.154	0.045
-182.071	-25.064	-0.306	0.178
-181.056	-200.000	-0.032	0.218
-180.042	54.048	0.211	0.200
-179.027	800.000	0.033	0.131
-178.012	-106.051	0.201	0.044
-176.998	800.000	0.034	0.126
-175.983	125.094	0.224	0.278
-174.969	106.595	-0.296	0.345
-173.954	96.997	0.126	0.142
-172.939	-44.838	0.071	-0.035
-171.925	158.184	-0.105	0.143
-170.910	-91.986	0.250	-0.070
-169.896	-126.994	0.199	0.029
-168.881	-0.451	-0.133	-0.093
-167.866	-77.655	-0.124	0.042
-166.852	2.008	0.171	0.121
-165.837	289.255	0.096	-0.172
-164.823	9.701	0.355	-0.265
-163.808	24.737	-0.226	0.184
-162.793	162.359	0.132	0.182
-161.779	-24.148	-0.144	0.084
-160.764	800.000	0.095	0.316
-159.750	366.931	0.060	-0.120
-158.735	39.337	-0.271	-0.239
-157.720	326.965	0.277	-0.523
-156.706	-200.000	0.020	-0.189
-155.691	800.000	-0.039	0.136
-154.677	-200.000	0.016	-0.139
-153.662	66.474	0.287	0.287
-152.647	72.683	0.127	0.130
-151.633	578.457	-0.111	0.268
-150.618	241.092	-0.068	0.112
-149.604	-200.000	0.039	0.463
-148.589	181.041	-0.088	0.128
-147.574	55.303	0.202	0.192
-146.560	629.023	-0.097	-0.242
-145.545	274.205	0.177	-0.308
-144.531	-20.844	0.196	0.118
-143.516	-200.000	0.002	-0.032
-142.502	10.434	-0.084	0.063
-141.487	162.938	0.255	0.352
-140.472	18.130	-0.188	-0.148
-139.458	-39.371	0.062	0.032
-138.443	328.811	0.139	-0.263
-137.429	140.271	0.153	0.199
-136.414	-130.218	0.095	-0.013
-135.399	739.430	-0.055	0.145
-134.385	-200.000	-0.003	0.064
-133.370	-200.000	0.000	0.062
-132.356	-102.237	-0.166	-0.039
-131.341	-188.711	-0.135	-0.002
-130.326	-7.904	0.012	0.008
-129.312	137.815	-0.146	-0.187
-128.297	-65.348	0.108	0.043
-127.283	-31.634	-0.128	0.071
-126.268	-200.000	-0.012	-0.118
-125.253	800.000	0.033	-0.093
-124.239	-57.809	0.110	-0.047
-123.224	46.730	-0.071	-0.065
-122.210	800.000	-0.115	-0.362
