DTS Sentinel unit serial number:	SN413079Multiplexer serial number:	ORYXHardware model number:	OX4-SRSoftware version number:	ORYX F/W v4.00 Oryx Data Collector v3.7.2.0data status	okinstallation	princeton_trtdifferential loss correction	single-endedforward channel	channel 1reverse channel	N/Adate	2019/09/17time	07:46:35forward acquisition time	60.00reverse acquisition time	0.00gamma	496.2192k internal	0.2332k external	0.2332temperature offset calibration	0.9963default loss term (dB/km)	0.3790temperature slope calibration	1.0000multiplexer offset coefficient	1.0000multiplexer slope coefficient	1.0000fibre end	0.00T internal ref (°C)	27.19T ext. ref 1 (°C)	0.12T ext. ref 2 (°C)	22.10length (m)	temperature (°C)	Stokes	anti-Stokes-747.200	-200.000	0.035	-0.399
-746.185	620.678	-0.036	0.091
-745.171	800.000	-0.057	-0.175
-744.156	251.880	-0.064	0.109
-743.142	-167.199	-0.173	0.007
-742.127	0.402	-0.038	0.027
-741.112	-27.092	0.139	0.082
-740.098	-200.000	0.001	-0.163
-739.083	-53.691	0.029	-0.013
-738.069	-40.165	-0.235	-0.123
-737.054	130.511	0.062	-0.079
-736.039	-72.210	0.032	-0.012
-735.025	-65.637	0.174	0.070
-734.010	-66.278	0.177	-0.071
-732.996	-177.021	-0.027	0.001
-731.981	-200.000	0.008	-0.037
-730.966	-142.376	0.094	0.009
-729.952	7.657	0.404	-0.304
-728.937	76.980	-0.414	-0.442
-727.923	187.244	0.172	-0.258
-726.908	375.879	0.106	-0.217
-725.894	39.849	-0.214	0.193
-724.879	26.565	-0.050	0.042
-723.864	234.780	-0.083	-0.138
-722.850	-56.828	0.273	0.121
-721.835	-147.874	0.185	0.016
-720.821	-200.000	0.074	-0.374
-719.806	-200.000	0.003	-0.021
-718.791	-102.870	-0.387	-0.092
-717.777	605.936	0.081	0.203
-716.762	-6.041	-0.259	-0.178
-715.748	800.000	0.068	-0.217
-714.733	86.672	-0.104	-0.115
-713.718	-200.000	0.052	0.254
-712.704	7.498	0.190	0.143
-711.689	321.421	-0.068	-0.131
-710.675	-200.000	-0.018	-0.313
-709.660	-71.339	-0.351	-0.132
-708.645	82.886	-0.079	-0.086
-707.631	17.249	-0.191	-0.153
-706.616	212.692	-0.085	-0.135
-705.602	-6.169	0.184	-0.126
-704.587	146.340	-0.263	-0.354
-703.572	73.473	-0.056	0.059
-702.558	359.533	-0.046	0.092
-701.543	393.115	0.209	-0.436
-700.529	-130.138	-0.274	-0.038
-699.514	800.000	0.040	0.131
-698.499	50.073	0.146	0.138
-697.485	800.000	0.065	-0.279
-696.470	-77.562	-0.044	0.015
-695.456	-25.320	0.176	0.105
-694.441	681.925	0.081	0.213
-693.426	-104.127	-0.338	-0.079
-692.412	-98.559	0.123	0.031
-691.397	755.320	-0.126	0.343
-690.383	-22.510	0.181	0.110
-689.368	-28.906	-0.155	-0.090
-688.354	0.149	-0.063	-0.045
-687.339	-200.000	-0.081	-0.459
-686.324	-89.678	-0.047	0.014
-685.310	-137.463	-0.292	0.033
-684.295	-19.901	-0.098	-0.061
-683.281	-131.546	-0.101	-0.013
-682.266	-89.727	-0.089	0.026
-681.251	553.583	-0.205	-0.496
-680.237	-103.838	-0.052	0.012
-679.222	-200.000	-0.049	0.249
-678.208	-98.355	-0.019	0.005
-677.193	470.566	0.100	-0.225
-676.178	-200.000	0.049	-0.307
-675.164	473.859	0.093	-0.210
-674.149	-200.000	0.014	0.110
-673.135	-133.241	-0.102	-0.013
-672.120	244.490	-0.130	-0.219
-671.105	-200.000	0.002	-0.091
-670.091	424.931	-0.125	-0.269
-669.076	232.362	-0.225	-0.370
-668.062	373.055	-0.127	-0.260
-667.047	164.423	0.077	0.109
-666.032	-6.529	0.152	-0.104
-665.018	-200.000	0.012	-0.138
-664.003	-166.509	-0.357	0.015
-662.989	-200.000	0.006	-0.078
-661.974	-200.000	0.040	0.300
-660.959	-124.371	-0.198	0.031
-659.945	20.528	0.135	-0.109
-658.930	-129.462	-0.030	-0.004
-657.916	-65.541	-0.233	0.094
-656.901	11.193	0.119	0.091
-655.886	800.000	0.087	-0.334
-654.872	53.940	-0.319	-0.308
-653.857	30.665	-0.238	-0.204
-652.843	-155.487	-0.290	0.019
-651.828	-200.000	-0.019	0.157
-650.814	431.746	-0.066	0.144
-649.799	-45.035	0.296	0.148
-648.784	178.620	-0.124	0.182
-647.770	-79.698	0.132	-0.045
-646.755	160.713	-0.197	-0.276
-645.741	306.869	0.065	-0.122
-644.726	33.777	-0.146	-0.128
-643.711	503.433	0.051	-0.117
-642.697	303.903	-0.191	-0.354
-641.682	87.825	0.285	0.316
-640.668	188.260	-0.128	0.191
-639.653	-69.731	-0.305	-0.117
-638.638	-26.925	0.393	-0.230
-637.624	531.271	-0.138	-0.328
-636.609	75.307	-0.047	-0.049
-635.595	4.243	0.231	0.169
-634.580	-150.865	-0.306	0.023
-633.565	-200.000	0.009	0.191
-632.551	-125.479	-0.075	-0.011
-631.536	48.375	0.113	0.106
-630.522	787.420	0.056	-0.154
-629.507	-88.046	-0.106	-0.032
-628.492	96.930	-0.128	-0.147
-627.478	428.709	0.103	0.222
-626.463	800.000	-0.029	0.098
-625.449	161.716	0.258	-0.362
-624.434	356.624	0.159	-0.316
-623.419	146.428	-0.197	-0.264
-622.405	-33.888	-0.196	0.108
-621.390	-83.374	-0.177	0.057
-620.376	-200.000	0.003	0.100
-619.361	-200.000	-0.052	-0.333
-618.346	0.415	-0.036	-0.026
-617.332	145.883	-0.089	0.119
-616.317	29.305	-0.023	-0.020
-615.303	-89.229	-0.129	-0.038
-614.288	-117.111	-0.226	0.041
-613.273	-74.892	-0.377	0.135
-612.259	275.109	0.150	-0.266
-611.244	-50.279	-0.087	-0.041
-610.230	29.382	0.044	0.037
-609.215	381.325	0.025	-0.052
-608.201	-24.941	0.090	-0.054
-607.186	-200.000	0.005	0.226
-606.171	-81.336	-0.217	-0.072
-605.157	800.000	0.042	-0.161
-604.142	-61.780	0.193	0.081
-603.128	33.521	0.284	0.247
-602.113	-200.000	-0.016	0.381
-601.098	-44.353	-0.173	0.087
-600.084	73.542	0.303	0.317
-599.069	306.018	-0.099	-0.183
-598.055	-200.000	-0.020	0.229
-597.040	198.182	0.083	-0.127
-596.025	16.235	0.162	0.128
-595.011	-200.000	-0.018	-0.225
-593.996	800.000	0.058	-0.199
-592.982	-200.000	-0.018	0.171
-591.967	-200.000	0.012	-0.155
-590.952	480.043	0.189	0.428
-589.938	-178.203	-0.244	-0.006
-588.923	119.634	-0.261	0.323
-587.909	-152.830	0.142	-0.010
-586.894	-48.699	-0.205	-0.098
-585.879	117.359	0.124	0.153
-584.865	-200.000	0.009	-0.175
-583.850	276.240	-0.060	0.106
-582.836	-92.432	-0.096	-0.027
-581.821	292.351	-0.144	0.263
-580.806	34.455	-0.336	0.294
-579.792	-176.368	0.181	-0.005
-578.777	-200.000	-0.003	0.172
-577.763	800.000	0.070	0.242
-576.748	-42.487	-0.497	0.253
-575.733	-90.154	0.135	-0.039
-574.719	51.389	0.223	-0.212
-573.704	-200.000	0.042	-0.217
-572.690	10.582	-0.154	0.117
-571.675	713.350	0.060	-0.159
-570.661	800.000	-0.033	0.114
-569.646	71.360	-0.236	-0.245
-568.631	662.482	0.118	0.304
-567.617	-80.202	0.167	0.056
-566.602	-200.000	-0.015	-0.176
-565.588	-110.205	-0.430	0.090
-564.573	186.293	-0.166	-0.247
-563.558	800.000	-0.064	-0.230
-562.544	111.608	0.178	-0.214
-561.529	-95.531	0.124	-0.033
-560.515	-116.803	-0.090	0.016
-559.500	-200.000	0.007	-0.078
-558.485	1.161	0.200	0.143
-557.471	32.517	-0.236	-0.204
-556.456	-200.000	0.001	0.254
-555.442	-110.807	-0.138	-0.028
-554.427	-100.963	0.213	-0.052
-553.412	289.487	-0.104	-0.188
-552.398	-139.591	-0.295	0.031
-551.383	84.215	-0.100	0.109
-550.369	195.280	0.111	-0.168
-549.354	800.000	-0.049	-0.159
-548.339	177.021	-0.237	0.344
-547.325	-138.072	-0.026	-0.003
-546.310	373.681	0.035	0.070
-545.296	-72.538	-0.352	-0.130
-544.281	428.357	-0.019	-0.040
-543.266	-9.284	0.360	0.240
-542.252	675.741	0.079	-0.206
-541.237	274.668	-0.031	0.055
-540.223	-155.801	-0.260	-0.017
-539.208	-34.377	-0.209	-0.115
-538.193	-57.326	-0.082	0.036
-537.179	-200.000	-0.034	0.156
-536.164	82.338	0.323	-0.350
-535.150	530.748	-0.083	0.196
-534.135	69.600	0.154	-0.158
-533.121	-200.000	0.015	0.169
-532.106	800.000	0.018	-0.051
-531.091	-155.465	0.167	0.011
-530.077	-66.601	-0.199	0.079
-529.062	-200.000	0.006	0.068
-528.048	85.883	0.149	0.164
-527.033	245.466	-0.169	0.283
-526.018	800.000	0.035	0.135
-525.004	306.868	-0.118	-0.219
-523.989	-200.000	0.033	-0.273
-522.975	262.403	-0.061	-0.105
-521.960	446.844	0.064	0.140
-520.945	-67.949	0.085	0.033
-519.931	-86.563	0.278	-0.085
-518.916	-31.594	0.437	-0.245
-517.902	-200.000	0.020	-0.139
-516.887	68.874	-0.091	-0.094
-515.872	800.000	-0.076	0.279
-514.858	800.000	-0.078	-0.257
-513.843	-200.000	0.026	0.487
-512.829	-96.017	0.183	0.048
-511.814	-115.562	0.109	-0.020
-510.799	-85.692	0.021	-0.007
-509.785	-50.027	-0.185	0.087
-508.770	-200.000	-0.005	-0.171
-507.756	96.130	-0.041	-0.046
-506.741	24.358	-0.124	-0.102
-505.726	736.348	0.056	-0.150
-504.712	-47.202	-0.084	0.041
-503.697	-155.193	0.282	-0.018
-502.683	800.000	0.049	0.208
-501.668	82.225	-0.245	0.265
-500.653	-45.160	0.359	0.178
-499.639	-143.959	-0.479	0.045
-498.624	-200.000	-0.038	0.211
-497.610	-200.000	-0.031	-0.329
-496.595	-113.155	-0.181	0.036
-495.581	108.993	0.191	0.228
-494.566	260.632	0.032	0.055
-493.551	289.136	-0.159	-0.287
-492.537	-61.427	0.205	-0.086
-491.522	103.044	0.081	0.094
-490.508	175.031	-0.137	-0.198
-489.493	162.813	0.092	-0.129
-488.478	-12.739	0.319	-0.207
-487.464	-200.000	-0.031	0.147
-486.449	456.798	0.083	-0.184
-485.435	-200.000	0.033	-0.212
-484.420	-11.253	0.185	0.122
-483.405	535.823	0.055	0.131
-482.391	-118.091	-0.189	-0.034
-481.376	-71.238	-0.255	-0.095
-480.362	-64.218	-0.334	-0.136
-479.347	-90.984	0.396	0.113
-478.332	-108.522	-0.448	-0.096
-477.318	-200.000	-0.018	0.149
-476.303	393.840	-0.089	-0.185
-475.289	190.545	-0.117	-0.175
-474.274	30.194	-0.212	0.180
-473.259	-157.139	0.411	-0.025
-472.245	800.000	-0.062	-0.209
-471.230	377.610	-0.093	-0.190
-470.216	-74.953	0.027	-0.010
-469.201	-200.000	0.043	-0.328
-468.186	407.651	-0.051	0.107
-467.172	-189.231	0.145	0.002
-466.157	-1.474	0.098	-0.068
-465.143	-126.454	0.146	0.022
-464.128	-200.000	-0.042	0.258
-463.113	-63.886	-0.099	-0.040
-462.099	-103.065	-0.068	-0.016
-461.084	-200.000	0.018	-0.085
-460.070	-54.819	0.196	-0.088
-459.055	-69.712	0.267	-0.101
-458.040	15.659	-0.353	0.276
-457.026	-200.000	-0.021	0.140
-456.011	-200.000	0.005	-0.229
-454.997	559.062	-0.102	-0.245
-453.982	45.749	-0.204	0.188
-452.968	130.215	-0.085	-0.108
-451.953	750.162	0.085	-0.229
-450.938	-200.000	0.011	-0.267
-449.924	-200.000	0.015	0.078
-448.909	-200.000	-0.007	-0.110
-447.895	191.780	0.111	0.167
-446.880	800.000	0.090	0.339
-445.865	800.000	-0.023	0.081
-444.851	-40.602	0.185	0.095
-443.836	170.563	-0.122	-0.174
-442.822	-54.679	-0.023	-0.010
-441.807	-0.469	0.212	0.150
-440.792	-200.000	-0.007	0.236
-439.778	-161.064	0.286	0.015
-438.763	-200.000	-0.018	-0.106
-437.749	26.253	0.121	-0.100
-436.734	332.092	0.091	-0.174
-435.719	23.640	0.299	-0.245
-434.705	800.000	0.146	-0.483
-433.690	-19.380	-0.134	-0.083
-432.676	56.435	-0.057	0.055
-431.661	244.557	-0.208	-0.348
-430.646	273.485	-0.133	0.234
-429.632	-200.000	0.017	-0.295
-428.617	-71.544	0.250	-0.093
-427.603	-13.832	-0.294	-0.189
-426.588	-50.373	-0.324	0.152
-425.573	-63.774	0.167	0.068
-424.559	-73.961	-0.179	-0.064
-423.544	-75.170	0.307	0.109
-422.530	8.728	-0.198	0.148
-421.515	-75.690	-0.136	0.048
-420.500	-146.801	0.105	-0.009
-419.486	-200.000	-0.014	0.278
-418.471	-50.223	-0.387	0.182
-417.457	-200.000	-0.033	0.168
-416.442	-97.542	0.170	0.044
-415.428	-200.000	0.097	0.456
-414.413	-72.117	-0.237	0.087
-413.398	-27.084	-0.319	0.185
-412.384	-21.120	0.279	0.169
-411.369	-200.000	-0.011	-0.123
-410.355	-200.000	-0.024	0.329
-409.340	800.000	0.186	0.542
-408.325	-125.111	-0.193	0.029
-407.311	-170.866	0.115	0.004
-406.296	120.083	-0.077	-0.095
-405.282	-12.869	0.197	0.127
-404.267	436.760	-0.117	-0.253
-403.252	-200.000	0.002	0.116
-402.238	749.826	-0.033	-0.087
-401.223	14.894	0.280	0.218
-400.209	-200.000	-0.024	0.159
-399.194	-48.673	0.124	0.059
-398.179	149.685	-0.127	-0.170
-397.165	690.807	-0.054	0.140
-396.150	11.956	0.147	0.112
-395.136	-200.000	0.005	-0.289
-394.121	-55.922	-0.303	-0.134
-393.106	800.000	-0.027	0.086
-392.092	-87.178	0.397	-0.120
-391.077	93.011	0.257	0.289
-390.063	308.352	0.172	-0.318
-389.048	-141.504	0.230	0.023
-388.033	-59.720	-0.237	0.101
-387.019	-14.271	-0.087	-0.055
-386.004	-200.000	-0.026	0.336
-384.990	137.967	-0.315	-0.410
-383.975	-172.245	-0.063	-0.002
-382.960	-63.369	0.118	0.048
-381.946	662.513	0.115	0.294
-380.931	-191.312	-0.142	-0.001
-379.917	429.324	-0.065	0.138
-378.902	-200.000	0.133	-0.584
-377.888	-20.589	-0.304	0.185
-376.873	27.357	0.029	0.024
-375.858	-30.989	-0.261	-0.146
-374.844	-120.988	0.197	-0.033
-373.829	225.817	0.084	0.135
-372.815	233.215	-0.119	-0.194
-371.800	9.975	-0.197	-0.148
-370.785	88.610	0.165	0.181
-369.771	-7.135	-0.361	0.243
-368.756	102.376	0.045	0.052
-367.742	115.432	0.184	-0.223
-366.727	-175.672	-0.087	-0.002
-365.712	-200.000	0.044	0.336
-364.698	-200.000	-0.001	0.118
-363.683	59.188	-0.196	-0.191
-362.669	800.000	-0.039	-0.127
-361.654	-200.000	0.025	0.386
-360.639	92.219	0.150	-0.167
-359.625	-9.508	0.542	-0.358
-358.610	-200.000	-0.042	0.276
-357.596	-61.371	-0.195	-0.081
-356.581	-12.796	-0.096	-0.062
-355.566	125.563	-0.195	-0.244
-354.552	-200.000	0.000	0.084
-353.537	-38.963	-0.160	0.083
-352.523	183.202	-0.035	-0.051
-351.508	800.000	0.149	0.408
-350.493	-74.764	-0.169	-0.060
-349.479	110.428	-0.166	-0.198
-348.464	800.000	-0.106	-0.308
-347.450	-82.975	-0.156	0.050
-346.435	-163.313	0.155	0.007
-345.420	-120.624	0.266	0.045
-344.406	239.140	-0.088	-0.145
-343.391	289.875	0.039	0.071
-342.377	-197.037	-0.154	-0.001
-341.362	35.735	0.043	-0.037
-340.348	-25.335	-0.385	-0.226
-339.333	800.000	0.090	0.379
-338.318	-31.197	0.420	0.235
-337.304	262.735	0.169	-0.291
-336.289	800.000	-0.136	0.407
-335.275	800.000	-0.140	0.417
-334.260	-4.337	-0.256	-0.175
-333.245	-200.000	-0.007	-0.272
-332.231	-200.000	-0.029	-0.264
-331.216	-172.434	-0.281	0.009
-330.202	16.435	0.016	0.013
-329.187	516.067	-0.056	-0.130
-328.172	-200.000	-0.040	-0.467
-327.158	-133.586	0.095	-0.012
-326.143	218.329	0.161	0.255
-325.129	230.876	0.052	-0.084
-324.114	32.804	0.025	0.021
-323.099	-71.102	-0.217	-0.081
-322.085	-23.856	0.199	-0.118
-321.070	102.136	-0.078	0.091
-320.056	-169.941	0.229	-0.008
-319.041	-96.470	0.141	-0.037
-318.026	-117.291	0.125	-0.023
-317.012	3.146	-0.257	-0.185
-315.997	161.065	-0.181	0.250
-314.983	-124.978	0.422	-0.064
-313.968	-83.339	0.038	0.012
-312.953	-36.086	0.309	0.165
-311.939	800.000	-0.063	-0.181
-310.924	369.475	0.074	-0.149
-309.910	-200.000	0.036	-0.317
-308.895	154.349	0.092	0.125
-307.880	800.000	-0.151	0.457
-306.866	525.084	0.200	0.466
-305.851	-166.003	0.358	-0.015
-304.837	-94.580	-0.228	0.061
-303.822	67.571	-0.143	0.144
-302.807	-24.202	0.202	-0.119
-301.793	-141.125	-0.238	-0.024
-300.778	-200.000	-0.044	-0.260
-299.764	56.481	-0.140	-0.134
-298.749	361.348	0.080	0.158
-297.735	220.862	-0.183	0.290
-296.720	-200.000	-0.041	-0.269
-295.705	800.000	-0.070	-0.239
-294.691	36.162	0.104	-0.090
-293.676	66.619	0.039	-0.039
-292.662	-200.000	0.015	-0.176
-291.647	130.396	-0.098	0.125
-290.632	-200.000	0.030	0.158
-289.618	13.724	-0.238	0.183
-288.603	103.881	0.188	-0.218
-287.589	800.000	0.088	-0.376
-286.574	223.008	-0.035	0.056
-285.559	-130.878	0.151	-0.020
-284.545	-159.687	-0.184	-0.010
-283.530	72.293	-0.154	0.159
-282.516	-120.790	-0.271	-0.045
-281.501	234.678	-0.109	0.178
-280.486	800.000	-0.039	0.152
-279.472	30.093	-0.230	-0.194
-278.457	-156.039	-0.113	-0.007
-277.443	5.544	0.246	0.180
-276.428	800.000	-0.057	-0.183
-275.413	237.437	-0.103	-0.169
-274.399	42.729	0.105	-0.095
-273.384	-200.000	-0.048	0.238
-272.370	427.143	-0.083	0.176
-271.355	-200.000	-0.026	0.347
-270.340	50.785	-0.165	-0.154
-269.326	-21.213	0.438	-0.264
-268.311	-63.365	-0.185	0.075
-267.297	98.708	-0.137	0.156
-266.282	-200.000	-0.008	-0.080
-265.267	124.266	0.139	-0.172
-264.253	307.679	-0.119	-0.219
-263.238	-200.000	-0.012	0.092
-262.224	174.232	0.073	-0.104
-261.209	-74.213	0.306	-0.109
-260.195	302.201	-0.088	0.161
-259.180	60.296	-0.270	0.264
-258.165	255.894	0.158	-0.268
-257.151	76.214	0.071	-0.074
-256.136	-97.304	0.169	-0.044
-255.122	17.864	0.187	-0.147
-254.107	39.516	-0.108	-0.095
-253.092	262.873	0.229	-0.393
-252.078	800.000	0.054	-0.162
-251.063	-22.594	-0.185	-0.111
-250.049	-3.928	-0.232	-0.159
-249.034	116.615	0.138	0.167
-248.019	-52.174	0.163	0.075
-247.005	-75.055	0.069	-0.024
-245.990	-200.000	0.037	-0.393
-244.976	169.524	-0.173	-0.243
-243.961	722.556	0.041	0.108
-242.946	191.809	0.067	0.100
-241.932	-12.305	0.100	-0.065
-240.917	-165.626	-0.318	-0.014
-239.903	-49.631	0.313	0.147
-238.888	458.685	-0.093	0.205
-237.873	-200.000	0.067	0.308
-236.859	102.458	0.143	-0.165
-235.844	60.776	0.108	-0.106
-234.830	423.945	0.110	-0.233
-233.815	-177.697	0.289	-0.007
-232.800	800.000	-0.077	0.290
-231.786	800.000	-0.085	-0.280
-230.771	-123.924	0.229	-0.036
-229.757	-11.534	-0.298	0.193
-228.742	-70.761	-0.114	0.042
-227.727	-149.928	0.113	0.009
-226.713	-197.843	-0.091	-0.001
-225.698	-86.256	0.139	0.042
-224.684	-107.938	0.116	-0.025
-223.669	156.091	0.150	0.203
-222.655	396.698	0.018	-0.037
-221.640	-62.808	0.251	-0.103
-220.625	-200.000	-0.017	0.131
-219.611	-71.447	0.235	0.087
-218.596	-200.000	0.075	0.451
-217.582	-200.000	0.051	0.472
-216.567	150.402	0.218	0.291
-215.552	392.625	-0.129	-0.264
-214.538	800.000	-0.038	-0.110
-213.523	-2.705	0.119	-0.082
-212.509	-180.442	-0.083	0.002
-211.494	183.182	0.170	0.247
-210.479	800.000	0.023	-0.079
-209.465	-64.967	0.187	-0.075
-208.450	154.183	0.041	-0.055
-207.436	136.265	0.184	0.237
-206.421	-81.587	0.151	-0.049
-205.406	-200.000	-0.058	0.255
-204.392	-2.551	0.098	-0.067
-203.377	800.000	0.033	-0.115
-202.363	-45.295	0.347	0.169
-201.348	112.767	0.107	0.128
-200.333	-200.000	0.018	0.082
-199.319	-123.463	0.152	-0.024
-198.304	184.510	-0.139	-0.202
-197.290	10.935	0.211	-0.158
-196.275	618.438	-0.117	0.290
-195.260	-100.992	-0.211	-0.051
-194.246	-4.053	0.303	0.207
-193.231	146.300	0.260	-0.344
-192.217	-35.758	0.071	-0.038
-191.202	204.133	-0.076	-0.116
-190.187	-199.434	0.270	0.001
-189.173	-200.000	-0.040	0.323
-188.158	-130.436	0.184	-0.024
-187.144	-129.877	0.058	0.008
-186.129	800.000	0.058	0.230
-185.114	-200.000	-0.055	0.259
-184.100	-200.000	-0.037	-0.349
-183.085	-33.173	-0.276	-0.150
-182.071	-123.997	0.160	-0.025
-181.056	-200.000	-0.009	0.184
-180.042	42.882	-0.102	0.091
-179.027	37.742	0.223	0.195
-178.012	-119.409	-0.397	-0.068
-176.998	-94.316	-0.151	-0.040
-175.983	135.738	-0.100	-0.128
-174.969	25.214	-0.093	0.076
-173.954	-129.087	0.190	-0.026
-172.939	202.000	0.040	0.060
-171.925	-200.000	-0.028	-0.149
-170.910	-21.493	-0.173	0.104
-169.896	270.400	0.124	0.215
-168.881	800.000	0.033	-0.117
-167.866	451.895	-0.035	-0.076
-166.852	-30.839	0.221	-0.123
-165.837	-152.112	-0.182	0.013
-164.823	682.410	0.053	-0.137
-163.808	147.331	0.046	0.061
-162.793	-12.866	-0.311	-0.199
-161.779	800.000	0.042	0.126
-160.764	-4.694	-0.186	0.126
-159.750	-200.000	0.004	-0.023
-158.735	149.479	0.094	-0.125
-157.720	-122.669	0.175	0.028
-156.706	-200.000	-0.016	0.129
-155.691	417.334	0.113	0.237
-154.677	246.390	-0.138	-0.229
-153.662	229.502	0.042	0.067
-152.647	-200.000	0.018	-0.298
-151.633	21.997	-0.345	0.277
-150.618	-200.000	0.015	-0.161
-149.604	76.368	-0.183	-0.190
-148.589	800.000	0.044	-0.156
-147.574	264.314	-0.138	-0.236
-146.560	800.000	-0.132	-0.517
-145.545	-200.000	-0.009	0.290
-144.531	-87.374	-0.121	-0.036
-143.516	-200.000	-0.008	0.235
-142.502	800.000	-0.002	-0.005
-141.487	205.970	0.049	-0.075
-140.472	-57.672	0.156	-0.067
-139.458	-21.409	0.190	0.114
-138.443	-67.524	-0.219	0.084
-137.429	-200.000	0.004	-0.151
-136.414	-200.000	-0.016	0.083
-135.399	-80.038	0.015	0.005
-134.385	-200.000	-0.039	-0.558
-133.370	316.816	0.026	-0.047
-132.356	-55.370	0.297	0.131
-131.341	-138.036	-0.237	-0.026
-130.326	-89.690	-0.463	0.133
-129.312	26.997	0.115	-0.095
-128.297	-128.306	0.096	-0.013
-127.283	-126.433	0.339	0.050
-126.268	521.855	0.042	0.097
-125.253	-110.984	-0.258	-0.052
-124.239	-187.167	-0.205	-0.003
-123.224	800.000	-0.053	-0.217
