DTS Sentinel unit serial number:	SN413079Multiplexer serial number:	ORYXHardware model number:	OX4-SRSoftware version number:	ORYX F/W v4.00 Oryx Data Collector v3.7.2.0data status	okinstallation	princeton_trtdifferential loss correction	single-endedforward channel	channel 1reverse channel	N/Adate	2019/09/12time	05:48:11forward acquisition time	60.00reverse acquisition time	0.00gamma	496.2192k internal	0.2321k external	0.2321temperature offset calibration	1.0046default loss term (dB/km)	0.3790temperature slope calibration	1.0000multiplexer offset coefficient	1.0000multiplexer slope coefficient	1.0000fibre end	0.00T internal ref (°C)	32.03T ext. ref 1 (°C)	1.57T ext. ref 2 (°C)	27.52length (m)	temperature (°C)	Stokes	anti-Stokes-747.200	800.000	0.092	0.268
-746.185	163.459	-0.150	0.214
-745.171	426.398	0.122	0.265
-744.156	10.612	-0.328	0.253
-743.142	-96.078	0.107	0.029
-742.127	-200.000	-0.023	0.249
-741.112	-143.243	0.029	0.003
-740.098	529.104	0.140	0.334
-739.083	-113.708	-0.044	0.009
-738.069	-200.000	0.045	0.219
-737.054	258.998	-0.117	0.205
-736.039	-2.212	-0.353	-0.251
-735.025	55.472	0.174	0.170
-734.010	-13.531	0.254	-0.166
-732.996	-47.998	0.086	-0.042
-731.981	185.702	-0.238	0.357
-730.966	-78.613	-0.328	0.113
-729.952	-200.000	-0.027	0.181
-728.937	-44.405	-0.157	-0.079
-727.923	-139.220	-0.140	0.015
-726.908	-17.245	0.261	-0.166
-725.894	-37.945	0.216	-0.116
-724.879	-36.492	-0.215	0.117
-723.864	-72.839	-0.211	-0.079
-722.850	-58.591	0.088	-0.038
-721.835	362.438	-0.090	-0.183
-720.821	98.832	-0.029	0.033
-719.806	-200.000	0.012	-0.329
-718.791	-200.000	0.013	-0.140
-717.777	77.586	0.073	-0.079
-716.762	37.100	-0.116	0.104
-715.748	95.371	0.070	-0.080
-714.733	800.000	-0.053	0.228
-713.718	-48.805	0.109	-0.053
-712.704	-200.000	0.017	-0.116
-711.689	-31.006	-0.184	-0.105
-710.675	30.820	0.185	0.160
-709.660	88.700	0.210	0.235
-708.645	-59.110	-0.144	0.063
-707.631	-200.000	0.052	0.268
-706.616	-200.000	-0.005	-0.145
-705.602	-25.592	0.352	0.210
-704.587	-36.984	0.215	-0.116
-703.572	-27.370	-0.197	0.116
-702.558	197.908	0.023	0.036
-701.543	-181.098	-0.302	0.006
-700.529	188.169	0.066	0.099
-699.514	-200.000	-0.010	0.075
-698.499	-200.000	-0.017	0.165
-697.485	-45.723	0.392	-0.196
-696.470	-1.743	-0.155	-0.110
-695.456	-162.237	-0.189	0.010
-694.441	-143.680	0.093	-0.009
-693.426	372.932	0.033	-0.068
-692.412	160.159	0.201	0.283
-691.397	-124.572	-0.194	-0.030
-690.383	800.000	0.070	-0.198
-689.368	-200.000	0.019	0.291
-688.354	-0.534	0.222	0.159
-687.339	200.207	0.005	-0.008
-686.324	-176.649	-0.252	-0.007
-685.310	-109.245	-0.196	-0.042
-684.295	123.321	-0.082	0.104
-683.281	-62.495	-0.187	-0.079
-682.266	250.026	-0.199	-0.341
-681.251	-41.638	0.083	0.043
-680.237	-146.481	0.192	-0.017
-679.222	95.474	-0.195	-0.224
-678.208	-174.277	-0.413	0.012
-677.193	233.099	-0.061	-0.102
-676.178	-192.763	-0.126	-0.001
-675.164	67.311	0.136	-0.140
-674.149	-20.452	-0.040	0.025
-673.135	-137.467	0.146	0.017
-672.120	284.357	-0.033	-0.059
-671.105	-22.823	-0.044	0.027
-670.091	337.379	-0.045	0.089
-669.076	-13.637	0.210	0.137
-668.062	-98.124	0.216	0.056
-667.047	-200.000	0.014	0.311
-666.032	-200.000	0.029	0.276
-665.018	21.802	0.167	0.137
-664.003	12.241	0.577	-0.448
-662.989	-200.000	0.052	0.318
-661.974	222.362	-0.055	-0.088
-660.959	-59.920	-0.012	-0.005
-659.945	160.102	-0.117	-0.164
-658.930	-155.615	0.419	-0.027
-657.916	-14.558	-0.201	-0.130
-656.901	101.400	-0.331	-0.388
-655.886	-42.884	0.508	0.260
-654.872	-104.673	-0.421	0.098
-653.857	30.704	-0.234	0.202
-652.843	-111.160	0.134	0.028
-651.828	263.952	-0.174	-0.305
-650.814	32.779	0.199	0.173
-649.799	4.449	0.216	-0.159
-648.784	-200.000	0.000	0.136
-647.770	119.415	0.177	0.220
-646.755	-72.195	-0.147	-0.055
-645.741	-23.466	-0.169	0.102
-644.726	-14.618	0.431	-0.279
-643.711	57.852	-0.330	-0.325
-642.697	613.420	-0.128	0.323
-641.682	-200.000	-0.025	-0.544
-640.668	11.183	0.114	0.088
-639.653	113.817	0.166	0.203
-638.638	24.547	-0.090	-0.075
-637.624	18.598	0.254	-0.204
-636.609	800.000	-0.077	-0.261
-635.595	-120.504	-0.450	0.077
-634.580	-200.000	-0.024	-0.245
-633.565	-91.401	0.432	0.124
-632.551	800.000	0.100	-0.332
-631.536	-200.000	-0.013	0.193
-630.522	-200.000	-0.038	0.299
-629.507	-145.116	-0.011	-0.001
-628.492	37.463	-0.216	0.192
-627.478	800.000	-0.032	0.088
-626.463	-161.596	-0.394	-0.020
-625.449	209.157	-0.142	-0.224
-624.434	-52.817	0.339	-0.157
-623.419	-95.793	-0.210	-0.057
-622.405	45.258	-0.054	-0.050
-621.390	66.312	-0.253	-0.259
-620.376	-57.584	0.099	0.044
-619.361	-3.659	-0.215	0.150
-618.346	340.776	0.061	0.120
-617.332	-130.895	0.166	-0.022
-616.317	287.922	-0.097	0.176
-615.303	111.209	0.163	-0.198
-614.288	10.805	-0.295	-0.227
-613.273	-16.756	0.234	-0.149
-612.259	370.551	0.186	0.379
-611.244	-200.000	0.041	0.300
-610.230	25.835	0.169	-0.141
-609.215	539.902	-0.040	-0.095
-608.201	130.249	0.209	-0.269
-607.186	4.677	-0.190	-0.140
-606.171	99.357	0.134	-0.156
-605.157	-200.000	0.027	-0.255
-604.142	117.720	0.235	-0.291
-603.128	-166.620	0.114	0.005
-602.113	-200.000	0.011	-0.227
-601.098	-120.716	0.100	-0.017
-600.084	-41.063	-0.204	-0.106
-599.069	-172.048	0.642	-0.021
-598.055	697.927	-0.124	0.327
-597.040	-200.000	0.006	-0.081
-596.025	-200.000	-0.046	-0.256
-595.011	238.281	0.125	-0.209
-593.996	-60.750	-0.193	0.082
-592.982	-73.340	-0.087	0.032
-591.967	-30.438	-0.267	-0.152
-590.952	-200.000	0.000	0.130
-589.938	-200.000	0.013	0.180
-588.923	139.337	-0.057	-0.075
-587.909	172.101	-0.082	0.119
-586.894	-85.673	0.191	-0.060
-585.879	366.641	-0.103	-0.208
-584.865	800.000	0.108	-0.346
-583.850	124.876	-0.134	0.169
-582.836	473.685	-0.094	0.213
-581.821	138.166	-0.129	-0.169
-580.806	-50.387	-0.188	0.089
-579.792	-26.115	0.241	0.143
-578.777	-66.370	-0.352	0.141
-577.763	-48.580	-0.018	-0.009
-576.748	303.603	0.148	-0.275
-575.733	321.209	0.213	0.406
-574.719	800.000	0.041	-0.153
-573.704	266.644	0.169	-0.296
-572.690	-200.000	-0.035	-0.235
-571.675	69.332	-0.281	0.290
-570.661	98.600	-0.117	0.136
-569.646	-144.415	0.062	0.006
-568.631	-102.597	-0.273	-0.065
-567.617	127.290	-0.191	-0.243
-566.602	-168.033	0.219	-0.009
-565.588	800.000	0.101	0.284
-564.573	-200.000	-0.028	0.126
-563.558	800.000	0.031	-0.093
-562.544	27.477	-0.185	-0.156
-561.529	-64.065	-0.281	0.115
-560.515	-35.842	-0.146	-0.079
-559.500	-200.000	0.046	-0.237
-558.485	168.337	-0.082	0.118
-557.471	800.000	0.062	-0.219
-556.456	190.168	-0.084	-0.126
-555.442	-200.000	-0.068	0.355
-554.427	189.433	0.297	0.446
-553.412	411.760	-0.143	0.305
-552.398	-200.000	0.011	-0.220
-551.383	-66.906	0.333	-0.132
-550.369	-200.000	-0.059	-0.346
-549.354	-200.000	-0.029	0.440
-548.339	-181.346	0.197	0.004
-547.325	7.226	0.150	-0.112
-546.310	161.619	0.177	0.249
-545.296	137.788	0.131	0.172
-544.281	42.403	-0.172	0.157
-543.266	13.058	0.038	0.029
-542.252	-168.928	0.106	-0.004
-541.237	-200.000	-0.008	-0.490
-540.223	800.000	0.021	-0.064
-539.208	-41.675	0.218	0.112
-538.193	-134.853	-0.170	-0.021
-537.179	267.421	-0.127	0.223
-536.164	72.539	0.221	-0.231
-535.150	-200.000	0.008	-0.106
-534.135	453.314	0.015	0.033
-533.121	-0.734	0.178	0.126
-532.106	-6.637	0.159	0.109
-531.091	-200.000	-0.047	-0.231
-530.077	800.000	-0.117	0.353
-529.062	122.253	0.049	0.061
-528.048	-106.658	-0.258	0.057
-527.033	285.837	-0.203	-0.366
-526.018	64.093	0.044	0.045
-525.004	-138.944	0.360	-0.039
-523.989	-200.000	0.042	0.478
-522.975	94.205	-0.252	0.287
-521.960	-112.446	-0.077	-0.015
-520.945	76.375	0.056	0.059
-519.931	-200.000	-0.048	-0.248
-518.916	-126.040	-0.044	0.007
-517.902	85.723	-0.033	0.037
-516.887	-22.768	-0.061	-0.037
-515.872	468.322	0.107	-0.240
-514.858	64.608	0.090	0.091
-513.843	-81.952	-0.275	-0.090
-512.829	230.581	-0.050	0.082
-511.814	234.240	0.069	-0.113
-510.799	312.238	-0.179	0.337
-509.785	-200.000	-0.017	0.376
-508.770	200.852	0.127	-0.195
-507.756	-49.075	0.011	-0.005
-506.741	63.668	-0.021	-0.021
-505.726	-126.587	-0.135	-0.020
-504.712	55.804	0.183	0.177
-503.697	-179.093	-0.442	-0.010
-502.683	37.310	-0.078	0.069
-501.668	-36.290	0.116	0.063
-500.653	-171.490	-0.272	-0.009
-499.639	352.520	0.215	-0.426
-498.624	-200.000	-0.007	-0.158
-497.610	800.000	-0.037	-0.125
-496.595	-86.991	-0.069	0.021
-495.581	-200.000	0.048	0.269
-494.566	-48.616	-0.270	-0.130
-493.551	-111.219	-0.390	0.080
-492.537	-181.392	-0.317	-0.006
-491.522	-82.675	0.205	-0.066
-490.508	87.662	-0.086	-0.095
-489.493	298.616	-0.221	-0.406
-488.478	-170.725	-0.469	-0.016
-487.464	130.964	-0.125	-0.161
-486.449	17.461	0.038	0.030
-485.435	178.194	0.172	-0.251
-484.420	7.148	0.214	0.160
-483.405	-33.891	-0.161	0.089
-482.391	93.850	0.227	-0.257
-481.376	2.320	0.056	-0.041
-480.362	-200.000	0.023	0.118
-479.347	-200.000	-0.017	-0.211
-478.332	800.000	-0.091	-0.300
-477.318	21.103	-0.261	-0.212
-476.303	265.083	0.097	-0.169
-475.289	-23.447	0.174	-0.105
-474.274	800.000	0.060	0.203
-473.259	-13.286	-0.123	0.080
-472.245	-131.873	0.175	-0.023
-471.230	-68.864	0.324	-0.125
-470.216	157.005	-0.121	-0.167
-469.201	-200.000	0.008	0.121
-468.186	-200.000	0.040	-0.203
-467.172	-200.000	0.056	-0.304
-466.157	142.557	0.071	-0.094
-465.143	-70.132	-0.304	0.116
-464.128	-132.678	-0.103	0.013
-463.113	123.325	0.213	-0.267
-462.099	-31.260	0.389	0.219
-461.084	-200.000	-0.019	0.175
-460.070	-13.246	0.251	-0.163
-459.055	-200.000	-0.006	0.459
-458.040	-20.078	0.157	0.097
-457.026	800.000	0.094	0.340
-456.011	-3.320	-0.217	0.151
-454.997	326.935	0.147	-0.282
-453.982	366.702	0.074	0.150
-452.968	455.380	0.054	-0.119
-451.953	-19.014	0.233	-0.145
-450.938	139.877	0.089	-0.118
-449.924	-73.843	0.076	-0.028
-448.909	-70.751	0.094	-0.036
-447.895	-200.000	-0.006	0.085
-446.880	387.831	-0.049	-0.102
-445.865	2.787	0.141	0.102
-444.851	-43.317	-0.059	-0.030
-443.836	37.368	-0.200	-0.177
-442.822	271.679	0.236	-0.415
-441.807	86.270	0.059	-0.065
-440.792	-200.000	-0.092	0.422
-439.778	21.016	-0.202	0.164
-438.763	-25.083	-0.265	0.157
-437.749	-200.000	0.030	-0.390
-436.734	231.736	0.150	0.245
-435.719	126.439	-0.111	0.140
-434.705	37.304	0.279	0.247
-433.690	-96.132	0.295	0.078
-432.676	157.339	0.142	-0.197
-431.661	133.287	0.143	0.185
-430.646	275.463	-0.090	-0.159
-429.632	98.091	0.091	0.104
-428.617	48.094	0.194	-0.181
-427.603	-200.000	-0.004	0.075
-426.588	31.588	-0.241	0.207
-425.573	800.000	0.035	0.115
-424.559	432.145	-0.138	-0.299
-423.544	578.957	0.134	-0.328
-422.530	238.764	0.140	0.232
-421.515	-200.000	-0.036	-0.224
-420.500	24.794	-0.091	-0.075
-419.486	-166.937	-0.414	0.017
-418.471	-200.000	-0.001	0.129
-417.457	-34.989	0.339	0.185
-416.442	135.203	0.101	-0.131
-415.428	544.961	0.057	0.135
-414.413	-200.000	-0.065	0.342
-413.398	-200.000	0.028	-0.377
-412.384	-24.502	0.440	0.261
-411.369	-200.000	0.003	-0.284
-410.355	128.625	-0.346	-0.440
-409.340	128.072	0.036	0.046
-408.325	494.065	0.095	-0.216
-407.311	-200.000	0.001	0.255
-406.296	-128.455	0.020	-0.003
-405.282	-41.195	0.228	-0.117
-404.267	800.000	-0.055	0.174
-403.252	-29.573	-0.084	-0.048
-402.238	-200.000	-0.110	-0.673
-401.223	-42.272	-0.178	-0.091
-400.209	-83.757	-0.322	0.102
-399.194	-15.167	0.193	0.123
-398.179	137.478	-0.246	-0.321
-397.165	167.096	-0.115	-0.163
-396.150	-83.241	0.315	-0.101
-395.136	-121.363	-0.235	-0.039
-394.121	-200.000	0.001	-0.053
-393.106	-62.406	0.141	-0.058
-392.092	-94.614	0.159	0.043
-391.077	44.574	-0.011	-0.010
-390.063	-140.923	0.346	-0.035
-389.048	10.467	-0.084	-0.064
-388.033	30.221	-0.283	0.241
-387.019	-200.000	-0.014	-0.289
-386.004	-200.000	0.035	-0.457
-384.990	-44.032	-0.262	0.131
-383.975	-200.000	0.010	-0.117
-382.960	-89.694	-0.122	0.036
-381.946	-19.261	-0.179	0.111
-380.931	45.636	0.272	-0.250
-379.917	-200.000	0.002	0.301
-378.902	36.177	-0.145	0.127
-377.888	-55.408	0.052	-0.023
-376.873	-65.939	0.289	0.115
-375.858	-165.373	-0.366	-0.016
-374.844	-125.383	-0.348	0.053
-373.829	-200.000	-0.011	-0.204
-372.815	-66.121	0.075	-0.030
-371.800	-200.000	0.027	0.133
-370.785	-59.714	-0.200	-0.085
-369.771	-200.000	0.007	-0.128
-368.756	35.841	0.042	0.037
-367.742	-172.998	0.187	-0.006
-366.727	-115.158	0.219	-0.041
-365.712	63.570	-0.095	0.095
-364.698	116.888	-0.176	0.216
-363.683	24.924	0.052	-0.043
-362.669	167.694	0.009	-0.013
-361.654	-126.935	-0.277	-0.041
-360.639	-200.000	0.046	0.204
-359.625	37.235	-0.184	0.162
-358.610	149.391	-0.084	0.113
-357.596	456.316	-0.113	-0.249
-356.581	-200.000	0.038	-0.204
-355.566	141.751	-0.338	0.446
-354.552	800.000	0.013	-0.049
-353.537	-113.251	-0.376	0.074
-352.523	800.000	-0.077	0.278
-351.508	-168.773	0.048	0.002
-350.493	33.644	-0.232	-0.201
-349.479	120.175	-0.235	-0.290
-348.464	-28.749	-0.115	0.066
-347.450	160.218	0.112	-0.156
-346.435	644.495	0.041	-0.104
-345.420	444.040	-0.141	-0.308
-344.406	-200.000	-0.020	0.222
-343.391	-157.692	0.143	0.008
-342.377	103.746	-0.224	-0.262
-341.362	336.585	0.119	0.230
-340.348	-36.587	-0.206	0.110
-339.333	-73.438	-0.188	0.068
-338.318	586.357	0.140	0.344
-337.304	-200.000	0.013	-0.239
-336.289	211.528	0.057	-0.089
-335.275	800.000	-0.036	-0.152
-334.260	155.156	-0.358	-0.489
-333.245	-163.948	0.121	-0.006
-332.231	239.784	0.153	0.254
-331.216	-200.000	0.009	-0.311
-330.202	321.633	-0.098	-0.186
-329.187	197.865	0.260	0.395
-328.172	265.845	-0.055	-0.096
-327.158	124.101	-0.083	0.103
-326.143	431.673	0.096	-0.207
-325.129	135.251	-0.090	0.117
-324.114	283.922	-0.084	-0.149
-323.099	681.032	0.108	-0.279
-322.085	702.073	-0.072	0.187
-321.070	800.000	-0.092	-0.255
-320.056	671.599	0.097	-0.249
-319.041	-200.000	-0.004	0.163
-318.026	13.099	0.218	-0.168
-317.012	56.520	0.381	-0.369
-315.997	601.936	-0.149	0.368
-314.983	-40.832	0.248	0.128
-313.968	92.985	-0.096	0.108
-312.953	-109.520	-0.317	0.067
-311.939	-177.468	-0.323	-0.008
-310.924	-81.506	-0.083	0.027
-309.910	-38.996	-0.176	0.092
-308.895	-200.000	0.071	0.525
-307.880	727.349	-0.095	-0.253
-306.866	-66.843	0.158	0.062
-305.851	-8.476	0.092	-0.061
-304.837	-11.980	0.189	-0.123
-303.822	-50.357	0.396	0.186
-302.807	800.000	0.022	0.088
-301.793	800.000	-0.081	0.248
-300.778	44.308	-0.024	0.022
-299.764	-102.334	0.394	0.094
-298.749	800.000	-0.045	0.133
-297.735	800.000	0.072	0.259
-296.720	-200.000	0.014	-0.201
-295.705	-15.351	0.084	-0.053
-294.691	107.264	0.111	-0.131
-293.676	-128.502	0.114	0.016
-292.662	-200.000	-0.015	-0.085
-291.647	359.387	-0.258	-0.513
-290.632	212.658	0.029	0.046
-289.618	129.419	-0.228	0.289
-288.603	800.000	0.122	0.377
-287.589	6.523	-0.082	-0.061
-286.574	22.739	0.246	-0.200
-285.559	800.000	-0.094	-0.283
-284.545	488.162	-0.025	-0.056
-283.530	-200.000	-0.070	-0.330
-282.516	469.918	0.020	-0.044
-281.501	89.641	0.148	0.163
-280.486	111.925	0.100	0.119
-279.472	-143.916	0.092	-0.009
-278.457	-200.000	0.020	0.136
-277.443	-66.431	0.354	-0.140
-276.428	-23.782	-0.197	0.117
-275.413	200.952	0.089	-0.136
-274.399	-109.411	0.209	0.044
-273.384	-200.000	-0.003	0.110
-272.370	-62.169	0.368	0.152
-271.355	303.254	-0.050	0.092
-270.340	104.897	-0.067	-0.078
-269.326	-25.433	0.106	-0.062
-268.311	258.321	-0.177	0.302
-267.297	800.000	-0.066	0.250
-266.282	-200.000	0.060	-0.278
-265.267	-200.000	0.042	0.278
-264.253	-128.319	-0.191	-0.027
-263.238	-25.992	0.094	0.055
-262.224	-200.000	0.044	0.207
-261.209	54.528	0.094	0.090
-260.195	800.000	-0.079	0.231
-259.180	590.880	0.050	0.121
-258.165	57.424	0.306	0.296
-257.151	81.448	0.189	0.203
-256.136	-58.843	-0.069	0.030
-255.122	-200.000	-0.017	0.248
-254.107	-22.058	-0.187	0.112
-253.092	17.639	0.400	0.316
-252.078	41.834	0.299	-0.269
-251.063	-56.919	-0.282	0.124
-250.049	-200.000	0.036	-0.184
-249.034	800.000	0.027	-0.087
-248.019	-200.000	0.036	0.201
-247.005	11.225	0.253	0.192
-245.990	23.279	0.158	0.129
-244.976	77.723	-0.150	-0.159
-243.961	359.585	-0.102	-0.202
-242.946	800.000	0.065	0.197
-241.932	118.512	-0.212	0.260
-240.917	800.000	-0.096	0.289
-239.903	313.041	0.085	-0.158
-238.888	-57.139	0.166	-0.073
-237.873	540.343	-0.044	0.104
-236.859	-200.000	0.028	-0.336
-235.844	800.000	-0.039	-0.126
-234.830	48.604	-0.059	-0.055
-233.815	800.000	0.025	-0.072
-232.800	-138.027	0.209	0.023
-231.786	-86.501	0.463	-0.141
-230.771	-65.835	0.155	-0.062
-229.757	30.217	-0.320	0.270
-228.742	800.000	-0.019	-0.077
-227.727	-127.251	0.180	0.026
-226.713	790.120	-0.034	-0.094
-225.698	-200.000	-0.009	0.078
-224.684	14.182	0.123	0.095
-223.669	-4.257	0.416	0.285
-222.655	800.000	0.076	-0.259
-221.640	27.430	-0.147	0.122
-220.625	-200.000	0.020	-0.153
-219.611	684.131	0.124	0.321
-218.596	327.444	-0.021	0.040
-217.582	-8.124	0.090	-0.060
-216.567	400.144	-0.054	0.112
-215.552	-15.094	-0.174	0.110
-214.538	433.960	-0.125	0.268
-213.523	-200.000	0.001	0.151
-212.509	-200.000	0.066	0.385
-211.494	-200.000	-0.033	0.385
-210.479	-200.000	0.083	0.472
-209.465	-200.000	0.028	0.226
-208.450	263.639	-0.195	0.335
-207.436	210.845	-0.159	0.247
-206.421	800.000	0.063	0.257
-205.406	-55.055	0.368	0.164
-204.392	-65.338	0.255	-0.101
-203.377	-87.010	-0.187	-0.056
-202.363	-149.955	-0.405	-0.031
-201.348	302.784	-0.130	0.239
-200.333	-5.161	0.251	0.171
-199.319	12.468	0.221	-0.169
-198.304	-126.565	-0.135	-0.020
-197.290	800.000	-0.096	0.296
-196.275	216.551	0.048	-0.075
-195.260	800.000	-0.013	-0.051
-194.246	800.000	-0.080	-0.225
-193.231	-10.980	0.128	-0.084
-192.217	-109.340	-0.292	-0.061
-191.202	800.000	0.062	-0.178
-190.187	-107.354	-0.010	0.002
-189.173	-34.400	0.107	-0.058
-188.158	36.960	-0.215	-0.188
-187.144	-142.083	-0.367	-0.036
-186.129	126.173	-0.087	-0.109
-185.114	238.672	-0.078	-0.128
-184.100	599.617	-0.050	-0.123
-183.085	84.963	-0.229	-0.248
-182.071	800.000	-0.084	-0.272
-181.056	800.000	0.025	0.099
-180.042	-16.218	0.214	-0.134
-179.027	-97.045	-0.351	0.091
-178.012	-200.000	0.007	0.060
-176.998	-200.000	-0.021	0.138
-175.983	181.442	-0.106	-0.155
-174.969	-66.896	-0.101	-0.039
-173.954	-49.106	-0.061	0.029
-172.939	273.307	0.057	-0.100
-171.925	800.000	0.021	0.092
-170.910	-24.383	-0.061	-0.036
-169.896	306.954	-0.228	-0.419
-168.881	800.000	0.081	0.304
-167.866	-136.645	0.257	-0.029
-166.852	285.349	0.132	0.236
-165.837	534.224	-0.072	0.169
-164.823	-116.612	0.145	0.026
-163.808	79.776	-0.130	0.138
-162.793	208.356	-0.060	0.093
-161.779	-200.000	0.015	-0.508
-160.764	-200.000	-0.046	0.481
-159.750	-200.000	-0.071	0.414
-158.735	12.261	0.163	-0.124
-157.720	-45.612	0.274	0.134
-156.706	-42.903	0.077	0.038
-155.691	-200.000	0.004	-0.075
-154.677	-200.000	-0.012	0.225
-153.662	194.179	0.106	0.159
-152.647	-53.688	-0.260	-0.117
-151.633	681.990	-0.063	-0.162
-150.618	-84.703	-0.218	0.068
-149.604	-130.986	-0.304	-0.040
-148.589	-200.000	-0.008	0.546
-147.574	-200.000	0.008	0.499
-146.560	-22.288	0.109	0.065
-145.545	-90.059	0.294	0.085
-144.531	-114.371	-0.165	-0.031
-143.516	-200.000	-0.035	0.342
-142.502	-193.542	0.423	0.004
-141.487	-167.175	0.167	-0.007
-140.472	-200.000	0.021	-0.293
-139.458	-67.813	0.103	-0.040
-138.443	-160.681	0.241	0.013
-137.429	107.409	0.196	0.230
-136.414	-187.999	-0.242	-0.003
-135.399	800.000	-0.053	-0.186
-134.385	-0.759	-0.081	-0.057
-133.370	391.126	0.049	-0.101
-132.356	-118.635	-0.141	-0.025
-131.341	-144.105	0.361	0.033
-130.326	-200.000	-0.005	-0.035
-129.312	-200.000	0.037	-0.282
-128.297	800.000	-0.136	-0.532
-127.283	-200.000	0.032	-0.291
-126.268	102.515	0.154	-0.178
-125.253	-200.000	0.030	-0.163
-124.239	597.071	-0.084	-0.206
-123.224	347.385	-0.064	0.124
-122.210	-200.000	-0.013	0.089
