DTS Sentinel unit serial number:	SN413079Multiplexer serial number:	ORYXHardware model number:	OX4-SRSoftware version number:	ORYX F/W v4.00 Oryx Data Collector v3.7.2.0data status	okinstallation	princeton_trtdifferential loss correction	single-endedforward channel	channel 1reverse channel	N/Adate	2019/09/17time	23:58:35forward acquisition time	60.00reverse acquisition time	0.00gamma	496.2192k internal	0.2340k external	0.2340temperature offset calibration	0.9979default loss term (dB/km)	0.3790temperature slope calibration	1.0000multiplexer offset coefficient	1.0000multiplexer slope coefficient	1.0000fibre end	0.00T internal ref (°C)	23.87T ext. ref 1 (°C)	0.17T ext. ref 2 (°C)	17.28length (m)	temperature (°C)	Stokes	anti-Stokes-747.200	18.896	0.095	-0.076
-746.185	-200.000	0.014	0.245
-745.171	800.000	0.045	-0.177
-744.156	-41.566	-0.512	0.264
-743.142	-13.558	0.305	0.198
-742.127	244.537	-0.101	-0.170
-741.112	-153.532	0.102	0.007
-740.098	-200.000	0.048	0.371
-739.083	158.612	0.104	-0.145
-738.069	431.049	-0.130	0.282
-737.054	800.000	-0.096	-0.271
-736.039	-132.611	-0.438	0.056
-735.025	-200.000	0.033	0.279
-734.010	-111.902	-0.088	-0.018
-732.996	-105.847	0.186	-0.042
-731.981	-185.464	-0.263	-0.004
-730.966	38.577	0.085	0.076
-729.952	443.350	-0.109	-0.239
-728.937	-19.029	0.240	-0.149
-727.923	-146.311	0.185	-0.016
-726.908	-200.000	0.010	-0.381
-725.894	-65.535	-0.053	0.021
-724.879	-143.178	-0.281	-0.027
-723.864	2.737	0.060	-0.044
-722.850	-200.000	0.014	-0.322
-721.835	800.000	0.007	0.028
-720.821	-40.990	-0.267	-0.138
-719.806	37.111	-0.212	0.188
-718.791	-47.789	-0.326	-0.158
-717.777	-200.000	0.028	-0.334
-716.762	181.932	-0.287	-0.423
-715.748	220.314	0.049	0.078
-714.733	294.744	0.289	-0.529
-713.718	53.330	-0.028	-0.027
-712.704	800.000	-0.095	0.328
-711.689	466.619	-0.092	-0.207
-710.675	318.075	0.064	-0.121
-709.660	27.032	-0.199	0.167
-708.645	-200.000	-0.011	0.160
-707.631	-200.000	-0.016	-0.118
-706.616	51.429	0.163	0.155
-705.602	-77.660	0.257	-0.089
-704.587	105.938	0.181	-0.215
-703.572	-88.460	0.111	0.033
-702.558	92.504	0.287	-0.324
-701.543	-143.693	-0.465	-0.044
-700.529	-200.000	0.080	-0.412
-699.514	800.000	0.099	0.293
-698.499	-200.000	0.040	0.230
-697.485	-80.758	0.342	-0.114
-696.470	-27.256	-0.086	0.050
-695.456	-200.000	0.008	-0.077
-694.441	50.863	0.151	0.143
-693.426	-200.000	-0.010	0.085
-692.412	-51.920	-0.301	-0.140
-691.397	-200.000	0.010	-0.129
-690.383	-200.000	0.005	-0.140
-689.368	800.000	0.098	0.308
-688.354	-15.360	-0.050	-0.032
-687.339	-105.135	-0.184	0.042
-686.324	-19.542	0.018	-0.011
-685.310	700.299	0.064	0.168
-684.295	-85.277	0.219	-0.068
-683.281	800.000	0.011	0.033
-682.266	32.674	-0.306	0.265
-681.251	800.000	0.058	0.224
-680.237	800.000	-0.077	-0.263
-679.222	-134.516	-0.091	-0.011
-678.208	18.265	0.185	-0.147
-677.193	-102.321	-0.141	-0.034
-676.178	371.694	-0.026	0.053
-675.164	-134.309	-0.144	-0.018
-674.149	345.727	0.081	-0.158
-673.135	-200.000	0.010	-0.478
-672.120	-200.000	-0.030	-0.236
-671.105	-123.919	0.134	-0.021
-670.091	-200.000	-0.013	0.242
-669.076	-200.000	-0.026	-0.539
-668.062	-62.637	-0.258	-0.107
-667.047	277.892	-0.111	0.197
-666.032	-159.218	0.118	-0.007
-665.018	85.228	-0.133	-0.146
-664.003	33.316	-0.399	-0.346
-662.989	-32.200	-0.123	0.069
-661.974	492.804	0.111	0.255
-660.959	-200.000	-0.086	-0.546
-659.945	-40.190	0.333	-0.173
-658.930	800.000	-0.062	-0.192
-657.916	279.084	-0.088	-0.157
-656.901	-200.000	-0.002	0.313
-655.886	-200.000	-0.004	0.169
-654.872	269.852	-0.212	-0.372
-653.857	-4.735	0.419	0.288
-652.843	-141.978	0.056	0.006
-651.828	112.405	-0.010	-0.012
-650.814	52.774	-0.147	-0.140
-649.799	-200.000	0.048	0.232
-648.784	35.803	-0.076	-0.067
-647.770	-200.000	-0.006	-0.123
-646.755	648.385	-0.081	0.208
-645.741	800.000	-0.020	-0.066
-644.726	-85.768	-0.145	0.045
-643.711	777.616	-0.053	-0.145
-642.697	800.000	0.152	0.429
-641.682	-140.112	0.338	-0.035
-640.668	423.850	0.046	-0.099
-639.653	102.491	-0.121	-0.141
-638.638	-98.781	-0.279	0.071
-637.624	202.528	0.068	0.105
-636.609	10.885	-0.461	0.352
-635.595	336.973	-0.127	-0.246
-634.580	-200.000	-0.103	0.471
-633.565	-6.396	0.275	-0.187
-632.551	92.793	-0.194	-0.218
-631.536	-141.948	0.219	-0.022
-630.522	-1.999	-0.190	0.133
-629.507	-142.368	0.182	0.018
-628.492	800.000	-0.115	-0.342
-627.478	53.775	-0.168	-0.161
-626.463	-89.422	0.158	0.046
-625.449	-73.080	-0.192	-0.070
-624.434	-9.638	0.240	0.160
-623.419	491.646	0.035	0.080
-622.405	144.184	0.196	0.261
-621.390	2.136	-0.306	0.221
-620.376	114.232	0.232	0.282
-619.361	-183.069	-0.206	-0.004
-618.346	-57.559	0.419	-0.183
-617.332	-43.607	0.178	0.090
-616.317	800.000	-0.060	-0.229
-615.303	-170.325	0.392	-0.014
-614.288	10.009	-0.207	-0.157
-613.273	40.703	0.448	0.402
-612.259	-200.000	-0.056	0.301
-611.244	-75.259	-0.144	-0.051
-610.230	-33.135	0.251	0.139
-609.215	-171.208	-0.166	0.006
-608.201	745.436	-0.049	-0.131
-607.186	-48.875	-0.117	-0.056
-606.171	-200.000	-0.032	-0.206
-605.157	-140.671	0.132	0.014
-604.142	-200.000	0.046	-0.277
-603.128	-73.000	-0.283	-0.103
-602.113	-9.759	-0.180	-0.120
-601.098	-117.373	-0.236	-0.043
-600.084	216.882	0.232	-0.368
-599.069	151.645	-0.162	-0.220
-598.055	89.709	-0.166	0.185
-597.040	-49.770	-0.546	-0.258
-596.025	609.467	0.087	-0.217
-595.011	401.619	-0.153	0.321
-593.996	-200.000	0.000	-0.264
-592.982	74.632	0.022	0.023
-591.967	-140.699	0.265	0.027
-590.952	-134.534	0.231	0.028
-589.938	150.455	-0.176	-0.238
-588.923	800.000	0.102	-0.357
-587.909	-101.414	0.337	-0.082
-586.894	-119.127	-0.153	0.027
-585.879	-135.009	0.327	0.039
-584.865	334.754	-0.046	-0.089
-583.850	-131.075	-0.349	0.046
-582.836	-67.287	0.215	-0.084
-581.821	39.309	-0.068	0.061
-580.806	104.810	0.262	-0.308
-579.792	158.191	0.283	-0.391
-578.777	61.304	-0.103	-0.102
-577.763	84.940	0.070	-0.076
-576.748	105.468	0.252	0.297
-575.733	1.134	0.129	-0.092
-574.719	149.943	0.177	0.239
-573.704	568.603	0.083	0.201
-572.690	800.000	0.008	0.031
-571.675	514.428	-0.115	-0.267
-570.661	137.357	0.130	-0.169
-569.646	117.274	0.168	-0.205
-568.631	-94.098	0.155	-0.042
-567.617	205.016	0.054	0.084
-566.602	19.708	0.176	0.141
-565.588	-103.293	-0.089	-0.021
-564.573	165.908	-0.226	-0.318
-563.558	-107.495	-0.275	-0.060
-562.544	800.000	-0.112	-0.308
-561.529	17.321	-0.277	-0.219
-560.515	-131.362	-0.087	-0.012
-559.500	-103.419	-0.110	-0.026
-558.485	-101.199	0.064	0.016
-557.471	-197.615	-0.270	-0.002
-556.456	-165.195	-0.204	0.009
-555.442	-10.762	0.130	0.085
-554.427	73.676	0.210	0.219
-553.412	52.920	0.256	-0.244
-552.398	127.266	-0.111	0.141
-551.383	2.194	0.186	-0.134
-550.369	-67.441	0.252	0.099
-549.354	91.556	-0.118	0.132
-548.339	-200.000	0.032	-0.169
-547.325	-115.039	-0.208	0.039
-546.310	-26.022	-0.205	-0.120
-545.296	-200.000	-0.034	-0.196
-544.281	-152.875	-0.351	0.025
-543.266	-200.000	-0.017	-0.187
-542.252	-35.822	-0.191	0.103
-541.237	123.517	-0.113	-0.140
-540.223	-87.972	-0.383	-0.115
-539.208	-44.105	0.254	0.127
-538.193	800.000	0.002	-0.008
-537.179	523.569	0.101	0.236
-536.164	-200.000	-0.065	0.318
-535.150	800.000	-0.052	0.219
-534.135	-174.345	-0.163	-0.005
-533.121	34.889	-0.260	-0.226
-532.106	8.635	-0.109	-0.082
-531.091	-123.342	-0.141	0.022
-530.077	38.859	-0.206	-0.182
-529.062	-24.792	-0.177	-0.104
-528.048	-22.548	-0.156	-0.094
-527.033	-65.030	0.326	0.131
-526.018	-57.285	0.081	-0.035
-525.004	247.149	-0.175	0.293
-523.989	112.141	-0.105	0.126
-522.975	-200.000	-0.015	-0.143
-521.960	78.629	-0.168	0.179
-520.945	-53.924	-0.192	0.087
-519.931	-12.449	-0.277	-0.180
-518.916	140.086	0.064	-0.083
-517.902	-200.000	-0.035	-0.260
-516.887	0.073	-0.023	0.016
-515.872	800.000	0.077	-0.269
-514.858	355.523	0.153	0.302
-513.843	314.920	0.048	0.090
-512.829	34.366	0.185	-0.161
-511.814	241.531	0.074	0.123
-510.799	800.000	0.025	-0.094
-509.785	-120.160	-0.098	-0.017
-508.770	-200.000	0.067	-0.300
-507.756	-200.000	-0.018	0.236
-506.741	225.414	0.065	-0.105
-505.726	-23.271	0.215	-0.128
-504.712	170.365	0.275	0.391
-503.697	27.051	0.087	-0.073
-502.683	800.000	0.063	0.224
-501.668	-158.742	-0.357	-0.020
-500.653	-200.000	0.004	-0.278
-499.639	673.979	-0.051	-0.132
-498.624	800.000	-0.072	-0.226
-497.610	-135.720	-0.207	-0.024
-496.595	800.000	-0.048	0.198
-495.581	-145.949	0.276	-0.024
-494.566	800.000	-0.059	0.231
-493.551	105.271	-0.040	-0.046
-492.537	800.000	0.049	-0.209
-491.522	285.070	0.066	0.118
-490.508	-22.568	0.185	-0.111
-489.493	8.203	-0.425	0.317
-488.478	-5.594	0.054	0.037
-487.464	800.000	0.016	0.059
-486.449	122.394	0.185	0.229
-485.435	-22.019	0.135	-0.081
-484.420	-23.288	0.113	0.068
-483.405	800.000	0.052	0.214
-482.391	-193.178	-0.171	-0.002
-481.376	58.182	-0.098	0.095
-480.362	-40.872	-0.222	0.114
-479.347	800.000	-0.099	0.273
-478.332	-200.000	0.002	0.271
-477.318	-136.401	-0.020	-0.002
-476.303	-157.471	0.250	-0.015
-475.289	128.564	0.166	-0.209
-474.274	-200.000	0.018	-0.200
-473.259	-200.000	0.001	0.058
-472.245	-10.658	-0.214	0.140
-471.230	-154.453	-0.169	0.011
-470.216	324.290	0.145	-0.274
-469.201	208.756	0.075	-0.116
-468.186	181.935	-0.215	0.313
-467.172	365.443	0.266	-0.531
-466.157	800.000	-0.122	-0.351
-465.143	-200.000	0.024	-0.190
-464.128	800.000	-0.037	0.127
-463.113	-0.713	0.195	0.137
-462.099	38.005	0.123	-0.109
-461.084	-61.569	-0.254	0.106
-460.070	-22.609	0.201	-0.120
-459.055	-10.336	-0.203	-0.133
-458.040	800.000	-0.025	0.077
-457.026	-44.545	0.041	0.020
-456.011	-200.000	-0.007	-0.046
-454.997	-91.722	0.062	0.018
-453.982	-22.184	0.155	0.093
-452.968	800.000	0.113	0.354
-451.953	298.110	0.096	-0.175
-450.938	135.746	-0.186	-0.240
-449.924	-149.914	-0.276	0.021
-448.909	-200.000	0.025	0.110
-447.895	-116.789	-0.280	0.051
-446.880	692.413	0.079	0.205
-445.865	-0.032	0.236	-0.167
-444.851	-200.000	0.006	0.335
-443.836	3.721	-0.153	-0.111
-442.822	69.610	-0.194	0.197
-441.807	-105.905	0.048	0.011
-440.792	-104.619	0.228	-0.052
-439.778	0.859	0.061	-0.043
-438.763	-120.453	-0.275	-0.046
-437.749	164.712	0.218	-0.304
-436.734	-10.955	-0.501	-0.328
-435.719	-200.000	-0.033	0.340
-434.705	-95.808	0.080	-0.021
-433.690	796.720	0.066	0.179
-432.676	25.559	0.184	0.152
-431.661	-64.239	-0.189	-0.076
-430.646	787.388	0.048	-0.129
-429.632	-89.014	-0.059	0.017
-428.617	6.725	0.179	-0.132
-427.603	-134.433	-0.198	0.024
-426.588	48.476	-0.035	-0.032
-425.573	-148.294	-0.151	-0.012
-424.559	-64.782	-0.269	0.108
-423.544	550.462	-0.061	-0.146
-422.530	-51.710	0.383	-0.177
-421.515	207.070	-0.129	-0.198
-420.500	153.552	-0.071	-0.096
-419.486	604.090	0.069	-0.170
-418.471	308.736	0.048	-0.089
-417.457	-145.204	0.131	0.012
-416.442	-115.920	0.071	-0.013
-415.428	800.000	-0.071	0.201
-414.413	800.000	0.037	-0.124
-413.398	-14.964	0.064	0.041
-412.384	61.875	0.219	0.216
-411.369	800.000	0.058	-0.185
-410.355	25.798	0.218	-0.180
-409.340	-144.496	0.180	0.016
-408.325	-200.000	-0.005	0.056
-407.311	-200.000	-0.003	0.141
-406.296	29.001	0.512	-0.429
-405.282	800.000	0.087	0.248
-404.267	349.089	0.173	0.337
-403.252	-20.646	-0.146	0.089
-402.238	16.111	-0.129	-0.101
-401.223	-147.657	-0.123	0.010
-400.209	-183.489	0.073	0.001
-399.194	-163.288	0.192	-0.009
-398.179	40.189	-0.183	-0.162
-397.165	-110.332	-0.130	-0.027
-396.150	-53.117	0.230	-0.104
-395.136	800.000	0.019	0.076
-394.121	-30.267	0.149	-0.084
-393.106	-113.627	-0.190	-0.037
-392.092	-109.103	0.127	-0.027
-391.077	-32.514	-0.274	0.151
-390.063	25.936	-0.267	0.221
-389.048	-200.000	0.003	0.126
-388.033	-200.000	-0.014	-0.126
-387.019	154.188	-0.029	-0.039
-386.004	719.452	0.058	-0.152
-384.990	-75.752	-0.096	-0.034
-383.975	62.478	0.211	0.208
-382.960	4.655	0.243	0.176
-381.946	800.000	0.039	0.119
-380.931	-200.000	0.058	-0.275
-379.917	800.000	0.057	-0.189
-378.902	-39.012	0.246	0.128
-377.888	-200.000	-0.008	0.097
-376.873	-200.000	0.028	-0.210
-375.858	-69.788	-0.347	0.131
-374.844	171.214	-0.078	-0.111
-373.829	104.391	0.247	-0.287
-372.815	-200.000	-0.018	0.161
-371.800	68.854	-0.111	0.112
-370.785	-200.000	0.015	-0.195
-369.771	-107.066	0.174	-0.038
-368.756	-164.879	0.073	0.003
-367.742	-200.000	0.046	0.224
-366.727	-43.498	0.178	-0.089
-365.712	-113.438	-0.139	-0.027
-364.698	594.063	-0.073	0.178
-363.683	-200.000	-0.108	0.000
-362.669	337.466	-0.183	-0.350
-361.654	233.559	-0.019	0.031
-360.639	-200.000	0.039	0.384
-359.625	102.672	0.164	0.190
-358.610	83.704	-0.210	0.227
-357.596	427.359	0.036	0.077
-356.581	522.875	-0.071	-0.165
-355.566	-200.000	0.012	-0.132
-354.552	411.311	-0.076	-0.159
-353.537	103.254	-0.166	-0.192
-352.523	386.078	-0.026	-0.053
-351.508	-200.000	-0.021	0.501
-350.493	-7.497	0.078	0.052
-349.479	800.000	-0.081	0.237
-348.464	227.955	-0.137	-0.220
-347.450	-57.591	0.035	-0.015
-346.435	-200.000	0.014	0.070
-345.420	-200.000	-0.011	-0.065
-344.406	-119.607	-0.218	-0.037
-343.391	-81.582	0.137	0.044
-342.377	-50.632	-0.144	0.067
-341.362	-200.000	-0.006	-0.069
-340.348	69.023	-0.097	0.098
-339.333	-40.945	0.099	0.050
-338.318	39.600	0.016	0.014
-337.304	-71.032	-0.175	0.065
-336.289	97.748	-0.204	-0.231
-335.275	-153.254	0.240	0.017
-334.260	-83.066	-0.169	-0.054
-333.245	75.500	0.137	0.143
-332.231	-71.921	-0.225	-0.083
-331.216	-150.596	-0.086	-0.006
-330.202	17.530	-0.060	0.047
-329.187	-17.542	0.225	0.140
-328.172	-145.906	-0.437	-0.038
-327.158	-200.000	0.055	-0.379
-326.143	490.712	0.168	-0.380
-325.129	-46.350	0.291	0.141
-324.114	145.255	0.261	-0.345
-323.099	-26.100	-0.011	-0.006
-322.085	774.849	0.147	0.394
-321.070	139.405	0.044	-0.057
-320.056	-51.577	0.250	-0.115
-319.041	84.837	0.163	-0.177
-318.026	-80.439	-0.198	-0.065
-317.012	421.853	0.141	0.299
-315.997	-98.360	0.215	0.054
-314.983	-200.000	-0.011	0.091
-313.968	38.325	-0.053	0.047
-312.953	-22.039	0.235	0.140
-311.939	-19.231	0.256	-0.156
-310.924	138.262	0.080	-0.104
-309.910	671.753	-0.025	-0.065
-308.895	-27.645	0.294	0.168
-307.880	82.049	-0.186	0.199
-306.866	-93.591	-0.395	0.107
-305.851	-200.000	-0.064	0.287
-304.837	-114.599	-0.195	0.037
-303.822	800.000	0.097	-0.281
-302.807	-48.468	-0.354	-0.168
-301.793	518.361	0.063	-0.145
-300.778	94.209	-0.110	0.123
-299.764	474.598	-0.127	-0.282
-298.749	-61.032	-0.202	0.084
-297.735	-200.000	0.071	0.404
-296.720	-80.014	0.305	0.101
-295.705	179.145	-0.067	-0.096
-294.691	562.907	-0.074	-0.177
-293.676	-107.444	-0.289	-0.062
-292.662	2.455	-0.124	-0.089
-291.647	-106.797	-0.236	0.052
-290.632	-200.000	0.062	-0.309
-289.618	26.557	0.298	-0.246
-288.603	-184.236	-0.068	0.001
-287.589	313.016	0.077	0.143
-286.574	469.719	0.031	-0.069
-285.559	41.207	0.248	0.220
-284.545	4.771	-0.281	-0.203
-283.530	-200.000	-0.019	0.232
-282.516	-166.783	0.419	-0.017
-281.501	-55.872	0.283	0.124
-280.486	-200.000	0.012	-0.123
-279.472	330.470	0.074	0.139
-278.457	-99.017	0.306	0.076
-277.443	188.503	-0.266	0.391
-276.428	-200.000	0.051	-0.258
-275.413	-29.566	0.208	0.117
-274.399	482.975	0.044	0.099
-273.384	296.538	-0.112	-0.202
-272.370	259.939	-0.118	-0.201
-271.355	358.850	-0.127	0.249
-270.340	-127.601	-0.063	-0.009
-269.326	149.190	-0.237	0.316
-268.311	800.000	0.043	0.176
-267.297	-21.043	0.288	-0.174
-266.282	-45.854	-0.202	-0.098
-265.267	324.338	0.119	-0.224
-264.253	121.425	0.174	0.213
-263.238	66.258	0.213	0.213
-262.224	27.114	-0.085	0.070
-261.209	800.000	0.060	0.212
-260.195	-200.000	0.017	-0.180
-259.180	695.763	-0.072	0.186
-258.165	-157.459	-0.288	-0.017
-257.151	-200.000	0.009	0.140
-256.136	800.000	0.050	0.207
-255.122	800.000	-0.171	-0.511
-254.107	-200.000	-0.041	0.178
-253.092	-142.439	-0.039	-0.004
-252.078	800.000	0.018	-0.067
-251.063	-45.670	0.087	-0.042
-250.049	82.512	0.146	-0.155
-249.034	-200.000	-0.001	-0.130
-248.019	-50.901	-0.161	-0.075
-247.005	-142.930	-0.519	-0.049
-245.990	-200.000	0.006	0.067
-244.976	-31.724	-0.241	-0.133
-243.961	-200.000	-0.039	-0.205
-242.946	14.652	-0.056	-0.043
-241.932	-41.160	0.293	0.148
-240.917	409.848	-0.137	0.286
-239.903	-164.342	0.404	0.018
-238.888	86.172	0.059	0.064
-237.873	-200.000	0.011	-0.158
-236.859	-149.757	-0.123	-0.010
-235.844	-200.000	0.021	-0.307
-234.830	-107.464	0.064	-0.014
-233.815	536.775	-0.064	0.149
-232.800	311.057	0.070	0.129
-231.786	-60.921	-0.071	0.029
-230.771	-200.000	-0.027	0.126
-229.757	139.429	0.098	0.127
-228.742	-5.169	0.116	0.078
-227.727	258.138	0.107	0.180
-226.713	51.907	-0.100	-0.094
-225.698	-155.349	-0.022	-0.001
-224.684	-200.000	-0.057	0.430
-223.669	800.000	-0.041	0.158
-222.655	-4.220	0.116	0.079
-221.640	-200.000	0.025	-0.176
-220.625	92.027	0.019	-0.022
-219.611	-108.248	-0.256	-0.054
-218.596	341.686	0.054	-0.104
-217.582	76.189	-0.318	0.331
-216.567	-42.121	-0.131	0.066
-215.552	-200.000	-0.053	0.338
-214.538	-200.000	0.017	-0.232
-213.523	42.984	-0.110	0.098
-212.509	494.516	-0.073	-0.166
-211.494	345.741	0.110	-0.212
-210.479	452.294	0.077	0.167
-209.465	-22.166	-0.100	0.059
-208.450	-200.000	-0.024	-0.189
-207.436	-73.311	-0.067	0.024
-206.421	-84.525	0.045	0.014
-205.406	14.574	0.190	0.146
-204.392	132.423	-0.119	-0.150
-203.377	-76.929	-0.180	-0.062
-202.363	-56.979	-0.375	-0.162
-201.348	792.348	-0.103	-0.278
-200.333	-200.000	-0.032	-0.173
-199.319	161.834	0.182	0.251
-198.304	145.286	0.009	-0.012
-197.290	-20.951	-0.181	0.109
-196.275	-65.731	0.518	-0.204
-195.260	-38.938	-0.206	0.106
-194.246	-200.000	-0.018	-0.112
-193.231	-61.240	-0.124	0.051
-192.217	-21.034	-0.229	0.138
-191.202	-58.310	0.366	0.156
-190.187	800.000	-0.043	-0.136
-189.173	-32.798	-0.179	0.098
-188.158	-200.000	0.013	0.121
-187.144	-86.952	0.242	0.072
-186.129	-125.029	0.125	-0.019
-185.114	-200.000	-0.018	0.198
-184.100	-39.371	0.244	0.126
-183.085	306.613	-0.046	-0.084
-182.071	-112.161	0.525	-0.103
-181.056	73.363	0.285	-0.293
-180.042	800.000	0.073	-0.291
-179.027	-132.934	-0.083	0.010
-178.012	-200.000	-0.019	-0.170
-176.998	-140.353	-0.186	0.019
-175.983	-53.360	0.103	-0.046
-174.969	297.421	-0.108	-0.194
-173.954	-200.000	-0.011	0.286
-172.939	-200.000	-0.041	0.311
-171.925	99.337	0.242	0.274
-170.910	-200.000	-0.017	-0.078
-169.896	-160.615	0.170	0.009
-168.881	150.725	0.112	0.150
-167.866	241.382	0.153	0.251
-166.852	800.000	0.096	0.390
-165.837	-200.000	-0.066	0.442
-164.823	-19.664	-0.261	0.158
-163.808	800.000	0.095	-0.283
-162.793	57.049	0.262	-0.251
-161.779	-137.611	0.141	0.016
-160.764	800.000	0.041	-0.123
-159.750	315.802	0.031	-0.057
-158.735	154.932	-0.040	-0.054
-157.720	800.000	0.115	0.493
-156.706	67.365	-0.077	0.077
-155.691	294.881	-0.130	0.232
-154.677	255.998	-0.059	-0.099
-153.662	-200.000	-0.016	-0.161
-152.647	-162.569	0.248	0.012
-151.633	768.524	0.086	0.231
-150.618	-200.000	0.003	0.060
-149.604	800.000	0.054	0.194
-148.589	-194.153	-0.306	-0.002
-147.574	691.545	-0.087	0.224
-146.560	106.628	0.215	-0.250
-145.545	35.566	-0.102	-0.088
-144.531	-86.617	0.171	0.051
-143.516	-64.821	0.114	0.045
-142.502	-67.495	-0.267	-0.102
-141.487	-192.820	-0.252	-0.002
-140.472	-200.000	-0.020	-0.109
-139.458	21.415	0.261	0.208
-138.443	800.000	0.062	-0.206
-137.429	800.000	0.004	-0.017
-136.414	125.034	0.122	0.150
-135.399	-200.000	0.027	0.315
-134.385	-148.686	0.148	-0.012
-133.370	-79.866	-0.415	-0.137
-132.356	-131.712	0.364	-0.047
-131.341	-200.000	-0.005	0.023
-130.326	800.000	-0.100	0.305
-129.312	0.374	0.126	0.088
-128.297	-32.961	0.111	-0.060
-127.283	-131.111	0.254	-0.033
-126.268	59.357	-0.178	-0.172
-125.253	443.932	-0.116	0.250
-124.239	-45.866	-0.218	0.105
-123.224	380.091	0.063	0.126
-122.210	192.334	0.226	0.333
