DTS Sentinel unit serial number:	SN413079Multiplexer serial number:	ORYXHardware model number:	OX4-SRSoftware version number:	ORYX F/W v4.00 Oryx Data Collector v3.7.2.0data status	okinstallation	princeton_trtdifferential loss correction	single-endedforward channel	channel 1reverse channel	N/Adate	2019/09/11time	11:36:11forward acquisition time	60.00reverse acquisition time	0.00gamma	496.2192k internal	0.2294k external	0.2294temperature offset calibration	0.9949default loss term (dB/km)	0.3790temperature slope calibration	1.0000multiplexer offset coefficient	1.0000multiplexer slope coefficient	1.0000fibre end	0.00T internal ref (°C)	38.30T ext. ref 1 (°C)	0.18T ext. ref 2 (°C)	35.93length (m)	temperature (°C)	Stokes	anti-Stokes-747.200	-200.000	0.031	0.205
-746.185	-200.000	0.012	0.080
-745.171	-90.711	-0.154	-0.045
-744.156	-134.891	-0.219	-0.027
-743.142	-130.966	0.341	-0.047
-742.127	643.444	-0.105	0.275
-741.112	-122.171	-0.224	-0.038
-740.098	-200.000	-0.010	0.389
-739.083	-200.000	0.048	0.285
-738.069	-181.748	-0.237	-0.005
-737.054	86.294	0.237	0.266
-736.039	-131.035	0.139	-0.019
-735.025	-200.000	0.041	-0.476
-734.010	-200.000	-0.005	-0.054
-732.996	800.000	0.017	0.064
-731.981	-12.231	0.105	-0.070
-730.966	217.996	0.230	0.376
-729.952	-98.559	-0.186	-0.048
-728.937	7.346	-0.178	0.136
-727.923	-200.000	0.051	-0.359
-726.908	-56.453	-0.142	0.065
-725.894	113.478	-0.227	-0.281
-724.879	-200.000	-0.003	0.339
-723.864	-200.000	-0.093	0.477
-722.850	-46.178	0.095	0.048
-721.835	30.764	-0.260	0.227
-720.821	-200.000	-0.009	-0.073
-719.806	-106.334	-0.102	-0.023
-718.791	-37.055	-0.291	-0.159
-717.777	-200.000	-0.018	-0.495
-716.762	800.000	0.112	-0.327
-715.748	-89.808	-0.225	-0.067
-714.733	-200.000	0.017	-0.090
-713.718	800.000	0.072	0.242
-712.704	-200.000	0.013	0.102
-711.689	364.811	-0.030	0.061
-710.675	109.852	0.107	0.131
-709.660	-33.469	-0.048	-0.027
-708.645	-200.000	0.059	0.271
-707.631	-28.476	-0.161	-0.095
-706.616	-194.315	-0.405	-0.003
-705.602	-200.000	0.021	-0.125
-704.587	32.299	-0.063	-0.056
-703.572	-200.000	-0.003	-0.115
-702.558	-154.549	-0.363	-0.025
-701.543	-103.671	0.324	0.078
-700.529	-81.826	0.537	-0.180
-699.514	800.000	0.055	-0.183
-698.499	-132.479	0.036	-0.005
-697.485	-52.926	0.180	0.085
-696.470	34.822	0.135	-0.121
-695.456	-0.523	0.191	-0.138
-694.441	-99.055	-0.130	-0.034
-693.426	164.024	0.065	0.093
-692.412	19.390	-0.233	0.191
-691.397	800.000	0.029	-0.127
-690.383	117.344	-0.168	0.211
-689.368	-155.652	-0.130	-0.009
-688.354	-151.020	0.364	-0.028
-687.339	800.000	-0.060	0.176
-686.324	293.588	-0.151	0.281
-685.310	-200.000	-0.012	0.149
-684.295	-111.376	-0.389	-0.081
-683.281	55.903	-0.171	0.169
-682.266	-18.958	-0.242	0.154
-681.251	800.000	-0.049	0.184
-680.237	282.652	-0.014	0.025
-679.222	342.847	-0.207	0.414
-678.208	-103.632	-0.131	-0.031
-677.193	-42.790	-0.180	-0.094
-676.178	-133.979	-0.417	-0.053
-675.164	-200.000	0.008	-0.117
-674.149	-148.791	-0.468	0.039
-673.135	-46.290	0.067	-0.034
-672.120	215.836	-0.201	0.326
-671.105	-1.664	0.225	0.161
-670.091	-59.249	-0.250	-0.110
-669.076	21.131	-0.252	0.208
-668.062	-173.728	0.502	-0.015
-667.047	-32.682	-0.037	0.021
-666.032	800.000	-0.068	-0.238
-665.018	-78.209	0.170	-0.060
-664.003	-200.000	-0.023	0.126
-662.989	-40.059	-0.085	-0.045
-661.974	-57.178	-0.064	0.029
-660.959	800.000	0.049	-0.190
-659.945	-97.260	-0.164	-0.044
-658.930	800.000	-0.017	0.050
-657.916	85.427	-0.135	0.151
-656.901	396.294	-0.073	-0.155
-655.886	-200.000	0.003	0.236
-654.872	-59.344	-0.049	0.021
-653.857	-200.000	-0.016	-0.151
-652.843	41.560	0.111	-0.103
-651.828	520.115	-0.039	0.094
-650.814	-122.542	-0.079	0.013
-649.799	-161.317	0.227	-0.012
-648.784	-75.439	-0.168	0.061
-647.770	-178.503	0.085	0.002
-646.755	-163.954	-0.252	-0.012
-645.741	93.703	-0.195	-0.225
-644.726	-200.000	-0.011	-0.282
-643.711	-150.469	0.309	0.024
-642.697	186.294	-0.096	0.145
-641.682	172.867	-0.133	-0.195
-640.668	73.773	0.097	-0.103
-639.653	336.306	-0.157	-0.311
-638.638	-13.385	-0.302	-0.199
-637.624	74.136	0.173	0.185
-636.609	44.242	-0.089	-0.084
-635.595	167.071	0.066	0.095
-634.580	133.299	0.053	-0.069
-633.565	11.373	0.086	0.067
-632.551	9.912	-0.109	0.084
-631.536	380.459	-0.156	0.326
-630.522	-194.938	0.108	0.001
-629.507	800.000	0.055	-0.221
-628.492	42.633	0.060	0.056
-627.478	68.847	0.054	-0.056
-626.463	141.215	-0.312	-0.420
-625.449	-6.898	-0.168	0.117
-624.434	-74.177	-0.282	-0.104
-623.419	-10.294	0.158	-0.107
-622.405	81.166	0.025	0.027
-621.390	-200.000	0.022	0.251
-620.376	-127.802	0.161	0.024
-619.361	1.579	0.065	0.047
-618.346	59.868	0.121	-0.122
-617.332	800.000	-0.090	0.361
-616.317	266.567	-0.097	-0.173
-615.303	148.322	-0.012	-0.017
-614.288	-62.406	0.224	0.095
-613.273	254.697	-0.085	0.149
-612.259	166.471	-0.053	0.077
-611.244	88.774	-0.250	-0.283
-610.230	-200.000	0.031	-0.150
-609.215	-111.144	0.095	-0.020
-608.201	66.950	0.107	-0.111
-607.186	-189.566	0.448	0.005
-606.171	184.880	0.092	0.139
-605.157	-52.735	-0.308	0.145
-604.142	352.295	-0.096	0.194
-603.128	-200.000	0.018	0.169
-602.113	-128.095	0.288	-0.042
-601.098	-47.370	-0.113	-0.056
-600.084	679.992	0.115	0.304
-599.069	-200.000	-0.015	0.115
-598.055	-66.198	0.249	0.101
-597.040	800.000	0.037	-0.105
-596.025	-136.831	-0.215	-0.025
-595.011	-200.000	0.002	0.109
-593.996	41.013	-0.148	-0.136
-592.982	682.120	-0.035	-0.093
-591.967	-41.540	0.083	-0.043
-590.952	-0.141	0.258	0.187
-589.938	25.406	-0.258	-0.218
-588.923	-137.000	-0.279	0.032
-587.909	-200.000	0.004	-0.279
-586.894	-116.681	-0.027	-0.005
-585.879	-200.000	-0.005	-0.260
-584.865	-88.537	-0.317	0.096
-583.850	35.702	-0.215	-0.192
-582.836	23.484	-0.074	-0.062
-581.821	33.958	0.148	-0.131
-580.806	112.026	0.131	0.161
-579.792	-76.348	0.253	0.091
-578.777	-200.000	-0.014	-0.119
-577.763	-116.965	-0.301	0.056
-576.748	800.000	0.086	-0.291
-575.733	184.753	0.066	0.099
-574.719	-200.000	0.001	-0.243
-573.704	118.011	0.224	0.280
-572.690	-200.000	-0.063	0.332
-571.675	38.390	0.269	-0.244
-570.661	213.323	-0.216	0.347
-569.646	800.000	0.110	0.325
-568.631	-200.000	-0.011	0.105
-567.617	390.310	0.133	-0.281
-566.602	109.862	0.053	-0.064
-565.588	155.974	-0.131	-0.184
-564.573	65.668	-0.138	-0.142
-563.558	800.000	-0.094	-0.386
-562.544	-200.000	-0.042	-0.379
-561.529	101.124	0.317	-0.374
-560.515	-200.000	0.026	-0.137
-559.500	18.219	-0.335	-0.271
-558.485	-160.144	-0.163	0.009
-557.471	-108.365	-0.075	-0.016
-556.456	800.000	0.043	0.130
-555.442	-75.105	0.322	-0.117
-554.427	173.228	-0.138	-0.202
-553.412	-200.000	-0.002	0.164
-552.398	44.415	-0.124	-0.115
-551.383	-200.000	0.031	0.250
-550.369	-139.963	-0.229	0.025
-549.354	-200.000	0.026	-0.184
-548.339	293.026	0.036	-0.066
-547.325	-117.241	0.328	0.060
-546.310	-132.276	0.063	-0.008
-545.296	-23.316	-0.535	-0.326
-544.281	226.289	0.049	0.080
-543.266	-40.833	-0.187	0.098
-542.252	-200.000	0.068	-0.476
-541.237	30.917	-0.117	0.102
-540.223	789.409	0.028	-0.077
-539.208	31.324	0.198	0.172
-538.193	-77.171	0.062	0.022
-537.179	445.419	0.112	-0.249
-536.164	35.519	-0.198	0.176
-535.150	-167.570	0.144	-0.006
-534.135	-81.746	0.162	-0.054
-533.121	800.000	-0.048	-0.164
-532.106	-127.350	0.425	0.063
-531.091	796.374	-0.029	-0.080
-530.077	1.235	0.216	-0.158
-529.062	67.596	-0.112	0.116
-528.048	-130.481	-0.267	0.037
-527.033	-76.927	-0.142	-0.050
-526.018	-44.100	-0.358	0.182
-525.004	29.852	-0.112	0.097
-523.989	-150.662	0.082	0.006
-522.975	6.658	0.327	-0.247
-521.960	-28.531	-0.395	0.231
-520.945	-116.350	0.126	0.024
-519.931	-16.390	0.297	-0.191
-518.916	-44.955	-0.624	-0.315
-517.902	-47.804	0.176	-0.087
-516.887	304.305	0.091	0.171
-515.872	-200.000	-0.007	0.163
-514.858	55.912	-0.079	0.078
-513.843	-166.698	0.232	0.010
-512.829	-200.000	0.016	-0.385
-511.814	800.000	-0.075	-0.225
-510.799	-152.492	-0.228	-0.017
-509.785	-71.464	0.168	-0.064
-508.770	494.846	0.093	0.216
-507.756	29.532	-0.427	-0.368
-506.741	-79.391	-0.189	0.065
-505.726	-200.000	-0.053	-0.282
-504.712	800.000	0.080	-0.231
-503.697	-200.000	-0.052	-0.389
-502.683	51.872	-0.135	-0.130
-501.668	-200.000	-0.020	0.163
-500.653	-90.337	0.232	0.068
-499.639	264.477	0.139	-0.245
-498.624	329.205	-0.113	-0.221
-497.610	800.000	-0.056	0.214
-496.595	-78.478	0.130	-0.045
-495.581	-200.000	0.050	0.237
-494.566	800.000	-0.071	0.215
-493.551	-136.731	-0.209	-0.024
-492.537	-200.000	0.020	0.185
-491.522	-47.179	-0.080	-0.039
-490.508	-22.839	-0.220	-0.134
-489.493	-122.899	0.372	-0.061
-488.478	-86.625	-0.109	-0.034
-487.464	800.000	-0.044	0.127
-486.449	204.279	-0.033	-0.051
-485.435	271.028	0.047	-0.083
-484.420	-200.000	-0.020	0.131
-483.405	-120.123	-0.082	0.014
-482.391	131.833	0.166	0.216
-481.376	800.000	0.100	-0.368
-480.362	800.000	0.045	-0.153
-479.347	-200.000	-0.026	-0.388
-478.332	-99.123	0.159	0.041
-477.318	380.112	0.096	0.199
-476.303	-81.771	0.315	0.105
-475.289	-200.000	0.032	-0.175
-474.274	207.118	0.052	-0.082
-473.259	-198.247	-0.191	-0.001
-472.245	-200.000	0.011	0.103
-471.230	-71.127	-0.095	-0.036
-470.216	-1.092	-0.022	0.016
-469.201	42.137	0.105	-0.097
-468.186	209.354	0.159	-0.253
-467.172	-117.114	-0.271	-0.050
-466.157	-1.740	-0.124	0.089
-465.143	800.000	0.082	0.279
-464.128	800.000	-0.022	-0.087
-463.113	-200.000	0.053	0.505
-462.099	27.782	-0.153	0.130
-461.084	-70.929	-0.009	0.003
-460.070	-137.256	-0.093	-0.011
-459.055	83.234	0.162	0.179
-458.040	115.035	0.076	-0.093
-457.026	292.006	-0.177	-0.325
-456.011	178.293	-0.126	-0.186
-454.997	255.965	-0.230	0.399
-453.982	-121.960	-0.215	0.036
-452.968	115.431	0.070	-0.086
-451.953	414.072	-0.050	-0.107
-450.938	-63.190	-0.226	0.094
-449.924	-126.561	-0.131	-0.020
-448.909	-96.646	-0.380	0.101
-447.895	55.069	0.266	0.259
-446.880	147.855	0.111	0.151
-445.865	800.000	-0.041	-0.128
-444.851	-200.000	-0.040	-0.288
-443.836	216.061	-0.144	0.232
-442.822	-108.696	0.090	-0.020
-441.807	-144.662	-0.053	-0.005
-440.792	-42.455	0.193	0.099
-439.778	-14.503	-0.208	0.135
-438.763	32.768	-0.041	-0.036
-437.749	68.438	0.155	0.161
-436.734	-200.000	0.016	-0.226
-435.719	537.341	0.014	-0.034
-434.705	-54.390	0.070	0.032
-433.690	461.143	-0.084	0.190
-432.676	23.797	0.231	-0.192
-431.661	-47.416	-0.381	0.187
-430.646	242.965	-0.109	0.184
-429.632	800.000	0.054	0.209
-428.617	-38.656	-0.214	0.114
-427.603	800.000	-0.032	0.114
-426.588	594.073	0.160	0.399
-425.573	-200.000	-0.017	-0.141
-424.559	-75.076	-0.333	-0.120
-423.544	-200.000	-0.006	-0.467
-422.530	249.357	-0.084	-0.144
-421.515	800.000	0.059	0.216
-420.500	-108.607	0.194	0.042
-419.486	-200.000	0.038	0.172
-418.471	733.551	-0.041	0.111
-417.457	18.283	-0.121	-0.097
-416.442	-21.308	0.245	0.151
-415.428	800.000	-0.017	0.064
-414.413	-132.807	-0.060	0.008
-413.398	-65.171	-0.136	0.055
-412.384	800.000	-0.022	0.065
-411.369	246.770	0.120	-0.205
-410.355	218.767	-0.245	-0.396
-409.340	602.744	0.098	-0.247
-408.325	-200.000	0.035	-0.161
-407.311	-48.779	0.209	0.101
-406.296	388.820	0.032	0.067
-405.282	188.241	0.120	-0.180
-404.267	-39.493	0.093	-0.049
-403.252	62.061	0.105	0.105
-402.238	-48.860	0.189	-0.091
-401.223	800.000	-0.037	-0.156
-400.209	382.963	-0.088	-0.183
-399.194	800.000	-0.047	-0.160
-398.179	-41.840	0.200	0.103
-397.165	62.224	-0.022	0.022
-396.150	42.256	-0.209	-0.192
-395.136	-26.543	0.117	0.069
-394.121	-8.271	0.215	-0.146
-393.106	800.000	0.048	-0.145
-392.092	13.118	0.129	0.101
-391.077	-190.543	0.378	0.004
-390.063	330.619	0.082	-0.160
-389.048	-107.583	0.237	0.052
-388.033	133.223	-0.134	0.175
-387.019	-200.000	0.004	0.189
-386.004	-200.000	0.030	-0.214
-384.990	-200.000	0.024	0.124
-383.975	-200.000	0.008	-0.203
-382.960	-87.023	0.326	0.100
-381.946	231.583	0.170	0.281
-380.931	800.000	-0.115	-0.385
-379.917	-94.335	0.054	0.015
-378.902	-37.524	-0.113	0.061
-377.888	8.359	-0.215	0.163
-376.873	40.312	-0.078	0.071
-375.858	-38.429	0.236	0.126
-374.844	-200.000	0.031	-0.157
-373.829	-88.033	0.214	0.065
-372.815	-101.517	0.185	-0.045
-371.800	27.874	-0.204	0.173
-370.785	52.732	0.298	0.287
-369.771	-111.974	-0.285	-0.058
-368.756	-200.000	-0.007	0.033
-367.742	-200.000	-0.005	0.252
-366.727	-54.775	0.117	-0.053
-365.712	20.268	0.207	0.169
-364.698	71.376	-0.295	0.309
-363.683	-135.214	0.136	-0.016
-362.669	-73.987	0.172	0.063
-361.654	-107.871	0.147	0.032
-360.639	60.029	-0.335	0.333
-359.625	105.663	-0.149	0.177
-358.610	-98.531	-0.182	-0.047
-357.596	-117.699	0.289	-0.052
-356.581	-108.524	-0.223	0.048
-355.566	-127.664	0.156	0.023
-354.552	-127.292	0.358	0.053
-353.537	-49.101	0.110	-0.053
-352.523	624.635	-0.051	-0.130
-351.508	-85.620	-0.225	-0.070
-350.493	-33.197	0.334	-0.186
-349.479	800.000	-0.065	-0.183
-348.464	633.287	-0.098	-0.251
-347.450	-191.641	-0.111	0.001
-346.435	-200.000	-0.030	-0.276
-345.420	107.440	0.076	-0.091
-344.406	259.219	0.074	-0.128
-343.391	-87.739	-0.285	-0.087
-342.377	-158.455	-0.231	0.013
-341.362	-142.849	-0.373	-0.036
-340.348	1.401	0.069	-0.050
-339.333	-170.853	0.269	0.009
-338.318	-141.012	-0.231	-0.024
-337.304	-65.519	0.197	-0.080
-336.289	800.000	0.072	0.228
-335.275	14.505	-0.099	0.078
-334.260	-200.000	-0.061	0.377
-333.245	-129.965	-0.079	0.011
-332.231	135.872	-0.101	-0.132
-331.216	-83.375	-0.276	-0.089
-330.202	800.000	-0.057	-0.163
-329.187	194.895	0.089	0.136
-328.172	378.168	0.080	0.164
-327.158	-200.000	0.014	0.145
-326.143	-1.615	-0.175	0.124
-325.129	150.098	-0.095	0.130
-324.114	40.264	0.262	0.237
-323.099	307.651	-0.172	0.322
-322.085	-15.892	0.096	-0.061
-321.070	800.000	-0.082	-0.313
-320.056	306.057	0.126	-0.236
-319.041	24.058	-0.210	-0.174
-318.026	-79.842	-0.300	-0.102
-317.012	800.000	-0.039	-0.160
-315.997	-200.000	0.022	0.246
-314.983	47.465	-0.258	0.242
-313.968	-67.345	-0.369	0.146
-312.953	187.849	-0.133	0.199
-311.939	800.000	0.048	0.166
-310.924	-182.253	0.353	-0.007
-309.910	-24.520	0.199	0.119
-308.895	80.609	0.147	0.159
-307.880	336.116	0.054	0.106
-306.866	109.921	0.123	-0.148
-305.851	-88.404	-0.113	0.034
-304.837	800.000	0.065	0.246
-303.822	-84.330	-0.123	-0.039
-302.807	-200.000	-0.026	-0.183
-301.793	-200.000	0.028	-0.291
-300.778	-28.732	0.101	-0.058
-299.764	-70.317	0.150	0.057
-298.749	281.276	-0.031	-0.056
-297.735	-200.000	-0.003	-0.222
-296.720	-95.505	-0.021	0.006
-295.705	-121.476	0.051	0.009
-294.691	2.313	-0.072	0.052
-293.676	239.704	0.141	-0.237
-292.662	23.387	-0.170	-0.141
-291.647	-151.902	-0.049	-0.004
-290.632	335.645	-0.062	-0.120
-289.618	-90.036	0.139	0.041
-288.603	599.037	-0.184	-0.460
-287.589	-42.352	0.234	0.120
-286.574	-87.005	-0.070	-0.021
-285.559	-5.296	0.129	-0.089
-284.545	-200.000	0.049	0.246
-283.530	-200.000	-0.034	0.173
-282.516	64.021	-0.168	0.170
-281.501	337.938	-0.137	0.268
-280.486	139.199	-0.122	0.161
-279.472	16.986	0.189	0.151
-278.457	-105.272	0.242	-0.055
-277.443	84.767	0.164	-0.180
-276.428	-200.000	-0.017	0.189
-275.413	29.300	-0.137	0.117
-274.399	-133.422	0.208	0.026
-273.384	-122.705	0.204	0.033
-272.370	57.688	-0.313	0.307
-271.355	-40.574	-0.252	-0.131
-270.340	-36.187	0.371	-0.201
-269.326	17.991	0.186	0.149
-268.311	14.553	-0.064	0.050
-267.297	-138.062	-0.145	-0.016
-266.282	-200.000	-0.012	0.237
-265.267	-200.000	0.019	0.312
-264.253	178.975	0.076	-0.111
-263.238	225.826	-0.033	-0.054
-262.224	-6.141	-0.182	-0.125
-261.209	-29.629	0.047	0.027
-260.195	-200.000	0.035	0.170
-259.180	514.386	0.061	0.142
-258.165	-53.880	-0.077	0.035
-257.151	710.254	0.094	0.250
-256.136	-176.278	-0.360	0.009
-255.122	-74.610	-0.173	-0.063
-254.107	-45.505	0.180	0.090
-253.092	13.205	-0.365	-0.284
-252.078	379.519	0.049	0.101
-251.063	-44.292	0.170	-0.086
-250.049	-114.747	0.218	-0.042
-249.034	-16.418	0.235	-0.149
-248.019	52.331	-0.208	-0.199
-247.005	-200.000	-0.000	0.207
-245.990	-75.741	0.344	0.122
-244.976	800.000	0.052	0.168
-243.961	235.271	-0.107	0.177
-242.946	235.158	0.200	0.331
-241.932	-200.000	-0.009	0.222
-240.917	43.463	-0.038	-0.035
-239.903	-192.146	-0.115	0.001
-238.888	135.478	0.192	-0.251
-237.873	-193.522	0.403	0.003
-236.859	-171.444	0.159	0.005
-235.844	-159.091	0.258	-0.015
-234.830	-200.000	-0.020	0.210
-233.815	100.492	-0.225	-0.262
-232.800	-12.309	-0.183	-0.120
-231.786	-53.315	0.317	0.146
-230.771	-161.054	0.367	0.019
-229.757	148.961	-0.020	-0.027
-228.742	-2.469	-0.094	-0.066
-227.727	-34.118	-0.196	0.108
-226.713	191.024	0.053	0.080
-225.698	-200.000	0.006	0.197
-224.684	311.457	0.075	0.141
-223.669	-200.000	0.053	-0.438
-222.655	800.000	-0.085	-0.333
-221.640	-106.682	-0.169	-0.038
-220.625	359.708	0.038	0.077
-219.611	94.103	0.211	0.240
-218.596	-104.725	0.161	-0.037
-217.582	678.649	-0.069	-0.179
-216.567	-184.868	-0.265	-0.004
-215.552	-92.819	0.195	-0.055
-214.538	-200.000	-0.036	0.171
-213.523	-200.000	-0.051	-0.282
-212.509	-82.205	0.202	-0.066
-211.494	-111.693	-0.057	-0.012
-210.479	225.707	-0.084	-0.136
-209.465	-200.000	-0.008	-0.195
-208.450	-200.000	0.001	0.322
-207.436	479.266	-0.114	0.258
-206.421	-97.697	-0.138	0.036
-205.406	143.317	-0.211	-0.282
-204.392	8.496	0.235	0.177
-203.377	17.631	-0.161	-0.128
-202.363	-13.604	0.319	0.207
-201.348	-200.000	-0.004	-0.020
-200.333	214.920	0.101	0.160
-199.319	219.210	-0.134	-0.214
-198.304	216.422	-0.063	-0.101
-197.290	-96.919	0.092	-0.024
-196.275	13.515	-0.330	-0.256
-195.260	-153.774	0.566	0.039
-194.246	-52.820	-0.137	0.063
-193.231	-200.000	0.048	-0.229
-192.217	322.874	0.158	-0.301
-191.202	-25.157	-0.103	0.061
-190.187	-99.362	-0.242	0.061
-189.173	-75.384	-0.277	0.099
-188.158	-200.000	-0.038	0.457
-187.144	132.131	0.388	0.500
-186.129	211.655	-0.039	-0.061
-185.114	-45.656	-0.175	-0.087
-184.100	65.215	-0.111	-0.112
-183.085	-100.622	-0.147	-0.036
-182.071	-135.530	-0.325	-0.039
-181.056	-13.375	0.207	0.134
-180.042	474.758	0.136	0.307
-179.027	-75.363	0.245	0.087
-178.012	662.129	-0.060	0.156
-176.998	-129.467	-0.247	-0.034
-175.983	188.204	-0.111	-0.165
-174.969	448.132	0.085	0.186
-173.954	-200.000	-0.020	0.139
-172.939	456.974	-0.155	0.344
-171.925	-40.214	-0.139	0.073
-170.910	26.471	0.338	0.283
-169.896	-200.000	0.097	0.442
-168.881	-0.095	-0.077	-0.054
-167.866	-82.384	0.223	-0.072
-166.852	70.059	0.300	-0.309
-165.837	-87.099	0.231	-0.070
-164.823	52.414	0.008	0.008
-163.808	-76.410	-0.146	-0.051
-162.793	6.183	0.326	-0.242
-161.779	-11.466	-0.178	-0.117
-160.764	-37.751	0.127	0.068
-159.750	-92.578	-0.253	0.071
-158.735	-3.325	0.253	0.176
-157.720	280.717	0.169	0.303
-156.706	154.910	0.160	0.220
-155.691	-200.000	-0.017	0.081
-154.677	-17.758	-0.451	-0.283
-153.662	-28.127	-0.267	0.154
-152.647	-135.183	0.201	-0.024
-151.633	-65.083	0.091	-0.037
-150.618	209.415	0.070	0.109
-149.604	-82.644	0.170	0.055
-148.589	170.784	-0.080	-0.115
-147.574	-107.222	-0.219	0.048
-146.560	-32.249	-0.329	0.184
-145.545	-200.000	0.007	-0.101
-144.531	201.706	0.174	0.269
-143.516	73.106	-0.124	0.130
-142.502	-164.742	0.107	0.005
-141.487	-139.740	0.250	-0.026
-140.472	-142.405	0.360	0.035
-139.458	4.400	-0.170	0.125
-138.443	318.667	0.170	0.322
-137.429	181.177	0.192	0.282
-136.414	-14.599	-0.035	-0.022
-135.399	-113.698	0.334	0.065
-134.385	107.205	0.055	0.065
-133.370	602.311	-0.072	0.179
-132.356	-200.000	-0.046	-0.211
-131.341	-17.828	0.283	-0.177
-130.326	5.462	0.324	0.239
-129.312	190.082	-0.104	0.156
-128.297	-58.212	0.232	0.101
-127.283	42.789	0.157	0.143
-126.268	-200.000	0.057	0.333
-125.253	-176.427	0.194	0.005
-124.239	134.788	0.293	-0.380
-123.224	162.151	0.066	0.092
-122.210	155.933	-0.135	0.185
-121.195	3.490	0.167	-0.122
