DTS Sentinel unit serial number:	SN413079Multiplexer serial number:	ORYXHardware model number:	OX4-SRSoftware version number:	ORYX F/W v4.00 Oryx Data Collector v3.7.2.0data status	okinstallation	princeton_trtdifferential loss correction	single-endedforward channel	channel 1reverse channel	N/Adate	2019/09/14time	01:10:35forward acquisition time	60.00reverse acquisition time	0.00gamma	496.2192k internal	0.2337k external	0.2337temperature offset calibration	1.0076default loss term (dB/km)	0.3790temperature slope calibration	1.0000multiplexer offset coefficient	1.0000multiplexer slope coefficient	1.0000fibre end	0.00T internal ref (°C)	26.39T ext. ref 1 (°C)	3.16T ext. ref 2 (°C)	21.41length (m)	temperature (°C)	Stokes	anti-Stokes-747.200	-94.381	-0.094	-0.026
-746.185	-139.469	-0.357	0.038
-745.171	-110.955	0.082	0.017
-744.156	-145.534	0.101	0.009
-743.142	-35.493	0.254	-0.138
-742.127	39.441	0.144	0.129
-741.112	-15.906	-0.325	0.208
-740.098	362.127	0.198	0.399
-739.083	-200.000	0.045	-0.265
-738.069	-161.182	-0.174	0.009
-737.054	-109.184	-0.488	-0.104
-736.039	-43.139	-0.564	-0.287
-735.025	-200.000	-0.008	0.307
-734.010	4.322	0.218	-0.160
-732.996	15.270	-0.414	-0.326
-731.981	36.319	0.197	0.175
-730.966	-200.000	-0.034	-0.219
-729.952	188.849	-0.060	0.090
-728.937	129.959	0.116	0.149
-727.923	-59.634	-0.339	0.146
-726.908	800.000	-0.014	-0.043
-725.894	-184.574	0.296	0.005
-724.879	-200.000	0.030	-0.233
-723.864	800.000	0.113	-0.350
-722.850	-6.152	0.245	0.168
-721.835	10.278	-0.136	-0.104
-720.821	-200.000	0.028	-0.361
-719.806	-127.251	0.214	-0.031
-718.791	-45.193	-0.368	0.183
-717.777	193.949	0.076	0.116
-716.762	-70.051	-0.124	0.047
-715.748	-200.000	-0.047	0.243
-714.733	-67.554	0.394	-0.155
-713.718	-91.743	-0.189	-0.054
-712.704	141.527	0.034	-0.045
-711.689	310.745	-0.077	0.145
-710.675	800.000	-0.093	-0.319
-709.660	88.844	0.101	-0.113
-708.645	23.893	0.162	0.134
-707.631	-193.078	0.094	-0.001
-706.616	279.484	0.240	-0.430
-705.602	800.000	0.044	-0.145
-704.587	800.000	-0.051	-0.190
-703.572	380.043	0.158	-0.324
-702.558	-160.451	0.064	-0.003
-701.543	-70.595	0.160	-0.061
-700.529	362.188	0.008	0.016
-699.514	-67.452	0.252	-0.099
-698.499	-200.000	0.041	0.189
-697.485	-109.485	0.255	0.054
-696.470	63.227	-0.239	0.241
-695.456	-174.850	0.312	0.009
-694.441	-200.000	0.053	0.327
-693.426	-91.283	-0.345	0.099
-692.412	256.612	-0.157	0.270
-691.397	-87.604	-0.304	-0.092
-690.383	-58.100	-0.081	-0.035
-689.368	240.281	0.024	-0.040
-688.354	371.404	0.003	0.005
-687.339	-110.520	0.100	-0.021
-686.324	136.517	-0.152	-0.199
-685.310	-17.371	-0.364	0.230
-684.295	0.998	-0.207	-0.149
-683.281	221.795	0.154	0.247
-682.266	649.996	0.058	0.149
-681.251	-14.626	-0.157	-0.101
-680.237	-119.361	0.137	0.024
-679.222	159.432	-0.163	0.227
-678.208	-200.000	0.029	-0.149
-677.193	-28.898	0.247	-0.142
-676.178	-94.575	0.134	0.037
-675.164	446.155	0.033	0.073
-674.149	276.048	0.116	-0.205
-673.135	-200.000	0.008	0.160
-672.120	-26.260	0.134	0.079
-671.105	-132.869	0.196	-0.025
-670.091	381.729	0.054	-0.112
-669.076	-200.000	0.052	0.359
-668.062	-162.099	-0.319	-0.016
-667.047	661.356	-0.081	0.208
-666.032	3.504	-0.124	-0.091
-665.018	-152.715	-0.153	-0.011
-664.003	-200.000	0.014	-0.158
-662.989	-28.049	0.032	0.018
-661.974	800.000	-0.052	0.200
-660.959	51.853	-0.263	0.250
-659.945	645.823	-0.055	-0.140
-658.930	-108.218	0.161	0.035
-657.916	-170.735	0.159	0.005
-656.901	-96.088	0.122	0.033
-655.886	563.598	-0.030	0.073
-654.872	661.563	-0.056	-0.144
-653.857	-13.676	-0.116	-0.075
-652.843	-109.639	0.236	-0.050
-651.828	268.888	-0.064	-0.112
-650.814	-33.699	-0.221	0.122
-649.799	-200.000	-0.016	0.172
-648.784	401.889	0.142	-0.299
-647.770	219.963	0.097	0.155
-646.755	-38.311	-0.269	-0.143
-645.741	233.469	-0.066	-0.109
-644.726	-155.657	0.079	0.005
-643.711	800.000	-0.020	0.083
-642.697	431.805	-0.102	0.220
-641.682	400.344	-0.092	0.193
-640.668	-67.020	0.202	0.080
-639.653	377.843	0.099	-0.202
-638.638	-71.546	0.241	0.090
-637.624	64.468	0.192	0.193
-636.609	-107.460	-0.314	0.069
-635.595	34.237	0.267	0.232
-634.580	722.549	-0.043	0.114
-633.565	-47.023	-0.086	-0.042
-632.551	-119.208	0.266	0.046
-631.536	-74.367	-0.318	-0.115
-630.522	-8.117	-0.263	0.177
-629.507	169.382	-0.179	-0.255
-628.492	-118.380	0.150	-0.027
-627.478	4.759	-0.065	-0.048
-626.463	-71.723	-0.465	-0.174
-625.449	340.850	-0.158	-0.309
-624.434	-91.542	-0.169	0.048
-623.419	800.000	-0.074	0.295
-622.405	99.867	-0.172	-0.199
-621.390	164.457	-0.015	-0.021
-620.376	-168.159	0.189	0.007
-619.361	229.145	-0.155	0.252
-618.346	-134.258	0.207	0.025
-617.332	230.099	0.018	-0.029
-616.317	9.725	0.085	0.065
-615.303	-113.881	-0.328	-0.064
-614.288	-19.874	-0.380	0.235
-613.273	83.928	0.139	0.151
-612.259	-54.582	-0.356	-0.161
-611.244	-200.000	-0.027	-0.167
-610.230	404.362	-0.067	-0.141
-609.215	22.413	-0.188	-0.154
-608.201	-80.777	-0.106	0.035
-607.186	-200.000	0.004	-0.043
-606.171	114.736	-0.030	0.037
-605.157	-200.000	0.046	0.240
-604.142	800.000	-0.040	-0.138
-603.128	-103.066	0.169	-0.040
-602.113	54.065	0.139	0.134
-601.098	800.000	-0.056	-0.223
-600.084	387.651	-0.051	-0.105
-599.069	139.232	-0.070	0.092
-598.055	-17.480	-0.229	0.144
-597.040	-108.517	-0.244	0.052
-596.025	396.288	0.127	-0.265
-595.011	226.855	-0.063	0.103
-593.996	72.140	0.110	-0.114
-592.982	-18.702	-0.124	0.077
-591.967	800.000	0.108	0.405
-590.952	800.000	-0.011	0.036
-589.938	495.340	0.113	0.259
-588.923	384.883	0.069	-0.142
-587.909	-90.182	0.162	-0.047
-586.894	800.000	0.012	0.047
-585.879	0.098	-0.329	-0.234
-584.865	-30.527	0.200	-0.113
-583.850	-3.204	-0.060	0.042
-582.836	-44.815	0.126	-0.063
-581.821	98.558	-0.130	0.150
-580.806	321.874	0.053	0.101
-579.792	99.831	-0.083	-0.096
-578.777	-200.000	0.020	-0.157
-577.763	-200.000	0.037	0.260
-576.748	106.121	0.079	-0.094
-575.733	7.744	0.165	-0.124
-574.719	0.562	-0.152	0.109
-573.704	188.802	0.182	-0.271
-572.690	-200.000	0.038	-0.356
-571.675	-39.309	0.133	0.069
-570.661	-169.356	0.126	-0.005
-569.646	86.592	0.103	0.114
-568.631	800.000	-0.056	0.170
-567.617	-98.173	-0.366	-0.094
-566.602	175.312	0.331	0.478
-565.588	-200.000	-0.022	0.229
-564.573	-54.963	0.339	0.152
-563.558	-31.223	-0.195	0.110
-562.544	-125.685	0.114	0.017
-561.529	-114.922	-0.110	0.021
-560.515	-192.585	-0.160	0.001
-559.500	-200.000	0.045	-0.267
-558.485	36.713	0.225	0.198
-557.471	-200.000	0.046	-0.225
-556.456	-139.282	0.102	-0.011
-555.442	106.647	-0.185	-0.219
-554.427	800.000	0.081	0.250
-553.412	132.130	-0.173	0.222
-552.398	-196.144	0.192	0.001
-551.383	219.634	-0.122	0.195
-550.369	340.070	-0.102	0.199
-549.354	-62.771	0.485	-0.200
-548.339	800.000	0.068	0.221
-547.325	-109.336	0.135	-0.029
-546.310	-200.000	0.001	-0.114
-545.296	-104.068	-0.261	-0.060
-544.281	19.112	0.165	-0.132
-543.266	-200.000	-0.015	-0.367
-542.252	46.549	-0.059	0.054
-541.237	-88.544	-0.414	-0.123
-540.223	-200.000	-0.095	-0.427
-539.208	-60.534	-0.320	-0.135
-538.193	165.273	0.251	-0.353
-537.179	-200.000	0.034	-0.204
-536.164	67.818	0.259	0.264
-535.150	-17.502	0.146	0.091
-534.135	-200.000	0.046	0.248
-533.121	-152.527	-0.476	-0.034
-532.106	218.808	0.094	0.149
-531.091	616.204	0.055	-0.138
-530.077	-41.672	0.109	0.056
-529.062	185.777	0.155	0.229
-528.048	-184.980	-0.322	-0.005
-527.033	-200.000	-0.024	-0.355
-526.018	72.780	-0.280	0.291
-525.004	405.410	-0.034	0.071
-523.989	-44.297	-0.115	-0.058
-522.975	190.845	0.159	-0.238
-521.960	75.444	-0.174	0.182
-520.945	-200.000	-0.001	0.191
-519.931	-20.201	0.239	-0.147
-518.916	20.808	0.147	0.119
-517.902	-200.000	0.059	-0.339
-516.887	-118.790	0.368	-0.064
-515.872	-10.286	-0.073	-0.048
-514.858	-200.000	0.043	-0.271
-513.843	-61.612	0.215	0.090
-512.829	-200.000	0.064	-0.306
-511.814	93.818	0.065	-0.073
-510.799	74.165	-0.074	-0.078
-509.785	349.553	0.052	0.103
-508.770	-200.000	0.005	0.023
-507.756	595.063	-0.081	-0.198
-506.741	-149.500	0.293	-0.023
-505.726	-200.000	0.029	0.392
-504.712	8.047	-0.149	0.111
-503.697	-118.958	-0.147	-0.026
-502.683	31.097	0.180	0.154
-501.668	66.467	-0.193	-0.195
-500.653	443.590	0.113	0.247
-499.639	54.567	0.065	0.063
-498.624	35.659	0.264	-0.231
-497.610	163.872	0.287	-0.402
-496.595	-10.621	-0.276	-0.182
-495.581	425.087	-0.112	-0.240
-494.566	-94.359	0.061	0.017
-493.551	-97.613	-0.311	-0.080
-492.537	-154.870	-0.481	-0.032
-491.522	-37.316	-0.242	0.129
-490.508	-200.000	0.023	-0.140
-489.493	-200.000	0.051	-0.255
-488.478	60.072	0.161	-0.158
-487.464	-68.519	0.108	-0.042
-486.449	-77.770	-0.076	-0.026
-485.435	-200.000	0.010	0.136
-484.420	-103.580	0.387	0.090
-483.405	-121.174	-0.193	-0.032
-482.391	752.668	0.107	0.286
-481.376	64.407	-0.022	0.022
-480.362	-20.773	0.135	-0.082
-479.347	-107.435	-0.123	-0.027
-478.332	-200.000	0.067	-0.333
-477.318	-200.000	0.026	0.158
-476.303	203.074	-0.219	0.337
-475.289	-138.104	0.152	0.017
-474.274	88.526	0.141	0.155
-473.259	402.044	-0.108	-0.224
-472.245	-37.698	-0.322	-0.170
-471.230	85.327	0.288	0.315
-470.216	-114.649	0.143	-0.027
-469.201	-167.744	-0.234	-0.009
-468.186	800.000	0.099	0.398
-467.172	-200.000	0.031	-0.215
-466.157	43.265	0.161	-0.146
-465.143	309.541	-0.059	-0.109
-464.128	-200.000	0.017	-0.124
-463.113	145.915	-0.179	0.238
-462.099	27.103	0.165	0.138
-461.084	-117.768	-0.201	-0.036
-460.070	-128.545	-0.280	-0.039
-459.055	-7.446	0.221	0.148
-458.040	-5.776	0.106	0.072
-457.026	-83.766	-0.249	0.079
-456.011	387.253	-0.160	-0.328
-454.997	-177.423	-0.067	-0.002
-453.982	167.528	-0.109	0.154
-452.968	-170.365	-0.239	0.008
-451.953	800.000	-0.085	-0.292
-450.938	-200.000	0.011	0.196
-449.924	-150.145	-0.275	-0.021
-448.909	-66.376	-0.096	-0.038
-447.895	598.828	-0.141	0.347
-446.880	-112.095	0.091	-0.018
-445.865	-169.594	-0.227	0.008
-444.851	53.712	0.202	0.192
-443.836	800.000	0.068	0.196
-442.822	-92.025	0.233	0.065
-441.807	-165.049	0.177	-0.008
-440.792	-200.000	0.007	0.083
-439.778	128.293	0.069	-0.088
-438.763	-200.000	-0.071	-0.314
-437.749	800.000	-0.051	-0.176
-436.734	38.403	-0.212	0.188
-435.719	800.000	0.079	0.231
-434.705	191.707	-0.146	0.218
-433.690	3.111	-0.262	-0.189
-432.676	449.515	-0.023	0.051
-431.661	-162.503	0.153	-0.008
-430.646	-37.580	0.079	0.042
-429.632	-200.000	0.021	0.118
-428.617	-200.000	-0.482	0.000
-427.603	110.554	-0.067	-0.080
-426.588	147.233	0.087	-0.116
-425.573	-108.981	0.248	0.052
-424.559	-31.993	-0.128	-0.071
-423.544	-178.995	-0.201	0.004
-422.530	20.310	0.237	0.190
-421.515	329.211	0.035	0.066
-420.500	-200.000	-0.016	0.460
-419.486	77.458	0.062	-0.066
-418.471	-61.123	-0.421	0.176
-417.457	5.738	0.296	-0.217
-416.442	67.626	-0.144	-0.146
-415.428	-63.507	-0.254	0.103
-414.413	71.130	-0.189	0.194
-413.398	48.171	-0.094	0.087
-412.384	42.909	-0.135	0.122
-411.369	78.565	-0.143	0.151
-410.355	37.615	0.312	0.274
-409.340	11.285	0.076	-0.057
-408.325	-200.000	-0.039	-0.305
-407.311	-151.178	0.353	-0.026
-406.296	-77.133	0.349	0.121
-405.282	-200.000	0.008	-0.099
-404.267	70.501	0.089	0.092
-403.252	5.765	0.106	-0.078
-402.238	416.665	0.179	0.377
-401.223	-90.773	0.392	0.112
-400.209	116.219	0.174	-0.211
-399.194	74.335	-0.138	0.144
-398.179	-143.428	0.226	-0.021
-397.165	649.095	-0.046	0.116
-396.150	277.327	0.058	0.101
-395.136	-31.019	-0.063	0.035
-394.121	-35.068	-0.185	-0.100
-393.106	208.377	0.078	0.120
-392.092	-82.094	-0.379	-0.122
-391.077	-200.000	0.005	0.042
-390.063	-38.764	0.235	-0.123
-389.048	-136.129	0.172	-0.020
-388.033	-35.612	-0.222	-0.119
-387.019	495.012	0.125	-0.284
-386.004	198.396	-0.110	-0.166
-384.990	-79.367	0.313	0.105
-383.975	-51.542	-0.245	0.113
-382.960	-195.827	0.091	0.001
-381.946	-200.000	-0.012	0.328
-380.931	11.026	-0.366	0.277
-379.917	-27.849	-0.234	-0.134
-378.902	-116.575	0.219	-0.040
-377.888	86.116	-0.301	0.328
-376.873	800.000	-0.086	0.259
-375.858	-200.000	0.007	0.134
-374.844	346.515	0.050	0.098
-373.829	-9.927	-0.033	0.022
-372.815	-72.388	0.064	0.023
-371.800	-124.650	-0.455	-0.070
-370.785	411.951	-0.111	-0.234
-369.771	-0.328	-0.141	0.099
-368.756	-69.974	0.265	0.100
-367.742	60.569	0.291	0.285
-366.727	17.130	-0.223	-0.175
-365.712	-56.584	-0.286	-0.126
-364.698	-200.000	0.002	0.455
-363.683	306.224	0.152	-0.280
-362.669	8.055	0.184	-0.136
-361.654	-5.905	0.109	0.074
-360.639	-126.859	0.105	0.015
-359.625	392.656	0.171	0.353
-358.610	574.398	0.030	-0.072
-357.596	800.000	-0.125	-0.356
-356.581	4.940	-0.143	0.104
-355.566	-154.896	0.305	0.020
-354.552	-58.600	0.048	-0.021
-353.537	-138.525	-0.053	0.006
-352.523	-42.142	0.258	-0.131
-351.508	800.000	0.078	-0.242
-350.493	0.726	-0.202	-0.143
-349.479	23.957	0.186	0.151
-348.464	-33.774	-0.335	0.183
-347.450	399.587	0.103	0.213
-346.435	361.998	0.132	0.261
-345.420	26.218	0.229	-0.189
-344.406	331.571	0.061	-0.117
-343.391	800.000	-0.058	0.214
-342.377	800.000	0.121	0.346
-341.362	-14.281	-0.131	0.083
-340.348	-200.000	0.019	0.224
-339.333	800.000	0.047	-0.127
-338.318	-85.934	0.157	0.048
-337.304	800.000	0.090	0.332
-336.289	-115.989	-0.285	-0.052
-335.275	229.414	-0.172	-0.278
-334.260	-103.865	0.167	-0.039
-333.245	-1.037	-0.204	-0.143
-332.231	0.255	0.045	-0.032
-331.216	0.490	0.221	-0.156
-330.202	-133.355	0.245	0.030
-329.187	-200.000	-0.033	0.257
-328.172	418.566	0.078	-0.165
-327.158	293.341	0.143	-0.258
-326.143	147.745	0.237	-0.315
-325.129	-93.494	0.111	0.030
-324.114	-176.832	0.097	0.002
-323.099	-200.000	-0.021	0.102
-322.085	800.000	-0.078	0.232
-321.070	-185.980	-0.082	-0.001
-320.056	-2.268	0.245	0.170
-319.041	-200.000	0.101	-0.448
-318.026	-200.000	0.035	-0.496
-317.012	-67.213	0.107	0.042
-315.997	62.176	-0.208	0.205
-314.983	-143.210	0.317	0.030
-313.968	-38.897	0.338	-0.176
-312.953	-3.080	-0.233	-0.161
-311.939	-136.546	-0.149	-0.017
-310.924	-175.046	-0.135	-0.004
-309.910	215.924	0.271	0.425
-308.895	-200.000	0.039	0.191
-307.880	-131.660	0.252	-0.033
-306.866	187.858	0.147	0.217
-305.851	226.822	0.060	-0.096
-304.837	-125.093	-0.111	0.017
-303.822	298.020	-0.059	0.107
-302.807	520.041	-0.161	-0.372
-301.793	-101.801	0.408	0.098
-300.778	-200.000	-0.003	-0.149
-299.764	388.726	-0.052	-0.106
-298.749	686.499	0.117	-0.302
-297.735	39.992	-0.161	0.142
-296.720	15.779	-0.211	-0.164
-295.705	-100.240	0.286	0.070
-294.691	-32.572	-0.376	-0.207
-293.676	800.000	0.090	0.245
-292.662	125.150	-0.385	-0.479
-291.647	-8.555	-0.093	0.061
-290.632	346.996	0.082	-0.160
-289.618	-124.292	0.292	0.045
-288.603	-112.790	0.177	-0.035
-287.589	-200.000	-0.012	0.308
-286.574	-138.869	-0.252	-0.027
-285.559	-200.000	-0.011	-0.282
-284.545	299.844	-0.105	-0.190
-283.530	-121.112	-0.213	-0.035
-282.516	-32.358	0.435	-0.239
-281.501	0.380	-0.159	-0.112
-280.486	-109.806	0.183	-0.038
-279.472	305.278	-0.085	-0.155
-278.457	-63.978	-0.189	-0.076
-277.443	-46.204	-0.415	-0.201
-276.428	800.000	0.037	-0.124
-275.413	20.157	0.171	-0.136
-274.399	-200.000	-0.058	0.491
-273.384	-96.541	0.183	-0.048
-272.370	273.472	-0.095	-0.165
-271.355	-200.000	-0.018	-0.220
-270.340	49.225	-0.288	0.267
-269.326	-5.259	-0.162	-0.110
-268.311	35.231	0.106	-0.092
-267.297	-25.550	-0.509	-0.296
-266.282	205.758	-0.103	0.158
-265.267	-74.158	-0.184	0.065
-264.253	800.000	-0.067	0.249
-263.238	-42.771	-0.183	0.092
-262.224	378.486	-0.096	0.193
-261.209	-200.000	0.011	0.183
-260.195	156.511	0.289	-0.394
-259.180	800.000	-0.066	-0.233
-258.165	58.327	0.097	-0.094
-257.151	35.941	-0.073	0.064
-256.136	765.098	0.094	0.252
-255.122	33.908	0.286	0.245
-254.107	706.611	0.127	-0.331
-253.092	524.801	-0.102	-0.237
-252.078	55.568	0.248	-0.236
-251.063	-200.000	0.016	0.305
-250.049	694.119	-0.101	-0.262
-249.034	-61.573	-0.241	0.099
-248.019	90.346	-0.094	-0.103
-247.005	800.000	-0.076	-0.279
-245.990	-200.000	-0.038	0.180
-244.976	-10.404	-0.254	0.166
-243.961	103.464	0.112	0.129
-242.946	-86.343	0.128	-0.039
-241.932	800.000	0.025	0.099
-240.917	-143.040	-0.517	0.049
-239.903	17.847	0.283	-0.222
-238.888	50.990	0.096	0.090
-237.873	800.000	0.091	-0.384
-236.859	164.504	0.171	-0.237
-235.844	156.259	0.177	0.240
-234.830	-44.558	-0.248	0.122
-233.815	39.960	0.082	-0.073
-232.800	110.819	-0.057	0.068
-231.786	-200.000	0.051	0.311
-230.771	-81.264	0.096	-0.031
-229.757	-200.000	0.029	0.128
-228.742	-125.406	-0.335	-0.050
-227.727	-14.885	0.285	0.180
-226.713	-55.792	-0.025	0.011
-225.698	-47.320	0.286	-0.137
-224.684	-70.494	0.298	-0.111
-223.669	-124.159	0.306	-0.047
-222.655	-149.016	-0.235	0.019
-221.640	102.464	-0.105	0.121
-220.625	41.543	0.178	-0.158
-219.611	149.413	0.137	0.183
-218.596	124.427	-0.272	0.337
-217.582	187.657	0.241	-0.354
-216.567	-133.066	-0.141	-0.018
-215.552	-31.916	-0.021	-0.011
-214.538	-4.422	0.234	0.159
-213.523	415.628	-0.174	-0.365
-212.509	800.000	0.036	-0.143
-211.494	-200.000	0.018	-0.277
-210.479	-200.000	0.004	-0.071
-209.465	77.607	-0.263	0.275
-208.450	-119.523	-0.110	-0.019
-207.436	-200.000	0.032	-0.215
-206.421	94.101	0.137	-0.153
-205.406	-200.000	0.014	-0.062
-204.392	800.000	0.107	0.356
-203.377	-53.136	-0.336	-0.152
-202.363	-69.480	-0.109	-0.041
-201.348	-51.312	-0.279	-0.128
-200.333	2.923	0.124	0.088
-199.319	800.000	0.098	-0.280
-198.304	329.344	-0.075	0.141
-197.290	359.639	-0.146	0.287
-196.275	800.000	-0.009	-0.032
-195.260	-185.250	0.185	0.003
-194.246	94.596	0.195	0.218
-193.231	-52.233	0.232	-0.106
-192.217	800.000	0.071	-0.241
-191.202	-200.000	0.007	-0.155
-190.187	324.846	-0.020	0.037
-189.173	-200.000	-0.007	0.211
-188.158	423.667	0.064	-0.135
-187.144	2.686	0.104	-0.074
-186.129	-200.000	0.001	-0.232
-185.114	58.740	0.230	0.222
-184.100	-75.785	-0.052	0.018
-183.085	800.000	-0.037	0.104
-182.071	-97.697	0.248	0.063
-181.056	-108.678	0.387	-0.082
-180.042	-200.000	0.072	-0.413
-179.027	-66.344	0.121	-0.047
-178.012	-17.430	0.101	0.063
-176.998	360.031	-0.173	0.341
-175.983	800.000	0.017	-0.071
-174.969	689.421	0.049	0.126
-173.954	-113.149	0.549	-0.106
-172.939	-68.713	-0.330	0.125
-171.925	40.093	0.199	0.175
-170.910	169.451	0.174	-0.244
-169.896	800.000	-0.091	0.261
-168.881	-85.923	-0.177	0.054
-167.866	-179.373	0.251	-0.005
-166.852	-73.561	-0.119	-0.043
-165.837	687.062	-0.055	-0.142
-164.823	-43.056	0.133	-0.066
-163.808	-25.398	-0.179	-0.104
-162.793	-76.748	0.160	0.055
-161.779	-200.000	0.029	-0.212
-160.764	-116.432	-0.174	0.032
-159.750	-137.311	-0.404	-0.045
-158.735	-200.000	0.012	-0.075
-157.720	124.905	-0.078	0.096
-156.706	-181.608	-0.148	0.003
-155.691	103.468	-0.379	0.436
-154.677	-61.314	0.296	0.122
-153.662	-200.000	0.025	-0.146
-152.647	-200.000	-0.026	-0.111
-151.633	-200.000	-0.059	0.499
-150.618	-34.166	-0.037	-0.020
-149.604	-107.550	0.168	-0.036
-148.589	-117.017	-0.286	-0.051
-147.574	118.320	-0.253	-0.306
-146.560	800.000	-0.071	-0.195
-145.545	115.803	-0.281	-0.337
-144.531	-200.000	-0.023	-0.114
-143.516	397.859	-0.042	0.087
-142.502	-200.000	0.016	-0.270
-141.487	362.378	0.042	0.083
-140.472	-58.188	-0.248	-0.106
-139.458	-200.000	0.007	0.049
-138.443	70.887	0.037	-0.037
-137.429	231.305	-0.122	-0.196
-136.414	50.126	-0.203	-0.188
-135.399	-200.000	0.003	-0.222
-134.385	680.084	-0.137	0.350
-133.370	-91.544	0.157	0.044
-132.356	52.298	0.188	0.176
-131.341	-200.000	0.006	-0.378
-130.326	-45.689	-0.276	-0.134
-129.312	-200.000	-0.010	-0.090
-128.297	-200.000	-0.012	-0.057
-127.283	74.438	0.264	0.272
-126.268	-5.322	0.263	-0.177
-125.253	69.016	-0.134	-0.135
-124.239	800.000	-0.025	0.074
-123.224	-109.728	0.144	-0.030
-122.210	67.312	0.073	-0.073
-121.195	133.052	-0.280	-0.354
-120.180	58.639	-0.121	0.116
