DTS Sentinel unit serial number:	SN413079Multiplexer serial number:	ORYXHardware model number:	OX4-SRSoftware version number:	ORYX F/W v4.00 Oryx Data Collector v3.7.2.0data status	okinstallation	princeton_trtdifferential loss correction	single-endedforward channel	channel 1reverse channel	N/Adate	2019/09/12time	11:56:11forward acquisition time	60.00reverse acquisition time	0.00gamma	496.2192k internal	0.2293k external	0.2293temperature offset calibration	1.0044default loss term (dB/km)	0.3790temperature slope calibration	1.0000multiplexer offset coefficient	1.0000multiplexer slope coefficient	1.0000fibre end	0.00T internal ref (°C)	40.19T ext. ref 1 (°C)	1.99T ext. ref 2 (°C)	38.01length (m)	temperature (°C)	Stokes	anti-Stokes-747.200	587.008	0.100	0.252
-746.185	-200.000	-0.017	0.331
-745.171	-21.960	0.309	0.192
-744.156	800.000	-0.132	0.538
-743.142	-200.000	0.008	0.048
-742.127	-200.000	0.040	0.258
-741.112	-200.000	-0.022	-0.159
-740.098	760.619	-0.128	0.355
-739.083	-6.210	0.169	0.118
-738.069	-87.573	-0.336	0.104
-737.054	-200.000	-0.008	0.191
-736.039	-97.126	-0.187	-0.050
-735.025	-88.861	0.238	0.072
-734.010	-48.756	0.047	0.023
-732.996	-91.706	0.109	-0.032
-731.981	800.000	0.069	0.200
-730.966	-200.000	-0.036	0.358
-729.952	-90.464	-0.472	0.140
-728.937	-56.863	-0.325	-0.147
-727.923	800.000	0.112	0.362
-726.908	84.734	-0.147	-0.165
-725.894	-0.728	0.187	-0.135
-724.879	224.881	-0.134	0.222
-723.864	800.000	0.068	0.200
-722.850	-144.953	-0.223	0.021
-721.835	-7.769	0.039	0.027
-720.821	-18.295	0.306	0.196
-719.806	50.666	0.368	0.356
-718.791	108.042	0.213	0.259
-717.777	-80.344	0.199	0.068
-716.762	-58.515	0.290	0.129
-715.748	-200.000	0.067	-0.392
-714.733	-28.072	-0.066	-0.039
-713.718	-200.000	0.043	0.315
-712.704	800.000	-0.046	-0.182
-711.689	90.093	-0.030	0.034
-710.675	-18.263	-0.202	0.129
-709.660	800.000	0.071	0.282
-708.645	800.000	-0.069	0.202
-707.631	-49.192	0.314	-0.153
-706.616	-119.097	0.156	-0.028
-705.602	-40.360	-0.278	0.148
-704.587	-200.000	-0.033	-0.228
-703.572	28.061	0.226	0.195
-702.558	374.254	-0.071	0.148
-701.543	325.145	-0.130	0.253
-700.529	191.288	-0.098	0.151
-699.514	9.985	-0.316	-0.245
-698.499	377.029	-0.026	0.055
-697.485	-33.205	-0.188	-0.107
-696.470	-100.190	-0.095	-0.024
-695.456	-147.514	-0.168	0.015
-694.441	-77.981	-0.222	-0.078
-693.426	-200.000	-0.028	-0.305
-692.412	42.902	0.071	-0.066
-691.397	-146.217	0.309	-0.028
-690.383	-154.165	-0.160	0.011
-689.368	-130.427	-0.307	-0.042
-688.354	589.513	-0.029	-0.073
-687.339	-97.880	0.191	-0.050
-686.324	-4.675	-0.101	-0.071
-685.310	743.356	0.079	0.217
-684.295	-152.761	-0.173	0.013
-683.281	-200.000	-0.005	-0.360
-682.266	1.926	0.307	0.226
-681.251	800.000	0.061	0.240
-680.237	-158.962	-0.347	0.020
-679.222	358.423	0.107	0.218
-678.208	344.584	0.047	-0.095
-677.193	-16.529	0.122	0.079
-676.178	-200.000	0.014	0.142
-675.164	45.869	0.202	0.191
-674.149	26.679	0.123	-0.105
-673.135	562.665	-0.063	0.156
-672.120	-200.000	0.009	-0.443
-671.105	227.934	-0.063	0.104
-670.091	-200.000	-0.004	0.078
-669.076	-146.705	0.130	-0.011
-668.062	361.094	0.060	0.122
-667.047	93.667	-0.005	-0.006
-666.032	-200.000	0.063	-0.384
-665.018	-36.332	-0.060	0.033
-664.003	-62.176	-0.108	0.046
-662.989	800.000	-0.046	0.190
-661.974	-86.439	0.183	-0.057
-660.959	800.000	0.021	-0.072
-659.945	17.011	0.153	-0.123
-658.930	482.351	-0.016	-0.037
-657.916	329.917	-0.117	-0.229
-656.901	-200.000	-0.007	-0.140
-655.886	147.598	0.224	-0.307
-654.872	288.707	0.099	0.182
-653.857	29.365	-0.140	0.121
-652.843	298.040	-0.029	0.053
-651.828	426.621	-0.097	0.213
-650.814	56.252	-0.177	-0.175
-649.799	132.816	-0.237	-0.312
-648.784	-163.107	0.439	-0.022
-647.770	-98.346	0.246	0.064
-646.755	65.053	0.081	-0.084
-645.741	800.000	0.039	0.130
-644.726	-157.081	0.274	-0.017
-643.711	355.749	-0.189	-0.383
-642.697	334.484	-0.197	-0.390
-641.682	260.425	-0.080	-0.141
-640.668	-20.873	-0.289	-0.181
-639.653	-176.894	0.176	-0.005
-638.638	-75.774	-0.170	0.061
-637.624	-105.086	0.243	-0.057
-636.609	435.136	0.219	-0.486
-635.595	-83.654	-0.212	0.069
-634.580	-95.249	-0.109	0.030
-633.565	800.000	-0.071	-0.232
-632.551	-92.355	-0.103	-0.030
-631.536	0.497	-0.042	-0.031
-630.522	-2.348	-0.065	0.046
-629.507	-117.634	-0.091	-0.017
-628.492	-10.299	0.142	0.096
-627.478	259.123	-0.092	0.162
-626.463	137.190	0.154	-0.205
-625.449	800.000	-0.027	-0.086
-624.434	100.842	0.124	0.147
-623.419	47.608	-0.108	-0.103
-622.405	189.732	0.084	0.129
-621.390	4.668	0.242	-0.181
-620.376	-78.673	0.215	-0.075
-619.361	33.602	-0.072	0.064
-618.346	-129.680	-0.124	-0.017
-617.332	58.329	0.118	-0.118
-616.317	224.699	0.067	0.110
-615.303	755.791	0.097	0.266
-614.288	-53.586	-0.129	-0.060
-613.273	93.939	0.103	-0.119
-612.259	491.460	-0.123	0.288
-611.244	-200.000	-0.005	-0.111
-610.230	-72.413	0.071	-0.027
-609.215	75.484	0.167	0.179
-608.201	-101.216	-0.325	-0.081
-607.186	228.161	0.199	0.329
-606.171	-59.175	0.094	-0.041
-605.157	-138.645	0.205	0.023
-604.142	33.269	-0.223	-0.197
-603.128	-149.577	-0.182	-0.015
-602.113	309.807	0.121	-0.230
-601.098	204.698	-0.027	0.043
-600.084	740.906	0.046	0.125
-599.069	-125.599	-0.072	0.011
-598.055	113.763	-0.095	0.117
-597.040	-200.000	-0.032	0.169
-596.025	9.223	0.250	0.192
-595.011	497.239	-0.096	-0.224
-593.996	-66.914	-0.101	0.041
-592.982	81.082	-0.137	-0.150
-591.967	134.125	0.131	-0.173
-590.952	68.387	-0.121	0.126
-589.938	20.329	0.272	-0.224
-588.923	-107.947	0.133	-0.029
-587.909	376.648	0.135	-0.280
-586.894	66.625	0.080	0.083
-585.879	446.416	0.037	-0.082
-584.865	-13.598	0.033	0.022
-583.850	-200.000	-0.003	0.039
-582.836	467.604	0.022	-0.049
-581.821	494.490	-0.039	0.090
-580.806	-84.859	-0.079	-0.025
-579.792	-200.000	-0.017	0.244
-578.777	-150.910	-0.148	0.011
-577.763	-107.773	-0.367	0.081
-576.748	115.754	-0.181	-0.225
-575.733	70.511	-0.191	0.201
-574.719	196.489	-0.166	0.256
-573.704	64.660	-0.301	0.309
-572.690	134.650	-0.116	-0.153
-571.675	141.891	-0.087	-0.118
-570.661	161.932	0.210	-0.299
-569.646	264.930	0.052	-0.093
-568.631	-200.000	-0.029	0.208
-567.617	306.950	-0.037	-0.069
-566.602	154.828	0.183	0.255
-565.588	800.000	-0.100	0.340
-564.573	-200.000	-0.035	-0.253
-563.558	573.494	0.025	-0.062
-562.544	109.368	-0.159	-0.193
-561.529	-112.065	0.300	0.061
-560.515	368.880	0.099	0.204
-559.500	-36.182	-0.493	0.270
-558.485	-86.806	0.442	0.137
-557.471	17.643	0.226	-0.183
-556.456	-123.428	0.104	-0.017
-555.442	609.440	-0.068	-0.172
-554.427	174.467	-0.101	0.148
-553.412	-200.000	-0.015	0.368
-552.398	250.873	-0.112	0.194
-551.383	60.019	0.332	0.333
-550.369	104.998	-0.107	-0.128
-549.354	-100.009	0.208	-0.053
-548.339	27.499	0.223	0.191
-547.325	88.942	0.064	-0.073
-546.310	-161.764	-0.194	-0.010
-545.296	52.057	-0.293	-0.283
-544.281	800.000	-0.018	-0.061
-543.266	-39.463	0.360	0.191
-542.252	-87.657	-0.201	-0.062
-541.237	-114.768	0.219	-0.042
-540.223	-118.550	-0.035	-0.006
-539.208	-96.795	0.132	-0.035
-538.193	800.000	0.167	-0.471
-537.179	-69.247	-0.096	-0.037
-536.164	-20.973	-0.140	0.087
-535.150	-86.918	0.314	0.097
-534.135	207.312	0.117	0.185
-533.121	224.828	-0.155	0.254
-532.106	282.695	-0.196	0.356
-531.091	-58.240	0.163	0.072
-530.077	-191.070	0.333	-0.004
-529.062	-109.664	0.192	0.041
-528.048	-200.000	0.012	-0.118
-527.033	38.859	-0.015	-0.014
-526.018	800.000	0.040	0.113
-525.004	35.299	-0.373	0.332
-523.989	-88.578	-0.064	-0.019
-522.975	443.218	0.141	-0.312
-521.960	-91.843	-0.146	0.042
-520.945	235.754	0.098	-0.164
-519.931	81.620	-0.066	0.073
-518.916	-125.134	-0.224	-0.035
-517.902	274.458	-0.055	-0.099
-516.887	80.141	-0.327	0.357
-515.872	-38.836	0.161	0.086
-514.858	-200.000	-0.013	-0.169
-513.843	-75.882	-0.289	-0.104
-512.829	-73.893	-0.275	0.101
-511.814	287.903	-0.190	-0.349
-510.799	287.780	-0.130	-0.239
-509.785	30.719	-0.249	-0.216
-508.770	80.868	-0.158	-0.173
-507.756	343.523	0.048	0.095
-506.741	-200.000	0.006	-0.034
-505.726	-200.000	-0.062	-0.282
-504.712	-24.853	0.196	0.118
-503.697	-137.719	0.170	0.019
-502.683	-130.771	-0.353	0.048
-501.668	-39.184	-0.109	0.058
-500.653	187.006	-0.156	-0.235
-499.639	-200.000	-0.033	0.388
-498.624	-18.418	0.118	0.075
-497.610	-200.000	0.045	0.288
-496.595	249.673	-0.076	0.130
-495.581	-103.467	0.106	0.025
-494.566	800.000	0.023	-0.077
-493.551	336.176	-0.202	0.397
-492.537	375.399	0.137	-0.282
-491.522	-151.054	0.090	0.007
-490.508	174.609	-0.192	0.282
-489.493	-200.000	0.048	-0.243
-488.478	-17.422	0.095	-0.061
-487.464	285.291	0.040	-0.073
-486.449	-23.079	-0.082	-0.050
-485.435	316.190	0.063	-0.120
-484.420	141.576	-0.063	0.085
-483.405	-22.816	0.190	0.116
-482.391	-56.049	0.110	-0.050
-481.376	-41.309	0.031	-0.016
-480.362	800.000	-0.030	0.134
-479.347	-67.537	-0.182	-0.072
-478.332	800.000	-0.036	0.137
-477.318	-200.000	-0.029	0.144
-476.303	-77.324	-0.465	-0.164
-475.289	589.930	0.073	0.181
-474.274	469.401	0.120	0.272
-473.259	-200.000	-0.016	-0.106
-472.245	33.814	0.269	0.237
-471.230	-79.862	0.150	0.051
-470.216	37.280	0.234	-0.210
-469.201	-200.000	-0.010	0.487
-468.186	139.045	0.210	0.279
-467.172	-89.064	0.240	0.072
-466.157	-65.814	0.191	0.077
-465.143	-44.960	0.210	-0.106
-464.128	5.505	0.197	-0.147
-463.113	62.613	0.061	-0.061
-462.099	7.763	0.330	0.250
-461.084	-20.551	-0.320	-0.199
-460.070	214.075	-0.212	-0.340
-459.055	75.084	0.201	-0.214
-458.040	-156.272	0.464	-0.029
-457.026	800.000	-0.053	-0.203
-456.011	107.820	0.316	0.381
-454.997	800.000	0.072	0.290
-453.982	-11.473	0.161	-0.107
-452.968	-27.234	0.327	0.193
-451.953	168.402	-0.111	-0.161
-450.938	-200.000	-0.022	-0.137
-449.924	-200.000	-0.027	-0.284
-448.909	-38.596	-0.111	-0.059
-447.895	-110.794	-0.085	0.018
-446.880	98.428	-0.264	0.308
-445.865	800.000	0.088	0.258
-444.851	14.773	0.056	-0.045
-443.836	624.034	0.040	-0.103
-442.822	800.000	-0.075	0.280
-441.807	242.364	0.083	0.141
-440.792	-33.574	0.117	-0.066
-439.778	-139.941	0.130	-0.014
-438.763	235.326	0.079	-0.131
-437.749	114.039	0.219	-0.269
-436.734	112.992	-0.188	0.230
-435.719	-74.046	-0.148	0.054
-434.705	797.584	-0.133	-0.372
-433.690	-115.442	-0.136	0.026
-432.676	-23.543	0.253	-0.154
-431.661	-200.000	0.021	-0.160
-430.646	800.000	0.031	-0.111
-429.632	-15.957	-0.303	0.195
-428.617	-107.437	-0.219	-0.049
-427.603	286.842	0.018	-0.032
-426.588	-84.683	-0.411	-0.131
-425.573	51.273	0.118	0.113
-424.559	406.233	-0.128	0.273
-423.544	-200.000	0.014	-0.147
-422.530	34.408	0.026	-0.023
-421.515	19.636	-0.196	-0.159
-420.500	-36.781	0.174	-0.094
-419.486	198.223	-0.121	-0.187
-418.471	157.852	0.286	0.401
-417.457	-123.747	0.220	-0.035
-416.442	-24.918	0.034	0.021
-415.428	-35.597	0.055	-0.030
-414.413	193.044	-0.148	-0.225
-413.398	89.995	0.148	-0.167
-412.384	59.383	-0.082	0.081
-411.369	-200.000	0.024	-0.162
-410.355	800.000	-0.078	-0.225
-409.340	-200.000	0.003	0.032
-408.325	-200.000	-0.054	0.346
-407.311	220.269	0.057	-0.092
-406.296	-96.087	-0.356	-0.096
-405.282	-8.340	-0.209	0.142
-404.267	-159.196	0.263	0.015
-403.252	163.522	-0.120	-0.170
-402.238	-78.178	-0.073	0.025
-401.223	144.255	-0.125	0.169
-400.209	-200.000	0.053	0.304
-399.194	800.000	0.064	0.259
-398.179	203.061	-0.040	0.063
-397.165	57.991	-0.575	0.568
-396.150	-65.296	0.280	0.114
-395.136	-181.522	0.035	0.001
-394.121	-61.683	0.168	-0.071
-393.106	236.628	-0.231	0.387
-392.092	33.938	0.118	0.104
-391.077	-70.720	-0.357	0.136
-390.063	-200.000	-0.008	0.304
-389.048	590.569	-0.023	0.057
-388.033	800.000	-0.039	-0.131
-387.019	-76.979	-0.023	0.008
-386.004	102.452	0.043	-0.050
-384.990	800.000	0.155	-0.433
-383.975	-128.423	-0.209	-0.030
-382.960	-149.610	0.158	0.013
-381.946	-200.000	-0.024	0.167
-380.931	-58.418	0.266	0.117
-379.917	61.439	0.127	0.127
-378.902	-142.559	-0.339	-0.033
-377.888	-159.056	0.121	-0.007
-376.873	-200.000	-0.047	-0.245
-375.858	800.000	-0.045	0.184
-374.844	54.838	0.208	0.203
-373.829	487.245	0.150	-0.344
-372.815	-200.000	-0.042	-0.309
-371.800	-200.000	0.023	-0.135
-370.785	-75.288	-0.281	-0.101
-369.771	79.515	0.099	-0.108
-368.756	-20.772	0.261	0.161
-367.742	-154.751	0.377	0.025
-366.727	77.082	-0.137	-0.146
-365.712	228.600	-0.153	0.252
-364.698	203.778	0.094	-0.147
-363.683	-93.237	0.187	0.053
-362.669	-32.740	-0.213	-0.119
-361.654	800.000	-0.105	-0.300
-360.639	-200.000	-0.024	0.116
-359.625	195.915	0.046	-0.070
-358.610	255.062	0.128	0.221
-357.596	48.373	-0.275	0.260
-356.581	800.000	0.050	-0.174
-355.566	-175.356	-0.148	-0.004
-354.552	118.815	-0.148	-0.185
-353.537	40.539	0.129	-0.117
-352.523	800.000	0.055	-0.189
-351.508	-109.528	0.344	0.073
-350.493	-39.614	0.240	0.126
-349.479	418.822	0.095	-0.204
-348.464	7.544	-0.334	-0.252
-347.450	529.550	-0.113	-0.269
-346.435	-91.360	-0.250	0.072
-345.420	-181.272	0.116	-0.002
-344.406	4.696	0.289	-0.214
-343.391	-161.517	-0.337	0.017
-342.377	-148.152	-0.105	0.009
-341.362	800.000	0.032	-0.117
-340.348	-200.000	0.018	0.132
-339.333	692.161	0.171	-0.451
-338.318	152.739	0.005	0.007
-337.304	321.354	-0.153	0.294
-336.289	-33.736	0.245	-0.136
-335.275	-200.000	-0.058	-0.268
-334.260	61.989	0.052	-0.053
-333.245	632.342	-0.025	0.065
-332.231	89.798	0.159	0.178
-331.216	-200.000	0.022	0.175
-330.202	-191.532	-0.098	0.001
-329.187	205.374	-0.037	-0.058
-328.172	-199.261	-0.260	-0.001
-327.158	95.569	-0.159	0.182
-326.143	-62.094	0.178	-0.075
-325.129	-200.000	-0.002	0.011
-324.114	-151.371	-0.166	0.012
-323.099	800.000	0.109	0.315
-322.085	-165.904	0.270	-0.012
-321.070	-200.000	0.010	-0.293
-320.056	195.443	0.183	0.280
-319.041	-52.086	-0.404	0.189
-318.026	55.714	-0.216	0.211
-317.012	-200.000	-0.064	0.293
-315.997	-200.000	0.037	0.318
-314.983	-127.193	0.094	-0.014
-313.968	-51.862	0.219	0.102
-312.953	17.847	-0.176	-0.141
-311.939	-90.715	0.129	-0.037
-310.924	-200.000	0.005	-0.067
-309.910	360.880	-0.093	-0.188
-308.895	-200.000	0.038	-0.367
-307.880	-39.565	0.247	-0.130
-306.866	69.065	-0.098	0.102
-305.851	-23.062	-0.146	-0.088
-304.837	-200.000	-0.185	-0.000
-303.822	-200.000	-0.062	0.282
-302.807	6.466	-0.090	-0.067
-301.793	-34.204	-0.090	0.050
-300.778	800.000	0.077	0.233
-299.764	218.497	0.104	-0.166
-298.749	38.537	-0.346	-0.310
-297.735	-89.303	0.392	-0.116
-296.720	-200.000	0.037	-0.357
-295.705	105.194	0.069	-0.081
-294.691	322.680	0.188	0.361
-293.676	59.804	-0.200	0.198
-292.662	-135.383	0.196	0.024
-291.647	21.810	0.074	-0.061
-290.632	438.096	0.151	-0.330
-289.618	-1.647	0.185	-0.131
-288.603	800.000	0.015	0.047
-287.589	646.992	-0.115	0.296
-286.574	-185.537	0.238	0.004
-285.559	800.000	0.113	0.335
-284.545	-27.303	0.071	-0.042
-283.530	-200.000	0.067	-0.324
-282.516	53.056	-0.037	-0.036
-281.501	3.111	0.272	0.199
-280.486	365.630	-0.049	0.100
-279.472	147.439	-0.190	-0.257
-278.457	800.000	-0.024	0.088
-277.443	746.694	-0.085	-0.230
-276.428	47.215	0.072	0.068
-275.413	-44.243	0.094	-0.047
-274.399	800.000	-0.045	0.173
-273.384	-80.082	-0.174	-0.059
-272.370	-200.000	0.037	-0.336
-271.355	231.145	-0.064	0.105
-270.340	6.352	-0.165	0.123
-269.326	-188.583	-0.282	0.004
-268.311	-119.915	-0.404	-0.070
-267.297	4.211	0.126	-0.093
-266.282	254.616	-0.096	-0.165
-265.267	230.312	-0.112	-0.184
-264.253	-55.677	-0.113	-0.051
-263.238	800.000	-0.195	-0.557
-262.224	800.000	-0.060	-0.252
-261.209	-200.000	-0.023	0.117
-260.195	-69.216	-0.088	-0.034
-259.180	566.363	0.072	0.175
-258.165	-130.364	0.104	0.014
-257.151	155.429	-0.138	0.191
-256.136	-128.773	0.347	0.049
-255.122	-12.353	0.066	0.043
-254.107	-200.000	-0.035	0.253
-253.092	-200.000	0.022	0.211
-252.078	49.461	0.092	0.087
-251.063	21.640	0.048	-0.040
-250.049	800.000	0.055	-0.231
-249.034	164.786	-0.123	-0.174
-248.019	-58.755	-0.200	0.087
-247.005	0.687	-0.096	0.069
-245.990	-54.546	-0.085	0.039
-244.976	69.534	-0.180	-0.187
-243.961	-22.209	-0.106	-0.065
-242.946	-200.000	-0.027	0.221
-241.932	-62.142	0.304	0.127
-240.917	127.860	-0.261	-0.333
-239.903	19.701	0.273	0.221
-238.888	409.564	0.142	0.302
-237.873	141.936	-0.208	-0.276
-236.859	156.323	0.152	0.210
-235.844	200.099	-0.169	0.261
-234.830	-176.274	-0.257	-0.007
-233.815	-200.000	0.014	0.144
-232.800	-121.190	-0.297	-0.050
-231.786	345.980	-0.129	-0.253
-230.771	-200.000	0.340	0.001
-229.757	-158.425	0.290	-0.017
-228.742	800.000	0.044	-0.143
-227.727	368.342	-0.149	0.303
-226.713	-200.000	-0.042	-0.238
-225.698	138.035	0.184	0.242
-224.684	-200.000	0.035	0.273
-223.669	-200.000	0.003	0.094
-222.655	21.758	-0.092	-0.075
-221.640	-4.187	0.128	-0.089
-220.625	34.516	-0.070	0.061
-219.611	-200.000	0.067	-0.354
-218.596	-66.151	0.313	0.125
-217.582	513.082	0.136	0.319
-216.567	-86.607	0.084	0.026
-215.552	235.285	-0.066	-0.109
-214.538	-155.987	0.041	-0.003
-213.523	-200.000	0.047	0.239
-212.509	-39.325	-0.199	0.105
-211.494	-138.149	0.142	0.016
-210.479	800.000	0.014	0.046
-209.465	194.569	0.135	-0.205
-208.450	-82.161	0.119	-0.039
-207.436	28.723	-0.149	0.126
-206.421	237.715	0.096	-0.159
-205.406	-110.032	0.169	0.035
-204.392	-200.000	-0.025	0.192
-203.377	-153.273	-0.348	-0.024
-202.363	641.701	0.093	-0.237
-201.348	168.262	-0.145	-0.207
-200.333	178.383	0.044	-0.065
-199.319	-200.000	0.047	0.245
-198.304	-84.102	-0.302	-0.096
-197.290	198.206	0.098	-0.151
-196.275	-200.000	0.066	0.322
-195.260	800.000	-0.046	0.201
-194.246	500.601	0.021	0.048
-193.231	-200.000	-0.038	-0.270
-192.217	-155.286	-0.118	0.008
-191.202	-103.558	0.074	-0.017
-190.187	-200.000	0.013	0.155
-189.173	115.160	-0.237	0.289
-188.158	-48.906	-0.227	0.109
-187.144	-200.000	0.017	-0.120
-186.129	800.000	0.194	-0.578
-185.114	-118.010	-0.193	0.035
-184.100	300.458	-0.185	0.342
-183.085	782.811	0.038	0.104
-182.071	-115.265	-0.334	0.063
-181.056	-54.809	-0.270	0.122
-180.042	118.423	0.054	-0.067
-179.027	-36.956	0.108	0.058
-178.012	-132.609	0.093	0.012
-176.998	-121.859	0.124	0.020
-175.983	-153.628	-0.249	0.017
-174.969	207.476	0.203	-0.316
-173.954	800.000	-0.065	0.224
-172.939	238.241	0.122	0.202
-171.925	71.224	0.140	0.146
-170.910	487.222	-0.192	-0.439
-169.896	119.941	0.163	-0.203
-168.881	-114.445	-0.097	-0.019
-167.866	92.437	0.287	-0.324
-166.852	-53.913	0.195	0.089
-165.837	-95.956	-0.151	0.040
-164.823	-89.600	0.191	0.056
-163.808	237.037	0.038	0.063
-162.793	-36.743	-0.091	0.049
-161.779	-200.000	0.048	-0.295
-160.764	-147.647	0.121	-0.010
-159.750	-62.446	-0.130	-0.054
-158.735	207.665	-0.064	-0.100
-157.720	-49.335	0.200	-0.096
-156.706	335.346	0.107	0.207
-155.691	-78.945	-0.340	0.116
-154.677	742.219	-0.143	-0.385
-153.662	1.028	0.365	0.261
-152.647	46.600	0.207	-0.192
-151.633	-72.674	-0.156	-0.058
-150.618	153.231	-0.131	-0.179
-149.604	-100.041	-0.111	0.028
-148.589	-200.000	0.048	0.226
-147.574	-200.000	-0.026	0.128
-146.560	-114.993	0.212	-0.040
-145.545	-122.566	-0.456	-0.074
-144.531	-200.000	0.004	-0.194
-143.516	520.274	0.049	0.114
-142.502	-153.267	0.224	0.016
-141.487	-200.000	0.171	0.000
-140.472	164.361	0.273	-0.385
-139.458	-64.364	0.132	0.054
-138.443	-177.185	0.134	0.003
-137.429	-200.000	-0.022	0.258
-136.414	120.427	-0.229	0.284
-135.399	800.000	-0.043	-0.180
-134.385	-41.905	0.210	0.108
-133.370	-102.690	-0.200	-0.048
-132.356	679.369	0.142	0.369
-131.341	29.922	-0.215	0.183
-130.326	800.000	-0.167	0.463
-129.312	-105.361	-0.081	-0.018
-128.297	-200.000	0.010	-0.089
-127.283	-139.691	0.037	-0.004
-126.268	800.000	0.106	0.392
-125.253	-21.733	0.368	0.224
-124.239	269.064	-0.074	-0.130
-123.224	-100.497	0.159	0.039
-122.210	800.000	-0.055	-0.239
-121.195	-149.772	0.082	-0.006
