DTS Sentinel unit serial number:	SN413079Multiplexer serial number:	ORYXHardware model number:	OX4-SRSoftware version number:	ORYX F/W v4.00 Oryx Data Collector v3.7.2.0data status	okinstallation	princeton_trtdifferential loss correction	single-endedforward channel	channel 1reverse channel	N/Adate	2019/09/12time	21:06:35forward acquisition time	60.00reverse acquisition time	0.00gamma	496.2192k internal	0.2325k external	0.2325temperature offset calibration	1.0149default loss term (dB/km)	0.3790temperature slope calibration	1.0000multiplexer offset coefficient	1.0000multiplexer slope coefficient	1.0000fibre end	0.00T internal ref (°C)	30.75T ext. ref 1 (°C)	3.61T ext. ref 2 (°C)	25.25length (m)	temperature (°C)	Stokes	anti-Stokes-747.200	151.271	-0.202	0.277
-746.185	-150.517	-0.164	-0.013
-745.171	-91.114	0.145	0.042
-744.156	8.092	0.049	0.037
-743.142	-35.733	-0.202	-0.110
-742.127	-190.624	0.225	-0.002
-741.112	-200.000	-0.074	-0.482
-740.098	-87.714	0.139	0.042
-739.083	-200.000	-0.015	-0.209
-738.069	800.000	0.026	0.101
-737.054	800.000	-0.031	0.092
-736.039	-114.601	-0.408	-0.079
-735.025	11.344	-0.246	-0.190
-734.010	-176.623	-0.044	0.001
-732.996	-11.967	0.038	-0.025
-731.981	-199.682	-0.219	0.001
-730.966	-200.000	0.041	-0.187
-729.952	305.894	0.185	-0.347
-728.937	-163.894	-0.261	-0.012
-727.923	-6.873	0.067	0.046
-726.908	-162.013	-0.531	-0.027
-725.894	335.853	-0.037	-0.073
-724.879	-109.504	-0.094	0.020
-723.864	-144.144	-0.094	-0.009
-722.850	-5.307	-0.079	0.054
-721.835	545.380	0.038	-0.092
-720.821	-67.458	0.099	-0.039
-719.806	-47.436	-0.396	0.194
-718.791	-162.875	0.102	-0.005
-717.777	476.200	0.132	-0.301
-716.762	-84.208	0.266	-0.085
-715.748	-116.219	-0.259	-0.048
-714.733	-200.000	0.024	0.213
-713.718	-154.233	-0.139	0.009
-712.704	-200.000	-0.098	-0.445
-711.689	89.306	0.157	0.177
-710.675	-36.746	-0.184	0.099
-709.660	38.167	-0.205	-0.184
-708.645	800.000	-0.065	-0.214
-707.631	-200.000	-0.030	0.326
-706.616	37.743	-0.032	-0.028
-705.602	-100.968	0.092	-0.023
-704.587	158.444	-0.116	0.162
-703.572	-74.080	0.085	0.031
-702.558	-164.508	-0.189	0.009
-701.543	107.476	0.087	0.104
-700.529	800.000	0.061	-0.222
-699.514	-200.000	0.010	-0.218
-698.499	800.000	0.030	-0.085
-697.485	-200.000	-0.001	-0.215
-696.470	477.561	0.111	0.252
-695.456	-146.051	-0.318	-0.028
-694.441	-171.709	-0.245	-0.008
-693.426	-115.428	0.298	-0.057
-692.412	-124.663	0.120	-0.019
-691.397	265.600	0.067	0.118
-690.383	92.358	0.038	0.043
-689.368	318.161	-0.033	-0.063
-688.354	800.000	-0.094	0.399
-687.339	-125.847	-0.235	-0.036
-686.324	196.583	0.084	-0.129
-685.310	-23.646	-0.171	-0.103
-684.295	-128.124	-0.037	0.005
-683.281	55.445	-0.031	-0.030
-682.266	-95.101	-0.462	0.125
-681.251	-99.538	0.186	0.047
-680.237	72.605	-0.079	-0.083
-679.222	-63.514	0.173	0.072
-678.208	60.176	0.138	0.137
-677.193	800.000	0.067	-0.229
-676.178	-73.758	0.298	-0.109
-675.164	300.168	0.135	-0.250
-674.149	678.130	-0.119	0.311
-673.135	224.947	0.210	-0.342
-672.120	522.325	-0.088	-0.208
-671.105	-154.821	0.024	0.002
-670.091	175.161	-0.041	-0.060
-669.076	171.526	0.197	-0.284
-668.062	64.426	0.115	0.116
-667.047	-137.191	0.224	0.026
-666.032	800.000	-0.045	0.128
-665.018	165.192	0.172	-0.244
-664.003	114.389	-0.117	-0.144
-662.989	26.564	-0.189	-0.159
-661.974	-125.594	-0.267	-0.041
-660.959	800.000	-0.134	-0.470
-659.945	-36.069	0.060	0.032
-658.930	800.000	0.020	0.070
-657.916	268.888	0.119	-0.209
-656.901	-56.238	-0.158	0.071
-655.886	321.957	-0.053	0.101
-654.872	-76.073	-0.241	-0.086
-653.857	-200.000	0.012	-0.217
-652.843	170.494	0.119	-0.171
-651.828	-185.016	-0.081	-0.001
-650.814	628.546	-0.179	0.455
-649.799	115.886	-0.298	0.366
-648.784	-79.470	-0.346	0.118
-647.770	-105.356	0.235	-0.054
-646.755	15.857	-0.158	-0.125
-645.741	-133.915	-0.111	-0.014
-644.726	32.556	-0.314	0.272
-643.711	182.072	-0.346	0.512
-642.697	-200.000	-0.006	-0.037
-641.682	282.305	0.066	-0.118
-640.668	-116.884	0.178	-0.033
-639.653	-200.000	0.027	0.236
-638.638	-200.000	0.038	0.217
-637.624	-200.000	-0.034	0.276
-636.609	70.132	0.128	-0.133
-635.595	70.664	-0.134	-0.139
-634.580	-116.176	-0.249	-0.046
-633.565	-75.764	-0.077	-0.027
-632.551	497.316	0.107	0.248
-631.536	-200.000	-0.011	0.054
-630.522	460.005	-0.107	0.240
-629.507	77.487	0.141	-0.151
-628.492	-126.224	0.099	-0.015
-627.478	164.510	-0.171	0.242
-626.463	-154.932	-0.111	0.007
-625.449	65.549	0.066	0.067
-624.434	800.000	-0.121	-0.347
-623.419	-106.453	-0.134	-0.030
-622.405	-159.639	-0.191	-0.011
-621.390	-100.967	-0.124	-0.031
-620.376	-8.563	-0.140	-0.094
-619.361	92.443	0.249	0.282
-618.346	-200.000	0.058	0.381
-617.332	-117.871	-0.158	0.028
-616.317	109.157	-0.228	0.274
-615.303	579.039	0.038	0.095
-614.288	800.000	0.031	-0.089
-613.273	-107.159	-0.216	0.048
-612.259	-42.369	-0.189	-0.097
-611.244	-200.000	-0.039	-0.480
-610.230	-135.579	-0.248	0.030
-609.215	-175.218	-0.346	-0.010
-608.201	-48.999	-0.258	0.124
-607.186	340.538	-0.182	-0.357
-606.171	185.283	-0.207	0.308
-605.157	-82.308	0.199	-0.065
-604.142	800.000	0.043	0.174
-603.128	-174.243	-0.406	-0.012
-602.113	-200.000	0.061	-0.379
-601.098	-33.805	0.153	0.084
-600.084	-86.501	-0.112	-0.035
-599.069	89.420	0.155	0.173
-598.055	-32.705	-0.096	-0.054
-597.040	-200.000	-0.026	0.261
-596.025	45.087	0.060	0.056
-595.011	-108.075	0.165	0.036
-593.996	-200.000	0.074	-0.610
-592.982	-44.790	-0.219	0.109
-591.967	800.000	0.025	-0.073
-590.952	270.577	-0.037	-0.066
-589.938	-199.192	0.150	-0.001
-588.923	-36.211	-0.065	-0.035
-587.909	591.069	0.098	-0.242
-586.894	66.250	0.167	-0.170
-585.879	-129.734	0.242	-0.033
-584.865	800.000	-0.088	-0.252
-583.850	39.120	-0.061	-0.055
-582.836	259.479	0.195	-0.338
-581.821	-65.462	0.183	0.074
-580.806	107.859	0.179	-0.213
-579.792	18.973	0.109	-0.087
-578.777	154.898	0.015	0.020
-577.763	-116.516	0.236	0.044
-576.748	-200.000	-0.002	0.136
-575.733	288.762	-0.031	-0.056
-574.719	-37.835	0.112	0.060
-573.704	-200.000	-0.005	-0.241
-572.690	-31.241	-0.040	0.023
-571.675	-91.267	-0.295	-0.085
-570.661	-200.000	-0.027	0.298
-569.646	-40.932	0.126	0.065
-568.631	-178.416	-0.074	-0.002
-567.617	153.763	-0.125	-0.171
-566.602	-143.940	-0.161	0.015
-565.588	449.622	0.068	-0.150
-564.573	200.396	0.173	-0.267
-563.558	-200.000	-0.001	-0.134
-562.544	9.216	0.115	-0.087
-561.529	142.315	-0.164	-0.219
-560.515	659.072	0.068	-0.175
-559.500	-71.154	-0.207	-0.078
-558.485	510.690	0.039	-0.092
-557.471	-63.739	-0.155	0.064
-556.456	92.177	-0.201	-0.227
-555.442	-117.753	-0.117	-0.021
-554.427	225.708	0.128	-0.208
-553.412	800.000	0.044	0.169
-552.398	-102.066	0.166	-0.040
-551.383	430.094	0.110	0.238
-550.369	394.915	0.072	-0.151
-549.354	74.430	-0.090	-0.095
-548.339	800.000	-0.029	-0.082
-547.325	-154.464	-0.112	-0.007
-546.310	101.363	-0.133	0.155
-545.296	377.789	0.235	0.482
-544.281	171.819	-0.169	-0.243
-543.266	543.230	-0.048	-0.114
-542.252	380.406	0.092	-0.188
-541.237	800.000	0.055	-0.184
-540.223	-7.805	-0.256	-0.173
-539.208	186.281	-0.044	-0.065
-538.193	-47.662	-0.262	-0.127
-537.179	-0.072	-0.066	0.047
-536.164	-27.638	0.080	0.046
-535.150	-71.752	0.271	-0.101
-534.135	-66.496	0.276	-0.110
-533.121	87.388	-0.065	0.072
-532.106	800.000	0.062	0.228
-531.091	-200.000	-0.020	0.272
-530.077	42.147	-0.072	-0.066
-529.062	-31.009	-0.062	0.035
-528.048	-164.043	-0.024	-0.001
-527.033	146.054	0.104	-0.139
-526.018	-116.794	-0.272	0.050
-525.004	-91.838	0.056	-0.016
-523.989	-121.544	-0.107	-0.018
-522.975	-117.371	0.178	-0.032
-521.960	705.524	-0.041	-0.107
-520.945	701.821	-0.151	-0.398
-519.931	499.646	-0.118	0.273
-518.916	735.451	0.071	-0.189
-517.902	24.493	-0.030	0.025
-516.887	-80.088	0.151	-0.051
-515.872	-200.000	-0.023	-0.227
-514.858	-74.600	0.203	-0.073
-513.843	800.000	0.038	-0.123
-512.829	-159.255	0.197	0.011
-511.814	800.000	0.039	0.125
-510.799	60.496	-0.017	0.016
-509.785	-14.735	-0.053	-0.034
-508.770	354.688	-0.138	0.274
-507.756	-139.752	0.430	-0.046
-506.741	-145.520	-0.254	0.023
-505.726	-200.000	-0.016	0.215
-504.712	-45.413	-0.077	0.038
-503.697	-141.823	-0.199	0.020
-502.683	227.061	-0.055	-0.089
-501.668	-134.329	0.284	0.035
-500.653	-99.594	-0.145	-0.036
-499.639	-28.459	0.311	-0.179
-498.624	142.747	0.127	-0.169
-497.610	29.491	0.122	-0.104
-496.595	-200.000	0.011	-0.066
-495.581	70.780	-0.231	0.239
-494.566	800.000	-0.049	0.165
-493.551	364.107	-0.055	0.110
-492.537	52.609	-0.193	-0.184
-491.522	74.492	-0.197	-0.207
-490.508	-101.045	-0.382	0.094
-489.493	43.456	0.162	0.148
-488.478	-69.025	-0.175	0.067
-487.464	104.896	0.076	0.090
-486.449	61.820	0.113	-0.112
-485.435	463.788	0.090	-0.201
-484.420	-63.206	-0.437	-0.180
-483.405	-51.967	0.174	-0.081
-482.391	397.514	-0.078	0.163
-481.376	138.729	0.319	0.419
-480.362	-93.536	-0.263	0.073
-479.347	189.573	0.129	-0.193
-478.332	-141.214	0.326	0.033
-477.318	-176.471	0.153	-0.004
-476.303	800.000	-0.053	-0.216
-475.289	-200.000	0.011	0.054
-474.274	214.593	-0.051	0.081
-473.259	-76.073	-0.291	-0.103
-472.245	-48.296	-0.050	0.024
-471.230	-101.333	-0.520	0.127
-470.216	-98.987	0.224	-0.057
-469.201	-73.743	0.139	-0.050
-468.186	602.455	-0.049	0.123
-467.172	-132.547	0.288	0.037
-466.157	800.000	0.059	-0.199
-465.143	331.085	0.048	-0.091
-464.128	-27.792	0.126	0.073
-463.113	-138.397	-0.301	-0.033
-462.099	-66.358	0.089	-0.035
-461.084	17.624	-0.147	-0.117
-460.070	-133.188	0.295	0.037
-459.055	95.367	0.168	-0.191
-458.040	-200.000	0.011	0.109
-457.026	-61.690	-0.153	0.064
-456.011	784.509	0.042	0.115
-454.997	-47.020	0.098	0.048
-453.982	-15.236	0.160	0.102
-452.968	360.625	-0.090	-0.180
-451.953	-73.790	0.023	0.008
-450.938	458.595	0.017	-0.039
-449.924	182.724	-0.102	0.150
-448.909	-105.288	-0.287	0.065
-447.895	117.129	-0.086	-0.106
-446.880	800.000	-0.023	0.065
-445.865	-122.436	-0.087	0.014
-444.851	-200.000	0.037	0.414
-443.836	800.000	0.044	0.138
-442.822	-24.234	-0.190	-0.113
-441.807	145.894	-0.097	0.130
-440.792	-118.911	-0.258	-0.045
-439.778	-200.000	0.011	-0.159
-438.763	-137.516	0.102	-0.012
-437.749	-200.000	0.006	0.198
-436.734	132.924	0.097	-0.124
-435.719	-200.000	-0.036	-0.199
-434.705	16.885	-0.055	0.043
-433.690	-200.000	0.026	-0.196
-432.676	-158.682	0.123	0.007
-431.661	-154.239	-0.231	0.016
-430.646	-150.914	0.281	0.021
-429.632	-67.821	0.270	0.105
-428.617	-73.600	-0.092	-0.034
-427.603	-1.276	0.175	0.123
-426.588	-39.645	0.045	0.023
-425.573	-71.477	0.317	0.118
-424.559	-66.017	0.245	-0.097
-423.544	530.157	0.072	0.169
-422.530	46.003	0.104	0.096
-421.515	-200.000	-0.024	0.204
-420.500	537.093	0.152	0.359
-419.486	-16.823	-0.159	-0.100
-418.471	-28.781	-0.244	-0.140
-417.457	-135.393	0.220	-0.026
-416.442	194.643	-0.162	0.245
-415.428	-56.397	-0.145	-0.064
-414.413	696.368	0.159	0.415
-413.398	42.248	0.195	-0.177
-412.384	-71.893	0.290	0.108
-411.369	-75.641	-0.092	0.033
-410.355	800.000	0.069	-0.215
-409.340	6.857	-0.131	-0.097
-408.325	168.748	-0.109	0.155
-407.311	267.300	-0.095	0.165
-406.296	800.000	-0.111	0.440
-405.282	-200.000	-0.012	-0.065
-404.267	17.486	-0.201	-0.159
-403.252	404.419	0.104	-0.217
-402.238	-80.204	0.197	-0.066
-401.223	41.335	0.183	0.165
-400.209	184.308	-0.057	-0.084
-399.194	113.744	-0.213	0.258
-398.179	636.220	0.036	-0.090
-397.165	-115.175	0.102	-0.019
-396.150	-200.000	-0.045	0.347
-395.136	-74.285	0.295	-0.106
-394.121	-87.828	-0.115	-0.035
-393.106	8.786	0.111	0.083
-392.092	393.244	0.072	-0.150
-391.077	147.422	0.112	-0.151
-390.063	14.109	0.159	0.123
-389.048	286.212	-0.023	0.042
-388.033	-200.000	-0.037	-0.322
-387.019	506.258	-0.029	-0.067
-386.004	-48.961	-0.073	0.035
-384.990	-33.536	0.088	0.049
-383.975	-200.000	0.016	0.097
-382.960	-142.265	-0.124	-0.012
-381.946	786.662	-0.074	-0.201
-380.931	-16.735	0.239	-0.151
-379.917	127.456	-0.135	0.170
-378.902	100.128	0.012	0.014
-377.888	12.753	-0.184	-0.141
-376.873	-87.418	-0.045	0.013
-375.858	569.917	0.040	-0.097
-374.844	-54.581	0.294	-0.132
-373.829	-130.660	-0.130	-0.017
-372.815	-35.640	0.291	0.157
-371.800	-68.338	-0.084	0.033
-370.785	195.462	0.029	0.044
-369.771	-50.836	0.247	0.115
-368.756	383.240	0.084	-0.172
-367.742	-55.090	-0.160	0.072
-366.727	-69.028	0.230	-0.088
-365.712	-124.027	0.123	-0.019
-364.698	800.000	-0.079	0.340
-363.683	-67.009	-0.085	-0.034
-362.669	752.016	0.024	0.065
-361.654	47.003	0.072	0.066
-360.639	80.676	-0.101	-0.109
-359.625	-56.619	-0.162	0.071
-358.610	-200.000	-0.010	0.053
-357.596	-75.957	0.209	0.074
-356.581	88.265	-0.010	0.011
-355.566	800.000	0.067	-0.283
-354.552	263.107	0.088	-0.153
-353.537	13.236	-0.072	-0.055
-352.523	238.626	-0.117	0.192
-351.508	-1.985	-0.088	0.061
-350.493	-1.401	-0.161	-0.113
-349.479	35.011	0.071	-0.062
-348.464	800.000	-0.039	-0.121
-347.450	-161.327	0.079	0.004
-346.435	-200.000	-0.033	-0.147
-345.420	80.122	-0.219	-0.234
-344.406	-91.227	-0.058	0.016
-343.391	-5.347	-0.119	-0.081
-342.377	800.000	-0.068	0.270
-341.362	-17.470	0.083	0.052
-340.348	93.150	-0.122	-0.137
-339.333	-113.144	0.198	-0.039
-338.318	-200.000	-0.031	-0.201
-337.304	-200.000	0.033	0.181
-336.289	-200.000	0.007	-0.315
-335.275	-122.368	0.117	0.019
-334.260	8.662	-0.219	-0.164
-333.245	614.434	-0.047	0.117
-332.231	-96.346	-0.069	0.018
-331.216	-200.000	0.060	0.437
-330.202	502.222	-0.055	0.127
-329.187	-175.691	-0.270	-0.007
-328.172	-17.713	-0.264	0.165
-327.158	-123.634	-0.219	-0.034
-326.143	800.000	0.024	-0.088
-325.129	-8.610	0.141	0.094
-324.114	83.782	-0.044	-0.048
-323.099	250.535	0.055	0.092
-322.085	-200.000	0.039	-0.239
-321.070	-60.631	-0.131	-0.055
-320.056	-118.228	-0.076	0.013
-319.041	-200.000	0.011	-0.110
-318.026	800.000	-0.073	-0.259
-317.012	-82.764	-0.231	-0.074
-315.997	-128.431	0.430	-0.061
-314.983	800.000	-0.031	0.094
-313.968	-200.000	-0.014	-0.144
-312.953	-67.102	0.250	0.098
-311.939	-119.900	0.108	-0.018
-310.924	158.913	-0.081	-0.112
-309.910	317.861	-0.075	-0.141
-308.895	-105.689	0.427	0.096
-307.880	-8.383	0.086	-0.057
-306.866	-85.388	0.275	0.085
-305.851	63.145	-0.148	-0.147
-304.837	1.967	0.227	-0.162
-303.822	53.389	0.210	0.200
-302.807	-93.113	-0.461	0.127
-301.793	-39.673	0.281	0.146
-300.778	800.000	0.084	-0.302
-299.764	-10.231	0.158	-0.104
-298.749	-73.808	0.243	0.088
-297.735	-61.953	-0.335	-0.139
-296.720	2.810	0.133	0.095
-295.705	-183.278	0.209	-0.004
-294.691	211.818	-0.029	-0.046
-293.676	461.578	-0.058	-0.129
-292.662	147.134	-0.090	-0.120
-291.647	256.200	-0.087	-0.149
-290.632	-32.473	-0.264	-0.146
-289.618	800.000	0.044	0.125
-288.603	-24.381	0.199	-0.117
-287.589	-137.859	0.189	-0.021
-286.574	-12.173	0.196	0.127
-285.559	-55.000	0.259	-0.116
-284.545	46.074	-0.035	0.032
-283.530	244.817	-0.044	0.073
-282.516	-200.000	0.025	0.117
-281.501	1.100	0.244	0.173
-280.486	-48.205	0.089	0.043
-279.472	-52.719	-0.302	-0.138
-278.457	11.806	-0.138	-0.105
-277.443	57.898	0.267	0.259
-276.428	-39.029	0.212	0.111
-275.413	4.076	0.046	0.034
-274.399	562.886	-0.078	0.188
-273.384	-200.000	0.070	-0.304
-272.370	-92.147	0.388	0.109
-271.355	31.289	-0.082	0.069
-270.340	135.755	0.105	-0.136
-269.326	-137.831	-0.151	-0.017
-268.311	47.868	0.331	-0.306
-267.297	-200.000	-0.039	-0.280
-266.282	-85.414	-0.231	-0.071
-265.267	800.000	0.059	-0.233
-264.253	-83.162	0.437	-0.139
-263.238	152.835	-0.121	0.163
-262.224	-3.449	0.384	-0.264
-261.209	268.094	-0.063	0.109
-260.195	800.000	0.105	-0.293
-259.180	145.284	0.125	-0.166
-258.165	166.794	-0.248	0.348
-257.151	9.262	-0.064	0.048
-256.136	50.686	0.096	0.090
-255.122	-162.899	0.329	0.016
-254.107	73.088	0.135	0.140
-253.092	293.499	-0.025	-0.046
-252.078	-90.956	-0.160	-0.046
-251.063	-200.000	-0.026	0.223
-250.049	-158.609	0.215	0.012
-249.034	-26.132	0.278	0.162
-248.019	13.306	-0.187	-0.143
-247.005	-200.000	-0.006	-0.090
-245.990	247.006	0.091	0.152
-244.976	73.867	-0.177	-0.184
-243.961	800.000	-0.075	0.289
-242.946	21.372	-0.104	0.084
-241.932	35.569	0.100	0.087
-240.917	-43.591	0.120	-0.060
-239.903	476.121	-0.087	-0.194
-238.888	-200.000	-0.005	0.050
-237.873	-50.292	0.149	0.070
-236.859	-200.000	-0.000	0.083
-235.844	389.258	-0.083	0.171
-234.830	17.763	-0.217	0.171
-233.815	71.199	-0.211	0.216
-232.800	93.501	0.218	0.244
-231.786	59.060	0.124	0.121
-230.771	19.719	-0.172	0.137
-229.757	-36.252	-0.306	0.163
-228.742	-200.000	0.035	0.361
-227.727	-78.014	0.092	-0.031
-226.713	12.479	0.127	0.097
-225.698	139.927	-0.221	0.288
-224.684	68.815	-0.027	-0.027
-223.669	385.400	0.112	0.228
-222.655	-138.874	0.400	-0.043
-221.640	-200.000	-0.002	-0.128
-220.625	37.138	-0.105	0.092
-219.611	800.000	0.054	0.192
-218.596	108.728	0.115	0.136
-217.582	368.915	-0.113	-0.226
-216.567	-95.620	-0.378	0.100
-215.552	268.510	-0.059	-0.101
-214.538	71.236	-0.200	-0.205
-213.523	-162.103	-0.178	-0.009
-212.509	800.000	-0.018	0.065
-211.494	-82.393	0.153	0.049
-210.479	-101.303	0.328	-0.079
-209.465	-200.000	-0.062	-0.380
-208.450	800.000	0.063	0.202
-207.436	800.000	0.056	-0.152
-206.421	-92.139	0.497	0.139
-205.406	10.619	0.136	0.102
-204.392	-51.268	0.162	0.075
-203.377	42.207	0.108	-0.097
-202.363	120.677	0.083	-0.102
-201.348	-200.000	-0.022	0.144
-200.333	193.010	-0.121	0.181
-199.319	-113.406	-0.072	-0.014
-198.304	28.271	0.497	0.415
-197.290	-48.927	-0.264	0.125
-196.275	-26.031	0.073	-0.042
-195.260	662.600	0.135	0.344
-194.246	-177.081	-0.099	-0.002
-193.231	-11.376	0.223	-0.145
-192.217	-110.350	0.447	0.092
-191.202	800.000	-0.102	-0.282
-190.187	-200.000	0.005	-0.051
-189.173	800.000	0.061	0.183
-188.158	100.111	-0.069	-0.080
-187.144	-200.000	-0.019	0.095
-186.129	-162.788	-0.276	0.013
-185.114	470.635	-0.152	-0.337
-184.100	-55.440	-0.327	0.145
-183.085	79.210	0.202	0.214
-182.071	-200.000	-0.017	-0.259
-181.056	20.803	-0.178	-0.142
-180.042	800.000	0.027	0.077
-179.027	-200.000	0.002	-0.272
-178.012	800.000	0.045	-0.174
-176.998	89.111	-0.158	-0.174
-175.983	-5.656	-0.111	-0.075
-174.969	-78.761	-0.094	0.032
-173.954	-200.000	-0.005	-0.108
-172.939	-10.860	0.048	-0.031
-171.925	-200.000	-0.045	0.444
-170.910	-74.539	0.169	0.060
-169.896	228.894	-0.133	0.214
-168.881	101.490	0.083	-0.095
-167.866	-45.257	-0.278	-0.136
-166.852	-200.000	0.014	-0.208
-165.837	-68.053	-0.179	-0.069
-164.823	800.000	0.076	0.232
-163.808	-52.412	-0.175	0.080
-162.793	-23.903	-0.261	-0.154
-161.779	-65.271	0.140	0.056
-160.764	-39.688	-0.052	-0.027
-159.750	-200.000	-0.039	0.195
-158.735	92.924	-0.170	-0.190
-157.720	-119.904	-0.196	-0.033
-156.706	-85.955	-0.121	-0.037
-155.691	339.601	-0.068	0.132
-154.677	-103.849	0.192	0.044
-153.662	-84.345	0.274	0.086
-152.647	-86.365	-0.170	0.052
-151.633	-79.224	-0.226	-0.076
-150.618	800.000	0.048	-0.142
-149.604	-200.000	-0.022	0.200
-148.589	435.234	0.146	-0.314
-147.574	-200.000	0.022	-0.276
-146.560	-126.076	0.213	0.032
-145.545	166.321	0.134	-0.187
-144.531	-76.933	0.439	-0.151
-143.516	84.778	0.107	0.116
-142.502	-67.703	0.441	-0.170
-141.487	-126.270	-0.305	-0.045
-140.472	-161.525	0.444	-0.023
-139.458	-48.270	-0.342	-0.162
-138.443	57.016	-0.284	-0.272
-137.429	-200.000	0.042	-0.226
-136.414	-200.000	-0.055	-0.273
-135.399	-47.482	0.239	0.114
-134.385	349.036	-0.124	-0.241
-133.370	-17.806	0.215	0.133
-132.356	538.681	0.069	-0.162
-131.341	13.570	-0.206	0.157
-130.326	92.031	-0.055	0.061
-129.312	722.551	0.086	0.225
-128.297	-200.000	0.078	0.400
-127.283	800.000	0.061	0.221
-126.268	-80.816	0.143	-0.047
-125.253	-74.936	0.311	0.110
-124.239	-200.000	-0.014	-0.237
-123.224	-161.121	-0.166	0.009
-122.210	-24.531	-0.178	-0.105
