DTS Sentinel unit serial number:	SN413079Multiplexer serial number:	ORYXHardware model number:	OX4-SRSoftware version number:	ORYX F/W v4.00 Oryx Data Collector v3.7.2.0data status	okinstallation	princeton_trtdifferential loss correction	single-endedforward channel	channel 1reverse channel	N/Adate	2019/09/12time	08:48:11forward acquisition time	60.00reverse acquisition time	0.00gamma	496.2192k internal	0.2311k external	0.2311temperature offset calibration	1.0044default loss term (dB/km)	0.3790temperature slope calibration	1.0000multiplexer offset coefficient	1.0000multiplexer slope coefficient	1.0000fibre end	0.00T internal ref (°C)	33.95T ext. ref 1 (°C)	1.72T ext. ref 2 (°C)	30.63length (m)	temperature (°C)	Stokes	anti-Stokes-747.200	-104.154	-0.325	0.077
-746.185	-200.000	-0.032	0.234
-745.171	800.000	0.064	0.276
-744.156	800.000	0.110	0.353
-743.142	800.000	0.086	-0.259
-742.127	-200.000	-0.018	0.140
-741.112	-86.153	0.366	0.115
-740.098	143.867	-0.348	0.471
-739.083	76.086	-0.127	0.137
-738.069	-89.387	0.194	0.058
-737.054	-115.420	0.063	-0.012
-736.039	320.009	-0.054	0.103
-735.025	800.000	0.093	0.354
-734.010	-97.454	0.247	0.065
-732.996	-136.264	-0.500	-0.059
-731.981	-200.000	-0.021	0.342
-730.966	-134.957	-0.256	0.031
-729.952	77.625	-0.224	-0.242
-728.937	-156.944	-0.373	0.023
-727.923	322.416	-0.098	0.189
-726.908	-129.910	-0.433	0.060
-725.894	-48.125	-0.355	-0.174
-724.879	342.194	0.063	-0.126
-723.864	351.883	0.161	0.324
-722.850	-200.000	-0.000	0.155
-721.835	10.554	0.186	0.144
-720.821	148.024	-0.252	0.344
-719.806	184.569	-0.133	0.201
-718.791	-55.699	0.334	0.152
-717.777	141.898	0.161	-0.217
-716.762	79.215	-0.184	0.200
-715.748	51.874	0.141	-0.136
-714.733	630.181	-0.043	-0.110
-713.718	-32.276	0.262	0.149
-712.704	216.398	0.127	0.205
-711.689	75.846	-0.102	-0.109
-710.675	-68.242	-0.266	0.105
-709.660	371.655	-0.076	0.156
-708.645	-58.383	0.162	-0.072
-707.631	66.693	-0.236	0.243
-706.616	27.516	0.046	0.040
-705.602	326.352	0.168	-0.325
-704.587	595.379	0.031	-0.078
-703.572	-21.094	-0.120	-0.074
-702.558	-200.000	-0.018	0.082
-701.543	-98.398	-0.115	0.030
-700.529	800.000	-0.105	-0.309
-699.514	27.976	-0.088	0.075
-698.499	165.317	-0.042	-0.061
-697.485	800.000	-0.129	-0.391
-696.470	-120.696	-0.408	0.070
-695.456	-122.739	0.089	0.015
-694.441	800.000	-0.092	0.289
-693.426	422.292	0.072	0.157
-692.412	-200.000	-0.026	0.150
-691.397	209.333	0.095	-0.151
-690.383	-144.482	-0.400	-0.038
-689.368	-200.000	-0.072	0.386
-688.354	-103.226	-0.407	0.097
-687.339	-200.000	0.013	-0.194
-686.324	-200.000	0.029	-0.162
-685.310	-200.000	0.005	0.171
-684.295	-58.766	0.077	-0.034
-683.281	-200.000	-0.041	-0.276
-682.266	-184.041	-0.244	-0.004
-681.251	-23.679	-0.102	-0.062
-680.237	2.130	-0.188	-0.137
-679.222	-200.000	-0.052	-0.357
-678.208	352.914	-0.083	0.166
-677.193	-122.561	-0.196	0.032
-676.178	-9.239	-0.278	-0.188
-675.164	-200.000	-0.003	-0.199
-674.149	-14.822	0.428	-0.278
-673.135	-200.000	-0.021	-0.125
-672.120	-200.000	-0.025	0.213
-671.105	111.218	0.106	-0.129
-670.091	-45.963	-0.138	0.069
-669.076	-200.000	-0.015	-0.150
-668.062	-140.124	-0.317	-0.034
-667.047	800.000	0.129	0.392
-666.032	-94.922	-0.262	0.072
-665.018	-200.000	0.074	-0.573
-664.003	-145.425	-0.247	0.022
-662.989	-200.000	-0.001	-0.069
-661.974	-155.746	-0.528	0.034
-660.959	185.414	0.080	-0.121
-659.945	150.147	-0.057	-0.078
-658.930	147.418	-0.116	0.158
-657.916	-91.119	-0.478	-0.139
-656.901	-200.000	-0.057	-0.274
-655.886	13.848	0.107	-0.084
-654.872	118.747	0.089	-0.111
-653.857	-88.786	0.159	0.048
-652.843	30.971	-0.047	-0.040
-651.828	-200.000	0.007	0.057
-650.814	35.216	-0.159	0.141
-649.799	27.315	-0.082	-0.070
-648.784	-200.000	-0.040	0.212
-647.770	-75.709	-0.233	0.084
-646.755	165.058	0.157	0.224
-645.741	-94.328	0.079	0.022
-644.726	800.000	0.081	-0.296
-643.711	521.919	-0.179	-0.425
-642.697	-160.188	-0.231	0.013
-641.682	147.153	0.198	0.270
-640.668	-34.833	0.217	-0.120
-639.653	-120.385	-0.172	0.030
-638.638	800.000	-0.077	0.293
-637.624	5.413	-0.162	0.121
-636.609	5.727	-0.222	0.166
-635.595	4.638	-0.111	-0.083
-634.580	29.855	-0.176	0.151
-633.565	220.399	-0.008	-0.013
-632.551	-112.674	0.543	0.109
-631.536	-81.590	0.223	0.074
-630.522	-24.129	0.198	-0.120
-629.507	251.294	-0.127	0.219
-628.492	800.000	0.024	0.086
-627.478	-9.558	0.124	0.083
-626.463	-71.181	-0.442	0.168
-625.449	-32.970	0.126	-0.071
-624.434	800.000	-0.003	-0.010
-623.419	152.638	0.119	0.164
-622.405	-122.342	-0.233	-0.038
-621.390	-143.452	-0.106	-0.010
-620.376	-200.000	0.011	-0.130
-619.361	142.774	0.261	-0.350
-618.346	29.981	-0.128	-0.110
-617.332	-58.977	-0.362	-0.158
-616.317	-92.755	-0.105	-0.030
-615.303	91.200	0.049	-0.056
-614.288	-63.548	-0.205	-0.085
-613.273	-194.271	-0.394	-0.003
-612.259	-200.000	-0.054	-0.351
-611.244	39.518	0.059	0.054
-610.230	-200.000	0.055	0.403
-609.215	-69.751	0.087	-0.034
-608.201	-200.000	-0.020	-0.145
-607.186	87.031	-0.084	0.094
-606.171	59.975	-0.220	-0.219
-605.157	-57.633	0.157	0.070
-604.142	-200.000	-0.006	-0.336
-603.128	-200.000	0.033	-0.250
-602.113	442.518	-0.039	0.086
-601.098	-46.220	-0.098	0.049
-600.084	-200.000	0.109	0.566
-599.069	-57.980	0.167	-0.074
-598.055	-200.000	0.024	-0.233
-597.040	-24.855	-0.024	-0.014
-596.025	44.725	0.253	-0.234
-595.011	1.390	0.082	0.059
-593.996	800.000	0.024	0.097
-592.982	-160.962	0.086	-0.005
-591.967	159.332	-0.258	-0.362
-590.952	-55.014	0.286	0.130
-589.938	69.420	-0.188	0.195
-588.923	-200.000	-0.011	0.277
-587.909	-89.564	-0.240	0.071
-586.894	218.742	-0.142	0.229
-585.879	-104.327	0.411	-0.096
-584.865	800.000	-0.076	-0.234
-583.850	-200.000	0.014	-0.282
-582.836	193.850	0.162	0.247
-581.821	800.000	0.114	-0.426
-580.806	156.699	0.105	-0.147
-579.792	-66.086	-0.198	-0.080
-578.777	475.433	-0.074	-0.168
-577.763	800.000	0.026	0.086
-576.748	-66.417	0.063	0.025
-575.733	98.149	-0.028	0.033
-574.719	656.936	-0.047	0.123
-573.704	-125.060	-0.364	-0.056
-572.690	-200.000	-0.016	-0.162
-571.675	31.173	-0.075	0.065
-570.661	-49.305	0.214	0.103
-569.646	-111.756	-0.023	-0.005
-568.631	-200.000	0.012	0.139
-567.617	271.060	0.046	0.082
-566.602	-200.000	0.004	0.038
-565.588	-200.000	0.021	0.237
-564.573	150.109	0.075	0.102
-563.558	17.378	0.065	0.052
-562.544	-6.399	-0.188	-0.129
-561.529	-87.024	0.089	-0.027
-560.515	146.732	-0.112	-0.152
-559.500	95.014	0.153	-0.176
-558.485	4.402	-0.271	-0.200
-557.471	151.579	0.105	0.144
-556.456	800.000	0.046	-0.156
-555.442	24.073	0.061	0.051
-554.427	56.084	0.064	-0.063
-553.412	325.062	0.022	0.042
-552.398	-101.769	0.156	-0.038
-551.383	-61.737	0.056	0.024
-550.369	-49.878	-0.223	-0.107
-549.354	-78.747	-0.163	0.056
-548.339	108.517	-0.191	0.230
-547.325	26.800	0.070	-0.059
-546.310	12.623	-0.156	0.121
-545.296	800.000	0.033	-0.095
-544.281	188.816	0.164	0.247
-543.266	-200.000	-0.003	-0.161
-542.252	-159.335	-0.314	0.018
-541.237	12.789	-0.166	-0.129
-540.223	-200.000	0.070	-0.000
-539.208	204.768	-0.041	-0.064
-538.193	265.229	-0.138	0.242
-537.179	-97.567	-0.497	-0.130
-536.164	375.428	-0.138	-0.283
-535.150	124.316	-0.088	-0.111
-534.135	-122.122	-0.189	-0.031
-533.121	-112.143	-0.201	0.041
-532.106	-55.583	0.242	0.109
-531.091	24.199	0.084	-0.069
-530.077	-200.000	0.036	0.283
-529.062	-200.000	0.103	0.000
-528.048	84.529	-0.127	-0.140
-527.033	93.468	-0.167	-0.190
-526.018	-200.000	-0.000	-0.184
-525.004	-24.352	0.107	0.064
-523.989	-63.140	0.151	-0.063
-522.975	90.444	-0.052	-0.059
-521.960	164.505	-0.052	-0.074
-520.945	0.556	0.335	-0.241
-519.931	51.415	0.257	-0.246
-518.916	90.305	0.186	0.210
-517.902	-200.000	0.023	-0.271
-516.887	800.000	-0.171	-0.492
-515.872	75.242	-0.107	-0.114
-514.858	800.000	-0.050	-0.180
-513.843	800.000	-0.028	-0.122
-512.829	48.197	-0.410	-0.386
-511.814	800.000	0.079	0.345
-510.799	-200.000	-0.056	0.385
-509.785	-200.000	0.001	-0.178
-508.770	418.171	0.042	-0.091
-507.756	64.320	0.184	0.186
-506.741	-20.530	-0.189	-0.117
-505.726	-200.000	-0.026	-0.269
-504.712	-42.313	0.175	-0.090
-503.697	525.950	-0.162	-0.383
-502.683	-200.000	0.009	-0.145
-501.668	70.182	-0.067	0.070
-500.653	258.076	0.064	0.110
-499.639	-34.194	0.111	-0.061
-498.624	-200.000	0.009	0.091
-497.610	-151.323	-0.342	-0.026
-496.595	113.144	-0.207	0.252
-495.581	-102.424	-0.153	0.037
-494.566	190.463	0.098	-0.147
-493.551	-200.000	-0.000	0.117
-492.537	-73.206	0.319	-0.117
-491.522	422.416	-0.051	0.111
-490.508	125.474	-0.071	0.090
-489.493	-106.040	-0.297	-0.067
-488.478	336.443	0.111	-0.217
-487.464	800.000	-0.073	-0.229
-486.449	-22.877	-0.497	0.301
-485.435	235.581	-0.097	-0.161
-484.420	-46.832	0.071	-0.035
-483.405	-5.501	-0.274	-0.189
-482.391	-129.444	0.414	-0.058
-481.376	800.000	0.063	0.178
-480.362	-46.131	-0.212	0.105
-479.347	141.800	0.005	0.007
-478.332	-127.802	-0.112	-0.016
-477.318	-18.852	-0.239	0.149
-476.303	-169.959	-0.458	-0.016
-475.289	-94.963	-0.055	0.015
-474.274	-45.365	0.094	-0.047
-473.259	-94.075	-0.320	0.088
-472.245	-200.000	0.070	-0.333
-471.230	112.347	0.068	0.082
-470.216	-200.000	-0.021	0.110
-469.201	-72.460	0.251	-0.093
-468.186	-38.235	0.062	-0.033
-467.172	232.378	0.107	0.176
-466.157	9.528	-0.074	0.056
-465.143	-38.377	0.312	0.166
-464.128	56.400	0.238	0.232
-463.113	-81.357	0.032	0.011
-462.099	-125.710	0.192	0.029
-461.084	-176.050	0.318	-0.008
-460.070	91.899	0.141	-0.159
-459.055	-200.000	0.056	-0.294
-458.040	-200.000	-0.022	-0.437
-457.026	-200.000	-0.010	0.084
-456.011	-200.000	0.013	0.071
-454.997	385.914	-0.036	-0.074
-453.982	-84.544	0.145	0.046
-452.968	-145.033	0.009	-0.001
-451.953	-200.000	0.020	0.145
-450.938	-200.000	-0.002	0.048
-449.924	-32.617	-0.048	0.027
-448.909	-166.468	-0.233	-0.010
-447.895	-38.104	0.130	0.069
-446.880	288.876	-0.060	-0.108
-445.865	91.147	-0.226	0.255
-444.851	-200.000	-0.066	0.478
-443.836	-200.000	0.049	0.277
-442.822	147.437	0.077	-0.104
-441.807	-109.403	0.147	-0.031
-440.792	769.108	0.020	0.055
-439.778	-38.049	-0.167	0.089
-438.763	-97.043	-0.290	-0.076
-437.749	188.541	0.155	0.233
-436.734	-200.000	0.048	0.215
-435.719	-41.727	-0.090	-0.046
-434.705	262.805	-0.181	-0.315
-433.690	38.027	0.207	0.184
-432.676	182.321	-0.105	0.156
-431.661	120.326	-0.061	-0.076
-430.646	540.395	-0.068	0.162
-429.632	55.185	0.176	0.171
-428.617	-200.000	-0.031	-0.304
-427.603	583.910	0.038	0.094
-426.588	-200.000	-0.014	0.109
-425.573	800.000	-0.020	0.072
-424.559	249.103	0.027	0.046
-423.544	800.000	0.119	0.356
-422.530	82.882	0.191	0.209
-421.515	32.765	-0.061	0.053
-420.500	82.328	-0.263	-0.286
-419.486	255.613	-0.052	0.090
-418.471	-53.129	0.108	0.050
-417.457	178.142	0.110	-0.160
-416.442	-200.000	0.027	-0.179
-415.428	800.000	-0.059	0.242
-414.413	696.222	0.038	0.101
-413.398	49.434	-0.168	-0.159
-412.384	-57.620	-0.104	0.046
-411.369	-62.986	0.163	0.067
-410.355	-108.359	-0.151	-0.033
-409.340	83.835	-0.158	-0.173
-408.325	-145.644	0.275	-0.025
-407.311	800.000	-0.044	-0.192
-406.296	287.815	-0.074	0.134
-405.282	56.110	-0.382	-0.372
-404.267	-200.000	-0.013	0.238
-403.252	-200.000	0.065	-0.394
-402.238	-141.402	-0.222	-0.023
-401.223	77.160	-0.224	-0.238
-400.209	-35.935	0.059	0.032
-399.194	-200.000	-0.025	-0.186
-398.179	-159.867	-0.201	0.011
-397.165	-22.996	0.110	0.067
-396.150	546.942	0.093	0.222
-395.136	51.040	-0.097	0.093
-394.121	-32.804	-0.196	-0.109
-393.106	-120.107	0.359	0.062
-392.092	-53.037	-0.105	-0.049
-391.077	-5.600	0.270	0.185
-390.063	244.016	-0.108	-0.182
-389.048	-59.090	0.218	-0.094
-388.033	-188.601	-0.237	-0.003
-387.019	-200.000	-0.024	0.171
-386.004	-129.392	0.076	-0.011
-384.990	236.798	-0.159	0.264
-383.975	25.176	0.435	-0.361
-382.960	132.127	-0.164	-0.211
-381.946	-159.148	0.274	0.015
-380.931	665.121	0.074	0.191
-379.917	800.000	0.101	0.374
-378.902	87.656	-0.185	0.205
-377.888	800.000	-0.086	-0.337
-376.873	28.441	0.165	-0.139
-375.858	357.070	-0.041	0.082
-374.844	-22.240	-0.207	0.126
-373.829	-33.960	0.153	-0.084
-372.815	146.414	0.041	0.056
-371.800	136.059	-0.127	-0.166
-370.785	800.000	0.030	0.122
-369.771	543.475	-0.037	-0.087
-368.756	-124.068	-0.086	-0.013
-367.742	800.000	0.058	-0.221
-366.727	-98.586	-0.079	-0.020
-365.712	-114.580	-0.125	-0.024
-364.698	26.439	0.169	0.141
-363.683	800.000	-0.057	0.181
-362.669	-85.273	0.160	0.050
-361.654	-161.483	0.179	0.009
-360.639	-35.751	0.314	-0.170
-359.625	-200.000	0.065	-0.334
-358.610	-126.191	0.224	0.034
-357.596	-200.000	-0.004	0.234
-356.581	-38.348	-0.051	0.027
-355.566	-93.095	-0.169	0.047
-354.552	-65.188	0.244	-0.098
-353.537	433.004	0.066	0.142
-352.523	-200.000	0.595	0.003
-351.508	-200.000	-0.042	-0.353
-350.493	-200.000	0.055	-0.306
-349.479	-136.654	0.160	-0.019
-348.464	-200.000	-0.004	-0.035
-347.450	-22.174	0.108	-0.065
-346.435	369.496	-0.016	0.031
-345.420	-90.277	0.160	0.046
-344.406	-0.190	0.064	-0.045
-343.391	437.132	-0.035	-0.077
-342.377	-87.941	-0.344	0.103
-341.362	-48.577	-0.104	-0.050
-340.348	233.234	0.066	0.109
-339.333	117.260	-0.188	0.231
-338.318	-200.000	0.045	-0.283
-337.304	-200.000	0.019	-0.096
-336.289	-67.483	-0.171	0.067
-335.275	-59.407	-0.360	0.154
-334.260	-28.342	0.327	0.189
-333.245	10.833	0.177	-0.135
-332.231	689.689	-0.091	0.239
-331.216	27.756	-0.018	-0.015
-330.202	-143.357	-0.064	0.006
-329.187	-200.000	-0.027	-0.169
-328.172	14.358	0.098	0.076
-327.158	-160.655	0.257	-0.014
-326.143	-58.060	-0.122	-0.053
-325.129	-200.000	-0.005	0.272
-324.114	-47.087	0.152	0.074
-323.099	-103.109	-0.194	0.046
-322.085	413.883	-0.127	0.269
-321.070	-41.818	-0.163	0.083
-320.056	121.605	0.104	-0.130
-319.041	-200.000	-0.193	-0.001
-318.026	198.079	-0.131	0.200
-317.012	-7.051	-0.193	0.131
-315.997	-200.000	-0.047	-0.267
-314.983	-142.387	0.136	0.013
-313.968	-2.173	0.184	0.129
-312.953	24.848	0.109	-0.090
-311.939	296.301	-0.126	-0.230
-310.924	-200.000	0.003	-0.255
-309.910	-200.000	-0.065	0.313
-308.895	37.660	0.100	0.089
-307.880	-106.708	-0.299	0.066
-306.866	59.900	0.062	0.061
-305.851	126.953	-0.165	-0.209
-304.837	140.980	-0.280	0.369
-303.822	-200.000	-0.001	0.321
-302.807	109.049	0.089	-0.106
-301.793	242.595	-0.144	0.240
-300.778	-200.000	-0.011	-0.182
-299.764	28.137	0.313	-0.264
-298.749	-29.520	0.094	0.054
-297.735	184.717	0.138	0.204
-296.720	-200.000	0.013	-0.126
-295.705	295.186	0.123	-0.224
-294.691	415.127	-0.147	-0.313
-293.676	-27.338	-0.311	0.180
-292.662	79.689	0.192	-0.206
-291.647	-200.000	-0.013	0.081
-290.632	-200.000	-0.050	0.238
-289.618	800.000	0.104	-0.309
-288.603	-200.000	0.012	0.060
-287.589	232.012	-0.081	-0.132
-286.574	-45.764	0.120	-0.059
-285.559	75.264	-0.284	0.299
-284.545	76.188	0.067	0.071
-283.530	12.378	-0.147	0.113
-282.516	287.953	0.103	0.185
-281.501	-160.253	0.076	-0.004
-280.486	193.910	0.083	-0.126
-279.472	107.154	-0.142	0.168
-278.457	8.547	0.057	-0.043
-277.443	-146.511	-0.314	0.027
-276.428	271.674	-0.037	-0.065
-275.413	800.000	-0.043	0.164
-274.399	248.646	0.104	-0.175
-273.384	-142.660	0.094	-0.009
-272.370	800.000	-0.045	-0.124
-271.355	-200.000	0.031	-0.188
-270.340	-149.740	0.382	0.030
-269.326	-200.000	0.016	-0.251
-268.311	208.181	-0.077	0.119
-267.297	-140.886	0.042	0.004
-266.282	-200.000	-0.045	-0.278
-265.267	-53.166	-0.428	0.196
-264.253	-33.575	-0.134	-0.074
-263.238	-89.863	0.176	0.051
-262.224	-200.000	-0.099	0.500
-261.209	-179.475	0.206	0.004
-260.195	359.931	0.135	0.270
-259.180	45.277	0.144	-0.132
-258.165	128.765	0.217	0.276
-257.151	-149.018	0.434	0.035
-256.136	-200.000	-0.022	-0.473
-255.122	-194.759	-0.262	-0.002
-254.107	-200.000	0.306	0.001
-253.092	-200.000	0.008	0.279
-252.078	-79.666	0.112	0.038
-251.063	251.603	-0.130	0.220
-250.049	-119.194	0.279	0.048
-249.034	-14.778	0.098	-0.062
-248.019	-93.356	-0.206	0.057
-247.005	-168.821	0.153	-0.006
-245.990	-160.764	-0.167	0.009
-244.976	-106.922	-0.048	-0.011
-243.961	-63.322	0.216	-0.088
-242.946	-200.000	0.034	0.183
-241.932	22.451	0.334	-0.272
-240.917	-123.181	-0.150	0.024
-239.903	13.798	-0.315	0.244
-238.888	-20.168	-0.164	0.101
-237.873	-200.000	0.069	0.303
-236.859	18.238	0.024	-0.019
-235.844	396.346	0.260	0.541
-234.830	-34.108	0.188	-0.103
-233.815	-93.528	-0.268	-0.074
-232.800	-200.000	-0.017	0.133
-231.786	41.329	0.171	-0.154
-230.771	108.196	-0.179	0.212
-229.757	800.000	-0.094	0.341
-228.742	139.569	0.169	0.221
-227.727	-8.293	0.391	0.262
-226.713	-30.110	-0.271	-0.153
-225.698	-51.173	-0.310	0.145
-224.684	-11.080	0.085	-0.056
-223.669	-92.822	0.204	-0.057
-222.655	19.045	-0.115	0.091
-221.640	-200.000	-0.026	-0.307
-220.625	-68.630	-0.176	0.068
-219.611	148.712	-0.176	-0.237
-218.596	800.000	-0.074	0.309
-217.582	800.000	-0.055	-0.238
-216.567	177.467	-0.215	0.312
-215.552	800.000	0.041	0.140
-214.538	-200.000	-0.007	0.103
-213.523	-133.415	0.235	-0.029
-212.509	710.410	-0.018	0.049
-211.494	200.489	-0.152	-0.232
-210.479	251.574	0.059	-0.100
-209.465	120.807	0.246	-0.304
-208.450	-77.519	0.218	0.075
-207.436	-28.385	-0.269	0.154
-206.421	172.406	0.227	-0.324
-205.406	-155.052	0.273	-0.018
-204.392	-85.128	0.265	-0.083
-203.377	265.321	-0.071	0.123
-202.363	-200.000	-0.042	-0.228
-201.348	800.000	0.107	0.295
-200.333	739.127	-0.052	0.138
-199.319	-78.560	-0.409	0.139
-198.304	698.680	-0.052	0.136
-197.290	89.874	0.192	0.213
-196.275	369.995	-0.162	-0.326
-195.260	-77.194	0.536	-0.185
-194.246	-200.000	0.058	0.324
-193.231	800.000	0.040	0.144
-192.217	-156.152	0.203	-0.013
-191.202	777.509	0.096	-0.261
-190.187	302.371	0.174	-0.321
-189.173	-146.153	0.046	0.004
-188.158	118.213	-0.050	-0.062
-187.144	800.000	-0.082	-0.350
-186.129	-99.765	-0.158	0.039
-185.114	16.586	0.142	0.112
-184.100	696.386	-0.017	0.045
-183.085	800.000	-0.019	-0.072
-182.071	-81.836	0.291	0.095
-181.056	232.076	-0.126	0.205
-180.042	-200.000	-0.056	-0.280
-179.027	-127.966	-0.311	-0.044
-178.012	-82.434	0.259	-0.083
-176.998	167.362	0.110	-0.155
-175.983	253.071	-0.203	-0.343
-174.969	-24.036	0.241	-0.143
-173.954	-200.000	0.023	-0.349
-172.939	-31.529	-0.050	0.028
-171.925	353.454	-0.138	0.271
-170.910	-200.000	-0.008	0.056
-169.896	800.000	0.059	-0.211
-168.881	-140.774	0.181	-0.019
-167.866	336.683	0.082	0.158
-166.852	800.000	-0.055	-0.174
-165.837	231.754	0.060	-0.098
-164.823	800.000	-0.064	0.217
-163.808	31.830	-0.154	-0.131
-162.793	23.626	0.146	-0.120
-161.779	-113.766	0.381	0.074
-160.764	450.940	0.116	0.255
-159.750	-180.368	0.131	0.003
-158.735	800.000	-0.071	0.225
-157.720	-50.421	0.146	0.068
-156.706	-145.893	0.192	-0.017
-155.691	451.717	-0.069	0.152
-154.677	800.000	0.038	0.148
-153.662	-200.000	0.021	-0.438
-152.647	800.000	-0.137	0.385
-151.633	-60.578	0.174	0.073
-150.618	800.000	0.067	0.252
-149.604	-200.000	0.013	0.199
-148.589	8.671	0.163	0.122
-147.574	-69.081	0.014	0.006
-146.560	-200.000	0.006	-0.183
-145.545	-15.322	0.168	0.106
-144.531	82.996	-0.039	0.042
-143.516	-124.074	0.233	0.036
-142.502	374.189	0.062	0.126
-141.487	-129.273	0.353	0.049
-140.472	233.706	0.008	0.013
-139.458	440.238	0.156	-0.339
-138.443	638.067	-0.114	-0.288
-137.429	-200.000	-0.018	-0.420
-136.414	54.181	-0.288	0.275
-135.399	22.712	0.064	-0.052
-134.385	276.428	-0.117	-0.205
-133.370	-200.000	0.042	-0.343
-132.356	734.030	0.069	-0.183
-131.341	374.691	0.091	-0.183
-130.326	87.276	-0.144	0.158
-129.312	-91.892	-0.141	0.040
-128.297	-52.781	0.072	0.033
-127.283	-200.000	-0.034	-0.164
-126.268	178.328	0.102	-0.147
-125.253	-58.152	-0.285	0.123
-124.239	424.232	0.156	0.332
-123.224	800.000	0.065	0.188
-122.210	-200.000	-0.010	-0.086
-121.195	-42.659	0.246	0.124
