DTS Sentinel unit serial number:	SN413079Multiplexer serial number:	ORYXHardware model number:	OX4-SRSoftware version number:	ORYX F/W v4.00 Oryx Data Collector v3.7.2.0data status	okinstallation	princeton_trtdifferential loss correction	single-endedforward channel	channel 1reverse channel	N/Adate	2019/09/12time	00:16:11forward acquisition time	60.00reverse acquisition time	0.00gamma	496.2192k internal	0.2318k external	0.2318temperature offset calibration	1.0073default loss term (dB/km)	0.3790temperature slope calibration	1.0000multiplexer offset coefficient	1.0000multiplexer slope coefficient	1.0000fibre end	0.00T internal ref (°C)	33.56T ext. ref 1 (°C)	2.02T ext. ref 2 (°C)	27.87length (m)	temperature (°C)	Stokes	anti-Stokes-747.200	-74.930	0.271	-0.098
-746.185	800.000	0.145	0.465
-745.171	-62.366	0.132	0.056
-744.156	-147.305	-0.611	-0.053
-743.142	198.682	0.204	0.316
-742.127	-74.984	-0.226	0.082
-741.112	408.551	-0.043	0.093
-740.098	-44.273	-0.237	0.120
-739.083	-108.172	0.291	-0.064
-738.069	-142.657	-0.284	0.028
-737.054	188.832	-0.070	-0.105
-736.039	-118.149	-0.354	-0.064
-735.025	-56.671	0.113	-0.051
-734.010	-94.462	-0.172	0.047
-732.996	-200.000	-0.024	-0.166
-731.981	-72.399	-0.180	0.067
-730.966	-200.000	0.008	0.039
-729.952	86.083	-0.223	-0.248
-728.937	-131.999	0.219	0.029
-727.923	-200.000	0.009	-0.162
-726.908	-6.139	0.073	-0.050
-725.894	15.089	-0.087	-0.069
-724.879	49.977	0.109	0.104
-723.864	138.927	-0.130	0.173
-722.850	55.829	-0.198	-0.195
-721.835	-106.293	0.185	0.042
-720.821	-129.304	0.142	0.020
-719.806	-200.000	0.011	-0.201
-718.791	140.872	-0.058	0.077
-717.777	16.668	-0.196	-0.157
-716.762	126.271	-0.071	-0.090
-715.748	279.394	-0.063	-0.113
-714.733	131.873	-0.264	-0.343
-713.718	-30.166	-0.276	0.158
-712.704	346.011	-0.038	-0.076
-711.689	250.795	-0.066	-0.113
-710.675	-200.000	-0.052	0.259
-709.660	121.572	0.108	-0.136
-708.645	196.679	-0.077	0.118
-707.631	207.892	-0.250	0.395
-706.616	-200.000	-0.006	0.034
-705.602	-177.417	-0.241	0.006
-704.587	-40.421	-0.257	0.135
-703.572	-200.000	0.042	-0.367
-702.558	441.691	-0.059	-0.130
-701.543	800.000	0.044	-0.186
-700.529	140.764	-0.079	0.105
-699.514	-137.520	0.336	0.038
-698.499	-200.000	-0.014	0.121
-697.485	-200.000	0.006	0.182
-696.470	-142.081	0.293	0.029
-695.456	227.665	-0.109	-0.180
-694.441	-24.401	-0.129	-0.078
-693.426	-173.794	-0.123	-0.004
-692.412	80.383	0.157	0.171
-691.397	122.187	-0.118	-0.149
-690.383	-4.275	-0.110	0.077
-689.368	386.577	-0.079	-0.165
-688.354	800.000	-0.064	0.268
-687.339	-150.690	-0.441	0.034
-686.324	40.639	0.178	0.162
-685.310	-53.329	-0.416	-0.193
-684.295	-95.833	0.055	0.015
-683.281	-30.436	0.095	0.055
-682.266	-41.850	-0.170	0.088
-681.251	-150.400	-0.109	-0.008
-680.237	78.321	0.196	-0.212
-679.222	800.000	-0.066	-0.240
-678.208	-32.121	0.269	0.152
-677.193	-47.996	0.143	-0.070
-676.178	-181.553	-0.039	0.001
-675.164	317.427	-0.099	0.189
-674.149	-23.968	-0.179	0.108
-673.135	29.139	-0.198	-0.169
-672.120	304.221	-0.094	-0.177
-671.105	-0.117	-0.096	0.069
-670.091	16.411	-0.039	0.031
-669.076	-112.654	0.339	-0.068
-668.062	-82.259	-0.337	-0.111
-667.047	524.059	0.064	-0.152
-666.032	-146.320	-0.188	-0.017
-665.018	780.616	-0.077	0.211
-664.003	-160.391	0.313	0.017
-662.989	7.880	0.127	0.096
-661.974	-200.000	-0.007	0.165
-660.959	155.739	0.283	-0.393
-659.945	-200.000	-0.014	0.219
-658.930	-69.698	0.162	0.062
-657.916	-123.489	-0.161	-0.026
-656.901	26.895	0.441	-0.373
-655.886	-93.706	0.278	0.077
-654.872	-18.209	-0.182	0.115
-653.857	-200.000	0.009	-0.147
-652.843	238.413	0.140	-0.235
-651.828	3.805	0.197	0.145
-650.814	65.186	-0.055	-0.056
-649.799	163.248	-0.151	-0.214
-648.784	-200.000	-0.019	0.126
-647.770	800.000	0.027	0.102
-646.755	-35.076	-0.317	-0.174
-645.741	-22.050	-0.202	-0.123
-644.726	-200.000	-0.021	-0.115
-643.711	-150.691	0.379	-0.029
-642.697	-200.000	-0.118	0.569
-641.682	-200.000	-0.003	0.088
-640.668	-106.659	0.156	-0.035
-639.653	729.430	0.034	0.090
-638.638	-69.059	0.046	0.018
-637.624	-200.000	-0.068	0.411
-636.609	-75.502	0.208	0.075
-635.595	800.000	-0.065	0.258
-634.580	79.720	-0.211	0.229
-633.565	122.660	0.098	0.124
-632.551	51.384	-0.249	0.239
-631.536	-95.160	-0.046	-0.013
-630.522	-126.049	0.150	-0.023
-629.507	-99.076	0.200	0.051
-628.492	-141.972	0.076	0.008
-627.478	-117.652	-0.243	-0.044
-626.463	-7.208	-0.193	-0.132
-625.449	-9.473	-0.209	-0.141
-624.434	-142.539	-0.173	0.017
-623.419	-20.573	0.072	0.044
-622.405	388.238	-0.120	0.251
-621.390	224.070	-0.074	0.120
-620.376	-200.000	-0.089	-0.471
-619.361	-200.000	0.015	-0.348
-618.346	-200.000	0.036	-0.308
-617.332	-137.885	0.059	-0.007
-616.317	800.000	0.054	0.222
-615.303	10.319	0.053	-0.041
-614.288	-161.641	0.250	-0.013
-613.273	180.674	0.126	-0.187
-612.259	-83.814	-0.169	-0.054
-611.244	17.535	-0.126	-0.101
-610.230	-200.000	-0.001	0.012
-609.215	59.286	-0.050	0.049
-608.201	-40.524	-0.145	-0.076
-607.186	-118.761	-0.037	-0.007
-606.171	-2.488	-0.201	-0.142
-605.157	800.000	0.047	0.131
-604.142	-15.226	-0.116	-0.075
-603.128	200.525	0.195	-0.301
-602.113	573.259	0.052	-0.127
-601.098	-113.159	0.052	0.010
-600.084	-200.000	-0.003	0.244
-599.069	46.654	0.084	-0.078
-598.055	-79.493	-0.135	0.046
-597.040	-200.000	-0.003	0.109
-596.025	-200.000	0.007	0.080
-595.011	140.950	-0.162	-0.216
-593.996	173.125	0.065	-0.094
-592.982	-200.000	-0.078	0.362
-591.967	-200.000	0.001	0.241
-590.952	-2.554	0.251	0.177
-589.938	188.865	0.069	-0.105
-588.923	800.000	-0.055	-0.167
-587.909	-23.015	-0.060	0.036
-586.894	-153.796	0.603	-0.042
-585.879	123.138	0.019	-0.024
-584.865	345.397	0.049	-0.097
-583.850	162.473	0.311	-0.439
-582.836	321.685	-0.098	-0.188
-581.821	-78.379	-0.158	-0.054
-580.806	-79.937	-0.361	0.122
-579.792	113.290	0.173	0.211
-578.777	-35.464	-0.122	-0.066
-577.763	-200.000	0.024	-0.163
-576.748	-31.169	0.177	-0.100
-575.733	-200.000	-0.041	-0.389
-574.719	-23.171	-0.289	-0.175
-573.704	-200.000	-0.095	0.460
-572.690	363.187	-0.115	0.233
-571.675	211.606	0.122	-0.193
-570.661	-81.101	0.186	0.062
-569.646	519.516	0.161	0.380
-568.631	380.276	-0.078	0.162
-567.617	15.844	-0.256	-0.203
-566.602	-55.698	0.157	0.070
-565.588	-146.302	0.269	0.024
-564.573	-200.000	-0.016	0.082
-563.558	-24.580	-0.023	0.014
-562.544	-33.062	0.365	0.203
-561.529	-200.000	-0.009	-0.135
-560.515	-67.412	0.210	-0.083
-559.500	-50.412	0.148	-0.070
-558.485	-200.000	0.005	0.141
-557.471	236.876	0.087	0.144
-556.456	-109.918	0.251	0.053
-555.442	0.550	0.345	0.248
-554.427	179.455	-0.165	0.243
-553.412	800.000	0.070	0.262
-552.398	-150.182	-0.250	-0.019
-551.383	145.419	0.260	0.349
-550.369	511.436	-0.063	-0.147
-549.354	44.957	0.141	-0.131
-548.339	285.222	0.088	0.159
-547.325	-49.097	0.170	-0.082
-546.310	800.000	0.043	0.135
-545.296	495.593	-0.107	0.248
-544.281	-100.665	0.242	-0.060
-543.266	235.973	0.235	-0.390
-542.252	-200.000	0.011	0.272
-541.237	-97.612	-0.129	-0.034
-540.223	-9.949	0.137	0.092
-539.208	69.780	0.108	-0.112
-538.193	-136.616	0.225	-0.026
-537.179	-200.000	0.024	-0.116
-536.164	-52.033	0.296	0.138
-535.150	81.065	-0.170	0.184
-534.135	-59.684	-0.235	0.101
-533.121	127.327	-0.117	0.149
-532.106	-59.648	-0.088	-0.038
-531.091	-200.000	-0.005	-0.148
-530.077	-61.426	0.230	-0.097
-529.062	-200.000	0.048	0.303
-528.048	174.972	0.166	0.241
-527.033	146.600	-0.203	0.274
-526.018	-200.000	0.020	-0.163
-525.004	-106.801	0.355	0.079
-523.989	-18.538	-0.381	-0.238
-522.975	125.085	0.299	-0.377
-521.960	-200.000	-0.015	0.416
-520.945	-200.000	0.009	-0.242
-519.931	-2.640	0.071	0.050
-518.916	251.332	-0.137	0.233
-517.902	140.009	-0.203	-0.269
-516.887	-141.755	-0.300	0.030
-515.872	-200.000	-0.023	-0.196
-514.858	-120.176	-0.150	0.026
-513.843	-200.000	-0.009	0.093
-512.829	800.000	0.018	0.072
-511.814	-18.829	-0.252	0.157
-510.799	17.067	0.304	-0.242
-509.785	15.284	-0.121	-0.095
-508.770	-101.016	-0.199	-0.049
-507.756	42.900	-0.142	-0.130
-506.741	523.669	-0.162	0.381
-505.726	-140.485	0.393	0.041
-504.712	800.000	0.147	-0.555
-503.697	-78.558	-0.286	0.098
-502.683	-37.827	0.284	0.152
-501.668	-7.071	-0.258	0.175
-500.653	23.819	0.032	-0.027
-499.639	-97.224	0.370	0.097
-498.624	-36.134	-0.214	-0.116
-497.610	8.875	-0.207	-0.156
-496.595	-50.779	-0.235	-0.111
-495.581	-170.157	-0.009	0.000
-494.566	800.000	0.037	0.156
-493.551	-39.372	0.065	0.034
-492.537	-200.000	0.038	-0.247
-491.522	187.094	0.147	0.219
-490.508	183.478	-0.126	0.187
-489.493	800.000	0.024	-0.095
-488.478	446.401	-0.070	0.155
-487.464	800.000	-0.040	-0.149
-486.449	-14.162	0.252	-0.163
-485.435	79.728	-0.254	-0.274
-484.420	403.726	0.160	-0.337
-483.405	800.000	-0.059	-0.199
-482.391	-31.249	0.212	0.119
-481.376	800.000	-0.070	0.242
-480.362	342.755	0.051	0.100
-479.347	-200.000	0.008	-0.127
-478.332	-113.917	-0.275	-0.053
-477.318	-70.392	0.185	-0.070
-476.303	-90.452	0.214	0.062
-475.289	1.612	0.121	-0.087
-474.274	63.260	-0.084	-0.084
-473.259	-70.533	-0.278	0.106
-472.245	-119.283	0.355	0.062
-471.230	-157.847	0.298	-0.018
-470.216	-81.883	-0.339	0.111
-469.201	800.000	-0.035	0.105
-468.186	223.471	-0.051	-0.082
-467.172	-200.000	0.042	-0.399
-466.157	800.000	-0.077	0.234
-465.143	-20.695	-0.250	-0.153
-464.128	-200.000	-0.012	-0.223
-463.113	-177.775	0.365	0.009
-462.099	-200.000	-0.027	-0.209
-461.084	49.516	0.135	0.127
-460.070	-115.518	-0.216	0.041
-459.055	110.535	-0.141	0.170
-458.040	88.461	-0.288	0.320
-457.026	71.835	0.093	0.096
-456.011	266.254	0.109	-0.190
-454.997	-40.986	-0.205	0.106
-453.982	-37.905	-0.366	0.195
-452.968	800.000	-0.133	0.383
-451.953	-21.769	-0.285	0.174
-450.938	-38.642	-0.277	0.146
-449.924	800.000	-0.056	0.173
-448.909	0.975	-0.309	-0.222
-447.895	-200.000	-0.025	-0.331
-446.880	800.000	-0.017	-0.053
-445.865	-117.830	-0.320	0.058
-444.851	58.650	0.040	0.039
-443.836	411.996	0.062	0.131
-442.822	424.429	-0.123	-0.265
-441.807	10.791	-0.305	0.233
-440.792	1.022	0.139	-0.100
-439.778	67.917	0.182	0.186
-438.763	-93.819	-0.157	-0.043
-437.749	-153.331	0.214	0.015
-436.734	-144.349	0.184	0.017
-435.719	-52.452	-0.202	-0.094
-434.705	-200.000	0.051	0.420
-433.690	140.755	-0.077	-0.102
-432.676	-113.473	-0.157	0.031
-431.661	-154.216	0.042	0.003
-430.646	-120.351	-0.226	-0.038
-429.632	398.611	0.030	0.062
-428.617	-139.478	-0.179	-0.019
-427.603	190.952	0.116	-0.175
-426.588	-25.501	-0.054	-0.032
-425.573	-9.984	-0.345	-0.229
-424.559	18.736	-0.128	0.102
-423.544	-105.752	-0.157	0.035
-422.530	-68.122	0.337	0.131
-421.515	-44.116	0.185	-0.093
-420.500	168.392	0.243	-0.345
-419.486	-10.834	0.093	0.061
-418.471	-127.048	-0.170	0.025
-417.457	-26.193	0.221	0.129
-416.442	-96.310	0.052	-0.014
-415.428	65.647	-0.239	-0.242
-414.413	-90.619	-0.170	-0.049
-413.398	-102.435	-0.082	-0.020
-412.384	40.150	-0.075	-0.067
-411.369	-70.954	0.310	-0.117
-410.355	-65.456	-0.195	-0.078
-409.340	27.725	0.117	0.098
-408.325	-200.000	-0.003	-0.189
-407.311	242.417	-0.038	0.064
-406.296	800.000	0.055	-0.223
-405.282	-200.000	-0.068	-0.461
-404.267	105.665	0.058	0.068
-403.252	96.354	-0.237	0.270
-402.238	-161.785	0.426	-0.022
-401.223	-1.239	0.140	-0.099
-400.209	-200.000	-0.019	0.258
-399.194	-144.718	0.259	0.024
-398.179	510.020	0.079	-0.184
-397.165	752.595	0.129	-0.349
-396.150	-80.431	0.154	-0.051
-395.136	125.792	0.160	-0.202
-394.121	-200.000	0.044	-0.222
-393.106	-200.000	-0.000	0.004
-392.092	-169.135	0.113	0.004
-391.077	420.892	-0.096	0.205
-390.063	-157.438	0.207	-0.012
-389.048	-9.129	-0.186	0.124
-388.033	800.000	-0.075	0.256
-387.019	-39.728	-0.170	-0.089
-386.004	-105.894	0.088	0.020
-384.990	-200.000	-0.030	0.176
-383.975	510.708	0.071	-0.165
-382.960	106.884	0.057	-0.068
-381.946	314.386	-0.011	-0.022
-380.931	800.000	0.037	-0.134
-379.917	46.575	0.114	0.105
-378.902	-144.647	-0.212	0.020
-377.888	-50.595	0.210	0.099
-376.873	419.267	-0.113	0.240
-375.858	49.406	-0.109	-0.103
-374.844	-200.000	-0.003	-0.375
-373.829	-24.298	0.201	-0.119
-372.815	-163.707	0.302	0.014
-371.800	-200.000	-0.022	0.222
-370.785	-200.000	0.009	0.100
-369.771	-32.377	-0.152	-0.085
-368.756	72.055	0.078	0.081
-367.742	-110.705	-0.259	0.053
-366.727	-200.000	-0.015	0.117
-365.712	-200.000	0.001	-0.196
-364.698	188.185	0.110	0.163
-363.683	-102.070	-0.252	0.061
-362.669	-77.038	0.141	0.049
-361.654	264.172	-0.142	-0.246
-360.639	126.129	-0.130	0.164
-359.625	-138.128	-0.162	-0.018
-358.610	-93.246	-0.254	0.070
-357.596	-200.000	0.000	-0.080
-356.581	32.311	0.088	0.076
-355.566	-56.282	-0.341	-0.151
-354.552	-116.586	0.088	0.016
-353.537	127.449	0.042	-0.054
-352.523	111.228	0.048	-0.058
-351.508	143.445	-0.245	-0.325
-350.493	-200.000	-0.018	0.166
-349.479	-200.000	-0.005	-0.180
-348.464	-200.000	-0.034	-0.398
-347.450	-162.393	-0.114	-0.006
-346.435	-200.000	0.026	0.165
-345.420	316.178	0.138	-0.260
-344.406	102.198	-0.126	0.146
-343.391	712.026	0.104	0.275
-342.377	403.236	-0.113	0.237
-341.362	-78.990	0.219	-0.074
-340.348	-12.740	0.210	0.136
-339.333	800.000	-0.051	0.209
-338.318	-126.005	-0.211	0.032
-337.304	147.256	0.199	0.266
-336.289	-61.147	-0.130	0.055
-335.275	591.720	0.040	-0.097
-334.260	-90.056	-0.348	-0.101
-333.245	-200.000	-0.003	0.059
-332.231	-111.477	0.135	-0.027
-331.216	800.000	-0.081	-0.279
-330.202	-0.853	-0.066	0.047
-329.187	800.000	-0.007	0.028
-328.172	172.348	-0.129	-0.184
-327.158	-200.000	-0.012	0.294
-326.143	5.795	-0.243	-0.179
-325.129	800.000	-0.063	-0.220
-324.114	-62.884	0.360	0.148
-323.099	-200.000	-0.019	-0.242
-322.085	39.439	0.145	-0.129
-321.070	-200.000	-0.054	0.288
-320.056	800.000	-0.045	0.175
-319.041	-102.223	0.086	0.021
-318.026	283.832	0.144	-0.258
-317.012	251.286	0.020	-0.034
-315.997	45.217	-0.169	-0.155
-314.983	-200.000	0.035	-0.242
-313.968	-84.065	-0.389	0.123
-312.953	670.889	-0.074	0.190
-311.939	-35.877	-0.031	0.017
-310.924	351.568	-0.099	0.195
-309.910	38.463	0.158	0.140
-308.895	-200.000	0.046	-0.311
-307.880	-200.000	0.009	-0.312
-306.866	-103.082	-0.140	0.033
-305.851	-138.158	0.341	0.038
-304.837	24.910	0.076	0.063
-303.822	2.374	0.141	0.102
-302.807	79.651	-0.026	-0.027
-301.793	-200.000	-0.004	-0.317
-300.778	-3.415	0.113	0.078
-299.764	389.380	0.130	-0.268
-298.749	22.844	-0.110	-0.090
-297.735	126.451	0.184	-0.232
-296.720	56.820	-0.322	-0.312
-295.705	183.633	0.181	0.267
-294.691	-9.802	-0.333	0.220
-293.676	-35.951	-0.183	0.098
-292.662	674.194	0.056	-0.143
-291.647	-200.000	-0.028	-0.139
-290.632	-163.949	-0.273	0.013
-289.618	-5.195	0.117	0.080
-288.603	-200.000	0.020	0.126
-287.589	-200.000	0.041	0.378
-286.574	657.982	0.099	0.253
-285.559	-200.000	0.003	-0.179
-284.545	-200.000	0.002	-0.186
-283.530	800.000	-0.124	0.361
-282.516	-94.674	0.201	0.054
-281.501	-140.037	-0.302	-0.032
-280.486	-53.880	0.016	-0.007
-279.472	-200.000	-0.020	0.238
-278.457	-139.431	0.097	0.010
-277.443	-200.000	0.029	-0.243
-276.428	-200.000	-0.039	-0.184
-275.413	571.222	-0.045	0.110
-274.399	68.809	-0.346	-0.353
-273.384	-102.196	0.238	0.057
-272.370	544.605	-0.114	0.271
-271.355	-86.229	0.385	0.118
-270.340	189.200	-0.105	0.157
-269.326	800.000	0.018	-0.052
-268.311	800.000	0.101	-0.331
-267.297	304.449	-0.130	-0.240
-266.282	-54.648	-0.262	-0.118
-265.267	800.000	0.030	-0.110
-264.253	-129.859	0.308	-0.042
-263.238	-12.761	0.321	-0.208
-262.224	360.575	-0.174	-0.347
-261.209	800.000	0.070	-0.223
-260.195	800.000	-0.046	-0.196
-259.180	246.347	-0.135	0.226
-258.165	353.061	-0.100	-0.197
-257.151	-200.000	0.018	-0.138
-256.136	-186.369	-0.164	-0.002
-255.122	-200.000	-0.021	0.238
-254.107	800.000	-0.006	0.018
-253.092	55.640	0.101	0.097
-252.078	40.181	-0.052	-0.046
-251.063	-69.407	0.402	-0.153
-250.049	-200.000	-0.012	0.081
-249.034	-135.732	-0.434	-0.051
-248.019	800.000	-0.102	0.338
-247.005	104.066	0.065	-0.076
-245.990	-120.836	0.272	-0.046
-244.976	2.978	-0.093	-0.067
-243.961	-146.049	0.231	0.020
-242.946	330.488	-0.047	0.089
-241.932	-149.883	0.350	-0.027
-240.917	175.318	0.252	0.362
-239.903	-90.331	0.197	0.057
-238.888	228.795	0.186	-0.302
-237.873	-13.837	0.038	-0.024
-236.859	62.710	0.143	-0.142
-235.844	-46.576	0.084	-0.041
-234.830	-67.013	0.224	0.088
-233.815	49.105	0.214	-0.200
-232.800	-200.000	0.010	-0.492
-231.786	800.000	-0.053	0.215
-230.771	14.506	-0.326	0.252
-229.757	800.000	-0.067	0.277
-228.742	800.000	-0.018	-0.067
-227.727	-74.482	-0.104	0.037
-226.713	501.284	0.063	-0.143
-225.698	326.500	0.109	-0.208
-224.684	-32.193	0.015	-0.008
-223.669	231.727	0.202	0.328
-222.655	-94.120	0.354	0.096
-221.640	-147.939	-0.331	0.027
-220.625	-67.089	-0.277	-0.108
-219.611	296.658	0.185	0.337
-218.596	36.650	-0.147	0.129
-217.582	-144.805	0.374	-0.034
-216.567	52.963	0.250	-0.237
-215.552	-61.789	0.263	-0.109
-214.538	338.026	0.080	0.154
-213.523	161.883	0.059	-0.081
-212.509	108.873	-0.143	-0.170
-211.494	-68.565	-0.350	0.134
-210.479	-200.000	0.009	-0.070
-209.465	-200.000	0.061	0.306
-208.450	-200.000	0.020	-0.448
-207.436	99.086	-0.193	0.221
-206.421	-200.000	-0.051	0.408
-205.406	547.826	-0.027	-0.063
-204.392	-177.296	0.223	-0.005
-203.377	106.192	-0.108	-0.127
-202.363	-200.000	-0.006	0.099
-201.348	800.000	-0.068	0.256
-200.333	-52.016	-0.337	-0.155
-199.319	-0.935	0.065	-0.046
-198.304	202.853	-0.094	-0.145
-197.290	-170.289	0.123	-0.004
-196.275	148.081	-0.046	-0.061
-195.260	-200.000	0.019	-0.284
-194.246	-112.307	0.057	0.011
-193.231	-116.705	0.263	0.048
-192.217	557.801	-0.127	0.302
-191.202	-200.000	-0.010	0.245
-190.187	24.403	0.042	-0.034
-189.173	-101.155	0.144	-0.035
-188.158	-5.289	-0.224	0.153
-187.144	-190.095	-0.366	0.004
-186.129	-62.585	-0.184	0.076
-185.114	-131.207	-0.305	-0.040
-184.100	-200.000	0.008	0.236
-183.085	-7.672	0.313	-0.209
-182.071	231.247	-0.075	0.122
-181.056	-125.719	0.206	0.031
-180.042	-200.000	0.009	0.106
-179.027	142.221	-0.153	0.201
-178.012	214.687	-0.210	0.329
-176.998	-200.000	-0.033	0.241
-175.983	463.437	-0.067	-0.149
-174.969	-34.069	0.104	-0.056
-173.954	-21.542	-0.129	-0.078
-172.939	177.711	-0.192	-0.277
-171.925	-97.553	0.192	0.049
-170.910	-23.306	-0.238	-0.142
-169.896	-200.000	0.003	-0.118
-168.881	192.098	0.173	-0.258
-167.866	41.812	0.217	-0.195
-166.852	-50.487	-0.178	0.083
-165.837	-200.000	0.035	-0.264
-164.823	154.894	-0.103	0.140
-163.808	800.000	0.038	-0.119
-162.793	-5.593	0.270	0.183
-161.779	-70.668	0.229	-0.086
-160.764	-139.661	0.313	0.033
-159.750	-79.846	-0.108	-0.036
-158.735	-43.881	-0.264	-0.131
-157.720	155.504	-0.102	0.138
-156.706	-54.722	0.230	0.103
-155.691	-200.000	0.032	0.256
-154.677	-200.000	0.034	0.185
-153.662	800.000	0.044	0.154
-152.647	103.260	0.055	0.064
-151.633	-101.798	0.197	-0.047
-150.618	-7.400	0.232	-0.155
-149.604	95.523	-0.146	0.165
-148.589	-200.000	-0.031	0.230
-147.574	-87.130	0.282	0.085
-146.560	800.000	-0.031	-0.098
-145.545	-24.440	0.313	-0.184
-144.531	-200.000	0.013	0.356
-143.516	79.331	-0.146	0.155
-142.502	-160.108	0.417	-0.022
-141.487	87.256	0.023	-0.025
-140.472	59.415	0.132	-0.128
-139.458	168.556	0.169	-0.237
-138.443	-200.000	0.014	0.313
-137.429	-105.967	-0.154	0.034
-136.414	-110.187	-0.175	0.036
-135.399	800.000	-0.107	-0.381
-134.385	-200.000	0.007	-0.076
-133.370	-200.000	0.010	-0.217
-132.356	669.519	0.008	-0.020
-131.341	-0.726	-0.198	-0.139
-130.326	-31.116	0.433	0.241
-129.312	-76.439	0.387	-0.134
-128.297	-76.894	-0.081	0.028
-127.283	-81.400	0.135	0.044
-126.268	-144.521	0.191	-0.017
-125.253	-138.305	0.220	-0.024
-124.239	800.000	-0.087	0.297
-123.224	-200.000	0.026	-0.218
-122.210	-200.000	-0.036	0.263
