DTS Sentinel unit serial number:	SN413079Multiplexer serial number:	ORYXHardware model number:	OX4-SRSoftware version number:	ORYX F/W v4.00 Oryx Data Collector v3.7.2.0data status	okinstallation	princeton_trtdifferential loss correction	single-endedforward channel	channel 1reverse channel	N/Adate	2019/09/11time	11:40:11forward acquisition time	60.00reverse acquisition time	0.00gamma	496.2192k internal	0.2293k external	0.2293temperature offset calibration	0.9948default loss term (dB/km)	0.3790temperature slope calibration	1.0000multiplexer offset coefficient	1.0000multiplexer slope coefficient	1.0000fibre end	0.00T internal ref (°C)	38.44T ext. ref 1 (°C)	0.17T ext. ref 2 (°C)	35.71length (m)	temperature (°C)	Stokes	anti-Stokes-747.200	35.209	-0.005	-0.004
-746.185	1.251	-0.158	0.116
-745.171	-200.000	-0.041	0.295
-744.156	82.158	-0.140	0.156
-743.142	105.135	0.061	-0.074
-742.127	-73.491	0.292	0.109
-741.112	-92.539	0.101	-0.029
-740.098	-200.000	-0.062	0.420
-739.083	-200.000	-0.051	0.256
-738.069	-114.836	-0.423	0.083
-737.054	34.942	0.153	-0.137
-736.039	24.333	-0.221	-0.187
-735.025	23.513	0.175	0.148
-734.010	105.755	0.243	-0.294
-732.996	230.331	0.073	0.122
-731.981	-135.044	-0.069	0.008
-730.966	-42.182	-0.047	0.025
-729.952	-23.171	0.157	-0.097
-728.937	-41.976	0.102	0.054
-727.923	-43.914	-0.141	-0.072
-726.908	-200.000	0.013	-0.385
-725.894	-12.839	-0.225	-0.150
-724.879	800.000	-0.067	-0.226
-723.864	-200.000	0.023	0.135
-722.850	-200.000	-0.035	-0.383
-721.835	102.210	-0.158	-0.189
-720.821	231.387	-0.144	0.241
-719.806	-67.072	-0.124	-0.050
-718.791	258.929	-0.214	-0.376
-717.777	-154.243	-0.129	0.009
-716.762	18.778	-0.217	-0.178
-715.748	140.713	0.116	-0.157
-714.733	-131.065	-0.239	-0.033
-713.718	253.181	-0.057	-0.099
-712.704	80.177	-0.254	-0.279
-711.689	22.526	0.158	0.132
-710.675	-83.460	0.316	0.103
-709.660	136.183	0.085	0.114
-708.645	75.876	-0.125	0.135
-707.631	24.973	0.044	0.037
-706.616	-161.994	0.299	-0.015
-705.602	159.346	0.092	0.130
-704.587	342.125	-0.024	-0.047
-703.572	800.000	-0.018	0.071
-702.558	155.426	0.135	0.190
-701.543	371.811	0.101	-0.210
-700.529	-101.611	0.444	-0.110
-699.514	30.213	0.201	0.175
-698.499	-101.598	0.114	-0.028
-697.485	772.015	-0.058	-0.162
-696.470	-200.000	-0.013	0.100
-695.456	-45.988	-0.168	-0.084
-694.441	716.628	-0.185	-0.502
-693.426	800.000	0.143	-0.482
-692.412	0.275	-0.247	-0.180
-691.397	-88.386	0.070	-0.021
-690.383	683.067	-0.064	-0.171
-689.368	-200.000	-0.023	0.128
-688.354	-125.077	-0.422	-0.066
-687.339	-41.597	-0.093	-0.049
-686.324	120.455	-0.075	-0.095
-685.310	-87.005	-0.024	0.007
-684.295	800.000	0.031	-0.090
-683.281	110.329	-0.029	0.035
-682.266	532.111	0.033	-0.080
-681.251	115.803	0.191	-0.238
-680.237	-132.182	-0.316	-0.042
-679.222	800.000	0.037	-0.107
-678.208	-200.000	-0.075	-0.361
-677.193	28.604	0.074	-0.064
-676.178	480.376	0.050	-0.115
-675.164	-24.080	0.244	0.149
-674.149	-200.000	-0.007	-0.062
-673.135	-124.132	0.165	0.026
-672.120	-180.876	-0.242	-0.005
-671.105	210.547	0.051	-0.081
-670.091	-91.673	0.103	0.030
-669.076	-102.654	0.336	-0.082
-668.062	-59.792	0.184	-0.081
-667.047	153.528	-0.192	-0.268
-666.032	-148.308	-0.180	-0.015
-665.018	-130.096	0.276	0.038
-664.003	276.506	-0.083	-0.150
-662.989	-200.000	0.006	0.076
-661.974	597.184	0.019	-0.048
-660.959	-52.116	0.095	-0.045
-659.945	128.084	-0.119	0.154
-658.930	175.527	-0.140	-0.207
-657.916	-59.748	0.249	-0.109
-656.901	240.821	0.057	0.096
-655.886	591.662	0.062	0.156
-654.872	532.884	0.079	0.192
-653.857	-93.611	0.294	0.083
-652.843	34.189	0.263	-0.233
-651.828	465.954	-0.092	-0.210
-650.814	-38.418	0.198	-0.107
-649.799	-200.000	-0.019	0.124
-648.784	800.000	-0.031	0.118
-647.770	-20.789	0.073	-0.046
-646.755	-200.000	0.027	0.430
-645.741	84.323	-0.048	0.054
-644.726	136.350	-0.152	-0.202
-643.711	243.977	-0.090	-0.154
-642.697	21.561	-0.272	-0.226
-641.682	-5.401	0.095	-0.066
-640.668	167.972	0.065	-0.094
-639.653	-88.651	0.021	-0.006
-638.638	-200.000	0.007	-0.209
-637.624	236.355	0.112	-0.189
-636.609	-200.000	0.027	-0.321
-635.595	-200.000	-0.030	0.154
-634.580	-151.370	-0.117	-0.009
-633.565	-200.000	0.030	0.179
-632.551	22.180	0.184	-0.153
-631.536	800.000	0.021	-0.083
-630.522	3.656	0.225	-0.167
-629.507	97.681	0.131	-0.154
-628.492	-10.390	-0.163	-0.110
-627.478	-118.172	0.041	-0.007
-626.463	-8.877	-0.152	0.104
-625.449	800.000	-0.018	-0.063
-624.434	247.368	-0.033	-0.057
-623.419	-200.000	0.013	-0.137
-622.405	-122.879	-0.135	0.022
-621.390	-106.870	-0.221	0.050
-620.376	51.047	0.115	0.111
-619.361	-47.777	-0.073	-0.036
-618.346	-114.981	-0.220	0.043
-617.332	24.764	0.321	-0.271
-616.317	644.759	0.071	-0.184
-615.303	-20.020	0.470	-0.295
-614.288	800.000	0.051	0.223
-613.273	-198.702	-0.138	0.001
-612.259	99.767	-0.219	-0.258
-611.244	393.432	-0.023	-0.050
-610.230	800.000	-0.039	-0.131
-609.215	-6.652	0.146	0.101
-608.201	-44.922	0.117	-0.059
-607.186	-200.000	-0.089	-0.420
-606.171	69.311	0.206	-0.216
-605.157	-80.632	-0.091	0.031
-604.142	143.081	-0.192	0.260
-603.128	-90.702	-0.244	-0.072
-602.113	52.479	0.190	0.184
-601.098	78.013	-0.208	-0.225
-600.084	-129.321	-0.269	-0.038
-599.069	800.000	-0.070	-0.267
-598.055	800.000	0.042	-0.182
-597.040	-200.000	-0.028	0.310
-596.025	-42.976	-0.255	0.131
-595.011	40.814	0.202	0.186
-593.996	-72.505	0.368	-0.138
-592.982	134.357	0.067	0.088
-591.967	65.997	0.056	-0.058
-590.952	493.054	-0.167	0.389
-589.938	-200.000	-0.032	-0.203
-588.923	-200.000	0.016	-0.116
-587.909	59.713	0.233	0.234
-586.894	-200.000	0.044	0.348
-585.879	-130.423	-0.227	0.031
-584.865	-200.000	0.041	0.252
-583.850	-101.363	0.065	0.016
-582.836	-153.277	-0.339	0.024
-581.821	69.908	-0.055	-0.058
-580.806	-42.708	-0.255	0.132
-579.792	221.833	0.112	-0.182
-578.777	242.656	-0.086	-0.147
-577.763	174.999	0.093	0.138
-576.748	254.876	-0.103	-0.180
-575.733	136.741	0.208	0.276
-574.719	-146.738	0.044	0.004
-573.704	11.132	-0.075	-0.058
-572.690	-200.000	0.014	0.076
-571.675	-22.445	-0.172	-0.106
-570.661	-34.493	0.136	0.076
-569.646	34.949	-0.220	0.195
-568.631	-124.212	-0.148	0.023
-567.617	-71.206	0.028	0.011
-566.602	-53.100	-0.383	-0.179
-565.588	-56.318	0.145	-0.066
-564.573	-31.795	-0.261	-0.149
-563.558	800.000	0.095	-0.279
-562.544	-71.363	-0.123	-0.047
-561.529	99.492	-0.187	0.219
-560.515	25.643	0.105	0.089
-559.500	-188.895	-0.073	0.001
-558.485	800.000	-0.085	-0.277
-557.471	-106.635	-0.409	0.092
-556.456	-46.683	-0.128	0.064
-555.442	-104.129	-0.168	0.040
-554.427	-200.000	-0.021	-0.122
-553.412	180.392	0.223	-0.332
-552.398	-200.000	0.019	-0.172
-551.383	800.000	0.042	-0.126
-550.369	-80.079	0.156	-0.053
-549.354	-26.166	0.202	0.120
-548.339	694.022	0.096	-0.254
-547.325	257.683	-0.082	0.143
-546.310	-200.000	-0.031	-0.295
-545.296	285.809	-0.099	-0.181
-544.281	-200.000	-0.004	0.110
-543.266	-48.456	-0.071	0.035
-542.252	101.939	-0.095	0.113
-541.237	85.842	-0.259	0.290
-540.223	100.689	0.166	-0.196
-539.208	63.409	0.142	0.145
-538.193	130.616	0.096	-0.124
-537.179	-145.687	0.180	-0.016
-536.164	-200.000	0.012	0.143
-535.150	31.560	-0.303	0.265
-534.135	-11.249	-0.059	-0.039
-533.121	26.746	0.108	0.091
-532.106	168.412	0.114	0.164
-531.091	-200.000	0.022	0.279
-530.077	23.447	-0.071	0.060
-529.062	-26.113	-0.367	0.219
-528.048	-27.090	0.121	0.072
-527.033	-87.098	0.271	-0.084
-526.018	132.246	0.176	-0.230
-525.004	53.781	-0.120	0.117
-523.989	-200.000	0.044	0.373
-522.975	-22.999	0.155	-0.095
-521.960	-91.122	-0.109	0.032
-520.945	109.079	-0.087	0.106
-519.931	-29.973	0.143	-0.083
-518.916	-94.494	0.272	-0.075
-517.902	157.862	-0.093	-0.131
-516.887	-190.057	-0.156	-0.002
-515.872	-200.000	-0.005	-0.262
-514.858	800.000	0.064	-0.231
-513.843	-68.061	-0.041	0.016
-512.829	800.000	-0.126	-0.396
-511.814	-63.330	0.028	0.012
-510.799	10.495	0.346	0.267
-509.785	-129.009	-0.496	0.070
-508.770	315.489	0.069	-0.132
-507.756	-35.243	-0.208	0.115
-506.741	-200.000	-0.012	-0.055
-505.726	-104.789	-0.284	-0.066
-504.712	800.000	-0.042	0.138
-503.697	-192.308	0.042	-0.000
-502.683	218.983	0.110	0.178
-501.668	333.154	0.013	0.026
-500.653	-69.404	0.270	0.105
-499.639	-132.260	-0.401	-0.053
-498.624	25.082	-0.381	0.321
-497.610	-200.000	0.052	0.239
-496.595	-23.622	0.216	0.131
-495.581	-50.082	0.260	0.125
-494.566	-58.967	0.227	0.099
-493.551	-97.220	-0.154	-0.041
-492.537	313.722	0.110	-0.210
-491.522	-152.803	-0.177	-0.013
-490.508	19.903	0.195	-0.160
-489.493	143.553	0.030	-0.040
-488.478	-200.000	0.006	-0.344
-487.464	301.126	0.050	0.093
-486.449	-200.000	0.010	-0.113
-485.435	0.997	0.282	-0.205
-484.420	61.639	-0.211	0.213
-483.405	800.000	0.037	-0.110
-482.391	-82.625	-0.077	-0.025
-481.376	800.000	-0.067	-0.279
-480.362	-50.477	-0.240	0.114
-479.347	87.541	-0.236	0.265
-478.332	800.000	0.023	0.083
-477.318	-125.859	-0.155	0.024
-476.303	-58.973	0.214	0.094
-475.289	-73.215	-0.078	0.029
-474.274	187.732	0.088	0.133
-473.259	241.403	-0.059	0.100
-472.245	-200.000	0.051	0.401
-471.230	800.000	0.019	0.064
-470.216	58.613	-0.093	0.092
-469.201	-72.011	0.079	-0.030
-468.186	55.384	0.070	0.069
-467.172	-200.000	-0.042	-0.398
-466.157	8.930	0.187	-0.143
-465.143	114.647	-0.047	0.057
-464.128	763.198	-0.025	-0.069
-463.113	-70.694	-0.442	-0.169
-462.099	-200.000	-0.038	-0.172
-461.084	-5.609	-0.214	-0.149
-460.070	4.741	0.186	0.138
-459.055	210.355	-0.080	-0.127
-458.040	-91.788	0.113	0.032
-457.026	-120.803	-0.108	-0.019
-456.011	63.202	-0.208	0.211
-454.997	114.104	0.349	0.430
-453.982	125.979	-0.132	-0.169
-452.968	-29.165	0.247	-0.143
-451.953	63.708	0.283	-0.287
-450.938	-82.745	-0.189	-0.062
-449.924	-82.784	0.133	-0.043
-448.909	-100.067	0.508	0.128
-447.895	430.327	0.098	0.214
-446.880	359.775	0.136	-0.275
-445.865	-158.372	0.199	-0.012
-444.851	800.000	0.116	0.360
-443.836	163.433	0.107	-0.152
-442.822	47.618	-0.084	-0.079
-441.807	4.969	0.218	-0.162
-440.792	479.118	-0.078	0.179
-439.778	52.503	-0.187	0.180
-438.763	-19.249	0.199	0.125
-437.749	342.753	-0.091	-0.180
-436.734	800.000	0.053	0.206
-435.719	-180.275	-0.176	0.004
-434.705	-112.066	-0.428	0.087
-433.690	-189.067	0.283	0.003
-432.676	-200.000	-0.031	0.183
-431.661	-172.149	-0.146	-0.005
-430.646	-32.875	0.240	0.135
-429.632	43.856	0.070	-0.065
-428.617	543.405	0.046	-0.111
-427.603	94.705	0.175	-0.202
-426.588	-172.551	0.104	0.003
-425.573	800.000	0.015	-0.052
-424.559	-200.000	0.016	0.130
-423.544	-50.871	-0.079	0.038
-422.530	131.873	0.140	-0.182
-421.515	50.663	-0.034	0.032
-420.500	800.000	0.040	-0.149
-419.486	-200.000	-0.005	-0.036
-418.471	572.101	-0.063	-0.155
-417.457	-200.000	0.003	0.016
-416.442	800.000	0.048	0.179
-415.428	800.000	0.131	0.385
-414.413	-43.569	0.284	0.145
-413.398	-147.211	-0.219	0.019
-412.384	-140.842	-0.229	0.024
-411.369	800.000	-0.133	-0.502
-410.355	-23.959	-0.283	-0.171
-409.340	23.178	-0.508	0.421
-408.325	-180.145	0.123	-0.003
-407.311	-192.783	-0.307	0.003
-406.296	-43.448	-0.264	0.135
-405.282	-62.981	0.187	0.078
-404.267	148.391	-0.030	-0.041
-403.252	-57.097	-0.457	0.203
-402.238	-159.192	0.085	-0.005
-401.223	414.096	-0.120	-0.258
-400.209	-110.984	-0.138	0.029
-399.194	-121.512	0.510	-0.085
-398.179	-200.000	-0.037	0.250
-397.165	94.679	-0.073	0.083
-396.150	7.674	0.166	-0.125
-395.136	125.110	0.155	0.197
-394.121	-121.841	-0.267	0.044
-393.106	-120.182	0.199	-0.034
-392.092	-90.522	0.044	-0.013
-391.077	-71.350	0.378	0.143
-390.063	-83.133	0.267	0.087
-389.048	-32.893	-0.221	0.124
-388.033	-151.855	0.385	-0.028
-387.019	-30.748	0.067	0.038
-386.004	-0.027	-0.309	0.222
-384.990	-94.472	-0.379	0.104
-383.975	-87.278	0.054	-0.017
-382.960	-104.057	0.177	-0.042
-381.946	-200.000	-0.007	0.178
-380.931	-42.542	-0.183	0.094
-379.917	-113.050	0.489	0.097
-378.902	-200.000	-0.055	-0.500
-377.888	-200.000	0.032	0.348
-376.873	-200.000	-0.015	0.090
-375.858	-42.481	-0.241	0.124
-374.844	-132.277	-0.196	-0.026
-373.829	381.594	0.145	-0.300
-372.815	-200.000	0.549	-0.002
-371.800	-84.860	0.151	-0.048
-370.785	89.918	-0.108	-0.122
-369.771	-26.746	-0.067	-0.039
-368.756	-200.000	-0.042	-0.279
-367.742	-90.972	-0.236	0.068
-366.727	800.000	-0.043	0.131
-365.712	64.871	-0.113	0.115
-364.698	218.004	0.017	0.027
-363.683	42.829	-0.043	0.040
-362.669	83.629	0.128	0.140
-361.654	-142.735	0.292	-0.029
-360.639	40.388	0.067	0.061
-359.625	-85.847	0.112	-0.035
-358.610	-200.000	0.019	0.150
-357.596	-23.745	-0.084	-0.051
-356.581	100.747	0.050	-0.059
-355.566	-128.670	0.113	-0.016
-354.552	800.000	0.043	-0.150
-353.537	-125.055	-0.217	-0.034
-352.523	-80.310	0.352	0.118
-351.508	-200.000	0.042	0.268
-350.493	-200.000	-0.003	0.295
-349.479	-200.000	-0.006	-0.173
-348.464	-8.222	0.237	-0.160
-347.450	-137.770	-0.103	-0.012
-346.435	-62.431	0.075	0.031
-345.420	33.550	-0.127	-0.112
-344.406	5.075	0.080	-0.059
-343.391	2.083	-0.144	-0.105
-342.377	-200.000	0.027	0.219
-341.362	579.860	-0.054	0.133
-340.348	242.977	-0.160	0.269
-339.333	160.759	0.165	0.232
-338.318	-137.295	0.343	0.039
-337.304	-38.838	0.137	0.073
-336.289	-132.300	0.213	-0.028
-335.275	240.939	0.167	-0.281
-334.260	332.886	-0.119	0.231
-333.245	-200.000	-0.021	0.466
-332.231	-6.882	0.208	0.142
-331.216	116.647	0.158	-0.196
-330.202	226.116	0.199	-0.325
-329.187	92.492	0.076	-0.086
-328.172	117.817	-0.106	-0.131
-327.158	-75.632	0.090	-0.032
-326.143	348.949	0.052	0.103
-325.129	103.205	0.127	0.150
-324.114	437.363	0.087	0.191
-323.099	43.073	-0.315	-0.289
-322.085	-111.000	0.215	0.045
-321.070	-160.721	-0.091	-0.005
-320.056	99.738	0.112	-0.131
-319.041	32.084	-0.099	-0.086
-318.026	118.149	0.119	-0.147
-317.012	380.797	0.182	0.376
-315.997	-200.000	-0.025	0.212
-314.983	-107.253	0.384	-0.085
-313.968	94.308	0.149	-0.170
-312.953	-21.265	0.262	-0.161
-311.939	-77.123	-0.187	0.066
-310.924	-200.000	0.002	0.343
-309.910	188.779	0.031	0.047
-308.895	-200.000	-0.008	-0.185
-307.880	-200.000	-0.063	-0.366
-306.866	800.000	-0.075	-0.216
-305.851	-200.000	-0.057	-0.308
-304.837	-61.962	0.336	-0.141
-303.822	-19.971	-0.208	0.129
-302.807	-45.075	-0.257	0.128
-301.793	-53.531	-0.072	0.033
-300.778	5.384	-0.158	-0.117
-299.764	-138.628	-0.158	0.017
-298.749	147.314	0.070	-0.095
-297.735	-29.219	-0.150	-0.087
-296.720	-158.025	0.120	-0.007
-295.705	-115.577	0.346	-0.065
-294.691	164.013	0.025	-0.035
-293.676	-16.242	-0.101	-0.065
-292.662	119.703	0.069	-0.086
-291.647	-200.000	0.104	-0.474
-290.632	-82.061	-0.219	0.072
-289.618	-91.862	-0.159	-0.045
-288.603	-17.547	0.215	0.136
-287.589	-4.060	-0.117	0.081
-286.574	149.415	0.181	-0.246
-285.559	-27.276	-0.229	-0.134
-284.545	800.000	-0.017	0.052
-283.530	183.574	-0.162	-0.241
-282.516	800.000	0.053	-0.176
-281.501	-43.518	0.178	0.090
-280.486	5.650	0.077	0.057
-279.472	-108.924	-0.244	-0.052
-278.457	-96.887	-0.245	-0.065
-277.443	112.760	-0.071	0.086
-276.428	-200.000	0.043	0.285
-275.413	-165.828	0.178	-0.008
-274.399	247.816	-0.068	0.116
-273.384	303.514	-0.093	0.173
-272.370	198.759	-0.116	-0.178
-271.355	85.663	-0.107	0.119
-270.340	48.699	-0.364	-0.343
-269.326	-156.502	-0.226	0.014
-268.311	800.000	0.047	0.132
-267.297	800.000	-0.061	0.221
-266.282	-21.416	0.118	0.072
-265.267	-65.055	-0.205	0.083
-264.253	343.979	0.102	0.200
-263.238	-200.000	-0.041	-0.273
-262.224	-5.326	0.217	0.150
-261.209	95.710	-0.244	0.279
-260.195	194.600	0.111	0.170
-259.180	36.186	-0.230	-0.203
-258.165	36.317	-0.181	-0.160
-257.151	-87.307	0.230	0.070
-256.136	800.000	0.040	0.133
-255.122	69.661	0.200	-0.207
-254.107	13.035	0.230	-0.178
-253.092	1.784	-0.152	0.110
-252.078	800.000	-0.035	0.145
-251.063	-3.892	-0.205	0.142
-250.049	-125.945	0.275	-0.042
-249.034	-200.000	0.019	0.195
-248.019	-200.000	-0.052	-0.355
-247.005	226.398	-0.059	-0.096
-245.990	288.241	0.183	-0.331
-244.976	10.119	0.184	-0.140
-243.961	-200.000	-0.007	0.098
-242.946	800.000	0.067	0.214
-241.932	-200.000	-0.010	0.105
-240.917	800.000	0.076	0.225
-239.903	70.153	0.112	-0.116
-238.888	-142.465	0.172	0.017
-237.873	-200.000	0.011	0.053
-236.859	-70.750	-0.395	-0.149
-235.844	800.000	-0.171	0.487
-234.830	-34.995	-0.263	0.144
-233.815	19.238	0.160	0.128
-232.800	-59.498	0.149	0.064
-231.786	23.720	0.243	-0.201
-230.771	-95.053	-0.180	0.049
-229.757	283.575	0.020	-0.035
-228.742	22.405	-0.017	0.014
-227.727	-200.000	-0.049	0.240
-226.713	-1.105	-0.188	-0.133
-225.698	551.066	-0.060	-0.145
-224.684	15.282	0.281	-0.221
-223.669	800.000	0.039	-0.115
-222.655	-200.000	-0.009	0.243
-221.640	17.999	0.179	0.143
-220.625	-189.191	-0.101	0.001
-219.611	-200.000	0.002	0.143
-218.596	133.771	-0.057	0.074
-217.582	42.941	0.118	0.108
-216.567	-200.000	0.017	0.183
-215.552	-137.985	-0.146	0.016
-214.538	-200.000	-0.039	-0.186
-213.523	516.702	0.079	0.184
-212.509	105.843	0.184	-0.218
-211.494	-17.349	0.145	-0.091
-210.479	-90.307	-0.405	-0.118
-209.465	125.169	-0.112	-0.141
-208.450	-200.000	0.031	0.201
-207.436	-9.379	-0.173	0.116
-206.421	-43.019	0.223	0.113
-205.406	-200.000	-0.089	0.439
-204.392	380.520	0.083	0.169
-203.377	-136.181	0.297	0.035
-202.363	450.273	0.080	-0.176
-201.348	114.088	-0.171	0.208
-200.333	763.297	0.081	0.219
-199.319	-187.697	-0.379	-0.005
-198.304	18.943	-0.089	0.072
-197.290	-200.000	-0.039	0.242
-196.275	-3.655	-0.158	0.110
-195.260	556.312	0.050	0.120
-194.246	127.794	0.105	0.133
-193.231	-24.238	-0.183	-0.109
-192.217	-48.553	0.096	0.046
-191.202	160.994	-0.311	-0.436
-190.187	69.527	-0.134	-0.139
-189.173	-200.000	-0.044	-0.260
-188.158	219.627	0.051	-0.081
-187.144	-6.374	-0.260	-0.178
-186.129	431.258	0.196	-0.425
-185.114	-200.000	0.028	-0.181
-184.100	-119.338	0.111	0.019
-183.085	-145.710	-0.077	0.007
-182.071	-200.000	0.014	-0.204
-181.056	553.530	-0.121	0.291
-180.042	800.000	-0.049	-0.158
-179.027	-35.925	-0.118	-0.064
-178.012	41.310	-0.132	0.120
-176.998	131.703	0.222	0.285
-175.983	-29.433	-0.193	-0.110
-174.969	415.877	0.085	0.181
-173.954	-200.000	0.046	-0.338
-172.939	215.508	0.145	0.231
-171.925	-136.437	0.130	0.015
-170.910	70.070	0.164	-0.169
-169.896	-86.780	-0.350	-0.107
-168.881	-200.000	-0.003	0.042
-167.866	800.000	-0.056	0.229
-166.852	90.863	0.150	0.168
-165.837	706.797	-0.038	0.100
-164.823	122.131	-0.118	-0.147
-163.808	-55.219	0.365	-0.164
-162.793	-73.106	0.190	-0.070
-161.779	-49.687	0.203	0.096
-160.764	466.539	-0.046	-0.102
-159.750	-200.000	0.057	-0.282
-158.735	105.292	0.027	0.031
-157.720	-9.643	-0.257	0.171
-156.706	-200.000	-0.019	-0.121
-155.691	-29.090	0.217	0.125
-154.677	800.000	0.114	-0.390
-153.662	238.933	-0.242	-0.402
-152.647	-82.412	0.103	-0.033
-151.633	-200.000	0.010	0.171
-150.618	-108.090	0.173	0.038
-149.604	-5.386	0.232	0.159
-148.589	-154.113	-0.380	-0.026
-147.574	0.955	0.139	0.099
-146.560	256.554	-0.138	0.237
-145.545	256.112	0.184	-0.315
-144.531	-60.148	0.225	0.096
-143.516	-25.453	-0.102	-0.060
-142.502	-200.000	0.000	-0.052
-141.487	-51.811	0.275	-0.128
-140.472	-101.196	0.118	-0.029
-139.458	-200.000	-0.024	0.151
-138.443	22.924	0.084	-0.069
-137.429	-42.679	-0.196	-0.099
-136.414	-133.545	0.215	-0.027
-135.399	154.265	0.173	-0.238
-134.385	800.000	-0.043	-0.165
-133.370	339.086	0.148	-0.288
-132.356	800.000	-0.057	0.161
-131.341	184.751	-0.081	-0.120
-130.326	-80.534	-0.121	0.040
-129.312	-200.000	-0.023	0.377
-128.297	166.443	-0.229	0.323
-127.283	245.759	0.064	0.108
-126.268	-180.301	-0.218	-0.005
-125.253	89.630	-0.233	-0.259
-124.239	412.387	-0.068	-0.145
-123.224	800.000	-0.042	0.152
-122.210	-132.154	0.280	-0.036
-121.195	178.329	-0.104	0.152
-120.180	61.981	0.334	-0.333
