DTS Sentinel unit serial number:	SN413079Multiplexer serial number:	ORYXHardware model number:	OX4-SRSoftware version number:	ORYX F/W v4.00 Oryx Data Collector v3.7.2.0data status	okinstallation	princeton_trtdifferential loss correction	single-endedforward channel	channel 1reverse channel	N/Adate	2019/09/13time	06:26:36forward acquisition time	60.00reverse acquisition time	0.00gamma	496.2192k internal	0.2335k external	0.2335temperature offset calibration	1.0164default loss term (dB/km)	0.3790temperature slope calibration	1.0000multiplexer offset coefficient	1.0000multiplexer slope coefficient	1.0000fibre end	0.00T internal ref (°C)	26.06T ext. ref 1 (°C)	4.09T ext. ref 2 (°C)	20.66length (m)	temperature (°C)	Stokes	anti-Stokes-747.200	-113.264	0.264	0.052
-746.185	-80.546	-0.167	0.056
-745.171	30.623	-0.126	0.108
-744.156	58.237	-0.268	0.264
-743.142	-200.000	-0.010	0.544
-742.127	-124.447	-0.054	-0.009
-741.112	19.464	0.257	-0.208
-740.098	-200.000	-0.043	0.423
-739.083	-63.392	0.482	0.199
-738.069	-127.245	-0.169	0.025
-737.054	338.987	0.077	0.150
-736.039	-43.321	-0.320	-0.162
-735.025	800.000	0.038	0.135
-734.010	392.554	0.017	0.035
-732.996	3.405	-0.445	-0.325
-731.981	50.628	-0.212	-0.201
-730.966	-113.735	-0.208	0.041
-729.952	98.719	-0.130	0.150
-728.937	-200.000	0.020	0.136
-727.923	-17.713	-0.337	0.213
-726.908	-68.287	-0.077	-0.030
-725.894	-200.000	-0.054	-0.292
-724.879	-200.000	-0.043	0.276
-723.864	348.331	0.015	0.029
-722.850	128.826	-0.059	-0.076
-721.835	119.775	-0.086	0.106
-720.821	-69.864	0.235	-0.090
-719.806	-200.000	-0.008	-0.135
-718.791	421.807	-0.110	-0.236
-717.777	-200.000	0.012	0.102
-716.762	-200.000	0.040	-0.179
-715.748	28.112	-0.209	-0.177
-714.733	-200.000	-0.067	-0.000
-713.718	-28.177	-0.522	0.303
-712.704	-200.000	-0.070	-0.383
-711.689	302.476	-0.169	0.315
-710.675	-200.000	-0.051	-0.251
-709.660	800.000	0.060	-0.213
-708.645	-56.603	0.146	-0.065
-707.631	-161.423	-0.348	-0.018
-706.616	94.721	-0.185	0.211
-705.602	776.203	0.083	0.228
-704.587	-160.583	0.287	-0.015
-703.572	-71.337	-0.115	-0.043
-702.558	137.989	-0.087	-0.114
-701.543	-200.000	-0.029	0.199
-700.529	800.000	0.004	0.014
-699.514	-189.621	-0.215	0.002
-698.499	311.345	-0.102	-0.192
-697.485	-71.906	-0.428	-0.160
-696.470	-47.349	0.105	0.051
-695.456	15.446	-0.233	0.183
-694.441	-29.432	0.196	-0.112
-693.426	268.944	-0.166	-0.291
-692.412	113.524	0.120	-0.147
-691.397	57.996	-0.133	0.131
-690.383	112.921	-0.205	-0.249
-689.368	800.000	0.043	-0.165
-688.354	-200.000	-0.014	-0.111
-687.339	-3.456	-0.341	-0.238
-686.324	800.000	0.018	0.056
-685.310	800.000	0.019	0.073
-684.295	-113.409	-0.305	-0.060
-683.281	-92.919	-0.185	-0.052
-682.266	-123.710	-0.349	0.055
-681.251	277.725	-0.057	-0.102
-680.237	-200.000	0.053	-0.240
-679.222	-18.972	-0.171	-0.106
-678.208	274.292	-0.030	0.054
-677.193	800.000	0.054	0.164
-676.178	-66.302	-0.209	0.083
-675.164	4.951	0.112	-0.082
-674.149	-17.897	0.062	-0.039
-673.135	-98.601	-0.224	0.057
-672.120	184.506	-0.129	-0.192
-671.105	800.000	-0.045	0.187
-670.091	-3.532	-0.088	0.062
-669.076	-200.000	-0.045	0.360
-668.062	-107.512	0.234	-0.051
-667.047	222.567	-0.120	0.194
-666.032	-67.248	-0.153	-0.060
-665.018	-70.853	-0.173	0.065
-664.003	-200.000	0.079	0.354
-662.989	156.524	-0.085	0.117
-661.974	-200.000	-0.050	-0.243
-660.959	150.470	-0.147	-0.200
-659.945	71.372	-0.036	-0.037
-658.930	-91.160	0.139	-0.040
-657.916	-84.486	0.072	-0.023
-656.901	-200.000	0.043	-0.326
-655.886	-120.088	-0.280	-0.048
-654.872	-42.665	0.082	0.042
-653.857	-200.000	0.002	-0.137
-652.843	800.000	0.009	-0.038
-651.828	-75.785	-0.057	0.020
-650.814	134.578	-0.083	-0.107
-649.799	21.161	0.111	-0.090
-648.784	34.669	-0.181	0.158
-647.770	800.000	0.069	-0.198
-646.755	-200.000	-0.033	0.149
-645.741	66.933	0.187	-0.191
-644.726	25.763	0.084	-0.070
-643.711	-106.239	0.145	0.033
-642.697	9.398	0.453	0.343
-641.682	7.176	0.346	-0.259
-640.668	800.000	0.052	0.171
-639.653	-60.963	-0.127	0.054
-638.638	82.508	-0.250	0.272
-637.624	76.861	-0.070	-0.075
-636.609	800.000	-0.029	0.114
-635.595	44.106	-0.174	-0.159
-634.580	-66.029	0.186	0.074
-633.565	-154.035	-0.449	0.031
-632.551	30.838	-0.146	-0.125
-631.536	-200.000	0.035	-0.314
-630.522	-27.609	-0.181	0.105
-629.507	-85.751	-0.260	0.081
-628.492	-36.389	0.226	0.122
-627.478	-200.000	0.023	0.372
-626.463	-54.352	-0.174	-0.079
-625.449	-0.227	-0.104	0.074
-624.434	5.637	-0.105	-0.078
-623.419	703.010	-0.045	0.117
-622.405	800.000	0.120	0.416
-621.390	14.999	0.170	-0.133
-620.376	199.308	0.223	-0.341
-619.361	-12.996	-0.100	-0.065
-618.346	-158.537	0.330	-0.019
-617.332	104.593	0.125	0.147
-616.317	-15.997	-0.112	0.071
-615.303	-110.514	-0.334	0.069
-614.288	-200.000	0.063	-0.554
-613.273	-200.000	0.020	0.131
-612.259	800.000	0.151	-0.485
-611.244	246.950	-0.054	0.091
-610.230	-200.000	-0.000	-0.122
-609.215	33.286	-0.099	-0.086
-608.201	-131.823	0.270	0.035
-607.186	-72.899	-0.119	-0.044
-606.171	800.000	-0.061	-0.225
-605.157	153.732	-0.026	0.036
-604.142	-19.956	-0.043	0.026
-603.128	59.265	0.219	-0.215
-602.113	-200.000	-0.001	0.084
-601.098	-79.170	0.252	-0.086
-600.084	800.000	-0.059	0.188
-599.069	4.670	-0.115	0.084
-598.055	-56.346	0.431	-0.191
-597.040	-200.000	-0.005	-0.044
-596.025	-103.101	-0.221	0.052
-595.011	218.278	0.172	-0.274
-593.996	668.305	0.191	0.494
-592.982	-200.000	-0.036	0.172
-591.967	-200.000	-0.002	0.184
-590.952	-200.000	-0.027	-0.377
-589.938	94.381	-0.238	-0.270
-588.923	800.000	0.071	-0.305
-587.909	22.180	0.047	0.038
-586.894	33.313	-0.169	-0.146
-585.879	800.000	0.025	-0.109
-584.865	302.318	-0.097	-0.178
-583.850	-41.104	-0.194	-0.100
-582.836	168.320	0.074	-0.105
-581.821	-38.576	0.172	-0.091
-580.806	-200.000	0.029	0.174
-579.792	-144.975	0.224	-0.020
-578.777	-200.000	-0.022	0.377
-577.763	171.252	-0.145	-0.207
-576.748	271.908	0.200	-0.352
-575.733	-200.000	-0.070	-0.363
-574.719	781.122	-0.052	-0.143
-573.704	800.000	0.062	-0.197
-572.690	-170.978	0.168	0.006
-571.675	-200.000	0.034	0.214
-570.661	28.437	0.143	0.120
-569.646	271.468	-0.062	-0.109
-568.631	-106.474	0.260	-0.058
-567.617	-46.895	0.383	-0.187
-566.602	7.356	-0.172	-0.128
-565.588	-57.895	-0.082	-0.036
-564.573	-200.000	-0.030	-0.331
-563.558	800.000	-0.023	0.094
-562.544	374.307	0.046	0.093
-561.529	260.081	-0.127	-0.219
-560.515	-23.795	-0.058	0.035
-559.500	-200.000	-0.014	-0.073
-558.485	340.719	0.019	-0.036
-557.471	-102.451	-0.564	0.135
-556.456	411.924	0.100	-0.212
-555.442	57.226	0.216	0.210
-554.427	-41.639	0.181	0.093
-553.412	2.786	-0.086	0.062
-552.398	-200.000	-0.325	0.001
-551.383	-200.000	-0.003	0.174
-550.369	-137.563	-0.156	-0.018
-549.354	-192.647	0.247	-0.002
-548.339	132.180	0.136	0.174
-547.325	157.466	-0.091	0.125
-546.310	-23.848	0.209	0.125
-545.296	39.104	-0.172	0.153
-544.281	20.507	-0.034	0.027
-543.266	316.256	0.092	-0.174
-542.252	-75.375	-0.341	-0.121
-541.237	144.607	0.094	0.126
-540.223	41.830	-0.406	0.367
-539.208	504.468	-0.095	0.220
-538.193	519.113	0.055	-0.128
-537.179	138.537	-0.157	-0.205
-536.164	148.357	0.211	0.284
-535.150	356.574	-0.026	0.052
-534.135	-83.400	0.134	-0.043
-533.121	-200.000	-0.024	-0.184
-532.106	-200.000	-0.030	0.211
-531.091	13.941	0.086	-0.067
-530.077	-105.901	0.281	0.063
-529.062	-76.808	0.210	-0.073
-528.048	28.701	0.219	-0.184
-527.033	-130.127	0.128	0.017
-526.018	-119.733	0.101	-0.017
-525.004	64.157	0.418	0.419
-523.989	-172.685	-0.454	0.014
-522.975	-72.665	0.257	0.094
-521.960	381.088	-0.086	-0.175
-520.945	-73.776	-0.101	0.037
-519.931	-37.195	-0.225	0.120
-518.916	59.943	-0.126	-0.124
-517.902	-48.951	0.182	-0.087
-516.887	-200.000	-0.074	-0.494
-515.872	12.014	0.076	0.058
-514.858	417.674	-0.189	-0.402
-513.843	-100.743	-0.156	0.038
-512.829	-87.877	0.174	0.052
-511.814	-124.205	0.187	0.029
-510.799	367.116	-0.099	0.200
-509.785	15.487	0.148	-0.116
-508.770	42.673	-0.190	-0.172
-507.756	-90.248	-0.152	-0.044
-506.741	800.000	-0.042	-0.158
-505.726	6.101	-0.392	0.289
-504.712	-200.000	-0.017	0.134
-503.697	-108.876	-0.286	-0.061
-502.683	117.024	0.123	-0.150
-501.668	-83.246	0.275	-0.088
-500.653	-70.722	-0.104	0.039
-499.639	-200.000	-0.026	-0.225
-498.624	-108.047	-0.322	-0.070
-497.610	-154.507	0.452	-0.030
-496.595	334.915	0.170	-0.327
-495.581	800.000	0.156	0.480
-494.566	-100.763	0.073	-0.018
-493.551	-14.622	0.317	0.203
-492.537	219.957	0.104	-0.166
-491.522	-29.861	0.052	0.030
-490.508	-200.000	-0.075	0.376
-489.493	-76.961	0.315	0.109
-488.478	800.000	0.078	-0.330
-487.464	-15.054	-0.082	-0.052
-486.449	36.017	-0.073	0.064
-485.435	-2.557	0.133	0.092
-484.420	800.000	-0.043	-0.117
-483.405	-123.984	-0.317	0.050
-482.391	532.620	-0.112	0.263
-481.376	-139.051	-0.132	-0.014
-480.362	-200.000	-0.022	0.157
-479.347	-200.000	0.027	0.245
-478.332	800.000	-0.080	-0.253
-477.318	139.715	-0.155	0.203
-476.303	-178.443	0.349	-0.008
-475.289	-200.000	-0.026	-0.190
-474.274	-134.920	0.426	0.051
-473.259	501.695	-0.074	0.170
-472.245	-138.747	-0.191	0.021
-471.230	433.790	0.068	-0.146
-470.216	800.000	-0.079	0.238
-469.201	-200.000	0.002	-0.143
-468.186	585.142	-0.033	-0.079
-467.172	-13.522	0.055	0.036
-466.157	-140.467	0.147	0.015
-465.143	-139.892	-0.133	-0.014
-464.128	-200.000	0.288	-0.001
-463.113	52.248	0.234	-0.222
-462.099	-177.059	-0.344	0.009
-461.084	-58.084	0.146	-0.063
-460.070	12.322	-0.081	-0.062
-459.055	94.379	0.115	-0.130
-458.040	-107.375	-0.236	-0.051
-457.026	154.696	0.111	0.151
-456.011	-200.000	-0.034	-0.372
-454.997	6.822	0.403	-0.298
-453.982	800.000	-0.064	0.207
-452.968	-200.000	-0.198	0.001
-451.953	-200.000	0.005	0.086
-450.938	-200.000	0.020	0.125
-449.924	466.952	0.055	-0.122
-448.909	14.954	-0.228	-0.178
-447.895	-46.835	-0.331	-0.161
-446.880	-200.000	0.021	-0.101
-445.865	-200.000	-0.014	-0.120
-444.851	-106.447	0.183	-0.041
-443.836	110.734	-0.158	0.188
-442.822	-183.936	0.441	0.007
-441.807	-53.508	0.464	0.211
-440.792	210.217	-0.156	-0.243
-439.778	146.653	0.101	-0.134
-438.763	202.664	0.178	0.272
-437.749	-143.635	0.187	0.018
-436.734	-34.815	-0.361	-0.196
-435.719	-45.029	-0.232	0.114
-434.705	-98.962	-0.263	0.066
-433.690	-86.292	-0.143	-0.044
-432.676	-200.000	0.006	-0.078
-431.661	18.782	-0.104	0.083
-430.646	-52.775	-0.128	-0.059
-429.632	800.000	-0.043	0.165
-428.617	-26.775	0.317	-0.184
-427.603	25.259	-0.216	0.178
-426.588	52.319	0.312	0.296
-425.573	800.000	-0.030	-0.094
-424.559	-64.053	0.121	0.049
-423.544	-177.141	0.556	0.014
-422.530	192.971	0.023	-0.035
-421.515	-114.568	-0.308	0.059
-420.500	774.950	-0.189	-0.510
-419.486	-131.466	-0.225	-0.029
-418.471	775.267	0.071	-0.193
-417.457	-1.312	0.329	0.231
-416.442	-200.000	0.065	0.426
-415.428	-200.000	0.065	0.413
-414.413	136.699	0.142	-0.183
-413.398	800.000	0.024	-0.099
-412.384	552.330	0.069	0.163
-411.369	22.453	0.383	-0.310
-410.355	-157.681	0.155	0.009
-409.340	-40.813	0.253	0.130
-408.325	636.973	-0.084	0.212
-407.311	55.121	-0.087	0.083
-406.296	730.165	-0.026	0.069
-405.282	-89.136	0.086	-0.025
-404.267	-136.090	0.098	-0.011
-403.252	800.000	0.106	0.371
-402.238	-83.139	0.162	0.052
-401.223	800.000	0.085	0.349
-400.209	370.378	0.090	-0.181
-399.194	309.256	-0.181	0.335
-398.179	800.000	0.035	0.099
-397.165	-44.761	0.411	-0.203
-396.150	11.069	-0.313	0.237
-395.136	-152.416	0.230	-0.016
-394.121	-40.341	-0.247	-0.127
-393.106	47.410	0.310	-0.286
-392.092	-67.867	0.238	-0.092
-391.077	486.093	-0.148	-0.333
-390.063	800.000	-0.123	0.362
-389.048	-13.863	0.168	-0.108
-388.033	800.000	-0.070	0.259
-387.019	35.203	-0.093	0.081
-386.004	26.384	-0.198	0.164
-384.990	-107.813	-0.263	-0.057
-383.975	91.876	0.192	0.214
-382.960	330.921	0.089	-0.169
-381.946	-200.000	0.006	-0.126
-380.931	76.894	-0.059	0.062
-379.917	54.099	0.121	0.115
-378.902	-200.000	-0.001	-0.132
-377.888	50.381	-0.222	0.208
-376.873	228.103	0.163	0.263
-375.858	800.000	-0.088	0.277
-374.844	800.000	0.060	0.199
-373.829	-44.155	0.141	0.070
-372.815	-90.833	-0.226	-0.064
-371.800	-200.000	0.189	0.001
-370.785	75.293	-0.225	-0.235
-369.771	314.092	-0.133	-0.248
-368.756	71.230	-0.163	0.168
-367.742	800.000	0.054	-0.163
-366.727	-200.000	0.025	-0.212
-365.712	483.188	0.139	-0.312
-364.698	108.948	0.284	0.337
-363.683	-155.607	-0.158	0.010
-362.669	-200.000	-0.018	-0.181
-361.654	-110.011	-0.552	-0.114
-360.639	-134.065	0.185	0.023
-359.625	800.000	0.056	-0.193
-358.610	-120.020	0.398	0.068
-357.596	162.588	-0.036	0.050
-356.581	219.250	-0.067	-0.105
-355.566	-176.999	-0.080	-0.002
-354.552	-200.000	0.032	0.246
-353.537	82.989	0.051	-0.055
-352.523	-97.544	0.194	-0.050
-351.508	48.734	-0.114	0.106
-350.493	238.304	-0.235	-0.387
-349.479	-22.458	0.367	0.219
-348.464	161.538	-0.045	0.063
-347.450	-111.703	-0.426	-0.085
-346.435	8.657	-0.077	-0.057
-345.420	800.000	0.048	0.160
-344.406	144.436	-0.085	-0.112
-343.391	451.112	0.093	-0.203
-342.377	800.000	-0.054	-0.159
-341.362	90.460	-0.113	-0.125
-340.348	60.182	-0.321	-0.314
-339.333	371.956	0.048	0.097
-338.318	800.000	0.024	0.092
-337.304	800.000	-0.040	0.148
-336.289	547.703	-0.079	-0.188
-335.275	-200.000	0.052	-0.229
-334.260	580.091	0.075	-0.181
-333.245	-147.238	-0.255	0.021
-332.231	145.209	0.142	-0.188
-331.216	800.000	0.065	0.211
-330.202	747.377	0.067	-0.179
-329.187	-90.999	-0.108	-0.031
-328.172	-60.083	0.169	-0.071
-327.158	-200.000	0.018	-0.196
-326.143	-200.000	-0.003	-0.061
-325.129	800.000	-0.071	0.253
-324.114	244.811	-0.192	0.319
-323.099	-98.637	0.215	0.054
-322.085	-77.122	0.099	0.034
-321.070	-149.588	0.033	-0.003
-320.056	-63.974	-0.204	0.082
-319.041	301.641	0.128	0.234
-318.026	800.000	0.062	-0.180
-317.012	-24.344	-0.192	-0.113
-315.997	188.653	-0.081	-0.120
-314.983	-80.361	-0.153	0.050
-313.968	-10.404	-0.207	-0.136
-312.953	-43.805	-0.090	-0.045
-311.939	-200.000	0.024	0.329
-310.924	688.056	0.098	0.252
-309.910	-181.906	-0.061	0.001
-308.895	-36.956	0.184	0.097
-307.880	41.037	0.089	-0.079
-306.866	152.723	0.109	0.146
-305.851	739.540	-0.110	0.293
-304.837	-23.181	0.048	-0.028
-303.822	-200.000	-0.110	0.611
-302.807	126.382	0.144	-0.179
-301.793	-56.346	-0.037	-0.016
-300.778	43.733	0.243	0.219
-299.764	-18.478	0.122	-0.075
-298.749	-200.000	0.016	0.296
-297.735	77.853	-0.098	0.103
-296.720	393.094	0.034	-0.070
-295.705	667.457	0.019	-0.048
-294.691	-10.580	-0.395	-0.258
-293.676	174.601	0.094	0.134
-292.662	800.000	0.113	0.376
-291.647	-37.477	-0.173	0.091
-290.632	-155.091	-0.123	0.008
-289.618	800.000	-0.035	0.128
-288.603	-39.155	-0.179	0.093
-287.589	800.000	-0.115	-0.313
-286.574	164.297	0.026	-0.036
-285.559	-42.020	-0.220	-0.111
-284.545	800.000	-0.067	0.188
-283.530	22.033	0.317	-0.255
-282.516	132.988	-0.075	-0.096
-281.501	-115.428	-0.224	-0.042
-280.486	-146.092	0.200	-0.017
-279.472	-7.098	0.262	-0.175
-278.457	800.000	-0.075	-0.228
-277.443	800.000	-0.116	-0.371
-276.428	-69.763	-0.196	-0.074
-275.413	178.400	0.107	0.154
-274.399	-176.258	-0.071	-0.002
-273.384	-50.140	-0.346	0.161
-272.370	30.882	-0.087	0.073
-271.355	-200.000	0.022	-0.130
-270.340	-162.618	0.255	-0.012
-269.326	-12.844	0.123	-0.079
-268.311	-95.533	0.210	-0.056
-267.297	-137.992	-0.314	-0.034
-266.282	177.340	0.160	-0.230
-265.267	800.000	0.068	-0.187
-264.253	-200.000	-0.001	-0.063
-263.238	-178.744	0.074	-0.002
-262.224	-142.295	-0.240	-0.023
-261.209	254.754	0.114	0.192
-260.195	-118.531	0.268	-0.047
-259.180	800.000	-0.017	-0.070
-258.165	-58.454	-0.102	0.044
-257.151	430.517	0.068	0.144
-256.136	293.426	0.087	-0.156
-255.122	-200.000	-0.012	0.583
-254.107	740.747	-0.124	-0.328
-253.092	-61.108	-0.344	-0.143
-252.078	-146.941	0.313	0.027
-251.063	-52.928	0.082	0.037
-250.049	-15.639	-0.203	0.128
-249.034	387.942	0.042	0.087
-248.019	-131.872	0.107	0.014
-247.005	-200.000	-0.039	0.181
-245.990	53.483	-0.179	0.169
-244.976	395.928	0.087	0.179
-243.961	800.000	0.039	0.131
-242.946	245.511	-0.209	0.346
-241.932	-200.000	-0.007	-0.124
-240.917	100.499	0.021	-0.024
-239.903	-55.497	-0.121	-0.053
-238.888	-200.000	0.011	-0.235
-237.873	-200.000	0.031	0.225
-236.859	-130.213	-0.206	0.028
-235.844	158.578	0.148	0.203
-234.830	433.960	-0.074	0.159
-233.815	-200.000	-0.007	-0.107
-232.800	-119.196	-0.189	-0.032
-231.786	328.306	-0.097	0.184
-230.771	308.751	0.099	-0.182
-229.757	173.359	-0.083	0.118
-228.742	18.988	0.233	-0.184
-227.727	-140.915	-0.447	-0.045
-226.713	36.629	0.168	-0.146
-225.698	-200.000	-0.006	0.079
-224.684	91.801	0.133	-0.147
-223.669	-200.000	0.019	0.333
-222.655	137.321	-0.132	-0.170
-221.640	-126.937	-0.420	0.061
-220.625	-7.011	-0.112	0.075
-219.611	531.199	-0.175	-0.407
-218.596	45.178	-0.091	-0.083
-217.582	-200.000	-0.025	-0.239
-216.567	-79.954	-0.271	-0.090
-215.552	-84.810	0.252	0.078
-214.538	800.000	0.054	0.198
-213.523	97.727	-0.284	0.322
-212.509	-200.000	-0.070	0.376
-211.494	303.285	-0.174	-0.317
-210.479	-187.634	-0.174	-0.002
-209.465	800.000	-0.021	-0.065
-208.450	658.454	-0.060	0.152
-207.436	47.476	-0.205	-0.188
-206.421	48.692	-0.352	-0.325
-205.406	114.047	0.166	0.198
-204.392	800.000	0.053	-0.165
-203.377	-0.034	0.225	-0.158
-202.363	-130.875	-0.050	-0.007
-201.348	-127.256	-0.236	-0.034
-200.333	-54.521	0.090	-0.040
-199.319	129.834	-0.209	0.263
-198.304	180.161	-0.098	-0.142
-197.290	-122.162	0.304	-0.049
-196.275	35.819	0.255	0.220
-195.260	147.716	-0.237	-0.314
-194.246	-116.690	-0.029	0.005
-193.231	680.314	0.038	0.098
-192.217	-47.768	0.334	0.159
-191.202	-49.659	-0.211	0.099
-190.187	-178.122	0.094	0.002
-189.173	-200.000	-0.027	-0.199
-188.158	1.244	-0.120	-0.085
-187.144	-200.000	-0.024	0.148
-186.129	-200.000	0.041	0.267
-185.114	-73.529	-0.244	0.088
-184.100	-163.914	-0.088	-0.004
-183.085	-200.000	0.018	-0.117
-182.071	108.503	0.123	-0.144
-181.056	332.671	-0.124	-0.234
-180.042	-132.852	-0.355	-0.044
-179.027	372.274	0.092	0.183
-178.012	-117.186	-0.280	0.050
-176.998	-83.374	0.279	-0.088
-175.983	131.987	0.061	-0.078
-174.969	-50.640	0.014	0.006
-173.954	800.000	-0.092	0.341
-172.939	-200.000	-0.017	0.140
-171.925	-119.609	-0.241	0.041
-170.910	-92.551	0.176	0.048
-169.896	397.881	0.108	0.223
-168.881	-200.000	0.020	0.125
-167.866	137.379	-0.038	-0.048
-166.852	-89.239	0.526	-0.152
-165.837	-50.470	0.106	-0.049
-164.823	111.969	-0.142	0.169
-163.808	209.680	-0.177	-0.273
-162.793	-1.294	-0.059	-0.041
-161.779	33.383	0.122	0.104
-160.764	-66.196	-0.237	-0.093
-159.750	-144.096	0.186	-0.017
-158.735	-155.305	-0.067	0.004
-157.720	23.126	0.070	0.056
-156.706	335.343	0.078	-0.148
-155.691	800.000	0.021	-0.085
-154.677	287.132	0.103	0.183
-153.662	-200.000	0.022	0.254
-152.647	-200.000	0.299	0.000
-151.633	777.328	-0.114	0.305
-150.618	-26.490	-0.071	-0.041
-149.604	35.752	-0.083	-0.072
-148.589	-200.000	0.012	0.115
-147.574	-32.104	-0.119	-0.065
-146.560	299.197	0.124	0.225
-145.545	-55.605	0.138	-0.060
-144.531	-200.000	0.006	-0.041
-143.516	517.751	-0.045	-0.104
-142.502	547.814	-0.139	0.326
-141.487	119.831	0.042	-0.051
-140.472	120.464	-0.140	0.170
-139.458	2.685	-0.026	0.019
-138.443	91.497	0.058	-0.064
-137.429	-119.112	0.079	0.013
-136.414	-200.000	0.013	0.119
-135.399	-135.151	-0.085	0.010
-134.385	4.901	0.034	-0.025
-133.370	715.677	0.092	-0.238
-132.356	-50.839	0.297	-0.137
-131.341	-155.910	0.193	-0.012
-130.326	-200.000	-0.012	-0.080
-129.312	536.723	-0.033	-0.076
-128.297	800.000	0.030	-0.118
-127.283	-56.487	-0.277	0.121
-126.268	-78.653	-0.063	-0.021
-125.253	104.512	0.161	0.186
-124.239	-200.000	-0.058	0.350
-123.224	-131.023	-0.151	0.020
-122.210	71.133	0.021	-0.022
