DTS Sentinel unit serial number:	SN413079Multiplexer serial number:	ORYXHardware model number:	OX4-SRSoftware version number:	ORYX F/W v4.00 Oryx Data Collector v3.7.2.0data status	okinstallation	princeton_trtdifferential loss correction	single-endedforward channel	channel 1reverse channel	N/Adate	2019/09/19time	03:18:35forward acquisition time	60.00reverse acquisition time	0.00gamma	496.2192k internal	0.2344k external	0.2344temperature offset calibration	1.0015default loss term (dB/km)	0.3790temperature slope calibration	1.0000multiplexer offset coefficient	1.0000multiplexer slope coefficient	1.0000fibre end	0.00T internal ref (°C)	20.75T ext. ref 1 (°C)	0.64T ext. ref 2 (°C)	14.12length (m)	temperature (°C)	Stokes	anti-Stokes-747.200	-200.000	-0.006	0.028
-746.185	-126.055	0.127	0.019
-745.171	466.211	-0.113	-0.253
-744.156	26.591	0.109	-0.092
-743.142	-102.942	0.077	-0.018
-742.127	800.000	-0.089	0.309
-741.112	-200.000	0.028	0.332
-740.098	-200.000	0.010	0.294
-739.083	-200.000	0.026	0.356
-738.069	-34.680	-0.092	0.050
-737.054	-91.788	0.126	-0.036
-736.039	-200.000	0.003	0.081
-735.025	-91.456	0.383	-0.109
-734.010	-98.062	-0.430	0.111
-732.996	277.452	-0.142	-0.253
-731.981	-200.000	0.060	-0.297
-730.966	-56.996	0.143	0.063
-729.952	-24.127	-0.233	0.139
-728.937	-183.414	0.181	0.003
-727.923	-113.277	-0.301	0.059
-726.908	-116.501	-0.221	0.041
-725.894	-111.013	-0.200	-0.041
-724.879	-148.238	0.236	0.019
-723.864	-130.387	-0.241	0.033
-722.850	5.108	-0.120	-0.089
-721.835	363.966	-0.087	0.175
-720.821	56.640	-0.279	-0.271
-719.806	-66.114	0.237	-0.094
-718.791	-65.180	0.075	0.030
-717.777	503.948	-0.064	-0.148
-716.762	64.099	-0.190	-0.191
-715.748	59.214	-0.193	0.190
-714.733	-117.541	0.105	-0.019
-713.718	-98.698	-0.109	-0.028
-712.704	-148.310	-0.267	-0.022
-711.689	800.000	-0.141	-0.487
-710.675	-4.144	0.198	-0.137
-709.660	250.614	-0.068	0.116
-708.645	-200.000	0.013	-0.102
-707.631	800.000	0.105	0.431
-706.616	79.975	0.054	-0.058
-705.602	181.537	0.095	-0.140
-704.587	-200.000	0.037	-0.243
-703.572	103.551	-0.135	0.158
-702.558	-89.029	0.247	-0.073
-701.543	39.731	0.405	-0.363
-700.529	-116.057	0.228	0.042
-699.514	-200.000	-0.089	-0.547
-698.499	558.740	0.173	-0.416
-697.485	-74.041	-0.171	0.062
-696.470	6.352	-0.110	-0.081
-695.456	-200.000	0.029	-0.396
-694.441	65.102	0.160	-0.161
-693.426	-112.228	-0.230	0.046
-692.412	-200.000	0.021	0.166
-691.397	52.468	-0.090	-0.086
-690.383	56.364	0.119	0.116
-689.368	-49.922	-0.228	-0.108
-688.354	-198.174	-0.260	0.002
-687.339	275.633	-0.137	-0.242
-686.324	322.077	0.082	-0.156
-685.310	-200.000	0.002	-0.099
-684.295	-138.784	-0.116	-0.013
-683.281	146.505	-0.091	-0.121
-682.266	362.194	-0.159	0.319
-681.251	-87.980	-0.241	-0.072
-680.237	3.560	-0.101	-0.073
-679.222	800.000	-0.093	0.277
-678.208	-63.777	-0.416	0.170
-677.193	800.000	0.105	0.291
-676.178	-200.000	0.002	-0.063
-675.164	604.365	-0.046	0.115
-674.149	-32.778	-0.099	-0.055
-673.135	-79.542	-0.193	0.065
-672.120	-176.591	0.320	0.008
-671.105	-62.825	-0.033	-0.014
-670.091	800.000	-0.047	0.138
-669.076	780.706	-0.157	0.429
-668.062	-58.487	-0.289	-0.125
-667.047	42.436	-0.139	0.126
-666.032	390.613	-0.020	0.042
-665.018	-55.067	-0.256	-0.115
-664.003	372.554	0.128	-0.259
-662.989	223.914	0.290	-0.467
-661.974	174.310	0.107	-0.155
-660.959	496.156	-0.139	0.319
-659.945	18.216	0.120	-0.096
-658.930	-43.556	-0.084	-0.042
-657.916	800.000	-0.050	-0.172
-656.901	128.921	0.170	-0.217
-655.886	-122.294	-0.367	-0.060
-654.872	77.256	-0.417	-0.443
-653.857	255.839	0.151	0.258
-652.843	294.216	-0.118	-0.216
-651.828	121.589	0.105	0.131
-650.814	259.630	-0.070	-0.121
-649.799	-200.000	0.035	0.238
-648.784	-200.000	-0.030	0.144
-647.770	-165.498	0.310	-0.013
-646.755	198.017	-0.137	-0.209
-645.741	-13.095	-0.163	0.105
-644.726	-3.828	0.204	-0.141
-643.711	800.000	-0.103	0.355
-642.697	-165.363	-0.160	-0.007
-641.682	12.746	-0.015	0.011
-640.668	-8.842	-0.104	0.070
-639.653	-119.399	0.191	0.033
-638.638	-200.000	-0.020	0.208
-637.624	800.000	-0.074	0.221
-636.609	-200.000	0.036	0.311
-635.595	-200.000	0.021	0.229
-634.580	89.852	0.073	0.081
-633.565	-200.000	-0.013	-0.186
-632.551	662.617	-0.065	-0.167
-631.536	-102.606	-0.096	-0.023
-630.522	286.749	0.083	-0.150
-629.507	182.841	0.180	-0.265
-628.492	-113.286	-0.187	-0.037
-627.478	-200.000	0.019	-0.258
-626.463	-47.378	0.357	-0.173
-625.449	498.186	-0.079	0.180
-624.434	-143.501	-0.161	0.015
-623.419	800.000	0.040	0.118
-622.405	731.228	-0.055	-0.145
-621.390	-200.000	-0.003	0.082
-620.376	-77.572	0.239	0.082
-619.361	-200.000	-0.041	0.343
-618.346	800.000	-0.070	0.204
-617.332	800.000	-0.078	0.230
-616.317	-123.916	-0.392	0.061
-615.303	596.255	0.178	0.439
-614.288	134.312	-0.109	0.141
-613.273	31.941	0.067	0.058
-612.259	800.000	-0.097	-0.333
-611.244	107.584	-0.184	0.218
-610.230	317.003	-0.096	0.181
-609.215	13.786	-0.114	-0.088
-608.201	-200.000	0.052	-0.387
-607.186	515.888	0.082	-0.191
-606.171	-200.000	-0.055	-0.367
-605.157	-200.000	0.067	-0.359
-604.142	301.739	-0.082	-0.151
-603.128	-136.731	-0.026	-0.003
-602.113	-200.000	0.008	-0.234
-601.098	260.971	0.013	0.023
-600.084	55.701	0.149	-0.143
-599.069	368.842	0.038	-0.077
-598.055	-190.184	-0.069	-0.001
-597.040	-3.410	-0.059	0.041
-596.025	223.935	-0.137	-0.219
-595.011	-183.831	0.104	-0.002
-593.996	38.481	0.218	-0.193
-592.982	-44.090	0.211	-0.105
-591.967	-200.000	0.042	0.240
-590.952	180.584	-0.081	0.119
-589.938	-12.966	0.304	0.197
-588.923	29.142	0.082	-0.069
-587.909	-80.880	0.311	0.103
-586.894	-17.341	-0.068	0.042
-585.879	-115.365	0.066	0.012
-584.865	148.598	0.213	0.286
-583.850	44.984	0.035	-0.032
-582.836	-133.886	0.324	-0.040
-581.821	269.508	0.185	0.324
-580.806	-95.096	0.262	-0.070
-579.792	-83.035	-0.121	0.039
-578.777	34.101	-0.224	-0.194
-577.763	-200.000	-0.007	0.114
-576.748	-200.000	-0.010	-0.174
-575.733	-133.864	0.340	-0.042
-574.719	-59.519	-0.277	-0.118
-573.704	-200.000	-0.009	0.190
-572.690	-31.188	0.230	0.129
-571.675	-146.303	0.403	-0.035
-570.661	-64.389	0.100	0.041
-569.646	166.835	-0.137	-0.193
-568.631	211.114	0.318	-0.497
-567.617	57.108	0.333	-0.322
-566.602	87.337	-0.136	0.149
-565.588	-114.352	-0.357	0.068
-564.573	-200.000	0.000	0.125
-563.558	65.589	-0.226	0.227
-562.544	800.000	0.034	-0.127
-561.529	2.685	0.294	-0.212
-560.515	567.262	-0.027	-0.065
-559.500	254.753	0.096	0.163
-558.485	202.069	-0.096	-0.146
-557.471	-200.000	-0.038	-0.179
-556.456	800.000	0.106	0.313
-555.442	58.994	0.050	-0.049
-554.427	79.683	0.148	0.158
-553.412	-40.256	-0.280	-0.145
-552.398	261.421	0.123	0.211
-551.383	-200.000	0.009	-0.220
-550.369	-200.000	-0.021	-0.124
-549.354	-187.011	0.077	-0.001
-548.339	689.158	0.107	0.278
-547.325	-140.967	-0.404	-0.041
-546.310	-73.076	-0.177	-0.065
-545.296	-143.016	0.278	0.027
-544.281	-167.088	-0.251	0.010
-543.266	441.173	0.027	-0.059
-542.252	-200.000	0.054	0.362
-541.237	358.341	-0.058	0.114
-540.223	88.449	-0.107	-0.119
-539.208	800.000	-0.088	-0.247
-538.193	589.825	0.021	-0.052
-537.179	-200.000	-0.046	-0.204
-536.164	-104.257	-0.150	-0.035
-535.150	194.322	0.141	-0.213
-534.135	-14.083	-0.164	-0.105
-533.121	54.899	0.202	0.194
-532.106	10.832	-0.229	0.174
-531.091	-116.553	-0.132	0.024
-530.077	-62.308	0.154	0.063
-529.062	368.860	-0.030	-0.059
-528.048	50.484	-0.298	-0.280
-527.033	158.474	-0.069	-0.095
-526.018	-70.354	-0.374	0.141
-525.004	-200.000	-0.013	0.262
-523.989	-117.324	-0.171	-0.031
-522.975	-57.374	0.155	-0.068
-521.960	-0.166	0.243	-0.172
-520.945	-48.784	0.226	-0.107
-519.931	-67.163	0.238	0.093
-518.916	800.000	0.049	-0.137
-517.902	71.202	0.229	0.236
-516.887	160.948	-0.085	0.117
-515.872	-108.025	-0.266	0.057
-514.858	321.341	0.070	0.132
-513.843	-200.000	0.023	-0.110
-512.829	-59.060	0.140	-0.060
-511.814	-160.344	0.180	-0.010
-510.799	-25.932	-0.204	-0.119
-509.785	800.000	0.099	0.305
-508.770	131.510	0.064	0.082
-507.756	-146.264	-0.263	-0.023
-506.741	-140.482	0.292	0.030
-505.726	800.000	-0.039	-0.119
-504.712	269.985	0.061	0.106
-503.697	-200.000	-0.009	0.090
-502.683	-200.000	0.004	-0.173
-501.668	-57.352	0.104	-0.045
-500.653	11.950	-0.246	0.188
-499.639	64.563	-0.121	-0.121
-498.624	62.091	-0.132	-0.131
-497.610	-200.000	-0.043	0.226
-496.595	-129.346	0.260	-0.036
-495.581	-200.000	-0.002	-0.428
-494.566	0.287	0.052	-0.037
-493.551	-200.000	0.048	-0.306
-492.537	-113.910	-0.208	0.040
-491.522	49.169	-0.258	0.240
-490.508	800.000	0.024	-0.089
-489.493	-108.887	-0.126	0.027
-488.478	-200.000	0.013	-0.085
-487.464	-128.851	0.105	-0.015
-486.449	-121.756	-0.286	-0.047
-485.435	-86.801	-0.143	-0.043
-484.420	800.000	0.099	-0.293
-483.405	800.000	-0.033	-0.094
-482.391	-200.000	-0.054	0.293
-481.376	-170.707	0.125	-0.004
-480.362	5.223	-0.491	0.358
-479.347	800.000	0.039	-0.162
-478.332	-200.000	0.018	-0.084
-477.318	-80.443	0.175	0.058
-476.303	-200.000	-0.018	0.287
-475.289	170.166	-0.024	-0.035
-474.274	-71.058	0.120	-0.045
-473.259	-9.454	0.162	0.107
-472.245	48.502	0.160	0.148
-471.230	-131.738	-0.218	-0.028
-470.216	-47.597	0.319	0.154
-469.201	-35.030	-0.295	-0.159
-468.186	43.529	0.108	0.098
-467.172	450.772	0.046	-0.100
-466.157	-200.000	0.004	-0.280
-465.143	-80.623	-0.301	-0.099
-464.128	180.190	0.255	-0.371
-463.113	799.682	0.031	0.086
-462.099	15.168	-0.052	-0.041
-461.084	800.000	0.142	0.556
-460.070	-200.000	-0.024	0.210
-459.055	152.327	-0.164	0.221
-458.040	136.116	0.214	-0.276
-457.026	-200.000	-0.031	-0.236
-456.011	527.983	-0.086	-0.201
-454.997	613.593	0.087	0.216
-453.982	-200.000	0.058	-0.331
-452.968	614.353	-0.151	0.373
-451.953	-142.049	-0.193	0.019
-450.938	-61.678	-0.147	0.061
-449.924	-200.000	-0.021	0.371
-448.909	-60.776	0.391	-0.164
-447.895	49.878	-0.153	-0.143
-446.880	-26.041	0.366	0.213
-445.865	22.957	-0.025	-0.020
-444.851	-175.438	-0.582	-0.016
-443.836	-159.161	0.154	0.009
-442.822	-141.091	-0.314	-0.032
-441.807	-200.000	0.106	-0.000
-440.792	-97.218	-0.072	-0.019
-439.778	66.501	0.142	0.143
-438.763	800.000	0.047	-0.198
-437.749	-20.928	-0.393	-0.238
-436.734	-70.123	0.227	0.085
-435.719	-200.000	-0.233	-0.001
-434.705	-200.000	0.022	-0.154
-433.690	133.493	0.088	0.113
-432.676	-200.000	0.005	0.249
-431.661	-96.121	-0.225	0.059
-430.646	-44.699	-0.136	-0.067
-429.632	-24.491	0.321	-0.189
-428.617	-52.548	0.047	0.021
-427.603	800.000	-0.037	0.140
-426.588	-80.292	-0.192	-0.064
-425.573	-21.839	0.333	-0.200
-424.559	-200.000	0.002	0.114
-423.544	523.190	0.042	0.098
-422.530	-200.000	-0.003	0.119
-421.515	-55.465	-0.435	-0.193
-420.500	90.733	-0.217	0.241
-419.486	-156.068	0.047	0.003
-418.471	187.724	0.134	0.198
-417.457	-23.223	-0.095	-0.056
-416.442	-200.000	-0.030	-0.186
-415.428	800.000	0.099	0.307
-414.413	-91.733	0.161	0.045
-413.398	-200.000	-0.009	0.266
-412.384	72.849	-0.101	-0.104
-411.369	188.589	-0.101	0.149
-410.355	-200.000	0.076	0.555
-409.340	-200.000	-0.044	-0.198
-408.325	240.353	0.045	-0.075
-407.311	-153.675	-0.234	0.016
-406.296	-150.620	0.105	0.008
-405.282	-200.000	-0.019	-0.096
-404.267	678.097	0.031	-0.081
-403.252	69.024	0.142	0.144
-402.238	-200.000	-0.014	-0.174
-401.223	68.524	-0.172	0.174
-400.209	800.000	-0.058	-0.226
-399.194	-64.253	-0.197	0.079
-398.179	302.971	0.096	-0.175
-397.165	800.000	-0.146	-0.407
-396.150	264.768	-0.054	-0.093
-395.136	-35.814	0.129	0.069
-394.121	-92.248	0.053	-0.015
-393.106	-132.384	-0.242	0.031
-392.092	35.632	0.203	-0.176
-391.077	-48.828	-0.370	-0.175
-390.063	800.000	-0.063	0.173
-389.048	388.801	-0.120	0.246
-388.033	800.000	-0.100	0.289
-387.019	-158.169	-0.247	-0.014
-386.004	112.096	-0.211	-0.251
-384.990	-44.058	-0.318	0.158
-383.975	-49.398	-0.190	0.089
-382.960	-127.787	-0.201	0.029
-381.946	193.000	0.184	0.274
-380.931	227.497	-0.034	0.055
-379.917	800.000	-0.012	0.039
-378.902	-168.768	0.136	-0.005
-377.888	-200.000	0.021	-0.133
-376.873	254.857	0.071	0.121
-375.858	339.239	0.043	-0.083
-374.844	800.000	0.024	-0.094
-373.829	0.351	0.041	-0.029
-372.815	111.943	-0.202	0.241
-371.800	-59.545	-0.142	-0.060
-370.785	741.078	-0.068	0.181
-369.771	657.203	0.040	0.101
-368.756	23.648	0.283	0.230
-367.742	-40.054	0.398	0.205
-366.727	-106.584	0.329	-0.072
-365.712	-93.785	-0.373	-0.101
-364.698	-75.647	-0.313	-0.109
-363.683	800.000	0.041	-0.133
-362.669	1.950	-0.180	-0.128
-361.654	-200.000	0.042	-0.340
-360.639	-39.197	0.175	-0.091
-359.625	190.170	0.134	-0.198
-358.610	-112.542	0.126	-0.025
-357.596	168.597	0.138	-0.193
-356.581	800.000	-0.076	0.230
-355.566	-91.874	0.149	0.042
-354.552	-38.923	-0.193	-0.100
-353.537	-200.000	-0.028	0.267
-352.523	63.936	-0.069	-0.068
-351.508	292.862	-0.027	0.048
-350.493	444.579	-0.096	-0.208
-349.479	800.000	-0.074	-0.241
-348.464	-127.647	-0.244	-0.035
-347.450	-88.361	0.252	0.074
-346.435	-200.000	0.047	0.225
-345.420	800.000	-0.101	0.279
-344.406	358.971	0.051	0.100
-343.391	-7.743	-0.090	0.060
-342.377	51.175	0.172	-0.161
-341.362	-94.107	0.121	-0.033
-340.348	-200.000	-0.001	-0.060
-339.333	-72.904	0.273	0.099
-338.318	-2.447	0.266	-0.184
-337.304	800.000	0.058	-0.199
-336.289	-153.430	-0.106	0.007
-335.275	113.972	-0.182	0.219
-334.260	523.056	0.024	0.055
-333.245	-11.320	0.107	-0.069
-332.231	216.716	0.099	-0.155
-331.216	-10.473	-0.241	0.157
-330.202	163.276	0.072	0.100
-329.187	124.555	0.096	-0.119
-328.172	280.201	0.093	0.163
-327.158	278.810	0.069	0.122
-326.143	-165.397	-0.066	-0.003
-325.129	13.795	0.242	0.185
-324.114	23.214	-0.040	0.032
-323.099	371.449	-0.023	0.047
-322.085	61.679	-0.142	-0.140
-321.070	-200.000	-0.026	-0.143
-320.056	459.522	0.199	0.435
-319.041	800.000	0.032	-0.131
-318.026	229.188	0.117	0.187
-317.012	800.000	0.015	-0.059
-315.997	163.588	-0.281	-0.389
-314.983	0.726	0.168	0.118
-313.968	-18.335	0.258	-0.159
-312.953	-45.206	-0.267	0.131
-311.939	348.102	-0.113	0.219
-310.924	-20.530	-0.226	-0.136
-309.910	111.361	0.177	-0.209
-308.895	800.000	0.158	0.441
-307.880	-84.648	-0.204	-0.063
-306.866	180.622	-0.096	-0.139
-305.851	61.921	0.158	0.154
-304.837	191.457	-0.118	-0.174
-303.822	-12.044	-0.085	-0.055
-302.807	278.226	-0.119	-0.209
-301.793	-21.297	0.593	-0.356
-300.778	-200.000	0.004	-0.114
-299.764	800.000	0.032	0.097
-298.749	-120.962	0.394	-0.065
-297.735	-200.000	-0.014	-0.216
-296.720	800.000	0.025	-0.100
-295.705	-140.333	0.137	0.014
-294.691	111.378	-0.135	0.160
-293.676	-65.094	0.157	-0.062
-292.662	667.596	0.115	0.293
-291.647	-53.045	0.168	-0.076
-290.632	757.183	-0.036	0.095
-289.618	391.382	-0.090	0.184
-288.603	-200.000	-0.063	-0.281
-287.589	96.861	-0.276	0.311
-286.574	-88.309	0.095	-0.028
-285.559	-50.522	0.009	-0.004
-284.545	-96.302	0.270	-0.070
-283.530	91.548	-0.068	-0.075
-282.516	-1.013	0.006	0.004
-281.501	-200.000	-0.021	0.111
-280.486	-190.860	-0.075	0.001
-279.472	106.731	0.108	0.126
-278.457	153.633	-0.226	-0.304
-277.443	-163.655	0.057	0.003
-276.428	568.959	-0.085	-0.204
-275.413	-69.784	-0.234	0.088
-274.399	-82.376	0.301	-0.096
-273.384	-62.608	0.416	0.170
-272.370	-200.000	-0.002	-0.157
-271.355	-200.000	-0.043	0.308
-270.340	85.003	-0.287	0.309
-269.326	800.000	-0.066	0.225
-268.311	233.880	-0.114	0.184
-267.297	-37.722	-0.263	0.138
-266.282	57.906	0.183	0.176
-265.267	-111.793	-0.394	0.078
-264.253	93.960	-0.260	-0.290
-263.238	-129.641	0.088	-0.012
-262.224	-60.057	-0.227	-0.095
-261.209	-109.373	-0.296	-0.062
-260.195	-200.000	-0.035	-0.159
-259.180	408.377	-0.024	0.049
-258.165	-200.000	-0.003	-0.085
-257.151	-131.176	-0.221	0.029
-256.136	288.500	0.078	-0.138
-255.122	-200.000	-0.006	-0.100
-254.107	-200.000	0.001	-0.146
-253.092	-54.359	-0.115	0.051
-252.078	-38.533	-0.322	0.167
-251.063	-126.877	0.199	-0.029
-250.049	12.749	0.215	-0.163
-249.034	404.511	-0.110	-0.228
-248.019	126.915	-0.118	-0.147
-247.005	576.445	-0.014	0.033
-245.990	800.000	0.044	-0.127
-244.976	6.751	0.247	-0.180
-243.961	-200.000	0.006	0.149
-242.946	336.422	-0.250	0.477
-241.932	241.145	-0.211	-0.346
-240.917	117.229	0.173	-0.209
-239.903	449.422	-0.029	0.062
-238.888	578.039	-0.040	0.096
-237.873	14.202	0.208	0.159
-236.859	62.167	0.076	0.074
-235.844	-32.496	-0.316	-0.173
-234.830	-34.602	0.292	0.157
-233.815	-200.000	0.035	-0.176
-232.800	288.767	0.013	0.023
-231.786	250.980	0.216	-0.360
-230.771	-141.550	-0.228	0.023
-229.757	-200.000	-0.032	-0.227
-228.742	-34.204	-0.052	-0.028
-227.727	347.270	0.140	-0.270
-226.713	-117.772	0.326	0.057
-225.698	-136.672	-0.249	-0.028
-224.684	-200.000	-0.080	-0.373
-223.669	-200.000	0.014	-0.092
-222.655	800.000	0.053	-0.200
-221.640	99.836	0.178	0.202
-220.625	-199.535	0.149	-0.001
-219.611	-40.572	0.236	-0.120
-218.596	446.558	-0.098	-0.211
-217.582	-84.742	0.118	-0.037
-216.567	143.120	-0.100	-0.130
-215.552	-200.000	-0.019	0.095
-214.538	349.814	0.149	-0.288
-213.523	342.822	-0.185	-0.356
-212.509	-71.792	-0.210	-0.077
-211.494	148.496	-0.183	-0.242
-210.479	65.230	0.030	0.029
-209.465	48.763	0.218	0.201
-208.450	-31.058	-0.085	0.047
-207.436	-83.550	0.220	0.069
-206.421	-104.732	0.196	0.044
-205.406	303.561	0.109	0.198
-204.392	73.788	0.236	0.242
-203.377	-157.706	0.139	-0.008
-202.363	105.932	-0.257	0.299
-201.348	800.000	0.142	0.486
-200.333	58.126	-0.372	0.357
-199.319	-200.000	-0.053	-0.329
-198.304	800.000	-0.011	0.038
-197.290	33.588	-0.138	-0.118
-196.275	16.891	0.030	0.023
-195.260	312.586	0.219	-0.404
-194.246	800.000	-0.055	-0.161
-193.231	-177.488	0.262	0.006
-192.217	-196.347	0.290	-0.002
-191.202	126.594	0.112	-0.139
-190.187	61.154	0.173	0.168
-189.173	-71.987	-0.245	0.089
-188.158	127.731	0.201	0.250
-187.144	766.989	0.131	0.350
-186.129	-200.000	-0.027	-0.130
-185.114	255.709	-0.105	-0.176
-184.100	-124.316	0.273	0.042
-183.085	244.805	-0.026	0.042
-182.071	374.666	0.118	0.235
-181.056	-159.373	0.252	-0.014
-180.042	19.517	0.355	0.280
-179.027	53.026	-0.289	-0.270
-178.012	252.786	0.060	-0.100
-176.998	800.000	0.037	0.126
-175.983	37.847	-0.296	-0.257
-174.969	-188.359	-0.359	-0.004
-173.954	-11.517	-0.159	0.102
-172.939	-35.121	-0.347	0.185
-171.925	106.252	0.047	0.054
-170.910	-95.191	-0.220	-0.058
-169.896	-74.177	-0.071	-0.025
-168.881	32.674	0.171	-0.145
-167.866	555.151	-0.012	-0.028
-166.852	104.057	-0.104	0.119
-165.837	122.552	0.315	0.386
-164.823	315.268	0.093	0.171
-163.808	-89.930	-0.128	-0.037
-162.793	519.721	-0.089	0.204
-161.779	-48.628	-0.123	0.058
-160.764	-141.590	0.217	-0.021
-159.750	315.743	0.100	-0.185
-158.735	-102.635	-0.362	-0.084
-157.720	42.833	-0.181	-0.161
-156.706	-109.576	0.265	0.055
-155.691	664.475	-0.075	-0.190
-154.677	-200.000	0.047	0.251
-153.662	-109.797	0.298	-0.061
-152.647	-127.070	0.313	-0.045
-151.633	12.602	-0.189	0.142
-150.618	-41.547	-0.242	-0.122
-149.604	-135.337	-0.039	0.005
-148.589	-53.809	0.249	-0.111
-147.574	-113.203	-0.309	0.060
-146.560	-37.969	-0.085	-0.044
-145.545	702.988	0.058	0.150
-144.531	-132.783	0.251	-0.031
-143.516	33.775	-0.077	-0.065
-142.502	-200.000	0.016	0.132
-141.487	594.719	0.068	0.164
-140.472	-18.038	0.188	0.115
-139.458	-200.000	0.035	0.233
-138.443	299.439	0.050	-0.091
-137.429	323.848	-0.116	-0.217
-136.414	367.857	0.048	0.095
-135.399	800.000	-0.043	-0.138
-134.385	152.760	0.064	0.085
-133.370	-100.601	-0.223	-0.054
-132.356	189.114	0.183	-0.267
-131.341	-147.458	0.149	0.012
-130.326	-52.823	-0.167	0.075
-129.312	329.887	-0.145	0.272
-128.297	-8.214	0.285	0.187
-127.283	-65.494	0.164	0.064
-126.268	800.000	0.077	0.232
-125.253	609.298	0.056	-0.136
-124.239	284.034	0.127	0.223
-123.224	49.769	-0.237	0.218
-122.210	800.000	0.067	0.189
