DTS Sentinel unit serial number:	SN413079Multiplexer serial number:	ORYXHardware model number:	OX4-SRSoftware version number:	ORYX F/W v4.00 Oryx Data Collector v3.7.2.0data status	okinstallation	princeton_trtdifferential loss correction	single-endedforward channel	channel 1reverse channel	N/Adate	2019/09/16time	04:06:35forward acquisition time	60.00reverse acquisition time	0.00gamma	496.2192k internal	0.2331k external	0.2331temperature offset calibration	0.9979default loss term (dB/km)	0.3790temperature slope calibration	1.0000multiplexer offset coefficient	1.0000multiplexer slope coefficient	1.0000fibre end	0.00T internal ref (°C)	27.44T ext. ref 1 (°C)	10.74T ext. ref 2 (°C)	21.42length (m)	temperature (°C)	Stokes	anti-Stokes-747.200	-75.645	0.401	0.143
-746.185	-73.022	0.027	0.010
-745.171	120.594	0.156	0.195
-744.156	-163.472	-0.166	0.008
-743.142	65.696	-0.076	0.077
-742.127	161.775	-0.115	0.162
-741.112	23.743	-0.074	-0.061
-740.098	19.857	-0.083	0.067
-739.083	172.856	0.062	0.089
-738.069	-200.000	0.006	0.229
-737.054	-178.029	0.487	-0.012
-736.039	-200.000	-0.016	0.232
-735.025	191.676	0.156	0.237
-734.010	47.700	-0.227	-0.213
-732.996	36.058	0.075	-0.066
-731.981	800.000	-0.140	0.406
-730.966	800.000	-0.055	0.177
-729.952	197.495	0.325	-0.500
-728.937	-150.346	0.194	-0.015
-727.923	-0.948	-0.135	0.096
-726.908	800.000	0.055	-0.218
-725.894	-47.745	-0.185	-0.090
-724.879	-85.206	0.203	-0.064
-723.864	479.926	-0.182	-0.416
-722.850	-173.985	0.465	0.014
-721.835	-200.000	0.022	-0.119
-720.821	-8.526	-0.264	-0.178
-719.806	800.000	-0.034	-0.138
-718.791	292.860	-0.036	-0.066
-717.777	-200.000	-0.027	-0.203
-716.762	300.120	-0.181	-0.336
-715.748	-118.744	-0.373	-0.066
-714.733	-155.260	-0.405	-0.026
-713.718	-200.000	-0.019	-0.335
-712.704	142.425	0.014	-0.018
-711.689	419.685	0.110	0.236
-710.675	-111.729	-0.327	0.067
-709.660	800.000	-0.014	-0.044
-708.645	126.142	0.109	0.138
-707.631	46.898	-0.247	-0.231
-706.616	389.834	0.131	0.274
-705.602	680.539	0.074	0.194
-704.587	-200.000	-0.014	0.163
-703.572	-129.769	-0.242	0.033
-702.558	-60.092	0.165	-0.071
-701.543	-86.196	-0.211	0.065
-700.529	630.881	0.054	-0.137
-699.514	-41.850	-0.235	-0.121
-698.499	-61.979	0.266	-0.112
-697.485	57.109	-0.078	-0.077
-696.470	27.107	0.119	-0.100
-695.456	76.191	-0.120	-0.128
-694.441	-66.622	-0.123	-0.049
-693.426	-187.143	-0.200	0.003
-692.412	239.071	-0.189	0.316
-691.397	-200.000	0.032	0.205
-690.383	282.174	0.170	-0.307
-689.368	-146.436	-0.160	-0.014
-688.354	-78.843	0.277	0.095
-687.339	-127.123	-0.212	-0.031
-686.324	233.194	-0.189	-0.312
-685.310	-163.429	-0.141	-0.007
-684.295	485.061	0.067	-0.154
-683.281	-200.000	0.006	0.081
-682.266	800.000	0.051	-0.197
-681.251	38.699	-0.175	0.157
-680.237	48.064	-0.142	0.134
-679.222	-200.000	0.071	0.419
-678.208	-74.894	-0.183	0.066
-677.193	-41.031	-0.199	-0.103
-676.178	-200.000	0.015	-0.149
-675.164	80.735	-0.225	-0.244
-674.149	-5.138	0.093	-0.065
-673.135	-200.000	0.013	0.321
-672.120	-154.923	-0.059	-0.004
-671.105	-54.424	-0.109	-0.050
-670.091	-56.353	-0.265	-0.118
-669.076	402.523	-0.177	0.373
-668.062	-81.352	-0.356	0.118
-667.047	-200.000	-0.019	-0.332
-666.032	668.793	-0.175	-0.454
-665.018	800.000	0.061	-0.201
-664.003	-117.721	-0.219	-0.040
-662.989	-200.000	0.005	0.139
-661.974	46.503	-0.193	0.180
-660.959	-200.000	-0.012	-0.126
-659.945	254.065	-0.008	-0.014
-658.930	172.599	0.195	-0.281
-657.916	216.311	0.047	-0.074
-656.901	46.208	0.118	-0.109
-655.886	-200.000	0.018	-0.154
-654.872	-47.140	0.221	0.108
-653.857	-69.322	-0.391	-0.151
-652.843	-93.911	0.282	-0.078
-651.828	58.628	0.133	-0.131
-650.814	800.000	-0.025	-0.074
-649.799	-103.116	-0.074	-0.018
-648.784	800.000	-0.047	-0.146
-647.770	-82.165	0.299	0.098
-646.755	-82.701	0.112	0.036
-645.741	-76.361	0.376	-0.133
-644.726	-46.121	-0.248	-0.123
-643.711	-200.000	-0.058	0.318
-642.697	800.000	-0.068	0.219
-641.682	-200.000	-0.000	-0.410
-640.668	800.000	0.041	-0.158
-639.653	-172.652	0.484	0.015
-638.638	-133.939	-0.328	0.041
-637.624	-143.379	-0.438	0.042
-636.609	156.128	0.067	-0.092
-635.595	411.174	-0.099	0.211
-634.580	113.168	0.143	0.174
-633.565	328.063	0.106	-0.205
-632.551	-57.531	0.406	0.178
-631.536	1.875	-0.123	0.089
-630.522	63.569	-0.221	0.223
-629.507	168.432	0.161	-0.230
-628.492	-200.000	-0.000	0.152
-627.478	-127.281	0.142	-0.021
-626.463	-73.756	-0.228	-0.083
-625.449	269.720	-0.314	-0.553
-624.434	-200.000	-0.008	0.130
-623.419	90.172	-0.171	0.191
-622.405	-64.955	-0.333	-0.135
-621.390	800.000	0.008	0.032
-620.376	-18.353	-0.061	0.038
-619.361	283.359	0.169	-0.304
-618.346	-200.000	-0.015	0.118
-617.332	-113.925	-0.205	0.040
-616.317	-200.000	0.009	-0.188
-615.303	481.310	-0.047	0.107
-614.288	-149.055	-0.117	-0.009
-613.273	327.131	0.083	-0.159
-612.259	-199.728	-0.277	0.001
-611.244	-149.450	-0.089	0.007
-610.230	-85.017	-0.058	0.018
-609.215	800.000	-0.038	0.144
-608.201	133.040	0.073	-0.095
-607.186	-79.292	-0.069	0.024
-606.171	-90.001	-0.340	0.099
-605.157	108.079	0.182	0.217
-604.142	-75.153	-0.106	0.038
-603.128	168.393	-0.115	0.164
-602.113	-103.722	-0.093	0.022
-601.098	199.309	0.076	0.117
-600.084	42.988	-0.123	-0.113
-599.069	-182.246	-0.116	0.002
-598.055	207.688	-0.136	-0.212
-597.040	-24.516	0.273	-0.162
-596.025	43.498	-0.205	0.187
-595.011	-56.285	0.430	0.191
-593.996	800.000	-0.036	-0.142
-592.982	15.520	-0.397	0.312
-591.967	-24.575	-0.060	0.036
-590.952	-15.073	-0.217	-0.139
-589.938	504.410	0.067	0.154
-588.923	800.000	-0.056	0.213
-587.909	556.223	-0.076	-0.184
-586.894	148.535	-0.087	-0.118
-585.879	-200.000	-0.024	-0.164
-584.865	-85.785	-0.133	-0.041
-583.850	-118.575	-0.215	-0.038
-582.836	-160.309	0.276	-0.015
-581.821	-98.374	-0.167	0.043
-580.806	-1.548	-0.210	0.148
-579.792	220.143	-0.092	0.147
-578.777	118.543	-0.066	-0.082
-577.763	-102.812	0.456	-0.108
-576.748	-200.000	0.019	0.108
-575.733	-146.878	-0.167	-0.014
-574.719	181.820	-0.117	-0.172
-573.704	-60.276	-0.332	0.141
-572.690	55.292	-0.166	0.160
-571.675	-200.000	-0.018	0.103
-570.661	-116.266	-0.227	0.042
-569.646	-107.165	0.095	-0.021
-568.631	580.619	-0.077	-0.189
-567.617	-155.771	0.097	0.006
-566.602	-97.054	-0.350	0.092
-565.588	-37.159	0.056	0.030
-564.573	-117.149	0.534	0.097
-563.558	-200.000	0.043	0.194
-562.544	13.264	-0.183	-0.142
-561.529	44.458	-0.306	0.281
-560.515	171.839	0.205	-0.294
-559.500	-134.450	0.267	0.033
-558.485	-33.425	-0.284	0.157
-557.471	800.000	0.035	0.103
-556.456	800.000	-0.057	-0.244
-555.442	-59.561	-0.260	-0.111
-554.427	-103.493	-0.173	-0.041
-553.412	-109.796	0.259	-0.054
-552.398	-146.121	0.062	0.005
-551.383	112.437	-0.417	-0.503
-550.369	-130.426	-0.566	0.077
-549.354	1.906	-0.134	-0.096
-548.339	-200.000	-0.003	0.559
-547.325	485.170	-0.157	0.356
-546.310	-200.000	0.023	-0.377
-545.296	-55.530	0.273	0.122
-544.281	475.069	-0.101	-0.228
-543.266	344.543	0.072	-0.142
-542.252	-66.244	-0.164	-0.065
-541.237	-200.000	-0.083	0.410
-540.223	-120.404	-0.126	0.021
-539.208	800.000	-0.093	0.362
-538.193	800.000	-0.067	-0.278
-537.179	800.000	-0.057	0.227
-536.164	-125.688	0.096	-0.014
-535.150	23.339	-0.199	-0.163
-534.135	-173.511	0.132	0.004
-533.121	-11.891	0.081	-0.053
-532.106	-70.319	0.108	-0.041
-531.091	462.417	-0.061	-0.135
-530.077	-67.675	0.129	0.050
-529.062	-200.000	0.008	-0.248
-528.048	800.000	-0.075	0.263
-527.033	-122.285	0.410	0.067
-526.018	232.034	0.202	0.331
-525.004	24.480	-0.180	0.148
-523.989	-89.130	-0.136	-0.040
-522.975	98.107	-0.119	0.137
-521.960	-117.751	-0.169	0.030
-520.945	-153.276	-0.037	-0.003
-519.931	140.854	0.170	-0.223
-518.916	-69.147	0.518	0.199
-517.902	249.660	0.135	-0.229
-516.887	-149.627	-0.099	-0.008
-515.872	-34.896	-0.206	0.112
-514.858	53.528	0.227	-0.217
-513.843	-180.340	-0.238	-0.005
-512.829	-162.242	0.103	0.005
-511.814	255.676	0.192	0.328
-510.799	376.547	0.101	0.205
-509.785	-200.000	-0.017	-0.166
-508.770	-200.000	-0.017	-0.217
-507.756	530.090	0.114	0.269
-506.741	-51.150	-0.044	0.020
-505.726	703.514	-0.180	-0.472
-504.712	-200.000	0.010	0.173
-503.697	-55.582	0.209	0.093
-502.683	262.077	-0.165	-0.285
-501.668	238.492	0.059	-0.098
-500.653	-109.452	-0.098	0.021
-499.639	-73.468	-0.049	0.018
-498.624	-137.235	0.339	-0.038
-497.610	401.597	0.198	0.415
-496.595	-177.962	0.415	-0.010
-495.581	-95.872	-0.072	-0.019
-494.566	315.325	0.098	0.184
-493.551	87.570	0.216	-0.238
-492.537	800.000	-0.018	-0.052
-491.522	51.297	0.394	0.372
-490.508	40.731	0.113	-0.101
-489.493	33.212	0.028	-0.024
-488.478	-200.000	-0.010	0.174
-487.464	-95.524	-0.285	-0.076
-486.449	-158.473	0.215	0.012
-485.435	-80.048	-0.266	-0.089
-484.420	-6.437	0.056	0.038
-483.405	-200.000	-0.036	0.254
-482.391	-44.928	0.207	-0.103
-481.376	63.501	0.200	-0.200
-480.362	-200.000	-0.000	-0.457
-479.347	-192.374	-0.323	-0.003
-478.332	-62.907	0.220	-0.091
-477.318	104.364	0.224	-0.262
-476.303	155.637	-0.312	0.428
-475.289	-61.790	-0.198	0.083
-474.274	800.000	-0.040	0.112
-473.259	-107.187	-0.211	-0.046
-472.245	800.000	0.066	0.242
-471.230	-166.705	-0.355	0.015
-470.216	-47.001	-0.103	0.050
-469.201	800.000	-0.042	-0.174
-468.186	800.000	0.014	0.047
-467.172	-109.899	0.193	-0.040
-466.157	403.543	-0.045	-0.095
-465.143	81.481	-0.071	-0.077
-464.128	-200.000	0.015	0.108
-463.113	24.415	-0.144	-0.118
-462.099	-132.644	0.320	0.041
-461.084	-200.000	0.046	0.238
-460.070	-34.104	0.158	-0.087
-459.055	-63.906	0.121	-0.049
-458.040	-9.272	-0.203	0.135
-457.026	-176.455	-0.123	-0.003
-456.011	-78.738	0.307	-0.104
-454.997	84.262	0.238	-0.259
-453.982	-200.000	0.004	-0.101
-452.968	-161.061	-0.358	0.019
-451.953	-108.119	0.024	0.005
-450.938	124.355	-0.069	0.086
-449.924	-200.000	-0.040	0.435
-448.909	-200.000	0.035	-0.250
-447.895	32.187	-0.373	-0.320
-446.880	4.311	-0.134	-0.098
-445.865	-37.813	0.082	0.044
-444.851	-55.234	-0.036	0.016
-443.836	800.000	-0.071	0.235
-442.822	360.659	0.102	0.204
-441.807	156.905	0.135	0.185
-440.792	419.052	-0.206	0.439
-439.778	480.955	0.032	-0.073
-438.763	800.000	-0.088	0.246
-437.749	-200.000	0.009	0.134
-436.734	-121.284	0.145	-0.024
-435.719	588.586	0.108	-0.263
-434.705	-50.676	-0.257	-0.120
-433.690	-72.190	0.177	0.065
-432.676	-7.637	0.115	0.077
-431.661	81.857	-0.210	0.226
-430.646	-28.017	0.120	-0.069
-429.632	800.000	-0.060	-0.207
-428.617	-47.936	0.189	-0.091
-427.603	800.000	-0.072	0.268
-426.588	34.605	-0.244	0.212
-425.573	-177.868	-0.140	0.003
-424.559	800.000	-0.055	-0.186
-423.544	261.969	-0.093	-0.160
-422.530	37.934	0.397	0.350
-421.515	-200.000	-0.031	-0.141
-420.500	-200.000	0.042	0.252
-419.486	-96.706	-0.264	0.069
-418.471	194.853	0.093	0.140
-417.457	4.593	0.081	0.059
-416.442	666.226	-0.151	-0.389
-415.428	-112.560	-0.165	0.033
-414.413	417.175	0.087	0.185
-413.398	-200.000	-0.006	-0.048
-412.384	-32.209	0.190	-0.105
-411.369	-27.608	0.117	-0.068
-410.355	-200.000	-0.043	0.539
-409.340	-90.922	0.320	-0.091
-408.325	120.419	-0.212	0.261
-407.311	365.413	0.019	0.038
-406.296	-72.642	-0.169	0.062
-405.282	-67.972	0.299	-0.116
-404.267	598.516	-0.126	-0.311
-403.252	-113.743	0.324	-0.063
-402.238	-55.079	-0.095	0.042
-401.223	-81.232	-0.329	0.108
-400.209	-200.000	-0.029	0.128
-399.194	412.691	0.174	0.368
-398.179	-18.386	0.160	-0.099
-397.165	-200.000	-0.007	-0.346
-396.150	-177.327	-0.064	0.002
-395.136	-75.405	0.172	0.061
-394.121	-200.000	0.025	0.142
-393.106	-34.008	-0.280	-0.153
-392.092	247.427	-0.108	-0.180
-391.077	-111.537	0.314	0.063
-390.063	-76.526	-0.131	-0.046
-389.048	-140.093	0.383	0.040
-388.033	122.461	0.056	0.069
-387.019	-127.150	-0.045	-0.007
-386.004	36.910	-0.112	0.098
-384.990	2.086	0.120	-0.086
-383.975	35.624	0.110	-0.096
-382.960	177.348	0.159	-0.230
-381.946	-103.123	-0.248	-0.058
-380.931	-113.483	0.084	-0.016
-379.917	-108.170	-0.305	-0.065
-378.902	41.556	-0.148	-0.133
-377.888	-100.948	0.091	-0.022
-376.873	-48.183	-0.173	-0.083
-375.858	274.977	0.108	0.190
-374.844	155.600	-0.221	-0.302
-373.829	-49.896	0.078	0.037
-372.815	-200.000	-0.010	0.141
-371.800	-60.480	0.171	-0.072
-370.785	4.776	-0.202	0.148
-369.771	-114.559	0.134	-0.025
-368.756	564.648	-0.085	0.205
-367.742	800.000	-0.051	0.169
-366.727	-126.978	-0.148	-0.022
-365.712	-200.000	0.011	-0.311
-364.698	63.629	-0.378	0.376
-363.683	694.084	-0.050	0.129
-362.669	209.183	0.165	-0.256
-361.654	-200.000	-0.002	-0.055
-360.639	-155.220	0.093	0.006
-359.625	23.762	0.131	-0.107
-358.610	-58.208	-0.086	-0.037
-357.596	32.131	0.015	-0.013
-356.581	334.376	-0.110	0.211
-355.566	-145.514	-0.299	-0.027
-354.552	-47.040	0.172	-0.083
-353.537	76.287	-0.042	0.044
-352.523	268.760	-0.076	0.132
-351.508	14.378	0.160	0.124
-350.493	-200.000	-0.007	0.047
-349.479	-160.541	0.069	0.004
-348.464	442.315	0.053	-0.116
-347.450	-168.968	0.106	-0.004
-346.435	-200.000	0.063	-0.419
-345.420	-140.371	-0.208	0.021
-344.406	-146.286	0.261	0.023
-343.391	277.465	0.142	0.251
-342.377	715.279	0.059	-0.156
-341.362	-156.786	-0.187	0.011
-340.348	-118.170	-0.059	0.010
-339.333	-69.961	-0.210	-0.079
-338.318	68.404	-0.200	-0.203
-337.304	-7.391	-0.053	0.036
-336.289	-39.336	-0.169	0.088
-335.275	-130.904	0.327	-0.043
-334.260	319.187	-0.093	0.175
-333.245	-175.038	0.137	-0.004
-332.231	-164.883	0.357	0.016
-331.216	-164.054	0.128	0.006
-330.202	213.221	0.241	-0.378
-329.187	-127.065	0.510	0.074
-328.172	484.860	-0.060	-0.134
-327.158	-148.222	-0.228	0.019
-326.143	211.258	-0.075	-0.118
-325.129	-200.000	-0.022	-0.179
-324.114	135.721	-0.168	-0.216
-323.099	-200.000	0.055	0.000
-322.085	-73.811	-0.154	-0.055
-321.070	-200.000	0.016	0.153
-320.056	-137.317	0.303	0.034
-319.041	29.165	-0.317	0.266
-318.026	59.835	0.144	0.140
-317.012	-200.000	-0.003	0.162
-315.997	-155.987	0.295	0.018
-314.983	-115.046	0.114	-0.021
-313.968	37.744	-0.220	-0.193
-312.953	61.206	0.059	-0.058
-311.939	-167.021	0.502	0.020
-310.924	-65.996	0.182	0.072
-309.910	-97.476	0.136	-0.035
-308.895	-21.950	0.280	0.169
-307.880	146.323	-0.298	0.395
-306.866	66.646	-0.164	0.165
-305.851	800.000	-0.060	-0.248
-304.837	118.943	0.125	-0.153
-303.822	800.000	0.054	0.160
-302.807	-200.000	-0.012	0.285
-301.793	72.532	-0.044	-0.045
-300.778	-182.212	-0.383	0.007
-299.764	-93.759	-0.355	0.097
-298.749	-132.765	-0.273	0.035
-297.735	-200.000	0.014	-0.136
-296.720	-2.452	-0.169	-0.117
-295.705	62.501	-0.180	-0.178
-294.691	800.000	0.068	-0.274
-293.676	136.429	-0.058	0.074
-292.662	299.878	-0.127	-0.232
-291.647	-200.000	0.027	0.291
-290.632	100.396	0.056	-0.064
-289.618	-200.000	0.030	-0.264
-288.603	80.060	-0.157	-0.167
-287.589	-200.000	-0.007	-0.052
-286.574	59.815	0.108	0.105
-285.559	-134.229	0.419	0.051
-284.545	-200.000	0.208	-0.001
-283.530	-200.000	-0.095	0.000
-282.516	800.000	0.043	-0.128
-281.501	-200.000	-0.021	0.297
-280.486	-200.000	0.014	0.308
-279.472	-186.581	-0.153	-0.002
-278.457	-200.000	-0.013	0.267
-277.443	-142.999	0.057	0.005
-276.428	247.665	0.206	-0.344
-275.413	239.451	-0.273	-0.449
-274.399	231.083	-0.079	0.128
-273.384	-69.745	-0.130	-0.049
-272.370	-59.007	0.096	0.041
-271.355	45.364	0.136	-0.124
-270.340	-99.471	0.385	-0.096
-269.326	-200.000	0.036	0.437
-268.311	-129.169	-0.338	-0.047
-267.297	-26.417	0.238	-0.138
-266.282	-147.728	0.223	-0.018
-265.267	-37.778	0.329	-0.173
-264.253	-96.076	0.422	-0.111
-263.238	32.523	-0.058	-0.049
-262.224	-73.262	-0.196	-0.071
-261.209	250.530	0.037	0.062
-260.195	-18.289	0.059	-0.036
-259.180	-126.986	0.384	-0.056
-258.165	-84.577	0.374	-0.117
-257.151	-24.730	0.181	-0.106
-256.136	107.095	0.223	-0.261
-255.122	451.846	0.178	-0.389
-254.107	125.528	-0.075	0.093
-253.092	29.300	-0.271	-0.227
-252.078	800.000	-0.049	-0.194
-251.063	-71.345	-0.152	-0.056
-250.049	-104.030	-0.173	0.040
-249.034	-14.839	0.195	-0.123
-248.019	113.475	-0.141	-0.169
-247.005	-176.996	-0.302	-0.008
-245.990	-161.276	0.280	0.014
-244.976	96.582	0.135	0.152
-243.961	-70.860	-0.290	0.108
-242.946	385.491	0.063	-0.129
-241.932	155.782	0.157	0.214
-240.917	-4.903	-0.184	-0.125
-239.903	-192.002	0.674	-0.006
-238.888	138.509	-0.157	0.203
-237.873	-200.000	-0.096	0.000
-236.859	80.491	0.213	0.227
-235.844	3.375	0.307	0.220
-234.830	-200.000	0.038	0.332
-233.815	-59.415	0.294	0.125
-232.800	-116.716	-0.425	-0.077
-231.786	-54.712	-0.315	-0.140
-230.771	75.184	-0.169	0.176
-229.757	35.352	0.148	0.128
-228.742	-24.515	0.353	-0.208
-227.727	48.900	-0.350	-0.324
-226.713	12.821	0.083	0.063
-225.698	-13.574	-0.192	0.123
-224.684	-28.219	0.337	-0.192
-223.669	186.438	-0.155	-0.227
-222.655	-84.746	0.095	0.029
-221.640	-58.792	0.216	0.092
-220.625	-200.000	0.032	-0.151
-219.611	-177.403	0.131	-0.003
-218.596	-50.474	0.196	-0.091
-217.582	239.776	-0.171	-0.280
-216.567	800.000	0.054	0.229
-215.552	-29.792	0.226	-0.127
-214.538	133.081	-0.077	0.098
-213.523	-200.000	-0.022	-0.218
-212.509	-197.419	-0.301	-0.002
-211.494	51.950	0.132	0.124
-210.479	104.491	-0.039	0.045
-209.465	-3.530	-0.030	-0.021
-208.450	97.883	-0.067	0.076
-207.436	-63.368	0.139	-0.056
-206.421	-23.323	-0.137	-0.081
-205.406	30.573	0.010	0.008
-204.392	21.348	0.192	-0.154
-203.377	-89.049	-0.192	-0.056
-202.363	-121.968	-0.146	0.024
-201.348	46.435	0.074	-0.067
-200.333	2.740	-0.285	-0.204
-199.319	-9.730	0.377	0.248
-198.304	116.239	0.089	0.107
-197.290	-71.960	0.036	-0.013
-196.275	-200.000	-0.041	0.424
-195.260	-139.465	-0.209	0.022
-194.246	41.885	-0.114	0.102
-193.231	-47.084	0.223	-0.107
-192.217	65.004	-0.187	-0.186
-191.202	800.000	0.031	-0.133
-190.187	-200.000	0.007	0.037
-189.173	-200.000	-0.028	0.285
-188.158	-84.518	-0.076	0.024
-187.144	587.427	-0.122	-0.295
-186.129	139.734	-0.074	0.096
-185.114	0.393	-0.160	-0.112
-184.100	358.409	-0.188	0.370
-183.085	-50.893	0.254	0.117
-182.071	-103.412	0.157	0.036
-181.056	31.752	-0.366	-0.310
-180.042	-200.000	0.002	0.045
-179.027	-87.569	0.103	0.031
-178.012	524.472	0.090	-0.209
-176.998	-200.000	0.099	0.460
-175.983	-200.000	0.015	0.176
-174.969	467.591	-0.037	-0.081
-173.954	-200.000	0.087	-0.377
-172.939	-55.637	0.209	0.092
-171.925	-115.957	0.233	0.043
-170.910	-200.000	0.016	-0.158
-169.896	-200.000	-0.013	-0.168
-168.881	280.743	0.116	-0.205
-167.866	800.000	-0.092	-0.264
-166.852	-41.193	-0.395	-0.200
-165.837	-72.876	0.163	0.059
-164.823	-200.000	-0.021	0.163
-163.808	800.000	0.044	0.162
-162.793	646.101	-0.079	-0.199
-161.779	800.000	-0.021	0.065
-160.764	-69.209	0.276	0.104
-159.750	13.407	0.143	0.109
-158.735	291.820	0.175	0.313
-157.720	-62.169	0.196	-0.081
-156.706	-20.218	-0.213	-0.129
-155.691	-200.000	-0.010	-0.092
-154.677	-114.751	0.095	0.018
-153.662	77.347	-0.234	-0.245
-152.647	-153.361	0.075	-0.005
-151.633	256.369	0.094	0.159
-150.618	-200.000	-0.035	0.225
-149.604	400.069	0.085	-0.175
-148.589	54.640	0.338	0.320
-147.574	546.276	-0.124	0.292
-146.560	38.022	-0.156	-0.137
-145.545	-200.000	-0.028	0.274
-144.531	523.271	0.105	-0.244
-143.516	311.077	0.090	-0.166
-142.502	14.866	-0.210	-0.162
-141.487	228.852	-0.181	-0.289
-140.472	-108.720	0.244	0.051
-139.458	134.793	0.133	-0.170
-138.443	114.518	-0.223	0.267
-137.429	-47.353	-0.042	0.020
-136.414	132.891	0.281	-0.357
-135.399	800.000	0.027	0.091
-134.385	247.734	-0.169	0.281
-133.370	-111.984	-0.134	0.027
-132.356	126.305	-0.118	-0.146
-131.341	104.005	-0.096	0.111
-130.326	-120.393	0.180	0.030
-129.312	460.929	-0.102	-0.223
-128.297	-35.569	-0.068	0.036
-127.283	-58.565	-0.275	-0.117
-126.268	18.189	-0.271	-0.213
-125.253	527.923	-0.126	0.293
-124.239	-58.449	0.177	0.076
-123.224	-8.218	0.118	0.078
